DTS Sentinel unit serial number:	SN410029Multiplexer serial number:	ORYXHardware model number:	OX2-SRSoftware version number:	ORYX F/W v4,00 Oryx Data Collector v3.7.2.0data status	okinstallation	B5 Nyhavnadifferential loss correction	single-endedforward channel	channel 2reverse channel	N/Adate	2023/12/12time	13:57:13forward acquisition time	300,00reverse acquisition time	0,00gamma	499,1914k internal	0,3157k external	0,3157temperature offset calibration	1,0000default loss term (dB/km)	0,3820temperature slope calibration	1,0000multiplexer offset coefficient	1,0000multiplexer slope coefficient	1,0000fibre end	0,00T internal ref (°C)	15,75T ext. ref 1 (°C)	-0,29T ext. ref 2 (°C)	-0,52length (m)	temperature (°C)	Stokes	anti-Stokes-744,400	-200,000	0,024	0,099
-743,385	-59,719	-0,184	-0,058
-742,371	-2,562	0,136	0,070
-741,356	800,000	-0,054	0,120
-740,342	408,276	-0,072	0,112
-739,327	-158,095	-0,419	0,018
-738,312	452,190	-0,047	-0,077
-737,298	-110,736	-0,238	-0,036
-736,283	-18,630	0,158	-0,073
-735,269	115,275	-0,148	0,133
-734,254	-122,734	-0,021	-0,002
-733,239	3,032	-0,395	-0,211
-732,225	39,162	-0,043	0,028
-731,210	-69,236	-0,126	0,036
-730,196	-200,000	0,015	-0,149
-729,181	92,273	-0,021	-0,017
-728,167	-9,544	0,082	-0,040
-727,152	-80,623	0,059	0,014
-726,137	88,345	-0,101	-0,082
-725,123	-64,302	-0,104	0,031
-724,108	-120,823	-0,165	-0,020
-723,094	-88,617	-0,049	0,011
-722,079	-200,000	-0,016	-0,102
-721,064	-200,000	0,006	-0,096
-720,050	-125,671	-0,125	-0,014
-719,035	-200,000	0,030	0,127
-718,021	-200,000	-0,003	0,038
-717,006	82,727	-0,034	-0,027
-715,991	-34,035	0,046	-0,019
-714,977	64,825	-0,126	-0,094
-713,962	800,000	0,067	-0,153
-712,948	-99,636	0,077	-0,014
-711,933	-200,000	0,010	0,064
-710,918	658,225	-0,038	0,071
-709,904	166,857	-0,062	0,065
-708,889	211,447	-0,066	0,076
-707,875	-60,384	-0,006	0,002
-706,860	44,926	-0,072	0,049
-705,845	-83,856	0,086	0,020
-704,831	180,891	-0,101	0,110
-703,816	-96,832	-0,090	-0,017
-702,802	-200,000	-0,010	0,038
-701,787	597,485	-0,068	-0,124
-700,772	231,931	-0,114	-0,138
-699,758	800,000	-0,049	0,106
-698,743	-93,724	-0,146	-0,029
-697,729	444,001	-0,048	-0,078
-696,714	-200,000	-0,017	-0,094
-695,699	75,218	-0,047	-0,036
-694,685	800,000	0,079	-0,240
-693,670	583,695	0,044	-0,080
-692,656	-163,154	0,077	-0,003
-691,641	-60,801	-0,041	-0,013
-690,627	-178,076	0,070	0,001
-689,612	19,138	-0,117	-0,069
-688,597	-200,000	-0,031	-0,126
-687,583	86,086	-0,140	-0,114
-686,568	-166,673	-0,151	-0,005
-685,554	200,831	0,079	0,090
-684,539	-80,102	-0,011	0,003
-683,524	-200,000	-0,010	-0,091
-682,510	-200,000	0,027	-0,129
-681,495	800,000	0,041	0,088
-680,481	76,042	-0,112	0,087
-679,466	-13,328	-0,039	0,018
-678,451	-151,490	-0,061	0,003
-677,437	-96,548	0,025	0,005
-676,422	284,969	0,026	0,034
-675,408	-108,015	0,027	-0,004
-674,393	235,933	-0,089	0,109
-673,378	-200,000	0,015	-0,126
-672,364	-200,000	0,017	-0,137
-671,349	-90,410	-0,066	-0,014
-670,335	-200,000	-0,014	0,072
-669,320	74,312	-0,077	0,060
-668,305	496,819	-0,015	-0,025
-667,291	119,917	-0,068	-0,062
-666,276	51,752	-0,030	0,021
-665,262	-200,000	0,004	-0,029
-664,247	-200,000	-0,000	-0,088
-663,232	714,332	-0,085	-0,167
-662,218	-95,699	0,157	-0,031
-661,203	-200,000	-0,020	0,134
-660,189	-200,000	0,012	-0,071
-659,174	-200,000	0,002	-0,171
-658,159	1,608	-0,144	-0,076
-657,145	164,322	-0,089	-0,092
-656,130	249,627	-0,103	-0,129
-655,116	-200,000	-0,003	0,092
-654,101	800,000	0,133	0,299
-653,086	-169,896	-0,092	0,002
-652,072	-200,000	0,000	-0,119
-651,057	-200,000	0,012	0,100
-650,043	256,562	-0,064	-0,080
-649,028	506,659	-0,015	-0,026
-648,014	319,653	-0,090	-0,126
-646,999	312,010	0,084	-0,115
-645,984	800,000	0,030	-0,072
-644,970	1,267	0,137	0,072
-643,955	-200,000	-0,014	0,149
-642,941	-200,000	-0,001	0,022
-641,926	-200,000	0,041	-0,170
-640,911	46,820	0,093	-0,063
-639,897	109,620	-0,056	-0,050
-638,882	-185,310	0,058	-0,001
-637,868	180,785	-0,066	-0,071
-636,853	800,000	0,021	-0,069
-635,838	-200,000	0,008	0,045
-634,824	800,000	0,037	-0,092
-633,809	296,409	0,077	-0,104
-632,795	-200,000	-0,000	0,037
-631,780	-200,000	0,021	-0,069
-630,765	-200,000	-0,030	-0,107
-629,751	160,394	-0,041	-0,042
-628,736	-123,463	-0,113	0,013
-627,722	-200,000	0,015	0,067
-626,707	-80,245	0,180	0,044
-625,692	-118,225	0,054	0,007
-624,678	-152,738	-0,004	-0,000
-623,663	-16,432	-0,161	0,075
-622,649	-200,000	0,012	0,072
-621,634	382,811	-0,037	-0,056
-620,619	155,976	0,032	0,032
-619,605	-13,037	0,107	0,051
-618,590	-17,465	0,067	-0,031
-617,576	-171,227	0,161	0,004
-616,561	69,271	0,088	0,066
-615,546	-59,701	-0,050	0,016
-614,532	-200,000	-0,014	-0,153
-613,517	80,425	-0,077	0,060
-612,503	800,000	0,029	-0,068
-611,488	191,960	-0,102	-0,113
-610,474	800,000	0,047	0,111
-609,459	715,235	0,024	0,047
-608,444	-17,714	-0,048	-0,022
-607,430	-47,802	-0,119	0,042
-606,415	-25,844	-0,088	0,038
-605,401	-90,186	0,044	0,009
-604,386	-109,301	0,038	0,006
-603,371	64,027	-0,040	-0,029
-602,357	10,936	0,052	-0,029
-601,342	162,661	-0,059	-0,061
-600,328	-157,426	-0,075	-0,003
-599,313	-131,694	-0,086	-0,008
-598,298	-200,000	-0,012	-0,116
-597,284	-110,222	0,129	-0,020
-596,269	13,406	-0,131	-0,074
-595,255	-200,000	-0,008	-0,154
-594,240	800,000	-0,024	-0,067
-593,225	87,266	-0,014	0,011
-592,211	-54,202	-0,119	0,039
-591,196	229,727	0,069	-0,083
-590,182	81,780	-0,047	0,037
-589,167	-10,330	0,088	0,043
-588,152	800,000	-0,026	0,082
-587,138	186,976	0,071	-0,077
-586,123	92,641	0,107	0,088
-585,109	106,264	-0,035	-0,030
-584,094	-137,269	0,124	0,010
-583,079	40,726	-0,095	0,062
-582,065	-200,000	0,015	0,103
-581,050	141,131	-0,080	0,077
-580,036	-89,973	-0,068	0,014
-579,021	-71,472	0,215	0,058
-578,006	800,000	0,046	0,138
-576,992	83,859	-0,075	-0,060
-575,977	-200,000	0,012	0,103
-574,963	-200,000	-0,003	0,043
-573,948	-97,792	-0,132	0,025
-572,934	-200,000	-0,007	-0,035
-571,919	211,935	-0,083	-0,096
-570,904	-108,155	-0,104	0,016
-569,890	-133,496	-0,052	-0,005
-568,875	575,896	0,002	-0,004
-567,861	-80,420	-0,061	-0,015
-566,846	-200,000	0,033	0,108
-565,831	694,214	-0,043	0,084
-564,817	-200,000	0,008	0,095
-563,802	-200,000	-0,017	-0,072
-562,788	-40,269	-0,081	0,031
-561,773	-200,000	-0,024	-0,082
-560,758	114,059	0,041	-0,037
-559,744	-62,520	0,037	0,011
-558,729	-91,176	0,101	0,021
-557,715	-200,000	0,009	0,170
-556,700	71,831	-0,225	-0,171
-555,685	82,933	-0,035	0,028
-554,671	-64,359	0,054	-0,016
-553,656	-200,000	-0,020	0,121
-552,642	250,284	0,060	0,075
-551,627	59,542	-0,104	-0,075
-550,612	333,607	0,034	0,048
-549,598	25,761	0,033	-0,020
-548,583	-200,000	0,013	-0,066
-547,569	-134,430	-0,084	-0,007
-546,554	-80,944	0,166	0,040
-545,539	667,919	-0,035	0,067
-544,525	17,776	0,142	0,082
-543,510	114,220	-0,063	-0,056
-542,496	-200,000	0,071	-0,231
-541,481	398,155	0,053	-0,081
-540,466	104,620	-0,040	0,035
-539,452	158,903	-0,009	0,009
-538,437	800,000	0,058	0,134
-537,423	-200,000	-0,019	0,089
-536,408	-200,000	-0,020	0,081
-535,393	-28,265	-0,101	-0,043
-534,379	800,000	0,021	0,049
-533,364	58,679	-0,071	-0,051
-532,350	-200,000	0,009	-0,093
-531,335	-149,475	-0,080	0,005
-530,321	800,000	-0,029	0,071
-529,306	52,366	-0,107	0,074
-528,291	-28,038	-0,076	0,032
-527,277	-83,008	-0,121	-0,028
-526,262	677,560	0,034	0,064
-525,248	-24,805	0,134	0,058
-524,233	800,000	0,038	0,082
-523,218	800,000	0,016	0,049
-522,204	-31,181	-0,103	0,042
-521,189	800,000	-0,027	-0,060
-520,175	-200,000	0,021	0,073
-519,160	761,693	-0,033	-0,066
-518,145	-151,892	0,041	0,002
-517,131	-76,393	-0,055	0,014
-516,116	800,000	-0,046	0,110
-515,102	-108,824	-0,006	0,001
-514,087	38,385	-0,022	-0,014
-513,072	-200,000	0,018	-0,145
-512,058	-20,321	-0,130	-0,058
-511,043	783,409	-0,016	-0,031
-510,029	111,376	0,024	-0,021
-509,014	-88,524	0,076	-0,016
-507,999	-78,462	0,131	-0,033
-506,985	15,768	0,053	-0,030
-505,970	-182,368	-0,131	0,002
-504,956	686,624	-0,048	-0,091
-503,941	34,140	-0,054	-0,035
-502,926	-67,280	0,129	-0,037
-501,912	192,117	-0,069	0,076
-500,897	73,635	0,110	0,084
-499,883	115,452	0,078	0,070
-498,868	183,329	0,021	-0,023
-497,853	800,000	-0,044	-0,115
-496,839	284,004	0,069	-0,091
-495,824	-80,021	0,072	0,018
-494,810	800,000	-0,003	0,008
-493,795	-42,519	-0,081	0,030
-492,781	800,000	0,078	0,185
-491,766	-200,000	-0,020	-0,067
-490,751	122,969	-0,083	-0,076
-489,737	30,833	0,059	-0,037
-488,722	800,000	-0,005	-0,012
-487,708	53,963	-0,031	-0,021
-486,693	23,670	-0,086	-0,051
-485,678	-105,948	0,220	0,036
-484,664	-83,634	-0,164	-0,038
-483,649	-200,000	-0,001	-0,020
-482,635	38,013	-0,124	-0,080
-481,620	-80,438	0,048	-0,012
-480,605	800,000	-0,029	0,075
-479,591	-153,223	0,026	0,001
-478,576	-49,526	-0,112	0,039
-477,562	712,808	-0,056	0,108
-476,547	-200,000	-0,015	-0,079
-475,532	-200,000	-0,001	-0,106
-474,518	-40,594	0,095	-0,036
-473,503	-7,978	-0,052	0,026
-472,489	92,170	-0,073	0,060
-471,474	607,721	0,078	-0,142
-470,459	-35,434	-0,073	-0,029
-469,445	-135,354	-0,161	0,014
-468,430	75,496	0,012	-0,009
-467,416	-200,000	0,006	-0,096
-466,401	800,000	-0,011	0,025
-465,386	214,768	0,058	0,067
-464,372	31,341	0,076	-0,048
-463,357	-16,850	0,103	-0,047
-462,343	-10,388	-0,082	-0,040
-461,328	577,530	0,027	0,049
-460,313	135,688	-0,051	0,048
-459,299	-200,000	-0,010	0,086
-458,284	-200,000	0,041	0,162
-457,270	-200,000	0,003	-0,062
-456,255	268,155	0,036	-0,047
-455,241	-74,505	-0,039	0,010
-454,226	41,554	-0,134	-0,088
-453,211	369,315	0,040	-0,060
-452,197	800,000	0,028	0,087
-451,182	-200,000	0,014	-0,068
-450,168	-158,743	0,047	-0,002
-449,153	27,323	-0,118	0,072
-448,138	261,307	-0,066	0,083
-447,124	-58,008	0,013	0,004
-446,109	507,976	0,031	-0,053
-445,095	-200,000	-0,014	0,058
-444,080	568,366	-0,072	-0,128
-443,065	-108,075	0,009	0,001
-442,051	800,000	-0,032	0,065
-441,036	-26,099	-0,077	0,033
-440,022	288,244	0,061	-0,081
-439,007	-200,000	0,021	-0,162
-437,992	-122,592	0,152	0,018
-436,978	119,630	-0,100	0,091
-435,963	-36,963	-0,093	-0,036
-434,949	800,000	-0,021	0,051
-433,934	-30,260	-0,090	0,037
-432,919	249,286	0,035	0,043
-431,905	-75,354	0,032	-0,008
-430,890	800,000	-0,057	0,116
-429,876	-61,946	-0,070	0,021
-428,861	272,368	0,063	0,081
-427,846	-110,202	0,050	-0,008
-426,832	800,000	-0,016	0,037
-425,817	12,751	-0,068	-0,038
-424,803	226,067	0,028	0,033
-423,788	157,921	0,158	0,160
-422,773	131,036	0,037	0,035
-421,759	214,197	0,049	-0,056
-420,744	-200,000	0,025	0,083
-419,730	-200,000	0,002	0,008
-418,715	-200,000	0,006	-0,051
-417,701	-23,961	0,126	0,054
-416,686	-200,000	-0,003	0,154
-415,671	800,000	0,039	0,107
-414,657	43,920	0,080	0,053
-413,642	473,063	-0,014	0,023
-412,628	-68,219	0,083	0,023
-411,613	-200,000	0,010	-0,163
-410,598	-49,491	-0,107	-0,037
-409,584	108,359	0,116	-0,101
-408,569	-87,237	-0,037	0,008
-407,555	800,000	0,024	0,058
-406,540	83,227	-0,056	-0,044
-405,525	107,497	-0,057	-0,049
-404,511	800,000	0,021	0,055
-403,496	-59,650	0,088	0,027
-402,482	211,181	0,028	-0,032
-401,467	-200,000	0,033	0,127
-400,452	779,789	0,017	0,034
-399,438	-42,153	-0,064	0,024
-398,423	-129,161	-0,034	-0,003
-397,409	-37,499	-0,073	-0,028
-396,394	7,647	0,156	0,084
-395,379	-29,240	0,076	0,032
-394,365	-200,000	0,003	-0,034
-393,350	-200,000	0,013	-0,068
-392,336	83,402	0,104	0,082
-391,321	-176,355	-0,169	-0,003
-390,306	-200,000	-0,027	-0,192
-389,292	259,605	0,046	-0,058
-388,277	74,377	0,049	0,037
-387,263	800,000	-0,004	0,011
-386,248	131,597	-0,059	-0,055
-385,233	800,000	0,006	-0,018
-384,219	326,788	0,024	-0,034
-383,204	138,658	-0,115	0,110
-382,190	59,050	0,097	-0,069
-381,175	-187,540	-0,024	0,000
-380,160	-200,000	-0,001	-0,029
-379,146	147,782	-0,004	-0,004
-378,131	45,599	-0,086	-0,058
-377,117	-72,995	-0,149	-0,040
-376,102	800,000	-0,035	-0,098
-375,088	180,851	0,017	-0,018
-374,073	800,000	0,046	-0,115
-373,058	-63,319	0,182	0,054
-372,044	-200,000	0,037	0,147
-371,029	267,583	0,060	0,077
-370,015	800,000	0,057	0,173
-369,000	-79,317	0,052	0,013
-367,985	163,405	-0,050	-0,051
-366,971	74,321	0,003	-0,003
-365,956	-113,347	0,135	-0,019
-364,942	-171,818	-0,069	-0,002
-363,927	-15,430	0,112	-0,052
-362,912	-200,000	0,018	-0,081
-361,898	6,295	-0,046	0,025
-360,883	800,000	0,047	-0,098
-359,869	-200,000	0,007	-0,125
-358,854	-99,434	-0,127	-0,023
-357,839	-200,000	-0,006	0,067
-356,825	-41,848	0,105	-0,039
-355,810	-34,891	0,050	-0,020
-354,796	-16,615	-0,048	0,022
-353,781	-192,025	-0,080	0,001
-352,766	663,123	0,042	0,078
-351,752	-121,627	0,113	-0,013
-350,737	10,924	-0,029	-0,016
-349,723	67,505	0,060	-0,045
-348,708	-164,994	0,136	-0,004
-347,693	-30,576	0,120	-0,049
-346,679	800,000	-0,007	0,015
-345,664	-200,000	-0,039	0,145
-344,650	-144,044	0,095	0,006
-343,635	92,480	0,060	-0,049
-342,620	-116,472	0,083	-0,011
-341,606	-44,269	0,029	-0,011
-340,591	800,000	-0,029	-0,072
-339,577	-200,000	0,021	-0,124
-338,562	85,270	-0,021	-0,017
-337,548	-200,000	-0,000	0,030
-336,533	73,761	0,115	-0,087
-335,518	119,338	-0,087	0,079
-334,504	-200,000	0,005	0,098
-333,489	-126,186	0,059	0,006
-332,475	-51,439	-0,058	-0,019
-331,460	-200,000	-0,049	-0,176
-330,445	-200,000	0,001	-0,094
-329,431	-91,114	-0,109	-0,022
-328,416	800,000	0,022	-0,059
-327,402	-88,602	-0,047	0,010
-326,387	258,030	-0,062	-0,077
-325,372	339,083	-0,036	-0,050
-324,358	-12,454	-0,134	0,063
-323,343	-95,823	0,106	-0,020
-322,329	800,000	0,023	0,056
-321,314	-200,000	-0,004	0,061
-320,299	-200,000	-0,019	0,148
-319,285	-152,095	0,162	-0,008
-318,270	217,522	-0,052	-0,060
-317,256	489,244	-0,030	-0,049
-316,241	-27,854	0,092	0,039
-315,226	323,175	0,073	0,102
-314,212	-200,000	0,006	0,102
-313,197	-163,923	-0,088	0,003
-312,183	50,343	0,170	-0,117
-311,168	55,668	-0,033	0,023
-310,153	597,879	0,058	0,106
-309,139	566,945	-0,064	-0,114
-308,124	16,639	-0,055	0,032
-307,110	100,590	0,099	0,084
-306,095	-200,000	-0,040	0,155
-305,080	67,430	0,091	-0,067
-304,066	-200,000	0,013	-0,137
-303,051	-200,000	0,005	0,039
-302,037	454,828	-0,103	0,166
-301,022	-62,853	-0,066	-0,020
-300,008	-45,116	0,136	0,049
-298,993	800,000	0,029	0,059
-297,978	-200,000	-0,015	-0,081
-296,964	67,232	-0,077	-0,057
-295,949	71,519	-0,135	-0,102
-294,935	122,215	-0,095	-0,086
-293,920	800,000	0,038	-0,086
-292,905	-172,327	0,095	-0,002
-291,891	744,858	-0,032	0,063
-290,876	38,312	-0,082	0,053
-289,862	-68,703	0,047	0,013
-288,847	259,641	-0,050	0,062
-287,832	59,893	0,049	0,035
-286,818	800,000	0,033	0,074
-285,803	-200,000	0,008	0,127
-284,789	-68,969	0,033	-0,009
-283,774	-140,940	0,035	0,003
-282,759	53,227	0,103	-0,071
-281,745	-36,208	-0,066	-0,025
-280,730	-200,000	-0,004	0,058
-279,716	-200,000	0,000	0,053
-278,701	84,415	0,035	0,028
-277,686	52,260	0,126	-0,087
-276,672	185,721	-0,057	-0,061
-275,657	800,000	-0,031	0,078
-274,643	-200,000	-0,013	-0,095
-273,628	602,439	-0,051	-0,093
-272,613	800,000	0,015	-0,032
-271,599	-85,139	0,145	-0,032
-270,584	92,451	-0,030	-0,024
-269,570	303,661	0,036	0,048
-268,555	153,347	0,095	0,094
-267,540	-94,450	-0,133	-0,026
-266,526	-101,184	-0,108	0,019
-265,511	64,699	-0,026	-0,019
-264,497	-200,000	0,026	0,106
-263,482	-62,147	0,150	0,045
-262,467	46,199	0,123	0,082
-261,453	800,000	0,050	0,145
-260,438	-23,373	-0,046	-0,020
-259,424	800,000	-0,030	-0,069
-258,409	-98,640	-0,135	-0,025
-257,395	800,000	-0,063	0,141
-256,380	2,691	0,088	-0,046
-255,365	-18,506	0,027	0,012
-254,351	12,118	0,062	0,035
-253,336	-118,767	0,091	0,011
-252,322	-200,000	0,010	0,107
-251,307	621,971	0,022	0,040
-250,292	59,409	-0,075	-0,053
-249,278	800,000	-0,021	0,056
-248,263	-44,412	-0,082	0,029
-247,249	99,356	-0,042	-0,035
-246,234	-200,000	-0,011	-0,036
-245,219	-200,000	-0,040	-0,173
-244,205	-200,000	-0,004	-0,209
-243,190	288,220	-0,047	-0,062
-242,176	9,460	-0,070	-0,038
-241,161	-143,717	0,102	-0,007
-240,146	800,000	0,039	-0,124
-239,132	-25,710	0,111	-0,047
-238,117	-200,000	-0,000	0,040
-237,103	-200,000	0,007	-0,119
-236,088	425,698	0,010	0,015
-235,073	571,168	0,103	0,183
-234,059	-48,969	-0,055	0,019
-233,044	-158,118	-0,137	-0,006
-232,030	-49,847	0,143	0,049
-231,015	38,707	-0,102	-0,066
-230,000	-2,083	-0,105	0,053
-228,986	800,000	-0,019	-0,050
-227,971	800,000	0,025	0,077
-226,957	-157,003	-0,062	-0,003
-225,942	-200,000	0,005	0,093
-224,927	-200,000	-0,018	-0,078
-223,913	30,148	-0,100	-0,061
-222,898	-200,000	-0,026	-0,181
-221,884	800,000	0,026	-0,082
-220,869	-141,880	-0,049	0,003
-219,855	-85,980	0,050	-0,011
-218,840	-5,494	-0,177	0,088
-217,825	209,182	-0,051	0,058
-216,811	121,754	-0,150	-0,135
-215,796	-158,528	-0,056	0,002
-214,782	171,196	0,069	0,072
-213,767	-200,000	-0,022	-0,074
-212,752	60,641	0,177	-0,127
-211,738	128,579	-0,096	0,088
-210,723	-200,000	-0,020	-0,105
-209,709	800,000	0,043	-0,108
-208,694	-200,000	0,019	-0,107
-207,679	-23,789	0,028	0,012
-206,665	800,000	-0,036	0,102
-205,650	800,000	-0,011	-0,024
-204,636	64,474	-0,116	-0,085
-203,621	562,862	-0,050	-0,088
-202,606	494,671	0,009	0,015
-201,592	407,569	-0,074	-0,113
-200,577	800,000	0,022	-0,063
-199,563	64,861	-0,037	0,027
-198,548	-200,000	-0,018	0,101
-197,533	800,000	0,006	-0,015
-196,519	-41,589	0,130	0,048
-195,504	-38,859	0,077	0,029
-194,490	743,986	0,045	0,089
-193,475	-200,000	-0,014	-0,048
-192,460	2,800	-0,018	0,010
-191,446	-43,112	-0,058	0,021
-190,431	800,000	0,037	0,078
-189,417	415,145	-0,068	0,105
-188,402	220,578	-0,082	0,095
-187,387	-71,624	-0,112	0,030
-186,373	110,412	0,052	0,045
-185,358	371,686	-0,030	0,044
-184,344	-111,365	0,057	-0,008
-183,329	208,254	0,051	0,058
-182,315	-200,000	-0,010	0,066
-181,300	-200,000	-0,015	0,062
-180,285	235,499	-0,062	-0,074
-179,271	0,218	-0,087	0,044
-178,256	800,000	0,044	0,100
-177,242	-200,000	0,005	0,108
-176,227	-169,690	0,038	-0,001
-175,212	123,810	-0,070	0,064
-174,198	329,311	0,064	0,089
-173,183	100,388	-0,080	-0,067
-172,169	-144,731	-0,035	-0,002
-171,154	-70,090	-0,097	0,026
-170,139	14,896	0,051	0,029
-169,125	10,396	0,098	-0,054
-168,110	-9,933	0,040	-0,019
-167,096	152,570	0,011	0,011
-166,081	229,516	0,055	-0,064
-165,066	42,094	0,057	0,037
-164,052	-200,000	0,004	-0,103
-163,037	58,655	0,084	-0,059
-162,023	-145,662	-0,024	-0,002
-161,008	183,194	-0,085	0,090
-159,993	-200,000	0,011	0,066
-158,979	-200,000	-0,023	-0,149
-157,964	726,565	0,019	-0,036
-156,950	-142,057	-0,043	0,003
-155,935	367,958	0,058	0,084
-154,920	-200,000	0,023	0,082
-153,906	800,000	0,022	0,064
-152,891	611,214	0,036	-0,066
-151,877	-125,305	-0,156	-0,017
-150,862	-200,000	0,005	-0,133
-149,847	-68,201	-0,108	-0,030
-148,833	-96,150	0,139	0,026
-147,818	-84,222	-0,073	-0,017
-146,804	800,000	0,028	0,072
-145,789	226,732	-0,085	0,100
-144,775	23,764	-0,042	-0,025
-143,760	30,510	0,040	0,025
-142,745	-200,000	-0,008	-0,043
-141,731	-25,973	-0,126	0,053
-140,716	-34,680	0,066	-0,026
-139,702	800,000	-0,005	-0,015
-138,687	337,624	0,027	0,038
-137,672	-151,733	-0,100	0,005
-136,658	-26,956	0,006	-0,003
-135,643	369,777	-0,058	0,084
-134,629	-200,000	0,004	-0,071
-133,614	167,799	-0,123	-0,126
-132,599	-200,000	-0,022	-0,149
-131,585	727,751	-0,016	-0,031
-130,570	36,656	-0,062	0,040
-129,556	-132,803	-0,061	-0,005
-128,541	800,000	0,032	-0,097
-127,526	109,456	0,065	-0,056
-126,512	235,683	-0,075	-0,089
-125,497	38,665	0,045	-0,029
-124,483	287,119	-0,006	0,007
-123,468	-124,130	-0,022	-0,002
-122,453	-86,293	0,071	-0,016
-121,439	-119,575	-0,074	0,009
-120,424	-79,296	0,058	0,014
-119,410	-16,863	0,114	0,052
