DTS Sentinel unit serial number:	SN410029Multiplexer serial number:	ORYXHardware model number:	OX2-SRSoftware version number:	ORYX F/W v4,00 Oryx Data Collector v3.7.2.0data status	okinstallation	B5 Nyhavnadifferential loss correction	single-endedforward channel	channel 2reverse channel	N/Adate	2023/12/12time	13:07:13forward acquisition time	300,00reverse acquisition time	0,00gamma	499,1914k internal	0,3158k external	0,3158temperature offset calibration	1,0000default loss term (dB/km)	0,3820temperature slope calibration	1,0000multiplexer offset coefficient	1,0000multiplexer slope coefficient	1,0000fibre end	0,00T internal ref (°C)	15,51T ext. ref 1 (°C)	-0,39T ext. ref 2 (°C)	-0,66length (m)	temperature (°C)	Stokes	anti-Stokes-744,400	-103,786	0,126	0,021
-743,385	-119,523	-0,256	-0,032
-742,371	103,215	0,118	-0,102
-741,356	-30,887	-0,259	0,107
-740,342	14,355	0,096	0,055
-739,327	-96,110	-0,386	-0,075
-738,312	-200,000	-0,034	-0,140
-737,298	-18,478	-0,216	-0,099
-736,283	-147,540	0,205	0,013
-735,269	-66,604	-0,220	0,064
-734,254	-145,943	0,140	-0,009
-733,239	-64,706	-0,381	-0,113
-732,225	-200,000	0,015	0,053
-731,210	305,807	0,017	0,023
-730,196	399,118	0,056	0,087
-729,181	800,000	-0,035	0,093
-728,167	586,521	0,052	0,095
-727,152	-131,022	-0,038	0,004
-726,137	97,418	-0,070	-0,060
-725,123	-109,532	-0,138	0,021
-724,108	215,407	-0,075	0,087
-723,094	-200,000	-0,006	-0,143
-722,079	-6,556	0,125	-0,062
-721,064	800,000	-0,028	0,058
-720,050	-121,558	-0,092	-0,011
-719,035	381,127	0,052	0,078
-718,021	800,000	-0,075	0,167
-717,006	-166,425	-0,303	-0,009
-715,991	295,655	-0,077	-0,105
-714,977	-200,000	-0,014	-0,110
-713,962	-110,440	-0,021	0,003
-712,948	-200,000	0,002	-0,125
-711,933	-117,302	-0,069	-0,009
-710,918	800,000	-0,011	-0,037
-709,904	-140,668	-0,150	-0,011
-708,889	15,962	-0,069	-0,040
-707,875	-99,423	-0,099	-0,018
-706,860	-200,000	-0,007	0,126
-705,845	-136,355	0,075	0,006
-704,831	-200,000	0,009	-0,048
-703,816	-11,520	0,076	-0,037
-702,802	-98,106	0,042	0,008
-701,787	-200,000	0,017	-0,116
-700,772	-82,435	-0,063	-0,015
-699,758	143,982	0,092	0,090
-698,743	-200,000	0,016	0,070
-697,729	-105,938	-0,120	0,020
-696,714	-200,000	-0,014	0,065
-695,699	-125,612	-0,187	-0,021
-694,685	-200,000	0,002	0,019
-693,670	-200,000	-0,029	-0,098
-692,656	11,178	0,137	0,077
-691,641	241,912	-0,038	0,047
-690,627	-67,003	-0,040	0,011
-689,612	334,486	-0,052	0,074
-688,597	535,996	-0,046	-0,080
-687,583	0,930	0,047	-0,025
-686,568	124,060	-0,047	0,043
-685,554	-47,034	-0,061	-0,022
-684,539	-200,000	-0,010	-0,081
-683,524	-200,000	0,049	-0,172
-682,510	-200,000	0,003	0,041
-681,495	176,840	-0,020	0,021
-680,481	-200,000	0,014	-0,094
-679,466	-200,000	0,015	-0,052
-678,451	-57,041	-0,058	-0,019
-677,437	-41,871	-0,205	-0,077
-676,422	-200,000	-0,010	0,112
-675,408	-200,000	0,002	0,016
-674,393	26,821	-0,008	0,005
-673,378	422,210	-0,055	-0,087
-672,364	800,000	-0,062	-0,150
-671,349	-200,000	0,015	-0,060
-670,335	18,501	-0,081	-0,048
-669,320	-200,000	0,021	0,100
-668,305	176,589	-0,026	-0,028
-667,291	-67,703	-0,064	-0,018
-666,276	191,277	0,045	0,050
-665,262	-157,770	-0,110	0,005
-664,247	53,660	-0,060	0,042
-663,232	800,000	0,017	0,035
-662,218	-200,000	0,001	0,071
-661,203	-89,708	-0,052	0,011
-660,189	-200,000	-0,006	-0,053
-659,174	694,053	-0,037	0,072
-658,159	-47,268	-0,045	0,016
-657,145	-95,385	-0,081	-0,016
-656,130	124,521	0,070	0,064
-655,116	800,000	0,048	-0,103
-654,101	-171,752	-0,027	-0,001
-653,086	-200,000	-0,004	-0,041
-652,072	308,950	-0,023	-0,032
-651,057	-59,301	-0,102	-0,032
-650,043	292,610	-0,013	0,017
-649,028	-110,036	0,037	0,006
-648,014	568,875	0,068	0,122
-646,999	-107,730	-0,087	-0,014
-645,984	-200,000	-0,031	0,110
-644,970	-38,214	-0,084	-0,032
-643,955	55,279	0,094	-0,066
-642,941	-100,757	-0,105	-0,019
-641,926	-200,000	0,012	-0,093
-640,911	800,000	0,033	-0,081
-639,897	-57,555	-0,059	-0,019
-638,882	136,273	0,047	0,045
-637,868	-23,342	-0,101	-0,044
-636,853	-95,301	-0,124	-0,024
-635,838	800,000	0,046	-0,108
-634,824	-78,074	-0,056	-0,014
-633,809	-200,000	-0,022	0,079
-632,795	800,000	-0,031	0,080
-631,780	-82,333	0,161	0,038
-630,765	-200,000	0,005	-0,077
-629,751	-48,817	-0,151	-0,053
-628,736	800,000	0,020	-0,049
-627,722	-20,599	-0,078	-0,035
-626,707	-200,000	0,005	0,019
-625,692	-49,862	-0,078	-0,027
-624,678	56,350	-0,061	-0,043
-623,663	79,226	-0,060	-0,047
-622,649	800,000	-0,024	-0,056
-621,634	-84,127	-0,098	-0,023
-620,619	545,086	-0,045	-0,079
-619,605	52,632	0,047	0,033
-618,590	-45,333	-0,082	0,030
-617,576	400,462	-0,090	0,139
-616,561	4,832	0,112	-0,060
-615,546	418,403	0,062	-0,097
-614,532	504,896	-0,013	-0,023
-613,517	-28,278	-0,012	0,005
-612,503	-178,199	-0,070	0,001
-611,488	800,000	-0,031	-0,075
-610,474	286,630	-0,017	0,022
-609,459	189,600	0,015	-0,016
-608,444	277,781	0,040	-0,052
-607,430	459,691	-0,151	-0,247
-606,415	-58,721	0,028	0,009
-605,401	800,000	0,029	0,069
-604,386	800,000	-0,043	-0,115
-603,371	340,888	0,021	0,031
-602,357	-82,942	0,049	0,011
-601,342	-45,446	-0,064	-0,023
-600,328	189,440	-0,066	0,072
-599,313	-200,000	0,004	-0,137
-598,298	102,770	-0,024	0,020
-597,284	-163,298	0,034	-0,001
-596,269	800,000	-0,035	-0,094
-595,255	159,502	0,046	-0,047
-594,240	120,114	-0,063	0,057
-593,225	616,185	-0,037	0,067
-592,211	112,146	-0,079	-0,070
-591,196	180,526	-0,092	-0,100
-590,182	-64,581	-0,012	0,003
-589,167	16,528	-0,027	0,016
-588,152	-51,404	-0,063	0,021
-587,138	64,198	-0,087	-0,064
-586,123	-95,792	-0,101	0,020
-585,109	-200,000	0,031	-0,104
-584,094	-81,251	0,053	-0,013
-583,079	-200,000	0,010	0,120
-582,065	102,416	-0,016	0,013
-581,050	123,998	0,089	0,082
-580,036	287,111	-0,028	-0,037
-579,021	262,702	-0,067	0,086
-578,006	652,959	0,042	0,080
-576,992	74,583	0,056	-0,043
-575,977	-200,000	-0,004	-0,057
-574,963	612,743	-0,014	0,026
-573,948	-200,000	-0,017	0,166
-572,934	-113,509	-0,086	0,012
-571,919	-10,201	-0,123	-0,060
-570,904	58,102	-0,132	-0,094
-569,890	-115,329	0,107	-0,015
-568,875	-131,049	0,039	0,004
-567,861	-58,752	0,067	-0,021
-566,846	-131,395	-0,122	0,012
-565,831	-2,524	0,052	0,026
-564,817	146,814	-0,150	-0,148
-563,802	-3,312	-0,042	-0,021
-562,788	-52,141	-0,085	0,029
-561,773	-98,636	0,050	-0,009
-560,758	-51,260	0,013	-0,004
-559,744	-64,947	0,062	0,018
-558,729	-200,000	-0,025	0,100
-557,715	-66,278	0,070	-0,020
-556,700	332,008	-0,095	-0,134
-555,685	-200,000	-0,014	-0,104
-554,671	13,394	0,092	-0,052
-553,656	-200,000	-0,010	-0,065
-552,642	459,926	0,078	0,128
-551,627	308,824	-0,031	-0,043
-550,612	289,485	0,013	-0,018
-549,598	175,873	-0,014	0,015
-548,583	-200,000	0,021	0,130
-547,569	800,000	0,026	0,080
-546,554	-200,000	-0,008	0,097
-545,539	-30,664	-0,034	-0,014
-544,525	319,171	0,074	0,103
-543,510	-200,000	-0,037	-0,162
-542,496	56,137	-0,062	0,044
-541,481	-71,161	-0,148	-0,040
-540,466	-14,518	0,065	0,030
-539,452	390,904	0,017	0,026
-538,437	296,695	-0,054	-0,072
-537,423	169,366	0,057	0,059
-536,408	572,763	0,008	-0,015
-535,393	258,371	0,052	0,065
-534,379	-200,000	0,009	0,092
-533,364	-146,602	-0,079	0,005
-532,350	-134,834	0,113	0,010
-531,335	-200,000	0,015	0,130
-530,321	9,795	-0,062	-0,034
-529,306	202,019	-0,103	0,116
-528,291	800,000	0,028	0,074
-527,277	-74,719	-0,019	0,005
-526,262	-200,000	0,011	-0,055
-525,248	-200,000	0,001	-0,005
-524,233	-200,000	0,006	-0,075
-523,218	-200,000	-0,014	0,066
-522,204	307,574	0,040	0,055
-521,189	370,692	-0,067	-0,100
-520,175	-200,000	-0,014	0,054
-519,160	-147,578	-0,114	-0,007
-518,145	-126,143	0,119	0,013
-517,131	128,205	0,180	0,167
-516,116	-200,000	0,018	-0,144
-515,102	-200,000	-0,033	-0,154
-514,087	-72,271	-0,172	0,046
-513,072	178,700	-0,027	0,029
-512,058	-52,891	-0,044	0,015
-511,043	-105,883	0,066	0,011
-510,029	-24,368	0,013	0,006
-509,014	68,117	0,100	0,075
-507,999	-133,630	0,081	-0,007
-506,985	-57,438	-0,095	-0,030
-505,970	800,000	0,038	-0,117
-504,956	-200,000	0,026	0,117
-503,941	76,822	0,047	0,037
-502,926	-21,524	-0,066	-0,029
-501,912	-98,333	0,153	-0,028
-500,897	71,795	0,060	-0,046
-499,883	13,127	-0,136	0,077
-498,868	272,755	-0,071	-0,092
-497,853	217,384	-0,050	0,058
-496,839	-200,000	-0,019	0,093
-495,824	173,236	-0,073	0,076
-494,810	224,925	-0,065	0,077
-493,795	66,768	-0,100	0,074
-492,781	-98,479	-0,111	-0,021
-491,766	-200,000	-0,016	-0,078
-490,751	67,910	0,096	-0,072
-489,737	-200,000	0,035	0,184
-488,722	163,336	0,028	-0,029
-487,708	207,690	-0,015	0,018
-486,693	800,000	-0,045	0,137
-485,678	-26,370	-0,172	-0,073
-484,664	-20,201	-0,073	0,032
-483,649	-109,854	0,121	0,018
-482,635	58,228	0,033	0,023
-481,620	-200,000	-0,001	0,071
-480,605	-78,988	-0,068	-0,017
-479,591	450,914	0,074	0,119
-478,576	259,191	-0,039	0,049
-477,562	66,944	-0,056	-0,042
-476,547	53,562	0,049	0,034
-475,532	-80,369	0,014	0,003
-474,518	800,000	0,053	-0,130
-473,503	-12,946	0,102	-0,048
-472,489	-60,678	0,116	-0,036
-471,474	-94,959	0,052	-0,010
-470,459	234,957	0,096	-0,116
-469,445	-200,000	0,045	-0,183
-468,430	-200,000	-0,022	-0,088
-467,416	-200,000	-0,011	-0,079
-466,401	800,000	0,026	0,064
-465,386	293,273	0,063	0,084
-464,372	306,973	0,039	0,053
-463,357	-200,000	-0,000	-0,125
-462,343	800,000	0,046	-0,112
-461,328	86,739	-0,055	-0,044
-460,313	-200,000	0,011	-0,184
-459,299	-200,000	0,014	-0,080
-458,284	-83,200	-0,011	-0,003
-457,270	197,968	-0,075	0,083
-456,255	-47,270	0,097	0,034
-455,241	96,692	-0,062	-0,052
-454,226	-93,559	-0,101	-0,020
-453,211	-81,312	0,118	0,028
-452,197	-95,480	0,122	0,024
-451,182	-200,000	-0,001	0,076
-450,168	-200,000	-0,051	0,191
-449,153	-200,000	0,043	0,203
-448,138	-89,932	-0,191	0,040
-447,124	284,284	0,054	0,072
-446,109	-200,000	0,024	-0,114
-445,095	-200,000	-0,001	-0,009
-444,080	800,000	0,036	-0,113
-443,065	-200,000	0,013	0,074
-442,051	436,647	-0,025	-0,040
-441,036	-45,053	-0,040	0,014
-440,022	42,794	-0,055	-0,036
-439,007	-39,566	0,109	-0,042
-437,992	800,000	0,045	0,135
-436,978	-32,460	-0,013	0,005
-435,963	-200,000	0,017	0,089
-434,949	800,000	-0,014	0,029
-433,934	-60,205	-0,089	-0,027
-432,919	-200,000	-0,016	-0,114
-431,905	800,000	0,039	-0,079
-430,890	-117,232	0,071	-0,009
-429,876	117,448	-0,072	-0,065
-428,861	268,838	-0,038	-0,049
-427,846	-200,000	-0,024	-0,107
-426,832	-200,000	-0,029	-0,110
-425,817	-200,000	0,013	-0,149
-424,803	-118,358	0,064	0,008
-423,788	800,000	0,063	0,137
-422,773	-86,881	0,101	0,022
-421,759	205,159	0,038	-0,043
-420,744	224,614	-0,045	0,053
-419,730	-110,716	0,076	-0,011
-418,715	-61,849	0,016	0,005
-417,701	-128,654	0,099	-0,010
-416,686	-11,220	0,053	0,025
-415,671	-200,000	-0,005	0,136
-414,657	754,992	0,037	0,073
-413,642	800,000	0,022	-0,063
-412,628	-200,000	0,014	-0,048
-411,613	-45,374	0,176	0,063
-410,598	2,641	-0,078	0,041
-409,584	-200,000	-0,002	-0,015
-408,569	601,225	-0,030	-0,055
-407,555	800,000	0,015	0,036
-406,540	-117,052	-0,023	-0,003
-405,525	-144,676	-0,134	0,009
-404,511	-200,000	-0,003	-0,047
-403,496	-78,125	0,148	0,037
-402,482	-22,474	0,119	-0,052
-401,467	-123,625	0,050	-0,006
-400,452	-200,000	0,009	-0,035
-399,438	-200,000	0,021	0,150
-398,423	23,802	-0,046	0,028
-397,409	225,473	-0,125	-0,147
-396,394	254,370	-0,025	-0,031
-395,379	-200,000	-0,005	0,124
-394,365	-1,484	0,151	0,077
-393,350	30,593	-0,029	0,018
-392,336	77,868	-0,019	-0,015
-391,321	-93,364	-0,085	0,017
-390,306	538,276	-0,041	-0,072
-389,292	-200,000	-0,009	0,072
-388,277	-200,000	-0,007	0,057
-387,263	-61,481	0,084	0,026
-386,248	-200,000	-0,016	0,118
-385,233	141,251	0,153	0,147
-384,219	-200,000	-0,012	0,074
-383,204	-200,000	-0,005	0,017
-382,190	-31,659	0,088	0,036
-381,175	319,991	0,088	0,121
-380,160	228,903	-0,013	0,016
-379,146	-63,735	-0,079	-0,023
-378,131	-17,314	-0,043	0,019
-377,117	800,000	0,035	0,098
-376,102	-120,298	-0,034	-0,004
-375,088	-18,427	-0,106	0,048
-374,073	-27,345	-0,201	0,085
-373,058	800,000	-0,068	-0,151
-372,044	93,266	0,071	0,058
-371,029	-200,000	-0,009	0,090
-370,015	57,199	-0,059	0,042
-369,000	-126,132	0,025	0,003
-367,985	640,321	0,028	-0,052
-366,971	-200,000	0,008	0,076
-365,956	-125,934	0,200	-0,022
-364,942	800,000	0,024	0,055
-363,927	-131,668	0,025	-0,002
-362,912	800,000	0,053	0,153
-361,898	-200,000	-0,020	0,131
-360,883	-54,170	-0,147	0,048
-359,869	-200,000	-0,019	-0,064
-358,854	-200,000	0,016	-0,127
-357,839	-200,000	-0,026	0,152
-356,825	-141,265	0,166	-0,012
-355,810	792,438	0,083	0,167
-354,796	-18,724	0,108	0,049
-353,781	-13,741	0,062	0,029
-352,766	42,915	-0,086	-0,057
-351,752	482,471	0,086	0,143
-350,737	-200,000	0,023	0,087
-349,723	47,689	0,077	0,052
-348,708	-15,247	-0,021	-0,010
-347,693	800,000	0,030	0,071
-346,679	-200,000	0,004	-0,019
-345,664	-71,464	-0,017	-0,005
-344,650	-96,387	0,063	-0,012
-343,635	54,784	0,130	-0,091
-342,620	159,265	0,060	0,061
-341,606	800,000	0,014	-0,032
-340,591	-21,100	-0,080	-0,035
-339,577	68,909	-0,093	0,069
-338,562	253,912	-0,110	0,137
-337,548	-29,667	0,041	-0,017
-336,533	-200,000	0,006	0,086
-335,518	-199,536	-0,064	0,000
-334,504	-48,299	0,092	0,032
-333,489	107,816	-0,063	-0,054
-332,475	651,790	0,062	0,116
-331,460	-98,316	-0,078	-0,014
-330,445	800,000	-0,047	-0,141
-329,431	-200,000	0,015	-0,121
-328,416	-200,000	-0,024	0,096
-327,402	800,000	0,070	0,193
-326,387	-152,277	0,075	0,004
-325,372	332,806	0,025	-0,035
-324,358	437,514	-0,027	-0,042
-323,343	71,758	0,091	-0,069
-322,329	-200,000	0,007	0,066
-321,314	800,000	-0,060	0,145
-320,299	-200,000	0,014	0,056
-319,285	-200,000	0,013	-0,100
-318,270	363,215	-0,107	-0,156
-317,256	800,000	-0,054	-0,132
-316,241	800,000	0,013	-0,027
-315,226	-43,690	0,163	-0,059
-314,212	-200,000	-0,004	0,088
-313,197	194,327	-0,057	0,063
-312,183	336,253	-0,039	0,055
-311,168	742,626	-0,022	-0,042
-310,153	-13,921	0,072	-0,034
-309,139	464,212	0,066	-0,107
-308,124	87,597	-0,021	0,017
-307,110	-89,698	0,069	0,015
-306,095	409,267	0,087	0,134
-305,080	-200,000	-0,027	0,000
-304,066	800,000	0,025	0,077
-303,051	-30,189	-0,153	-0,063
-302,037	-200,000	-0,004	-0,033
-301,022	-200,000	-0,005	-0,021
-300,008	-200,000	-0,022	-0,138
-298,993	112,089	0,036	-0,031
-297,978	-50,091	0,079	0,027
-296,964	-88,131	0,076	-0,016
-295,949	-32,029	-0,072	0,029
-294,935	419,744	-0,110	-0,171
-293,920	724,584	-0,020	-0,040
-292,905	-200,000	0,004	0,149
-291,891	-200,000	0,017	0,056
-290,876	-200,000	-0,036	0,126
-289,862	69,691	0,074	0,055
-288,847	97,971	0,106	-0,088
-287,832	-200,000	-0,016	0,060
-286,818	800,000	0,044	-0,132
-285,803	10,831	0,058	-0,032
-284,789	-117,613	0,080	0,010
-283,774	44,777	-0,091	0,061
-282,759	-85,023	0,066	-0,015
-281,745	-200,000	0,004	-0,160
-280,730	-111,206	-0,125	0,018
-279,716	-200,000	0,008	-0,121
-278,701	-96,664	0,027	-0,005
-277,686	-78,907	0,090	0,022
-276,672	-200,000	-0,015	0,066
-275,657	218,518	0,066	0,077
-274,643	20,219	-0,062	-0,036
-273,628	147,749	-0,121	-0,118
-272,613	-61,152	0,118	-0,036
-271,599	739,663	-0,056	0,109
-270,584	-79,011	-0,044	0,011
-269,570	123,163	0,030	0,028
-268,555	-200,000	0,002	0,037
-267,540	385,696	0,053	-0,080
-266,526	-23,342	-0,114	0,050
-265,511	714,692	-0,081	-0,156
-264,497	455,309	0,109	0,176
-263,482	249,145	0,124	0,153
-262,467	377,615	0,024	0,036
-261,453	800,000	0,018	0,040
-260,438	184,940	-0,077	-0,082
-259,424	270,294	0,054	-0,069
-258,409	-200,000	-0,034	-0,108
-257,395	70,863	-0,099	-0,074
-256,380	70,956	0,060	0,045
-255,365	800,000	0,019	0,041
-254,351	16,670	0,071	0,040
-253,336	-150,181	-0,166	0,009
-252,322	25,853	-0,105	-0,063
-251,307	-200,000	0,018	-0,113
-250,292	-26,198	0,085	-0,036
-249,278	800,000	0,024	-0,065
-248,263	-102,525	0,083	0,014
-247,249	67,536	0,096	0,071
-246,234	-200,000	0,008	-0,111
-245,219	230,004	0,049	0,058
-244,205	800,000	-0,062	0,126
-243,190	-200,000	-0,004	-0,048
-242,176	-91,945	0,154	0,031
-241,161	-169,616	0,051	-0,001
-240,146	-149,418	-0,051	-0,003
-239,132	585,745	-0,032	0,056
-238,117	168,176	-0,097	-0,100
-237,103	-200,000	0,014	-0,050
-236,088	-200,000	-0,010	-0,191
-235,073	-200,000	0,011	-0,053
-234,059	800,000	-0,038	0,094
-233,044	-115,442	0,096	-0,013
-232,030	265,190	-0,064	0,081
-231,015	-85,032	-0,096	0,022
-230,000	-45,583	-0,159	0,057
-228,986	-86,409	0,091	-0,020
-227,971	110,454	0,102	-0,088
-226,957	-32,382	0,035	0,014
-225,942	49,105	-0,034	-0,023
-224,927	-161,513	-0,146	-0,005
-223,913	-4,466	-0,040	0,020
-222,898	197,924	0,047	-0,052
-221,884	105,837	-0,112	-0,096
-220,869	78,778	-0,087	0,067
-219,855	255,820	0,064	0,079
-218,840	98,494	-0,075	0,062
-217,825	465,341	0,042	-0,068
-216,811	-86,619	-0,111	-0,024
-215,796	-200,000	0,003	0,013
-214,782	-200,000	0,026	0,085
-213,767	-150,848	0,162	-0,009
-212,752	94,886	0,057	-0,047
-211,738	176,060	0,047	0,049
-210,723	-120,718	0,104	-0,013
-209,709	301,015	0,047	-0,062
-208,694	18,684	-0,124	-0,071
-207,679	-200,000	-0,030	-0,117
-206,665	750,093	-0,037	0,073
-205,650	-12,100	0,122	0,057
-204,636	-173,989	0,166	0,003
-203,621	-200,000	-0,001	-0,006
-202,606	-200,000	0,017	-0,143
-201,592	216,274	-0,005	-0,006
-200,577	-14,520	-0,133	0,061
-199,563	150,305	-0,120	0,118
-198,548	-172,344	0,135	-0,003
-197,533	299,065	-0,113	0,150
-196,519	53,408	-0,114	-0,079
-195,504	189,334	0,051	-0,055
-194,490	-96,495	0,094	0,018
-193,475	-200,000	-0,010	-0,086
-192,460	42,296	0,116	-0,076
-191,446	-142,850	-0,052	0,004
-190,431	53,174	0,119	-0,082
-189,417	800,000	0,032	-0,066
-188,402	-132,336	0,079	-0,007
-187,387	92,282	-0,028	0,023
-186,373	-200,000	-0,002	-0,120
-185,358	-200,000	0,009	0,102
-184,344	-167,001	0,075	-0,002
-183,329	256,730	0,056	0,070
-182,315	263,178	0,067	-0,084
-181,300	66,920	-0,046	-0,034
-180,285	-77,566	-0,075	0,019
-179,271	800,000	0,037	0,076
-178,256	688,100	-0,014	-0,026
-177,242	77,800	-0,049	0,038
-176,227	-70,126	-0,050	0,014
-175,212	-152,366	0,004	-0,000
-174,198	96,810	-0,133	-0,110
-173,183	-200,000	0,007	-0,205
-172,169	72,318	-0,063	-0,048
-171,154	35,972	-0,066	-0,042
-170,139	90,994	-0,041	-0,033
-169,125	-200,000	0,012	-0,105
-168,110	673,750	0,053	0,099
-167,096	-125,423	0,056	0,006
-166,081	20,640	0,065	-0,038
-165,066	338,167	-0,089	-0,125
-164,052	156,344	0,007	0,007
-163,037	-157,389	0,055	-0,002
-162,023	573,195	0,065	0,115
-161,008	-141,004	0,048	0,003
-159,993	75,405	0,086	-0,065
-158,979	800,000	-0,089	0,181
-157,964	253,873	-0,071	-0,088
-156,950	-200,000	-0,022	-0,115
-155,935	136,784	-0,063	0,059
-154,920	20,671	0,069	-0,040
-153,906	345,373	0,051	0,072
-152,891	800,000	-0,022	-0,048
-151,877	-138,786	-0,148	0,011
-150,862	-200,000	0,004	0,056
-149,847	-100,327	0,069	0,012
-148,833	-133,801	-0,119	-0,011
-147,818	800,000	0,072	-0,149
-146,804	31,198	-0,049	-0,030
-145,789	-200,000	-0,020	-0,078
-144,775	134,746	0,077	-0,072
-143,760	57,445	-0,060	-0,042
-142,745	657,919	-0,008	-0,015
-141,731	259,747	0,036	-0,045
-140,716	19,385	0,048	0,028
-139,702	-130,949	0,075	-0,007
-138,687	180,351	0,029	0,030
-137,672	2,852	-0,058	-0,030
-136,658	114,851	-0,133	-0,117
-135,643	-200,000	0,009	0,051
-134,629	197,103	-0,151	0,166
-133,614	-200,000	-0,016	0,059
-132,599	215,818	0,078	0,089
-131,585	162,320	-0,086	0,087
-130,570	293,393	-0,026	-0,034
-129,556	19,298	-0,011	0,006
-128,541	-28,796	0,094	0,039
-127,526	-200,000	0,002	-0,127
-126,512	-127,979	0,093	-0,009
-125,497	-200,000	0,075	-0,000
-124,483	389,627	-0,082	0,123
-123,468	-200,000	0,018	0,063
-122,453	-143,102	-0,136	-0,009
-121,439	800,000	-0,042	-0,129
-120,424	-99,784	0,089	-0,016
