DTS Sentinel unit serial number:	SN410029Multiplexer serial number:	ORYXHardware model number:	OX2-SRSoftware version number:	ORYX F/W v4,00 Oryx Data Collector v3.7.2.0data status	okinstallation	B5 Nyhavnadifferential loss correction	single-endedforward channel	channel 2reverse channel	N/Adate	2023/12/11time	17:32:13forward acquisition time	300,00reverse acquisition time	0,00gamma	499,1914k internal	0,3163k external	0,3163temperature offset calibration	1,0000default loss term (dB/km)	0,3820temperature slope calibration	1,0000multiplexer offset coefficient	1,0000multiplexer slope coefficient	1,0000fibre end	0,00T internal ref (°C)	14,74T ext. ref 1 (°C)	-0,67T ext. ref 2 (°C)	-0,85length (m)	temperature (°C)	Stokes	anti-Stokes-744,400	800,000	0,061	0,170
-743,385	-83,676	-0,198	0,046
-742,371	100,718	0,087	0,074
-741,356	-59,569	-0,282	0,088
-740,342	217,580	0,062	-0,073
-739,327	-72,602	-0,269	-0,073
-738,312	800,000	0,051	0,140
-737,298	-107,939	-0,359	0,057
-736,283	109,511	0,004	0,004
-735,269	-88,530	-0,365	-0,079
-734,254	-68,304	0,131	-0,037
-733,239	-84,819	-0,393	-0,090
-732,225	-71,470	0,173	-0,047
-731,210	-200,000	0,003	-0,121
-730,196	-200,000	0,009	0,084
-729,181	800,000	0,025	-0,055
-728,167	-17,626	-0,121	-0,055
-727,152	313,692	-0,066	0,092
-726,137	-15,034	-0,123	0,058
-725,123	800,000	-0,036	-0,111
-724,108	49,149	-0,073	-0,051
-723,094	-2,328	0,065	-0,033
-722,079	522,464	0,090	-0,156
-721,064	25,202	-0,071	-0,043
-720,050	800,000	0,020	-0,050
-719,035	-57,928	-0,116	0,037
-718,021	-119,162	-0,138	-0,017
-717,006	-96,809	0,181	-0,035
-715,991	-200,000	0,002	-0,037
-714,977	-136,717	-0,109	0,009
-713,962	84,835	-0,054	-0,043
-712,948	527,155	0,042	0,073
-711,933	235,845	0,105	-0,128
-710,918	185,669	0,086	0,094
-709,904	6,132	-0,062	-0,034
-708,889	800,000	-0,047	-0,106
-707,875	-15,163	-0,139	-0,065
-706,860	-56,930	0,135	0,043
-705,845	-35,961	-0,028	-0,011
-704,831	-200,000	0,024	0,157
-703,816	-65,658	0,126	-0,037
-702,802	-185,012	0,072	0,001
-701,787	78,678	-0,097	-0,076
-700,772	-33,298	-0,047	-0,019
-699,758	800,000	-0,029	-0,062
-698,743	800,000	0,032	-0,073
-697,729	-36,720	0,147	0,058
-696,714	207,955	-0,071	-0,081
-695,699	266,994	0,062	-0,080
-694,685	-200,000	0,006	-0,084
-693,670	364,663	-0,042	-0,062
-692,656	-200,000	0,022	-0,091
-691,641	-116,425	0,020	-0,003
-690,627	-200,000	0,006	0,106
-689,612	458,148	0,048	-0,079
-688,597	4,978	0,082	-0,044
-687,583	631,718	-0,004	0,007
-686,568	37,431	-0,156	-0,101
-685,554	5,174	-0,068	-0,037
-684,539	-200,000	-0,003	-0,056
-683,524	562,522	0,049	-0,088
-682,510	800,000	-0,055	-0,113
-681,495	-73,489	-0,136	0,036
-680,481	506,550	-0,041	-0,071
-679,466	477,418	-0,074	-0,124
-678,451	687,928	-0,038	-0,074
-677,437	800,000	0,078	-0,203
-676,422	505,107	0,036	0,062
-675,408	306,760	0,065	0,090
-674,393	-63,093	-0,050	-0,015
-673,378	800,000	0,044	-0,129
-672,364	86,846	-0,060	-0,049
-671,349	137,949	-0,086	-0,083
-670,335	-120,404	-0,053	-0,007
-669,320	-132,637	0,091	0,008
-668,305	104,844	-0,028	0,024
-667,291	-200,000	0,009	0,039
-666,276	46,786	0,050	-0,034
-665,262	-58,005	-0,198	-0,063
-664,247	-200,000	0,011	0,070
-663,232	41,491	0,083	0,055
-662,218	-200,000	-0,025	0,170
-661,203	-200,000	-0,001	0,074
-660,189	800,000	0,023	-0,065
-659,174	800,000	-0,083	-0,190
-658,159	71,748	-0,069	-0,052
-657,145	-73,707	-0,093	0,025
-656,130	800,000	-0,085	-0,221
-655,116	209,967	-0,081	-0,093
-654,101	438,118	-0,029	0,047
-653,086	-12,678	0,042	-0,020
-652,072	34,116	0,068	0,043
-651,057	-200,000	0,021	-0,090
-650,043	-105,163	-0,181	-0,030
-649,028	170,912	-0,118	-0,124
-648,014	-200,000	-0,003	0,039
-646,999	-200,000	0,035	0,119
-645,984	-32,679	0,029	-0,012
-644,970	-39,251	0,065	0,025
-643,955	-106,872	-0,071	-0,011
-642,941	-200,000	-0,006	0,023
-641,926	-200,000	0,005	-0,023
-640,911	-52,067	0,038	-0,013
-639,897	-155,516	-0,068	-0,003
-638,882	800,000	-0,007	0,021
-637,868	-83,482	-0,057	-0,013
-636,853	-200,000	-0,007	-0,026
-635,838	800,000	0,078	-0,190
-634,824	-91,760	0,111	-0,023
-633,809	-200,000	0,021	-0,092
-632,795	-200,000	-0,009	-0,035
-631,780	-200,000	0,017	-0,113
-630,765	182,633	0,019	-0,021
-629,751	-200,000	-0,015	-0,090
-628,736	140,124	-0,064	0,062
-627,722	-138,737	-0,021	-0,002
-626,707	-99,960	-0,031	0,006
-625,692	-62,450	0,005	0,002
-624,678	-200,000	0,002	-0,097
-623,663	-200,000	0,008	-0,028
-622,649	160,839	-0,054	-0,055
-621,634	800,000	0,062	-0,139
-620,619	105,194	-0,083	0,072
-619,605	366,816	-0,073	0,109
-618,590	71,633	0,046	0,035
-617,576	154,929	-0,021	-0,022
-616,561	-7,399	-0,012	-0,006
-615,546	348,541	0,067	-0,096
-614,532	800,000	-0,015	-0,033
-613,517	-57,297	-0,129	0,041
-612,503	-128,680	0,050	0,005
-611,488	-41,862	-0,154	-0,057
-610,474	191,850	0,025	-0,028
-609,459	800,000	0,029	0,063
-608,444	49,410	-0,119	0,082
-607,430	-22,399	-0,110	-0,049
-606,415	6,903	-0,149	-0,081
-605,401	174,423	0,102	0,108
-604,386	-14,905	-0,100	0,047
-603,371	417,133	0,094	-0,147
-602,357	-200,000	-0,020	-0,118
-601,342	-200,000	0,012	-0,109
-600,328	-74,434	-0,144	-0,038
-599,313	217,510	0,085	0,099
-598,298	-66,867	0,025	-0,007
-597,284	-60,351	0,093	-0,029
-596,269	-200,000	0,023	-0,166
-595,255	-64,699	0,094	0,028
-594,240	-200,000	-0,009	0,080
-593,225	-130,604	-0,076	0,007
-592,211	-200,000	0,032	-0,112
-591,196	-120,539	-0,071	-0,009
-590,182	-200,000	0,016	0,102
-589,167	-47,714	0,232	0,082
-588,152	-57,214	-0,064	-0,020
-587,138	36,529	-0,036	0,023
-586,123	99,265	-0,127	-0,108
-585,109	-200,000	-0,001	-0,157
-584,094	-200,000	-0,038	0,154
-583,079	154,474	-0,056	0,057
-582,065	-123,680	-0,188	0,022
-581,050	-75,222	-0,161	0,042
-580,036	800,000	-0,001	0,004
-579,021	-141,905	-0,134	0,010
-578,006	82,004	0,098	-0,077
-576,992	611,763	0,025	0,046
-575,977	114,671	0,037	0,033
-574,963	-27,972	0,109	0,046
-573,948	71,926	0,028	-0,021
-572,934	-62,979	-0,035	-0,011
-571,919	-72,118	0,103	-0,028
-570,904	258,695	0,082	-0,104
-569,890	800,000	0,011	-0,025
-568,875	579,014	-0,045	0,081
-567,861	50,159	0,143	0,099
-566,846	-37,489	0,141	-0,055
-565,831	10,652	-0,028	-0,015
-564,817	-169,866	-0,120	0,003
-563,802	800,000	-0,046	-0,127
-562,788	800,000	0,017	-0,051
-561,773	-114,368	0,071	-0,010
-560,758	261,937	-0,066	-0,083
-559,744	-200,000	-0,003	-0,017
-558,729	-200,000	-0,013	0,136
-557,715	-200,000	0,001	-0,055
-556,700	-200,000	-0,008	0,148
-555,685	124,528	-0,086	-0,079
-554,671	93,314	0,153	0,127
-553,656	-123,438	-0,033	-0,004
-552,642	680,227	-0,068	0,130
-551,627	305,370	-0,058	0,079
-550,612	731,448	-0,024	0,047
-549,598	-159,447	-0,067	-0,003
-548,583	-200,000	0,026	-0,132
-547,569	-58,390	-0,102	0,032
-546,554	40,397	0,168	0,110
-545,539	-49,702	0,103	-0,036
-544,525	114,421	0,010	0,009
-543,510	135,526	0,018	-0,017
-542,496	-17,168	0,054	-0,025
-541,481	-52,988	-0,086	0,029
-540,466	328,231	-0,030	0,042
-539,452	800,000	0,025	-0,075
-538,437	191,365	0,063	-0,069
-537,423	800,000	0,036	0,093
-536,408	-142,777	0,036	0,003
-535,393	-16,805	-0,010	-0,005
-534,379	-137,997	-0,114	-0,009
-533,364	203,735	0,070	0,079
-532,350	35,738	-0,055	0,035
-531,335	-97,870	0,013	0,003
-530,321	-200,000	0,017	-0,057
-529,306	800,000	-0,032	-0,094
-528,291	-200,000	-0,003	-0,094
-527,277	-65,240	-0,097	-0,028
-526,262	432,306	-0,072	0,114
-525,248	-91,281	0,149	0,031
-524,233	-106,351	0,102	0,016
-523,218	-22,429	-0,060	0,026
-522,204	-200,000	-0,014	0,106
-521,189	-200,000	0,014	-0,107
-520,175	725,713	-0,041	0,080
-519,160	-200,000	-0,020	-0,090
-518,145	-200,000	-0,039	-0,142
-517,131	140,154	0,083	0,080
-516,116	-200,000	-0,024	-0,130
-515,102	-177,767	0,156	-0,003
-514,087	-200,000	0,010	-0,126
-513,072	68,509	0,083	-0,062
-512,058	-132,867	-0,096	0,009
-511,043	207,192	-0,016	-0,018
-510,029	435,891	-0,022	-0,034
-509,014	382,390	0,037	-0,056
-507,999	124,791	0,084	-0,077
-506,985	-76,814	-0,183	-0,046
-505,970	-119,414	-0,025	0,003
-504,956	800,000	-0,066	0,136
-503,941	17,954	0,079	0,046
-502,926	800,000	-0,037	0,089
-501,912	-103,297	-0,014	-0,002
-500,897	41,508	0,112	0,074
-499,883	-31,887	0,028	0,012
-498,868	-131,968	-0,062	-0,006
-497,853	-12,415	-0,042	0,020
-496,839	269,842	0,065	0,083
-495,824	-97,980	0,176	0,033
-494,810	800,000	-0,050	0,134
-493,795	800,000	-0,024	0,053
-492,781	570,402	-0,029	-0,051
-491,766	-0,195	-0,077	-0,040
-490,751	113,038	0,048	-0,043
-489,737	-28,425	-0,048	-0,020
-488,722	11,687	0,091	0,051
-487,708	-1,062	0,126	0,065
-486,693	-200,000	-0,019	0,070
-485,678	800,000	0,020	-0,044
-484,664	500,850	-0,060	-0,102
-483,649	-200,000	-0,003	0,097
-482,635	800,000	-0,004	-0,011
-481,620	-82,129	-0,027	-0,006
-480,605	-79,747	-0,052	-0,013
-479,591	351,030	0,075	0,108
-478,576	-108,670	0,018	-0,003
-477,562	-200,000	0,005	-0,057
-476,547	800,000	-0,079	-0,192
-475,532	-126,322	0,051	-0,005
-474,518	-200,000	0,016	-0,056
-473,503	-13,214	0,062	-0,029
-472,489	446,544	-0,053	0,085
-471,474	18,287	-0,029	0,017
-470,459	-4,976	-0,088	-0,044
-469,445	-14,720	-0,181	-0,084
-468,430	365,606	0,032	0,047
-467,416	-137,405	0,144	-0,012
-466,401	105,572	0,061	0,053
-465,386	-88,806	0,213	0,046
-464,372	74,364	-0,088	-0,067
-463,357	169,485	-0,031	-0,032
-462,343	190,639	-0,035	-0,038
-461,328	800,000	-0,052	0,104
-460,313	768,369	0,014	-0,027
-459,299	587,781	-0,022	-0,040
-458,284	132,797	-0,023	0,022
-457,270	-31,853	0,088	0,036
-456,255	4,627	-0,028	-0,015
-455,241	-133,221	-0,045	-0,004
-454,226	79,071	-0,181	-0,141
-453,211	-172,330	0,050	-0,001
-452,197	-200,000	0,028	0,098
-451,182	39,983	0,179	0,116
-450,168	68,548	0,111	-0,083
-449,153	-110,820	-0,145	0,022
-448,138	198,664	-0,008	-0,009
-447,124	525,769	-0,073	-0,126
-446,109	-38,575	0,062	0,024
-445,095	46,744	-0,053	0,036
-444,080	-50,572	-0,031	0,010
-443,065	-200,000	-0,023	-0,110
-442,051	27,705	-0,103	0,063
-441,036	-200,000	-0,009	-0,087
-440,022	-1,750	-0,175	-0,089
-439,007	260,652	-0,013	-0,016
-437,992	-23,369	0,131	-0,057
-436,978	-43,236	-0,031	0,012
-435,963	132,259	0,043	-0,041
-434,949	-200,000	-0,024	-0,094
-433,934	-200,000	0,012	-0,049
-432,919	57,489	0,143	-0,101
-431,905	-42,295	-0,116	0,043
-430,890	-31,681	0,116	-0,047
-429,876	-200,000	-0,019	0,168
-428,861	-97,068	0,106	0,020
-427,846	800,000	-0,029	0,064
-426,832	-8,968	-0,105	0,051
-425,817	-125,645	0,055	-0,006
-424,803	800,000	0,021	-0,053
-423,788	574,527	-0,040	-0,072
-422,773	-200,000	0,021	-0,108
-421,759	-16,576	0,133	0,061
-420,744	87,532	0,027	-0,022
-419,730	97,794	-0,044	0,037
-418,715	-200,000	0,010	0,039
-417,701	-40,928	0,058	0,022
-416,686	-200,000	0,030	0,104
-415,671	224,252	-0,102	0,120
-414,657	-93,468	0,119	0,024
-413,642	-200,000	0,023	-0,194
-412,628	334,223	-0,061	0,086
-411,613	-45,843	0,014	-0,005
-410,598	800,000	0,033	-0,100
-409,584	427,099	-0,032	-0,050
-408,569	350,777	0,126	0,181
-407,555	116,743	0,126	-0,112
-406,540	266,189	0,016	-0,020
-405,525	267,053	-0,035	-0,044
-404,511	800,000	-0,055	-0,149
-403,496	490,392	-0,021	-0,035
-402,482	-200,000	0,047	-0,179
-401,467	-200,000	-0,001	0,155
-400,452	-200,000	0,028	0,098
-399,438	800,000	-0,034	0,101
-398,423	-131,007	-0,041	0,004
-397,409	-19,329	0,018	-0,008
-396,394	198,891	-0,027	0,030
-395,379	-160,978	0,075	-0,003
-394,365	679,538	0,048	0,092
-393,350	-118,772	0,053	0,007
-392,336	160,234	-0,087	-0,088
-391,321	38,485	-0,079	0,051
-390,306	97,772	-0,067	-0,056
-389,292	43,310	0,057	0,038
-388,277	178,170	0,029	0,031
-387,263	800,000	0,029	0,072
-386,248	800,000	0,013	-0,028
-385,233	9,358	0,101	-0,055
-384,219	-2,988	-0,034	0,017
-383,204	-142,376	0,107	-0,008
-382,190	317,182	0,050	-0,069
-381,175	-110,949	0,058	-0,009
-380,160	-200,000	-0,008	0,077
-379,146	-190,129	-0,030	0,000
-378,131	800,000	-0,049	-0,131
-377,117	-140,343	0,122	0,009
-376,102	-200,000	0,024	-0,171
-375,088	273,543	-0,096	-0,123
-374,073	-50,238	0,099	0,034
-373,058	-80,934	-0,058	0,014
-372,044	-200,000	0,004	0,144
-371,029	122,984	-0,089	0,081
-370,015	-113,046	0,058	0,008
-369,000	641,039	-0,049	-0,091
-367,985	91,220	-0,119	-0,096
-366,971	48,727	0,071	-0,048
-365,956	-200,000	-0,028	0,111
-364,942	68,582	-0,075	0,056
-363,927	43,264	-0,040	0,027
-362,912	800,000	0,001	0,003
-361,898	-133,568	-0,044	0,004
-360,883	-200,000	-0,020	-0,178
-359,869	-158,344	-0,066	-0,003
-358,854	-76,650	0,083	-0,021
-357,839	-82,425	-0,075	-0,017
-356,825	-37,382	-0,031	0,012
-355,810	144,077	0,055	-0,053
-354,796	-24,706	-0,099	-0,042
-353,781	-200,000	-0,003	-0,110
-352,766	-47,391	0,096	-0,034
-351,752	141,132	0,041	-0,040
-350,737	21,112	0,052	-0,031
-349,723	800,000	-0,027	0,057
-348,708	683,189	0,003	-0,007
-347,693	-162,793	-0,104	0,004
-346,679	-200,000	0,003	-0,017
-345,664	-192,684	-0,126	0,001
-344,650	136,647	-0,065	-0,061
-343,635	800,000	0,007	0,016
-342,620	-37,122	0,137	0,053
-341,606	419,268	-0,045	0,070
-340,591	107,765	-0,131	0,113
-339,577	-70,237	-0,076	0,021
-338,562	114,952	0,088	-0,077
-337,548	58,972	0,087	0,062
-336,533	599,769	-0,026	-0,046
-335,518	800,000	-0,047	-0,114
-334,504	-200,000	0,013	0,225
-333,489	-79,264	-0,094	-0,023
-332,475	193,044	-0,088	0,096
-331,460	-200,000	0,012	-0,083
-330,445	-129,331	0,068	-0,007
-329,431	-42,644	0,089	0,033
-328,416	-37,163	0,128	0,049
-327,402	388,894	-0,104	0,157
-326,387	-124,942	0,069	0,008
-325,372	-191,912	0,070	-0,000
-324,358	508,124	0,092	-0,155
-323,343	-82,555	0,103	0,024
-322,329	7,943	-0,080	0,043
-321,314	-65,990	-0,072	0,021
-320,299	-200,000	0,007	0,038
-319,285	15,387	-0,172	-0,097
-318,270	181,249	0,066	-0,070
-317,256	118,200	-0,083	-0,074
-316,241	172,026	0,065	-0,067
-315,226	-47,508	0,101	-0,035
-314,212	-69,560	0,043	-0,012
-313,197	246,732	-0,038	0,046
-312,183	69,611	0,035	-0,026
-311,168	481,855	-0,039	-0,064
-310,153	579,568	-0,024	-0,042
-309,139	25,953	-0,046	-0,028
-308,124	4,186	0,077	0,041
-307,110	-200,000	-0,007	0,026
-306,095	205,993	0,032	0,037
-305,080	-200,000	-0,001	0,074
-304,066	301,712	-0,068	-0,092
-303,051	308,698	-0,078	-0,105
-302,037	-200,000	0,002	0,076
-301,022	-146,921	-0,054	0,003
-300,008	800,000	-0,040	0,122
-298,993	-200,000	-0,007	0,135
-297,978	347,977	0,064	0,092
-296,964	218,399	0,070	-0,081
-295,949	-78,772	-0,075	0,018
-294,935	-66,466	-0,041	0,012
-293,920	129,200	0,106	-0,098
-292,905	531,376	0,075	-0,129
-291,891	271,736	-0,003	-0,004
-290,876	-98,458	0,053	-0,010
-289,862	61,295	0,064	0,046
-288,847	424,385	-0,038	0,060
-287,832	-108,154	0,051	-0,008
-286,818	754,799	-0,047	-0,092
-285,803	-200,000	0,026	0,086
-284,789	553,830	-0,029	-0,050
-283,774	-101,962	0,131	0,023
-282,759	800,000	-0,055	-0,138
-281,745	-45,235	-0,048	-0,017
-280,730	9,535	0,040	0,022
-279,716	800,000	0,019	-0,041
-278,701	10,345	-0,013	0,007
-277,686	-147,651	0,127	0,008
-276,672	-200,000	-0,021	0,069
-275,657	800,000	-0,081	0,170
-274,643	-106,701	-0,079	0,013
-273,628	110,856	0,047	0,041
-272,613	83,905	0,045	0,036
-271,599	-149,635	0,048	0,003
-270,584	-100,852	0,119	-0,021
-269,570	-200,000	0,006	-0,073
-268,555	-163,914	-0,116	-0,004
-267,540	-1,123	-0,204	0,104
-266,526	-51,689	-0,034	-0,011
-265,511	727,312	-0,027	-0,053
-264,497	-91,821	0,050	0,010
-263,482	-200,000	-0,018	0,125
-262,467	-200,000	0,038	0,196
-261,453	-27,397	0,086	-0,036
-260,438	800,000	-0,074	-0,172
-259,424	125,736	-0,044	-0,041
-258,409	-104,788	-0,061	0,010
-257,395	-79,722	0,135	-0,032
-256,380	-48,058	0,095	-0,033
-255,365	75,568	0,099	0,076
-254,351	-69,460	-0,072	-0,020
-253,336	215,786	-0,067	0,077
-252,322	-200,000	-0,005	-0,027
-251,307	-200,000	0,004	-0,046
-250,292	-200,000	0,017	0,104
-249,278	-119,284	0,148	0,018
-248,263	41,701	-0,014	0,009
-247,249	692,480	-0,021	0,041
-246,234	-41,291	-0,124	0,046
-245,219	-200,000	0,025	-0,080
-244,205	-200,000	-0,044	-0,165
-243,190	-67,774	0,062	-0,017
-242,176	68,834	0,006	-0,005
-241,161	-163,722	0,121	0,004
-240,146	-200,000	-0,012	0,043
-239,132	-64,334	0,031	0,009
-238,117	-48,518	-0,083	-0,029
-237,103	-200,000	-0,002	-0,051
-236,088	701,411	0,056	-0,108
-235,073	-38,823	-0,056	0,021
-234,059	535,906	-0,065	0,112
-233,044	3,178	-0,031	0,016
-232,030	-200,000	0,014	0,074
-231,015	-200,000	0,025	-0,128
-230,000	-200,000	0,016	0,054
-228,986	326,398	0,070	-0,097
-227,971	800,000	-0,038	0,076
-226,957	70,657	0,079	-0,059
-225,942	800,000	0,033	0,102
-224,927	-27,840	0,040	0,017
-223,913	214,014	-0,057	0,065
-222,898	80,717	0,038	-0,030
-221,884	-200,000	-0,014	-0,107
-220,869	271,968	-0,078	-0,100
-219,855	-2,185	0,024	0,012
-218,840	-122,657	-0,179	0,021
-217,825	800,000	-0,049	-0,101
-216,811	748,718	0,037	0,072
-215,796	-53,338	-0,095	-0,031
-214,782	-200,000	-0,006	-0,044
-213,767	277,153	0,027	-0,035
-212,752	284,681	0,059	0,077
-211,738	-200,000	0,021	0,163
-210,723	-62,530	-0,059	-0,017
-209,709	123,886	-0,049	0,045
-208,694	-142,640	-0,118	-0,008
-207,679	-200,000	0,006	0,064
-206,665	-200,000	-0,012	0,094
-205,650	-68,615	0,127	0,035
-204,636	800,000	0,054	-0,128
-203,621	-200,000	0,029	0,111
-202,606	-1,849	-0,055	0,028
-201,592	187,197	-0,016	-0,018
-200,577	-200,000	-0,009	0,035
-199,563	48,420	-0,040	0,027
-198,548	31,316	0,150	0,093
-197,533	-38,620	0,176	0,067
-196,519	208,815	-0,062	-0,070
-195,504	15,927	-0,108	0,061
-194,490	800,000	-0,026	-0,083
-193,475	123,091	-0,082	-0,074
-192,460	-65,694	0,041	-0,012
-191,446	142,140	-0,079	0,076
-190,431	-200,000	0,000	-0,060
-189,417	-144,485	0,119	-0,008
-188,402	7,723	-0,011	-0,006
-187,387	-200,000	-0,001	-0,024
-186,373	-96,254	0,108	0,020
-185,358	-200,000	0,024	-0,126
-184,344	800,000	0,026	-0,060
-183,329	800,000	0,106	0,242
-182,315	24,976	0,074	0,044
-181,300	-200,000	0,007	-0,065
-180,285	405,916	-0,093	-0,142
-179,271	260,605	-0,092	-0,115
-178,256	-200,000	0,001	-0,010
-177,242	-200,000	0,014	-0,084
-176,227	245,076	0,112	-0,136
-175,212	705,304	-0,010	-0,019
-174,198	-127,952	-0,142	0,014
-173,183	333,649	-0,081	0,113
-172,169	-116,402	-0,187	-0,025
-171,154	270,655	0,113	0,144
-170,139	800,000	0,029	0,089
-169,125	288,873	0,090	0,118
-168,110	-200,000	-0,054	0,227
-167,096	26,979	0,115	0,069
-166,081	-200,000	-0,046	0,150
-165,066	0,607	-0,038	0,019
-164,052	800,000	-0,031	0,098
-163,037	152,379	0,016	0,016
-162,023	470,359	-0,064	0,104
-161,008	800,000	-0,029	0,061
-159,993	758,579	0,051	0,100
-158,979	158,359	-0,039	0,039
-157,964	76,016	-0,099	0,075
-156,950	76,302	0,063	0,048
-155,935	93,556	-0,132	0,107
-154,920	211,552	0,089	0,101
-153,906	325,754	0,052	0,072
-152,891	-30,613	0,152	0,062
-151,877	121,957	-0,048	-0,043
-150,862	396,580	-0,134	-0,201
-149,847	-40,291	0,051	0,019
-148,833	800,000	0,033	-0,103
-147,818	97,083	-0,010	0,008
-146,804	-12,870	0,106	-0,050
-145,789	83,224	0,038	-0,030
-144,775	123,492	-0,067	-0,060
-143,760	61,129	-0,108	0,077
-142,745	-142,645	-0,037	0,003
-141,731	-163,832	0,020	0,001
-140,716	254,009	-0,046	0,056
-139,702	-200,000	-0,024	0,098
-138,687	-50,620	0,058	0,020
-137,672	617,881	-0,014	0,026
-136,658	338,605	0,015	0,021
-135,643	-76,733	0,101	0,025
-134,629	89,177	-0,136	0,109
-133,614	-200,000	0,019	0,085
-132,599	289,446	-0,015	0,020
-131,585	34,227	0,179	0,112
-130,570	800,000	0,077	0,176
-129,556	413,111	-0,047	-0,072
-128,541	92,012	-0,120	-0,097
-127,526	-115,728	0,087	-0,012
-126,512	265,121	0,087	0,110
-125,497	-200,000	-0,045	0,202
-124,483	-200,000	-0,012	0,082
-123,468	210,073	0,028	-0,032
-122,453	-12,718	0,068	-0,032
-121,439	106,843	-0,064	0,054
-120,424	-200,000	0,009	-0,057
-119,410	-64,177	0,039	0,011
