DTS Sentinel unit serial number:	SN410029Multiplexer serial number:	ORYXHardware model number:	OX2-SRSoftware version number:	ORYX F/W v4,00 Oryx Data Collector v3.7.2.0data status	okinstallation	B5 Nyhavnadifferential loss correction	single-endedforward channel	channel 2reverse channel	N/Adate	2023/12/11time	19:27:13forward acquisition time	300,00reverse acquisition time	0,00gamma	499,1914k internal	0,3159k external	0,3159temperature offset calibration	1,0000default loss term (dB/km)	0,3820temperature slope calibration	1,0000multiplexer offset coefficient	1,0000multiplexer slope coefficient	1,0000fibre end	0,00T internal ref (°C)	15,64T ext. ref 1 (°C)	-0,14T ext. ref 2 (°C)	-0,34length (m)	temperature (°C)	Stokes	anti-Stokes-744,400	-129,314	0,106	0,011
-743,385	-95,292	-0,268	0,053
-742,371	12,201	0,089	0,050
-741,356	-42,794	-0,200	-0,075
-740,342	-155,414	0,019	-0,001
-739,327	-137,944	-0,300	0,024
-738,312	69,153	0,050	0,038
-737,298	-101,582	-0,270	0,048
-736,283	252,286	-0,058	0,073
-735,269	-92,856	-0,180	0,037
-734,254	42,054	0,154	0,103
-733,239	-51,403	-0,359	-0,123
-732,225	-198,539	0,283	0,001
-731,210	-71,289	0,039	0,011
-730,196	-200,000	-0,033	0,118
-729,181	88,933	-0,084	0,068
-728,167	148,603	0,070	-0,069
-727,152	55,515	-0,077	0,055
-726,137	-21,691	0,063	0,028
-725,123	79,194	-0,056	-0,044
-724,108	-2,547	-0,238	-0,122
-723,094	-200,000	0,017	-0,065
-722,079	800,000	-0,063	-0,138
-721,064	287,930	-0,081	-0,108
-720,050	-11,073	-0,045	0,022
-719,035	-115,788	-0,037	0,005
-718,021	542,041	0,051	-0,090
-717,006	169,533	-0,104	-0,110
-715,991	-200,000	-0,020	-0,093
-714,977	-200,000	-0,030	-0,122
-713,962	-200,000	-0,008	0,069
-712,948	-56,602	-0,119	0,039
-711,933	-92,413	0,126	0,026
-710,918	168,700	0,048	-0,050
-709,904	84,410	-0,070	-0,057
-708,889	3,476	-0,111	-0,059
-707,875	800,000	-0,102	-0,233
-706,860	-200,000	-0,010	0,134
-705,845	-81,709	0,063	-0,015
-704,831	-107,803	-0,110	0,018
-703,816	-172,414	-0,063	-0,001
-702,802	218,252	-0,011	-0,013
-701,787	62,241	0,094	0,069
-700,772	-200,000	0,012	-0,194
-699,758	335,385	-0,044	0,063
-698,743	246,570	0,052	-0,065
-697,729	-200,000	0,008	-0,090
-696,714	245,306	-0,051	-0,063
-695,699	492,019	-0,048	-0,081
-694,685	-200,000	-0,019	-0,077
-693,670	800,000	0,049	0,112
-692,656	142,961	-0,080	0,078
-691,641	-113,421	0,141	0,020
-690,627	800,000	-0,037	-0,116
-689,612	-200,000	0,001	-0,056
-688,597	341,789	-0,066	0,095
-687,583	-200,000	-0,001	-0,128
-686,568	800,000	-0,025	-0,081
-685,554	800,000	-0,062	-0,185
-684,539	-200,000	-0,027	-0,136
-683,524	246,976	0,066	-0,082
-682,510	56,984	0,034	0,024
-681,495	-103,910	-0,191	-0,032
-680,481	800,000	-0,037	0,077
-679,466	800,000	-0,050	0,113
-678,451	-200,000	-0,012	0,069
-677,437	-200,000	-0,016	-0,085
-676,422	-65,019	0,032	-0,009
-675,408	571,118	-0,032	-0,057
-674,393	-144,962	-0,179	0,012
-673,378	-200,000	-0,003	0,057
-672,364	800,000	-0,023	0,072
-671,349	762,010	-0,042	0,085
-670,335	-200,000	-0,003	-0,098
-669,320	-200,000	-0,007	-0,190
-668,305	-200,000	0,001	-0,037
-667,291	276,263	0,073	0,096
-666,276	258,499	0,027	-0,034
-665,262	-141,828	-0,220	0,016
-664,247	87,380	0,005	-0,004
-663,232	151,163	0,102	-0,102
-662,218	-27,049	-0,057	-0,024
-661,203	-142,080	-0,046	-0,003
-660,189	-200,000	0,029	0,129
-659,174	465,703	0,048	-0,080
-658,159	249,511	-0,086	0,107
-657,145	195,348	0,054	-0,061
-656,130	-32,185	0,144	0,059
-655,116	105,552	0,104	0,090
-654,101	3,483	-0,010	0,005
-653,086	-20,904	-0,062	-0,028
-652,072	128,417	-0,119	-0,111
-651,057	-200,000	0,004	-0,243
-650,043	-6,735	0,056	0,028
-649,028	-41,402	-0,103	-0,039
-648,014	-200,000	0,002	-0,063
-646,999	800,000	-0,012	0,035
-645,984	-47,433	0,003	-0,001
-644,970	-200,000	0,011	0,072
-643,955	196,519	-0,045	-0,050
-642,941	-139,418	-0,048	-0,004
-641,926	281,525	0,145	-0,191
-640,911	-200,000	0,020	-0,133
-639,897	800,000	0,080	0,184
-638,882	227,306	0,073	-0,087
-637,868	-200,000	0,033	-0,128
-636,853	266,159	0,051	-0,065
-635,838	73,712	0,099	0,076
-634,824	800,000	-0,024	0,052
-633,809	37,210	0,077	0,050
-632,795	114,509	0,072	-0,064
-631,780	184,962	0,032	0,035
-630,765	-57,218	-0,048	-0,015
-629,751	87,548	-0,076	-0,062
-628,736	-71,913	-0,022	-0,006
-627,722	-200,000	0,018	0,062
-626,707	194,539	0,030	-0,033
-625,692	-3,233	-0,046	0,024
-624,678	800,000	0,028	0,071
-623,663	-200,000	0,006	0,029
-622,649	82,857	0,034	-0,027
-621,634	800,000	0,010	0,030
-620,619	-134,976	-0,023	-0,002
-619,605	344,145	-0,072	0,104
-618,590	115,737	0,048	0,043
-617,576	-139,466	-0,067	0,005
-616,561	-193,225	-0,076	-0,000
-615,546	184,606	-0,200	0,218
-614,532	35,918	-0,021	-0,013
-613,517	-109,528	0,052	-0,008
-612,503	-200,000	0,008	-0,031
-611,488	170,661	-0,053	0,056
-610,474	800,000	-0,025	0,074
-609,459	-200,000	0,015	-0,183
-608,444	-200,000	-0,031	0,191
-607,430	-200,000	0,032	-0,141
-606,415	-75,479	0,031	-0,008
-605,401	-162,197	-0,128	-0,005
-604,386	800,000	0,047	0,096
-603,371	216,859	-0,006	0,007
-602,357	800,000	-0,030	-0,091
-601,342	-200,000	-0,013	-0,073
-600,328	800,000	-0,063	-0,149
-599,313	457,664	0,020	-0,033
-598,298	-1,824	-0,006	0,003
-597,284	-200,000	0,021	0,082
-596,269	-200,000	-0,015	-0,078
-595,255	363,770	0,035	0,052
-594,240	140,445	-0,070	0,068
-593,225	800,000	-0,038	0,098
-592,211	106,719	-0,092	0,080
-591,196	640,644	-0,083	0,155
-590,182	-48,575	0,039	0,014
-589,167	3,126	-0,077	-0,041
-588,152	-79,648	-0,050	-0,012
-587,138	-126,044	0,072	0,008
-586,123	-46,904	-0,126	-0,045
-585,109	800,000	-0,080	-0,203
-584,094	-164,255	0,143	0,005
-583,079	800,000	0,069	-0,185
-582,065	116,832	0,053	-0,048
-581,050	122,912	-0,127	0,116
-580,036	800,000	0,049	0,100
-579,021	219,782	-0,037	0,044
-578,006	22,671	-0,118	0,070
-576,992	-136,644	-0,027	0,002
-575,977	-63,696	-0,042	0,012
-574,963	-200,000	0,055	0,195
-573,948	-69,707	0,160	0,044
-572,934	7,063	-0,025	0,013
-571,919	-142,198	0,095	0,007
-570,904	147,297	-0,095	-0,093
-569,890	-57,665	-0,108	0,034
-568,875	153,835	0,099	0,099
-567,861	116,285	0,148	0,133
-566,846	800,000	0,012	-0,026
-565,831	800,000	-0,045	-0,134
-564,817	82,160	-0,111	-0,088
-563,802	-200,000	0,016	0,092
-562,788	800,000	0,046	-0,112
-561,773	-200,000	0,016	-0,097
-560,758	-58,931	0,109	0,034
-559,744	75,043	0,094	0,073
-558,729	120,178	-0,041	0,037
-557,715	-71,968	-0,086	-0,023
-556,700	468,316	-0,102	-0,168
-555,685	-200,000	-0,018	-0,121
-554,671	-200,000	-0,003	-0,032
-553,656	47,429	0,168	-0,114
-552,642	800,000	0,057	0,131
-551,627	-200,000	0,020	0,146
-550,612	-200,000	-0,035	-0,197
-549,598	40,107	0,107	-0,070
-548,583	-200,000	0,002	-0,045
-547,569	9,774	0,024	0,013
-546,554	33,334	0,052	0,033
-545,539	71,418	0,107	0,081
-544,525	-108,427	-0,096	-0,015
-543,510	-200,000	-0,024	-0,139
-542,496	11,220	-0,127	-0,071
-541,481	26,053	-0,057	0,035
-540,466	800,000	-0,033	-0,070
-539,452	-200,000	0,011	0,039
-538,437	190,411	0,045	0,049
-537,423	800,000	-0,059	-0,127
-536,408	-200,000	-0,004	-0,033
-535,393	164,252	-0,165	0,170
-534,379	55,359	0,076	-0,053
-533,364	46,830	-0,085	-0,058
-532,350	42,807	0,087	0,058
-531,335	800,000	-0,024	0,077
-530,321	-89,425	-0,026	0,006
-529,306	-94,650	-0,088	0,017
-528,291	78,559	-0,071	0,056
-527,277	228,120	0,041	-0,049
-526,262	346,180	-0,053	-0,076
-525,248	270,302	-0,035	0,045
-524,233	800,000	0,016	-0,041
-523,218	-94,798	0,073	-0,014
-522,204	42,548	0,025	-0,016
-521,189	165,762	-0,072	-0,074
-520,175	-108,799	0,082	0,013
-519,160	-200,000	0,009	-0,042
-518,145	87,997	0,084	0,068
-517,131	22,823	0,006	-0,004
-516,116	800,000	-0,050	0,128
-515,102	-200,000	0,001	0,125
-514,087	-200,000	-0,012	-0,043
-513,072	-200,000	0,009	-0,069
-512,058	800,000	0,074	0,163
-511,043	88,095	0,038	-0,031
-510,029	-200,000	-0,035	-0,135
-509,014	-168,463	0,104	-0,003
-507,999	6,669	-0,091	0,049
-506,985	-57,748	-0,106	-0,034
-505,970	-68,814	-0,077	-0,022
-504,956	105,421	0,019	0,017
-503,941	53,235	0,009	-0,006
-502,926	27,909	0,186	0,114
-501,912	-168,245	0,101	-0,003
-500,897	800,000	0,028	0,066
-499,883	-11,321	-0,091	-0,044
-498,868	480,904	-0,027	-0,044
-497,853	758,697	0,045	-0,090
-496,839	-73,009	0,161	-0,043
-495,824	800,000	-0,060	0,135
-494,810	-200,000	-0,028	-0,126
-493,795	-200,000	-0,034	0,119
-492,781	204,301	-0,081	0,091
-491,766	-200,000	0,015	-0,052
-490,751	220,674	-0,066	-0,077
-489,737	-200,000	-0,021	-0,134
-488,722	800,000	-0,037	0,083
-487,708	-62,314	0,087	-0,026
-486,693	-200,000	0,014	0,116
-485,678	316,722	-0,047	-0,065
-484,664	42,622	0,116	-0,077
-483,649	-93,403	-0,109	0,022
-482,635	117,352	0,054	-0,049
-481,620	81,451	0,077	0,061
-480,605	-89,278	0,062	0,013
-479,591	-121,011	0,052	-0,006
-478,576	-200,000	-0,012	0,054
-477,562	-200,000	-0,009	-0,031
-476,547	-115,187	-0,113	-0,015
-475,532	118,845	-0,124	-0,112
-474,518	-200,000	-0,082	-0,000
-473,503	-80,375	-0,066	0,016
-472,489	-154,629	0,133	0,006
-471,474	334,286	-0,053	0,075
-470,459	-200,000	-0,058	-0,261
-469,445	56,086	-0,105	0,074
-468,430	403,336	0,049	-0,075
-467,416	-98,917	0,032	-0,006
-466,401	-127,112	-0,092	-0,010
-465,386	-100,890	0,048	0,008
-464,372	541,752	0,020	-0,035
-463,357	-200,000	0,011	-0,172
-462,343	743,161	-0,021	-0,041
-461,328	23,248	-0,013	0,008
-460,313	-81,627	-0,056	-0,013
-459,299	-200,000	0,036	0,116
-458,284	-45,677	-0,046	0,016
-457,270	-65,249	0,146	0,042
-456,255	-200,000	0,001	-0,035
-455,241	25,453	-0,087	-0,053
-454,226	-83,915	-0,077	-0,018
-453,211	800,000	0,070	0,144
-452,197	212,307	-0,014	0,016
-451,182	81,954	0,028	0,022
-450,168	-106,397	0,107	0,017
-449,153	441,413	-0,068	-0,109
-448,138	-200,000	0,002	-0,190
-447,124	-200,000	0,010	-0,065
-446,109	15,727	0,080	0,046
-445,095	-141,443	0,116	-0,008
-444,080	157,610	-0,081	0,082
-443,065	-80,736	-0,030	-0,007
-442,051	800,000	0,058	-0,123
-441,036	-23,336	-0,134	-0,059
-440,022	-105,539	0,033	0,005
-439,007	-200,000	0,011	-0,164
-437,992	12,332	0,117	0,066
-436,978	-200,000	0,017	0,122
-435,963	-101,880	0,067	0,012
-434,949	-109,139	-0,145	-0,022
-433,934	-200,000	-0,014	-0,146
-432,919	-9,053	0,109	-0,053
-431,905	583,139	-0,038	-0,069
-430,890	-200,000	0,006	-0,071
-429,876	-200,000	-0,013	-0,086
-428,861	800,000	-0,012	0,030
-427,846	31,928	-0,044	0,028
-426,832	34,751	-0,111	-0,070
-425,817	-200,000	-0,008	-0,078
-424,803	187,703	0,065	-0,071
-423,788	-104,047	0,081	0,014
-422,773	-200,000	-0,005	-0,050
-421,759	373,526	-0,014	0,020
-420,744	-9,115	0,052	0,025
-419,730	74,881	-0,093	0,071
-418,715	313,375	-0,071	-0,097
-417,701	709,722	-0,052	-0,100
-416,686	456,158	0,051	-0,082
-415,671	-151,120	0,130	0,007
-414,657	800,000	0,045	-0,108
-413,642	800,000	-0,048	0,113
-412,628	-68,933	0,053	0,015
-411,613	32,744	-0,015	0,009
-410,598	9,459	-0,048	-0,026
-409,584	800,000	0,023	-0,059
-408,569	353,068	0,010	0,014
-407,555	-200,000	0,095	-0,000
-406,540	-128,310	-0,173	-0,018
-405,525	-74,913	0,019	-0,005
-404,511	-161,759	-0,080	-0,003
-403,496	30,828	-0,095	-0,059
-402,482	73,594	-0,042	0,032
-401,467	-96,087	-0,121	0,023
-400,452	-200,000	-0,006	-0,030
-399,438	-111,709	-0,120	0,017
-398,423	-16,983	0,056	0,026
-397,409	-200,000	-0,004	-0,084
-396,394	-64,678	0,072	-0,021
-395,379	-200,000	-0,018	-0,092
-394,365	-72,001	0,102	0,027
-393,350	-69,846	-0,154	0,042
-392,336	-96,485	-0,065	-0,012
-391,321	-200,000	-0,005	0,103
-390,306	-200,000	-0,003	0,036
-389,292	23,118	-0,070	-0,042
-388,277	-65,012	-0,106	-0,031
-387,263	47,645	-0,049	-0,033
-386,248	-200,000	-0,011	0,173
-385,233	-114,526	-0,093	-0,013
-384,219	-102,448	-0,106	0,018
-383,204	-112,037	-0,132	-0,019
-382,190	88,323	-0,125	-0,101
-381,175	-110,785	0,134	0,020
-380,160	143,769	0,067	0,065
-379,146	-93,498	0,123	-0,025
-378,131	-134,352	0,208	-0,018
-377,117	-30,071	-0,079	0,032
-376,102	92,378	0,124	0,102
-375,088	-80,010	-0,084	0,020
-374,073	-84,671	0,071	-0,016
-373,058	770,565	0,010	-0,021
-372,044	-107,187	0,032	0,005
-371,029	800,000	-0,087	-0,189
-370,015	800,000	0,032	-0,093
-369,000	-200,000	0,003	0,024
-367,985	1,236	0,073	-0,038
-366,971	-200,000	-0,015	0,149
-365,956	149,111	0,092	0,090
-364,942	-200,000	0,011	0,104
-363,927	97,570	0,084	0,070
-362,912	16,407	-0,139	0,079
-361,898	223,359	0,065	0,076
-360,883	234,207	-0,064	0,076
-359,869	-200,000	0,015	0,060
-358,854	-200,000	-0,008	0,072
-357,839	207,265	0,089	0,101
-356,825	800,000	-0,056	0,128
-355,810	-90,910	0,135	0,028
-354,796	180,432	-0,083	-0,088
-353,781	-122,205	-0,107	-0,013
-352,766	-111,051	-0,087	-0,013
-351,752	800,000	0,042	0,121
-350,737	-198,296	-0,090	-0,000
-349,723	295,087	0,020	0,027
-348,708	800,000	-0,073	0,168
-347,693	800,000	0,023	0,060
-346,679	-200,000	0,017	-0,074
-345,664	-52,737	0,059	0,020
-344,650	205,966	0,011	0,012
-343,635	-22,286	0,092	0,040
-342,620	349,834	0,038	0,054
-341,606	92,051	0,028	-0,023
-340,591	-200,000	-0,022	-0,110
-339,577	26,527	0,031	-0,019
-338,562	-160,551	-0,078	0,003
-337,548	800,000	0,020	0,061
-336,533	-200,000	-0,021	-0,074
-335,518	-200,000	0,004	0,083
-334,504	-200,000	0,002	0,059
-333,489	800,000	-0,032	0,072
-332,475	-92,142	0,054	0,011
-331,460	3,827	0,175	-0,093
-330,445	143,606	0,105	0,101
-329,431	506,289	0,044	0,074
-328,416	-135,336	-0,059	0,005
-327,402	-200,000	-0,019	0,113
-326,387	800,000	0,034	0,107
-325,372	-103,548	0,041	0,007
-324,358	-83,303	-0,196	-0,045
-323,343	51,142	0,049	-0,033
-322,329	-200,000	0,072	0,000
-321,314	20,026	-0,068	-0,040
-320,299	-88,796	0,125	0,027
-319,285	24,070	-0,114	0,068
-318,270	97,274	0,049	-0,041
-317,256	228,266	0,030	0,035
-316,241	-200,000	0,005	0,058
-315,226	336,776	-0,031	0,044
-314,212	96,727	-0,034	0,028
-313,197	224,402	-0,076	-0,090
-312,183	221,902	0,070	0,082
-311,168	60,565	-0,065	0,046
-310,153	221,069	0,103	-0,120
-309,139	180,327	-0,047	-0,050
-308,124	-200,000	0,000	0,017
-307,110	800,000	0,022	0,067
-306,095	-200,000	0,033	-0,119
-305,080	800,000	-0,039	0,088
-304,066	376,396	0,065	0,097
-303,051	544,891	0,036	-0,063
-302,037	168,316	0,104	-0,108
-301,022	139,051	0,050	-0,048
-300,008	800,000	-0,033	0,080
-298,993	678,826	0,088	-0,167
-297,978	-156,256	-0,105	0,005
-296,964	352,076	-0,050	0,072
-295,949	-200,000	0,032	-0,148
-294,935	-195,444	-0,109	0,001
-293,920	217,981	0,032	-0,038
-292,905	-200,000	0,023	-0,090
-291,891	48,393	0,115	0,078
-290,876	285,986	-0,051	0,066
-289,862	32,600	-0,161	-0,100
-288,847	-200,000	-0,018	-0,144
-287,832	800,000	-0,044	-0,092
-286,818	318,159	0,091	0,125
-285,803	-29,132	-0,081	-0,034
-284,789	3,149	0,083	-0,043
-283,774	-200,000	-0,012	0,049
-282,759	-44,021	-0,044	0,016
-281,745	547,241	-0,022	-0,039
-280,730	42,697	-0,057	-0,038
-279,716	-96,260	-0,112	-0,021
-278,701	-60,921	0,063	-0,019
-277,686	-200,000	-0,046	0,193
-276,672	2,403	0,058	0,030
-275,657	83,602	-0,053	-0,042
-274,643	9,445	0,054	-0,029
-273,628	169,859	0,034	-0,035
-272,613	175,649	-0,049	0,052
-271,599	-200,000	0,033	0,122
-270,584	-88,832	0,126	0,027
-269,570	-64,749	0,128	0,037
-268,555	-200,000	-0,021	0,074
-267,540	-121,062	-0,081	-0,010
-266,526	335,456	0,056	0,078
-265,511	653,026	0,053	0,100
-264,497	42,335	-0,061	0,040
-263,482	38,646	0,096	-0,062
-262,467	-200,000	0,030	0,120
-261,453	-84,086	0,108	0,025
-260,438	-200,000	-0,051	-0,164
-259,424	558,073	-0,018	-0,031
-258,409	-200,000	-0,041	-0,189
-257,395	-200,000	-0,017	0,070
-256,380	-200,000	-0,033	0,148
-255,365	-136,945	0,131	-0,011
-254,351	125,825	0,046	-0,042
-253,336	-65,959	-0,033	-0,009
-252,322	139,755	-0,096	0,091
-251,307	-8,082	-0,055	-0,027
-250,292	-42,391	0,022	0,008
-249,278	-118,441	0,089	-0,011
-248,263	-200,000	0,025	-0,084
-247,249	198,948	-0,065	0,072
-246,234	47,831	-0,093	0,062
-245,219	-200,000	0,014	-0,177
-244,205	-81,838	-0,029	0,007
-243,190	-200,000	-0,000	-0,068
-242,176	800,000	-0,026	0,074
-241,161	79,543	0,053	0,041
-240,146	214,037	-0,106	-0,122
-239,132	-186,226	0,068	-0,001
-238,117	-106,322	-0,167	-0,027
-237,103	-171,368	0,067	0,002
-236,088	309,446	-0,011	-0,015
-235,073	-141,837	0,121	0,009
-234,059	-58,457	-0,055	-0,017
-233,044	132,130	0,029	0,027
-232,030	-90,216	0,126	-0,026
-231,015	317,392	-0,056	-0,077
-230,000	36,978	-0,083	0,053
-228,986	181,905	-0,060	0,064
-227,971	-200,000	-0,013	-0,108
-226,957	-62,970	0,106	-0,031
-225,942	-46,659	-0,080	0,028
-224,927	-200,000	0,034	0,121
-223,913	-200,000	-0,008	-0,028
-222,898	723,681	-0,079	0,153
-221,884	-68,963	0,055	-0,015
-220,869	-200,000	0,025	-0,090
-219,855	178,119	-0,059	0,063
-218,840	-62,647	0,035	0,010
-217,825	-71,661	0,110	-0,029
-216,811	2,718	-0,102	-0,053
-215,796	344,874	-0,045	0,063
-214,782	-92,726	-0,084	-0,017
-213,767	-200,000	-0,005	-0,029
-212,752	-200,000	0,012	-0,062
-211,738	800,000	-0,013	-0,029
-210,723	-15,112	0,051	0,023
-209,709	-3,544	-0,086	-0,043
-208,694	-113,894	0,130	-0,018
-207,679	-34,666	-0,139	0,055
-206,665	82,886	0,123	-0,096
-205,650	-117,280	0,069	0,009
-204,636	-8,662	0,028	0,014
-203,621	511,753	0,085	-0,143
-202,606	-52,446	-0,068	0,023
-201,592	-32,748	0,115	-0,046
-200,577	-102,388	-0,162	0,028
-199,563	-82,235	0,045	0,010
-198,548	69,591	0,154	-0,114
-197,533	-33,379	-0,048	0,019
-196,519	-200,000	0,007	0,059
-195,504	353,558	-0,041	-0,058
-194,490	128,231	0,018	0,017
-193,475	-200,000	-0,033	-0,134
-192,460	800,000	0,017	0,045
-191,446	33,507	0,074	0,046
-190,431	-82,926	0,071	-0,016
-189,417	800,000	0,016	0,037
-188,402	-200,000	0,022	-0,082
-187,387	800,000	0,032	0,093
-186,373	-200,000	0,017	0,129
-185,358	205,453	0,078	0,088
-184,344	114,439	0,133	0,117
-183,329	-115,649	0,094	0,013
-182,315	-0,894	-0,044	-0,022
-181,300	-200,000	-0,015	0,053
-180,285	-119,847	-0,097	0,012
-179,271	-96,553	-0,021	-0,004
-178,256	-200,000	0,015	0,059
-177,242	-48,338	-0,069	-0,024
-176,227	-200,000	0,019	0,064
-175,212	793,525	0,049	0,097
-174,198	297,383	0,023	0,030
-173,183	350,906	-0,081	-0,116
-172,169	-54,648	-0,032	-0,011
-171,154	-47,459	0,018	-0,006
-170,139	-62,265	0,018	-0,005
-169,125	-125,138	0,113	0,012
-168,110	561,445	0,013	-0,023
-167,096	154,603	0,083	0,082
-166,081	-200,000	0,007	0,022
-165,066	-110,430	-0,085	-0,013
-164,052	-200,000	0,011	-0,118
-163,037	-200,000	0,018	0,120
-162,023	-153,614	0,080	-0,004
-161,008	-200,000	-0,031	-0,113
-159,993	25,332	0,114	0,068
-158,979	353,458	-0,052	0,075
-157,964	60,332	-0,040	-0,028
-156,950	84,908	-0,076	-0,060
-155,935	57,690	-0,071	0,050
-154,920	-82,598	0,038	0,009
-153,906	800,000	-0,088	0,185
-152,891	-87,066	0,165	-0,036
-151,877	65,577	-0,165	-0,120
-150,862	181,236	-0,049	0,052
-149,847	-78,067	0,099	-0,024
-148,833	394,038	-0,037	-0,055
-147,818	12,133	0,054	0,030
-146,804	26,204	0,129	-0,077
-145,789	-136,601	0,031	0,003
-144,775	-108,593	0,136	0,021
-143,760	238,645	0,097	0,116
-142,745	800,000	-0,036	-0,087
-141,731	55,929	0,053	0,037
-140,716	-83,879	-0,084	-0,019
-139,702	-94,866	-0,095	0,018
-138,687	176,603	0,076	-0,079
-137,672	-106,658	-0,097	-0,015
-136,658	800,000	-0,037	-0,102
-135,643	137,865	0,028	0,026
-134,629	80,341	-0,083	-0,064
-133,614	76,278	0,119	-0,091
-132,599	-200,000	-0,009	0,054
-131,585	590,080	0,056	0,100
-130,570	25,324	-0,078	-0,047
-129,556	-64,408	-0,061	-0,018
-128,541	117,043	-0,052	-0,046
-127,526	625,171	0,025	0,045
-126,512	-74,746	0,088	-0,023
-125,497	111,333	-0,052	0,045
-124,483	457,415	0,031	0,049
-123,468	-91,677	0,089	0,018
-122,453	-200,000	-0,023	-0,084
-121,439	-78,077	0,124	-0,030
-120,424	-1,291	0,068	-0,035
-119,410	800,000	-0,029	-0,084
