DTS Sentinel unit serial number:	SN410029Multiplexer serial number:	ORYXHardware model number:	OX2-SRSoftware version number:	ORYX F/W v4,00 Oryx Data Collector v3.7.2.0data status	okinstallation	B5 Nyhavnadifferential loss correction	single-endedforward channel	channel 2reverse channel	N/Adate	2023/12/12time	14:02:13forward acquisition time	300,00reverse acquisition time	0,00gamma	499,1914k internal	0,3157k external	0,3157temperature offset calibration	1,0000default loss term (dB/km)	0,3820temperature slope calibration	1,0000multiplexer offset coefficient	1,0000multiplexer slope coefficient	1,0000fibre end	0,00T internal ref (°C)	15,76T ext. ref 1 (°C)	-0,30T ext. ref 2 (°C)	-0,56length (m)	temperature (°C)	Stokes	anti-Stokes-744,400	72,219	0,103	0,079
-743,385	-127,185	-0,277	-0,029
-742,371	-107,524	0,098	0,016
-741,356	-67,025	-0,302	0,087
-740,342	320,334	0,098	0,138
-739,327	-61,954	-0,326	0,100
-738,312	800,000	-0,016	0,041
-737,298	-121,608	-0,323	0,039
-736,283	16,684	0,080	-0,046
-735,269	-89,436	-0,286	0,062
-734,254	-200,000	-0,014	-0,059
-733,239	-47,175	-0,353	-0,126
-732,225	-71,234	0,233	0,064
-731,210	6,580	0,042	0,023
-730,196	-200,000	-0,009	0,105
-729,181	-200,000	0,012	0,053
-728,167	146,762	-0,018	-0,018
-727,152	646,458	-0,076	0,143
-726,137	71,673	-0,128	-0,098
-725,123	-66,505	-0,113	-0,033
-724,108	58,836	0,003	-0,002
-723,094	-14,799	0,033	-0,015
-722,079	-103,717	-0,171	0,029
-721,064	-82,388	-0,176	-0,042
-720,050	226,053	-0,072	0,086
-719,035	-11,559	0,113	0,054
-718,021	103,586	-0,023	0,020
-717,006	-85,613	-0,210	-0,048
-715,991	800,000	-0,023	-0,069
-714,977	800,000	-0,070	-0,195
-713,962	376,357	0,013	0,020
-712,948	-6,397	0,059	-0,030
-711,933	800,000	-0,031	-0,100
-710,918	-200,000	0,000	-0,089
-709,904	-41,761	-0,185	-0,069
-708,889	303,177	-0,091	-0,124
-707,875	341,567	0,055	-0,079
-706,860	-200,000	0,012	0,087
-705,845	-48,693	-0,090	-0,032
-704,831	800,000	-0,029	0,072
-703,816	214,178	0,022	0,026
-702,802	-200,000	0,034	-0,116
-701,787	274,947	-0,043	-0,056
-700,772	-200,000	-0,005	0,125
-699,758	-56,912	0,053	0,017
-698,743	370,320	0,046	-0,068
-697,729	-200,000	-0,014	0,048
-696,714	14,367	0,045	-0,026
-695,699	-158,904	-0,088	-0,004
-694,685	169,003	0,050	-0,053
-693,670	-114,311	-0,174	0,024
-692,656	204,708	-0,021	-0,024
-691,641	114,306	0,045	0,041
-690,627	-23,539	0,160	0,070
-689,612	10,693	-0,053	-0,029
-688,597	-120,944	0,107	0,013
-687,583	48,123	0,067	0,046
-686,568	-200,000	-0,002	0,099
-685,554	173,125	-0,106	-0,113
-684,539	1,180	0,081	0,042
-683,524	452,758	-0,070	-0,114
-682,510	554,541	0,038	-0,068
-681,495	125,467	-0,054	-0,050
-680,481	-200,000	0,017	-0,151
-679,466	-158,490	-0,160	-0,007
-678,451	800,000	0,076	-0,190
-677,437	-200,000	0,042	-0,147
-676,422	-200,000	0,020	-0,107
-675,408	-162,153	-0,121	-0,004
-674,393	-91,899	0,156	0,032
-673,378	-123,602	-0,121	-0,014
-672,364	382,404	0,013	0,020
-671,349	262,414	-0,024	0,031
-670,335	-96,391	0,165	0,032
-669,320	45,819	-0,023	-0,016
-668,305	418,959	-0,132	0,209
-667,291	800,000	-0,053	-0,113
-666,276	534,752	-0,065	-0,113
-665,262	-200,000	-0,011	0,039
-664,247	-0,650	-0,083	-0,043
-663,232	-200,000	0,014	0,072
-662,218	-200,000	-0,005	0,086
-661,203	19,854	-0,051	0,030
-660,189	214,092	-0,077	-0,090
-659,174	49,840	-0,059	0,041
-658,159	-33,485	-0,129	-0,052
-657,145	-110,436	-0,047	0,007
-656,130	59,456	0,134	0,097
-655,116	204,592	0,073	-0,084
-654,101	-92,857	0,149	-0,030
-653,086	800,000	-0,003	0,007
-652,072	-25,096	-0,033	0,014
-651,057	727,805	-0,061	-0,120
-650,043	170,726	0,074	-0,078
-649,028	568,014	-0,044	-0,079
-648,014	-200,000	-0,017	0,081
-646,999	63,821	0,004	-0,003
-645,984	23,510	0,109	0,066
-644,970	-200,000	-0,032	-0,117
-643,955	-200,000	-0,002	-0,061
-642,941	-200,000	-0,004	-0,036
-641,926	53,141	0,170	0,119
-640,911	11,149	-0,119	0,066
-639,897	461,863	0,021	0,034
-638,882	230,864	-0,094	0,113
-637,868	-117,841	0,045	-0,006
-636,853	565,263	-0,034	0,060
-635,838	-183,243	-0,129	-0,002
-634,824	800,000	0,030	0,087
-633,809	-200,000	0,022	-0,108
-632,795	-200,000	0,005	0,064
-631,780	-25,457	0,105	0,045
-630,765	-55,676	-0,065	0,021
-629,751	430,165	0,040	-0,064
-628,736	-41,367	0,034	-0,013
-627,722	-28,614	-0,103	-0,043
-626,707	800,000	0,036	-0,078
-625,692	-200,000	0,017	0,058
-624,678	-120,973	-0,047	0,006
-623,663	-200,000	-0,019	0,083
-622,649	-200,000	-0,001	-0,091
-621,634	198,268	-0,013	-0,015
-620,619	-200,000	-0,004	-0,039
-619,605	-200,000	-0,005	-0,054
-618,590	-7,775	-0,041	0,020
-617,576	108,062	-0,036	0,031
-616,561	-133,093	-0,053	-0,005
-615,546	165,284	-0,050	-0,052
-614,532	-46,127	-0,079	-0,028
-613,517	578,956	0,031	0,056
-612,503	-200,000	0,020	0,102
-611,488	44,227	0,042	-0,028
-610,474	264,159	-0,107	0,137
-609,459	800,000	-0,052	-0,152
-608,444	49,204	0,053	-0,037
-607,430	-200,000	0,008	-0,110
-606,415	579,787	0,037	0,067
-605,401	235,345	0,046	-0,056
-604,386	53,924	0,047	-0,033
-603,371	74,104	0,087	0,067
-602,357	40,148	-0,044	0,029
-601,342	185,416	0,050	-0,054
-600,328	45,435	-0,097	0,066
-599,313	-106,266	0,100	-0,016
-598,298	114,060	-0,073	-0,066
-597,284	-200,000	0,010	0,144
-596,269	-200,000	0,012	0,130
-595,255	331,902	-0,012	-0,017
-594,240	-161,588	-0,143	-0,005
-593,225	457,380	-0,061	-0,100
-592,211	18,909	0,098	0,058
-591,196	217,094	-0,071	0,083
-590,182	-69,415	-0,039	0,011
-589,167	37,889	0,087	-0,057
-588,152	800,000	0,019	-0,047
-587,138	-98,747	-0,160	-0,030
-586,123	-63,231	0,037	0,011
-585,109	-200,000	-0,017	-0,069
-584,094	488,403	-0,126	-0,212
-583,079	-200,000	0,005	0,028
-582,065	-68,588	0,171	0,048
-581,050	800,000	-0,013	0,029
-580,036	-200,000	0,027	0,090
-579,021	-29,916	0,046	0,019
-578,006	800,000	-0,015	-0,041
-576,992	-200,000	-0,019	-0,071
-575,977	-200,000	-0,008	-0,031
-574,963	-151,648	-0,079	0,004
-573,948	178,163	0,052	-0,056
-572,934	-54,987	0,072	-0,024
-571,919	100,537	-0,153	-0,130
-570,904	132,001	0,010	0,010
-569,890	-200,000	-0,007	0,099
-568,875	61,430	-0,097	-0,071
-567,861	-86,549	-0,062	-0,014
-566,846	-200,000	0,005	-0,055
-565,831	-200,000	0,018	0,118
-564,817	-133,362	-0,081	0,007
-563,802	-200,000	-0,020	-0,066
-562,788	-131,474	-0,137	-0,013
-561,773	-63,861	0,092	0,027
-560,758	800,000	-0,031	-0,079
-559,744	800,000	0,014	0,041
-558,729	-200,000	-0,007	-0,053
-557,715	169,530	-0,050	-0,052
-556,700	24,196	-0,095	-0,057
-555,685	74,839	-0,061	0,047
-554,671	800,000	-0,054	-0,136
-553,656	15,480	-0,036	-0,020
-552,642	-126,334	0,027	-0,003
-551,627	33,608	-0,085	-0,054
-550,612	-22,429	-0,083	0,037
-549,598	800,000	-0,029	-0,073
-548,583	292,078	-0,093	-0,124
-547,569	558,592	0,069	-0,122
-546,554	-157,924	0,176	-0,007
-545,539	-4,676	0,106	-0,053
-544,525	-71,488	-0,143	0,039
-543,510	-200,000	0,007	-0,047
-542,496	545,434	-0,058	-0,101
-541,481	97,576	-0,110	-0,092
-540,466	62,837	-0,172	-0,126
-539,452	800,000	0,027	-0,077
-538,437	-200,000	0,003	0,168
-537,423	-63,522	0,027	0,008
-536,408	-200,000	0,026	-0,094
-535,393	34,114	-0,113	-0,072
-534,379	800,000	-0,056	-0,136
-533,364	-200,000	0,015	-0,180
-532,350	380,655	0,085	-0,128
-531,335	-200,000	0,005	-0,046
-530,321	-200,000	-0,004	0,133
-529,306	800,000	-0,009	-0,026
-528,291	243,788	-0,070	-0,086
-527,277	800,000	-0,038	-0,091
-526,262	27,298	-0,015	-0,009
-525,248	-200,000	0,017	0,156
-524,233	-200,000	-0,030	-0,111
-523,218	250,923	-0,033	0,041
-522,204	127,811	0,051	-0,048
-521,189	-101,306	-0,123	-0,022
-520,175	-200,000	-0,037	-0,133
-519,160	8,358	0,102	-0,056
-518,145	800,000	-0,020	0,058
-517,131	-111,698	0,055	0,008
-516,116	733,219	0,033	0,065
-515,102	-86,410	-0,106	-0,024
-514,087	174,643	-0,076	0,081
-513,072	581,550	0,057	-0,102
-512,058	-200,000	0,005	-0,065
-511,043	198,779	0,060	0,068
-510,029	-200,000	0,015	-0,116
-509,014	105,626	0,100	0,087
-507,999	800,000	-0,005	-0,012
-506,985	23,499	0,064	-0,039
-505,970	94,327	0,048	0,040
-504,956	20,429	0,038	-0,022
-503,941	-200,000	0,031	0,113
-502,926	536,186	0,023	0,040
-501,912	-138,827	-0,029	-0,002
-500,897	-86,218	0,064	-0,014
-499,883	764,138	0,027	-0,055
-498,868	-23,498	-0,070	0,030
-497,853	-192,969	0,051	0,000
-496,839	-200,000	-0,010	-0,139
-495,824	57,467	0,076	0,054
-494,810	118,682	-0,036	-0,032
-493,795	390,362	0,115	0,175
-492,781	385,512	0,014	-0,021
-491,766	46,555	0,026	-0,018
-490,751	-200,000	0,061	-0,211
-489,737	275,411	0,061	-0,079
-488,722	800,000	0,036	0,093
-487,708	176,416	0,043	0,046
-486,693	800,000	0,022	0,050
-485,678	55,788	-0,124	0,087
-484,664	-200,000	-0,001	0,050
-483,649	-15,814	0,052	-0,024
-482,635	281,772	0,031	-0,041
-481,620	131,325	0,167	0,156
-480,605	-200,000	-0,019	0,092
-479,591	120,781	0,049	-0,045
-478,576	96,841	-0,084	0,070
-477,562	230,322	-0,095	-0,113
-476,547	212,213	-0,046	-0,053
-475,532	121,648	0,017	-0,016
-474,518	-67,435	-0,063	-0,018
-473,503	412,387	0,055	0,086
-472,489	131,259	0,102	-0,096
-471,474	-42,059	-0,093	-0,034
-470,459	-154,423	-0,082	-0,004
-469,445	46,897	-0,195	-0,132
-468,430	241,575	0,077	-0,094
-467,416	-200,000	-0,027	0,126
-466,401	-84,705	0,139	0,032
-465,386	-160,925	-0,057	0,002
-464,372	0,368	0,117	0,061
-463,357	71,638	-0,139	-0,106
-462,343	-52,698	0,092	-0,031
-461,328	-46,014	-0,147	0,053
-460,313	92,448	-0,085	0,070
-459,299	-200,000	0,002	-0,015
-458,284	232,628	-0,073	0,087
-457,270	-85,940	-0,082	-0,018
-456,255	108,953	-0,124	-0,108
-455,241	-200,000	-0,010	-0,114
-454,226	-83,469	-0,115	0,027
-453,211	-85,579	-0,052	0,012
-452,197	426,541	0,066	-0,104
-451,182	-200,000	0,011	0,114
-450,168	-200,000	0,010	-0,092
-449,153	800,000	-0,018	-0,041
-448,138	-200,000	-0,011	0,156
-447,124	421,322	-0,035	0,054
-446,109	800,000	0,046	0,121
-445,095	151,441	0,069	0,069
-444,080	-130,314	0,037	0,004
-443,065	25,142	-0,006	-0,004
-442,051	-113,192	-0,126	0,018
-441,036	800,000	0,069	-0,176
-440,022	800,000	-0,025	-0,077
-439,007	-200,000	-0,005	0,069
-437,992	-200,000	-0,011	0,067
-436,978	38,034	0,030	0,020
-435,963	-37,372	0,031	-0,012
-434,949	2,265	-0,121	0,063
-433,934	27,368	0,078	0,048
-432,919	27,894	-0,046	0,028
-431,905	-76,863	0,050	0,013
-430,890	458,007	0,039	0,063
-429,876	-89,960	0,095	0,020
-428,861	-30,983	0,125	0,051
-427,846	1,247	0,072	-0,037
-426,832	-101,480	-0,057	0,010
-425,817	18,371	0,022	0,013
-424,803	-200,000	-0,002	-0,081
-423,788	27,352	0,080	0,049
-422,773	-200,000	0,003	0,118
-421,759	-116,937	0,164	-0,022
-420,744	-0,522	-0,047	-0,024
-419,730	145,807	0,042	-0,041
-418,715	40,267	-0,113	-0,074
-417,701	645,083	-0,026	-0,048
-416,686	-71,325	0,104	0,028
-415,671	-122,903	0,129	0,015
-414,657	-104,004	0,139	-0,023
-413,642	-21,010	-0,181	0,080
-412,628	-200,000	0,008	0,081
-411,613	-200,000	-0,036	-0,148
-410,598	-200,000	-0,013	0,060
-409,584	209,925	-0,019	0,022
-408,569	-28,982	0,025	-0,010
-407,555	57,006	0,073	0,052
-406,540	-200,000	0,013	-0,053
-405,525	-140,936	0,094	0,007
-404,511	563,818	-0,048	0,085
-403,496	174,918	-0,021	-0,022
-402,482	120,089	0,124	-0,112
-401,467	800,000	0,072	-0,199
-400,452	210,828	-0,023	0,026
-399,438	-0,484	-0,124	0,064
-398,423	-122,265	-0,057	-0,007
-397,409	800,000	-0,005	0,011
-396,394	-23,533	-0,138	0,060
-395,379	-69,620	0,053	-0,015
-394,365	-71,925	0,117	-0,032
-393,350	32,640	0,099	-0,062
-392,336	-64,426	0,080	-0,024
-391,321	800,000	0,008	-0,017
-390,306	-13,887	-0,068	0,032
-389,292	146,750	-0,007	-0,007
-388,277	177,206	0,070	-0,074
-387,263	-160,153	0,021	-0,001
-386,248	-200,000	-0,014	-0,046
-385,233	65,470	0,043	0,031
-384,219	251,883	0,034	0,043
-383,204	-200,000	0,010	-0,050
-382,190	-58,908	-0,121	-0,038
-381,175	-110,372	0,097	-0,015
-380,160	-200,000	0,034	-0,126
-379,146	800,000	0,061	0,173
-378,131	-52,012	0,038	-0,013
-377,117	314,441	-0,051	-0,070
-376,102	173,209	-0,100	0,105
-375,088	-200,000	0,002	-0,046
-374,073	66,731	-0,071	-0,052
-373,058	91,005	-0,041	-0,033
-372,044	800,000	-0,027	-0,065
-371,029	-200,000	-0,007	0,076
-370,015	34,792	0,022	-0,014
-369,000	795,070	-0,073	-0,146
-367,985	-75,154	-0,111	-0,029
-366,971	211,296	-0,070	0,080
-365,956	-200,000	0,015	0,120
-364,942	-200,000	0,020	0,115
-363,927	-167,342	-0,045	0,001
-362,912	-0,099	-0,091	-0,047
-361,898	-200,000	-0,023	0,076
-360,883	-1,011	-0,110	-0,056
-359,869	800,000	0,005	-0,016
-358,854	800,000	0,062	0,182
-357,839	-200,000	0,004	0,098
-356,825	-200,000	-0,001	-0,032
-355,810	800,000	0,061	0,141
-354,796	-200,000	-0,015	-0,052
-353,781	136,247	-0,071	-0,067
-352,766	-89,884	-0,154	-0,032
-351,752	-69,958	0,055	0,015
-350,737	-104,462	0,051	0,008
-349,723	800,000	-0,030	0,087
-348,708	142,802	0,080	0,078
-347,693	32,169	-0,108	-0,067
-346,679	-43,710	-0,113	-0,041
-345,664	74,115	0,070	-0,054
-344,650	339,512	-0,093	-0,132
-343,635	-39,150	0,140	0,053
-342,620	24,550	-0,065	0,039
-341,606	-200,000	-0,015	0,052
-340,591	-133,191	-0,066	-0,006
-339,577	280,906	-0,053	-0,070
-338,562	-200,000	-0,019	-0,085
-337,548	299,452	0,039	-0,053
-336,533	-200,000	0,004	-0,140
-335,518	434,769	0,059	0,093
-334,504	800,000	0,018	0,052
-333,489	-152,949	-0,034	-0,002
-332,475	-115,908	-0,082	-0,011
-331,460	-32,364	0,045	0,018
-330,445	227,904	-0,040	0,048
-329,431	-200,000	0,005	0,050
-328,416	-200,000	-0,010	0,098
-327,402	64,294	-0,061	-0,045
-326,387	-132,512	0,067	-0,006
-325,372	-127,428	-0,211	0,022
-324,358	-118,917	0,100	0,013
-323,343	109,852	0,050	-0,044
-322,329	520,898	-0,040	0,068
-321,314	522,747	0,103	0,175
-320,299	369,005	0,097	0,142
-319,285	16,610	-0,043	-0,025
-318,270	-45,579	-0,097	-0,035
-317,256	19,144	0,083	0,048
-316,241	641,684	0,043	-0,079
-315,226	-112,595	0,121	-0,017
-314,212	-200,000	-0,001	0,020
-313,197	616,955	0,039	-0,072
-312,183	-95,604	0,070	0,013
-311,168	-121,600	0,062	-0,007
-310,153	454,873	-0,019	-0,031
-309,139	177,336	-0,018	0,019
-308,124	800,000	-0,024	-0,056
-307,110	79,761	-0,016	-0,013
-306,095	337,550	0,154	0,218
-305,080	60,534	-0,180	-0,129
-304,066	-200,000	-0,022	-0,150
-303,051	-200,000	-0,007	-0,089
-302,037	263,494	-0,048	-0,060
-301,022	183,448	0,056	0,060
-300,008	-106,506	0,193	0,031
-298,993	-34,626	0,174	0,069
-297,978	307,768	-0,088	0,120
-296,964	-200,000	0,027	0,105
-295,949	13,042	-0,060	-0,034
-294,935	-73,494	-0,072	0,019
-293,920	-75,469	-0,146	0,038
-292,905	-63,713	0,035	0,010
-291,891	-12,348	0,087	-0,041
-290,876	22,933	-0,018	-0,010
-289,862	-106,215	-0,037	-0,006
-288,847	-47,351	-0,136	0,048
-287,832	-200,000	-0,020	0,104
-286,818	800,000	0,037	0,089
-285,803	-123,202	0,193	0,022
-284,789	-123,756	0,149	0,017
-283,774	195,764	-0,026	0,029
-282,759	800,000	0,061	-0,129
-281,745	-200,000	-0,021	-0,136
-280,730	145,580	0,064	-0,062
-279,716	-200,000	0,020	0,092
-278,701	800,000	-0,030	0,086
-277,686	-200,000	-0,025	0,109
-276,672	800,000	0,024	0,063
-275,657	144,470	-0,126	0,122
-274,643	-104,316	-0,107	-0,018
-273,628	86,175	-0,105	-0,084
-272,613	67,685	0,032	0,024
-271,599	800,000	0,043	0,132
-270,584	-16,962	-0,135	0,062
-269,570	-90,689	0,160	-0,033
-268,555	-29,238	-0,053	0,022
-267,540	-101,727	0,018	0,003
-266,526	-41,356	-0,077	-0,029
-265,511	-200,000	-0,003	0,034
-264,497	-9,460	0,010	0,005
-263,482	483,966	0,053	0,088
-262,467	226,225	0,026	0,031
-261,453	592,910	-0,048	-0,087
-260,438	-200,000	-0,004	-0,048
-259,424	-200,000	0,029	-0,133
-258,409	800,000	-0,025	0,061
-257,395	-41,865	0,076	0,028
-256,380	319,508	-0,046	0,063
-255,365	-28,966	0,117	0,048
-254,351	-200,000	0,015	-0,057
-253,336	-200,000	0,005	0,069
-252,322	800,000	0,093	-0,230
-251,307	259,262	0,033	0,042
-250,292	-118,603	0,147	0,019
-249,278	270,028	0,081	0,103
-248,263	-200,000	-0,007	-0,075
-247,249	558,179	-0,044	0,078
-246,234	800,000	0,019	-0,041
-245,219	-200,000	-0,015	-0,093
-244,205	-200,000	-0,133	0,000
-243,190	-200,000	0,007	-0,025
-242,176	682,839	0,036	0,069
-241,161	11,642	-0,053	0,029
-240,146	71,457	-0,055	-0,041
-239,132	-95,365	-0,058	-0,011
-238,117	800,000	0,065	-0,138
-237,103	-200,000	0,033	0,110
-236,088	800,000	0,037	0,079
-235,073	142,663	-0,018	-0,017
-234,059	-200,000	0,010	0,123
-233,044	800,000	0,027	0,070
-232,030	40,463	-0,013	-0,009
-231,015	607,356	0,012	-0,022
-230,000	-200,000	0,019	0,108
-228,986	-144,541	-0,140	0,009
-227,971	-86,700	0,172	0,038
-226,957	-55,957	0,016	-0,005
-225,942	-31,238	0,026	-0,010
-224,927	-107,677	-0,030	0,005
-223,913	-98,416	0,048	-0,009
-222,898	-75,513	-0,021	0,005
-221,884	-200,000	-0,020	-0,080
-220,869	-89,784	0,133	-0,028
-219,855	16,211	0,117	0,066
-218,840	800,000	-0,040	-0,121
-217,825	-200,000	0,003	-0,041
-216,811	50,340	0,058	0,039
-215,796	512,743	-0,087	-0,147
-214,782	-200,000	0,008	-0,053
-213,767	158,382	0,128	0,128
-212,752	-200,000	-0,012	0,094
-211,738	66,398	-0,059	0,044
-210,723	67,071	0,059	0,044
-209,709	-26,719	-0,088	0,037
-208,694	7,875	-0,044	0,024
-207,679	-200,000	0,002	-0,044
-206,665	800,000	0,025	-0,057
-205,650	28,341	0,068	0,042
-204,636	4,158	-0,069	-0,036
-203,621	-200,000	0,008	-0,170
-202,606	258,064	0,007	0,008
-201,592	565,373	0,044	-0,077
-200,577	-70,423	0,114	-0,031
-199,563	167,401	-0,107	0,110
-198,548	452,792	-0,052	0,084
-197,533	534,886	0,065	0,113
-196,519	98,948	0,033	-0,028
-195,504	26,619	0,015	-0,009
-194,490	60,293	0,017	0,012
-193,475	-7,407	0,051	-0,025
-192,460	-200,000	0,012	0,117
-191,446	640,341	-0,055	0,101
-190,431	291,367	0,041	0,054
-189,417	-104,059	-0,047	0,008
-188,402	-70,545	0,043	-0,012
-187,387	-110,989	0,039	0,006
-186,373	-1,593	-0,127	-0,065
-185,358	151,969	-0,096	0,095
-184,344	800,000	0,059	-0,163
-183,329	-200,000	-0,009	-0,097
-182,315	-200,000	-0,001	-0,013
-181,300	444,875	-0,054	0,085
-180,285	224,844	0,048	-0,056
-179,271	-200,000	-0,036	-0,146
-178,256	-200,000	-0,008	-0,059
-177,242	-144,795	0,161	-0,010
-176,227	444,366	-0,070	0,111
-175,212	-79,729	0,019	0,005
-174,198	-200,000	-0,010	0,053
-173,183	-139,857	0,062	0,005
-172,169	721,217	-0,064	0,123
-171,154	-15,026	0,179	0,082
-170,139	59,920	0,111	0,079
-169,125	800,000	-0,045	0,135
-168,110	800,000	-0,050	-0,125
-167,096	-45,792	0,065	0,023
-166,081	470,454	0,025	-0,040
-165,066	215,384	-0,050	0,057
-164,052	171,912	0,061	-0,063
-163,037	-137,917	0,026	-0,002
-162,023	179,092	-0,030	-0,032
-161,008	-200,000	-0,032	0,187
-159,993	-200,000	-0,002	-0,015
-158,979	-47,366	0,015	-0,005
-157,964	-200,000	0,005	0,047
-156,950	800,000	0,016	-0,050
-155,935	800,000	-0,039	0,088
-154,920	150,965	0,097	0,095
-153,906	800,000	0,042	0,097
-152,891	-81,753	0,075	-0,018
-151,877	800,000	0,025	0,077
-150,862	-36,826	0,082	0,032
-149,847	65,086	-0,157	-0,114
-148,833	-147,859	0,046	-0,003
-147,818	251,084	-0,038	0,047
-146,804	93,841	-0,042	-0,034
-145,789	-200,000	0,005	0,062
-144,775	47,455	-0,102	-0,069
-143,760	-105,495	-0,013	0,002
-142,745	-200,000	0,005	-0,118
-141,731	-200,000	-0,004	0,064
-140,716	-200,000	0,037	0,166
-139,702	-156,028	0,095	0,004
-138,687	44,898	-0,063	0,042
-137,672	506,810	-0,076	-0,127
-136,658	-117,422	-0,157	-0,020
-135,643	-200,000	-0,007	-0,074
-134,629	-72,143	-0,059	0,016
-133,614	764,953	0,028	-0,056
-132,599	-200,000	-0,010	-0,055
-131,585	-107,094	-0,158	-0,025
-130,570	4,661	-0,124	-0,065
-129,556	27,838	-0,113	0,068
-128,541	480,247	-0,029	-0,047
-127,526	-200,000	-0,006	-0,062
-126,512	800,000	0,032	-0,090
-125,497	358,553	0,094	0,136
-124,483	-200,000	-0,034	0,150
-123,468	-200,000	0,033	0,202
-122,453	800,000	0,031	-0,095
-121,439	-200,000	-0,017	-0,059
-120,424	-200,000	-0,050	-0,207
-119,410	153,119	-0,035	0,035
