DTS Sentinel unit serial number:	SN410029Multiplexer serial number:	ORYXHardware model number:	OX2-SRSoftware version number:	ORYX F/W v4,00 Oryx Data Collector v3.7.2.0data status	okinstallation	B5 Nyhavnadifferential loss correction	single-endedforward channel	channel 2reverse channel	N/Adate	2023/12/13time	23:57:13forward acquisition time	300,00reverse acquisition time	0,00gamma	499,1914k internal	0,3154k external	0,3154temperature offset calibration	1,0000default loss term (dB/km)	0,3820temperature slope calibration	1,0000multiplexer offset coefficient	1,0000multiplexer slope coefficient	1,0000fibre end	0,00T internal ref (°C)	8,75T ext. ref 1 (°C)	-7,55T ext. ref 2 (°C)	-7,55length (m)	temperature (°C)	Stokes	anti-Stokes-744,400	-131,534	0,125	-0,012
-743,385	-112,354	-0,473	-0,069
-742,371	310,138	0,109	0,151
-741,356	-51,885	-0,252	-0,086
-740,342	800,000	0,083	0,217
-739,327	-84,826	-0,418	-0,096
-738,312	-28,994	0,154	0,065
-737,298	-168,682	-0,329	0,009
-736,283	-18,931	0,108	0,049
-735,269	-60,662	-0,329	-0,102
-734,254	800,000	0,027	0,057
-733,239	-4,142	-0,508	-0,259
-732,225	-84,720	0,269	0,062
-731,210	106,702	0,034	-0,030
-730,196	800,000	-0,073	-0,172
-729,181	800,000	-0,087	0,200
-728,167	540,459	-0,052	-0,091
-727,152	-80,229	-0,048	0,012
-726,137	-200,000	0,005	-0,125
-725,123	800,000	-0,023	0,064
-724,108	-200,000	-0,011	-0,239
-723,094	-200,000	-0,006	0,028
-722,079	-200,000	-0,010	0,052
-721,064	564,281	-0,048	-0,086
-720,050	-13,790	-0,048	0,023
-719,035	129,817	-0,033	0,031
-718,021	676,471	-0,028	-0,054
-717,006	367,562	-0,067	0,100
-715,991	719,806	-0,022	0,043
-714,977	385,327	-0,059	-0,090
-713,962	-200,000	0,004	0,083
-712,948	57,793	0,096	0,069
-711,933	-48,624	-0,054	-0,019
-710,918	45,012	-0,009	-0,006
-709,904	24,982	0,104	-0,063
-708,889	213,929	-0,064	-0,074
-707,875	170,797	-0,094	-0,099
-706,860	-95,152	0,106	0,021
-705,845	89,765	0,159	0,131
-704,831	54,188	0,040	0,028
-703,816	5,294	-0,064	-0,035
-702,802	280,614	-0,046	0,061
-701,787	800,000	-0,042	0,091
-700,772	-22,206	-0,043	0,019
-699,758	15,905	-0,074	0,043
-698,743	800,000	0,054	0,121
-697,729	-200,000	0,031	0,170
-696,714	43,044	0,155	0,104
-695,699	-7,986	-0,120	0,059
-694,685	20,957	-0,053	-0,032
-693,670	-137,367	-0,217	-0,018
-692,656	779,215	0,065	0,131
-691,641	800,000	0,028	0,084
-690,627	292,852	0,053	0,071
-689,612	-200,000	-0,043	0,151
-688,597	800,000	-0,013	-0,034
-687,583	440,863	-0,063	0,101
-686,568	800,000	-0,058	-0,119
-685,554	-9,759	-0,080	0,039
-684,539	-197,227	0,223	0,001
-683,524	-163,751	-0,090	0,003
-682,510	800,000	0,058	0,129
-681,495	257,048	0,067	0,085
-680,481	142,798	-0,057	0,056
-679,466	19,116	0,040	-0,024
-678,451	33,044	0,044	0,028
-677,437	-68,927	0,108	0,031
-676,422	-15,956	-0,013	-0,006
-675,408	-114,922	-0,142	0,020
-674,393	-200,000	-0,001	0,053
-673,378	486,653	-0,090	-0,152
-672,364	-200,000	0,013	-0,082
-671,349	70,351	-0,131	-0,100
-670,335	-200,000	0,000	-0,024
-669,320	800,000	0,042	0,112
-668,305	800,000	0,061	0,154
-667,291	-200,000	-0,021	0,123
-666,276	157,533	-0,078	-0,080
-665,262	800,000	-0,036	-0,105
-664,247	-103,460	-0,043	-0,007
-663,232	800,000	0,053	0,121
-662,218	104,946	0,032	0,028
-661,203	84,516	-0,076	0,061
-660,189	-71,758	0,127	-0,035
-659,174	800,000	-0,026	-0,077
-658,159	-66,049	0,106	-0,031
-657,145	-200,000	-0,003	-0,110
-656,130	188,397	0,116	0,128
-655,116	-51,731	0,125	-0,043
-654,101	-42,576	-0,073	0,027
-653,086	-200,000	-0,025	-0,088
-652,072	-200,000	0,038	-0,174
-651,057	-115,823	-0,162	0,022
-650,043	313,210	-0,070	0,098
-649,028	473,438	-0,058	0,096
-648,014	646,544	-0,060	0,113
-646,999	-200,000	0,026	0,137
-645,984	17,855	-0,132	-0,077
-644,970	200,868	-0,046	-0,052
-643,955	-19,930	0,042	-0,019
-642,941	33,708	-0,145	0,092
-641,926	-40,851	0,117	-0,044
-640,911	-147,260	-0,162	0,010
-639,897	340,055	0,068	0,097
-638,882	795,625	-0,012	0,024
-637,868	-70,855	-0,030	-0,008
-636,853	10,552	-0,175	-0,098
-635,838	-200,000	-0,013	-0,099
-634,824	229,033	0,059	-0,071
-633,809	13,018	0,080	-0,045
-632,795	36,391	0,097	0,062
-631,780	-130,922	0,113	-0,011
-630,765	629,016	-0,032	0,060
-629,751	32,537	-0,059	0,037
-628,736	-200,000	0,029	0,103
-627,722	-200,000	0,005	-0,067
-626,707	-134,593	-0,111	0,010
-625,692	69,866	0,066	0,050
-624,678	-200,000	0,023	0,077
-623,663	253,494	-0,015	-0,019
-622,649	-200,000	-0,027	-0,130
-621,634	232,205	-0,027	0,033
-620,619	102,589	-0,103	-0,088
-619,605	-113,190	0,126	0,018
-618,590	-16,443	-0,108	0,050
-617,576	26,109	0,069	0,042
-616,561	150,520	0,055	-0,055
-615,546	318,466	-0,114	-0,159
-614,532	225,306	-0,069	0,083
-613,517	-151,270	0,143	-0,008
-612,503	19,554	0,042	-0,025
-611,488	-148,480	0,047	-0,003
-610,474	120,707	-0,099	0,090
-609,459	-151,988	-0,077	0,004
-608,444	-200,000	0,008	-0,102
-607,430	276,827	0,035	-0,046
-606,415	-200,000	0,007	-0,240
-605,401	-200,000	-0,019	-0,085
-604,386	536,651	-0,037	-0,065
-603,371	-67,705	0,118	0,034
-602,357	192,294	0,028	-0,031
-601,342	-76,925	-0,100	0,025
-600,328	6,061	0,045	0,025
-599,313	208,535	-0,026	-0,030
-598,298	-200,000	0,001	0,096
-597,284	800,000	-0,029	0,075
-596,269	-131,228	0,054	0,005
-595,255	800,000	0,019	0,039
-594,240	8,322	0,056	-0,031
-593,225	36,806	-0,080	0,052
-592,211	240,173	0,071	0,087
-591,196	-121,918	-0,074	0,009
-590,182	62,940	0,067	0,049
-589,167	-173,356	-0,048	-0,001
-588,152	800,000	-0,017	0,054
-587,138	109,405	0,022	-0,019
-586,123	759,168	-0,060	-0,119
-585,109	-5,579	-0,190	-0,095
-584,094	800,000	-0,030	-0,093
-583,079	25,251	0,097	0,059
-582,065	-200,000	0,024	0,200
-581,050	800,000	-0,034	0,075
-580,036	-100,949	0,140	-0,025
-579,021	52,246	-0,031	0,022
-578,006	165,314	-0,049	0,051
-576,992	-200,000	0,020	0,096
-575,977	-162,423	0,037	0,001
-574,963	-93,909	0,093	0,019
-573,948	256,737	-0,116	0,146
-572,934	-200,000	-0,003	0,033
-571,919	623,301	-0,124	0,230
-570,904	6,149	-0,158	-0,086
-569,890	-68,359	-0,157	-0,044
-568,875	113,910	0,085	-0,076
-567,861	-146,231	-0,017	0,001
-566,846	556,764	-0,048	0,085
-565,831	99,214	-0,070	-0,059
-564,817	345,407	-0,095	-0,137
-563,802	-129,723	0,103	-0,010
-562,788	-200,000	0,033	-0,168
-561,773	33,502	0,104	0,066
-560,758	-75,300	-0,116	0,030
-559,744	123,515	0,037	0,034
-558,729	-27,215	-0,074	-0,032
-557,715	-34,695	-0,058	-0,023
-556,700	-95,869	-0,080	0,016
-555,685	75,905	-0,078	-0,060
-554,671	800,000	0,030	-0,088
-553,656	347,995	0,081	0,118
-552,642	-73,042	-0,060	0,016
-551,627	800,000	0,010	0,026
-550,612	-31,788	-0,056	0,023
-549,598	-125,229	-0,195	-0,022
-548,583	-200,000	-0,017	0,069
-547,569	-153,071	-0,060	0,003
-546,554	-50,230	0,111	-0,038
-545,539	106,141	0,030	0,026
-544,525	-118,838	0,097	0,012
-543,510	77,008	-0,068	0,053
-542,496	71,197	0,149	-0,113
-541,481	289,063	-0,057	-0,075
-540,466	376,334	-0,074	-0,112
-539,452	-52,266	0,060	0,020
-538,437	800,000	0,028	-0,076
-537,423	-35,838	0,085	0,034
-536,408	479,313	0,055	0,092
-535,393	-110,609	-0,217	-0,032
-534,379	-139,691	0,037	0,003
-533,364	-19,316	-0,026	-0,012
-532,350	464,748	-0,053	-0,087
-531,335	262,746	-0,045	0,057
-530,321	-200,000	0,008	0,035
-529,306	159,525	0,085	0,087
-528,291	-200,000	-0,017	-0,068
-527,277	37,474	0,015	-0,010
-526,262	5,045	-0,112	0,060
-525,248	-83,518	-0,091	-0,021
-524,233	-200,000	-0,020	0,118
-523,218	0,413	0,107	0,056
-522,204	-200,000	-0,019	0,105
-521,189	-15,654	-0,130	-0,060
-520,175	-100,966	0,033	-0,006
-519,160	23,390	-0,051	0,031
-518,145	101,224	0,061	-0,052
-517,131	-42,922	-0,111	0,041
-516,116	165,239	0,091	0,094
-515,102	800,000	-0,020	0,045
-514,087	-200,000	-0,008	0,033
-513,072	33,598	-0,089	-0,057
-512,058	655,590	-0,064	0,120
-511,043	800,000	0,083	0,210
-510,029	-200,000	-0,022	0,123
-509,014	140,944	0,059	-0,057
-507,999	-200,000	0,001	0,172
-506,985	-143,900	-0,143	0,010
-505,970	-127,204	0,070	0,007
-504,956	-190,400	-0,040	-0,000
-503,941	103,842	-0,093	0,080
-502,926	-17,919	-0,136	-0,062
-501,912	410,659	0,102	0,159
-500,897	-195,290	-0,119	-0,001
-499,883	291,847	0,038	-0,051
-498,868	319,191	-0,041	-0,056
-497,853	-200,000	0,012	0,093
-496,839	187,677	0,067	-0,073
-495,824	557,652	-0,046	0,082
-494,810	-200,000	-0,035	0,123
-493,795	800,000	0,019	0,045
-492,781	-200,000	-0,010	0,062
-491,766	-63,658	0,069	-0,021
-490,751	-200,000	0,066	0,250
-489,737	800,000	0,029	0,073
-488,722	351,999	-0,015	0,022
-487,708	51,933	-0,051	0,036
-486,693	214,778	0,056	-0,065
-485,678	800,000	-0,055	0,123
-484,664	176,594	-0,015	-0,016
-483,649	-200,000	0,010	-0,060
-482,635	-200,000	0,005	-0,028
-481,620	100,524	-0,062	-0,053
-480,605	-47,960	0,069	0,024
-479,591	296,109	0,038	0,051
-478,576	146,060	0,066	-0,065
-477,562	-200,000	-0,001	-0,027
-476,547	-200,000	0,011	0,048
-475,532	744,194	-0,031	-0,061
-474,518	86,237	-0,096	0,077
-473,503	328,182	0,061	-0,086
-472,489	-200,000	0,005	-0,127
-471,474	-9,046	0,074	0,036
-470,459	-151,124	0,132	0,007
-469,445	110,738	0,066	-0,058
-468,430	-23,429	-0,093	0,041
-467,416	-108,310	0,016	-0,003
-466,401	800,000	0,036	-0,095
-465,386	16,279	0,027	-0,016
-464,372	526,155	0,070	-0,122
-463,357	-200,000	-0,014	-0,144
-462,343	1,427	0,046	-0,024
-461,328	-200,000	-0,003	-0,076
-460,313	-109,776	-0,034	0,005
-459,299	-39,917	-0,141	-0,054
-458,284	286,681	0,055	-0,073
-457,270	-36,944	-0,059	0,023
-456,255	-106,071	0,059	0,010
-455,241	20,196	-0,122	0,072
-454,226	-49,944	-0,050	-0,017
-453,211	697,395	-0,024	0,047
-452,197	433,793	0,046	-0,074
-451,182	800,000	0,038	-0,100
-450,168	-200,000	0,006	-0,023
-449,153	-12,909	0,072	0,034
-448,138	-200,000	0,004	-0,140
-447,124	-200,000	0,040	-0,149
-446,109	-68,069	0,049	0,014
-445,095	75,954	-0,023	0,018
-444,080	111,368	-0,119	0,105
-443,065	-128,404	0,090	-0,009
-442,051	-200,000	0,013	-0,070
-441,036	-200,000	0,009	-0,040
-440,022	-131,772	-0,039	0,004
-439,007	12,139	0,014	0,008
-437,992	37,760	-0,050	-0,032
-436,978	-200,000	-0,006	0,029
-435,963	313,019	-0,074	0,102
-434,949	-200,000	-0,013	0,088
-433,934	75,701	0,004	-0,003
-432,919	-200,000	0,010	-0,103
-431,905	-200,000	0,028	0,112
-430,890	800,000	-0,040	0,092
-429,876	-200,000	-0,014	0,086
-428,861	-200,000	-0,012	-0,044
-427,846	-80,169	0,071	-0,017
-426,832	-3,852	-0,086	-0,043
-425,817	-106,112	-0,107	-0,017
-424,803	800,000	0,053	-0,117
-423,788	800,000	0,016	-0,042
-422,773	351,319	0,066	0,095
-421,759	395,101	0,072	0,110
-420,744	-200,000	0,010	-0,185
-419,730	-200,000	-0,006	-0,066
-418,715	-3,007	-0,055	0,028
-417,701	-66,515	-0,112	0,032
-416,686	-75,298	0,104	-0,027
-415,671	295,795	0,073	-0,097
-414,657	-102,814	0,117	0,020
-413,642	87,915	0,077	-0,062
-412,628	-200,000	-0,014	0,087
-411,613	-200,000	-0,008	-0,065
-410,598	-200,000	-0,032	-0,108
-409,584	-69,252	0,061	0,017
-408,569	73,149	0,086	0,066
-407,555	-23,450	0,047	-0,020
-406,540	800,000	0,035	0,096
-405,525	65,953	0,006	0,004
-404,511	73,668	0,035	0,026
-403,496	-62,035	0,072	-0,022
-402,482	115,388	0,062	-0,055
-401,467	-200,000	0,000	-0,102
-400,452	42,275	-0,053	0,035
-399,438	302,762	0,073	-0,098
-398,423	800,000	-0,057	-0,134
-397,409	171,129	-0,066	-0,069
-396,394	54,947	-0,158	0,111
-395,379	-16,940	0,109	0,050
-394,365	122,443	0,047	-0,043
-393,350	-200,000	-0,029	0,175
-392,336	116,581	-0,118	0,106
-391,321	-169,938	-0,064	0,002
-390,306	800,000	0,044	-0,108
-389,292	271,678	0,043	-0,055
-388,277	5,910	-0,093	0,050
-387,263	66,054	-0,024	0,018
-386,248	-23,393	0,049	0,021
-385,233	415,558	-0,047	-0,073
-384,219	13,697	0,073	-0,041
-383,204	-94,575	-0,169	-0,033
-382,190	147,222	-0,044	0,043
-381,175	800,000	-0,058	0,151
-380,160	800,000	0,053	0,151
-379,146	71,395	0,044	0,033
-378,131	386,892	0,055	0,084
-377,117	800,000	0,043	0,093
-376,102	-96,735	0,065	-0,012
-375,088	765,919	-0,011	0,021
-374,073	200,332	-0,081	-0,090
-373,058	-200,000	0,010	-0,080
-372,044	-200,000	-0,006	-0,061
-371,029	-171,998	0,094	0,002
-370,015	166,323	0,052	-0,054
-369,000	-200,000	0,044	-0,161
-367,985	-200,000	0,031	0,105
-366,971	-200,000	-0,002	-0,045
-365,956	-200,000	0,001	-0,046
-364,942	195,633	0,015	-0,017
-363,927	497,962	-0,024	-0,041
-362,912	101,018	0,042	0,036
-361,898	40,179	0,059	0,038
-360,883	-2,384	-0,041	0,021
-359,869	-200,000	0,002	-0,061
-358,854	-82,724	0,075	-0,018
-357,839	600,759	-0,040	0,072
-356,825	800,000	-0,008	-0,018
-355,810	596,740	-0,041	-0,074
-354,796	800,000	0,023	-0,048
-353,781	-126,792	-0,170	-0,018
-352,766	-54,807	0,174	0,057
-351,752	-11,076	-0,002	0,001
-350,737	245,029	-0,058	0,071
-349,723	-69,054	-0,061	0,017
-348,708	-11,345	0,047	-0,022
-347,693	297,141	-0,028	0,038
-346,679	-112,799	-0,092	0,013
-345,664	178,285	-0,060	-0,063
-344,650	63,520	0,067	0,049
-343,635	514,678	-0,063	-0,107
-342,620	-120,563	0,110	0,013
-341,606	-200,000	-0,010	0,216
-340,591	800,000	0,047	-0,120
-339,577	92,201	-0,098	-0,080
-338,562	97,191	-0,102	0,085
-337,548	800,000	0,048	0,107
-336,533	800,000	0,046	0,108
-335,518	55,929	0,127	-0,090
-334,504	434,255	0,006	0,009
-333,489	151,493	0,009	-0,009
-332,475	-12,500	0,090	-0,043
-331,460	476,614	-0,068	-0,112
-330,445	-146,319	-0,014	0,001
-329,431	800,000	0,018	0,055
-328,416	-68,034	-0,039	0,011
-327,402	338,408	-0,055	0,078
-326,387	-200,000	0,006	0,056
-325,372	150,071	-0,031	0,031
-324,358	-200,000	-0,004	-0,073
-323,343	800,000	0,014	-0,039
-322,329	316,936	-0,005	-0,007
-321,314	11,511	0,106	-0,059
-320,299	57,328	0,141	0,100
-319,285	800,000	0,047	0,102
-318,270	-200,000	-0,038	-0,143
-317,256	660,243	-0,035	0,066
-316,241	-43,863	0,025	-0,009
-315,226	172,832	0,030	0,031
-314,212	800,000	0,020	-0,043
-313,197	-41,078	0,074	0,028
-312,183	-50,514	-0,088	0,030
-311,168	769,151	-0,060	-0,119
-310,153	-200,000	0,030	0,000
-309,139	511,221	0,062	0,105
-308,124	800,000	0,046	-0,136
-307,110	596,396	0,021	0,038
-306,095	-51,161	0,058	0,020
-305,080	-105,702	0,093	0,015
-304,066	-80,235	0,045	0,011
-303,051	800,000	0,040	-0,084
-302,037	-200,000	-0,013	0,103
-301,022	312,131	0,096	0,130
-300,008	-46,167	0,092	0,033
-298,993	167,646	0,070	0,073
-297,978	-19,550	-0,077	0,034
-296,964	-200,000	-0,098	-0,000
-295,949	-68,634	0,013	-0,004
-294,935	-145,969	-0,069	0,004
-293,920	87,086	0,069	-0,056
-292,905	800,000	0,018	0,049
-291,891	299,626	-0,081	0,108
-290,876	800,000	-0,035	0,093
-289,862	-71,069	0,038	0,010
-288,847	-119,372	-0,090	0,011
-287,832	-26,576	-0,034	-0,014
-286,818	-38,040	0,087	0,033
-285,803	-200,000	0,000	-0,100
-284,789	143,180	0,090	0,087
-283,774	-200,000	-0,014	-0,076
-282,759	-18,762	0,059	0,026
-281,745	-135,887	0,141	0,012
-280,730	800,000	0,057	-0,162
-279,716	-200,000	-0,010	-0,107
-278,701	-200,000	0,025	0,160
-277,686	-200,000	0,031	-0,103
-276,672	225,121	0,038	0,045
-275,657	-143,611	0,077	0,005
-274,643	4,838	0,124	-0,066
-273,628	-200,000	0,006	-0,084
-272,613	-200,000	0,023	-0,075
-271,599	-200,000	-0,010	0,069
-270,584	-200,000	-0,012	0,041
-269,570	-94,482	0,114	-0,022
-268,555	-3,987	-0,176	0,088
-267,540	-200,000	0,014	0,056
-266,526	-200,000	-0,003	0,056
-265,511	-200,000	-0,007	0,111
-264,497	-160,352	-0,067	-0,003
-263,482	-123,198	0,106	-0,012
-262,467	19,674	0,205	0,119
-261,453	-200,000	0,016	0,095
-260,438	-200,000	-0,026	0,085
-259,424	-100,666	-0,057	-0,010
-258,409	800,000	0,032	-0,103
-257,395	711,480	0,058	-0,111
-256,380	-103,323	0,068	-0,012
-255,365	41,476	0,055	0,036
-254,351	115,551	-0,123	-0,109
-253,336	800,000	-0,018	-0,046
-252,322	800,000	0,039	0,084
-251,307	24,484	0,103	-0,062
-250,292	-53,974	0,017	-0,005
-249,278	-81,877	-0,049	-0,011
-248,263	-200,000	-0,011	-0,043
-247,249	558,729	-0,041	0,071
-246,234	430,296	0,034	0,053
-245,219	800,000	0,037	-0,084
-244,205	800,000	0,044	-0,096
-243,190	42,260	-0,046	-0,030
-242,176	514,303	-0,043	0,074
-241,161	434,266	-0,037	0,059
-240,146	394,664	-0,040	-0,061
-239,132	63,569	0,084	-0,061
-238,117	-200,000	-0,002	-0,146
-237,103	30,616	-0,058	-0,036
-236,088	-105,935	0,119	-0,019
-235,073	-200,000	-0,000	0,009
-234,059	-200,000	0,025	0,163
-233,044	442,170	-0,053	0,084
-232,030	40,282	0,070	0,045
-231,015	-37,727	-0,147	-0,056
-230,000	219,622	-0,096	0,111
-228,986	-200,000	0,049	0,192
-227,971	800,000	0,054	-0,162
-226,957	156,678	-0,043	0,043
-225,942	165,580	-0,059	0,060
-224,927	110,776	-0,117	0,102
-223,913	608,895	-0,010	0,019
-222,898	197,599	-0,109	0,121
-221,884	604,875	-0,050	-0,091
-220,869	117,797	0,018	-0,016
-219,855	291,828	-0,065	0,086
-218,840	-141,751	0,299	0,021
-217,825	75,899	-0,043	0,033
-216,811	-200,000	0,008	-0,185
-215,796	139,192	-0,128	-0,122
-214,782	307,578	0,037	0,050
-213,767	800,000	0,035	-0,071
-212,752	-104,252	0,165	0,027
-211,738	-130,398	0,105	-0,010
-210,723	151,636	-0,048	-0,047
-209,709	80,325	-0,068	-0,053
-208,694	-71,564	-0,108	-0,029
-207,679	483,346	-0,061	-0,100
-206,665	155,963	-0,003	0,003
-205,650	36,271	0,119	-0,076
-204,636	-122,800	-0,064	-0,007
-203,621	-200,000	-0,006	0,021
-202,606	89,150	-0,084	-0,068
-201,592	800,000	0,021	0,045
-200,577	-38,574	0,052	0,020
-199,563	-200,000	0,052	-0,173
-198,548	304,219	-0,023	0,030
-197,533	-153,465	-0,135	-0,007
-196,519	139,552	-0,009	0,009
-195,504	800,000	0,008	0,022
-194,490	7,305	0,054	-0,029
-193,475	-189,645	-0,169	-0,001
-192,460	-200,000	-0,024	-0,122
-191,446	559,868	0,051	-0,090
-190,431	-115,589	0,051	-0,007
-189,417	-60,336	0,072	0,022
-188,402	41,837	0,111	-0,073
-187,387	-165,578	-0,092	0,003
-186,373	-200,000	-0,003	0,029
-185,358	471,095	0,049	-0,080
-184,344	-200,000	-0,006	-0,113
-183,329	160,259	0,086	-0,086
-182,315	-200,000	0,011	-0,093
-181,300	141,989	-0,087	-0,083
-180,285	138,666	0,063	-0,060
-179,271	6,166	-0,137	-0,073
-178,256	-200,000	0,010	-0,127
-177,242	536,640	-0,039	0,067
-176,227	-200,000	-0,004	0,058
-175,212	800,000	0,076	0,160
-174,198	-102,501	-0,028	0,005
-173,183	17,441	0,047	-0,027
-172,169	-26,469	0,124	0,052
-171,154	384,077	-0,044	-0,065
-170,139	1,359	0,079	-0,041
-169,125	107,217	0,015	0,013
-168,110	-200,000	-0,014	-0,127
-167,096	435,532	-0,031	-0,049
-166,081	800,000	-0,057	0,147
-165,066	336,178	-0,089	-0,125
-164,052	155,696	0,060	-0,059
-163,037	195,538	0,022	0,024
-162,023	181,635	0,023	0,024
-161,008	286,238	0,013	-0,017
-159,993	72,590	-0,055	-0,041
-158,979	800,000	0,015	-0,038
-157,964	-200,000	0,001	-0,063
-156,950	170,994	-0,037	-0,039
-155,935	800,000	0,003	0,010
-154,920	-200,000	-0,018	-0,090
-153,906	800,000	0,026	0,064
-152,891	-200,000	-0,019	0,136
-151,877	-200,000	0,001	-0,066
-150,862	262,358	-0,038	-0,047
-149,847	240,706	-0,061	-0,073
-148,833	296,967	-0,090	-0,119
-147,818	-108,939	0,165	-0,025
-146,804	-127,347	0,060	-0,006
-145,789	-165,344	-0,053	0,002
-144,775	222,327	-0,037	-0,043
-143,760	-176,764	-0,053	-0,001
-142,745	-108,408	0,033	0,005
-141,731	800,000	0,030	-0,066
-140,716	47,298	-0,019	-0,012
-139,702	-57,548	0,091	0,029
-138,687	189,266	0,053	-0,058
-137,672	315,230	-0,055	0,075
-136,658	28,088	0,217	-0,131
-135,643	-26,415	-0,091	0,038
-134,629	616,247	0,014	-0,025
-133,614	531,764	0,050	0,086
-132,599	800,000	-0,060	0,129
-131,585	-128,833	0,070	-0,007
-130,570	-42,012	0,026	-0,010
-129,556	-20,527	0,027	0,012
-128,541	22,500	0,069	-0,040
-127,526	-200,000	-0,016	-0,062
-126,512	-74,312	0,100	0,026
-125,497	-3,580	0,156	-0,078
-124,483	-200,000	-0,027	0,107
-123,468	139,854	0,017	-0,016
-122,453	52,043	0,068	0,047
-121,439	285,661	-0,093	-0,121
-120,424	-200,000	-0,007	-0,054
-119,410	-79,128	0,045	0,011
-118,395	52,218	0,108	0,074
