DTS Sentinel unit serial number:	SN410029Multiplexer serial number:	ORYXHardware model number:	OX2-SRSoftware version number:	ORYX F/W v4,00 Oryx Data Collector v3.7.2.0data status	okinstallation	B5 Nyhavnadifferential loss correction	single-endedforward channel	channel 2reverse channel	N/Adate	2023/12/12time	06:42:13forward acquisition time	300,00reverse acquisition time	0,00gamma	499,1914k internal	0,3157k external	0,3157temperature offset calibration	1,0000default loss term (dB/km)	0,3820temperature slope calibration	1,0000multiplexer offset coefficient	1,0000multiplexer slope coefficient	1,0000fibre end	0,00T internal ref (°C)	15,20T ext. ref 1 (°C)	-1,14T ext. ref 2 (°C)	-1,44length (m)	temperature (°C)	Stokes	anti-Stokes-744,400	571,415	0,022	0,040
-743,385	-141,119	-0,291	0,022
-742,371	507,760	0,037	0,063
-741,356	57,434	-0,255	0,183
-740,342	-25,450	0,222	-0,096
-739,327	-116,528	-0,179	0,024
-738,312	-45,241	0,031	0,011
-737,298	-152,083	-0,337	0,018
-736,283	-51,182	0,053	0,018
-735,269	-164,649	-0,282	0,009
-734,254	93,523	0,088	-0,074
-733,239	20,187	-0,525	-0,312
-732,225	800,000	0,058	0,159
-731,210	-200,000	-0,022	0,168
-730,196	-200,000	0,007	0,111
-729,181	-200,000	0,023	-0,102
-728,167	-200,000	0,015	-0,104
-727,152	32,694	0,080	0,051
-726,137	4,080	-0,029	0,016
-725,123	-66,551	-0,084	0,024
-724,108	-32,870	-0,064	-0,026
-723,094	-49,845	-0,091	-0,031
-722,079	-200,000	-0,045	-0,150
-721,064	25,809	-0,091	-0,056
-720,050	800,000	0,036	-0,084
-719,035	-99,667	-0,064	0,012
-718,021	616,320	-0,016	-0,030
-717,006	0,757	-0,191	-0,101
-715,991	-83,428	-0,116	0,027
-714,977	90,217	-0,060	0,049
-713,962	-114,936	-0,131	0,018
-712,948	-2,796	-0,095	-0,049
-711,933	800,000	0,051	-0,147
-710,918	-145,017	-0,039	-0,003
-709,904	-40,128	0,106	0,041
-708,889	208,585	-0,109	-0,126
-707,875	800,000	-0,077	-0,158
-706,860	262,300	0,033	-0,043
-705,845	800,000	0,008	0,018
-704,831	-200,000	-0,024	-0,082
-703,816	-200,000	0,004	-0,213
-702,802	-200,000	-0,019	-0,076
-701,787	22,552	-0,066	0,040
-700,772	105,441	-0,099	0,086
-699,758	-200,000	-0,038	-0,153
-698,743	800,000	0,016	-0,039
-697,729	-121,099	-0,097	-0,012
-696,714	-22,325	-0,042	0,019
-695,699	800,000	-0,034	-0,103
-694,685	75,207	-0,102	-0,079
-693,670	-200,000	0,001	0,081
-692,656	-41,927	0,106	-0,040
-691,641	246,334	-0,033	-0,041
-690,627	-200,000	-0,013	-0,085
-689,612	50,663	-0,023	0,016
-688,597	2,383	-0,136	0,072
-687,583	-175,601	-0,068	-0,001
-686,568	-14,838	0,049	-0,023
-685,554	800,000	0,008	-0,017
-684,539	600,016	0,057	-0,105
-683,524	-84,089	-0,143	0,033
-682,510	139,789	-0,020	0,020
-681,495	112,870	-0,010	0,009
-680,481	-47,596	-0,051	0,018
-679,466	158,809	-0,147	-0,150
-678,451	-51,183	-0,124	0,042
-677,437	81,676	-0,031	0,025
-676,422	180,810	-0,036	0,039
-675,408	158,125	0,024	-0,025
-674,393	-200,000	-0,016	-0,060
-673,378	113,630	-0,077	-0,069
-672,364	137,506	0,068	-0,065
-671,349	-158,722	-0,122	0,005
-670,335	255,131	0,090	-0,114
-669,320	0,388	-0,083	-0,043
-668,305	137,048	0,121	-0,116
-667,291	203,467	-0,065	-0,074
-666,276	-164,843	0,018	0,001
-665,262	-31,896	-0,098	0,040
-664,247	8,462	-0,058	0,032
-663,232	800,000	-0,046	-0,120
-662,218	-200,000	-0,006	0,071
-661,203	334,242	0,063	-0,090
-660,189	290,743	-0,014	-0,019
-659,174	-200,000	-0,019	-0,183
-658,159	-3,009	-0,058	-0,029
-657,145	800,000	0,027	0,077
-656,130	-46,765	0,082	0,029
-655,116	-200,000	-0,031	0,137
-654,101	50,186	0,090	0,062
-653,086	391,277	0,030	0,046
-652,072	-200,000	-0,005	-0,050
-651,057	458,728	0,036	-0,059
-650,043	-200,000	-0,026	-0,116
-649,028	-47,846	0,163	0,058
-648,014	122,998	-0,040	-0,037
-646,999	-64,515	0,127	-0,038
-645,984	73,998	-0,159	-0,122
-644,970	-99,893	-0,061	0,011
-643,955	-200,000	-0,006	0,067
-642,941	-106,581	-0,047	-0,008
-641,926	-39,801	-0,038	-0,015
-640,911	78,791	0,073	0,057
-639,897	-143,742	0,127	-0,009
-638,882	372,055	-0,078	-0,117
-637,868	266,248	0,047	-0,060
-636,853	112,377	-0,110	-0,098
-635,838	6,571	-0,102	0,056
-634,824	0,624	-0,062	-0,032
-633,809	5,333	0,061	-0,033
-632,795	-200,000	-0,001	-0,058
-631,780	-97,287	0,169	0,032
-630,765	-27,405	-0,039	0,017
-629,751	20,294	-0,064	-0,038
-628,736	-129,153	-0,188	0,019
-627,722	68,541	0,013	0,010
-626,707	39,545	-0,124	-0,082
-625,692	-101,569	0,117	-0,021
-624,678	55,999	0,071	0,050
-623,663	-134,430	-0,008	0,001
-622,649	-200,000	0,023	-0,100
-621,634	800,000	-0,034	-0,079
-620,619	292,375	-0,004	0,005
-619,605	-200,000	-0,008	-0,044
-618,590	-11,002	0,077	0,037
-617,576	800,000	0,054	0,124
-616,561	-56,236	-0,100	0,033
-615,546	69,044	0,033	0,025
-614,532	-200,000	0,014	-0,112
-613,517	-200,000	-0,006	-0,116
-612,503	50,788	-0,045	0,031
-611,488	-200,000	-0,016	-0,053
-610,474	28,686	0,066	0,041
-609,459	330,124	-0,059	-0,083
-608,444	-200,000	-0,002	-0,024
-607,430	348,288	-0,063	-0,092
-606,415	-144,111	-0,067	-0,005
-605,401	84,609	0,181	0,145
-604,386	154,819	0,020	-0,020
-603,371	-200,000	0,021	-0,110
-602,357	-28,972	-0,049	0,020
-601,342	162,559	-0,078	-0,081
-600,328	773,161	0,012	-0,025
-599,313	-50,237	-0,156	0,054
-598,298	242,673	0,065	-0,080
-597,284	-123,112	-0,102	-0,012
-596,269	-114,334	0,060	-0,008
-595,255	800,000	-0,026	0,056
-594,240	-200,000	0,014	0,060
-593,225	-200,000	0,008	-0,131
-592,211	346,204	-0,057	-0,082
-591,196	280,687	0,050	-0,066
-590,182	800,000	-0,045	0,122
-589,167	-72,844	0,202	0,054
-588,152	29,650	-0,061	-0,038
-587,138	-200,000	-0,002	-0,039
-586,123	244,497	-0,044	-0,054
-585,109	800,000	-0,037	-0,096
-584,094	68,444	0,127	-0,095
-583,079	-154,634	0,039	0,002
-582,065	-65,456	0,034	-0,010
-581,050	800,000	0,008	-0,016
-580,036	26,336	-0,064	-0,039
-579,021	156,794	0,006	-0,006
-578,006	-200,000	-0,021	0,103
-576,992	-103,553	-0,059	0,010
-575,977	800,000	-0,045	-0,116
-574,963	800,000	-0,055	-0,164
-573,948	-200,000	-0,017	-0,077
-572,934	-34,545	-0,141	0,056
-571,919	-200,000	-0,021	-0,249
-570,904	43,466	-0,117	-0,078
-569,890	288,221	0,056	-0,075
-568,875	800,000	0,039	0,123
-567,861	17,672	0,051	-0,030
-566,846	-65,266	0,064	0,019
-565,831	169,312	0,011	-0,011
-564,817	800,000	-0,010	0,033
-563,802	800,000	0,045	-0,136
-562,788	29,454	-0,159	-0,099
-561,773	96,759	0,018	0,015
-560,758	92,758	0,061	0,050
-559,744	80,786	-0,050	0,039
-558,729	295,189	0,069	0,093
-557,715	800,000	0,005	0,013
-556,700	97,807	-0,099	-0,083
-555,685	58,058	0,057	-0,041
-554,671	234,993	-0,048	-0,058
-553,656	-200,000	0,014	0,113
-552,642	-200,000	0,036	0,130
-551,627	800,000	-0,025	-0,055
-550,612	-125,474	-0,081	0,009
-549,598	-84,603	0,069	0,016
-548,583	-41,385	-0,042	0,016
-547,569	89,611	-0,101	0,083
-546,554	-200,000	0,008	0,057
-545,539	-2,140	-0,104	0,053
-544,525	-119,782	0,028	0,003
-543,510	115,024	0,043	-0,038
-542,496	-169,168	0,115	0,003
-541,481	636,172	0,014	-0,027
-540,466	82,166	0,045	-0,036
-539,452	155,461	0,022	-0,022
-538,437	-200,000	-0,004	0,085
-537,423	800,000	0,054	0,129
-536,408	800,000	0,013	-0,029
-535,393	273,796	-0,049	-0,064
-534,379	-24,253	0,044	0,019
-533,364	-200,000	-0,001	0,040
-532,350	55,822	-0,099	0,070
-531,335	-200,000	0,010	-0,142
-530,321	-93,375	0,047	0,009
-529,306	-200,000	-0,003	-0,168
-528,291	136,371	-0,114	-0,109
-527,277	116,872	0,030	-0,027
-526,262	104,641	-0,026	0,023
-525,248	376,135	0,051	-0,076
-524,233	-177,005	0,213	0,004
-523,218	210,054	0,055	0,063
-522,204	800,000	-0,003	0,007
-521,189	118,776	-0,060	0,054
-520,175	468,530	-0,037	0,060
-519,160	139,265	-0,038	-0,036
-518,145	393,891	0,101	-0,154
-517,131	800,000	-0,030	0,082
-516,116	-200,000	-0,036	0,213
-515,102	401,329	0,026	-0,039
-514,087	-83,684	-0,121	-0,028
-513,072	-200,000	0,003	-0,069
-512,058	-200,000	0,013	-0,045
-511,043	-200,000	-0,008	-0,065
-510,029	-200,000	0,027	0,121
-509,014	147,774	0,058	0,057
-507,999	-127,881	-0,070	0,007
-506,985	-200,000	-0,008	-0,120
-505,970	205,176	0,019	0,021
-504,956	223,952	-0,065	-0,076
-503,941	329,444	0,071	-0,100
-502,926	14,886	0,028	0,016
-501,912	128,511	0,101	0,094
-500,897	-32,328	0,152	0,062
-499,883	800,000	0,022	-0,066
-498,868	-200,000	-0,003	-0,110
-497,853	-123,756	0,006	-0,001
-496,839	-200,000	0,017	0,085
-495,824	186,956	0,068	-0,074
-494,810	-200,000	-0,010	-0,071
-493,795	-46,863	0,106	0,038
-492,781	98,342	0,059	-0,049
-491,766	111,982	-0,155	-0,137
-490,751	-115,551	-0,091	0,012
-489,737	-200,000	0,012	-0,105
-488,722	-42,835	0,071	-0,026
-487,708	13,130	0,087	0,049
-486,693	113,148	-0,114	-0,101
-485,678	43,079	-0,081	0,054
-484,664	166,579	-0,025	0,026
-483,649	800,000	0,030	-0,066
-482,635	-125,627	-0,159	-0,017
-481,620	-1,433	0,150	0,077
-480,605	-162,621	0,027	0,001
-479,591	696,632	0,068	0,130
-478,576	-117,574	0,080	0,010
-477,562	-44,636	-0,266	-0,097
-476,547	157,195	0,039	-0,039
-475,532	-143,286	-0,078	-0,005
-474,518	-76,581	0,075	0,019
-473,503	-123,127	0,111	-0,013
-472,489	350,179	-0,099	0,144
-471,474	-191,883	-0,115	0,001
-470,459	800,000	-0,022	-0,062
-469,445	421,615	-0,043	-0,067
-468,430	-200,000	0,022	-0,079
-467,416	800,000	-0,049	-0,117
-466,401	-25,111	-0,016	-0,007
-465,386	-200,000	0,026	0,141
-464,372	73,498	-0,115	-0,088
-463,357	584,071	0,038	0,068
-462,343	-87,060	-0,057	0,013
-461,328	-63,821	-0,040	-0,012
-460,313	24,408	0,116	0,070
-459,299	438,796	-0,030	0,048
-458,284	-78,367	0,110	0,027
-457,270	-27,138	0,075	0,032
-456,255	-200,000	-0,013	-0,069
-455,241	71,098	-0,137	-0,104
-454,226	-151,722	-0,051	0,003
-453,211	-20,669	-0,149	0,066
-452,197	86,300	0,092	0,074
-451,182	-110,779	0,148	0,022
-450,168	446,938	0,069	0,111
-449,153	-48,293	-0,049	0,017
-448,138	-200,000	0,007	-0,140
-447,124	39,871	0,117	-0,077
-446,109	800,000	0,034	0,080
-445,095	293,886	-0,024	0,032
-444,080	800,000	0,056	0,155
-443,065	13,154	-0,096	0,054
-442,051	800,000	-0,049	-0,118
-441,036	30,155	-0,063	-0,039
-440,022	89,447	-0,089	-0,072
-439,007	-116,898	0,162	-0,021
-437,992	-200,000	-0,002	0,110
-436,978	57,790	0,064	-0,045
-435,963	-200,000	0,011	-0,073
-434,949	-89,520	0,023	-0,005
-433,934	-163,114	-0,154	-0,005
-432,919	96,363	-0,151	-0,126
-431,905	-200,000	0,001	-0,025
-430,890	188,397	0,089	0,097
-429,876	479,515	-0,029	0,047
-428,861	72,713	-0,140	0,107
-427,846	-159,064	0,066	0,003
-426,832	-82,566	-0,094	0,022
-425,817	-200,000	0,002	-0,079
-424,803	800,000	-0,009	-0,025
-423,788	-200,000	-0,057	0,191
-422,773	10,826	0,109	0,061
-421,759	-134,468	-0,031	0,003
-420,744	-86,984	-0,102	-0,022
-419,730	-27,798	0,092	-0,039
-418,715	458,448	0,026	0,042
-417,701	800,000	-0,042	0,100
-416,686	-200,000	-0,001	0,055
-415,671	-131,416	-0,028	0,003
-414,657	109,671	-0,091	0,080
-413,642	-200,000	0,009	-0,077
-412,628	103,278	-0,061	0,052
-411,613	176,291	0,069	0,073
-410,598	675,731	0,031	0,060
-409,584	-136,769	0,020	-0,002
-408,569	13,004	-0,088	0,050
-407,555	800,000	-0,021	0,048
-406,540	800,000	-0,027	-0,080
-405,525	-200,000	-0,009	-0,148
-404,511	5,275	-0,019	-0,010
-403,496	313,730	-0,038	0,053
-402,482	423,733	0,045	-0,071
-401,467	258,625	0,051	0,065
-400,452	-71,686	0,099	0,027
-399,438	-200,000	0,006	0,027
-398,423	279,109	0,043	-0,056
-397,409	271,567	-0,079	0,101
-396,394	-1,323	0,153	0,078
-395,379	-200,000	-0,003	0,040
-394,365	-164,875	0,070	-0,002
-393,350	-200,000	0,004	0,097
-392,336	-200,000	0,002	0,081
-391,321	-200,000	-0,014	-0,113
-390,306	-138,167	-0,142	-0,011
-389,292	-200,000	0,008	0,062
-388,277	-69,807	-0,042	0,012
-387,263	-130,343	-0,092	0,009
-386,248	29,565	0,051	0,031
-385,233	800,000	-0,023	0,064
-384,219	234,880	-0,015	0,018
-383,204	800,000	-0,020	0,042
-382,190	-87,382	0,069	0,015
-381,175	800,000	-0,012	0,025
-380,160	32,072	0,069	-0,043
-379,146	-200,000	0,010	0,130
-378,131	-89,842	0,199	0,042
-377,117	207,963	-0,065	0,074
-376,102	-77,221	-0,058	0,015
-375,088	800,000	0,034	0,105
-374,073	53,416	-0,018	-0,012
-373,058	91,861	0,114	0,093
-372,044	142,926	-0,018	-0,017
-371,029	2,055	-0,040	0,021
-370,015	25,419	0,056	0,034
-369,000	207,056	-0,074	-0,083
-367,985	-200,000	0,004	-0,053
-366,971	-200,000	-0,019	-0,080
-365,956	800,000	-0,020	-0,048
-364,942	-45,688	-0,072	-0,026
-363,927	292,241	-0,045	0,060
-362,912	57,780	0,071	0,051
-361,898	-83,276	-0,032	-0,007
-360,883	480,313	-0,030	-0,049
-359,869	402,688	0,048	-0,073
-358,854	-89,521	0,064	-0,014
-357,839	-136,673	0,112	-0,009
-356,825	800,000	0,060	0,164
-355,810	104,957	-0,116	0,100
-354,796	800,000	-0,048	0,102
-353,781	-200,000	-0,016	-0,064
-352,766	72,976	-0,048	-0,037
-351,752	357,545	0,063	0,092
-350,737	-75,869	0,126	0,032
-349,723	800,000	-0,017	0,040
-348,708	800,000	-0,045	0,119
-347,693	800,000	-0,040	-0,092
-346,679	366,973	-0,064	-0,095
-345,664	253,834	0,090	0,112
-344,650	307,904	0,073	0,099
-343,635	-200,000	-0,029	0,106
-342,620	623,620	-0,030	-0,056
-341,606	246,487	0,037	-0,045
-340,591	150,394	0,131	0,129
-339,577	207,477	-0,091	0,103
-338,562	-14,236	0,066	-0,031
-337,548	203,778	-0,090	0,101
-336,533	286,268	0,026	0,034
-335,518	59,370	0,142	0,102
-334,504	-200,000	-0,016	-0,093
-333,489	-137,373	-0,050	0,004
-332,475	800,000	0,020	0,043
-331,460	87,124	0,134	-0,107
-330,445	138,698	0,094	0,090
-329,431	383,090	-0,011	0,017
-328,416	-200,000	0,020	0,086
-327,402	8,788	-0,086	-0,047
-326,387	130,601	-0,104	-0,097
-325,372	800,000	-0,038	-0,086
-324,358	-26,738	0,042	0,018
-323,343	256,883	-0,029	-0,036
-322,329	143,897	-0,038	-0,036
-321,314	375,638	0,031	-0,046
-320,299	212,143	-0,148	0,169
-319,285	800,000	0,013	-0,032
-318,270	330,720	-0,022	0,031
-317,256	-139,099	-0,178	0,014
-316,241	197,257	0,082	0,091
-315,226	475,355	0,068	-0,111
-314,212	-200,000	0,009	-0,038
-313,197	800,000	-0,065	-0,147
-312,183	393,259	0,043	0,066
-311,168	-200,000	0,007	0,037
-310,153	292,326	-0,087	0,115
-309,139	-200,000	-0,023	-0,077
-308,124	-153,990	-0,047	-0,002
-307,110	75,626	0,039	-0,030
-306,095	800,000	0,013	-0,030
-305,080	-200,000	0,004	-0,068
-304,066	-200,000	0,031	-0,123
-303,051	493,586	-0,034	-0,058
-302,037	312,219	-0,064	0,088
-301,022	-200,000	0,005	0,021
-300,008	-150,345	0,051	-0,003
-298,993	-200,000	0,025	0,129
-297,978	-82,971	-0,071	-0,016
-296,964	-200,000	0,046	-0,159
-295,949	-200,000	-0,004	-0,029
-294,935	-200,000	-0,019	-0,156
-293,920	222,704	0,024	-0,028
-292,905	-200,000	0,038	0,152
-291,891	-67,961	0,108	0,030
-290,876	252,053	-0,071	-0,087
-289,862	-200,000	-0,006	0,086
-288,847	-200,000	0,019	0,095
-287,832	-200,000	0,024	-0,145
-286,818	68,093	-0,121	-0,090
-285,803	800,000	0,103	0,220
-284,789	-200,000	0,023	-0,077
-283,774	800,000	-0,026	0,071
-282,759	160,972	0,023	-0,024
-281,745	-129,058	0,121	0,012
-280,730	376,174	-0,055	-0,082
-279,716	113,767	-0,077	0,068
-278,701	-97,465	-0,092	0,017
-277,686	48,641	-0,074	-0,050
-276,672	313,553	0,037	0,050
-275,657	26,073	-0,044	0,027
-274,643	737,567	-0,021	-0,041
-273,628	88,755	-0,115	-0,092
-272,613	800,000	-0,058	0,124
-271,599	-18,584	-0,042	0,019
-270,584	191,342	0,107	-0,117
-269,570	800,000	-0,048	0,151
-268,555	102,704	-0,055	-0,046
-267,540	800,000	0,061	-0,133
-266,526	362,777	-0,033	-0,049
-265,511	-86,083	0,035	0,008
-264,497	-37,088	-0,071	0,027
-263,482	199,742	-0,047	-0,052
-262,467	-67,444	0,062	0,017
-261,453	800,000	-0,048	-0,127
-260,438	-152,752	0,089	-0,004
-259,424	-200,000	0,016	-0,116
-258,409	800,000	-0,027	-0,063
-257,395	800,000	-0,039	-0,091
-256,380	9,972	0,047	-0,026
-255,365	800,000	0,034	-0,091
-254,351	-145,131	-0,143	-0,009
-253,336	-200,000	-0,004	-0,102
-252,322	-24,730	-0,046	-0,020
-251,307	800,000	0,031	-0,071
-250,292	89,748	0,127	0,103
-249,278	-200,000	0,002	0,037
-248,263	135,437	0,082	0,077
-247,249	-200,000	-0,015	0,055
-246,234	-200,000	-0,019	0,071
-245,219	168,362	0,037	-0,038
-244,205	800,000	-0,038	-0,082
-243,190	-91,159	-0,069	0,014
-242,176	187,103	0,124	-0,133
-241,161	96,266	0,071	0,059
-240,146	-200,000	0,026	0,111
-239,132	-200,000	-0,008	0,033
-238,117	-200,000	-0,023	-0,162
-237,103	-31,599	-0,115	0,047
-236,088	53,574	-0,042	-0,029
-235,073	-200,000	0,001	0,044
-234,059	490,188	0,021	0,035
-233,044	-14,320	0,143	0,067
-232,030	287,652	-0,046	0,060
-231,015	-63,927	0,035	-0,010
-230,000	-48,549	-0,142	-0,049
-228,986	19,967	0,087	-0,051
-227,971	-135,681	0,030	0,003
-226,957	-200,000	0,033	0,120
-225,942	-200,000	-0,003	0,035
-224,927	67,464	-0,135	-0,099
-223,913	6,857	-0,099	-0,053
-222,898	514,686	-0,020	-0,033
-221,884	-18,671	-0,103	-0,046
-220,869	388,312	0,009	0,014
-219,855	-121,329	-0,105	0,012
-218,840	-200,000	0,018	0,087
-217,825	-200,000	-0,001	0,004
-216,811	-43,475	0,124	0,045
-215,796	78,680	-0,085	-0,066
-214,782	50,018	-0,056	-0,038
-213,767	-67,090	0,119	0,034
-212,752	-200,000	0,006	-0,079
-211,738	-137,302	0,072	-0,006
-210,723	-99,523	-0,040	-0,007
-209,709	-200,000	0,025	-0,140
-208,694	-199,392	-0,152	-0,001
-207,679	-200,000	0,021	0,102
-206,665	-103,975	0,108	-0,018
-205,650	800,000	-0,026	0,071
-204,636	-101,348	-0,138	-0,024
-203,621	-200,000	-0,000	0,157
-202,606	-54,773	-0,059	0,019
-201,592	84,251	0,066	-0,052
-200,577	-117,197	-0,092	-0,012
-199,563	-200,000	0,017	0,111
-198,548	-162,093	0,075	0,003
-197,533	-171,153	0,102	-0,002
-196,519	222,884	-0,130	0,152
-195,504	746,742	-0,025	0,049
-194,490	-39,286	0,108	0,041
-193,475	-200,000	-0,022	0,096
-192,460	137,321	-0,067	0,063
-191,446	-200,000	0,017	-0,100
-190,431	-13,860	0,122	0,057
-189,417	162,261	0,066	0,066
-188,402	96,034	0,092	-0,076
-187,387	30,729	0,071	-0,044
-186,373	-30,923	-0,141	0,057
-185,358	-24,090	-0,063	-0,027
-184,344	-200,000	0,057	0,000
-183,329	-200,000	0,011	0,131
-182,315	132,112	-0,026	-0,025
-181,300	-13,825	0,061	0,028
-180,285	4,792	-0,023	-0,012
-179,271	-200,000	0,157	0,000
-178,256	668,005	0,056	-0,104
-177,242	457,859	-0,054	0,087
-176,227	-200,000	-0,039	0,153
-175,212	78,341	-0,043	-0,033
-174,198	23,280	0,104	-0,061
-173,183	115,823	-0,047	0,041
-172,169	800,000	-0,041	-0,087
-171,154	395,569	-0,061	0,092
-170,139	-77,881	0,017	-0,004
-169,125	800,000	-0,046	0,146
-168,110	30,629	0,081	0,050
-167,096	-89,518	0,080	0,017
-166,081	109,295	-0,033	-0,029
-165,066	433,410	0,058	0,092
-164,052	724,026	0,050	-0,097
-163,037	-200,000	-0,001	0,137
-162,023	-26,466	0,058	0,025
-161,008	-167,929	0,130	0,004
-159,993	800,000	0,017	-0,050
-158,979	500,118	0,014	0,024
-157,964	265,473	0,077	0,098
-156,950	-33,100	0,168	-0,067
-155,935	-46,439	0,070	0,024
-154,920	-154,346	-0,119	0,006
-153,906	-148,653	0,135	-0,008
-152,891	-82,105	0,160	-0,037
-151,877	-68,746	-0,205	-0,057
-150,862	-33,953	-0,123	-0,049
-149,847	800,000	0,035	0,102
-148,833	-200,000	-0,022	-0,076
-147,818	800,000	0,036	0,078
-146,804	136,665	0,087	0,082
-145,789	-200,000	0,001	0,043
-144,775	-84,815	-0,093	0,021
-143,760	345,296	0,015	-0,021
-142,745	135,236	-0,071	-0,066
-141,731	-127,339	0,060	-0,006
-140,716	-73,689	-0,145	0,038
-139,702	-200,000	0,003	-0,074
-138,687	-71,580	0,006	0,002
-137,672	-200,000	0,024	-0,086
-136,658	725,061	-0,061	-0,118
-135,643	-182,376	-0,090	0,001
-134,629	800,000	0,029	-0,066
-133,614	-110,559	0,209	-0,031
-132,599	-200,000	0,027	-0,138
-131,585	-6,355	-0,096	0,047
-130,570	800,000	-0,024	-0,076
-129,556	344,828	-0,079	-0,112
-128,541	95,763	0,087	-0,072
-127,526	-33,999	0,064	-0,025
-126,512	-27,285	-0,061	0,025
-125,497	62,786	0,054	0,039
-124,483	-48,670	0,051	-0,018
-123,468	800,000	-0,039	0,084
-122,453	341,479	-0,100	-0,142
-121,439	159,063	0,116	0,116
-120,424	300,702	0,049	-0,065
-119,410	9,205	0,055	-0,030
