DTS Sentinel unit serial number:	SN410029Multiplexer serial number:	ORYXHardware model number:	OX2-SRSoftware version number:	ORYX F/W v4,00 Oryx Data Collector v3.7.2.0data status	okinstallation	B5 Nyhavnadifferential loss correction	single-endedforward channel	channel 2reverse channel	N/Adate	2023/12/11time	22:02:13forward acquisition time	300,00reverse acquisition time	0,00gamma	499,1914k internal	0,3156k external	0,3156temperature offset calibration	1,0000default loss term (dB/km)	0,3820temperature slope calibration	1,0000multiplexer offset coefficient	1,0000multiplexer slope coefficient	1,0000fibre end	0,00T internal ref (°C)	16,30T ext. ref 1 (°C)	0,17T ext. ref 2 (°C)	-0,09length (m)	temperature (°C)	Stokes	anti-Stokes-744,400	752,001	0,038	0,075
-743,385	-120,579	-0,206	0,026
-742,371	-12,235	0,137	0,066
-741,356	96,598	-0,202	0,171
-740,342	-96,664	0,088	0,017
-739,327	-81,422	-0,297	-0,072
-738,312	-16,677	0,111	-0,052
-737,298	-117,325	-0,336	-0,044
-736,283	-47,078	0,193	0,069
-735,269	-143,737	-0,226	-0,016
-734,254	-200,000	0,016	-0,133
-733,239	-2,777	-0,373	-0,192
-732,225	172,904	0,055	0,058
-731,210	344,227	-0,077	0,111
-730,196	-200,000	-0,002	0,015
-729,181	3,384	0,086	-0,046
-728,167	-131,397	0,012	0,001
-727,152	-196,328	0,061	-0,000
-726,137	-37,645	-0,101	-0,039
-725,123	800,000	0,012	0,027
-724,108	-29,351	-0,053	0,022
-723,094	-200,000	-0,016	-0,088
-722,079	-25,589	-0,054	0,023
-721,064	440,368	0,048	0,077
-720,050	-86,775	-0,142	0,032
-719,035	231,333	-0,052	0,063
-718,021	800,000	-0,021	-0,062
-717,006	-200,000	0,006	-0,070
-715,991	-200,000	-0,021	-0,168
-714,977	429,199	-0,107	-0,171
-713,962	-200,000	0,006	0,102
-712,948	368,509	0,016	0,023
-711,933	-108,268	-0,070	-0,011
-710,918	800,000	-0,027	0,080
-709,904	-200,000	0,020	0,065
-708,889	800,000	-0,034	-0,071
-707,875	101,031	-0,053	0,045
-706,860	-200,000	0,043	0,183
-705,845	22,339	-0,034	0,021
-704,831	7,729	0,082	0,045
-703,816	800,000	-0,022	-0,071
-702,802	-87,397	0,152	-0,034
-701,787	-200,000	-0,028	-0,113
-700,772	-43,756	0,039	-0,014
-699,758	536,534	-0,074	-0,129
-698,743	-54,687	0,079	0,026
-697,729	574,269	0,026	-0,048
-696,714	234,896	-0,111	0,135
-695,699	-200,000	-0,007	-0,043
-694,685	800,000	0,027	-0,067
-693,670	-123,317	-0,141	-0,016
-692,656	-40,330	0,048	-0,018
-691,641	-200,000	-0,012	0,142
-690,627	89,920	0,048	0,040
-689,612	-89,529	-0,047	0,010
-688,597	24,615	-0,075	0,045
-687,583	-89,027	-0,106	-0,023
-686,568	147,812	0,065	-0,064
-685,554	55,499	-0,025	-0,018
-684,539	411,274	0,043	-0,067
-683,524	333,855	-0,037	0,053
-682,510	705,088	-0,052	0,101
-681,495	262,632	-0,052	-0,067
-680,481	-35,705	0,130	-0,051
-679,466	-26,990	0,045	0,019
-678,451	310,786	-0,058	0,080
-677,437	-91,145	-0,181	0,038
-676,422	39,484	-0,067	0,044
-675,408	-200,000	0,022	-0,145
-674,393	-71,880	0,115	-0,031
-673,378	17,307	-0,154	-0,090
-672,364	-16,099	-0,126	-0,059
-671,349	269,939	-0,079	-0,103
-670,335	566,695	-0,026	-0,046
-669,320	12,542	0,072	-0,041
-668,305	800,000	0,039	0,090
-667,291	-200,000	-0,025	0,091
-666,276	-200,000	0,012	-0,050
-665,262	-200,000	-0,025	-0,085
-664,247	-173,756	0,052	0,001
-663,232	-200,000	-0,079	0,000
-662,218	345,082	0,009	0,013
-661,203	6,427	-0,052	0,028
-660,189	-200,000	0,002	-0,018
-659,174	-59,039	-0,184	0,058
-658,159	172,563	0,111	-0,117
-657,145	210,998	-0,073	-0,084
-656,130	69,851	-0,011	0,009
-655,116	-118,142	0,116	-0,015
-654,101	20,771	0,046	0,027
-653,086	800,000	-0,040	-0,110
-652,072	800,000	0,042	0,098
-651,057	-17,159	-0,089	-0,041
-650,043	-200,000	0,008	-0,104
-649,028	10,940	-0,016	0,009
-648,014	-200,000	0,046	0,151
-646,999	-200,000	-0,019	0,151
-645,984	28,654	0,172	0,107
-644,970	421,869	-0,027	-0,043
-643,955	237,347	0,067	-0,082
-642,941	-89,550	-0,153	-0,033
-641,926	267,321	0,085	-0,110
-640,911	94,579	0,066	-0,055
-639,897	-200,000	0,008	-0,093
-638,882	-36,945	0,081	0,032
-637,868	576,458	-0,092	0,165
-636,853	-200,000	0,006	-0,065
-635,838	-200,000	-0,030	0,100
-634,824	-100,426	0,120	-0,022
-633,809	-200,000	-0,019	0,093
-632,795	467,911	0,041	-0,068
-631,780	620,338	0,039	0,072
-630,765	160,462	-0,121	0,125
-629,751	-200,000	0,009	-0,085
-628,736	52,547	-0,043	0,030
-627,722	800,000	-0,076	-0,181
-626,707	-109,535	-0,073	0,011
-625,692	800,000	0,034	-0,111
-624,678	-50,602	-0,038	0,013
-623,663	-98,186	-0,084	0,016
-622,649	61,608	-0,034	-0,024
-621,634	64,273	0,091	0,067
-620,619	24,264	0,022	-0,013
-619,605	-101,788	0,122	-0,021
-618,590	159,885	0,011	-0,011
-617,576	-200,000	-0,005	0,028
-616,561	106,589	-0,153	-0,134
-615,546	800,000	-0,009	0,019
-614,532	526,846	-0,035	-0,061
-613,517	-200,000	-0,073	-0,240
-612,503	62,325	0,038	0,028
-611,488	96,614	-0,018	0,015
-610,474	-74,880	0,014	0,004
-609,459	800,000	0,026	-0,080
-608,444	30,803	-0,095	-0,059
-607,430	260,077	-0,095	-0,121
-606,415	-200,000	0,000	-0,007
-605,401	800,000	0,090	-0,243
-604,386	-116,705	0,075	-0,010
-603,371	-67,489	-0,050	0,014
-602,357	-81,093	0,038	0,009
-601,342	90,124	0,055	0,045
-600,328	-200,000	-0,003	0,084
-599,313	78,525	0,038	-0,030
-598,298	-126,855	-0,126	-0,013
-597,284	800,000	-0,034	-0,071
-596,269	-31,157	0,074	0,031
-595,255	461,653	-0,010	0,017
-594,240	-200,000	-0,026	-0,161
-593,225	-82,781	-0,089	-0,021
-592,211	198,897	-0,042	-0,047
-591,196	130,088	0,055	-0,052
-590,182	-200,000	0,000	-0,078
-589,167	-200,000	0,001	0,069
-588,152	-15,291	-0,010	0,005
-587,138	101,143	0,075	-0,064
-586,123	-63,914	0,084	-0,025
-585,109	-141,359	-0,113	-0,008
-584,094	800,000	-0,053	-0,123
-583,079	32,957	0,077	-0,049
-582,065	-200,000	0,017	0,057
-581,050	-200,000	-0,016	-0,105
-580,036	-177,745	-0,135	-0,002
-579,021	800,000	-0,040	-0,085
-578,006	800,000	-0,032	-0,091
-576,992	-20,019	0,025	0,011
-575,977	115,868	0,092	0,083
-574,963	123,420	0,084	-0,078
-573,948	800,000	-0,010	-0,023
-572,934	42,669	0,130	0,087
-571,919	800,000	0,018	-0,047
-570,904	-200,000	0,020	-0,091
-569,890	562,554	-0,035	-0,063
-568,875	57,777	-0,084	0,060
-567,861	800,000	0,020	-0,059
-566,846	93,502	-0,018	-0,015
-565,831	-61,870	-0,098	-0,030
-564,817	672,573	0,057	-0,108
-563,802	6,966	-0,207	-0,113
-562,788	-185,257	-0,134	-0,001
-561,773	66,991	0,085	-0,063
-560,758	281,790	-0,036	0,048
-559,744	38,625	0,096	0,063
-558,729	-200,000	0,000	-0,025
-557,715	-200,000	0,003	0,014
-556,700	-200,000	-0,006	-0,214
-555,685	-200,000	-0,030	-0,106
-554,671	129,369	-0,071	0,067
-553,656	332,265	-0,061	-0,086
-552,642	510,889	-0,082	0,139
-551,627	-154,447	0,202	0,010
-550,612	-58,911	0,060	0,019
-549,598	66,996	-0,055	-0,041
-548,583	-50,389	-0,032	-0,011
-547,569	-200,000	0,011	-0,048
-546,554	140,823	0,060	0,058
-545,539	-171,753	-0,145	-0,003
-544,525	-200,000	-0,007	0,045
-543,510	110,867	-0,037	-0,033
-542,496	305,682	-0,090	0,122
-541,481	-60,822	-0,059	-0,018
-540,466	37,827	0,122	-0,079
-539,452	-170,778	-0,115	0,003
-538,437	-200,000	-0,001	0,148
-537,423	498,841	0,017	-0,029
-536,408	-200,000	0,001	0,053
-535,393	-200,000	0,018	0,104
-534,379	-200,000	-0,005	-0,075
-533,364	398,601	0,068	-0,105
-532,350	-200,000	0,001	0,029
-531,335	800,000	0,076	0,186
-530,321	-200,000	0,026	0,092
-529,306	42,422	-0,017	0,011
-528,291	-200,000	-0,020	-0,159
-527,277	-58,667	-0,115	-0,036
-526,262	713,838	0,033	0,064
-525,248	-23,935	-0,006	-0,003
-524,233	800,000	-0,014	0,029
-523,218	-200,000	-0,011	0,174
-522,204	-200,000	-0,010	0,062
-521,189	-200,000	0,011	0,111
-520,175	-200,000	-0,001	0,008
-519,160	74,803	0,029	0,022
-518,145	-200,000	0,016	0,160
-517,131	-200,000	-0,002	-0,123
-516,116	-200,000	0,004	-0,020
-515,102	-200,000	-0,019	-0,126
-514,087	800,000	-0,040	-0,085
-513,072	647,739	0,024	0,045
-512,058	-168,076	-0,123	-0,003
-511,043	-200,000	-0,028	-0,123
-510,029	-124,322	0,088	0,010
-509,014	-200,000	-0,010	0,114
-507,999	800,000	-0,029	0,080
-506,985	-55,326	-0,074	0,024
-505,970	198,939	0,147	-0,165
-504,956	-61,494	-0,107	-0,033
-503,941	-200,000	-0,007	-0,063
-502,926	-200,000	-0,017	0,103
-501,912	282,787	-0,033	0,043
-500,897	243,145	-0,106	-0,130
-499,883	-200,000	-0,013	-0,063
-498,868	161,829	-0,104	-0,106
-497,853	-200,000	-0,014	-0,096
-496,839	800,000	-0,039	-0,114
-495,824	539,936	-0,030	0,053
-494,810	83,236	0,046	0,036
-493,795	800,000	0,033	0,089
-492,781	35,723	0,084	-0,054
-491,766	-48,052	-0,089	0,031
-490,751	-200,000	0,010	-0,052
-489,737	-200,000	0,050	-0,187
-488,722	9,730	0,112	-0,062
-487,708	-6,658	0,101	0,050
-486,693	-200,000	0,003	0,045
-485,678	-200,000	0,019	0,098
-484,664	-47,121	-0,185	-0,066
-483,649	342,519	0,089	0,127
-482,635	-200,000	0,011	-0,072
-481,620	-108,763	0,105	0,016
-480,605	-200,000	0,004	-0,022
-479,591	-200,000	0,006	0,054
-478,576	95,501	0,049	-0,041
-477,562	-40,020	0,075	-0,028
-476,547	133,884	-0,151	-0,142
-475,532	800,000	-0,042	-0,134
-474,518	-113,907	0,036	0,005
-473,503	517,880	-0,009	0,015
-472,489	49,992	0,033	-0,023
-471,474	219,124	-0,029	0,034
-470,459	800,000	-0,069	0,159
-469,445	800,000	0,007	0,016
-468,430	34,045	0,127	0,081
-467,416	-200,000	0,015	0,103
-466,401	-15,694	-0,126	-0,058
-465,386	-106,388	-0,078	0,013
-464,372	207,212	0,081	0,092
-463,357	-112,177	-0,086	0,012
-462,343	31,955	-0,073	0,045
-461,328	63,286	0,045	-0,033
-460,313	-59,170	0,180	0,056
-459,299	800,000	-0,026	0,066
-458,284	800,000	-0,016	-0,043
-457,270	800,000	0,023	-0,061
-456,255	800,000	-0,044	-0,107
-455,241	-17,493	0,095	-0,043
-454,226	421,760	-0,026	-0,040
-453,211	-200,000	-0,018	-0,087
-452,197	153,301	-0,028	0,028
-451,182	-200,000	-0,011	-0,102
-450,168	-116,472	0,054	0,007
-449,153	-80,621	-0,074	-0,018
-448,138	-200,000	-0,008	0,026
-447,124	281,217	-0,059	0,078
-446,109	112,051	-0,074	-0,066
-445,095	800,000	0,039	-0,109
-444,080	-200,000	0,014	0,067
-443,065	800,000	0,031	-0,077
-442,051	254,976	0,115	-0,143
-441,036	-200,000	-0,034	-0,208
-440,022	498,278	0,031	-0,053
-439,007	-200,000	0,011	0,088
-437,992	327,035	0,109	0,152
-436,978	800,000	-0,028	-0,061
-435,963	-129,761	0,095	-0,009
-434,949	75,591	0,027	-0,021
-433,934	89,087	-0,021	-0,017
-432,919	-47,096	-0,033	0,012
-431,905	46,444	0,116	0,078
-430,890	371,247	0,106	0,157
-429,876	232,057	0,036	0,043
-428,861	176,779	0,047	-0,050
-427,846	518,714	-0,062	0,106
-426,832	19,010	-0,063	0,037
-425,817	9,412	0,046	-0,025
-424,803	-150,393	-0,146	-0,008
-423,788	800,000	0,029	0,071
-422,773	96,750	0,045	-0,038
-421,759	322,095	-0,063	-0,088
-420,744	-200,000	-0,006	-0,057
-419,730	147,129	-0,050	-0,049
-418,715	-29,937	-0,034	0,014
-417,701	-119,257	0,141	-0,018
-416,686	-153,846	0,021	-0,001
-415,671	602,868	-0,016	-0,029
-414,657	-47,348	0,097	0,034
-413,642	85,342	0,056	0,045
-412,628	407,371	-0,020	-0,032
-411,613	-200,000	0,031	-0,162
-410,598	-130,804	-0,065	-0,006
-409,584	282,937	-0,044	0,058
-408,569	177,418	0,111	0,118
-407,555	-126,948	0,146	0,015
-406,540	-40,803	-0,125	0,047
-405,525	103,190	0,123	-0,105
-404,511	279,540	0,008	-0,011
-403,496	203,895	-0,024	-0,028
-402,482	-200,000	-0,042	-0,136
-401,467	-61,392	0,054	0,016
-400,452	-177,491	0,234	-0,004
-399,438	-26,760	-0,010	-0,004
-398,423	-72,627	-0,088	0,023
-397,409	-200,000	0,011	-0,072
-396,394	-77,196	0,141	0,035
-395,379	68,179	-0,082	-0,061
-394,365	-200,000	-0,025	-0,088
-393,350	-200,000	-0,022	0,114
-392,336	-200,000	0,028	0,148
-391,321	-200,000	0,023	0,095
-390,306	37,430	-0,075	0,048
-389,292	-200,000	-0,015	-0,105
-388,277	51,494	-0,072	-0,050
-387,263	83,597	-0,047	0,037
-386,248	800,000	0,036	0,086
-385,233	800,000	0,013	-0,035
-384,219	61,198	-0,103	0,074
-383,204	67,647	-0,074	-0,055
-382,190	47,313	-0,022	0,015
-381,175	-143,544	-0,039	0,003
-380,160	237,006	0,105	0,127
-379,146	-55,645	-0,021	-0,007
-378,131	346,014	0,036	0,052
-377,117	800,000	-0,033	0,104
-376,102	-44,497	0,108	0,039
-375,088	-3,535	0,070	0,035
-374,073	-90,324	-0,090	-0,019
-373,058	-200,000	-0,013	0,083
-372,044	638,846	0,085	0,158
-371,029	800,000	0,036	-0,076
-370,015	14,357	-0,061	-0,035
-369,000	-102,414	-0,110	0,019
-367,985	675,858	0,061	-0,116
-366,971	-200,000	0,014	-0,080
-365,956	-87,244	0,036	0,008
-364,942	-53,185	0,077	0,026
-363,927	-29,658	0,061	-0,025
-362,912	-72,760	-0,220	0,059
-361,898	117,617	-0,041	-0,037
-360,883	40,666	0,095	-0,062
-359,869	144,989	-0,042	0,041
-358,854	59,388	0,103	0,074
-357,839	99,993	0,034	0,029
-356,825	123,093	-0,057	0,052
-355,810	800,000	0,010	-0,029
-354,796	-78,760	-0,067	-0,017
-353,781	-74,484	-0,006	0,001
-352,766	-17,960	-0,007	-0,003
-351,752	55,437	0,058	0,040
-350,737	-39,587	0,105	0,040
-349,723	800,000	0,039	0,121
-348,708	137,491	0,018	0,017
-347,693	-200,000	0,009	0,041
-346,679	85,507	-0,170	-0,135
-345,664	-43,648	0,062	-0,023
-344,650	114,254	0,057	-0,050
-343,635	-25,998	-0,090	0,038
-342,620	261,277	0,136	0,172
-341,606	48,021	0,089	-0,060
-340,591	-49,660	0,112	-0,038
-339,577	216,350	-0,100	0,115
-338,562	59,803	-0,140	0,100
-337,548	800,000	-0,020	-0,041
-336,533	262,431	-0,043	-0,055
-335,518	-95,978	0,015	0,003
-334,504	800,000	0,015	-0,037
-333,489	-200,000	-0,010	0,039
-332,475	43,979	0,067	-0,044
-331,460	-127,014	0,101	-0,011
-330,445	-25,945	0,076	-0,032
-329,431	2,409	0,008	0,004
-328,416	800,000	0,022	0,053
-327,402	-200,000	0,088	0,000
-326,387	800,000	-0,013	-0,027
-325,372	-200,000	-0,000	0,048
-324,358	536,113	0,032	-0,056
-323,343	-120,166	-0,062	-0,008
-322,329	499,865	0,053	0,089
-321,314	82,517	0,155	-0,122
-320,299	800,000	-0,058	-0,117
-319,285	-200,000	0,007	0,117
-318,270	114,620	-0,089	-0,078
-317,256	-200,000	-0,012	-0,130
-316,241	800,000	0,060	0,186
-315,226	800,000	-0,027	0,078
-314,212	321,847	0,080	0,111
-313,197	-99,183	-0,209	-0,038
-312,183	-200,000	-0,002	0,107
-311,168	-92,336	-0,067	-0,013
-310,153	-200,000	0,015	0,051
-309,139	800,000	0,062	-0,142
-308,124	-200,000	0,008	-0,106
-307,110	2,385	0,050	-0,026
-306,095	624,120	-0,025	0,046
-305,080	487,942	0,039	0,065
-304,066	-200,000	-0,020	0,087
-303,051	-38,786	0,101	-0,038
-302,037	-80,044	-0,156	-0,038
-301,022	-88,552	0,100	-0,021
-300,008	305,071	-0,102	0,138
-298,993	-105,769	-0,143	-0,023
-297,978	-200,000	-0,018	0,106
-296,964	-98,653	-0,050	0,009
-295,949	9,140	0,086	0,047
-294,935	-56,616	-0,079	0,025
-293,920	330,263	-0,021	0,029
-292,905	-200,000	0,013	0,198
-291,891	281,174	0,039	0,050
-290,876	5,357	-0,030	-0,016
-289,862	-200,000	-0,013	0,067
-288,847	206,602	-0,016	0,018
-287,832	-75,806	-0,112	0,029
-286,818	800,000	0,044	0,091
-285,803	161,585	0,095	0,096
-284,789	-200,000	0,011	-0,101
-283,774	422,377	0,022	-0,035
-282,759	800,000	0,028	0,058
-281,745	3,489	0,101	0,053
-280,730	-200,000	0,033	-0,116
-279,716	357,994	-0,082	0,119
-278,701	-200,000	0,008	0,102
-277,686	-117,376	0,168	0,022
-276,672	-72,942	-0,097	0,026
-275,657	-200,000	0,023	0,125
-274,643	-200,000	0,023	-0,082
-273,628	230,668	0,017	-0,020
-272,613	189,721	-0,054	-0,059
-271,599	-91,595	-0,075	-0,015
-270,584	800,000	0,044	0,136
-269,570	48,026	0,076	0,052
-268,555	-129,975	0,073	0,007
-267,540	771,738	-0,022	-0,044
-266,526	-152,334	-0,123	0,006
-265,511	63,989	-0,065	0,047
-264,497	149,677	0,055	-0,054
-263,482	-200,000	-0,037	-0,190
-262,467	-200,000	-0,019	0,072
-261,453	-200,000	0,017	0,106
-260,438	364,979	0,014	0,020
-259,424	621,846	-0,014	0,025
-258,409	-49,025	-0,135	-0,047
-257,395	110,195	0,082	0,071
-256,380	305,084	0,035	-0,047
-255,365	311,679	0,037	0,050
-254,351	-63,566	0,170	0,050
-253,336	-101,438	0,129	-0,023
-252,322	-124,036	-0,210	-0,024
-251,307	800,000	-0,022	-0,045
-250,292	296,463	0,053	-0,071
-249,278	78,693	0,020	0,015
-248,263	-52,602	-0,056	-0,018
-247,249	604,608	0,022	0,040
-246,234	-200,000	0,009	0,038
-245,219	-114,013	0,137	0,019
-244,205	-105,649	-0,220	-0,036
-243,190	64,191	0,124	0,090
-242,176	114,518	-0,120	0,106
-241,161	-18,883	0,074	0,033
-240,146	784,922	0,083	0,166
-239,132	186,098	-0,137	0,148
-238,117	118,808	-0,063	0,056
-237,103	-93,815	-0,041	0,008
-236,088	-200,000	0,008	-0,035
-235,073	398,021	-0,050	-0,076
-234,059	-25,108	0,158	-0,067
-233,044	800,000	0,006	0,013
-232,030	-2,935	-0,172	-0,086
-231,015	335,011	0,056	-0,078
-230,000	-71,892	-0,036	0,010
-228,986	179,819	0,084	-0,090
-227,971	-110,391	0,047	0,007
-226,957	335,493	-0,017	0,023
-225,942	-200,000	-0,006	0,077
-224,927	24,116	-0,024	0,014
-223,913	-127,719	0,130	0,013
-222,898	-91,803	-0,023	-0,005
-221,884	-105,683	0,109	-0,018
-220,869	-200,000	0,012	0,083
-219,855	69,473	-0,056	0,042
-218,840	-103,224	0,064	-0,011
-217,825	24,936	0,192	0,115
-216,811	9,441	-0,062	-0,034
-215,796	-152,120	-0,210	0,011
-214,782	-118,914	0,139	-0,017
-213,767	273,785	0,024	0,030
-212,752	148,875	0,077	0,075
-211,738	800,000	0,039	0,107
-210,723	244,648	0,036	0,044
-209,709	617,209	0,068	-0,123
-208,694	-84,745	-0,129	0,029
-207,679	46,315	0,101	-0,067
-206,665	800,000	-0,033	0,069
-205,650	-106,926	0,059	-0,009
-204,636	-119,278	0,044	-0,005
-203,621	124,732	0,034	0,031
-202,606	149,535	-0,097	-0,095
-201,592	177,126	-0,097	-0,102
-200,577	475,278	-0,011	-0,018
-199,563	662,143	0,036	0,066
-198,548	-120,075	0,054	-0,007
-197,533	210,973	0,020	0,023
-196,519	-79,963	0,069	0,017
-195,504	-15,479	-0,111	-0,051
-194,490	15,398	-0,056	-0,032
-193,475	683,729	-0,046	0,086
-192,460	6,091	0,056	-0,030
-191,446	646,740	0,020	0,036
-190,431	-160,426	0,127	-0,005
-189,417	39,710	0,020	0,013
-188,402	-60,162	0,076	-0,023
-187,387	-61,580	-0,046	0,014
-186,373	19,760	-0,043	-0,025
-185,358	267,368	0,090	-0,114
-184,344	19,145	-0,129	0,075
-183,329	245,235	-0,029	-0,035
-182,315	-66,063	0,075	0,021
-181,300	-200,000	-0,061	0,213
-180,285	-200,000	-0,003	-0,074
-179,271	373,680	0,015	-0,022
-178,256	54,771	-0,097	0,067
-177,242	40,508	0,023	0,015
-176,227	-200,000	-0,011	0,069
-175,212	13,133	-0,075	0,042
-174,198	-14,902	-0,074	-0,034
-173,183	11,235	-0,089	-0,049
-172,169	800,000	-0,025	-0,056
-171,154	-63,215	-0,142	-0,042
-170,139	178,937	-0,044	0,046
-169,125	-200,000	0,003	-0,056
-168,110	355,724	0,037	-0,053
-167,096	-145,219	0,026	0,002
-166,081	432,858	0,032	-0,050
-165,066	340,596	-0,112	-0,158
-164,052	-62,705	-0,146	-0,043
-163,037	-60,326	-0,185	0,056
-162,023	202,977	0,028	0,031
-161,008	-78,338	0,079	-0,019
-159,993	190,238	0,046	0,050
-158,979	-132,424	-0,072	0,007
-157,964	-200,000	-0,008	-0,068
-156,950	310,216	-0,071	-0,096
-155,935	162,114	0,068	0,069
-154,920	190,060	0,038	-0,042
-153,906	800,000	0,014	0,044
-152,891	800,000	-0,039	0,109
-151,877	228,407	-0,053	-0,063
-150,862	564,352	0,029	-0,050
-149,847	224,430	-0,108	0,127
-148,833	407,813	-0,059	-0,090
-147,818	-200,000	-0,009	0,126
-146,804	92,826	0,105	0,085
-145,789	42,235	0,013	0,009
-144,775	414,208	0,081	-0,124
-143,760	-200,000	-0,004	-0,121
-142,745	-88,946	-0,117	0,025
-141,731	137,563	0,089	-0,084
-140,716	188,384	0,035	-0,038
-139,702	-39,312	0,060	0,023
-138,687	123,890	0,003	-0,002
-137,672	800,000	-0,024	0,055
-136,658	49,831	0,015	0,010
-135,643	78,538	-0,075	0,058
-134,629	-77,584	-0,035	-0,009
-133,614	191,897	0,115	0,125
-132,599	800,000	0,037	0,087
-131,585	-68,923	0,097	-0,027
-130,570	-16,990	-0,127	0,057
-129,556	-118,686	0,071	-0,009
-128,541	19,126	0,040	0,023
-127,526	800,000	-0,043	-0,101
-126,512	800,000	0,023	-0,046
-125,497	2,979	-0,141	0,074
-124,483	-148,978	0,097	0,006
-123,468	122,159	-0,075	0,068
-122,453	-200,000	-0,016	0,062
-121,439	67,521	-0,038	-0,028
-120,424	-160,561	-0,042	-0,002
-119,410	140,762	0,131	-0,125
-118,395	151,695	0,054	-0,053
