DTS Sentinel unit serial number:	SN410029Multiplexer serial number:	ORYXHardware model number:	OX2-SRSoftware version number:	ORYX F/W v4,00 Oryx Data Collector v3.7.2.0data status	okinstallation	B5 Nyhavnadifferential loss correction	single-endedforward channel	channel 2reverse channel	N/Adate	2023/12/14time	18:32:13forward acquisition time	300,00reverse acquisition time	0,00gamma	499,1914k internal	0,3156k external	0,3156temperature offset calibration	1,0000default loss term (dB/km)	0,3820temperature slope calibration	1,0000multiplexer offset coefficient	1,0000multiplexer slope coefficient	1,0000fibre end	0,00T internal ref (°C)	8,51T ext. ref 1 (°C)	-6,66T ext. ref 2 (°C)	-6,71length (m)	temperature (°C)	Stokes	anti-Stokes-744,400	5,582	0,179	0,097
-743,385	-114,423	-0,433	-0,061
-742,371	158,253	0,161	0,165
-741,356	-165,809	-0,250	-0,008
-740,342	27,490	0,229	0,142
-739,327	-163,063	-0,417	0,015
-738,312	-200,000	0,001	0,042
-737,298	-120,297	-0,416	0,052
-736,283	33,758	0,068	-0,043
-735,269	-165,981	-0,381	0,012
-734,254	-184,741	0,318	0,004
-733,239	-39,168	-0,471	-0,182
-732,225	354,396	0,210	0,309
-731,210	-150,694	-0,103	0,006
-730,196	-200,000	-0,011	-0,082
-729,181	-200,000	-0,023	-0,078
-728,167	800,000	-0,041	-0,100
-727,152	189,744	-0,094	-0,104
-726,137	214,443	-0,033	-0,038
-725,123	455,709	-0,067	-0,110
-724,108	-165,240	-0,044	0,001
-723,094	770,140	-0,035	-0,071
-722,079	800,000	-0,042	0,099
-721,064	-67,617	-0,144	0,041
-720,050	412,728	0,043	-0,067
-719,035	626,096	0,025	-0,046
-718,021	-58,208	-0,191	0,061
-717,006	800,000	0,030	-0,082
-715,991	405,937	-0,060	-0,094
-714,977	-200,000	-0,009	-0,091
-713,962	-200,000	-0,013	0,178
-712,948	308,622	-0,039	-0,054
-711,933	800,000	0,014	0,035
-710,918	-8,992	-0,144	0,071
-709,904	800,000	-0,044	0,133
-708,889	11,424	-0,111	-0,062
-707,875	103,978	-0,023	0,020
-706,860	166,420	0,143	0,149
-705,845	-116,193	-0,106	0,014
-704,831	-192,204	-0,065	-0,000
-703,816	-26,390	-0,063	-0,027
-702,802	-200,000	0,002	0,110
-701,787	-200,000	0,020	0,096
-700,772	-80,257	0,045	0,011
-699,758	-112,427	-0,123	-0,018
-698,743	-200,000	0,000	0,149
-697,729	800,000	-0,042	-0,115
-696,714	50,228	0,041	0,028
-695,699	-135,905	-0,235	0,020
-694,685	-58,167	-0,084	0,027
-693,670	800,000	-0,051	-0,107
-692,656	36,297	0,066	-0,043
-691,641	83,117	-0,041	-0,033
-690,627	-22,018	0,129	0,058
-689,612	800,000	0,013	-0,036
-688,597	119,641	-0,064	0,059
-687,583	-14,637	-0,041	-0,019
-686,568	196,472	-0,077	-0,087
-685,554	-85,394	-0,119	0,027
-684,539	669,772	-0,047	-0,090
-683,524	-61,822	-0,107	-0,033
-682,510	-200,000	-0,021	-0,110
-681,495	-200,000	-0,020	0,155
-680,481	-200,000	-0,002	0,041
-679,466	-76,683	-0,102	0,026
-678,451	716,004	-0,071	-0,140
-677,437	-200,000	-0,023	0,096
-676,422	681,997	0,017	0,032
-675,408	-6,459	-0,135	-0,068
-674,393	203,136	-0,040	0,046
-673,378	171,696	-0,132	-0,140
-672,364	532,029	-0,067	-0,117
-671,349	800,000	-0,026	0,078
-670,335	-7,084	-0,097	0,048
-669,320	265,591	-0,058	-0,074
-668,305	800,000	-0,018	-0,038
-667,291	-75,702	-0,023	-0,006
-666,276	87,411	-0,156	0,127
-665,262	-126,725	-0,132	0,014
-664,247	-58,911	0,013	-0,004
-663,232	162,325	-0,052	-0,053
-662,218	-200,000	-0,002	0,024
-661,203	-200,000	0,008	0,032
-660,189	-180,597	-0,072	0,001
-659,174	-200,000	-0,003	-0,015
-658,159	47,340	-0,132	-0,090
-657,145	-200,000	-0,010	0,124
-656,130	-51,713	0,117	-0,040
-655,116	-36,243	-0,073	-0,029
-654,101	800,000	-0,035	-0,081
-653,086	-200,000	-0,003	0,054
-652,072	-11,954	-0,065	-0,031
-651,057	800,000	0,001	0,003
-650,043	53,040	-0,051	0,036
-649,028	65,833	0,087	-0,065
-648,014	-200,000	0,030	0,103
-646,999	-18,328	-0,102	-0,047
-645,984	-200,000	0,029	-0,111
-644,970	-200,000	0,003	-0,037
-643,955	8,993	-0,027	0,015
-642,941	800,000	-0,034	-0,096
-641,926	-86,325	0,028	-0,006
-640,911	-119,672	-0,062	-0,008
-639,897	-200,000	0,005	-0,026
-638,882	800,000	-0,038	-0,119
-637,868	800,000	0,060	-0,134
-636,853	-59,491	-0,099	-0,031
-635,838	132,782	-0,113	-0,107
-634,824	-24,131	-0,123	-0,054
-633,809	148,005	0,019	-0,019
-632,795	118,171	-0,113	-0,102
-631,780	800,000	0,035	-0,098
-630,765	367,098	-0,086	0,128
-629,751	25,283	-0,029	-0,018
-628,736	-116,413	-0,112	-0,015
-627,722	138,991	0,058	-0,056
-626,707	-46,328	-0,032	-0,011
-625,692	800,000	0,007	0,020
-624,678	246,375	-0,069	0,085
-623,663	690,440	-0,071	-0,138
-622,649	800,000	-0,078	-0,181
-621,634	-36,774	0,086	-0,034
-620,619	-74,529	-0,085	-0,022
-619,605	800,000	0,052	-0,143
-618,590	-200,000	-0,019	0,082
-617,576	-99,969	-0,067	-0,012
-616,561	-200,000	0,015	-0,070
-615,546	169,975	-0,123	0,129
-614,532	355,485	-0,015	0,022
-613,517	86,044	-0,075	-0,060
-612,503	-200,000	-0,001	0,071
-611,488	800,000	-0,059	0,133
-610,474	800,000	-0,022	0,054
-609,459	501,802	-0,095	-0,162
-608,444	-49,068	-0,174	0,061
-607,430	800,000	-0,000	0,001
-606,415	-28,513	0,070	0,029
-605,401	-90,381	-0,048	-0,010
-604,386	25,858	0,037	-0,022
-603,371	300,193	-0,101	0,138
-602,357	311,486	-0,067	0,092
-601,342	800,000	-0,026	0,070
-600,328	-79,626	0,058	0,014
-599,313	-9,397	-0,113	-0,055
-598,298	-12,530	-0,032	-0,015
-597,284	630,273	0,081	0,151
-596,269	-78,875	-0,031	-0,008
-595,255	197,751	-0,012	0,013
-594,240	282,954	-0,058	-0,076
-593,225	800,000	-0,021	0,055
-592,211	800,000	0,002	-0,006
-591,196	173,819	-0,072	-0,076
-590,182	-110,546	0,168	-0,025
-589,167	250,702	0,065	0,082
-588,152	77,568	-0,108	-0,084
-587,138	153,950	-0,120	0,120
-586,123	549,868	-0,028	-0,049
-585,109	-200,000	-0,021	-0,190
-584,094	9,598	-0,031	0,017
-583,079	772,521	-0,047	-0,094
-582,065	83,445	0,086	0,069
-581,050	800,000	-0,026	0,066
-580,036	-25,961	0,072	-0,031
-579,021	71,220	0,179	-0,136
-578,006	-33,565	-0,075	-0,030
-576,992	419,536	0,028	0,043
-575,977	-76,955	-0,183	0,046
-574,963	411,856	-0,016	-0,025
-573,948	-75,785	0,076	-0,020
-572,934	-200,000	-0,010	-0,033
-571,919	37,571	0,046	0,030
-570,904	724,231	-0,077	-0,150
-569,890	800,000	-0,026	-0,058
-568,875	800,000	-0,012	0,035
-567,861	-116,636	0,108	0,014
-566,846	-200,000	-0,011	0,066
-565,831	60,118	-0,067	0,048
-564,817	-41,685	0,055	-0,021
-563,802	25,066	-0,261	-0,159
-562,788	69,130	-0,066	-0,050
-561,773	-187,041	0,056	-0,001
-560,758	535,036	0,027	0,047
-559,744	800,000	0,050	0,148
-558,729	-8,363	0,061	-0,030
-557,715	190,865	-0,063	-0,070
-556,700	-200,000	-0,017	-0,190
-555,685	800,000	-0,042	-0,097
-554,671	279,079	-0,058	0,076
-553,656	-90,477	-0,066	0,014
-552,642	79,277	0,047	0,037
-551,627	77,728	0,127	0,099
-550,612	131,658	0,038	-0,036
-549,598	23,506	-0,075	0,045
-548,583	800,000	0,043	0,119
-547,569	-160,574	-0,149	0,006
-546,554	171,723	0,038	0,040
-545,539	-200,000	-0,007	0,070
-544,525	-53,398	-0,186	-0,062
-543,510	-11,760	0,125	0,060
-542,496	26,870	-0,083	0,051
-541,481	-33,858	-0,086	-0,034
-540,466	42,490	0,102	-0,068
-539,452	-200,000	0,014	-0,072
-538,437	27,360	0,047	-0,029
-537,423	-51,513	-0,105	0,036
-536,408	800,000	-0,031	0,073
-535,393	147,883	-0,124	-0,122
-534,379	-100,413	0,039	-0,007
-533,364	411,511	0,085	-0,133
-532,350	-54,725	0,123	0,040
-531,335	-164,343	0,046	0,001
-530,321	-200,000	-0,006	0,024
-529,306	49,152	0,072	-0,049
-528,291	68,831	-0,148	-0,111
-527,277	-200,000	-0,028	0,108
-526,262	145,290	-0,113	0,111
-525,248	-200,000	-0,011	-0,047
-524,233	-74,205	0,089	-0,023
-523,218	57,503	-0,108	0,077
-522,204	-130,924	-0,105	0,010
-521,189	341,383	-0,008	-0,011
-520,175	68,953	-0,033	-0,025
-519,160	-70,781	0,025	0,007
-518,145	12,767	-0,043	-0,024
-517,131	186,585	0,113	0,123
-516,116	800,000	0,030	0,080
-515,102	227,884	-0,143	-0,171
-514,087	-103,553	-0,029	-0,005
-513,072	132,577	0,131	-0,124
-512,058	494,186	0,044	0,074
-511,043	228,814	-0,046	0,055
-510,029	152,219	-0,083	0,083
-509,014	-130,589	0,038	0,004
-507,999	-44,341	-0,055	-0,020
-506,985	-200,000	0,022	-0,163
-505,970	216,706	0,019	-0,022
-504,956	128,368	-0,073	-0,068
-503,941	-200,000	0,003	0,013
-502,926	12,496	0,047	0,026
-501,912	-200,000	0,007	0,056
-500,897	800,000	0,042	0,123
-499,883	-42,849	0,045	-0,017
-498,868	144,622	0,046	-0,045
-497,853	167,906	-0,063	0,066
-496,839	54,399	-0,110	-0,077
-495,824	154,806	-0,042	-0,042
-494,810	118,392	0,072	-0,065
-493,795	615,125	-0,033	0,060
-492,781	162,915	0,049	-0,050
-491,766	-112,822	-0,092	0,013
-490,751	495,427	0,058	-0,098
-489,737	-200,000	-0,000	-0,071
-488,722	-200,000	0,035	-0,147
-487,708	-73,370	0,055	0,015
-486,693	304,233	-0,159	0,216
-485,678	260,772	-0,129	0,163
-484,664	448,053	0,100	0,161
-483,649	-131,412	0,121	-0,012
-482,635	-200,000	0,019	-0,075
-481,620	-200,000	-0,007	0,140
-480,605	-200,000	0,085	-0,000
-479,591	148,421	0,046	0,046
-478,576	124,585	0,046	0,042
-477,562	20,874	-0,126	-0,074
-476,547	-200,000	0,014	0,074
-475,532	125,535	0,088	0,081
-474,518	-200,000	-0,000	-0,082
-473,503	-79,138	0,021	-0,005
-472,489	75,068	-0,136	0,104
-471,474	-36,680	0,104	-0,041
-470,459	593,376	-0,024	0,043
-469,445	76,244	-0,056	0,043
-468,430	-56,957	0,078	0,025
-467,416	-200,000	-0,005	0,153
-466,401	-200,000	-0,014	0,092
-465,386	-163,283	-0,066	0,002
-464,372	59,863	0,050	-0,036
-463,357	195,146	-0,022	-0,025
-462,343	-13,418	0,141	-0,067
-461,328	-200,000	0,019	-0,120
-460,313	179,742	0,095	0,102
-459,299	130,837	-0,065	-0,060
-458,284	13,374	0,072	0,041
-457,270	-72,231	0,138	-0,037
-456,255	-73,346	-0,136	-0,036
-455,241	-200,000	0,006	-0,057
-454,226	-200,000	-0,017	-0,092
-453,211	184,640	0,093	-0,100
-452,197	253,885	-0,045	0,056
-451,182	115,287	0,103	0,091
-450,168	-61,078	0,082	-0,025
-449,153	635,116	0,038	-0,071
-448,138	-200,000	-0,040	-0,144
-447,124	800,000	0,028	0,062
-446,109	-61,561	0,128	-0,039
-445,095	182,717	-0,064	0,069
-444,080	-200,000	-0,015	-0,139
-443,065	-36,592	-0,115	0,045
-442,051	-86,800	-0,065	0,014
-441,036	225,287	0,110	-0,131
-440,022	98,479	0,051	-0,043
-439,007	-55,052	0,114	-0,037
-437,992	800,000	0,048	0,112
-436,978	-52,237	-0,046	0,015
-435,963	-77,457	-0,067	0,017
-434,949	-79,233	-0,033	-0,008
-433,934	-28,277	-0,124	-0,052
-432,919	-37,278	-0,072	-0,028
-431,905	-99,405	0,028	-0,005
-430,890	-91,241	0,187	0,039
-429,876	-81,187	0,052	0,013
-428,861	161,089	0,092	0,093
-427,846	216,817	-0,051	0,059
-426,832	-172,614	-0,100	0,002
-425,817	-200,000	0,009	0,062
-424,803	-45,478	0,080	0,029
-423,788	-200,000	0,004	-0,037
-422,773	-10,175	0,062	0,030
-421,759	325,262	0,054	0,076
-420,744	-200,000	0,022	-0,133
-419,730	-61,983	0,094	0,028
-418,715	800,000	-0,035	-0,102
-417,701	133,957	0,078	-0,074
-416,686	484,607	0,028	-0,047
-415,671	579,837	0,050	0,089
-414,657	-200,000	-0,025	0,160
-413,642	489,856	-0,040	0,067
-412,628	116,021	-0,108	-0,096
-411,613	-200,000	-0,014	-0,094
-410,598	223,200	0,020	0,024
-409,584	-200,000	0,018	0,065
-408,569	-7,944	0,058	-0,029
-407,555	-200,000	-0,019	0,111
-406,540	70,085	0,055	-0,041
-405,525	430,774	-0,068	0,107
-404,511	-162,178	-0,160	-0,006
-403,496	60,687	-0,150	-0,108
-402,482	-55,578	0,017	-0,005
-401,467	449,666	0,101	0,163
-400,452	-200,000	-0,006	0,065
-399,438	150,085	-0,034	-0,033
-398,423	10,456	-0,063	0,035
-397,409	-200,000	-0,006	-0,044
-396,394	-200,000	0,008	-0,112
-395,379	-122,796	0,095	0,011
-394,365	295,423	-0,078	0,105
-393,350	46,242	-0,054	-0,036
-392,336	-66,060	0,026	-0,007
-391,321	-109,708	-0,086	0,013
-390,306	-200,000	0,001	0,073
-389,292	-180,938	0,152	-0,002
-388,277	473,764	-0,037	0,061
-387,263	-166,268	-0,107	0,003
-386,248	19,053	0,111	-0,065
-385,233	800,000	-0,005	0,016
-384,219	83,671	0,087	-0,069
-383,204	-200,000	0,016	0,108
-382,190	390,619	0,024	-0,037
-381,175	257,456	0,007	-0,009
-380,160	-200,000	0,021	0,126
-379,146	260,585	-0,051	0,064
-378,131	350,344	-0,100	0,145
-377,117	429,766	0,026	0,042
-376,102	102,881	0,053	-0,045
-375,088	-200,000	-0,015	0,083
-374,073	800,000	0,029	0,074
-373,058	800,000	-0,064	0,138
-372,044	-200,000	0,003	0,019
-371,029	201,771	0,028	0,032
-370,015	-200,000	-0,042	0,188
-369,000	800,000	-0,013	0,029
-367,985	-200,000	0,001	-0,012
-366,971	-58,401	-0,049	0,015
-365,956	104,155	0,134	-0,115
-364,942	-108,033	-0,032	0,005
-363,927	126,950	-0,061	-0,056
-362,912	-75,682	0,156	0,040
-361,898	800,000	-0,047	-0,104
-360,883	44,738	-0,036	-0,024
-359,869	-200,000	0,002	0,050
-358,854	-200,000	-0,001	-0,118
-357,839	-200,000	-0,022	-0,106
-356,825	524,562	-0,027	0,046
-355,810	-200,000	-0,028	-0,130
-354,796	43,425	-0,088	-0,058
-353,781	-23,371	-0,070	-0,030
-352,766	-109,545	0,116	-0,018
-351,752	-39,374	0,065	0,025
-350,737	-46,471	0,096	0,034
-349,723	800,000	0,053	0,128
-348,708	776,000	-0,058	0,116
-347,693	80,895	0,118	-0,093
-346,679	800,000	-0,023	-0,075
-345,664	-97,223	-0,104	-0,020
-344,650	-112,877	0,062	0,009
-343,635	-200,000	-0,011	-0,049
-342,620	-38,693	0,054	0,021
-341,606	-200,000	-0,024	-0,094
-340,591	-57,658	-0,270	-0,085
-339,577	-134,780	-0,081	0,007
-338,562	800,000	0,040	-0,124
-337,548	-131,694	-0,083	0,008
-336,533	800,000	0,029	0,066
-335,518	-200,000	-0,036	0,194
-334,504	800,000	-0,019	0,049
-333,489	-115,290	-0,112	0,015
-332,475	120,474	-0,047	-0,042
-331,460	-88,491	-0,085	0,018
-330,445	94,641	-0,035	-0,029
-329,431	-37,845	-0,129	-0,050
-328,416	800,000	-0,057	0,173
-327,402	800,000	0,027	0,067
-326,387	556,281	0,074	-0,130
-325,372	800,000	0,038	-0,117
-324,358	800,000	-0,015	-0,046
-323,343	192,815	0,067	-0,073
-322,329	444,024	-0,059	0,095
-321,314	-44,580	0,084	0,030
-320,299	800,000	-0,034	0,075
-319,285	230,326	0,079	0,093
-318,270	131,686	0,022	0,020
-317,256	256,758	-0,105	0,132
-316,241	-140,108	0,173	-0,013
-315,226	800,000	-0,018	0,055
-314,212	89,856	0,120	0,098
-313,197	735,407	0,046	0,091
-312,183	-200,000	0,051	0,180
-311,168	-8,854	0,078	-0,038
-310,153	-200,000	-0,003	-0,096
-309,139	-100,424	0,042	0,008
-308,124	800,000	0,014	0,028
-307,110	-151,809	0,150	0,008
-306,095	773,512	0,010	-0,019
-305,080	1,988	-0,068	0,036
-304,066	-200,000	-0,001	-0,055
-303,051	-77,578	0,049	0,012
-302,037	207,442	0,084	-0,096
-301,022	552,180	-0,028	-0,049
-300,008	-50,470	-0,083	0,028
-298,993	14,012	0,080	-0,045
-297,978	-98,418	0,174	0,032
-296,964	200,927	-0,092	-0,103
-295,949	96,873	-0,141	-0,117
-294,935	-49,653	-0,087	-0,030
-293,920	-128,879	-0,073	0,007
-292,905	195,284	0,023	0,026
-291,891	-48,800	0,137	-0,047
-290,876	140,038	-0,065	0,062
-289,862	-100,713	0,036	-0,006
-288,847	-107,933	0,044	0,007
-287,832	-200,000	-0,003	0,062
-286,818	172,582	0,065	-0,068
-285,803	-200,000	0,020	0,111
-284,789	-23,254	0,136	-0,059
-283,774	800,000	-0,026	0,071
-282,759	139,353	-0,103	-0,098
-281,745	103,412	-0,085	-0,072
-280,730	155,790	0,056	-0,056
-279,716	800,000	-0,031	0,082
-278,701	-200,000	0,011	0,095
-277,686	29,869	0,122	0,075
-276,672	-200,000	-0,023	0,112
-275,657	299,828	0,061	0,081
-274,643	-200,000	0,041	-0,132
-273,628	-71,012	-0,051	0,014
-272,613	74,937	0,077	0,059
-271,599	225,890	-0,006	0,007
-270,584	67,482	0,102	0,075
-269,570	-64,711	0,061	0,018
-268,555	354,326	0,038	-0,054
-267,540	-161,620	-0,125	-0,005
-266,526	-200,000	-0,015	-0,131
-265,511	528,591	-0,046	-0,079
-264,497	800,000	-0,046	-0,123
-263,482	800,000	0,064	0,130
-262,467	-200,000	0,010	0,062
-261,453	68,215	0,080	-0,059
-260,438	-144,539	-0,096	0,006
-259,424	800,000	-0,057	-0,157
-258,409	800,000	0,006	-0,016
-257,395	70,473	-0,101	0,075
-256,380	283,021	0,042	-0,055
-255,365	544,557	-0,075	0,130
-254,351	-45,652	0,030	0,011
-253,336	800,000	-0,024	0,067
-252,322	800,000	0,027	-0,075
-251,307	-10,680	-0,149	-0,071
-250,292	-200,000	0,012	0,120
-249,278	-35,980	0,024	0,009
-248,263	-80,271	-0,087	-0,021
-247,249	-200,000	0,011	-0,057
-246,234	8,940	-0,070	0,038
-245,219	800,000	-0,025	0,071
-244,205	-7,439	-0,034	0,017
-243,190	9,073	0,066	0,036
-242,176	-107,890	0,175	-0,027
-241,161	-35,281	0,056	0,022
-240,146	-200,000	0,002	0,074
-239,132	-76,737	-0,141	0,035
-238,117	-39,437	-0,115	-0,043
-237,103	-200,000	0,004	0,041
-236,088	88,553	0,107	-0,086
-235,073	-200,000	0,003	-0,206
-234,059	74,706	-0,062	0,047
-233,044	-200,000	-0,031	0,149
-232,030	-200,000	-0,013	-0,199
-231,015	-200,000	0,033	-0,135
-230,000	-200,000	-0,000	0,028
-228,986	800,000	-0,036	-0,072
-227,971	-79,621	0,051	0,012
-226,957	8,941	0,134	-0,073
-225,942	56,423	0,066	0,046
-224,927	-124,022	0,060	0,007
-223,913	-76,441	-0,073	-0,018
-222,898	147,798	0,073	-0,071
-221,884	46,436	0,056	-0,037
-220,869	138,995	-0,037	0,035
-219,855	800,000	-0,021	0,054
-218,840	-168,514	0,136	-0,004
-217,825	-200,000	0,012	0,048
-216,811	-83,572	0,048	-0,011
-215,796	-102,609	-0,189	0,032
-214,782	769,913	-0,036	-0,070
-213,767	-89,485	0,187	0,039
-212,752	219,979	-0,023	-0,026
-211,738	800,000	0,053	0,136
-210,723	1,403	0,081	0,042
-209,709	-200,000	0,012	-0,140
-208,694	800,000	-0,008	0,023
-207,679	-200,000	0,020	0,069
-206,665	-33,298	0,133	-0,053
-205,650	-166,861	0,144	0,004
-204,636	800,000	0,052	0,109
-203,621	-135,039	-0,068	0,006
-202,606	800,000	-0,042	-0,118
-201,592	468,545	-0,061	-0,100
-200,577	-71,902	0,044	-0,012
-199,563	-200,000	-0,007	0,113
-198,548	-39,541	0,058	0,022
-197,533	234,192	-0,102	0,122
-196,519	46,229	0,184	0,123
-195,504	76,528	0,008	0,006
-194,490	152,685	-0,090	-0,089
-193,475	800,000	0,026	-0,063
-192,460	324,079	0,039	0,053
-191,446	-200,000	0,010	-0,037
-190,431	154,546	0,044	0,044
-189,417	659,030	0,016	-0,030
-188,402	800,000	-0,032	-0,100
-187,387	36,818	0,024	0,015
-186,373	177,702	-0,076	-0,080
-185,358	249,342	-0,079	0,097
-184,344	101,951	0,124	-0,104
-183,329	-3,537	0,115	-0,058
-182,315	-200,000	-0,003	-0,044
-181,300	-171,408	-0,114	0,003
-180,285	84,892	0,088	-0,070
-179,271	64,314	-0,106	-0,077
-178,256	100,442	0,112	-0,094
-177,242	-162,641	0,071	0,002
-176,227	452,378	0,055	0,088
-175,212	-200,000	-0,010	0,121
-174,198	-200,000	0,009	-0,049
-173,183	368,141	0,122	-0,178
-172,169	14,942	0,110	-0,062
-171,154	-200,000	-0,009	0,096
-170,139	-14,803	-0,049	0,023
-169,125	-39,996	0,136	-0,051
-168,110	652,149	-0,078	0,144
-167,096	-104,216	0,097	0,016
-166,081	-200,000	0,019	-0,068
-165,066	-52,716	-0,027	-0,009
-164,052	800,000	0,085	-0,171
-163,037	-100,971	-0,127	0,022
-162,023	581,913	0,056	0,100
-161,008	115,127	0,074	0,065
-159,993	164,257	0,120	0,122
-158,979	800,000	-0,052	0,119
-157,964	-200,000	-0,001	0,046
-156,950	-200,000	-0,018	0,070
-155,935	305,264	-0,046	0,062
-154,920	-156,474	0,090	0,004
-153,906	38,572	-0,043	0,028
-152,891	-0,601	0,122	0,062
-151,877	-200,000	-0,011	0,104
-150,862	649,056	0,042	0,078
-149,847	800,000	0,085	0,186
-148,833	-34,398	-0,078	0,031
-147,818	200,625	0,073	-0,081
-146,804	-200,000	-0,003	0,111
-145,789	-71,568	-0,092	0,025
-144,775	114,500	0,035	-0,031
-143,760	-34,193	-0,090	0,035
-142,745	-46,953	-0,149	0,052
-141,731	-200,000	-0,023	-0,166
-140,716	258,560	0,004	-0,005
-139,702	-200,000	0,002	0,088
-138,687	-200,000	0,008	0,126
-137,672	164,969	0,089	0,091
-136,658	-49,271	0,044	-0,015
-135,643	2,757	-0,067	0,035
-134,629	45,795	0,060	-0,040
-133,614	800,000	-0,026	0,079
-132,599	-200,000	-0,030	-0,157
-131,585	-200,000	-0,019	0,084
-130,570	-100,799	0,096	0,017
-129,556	243,325	-0,062	-0,075
-128,541	-153,103	-0,126	0,006
-127,526	800,000	-0,051	0,106
-126,512	-200,000	0,027	0,271
-125,497	182,563	-0,087	0,093
-124,483	519,854	0,042	-0,071
-123,468	800,000	0,050	0,124
-122,453	-183,990	-0,029	-0,000
-121,439	-6,597	0,023	-0,011
-120,424	340,513	0,025	0,035
-119,410	-200,000	0,022	0,152
