DTS Sentinel unit serial number:	SN410029Multiplexer serial number:	ORYXHardware model number:	OX2-SRSoftware version number:	ORYX F/W v4,00 Oryx Data Collector v3.7.2.0data status	okinstallation	B5 Nyhavnadifferential loss correction	single-endedforward channel	channel 2reverse channel	N/Adate	2023/12/13time	07:07:13forward acquisition time	300,00reverse acquisition time	0,00gamma	499,1914k internal	0,3160k external	0,3160temperature offset calibration	1,0000default loss term (dB/km)	0,3820temperature slope calibration	1,0000multiplexer offset coefficient	1,0000multiplexer slope coefficient	1,0000fibre end	0,00T internal ref (°C)	13,73T ext. ref 1 (°C)	-2,71T ext. ref 2 (°C)	-3,03length (m)	temperature (°C)	Stokes	anti-Stokes-744,400	-151,965	0,070	0,004
-743,385	-129,501	-0,364	-0,037
-742,371	242,578	0,077	0,096
-741,356	-5,145	-0,308	0,155
-740,342	263,058	0,093	0,120
-739,327	-99,900	-0,329	-0,060
-738,312	3,918	0,083	0,044
-737,298	-149,981	-0,317	-0,018
-736,283	230,650	0,069	-0,084
-735,269	-112,312	-0,261	0,038
-734,254	-31,841	0,153	0,063
-733,239	-57,474	-0,398	-0,128
-732,225	-172,729	0,179	0,004
-731,210	246,514	0,031	0,039
-730,196	800,000	-0,047	-0,101
-729,181	-55,144	-0,171	-0,056
-728,167	-94,430	-0,164	0,033
-727,152	-200,000	-0,008	-0,065
-726,137	12,981	-0,067	-0,038
-725,123	39,780	-0,105	-0,069
-724,108	-200,000	-0,003	-0,059
-723,094	-32,340	0,049	-0,020
-722,079	-200,000	-0,020	-0,107
-721,064	92,211	0,114	-0,094
-720,050	-41,651	-0,043	-0,016
-719,035	800,000	-0,052	-0,137
-718,021	156,459	-0,026	0,027
-717,006	-200,000	-0,050	-0,210
-715,991	-48,770	-0,099	-0,035
-714,977	800,000	-0,049	-0,141
-713,962	-15,848	0,029	0,014
-712,948	-200,000	0,006	0,021
-711,933	-66,921	0,005	-0,001
-710,918	-200,000	-0,021	-0,148
-709,904	54,757	-0,034	0,024
-708,889	-200,000	0,010	-0,140
-707,875	-200,000	0,005	-0,088
-706,860	-200,000	0,017	-0,093
-705,845	278,495	-0,057	-0,075
-704,831	800,000	0,030	0,069
-703,816	-24,611	-0,028	-0,012
-702,802	-200,000	-0,042	0,000
-701,787	411,743	-0,042	-0,066
-700,772	-40,720	0,041	-0,016
-699,758	-200,000	0,001	-0,054
-698,743	203,776	0,031	-0,035
-697,729	-44,602	0,137	0,050
-696,714	8,860	-0,036	-0,020
-695,699	-4,344	0,051	-0,026
-694,685	-142,776	-0,150	-0,011
-693,670	-200,000	-0,002	0,012
-692,656	-200,000	-0,006	-0,024
-691,641	19,026	0,027	-0,016
-690,627	-83,683	0,107	-0,025
-689,612	571,837	-0,033	0,060
-688,597	-89,313	0,117	-0,025
-687,583	-53,036	0,109	-0,037
-686,568	-200,000	0,006	-0,150
-685,554	-20,931	0,061	0,027
-684,539	127,530	0,070	-0,066
-683,524	-59,680	0,076	-0,024
-682,510	-200,000	0,006	0,024
-681,495	370,667	0,035	-0,053
-680,481	17,052	0,090	-0,053
-679,466	800,000	0,053	-0,114
-678,451	678,730	-0,021	0,041
-677,437	-27,493	-0,038	0,016
-676,422	349,032	-0,080	0,116
-675,408	-200,000	0,007	0,103
-674,393	-32,981	0,090	0,037
-673,378	393,125	-0,037	-0,057
-672,364	77,640	-0,015	0,012
-671,349	-55,027	0,023	-0,008
-670,335	9,225	-0,071	0,039
-669,320	-122,872	0,004	0,000
-668,305	-127,187	0,042	-0,004
-667,291	80,578	0,043	-0,034
-666,276	-200,000	0,001	-0,089
-665,262	-62,649	-0,136	-0,041
-664,247	-200,000	0,013	-0,163
-663,232	461,721	0,094	-0,154
-662,218	11,629	0,029	-0,017
-661,203	264,103	0,073	0,094
-660,189	279,657	-0,079	-0,104
-659,174	-42,727	-0,109	-0,040
-658,159	-200,000	0,033	-0,146
-657,145	-200,000	-0,031	-0,155
-656,130	-29,166	-0,176	0,074
-655,116	34,874	0,069	0,044
-654,101	631,052	0,073	0,137
-653,086	-95,914	0,041	-0,008
-652,072	-74,712	-0,112	-0,029
-651,057	225,943	-0,044	-0,052
-650,043	800,000	-0,023	-0,067
-649,028	-200,000	0,038	-0,166
-648,014	28,099	0,118	-0,073
-646,999	-200,000	-0,006	-0,054
-645,984	353,307	-0,062	0,091
-644,970	-72,196	-0,175	-0,047
-643,955	207,645	-0,109	-0,125
-642,941	-200,000	-0,015	-0,064
-641,926	-76,216	0,049	-0,013
-640,911	154,768	0,094	0,095
-639,897	800,000	0,060	0,155
-638,882	-133,787	0,026	-0,002
-637,868	240,879	-0,084	0,103
-636,853	40,556	-0,165	-0,109
-635,838	-200,000	-0,010	-0,088
-634,824	214,838	0,104	-0,122
-633,809	342,433	-0,064	0,092
-632,795	-110,164	-0,045	-0,007
-631,780	-98,039	0,101	-0,019
-630,765	-200,000	0,002	0,020
-629,751	9,880	-0,044	-0,024
-628,736	-200,000	-0,013	-0,059
-627,722	400,335	-0,012	0,018
-626,707	-8,241	0,010	-0,005
-625,692	-148,167	-0,027	0,002
-624,678	-200,000	-0,002	0,067
-623,663	30,883	0,066	0,041
-622,649	-24,169	-0,150	0,065
-621,634	89,810	-0,042	-0,035
-620,619	-200,000	0,090	0,000
-619,605	-200,000	0,018	-0,080
-618,590	-200,000	-0,044	-0,165
-617,576	-27,396	0,085	-0,036
-616,561	112,523	-0,122	-0,108
-615,546	64,074	-0,113	-0,083
-614,532	167,728	-0,146	-0,152
-613,517	131,438	-0,119	0,112
-612,503	106,309	-0,053	0,046
-611,488	16,488	-0,034	0,020
-610,474	163,471	0,024	-0,025
-609,459	196,953	-0,051	0,057
-608,444	-200,000	-0,014	-0,065
-607,430	6,428	-0,055	-0,030
-606,415	44,940	-0,084	-0,057
-605,401	-94,148	0,079	-0,016
-604,386	-200,000	-0,021	-0,146
-603,371	139,179	0,078	0,075
-602,357	267,017	-0,017	-0,022
-601,342	800,000	-0,019	0,048
-600,328	7,166	-0,103	-0,056
-599,313	-200,000	-0,003	-0,059
-598,298	-153,666	-0,032	-0,002
-597,284	-191,969	0,174	0,001
-596,269	177,975	0,043	-0,046
-595,255	800,000	-0,017	0,054
-594,240	-190,262	0,022	-0,000
-593,225	254,712	-0,054	-0,067
-592,211	-200,000	0,046	-0,177
-591,196	82,834	-0,069	-0,055
-590,182	247,853	-0,054	-0,067
-589,167	42,664	-0,043	0,029
-588,152	-45,708	0,116	-0,042
-587,138	-39,318	-0,111	0,043
-586,123	229,364	-0,054	-0,065
-585,109	-113,862	0,045	-0,006
-584,094	98,418	-0,024	0,020
-583,079	95,190	0,059	-0,049
-582,065	-200,000	-0,011	-0,154
-581,050	323,875	-0,040	0,056
-580,036	-70,925	-0,068	0,019
-579,021	740,704	-0,070	-0,137
-578,006	-200,000	-0,019	-0,177
-576,992	-14,715	-0,166	0,078
-575,977	-88,753	0,103	0,022
-574,963	-200,000	-0,009	0,061
-573,948	800,000	0,022	0,057
-572,934	-200,000	0,015	0,065
-571,919	-200,000	0,010	-0,087
-570,904	800,000	0,013	0,041
-569,890	60,795	-0,012	-0,009
-568,875	-200,000	-0,031	-0,144
-567,861	-64,277	-0,130	0,039
-566,846	800,000	0,019	-0,052
-565,831	-200,000	-0,003	-0,067
-564,817	-200,000	0,027	-0,128
-563,802	260,393	0,015	0,019
-562,788	82,737	-0,100	-0,080
-561,773	-75,409	0,130	0,034
-560,758	-123,228	0,128	0,015
-559,744	-77,902	0,044	-0,011
-558,729	-129,749	-0,181	0,018
-557,715	669,046	0,034	0,064
-556,700	67,453	-0,115	-0,085
-555,685	-200,000	-0,041	-0,141
-554,671	315,660	-0,098	0,135
-553,656	585,097	-0,058	0,105
-552,642	495,026	0,091	0,153
-551,627	225,156	0,046	0,054
-550,612	-84,459	0,056	0,013
-549,598	-168,877	-0,246	0,007
-548,583	800,000	-0,053	0,109
-547,569	456,797	0,043	-0,070
-546,554	121,734	0,110	0,100
-545,539	35,608	0,011	0,007
-544,525	-1,929	-0,125	0,064
-543,510	-26,454	-0,128	0,055
-542,496	-6,939	-0,131	0,065
-541,481	177,111	0,033	-0,035
-540,466	109,744	0,026	-0,023
-539,452	-1,446	0,090	0,046
-538,437	800,000	0,040	0,096
-537,423	-9,489	-0,109	0,053
-536,408	206,473	0,085	-0,097
-535,393	-84,878	-0,090	-0,021
-534,379	800,000	-0,018	-0,056
-533,364	71,369	0,113	-0,086
-532,350	800,000	0,044	0,123
-531,335	-200,000	-0,040	0,186
-530,321	-136,356	0,113	-0,009
-529,306	-200,000	-0,044	0,186
-528,291	800,000	-0,086	-0,230
-527,277	433,864	-0,067	0,106
-526,262	-200,000	0,027	-0,099
-525,248	393,175	-0,048	0,072
-524,233	190,504	-0,033	-0,036
-523,218	800,000	0,109	-0,224
-522,204	-72,587	0,111	0,030
-521,189	-200,000	-0,017	0,113
-520,175	125,062	-0,073	-0,068
-519,160	92,756	-0,026	-0,021
-518,145	50,629	0,123	-0,085
-517,131	-200,000	0,007	-0,040
-516,116	48,926	0,009	-0,006
-515,102	-18,773	-0,034	-0,015
-514,087	88,477	-0,020	0,017
-513,072	493,165	-0,047	-0,079
-512,058	305,218	0,037	0,050
-511,043	-88,130	0,099	-0,022
-510,029	-2,414	0,025	-0,013
-509,014	-102,354	0,132	-0,023
-507,999	-47,458	-0,001	-0,000
-506,985	-200,000	-0,018	0,143
-505,970	-200,000	-0,033	0,134
-504,956	14,789	-0,101	0,057
-503,941	-39,597	0,139	-0,053
-502,926	376,840	-0,035	0,052
-501,912	-200,000	-0,002	-0,009
-500,897	-200,000	0,010	-0,044
-499,883	-200,000	0,016	-0,167
-498,868	-67,433	-0,145	-0,041
-497,853	34,945	-0,048	-0,031
-496,839	-200,000	0,009	-0,068
-495,824	433,091	0,004	0,006
-494,810	-200,000	0,015	-0,127
-493,795	49,503	-0,005	-0,004
-492,781	-200,000	0,007	0,086
-491,766	-200,000	-0,001	0,025
-490,751	-93,972	-0,083	0,016
-489,737	332,366	0,024	-0,034
-488,722	-124,877	0,044	0,005
-487,708	800,000	0,041	0,106
-486,693	-90,869	0,056	0,012
-485,678	37,741	-0,056	0,036
-484,664	190,686	-0,085	-0,094
-483,649	187,175	-0,019	-0,021
-482,635	634,787	0,041	-0,076
-481,620	-92,259	0,015	0,003
-480,605	86,677	-0,008	0,007
-479,591	-182,963	-0,052	0,001
-478,576	75,188	-0,064	0,049
-477,562	800,000	-0,009	-0,026
-476,547	-200,000	0,045	-0,161
-475,532	70,370	0,075	0,057
-474,518	270,542	0,110	0,141
-473,503	-200,000	0,001	0,044
-472,489	-13,805	0,073	-0,035
-471,474	486,042	0,054	-0,089
-470,459	-114,535	0,023	0,003
-469,445	-9,094	0,040	-0,019
-468,430	-106,754	-0,030	-0,005
-467,416	-70,744	0,095	0,026
-466,401	58,648	0,075	-0,053
-465,386	-107,816	0,055	0,009
-464,372	-200,000	-0,017	0,089
-463,357	-200,000	0,003	0,055
-462,343	-200,000	-0,011	-0,059
-461,328	800,000	-0,084	-0,178
-460,313	800,000	0,012	-0,027
-459,299	316,813	-0,057	-0,078
-458,284	-200,000	-0,015	-0,085
-457,270	-16,061	-0,030	-0,014
-456,255	-170,480	-0,098	-0,002
-455,241	128,152	0,082	-0,076
-454,226	-62,974	0,071	-0,021
-453,211	201,301	0,098	-0,110
-452,197	-82,025	0,253	0,060
-451,182	-200,000	0,007	-0,072
-450,168	251,743	0,048	-0,060
-449,153	-14,676	-0,041	0,019
-448,138	-79,107	-0,172	-0,042
-447,124	256,781	0,041	0,051
-446,109	-200,000	-0,016	0,061
-445,095	-150,008	0,081	-0,005
-444,080	395,118	0,056	0,085
-443,065	169,750	0,112	0,117
-442,051	-200,000	0,000	-0,078
-441,036	95,083	-0,112	-0,093
-440,022	244,703	-0,041	-0,050
-439,007	19,920	0,142	-0,083
-437,992	-200,000	0,000	-0,044
-436,978	-200,000	0,007	0,144
-435,963	-200,000	0,019	-0,067
-434,949	-168,248	-0,079	0,002
-433,934	-200,000	0,027	0,086
-432,919	452,648	-0,041	0,067
-431,905	703,523	0,053	0,103
-430,890	34,235	0,107	0,067
-429,876	1,886	0,028	0,015
-428,861	216,100	-0,056	0,065
-427,846	-85,799	-0,015	0,003
-426,832	-200,000	-0,013	-0,097
-425,817	643,075	0,013	-0,024
-424,803	800,000	-0,027	-0,055
-423,788	-200,000	0,003	0,051
-422,773	-200,000	-0,012	0,057
-421,759	234,880	0,048	0,058
-420,744	121,402	-0,101	-0,092
-419,730	-200,000	-0,004	0,039
-418,715	489,807	0,015	-0,025
-417,701	-200,000	0,001	-0,100
-416,686	-96,543	0,039	-0,007
-415,671	-106,928	0,065	0,010
-414,657	-5,699	0,061	0,030
-413,642	-81,067	-0,151	-0,036
-412,628	-200,000	0,004	0,044
-411,613	-47,843	-0,055	0,019
-410,598	-129,220	0,057	0,006
-409,584	-89,826	-0,091	0,019
-408,569	294,404	0,058	0,078
-407,555	800,000	0,060	-0,162
-406,540	-76,246	0,027	-0,007
-405,525	309,689	-0,020	0,028
-404,511	-200,000	-0,005	-0,030
-403,496	105,682	-0,131	-0,113
-402,482	-200,000	0,015	0,080
-401,467	38,210	-0,101	0,065
-400,452	129,550	0,029	-0,027
-399,438	417,230	-0,010	0,016
-398,423	2,353	-0,209	0,109
-397,409	-200,000	0,028	0,124
-396,394	171,413	0,068	-0,071
-395,379	166,256	0,046	0,047
-394,365	-25,998	-0,080	0,034
-393,350	-32,069	0,041	0,017
-392,336	-200,000	0,009	0,059
-391,321	-200,000	0,011	-0,118
-390,306	-200,000	-0,061	-0,214
-389,292	-113,398	-0,095	0,013
-388,277	800,000	0,027	-0,062
-387,263	-189,589	0,193	-0,002
-386,248	26,329	0,051	0,031
-385,233	208,074	0,050	0,057
-384,219	-126,007	-0,141	0,015
-383,204	-103,316	0,059	0,010
-382,190	-57,952	0,210	0,066
-381,175	70,498	-0,028	-0,021
-380,160	-5,847	-0,091	0,045
-379,146	-104,579	0,055	0,009
-378,131	-200,000	-0,012	0,097
-377,117	176,628	-0,025	0,026
-376,102	800,000	0,059	0,136
-375,088	-95,081	0,040	0,008
-374,073	800,000	-0,028	0,066
-373,058	-200,000	0,011	0,131
-372,044	-60,938	0,097	0,030
-371,029	488,368	0,058	0,097
-370,015	10,401	0,036	0,020
-369,000	441,172	-0,074	0,117
-367,985	-74,557	-0,038	-0,010
-366,971	-22,982	-0,093	-0,040
-365,956	-4,249	0,092	0,046
-364,942	-40,800	0,056	0,021
-363,927	253,381	0,105	-0,130
-362,912	40,522	0,087	0,057
-361,898	800,000	-0,046	0,097
-360,883	48,881	0,074	-0,050
-359,869	11,134	-0,087	-0,048
-358,854	-75,673	0,097	-0,025
-357,839	6,848	0,063	0,034
-356,825	-155,565	-0,126	-0,006
-355,810	-72,049	0,092	0,025
-354,796	-80,013	-0,080	0,019
-353,781	91,511	-0,047	-0,039
-352,766	-127,131	-0,203	0,021
-351,752	-2,398	0,081	0,041
-350,737	-200,000	0,006	0,129
-349,723	2,705	0,085	0,044
-348,708	71,812	-0,129	0,097
-347,693	101,789	0,027	0,022
-346,679	-105,571	-0,071	0,011
-345,664	-96,691	0,053	0,010
-344,650	800,000	0,006	-0,012
-343,635	-17,393	-0,097	0,044
-342,620	-109,496	0,085	0,013
-341,606	246,640	0,032	-0,039
-340,591	-58,924	0,042	-0,013
-339,577	-200,000	-0,019	-0,108
-338,562	-200,000	-0,030	-0,132
-337,548	-181,275	0,101	0,001
-336,533	24,048	0,054	-0,032
-335,518	-134,135	-0,028	-0,002
-334,504	282,781	0,089	0,116
-333,489	-5,653	-0,104	-0,052
-332,475	-59,977	-0,108	-0,033
-331,460	-82,919	-0,098	0,023
-330,445	3,714	0,101	-0,054
-329,431	-200,000	-0,013	0,078
-328,416	-114,170	0,046	0,006
-327,402	-37,947	0,049	-0,019
-326,387	-200,000	-0,002	0,020
-325,372	-56,954	-0,076	-0,024
-324,358	321,991	-0,034	0,047
-323,343	388,038	-0,069	-0,104
-322,329	-105,070	0,152	0,025
-321,314	402,190	-0,054	0,082
-320,299	-68,854	0,127	0,035
-319,285	191,438	-0,076	0,083
-318,270	800,000	0,012	0,029
-317,256	-145,674	0,025	-0,002
-316,241	-200,000	0,020	0,096
-315,226	-200,000	0,015	-0,120
-314,212	-200,000	-0,000	-0,051
-313,197	204,888	-0,093	-0,104
-312,183	-200,000	0,001	0,025
-311,168	-143,982	-0,071	-0,005
-310,153	12,037	-0,044	0,025
-309,139	-200,000	-0,015	-0,202
-308,124	-22,056	0,135	0,059
-307,110	-26,086	-0,113	-0,048
-306,095	-121,656	0,110	-0,013
-305,080	-200,000	0,001	0,047
-304,066	-200,000	-0,015	-0,070
-303,051	-200,000	0,001	-0,022
-302,037	-70,837	-0,095	0,026
-301,022	-200,000	0,001	-0,004
-300,008	-200,000	-0,019	0,063
-298,993	1,670	0,102	0,053
-297,978	-84,748	-0,151	-0,034
-296,964	310,640	0,017	0,023
-295,949	139,409	-0,087	-0,083
-294,935	-200,000	0,008	0,026
-293,920	107,458	-0,127	0,110
-292,905	-129,681	0,018	-0,002
-291,891	-34,742	0,156	-0,061
-290,876	-68,505	-0,147	0,041
-289,862	-8,665	-0,028	-0,013
-288,847	800,000	-0,032	0,097
-287,832	-104,315	-0,059	-0,010
-286,818	-15,223	0,099	-0,046
-285,803	68,165	-0,069	0,051
-284,789	-57,649	0,035	-0,011
-283,774	800,000	-0,025	0,063
-282,759	800,000	-0,028	-0,074
-281,745	528,971	-0,060	0,103
-280,730	99,531	0,065	-0,054
-279,716	-200,000	0,002	-0,017
-278,701	-43,522	0,018	0,007
-277,686	672,619	0,067	0,126
-276,672	107,179	0,035	0,030
-275,657	292,374	-0,023	-0,030
-274,643	176,448	-0,124	-0,131
-273,628	800,000	-0,025	-0,077
-272,613	310,052	-0,084	0,114
-271,599	-17,997	0,079	-0,036
-270,584	-104,167	0,094	0,016
-269,570	583,180	0,027	-0,047
-268,555	-200,000	0,004	-0,054
-267,540	88,196	-0,091	-0,073
-266,526	-41,817	-0,079	0,029
-265,511	60,210	0,030	0,022
-264,497	278,277	0,036	0,046
-263,482	-200,000	-0,001	0,064
-262,467	-4,119	-0,101	0,051
-261,453	780,582	0,025	0,049
-260,438	-200,000	-0,013	-0,078
-259,424	-12,286	-0,077	0,036
-258,409	800,000	-0,078	-0,199
-257,395	-200,000	-0,000	0,015
-256,380	292,032	0,069	0,091
-255,365	171,006	0,119	-0,124
-254,351	158,447	-0,036	0,036
-253,336	291,885	0,019	-0,025
-252,322	96,667	0,034	0,028
-251,307	-154,456	0,013	-0,001
-250,292	21,585	0,027	-0,016
-249,278	-121,627	0,103	-0,012
-248,263	188,926	0,038	0,041
-247,249	261,637	0,065	0,082
-246,234	-200,000	-0,016	0,096
-245,219	800,000	-0,020	0,046
-244,205	-138,352	0,039	0,003
-243,190	40,434	0,110	-0,072
-242,176	-48,297	-0,074	-0,025
-241,161	800,000	0,039	0,096
-240,146	238,879	0,027	-0,032
-239,132	-200,000	-0,001	0,053
-238,117	800,000	-0,031	-0,069
-237,103	-200,000	0,020	0,101
-236,088	-11,867	0,194	0,091
-235,073	374,848	0,040	0,060
-234,059	375,397	0,104	0,154
-233,044	-34,802	-0,163	0,064
-232,030	-92,483	-0,070	0,014
-231,015	649,744	0,031	-0,058
-230,000	236,398	-0,111	-0,133
-228,986	800,000	0,029	0,073
-227,971	-28,315	-0,062	0,026
-226,957	333,670	0,068	0,095
-225,942	725,198	0,078	0,150
-224,927	800,000	-0,043	0,091
-223,913	-132,593	-0,048	-0,004
-222,898	227,668	0,021	0,024
-221,884	271,084	-0,018	-0,023
-220,869	-91,062	0,096	0,020
-219,855	-165,392	0,149	-0,005
-218,840	-101,775	-0,087	0,015
-217,825	125,505	0,047	0,043
-216,811	800,000	-0,040	-0,087
-215,796	800,000	-0,050	-0,116
-214,782	-189,482	0,283	0,002
-213,767	800,000	0,035	-0,088
-212,752	-10,482	0,013	0,006
-211,738	198,573	0,016	0,018
-210,723	51,468	-0,142	-0,097
-209,709	-136,168	0,047	0,004
-208,694	94,313	0,114	-0,094
-207,679	132,418	-0,034	0,031
-206,665	210,784	0,023	0,026
-205,650	70,393	-0,016	0,012
-204,636	-200,000	0,003	-0,098
-203,621	-200,000	0,001	0,097
-202,606	-200,000	0,002	-0,127
-201,592	-19,151	0,035	0,016
-200,577	-125,438	0,028	-0,003
-199,563	99,723	-0,007	-0,005
-198,548	46,116	-0,057	-0,038
-197,533	800,000	-0,051	0,112
-196,519	716,394	0,044	0,085
-195,504	800,000	0,024	0,055
-194,490	-153,301	0,062	0,003
-193,475	-200,000	0,037	-0,118
-192,460	800,000	-0,029	0,087
-191,446	3,439	-0,031	0,016
-190,431	800,000	-0,051	0,146
-189,417	800,000	0,064	-0,169
-188,402	-83,121	0,210	0,048
-187,387	74,028	-0,052	0,039
-186,373	6,171	-0,089	0,048
-185,358	800,000	0,022	-0,070
-184,344	15,036	0,139	0,078
-183,329	157,019	0,035	0,035
-182,315	166,093	0,076	-0,078
-181,300	-200,000	-0,034	-0,119
-180,285	-55,955	-0,028	-0,009
-179,271	622,457	0,100	0,181
-178,256	-200,000	-0,003	0,085
-177,242	259,900	0,026	0,033
-176,227	-200,000	-0,031	0,152
-175,212	-200,000	0,014	-0,061
-174,198	-200,000	0,003	0,042
-173,183	12,307	-0,141	-0,078
-172,169	-60,665	-0,073	0,022
-171,154	-200,000	-0,021	-0,070
-170,139	-93,621	-0,011	-0,002
-169,125	-4,928	-0,075	0,037
-168,110	-144,391	0,060	0,004
-167,096	-200,000	0,005	-0,078
-166,081	-58,273	-0,085	-0,027
-165,066	-200,000	0,011	0,064
-164,052	-10,329	-0,054	-0,026
-163,037	-200,000	-0,006	0,085
-162,023	177,463	0,135	0,142
-161,008	800,000	0,019	0,043
-159,993	130,589	0,044	-0,040
-158,979	-138,002	-0,111	0,009
-157,964	-50,909	-0,058	0,019
-156,950	54,037	0,046	-0,032
-155,935	800,000	0,005	-0,014
-154,920	9,110	0,097	-0,052
-153,906	1,384	0,033	-0,017
-152,891	-200,000	-0,001	0,014
-151,877	-200,000	0,017	0,099
-150,862	91,001	-0,099	-0,080
-149,847	-200,000	-0,009	0,109
-148,833	363,978	-0,051	0,074
-147,818	251,201	-0,013	0,016
-146,804	800,000	-0,093	0,266
-145,789	69,602	0,147	0,109
-144,775	-200,000	0,001	-0,030
-143,760	800,000	0,036	-0,098
-142,745	492,503	0,047	0,078
-141,731	800,000	0,028	0,079
-140,716	-105,228	0,158	0,026
-139,702	96,442	0,092	0,075
-138,687	-44,963	-0,015	0,005
-137,672	800,000	-0,032	0,069
-136,658	700,864	0,076	-0,144
-135,643	-200,000	0,032	-0,162
-134,629	419,914	-0,104	-0,161
-133,614	32,516	0,144	0,089
-132,599	-88,590	-0,061	0,013
-131,585	800,000	0,005	0,009
-130,570	800,000	0,027	0,062
-129,556	193,665	0,019	-0,021
-128,541	339,643	0,038	-0,054
-127,526	15,260	0,119	0,067
-126,512	-122,409	0,140	0,016
-125,497	-189,628	-0,129	-0,001
-124,483	16,192	-0,059	-0,033
-123,468	331,741	0,098	0,136
-122,453	-200,000	-0,002	-0,078
-121,439	300,337	-0,060	-0,080
-120,424	-200,000	0,006	0,026
-119,410	-144,264	0,125	0,008
-118,395	-200,000	0,007	0,125
