DTS Sentinel unit serial number:	SN410029Multiplexer serial number:	ORYXHardware model number:	OX2-SRSoftware version number:	ORYX F/W v4,00 Oryx Data Collector v3.7.2.0data status	okinstallation	B5 Nyhavnadifferential loss correction	single-endedforward channel	channel 2reverse channel	N/Adate	2023/12/13time	22:42:13forward acquisition time	300,00reverse acquisition time	0,00gamma	499,1914k internal	0,3154k external	0,3154temperature offset calibration	1,0000default loss term (dB/km)	0,3820temperature slope calibration	1,0000multiplexer offset coefficient	1,0000multiplexer slope coefficient	1,0000fibre end	0,00T internal ref (°C)	9,24T ext. ref 1 (°C)	-7,49T ext. ref 2 (°C)	-7,50length (m)	temperature (°C)	Stokes	anti-Stokes-744,400	-185,191	0,158	-0,002
-743,385	-157,715	-0,332	0,014
-742,371	-74,726	0,159	0,042
-741,356	0,904	-0,294	-0,155
-740,342	172,993	0,199	0,212
-739,327	73,455	-0,234	0,180
-738,312	-124,780	0,204	0,023
-737,298	-46,255	-0,388	-0,140
-736,283	350,827	0,085	0,125
-735,269	-122,968	-0,313	0,037
-734,254	-17,655	0,300	0,139
-733,239	-31,971	-0,558	-0,230
-732,225	-180,860	0,197	0,003
-731,210	35,112	0,058	-0,037
-730,196	228,677	-0,032	0,039
-729,181	-0,942	0,103	0,054
-728,167	463,482	-0,057	-0,094
-727,152	-200,000	-0,042	0,151
-726,137	135,639	-0,074	0,071
-725,123	425,343	-0,043	0,069
-724,108	-27,704	-0,094	0,040
-723,094	800,000	-0,021	-0,056
-722,079	52,692	0,053	-0,038
-721,064	-141,706	-0,119	0,009
-720,050	32,365	-0,077	0,049
-719,035	-200,000	-0,008	0,041
-718,021	451,859	-0,078	0,127
-717,006	800,000	-0,061	-0,158
-715,991	299,560	-0,058	-0,079
-714,977	-33,549	0,122	-0,049
-713,962	800,000	-0,032	-0,067
-712,948	58,867	-0,052	0,037
-711,933	-39,599	0,168	0,065
-710,918	-174,965	-0,057	0,001
-709,904	43,317	-0,141	-0,095
-708,889	-200,000	-0,005	-0,119
-707,875	-200,000	0,033	-0,130
-706,860	-200,000	-0,020	0,130
-705,845	252,377	-0,035	-0,044
-704,831	466,582	0,033	-0,054
-703,816	-34,099	-0,063	0,026
-702,802	-48,735	-0,059	-0,021
-701,787	800,000	0,028	-0,066
-700,772	601,350	-0,083	-0,152
-699,758	215,850	-0,050	-0,058
-698,743	127,311	0,076	0,071
-697,729	-42,810	0,173	0,064
-696,714	380,701	0,008	0,013
-695,699	-46,528	-0,085	-0,030
-694,685	204,930	0,134	0,153
-693,670	-200,000	0,004	-0,146
-692,656	26,616	0,065	-0,040
-691,641	174,197	-0,031	0,033
-690,627	-50,215	0,152	-0,053
-689,612	-74,454	-0,058	0,015
-688,597	-200,000	-0,135	-0,000
-687,583	800,000	-0,043	-0,112
-686,568	555,501	0,047	-0,084
-685,554	-200,000	0,014	-0,071
-684,539	19,955	0,089	0,052
-683,524	65,153	-0,098	-0,073
-682,510	-154,200	0,094	0,005
-681,495	54,072	-0,041	0,029
-680,481	-72,887	-0,128	0,034
-679,466	-200,000	-0,003	-0,016
-678,451	-200,000	0,015	-0,070
-677,437	-142,702	0,094	-0,007
-676,422	416,890	-0,033	-0,053
-675,408	-200,000	-0,005	-0,026
-674,393	-200,000	-0,016	0,066
-673,378	-200,000	0,006	0,070
-672,364	-200,000	0,004	-0,073
-671,349	409,574	0,065	-0,102
-670,335	-135,871	0,169	-0,015
-669,320	231,108	-0,072	0,087
-668,305	-200,000	0,019	0,097
-667,291	-113,159	-0,021	-0,003
-666,276	145,291	-0,070	-0,069
-665,262	-200,000	-0,002	0,048
-664,247	28,911	0,071	-0,044
-663,232	99,860	0,046	-0,039
-662,218	-123,485	0,038	-0,004
-661,203	-97,804	-0,056	0,011
-660,189	360,130	-0,078	-0,115
-659,174	186,817	-0,105	-0,115
-658,159	-40,132	0,089	-0,034
-657,145	273,735	0,031	0,041
-656,130	-17,003	-0,041	0,019
-655,116	-36,549	0,095	0,037
-654,101	497,682	0,019	0,033
-653,086	422,164	0,086	-0,136
-652,072	319,652	0,035	-0,050
-651,057	800,000	0,061	-0,193
-650,043	-200,000	-0,007	-0,101
-649,028	800,000	0,043	0,089
-648,014	-11,697	0,079	-0,038
-646,999	281,117	-0,047	-0,061
-645,984	161,781	-0,050	0,052
-644,970	-200,000	0,007	0,080
-643,955	-78,180	-0,077	-0,019
-642,941	277,414	0,018	-0,024
-641,926	7,394	0,109	-0,060
-640,911	274,806	0,110	0,143
-639,897	260,743	0,072	-0,092
-638,882	-87,782	0,148	0,033
-637,868	-101,494	-0,146	0,026
-636,853	415,356	-0,054	-0,085
-635,838	-200,000	-0,020	0,103
-634,824	-113,180	-0,036	-0,005
-633,809	-200,000	-0,029	-0,171
-632,795	-200,000	-0,005	0,022
-631,780	137,390	0,040	-0,038
-630,765	-48,947	0,112	-0,039
-629,751	28,703	-0,051	-0,032
-628,736	800,000	-0,010	0,024
-627,722	558,355	0,027	0,048
-626,707	-86,594	-0,061	0,014
-625,692	-200,000	0,004	-0,043
-624,678	159,200	0,022	0,022
-623,663	800,000	-0,031	-0,080
-622,649	-59,675	-0,028	-0,009
-621,634	-54,849	-0,121	-0,040
-620,619	-88,909	-0,052	0,011
-619,605	55,725	0,211	0,150
-618,590	-77,232	0,061	-0,015
-617,576	-25,674	-0,130	0,056
-616,561	-200,000	-0,026	0,103
-615,546	-139,596	0,041	-0,003
-614,532	-200,000	-0,030	-0,125
-613,517	-73,294	0,093	-0,025
-612,503	-200,000	-0,005	0,032
-611,488	57,992	0,168	0,121
-610,474	-200,000	-0,016	-0,108
-609,459	72,152	0,031	0,024
-608,444	72,163	-0,084	-0,064
-607,430	-180,913	0,043	0,001
-606,415	-141,212	-0,137	0,010
-605,401	-96,145	0,113	0,022
-604,386	-176,625	0,098	0,002
-603,371	800,000	-0,102	0,220
-602,357	-151,362	0,057	0,003
-601,342	208,102	-0,055	0,063
-600,328	800,000	0,051	-0,122
-599,313	-200,000	-0,011	-0,132
-598,298	279,955	-0,057	-0,075
-597,284	-200,000	-0,018	-0,116
-596,269	-64,771	0,073	0,022
-595,255	328,190	-0,096	0,135
-594,240	201,579	0,044	-0,050
-593,225	-42,910	0,045	-0,017
-592,211	23,798	0,067	0,040
-591,196	210,486	-0,049	0,057
-590,182	54,523	-0,030	0,021
-589,167	98,344	0,088	0,074
-588,152	-130,209	0,023	0,002
-587,138	-78,918	-0,134	-0,033
-586,123	117,473	-0,036	-0,032
-585,109	124,103	0,046	-0,042
-584,094	-200,000	-0,001	0,104
-583,079	800,000	-0,021	-0,063
-582,065	-110,597	-0,120	-0,018
-581,050	46,830	0,082	-0,056
-580,036	-49,133	-0,166	-0,058
-579,021	-200,000	0,006	-0,082
-578,006	187,867	-0,113	-0,123
-576,992	4,088	0,194	0,104
-575,977	223,057	-0,070	-0,083
-574,963	-114,553	0,038	0,005
-573,948	25,401	0,110	0,067
-572,934	7,046	-0,102	0,055
-571,919	-104,458	-0,042	0,007
-570,904	553,734	0,028	0,050
-569,890	-50,761	-0,075	0,026
-568,875	-200,000	0,008	0,146
-567,861	-14,874	-0,140	0,066
-566,846	53,117	-0,060	0,042
-565,831	800,000	-0,019	-0,045
-564,817	-200,000	0,010	-0,053
-563,802	3,334	0,091	-0,048
-562,788	-71,368	0,109	0,030
-561,773	509,635	0,076	-0,130
-560,758	-200,000	-0,003	0,063
-559,744	-158,192	-0,107	0,004
-558,729	800,000	0,021	0,049
-557,715	659,234	-0,052	-0,099
-556,700	-200,000	-0,025	-0,120
-555,685	-200,000	0,004	-0,127
-554,671	436,911	0,070	-0,112
-553,656	-200,000	0,011	0,154
-552,642	800,000	0,076	0,173
-551,627	800,000	-0,059	0,145
-550,612	-171,148	-0,135	-0,003
-549,598	401,721	-0,025	-0,038
-548,583	-170,963	-0,090	-0,002
-547,569	8,986	-0,069	0,038
-546,554	-200,000	0,003	0,037
-545,539	36,685	0,079	0,051
-544,525	800,000	-0,054	0,118
-543,510	-200,000	0,012	0,097
-542,496	-100,178	-0,030	-0,005
-541,481	470,034	-0,049	0,081
-540,466	649,397	0,036	-0,068
-539,452	15,693	0,035	-0,020
-538,437	-200,000	0,016	0,107
-537,423	-200,000	0,015	-0,107
-536,408	-200,000	-0,011	-0,145
-535,393	-200,000	-0,005	-0,082
-534,379	99,634	-0,043	-0,037
-533,364	-89,845	0,048	0,010
-532,350	136,752	-0,030	0,028
-531,335	-200,000	-0,015	-0,075
-530,321	-57,517	0,093	-0,030
-529,306	13,895	-0,029	-0,016
-528,291	-68,427	0,110	0,031
-527,277	-200,000	-0,010	0,129
-526,262	54,530	-0,049	0,034
-525,248	-189,951	0,032	-0,000
-524,233	724,381	-0,101	0,199
-523,218	-155,888	0,197	0,009
-522,204	-124,465	-0,118	0,013
-521,189	-65,049	-0,164	-0,048
-520,175	200,845	0,067	-0,076
-519,160	800,000	-0,029	-0,063
-518,145	-19,097	-0,092	0,042
-517,131	-200,000	-0,012	0,099
-516,116	22,891	0,115	0,069
-515,102	-79,322	-0,120	0,030
-514,087	-17,175	-0,015	0,007
-513,072	154,273	-0,115	0,115
-512,058	800,000	-0,011	-0,031
-511,043	800,000	0,052	-0,129
-510,029	-200,000	-0,013	0,062
-509,014	-200,000	0,007	0,079
-507,999	800,000	0,059	0,174
-506,985	223,088	-0,077	-0,091
-505,970	800,000	-0,043	-0,108
-504,956	-41,843	-0,094	0,035
-503,941	743,204	0,050	-0,099
-502,926	651,883	0,051	0,096
-501,912	31,400	0,117	0,073
-500,897	-200,000	-0,025	-0,098
-499,883	396,858	-0,029	0,044
-498,868	23,202	0,064	0,039
-497,853	-10,021	-0,174	-0,084
-496,839	119,376	0,065	0,059
-495,824	-200,000	0,013	0,075
-494,810	3,086	0,057	0,030
-493,795	-26,876	0,045	-0,019
-492,781	-148,640	-0,132	0,008
-491,766	752,453	-0,085	-0,168
-490,751	-147,676	-0,039	0,002
-489,737	-200,000	-0,002	0,034
-488,722	80,190	0,081	-0,064
-487,708	-106,263	0,065	-0,011
-486,693	85,038	-0,013	-0,011
-485,678	-67,426	-0,073	0,021
-484,664	-200,000	-0,020	0,143
-483,649	96,153	-0,022	0,019
-482,635	661,391	-0,034	-0,064
-481,620	-134,433	-0,055	0,005
-480,605	717,949	0,063	-0,124
-479,591	-1,470	0,093	-0,048
-478,576	250,478	-0,047	0,059
-477,562	29,733	-0,014	0,009
-476,547	701,070	0,026	0,051
-475,532	554,207	0,064	0,112
-474,518	-73,006	0,074	0,020
-473,503	117,167	0,086	-0,078
-472,489	394,379	-0,085	0,130
-471,474	-200,000	0,002	-0,054
-470,459	-65,679	0,043	0,013
-469,445	800,000	0,050	-0,126
-468,430	37,405	0,044	-0,028
-467,416	30,454	-0,058	0,036
-466,401	332,981	0,006	-0,009
-465,386	94,502	-0,109	0,091
-464,372	131,168	-0,107	-0,100
-463,357	-200,000	-0,001	-0,043
-462,343	-47,751	-0,199	0,070
-461,328	119,486	-0,117	0,106
-460,313	199,965	-0,027	-0,030
-459,299	-200,000	0,050	0,194
-458,284	-200,000	0,015	0,099
-457,270	800,000	-0,042	-0,131
-456,255	-75,914	0,060	-0,015
-455,241	800,000	-0,048	-0,111
-454,226	-174,665	-0,030	0,001
-453,211	800,000	-0,027	0,058
-452,197	-120,308	0,165	0,020
-451,182	-57,722	0,065	-0,021
-450,168	-3,993	0,078	0,039
-449,153	112,313	-0,135	-0,119
-448,138	800,000	0,041	-0,130
-447,124	-78,393	-0,070	-0,017
-446,109	-20,191	0,067	0,030
-445,095	-38,519	-0,062	-0,024
-444,080	293,311	0,064	-0,085
-443,065	380,533	-0,037	-0,055
-442,051	370,098	-0,045	-0,067
-441,036	-200,000	-0,009	-0,076
-440,022	286,016	0,046	0,061
-439,007	376,564	0,103	-0,154
-437,992	-83,298	0,116	-0,027
-436,978	-200,000	0,013	0,155
-435,963	328,282	-0,015	0,022
-434,949	-200,000	0,015	0,084
-433,934	800,000	-0,072	-0,145
-432,919	-200,000	-0,005	-0,063
-431,905	-200,000	0,030	-0,111
-430,890	-200,000	0,016	0,142
-429,876	267,308	0,105	-0,135
-428,861	-14,987	0,149	0,069
-427,846	17,816	0,080	0,046
-426,832	-32,687	-0,082	0,033
-425,817	118,371	-0,069	-0,062
-424,803	-70,226	0,153	0,042
-423,788	90,764	0,133	0,108
-422,773	2,616	0,051	-0,027
-421,759	505,871	0,051	-0,086
-420,744	-21,090	0,131	0,058
-419,730	-7,050	-0,098	0,048
-418,715	529,670	0,076	-0,130
-417,701	-96,337	0,171	-0,033
-416,686	21,571	0,150	-0,089
-415,671	667,408	0,072	-0,136
-414,657	64,329	0,041	-0,030
-413,642	-200,000	-0,016	0,093
-412,628	-200,000	0,008	0,042
-411,613	-200,000	0,014	-0,078
-410,598	-32,727	-0,079	0,032
-409,584	489,645	0,058	0,098
-408,569	-33,834	0,088	-0,035
-407,555	487,591	0,041	0,068
-406,540	-49,947	-0,074	-0,026
-405,525	308,336	-0,044	-0,061
-404,511	-60,310	-0,175	-0,054
-403,496	171,540	-0,050	-0,052
-402,482	-200,000	-0,042	-0,155
-401,467	44,430	-0,036	0,024
-400,452	153,356	-0,042	0,042
-399,438	800,000	0,030	-0,092
-398,423	-200,000	-0,025	-0,091
-397,409	-144,093	-0,136	-0,009
-396,394	-28,246	0,205	0,086
-395,379	800,000	-0,100	-0,244
-394,365	-200,000	-0,003	0,031
-393,350	-54,187	0,083	0,027
-392,336	41,860	0,077	0,051
-391,321	800,000	0,062	0,132
-390,306	-200,000	-0,001	-0,093
-389,292	-200,000	0,022	-0,080
-388,277	-27,731	0,070	-0,029
-387,263	232,742	0,007	0,008
-386,248	800,000	-0,037	0,092
-385,233	65,495	-0,044	0,033
-384,219	-89,498	-0,171	-0,036
-383,204	58,873	0,096	-0,069
-382,190	-129,659	-0,070	-0,007
-381,175	-120,911	0,021	0,003
-380,160	243,785	0,098	0,120
-379,146	47,346	0,070	0,047
-378,131	187,722	0,046	-0,050
-377,117	-161,335	-0,092	0,003
-376,102	385,560	-0,062	0,093
-375,088	-200,000	0,004	-0,022
-374,073	-85,278	-0,085	0,019
-373,058	34,810	-0,084	0,053
-372,044	-200,000	0,033	0,124
-371,029	-145,182	0,110	-0,007
-370,015	-200,000	0,006	-0,026
-369,000	760,229	-0,019	-0,038
-367,985	-100,059	-0,101	0,018
-366,971	351,033	-0,039	0,057
-365,956	-97,315	0,058	0,011
-364,942	-200,000	0,004	0,038
-363,927	-136,258	0,029	0,002
-362,912	-200,000	-0,028	0,148
-361,898	-59,500	0,041	0,013
-360,883	-200,000	0,007	0,094
-359,869	-200,000	-0,025	-0,097
-358,854	-200,000	-0,015	-0,090
-357,839	-200,000	0,017	-0,065
-356,825	-2,086	-0,068	0,035
-355,810	399,582	-0,030	-0,045
-354,796	280,291	0,020	-0,026
-353,781	-200,000	-0,021	-0,124
-352,766	-66,482	-0,173	-0,050
-351,752	207,933	-0,115	-0,130
-350,737	-60,512	0,078	0,024
-349,723	-19,698	0,067	0,030
-348,708	-200,000	-0,011	0,082
-347,693	-164,092	0,073	-0,002
-346,679	-155,267	-0,152	-0,007
-345,664	205,548	-0,050	0,056
-344,650	-200,000	-0,021	0,086
-343,635	450,603	-0,092	0,149
-342,620	-91,030	0,093	0,019
-341,606	376,421	-0,007	0,011
-340,591	371,187	-0,036	0,053
-339,577	126,519	0,012	0,011
-338,562	87,323	0,081	0,065
-337,548	800,000	-0,030	-0,069
-336,533	-200,000	-0,005	0,119
-335,518	492,422	-0,083	0,139
-334,504	-200,000	0,026	-0,096
-333,489	800,000	0,040	-0,123
-332,475	-200,000	-0,001	-0,133
-331,460	243,436	-0,028	-0,034
-330,445	71,089	-0,141	0,106
-329,431	344,023	0,033	0,048
-328,416	-110,290	-0,104	0,016
-327,402	44,972	0,048	-0,032
-326,387	-70,280	-0,182	-0,050
-325,372	800,000	-0,065	-0,131
-324,358	-76,489	0,037	-0,009
-323,343	77,526	0,146	0,113
-322,329	371,952	0,051	0,075
-321,314	101,942	-0,044	0,038
-320,299	69,227	0,091	0,068
-319,285	-106,454	-0,072	-0,012
-318,270	42,378	-0,021	-0,014
-317,256	-200,000	-0,005	0,154
-316,241	397,343	-0,045	0,069
-315,226	-200,000	-0,010	0,113
-314,212	-200,000	0,014	0,299
-313,197	-90,959	0,041	-0,008
-312,183	-200,000	0,002	-0,154
-311,168	237,801	-0,043	0,052
-310,153	-188,816	0,095	0,001
-309,139	-20,196	-0,084	-0,037
-308,124	300,610	0,095	0,128
-307,110	800,000	-0,032	0,071
-306,095	40,652	0,065	-0,042
-305,080	-2,679	0,066	-0,034
-304,066	-111,393	-0,101	-0,015
-303,051	244,541	-0,062	0,076
-302,037	18,412	-0,145	0,084
-301,022	800,000	0,028	0,084
-300,008	-200,000	0,002	-0,025
-298,993	710,282	-0,055	-0,107
-297,978	-200,000	0,018	0,061
-296,964	-200,000	-0,026	0,172
-295,949	-200,000	-0,024	-0,105
-294,935	50,385	0,095	-0,065
-293,920	800,000	0,051	-0,151
-292,905	-40,843	0,094	0,035
-291,891	-200,000	0,012	-0,047
-290,876	-200,000	-0,001	-0,027
-289,862	220,346	0,026	-0,030
-288,847	800,000	-0,067	-0,157
-287,832	34,036	0,072	0,045
-286,818	275,382	0,057	-0,074
-285,803	50,453	0,071	-0,048
-284,789	-36,958	0,202	0,078
-283,774	4,670	-0,088	-0,046
-282,759	563,674	-0,024	-0,043
-281,745	88,110	0,097	0,078
-280,730	111,016	0,117	-0,102
-279,716	-134,041	-0,061	0,005
-278,701	-73,407	0,085	0,022
-277,686	-200,000	-0,008	0,134
-276,672	98,845	0,029	0,025
-275,657	-143,079	-0,087	0,006
-274,643	355,267	0,040	-0,058
-273,628	237,124	-0,027	-0,033
-272,613	-76,438	-0,051	-0,013
-271,599	-200,000	-0,013	0,076
-270,584	173,785	0,091	0,095
-269,570	-69,540	0,048	-0,013
-268,555	337,235	0,032	0,045
-267,540	-200,000	0,018	0,084
-266,526	800,000	-0,059	0,152
-265,511	-88,186	0,119	-0,026
-264,497	78,105	0,143	-0,110
-263,482	7,666	0,090	-0,049
-262,467	-146,578	-0,064	0,004
-261,453	-12,197	0,043	-0,020
-260,438	298,326	0,034	-0,046
-259,424	-45,836	-0,049	-0,017
-258,409	109,800	-0,125	-0,109
-257,395	316,481	-0,017	-0,023
-256,380	-107,281	0,134	0,021
-255,365	11,790	0,082	-0,045
-254,351	-200,000	-0,011	-0,050
-253,336	22,680	-0,205	-0,122
-252,322	-45,737	0,154	-0,055
-251,307	-34,065	-0,112	0,044
-250,292	316,779	-0,003	0,004
-249,278	-92,544	0,071	0,014
-248,263	218,905	0,020	-0,023
-247,249	-200,000	-0,001	0,008
-246,234	530,624	-0,052	0,090
-245,219	800,000	0,048	-0,128
-244,205	-200,000	0,015	-0,164
-243,190	-68,165	-0,077	-0,021
-242,176	-10,198	0,032	-0,015
-241,161	-37,696	0,071	-0,027
-240,146	-90,181	-0,165	-0,034
-239,132	800,000	0,026	0,061
-238,117	-20,644	-0,142	-0,063
-237,103	15,525	-0,098	0,056
-236,088	-42,936	0,049	0,018
-235,073	149,898	-0,060	0,059
-234,059	-183,376	0,082	-0,001
-233,044	12,512	0,101	0,056
-232,030	33,268	-0,051	0,032
-231,015	800,000	0,078	-0,162
-230,000	800,000	0,007	0,016
-228,986	-200,000	-0,006	0,030
-227,971	607,904	0,056	0,101
-226,957	-133,240	-0,093	-0,008
-225,942	-200,000	-0,013	-0,058
-224,927	-111,787	0,037	-0,005
-223,913	76,539	-0,032	-0,025
-222,898	-200,000	-0,002	-0,078
-221,884	-14,126	-0,034	0,016
-220,869	-200,000	-0,003	0,095
-219,855	-22,517	0,080	-0,035
-218,840	381,018	0,040	-0,060
-217,825	336,159	-0,032	-0,045
-216,811	-200,000	0,018	-0,183
-215,796	-151,463	-0,062	-0,003
-214,782	-200,000	0,006	-0,022
-213,767	-200,000	-0,003	0,085
-212,752	34,515	0,113	-0,071
-211,738	45,803	-0,103	0,069
-210,723	541,015	0,051	0,089
-209,709	-85,581	-0,036	-0,008
-208,694	26,196	-0,033	0,020
-207,679	-25,240	-0,129	0,055
-206,665	-67,386	0,095	-0,027
-205,650	800,000	-0,053	0,138
-204,636	-200,000	-0,024	0,271
-203,621	79,803	0,098	-0,076
-202,606	-87,332	0,071	-0,015
-201,592	-14,781	-0,150	-0,069
-200,577	-200,000	0,003	0,065
-199,563	-119,660	0,030	0,004
-198,548	-63,236	0,044	0,013
-197,533	98,444	-0,056	-0,047
-196,519	19,562	0,072	-0,042
-195,504	30,100	-0,022	0,014
-194,490	800,000	0,064	-0,129
-193,475	220,626	0,148	-0,172
-192,460	-200,000	-0,001	0,096
-191,446	104,504	-0,064	0,055
-190,431	-200,000	-0,024	0,127
-189,417	-200,000	0,032	0,158
-188,402	93,647	-0,032	-0,026
-187,387	13,889	-0,083	-0,047
-186,373	-200,000	0,013	0,049
-185,358	17,078	0,069	0,040
-184,344	229,206	-0,021	-0,025
-183,329	-200,000	0,001	-0,039
-182,315	-63,480	-0,131	-0,038
-181,300	-200,000	0,007	-0,076
-180,285	488,507	-0,030	0,050
-179,271	-169,723	-0,227	0,006
-178,256	-200,000	-0,018	-0,072
-177,242	-200,000	-0,025	-0,086
-176,227	38,336	0,115	0,074
-175,212	324,629	-0,070	0,097
-174,198	108,618	-0,086	0,074
-173,183	-200,000	-0,007	-0,071
-172,169	800,000	-0,102	-0,205
-171,154	152,509	0,032	-0,031
-170,139	-46,685	0,051	-0,018
-169,125	691,562	0,064	0,122
-168,110	-200,000	-0,033	0,112
-167,096	-1,821	0,091	-0,046
-166,081	12,485	-0,078	-0,043
-165,066	173,482	-0,105	-0,109
-164,052	458,974	-0,035	-0,057
-163,037	213,172	0,095	-0,109
-162,023	-122,205	0,018	0,002
-161,008	122,237	0,038	0,034
-159,993	-20,751	0,114	0,050
-158,979	726,964	-0,075	-0,145
-157,964	-54,654	0,072	0,023
-156,950	-4,317	-0,185	-0,092
-155,935	280,391	-0,038	-0,049
-154,920	800,000	0,027	-0,069
-153,906	-18,865	0,080	0,036
-152,891	160,501	0,097	0,098
-151,877	472,469	-0,071	-0,116
-150,862	-145,506	0,038	0,002
-149,847	800,000	-0,034	-0,076
-148,833	176,539	-0,019	-0,020
-147,818	-160,011	0,244	-0,009
-146,804	-179,705	-0,172	-0,003
-145,789	349,354	-0,038	-0,054
-144,775	263,310	0,052	0,066
-143,760	15,458	-0,099	0,056
-142,745	-200,000	-0,023	-0,077
-141,731	302,407	0,090	0,120
-140,716	-200,000	-0,037	-0,139
-139,702	-200,000	0,002	0,228
-138,687	800,000	-0,045	0,097
-137,672	580,143	0,048	-0,085
-136,658	-63,658	0,026	-0,008
-135,643	54,237	-0,068	0,047
-134,629	-120,445	0,098	0,012
-133,614	800,000	0,033	-0,095
-132,599	-200,000	0,020	0,073
-131,585	-200,000	-0,019	-0,064
-130,570	-103,059	0,158	0,027
-129,556	60,973	-0,069	-0,050
-128,541	27,517	0,062	0,038
-127,526	143,829	-0,051	-0,049
-126,512	-71,632	0,097	0,026
-125,497	800,000	0,040	0,087
-124,483	-21,832	-0,033	0,015
-123,468	800,000	-0,064	0,139
-122,453	780,204	-0,069	0,136
-121,439	498,541	-0,071	-0,119
-120,424	-110,445	0,133	-0,020
-119,410	30,873	0,085	-0,052
