DTS Sentinel unit serial number:	SN410029Multiplexer serial number:	ORYXHardware model number:	OX2-SRSoftware version number:	ORYX F/W v4,00 Oryx Data Collector v3.7.2.0data status	okinstallation	B5 Nyhavnadifferential loss correction	single-endedforward channel	channel 2reverse channel	N/Adate	2023/12/11time	18:17:13forward acquisition time	300,00reverse acquisition time	0,00gamma	499,1914k internal	0,3162k external	0,3162temperature offset calibration	1,0000default loss term (dB/km)	0,3820temperature slope calibration	1,0000multiplexer offset coefficient	1,0000multiplexer slope coefficient	1,0000fibre end	0,00T internal ref (°C)	15,12T ext. ref 1 (°C)	-0,40T ext. ref 2 (°C)	-0,67length (m)	temperature (°C)	Stokes	anti-Stokes-744,400	800,000	0,021	-0,062
-743,385	-4,017	-0,111	-0,056
-742,371	-21,742	0,127	-0,057
-741,356	-150,557	-0,304	0,017
-740,342	-200,000	-0,004	-0,064
-739,327	-73,548	-0,139	-0,037
-738,312	297,850	-0,049	-0,066
-737,298	-91,561	-0,187	-0,039
-736,283	-62,818	0,187	-0,057
-735,269	30,149	-0,205	0,128
-734,254	28,281	0,049	-0,030
-733,239	-96,991	-0,471	-0,090
-732,225	6,587	0,238	-0,130
-731,210	-68,690	0,039	0,011
-730,196	-200,000	0,030	-0,191
-729,181	800,000	-0,016	-0,052
-728,167	279,411	-0,050	-0,065
-727,152	-200,000	-0,007	-0,037
-726,137	-200,000	-0,013	-0,074
-725,123	-56,138	-0,151	-0,049
-724,108	42,444	-0,132	-0,088
-723,094	-200,000	-0,006	-0,063
-722,079	-200,000	-0,042	-0,150
-721,064	3,783	-0,102	-0,054
-720,050	800,000	0,027	0,082
-719,035	104,368	-0,088	-0,076
-718,021	724,385	-0,011	0,023
-717,006	-125,156	-0,179	-0,020
-715,991	-200,000	-0,015	-0,155
-714,977	133,859	0,133	-0,127
-713,962	-200,000	0,012	-0,201
-712,948	-200,000	0,001	0,051
-711,933	-200,000	-0,002	0,132
-710,918	231,748	0,016	0,019
-709,904	800,000	-0,040	-0,106
-708,889	-117,302	-0,151	-0,020
-707,875	73,539	0,053	-0,041
-706,860	284,909	-0,055	-0,073
-705,845	22,048	0,075	0,045
-704,831	-200,000	0,001	-0,094
-703,816	84,219	0,110	0,089
-702,802	285,724	0,021	0,028
-701,787	23,209	-0,052	-0,031
-700,772	800,000	0,047	-0,113
-699,758	195,601	-0,016	0,018
-698,743	-66,683	0,144	-0,042
-697,729	800,000	0,010	-0,033
-696,714	-61,778	-0,011	0,003
-695,699	-200,000	-0,000	0,015
-694,685	58,776	0,059	0,043
-693,670	-43,101	0,071	-0,026
-692,656	-63,035	-0,116	0,035
-691,641	800,000	0,010	-0,026
-690,627	800,000	0,039	0,099
-689,612	324,636	0,032	-0,046
-688,597	-148,276	0,081	-0,005
-687,583	293,335	-0,071	0,096
-686,568	353,474	0,021	-0,030
-685,554	-78,204	0,007	-0,002
-684,539	-17,674	0,087	0,040
-683,524	800,000	-0,012	0,033
-682,510	93,429	0,037	-0,031
-681,495	251,305	0,050	0,062
-680,481	-69,777	-0,080	0,022
-679,466	-200,000	-0,047	-0,168
-678,451	469,255	-0,054	0,090
-677,437	-79,673	0,051	0,013
-676,422	-200,000	0,007	-0,080
-675,408	-200,000	-0,006	0,061
-674,393	-200,000	-0,119	0,000
-673,378	800,000	0,033	-0,098
-672,364	800,000	-0,059	0,129
-671,349	55,730	0,126	0,090
-670,335	-200,000	0,003	-0,017
-669,320	-200,000	-0,003	-0,043
-668,305	800,000	-0,063	0,138
-667,291	-110,759	0,079	0,012
-666,276	-200,000	0,007	-0,059
-665,262	800,000	-0,056	-0,154
-664,247	389,287	0,075	0,114
-663,232	337,217	0,031	-0,044
-662,218	137,439	-0,030	-0,029
-661,203	229,956	-0,063	-0,076
-660,189	-20,819	0,030	0,014
-659,174	-22,465	-0,132	0,058
-658,159	-2,918	0,150	-0,077
-657,145	80,743	-0,096	0,076
-656,130	-11,566	-0,073	-0,035
-655,116	-200,000	-0,005	-0,066
-654,101	-83,043	0,044	-0,010
-653,086	189,537	-0,083	-0,092
-652,072	97,285	0,093	-0,078
-651,057	800,000	-0,016	-0,041
-650,043	446,862	0,069	-0,112
-649,028	-79,466	0,207	-0,051
-648,014	224,669	-0,041	0,049
-646,999	-200,000	-0,011	0,066
-645,984	-200,000	0,022	-0,084
-644,970	-200,000	0,017	0,230
-643,955	107,472	0,086	0,075
-642,941	-150,071	0,053	0,003
-641,926	51,202	0,066	-0,046
-640,911	800,000	-0,017	0,047
-639,897	-172,846	0,136	0,003
-638,882	121,811	-0,078	0,071
-637,868	-26,101	-0,051	0,022
-636,853	206,633	-0,048	-0,054
-635,838	800,000	0,023	-0,062
-634,824	211,734	-0,049	-0,057
-633,809	56,868	0,082	0,058
-632,795	-200,000	-0,000	0,088
-631,780	28,514	0,077	-0,048
-630,765	-156,960	0,059	-0,003
-629,751	-11,976	-0,162	-0,078
-628,736	-35,411	-0,095	-0,038
-627,722	-96,342	-0,064	0,012
-626,707	800,000	-0,010	0,021
-625,692	618,734	0,099	-0,184
-624,678	-200,000	0,006	0,075
-623,663	68,919	0,070	-0,053
-622,649	799,535	-0,045	-0,092
-621,634	31,993	-0,139	-0,088
-620,619	800,000	-0,047	-0,150
-619,605	-200,000	0,014	-0,090
-618,590	800,000	-0,023	-0,061
-617,576	-191,101	-0,070	-0,001
-616,561	-200,000	-0,048	-0,158
-615,546	-115,910	-0,124	-0,017
-614,532	47,554	-0,140	-0,095
-613,517	-75,576	0,019	-0,005
-612,503	-121,888	-0,098	0,012
-611,488	-146,300	-0,080	-0,005
-610,474	523,538	-0,027	-0,047
-609,459	-23,886	0,051	0,022
-608,444	-81,397	-0,113	0,027
-607,430	166,622	0,081	-0,084
-606,415	-29,514	-0,052	-0,022
-605,401	19,856	0,160	-0,094
-604,386	-74,702	-0,033	0,009
-603,371	-24,398	0,097	0,042
-602,357	78,656	0,058	0,046
-601,342	273,422	0,065	0,085
-600,328	-108,247	-0,171	-0,027
-599,313	127,066	0,020	0,018
-598,298	-66,912	-0,086	-0,025
-597,284	597,999	-0,014	0,026
-596,269	-84,814	0,062	0,014
-595,255	800,000	0,105	0,253
-594,240	47,660	-0,036	0,024
-593,225	565,648	-0,040	0,071
-592,211	-101,124	0,109	-0,019
-591,196	5,414	-0,099	0,053
-590,182	302,518	0,041	0,056
-589,167	-200,000	-0,025	-0,119
-588,152	495,587	-0,045	-0,076
-587,138	0,737	-0,207	-0,108
-586,123	52,160	-0,078	-0,054
-585,109	-200,000	0,008	0,066
-584,094	800,000	0,033	-0,068
-583,079	243,275	0,025	0,031
-582,065	-110,875	0,147	0,022
-581,050	-69,663	-0,099	0,027
-580,036	-107,409	-0,084	-0,013
-579,021	68,961	0,088	0,066
-578,006	-81,453	-0,042	0,010
-576,992	-200,000	-0,013	-0,052
-575,977	-26,117	0,187	-0,080
-574,963	-108,042	0,123	-0,019
-573,948	-200,000	-0,015	0,115
-572,934	353,129	-0,045	-0,066
-571,919	-51,171	-0,073	0,025
-570,904	49,669	0,039	0,027
-569,890	800,000	-0,053	0,143
-568,875	143,393	-0,056	0,055
-567,861	-136,884	0,199	-0,016
-566,846	800,000	-0,022	-0,061
-565,831	800,000	0,017	-0,040
-564,817	78,611	-0,125	-0,098
-563,802	800,000	-0,044	0,136
-562,788	-200,000	-0,009	0,057
-561,773	-104,383	0,254	-0,043
-560,758	-200,000	-0,012	-0,141
-559,744	800,000	-0,030	0,095
-558,729	-59,013	0,036	-0,011
-557,715	-197,939	-0,095	0,000
-556,700	68,682	-0,167	0,125
-555,685	-118,069	-0,113	-0,015
-554,671	-62,345	-0,132	-0,040
-553,656	499,410	0,047	0,079
-552,642	-200,000	0,012	-0,058
-551,627	800,000	-0,010	-0,026
-550,612	-152,452	0,015	0,001
-549,598	278,379	-0,048	0,063
-548,583	-74,813	0,054	-0,014
-547,569	-145,387	0,096	0,006
-546,554	-143,590	0,139	0,010
-545,539	-44,780	0,065	0,024
-544,525	-73,944	0,184	0,049
-543,510	70,540	0,077	0,058
-542,496	-200,000	-0,041	-0,151
-541,481	-200,000	-0,010	-0,051
-540,466	800,000	0,037	0,084
-539,452	596,699	-0,062	-0,112
-538,437	-200,000	0,009	0,067
-537,423	-200,000	0,022	0,088
-536,408	-200,000	-0,001	-0,044
-535,393	-22,888	0,067	-0,029
-534,379	-26,594	0,007	-0,003
-533,364	-200,000	0,013	0,089
-532,350	52,723	-0,108	0,076
-531,335	92,594	-0,026	-0,022
-530,321	-200,000	-0,010	0,083
-529,306	561,315	-0,042	-0,075
-528,291	-181,020	-0,062	0,001
-527,277	800,000	-0,017	0,043
-526,262	64,983	-0,022	-0,016
-525,248	800,000	0,012	-0,030
-524,233	800,000	0,060	0,125
-523,218	-102,073	0,090	-0,016
-522,204	86,148	-0,053	0,043
-521,189	66,510	0,074	-0,055
-520,175	-200,000	-0,004	0,133
-519,160	123,815	-0,093	0,086
-518,145	-200,000	-0,009	0,047
-517,131	-115,358	0,089	0,012
-516,116	492,257	-0,046	0,077
-515,102	136,682	-0,077	0,073
-514,087	-123,908	-0,119	0,014
-513,072	-39,262	-0,103	0,039
-512,058	-200,000	-0,008	-0,095
-511,043	16,555	-0,059	-0,034
-510,029	438,175	0,076	0,122
-509,014	-193,108	0,046	0,000
-507,999	-200,000	0,017	-0,085
-506,985	-146,096	-0,107	0,007
-505,970	800,000	0,056	-0,135
-504,956	-111,488	-0,054	-0,008
-503,941	-200,000	-0,019	0,133
-502,926	-200,000	0,039	0,181
-501,912	200,234	0,064	0,071
-500,897	155,328	0,112	0,113
-499,883	-200,000	-0,004	0,177
-498,868	-94,059	-0,045	-0,009
-497,853	54,073	0,161	-0,113
-496,839	-200,000	0,024	-0,195
-495,824	559,179	0,019	0,034
-494,810	-45,276	0,005	-0,002
-493,795	280,981	0,084	0,110
-492,781	-200,000	0,005	0,041
-491,766	-72,785	-0,091	-0,024
-490,751	-200,000	0,003	-0,085
-489,737	-200,000	0,005	-0,089
-488,722	-200,000	-0,017	0,061
-487,708	-200,000	0,013	0,056
-486,693	-121,061	0,165	-0,020
-485,678	301,190	0,076	0,102
-484,664	62,642	0,208	0,152
-483,649	-200,000	-0,005	-0,136
-482,635	-140,477	0,119	-0,009
-481,620	-200,000	0,004	0,119
-480,605	-33,305	0,064	-0,026
-479,591	-81,720	0,147	-0,035
-478,576	800,000	0,009	-0,026
-477,562	800,000	-0,026	0,078
-476,547	396,378	-0,070	-0,107
-475,532	-33,116	0,119	-0,048
-474,518	-90,631	-0,011	0,002
-473,503	800,000	-0,024	0,065
-472,489	82,488	0,008	-0,006
-471,474	-200,000	-0,015	-0,074
-470,459	-35,034	0,063	-0,025
-469,445	137,352	-0,022	0,021
-468,430	-95,534	0,183	-0,035
-467,416	472,792	0,092	-0,152
-466,401	-200,000	0,031	-0,128
-465,386	-82,610	-0,123	-0,029
-464,372	182,515	-0,092	-0,099
-463,357	270,570	0,082	-0,106
-462,343	-200,000	0,015	0,069
-461,328	-76,226	0,088	-0,022
-460,313	-38,921	0,228	-0,087
-459,299	-200,000	-0,005	0,015
-458,284	-200,000	0,012	-0,080
-457,270	-5,962	-0,045	-0,022
-456,255	84,655	-0,035	-0,028
-455,241	-200,000	-0,001	0,013
-454,226	-108,096	-0,121	0,019
-453,211	-200,000	0,013	0,097
-452,197	627,393	-0,032	0,059
-451,182	-74,562	0,088	0,023
-450,168	281,726	0,026	-0,035
-449,153	-53,784	-0,070	0,023
-448,138	-8,197	-0,104	-0,051
-447,124	-200,000	-0,012	-0,042
-446,109	-139,447	0,068	0,005
-445,095	-200,000	0,012	-0,057
-444,080	125,454	0,012	-0,011
-443,065	-103,081	0,138	0,024
-442,051	-200,000	0,008	-0,029
-441,036	800,000	0,041	-0,085
-440,022	98,062	0,071	-0,060
-439,007	26,559	-0,115	0,070
-437,992	570,982	0,080	0,142
-436,978	40,815	-0,040	-0,026
-435,963	-200,000	0,037	0,000
-434,949	-47,963	0,030	-0,011
-433,934	72,726	-0,076	-0,058
-432,919	260,522	0,056	-0,070
-431,905	-200,000	-0,007	0,088
-430,890	456,245	0,061	0,099
-429,876	89,098	-0,019	0,016
-428,861	227,070	0,043	0,051
-427,846	-57,943	-0,036	0,012
-426,832	1,028	-0,013	0,007
-425,817	160,551	-0,071	-0,072
-424,803	-200,000	0,015	-0,154
-423,788	-200,000	-0,004	0,174
-422,773	148,806	0,132	0,130
-421,759	-157,569	-0,017	0,001
-420,744	800,000	-0,047	0,100
-419,730	-200,000	-0,027	-0,116
-418,715	-200,000	-0,012	-0,050
-417,701	438,845	0,072	0,114
-416,686	-117,571	-0,051	0,007
-415,671	800,000	-0,019	0,048
-414,657	710,273	0,063	0,121
-413,642	-200,000	-0,010	-0,089
-412,628	-200,000	-0,033	-0,126
-411,613	583,025	0,117	-0,210
-410,598	-126,048	-0,054	0,006
-409,584	-200,000	-0,039	0,129
-408,569	800,000	0,024	-0,067
-407,555	-174,021	-0,092	0,002
-406,540	-200,000	-0,033	0,125
-405,525	-93,949	-0,192	0,038
-404,511	490,282	-0,021	-0,035
-403,496	-158,041	-0,197	0,008
-402,482	-78,231	-0,023	0,006
-401,467	498,837	0,041	-0,070
-400,452	313,878	0,074	-0,101
-399,438	-166,316	-0,078	0,002
-398,423	536,427	0,071	-0,123
-397,409	800,000	-0,022	0,058
-396,394	-200,000	0,005	0,101
-395,379	-66,303	0,110	0,032
-394,365	-151,041	-0,102	-0,005
-393,350	298,998	-0,020	-0,027
-392,336	4,241	0,066	0,035
-391,321	94,816	0,066	-0,054
-390,306	-200,000	-0,007	-0,067
-389,292	3,217	0,047	0,025
-388,277	412,654	0,035	0,054
-387,263	800,000	0,012	0,032
-386,248	99,331	0,096	-0,081
-385,233	-93,784	-0,119	0,024
-384,219	9,269	-0,081	0,044
-383,204	-79,909	-0,048	0,012
-382,190	128,609	-0,027	-0,025
-381,175	21,987	-0,043	0,025
-380,160	94,220	-0,032	0,026
-379,146	-123,987	0,128	0,014
-378,131	698,894	-0,082	0,157
-377,117	800,000	0,011	0,031
-376,102	196,277	0,021	-0,023
-375,088	-161,046	-0,198	-0,007
-374,073	108,660	-0,077	-0,067
-373,058	261,358	-0,075	-0,095
-372,044	-200,000	-0,009	-0,048
-371,029	-200,000	0,005	0,024
-370,015	249,523	0,072	0,089
-369,000	-200,000	-0,041	-0,180
-367,985	455,112	0,046	-0,074
-366,971	-200,000	-0,020	-0,116
-365,956	-133,850	0,058	-0,005
-364,942	-55,820	0,109	0,035
-363,927	-200,000	0,006	0,099
-362,912	494,624	-0,036	0,060
-361,898	-200,000	-0,004	-0,023
-360,883	800,000	-0,039	-0,086
-359,869	63,983	-0,087	-0,063
-358,854	-9,382	0,039	0,019
-357,839	-20,514	-0,011	-0,005
-356,825	-139,461	0,017	0,001
-355,810	-200,000	0,024	-0,092
-354,796	375,517	0,021	0,032
-353,781	84,114	-0,141	0,112
-352,766	-200,000	0,015	-0,101
-351,752	147,015	-0,029	0,028
-350,737	615,107	-0,051	-0,093
-349,723	-168,542	-0,140	0,004
-348,708	-166,241	-0,087	-0,003
-347,693	800,000	0,021	0,063
-346,679	-94,861	-0,096	-0,019
-345,664	189,976	0,140	-0,152
-344,650	-200,000	-0,005	-0,025
-343,635	198,417	0,096	-0,107
-342,620	-200,000	0,001	-0,021
-341,606	627,045	0,105	-0,194
-340,591	-77,315	-0,035	-0,009
-339,577	-1,870	0,081	-0,041
-338,562	-200,000	-0,005	-0,143
-337,548	800,000	-0,017	0,047
-336,533	69,714	0,069	-0,052
-335,518	594,974	-0,036	0,065
-334,504	-200,000	-0,010	0,232
-333,489	-149,156	-0,070	-0,004
-332,475	205,109	-0,038	-0,043
-331,460	800,000	-0,048	0,129
-330,445	250,540	-0,040	-0,049
-329,431	405,492	-0,065	-0,099
-328,416	122,164	0,044	-0,040
-327,402	764,736	0,090	-0,178
-326,387	800,000	-0,038	-0,084
-325,372	-70,950	-0,143	-0,039
-324,358	-200,000	-0,030	-0,105
-323,343	175,755	0,089	0,094
-322,329	-125,694	0,203	-0,022
-321,314	-200,000	0,005	-0,142
-320,299	-200,000	0,003	0,054
-319,285	800,000	0,034	0,076
-318,270	-200,000	0,012	0,040
-317,256	-129,967	0,042	-0,004
-316,241	-200,000	0,004	0,071
-315,226	38,316	0,024	0,015
-314,212	163,153	-0,063	0,065
-313,197	-65,660	0,016	0,005
-312,183	-74,606	0,099	0,026
-311,168	84,863	-0,059	0,047
-310,153	-200,000	-0,017	0,061
-309,139	-102,536	0,106	0,018
-308,124	-162,676	0,165	-0,006
-307,110	309,436	0,030	0,040
-306,095	-200,000	0,006	-0,065
-305,080	-191,161	0,107	0,001
-304,066	368,832	-0,027	0,039
-303,051	50,225	-0,084	0,057
-302,037	-91,618	0,087	-0,018
-301,022	800,000	0,034	-0,093
-300,008	-49,561	0,201	0,069
-298,993	-114,011	0,066	-0,009
-297,978	-111,941	-0,069	-0,010
-296,964	-32,807	-0,099	0,040
-295,949	-161,741	0,065	0,002
-294,935	800,000	-0,065	-0,174
-293,920	-200,000	-0,027	-0,140
-292,905	130,913	0,142	0,132
-291,891	-9,423	-0,125	0,060
-290,876	438,192	-0,049	0,077
-289,862	-200,000	-0,067	0,222
-288,847	2,711	-0,153	-0,080
-287,832	664,271	-0,043	-0,081
-286,818	800,000	-0,026	0,076
-285,803	211,480	0,028	0,032
-284,789	-109,120	-0,141	0,021
-283,774	235,459	-0,061	0,073
-282,759	-129,250	-0,096	0,010
-281,745	237,574	0,095	0,114
-280,730	694,846	0,029	-0,055
-279,716	800,000	-0,016	-0,042
-278,701	800,000	0,046	-0,123
-277,686	800,000	0,050	0,130
-276,672	21,938	-0,120	-0,070
-275,657	-200,000	-0,001	-0,101
-274,643	73,788	-0,131	0,099
-273,628	16,662	-0,073	-0,041
-272,613	-200,000	-0,024	0,111
-271,599	29,154	0,045	-0,028
-270,584	-77,665	0,057	0,014
-269,570	-200,000	-0,040	0,153
-268,555	-200,000	0,030	0,128
-267,540	-200,000	-0,023	0,122
-266,526	129,698	-0,067	-0,062
-265,511	-200,000	0,015	-0,120
-264,497	800,000	0,010	0,030
-263,482	-200,000	0,061	0,195
-262,467	-36,370	0,060	0,023
-261,453	21,965	0,079	-0,046
-260,438	32,902	-0,021	-0,013
-259,424	204,843	0,126	0,142
-258,409	800,000	-0,029	0,065
-257,395	29,291	0,066	-0,040
-256,380	338,224	-0,066	0,093
-255,365	-200,000	-0,013	0,074
-254,351	44,018	0,032	0,021
-253,336	-200,000	-0,005	0,048
-252,322	-200,000	0,022	0,150
-251,307	211,065	-0,020	-0,023
-250,292	-63,796	-0,179	-0,053
-249,278	800,000	0,062	0,129
-248,263	-200,000	0,003	0,115
-247,249	25,857	0,020	0,012
-246,234	-200,000	-0,001	-0,050
-245,219	52,557	0,052	-0,036
-244,205	37,143	0,015	-0,010
-243,190	20,509	0,060	-0,035
-242,176	-67,545	0,066	-0,018
-241,161	-200,000	-0,005	0,087
-240,146	-183,622	-0,123	-0,001
-239,132	-82,068	-0,235	-0,055
-238,117	34,156	0,062	-0,039
-237,103	-10,543	-0,135	-0,064
-236,088	-200,000	0,004	-0,021
-235,073	-11,084	0,090	-0,042
-234,059	746,532	0,031	0,061
-233,044	800,000	0,078	0,160
-232,030	166,971	0,032	-0,033
-231,015	562,530	-0,124	-0,217
-230,000	-200,000	0,060	-0,218
-228,986	-200,000	-0,011	-0,119
-227,971	-93,467	0,179	-0,035
-226,957	144,048	0,109	0,105
-225,942	626,211	0,068	-0,124
-224,927	234,366	0,037	-0,044
-223,913	184,585	0,086	0,092
-222,898	333,851	0,042	0,059
-221,884	188,841	-0,091	-0,098
-220,869	-200,000	0,006	0,050
-219,855	-200,000	0,010	0,095
-218,840	151,805	0,099	-0,097
-217,825	685,064	-0,017	0,032
-216,811	-11,585	-0,188	-0,089
-215,796	800,000	-0,072	-0,172
-214,782	-93,240	-0,150	-0,030
-213,767	-1,971	0,021	0,010
-212,752	43,813	-0,170	-0,112
-211,738	235,814	-0,111	-0,132
-210,723	164,330	-0,027	-0,027
-209,709	174,157	-0,079	0,082
-208,694	288,018	-0,021	-0,028
-207,679	553,609	0,062	0,108
-206,665	800,000	0,054	-0,117
-205,650	-200,000	0,036	0,167
-204,636	800,000	0,059	-0,128
-203,621	502,560	0,060	-0,100
-202,606	800,000	-0,051	0,160
-201,592	-117,362	-0,054	-0,007
-200,577	97,716	-0,017	0,014
-199,563	238,397	0,042	0,051
-198,548	778,370	-0,049	0,098
-197,533	-63,977	0,029	-0,009
-196,519	-200,000	0,003	-0,116
-195,504	-75,911	-0,162	-0,041
-194,490	-200,000	-0,009	0,034
-193,475	-99,595	-0,072	-0,013
-192,460	-200,000	0,018	-0,150
-191,446	-64,284	0,063	0,018
-190,431	-200,000	-0,027	0,115
-189,417	57,849	0,064	0,045
-188,402	-200,000	0,041	0,186
-187,387	800,000	-0,020	0,060
-186,373	531,869	-0,029	0,049
-185,358	-200,000	0,015	0,050
-184,344	-29,265	-0,039	-0,016
-183,329	517,164	0,060	-0,101
-182,315	-111,456	0,136	-0,020
-181,300	218,609	-0,078	0,090
-180,285	-87,777	-0,080	-0,017
-179,271	-149,401	-0,151	-0,009
-178,256	307,740	-0,079	-0,106
-177,242	-200,000	0,021	-0,091
-176,227	-35,083	-0,077	-0,030
-175,212	20,372	0,033	-0,019
-174,198	-200,000	-0,019	0,122
-173,183	211,660	-0,029	-0,033
-172,169	-17,361	-0,036	-0,016
-171,154	-200,000	0,016	0,103
-170,139	724,139	0,101	0,195
-169,125	-200,000	0,005	0,106
-168,110	-200,000	0,019	0,073
-167,096	-200,000	0,001	0,067
-166,081	-200,000	-0,004	-0,054
-165,066	-8,408	0,057	-0,028
-164,052	-90,598	0,025	-0,005
-163,037	-18,158	-0,164	-0,074
-162,023	160,084	0,114	-0,115
-161,008	737,766	0,020	0,040
-159,993	-200,000	0,016	0,077
-158,979	199,350	-0,035	0,038
-157,964	800,000	0,045	-0,104
-156,950	-200,000	0,023	-0,081
-155,935	58,044	-0,031	-0,022
-154,920	-154,081	-0,072	-0,003
-153,906	-22,995	0,060	0,026
-152,891	85,065	-0,133	-0,105
-151,877	136,442	-0,051	-0,048
-150,862	-200,000	-0,045	0,163
-149,847	-200,000	-0,037	0,154
-148,833	-130,366	-0,110	0,011
-147,818	-200,000	0,011	-0,163
-146,804	-89,691	-0,092	-0,019
-145,789	800,000	-0,014	0,044
-144,775	297,035	0,075	-0,099
-143,760	-64,322	-0,039	0,011
-142,745	-17,759	-0,111	0,050
-141,731	-190,028	0,114	-0,001
-140,716	-5,329	0,099	0,049
-139,702	-200,000	-0,022	0,107
-138,687	-103,029	0,057	0,010
-137,672	-116,205	0,007	0,001
-136,658	-108,004	-0,126	-0,019
-135,643	239,307	0,070	-0,084
-134,629	800,000	0,012	-0,027
-133,614	-200,000	-0,006	0,056
-132,599	-200,000	0,034	0,139
-131,585	-110,820	0,029	-0,004
-130,570	-124,832	0,097	-0,011
-129,556	-200,000	0,010	-0,044
-128,541	800,000	0,057	-0,115
-127,526	-127,036	0,077	-0,008
-126,512	-57,981	0,062	-0,019
-125,497	330,758	0,112	0,156
-124,483	800,000	0,045	0,112
-123,468	429,436	0,051	0,080
-122,453	37,418	-0,042	0,027
-121,439	87,035	-0,072	-0,057
-120,424	89,392	-0,068	0,054
