DTS Sentinel unit serial number:	SN410029Multiplexer serial number:	ORYXHardware model number:	OX2-SRSoftware version number:	ORYX F/W v4,00 Oryx Data Collector v3.7.2.0data status	okinstallation	B5 Nyhavnadifferential loss correction	single-endedforward channel	channel 2reverse channel	N/Adate	2023/12/12time	02:17:13forward acquisition time	300,00reverse acquisition time	0,00gamma	499,1914k internal	0,3156k external	0,3156temperature offset calibration	1,0000default loss term (dB/km)	0,3820temperature slope calibration	1,0000multiplexer offset coefficient	1,0000multiplexer slope coefficient	1,0000fibre end	0,00T internal ref (°C)	15,79T ext. ref 1 (°C)	-0,63T ext. ref 2 (°C)	-0,94length (m)	temperature (°C)	Stokes	anti-Stokes-744,400	555,640	0,068	-0,122
-743,385	-200,000	-0,395	0,001
-742,371	800,000	-0,049	0,108
-741,356	-58,597	-0,176	0,056
-740,342	12,156	0,129	-0,073
-739,327	-69,498	-0,306	0,086
-738,312	-171,426	0,094	-0,002
-737,298	-25,462	-0,261	0,113
-736,283	-90,523	0,123	-0,026
-735,269	-116,801	-0,248	-0,033
-734,254	-132,505	0,214	0,020
-733,239	-26,292	-0,511	-0,220
-732,225	6,848	0,095	0,052
-731,210	-182,832	-0,121	-0,002
-730,196	800,000	-0,032	0,084
-729,181	-79,581	0,096	-0,024
-728,167	800,000	-0,029	0,082
-727,152	-85,055	-0,055	-0,013
-726,137	412,628	-0,056	-0,088
-725,123	706,644	-0,059	-0,116
-724,108	-83,545	-0,110	0,026
-723,094	-200,000	-0,006	-0,106
-722,079	-140,332	-0,082	-0,006
-721,064	348,441	-0,066	0,096
-720,050	-127,194	0,044	0,005
-719,035	330,023	-0,143	0,203
-718,021	800,000	-0,048	-0,140
-717,006	-132,243	-0,263	-0,025
-715,991	63,009	0,055	-0,040
-714,977	183,056	-0,098	-0,106
-713,962	-95,535	0,063	0,012
-712,948	-88,175	-0,070	-0,015
-711,933	-80,078	0,063	-0,016
-710,918	800,000	-0,024	-0,061
-709,904	379,719	0,054	0,082
-708,889	-114,857	0,002	0,000
-707,875	-200,000	0,025	-0,150
-706,860	356,278	0,087	-0,128
-705,845	-200,000	-0,013	-0,050
-704,831	63,344	-0,144	0,106
-703,816	-168,681	0,182	0,005
-702,802	800,000	-0,034	0,070
-701,787	-99,883	-0,121	0,022
-700,772	-148,239	-0,091	-0,005
-699,758	-99,982	0,088	-0,016
-698,743	-144,314	0,100	-0,007
-697,729	2,317	-0,105	0,056
-696,714	-125,218	0,163	0,018
-695,699	73,372	-0,065	0,050
-694,685	79,431	-0,066	-0,052
-693,670	192,254	0,100	-0,111
-692,656	-132,662	0,034	0,003
-691,641	56,905	0,028	0,020
-690,627	800,000	0,081	0,201
-689,612	396,176	-0,078	0,121
-688,597	-129,413	0,092	0,009
-687,583	-24,556	-0,121	-0,053
-686,568	6,836	-0,057	-0,031
-685,554	272,198	-0,063	-0,083
-684,539	202,889	-0,081	-0,093
-683,524	13,829	-0,065	-0,037
-682,510	-200,000	0,018	0,141
-681,495	-93,372	-0,152	0,031
-680,481	135,401	-0,082	-0,079
-679,466	-200,000	-0,034	-0,136
-678,451	-114,976	-0,146	-0,020
-677,437	-99,721	0,104	-0,019
-676,422	-125,008	0,029	0,003
-675,408	369,853	-0,020	-0,030
-674,393	800,000	-0,012	-0,027
-673,378	-200,000	-0,001	-0,069
-672,364	-8,666	-0,093	-0,046
-671,349	-200,000	-0,002	-0,009
-670,335	279,034	-0,048	-0,063
-669,320	129,296	0,134	-0,126
-668,305	89,834	-0,058	-0,047
-667,291	151,447	-0,061	0,061
-666,276	636,776	0,077	-0,144
-665,262	647,442	0,064	-0,120
-664,247	41,086	-0,054	-0,036
-663,232	110,356	0,108	-0,096
-662,218	170,278	0,074	-0,078
-661,203	76,057	0,142	-0,110
-660,189	-114,223	-0,108	-0,015
-659,174	535,713	-0,045	-0,079
-658,159	800,000	-0,068	-0,144
-657,145	-63,003	-0,049	-0,015
-656,130	-200,000	-0,015	-0,055
-655,116	-200,000	0,008	0,079
-654,101	98,367	-0,132	-0,112
-653,086	31,616	0,048	0,030
-652,072	-5,441	-0,153	-0,077
-651,057	792,560	-0,031	-0,063
-650,043	-200,000	-0,003	-0,057
-649,028	-200,000	0,006	0,065
-648,014	-200,000	0,023	-0,115
-646,999	6,592	0,067	0,036
-645,984	-200,000	0,010	0,098
-644,970	-200,000	-0,006	0,092
-643,955	-200,000	0,003	-0,115
-642,941	-47,754	0,033	0,012
-641,926	-200,000	0,017	-0,118
-640,911	248,244	0,061	0,076
-639,897	37,658	-0,024	-0,016
-638,882	-22,532	-0,094	0,041
-637,868	550,293	0,057	-0,101
-636,853	-196,482	-0,177	-0,001
-635,838	-192,199	0,071	0,000
-634,824	-53,885	0,094	-0,031
-633,809	106,409	-0,039	0,034
-632,795	-200,000	-0,045	-0,154
-631,780	147,231	-0,064	0,063
-630,765	-200,000	-0,009	0,033
-629,751	-200,000	-0,001	-0,109
-628,736	23,158	-0,193	-0,116
-627,722	-14,733	-0,020	-0,009
-626,707	-200,000	-0,024	0,107
-625,692	654,892	0,059	-0,112
-624,678	-4,706	-0,059	0,030
-623,663	-200,000	-0,007	0,070
-622,649	157,653	-0,105	-0,107
-621,634	791,394	-0,017	0,035
-620,619	-200,000	-0,018	-0,088
-619,605	152,544	0,084	-0,084
-618,590	800,000	0,056	-0,145
-617,576	-200,000	-0,068	0,222
-616,561	376,351	0,022	0,034
-615,546	800,000	0,045	-0,120
-614,532	-30,579	-0,101	0,042
-613,517	-200,000	0,027	0,100
-612,503	322,659	-0,034	0,048
-611,488	-200,000	0,006	-0,038
-610,474	-77,408	0,124	0,031
-609,459	-7,993	0,070	-0,034
-608,444	-200,000	0,021	-0,071
-607,430	687,040	0,024	-0,046
-606,415	-200,000	0,016	-0,096
-605,401	-200,000	0,018	0,064
-604,386	-124,484	-0,036	0,004
-603,371	-58,780	0,108	-0,034
-602,357	11,024	-0,157	-0,088
-601,342	-26,214	-0,097	-0,042
-600,328	-61,609	0,085	0,026
-599,313	-104,050	0,065	-0,011
-598,298	-44,958	0,114	0,042
-597,284	51,010	0,193	0,134
-596,269	800,000	0,019	0,039
-595,255	800,000	-0,042	-0,099
-594,240	-90,567	0,085	-0,018
-593,225	-200,000	-0,050	-0,000
-592,211	86,406	0,048	-0,039
-591,196	-200,000	-0,010	-0,088
-590,182	162,314	0,022	-0,023
-589,167	128,386	0,059	0,056
-588,152	-200,000	-0,001	0,166
-587,138	-200,000	0,044	-0,169
-586,123	-82,434	-0,121	0,029
-585,109	9,725	-0,014	-0,008
-584,094	170,987	0,077	0,081
-583,079	52,835	0,068	0,047
-582,065	-113,373	0,212	-0,030
-581,050	-200,000	-0,023	-0,091
-580,036	162,817	0,094	-0,097
-579,021	-123,680	-0,169	-0,019
-578,006	-2,830	-0,133	-0,068
-576,992	800,000	-0,060	-0,125
-575,977	-200,000	0,014	0,087
-574,963	213,181	-0,065	-0,075
-573,948	-200,000	0,022	0,083
-572,934	-200,000	0,009	-0,032
-571,919	-200,000	0,024	-0,145
-570,904	-200,000	-0,003	-0,062
-569,890	-154,312	-0,092	0,004
-568,875	-62,700	0,117	0,035
-567,861	800,000	0,031	-0,078
-566,846	32,909	0,096	0,061
-565,831	800,000	0,012	-0,031
-564,817	223,912	0,016	0,019
-563,802	-200,000	0,094	0,000
-562,788	203,679	0,139	-0,157
-561,773	-45,183	-0,095	-0,034
-560,758	601,024	-0,022	-0,040
-559,744	800,000	0,050	-0,101
-558,729	89,205	-0,092	-0,075
-557,715	165,866	-0,131	-0,136
-556,700	141,655	0,013	0,012
-555,685	-129,449	0,101	0,010
-554,671	-87,623	-0,018	-0,004
-553,656	199,650	0,062	0,069
-552,642	-137,688	0,049	-0,004
-551,627	99,142	-0,064	-0,054
-550,612	337,942	-0,045	-0,064
-549,598	472,335	-0,072	0,120
-548,583	105,456	-0,028	-0,024
-547,569	628,668	-0,120	-0,223
-546,554	116,404	0,086	-0,077
-545,539	-57,574	-0,204	-0,065
-544,525	-129,891	0,168	0,017
-543,510	203,793	-0,107	-0,121
-542,496	257,659	0,053	-0,067
-541,481	-153,909	-0,090	0,004
-540,466	611,512	-0,136	0,250
-539,452	-200,000	-0,002	-0,077
-538,437	-55,485	0,062	0,020
-537,423	-200,000	-0,004	-0,071
-536,408	800,000	-0,009	0,021
-535,393	124,154	-0,073	-0,067
-534,379	-35,301	-0,096	-0,038
-533,364	-200,000	-0,009	-0,140
-532,350	151,402	0,113	-0,112
-531,335	-104,658	0,043	0,007
-530,321	495,845	-0,091	0,153
-529,306	-75,368	-0,099	0,026
-528,291	121,978	-0,039	-0,036
-527,277	-200,000	-0,025	0,136
-526,262	48,660	-0,021	0,014
-525,248	4,348	0,044	0,024
-524,233	-81,633	-0,104	0,025
-523,218	351,884	-0,049	0,071
-522,204	20,308	0,097	0,057
-521,189	-187,051	0,144	0,001
-520,175	-79,438	-0,175	0,043
-519,160	244,170	-0,078	-0,096
-518,145	-14,756	0,018	0,009
-517,131	602,210	0,020	-0,036
-516,116	760,618	0,045	0,089
-515,102	800,000	0,039	-0,120
-514,087	-80,232	-0,115	-0,028
-513,072	-8,926	0,073	-0,036
-512,058	-96,574	-0,148	-0,028
-511,043	48,911	0,113	-0,078
-510,029	-200,000	-0,003	0,091
-509,014	-200,000	0,010	0,092
-507,999	800,000	0,021	-0,054
-506,985	33,001	0,067	-0,042
-505,970	-200,000	-0,010	-0,059
-504,956	308,575	0,045	0,061
-503,941	800,000	-0,034	0,108
-502,926	96,905	0,103	0,087
-501,912	666,027	0,067	0,127
-500,897	244,435	-0,068	0,084
-499,883	-200,000	-0,019	0,000
-498,868	-47,944	0,023	-0,008
-497,853	800,000	0,022	-0,069
-496,839	-125,346	-0,083	0,009
-495,824	101,884	0,100	0,085
-494,810	-200,000	0,041	0,195
-493,795	800,000	-0,022	-0,047
-492,781	482,473	0,101	-0,167
-491,766	-78,069	-0,064	0,016
-490,751	-81,761	-0,083	-0,020
-489,737	85,116	-0,067	0,054
-488,722	800,000	0,031	-0,064
-487,708	-18,911	-0,129	0,058
-486,693	-200,000	-0,006	0,039
-485,678	-87,691	0,140	-0,031
-484,664	-200,000	-0,020	-0,160
-483,649	412,073	0,062	-0,096
-482,635	-65,727	-0,051	0,015
-481,620	-200,000	0,028	0,097
-480,605	458,754	-0,001	0,002
-479,591	800,000	-0,087	0,176
-478,576	124,609	0,024	0,022
-477,562	-101,275	0,104	0,018
-476,547	-63,815	-0,177	-0,053
-475,532	-200,000	0,034	0,132
-474,518	14,140	0,047	0,027
-473,503	411,961	-0,092	-0,143
-472,489	-20,859	0,077	-0,034
-471,474	-8,386	0,084	0,041
-470,459	88,061	-0,112	-0,091
-469,445	86,093	0,042	-0,034
-468,430	-28,526	0,025	-0,010
-467,416	800,000	0,008	-0,027
-466,401	379,211	0,088	0,131
-465,386	212,658	-0,077	0,089
-464,372	758,744	-0,046	-0,091
-463,357	-62,467	-0,083	-0,025
-462,343	-141,312	0,074	-0,005
-461,328	800,000	0,043	-0,119
-460,313	-65,626	0,029	-0,008
-459,299	306,409	0,105	0,142
-458,284	800,000	0,022	-0,049
-457,270	37,204	-0,037	-0,024
-456,255	384,881	0,024	-0,036
-455,241	80,457	-0,063	0,050
-454,226	209,108	-0,047	-0,054
-453,211	800,000	-0,005	-0,013
-452,197	14,565	0,067	-0,038
-451,182	-195,046	-0,070	-0,000
-450,168	-56,895	0,092	0,029
-449,153	800,000	0,016	-0,043
-448,138	71,958	-0,078	-0,059
-447,124	-3,382	-0,054	0,027
-446,109	800,000	-0,046	-0,116
-445,095	345,024	0,090	-0,130
-444,080	-200,000	0,034	-0,123
-443,065	800,000	0,068	0,139
-442,051	800,000	-0,069	-0,153
-441,036	-200,000	0,006	-0,102
-440,022	-51,802	-0,024	-0,008
-439,007	259,436	-0,023	-0,029
-437,992	-57,998	0,096	0,030
-436,978	184,155	0,091	-0,098
-435,963	-78,564	0,142	0,035
-434,949	-51,000	-0,098	0,033
-433,934	34,212	-0,164	0,104
-432,919	-200,000	-0,016	-0,055
-431,905	800,000	0,028	0,058
-430,890	-200,000	-0,044	0,145
-429,876	37,459	-0,034	0,022
-428,861	-146,592	-0,098	0,006
-427,846	800,000	-0,052	-0,105
-426,832	-96,904	0,040	0,008
-425,817	33,134	0,047	0,030
-424,803	-200,000	0,021	0,099
-423,788	57,498	0,049	0,035
-422,773	-200,000	0,026	0,092
-421,759	382,495	-0,038	0,057
-420,744	-109,055	0,062	0,009
-419,730	-30,518	0,092	-0,038
-418,715	-200,000	-0,020	0,111
-417,701	-200,000	-0,023	0,143
-416,686	-133,893	0,124	-0,011
-415,671	-95,406	-0,044	-0,009
-414,657	555,799	-0,035	0,062
-413,642	248,635	0,032	0,040
-412,628	-200,000	-0,010	-0,157
-411,613	-24,466	-0,086	-0,037
-410,598	126,319	0,016	-0,015
-409,584	-200,000	-0,012	0,064
-408,569	-200,000	0,008	0,026
-407,555	-200,000	0,005	0,089
-406,540	181,395	-0,064	-0,069
-405,525	35,083	0,060	0,038
-404,511	113,630	-0,052	0,046
-403,496	509,872	-0,063	-0,107
-402,482	-54,929	0,180	-0,059
-401,467	235,896	-0,073	0,088
-400,452	18,222	0,076	0,044
-399,438	-200,000	0,023	0,151
-398,423	6,457	-0,073	0,040
-397,409	194,721	-0,069	-0,076
-396,394	-200,000	-0,009	-0,062
-395,379	-200,000	-0,012	0,064
-394,365	-3,189	0,136	0,069
-393,350	-200,000	0,014	0,064
-392,336	-200,000	0,017	0,107
-391,321	-127,569	-0,055	0,006
-390,306	270,707	-0,103	-0,132
-389,292	-200,000	-0,015	-0,122
-388,277	800,000	-0,010	0,031
-387,263	-200,000	-0,017	0,118
-386,248	178,777	-0,045	0,047
-385,233	49,806	-0,011	0,007
-384,219	-200,000	0,011	0,054
-383,204	405,297	-0,062	-0,095
-382,190	-200,000	0,004	-0,017
-381,175	-1,403	0,099	0,051
-380,160	800,000	0,028	0,066
-379,146	383,078	0,128	0,192
-378,131	-200,000	-0,011	0,121
-377,117	-88,297	0,059	-0,013
-376,102	241,048	-0,156	0,190
-375,088	42,456	-0,187	-0,124
-374,073	99,552	-0,051	-0,043
-373,058	111,089	0,066	0,058
-372,044	-77,955	0,022	0,005
-371,029	181,621	-0,107	0,114
-370,015	-200,000	0,000	-0,104
-369,000	-161,915	-0,042	-0,002
-367,985	-56,206	-0,080	-0,026
-366,971	616,053	0,082	0,150
-365,956	-156,327	0,115	-0,005
-364,942	158,740	-0,098	0,099
-363,927	-200,000	0,004	-0,046
-362,912	-46,984	-0,097	-0,034
-361,898	800,000	0,032	-0,084
-360,883	343,077	-0,019	0,027
-359,869	-200,000	-0,003	0,055
-358,854	471,634	0,035	0,058
-357,839	181,384	0,040	0,042
-356,825	159,669	0,069	-0,070
-355,810	-58,422	-0,148	-0,046
-354,796	-20,824	-0,109	-0,048
-353,781	84,453	0,090	0,072
-352,766	145,570	-0,041	-0,040
-351,752	-57,184	0,099	-0,031
-350,737	135,609	0,085	0,081
-349,723	263,665	-0,038	-0,049
-348,708	-57,865	0,074	0,023
-347,693	-200,000	0,021	0,131
-346,679	-45,720	-0,054	0,019
-345,664	199,345	-0,050	0,056
-344,650	-200,000	-0,002	0,071
-343,635	800,000	0,028	-0,086
-342,620	-58,166	0,043	0,014
-341,606	-62,356	-0,088	-0,026
-340,591	98,381	-0,070	0,058
-339,577	23,942	0,036	-0,021
-338,562	-116,124	-0,037	-0,005
-337,548	-70,258	0,053	-0,015
-336,533	-63,438	-0,037	0,011
-335,518	25,828	0,118	0,071
-334,504	690,415	0,036	0,068
-333,489	163,540	-0,027	-0,028
-332,475	800,000	-0,049	-0,111
-331,460	800,000	-0,051	-0,160
-330,445	-11,403	0,103	0,049
-329,431	129,498	0,086	-0,079
-328,416	-200,000	0,013	0,090
-327,402	22,503	-0,114	0,068
-326,387	-77,578	-0,084	-0,021
-325,372	63,721	0,022	0,016
-324,358	64,145	0,023	0,017
-323,343	698,204	0,037	0,070
-322,329	281,710	0,073	-0,095
-321,314	474,239	-0,071	0,117
-320,299	2,109	0,058	0,030
-319,285	53,299	-0,069	-0,048
-318,270	42,492	-0,105	-0,069
-317,256	-121,884	0,088	-0,010
-316,241	-80,822	-0,042	-0,010
-315,226	-18,329	0,097	-0,044
-314,212	227,982	0,085	0,100
-313,197	48,297	-0,106	0,072
-312,183	-200,000	0,012	0,088
-311,168	-200,000	0,043	-0,175
-310,153	355,603	-0,097	0,141
-309,139	142,843	0,056	0,054
-308,124	178,906	0,064	0,067
-307,110	-168,934	-0,010	-0,000
-306,095	-23,096	0,058	0,025
-305,080	260,416	-0,164	0,206
-304,066	757,578	0,020	-0,040
-303,051	594,435	0,024	-0,042
-302,037	-29,696	0,099	-0,041
-301,022	386,748	-0,072	0,109
-300,008	-30,689	0,034	-0,014
-298,993	124,627	-0,092	-0,084
-297,978	200,646	-0,093	0,104
-296,964	-151,401	0,064	0,003
-295,949	-200,000	0,037	-0,134
-294,935	800,000	0,036	-0,109
-293,920	-200,000	-0,013	0,100
-292,905	376,005	0,038	0,057
-291,891	397,763	0,077	0,117
-290,876	-64,078	-0,114	0,034
-289,862	-200,000	-0,001	0,066
-288,847	85,899	-0,093	-0,074
-287,832	-200,000	-0,020	-0,065
-286,818	161,553	-0,011	-0,011
-285,803	800,000	0,019	0,044
-284,789	228,029	0,035	0,042
-283,774	-200,000	0,005	0,060
-282,759	-200,000	-0,003	0,016
-281,745	-2,958	-0,089	-0,045
-280,730	800,000	-0,051	0,136
-279,716	-200,000	0,021	0,132
-278,701	-200,000	-0,003	-0,021
-277,686	800,000	-0,063	0,128
-276,672	208,673	-0,052	0,060
-275,657	-132,763	0,091	-0,008
-274,643	-20,051	-0,040	-0,018
-273,628	-101,964	-0,127	0,022
-272,613	-91,184	0,156	-0,032
-271,599	-200,000	-0,008	-0,161
-270,584	-200,000	-0,007	-0,093
-269,570	-89,185	0,059	-0,012
-268,555	-200,000	-0,017	0,094
-267,540	800,000	-0,036	-0,086
-266,526	-200,000	0,037	-0,136
-265,511	39,685	0,088	-0,057
-264,497	50,648	-0,222	-0,152
-263,482	19,880	0,118	0,069
-262,467	88,117	0,095	0,077
-261,453	-200,000	0,002	0,010
-260,438	397,342	-0,078	-0,119
-259,424	60,705	0,100	-0,072
-258,409	592,187	-0,027	-0,049
-257,395	150,424	-0,046	-0,045
-256,380	-79,251	0,120	0,029
-255,365	800,000	0,033	-0,069
-254,351	317,807	0,042	0,058
-253,336	-200,000	0,018	-0,139
-252,322	-39,666	-0,025	0,009
-251,307	-200,000	-0,013	-0,091
-250,292	-200,000	-0,009	-0,087
-249,278	286,250	0,022	0,028
-248,263	800,000	0,055	0,139
-247,249	125,300	0,088	0,080
-246,234	105,243	0,025	-0,022
-245,219	108,235	-0,087	-0,075
-244,205	-120,889	-0,116	0,014
-243,190	-200,000	-0,004	0,021
-242,176	175,913	0,078	-0,082
-241,161	800,000	0,097	0,199
-240,146	106,762	0,098	0,084
-239,132	-8,682	-0,058	0,028
-238,117	-29,133	0,065	-0,027
-237,103	-82,269	-0,055	0,013
-236,088	278,054	-0,081	0,104
-235,073	5,777	0,043	0,023
-234,059	238,990	-0,031	-0,037
-233,044	158,816	0,043	0,044
-232,030	-200,000	-0,008	0,138
-231,015	-200,000	0,002	-0,077
-230,000	-200,000	-0,003	0,062
-228,986	-131,236	0,124	0,012
-227,971	-200,000	0,032	0,111
-226,957	678,133	0,023	0,044
-225,942	-54,942	0,048	0,015
-224,927	581,511	-0,054	-0,096
-223,913	10,097	0,033	0,018
-222,898	800,000	0,020	0,053
-221,884	99,797	0,006	-0,005
-220,869	-166,649	0,124	-0,004
-219,855	85,243	-0,033	0,026
-218,840	800,000	0,023	0,055
-217,825	-13,970	0,068	0,031
-216,811	186,675	-0,021	0,023
-215,796	-200,000	-0,019	-0,130
-214,782	-200,000	-0,010	-0,082
-213,767	-5,423	0,067	0,033
-212,752	87,174	0,102	0,081
-211,738	209,012	0,114	0,130
-210,723	-49,271	-0,068	0,023
-209,709	-162,008	0,014	-0,000
-208,694	72,897	-0,107	-0,081
-207,679	10,458	-0,073	-0,040
-206,665	-75,723	0,076	0,019
-205,650	23,500	0,075	-0,045
-204,636	148,164	-0,018	-0,017
-203,621	-79,139	-0,020	-0,005
-202,606	-19,924	-0,123	0,055
-201,592	-200,000	-0,013	-0,056
-200,577	504,456	0,017	-0,029
-199,563	583,384	-0,066	0,117
-198,548	-200,000	0,003	0,095
-197,533	109,120	0,072	0,062
-196,519	343,234	-0,034	0,048
-195,504	-200,000	-0,008	0,063
-194,490	681,171	0,005	0,009
-193,475	-6,043	0,086	0,042
-192,460	-33,982	0,044	-0,018
-191,446	-200,000	-0,025	-0,080
-190,431	-86,771	-0,050	0,011
-189,417	153,526	0,124	0,123
-188,402	-164,330	0,024	0,001
-187,387	380,933	0,059	-0,088
-186,373	-200,000	-0,027	-0,119
-185,358	-24,905	0,096	0,041
-184,344	67,885	-0,028	0,021
-183,329	290,745	-0,076	-0,100
-182,315	800,000	-0,017	0,047
-181,300	-200,000	-0,065	-0,211
-180,285	-13,368	-0,005	-0,002
-179,271	-73,437	-0,167	0,044
-178,256	-200,000	0,024	0,095
-177,242	800,000	-0,011	-0,034
-176,227	-99,912	0,186	-0,033
-175,212	-82,951	-0,065	0,015
-174,198	779,737	-0,029	0,058
-173,183	-200,000	0,009	0,086
-172,169	384,667	-0,037	-0,055
-171,154	-200,000	0,042	-0,165
-170,139	800,000	0,020	-0,054
-169,125	-183,659	0,067	0,001
-168,110	800,000	0,011	0,031
-167,096	-108,757	-0,209	0,032
-166,081	-97,522	-0,089	0,017
-165,066	130,590	-0,097	-0,089
-164,052	-200,000	0,007	-0,162
-163,037	800,000	-0,011	-0,028
-162,023	165,981	0,076	0,078
-161,008	-123,975	-0,213	0,024
-159,993	198,457	-0,037	-0,041
-158,979	-200,000	0,007	0,026
-157,964	617,165	-0,054	-0,097
-156,950	-200,000	0,008	-0,085
-155,935	248,106	0,009	0,011
-154,920	358,498	0,057	-0,082
-153,906	-72,023	0,122	0,033
-152,891	60,910	-0,050	-0,035
-151,877	-146,798	-0,099	-0,006
-150,862	331,118	0,020	0,027
-149,847	800,000	-0,021	-0,041
-148,833	-200,000	-0,025	-0,106
-147,818	-72,302	-0,084	-0,022
-146,804	755,838	0,072	0,140
-145,789	435,342	0,054	0,085
-144,775	-79,420	-0,099	-0,024
-143,760	-6,973	0,006	-0,003
-142,745	6,796	0,039	-0,021
-141,731	800,000	0,019	-0,038
-140,716	585,293	0,044	0,078
-139,702	180,909	0,033	0,035
-138,687	181,971	0,090	-0,095
-137,672	-23,916	0,079	-0,034
-136,658	800,000	0,073	-0,150
-135,643	-200,000	0,006	0,023
-134,629	11,483	-0,020	-0,011
-133,614	800,000	0,037	0,085
-132,599	-200,000	0,000	0,085
-131,585	317,887	-0,010	0,014
-130,570	800,000	0,026	-0,080
-129,556	-100,375	0,029	0,005
-128,541	-147,833	-0,076	-0,004
-127,526	800,000	0,019	-0,056
-126,512	-169,121	-0,047	-0,001
-125,497	-200,000	-0,000	-0,146
-124,483	-34,856	-0,197	-0,077
-123,468	-118,166	0,099	0,013
-122,453	800,000	0,019	-0,049
-121,439	-200,000	-0,006	0,052
-120,424	84,630	-0,048	-0,037
-119,410	-200,000	-0,018	-0,112
