DTS Sentinel unit serial number:	SN410029Multiplexer serial number:	ORYXHardware model number:	OX2-SRSoftware version number:	ORYX F/W v4,00 Oryx Data Collector v3.7.2.0data status	okinstallation	B5 Nyhavnadifferential loss correction	single-endedforward channel	channel 2reverse channel	N/Adate	2023/12/14time	03:52:13forward acquisition time	300,00reverse acquisition time	0,00gamma	499,1914k internal	0,3156k external	0,3156temperature offset calibration	1,0000default loss term (dB/km)	0,3820temperature slope calibration	1,0000multiplexer offset coefficient	1,0000multiplexer slope coefficient	1,0000fibre end	0,00T internal ref (°C)	8,06T ext. ref 1 (°C)	-8,36T ext. ref 2 (°C)	-8,44length (m)	temperature (°C)	Stokes	anti-Stokes-744,400	9,199	0,107	0,060
-743,385	-169,250	-0,327	0,009
-742,371	-17,474	0,283	0,131
-741,356	-29,565	-0,454	-0,190
-740,342	201,778	0,124	0,141
-739,327	-50,952	-0,399	-0,137
-738,312	-200,000	0,002	-0,008
-737,298	-36,883	-0,476	-0,187
-736,283	800,000	-0,039	0,119
-735,269	-171,802	-0,429	0,010
-734,254	256,032	0,100	0,127
-733,239	51,442	-0,454	-0,317
-732,225	-51,494	0,279	0,095
-731,210	140,685	-0,154	-0,150
-730,196	-165,364	-0,090	0,003
-729,181	-110,823	-0,221	-0,033
-728,167	-45,941	-0,071	0,026
-727,152	800,000	0,053	0,126
-726,137	-200,000	-0,013	-0,065
-725,123	-200,000	-0,001	-0,037
-724,108	298,495	-0,051	-0,069
-723,094	-200,000	-0,016	-0,143
-722,079	579,329	-0,023	-0,041
-721,064	-200,000	0,016	-0,073
-720,050	-200,000	-0,000	-0,057
-719,035	100,615	-0,086	0,074
-718,021	476,651	-0,094	-0,157
-717,006	-200,000	-0,034	-0,113
-715,991	-200,000	0,013	-0,093
-714,977	-200,000	-0,009	0,101
-713,962	2,295	0,020	-0,011
-712,948	141,657	-0,054	0,053
-711,933	-104,945	-0,060	0,010
-710,918	216,054	-0,028	0,032
-709,904	-13,082	0,024	0,011
-708,889	-17,070	0,034	-0,016
-707,875	-119,177	-0,025	-0,003
-706,860	41,418	-0,119	0,079
-705,845	-89,333	-0,128	0,027
-704,831	18,683	0,078	0,046
-703,816	28,776	0,032	-0,020
-702,802	800,000	0,027	-0,069
-701,787	-39,849	-0,210	-0,080
-700,772	464,268	-0,046	0,077
-699,758	-126,037	0,062	0,007
-698,743	48,320	-0,106	-0,073
-697,729	256,877	0,034	0,043
-696,714	-200,000	0,017	0,075
-695,699	351,176	-0,033	0,049
-694,685	-173,724	-0,121	-0,003
-693,670	757,557	-0,050	-0,100
-692,656	29,719	0,072	-0,045
-691,641	-200,000	0,001	-0,029
-690,627	1,975	0,098	-0,052
-689,612	137,208	-0,093	0,089
-688,597	-49,085	-0,090	0,031
-687,583	-200,000	0,017	-0,093
-686,568	-182,469	-0,056	0,001
-685,554	226,441	-0,041	-0,050
-684,539	187,090	0,150	0,165
-683,524	-28,040	-0,070	-0,030
-682,510	800,000	0,046	-0,105
-681,495	-100,551	-0,068	-0,012
-680,481	52,854	-0,072	-0,051
-679,466	34,512	0,062	-0,040
-678,451	-117,168	0,100	-0,013
-677,437	641,956	-0,072	-0,136
-676,422	220,675	-0,031	-0,036
-675,408	-113,123	-0,101	0,015
-674,393	-200,000	-0,007	0,122
-673,378	800,000	-0,053	-0,120
-672,364	-148,837	-0,020	-0,001
-671,349	229,376	0,096	-0,116
-670,335	216,290	-0,128	-0,150
-669,320	-37,817	0,078	-0,030
-668,305	461,861	-0,033	0,055
-667,291	-9,050	0,148	0,073
-666,276	-172,229	-0,032	0,001
-665,262	-32,468	0,044	-0,018
-664,247	-80,719	0,076	-0,018
-663,232	66,120	0,006	0,005
-662,218	-149,089	-0,147	0,009
-661,203	-137,711	0,132	-0,011
-660,189	74,241	0,121	0,094
-659,174	-100,410	-0,046	0,008
-658,159	-200,000	-0,036	-0,163
-657,145	-46,762	-0,044	-0,016
-656,130	20,636	-0,100	-0,060
-655,116	-76,630	0,089	0,023
-654,101	338,403	0,047	-0,068
-653,086	103,296	0,126	0,109
-652,072	-25,449	-0,079	0,034
-651,057	318,974	-0,060	-0,083
-650,043	800,000	0,046	0,112
-649,028	800,000	0,027	-0,061
-648,014	800,000	0,067	-0,201
-646,999	-77,921	0,029	-0,007
-645,984	-98,782	0,208	-0,039
-644,970	-31,565	0,079	0,033
-643,955	800,000	-0,047	-0,123
-642,941	-200,000	0,006	-0,087
-641,926	-200,000	0,028	0,153
-640,911	-200,000	-0,002	-0,092
-639,897	-200,000	-0,007	0,045
-638,882	-127,889	-0,065	-0,007
-637,868	800,000	-0,019	-0,044
-636,853	341,073	-0,059	0,085
-635,838	-116,689	-0,175	0,023
-634,824	115,854	-0,046	-0,042
-633,809	246,326	-0,071	-0,088
-632,795	40,312	0,168	-0,111
-631,780	-200,000	-0,029	0,106
-630,765	800,000	0,028	0,071
-629,751	-103,023	-0,132	-0,023
-628,736	381,951	0,048	-0,073
-627,722	-131,550	-0,047	-0,004
-626,707	-138,227	0,111	-0,009
-625,692	-200,000	0,019	0,118
-624,678	-71,815	-0,133	0,036
-623,663	-171,821	0,050	0,001
-622,649	-116,368	-0,177	0,024
-621,634	-49,056	0,086	0,030
-620,619	-200,000	0,009	0,036
-619,605	-200,000	0,022	0,107
-618,590	-200,000	-0,004	-0,018
-617,576	123,200	-0,041	-0,038
-616,561	-200,000	-0,010	-0,042
-615,546	201,646	0,048	-0,054
-614,532	-200,000	0,017	-0,146
-613,517	182,392	-0,054	-0,058
-612,503	-78,322	0,111	-0,028
-611,488	-55,619	-0,074	0,024
-610,474	-11,504	0,065	0,031
-609,459	-56,483	-0,062	0,020
-608,444	-200,000	-0,008	-0,084
-607,430	10,317	-0,142	-0,079
-606,415	74,357	-0,073	0,056
-605,401	28,019	-0,069	-0,042
-604,386	466,414	-0,075	-0,123
-603,371	-200,000	-0,013	0,088
-602,357	-60,888	-0,087	0,027
-601,342	155,361	0,039	-0,039
-600,328	-200,000	-0,040	-0,182
-599,313	-164,660	-0,063	-0,002
-598,298	38,897	0,110	-0,072
-597,284	17,486	-0,177	-0,103
-596,269	-200,000	0,001	0,125
-595,255	265,333	0,011	0,014
-594,240	164,456	-0,057	-0,059
-593,225	300,507	0,022	-0,029
-592,211	-73,764	0,027	0,007
-591,196	293,559	-0,043	0,058
-590,182	150,661	0,077	-0,077
-589,167	-200,000	-0,018	0,093
-588,152	159,109	0,116	0,118
-587,138	179,748	-0,035	-0,038
-586,123	-200,000	0,017	0,113
-585,109	-200,000	0,028	-0,117
-584,094	152,610	-0,024	-0,024
-583,079	-57,509	0,074	-0,024
-582,065	-51,360	-0,032	-0,011
-581,050	-51,922	-0,104	0,035
-580,036	19,095	-0,063	-0,037
-579,021	135,878	-0,035	-0,033
-578,006	30,919	-0,076	-0,048
-576,992	-200,000	-0,032	-0,123
-575,977	-63,565	0,049	0,015
-574,963	-200,000	0,008	0,027
-573,948	35,320	0,133	0,085
-572,934	-24,409	0,123	0,054
-571,919	-137,143	-0,100	-0,008
-570,904	-56,581	-0,096	-0,031
-569,890	-38,203	-0,039	0,015
-568,875	-200,000	0,004	-0,144
-567,861	-22,142	-0,038	0,017
-566,846	800,000	-0,023	-0,052
-565,831	15,899	0,059	-0,034
-564,817	800,000	-0,016	0,036
-563,802	-60,420	0,043	0,013
-562,788	800,000	0,018	0,048
-561,773	437,655	-0,023	0,037
-560,758	-12,321	0,141	-0,067
-559,744	-200,000	0,001	0,102
-558,729	800,000	0,064	0,142
-557,715	107,474	-0,070	-0,061
-556,700	-200,000	0,012	-0,078
-555,685	394,928	0,072	0,111
-554,671	-91,402	0,167	0,035
-553,656	-98,484	0,067	0,012
-552,642	222,276	-0,051	-0,060
-551,627	-200,000	0,006	-0,063
-550,612	800,000	-0,030	-0,076
-549,598	-200,000	-0,004	-0,021
-548,583	800,000	0,028	0,075
-547,569	347,219	-0,066	0,096
-546,554	-200,000	-0,008	0,091
-545,539	305,582	-0,091	0,123
-544,525	234,029	-0,038	0,046
-543,510	-119,053	-0,105	0,013
-542,496	800,000	-0,016	-0,049
-541,481	145,044	0,023	0,023
-540,466	-200,000	0,039	-0,152
-539,452	800,000	-0,015	0,035
-538,437	562,873	-0,040	-0,071
-537,423	-200,000	-0,039	0,141
-536,408	-104,185	0,064	0,011
-535,393	-200,000	0,029	-0,135
-534,379	800,000	0,021	-0,067
-533,364	101,172	-0,062	-0,053
-532,350	-200,000	0,009	0,046
-531,335	-200,000	-0,027	0,095
-530,321	-200,000	-0,037	0,160
-529,306	96,473	-0,068	0,057
-528,291	105,344	-0,080	-0,069
-527,277	46,429	-0,090	-0,061
-526,262	-120,769	-0,053	-0,006
-525,248	60,129	-0,052	0,038
-524,233	-200,000	0,022	0,076
-523,218	800,000	0,024	-0,052
-522,204	578,430	0,077	-0,138
-521,189	800,000	-0,032	-0,091
-520,175	348,127	0,042	0,061
-519,160	-103,813	-0,126	-0,021
-518,145	800,000	-0,009	-0,019
-517,131	615,205	-0,026	0,047
-516,116	162,291	0,037	-0,037
-515,102	333,719	-0,114	-0,161
-514,087	800,000	0,058	0,137
-513,072	-19,798	0,043	0,019
-512,058	-200,000	-0,026	-0,102
-511,043	-61,802	-0,083	-0,025
-510,029	-99,726	-0,029	-0,005
-509,014	734,120	-0,035	0,069
-507,999	-128,504	0,091	0,009
-506,985	515,164	0,018	-0,030
-505,970	393,053	0,139	-0,212
-504,956	115,523	-0,092	-0,082
-503,941	114,921	0,099	-0,088
-502,926	800,000	0,050	0,110
-501,912	-200,000	0,026	-0,100
-500,897	212,879	-0,077	0,089
-499,883	-200,000	0,002	0,026
-498,868	-85,155	-0,127	-0,029
-497,853	-200,000	-0,002	-0,034
-496,839	677,244	-0,055	-0,104
-495,824	-200,000	-0,012	-0,152
-494,810	152,057	-0,020	-0,020
-493,795	-200,000	-0,010	0,206
-492,781	598,918	0,086	-0,157
-491,766	440,310	-0,101	-0,161
-490,751	92,987	-0,090	-0,074
-489,737	-200,000	-0,025	-0,139
-488,722	800,000	0,026	-0,055
-487,708	-63,973	0,059	0,018
-486,693	716,102	-0,075	0,146
-485,678	-200,000	-0,017	-0,104
-484,664	-200,000	-0,024	-0,081
-483,649	20,144	-0,078	-0,046
-482,635	800,000	0,052	0,150
-481,620	132,835	0,059	-0,056
-480,605	-200,000	-0,025	0,087
-479,591	-200,000	-0,004	0,121
-478,576	747,144	0,015	0,029
-477,562	-18,014	-0,199	-0,091
-476,547	-200,000	-0,003	-0,115
-475,532	69,524	0,072	0,054
-474,518	32,168	-0,091	-0,057
-473,503	-63,002	0,090	-0,027
-472,489	-200,000	-0,010	-0,082
-471,474	91,765	0,023	0,019
-470,459	-200,000	0,005	0,101
-469,445	145,673	-0,054	0,053
-468,430	-200,000	0,009	-0,043
-467,416	65,532	0,068	0,050
-466,401	504,097	0,051	0,086
-465,386	83,620	-0,027	0,021
-464,372	353,004	-0,016	-0,023
-463,357	800,000	-0,039	-0,115
-462,343	-110,485	-0,127	-0,019
-461,328	-137,982	0,082	0,007
-460,313	282,123	0,029	-0,039
-459,299	555,116	0,100	0,177
-458,284	-102,833	-0,090	-0,015
-457,270	800,000	0,027	0,063
-456,255	21,376	-0,086	-0,051
-455,241	309,111	-0,080	-0,110
-454,226	-88,752	0,149	0,032
-453,211	-200,000	0,030	0,112
-452,197	400,019	0,020	-0,031
-451,182	-200,000	0,044	0,143
-450,168	114,247	-0,061	-0,054
-449,153	800,000	0,038	0,082
-448,138	800,000	0,014	-0,038
-447,124	234,145	0,008	-0,010
-446,109	161,499	0,159	-0,163
-445,095	-97,135	-0,076	-0,014
-444,080	-200,000	-0,032	-0,134
-443,065	-32,930	0,153	0,062
-442,051	79,147	-0,083	0,064
-441,036	800,000	-0,016	-0,037
-440,022	-200,000	0,009	-0,119
-439,007	97,201	0,129	-0,108
-437,992	-37,686	0,063	0,024
-436,978	-45,379	0,040	0,014
-435,963	195,447	0,048	-0,054
-434,949	91,852	0,127	0,104
-433,934	667,176	-0,079	-0,149
-432,919	-185,675	-0,110	0,001
-431,905	-67,940	-0,023	0,007
-430,890	800,000	0,003	-0,008
-429,876	-134,515	0,099	0,009
-428,861	25,492	0,085	-0,051
-427,846	800,000	-0,043	-0,105
-426,832	-3,889	-0,121	-0,061
-425,817	150,918	0,043	0,042
-424,803	-200,000	0,042	-0,177
-423,788	-200,000	-0,000	0,040
-422,773	-101,065	0,048	-0,009
-421,759	-91,238	-0,030	0,006
-420,744	389,594	-0,062	-0,093
-419,730	-62,884	-0,017	0,005
-418,715	-59,686	0,112	0,035
-417,701	-54,912	0,052	-0,017
-416,686	-93,078	0,063	0,013
-415,671	800,000	-0,025	0,058
-414,657	13,188	0,103	-0,058
-413,642	222,883	-0,035	0,041
-412,628	137,666	0,085	-0,081
-411,613	63,193	-0,055	0,040
-410,598	546,138	0,083	-0,145
-409,584	-200,000	-0,001	-0,034
-408,569	-200,000	-0,013	0,085
-407,555	100,701	0,076	0,064
-406,540	305,993	0,010	-0,014
-405,525	-200,000	-0,001	-0,046
-404,511	201,845	-0,059	-0,066
-403,496	-102,681	-0,075	-0,013
-402,482	-200,000	-0,022	0,122
-401,467	186,166	0,084	0,091
-400,452	394,155	0,035	0,054
-399,438	-92,218	0,078	0,016
-398,423	39,554	-0,062	0,040
-397,409	725,452	-0,047	0,091
-396,394	-46,031	-0,152	-0,054
-395,379	796,578	0,064	0,128
-394,365	-200,000	0,006	0,024
-393,350	-54,326	0,069	-0,023
-392,336	-200,000	0,015	-0,087
-391,321	-81,620	0,049	0,012
-390,306	27,198	0,126	-0,077
-389,292	-200,000	0,003	-0,039
-388,277	-145,891	0,069	0,004
-387,263	87,920	0,104	-0,084
-386,248	-193,086	-0,067	0,000
-385,233	-151,992	0,048	0,003
-384,219	-200,000	0,053	0,172
-383,204	-92,342	-0,011	0,002
-382,190	-117,438	0,070	0,009
-381,175	-200,000	0,026	0,235
-380,160	141,557	0,129	0,124
-379,146	236,292	0,136	0,164
-378,131	-200,000	-0,043	0,261
-377,117	-200,000	0,036	-0,123
-376,102	354,598	-0,066	-0,096
-375,088	168,369	0,068	-0,070
-374,073	-200,000	0,045	0,144
-373,058	-200,000	0,020	0,068
-372,044	-54,535	0,083	-0,027
-371,029	565,847	-0,015	-0,026
-370,015	-65,726	0,065	-0,019
-369,000	396,790	0,012	0,018
-367,985	469,357	-0,043	0,070
-366,971	113,987	0,027	0,024
-365,956	800,000	0,026	0,052
-364,942	800,000	-0,045	-0,119
-363,927	-137,617	-0,066	-0,005
-362,912	140,624	0,113	0,108
-361,898	-194,819	-0,120	-0,001
-360,883	-200,000	0,016	0,138
-359,869	800,000	-0,063	0,142
-358,854	209,637	-0,061	0,069
-357,839	-40,156	0,125	0,047
-356,825	-76,646	0,033	0,008
-355,810	-200,000	-0,016	0,080
-354,796	-200,000	-0,024	0,078
-353,781	-101,133	-0,053	0,009
-352,766	-200,000	-0,026	-0,149
-351,752	800,000	0,003	-0,009
-350,737	3,403	-0,058	0,031
-349,723	-32,168	0,146	-0,059
-348,708	800,000	-0,015	0,044
-347,693	278,435	-0,114	0,148
-346,679	-200,000	0,025	-0,102
-345,664	-200,000	-0,010	-0,084
-344,650	-122,156	0,052	-0,006
-343,635	-51,289	0,080	0,027
-342,620	-200,000	0,032	-0,133
-341,606	254,419	-0,049	-0,061
-340,591	570,626	-0,028	-0,050
-339,577	159,418	-0,122	-0,123
-338,562	347,545	-0,055	-0,079
-337,548	-113,094	-0,140	0,020
-336,533	-18,831	0,249	0,112
-335,518	334,947	0,025	-0,035
-334,504	-200,000	-0,051	0,206
-333,489	800,000	-0,016	0,039
-332,475	519,773	-0,058	-0,099
-331,460	-9,739	-0,035	0,017
-330,445	-200,000	-0,009	0,084
-329,431	16,071	0,057	-0,032
-328,416	-200,000	0,013	-0,061
-327,402	8,582	-0,113	-0,061
-326,387	174,659	0,063	-0,066
-325,372	800,000	-0,052	-0,155
-324,358	800,000	0,032	-0,069
-323,343	116,197	0,016	-0,014
-322,329	-65,974	0,155	-0,045
-321,314	-6,180	-0,034	0,017
-320,299	800,000	0,050	0,136
-319,285	249,295	0,074	0,091
-318,270	-80,419	-0,091	-0,022
-317,256	1,642	-0,043	-0,022
-316,241	-200,000	-0,008	0,108
-315,226	-200,000	0,023	0,114
-314,212	18,695	-0,026	-0,015
-313,197	649,417	0,036	0,067
-312,183	7,520	-0,123	-0,067
-311,168	21,121	-0,140	0,082
-310,153	800,000	0,020	0,052
-309,139	174,630	0,083	0,087
-308,124	-176,635	0,109	0,002
-307,110	800,000	0,007	-0,023
-306,095	-96,639	-0,053	0,010
-305,080	565,381	0,065	0,115
-304,066	-107,252	-0,056	-0,009
-303,051	-101,812	-0,073	0,013
-302,037	35,445	-0,097	0,062
-301,022	564,220	-0,046	-0,081
-300,008	25,772	0,112	0,067
-298,993	17,036	0,076	0,043
-297,978	800,000	-0,023	0,053
-296,964	-86,139	-0,035	0,008
-295,949	-200,000	-0,024	-0,102
-294,935	-197,384	0,120	0,001
-293,920	-133,774	-0,112	-0,010
-292,905	657,335	0,020	0,037
-291,891	-200,000	0,022	0,155
-290,876	-54,715	-0,131	-0,043
-289,862	-200,000	-0,006	-0,079
-288,847	-122,289	-0,124	-0,014
-287,832	800,000	-0,061	0,147
-286,818	-107,392	-0,088	-0,014
-285,803	288,237	0,127	-0,167
-284,789	205,920	-0,057	0,064
-283,774	197,018	0,086	0,095
-282,759	-200,000	0,030	0,102
-281,745	-200,000	-0,015	-0,087
-280,730	-105,412	0,095	-0,015
-279,716	54,635	0,095	0,066
-278,701	800,000	-0,036	-0,076
-277,686	139,455	0,029	0,028
-276,672	340,652	0,020	-0,029
-275,657	43,870	-0,036	-0,024
-274,643	177,827	-0,065	-0,069
-273,628	82,565	-0,044	-0,034
-272,613	-77,161	-0,053	-0,013
-271,599	-157,605	0,153	0,007
-270,584	-200,000	-0,010	0,142
-269,570	-74,346	0,089	0,023
-268,555	800,000	-0,031	0,082
-267,540	800,000	-0,026	0,078
-266,526	521,656	0,097	0,166
-265,511	800,000	-0,052	-0,157
-264,497	800,000	-0,035	0,101
-263,482	152,898	-0,043	0,042
-262,467	-200,000	0,001	-0,039
-261,453	800,000	0,029	-0,066
-260,438	-62,803	-0,073	-0,022
-259,424	-78,683	0,014	0,003
-258,409	800,000	0,048	-0,110
-257,395	-200,000	-0,028	0,145
-256,380	800,000	0,035	0,094
-255,365	-179,921	0,074	0,001
-254,351	-58,566	0,108	0,034
-253,336	-140,209	-0,115	-0,009
-252,322	-200,000	0,028	-0,147
-251,307	14,802	-0,064	-0,036
-250,292	-200,000	-0,002	0,037
-249,278	-34,723	0,056	-0,022
-248,263	-200,000	-0,010	-0,040
-247,249	-200,000	-0,007	0,095
-246,234	43,276	-0,058	0,038
-245,219	141,522	-0,064	0,062
-244,205	-95,631	-0,030	0,006
-243,190	279,520	-0,030	-0,039
-242,176	20,401	-0,050	-0,029
-241,161	-200,000	0,005	0,070
-240,146	524,648	0,073	0,124
-239,132	800,000	0,043	-0,098
-238,117	-200,000	0,006	0,058
-237,103	359,516	-0,054	-0,078
-236,088	285,538	-0,049	-0,064
-235,073	-73,209	0,116	0,030
-234,059	100,505	-0,052	-0,044
-233,044	-3,966	0,022	0,011
-232,030	-4,490	-0,115	-0,057
-231,015	-74,405	-0,058	-0,015
-230,000	-33,937	0,112	0,044
-228,986	-200,000	-0,055	-0,180
-227,971	-132,129	-0,007	0,001
-226,957	-200,000	-0,027	-0,109
-225,942	800,000	-0,021	0,061
-224,927	65,172	-0,037	-0,027
-223,913	275,160	-0,028	-0,036
-222,898	-200,000	-0,032	-0,113
-221,884	284,976	-0,034	0,044
-220,869	-86,101	-0,045	-0,010
-219,855	800,000	0,099	-0,210
-218,840	-16,691	-0,087	0,040
-217,825	-200,000	0,009	-0,077
-216,811	-71,385	0,080	-0,022
-215,796	-88,815	-0,041	-0,009
-214,782	-200,000	0,007	0,026
-213,767	206,246	-0,026	-0,029
-212,752	198,493	0,092	0,102
-211,738	800,000	-0,017	-0,050
-210,723	-200,000	-0,029	0,119
-209,709	139,898	-0,043	0,041
-208,694	103,068	-0,063	-0,053
-207,679	334,103	0,047	-0,065
-206,665	28,034	0,033	0,020
-205,650	800,000	-0,019	0,041
-204,636	12,445	0,047	0,026
-203,621	112,544	0,093	0,081
-202,606	800,000	0,046	0,108
-201,592	-54,236	-0,090	-0,029
-200,577	86,503	-0,087	0,069
-199,563	800,000	-0,031	0,093
-198,548	-23,722	0,033	-0,014
-197,533	214,590	0,102	0,117
-196,519	-17,558	0,033	-0,015
-195,504	-200,000	0,005	-0,033
-194,490	-200,000	-0,009	0,102
-193,475	-181,079	0,091	0,001
-192,460	521,975	-0,101	0,172
-191,446	268,329	0,078	0,099
-190,431	-146,861	-0,080	0,005
-189,417	-167,542	-0,157	-0,004
-188,402	393,086	0,077	0,115
-187,387	-167,333	0,057	-0,002
-186,373	-178,866	0,079	-0,001
-185,358	-200,000	0,030	0,099
-184,344	-42,804	0,213	0,078
-183,329	66,967	0,011	-0,008
-182,315	568,982	-0,036	0,064
-181,300	161,771	-0,090	0,091
-180,285	-4,122	0,122	0,061
-179,271	-34,705	-0,038	0,015
-178,256	-1,209	-0,023	0,012
-177,242	22,968	0,090	-0,053
-176,227	279,409	0,059	0,076
-175,212	221,766	0,143	0,166
-174,198	-117,550	0,115	-0,015
-173,183	-117,340	0,033	-0,004
-172,169	800,000	0,059	-0,137
-171,154	-200,000	0,000	-0,015
-170,139	-21,077	0,039	0,017
-169,125	800,000	-0,027	-0,079
-168,110	-77,269	-0,049	0,012
-167,096	192,049	-0,043	0,047
-166,081	-13,436	-0,183	-0,085
-165,066	-200,000	-0,003	-0,147
-164,052	800,000	0,014	-0,029
-163,037	43,350	0,041	-0,027
-162,023	-200,000	0,006	-0,037
-161,008	353,790	-0,024	-0,035
-159,993	-200,000	-0,008	-0,030
-158,979	12,880	-0,128	-0,071
-157,964	-200,000	0,001	-0,028
-156,950	-15,067	-0,069	0,032
-155,935	258,057	0,054	-0,067
-154,920	-132,806	-0,125	-0,011
-153,906	44,923	-0,072	0,048
-152,891	-120,735	0,030	0,004
-151,877	173,915	0,152	-0,158
-150,862	658,318	-0,061	-0,114
-149,847	184,122	-0,009	-0,009
-148,833	-24,172	-0,040	-0,017
-147,818	-27,737	0,103	-0,043
-146,804	-93,472	0,113	-0,022
-145,789	-87,939	0,076	-0,016
-144,775	49,440	0,079	-0,053
-143,760	-37,857	-0,113	-0,043
-142,745	19,495	0,045	0,026
-141,731	290,797	0,056	0,074
-140,716	800,000	-0,074	0,158
-139,702	800,000	-0,024	-0,075
-138,687	-200,000	0,034	0,147
-137,672	-107,942	0,052	0,008
-136,658	-200,000	-0,007	-0,080
-135,643	-150,169	-0,117	-0,006
-134,629	-91,358	0,064	-0,013
-133,614	155,864	-0,025	-0,025
-132,599	32,452	-0,079	0,049
-131,585	800,000	-0,018	0,040
-130,570	44,583	-0,135	-0,089
-129,556	800,000	0,016	-0,037
-128,541	-200,000	0,007	0,088
-127,526	800,000	0,017	0,044
-126,512	-74,071	-0,110	-0,029
-125,497	-200,000	0,016	0,136
-124,483	-2,638	0,060	0,030
-123,468	-48,828	0,026	0,009
-122,453	190,028	-0,089	-0,096
-121,439	-200,000	0,003	-0,065
-120,424	511,196	-0,029	-0,048
