DTS Sentinel unit serial number:	SN410029Multiplexer serial number:	ORYXHardware model number:	OX2-SRSoftware version number:	ORYX F/W v4,00 Oryx Data Collector v3.7.2.0data status	okinstallation	B5 Nyhavnadifferential loss correction	single-endedforward channel	channel 2reverse channel	N/Adate	2023/12/11time	17:07:13forward acquisition time	300,00reverse acquisition time	0,00gamma	499,1914k internal	0,3164k external	0,3164temperature offset calibration	1,0000default loss term (dB/km)	0,3820temperature slope calibration	1,0000multiplexer offset coefficient	1,0000multiplexer slope coefficient	1,0000fibre end	0,00T internal ref (°C)	14,49T ext. ref 1 (°C)	-0,67T ext. ref 2 (°C)	-0,89length (m)	temperature (°C)	Stokes	anti-Stokes-744,400	-200,000	-0,016	-0,073
-743,385	-190,707	-0,228	0,002
-742,371	-30,967	0,252	0,104
-741,356	23,665	-0,193	0,117
-740,342	13,060	0,143	0,081
-739,327	-91,261	-0,225	-0,047
-738,312	-20,005	0,160	-0,072
-737,298	-60,980	-0,250	-0,077
-736,283	-50,562	0,162	0,056
-735,269	-94,680	-0,271	-0,054
-734,254	53,116	0,102	0,072
-733,239	-55,437	-0,464	-0,152
-732,225	117,675	0,148	0,134
-731,210	314,326	0,086	0,119
-730,196	32,410	0,145	-0,092
-729,181	800,000	0,029	0,092
-728,167	-200,000	-0,011	0,083
-727,152	-46,414	-0,079	0,028
-726,137	800,000	0,022	-0,047
-725,123	356,248	-0,093	-0,137
-724,108	-39,136	-0,102	-0,039
-723,094	-200,000	-0,006	-0,107
-722,079	140,052	-0,073	-0,070
-721,064	317,839	0,010	0,014
-720,050	627,828	0,072	-0,134
-719,035	-85,155	-0,112	-0,026
-718,021	98,424	0,136	-0,115
-717,006	369,591	-0,074	-0,110
-715,991	800,000	0,078	-0,182
-714,977	-186,429	0,051	-0,001
-713,962	164,134	0,043	0,044
-712,948	0,321	-0,069	-0,036
-711,933	800,000	-0,037	-0,111
-710,918	664,945	0,019	0,037
-709,904	800,000	-0,041	-0,095
-708,889	-0,466	-0,113	-0,059
-707,875	-111,413	-0,161	-0,024
-706,860	-25,119	-0,012	0,005
-705,845	-56,357	0,081	0,026
-704,831	132,377	0,116	-0,110
-703,816	115,763	-0,076	-0,068
-702,802	185,667	-0,033	0,036
-701,787	344,799	-0,094	-0,136
-700,772	-200,000	0,024	-0,096
-699,758	-147,644	-0,124	0,008
-698,743	-169,356	0,032	-0,001
-697,729	169,814	0,169	0,177
-696,714	-128,779	0,068	-0,007
-695,699	497,241	0,071	-0,120
-694,685	-133,911	-0,133	0,012
-693,670	134,045	0,077	-0,073
-692,656	-65,959	-0,133	-0,039
-691,641	12,354	0,083	0,047
-690,627	198,005	-0,015	0,017
-689,612	-47,592	0,049	0,017
-688,597	-1,539	-0,014	-0,007
-687,583	-122,368	-0,096	-0,011
-686,568	123,017	0,056	-0,051
-685,554	-49,992	-0,047	0,016
-684,539	-27,791	-0,082	-0,035
-683,524	-200,000	0,003	-0,022
-682,510	-200,000	-0,004	0,024
-681,495	-119,745	-0,065	0,008
-680,481	800,000	0,043	-0,102
-679,466	-44,291	-0,138	0,051
-678,451	-105,466	0,054	0,009
-677,437	-200,000	0,008	-0,096
-676,422	-100,151	0,075	-0,013
-675,408	-33,776	0,042	-0,017
-674,393	-138,422	-0,132	0,010
-673,378	-200,000	0,014	0,047
-672,364	632,952	-0,046	-0,086
-671,349	-200,000	0,002	-0,032
-670,335	230,832	0,056	0,067
-669,320	800,000	0,017	-0,052
-668,305	800,000	-0,042	-0,109
-667,291	30,078	-0,130	-0,081
-666,276	800,000	-0,051	-0,127
-665,262	-200,000	0,066	-0,220
-664,247	-200,000	-0,095	0,000
-663,232	23,602	0,070	0,042
-662,218	800,000	-0,023	-0,067
-661,203	9,002	0,032	0,018
-660,189	-200,000	-0,005	0,055
-659,174	-135,578	-0,197	-0,017
-658,159	-70,847	-0,067	0,018
-657,145	297,882	0,007	0,009
-656,130	-200,000	0,003	0,079
-655,116	800,000	0,021	-0,054
-654,101	424,082	-0,062	0,098
-653,086	298,438	0,015	-0,020
-652,072	751,959	-0,073	-0,145
-651,057	-83,229	0,019	0,004
-650,043	-70,525	0,124	-0,034
-649,028	8,152	-0,127	0,070
-648,014	272,299	-0,046	-0,060
-646,999	176,098	-0,082	-0,088
-645,984	211,207	0,061	0,070
-644,970	26,678	-0,008	0,005
-643,955	-200,000	-0,000	-0,011
-642,941	224,242	0,061	0,072
-641,926	-88,056	0,041	-0,009
-640,911	174,013	0,049	0,052
-639,897	-200,000	0,023	0,148
-638,882	-200,000	-0,022	0,100
-637,868	-55,916	-0,060	-0,020
-636,853	121,137	-0,075	-0,069
-635,838	-5,969	0,018	0,009
-634,824	-56,592	-0,030	-0,010
-633,809	24,685	0,103	-0,063
-632,795	800,000	-0,007	0,023
-631,780	800,000	-0,053	0,143
-630,765	78,943	-0,198	0,155
-629,751	33,882	0,043	-0,027
-628,736	-200,000	0,004	-0,131
-627,722	-200,000	0,009	-0,071
-626,707	-77,555	0,050	0,013
-625,692	-131,755	-0,058	0,006
-624,678	-84,383	0,205	-0,047
-623,663	-101,036	-0,011	-0,002
-622,649	69,220	0,018	0,014
-621,634	-200,000	-0,012	-0,078
-620,619	583,994	-0,082	-0,149
-619,605	17,525	0,140	0,081
-618,590	-200,000	-0,026	0,122
-617,576	-200,000	0,010	-0,033
-616,561	-200,000	-0,010	-0,173
-615,546	319,039	-0,132	-0,184
-614,532	387,993	0,019	-0,030
-613,517	-38,975	-0,096	-0,037
-612,503	-35,294	0,128	-0,051
-611,488	800,000	0,047	-0,111
-610,474	800,000	0,073	0,189
-609,459	66,377	0,044	-0,033
-608,444	-20,666	-0,024	-0,011
-607,430	-99,733	-0,123	0,022
-606,415	45,470	-0,086	-0,058
-605,401	109,283	-0,056	-0,049
-604,386	265,639	-0,041	-0,052
-603,371	136,943	-0,096	0,091
-602,357	321,648	-0,045	0,062
-601,342	-157,743	-0,026	0,001
-600,328	-56,042	-0,095	0,031
-599,313	-200,000	0,012	-0,060
-598,298	-103,580	0,105	0,018
-597,284	-24,838	-0,119	-0,051
-596,269	-125,196	0,012	0,001
-595,255	-200,000	-0,010	0,035
-594,240	-154,479	-0,135	-0,007
-593,225	-200,000	-0,014	-0,048
-592,211	587,819	-0,031	0,056
-591,196	-63,537	-0,027	-0,008
-590,182	51,362	-0,074	0,051
-589,167	-106,439	0,119	-0,019
-588,152	128,529	-0,013	-0,012
-587,138	-200,000	-0,016	-0,132
-586,123	-52,123	-0,098	-0,033
-585,109	332,116	-0,119	-0,169
-584,094	-108,524	-0,047	0,007
-583,079	800,000	-0,036	0,113
-582,065	800,000	0,045	0,092
-581,050	317,145	0,035	0,049
-580,036	-148,390	-0,076	0,005
-579,021	-107,238	0,068	0,011
-578,006	-17,169	0,057	-0,026
-576,992	-200,000	0,008	-0,050
-575,977	101,368	-0,145	-0,124
-574,963	-43,344	-0,092	0,034
-573,948	35,527	0,096	0,061
-572,934	-200,000	-0,004	-0,054
-571,919	-84,609	0,127	0,029
-570,904	-39,672	0,117	-0,045
-569,890	74,098	-0,026	0,020
-568,875	12,084	0,120	0,067
-567,861	708,781	-0,058	-0,112
-566,846	-134,734	0,034	-0,003
-565,831	-200,000	-0,010	-0,062
-564,817	800,000	-0,039	-0,079
-563,802	94,857	-0,106	-0,088
-562,788	232,904	-0,036	-0,044
-561,773	211,911	0,092	-0,107
-560,758	-200,000	0,032	0,148
-559,744	399,403	-0,064	0,098
-558,729	203,823	-0,121	0,137
-557,715	417,711	-0,008	-0,013
-556,700	-90,073	-0,020	0,004
-555,685	613,044	0,031	-0,058
-554,671	160,125	-0,043	0,044
-553,656	-200,000	0,001	-0,085
-552,642	76,251	0,063	0,049
-551,627	-200,000	0,004	-0,052
-550,612	-36,586	-0,110	-0,043
-549,598	-200,000	-0,012	-0,132
-548,583	-200,000	-0,013	-0,148
-547,569	800,000	-0,046	-0,116
-546,554	-75,057	-0,057	0,015
-545,539	800,000	0,019	0,043
-544,525	800,000	0,068	-0,155
-543,510	-200,000	0,003	0,010
-542,496	-184,583	-0,048	0,001
-541,481	-9,202	-0,087	-0,042
-540,466	800,000	0,038	-0,078
-539,452	-200,000	0,001	-0,059
-538,437	43,692	0,135	0,090
-537,423	606,520	-0,055	-0,101
-536,408	0,347	0,121	-0,063
-535,393	800,000	0,023	0,050
-534,379	-17,756	0,050	0,023
-533,364	-141,887	0,045	-0,003
-532,350	-200,000	-0,021	-0,121
-531,335	800,000	-0,028	0,080
-530,321	-200,000	-0,016	0,057
-529,306	143,657	0,019	0,018
-528,291	295,415	-0,058	0,077
-527,277	168,284	-0,075	-0,078
-526,262	35,454	-0,012	0,007
-525,248	-200,000	0,028	0,119
-524,233	248,963	0,077	0,095
-523,218	119,645	0,102	0,092
-522,204	265,538	-0,050	-0,064
-521,189	41,465	0,165	-0,109
-520,175	126,135	0,135	-0,124
-519,160	10,702	0,104	0,058
-518,145	571,991	0,042	0,075
-517,131	-58,419	0,036	0,011
-516,116	37,867	0,073	-0,047
-515,102	251,041	-0,058	0,072
-514,087	-200,000	0,016	-0,096
-513,072	-104,309	-0,262	-0,044
-512,058	-41,497	0,032	0,012
-511,043	-24,490	-0,064	0,028
-510,029	19,167	0,156	0,091
-509,014	-44,688	0,110	-0,040
-507,999	800,000	-0,043	0,096
-506,985	-200,000	-0,023	-0,156
-505,970	600,635	-0,032	-0,057
-504,956	-1,033	-0,062	0,032
-503,941	-200,000	0,016	-0,133
-502,926	-200,000	0,037	0,157
-501,912	738,843	-0,047	0,092
-500,897	-40,383	0,077	0,029
-499,883	-78,050	0,086	-0,021
-498,868	530,910	-0,052	0,090
-497,853	-18,032	0,059	0,027
-496,839	92,225	-0,122	0,100
-495,824	800,000	0,066	0,169
-494,810	-113,552	0,106	0,015
-493,795	-200,000	0,023	-0,157
-492,781	466,528	0,084	0,137
-491,766	800,000	0,047	-0,121
-490,751	-100,181	0,062	-0,011
-489,737	-53,506	-0,111	-0,037
-488,722	-160,095	0,155	0,006
-487,708	97,786	0,092	0,077
-486,693	213,969	-0,029	-0,034
-485,678	800,000	-0,043	0,105
-484,664	-30,440	-0,092	-0,038
-483,649	-51,743	-0,161	-0,054
-482,635	705,308	-0,038	0,073
-481,620	5,220	0,101	0,054
-480,605	-160,756	-0,150	0,006
-479,591	-200,000	0,001	-0,022
-478,576	-200,000	-0,019	-0,119
-477,562	154,505	-0,055	-0,055
-476,547	-38,798	0,098	-0,038
-475,532	-200,000	-0,015	-0,142
-474,518	472,625	0,063	0,104
-473,503	-200,000	-0,020	0,065
-472,489	328,250	0,059	0,082
-471,474	14,877	0,094	-0,053
-470,459	-96,125	0,061	0,012
-469,445	-200,000	0,014	-0,054
-468,430	490,493	0,052	-0,086
-467,416	-81,227	0,105	-0,025
-466,401	-39,397	0,037	-0,014
-465,386	-7,673	0,015	-0,007
-464,372	-83,649	-0,088	0,020
-463,357	-148,275	-0,128	-0,008
-462,343	317,106	-0,051	-0,071
-461,328	-200,000	0,024	-0,082
-460,313	90,777	0,079	0,064
-459,299	-200,000	0,018	-0,076
-458,284	-200,000	0,012	0,058
-457,270	-155,350	-0,151	-0,007
-456,255	800,000	-0,016	0,052
-455,241	64,005	0,097	0,071
-454,226	154,909	0,038	0,038
-453,211	179,941	0,039	-0,042
-452,197	-29,605	-0,056	-0,023
-451,182	800,000	-0,022	-0,067
-450,168	407,329	0,018	0,028
-449,153	85,020	-0,098	-0,078
-448,138	-61,732	0,069	0,021
-447,124	-34,039	0,142	-0,056
-446,109	800,000	-0,045	-0,130
-445,095	-7,541	-0,027	-0,013
-444,080	116,383	0,029	0,025
-443,065	635,609	-0,063	0,116
-442,051	-137,467	0,076	0,006
-441,036	-109,731	0,051	-0,008
-440,022	761,078	-0,039	-0,077
-439,007	-163,968	0,098	0,003
-437,992	21,161	-0,070	0,041
-436,978	-44,368	0,119	-0,043
-435,963	30,232	0,060	0,037
-434,949	-60,646	-0,038	0,012
-433,934	-200,000	-0,032	-0,105
-432,919	334,004	0,051	0,072
-431,905	-200,000	-0,008	0,075
-430,890	-25,956	-0,024	0,010
-429,876	160,460	0,082	0,083
-428,861	270,887	-0,082	-0,106
-427,846	47,926	0,034	-0,023
-426,832	698,744	-0,026	-0,050
-425,817	439,752	0,052	-0,083
-424,803	-127,386	-0,095	-0,010
-423,788	67,661	0,066	0,049
-422,773	800,000	0,047	0,103
-421,759	-130,198	-0,086	0,008
-420,744	140,215	0,009	0,008
-419,730	148,845	-0,096	-0,094
-418,715	-200,000	0,004	-0,066
-417,701	-127,489	-0,091	0,009
-416,686	-200,000	0,017	0,098
-415,671	109,541	0,075	0,065
-414,657	601,370	-0,037	0,068
-413,642	800,000	0,011	-0,030
-412,628	228,849	0,029	-0,034
-411,613	312,475	0,026	-0,036
-410,598	105,845	-0,074	0,064
-409,584	242,021	-0,103	-0,125
-408,569	309,142	0,029	0,039
-407,555	800,000	0,038	0,113
-406,540	8,723	-0,094	-0,051
-405,525	-44,632	-0,113	-0,041
-404,511	-95,879	-0,159	0,031
-403,496	-200,000	0,025	-0,104
-402,482	-200,000	-0,017	-0,116
-401,467	263,392	0,016	-0,020
-400,452	669,699	-0,032	0,060
-399,438	-124,872	0,083	0,009
-398,423	-35,320	-0,106	-0,042
-397,409	-43,399	-0,117	0,043
-396,394	190,284	-0,082	-0,089
-395,379	800,000	0,027	-0,070
-394,365	-165,269	0,141	-0,004
-393,350	-64,160	0,069	-0,020
-392,336	370,236	0,058	0,086
-391,321	461,282	-0,020	-0,033
-390,306	387,737	0,010	0,014
-389,292	-200,000	-0,007	-0,088
-388,277	-200,000	0,018	-0,078
-387,263	-157,893	-0,065	-0,003
-386,248	-107,150	-0,102	0,016
-385,233	-81,674	0,103	-0,024
-384,219	522,375	-0,043	-0,073
-383,204	44,304	-0,159	-0,105
-382,190	-200,000	0,009	-0,241
-381,175	-200,000	-0,008	0,107
-380,160	156,013	-0,037	-0,037
-379,146	-200,000	-0,012	0,065
-378,131	-45,070	0,063	0,023
-377,117	746,821	-0,017	-0,033
-376,102	107,232	-0,073	0,063
-375,088	326,396	-0,031	-0,043
-374,073	800,000	-0,035	0,095
-373,058	141,671	-0,002	0,002
-372,044	475,697	-0,027	-0,045
-371,029	800,000	-0,041	-0,095
-370,015	-81,789	-0,063	0,015
-369,000	-200,000	0,016	-0,096
-367,985	800,000	-0,009	0,027
-366,971	-82,551	-0,058	-0,013
-365,956	-192,888	0,117	-0,001
-364,942	563,120	-0,081	0,143
-363,927	-200,000	-0,003	0,084
-362,912	-200,000	0,038	0,152
-361,898	374,561	0,038	-0,056
-360,883	49,980	0,062	-0,042
-359,869	206,616	-0,079	-0,089
-358,854	467,277	0,043	-0,070
-357,839	-200,000	0,005	0,081
-356,825	30,460	0,045	-0,028
-355,810	-155,460	-0,026	-0,001
-354,796	126,343	0,035	0,032
-353,781	-200,000	0,001	-0,072
-352,766	407,165	-0,042	-0,064
-351,752	-134,384	0,119	-0,010
-350,737	214,198	-0,089	0,102
-349,723	39,767	0,069	-0,045
-348,708	-200,000	-0,030	0,110
-347,693	164,947	0,067	0,069
-346,679	104,957	0,057	-0,048
-345,664	267,041	-0,031	-0,040
-344,650	79,464	0,059	0,046
-343,635	-200,000	-0,005	0,052
-342,620	86,275	0,034	-0,027
-341,606	-200,000	0,034	-0,120
-340,591	-200,000	-0,006	-0,045
-339,577	522,750	-0,079	-0,135
-338,562	-200,000	0,007	0,027
-337,548	-9,918	-0,066	0,032
-336,533	379,037	-0,017	0,025
-335,518	119,226	0,052	-0,047
-334,504	387,809	-0,045	-0,068
-333,489	145,830	0,028	-0,027
-332,475	578,705	0,082	-0,145
-331,460	-200,000	-0,028	-0,134
-330,445	-200,000	0,029	-0,110
-329,431	-200,000	0,023	0,087
-328,416	-108,279	0,063	0,010
-327,402	800,000	-0,007	0,014
-326,387	800,000	0,052	0,115
-325,372	97,541	-0,119	0,099
-324,358	342,963	-0,044	-0,063
-323,343	-46,451	0,005	0,002
-322,329	694,089	0,017	-0,033
-321,314	326,360	-0,062	0,086
-320,299	-200,000	0,002	0,190
-319,285	88,321	0,034	-0,027
-318,270	185,335	-0,060	0,065
-317,256	800,000	0,046	0,099
-316,241	-200,000	-0,012	-0,050
-315,226	-200,000	-0,009	0,079
-314,212	9,366	0,124	0,068
-313,197	102,268	-0,090	0,076
-312,183	293,437	-0,058	0,077
-311,168	149,406	0,067	0,066
-310,153	199,737	0,032	0,036
-309,139	-200,000	-0,008	-0,028
-308,124	220,911	0,098	0,114
-307,110	-78,637	0,115	0,028
-306,095	-200,000	0,007	-0,197
-305,080	85,861	0,097	0,077
-304,066	10,812	0,051	0,028
-303,051	-200,000	-0,032	0,114
-302,037	-87,190	-0,085	0,018
-301,022	-88,316	-0,094	-0,020
-300,008	155,241	-0,068	0,067
-298,993	-57,268	0,097	0,031
-297,978	800,000	-0,042	0,130
-296,964	23,252	-0,076	0,045
-295,949	800,000	-0,001	0,004
-294,935	-200,000	0,026	-0,115
-293,920	-41,951	0,062	0,023
-292,905	17,607	-0,131	0,075
-291,891	-101,694	0,015	-0,003
-290,876	365,984	0,123	-0,180
-289,862	196,344	-0,129	-0,142
-288,847	33,336	0,097	0,061
-287,832	359,144	0,068	-0,099
-286,818	-200,000	-0,010	0,037
-285,803	42,745	0,141	-0,093
-284,789	800,000	-0,040	0,108
-283,774	616,742	-0,031	-0,056
-282,759	401,421	0,024	0,037
-281,745	-88,529	0,117	-0,025
-280,730	471,858	-0,048	-0,078
-279,716	-142,002	-0,070	0,005
-278,701	-200,000	-0,009	-0,060
-277,686	269,336	-0,050	-0,064
-276,672	270,782	-0,007	0,009
-275,657	-200,000	0,026	0,178
-274,643	800,000	-0,084	-0,177
-273,628	-52,562	0,076	0,025
-272,613	800,000	0,023	0,051
-271,599	-200,000	-0,016	-0,083
-270,584	127,253	-0,042	-0,039
-269,570	173,537	0,012	-0,012
-268,555	-23,022	0,081	0,035
-267,540	333,336	0,065	0,092
-266,526	-2,235	-0,108	-0,055
-265,511	-200,000	0,005	0,018
-264,497	-76,364	0,179	-0,045
-263,482	-200,000	-0,016	-0,080
-262,467	447,309	0,019	0,030
-261,453	191,956	-0,065	0,071
-260,438	150,991	0,045	0,045
-259,424	-38,180	-0,113	0,043
-258,409	247,300	-0,063	-0,077
-257,395	68,527	-0,079	-0,058
-256,380	37,259	0,098	0,063
-255,365	81,848	0,134	0,105
-254,351	800,000	-0,044	0,128
-253,336	303,092	-0,054	0,073
-252,322	108,373	-0,039	0,033
-251,307	-200,000	-0,047	0,152
-250,292	327,075	0,019	-0,027
-249,278	-37,537	0,175	0,067
-248,263	800,000	-0,054	0,133
-247,249	105,116	0,034	0,029
-246,234	165,056	-0,057	0,058
-245,219	-200,000	-0,015	-0,051
-244,205	297,907	-0,035	0,046
-243,190	-9,364	0,051	0,025
-242,176	-40,135	0,132	0,049
-241,161	-200,000	-0,038	0,123
-240,146	301,453	0,034	0,045
-239,132	191,699	-0,059	0,064
-238,117	145,089	0,061	0,058
-237,103	23,771	-0,099	0,059
-236,088	-66,734	0,106	0,030
-235,073	-200,000	0,064	-0,219
-234,059	46,592	0,094	0,063
-233,044	404,079	-0,048	-0,072
-232,030	-4,382	0,113	0,056
-231,015	-90,923	-0,107	0,022
-230,000	206,325	0,093	-0,105
-228,986	37,955	0,025	0,016
-227,971	-35,273	0,107	0,042
-226,957	124,011	0,014	-0,013
-225,942	-63,033	0,153	0,045
-224,927	-193,976	-0,126	0,001
-223,913	173,511	-0,082	-0,086
-222,898	-29,680	0,063	-0,026
-221,884	486,838	-0,079	0,130
-220,869	-95,388	0,136	-0,026
-219,855	25,297	-0,057	-0,034
-218,840	-107,959	0,092	0,014
-217,825	-98,922	-0,258	0,047
-216,811	40,419	0,113	0,073
-215,796	-47,161	-0,203	-0,071
-214,782	800,000	0,041	0,097
-213,767	39,183	0,009	0,006
-212,752	473,660	-0,041	0,067
-211,738	-200,000	0,008	-0,050
-210,723	-130,056	-0,147	-0,014
-209,709	41,163	0,061	0,040
-208,694	9,325	-0,075	0,041
-207,679	93,602	0,069	-0,056
-206,665	-29,800	-0,130	-0,053
-205,650	-200,000	-0,016	0,073
-204,636	93,956	0,092	0,075
-203,621	800,000	-0,037	-0,082
-202,606	-120,440	0,160	0,019
-201,592	-31,458	-0,104	0,042
-200,577	296,359	-0,062	-0,082
-199,563	-143,992	-0,093	0,006
-198,548	-164,015	-0,040	-0,001
-197,533	-1,182	-0,019	0,010
-196,519	-27,249	-0,152	-0,064
-195,504	800,000	-0,027	0,076
-194,490	-69,499	0,119	0,032
-193,475	-55,871	-0,078	-0,025
-192,460	-200,000	-0,013	-0,148
-191,446	82,704	0,012	-0,009
-190,431	106,777	-0,061	0,052
-189,417	-200,000	-0,021	-0,131
-188,402	137,668	-0,034	0,032
-187,387	-200,000	-0,023	0,088
-186,373	-16,995	0,106	0,048
-185,358	800,000	-0,066	-0,160
-184,344	-200,000	0,027	0,125
-183,329	800,000	0,076	0,230
-182,315	573,335	0,060	-0,106
-181,300	424,131	-0,064	-0,099
-180,285	95,524	0,120	-0,098
-179,271	95,740	-0,049	0,040
-178,256	-21,227	0,058	0,026
-177,242	663,072	0,091	0,169
-176,227	-59,005	0,097	0,030
-175,212	630,262	-0,034	-0,061
-174,198	304,581	-0,118	-0,158
-173,183	-9,162	-0,076	-0,036
-172,169	-66,578	-0,093	0,026
-171,154	-200,000	0,016	-0,063
-170,139	49,050	0,088	-0,059
-169,125	-200,000	0,025	0,100
-168,110	-200,000	-0,013	-0,078
-167,096	800,000	-0,034	0,076
-166,081	800,000	0,006	-0,014
-165,066	72,974	-0,027	-0,020
-164,052	-4,972	0,042	0,021
-163,037	-29,457	0,088	-0,036
-162,023	-200,000	-0,037	0,158
-161,008	800,000	0,060	0,128
-159,993	-200,000	0,014	0,116
-158,979	527,256	0,064	0,108
-157,964	131,184	0,054	-0,050
-156,950	-200,000	-0,014	0,102
-155,935	49,281	0,046	-0,031
-154,920	27,792	0,051	0,031
-153,906	800,000	0,031	-0,074
-152,891	-200,000	0,012	0,140
-151,877	-200,000	-0,015	-0,075
-150,862	-36,362	-0,147	0,057
-149,847	36,265	0,089	-0,056
-148,833	-56,426	-0,090	0,028
-147,818	477,148	0,048	0,078
-146,804	85,109	-0,076	-0,060
-145,789	-75,766	0,145	-0,037
-144,775	-200,000	-0,015	-0,110
-143,760	-200,000	-0,010	-0,048
-142,745	-12,806	0,046	-0,021
-141,731	800,000	0,064	-0,142
-140,716	-9,212	0,131	-0,063
-139,702	42,333	0,085	0,056
-138,687	171,814	-0,119	0,122
-137,672	67,877	0,065	0,048
-136,658	638,884	-0,018	-0,033
-135,643	129,770	-0,026	0,024
-134,629	-120,712	0,055	-0,007
-133,614	331,180	-0,051	0,071
-132,599	-143,085	-0,114	0,008
-131,585	-66,080	-0,112	0,032
-130,570	22,136	0,114	0,067
-129,556	55,411	-0,115	-0,080
-128,541	800,000	0,013	0,037
-127,526	-22,183	0,098	0,043
-126,512	-54,330	-0,070	0,023
-125,497	-47,838	0,168	0,058
-124,483	800,000	0,018	0,051
-123,468	-200,000	0,014	0,053
-122,453	26,675	-0,075	-0,045
-121,439	-46,936	0,120	-0,042
-120,424	142,845	-0,063	0,061
-119,410	800,000	0,027	-0,075
-118,395	-200,000	-0,012	0,108
