DTS Sentinel unit serial number:	SN410029Multiplexer serial number:	ORYXHardware model number:	OX2-SRSoftware version number:	ORYX F/W v4,00 Oryx Data Collector v3.7.2.0data status	okinstallation	B5 Nyhavnadifferential loss correction	single-endedforward channel	channel 2reverse channel	N/Adate	2023/12/14time	12:07:13forward acquisition time	300,00reverse acquisition time	0,00gamma	499,1914k internal	0,3158k external	0,3158temperature offset calibration	1,0000default loss term (dB/km)	0,3820temperature slope calibration	1,0000multiplexer offset coefficient	1,0000multiplexer slope coefficient	1,0000fibre end	0,00T internal ref (°C)	7,68T ext. ref 1 (°C)	-7,84T ext. ref 2 (°C)	-7,86length (m)	temperature (°C)	Stokes	anti-Stokes-744,400	-147,390	0,164	-0,010
-743,385	-158,135	-0,322	-0,014
-742,371	102,955	0,075	0,065
-741,356	-150,163	-0,341	0,019
-740,342	36,716	0,214	0,139
-739,327	-152,883	-0,456	-0,023
-738,312	-82,063	0,070	0,017
-737,298	-2,503	-0,423	-0,218
-736,283	59,461	0,227	0,165
-735,269	-92,406	-0,281	-0,058
-734,254	-112,903	0,202	-0,029
-733,239	27,853	-0,485	-0,300
-732,225	39,628	0,220	0,145
-731,210	2,438	-0,035	0,019
-730,196	233,509	-0,025	0,030
-729,181	-144,962	0,090	0,006
-728,167	-200,000	-0,005	-0,061
-727,152	194,634	0,070	-0,078
-726,137	312,703	-0,052	-0,072
-725,123	641,731	-0,042	-0,079
-724,108	84,522	-0,056	-0,045
-723,094	650,474	-0,043	-0,081
-722,079	98,953	-0,097	0,082
-721,064	800,000	-0,027	-0,062
-720,050	800,000	0,029	-0,072
-719,035	153,455	-0,039	0,040
-718,021	-28,742	-0,036	-0,015
-717,006	324,506	0,056	-0,079
-715,991	-36,791	0,079	0,031
-714,977	116,640	-0,120	-0,109
-713,962	263,085	-0,056	-0,072
-712,948	5,111	0,107	-0,058
-711,933	-75,848	-0,105	0,027
-710,918	671,597	-0,050	-0,096
-709,904	-200,000	0,008	-0,038
-708,889	16,056	0,063	0,037
-707,875	224,404	-0,059	-0,071
-706,860	800,000	-0,005	0,012
-705,845	101,956	-0,067	-0,057
-704,831	222,321	0,059	-0,070
-703,816	-164,067	0,030	0,001
-702,802	771,147	-0,067	-0,134
-701,787	-140,833	-0,085	-0,006
-700,772	137,079	0,027	0,026
-699,758	-200,000	-0,008	-0,113
-698,743	495,371	0,040	0,067
-697,729	800,000	-0,017	-0,048
-696,714	-127,642	-0,033	-0,004
-695,699	-200,000	-0,006	0,037
-694,685	800,000	-0,033	-0,089
-693,670	800,000	0,029	-0,093
-692,656	800,000	0,036	0,114
-691,641	236,543	0,015	-0,019
-690,627	-200,000	-0,008	0,055
-689,612	-200,000	0,000	-0,024
-688,597	-131,260	0,070	0,007
-687,583	115,914	0,109	0,098
-686,568	-200,000	-0,023	-0,126
-685,554	-24,610	-0,131	-0,057
-684,539	-79,343	-0,133	-0,033
-683,524	613,791	-0,065	0,120
-682,510	359,241	-0,112	0,165
-681,495	383,232	0,017	0,026
-680,481	-159,293	0,065	0,003
-679,466	337,315	-0,023	-0,033
-678,451	-166,110	0,051	-0,002
-677,437	525,234	-0,035	0,061
-676,422	73,560	-0,064	0,049
-675,408	34,665	0,090	-0,058
-674,393	800,000	-0,042	-0,092
-673,378	800,000	0,025	-0,071
-672,364	-78,175	-0,123	-0,031
-671,349	-200,000	-0,013	-0,045
-670,335	54,705	-0,072	0,051
-669,320	800,000	0,055	0,150
-668,305	37,740	0,119	0,078
-667,291	168,932	-0,171	-0,179
-666,276	800,000	-0,033	-0,103
-665,262	39,059	0,062	-0,040
-664,247	620,065	-0,027	-0,050
-663,232	-200,000	-0,009	-0,061
-662,218	800,000	0,050	0,112
-661,203	48,654	0,070	0,048
-660,189	800,000	-0,052	0,137
-659,174	103,339	0,107	0,092
-658,159	800,000	-0,049	-0,156
-657,145	800,000	-0,061	-0,197
-656,130	-57,768	-0,161	0,051
-655,116	-27,246	-0,052	-0,022
-654,101	-26,297	-0,018	0,008
-653,086	147,424	0,060	0,059
-652,072	231,512	-0,090	-0,108
-651,057	46,489	-0,121	-0,082
-650,043	128,407	0,079	-0,074
-649,028	-200,000	0,010	-0,049
-648,014	800,000	-0,039	0,121
-646,999	-148,029	-0,040	0,002
-645,984	-200,000	0,009	0,058
-644,970	-200,000	0,001	0,084
-643,955	24,009	-0,069	0,042
-642,941	800,000	-0,023	-0,073
-641,926	-107,419	0,140	0,022
-640,911	-200,000	-0,012	-0,061
-639,897	-200,000	-0,001	0,118
-638,882	-104,210	-0,105	0,018
-637,868	-200,000	0,020	0,102
-636,853	75,350	0,008	0,007
-635,838	-144,399	0,076	-0,005
-634,824	-200,000	-0,003	-0,020
-633,809	-137,306	-0,033	0,003
-632,795	-36,855	-0,063	0,025
-631,780	-134,613	0,031	0,003
-630,765	481,742	-0,037	-0,061
-629,751	47,399	-0,168	-0,115
-628,736	-200,000	-0,025	-0,134
-627,722	-161,889	0,126	0,005
-626,707	83,924	-0,083	-0,066
-625,692	6,724	0,070	0,038
-624,678	800,000	-0,036	-0,112
-623,663	555,622	-0,035	0,062
-622,649	-81,360	-0,163	-0,039
-621,634	-116,935	-0,079	-0,011
-620,619	-200,000	-0,028	-0,134
-619,605	-42,930	0,138	0,051
-618,590	103,551	-0,058	0,050
-617,576	22,691	-0,027	-0,016
-616,561	397,668	-0,059	0,090
-615,546	-147,042	-0,085	0,005
-614,532	-64,084	-0,056	0,017
-613,517	-200,000	0,032	0,151
-612,503	185,150	0,033	0,036
-611,488	800,000	-0,053	-0,118
-610,474	-200,000	0,001	0,102
-609,459	-43,517	-0,144	0,053
-608,444	-200,000	-0,006	0,029
-607,430	-96,077	-0,150	-0,029
-606,415	103,970	-0,105	0,090
-605,401	-133,406	-0,100	-0,009
-604,386	54,667	0,081	0,057
-603,371	-58,620	-0,090	0,029
-602,357	-7,248	0,056	-0,028
-601,342	-138,773	-0,032	-0,003
-600,328	-27,902	0,025	0,010
-599,313	-200,000	-0,013	-0,079
-598,298	-200,000	0,008	-0,044
-597,284	-39,651	0,026	-0,010
-596,269	-200,000	0,003	-0,115
-595,255	800,000	0,039	-0,108
-594,240	-11,830	-0,126	-0,060
-593,225	-0,663	0,093	0,048
-592,211	196,976	-0,051	-0,057
-591,196	800,000	-0,021	0,068
-590,182	-107,713	-0,042	-0,007
-589,167	198,852	0,108	0,121
-588,152	-133,917	-0,087	-0,008
-587,138	-86,608	-0,156	0,035
-586,123	450,235	0,051	0,083
-585,109	-200,000	0,005	-0,185
-584,094	800,000	0,084	-0,188
-583,079	603,753	-0,032	0,059
-582,065	191,295	0,043	0,047
-581,050	3,382	-0,018	-0,010
-580,036	486,416	0,067	0,112
-579,021	-81,740	-0,176	-0,042
-578,006	-6,578	-0,243	0,121
-576,992	-20,118	-0,094	-0,042
-575,977	-200,000	0,008	-0,051
-574,963	-200,000	-0,018	-0,094
-573,948	45,108	0,023	-0,016
-572,934	276,830	0,092	-0,120
-571,919	529,854	-0,034	-0,058
-570,904	430,174	-0,047	-0,074
-569,890	84,642	-0,095	0,076
-568,875	-200,000	0,025	0,137
-567,861	210,805	-0,049	0,056
-566,846	-172,395	0,064	0,001
-565,831	800,000	-0,043	-0,095
-564,817	800,000	-0,093	-0,220
-563,802	-62,907	-0,104	-0,031
-562,788	-200,000	0,001	0,031
-561,773	19,425	0,066	-0,039
-560,758	-200,000	0,006	-0,063
-559,744	493,551	-0,050	0,085
-558,729	-200,000	0,025	0,082
-557,715	800,000	-0,024	-0,061
-556,700	-200,000	-0,004	-0,053
-555,685	-103,174	0,078	-0,013
-554,671	-122,899	-0,061	-0,007
-553,656	-55,817	-0,074	-0,024
-552,642	-98,088	0,121	-0,023
-551,627	159,296	-0,032	0,033
-550,612	123,654	0,080	0,073
-549,598	-200,000	0,026	0,084
-548,583	107,938	-0,073	-0,064
-547,569	-74,436	-0,051	-0,013
-546,554	124,078	0,053	0,048
-545,539	-57,255	0,028	-0,009
-544,525	-200,000	-0,002	0,133
-543,510	-28,437	0,063	-0,027
-542,496	-22,781	0,102	0,045
-541,481	183,696	-0,101	-0,110
-540,466	-32,555	0,023	0,009
-539,452	-48,096	0,097	-0,034
-538,437	63,188	0,075	0,055
-537,423	-51,337	-0,031	-0,010
-536,408	800,000	-0,027	0,074
-535,393	347,804	-0,006	0,008
-534,379	-200,000	-0,030	-0,104
-533,364	-200,000	0,011	-0,059
-532,350	800,000	0,057	0,130
-531,335	88,903	0,101	-0,082
-530,321	-71,316	-0,180	-0,049
-529,306	-11,955	0,153	-0,073
-528,291	-56,366	-0,026	-0,008
-527,277	210,599	-0,058	0,067
-526,262	56,140	0,165	0,117
-525,248	90,124	-0,044	-0,036
-524,233	55,411	0,203	0,144
-523,218	-49,640	-0,056	0,019
-522,204	232,281	-0,065	-0,078
-521,189	800,000	0,037	-0,077
-520,175	129,848	-0,059	-0,055
-519,160	247,980	-0,061	-0,076
-518,145	-200,000	-0,002	-0,018
-517,131	653,985	0,079	0,149
-516,116	396,649	-0,041	0,062
-515,102	-17,082	0,043	0,020
-514,087	-138,092	-0,096	-0,008
-513,072	800,000	0,041	-0,089
-512,058	-40,812	0,047	0,018
-511,043	-31,914	-0,053	-0,022
-510,029	-200,000	-0,005	0,066
-509,014	-90,500	0,046	-0,010
-507,999	-51,650	0,059	-0,020
-506,985	-142,929	-0,055	0,004
-505,970	-20,899	0,069	-0,031
-504,956	-108,857	0,091	-0,014
-503,941	-200,000	-0,004	0,018
-502,926	800,000	0,026	-0,067
-501,912	622,061	0,009	-0,016
-500,897	-200,000	-0,022	0,079
-499,883	-200,000	-0,028	-0,154
-498,868	142,233	-0,044	0,042
-497,853	-200,000	0,023	-0,079
-496,839	-130,873	0,129	0,012
-495,824	-106,808	-0,126	0,020
-494,810	-200,000	0,009	-0,081
-493,795	-108,269	0,105	0,016
-492,781	505,836	-0,038	-0,065
-491,766	-29,385	-0,032	0,013
-490,751	-7,623	-0,125	0,061
-489,737	249,115	0,067	-0,083
-488,722	6,405	-0,179	0,097
-487,708	34,123	0,071	0,045
-486,693	800,000	0,014	0,039
-485,678	800,000	-0,016	0,047
-484,664	129,622	-0,023	-0,022
-483,649	-57,578	0,071	-0,023
-482,635	-159,568	0,091	0,004
-481,620	-200,000	0,033	-0,169
-480,605	-200,000	0,002	0,023
-479,591	325,627	0,060	0,084
-478,576	90,416	0,064	-0,052
-477,562	645,602	0,030	-0,057
-476,547	-200,000	-0,001	-0,118
-475,532	-77,170	0,063	0,016
-474,518	-200,000	-0,001	0,096
-473,503	-200,000	0,024	0,144
-472,489	800,000	0,051	0,136
-471,474	-69,294	0,052	-0,014
-470,459	17,550	-0,075	-0,044
-469,445	-42,010	0,029	0,011
-468,430	-200,000	-0,024	-0,136
-467,416	358,024	0,049	-0,072
-466,401	206,519	-0,072	-0,082
-465,386	-59,027	0,041	-0,013
-464,372	-24,405	-0,120	0,052
-463,357	-102,660	-0,086	0,015
-462,343	525,681	0,044	-0,076
-461,328	-200,000	-0,003	-0,103
-460,313	-99,014	-0,086	-0,016
-459,299	-121,390	0,124	0,015
-458,284	-72,729	0,041	-0,011
-457,270	800,000	0,051	0,120
-456,255	-200,000	-0,001	-0,161
-455,241	-153,258	0,113	0,006
-454,226	205,481	-0,073	-0,083
-453,211	97,221	-0,059	0,049
-452,197	-57,077	0,167	0,053
-451,182	29,908	-0,041	-0,025
-450,168	24,652	-0,039	0,023
-449,153	-200,000	-0,032	0,106
-448,138	526,295	-0,033	-0,057
-447,124	-146,454	0,103	0,006
-446,109	-200,000	0,012	0,062
-445,095	103,086	0,109	-0,093
-444,080	463,217	-0,025	-0,040
-443,065	76,174	-0,103	0,079
-442,051	800,000	0,075	-0,169
-441,036	74,223	0,071	-0,054
-440,022	5,471	0,123	-0,066
-439,007	-59,274	-0,129	-0,040
-437,992	-19,044	-0,101	0,046
-436,978	800,000	-0,026	-0,064
-435,963	-200,000	-0,034	0,121
-434,949	7,297	-0,155	0,084
-433,934	71,919	0,035	-0,027
-432,919	31,249	-0,065	-0,041
-431,905	54,986	-0,052	-0,037
-430,890	230,434	-0,015	0,018
-429,876	237,536	0,012	-0,014
-428,861	234,638	-0,113	0,136
-427,846	-200,000	-0,026	-0,142
-426,832	-200,000	0,003	-0,056
-425,817	103,799	-0,048	-0,041
-424,803	800,000	-0,017	0,034
-423,788	800,000	-0,032	0,064
-422,773	24,066	0,029	-0,017
-421,759	104,380	-0,081	-0,069
-420,744	-167,212	-0,047	-0,001
-419,730	-35,588	-0,121	-0,048
-418,715	800,000	0,078	-0,178
-417,701	-152,685	0,101	-0,005
-416,686	800,000	-0,024	0,055
-415,671	81,263	0,005	0,004
-414,657	121,700	0,083	0,076
-413,642	-45,759	-0,088	-0,032
-412,628	8,036	-0,096	-0,052
-411,613	-112,790	-0,039	-0,006
-410,598	-75,373	-0,119	-0,031
-409,584	-36,080	0,071	0,028
-408,569	652,681	0,062	0,115
-407,555	48,925	0,007	0,005
-406,540	-200,000	0,006	-0,029
-405,525	-11,825	-0,022	0,011
-404,511	-200,000	0,011	-0,074
-403,496	-121,878	-0,114	-0,014
-402,482	-74,416	0,036	0,009
-401,467	800,000	0,064	0,148
-400,452	127,628	0,013	-0,012
-399,438	335,738	0,061	-0,086
-398,423	238,860	0,051	-0,062
-397,409	-200,000	0,006	-0,060
-396,394	-43,410	-0,045	-0,016
-395,379	-143,944	-0,074	0,005
-394,365	183,180	-0,059	-0,064
-393,350	-28,820	0,105	-0,044
-392,336	-200,000	-0,002	0,040
-391,321	60,501	-0,105	0,075
-390,306	-55,525	-0,037	0,012
-389,292	-200,000	0,004	-0,025
-388,277	41,417	-0,118	-0,077
-387,263	-200,000	-0,011	-0,056
-386,248	-22,224	-0,080	-0,035
-385,233	134,763	-0,055	-0,052
-384,219	-200,000	0,000	0,012
-383,204	800,000	-0,077	-0,191
-382,190	69,289	-0,040	-0,030
-381,175	800,000	0,072	-0,163
-380,160	800,000	0,028	0,085
-379,146	800,000	-0,058	0,183
-378,131	13,949	-0,064	0,036
-377,117	-200,000	0,006	0,035
-376,102	-200,000	-0,022	0,076
-375,088	-6,350	-0,087	-0,043
-374,073	-200,000	-0,001	-0,189
-373,058	-5,151	-0,078	-0,039
-372,044	724,629	0,038	0,073
-371,029	712,802	0,072	-0,140
-370,015	94,925	-0,020	-0,017
-369,000	-200,000	-0,011	0,099
-367,985	-16,120	0,039	0,018
-366,971	-19,332	0,153	-0,069
-365,956	-108,274	-0,013	-0,002
-364,942	24,430	0,084	0,050
-363,927	354,230	0,105	-0,152
-362,912	678,689	0,045	-0,086
-361,898	-200,000	0,009	0,040
-360,883	-200,000	0,026	-0,181
-359,869	800,000	-0,010	-0,028
-358,854	-93,218	0,043	0,009
-357,839	800,000	-0,010	-0,030
-356,825	113,174	0,125	0,110
-355,810	-200,000	-0,010	0,097
-354,796	170,202	0,050	0,052
-353,781	800,000	0,034	-0,109
-352,766	35,425	-0,159	-0,101
-351,752	-162,322	0,069	-0,002
-350,737	800,000	0,048	0,126
-349,723	-146,620	-0,069	-0,004
-348,708	123,866	-0,070	-0,064
-347,693	-73,010	-0,153	-0,041
-346,679	263,341	0,044	-0,056
-345,664	143,128	-0,040	0,039
-344,650	-24,436	0,089	0,038
-343,635	433,010	0,046	0,073
-342,620	-20,851	0,020	-0,009
-341,606	10,683	-0,034	-0,019
-340,591	-45,723	0,151	-0,054
-339,577	-47,911	-0,066	-0,023
-338,562	-200,000	-0,002	-0,125
-337,548	-62,915	-0,055	-0,016
-336,533	346,445	0,075	0,107
-335,518	800,000	0,039	0,109
-334,504	-200,000	0,012	0,120
-333,489	-44,114	0,105	0,038
-332,475	-200,000	0,036	-0,152
-331,460	753,956	0,058	-0,114
-330,445	-200,000	-0,018	0,113
-329,431	-36,684	-0,012	-0,005
-328,416	-21,725	0,144	0,064
-327,402	56,969	-0,080	0,056
-326,387	-200,000	0,020	0,174
-325,372	-200,000	-0,021	0,159
-324,358	-157,129	0,131	0,006
-323,343	262,216	-0,053	-0,067
-322,329	289,012	0,056	-0,074
-321,314	-82,244	-0,097	0,023
-320,299	-200,000	0,014	-0,066
-319,285	-200,000	-0,006	-0,018
-318,270	-48,340	-0,103	0,036
-317,256	-200,000	-0,016	-0,109
-316,241	197,976	0,065	0,073
-315,226	36,087	-0,113	0,072
-314,212	-81,412	-0,031	0,007
-313,197	-125,952	0,076	-0,008
-312,183	-200,000	-0,019	-0,096
-311,168	-200,000	0,031	-0,200
-310,153	15,127	-0,005	-0,003
-309,139	800,000	-0,059	-0,126
-308,124	48,170	0,066	-0,045
-307,110	293,166	0,075	-0,099
-306,095	252,930	0,091	0,113
-305,080	-200,000	0,007	-0,046
-304,066	472,122	-0,051	0,083
-303,051	285,992	-0,011	0,015
-302,037	-32,648	0,015	0,006
-301,022	-57,444	0,080	-0,025
-300,008	57,363	0,099	0,070
-298,993	800,000	0,025	-0,075
-297,978	-200,000	-0,010	0,127
-296,964	135,216	0,012	-0,011
-295,949	-141,439	-0,092	-0,007
-294,935	142,902	-0,070	0,067
-293,920	-200,000	0,024	-0,143
-292,905	-200,000	0,124	0,000
-291,891	-200,000	0,026	0,151
-290,876	-200,000	-0,008	-0,129
-289,862	177,493	0,037	0,039
-288,847	615,453	0,051	-0,094
-287,832	186,982	0,037	-0,040
-286,818	-25,549	0,006	0,002
-285,803	565,307	-0,024	0,043
-284,789	62,610	-0,100	0,072
-283,774	-200,000	-0,005	0,057
-282,759	126,395	-0,104	-0,096
-281,745	-42,575	-0,152	0,056
-280,730	-200,000	0,020	0,074
-279,716	178,922	-0,081	0,086
-278,701	-200,000	0,008	-0,084
-277,686	-200,000	-0,002	0,099
-276,672	-200,000	0,009	0,047
-275,657	314,398	-0,069	-0,094
-274,643	163,579	0,038	0,039
-273,628	-200,000	0,016	-0,104
-272,613	-200,000	0,014	0,068
-271,599	800,000	0,057	0,127
-270,584	20,437	0,102	0,060
-269,570	252,932	0,023	-0,029
-268,555	591,547	0,017	0,030
-267,540	-30,042	-0,204	0,084
-266,526	-62,371	0,171	0,051
-265,511	87,812	-0,037	-0,029
-264,497	-200,000	-0,005	0,064
-263,482	116,183	0,183	0,162
-262,467	600,941	0,020	0,036
-261,453	-71,803	-0,064	0,017
-260,438	-26,705	0,102	-0,043
-259,424	68,112	0,075	0,055
-258,409	-135,751	-0,066	-0,006
-257,395	159,378	0,084	-0,085
-256,380	-4,827	0,067	-0,033
-255,365	-88,623	0,069	0,015
-254,351	94,299	-0,060	0,049
-253,336	203,127	0,072	-0,080
-252,322	-65,992	0,067	-0,019
-251,307	29,406	-0,060	0,037
-250,292	-200,000	-0,006	0,021
-249,278	366,804	0,066	0,096
-248,263	-55,906	0,104	-0,033
-247,249	-52,426	0,133	0,044
-246,234	-197,462	-0,037	-0,000
-245,219	177,673	-0,088	-0,093
-244,205	-188,250	0,115	-0,001
-243,190	-104,773	-0,092	-0,015
-242,176	447,863	0,030	-0,048
-241,161	-33,115	0,151	0,060
-240,146	-133,356	0,021	0,002
-239,132	800,000	-0,043	0,110
-238,117	-34,678	-0,203	0,080
-237,103	-11,285	0,080	0,038
-236,088	800,000	-0,026	0,082
-235,073	-200,000	0,017	0,153
-234,059	183,269	0,114	0,122
-233,044	-200,000	-0,007	0,036
-232,030	120,479	0,131	-0,118
-231,015	-37,452	0,067	-0,026
-230,000	800,000	-0,019	-0,047
-228,986	-48,870	0,060	-0,021
-227,971	-200,000	0,001	-0,010
-226,957	148,230	0,016	0,016
-225,942	800,000	0,061	0,193
-224,927	222,345	-0,103	0,120
-223,913	222,891	-0,097	0,113
-222,898	-153,057	-0,057	-0,003
-221,884	-200,000	-0,006	-0,130
-220,869	216,747	0,036	0,041
-219,855	218,491	0,020	-0,023
-218,840	157,606	-0,078	0,078
-217,825	-200,000	0,003	0,026
-216,811	-84,763	-0,083	-0,019
-215,796	800,000	0,027	-0,064
-214,782	800,000	-0,018	-0,036
-213,767	60,987	0,106	-0,076
-212,752	351,374	0,070	0,100
-211,738	148,739	0,139	0,135
-210,723	800,000	-0,013	0,039
-209,709	-84,588	-0,040	0,009
-208,694	27,861	-0,056	-0,034
-207,679	-200,000	0,018	-0,145
-206,665	-200,000	0,003	-0,021
-205,650	83,200	0,070	0,055
-204,636	-77,187	0,259	-0,065
-203,621	16,039	-0,148	-0,084
-202,606	11,479	-0,096	-0,053
-201,592	-200,000	-0,021	0,114
-200,577	16,186	-0,074	-0,042
-199,563	800,000	-0,032	0,073
-198,548	-5,746	0,022	-0,011
-197,533	439,472	0,049	0,077
-196,519	-200,000	-0,018	0,109
-195,504	151,147	-0,035	-0,034
-194,490	99,532	-0,016	0,013
-193,475	-48,431	-0,125	0,043
-192,460	-200,000	-0,012	0,061
-191,446	324,593	-0,032	-0,044
-190,431	800,000	0,082	0,201
-189,417	253,194	-0,050	-0,061
-188,402	800,000	0,055	-0,114
-187,387	-200,000	-0,014	-0,094
-186,373	307,765	0,110	-0,148
-185,358	800,000	-0,039	-0,087
-184,344	273,276	-0,100	0,128
-183,329	152,922	0,059	-0,059
-182,315	-200,000	-0,009	0,104
-181,300	800,000	0,023	0,069
-180,285	-112,220	0,100	0,014
-179,271	-23,221	-0,094	-0,041
-178,256	186,177	0,030	-0,032
-177,242	58,602	0,107	-0,076
-176,227	-200,000	0,036	0,259
-175,212	57,694	0,057	0,040
-174,198	800,000	-0,016	-0,035
-173,183	106,528	-0,120	0,103
-172,169	-200,000	0,017	-0,106
-171,154	800,000	-0,041	0,104
-170,139	9,185	0,246	0,134
-169,125	527,467	-0,052	0,088
-168,110	800,000	0,045	0,135
-167,096	800,000	-0,014	0,043
-166,081	-114,385	-0,073	-0,010
-165,066	-145,585	0,038	0,002
-164,052	-72,387	0,078	0,021
-163,037	135,359	0,094	-0,088
-162,023	75,805	-0,113	0,086
-161,008	67,740	0,076	0,056
-159,993	-200,000	-0,004	-0,125
-158,979	336,266	-0,020	0,028
-157,964	-5,375	0,039	-0,019
-156,950	-25,884	-0,036	0,015
-155,935	2,308	-0,048	-0,025
-154,920	762,439	-0,024	-0,046
-153,906	-132,083	0,083	0,008
-152,891	12,363	-0,068	-0,038
-151,877	-37,300	-0,068	0,026
-150,862	267,539	0,030	0,038
-149,847	-23,402	-0,055	-0,023
-148,833	588,579	-0,036	-0,063
-147,818	45,472	0,092	-0,061
-146,804	-148,673	-0,083	-0,005
-145,789	-50,901	-0,086	0,029
-144,775	-85,517	-0,201	-0,045
-143,760	-200,000	-0,011	-0,064
-142,745	108,455	0,119	0,102
-141,731	-200,000	-0,002	-0,070
-140,716	-5,405	0,028	0,014
-139,702	204,280	0,050	0,056
-138,687	327,877	0,059	-0,082
-137,672	800,000	-0,068	-0,155
-136,658	100,218	-0,052	-0,043
-135,643	68,672	-0,063	-0,047
-134,629	-54,457	0,096	-0,031
-133,614	-200,000	-0,000	0,042
-132,599	-200,000	-0,011	0,098
-131,585	-200,000	-0,000	0,063
-130,570	138,166	0,101	0,096
-129,556	-72,456	-0,081	-0,021
-128,541	800,000	-0,030	-0,066
-127,526	-77,777	0,024	-0,006
-126,512	69,471	0,070	0,051
-125,497	436,198	0,037	0,059
-124,483	-200,000	0,006	0,053
-123,468	407,453	0,046	-0,070
-122,453	340,990	-0,132	-0,186
-121,439	-128,134	-0,163	0,017
-120,424	681,610	-0,030	0,057
-119,410	-200,000	-0,003	0,065
