DTS Sentinel unit serial number:	SN410029Multiplexer serial number:	ORYXHardware model number:	OX2-SRSoftware version number:	ORYX F/W v4,00 Oryx Data Collector v3.7.2.0data status	okinstallation	B5 Nyhavnadifferential loss correction	single-endedforward channel	channel 2reverse channel	N/Adate	2023/12/12time	09:42:13forward acquisition time	300,00reverse acquisition time	0,00gamma	499,1914k internal	0,3158k external	0,3158temperature offset calibration	1,0000default loss term (dB/km)	0,3820temperature slope calibration	1,0000multiplexer offset coefficient	1,0000multiplexer slope coefficient	1,0000fibre end	0,00T internal ref (°C)	15,00T ext. ref 1 (°C)	-1,28T ext. ref 2 (°C)	-1,59length (m)	temperature (°C)	Stokes	anti-Stokes-744,400	-176,350	0,138	0,003
-743,385	-103,680	-0,439	-0,075
-742,371	36,862	0,107	0,070
-741,356	-110,841	-0,275	0,041
-740,342	-84,634	0,128	0,030
-739,327	-99,918	-0,366	-0,067
-738,312	-13,081	0,086	0,041
-737,298	-154,109	-0,364	-0,018
-736,283	-39,766	0,115	0,044
-735,269	-19,908	-0,215	-0,097
-734,254	-54,513	0,176	-0,058
-733,239	74,441	-0,333	-0,257
-732,225	-53,277	0,138	-0,046
-731,210	-49,664	-0,090	0,031
-730,196	-69,341	0,086	-0,024
-729,181	-200,000	0,022	0,091
-728,167	-200,000	0,012	0,066
-727,152	306,159	-0,041	0,057
-726,137	800,000	-0,080	-0,165
-725,123	155,892	0,034	-0,034
-724,108	-126,387	-0,160	-0,017
-723,094	-69,802	0,078	0,022
-722,079	-35,698	-0,173	-0,069
-721,064	-200,000	-0,007	0,029
-720,050	-14,307	-0,152	-0,072
-719,035	-163,885	-0,037	0,001
-718,021	210,991	-0,058	-0,068
-717,006	-21,696	-0,103	0,046
-715,991	138,063	-0,113	-0,109
-714,977	-11,897	0,036	0,018
-713,962	-89,759	-0,050	0,011
-712,948	29,409	-0,035	0,022
-711,933	-73,966	-0,038	-0,010
-710,918	45,038	-0,080	-0,054
-709,904	2,334	0,019	0,010
-708,889	576,501	0,057	-0,103
-707,875	-123,716	0,055	-0,006
-706,860	-26,813	-0,076	-0,032
-705,845	285,509	0,074	-0,098
-704,831	-32,910	0,062	0,025
-703,816	295,894	-0,093	0,125
-702,802	429,153	0,071	-0,113
-701,787	-200,000	-0,001	-0,133
-700,772	-200,000	0,016	-0,068
-699,758	-200,000	0,001	0,011
-698,743	52,644	-0,067	-0,047
-697,729	-200,000	0,006	0,037
-696,714	-200,000	0,012	0,042
-695,699	800,000	-0,065	-0,162
-694,685	76,803	-0,160	-0,124
-693,670	800,000	-0,027	-0,072
-692,656	-134,410	-0,064	0,006
-691,641	-33,670	0,061	-0,025
-690,627	-200,000	-0,004	-0,073
-689,612	219,551	-0,020	-0,024
-688,597	316,726	-0,038	-0,053
-687,583	229,479	0,088	-0,106
-686,568	-200,000	0,015	-0,081
-685,554	4,435	-0,071	-0,038
-684,539	-35,074	-0,014	0,006
-683,524	-73,377	-0,089	0,024
-682,510	-86,351	-0,117	-0,026
-681,495	-200,000	0,024	-0,122
-680,481	-17,878	0,058	-0,027
-679,466	289,649	-0,075	0,100
-678,451	-200,000	-0,015	-0,074
-677,437	-143,940	-0,010	-0,001
-676,422	-24,875	0,069	-0,030
-675,408	800,000	-0,022	0,056
-674,393	66,534	0,060	-0,045
-673,378	-43,030	-0,197	-0,073
-672,364	17,476	0,049	-0,029
-671,349	800,000	-0,008	-0,022
-670,335	-37,426	-0,038	-0,015
-669,320	327,934	0,044	0,062
-668,305	-200,000	0,053	0,188
-667,291	-200,000	-0,022	0,084
-666,276	-60,048	-0,014	-0,004
-665,262	241,642	-0,046	-0,057
-664,247	800,000	-0,040	-0,120
-663,232	626,803	-0,078	-0,145
-662,218	80,507	0,127	0,100
-661,203	238,665	-0,038	-0,046
-660,189	800,000	-0,020	0,052
-659,174	-107,113	-0,045	-0,007
-658,159	-5,049	0,048	-0,024
-657,145	-200,000	0,044	-0,173
-656,130	-200,000	-0,023	0,106
-655,116	-75,941	0,066	0,017
-654,101	-140,817	0,083	0,006
-653,086	-30,925	0,069	0,029
-652,072	-70,063	0,025	0,007
-651,057	-131,604	-0,041	0,004
-650,043	-193,362	0,059	0,000
-649,028	-160,244	-0,111	-0,004
-648,014	58,764	0,024	-0,018
-646,999	34,247	0,126	0,081
-645,984	-200,000	0,025	-0,096
-644,970	610,488	0,073	-0,134
-643,955	-200,000	-0,013	-0,261
-642,941	256,923	0,025	-0,031
-641,926	672,221	0,055	0,105
-640,911	-200,000	0,038	-0,187
-639,897	-143,074	0,033	0,002
-638,882	483,030	-0,056	0,095
-637,868	-200,000	-0,066	0,000
-636,853	191,667	-0,018	-0,020
-635,838	107,062	0,100	-0,087
-634,824	-79,881	-0,009	-0,002
-633,809	50,720	-0,087	0,060
-632,795	513,583	-0,017	-0,029
-631,780	-71,992	-0,026	-0,007
-630,765	93,651	-0,192	0,160
-629,751	730,103	-0,030	-0,058
-628,736	-160,774	-0,045	0,002
-627,722	800,000	0,023	-0,058
-626,707	800,000	0,046	-0,136
-625,692	800,000	0,041	0,117
-624,678	352,621	0,043	0,062
-623,663	-38,526	-0,023	0,009
-622,649	127,417	-0,109	-0,101
-621,634	-118,383	0,097	0,012
-620,619	-200,000	0,000	-0,134
-619,605	101,348	0,080	0,068
-618,590	67,537	0,045	-0,034
-617,576	-157,503	0,021	0,001
-616,561	276,313	0,099	-0,129
-615,546	457,988	0,106	0,173
-614,532	13,559	-0,148	-0,084
-613,517	-200,000	-0,003	-0,043
-612,503	161,035	0,054	0,056
-611,488	800,000	0,045	0,108
-610,474	-75,196	-0,041	-0,011
-609,459	-156,056	0,058	0,003
-608,444	320,946	0,071	0,099
-607,430	-91,214	-0,101	-0,021
-606,415	-6,942	0,077	0,038
-605,401	-109,603	-0,132	-0,020
-604,386	-200,000	0,016	0,114
-603,371	-200,000	0,018	0,067
-602,357	-200,000	0,010	-0,095
-601,342	-162,740	-0,029	-0,001
-600,328	-200,000	-0,007	0,099
-599,313	-124,600	-0,066	-0,007
-598,298	106,124	0,013	0,011
-597,284	-200,000	0,003	-0,084
-596,269	-60,116	0,099	0,031
-595,255	-78,204	-0,046	-0,012
-594,240	-47,543	0,080	0,028
-593,225	800,000	0,040	-0,113
-592,211	-47,209	-0,188	0,067
-591,196	351,779	-0,056	0,082
-590,182	-124,564	0,159	0,018
-589,167	25,684	-0,027	0,016
-588,152	283,072	-0,106	-0,140
-587,138	668,270	-0,033	0,063
-586,123	800,000	-0,026	-0,076
-585,109	-187,367	-0,142	-0,001
-584,094	54,110	-0,116	0,082
-583,079	-106,967	-0,066	-0,011
-582,065	-86,529	0,116	-0,026
-581,050	10,962	-0,080	0,045
-580,036	-19,678	0,009	0,004
-579,021	222,924	0,065	0,077
-578,006	235,320	0,112	-0,136
-576,992	-200,000	0,024	0,122
-575,977	-58,813	0,021	-0,007
-574,963	800,000	-0,019	-0,050
-573,948	-200,000	0,037	0,143
-572,934	800,000	-0,029	-0,073
-571,919	-94,661	0,107	-0,021
-570,904	389,258	-0,025	-0,038
-569,890	-149,717	0,050	-0,003
-568,875	-200,000	0,012	-0,049
-567,861	230,664	-0,031	0,037
-566,846	177,553	-0,102	0,109
-565,831	-52,361	0,077	0,026
-564,817	-62,329	-0,139	-0,042
-563,802	-200,000	-0,011	-0,058
-562,788	-71,683	-0,143	0,039
-561,773	-14,563	0,032	0,015
-560,758	-200,000	0,008	0,074
-559,744	-200,000	0,012	0,045
-558,729	-60,377	-0,145	-0,045
-557,715	-62,057	0,084	0,025
-556,700	67,320	0,073	-0,054
-555,685	-200,000	-0,011	0,161
-554,671	-114,598	0,069	0,010
-553,656	800,000	0,002	-0,004
-552,642	800,000	0,018	-0,041
-551,627	32,955	0,069	-0,044
-550,612	800,000	0,034	0,092
-549,598	52,768	-0,062	-0,043
-548,583	116,576	0,026	-0,024
-547,569	-16,438	-0,112	0,052
-546,554	-131,392	0,211	-0,020
-545,539	-200,000	0,007	-0,077
-544,525	7,889	0,047	-0,026
-543,510	413,008	-0,096	-0,150
-542,496	-118,447	0,101	0,013
-541,481	341,576	-0,094	-0,135
-540,466	226,015	0,062	-0,073
-539,452	49,300	0,081	0,055
-538,437	-200,000	-0,040	0,136
-537,423	-200,000	0,003	0,000
-536,408	29,326	-0,071	-0,044
-535,393	17,475	-0,054	0,031
-534,379	-200,000	-0,006	-0,041
-533,364	139,647	-0,068	0,065
-532,350	800,000	-0,023	-0,062
-531,335	288,964	-0,031	-0,041
-530,321	-200,000	0,002	0,045
-529,306	557,571	-0,035	0,061
-528,291	-200,000	0,007	-0,067
-527,277	-123,297	-0,075	-0,009
-526,262	585,470	-0,018	0,032
-525,248	-136,041	-0,074	-0,006
-524,233	-81,265	-0,088	0,021
-523,218	129,548	0,062	-0,058
-522,204	429,420	0,051	-0,080
-521,189	99,813	-0,036	0,031
-520,175	234,825	0,069	0,083
-519,160	-47,660	-0,097	0,034
-518,145	176,727	0,042	-0,045
-517,131	-71,276	0,072	-0,020
-516,116	302,432	0,043	0,058
-515,102	-44,984	-0,107	-0,039
-514,087	-64,553	-0,097	0,029
-513,072	800,000	0,013	-0,034
-512,058	-45,084	0,070	0,025
-511,043	-200,000	-0,015	0,048
-510,029	-200,000	0,011	0,045
-509,014	-146,687	0,059	-0,004
-507,999	136,820	0,090	-0,086
-506,985	-33,783	-0,112	-0,045
-505,970	386,894	-0,036	-0,054
-504,956	-11,008	-0,047	0,022
-503,941	71,647	-0,082	-0,062
-502,926	-94,032	0,139	-0,028
-501,912	-200,000	-0,037	0,129
-500,897	-9,508	0,111	0,054
-499,883	429,478	-0,047	0,074
-498,868	39,600	-0,088	-0,058
-497,853	261,609	-0,052	-0,066
-496,839	-200,000	0,036	-0,207
-495,824	-198,367	-0,042	-0,000
-494,810	195,801	-0,087	0,097
-493,795	-20,921	-0,136	-0,060
-492,781	269,547	0,101	-0,129
-491,766	-140,880	-0,031	0,002
-490,751	-53,561	0,021	-0,007
-489,737	-200,000	0,014	0,237
-488,722	-200,000	-0,012	0,111
-487,708	86,185	0,131	0,105
-486,693	-95,056	-0,068	-0,013
-485,678	-200,000	-0,011	-0,047
-484,664	594,179	-0,076	-0,137
-483,649	-176,299	-0,089	0,002
-482,635	-200,000	0,021	0,073
-481,620	514,872	-0,084	-0,144
-480,605	51,869	0,106	0,073
-479,591	-100,418	0,038	0,007
-478,576	800,000	0,032	-0,090
-477,562	114,287	-0,033	0,029
-476,547	-200,000	0,025	-0,113
-475,532	-200,000	0,004	-0,039
-474,518	-200,000	0,001	-0,040
-473,503	-11,278	0,030	0,014
-472,489	59,811	0,071	0,051
-471,474	107,391	0,090	0,078
-470,459	-200,000	0,021	-0,198
-469,445	800,000	0,031	-0,085
-468,430	-200,000	-0,051	-0,187
-467,416	87,246	0,050	-0,040
-466,401	800,000	-0,047	0,106
-465,386	-200,000	-0,026	0,102
-464,372	-155,954	-0,059	-0,003
-463,357	33,207	-0,086	-0,054
-462,343	139,331	-0,115	-0,110
-461,328	459,205	-0,010	0,016
-460,313	3,387	-0,112	0,059
-459,299	115,279	-0,078	-0,069
-458,284	35,121	0,085	0,054
-457,270	-129,669	0,010	-0,001
-456,255	-37,663	0,051	0,020
-455,241	-93,803	-0,115	-0,023
-454,226	142,912	-0,102	-0,099
-453,211	44,892	-0,029	0,019
-452,197	-108,543	0,123	0,019
-451,182	-3,724	0,110	0,055
-450,168	-54,385	0,140	-0,046
-449,153	800,000	0,020	-0,063
-448,138	172,745	0,062	-0,065
-447,124	-137,338	-0,080	-0,007
-446,109	240,116	-0,081	-0,099
-445,095	800,000	0,076	0,180
-444,080	37,673	0,066	-0,043
-443,065	-200,000	0,006	0,044
-442,051	-92,278	0,076	0,015
-441,036	-141,914	-0,087	-0,006
-440,022	-98,430	-0,072	0,013
-439,007	-133,889	-0,088	-0,008
-437,992	-200,000	0,009	0,082
-436,978	48,685	-0,085	-0,058
-435,963	800,000	-0,008	-0,024
-434,949	-200,000	-0,014	0,061
-433,934	-16,435	-0,072	0,033
-432,919	50,043	0,078	0,053
-431,905	278,174	-0,048	-0,063
-430,890	108,666	0,105	0,092
-429,876	800,000	-0,011	0,032
-428,861	-29,970	-0,068	0,028
-427,846	-70,521	-0,113	-0,031
-426,832	577,185	0,028	0,050
-425,817	318,461	-0,107	0,148
-424,803	-19,533	-0,104	-0,047
-423,788	-200,000	0,015	0,051
-422,773	-200,000	0,015	0,050
-421,759	228,970	0,056	0,066
-420,744	49,813	0,091	-0,062
-419,730	800,000	-0,006	0,015
-418,715	247,864	-0,129	0,159
-417,701	2,288	0,024	0,012
-416,686	49,578	0,134	-0,092
-415,671	-200,000	0,010	0,097
-414,657	20,665	0,086	0,051
-413,642	383,651	-0,045	0,067
-412,628	800,000	-0,012	0,038
-411,613	-42,726	-0,073	0,027
-410,598	421,244	-0,071	0,111
-409,584	-200,000	-0,012	-0,090
-408,569	800,000	0,036	-0,092
-407,555	273,900	-0,047	0,061
-406,540	30,759	-0,100	-0,062
-405,525	394,849	0,035	-0,054
-404,511	-200,000	0,004	0,068
-403,496	-200,000	-0,001	-0,147
-402,482	181,148	0,064	0,069
-401,467	-200,000	0,002	0,028
-400,452	-200,000	-0,019	0,076
-399,438	-200,000	0,006	0,029
-398,423	622,777	0,047	0,086
-397,409	-200,000	0,005	-0,076
-396,394	38,407	0,042	0,027
-395,379	-200,000	0,019	0,172
-394,365	-19,273	0,066	0,030
-393,350	547,250	-0,016	0,028
-392,336	138,994	0,062	0,059
-391,321	98,591	0,057	0,048
-390,306	-200,000	-0,020	-0,077
-389,292	800,000	0,033	-0,086
-388,277	800,000	0,032	-0,071
-387,263	269,483	0,015	-0,019
-386,248	-200,000	0,016	-0,069
-385,233	361,141	-0,024	-0,036
-384,219	-200,000	0,011	-0,179
-383,204	654,312	0,014	-0,026
-382,190	-184,922	-0,035	-0,000
-381,175	366,898	-0,065	-0,095
-380,160	322,321	0,009	0,013
-379,146	-56,774	0,236	0,075
-378,131	-71,040	-0,020	-0,005
-377,117	622,572	-0,015	0,027
-376,102	-200,000	0,006	-0,075
-375,088	108,380	-0,130	0,113
-374,073	-200,000	0,000	-0,135
-373,058	328,151	0,091	-0,127
-372,044	33,434	0,042	0,026
-371,029	800,000	0,061	0,153
-370,015	800,000	-0,026	0,064
-369,000	-96,956	-0,128	0,024
-367,985	-136,970	0,224	0,018
-366,971	12,038	-0,023	-0,013
-365,956	74,155	0,047	-0,036
-364,942	-200,000	-0,015	0,108
-363,927	111,503	0,077	0,067
-362,912	-200,000	-0,001	-0,058
-361,898	-200,000	0,017	-0,085
-360,883	35,121	0,064	0,041
-359,869	-117,264	-0,073	-0,010
-358,854	-88,555	-0,040	0,009
-357,839	126,289	-0,033	0,031
-356,825	-10,289	0,092	0,044
-355,810	398,999	0,077	-0,118
-354,796	28,230	0,120	-0,073
-353,781	-50,185	-0,151	0,052
-352,766	-200,000	0,002	-0,060
-351,752	-100,804	0,113	0,020
-350,737	800,000	0,018	0,048
-349,723	136,009	0,046	-0,044
-348,708	800,000	0,057	0,145
-347,693	83,023	-0,078	0,061
-346,679	503,742	-0,059	-0,099
-345,664	-9,970	-0,068	-0,033
-344,650	-51,469	0,011	-0,004
-343,635	-200,000	-0,027	0,158
-342,620	-200,000	0,005	0,088
-341,606	88,117	-0,026	0,021
-340,591	111,229	0,019	-0,017
-339,577	756,126	-0,056	-0,110
-338,562	-27,015	0,102	-0,043
-337,548	585,067	-0,031	-0,056
-336,533	-200,000	0,013	0,086
-335,518	7,297	0,073	0,039
-334,504	-98,234	0,133	0,025
-333,489	-200,000	0,011	0,075
-332,475	527,182	-0,031	0,054
-331,460	-149,415	-0,028	-0,002
-330,445	139,590	0,092	-0,088
-329,431	139,306	0,091	0,087
-328,416	-14,338	0,019	0,009
-327,402	39,441	-0,057	-0,037
-326,387	159,272	0,090	0,091
-325,372	355,305	-0,070	-0,101
-324,358	800,000	-0,020	0,049
-323,343	-155,186	-0,078	0,004
-322,329	-200,000	-0,025	0,098
-321,314	2,719	0,114	0,060
-320,299	168,439	-0,051	0,053
-319,285	-200,000	0,017	0,108
-318,270	-62,273	-0,102	0,031
-317,256	106,671	-0,065	-0,056
-316,241	400,176	0,043	-0,066
-315,226	-106,074	0,044	-0,007
-314,212	-188,296	-0,098	-0,001
-313,197	-200,000	-0,040	-0,216
-312,183	-200,000	-0,003	-0,031
-311,168	-200,000	-0,011	-0,055
-310,153	-125,753	0,077	-0,008
-309,139	14,526	-0,075	-0,042
-308,124	-137,131	0,101	-0,008
-307,110	52,845	0,086	-0,060
-306,095	-136,197	-0,067	-0,006
-305,080	779,387	0,032	-0,064
-304,066	-47,069	0,047	0,016
-303,051	-195,069	-0,109	0,001
-302,037	800,000	-0,015	-0,046
-301,022	-168,634	-0,070	-0,002
-300,008	216,679	-0,004	0,005
-298,993	113,778	0,134	0,118
-297,978	800,000	-0,067	0,145
-296,964	-23,353	-0,024	0,010
-295,949	800,000	-0,053	-0,154
-294,935	192,251	0,025	0,027
-293,920	800,000	-0,040	0,119
-292,905	800,000	-0,037	-0,079
-291,891	400,388	0,076	0,116
-290,876	-53,204	0,093	0,031
-289,862	-200,000	-0,019	-0,088
-288,847	-200,000	0,007	0,025
-287,832	-129,714	-0,138	0,014
-286,818	296,209	-0,082	-0,110
-285,803	492,591	0,061	0,102
-284,789	4,447	-0,043	0,023
-283,774	-136,883	0,099	0,008
-282,759	800,000	0,034	0,074
-281,745	-200,000	-0,029	-0,143
-280,730	185,979	-0,041	-0,044
-279,716	753,823	-0,034	-0,067
-278,701	-200,000	-0,003	-0,116
-277,686	169,539	-0,016	0,016
-276,672	-17,916	-0,057	-0,026
-275,657	282,018	-0,045	0,058
-274,643	-200,000	-0,002	-0,012
-273,628	92,721	-0,125	0,102
-272,613	-23,584	-0,094	-0,041
-271,599	-76,477	0,151	0,038
-270,584	-75,896	0,100	0,025
-269,570	-200,000	0,023	0,085
-268,555	800,000	0,022	0,070
-267,540	800,000	0,054	-0,139
-266,526	-89,384	0,055	0,012
-265,511	-67,395	0,084	0,024
-264,497	108,446	0,096	0,083
-263,482	-83,026	-0,089	-0,021
-262,467	-96,264	0,053	-0,010
-261,453	-113,857	-0,203	0,028
-260,438	57,894	-0,088	-0,062
-259,424	-115,172	-0,064	0,009
-258,409	106,011	-0,127	-0,108
-257,395	435,697	0,042	-0,066
-256,380	-178,955	0,125	0,002
-255,365	113,627	0,111	0,098
-254,351	-200,000	0,006	0,076
-253,336	484,146	-0,045	0,074
-252,322	-120,861	0,095	0,011
-251,307	73,597	-0,111	-0,084
-250,292	-150,756	0,153	0,008
-249,278	800,000	-0,034	0,105
-248,263	0,396	0,085	0,044
-247,249	65,180	-0,030	-0,022
-246,234	-18,310	-0,032	0,014
-245,219	275,362	0,033	-0,043
-244,205	762,767	0,056	0,110
-243,190	202,649	-0,061	0,069
-242,176	-15,366	0,161	-0,074
-241,161	190,837	0,123	0,134
-240,146	-200,000	0,013	0,000
-239,132	-144,786	-0,096	-0,006
-238,117	130,667	0,058	0,054
-237,103	-143,246	-0,104	-0,007
-236,088	406,670	0,051	-0,078
-235,073	83,373	-0,024	0,019
-234,059	131,936	0,033	0,031
-233,044	199,632	-0,067	0,074
-232,030	800,000	-0,035	0,088
-231,015	-168,696	-0,096	0,003
-230,000	160,796	0,033	-0,033
-228,986	20,247	0,074	-0,043
-227,971	-89,525	0,092	0,019
-226,957	53,595	0,135	-0,094
-225,942	441,428	-0,019	0,030
-224,927	-200,000	0,039	0,146
-223,913	-27,133	-0,091	0,038
-222,898	52,790	-0,037	-0,025
-221,884	135,553	0,067	-0,063
-220,869	158,751	-0,056	0,057
-219,855	800,000	-0,035	0,100
-218,840	-56,757	0,022	-0,007
-217,825	-71,008	0,147	-0,040
-216,811	800,000	-0,034	-0,070
-215,796	191,451	0,075	0,082
-214,782	152,280	-0,100	-0,099
-213,767	438,492	-0,033	0,051
-212,752	-107,174	0,045	-0,007
-211,738	-124,258	-0,122	0,014
-210,723	800,000	-0,028	0,078
-209,709	800,000	0,029	-0,087
-208,694	11,338	-0,090	-0,049
-207,679	-200,000	-0,006	-0,042
-206,665	-116,933	0,104	0,014
-205,650	-171,431	-0,121	0,003
-204,636	-1,317	0,182	0,093
-203,621	-8,131	0,086	0,042
-202,606	800,000	0,069	-0,188
-201,592	53,574	-0,103	-0,071
-200,577	57,122	-0,042	-0,030
-199,563	599,899	-0,008	-0,015
-198,548	559,506	-0,052	-0,092
-197,533	573,401	0,049	-0,086
-196,519	-93,878	0,151	-0,030
-195,504	-200,000	0,025	0,149
-194,490	-152,427	0,106	-0,005
-193,475	527,284	0,014	-0,024
-192,460	497,915	-0,013	0,022
-191,446	-117,865	-0,009	0,001
-190,431	23,410	-0,074	-0,044
-189,417	-82,145	0,025	-0,006
-188,402	125,974	-0,160	0,146
-187,387	800,000	-0,030	0,064
-186,373	-125,336	0,054	0,006
-185,358	-11,445	-0,050	-0,024
-184,344	-132,498	-0,104	-0,010
-183,329	171,765	-0,094	0,097
-182,315	-200,000	0,012	0,041
-181,300	-200,000	0,002	0,033
-180,285	6,506	-0,070	-0,037
-179,271	800,000	-0,010	-0,030
-178,256	-58,272	-0,092	0,029
-177,242	800,000	-0,021	-0,051
-176,227	-84,486	0,122	-0,027
-175,212	800,000	0,057	0,164
-174,198	-200,000	0,019	0,081
-173,183	-200,000	-0,019	-0,124
-172,169	-22,202	-0,130	-0,057
-171,154	139,848	0,050	0,048
-170,139	4,662	-0,035	0,018
-169,125	182,166	0,060	-0,064
-168,110	255,276	0,069	0,086
-167,096	-200,000	-0,021	-0,120
-166,081	-200,000	-0,002	0,052
-165,066	-200,000	-0,001	-0,137
-164,052	421,739	0,060	0,093
-163,037	25,810	-0,167	-0,100
-162,023	-46,251	0,105	-0,037
-161,008	662,533	0,037	-0,069
-159,993	72,087	-0,073	0,055
-158,979	-200,000	-0,054	-0,202
-157,964	-200,000	0,022	-0,196
-156,950	-39,946	-0,103	-0,039
-155,935	-138,404	0,122	-0,010
-154,920	181,134	0,068	0,072
-153,906	10,082	0,033	-0,018
-152,891	97,781	-0,048	0,040
-151,877	-169,777	0,098	-0,002
-150,862	104,730	0,161	-0,136
-149,847	473,470	-0,038	0,061
-148,833	642,859	-0,050	0,092
-147,818	562,879	0,055	0,095
-146,804	-200,000	0,008	0,082
-145,789	567,135	-0,078	0,137
-144,775	133,726	-0,041	-0,038
-143,760	800,000	-0,018	-0,038
-142,745	59,089	0,108	-0,076
-141,731	-90,134	0,043	0,009
-140,716	800,000	-0,045	0,098
-139,702	-200,000	0,009	0,114
-138,687	473,417	0,034	0,055
-137,672	59,264	-0,081	-0,058
-136,658	87,024	-0,132	-0,105
-135,643	-200,000	-0,020	-0,092
-134,629	292,029	-0,045	0,059
-133,614	-200,000	0,028	0,114
-132,599	-48,646	-0,171	-0,059
-131,585	355,724	-0,029	-0,041
-130,570	800,000	-0,015	0,037
-129,556	-200,000	0,003	-0,063
-128,541	61,476	-0,067	-0,048
-127,526	84,144	0,129	-0,101
-126,512	-71,800	0,076	0,020
-125,497	-149,435	0,036	0,002
-124,483	122,629	-0,068	0,061
-123,468	-17,363	0,092	0,042
-122,453	800,000	0,050	0,105
-121,439	149,647	-0,039	0,038
-120,424	119,023	-0,116	-0,103
-119,410	26,941	0,077	0,046
