DTS Sentinel unit serial number:	SN410029Multiplexer serial number:	ORYXHardware model number:	OX2-SRSoftware version number:	ORYX F/W v4,00 Oryx Data Collector v3.7.2.0data status	okinstallation	B5 Nyhavnadifferential loss correction	single-endedforward channel	channel 2reverse channel	N/Adate	2023/12/14time	00:12:13forward acquisition time	300,00reverse acquisition time	0,00gamma	499,1914k internal	0,3154k external	0,3154temperature offset calibration	1,0000default loss term (dB/km)	0,3820temperature slope calibration	1,0000multiplexer offset coefficient	1,0000multiplexer slope coefficient	1,0000fibre end	0,00T internal ref (°C)	8,69T ext. ref 1 (°C)	-7,47T ext. ref 2 (°C)	-7,50length (m)	temperature (°C)	Stokes	anti-Stokes-744,400	-87,612	0,191	-0,042
-743,385	-117,090	-0,406	-0,054
-742,371	-200,000	0,027	0,187
-741,356	-146,134	-0,296	0,019
-740,342	800,000	0,075	0,190
-739,327	-141,658	-0,325	-0,024
-738,312	81,952	0,103	0,082
-737,298	-86,504	-0,419	-0,094
-736,283	253,997	0,051	0,064
-735,269	-107,885	-0,344	-0,055
-734,254	-27,629	0,176	0,075
-733,239	-67,696	-0,515	-0,148
-732,225	-100,206	0,281	0,051
-731,210	30,773	-0,089	0,056
-730,196	27,000	0,112	-0,069
-729,181	-43,544	0,019	0,007
-728,167	78,049	0,025	-0,020
-727,152	-200,000	0,004	-0,057
-726,137	-94,733	-0,157	-0,031
-725,123	199,443	-0,058	-0,065
-724,108	342,633	-0,094	0,137
-723,094	-38,859	-0,060	-0,023
-722,079	-73,826	-0,119	-0,032
-721,064	-200,000	0,012	-0,133
-720,050	-28,685	-0,119	0,050
-719,035	-200,000	0,005	-0,101
-718,021	27,659	-0,159	-0,099
-717,006	-104,240	-0,018	0,003
-715,991	-27,009	-0,128	-0,055
-714,977	103,924	-0,018	-0,016
-713,962	176,529	0,127	-0,136
-712,948	-95,862	-0,012	0,002
-711,933	800,000	0,046	-0,130
-710,918	122,153	-0,032	0,029
-709,904	800,000	0,022	0,054
-708,889	-46,467	-0,195	-0,070
-707,875	151,984	-0,042	-0,042
-706,860	800,000	-0,018	-0,040
-705,845	800,000	-0,035	0,097
-704,831	-2,172	0,103	-0,053
-703,816	-102,355	0,098	0,017
-702,802	-125,252	-0,098	0,011
-701,787	466,975	-0,046	0,076
-700,772	92,982	-0,043	-0,036
-699,758	800,000	0,061	-0,138
-698,743	-200,000	-0,002	0,063
-697,729	-159,024	-0,056	0,002
-696,714	-200,000	0,019	0,063
-695,699	319,980	0,025	0,035
-694,685	-200,000	0,016	-0,060
-693,670	-99,447	-0,142	0,026
-692,656	-150,636	-0,113	0,006
-691,641	122,742	0,133	0,122
-690,627	-40,601	-0,091	0,035
-689,612	29,895	0,068	-0,042
-688,597	-200,000	0,008	-0,055
-687,583	437,789	-0,130	-0,209
-686,568	800,000	-0,015	0,048
-685,554	800,000	-0,030	0,076
-684,539	-200,000	-0,001	0,122
-683,524	800,000	-0,012	0,026
-682,510	-200,000	-0,010	-0,086
-681,495	370,103	0,052	0,078
-680,481	32,165	0,069	-0,044
-679,466	-21,984	-0,146	-0,065
-678,451	98,542	-0,076	-0,064
-677,437	-80,095	0,157	0,038
-676,422	-70,269	-0,012	0,003
-675,408	-200,000	0,015	-0,157
-674,393	149,971	-0,117	0,117
-673,378	130,746	-0,049	0,047
-672,364	-200,000	-0,009	0,130
-671,349	-4,430	0,030	0,015
-670,335	-100,482	0,096	-0,017
-669,320	800,000	0,037	0,095
-668,305	79,058	-0,080	-0,063
-667,291	800,000	0,057	-0,118
-666,276	-41,749	-0,100	0,038
-665,262	11,996	-0,155	0,087
-664,247	800,000	0,022	-0,054
-663,232	82,330	-0,012	-0,009
-662,218	-40,806	0,063	0,024
-661,203	41,083	-0,085	0,056
-660,189	93,098	0,027	-0,023
-659,174	299,460	-0,065	-0,088
-658,159	-200,000	-0,045	0,168
-657,145	800,000	0,032	-0,095
-656,130	99,935	0,073	-0,062
-655,116	800,000	-0,024	0,059
-654,101	615,678	-0,041	0,076
-653,086	-33,467	0,085	0,034
-652,072	-50,285	-0,126	-0,044
-651,057	5,437	0,069	-0,037
-650,043	-128,163	-0,106	0,011
-649,028	800,000	0,009	-0,027
-648,014	484,682	-0,026	-0,044
-646,999	-33,831	0,167	-0,067
-645,984	800,000	-0,031	0,093
-644,970	-200,000	-0,021	-0,075
-643,955	-200,000	0,021	0,079
-642,941	-79,757	-0,081	0,020
-641,926	-200,000	0,004	0,052
-640,911	-200,000	-0,028	0,105
-639,897	-200,000	-0,017	-0,119
-638,882	537,457	-0,086	0,151
-637,868	-200,000	-0,035	0,213
-636,853	-200,000	-0,023	0,138
-635,838	-90,050	-0,103	-0,022
-634,824	-100,307	-0,187	-0,034
-633,809	800,000	-0,021	0,058
-632,795	-123,408	-0,046	0,005
-631,780	388,984	0,091	0,139
-630,765	800,000	-0,009	-0,025
-629,751	34,550	-0,100	-0,064
-628,736	800,000	0,039	-0,117
-627,722	800,000	-0,035	-0,106
-626,707	197,689	0,146	-0,164
-625,692	553,879	-0,034	-0,060
-624,678	-43,432	0,014	-0,005
-623,663	-200,000	0,007	0,068
-622,649	-200,000	-0,014	0,064
-621,634	-200,000	-0,006	-0,037
-620,619	-108,457	-0,147	0,023
-619,605	-14,936	0,069	-0,032
-618,590	173,664	0,035	0,037
-617,576	495,818	-0,012	0,021
-616,561	299,455	0,018	-0,024
-615,546	-194,447	0,144	0,001
-614,532	142,320	0,102	-0,099
-613,517	19,048	-0,083	-0,049
-612,503	287,517	-0,047	0,062
-611,488	-200,000	-0,021	0,189
-610,474	59,287	-0,001	0,001
-609,459	52,430	0,094	0,066
-608,444	-200,000	0,015	0,072
-607,430	-200,000	-0,005	-0,062
-606,415	172,570	-0,033	0,035
-605,401	167,947	0,058	0,061
-604,386	-64,234	0,088	-0,026
-603,371	20,852	-0,124	0,074
-602,357	-133,622	0,050	0,005
-601,342	-200,000	0,006	-0,135
-600,328	-200,000	0,008	-0,041
-599,313	481,512	0,054	-0,091
-598,298	-81,982	0,063	-0,015
-597,284	14,036	0,075	0,043
-596,269	-93,414	0,089	0,018
-595,255	68,492	0,088	0,066
-594,240	800,000	0,029	0,059
-593,225	-49,747	-0,116	-0,040
-592,211	-200,000	-0,026	0,099
-591,196	217,816	-0,025	-0,030
-590,182	-200,000	0,001	0,041
-589,167	642,501	0,066	0,124
-588,152	61,454	-0,047	-0,034
-587,138	-200,000	0,013	-0,091
-586,123	67,037	-0,083	-0,062
-585,109	800,000	-0,063	-0,199
-584,094	-200,000	-0,004	-0,103
-583,079	-96,752	0,119	-0,023
-582,065	-200,000	0,028	-0,093
-581,050	261,456	-0,058	-0,074
-580,036	-200,000	-0,019	-0,136
-579,021	-96,155	0,040	0,008
-578,006	414,855	-0,073	-0,114
-576,992	512,068	-0,059	-0,101
-575,977	-65,963	-0,011	-0,003
-574,963	97,298	0,027	0,023
-573,948	-51,628	0,061	-0,021
-572,934	108,618	-0,071	0,062
-571,919	-200,000	0,027	0,159
-570,904	-84,831	-0,040	0,009
-569,890	245,331	0,048	0,059
-568,875	-200,000	-0,001	0,038
-567,861	-200,000	0,004	0,062
-566,846	-18,883	-0,093	0,042
-565,831	101,774	-0,067	-0,057
-564,817	11,095	-0,117	0,065
-563,802	-191,139	-0,130	-0,001
-562,788	-200,000	0,015	-0,136
-561,773	240,620	0,041	-0,050
-560,758	211,417	0,095	0,110
-559,744	4,351	0,109	-0,058
-558,729	125,004	0,038	-0,035
-557,715	800,000	0,010	0,028
-556,700	-100,297	-0,060	0,011
-555,685	-78,000	0,100	-0,025
-554,671	452,660	0,064	0,104
-553,656	800,000	0,024	0,060
-552,642	398,666	0,007	0,010
-551,627	152,594	-0,124	0,124
-550,612	-114,565	-0,031	-0,004
-549,598	221,394	-0,088	-0,104
-548,583	-200,000	-0,025	-0,086
-547,569	588,946	0,013	-0,023
-546,554	-200,000	-0,008	0,087
-545,539	-200,000	-0,026	-0,158
-544,525	144,760	-0,044	-0,043
-543,510	800,000	-0,061	-0,154
-542,496	800,000	-0,040	-0,124
-541,481	-102,688	0,072	-0,012
-540,466	515,439	-0,026	0,044
-539,452	116,853	0,061	-0,055
-538,437	-150,863	0,118	-0,006
-537,423	-60,341	-0,210	0,065
-536,408	-73,671	-0,124	0,033
-535,393	800,000	-0,024	0,072
-534,379	800,000	-0,014	-0,038
-533,364	-200,000	0,016	-0,058
-532,350	80,307	0,036	-0,029
-531,335	-80,753	0,109	-0,026
-530,321	325,200	0,014	0,020
-529,306	-200,000	-0,015	-0,190
-528,291	87,041	-0,076	-0,061
-527,277	113,531	-0,083	0,074
-526,262	-165,970	-0,121	-0,004
-525,248	48,869	-0,069	0,047
-524,233	57,662	-0,048	-0,034
-523,218	-200,000	0,019	0,082
-522,204	342,094	-0,033	-0,048
-521,189	356,088	0,041	-0,060
-520,175	-200,000	0,007	0,065
-519,160	188,626	0,058	0,064
-518,145	-24,376	-0,088	0,038
-517,131	-200,000	-0,017	0,081
-516,116	-143,155	0,094	-0,007
-515,102	-26,208	-0,080	0,034
-514,087	72,377	0,009	0,007
-513,072	800,000	-0,037	0,110
-512,058	-14,130	-0,114	-0,053
-511,043	629,720	-0,015	0,027
-510,029	176,429	0,080	0,085
-509,014	95,675	-0,064	-0,053
-507,999	800,000	0,025	0,051
-506,985	119,516	0,080	0,073
-505,970	800,000	-0,030	-0,080
-504,956	553,342	0,055	-0,097
-503,941	195,435	0,044	-0,049
-502,926	29,161	0,083	0,051
-501,912	-200,000	-0,023	-0,101
-500,897	-200,000	-0,004	-0,040
-499,883	33,296	0,049	0,031
-498,868	7,974	-0,120	-0,066
-497,853	493,832	-0,055	0,092
-496,839	334,265	0,069	0,098
-495,824	-116,316	0,101	0,013
-494,810	-200,000	0,042	-0,157
-493,795	-200,000	0,034	-0,122
-492,781	-50,514	0,019	0,007
-491,766	-200,000	-0,030	-0,121
-490,751	-79,572	-0,047	0,012
-489,737	-176,984	-0,088	0,002
-488,722	65,670	0,044	0,033
-487,708	-150,286	0,112	0,006
-486,693	-16,898	-0,041	0,019
-485,678	-200,000	0,015	-0,063
-484,664	-51,271	-0,143	0,049
-483,649	-200,000	-0,007	0,242
-482,635	-175,427	-0,139	0,003
-481,620	-200,000	-0,014	0,116
-480,605	-200,000	-0,021	0,083
-479,591	-163,596	0,130	0,004
-478,576	125,726	-0,153	-0,141
-477,562	-8,211	-0,098	-0,048
-476,547	-82,034	0,097	0,023
-475,532	89,665	-0,072	0,058
-474,518	-69,798	0,057	-0,016
-473,503	17,297	0,043	0,025
-472,489	-200,000	-0,009	0,056
-471,474	-23,370	0,100	-0,044
-470,459	-200,000	-0,013	-0,065
-469,445	800,000	-0,012	-0,034
-468,430	800,000	-0,045	0,113
-467,416	592,630	-0,041	-0,075
-466,401	447,738	0,028	0,046
-465,386	-92,477	0,062	0,013
-464,372	141,089	-0,056	-0,054
-463,357	-200,000	-0,035	-0,185
-462,343	11,088	0,029	0,016
-461,328	-139,036	-0,098	0,008
-460,313	80,893	-0,136	0,107
-459,299	800,000	-0,032	0,084
-458,284	-200,000	0,044	0,162
-457,270	643,158	-0,055	0,103
-456,255	-200,000	-0,029	-0,108
-455,241	800,000	-0,050	-0,149
-454,226	132,153	-0,106	0,099
-453,211	-106,707	0,084	0,013
-452,197	800,000	0,056	-0,142
-451,182	-83,155	0,111	0,026
-450,168	174,411	0,162	0,171
-449,153	70,381	-0,056	0,042
-448,138	-104,063	-0,111	-0,019
-447,124	105,053	0,020	0,017
-446,109	-200,000	0,004	-0,124
-445,095	-78,810	-0,148	-0,036
-444,080	-200,000	-0,053	0,184
-443,065	162,662	0,126	0,129
-442,051	-136,498	-0,132	-0,011
-441,036	-200,000	0,010	0,037
-440,022	-122,886	0,086	-0,010
-439,007	-200,000	-0,019	0,122
-437,992	244,309	0,076	-0,093
-436,978	-200,000	0,004	0,130
-435,963	-200,000	0,010	0,043
-434,949	275,540	-0,075	-0,097
-433,934	140,564	0,028	-0,027
-432,919	5,125	-0,194	0,104
-431,905	-106,141	0,053	0,009
-430,890	-188,204	-0,029	-0,000
-429,876	-21,553	0,120	0,053
-428,861	50,305	0,022	-0,015
-427,846	51,519	-0,072	0,050
-426,832	-47,336	-0,210	0,074
-425,817	240,330	0,100	-0,121
-424,803	102,483	-0,092	-0,079
-423,788	-10,915	0,028	-0,013
-422,773	98,147	0,077	-0,065
-421,759	-200,000	-0,010	0,074
-420,744	-47,528	-0,159	0,056
-419,730	-31,263	0,068	0,028
-418,715	-33,824	-0,101	-0,040
-417,701	-37,008	-0,168	-0,065
-416,686	12,869	-0,061	0,034
-415,671	105,617	-0,031	0,026
-414,657	286,382	-0,023	0,030
-413,642	667,169	0,022	0,041
-412,628	0,770	0,065	0,034
-411,613	-34,635	-0,050	0,020
-410,598	113,784	0,062	-0,055
-409,584	-200,000	0,010	-0,108
-408,569	108,750	0,086	-0,074
-407,555	-103,055	-0,073	0,012
-406,540	-29,246	0,074	0,031
-405,525	-145,555	-0,200	-0,013
-404,511	800,000	-0,057	-0,137
-403,496	31,561	0,064	0,040
-402,482	-112,958	0,062	-0,009
-401,467	32,216	0,048	-0,030
-400,452	166,598	0,063	0,065
-399,438	-15,433	-0,119	0,055
-398,423	-117,692	0,043	0,006
-397,409	800,000	-0,051	-0,125
-396,394	-200,000	-0,014	0,081
-395,379	377,541	-0,097	-0,144
-394,365	-177,798	0,187	0,003
-393,350	800,000	0,057	0,146
-392,336	-2,301	0,085	0,043
-391,321	23,617	0,091	0,054
-390,306	-200,000	0,027	0,088
-389,292	188,569	0,034	0,038
-388,277	-200,000	-0,024	0,162
-387,263	800,000	-0,076	0,168
-386,248	-89,596	0,095	0,020
-385,233	328,259	-0,003	0,004
-384,219	-200,000	-0,028	0,182
-383,204	-200,000	0,034	-0,130
-382,190	800,000	-0,041	0,088
-381,175	-75,649	-0,098	-0,025
-380,160	78,767	-0,084	-0,065
-379,146	800,000	-0,017	0,043
-378,131	-77,893	-0,147	0,037
-377,117	15,664	-0,054	0,031
-376,102	-89,165	0,104	-0,022
-375,088	-200,000	0,012	-0,039
-374,073	378,194	0,062	-0,093
-373,058	68,024	0,073	-0,055
-372,044	-200,000	0,028	-0,104
-371,029	765,086	0,021	-0,042
-370,015	-87,116	-0,100	-0,022
-369,000	565,341	-0,035	0,063
-367,985	284,483	-0,027	-0,036
-366,971	380,631	-0,025	0,037
-365,956	-200,000	0,032	0,152
-364,942	109,147	0,023	0,020
-363,927	800,000	0,079	0,161
-362,912	279,902	0,050	0,066
-361,898	-86,882	-0,116	0,026
-360,883	62,368	0,050	-0,037
-359,869	-76,005	0,128	-0,033
-358,854	-140,915	-0,166	0,012
-357,839	-50,261	0,017	-0,006
-356,825	175,228	0,095	-0,100
-355,810	-115,397	-0,117	-0,016
-354,796	791,903	-0,020	-0,040
-353,781	-58,139	-0,035	0,011
-352,766	70,560	-0,067	-0,050
-351,752	31,942	0,092	0,057
-350,737	-97,378	0,111	-0,021
-349,723	-54,887	0,064	0,021
-348,708	303,242	0,069	-0,093
-347,693	260,835	-0,017	-0,022
-346,679	-134,683	-0,104	0,009
-345,664	118,187	-0,055	-0,050
-344,650	-200,000	0,011	0,120
-343,635	530,250	0,067	0,115
-342,620	344,298	0,010	0,014
-341,606	175,596	0,114	0,120
-340,591	98,587	-0,056	-0,047
-339,577	323,417	-0,068	-0,095
-338,562	314,633	-0,057	0,078
-337,548	239,305	0,062	-0,075
-336,533	-50,771	0,107	-0,036
-335,518	520,927	-0,014	-0,024
-334,504	800,000	0,052	0,121
-333,489	210,534	0,013	-0,015
-332,475	-200,000	0,040	0,158
-331,460	-155,175	-0,098	-0,005
-330,445	96,049	-0,122	-0,101
-329,431	-200,000	0,011	0,119
-328,416	-129,356	0,157	-0,016
-327,402	11,100	-0,056	-0,031
-326,387	8,110	-0,055	0,030
-325,372	-200,000	0,019	-0,081
-324,358	700,256	-0,108	-0,207
-323,343	171,802	-0,092	-0,096
-322,329	800,000	0,023	0,056
-321,314	90,833	0,102	0,083
-320,299	736,234	0,099	0,193
-319,285	41,918	0,075	0,049
-318,270	118,960	-0,053	0,048
-317,256	342,811	0,055	-0,079
-316,241	-117,630	0,048	-0,006
-315,226	-46,249	0,126	-0,045
-314,212	315,848	-0,008	-0,011
-313,197	-129,829	0,117	-0,011
-312,183	-35,821	-0,086	0,034
-311,168	800,000	-0,032	-0,070
-310,153	-83,401	0,102	0,024
-309,139	753,771	0,051	-0,100
-308,124	-200,000	-0,003	-0,031
-307,110	800,000	0,046	0,095
-306,095	-44,205	0,141	0,051
-305,080	-193,516	-0,078	-0,000
-304,066	800,000	-0,012	-0,031
-303,051	123,850	-0,048	-0,044
-302,037	-64,727	-0,024	0,007
-301,022	111,224	0,062	-0,054
-300,008	-27,565	0,129	-0,054
-298,993	470,462	-0,090	0,148
-297,978	-200,000	0,002	0,059
-296,964	800,000	-0,093	0,200
-295,949	800,000	-0,050	-0,107
-294,935	-92,859	0,144	-0,029
-293,920	110,122	0,016	0,014
-292,905	-106,080	0,063	0,010
-291,891	-200,000	0,000	-0,005
-290,876	-174,258	-0,039	-0,001
-289,862	-19,188	-0,046	-0,021
-288,847	303,856	0,067	-0,090
-287,832	-200,000	0,008	-0,029
-286,818	-14,176	-0,008	-0,004
-285,803	-76,131	0,054	-0,014
-284,789	646,855	0,031	0,057
-283,774	399,879	0,041	-0,063
-282,759	34,473	0,105	-0,066
-281,745	456,079	0,051	0,082
-280,730	356,194	-0,077	0,111
-279,716	-126,867	-0,142	-0,015
-278,701	-8,198	0,063	0,031
-277,686	222,436	0,115	0,134
-276,672	-173,678	-0,293	-0,006
-275,657	-7,391	0,207	0,101
-274,643	59,260	-0,071	-0,050
-273,628	-200,000	-0,012	-0,103
-272,613	271,752	-0,063	-0,081
-271,599	800,000	0,063	-0,179
-270,584	800,000	0,043	0,136
-269,570	166,116	0,092	0,095
-268,555	-137,113	0,025	0,002
-267,540	800,000	0,008	-0,024
-266,526	-200,000	0,015	0,105
-265,511	496,538	-0,029	-0,049
-264,497	-75,009	0,052	-0,013
-263,482	-200,000	-0,015	0,096
-262,467	-200,000	-0,011	0,062
-261,453	266,574	0,099	0,126
-260,438	-200,000	-0,020	-0,162
-259,424	800,000	0,067	0,139
-258,409	-200,000	-0,002	-0,065
-257,395	-200,000	0,012	-0,066
-256,380	-200,000	0,121	-0,000
-255,365	329,936	0,076	0,106
-254,351	800,000	0,024	0,072
-253,336	-200,000	-0,033	0,149
-252,322	-1,218	-0,128	0,065
-251,307	-34,089	-0,177	-0,070
-250,292	-200,000	0,029	-0,123
-249,278	800,000	-0,050	-0,143
-248,263	-200,000	-0,019	-0,083
-247,249	-147,520	0,074	0,004
-246,234	-30,085	0,034	-0,014
-245,219	58,158	0,066	0,047
-244,205	-200,000	-0,007	-0,044
-243,190	-200,000	0,022	-0,145
-242,176	-200,000	-0,038	0,134
-241,161	800,000	-0,030	0,073
-240,146	4,765	0,073	-0,039
-239,132	-200,000	-0,003	-0,045
-238,117	-200,000	0,012	-0,210
-237,103	-75,229	-0,153	-0,039
-236,088	800,000	0,032	-0,065
-235,073	-200,000	0,004	0,024
-234,059	463,047	0,049	0,080
-233,044	32,918	-0,049	0,031
-232,030	398,655	-0,029	-0,043
-231,015	-127,945	0,014	-0,001
-230,000	591,020	-0,039	-0,070
-228,986	-25,444	0,091	-0,039
-227,971	15,297	0,065	-0,037
-226,957	-200,000	0,014	0,099
-225,942	-37,098	0,072	0,028
-224,927	7,991	-0,027	-0,014
-223,913	163,804	0,088	-0,090
-222,898	800,000	0,035	-0,097
-221,884	-200,000	-0,000	0,009
-220,869	-31,945	0,071	0,029
-219,855	219,865	0,031	-0,035
-218,840	455,481	-0,094	0,151
-217,825	7,643	0,041	-0,022
-216,811	800,000	-0,014	-0,036
-215,796	130,101	-0,099	-0,092
-214,782	98,601	0,070	-0,059
-213,767	-200,000	-0,013	-0,049
-212,752	-31,288	0,111	-0,045
-211,738	-62,705	-0,164	-0,049
-210,723	546,966	0,047	-0,082
-209,709	-200,000	0,003	0,069
-208,694	-96,132	0,050	0,010
-207,679	-200,000	-0,025	-0,087
-206,665	800,000	-0,009	-0,022
-205,650	354,630	0,033	0,047
-204,636	-200,000	-0,013	-0,059
-203,621	537,564	-0,019	-0,033
-202,606	185,410	-0,082	0,088
-201,592	-54,655	0,141	0,046
-200,577	-125,836	-0,066	-0,007
-199,563	116,218	0,075	-0,066
-198,548	-200,000	0,002	0,047
-197,533	143,702	0,066	0,064
-196,519	800,000	0,025	-0,070
-195,504	15,593	0,047	0,027
-194,490	74,428	-0,138	-0,104
-193,475	-8,558	-0,058	0,028
-192,460	1,129	0,045	0,023
-191,446	800,000	0,042	-0,111
-190,431	-200,000	-0,001	-0,069
-189,417	800,000	-0,048	0,137
-188,402	-200,000	-0,014	0,068
-187,387	688,062	-0,022	0,042
-186,373	592,069	0,038	0,068
-185,358	-83,222	-0,097	0,022
-184,344	-200,000	-0,006	0,035
-183,329	5,413	0,068	0,036
-182,315	-200,000	0,008	-0,055
-181,300	78,597	0,167	-0,129
-180,285	63,200	-0,105	0,076
-179,271	7,445	-0,136	-0,073
-178,256	-125,733	-0,106	-0,011
-177,242	143,152	-0,059	0,056
-176,227	800,000	-0,007	-0,020
-175,212	-87,828	0,061	0,013
-174,198	-200,000	0,014	-0,121
-173,183	455,604	-0,098	-0,158
-172,169	500,148	0,049	-0,081
-171,154	-200,000	0,000	0,050
-170,139	300,259	0,008	-0,011
-169,125	6,291	0,127	-0,068
-168,110	800,000	0,036	-0,114
-167,096	220,717	-0,017	-0,019
-166,081	7,011	0,037	0,020
-165,066	488,109	0,023	-0,039
-164,052	-39,111	0,060	-0,023
-163,037	-126,948	0,092	-0,010
-162,023	-200,000	0,003	0,070
-161,008	207,358	0,038	-0,043
-159,993	-32,071	0,118	0,047
-158,979	1,009	-0,100	-0,052
-157,964	800,000	-0,017	-0,047
-156,950	-48,964	0,035	-0,012
-155,935	-28,834	0,194	-0,080
-154,920	-200,000	-0,004	-0,046
-153,906	25,692	-0,087	0,052
-152,891	-200,000	-0,004	0,031
-151,877	-7,391	-0,091	0,044
-150,862	358,807	-0,041	-0,059
-149,847	-200,000	0,020	0,100
-148,833	-200,000	0,010	0,049
-147,818	200,511	0,097	0,108
-146,804	-200,000	0,042	-0,173
-145,789	770,966	-0,029	0,058
-144,775	21,259	0,097	0,057
-143,760	-200,000	-0,008	-0,120
-142,745	-125,004	0,086	-0,009
-141,731	-200,000	-0,006	0,061
-140,716	-32,393	0,066	0,026
-139,702	-131,083	-0,086	0,008
-138,687	-0,192	0,107	0,055
-137,672	-200,000	0,051	0,215
-136,658	-5,049	-0,068	-0,034
-135,643	-63,038	-0,077	-0,023
-134,629	-27,617	0,144	-0,060
-133,614	-59,641	0,016	-0,005
-132,599	-139,777	-0,070	0,005
-131,585	-16,355	0,133	0,061
-130,570	-107,692	-0,029	-0,004
-129,556	279,348	0,062	0,080
-128,541	-99,978	-0,037	0,007
-127,526	-62,353	-0,106	-0,032
-126,512	-200,000	0,019	-0,138
-125,497	-200,000	0,012	0,086
-124,483	148,941	0,135	0,131
-123,468	495,773	-0,063	-0,104
-122,453	-150,547	-0,145	0,008
-121,439	-200,000	-0,012	-0,084
-120,424	458,009	0,067	0,108
-119,410	363,417	0,038	0,055
-118,395	316,940	0,044	0,060
