DTS Sentinel unit serial number:	SN410029Multiplexer serial number:	ORYXHardware model number:	OX2-SRSoftware version number:	ORYX F/W v4,00 Oryx Data Collector v3.7.2.0data status	okinstallation	B5 Nyhavnadifferential loss correction	single-endedforward channel	channel 2reverse channel	N/Adate	2023/12/11time	14:17:13forward acquisition time	300,00reverse acquisition time	0,00gamma	499,1914k internal	0,3164k external	0,3164temperature offset calibration	1,0000default loss term (dB/km)	0,3820temperature slope calibration	1,0000multiplexer offset coefficient	1,0000multiplexer slope coefficient	1,0000fibre end	0,00T internal ref (°C)	12,18T ext. ref 1 (°C)	-1,84T ext. ref 2 (°C)	-1,90length (m)	temperature (°C)	Stokes	anti-Stokes-744,400	-106,384	0,139	0,023
-743,385	-27,545	-0,258	-0,110
-742,371	-200,000	0,013	0,077
-741,356	-44,130	-0,231	-0,085
-740,342	99,824	0,125	0,106
-739,327	-72,424	-0,281	-0,076
-738,312	-147,708	0,151	-0,009
-737,298	-65,971	-0,291	-0,085
-736,283	61,186	0,030	0,022
-735,269	-72,484	-0,243	0,066
-734,254	-200,000	-0,029	0,158
-733,239	23,884	-0,460	-0,278
-732,225	-32,997	0,192	-0,078
-731,210	-100,452	-0,047	-0,008
-730,196	-161,714	0,053	0,002
-729,181	48,773	-0,137	-0,094
-728,167	-200,000	-0,002	0,132
-727,152	-200,000	-0,015	0,068
-726,137	14,668	-0,006	0,003
-725,123	-121,222	-0,090	0,011
-724,108	-200,000	0,001	-0,098
-723,094	-114,739	-0,033	0,005
-722,079	-41,223	-0,136	-0,051
-721,064	-73,990	0,053	0,014
-720,050	800,000	0,049	-0,148
-719,035	-96,679	-0,127	0,024
-718,021	800,000	0,031	-0,082
-717,006	60,749	-0,181	-0,132
-715,991	-200,000	-0,055	-0,275
-714,977	-65,902	-0,156	-0,045
-713,962	-9,570	-0,083	0,041
-712,948	16,751	0,131	-0,076
-711,933	17,235	-0,053	0,031
-710,918	-130,670	-0,073	-0,007
-709,904	347,055	-0,059	-0,086
-708,889	415,572	-0,007	0,011
-707,875	-139,773	-0,119	-0,009
-706,860	800,000	0,040	-0,082
-705,845	800,000	-0,037	-0,079
-704,831	271,582	-0,033	-0,043
-703,816	-200,000	-0,003	-0,090
-702,802	-200,000	0,008	0,063
-701,787	84,538	0,020	0,016
-700,772	-18,841	-0,068	0,031
-699,758	800,000	-0,061	0,137
-698,743	-200,000	0,029	-0,136
-697,729	745,350	-0,030	-0,059
-696,714	-43,461	-0,050	-0,018
-695,699	-200,000	-0,037	-0,127
-694,685	-200,000	0,008	-0,155
-693,670	329,431	-0,054	-0,077
-692,656	-28,374	-0,044	0,019
-691,641	62,820	0,036	-0,026
-690,627	-200,000	0,039	0,159
-689,612	79,510	-0,025	-0,020
-688,597	-151,847	-0,175	0,009
-687,583	-26,997	-0,069	-0,029
-686,568	-134,193	-0,006	-0,001
-685,554	-200,000	-0,003	-0,042
-684,539	-181,647	-0,031	0,000
-683,524	-11,163	-0,199	0,096
-682,510	-200,000	-0,022	-0,114
-681,495	313,084	0,046	0,063
-680,481	302,563	0,045	0,062
-679,466	298,082	-0,032	0,044
-678,451	-200,000	-0,026	0,107
-677,437	81,145	0,093	0,073
-676,422	3,181	-0,071	-0,038
-675,408	-116,671	-0,072	0,010
-674,393	-200,000	-0,007	-0,041
-673,378	88,113	-0,140	-0,114
-672,364	-200,000	-0,025	-0,087
-671,349	13,670	-0,169	-0,096
-670,335	132,473	-0,030	-0,028
-669,320	33,802	0,014	-0,009
-668,305	-155,711	-0,091	0,004
-667,291	-200,000	0,006	0,108
-666,276	-24,806	-0,147	-0,064
-665,262	81,636	-0,108	-0,086
-664,247	157,348	-0,077	-0,078
-663,232	236,831	-0,004	-0,005
-662,218	800,000	0,023	0,069
-661,203	-200,000	-0,006	0,078
-660,189	62,066	-0,187	-0,137
-659,174	150,407	0,103	0,103
-658,159	-11,115	-0,062	-0,030
-657,145	-75,712	-0,020	0,005
-656,130	-132,572	-0,167	-0,016
-655,116	147,311	-0,036	0,036
-654,101	-172,104	0,112	-0,003
-653,086	-200,000	0,012	-0,042
-652,072	62,406	-0,078	-0,057
-651,057	-200,000	0,001	-0,016
-650,043	199,998	-0,115	-0,130
-649,028	-200,000	-0,009	-0,112
-648,014	449,691	-0,023	-0,037
-646,999	-55,790	0,097	-0,032
-645,984	11,279	-0,079	-0,044
-644,970	660,393	0,010	-0,019
-643,955	-87,723	0,047	0,010
-642,941	-56,854	-0,034	0,011
-641,926	800,000	-0,014	0,036
-640,911	-120,593	-0,066	0,008
-639,897	581,952	0,023	-0,042
-638,882	-132,619	-0,060	-0,006
-637,868	-200,000	0,012	-0,060
-636,853	-200,000	0,002	-0,025
-635,838	707,909	-0,029	0,057
-634,824	-37,023	-0,108	-0,042
-633,809	-139,681	0,093	0,007
-632,795	190,892	-0,038	0,041
-631,780	-200,000	-0,006	-0,052
-630,765	113,686	-0,050	-0,045
-629,751	-200,000	-0,003	-0,080
-628,736	-71,075	-0,089	-0,024
-627,722	10,527	0,095	-0,053
-626,707	70,110	-0,064	0,048
-625,692	22,922	0,060	-0,036
-624,678	-3,886	-0,029	-0,014
-623,663	-58,706	-0,142	0,045
-622,649	370,754	-0,046	-0,069
-621,634	800,000	-0,046	-0,123
-620,619	-90,013	0,136	0,029
-619,605	-200,000	-0,005	0,019
-618,590	-69,364	0,094	0,026
-617,576	760,561	-0,057	0,114
-616,561	117,936	-0,041	0,037
-615,546	-9,628	-0,090	0,044
-614,532	150,954	-0,068	-0,068
-613,517	800,000	0,079	-0,164
-612,503	-145,551	0,048	-0,003
-611,488	-105,433	0,089	0,015
-610,474	17,376	-0,130	0,075
-609,459	-200,000	-0,013	-0,116
-608,444	27,039	-0,145	-0,089
-607,430	-119,987	0,037	-0,005
-606,415	300,294	0,078	0,106
-605,401	311,428	0,047	0,064
-604,386	420,019	0,079	0,125
-603,371	-59,311	0,031	-0,010
-602,357	-116,356	0,123	-0,016
-601,342	787,829	-0,097	-0,196
-600,328	385,335	-0,106	-0,161
-599,313	474,363	-0,005	-0,009
-598,298	-108,802	0,125	-0,019
-597,284	-51,798	0,045	0,015
-596,269	-79,190	0,074	-0,018
-595,255	-100,626	-0,129	0,023
-594,240	-162,141	-0,132	0,005
-593,225	-200,000	0,005	-0,038
-592,211	-200,000	-0,000	0,008
-591,196	586,664	0,041	0,074
-590,182	-45,304	-0,056	-0,020
-589,167	-15,630	0,198	0,092
-588,152	-200,000	-0,007	-0,064
-587,138	-200,000	0,007	0,046
-586,123	326,837	-0,100	-0,141
-585,109	129,767	-0,038	-0,036
-584,094	-100,745	0,086	-0,015
-583,079	-190,267	0,151	0,001
-582,065	-200,000	0,012	0,075
-581,050	-200,000	-0,003	0,053
-580,036	800,000	-0,025	-0,060
-579,021	-200,000	-0,008	-0,069
-578,006	800,000	-0,092	-0,247
-576,992	-137,125	-0,082	-0,007
-575,977	426,538	0,030	-0,047
-574,963	525,291	0,066	-0,113
-573,948	-139,201	-0,027	0,002
-572,934	135,206	-0,089	0,085
-571,919	-58,743	-0,164	0,052
-570,904	78,840	-0,043	0,034
-569,890	-200,000	0,005	0,071
-568,875	-10,862	0,049	0,024
-567,861	112,726	-0,034	0,030
-566,846	-200,000	-0,006	0,123
-565,831	800,000	0,042	0,086
-564,817	346,609	0,045	-0,065
-563,802	155,311	-0,068	0,068
-562,788	-91,521	0,081	-0,017
-561,773	205,093	0,078	0,089
-560,758	-83,081	-0,040	-0,009
-559,744	-200,000	0,004	0,125
-558,729	38,905	0,033	-0,021
-557,715	-126,107	0,014	0,002
-556,700	-200,000	-0,058	-0,240
-555,685	8,392	0,035	0,019
-554,671	448,220	-0,044	0,072
-553,656	-200,000	0,007	-0,059
-552,642	651,221	0,051	0,096
-551,627	550,166	-0,059	0,104
-550,612	-9,594	-0,079	-0,038
-549,598	13,616	-0,063	0,035
-548,583	263,318	-0,016	-0,020
-547,569	-18,356	0,070	-0,032
-546,554	326,954	-0,042	-0,058
-545,539	628,550	-0,013	0,024
-544,525	-15,149	0,163	0,076
-543,510	-50,282	0,047	0,016
-542,496	-4,930	-0,103	-0,052
-541,481	-76,686	-0,083	0,021
-540,466	800,000	-0,041	-0,088
-539,452	1,474	0,069	0,036
-538,437	-76,073	0,126	0,032
-537,423	-80,055	-0,102	-0,025
-536,408	-142,507	0,072	-0,005
-535,393	800,000	-0,034	-0,097
-534,379	800,000	-0,019	-0,059
-533,364	800,000	-0,012	-0,037
-532,350	800,000	0,020	-0,057
-531,335	-87,141	0,084	0,018
-530,321	592,529	0,007	0,013
-529,306	572,646	0,043	-0,078
-528,291	26,037	-0,058	-0,035
-527,277	30,458	0,065	-0,040
-526,262	111,782	-0,053	-0,047
-525,248	-200,000	0,009	0,041
-524,233	800,000	-0,014	0,034
-523,218	-200,000	-0,010	0,046
-522,204	145,624	0,093	0,091
-521,189	29,755	-0,103	-0,064
-520,175	-69,571	-0,204	-0,057
-519,160	800,000	-0,055	-0,171
-518,145	-200,000	-0,034	0,118
-517,131	188,109	0,093	-0,101
-516,116	-111,736	-0,074	-0,011
-515,102	-106,045	-0,131	0,021
-514,087	-126,463	-0,014	0,002
-513,072	-11,384	-0,174	-0,083
-512,058	-200,000	0,033	-0,152
-511,043	-200,000	0,013	-0,065
-510,029	-200,000	0,002	0,150
-509,014	800,000	-0,005	0,013
-507,999	-167,190	0,153	-0,004
-506,985	7,742	0,021	-0,011
-505,970	659,288	0,068	0,129
-504,956	800,000	0,004	-0,009
-503,941	26,565	0,062	0,038
-502,926	82,253	0,097	-0,077
-501,912	-170,948	-0,031	-0,001
-500,897	-200,000	0,008	0,145
-499,883	-200,000	0,016	-0,138
-498,868	800,000	-0,028	0,081
-497,853	-45,226	-0,156	0,056
-496,839	389,731	-0,048	0,072
-495,824	527,329	0,084	0,145
-494,810	-200,000	-0,024	0,127
-493,795	800,000	0,056	-0,125
-492,781	-84,089	-0,037	-0,008
-491,766	60,652	0,116	0,083
-490,751	525,799	-0,070	0,121
-489,737	-31,246	-0,045	-0,018
-488,722	-200,000	-0,011	-0,082
-487,708	800,000	0,043	-0,125
-486,693	800,000	0,038	-0,089
-485,678	-200,000	-0,007	-0,049
-484,664	-110,724	-0,153	-0,023
-483,649	-51,873	-0,018	0,006
-482,635	25,304	-0,114	0,069
-481,620	-158,317	-0,085	0,004
-480,605	8,265	0,066	-0,036
-479,591	800,000	-0,075	0,214
-478,576	209,024	0,031	0,035
-477,562	117,762	-0,030	-0,027
-476,547	800,000	-0,095	-0,231
-475,532	-200,000	0,024	-0,175
-474,518	223,093	-0,029	0,035
-473,503	91,700	0,130	0,106
-472,489	-60,112	0,099	0,031
-471,474	413,542	-0,021	-0,033
-470,459	-23,348	-0,115	0,050
-469,445	258,944	-0,041	-0,051
-468,430	-200,000	-0,039	-0,156
-467,416	-96,312	0,080	0,015
-466,401	-190,572	0,055	-0,000
-465,386	388,765	-0,048	-0,073
-464,372	12,750	-0,074	-0,042
-463,357	-131,751	-0,134	-0,013
-462,343	-138,500	-0,034	-0,003
-461,328	-102,545	-0,086	0,015
-460,313	-200,000	0,016	-0,137
-459,299	-200,000	0,047	0,173
-458,284	-9,693	-0,019	0,009
-457,270	381,905	-0,043	-0,065
-456,255	-178,547	-0,086	0,001
-455,241	800,000	-0,044	-0,123
-454,226	-97,070	0,086	-0,016
-453,211	33,934	0,105	0,067
-452,197	800,000	-0,003	0,008
-451,182	292,032	0,048	0,064
-450,168	800,000	0,041	0,098
-449,153	147,192	0,032	0,031
-448,138	49,529	-0,045	-0,030
-447,124	43,845	-0,023	0,015
-446,109	-99,170	0,110	0,020
-445,095	233,895	-0,014	-0,017
-444,080	43,697	-0,125	0,083
-443,065	444,646	0,073	0,117
-442,051	479,888	0,070	0,116
-441,036	-146,918	-0,102	-0,006
-440,022	-7,507	-0,053	-0,026
-439,007	21,937	0,126	-0,075
-437,992	89,126	0,093	-0,075
-436,978	-26,450	0,086	0,036
-435,963	66,802	0,130	0,096
-434,949	-30,573	0,072	-0,030
-433,934	-51,844	-0,087	-0,029
-432,919	-131,076	-0,176	0,017
-431,905	144,525	0,033	-0,032
-430,890	800,000	-0,048	0,120
-429,876	-120,858	0,063	-0,008
-428,861	333,504	0,043	0,061
-427,846	536,789	0,060	0,104
-426,832	800,000	-0,032	-0,090
-425,817	42,319	-0,049	-0,032
-424,803	105,204	0,120	0,103
-423,788	-200,000	-0,008	0,048
-422,773	-200,000	0,029	0,131
-421,759	-137,969	-0,049	0,004
-420,744	51,771	0,153	-0,106
-419,730	-101,608	-0,165	-0,029
-418,715	-200,000	-0,002	-0,102
-417,701	-133,412	0,122	0,011
-416,686	-200,000	-0,001	0,103
-415,671	-200,000	0,016	0,079
-414,657	-200,000	-0,015	-0,079
-413,642	124,959	0,076	0,069
-412,628	63,388	-0,096	0,070
-411,613	-103,059	-0,099	0,017
-410,598	-197,921	-0,101	0,000
-409,584	22,998	0,103	-0,061
-408,569	-107,426	0,129	0,020
-407,555	-200,000	0,008	0,084
-406,540	-56,244	-0,056	0,018
-405,525	800,000	0,016	-0,039
-404,511	-200,000	-0,004	0,116
-403,496	59,548	-0,081	-0,058
-402,482	0,462	0,102	-0,053
-401,467	-200,000	-0,028	0,125
-400,452	160,372	-0,097	0,098
-399,438	-200,000	0,002	0,111
-398,423	-24,933	0,054	0,023
-397,409	-200,000	-0,002	0,076
-396,394	33,957	-0,059	-0,037
-395,379	-71,384	0,023	0,006
-394,365	-162,349	0,143	0,005
-393,350	307,680	-0,005	-0,007
-392,336	265,552	0,013	-0,017
-391,321	622,825	0,058	0,107
-390,306	-23,590	-0,144	0,062
-389,292	-33,698	-0,083	-0,033
-388,277	-2,730	0,067	-0,034
-387,263	-137,209	0,057	0,005
-386,248	152,066	0,090	0,089
-385,233	800,000	0,037	-0,082
-384,219	-12,038	0,051	0,024
-383,204	800,000	-0,032	-0,088
-382,190	-69,711	-0,050	0,014
-381,175	237,255	-0,028	0,034
-380,160	-85,984	0,097	-0,021
-379,146	-200,000	0,021	0,104
-378,131	-89,851	-0,027	0,006
-377,117	73,506	0,126	-0,096
-376,102	192,526	-0,089	-0,097
-375,088	-9,292	-0,118	-0,057
-374,073	41,421	-0,113	-0,074
-373,058	68,347	0,061	0,045
-372,044	683,277	0,099	0,189
-371,029	-200,000	0,005	0,084
-370,015	3,629	-0,018	0,009
-369,000	800,000	0,039	0,108
-367,985	170,552	0,022	-0,023
-366,971	573,120	-0,114	-0,203
-365,956	-55,473	0,127	0,041
-364,942	240,502	0,077	0,094
-363,927	-94,198	-0,151	0,030
-362,912	118,514	-0,028	0,025
-361,898	20,733	-0,061	0,036
-360,883	78,503	-0,127	-0,098
-359,869	-200,000	0,030	0,098
-358,854	-146,420	0,148	0,009
-357,839	157,515	0,110	-0,110
-356,825	-49,281	-0,151	-0,052
-355,810	-79,909	-0,069	0,017
-354,796	-133,222	-0,030	-0,003
-353,781	-200,000	-0,004	-0,112
-352,766	181,069	0,076	-0,081
-351,752	346,345	0,062	-0,089
-350,737	-200,000	0,025	0,151
-349,723	3,505	-0,047	0,025
-348,708	-120,854	0,101	-0,012
-347,693	800,000	-0,044	-0,106
-346,679	800,000	0,006	-0,017
-345,664	188,615	-0,070	-0,076
-344,650	738,090	0,043	0,084
-343,635	-200,000	-0,021	-0,071
-342,620	48,933	-0,077	-0,052
-341,606	-80,277	-0,057	0,014
-340,591	19,505	0,093	0,054
-339,577	-80,840	-0,128	-0,031
-338,562	-64,365	0,112	0,033
-337,548	0,048	0,033	0,017
-336,533	-5,159	0,073	-0,036
-335,518	297,148	0,116	0,155
-334,504	-79,814	-0,065	0,016
-333,489	191,722	0,067	0,073
-332,475	-10,716	-0,074	-0,036
-331,460	22,142	-0,089	-0,053
-330,445	-24,289	-0,073	0,032
-329,431	152,435	0,059	-0,058
-328,416	53,413	-0,085	-0,059
-327,402	136,727	-0,041	-0,039
-326,387	-200,000	-0,025	0,110
-325,372	503,922	0,041	0,070
-324,358	-17,076	0,084	0,038
-323,343	-170,991	0,036	-0,001
-322,329	211,952	0,034	-0,038
-321,314	-200,000	0,002	-0,033
-320,299	143,439	0,065	0,062
-319,285	64,032	-0,072	0,052
-318,270	-61,924	-0,005	0,002
-317,256	800,000	-0,043	0,089
-316,241	-200,000	0,027	0,099
-315,226	-124,678	0,040	-0,004
-314,212	189,498	0,053	0,058
-313,197	265,719	0,064	0,081
-312,183	-110,498	0,093	0,014
-311,168	705,782	-0,021	-0,040
-310,153	341,149	0,026	-0,037
-309,139	-130,304	0,024	0,002
-308,124	800,000	-0,046	-0,119
-307,110	173,595	-0,092	-0,096
-306,095	-107,220	0,101	0,016
-305,080	800,000	0,090	0,183
-304,066	-90,742	0,093	-0,019
-303,051	-38,727	-0,092	0,035
-302,037	-5,028	0,069	-0,034
-301,022	-200,000	0,004	-0,105
-300,008	-200,000	0,014	0,086
-298,993	-200,000	0,033	0,108
-297,978	287,834	0,038	0,049
-296,964	-200,000	-0,013	0,086
-295,949	70,504	0,199	-0,148
-294,935	769,998	-0,019	-0,037
-293,920	-32,617	0,108	-0,043
-292,905	317,752	0,026	0,036
-291,891	-170,766	0,079	-0,002
-290,876	-200,000	0,012	0,055
-289,862	800,000	-0,038	-0,077
-288,847	204,656	0,121	-0,136
-287,832	52,181	0,105	-0,073
-286,818	800,000	-0,025	-0,067
-285,803	452,393	0,039	0,062
-284,789	800,000	-0,022	-0,052
-283,774	301,642	0,033	-0,044
-282,759	-53,463	-0,110	-0,036
-281,745	800,000	0,010	-0,026
-280,730	800,000	-0,032	-0,089
-279,716	20,238	-0,019	-0,011
-278,701	-19,271	0,093	0,042
-277,686	328,741	0,082	-0,114
-276,672	-8,315	0,052	0,025
-275,657	-64,597	-0,035	-0,010
-274,643	586,369	-0,036	-0,064
-273,628	-58,129	-0,132	-0,041
-272,613	81,426	-0,107	-0,083
-271,599	239,222	0,033	0,040
-270,584	-200,000	0,001	0,081
-269,570	345,406	-0,038	-0,054
-268,555	-29,582	-0,096	-0,039
-267,540	-200,000	-0,003	0,039
-266,526	-200,000	-0,044	-0,212
-265,511	-200,000	-0,036	-0,121
-264,497	-101,084	0,100	-0,018
-263,482	-27,200	0,010	0,004
-262,467	102,277	0,113	0,095
-261,453	-67,763	0,137	0,038
-260,438	697,572	0,025	0,049
-259,424	-83,855	0,068	-0,016
-258,409	348,135	-0,056	0,079
-257,395	433,883	-0,037	0,058
-256,380	800,000	0,073	-0,165
-255,365	177,160	0,088	-0,093
-254,351	301,337	0,056	-0,075
-253,336	195,130	-0,114	-0,125
-252,322	800,000	0,033	-0,079
-251,307	-200,000	0,037	-0,139
-250,292	-200,000	-0,009	-0,081
-249,278	630,590	-0,033	0,060
-248,263	55,242	0,104	0,072
-247,249	303,965	0,071	-0,095
-246,234	354,910	-0,012	-0,017
-245,219	-158,526	-0,110	-0,005
-244,205	15,055	0,005	-0,003
-243,190	598,883	0,038	0,069
-242,176	-200,000	0,021	0,096
-241,161	-129,914	-0,086	0,008
-240,146	114,795	0,033	-0,029
-239,132	800,000	-0,036	-0,075
-238,117	8,638	-0,094	0,051
-237,103	441,048	-0,073	0,115
-236,088	-17,441	0,108	0,049
-235,073	-200,000	0,011	-0,102
-234,059	28,593	0,054	-0,033
-233,044	-88,613	0,095	0,020
-232,030	-2,932	-0,162	0,081
-231,015	-143,569	0,096	-0,006
-230,000	75,558	0,018	-0,014
-228,986	-200,000	0,003	0,067
-227,971	91,328	-0,037	0,030
-226,957	110,735	-0,056	0,049
-225,942	-110,583	-0,089	-0,013
-224,927	375,425	-0,046	0,067
-223,913	21,528	-0,062	-0,037
-222,898	120,899	-0,028	0,025
-221,884	-41,243	-0,012	0,004
-220,869	800,000	0,069	-0,169
-219,855	-81,134	0,102	0,024
-218,840	443,725	-0,026	0,042
-217,825	-200,000	-0,005	-0,050
-216,811	-200,000	0,012	0,072
-215,796	70,687	-0,068	-0,051
-214,782	-83,612	-0,078	0,018
-213,767	-2,124	0,038	-0,019
-212,752	385,973	0,015	-0,022
-211,738	-95,365	-0,031	-0,006
-210,723	800,000	-0,026	-0,056
-209,709	-126,823	0,068	0,007
-208,694	247,721	-0,057	0,069
-207,679	274,255	-0,056	0,071
-206,665	448,233	0,072	0,114
-205,650	-53,327	0,110	0,036
-204,636	-200,000	0,004	-0,042
-203,621	302,070	-0,141	0,188
-202,606	-200,000	0,001	-0,073
-201,592	572,068	-0,079	-0,140
-200,577	-200,000	0,020	0,125
-199,563	101,943	-0,082	0,069
-198,548	-200,000	-0,018	0,070
-197,533	800,000	-0,026	0,079
-196,519	-200,000	0,015	0,114
-195,504	800,000	0,017	0,046
-194,490	121,754	-0,063	0,056
-193,475	800,000	-0,031	0,094
-192,460	626,938	0,041	-0,074
-191,446	800,000	-0,025	0,051
-190,431	800,000	0,023	-0,059
-189,417	-41,000	0,033	0,012
-188,402	114,632	-0,062	0,054
-187,387	800,000	0,048	-0,121
-186,373	-74,042	0,041	-0,011
-185,358	609,464	0,069	-0,124
-184,344	-85,897	0,109	0,024
-183,329	-200,000	0,022	0,074
-182,315	800,000	0,059	0,155
-181,300	199,922	-0,099	0,109
-180,285	201,449	0,049	-0,055
-179,271	-78,180	-0,101	-0,025
-178,256	190,799	-0,050	0,054
-177,242	139,825	-0,076	0,072
-176,227	-64,179	-0,146	-0,043
-175,212	187,489	0,027	-0,029
-174,198	-163,510	-0,071	0,002
-173,183	800,000	0,024	0,075
-172,169	36,731	-0,054	-0,034
-171,154	800,000	-0,040	-0,090
-170,139	-200,000	-0,018	0,107
-169,125	-200,000	0,001	0,075
-168,110	10,657	0,110	0,060
-167,096	-169,055	0,053	0,001
-166,081	-33,674	0,073	-0,029
-165,066	-5,017	-0,090	-0,044
-164,052	800,000	-0,042	-0,093
-163,037	800,000	-0,054	-0,150
-162,023	544,274	0,031	0,054
-161,008	89,205	0,037	-0,029
-159,993	444,335	0,007	0,012
-158,979	-200,000	0,003	0,075
-157,964	181,688	0,071	-0,075
-156,950	-47,326	0,087	0,030
-155,935	-200,000	0,006	0,040
-154,920	104,119	-0,064	0,054
-153,906	-200,000	0,015	0,133
-152,891	800,000	-0,026	-0,072
-151,877	76,220	0,066	-0,050
-150,862	-116,490	-0,122	0,016
-149,847	-200,000	-0,013	-0,157
-148,833	-20,383	-0,078	-0,034
-147,818	-122,148	0,099	0,012
-146,804	-200,000	-0,036	0,156
-145,789	-199,401	-0,182	0,001
-144,775	38,126	-0,069	0,044
-143,760	-200,000	-0,023	-0,168
-142,745	-200,000	0,001	0,016
-141,731	132,795	-0,047	0,043
-140,716	-186,259	-0,118	-0,001
-139,702	180,705	-0,119	0,125
-138,687	-124,632	0,073	-0,008
-137,672	73,089	0,053	0,039
-136,658	55,883	0,011	0,007
-135,643	408,962	-0,052	-0,079
-134,629	17,788	-0,034	0,020
-133,614	101,352	0,126	0,106
-132,599	-200,000	0,002	0,050
-131,585	613,278	-0,027	-0,048
-130,570	-200,000	0,007	0,072
-129,556	-52,164	0,145	0,048
-128,541	-200,000	0,020	-0,169
-127,526	220,484	-0,079	0,091
-126,512	163,752	0,102	0,103
-125,497	147,563	-0,095	0,092
-124,483	-200,000	0,012	0,062
-123,468	450,537	-0,014	0,022
-122,453	800,000	-0,029	-0,073
-121,439	42,842	0,178	0,116
-120,424	574,922	0,036	-0,063
-119,410	30,379	0,101	-0,062
