DTS Sentinel unit serial number:	SN410029Multiplexer serial number:	ORYXHardware model number:	OX2-SRSoftware version number:	ORYX F/W v4,00 Oryx Data Collector v3.7.2.0data status	okinstallation	B5 Nyhavnadifferential loss correction	single-endedforward channel	channel 2reverse channel	N/Adate	2023/12/13time	09:52:14forward acquisition time	300,00reverse acquisition time	0,00gamma	499,1914k internal	0,3160k external	0,3160temperature offset calibration	1,0000default loss term (dB/km)	0,3820temperature slope calibration	1,0000multiplexer offset coefficient	1,0000multiplexer slope coefficient	1,0000fibre end	0,00T internal ref (°C)	13,65T ext. ref 1 (°C)	-2,70T ext. ref 2 (°C)	-3,01length (m)	temperature (°C)	Stokes	anti-Stokes-744,400	161,080	0,072	0,074
-743,385	-140,434	-0,356	-0,027
-742,371	-92,211	0,172	0,035
-741,356	-8,293	-0,162	0,080
-740,342	-72,681	0,113	0,030
-739,327	-85,905	-0,394	0,089
-738,312	-80,807	0,050	-0,012
-737,298	-158,699	-0,444	-0,018
-736,283	-6,700	0,087	-0,044
-735,269	-103,174	-0,343	0,059
-734,254	-19,104	-0,054	0,025
-733,239	-42,214	-0,443	-0,166
-732,225	118,497	0,232	0,211
-731,210	800,000	-0,068	0,139
-730,196	-90,035	0,040	-0,009
-729,181	-131,806	-0,048	-0,005
-728,167	-68,795	-0,109	0,031
-727,152	-165,762	0,036	0,001
-726,137	86,401	-0,117	0,095
-725,123	-33,333	0,078	0,032
-724,108	-73,433	-0,242	-0,065
-723,094	-31,812	-0,066	-0,027
-722,079	-200,000	0,025	-0,166
-721,064	-19,744	-0,031	-0,014
-720,050	-47,239	-0,095	0,034
-719,035	800,000	0,046	-0,122
-718,021	452,015	-0,065	-0,106
-717,006	245,101	-0,070	-0,086
-715,991	-200,000	0,019	0,085
-714,977	-200,000	0,038	-0,141
-713,962	406,194	-0,058	-0,091
-712,948	557,325	0,086	-0,153
-711,933	626,350	-0,074	-0,139
-710,918	-132,983	0,089	0,008
-709,904	-200,000	-0,016	0,156
-708,889	-0,147	-0,132	-0,069
-707,875	122,838	0,043	-0,040
-706,860	128,735	-0,118	0,110
-705,845	677,798	0,069	0,132
-704,831	155,626	0,105	-0,106
-703,816	800,000	-0,029	-0,071
-702,802	800,000	0,024	0,055
-701,787	28,384	-0,083	-0,051
-700,772	121,268	-0,025	-0,023
-699,758	-4,790	0,061	-0,031
-698,743	18,811	0,119	0,070
-697,729	-200,000	-0,023	0,115
-696,714	800,000	-0,093	0,206
-695,699	489,584	-0,008	-0,014
-694,685	-175,290	0,058	-0,001
-693,670	-200,000	-0,028	-0,099
-692,656	550,671	-0,029	-0,052
-691,641	295,808	0,052	-0,071
-690,627	11,939	0,090	-0,051
-689,612	-28,134	-0,037	0,016
-688,597	-200,000	-0,024	-0,114
-687,583	604,827	-0,051	-0,093
-686,568	45,073	0,107	0,072
-685,554	-171,769	-0,171	0,004
-684,539	532,392	0,053	-0,093
-683,524	303,363	-0,084	-0,115
-682,510	174,507	-0,107	-0,114
-681,495	551,805	-0,071	-0,127
-680,481	224,372	0,127	-0,151
-679,466	263,528	-0,014	0,018
-678,451	101,827	-0,053	-0,046
-677,437	800,000	0,059	0,141
-676,422	683,597	-0,025	0,049
-675,408	-200,000	0,114	0,000
-674,393	-147,264	-0,092	0,006
-673,378	24,755	-0,053	-0,032
-672,364	-119,666	0,020	-0,003
-671,349	30,105	0,069	0,043
-670,335	-200,000	-0,030	-0,138
-669,320	-156,206	-0,013	0,001
-668,305	-100,880	-0,218	0,039
-667,291	243,450	0,012	-0,015
-666,276	186,002	-0,096	-0,104
-665,262	291,990	0,080	-0,107
-664,247	-200,000	-0,010	0,110
-663,232	224,592	-0,103	0,122
-662,218	490,228	0,074	0,124
-661,203	800,000	0,008	-0,023
-660,189	-158,703	0,124	0,005
-659,174	-56,503	-0,014	0,005
-658,159	509,130	0,047	-0,081
-657,145	-147,602	-0,125	0,008
-656,130	-42,674	-0,055	0,020
-655,116	-200,000	0,021	0,159
-654,101	-200,000	0,008	0,050
-653,086	480,955	-0,045	-0,076
-652,072	-200,000	-0,001	-0,036
-651,057	120,396	0,052	-0,047
-650,043	-200,000	0,004	-0,086
-649,028	44,177	0,050	-0,034
-648,014	-76,052	0,168	0,043
-646,999	73,207	-0,030	0,023
-645,984	-53,837	-0,043	0,014
-644,970	86,520	-0,066	-0,054
-643,955	315,222	-0,024	-0,034
-642,941	35,234	-0,032	-0,020
-641,926	205,135	0,117	-0,133
-640,911	800,000	0,014	0,044
-639,897	-175,384	-0,118	0,002
-638,882	-144,070	0,087	0,006
-637,868	800,000	-0,007	0,016
-636,853	-200,000	0,002	-0,066
-635,838	-200,000	-0,013	0,096
-634,824	310,540	0,036	0,050
-633,809	144,661	-0,013	-0,013
-632,795	-35,341	0,072	-0,028
-631,780	800,000	-0,026	-0,075
-630,765	800,000	0,072	0,176
-629,751	314,392	-0,034	-0,048
-628,736	-79,790	0,084	-0,020
-627,722	65,445	0,080	0,059
-626,707	-200,000	-0,003	0,181
-625,692	-200,000	0,001	0,045
-624,678	-200,000	-0,024	0,107
-623,663	800,000	-0,010	-0,025
-622,649	65,081	0,021	-0,016
-621,634	796,944	-0,027	0,054
-620,619	682,136	-0,043	-0,083
-619,605	-200,000	-0,002	-0,018
-618,590	-152,545	0,125	-0,006
-617,576	-188,518	0,141	-0,001
-616,561	-200,000	0,021	-0,151
-615,546	138,810	0,029	0,028
-614,532	-104,895	-0,128	0,021
-613,517	-78,934	-0,017	-0,004
-612,503	662,081	-0,025	-0,048
-611,488	-10,366	-0,048	0,023
-610,474	-200,000	-0,001	0,039
-609,459	326,141	-0,052	-0,074
-608,444	208,377	0,047	0,054
-607,430	800,000	0,019	0,057
-606,415	-200,000	-0,045	-0,165
-605,401	-200,000	0,014	-0,050
-604,386	-112,072	0,124	0,018
-603,371	-200,000	0,004	0,041
-602,357	-200,000	0,006	0,045
-601,342	-28,786	0,095	0,040
-600,328	-59,681	-0,103	0,032
-599,313	-71,579	-0,134	0,037
-598,298	50,806	-0,017	-0,012
-597,284	-200,000	-0,027	0,121
-596,269	-3,791	0,048	-0,024
-595,255	-88,489	0,115	-0,025
-594,240	495,349	0,031	-0,052
-593,225	97,696	0,091	0,077
-592,211	223,745	-0,072	0,086
-591,196	23,050	0,129	-0,077
-590,182	-31,033	0,037	0,015
-589,167	-52,139	-0,071	-0,024
-588,152	800,000	-0,028	0,059
-587,138	-13,791	-0,059	-0,028
-586,123	-134,907	-0,116	-0,010
-585,109	67,109	-0,050	-0,037
-584,094	248,838	0,040	0,050
-583,079	147,217	-0,050	0,049
-582,065	-200,000	-0,016	-0,053
-581,050	82,023	0,042	-0,034
-580,036	-107,840	0,152	-0,024
-579,021	-102,413	-0,205	-0,036
-578,006	-200,000	0,034	-0,146
-576,992	-200,000	0,013	-0,173
-575,977	60,438	0,072	0,052
-574,963	291,908	0,042	0,056
-573,948	-200,000	0,001	0,027
-572,934	-200,000	-0,008	0,117
-571,919	-124,570	-0,094	-0,011
-570,904	286,112	-0,047	-0,062
-569,890	-130,243	-0,094	0,009
-568,875	234,804	-0,067	0,081
-567,861	393,926	0,041	-0,063
-566,846	25,890	-0,117	0,071
-565,831	-118,530	-0,127	0,016
-564,817	233,411	-0,054	-0,066
-563,802	-57,413	-0,110	0,035
-562,788	-40,659	-0,029	-0,011
-561,773	-200,000	-0,038	0,130
-560,758	-83,540	0,167	0,039
-559,744	-123,608	0,071	0,008
-558,729	-47,506	0,077	0,027
-557,715	-2,518	-0,173	0,088
-556,700	285,233	-0,036	0,047
-555,685	56,558	0,050	0,035
-554,671	800,000	-0,012	-0,030
-553,656	-58,422	0,146	-0,046
-552,642	800,000	0,051	0,117
-551,627	-38,481	0,048	0,018
-550,612	-200,000	0,002	-0,062
-549,598	800,000	0,010	0,028
-548,583	800,000	-0,041	0,126
-547,569	14,563	-0,037	0,021
-546,554	219,078	-0,018	-0,021
-545,539	608,736	0,019	0,034
-544,525	-200,000	-0,013	0,060
-543,510	225,260	-0,051	0,060
-542,496	-86,021	0,041	-0,009
-541,481	739,254	-0,071	-0,140
-540,466	800,000	-0,020	-0,046
-539,452	-104,689	-0,081	-0,013
-538,437	-176,047	0,122	0,002
-537,423	-84,423	-0,000	0,000
-536,408	741,535	0,062	-0,122
-535,393	-83,498	0,161	0,037
-534,379	800,000	-0,025	0,051
-533,364	800,000	-0,034	-0,108
-532,350	-200,000	0,008	0,056
-531,335	259,852	0,113	0,143
-530,321	-200,000	0,011	-0,093
-529,306	800,000	0,040	0,086
-528,291	30,582	-0,034	-0,021
-527,277	-88,549	-0,115	-0,025
-526,262	800,000	0,030	0,068
-525,248	800,000	-0,035	0,105
-524,233	93,039	-0,068	0,056
-523,218	799,239	0,006	-0,012
-522,204	-200,000	0,000	0,010
-521,189	312,452	-0,071	0,097
-520,175	368,340	-0,050	-0,073
-519,160	20,116	-0,073	-0,043
-518,145	-200,000	0,004	0,030
-517,131	-200,000	-0,031	0,120
-516,116	20,562	-0,030	0,017
-515,102	-200,000	-0,009	-0,148
-514,087	-18,334	0,100	0,046
-513,072	-119,194	-0,133	-0,017
-512,058	800,000	-0,015	-0,044
-511,043	-126,703	0,049	-0,005
-510,029	800,000	0,053	0,128
-509,014	148,876	-0,030	0,030
-507,999	108,758	-0,075	-0,065
-506,985	-200,000	-0,010	0,094
-505,970	-200,000	0,029	-0,187
-504,956	-200,000	-0,003	0,020
-503,941	-200,000	-0,033	-0,142
-502,926	-200,000	-0,027	-0,145
-501,912	432,752	0,093	-0,148
-500,897	-68,962	-0,205	0,057
-499,883	-200,000	0,008	-0,044
-498,868	135,118	-0,114	-0,108
-497,853	-200,000	-0,008	-0,050
-496,839	250,393	0,046	-0,057
-495,824	-200,000	0,005	0,064
-494,810	44,573	-0,018	0,012
-493,795	800,000	0,057	-0,163
-492,781	-200,000	0,004	-0,114
-491,766	173,522	-0,092	-0,097
-490,751	-72,095	-0,136	-0,037
-489,737	-69,398	0,093	-0,026
-488,722	-200,000	-0,025	-0,090
-487,708	-19,957	-0,069	-0,031
-486,693	-73,594	0,057	0,015
-485,678	-164,953	-0,056	-0,002
-484,664	-200,000	-0,006	-0,029
-483,649	638,698	-0,017	0,031
-482,635	158,131	-0,023	0,023
-481,620	800,000	0,020	0,050
-480,605	-200,000	0,004	0,103
-479,591	4,929	-0,084	0,045
-478,576	-200,000	0,009	-0,075
-477,562	-200,000	-0,035	-0,183
-476,547	319,057	0,084	-0,117
-475,532	-200,000	-0,018	-0,087
-474,518	800,000	-0,038	-0,080
-473,503	-33,187	-0,099	-0,040
-472,489	259,850	-0,052	0,065
-471,474	327,883	0,053	0,074
-470,459	212,902	0,046	-0,053
-469,445	408,055	-0,091	-0,141
-468,430	-200,000	-0,005	0,125
-467,416	222,074	0,016	-0,019
-466,401	-85,521	0,107	-0,024
-465,386	75,707	-0,117	0,090
-464,372	288,252	0,048	-0,064
-463,357	208,651	0,076	0,086
-462,343	307,754	0,064	-0,087
-461,328	1,521	-0,033	0,017
-460,313	94,136	0,026	-0,021
-459,299	-200,000	0,007	0,037
-458,284	-53,507	0,040	0,013
-457,270	-115,978	-0,106	0,014
-456,255	527,225	-0,026	0,045
-455,241	-35,857	-0,099	-0,039
-454,226	-46,739	-0,122	-0,043
-453,211	204,587	0,102	-0,116
-452,197	-8,624	-0,145	0,070
-451,182	-53,673	0,068	0,023
-450,168	-200,000	0,003	0,034
-449,153	-28,794	0,120	0,050
-448,138	-200,000	-0,008	0,082
-447,124	-89,793	-0,088	-0,019
-446,109	-47,720	-0,061	0,021
-445,095	-90,358	0,027	-0,006
-444,080	261,498	0,087	-0,110
-443,065	800,000	0,017	-0,038
-442,051	268,354	0,066	-0,085
-441,036	169,193	0,018	-0,018
-440,022	385,595	0,055	-0,083
-439,007	-1,492	-0,045	0,023
-437,992	-200,000	-0,035	0,114
-436,978	78,447	0,016	0,013
-435,963	-200,000	-0,033	-0,148
-434,949	-60,317	-0,128	-0,039
-433,934	-200,000	-0,020	0,071
-432,919	89,745	0,067	-0,055
-431,905	196,377	0,059	0,066
-430,890	800,000	-0,021	-0,048
-429,876	24,511	0,060	-0,036
-428,861	800,000	0,014	0,042
-427,846	800,000	-0,055	-0,124
-426,832	-200,000	-0,004	-0,138
-425,817	800,000	-0,074	-0,159
-424,803	-200,000	0,021	0,106
-423,788	-0,237	0,113	-0,058
-422,773	-91,511	0,079	-0,016
-421,759	-52,839	0,045	0,015
-420,744	-200,000	0,002	0,044
-419,730	454,706	0,087	-0,142
-418,715	348,532	-0,070	0,100
-417,701	-200,000	0,021	-0,083
-416,686	-39,674	-0,034	-0,013
-415,671	-64,138	0,152	-0,045
-414,657	-200,000	0,025	-0,154
-413,642	-200,000	0,009	-0,047
-412,628	-60,109	-0,118	-0,036
-411,613	664,356	-0,055	-0,103
-410,598	12,603	-0,075	-0,042
-409,584	466,555	0,029	0,048
-408,569	800,000	0,072	0,151
-407,555	800,000	-0,068	0,175
-406,540	93,844	-0,102	0,084
-405,525	-200,000	0,003	-0,056
-404,511	800,000	0,047	-0,104
-403,496	97,091	0,162	-0,135
-402,482	536,816	-0,049	-0,086
-401,467	-200,000	0,033	-0,115
-400,452	62,405	-0,030	0,022
-399,438	331,697	0,092	0,129
-398,423	800,000	0,058	0,123
-397,409	276,942	-0,040	-0,052
-396,394	-200,000	-0,002	0,045
-395,379	430,424	0,028	-0,044
-394,365	-200,000	0,006	0,083
-393,350	3,961	0,099	0,053
-392,336	535,781	0,013	0,022
-391,321	102,824	0,059	-0,050
-390,306	-200,000	-0,019	-0,138
-389,292	-133,618	-0,098	-0,009
-388,277	-200,000	0,050	-0,172
-387,263	506,930	-0,034	-0,058
-386,248	800,000	-0,039	0,079
-385,233	-161,594	0,143	0,005
-384,219	-200,000	-0,029	0,139
-383,204	-29,547	-0,153	-0,063
-382,190	127,999	0,085	-0,078
-381,175	66,751	-0,046	-0,034
-380,160	383,839	-0,037	0,056
-379,146	722,711	-0,061	0,118
-378,131	-200,000	-0,001	-0,020
-377,117	-63,017	0,079	0,023
-376,102	-200,000	-0,013	-0,108
-375,088	32,140	0,086	0,054
-374,073	74,526	-0,088	-0,067
-373,058	104,620	-0,061	-0,052
-372,044	404,294	0,042	0,064
-371,029	-92,658	-0,011	0,002
-370,015	-96,679	-0,069	0,013
-369,000	-158,391	0,058	0,002
-367,985	267,878	-0,044	-0,056
-366,971	15,281	-0,068	-0,039
-365,956	-112,424	-0,051	-0,007
-364,942	-200,000	-0,006	0,030
-363,927	-61,799	0,179	0,054
-362,912	118,435	-0,068	0,061
-361,898	-200,000	-0,003	0,062
-360,883	19,624	-0,038	0,022
-359,869	-200,000	-0,006	-0,095
-358,854	210,448	-0,107	0,122
-357,839	-200,000	0,009	-0,053
-356,825	-200,000	-0,011	0,082
-355,810	-200,000	-0,012	0,114
-354,796	-45,006	0,091	0,033
-353,781	299,659	-0,016	-0,022
-352,766	800,000	-0,019	-0,055
-351,752	-25,989	0,058	-0,024
-350,737	-200,000	-0,005	-0,098
-349,723	-200,000	-0,011	0,038
-348,708	-110,481	0,060	-0,009
-347,693	664,732	-0,038	-0,072
-346,679	800,000	-0,063	-0,160
-345,664	-200,000	0,009	-0,091
-344,650	15,472	-0,193	-0,109
-343,635	-200,000	0,010	-0,065
-342,620	-124,691	0,025	-0,003
-341,606	800,000	0,067	-0,136
-340,591	-200,000	0,025	-0,105
-339,577	-33,989	0,099	-0,039
-338,562	27,717	-0,106	-0,065
-337,548	55,259	-0,079	-0,056
-336,533	-174,706	0,073	-0,001
-335,518	-200,000	0,022	0,147
-334,504	-50,723	0,148	-0,050
-333,489	261,351	-0,043	-0,054
-332,475	-101,606	-0,169	0,029
-331,460	142,307	0,085	-0,082
-330,445	20,736	-0,136	0,079
-329,431	-118,072	0,054	0,007
-328,416	-40,347	0,082	-0,031
-327,402	-200,000	0,008	0,038
-326,387	800,000	0,050	0,117
-325,372	33,897	0,107	0,067
-324,358	76,808	0,013	0,010
-323,343	-108,356	0,132	0,020
-322,329	186,554	0,084	0,090
-321,314	36,918	-0,082	0,052
-320,299	211,651	0,047	-0,053
-319,285	-8,221	0,211	0,103
-318,270	-200,000	0,007	-0,119
-317,256	27,805	-0,139	-0,085
-316,241	-200,000	0,008	0,048
-315,226	-82,912	0,053	-0,012
-314,212	30,370	0,083	-0,051
-313,197	148,390	0,069	0,068
-312,183	180,640	0,047	0,050
-311,168	800,000	-0,040	0,082
-310,153	-133,730	-0,107	-0,010
-309,139	60,940	-0,074	-0,053
-308,124	225,560	0,051	-0,060
-307,110	-60,161	-0,098	0,030
-306,095	-133,315	0,083	0,007
-305,080	21,706	-0,011	-0,006
-304,066	-200,000	0,027	-0,121
-303,051	-200,000	0,009	0,039
-302,037	183,659	-0,052	-0,056
-301,022	-120,869	0,113	-0,014
-300,008	376,821	0,047	0,070
-298,993	800,000	0,012	0,029
-297,978	-97,639	-0,022	0,004
-296,964	-200,000	-0,030	-0,117
-295,949	94,062	0,063	0,052
-294,935	-120,990	-0,075	0,009
-293,920	781,114	-0,038	0,076
-292,905	195,560	0,076	0,083
-291,891	-200,000	0,024	0,096
-290,876	551,564	0,021	-0,037
-289,862	237,114	-0,019	-0,023
-288,847	-200,000	0,009	-0,061
-287,832	381,991	-0,102	-0,153
-286,818	31,445	-0,064	0,040
-285,803	800,000	-0,034	-0,103
-284,789	109,096	0,127	0,110
-283,774	49,717	0,104	0,071
-282,759	-200,000	0,040	0,147
-281,745	-141,532	0,121	0,009
-280,730	66,419	-0,155	0,114
-279,716	106,513	-0,039	-0,033
-278,701	-128,003	0,125	0,013
-277,686	251,416	-0,030	-0,037
-276,672	800,000	0,025	-0,052
-275,657	800,000	0,007	0,023
-274,643	-200,000	0,008	0,046
-273,628	-68,225	-0,030	-0,008
-272,613	-200,000	-0,024	-0,114
-271,599	-69,952	0,111	0,030
-270,584	19,659	-0,037	0,022
-269,570	102,847	0,063	-0,053
-268,555	269,040	0,108	-0,137
-267,540	-200,000	0,013	0,094
-266,526	107,710	0,024	-0,020
-265,511	-105,391	0,124	0,020
-264,497	800,000	-0,051	0,120
-263,482	150,510	0,073	0,072
-262,467	14,051	-0,058	0,033
-261,453	5,343	-0,101	-0,054
-260,438	-200,000	0,025	-0,087
-259,424	66,395	-0,078	-0,057
-258,409	-165,282	-0,196	-0,006
-257,395	-200,000	0,014	0,081
-256,380	-23,906	0,105	0,045
-255,365	800,000	-0,032	0,083
-254,351	670,510	-0,065	0,123
-253,336	33,150	-0,105	-0,066
-252,322	-25,189	0,035	0,015
-251,307	-200,000	-0,005	-0,109
-250,292	-25,757	0,065	0,028
-249,278	5,469	0,086	0,046
-248,263	143,954	-0,068	0,065
-247,249	-93,089	-0,062	-0,012
-246,234	-200,000	0,014	0,114
-245,219	263,948	-0,038	0,048
-244,205	225,265	-0,087	-0,101
-243,190	-200,000	0,017	0,067
-242,176	-149,442	0,083	-0,005
-241,161	-200,000	-0,001	-0,021
-240,146	-200,000	0,006	-0,033
-239,132	-76,861	-0,094	0,024
-238,117	-152,074	-0,183	-0,009
-237,103	-160,489	-0,081	0,003
-236,088	121,702	0,079	0,071
-235,073	-200,000	0,003	0,016
-234,059	-23,582	-0,091	0,039
-233,044	453,898	0,066	0,105
-232,030	15,734	0,097	0,055
-231,015	800,000	-0,076	-0,165
-230,000	263,794	-0,087	-0,110
-228,986	-200,000	0,024	0,127
-227,971	-25,743	0,070	0,030
-226,957	-200,000	-0,008	0,173
-225,942	-200,000	-0,001	-0,169
-224,927	65,320	-0,097	-0,070
-223,913	-110,479	-0,081	0,012
-222,898	-169,947	-0,050	-0,001
-221,884	-200,000	0,044	-0,166
-220,869	-0,130	-0,098	0,050
-219,855	-200,000	0,007	0,165
-218,840	53,483	-0,084	0,058
-217,825	138,222	0,042	-0,039
-216,811	-109,249	-0,230	0,035
-215,796	-170,888	-0,163	0,004
-214,782	-115,093	0,086	0,012
-213,767	0,302	0,085	-0,044
-212,752	145,105	0,082	0,079
-211,738	-200,000	0,021	0,153
-210,723	-117,583	0,108	0,014
-209,709	-86,974	-0,045	-0,010
-208,694	13,569	-0,032	0,018
-207,679	800,000	-0,035	-0,077
-206,665	800,000	-0,008	0,020
-205,650	-69,458	-0,064	0,018
-204,636	391,399	0,103	0,155
-203,621	800,000	0,064	0,130
-202,606	189,458	0,011	0,012
-201,592	37,027	0,033	-0,021
-200,577	210,997	-0,022	0,025
-199,563	-200,000	0,013	0,067
-198,548	258,689	0,052	0,064
-197,533	-6,153	-0,042	0,021
-196,519	-100,886	0,117	0,021
-195,504	64,567	-0,102	0,074
-194,490	178,902	0,096	0,101
-193,475	3,973	-0,176	-0,092
-192,460	-200,000	-0,001	-0,035
-191,446	425,380	0,029	0,044
-190,431	35,184	-0,059	0,038
-189,417	118,692	0,064	0,057
-188,402	800,000	-0,046	-0,132
-187,387	-121,701	-0,104	-0,012
-186,373	-158,074	-0,071	0,003
-185,358	-16,827	0,128	0,058
-184,344	-69,810	0,170	0,046
-183,329	-147,070	0,021	-0,001
-182,315	-98,414	0,133	0,024
-181,300	480,829	-0,042	-0,069
-180,285	-194,474	-0,123	0,001
-179,271	188,493	0,035	0,037
-178,256	89,736	0,044	0,035
-177,242	366,392	-0,071	0,104
-176,227	-200,000	0,012	0,059
-175,212	392,446	0,069	0,104
-174,198	117,136	0,063	-0,055
-173,183	24,905	0,017	0,010
-172,169	-200,000	-0,003	-0,035
-171,154	-154,548	0,069	0,003
-170,139	69,115	0,008	-0,006
-169,125	22,293	0,156	0,092
-168,110	-200,000	-0,005	0,033
-167,096	-200,000	0,015	0,071
-166,081	15,050	-0,050	-0,028
-165,066	-200,000	-0,005	-0,026
-164,052	187,168	-0,056	-0,060
-163,037	32,477	0,031	0,019
-162,023	98,712	-0,092	0,076
-161,008	-200,000	0,003	0,012
-159,993	-200,000	0,005	0,094
-158,979	97,039	0,066	-0,054
-157,964	-122,909	0,070	-0,008
-156,950	-148,261	-0,106	0,006
-155,935	-200,000	0,010	0,063
-154,920	-54,176	0,120	0,039
-153,906	66,626	0,072	0,052
-152,891	800,000	0,049	-0,139
-151,877	-156,784	-0,065	0,003
-150,862	-200,000	-0,010	-0,122
-149,847	94,620	-0,045	-0,036
-148,833	76,618	0,090	-0,069
-147,818	-200,000	-0,018	0,148
-146,804	800,000	-0,038	0,087
-145,789	-51,229	0,078	0,026
-144,775	-27,733	-0,100	-0,041
-143,760	-200,000	0,012	-0,112
-142,745	115,577	0,029	-0,026
-141,731	-200,000	-0,007	0,055
-140,716	800,000	0,056	0,130
-139,702	-108,111	-0,176	0,027
-138,687	-157,332	0,150	0,006
-137,672	-32,234	-0,073	0,029
-136,658	36,636	0,052	0,033
-135,643	137,833	-0,076	-0,072
-134,629	-107,285	-0,113	-0,018
-133,614	112,282	0,181	0,157
-132,599	800,000	0,016	-0,046
-131,585	129,571	0,038	-0,035
-130,570	-37,989	-0,069	0,026
-129,556	-200,000	0,023	0,083
-128,541	-57,519	-0,113	0,035
-127,526	-139,035	0,100	0,008
-126,512	-200,000	-0,025	0,128
-125,497	217,221	0,025	-0,029
-124,483	46,276	-0,017	0,011
-123,468	-2,135	-0,081	0,041
-122,453	-200,000	0,007	-0,109
-121,439	10,185	-0,066	-0,036
-120,424	512,363	-0,016	0,027
-119,410	11,882	-0,085	0,047
