DTS Sentinel unit serial number:	SN410029Multiplexer serial number:	ORYXHardware model number:	OX2-SRSoftware version number:	ORYX F/W v4,00 Oryx Data Collector v3.7.2.0data status	okinstallation	B5 Nyhavnadifferential loss correction	single-endedforward channel	channel 2reverse channel	N/Adate	2023/12/13time	16:32:13forward acquisition time	300,00reverse acquisition time	0,00gamma	499,1914k internal	0,3160k external	0,3160temperature offset calibration	1,0000default loss term (dB/km)	0,3820temperature slope calibration	1,0000multiplexer offset coefficient	1,0000multiplexer slope coefficient	1,0000fibre end	0,00T internal ref (°C)	14,70T ext. ref 1 (°C)	-2,29T ext. ref 2 (°C)	-2,38length (m)	temperature (°C)	Stokes	anti-Stokes-744,400	200,549	0,081	-0,091
-743,385	-96,316	-0,359	-0,069
-742,371	123,053	0,088	0,082
-741,356	-87,633	-0,414	-0,091
-740,342	179,960	0,111	-0,120
-739,327	-104,685	-0,373	0,063
-738,312	397,423	0,105	0,162
-737,298	-160,187	-0,399	-0,016
-736,283	228,250	0,054	0,065
-735,269	-69,610	-0,365	-0,102
-734,254	800,000	0,028	-0,059
-733,239	-105,050	-0,466	-0,078
-732,225	-108,684	0,325	0,051
-731,210	-200,000	0,009	0,068
-730,196	800,000	-0,013	0,037
-729,181	800,000	0,034	-0,103
-728,167	110,976	0,071	-0,063
-727,152	-200,000	0,004	-0,040
-726,137	247,081	-0,104	-0,130
-725,123	102,431	0,075	-0,064
-724,108	212,078	-0,067	-0,078
-723,094	40,743	-0,088	-0,058
-722,079	71,899	0,130	0,099
-721,064	-152,191	-0,077	-0,004
-720,050	113,614	-0,072	-0,064
-719,035	-41,120	0,138	0,052
-718,021	42,212	-0,107	0,072
-717,006	289,484	-0,040	-0,054
-715,991	-200,000	0,008	-0,058
-714,977	201,981	0,034	-0,038
-713,962	-152,903	0,092	-0,005
-712,948	-200,000	0,002	-0,048
-711,933	-125,165	-0,026	-0,003
-710,918	98,984	-0,056	-0,048
-709,904	-159,506	0,117	-0,005
-708,889	478,497	-0,030	-0,051
-707,875	215,562	-0,157	0,184
-706,860	800,000	0,062	-0,131
-705,845	-200,000	-0,008	0,046
-704,831	740,129	0,027	0,054
-703,816	147,662	-0,049	-0,049
-702,802	354,100	-0,049	-0,072
-701,787	95,446	-0,051	0,043
-700,772	-200,000	0,022	0,102
-699,758	800,000	-0,053	0,110
-698,743	-200,000	0,010	0,049
-697,729	-186,905	0,036	0,000
-696,714	-200,000	0,013	-0,106
-695,699	-35,529	0,063	-0,025
-694,685	119,093	-0,008	0,007
-693,670	189,089	-0,079	0,087
-692,656	-69,843	-0,091	0,025
-691,641	269,070	0,093	-0,120
-690,627	-200,000	-0,018	-0,059
-689,612	-21,013	-0,080	0,036
-688,597	-104,615	0,065	0,011
-687,583	38,851	-0,091	0,060
-686,568	162,964	-0,015	-0,016
-685,554	800,000	-0,011	-0,029
-684,539	-200,000	-0,016	0,154
-683,524	209,333	0,035	0,040
-682,510	-96,862	-0,122	-0,023
-681,495	800,000	0,040	-0,114
-680,481	664,350	-0,018	-0,035
-679,466	70,700	0,037	0,028
-678,451	649,082	0,109	-0,206
-677,437	800,000	0,018	0,053
-676,422	67,860	-0,040	-0,030
-675,408	-200,000	-0,014	0,048
-674,393	-78,688	0,134	-0,033
-673,378	-63,485	0,055	-0,016
-672,364	276,688	0,039	-0,051
-671,349	-53,684	-0,086	0,029
-670,335	24,794	0,099	-0,060
-669,320	-200,000	-0,010	-0,050
-668,305	-0,963	0,083	-0,043
-667,291	-200,000	-0,000	-0,037
-666,276	217,547	-0,032	0,038
-665,262	53,428	0,027	0,019
-664,247	67,439	-0,028	-0,021
-663,232	756,823	-0,083	-0,166
-662,218	-200,000	0,015	-0,054
-661,203	412,329	0,094	0,147
-660,189	-200,000	0,007	-0,151
-659,174	-111,022	-0,125	0,019
-658,159	-3,660	-0,063	0,032
-657,145	50,633	-0,039	-0,027
-656,130	-41,761	0,073	-0,027
-655,116	280,509	-0,051	-0,067
-654,101	58,623	0,060	0,043
-653,086	-75,643	-0,040	-0,010
-652,072	800,000	0,009	0,027
-651,057	-200,000	0,001	0,056
-650,043	172,264	0,033	-0,035
-649,028	-9,368	-0,167	0,081
-648,014	460,064	0,034	-0,057
-646,999	3,056	0,096	-0,051
-645,984	800,000	0,029	-0,080
-644,970	-200,000	0,015	-0,258
-643,955	741,077	0,038	-0,075
-642,941	-200,000	-0,009	0,061
-641,926	206,961	0,027	0,031
-640,911	-120,039	0,119	0,015
-639,897	-178,585	-0,082	-0,001
-638,882	800,000	0,011	-0,032
-637,868	800,000	0,064	0,144
-636,853	56,632	-0,090	0,064
-635,838	800,000	-0,039	-0,087
-634,824	198,070	0,098	-0,111
-633,809	-71,849	0,014	-0,004
-632,795	306,677	0,027	-0,036
-631,780	33,600	-0,037	-0,023
-630,765	-131,515	-0,088	0,008
-629,751	443,905	0,096	-0,154
-628,736	229,937	-0,070	-0,084
-627,722	187,176	0,044	-0,048
-626,707	301,970	-0,035	0,048
-625,692	111,643	-0,029	0,026
-624,678	62,827	0,049	-0,036
-623,663	-21,414	-0,090	0,040
-622,649	791,239	-0,045	0,090
-621,634	-42,735	-0,104	0,038
-620,619	83,884	0,069	0,055
-619,605	-200,000	-0,017	0,074
-618,590	789,085	0,056	0,114
-617,576	800,000	0,025	0,060
-616,561	88,293	0,057	0,046
-615,546	-43,004	0,114	-0,042
-614,532	800,000	0,036	-0,078
-613,517	-200,000	-0,037	-0,179
-612,503	-200,000	-0,011	0,090
-611,488	800,000	-0,025	-0,079
-610,474	26,870	-0,117	-0,072
-609,459	401,558	-0,035	-0,054
-608,444	-79,974	-0,065	0,016
-607,430	-79,241	-0,096	0,024
-606,415	219,963	0,067	0,079
-605,401	-91,930	-0,019	-0,004
-604,386	71,947	0,090	0,069
-603,371	800,000	-0,033	0,070
-602,357	92,474	0,039	0,032
-601,342	265,235	-0,068	0,087
-600,328	189,273	-0,122	-0,134
-599,313	-68,445	-0,135	-0,038
-598,298	-99,703	0,051	0,009
-597,284	12,283	-0,071	-0,040
-596,269	639,494	0,025	0,047
-595,255	-100,081	0,036	-0,007
-594,240	-71,055	0,117	-0,032
-593,225	61,167	0,035	0,026
-592,211	288,634	-0,068	-0,091
-591,196	-27,936	0,045	0,019
-590,182	-55,119	0,091	0,030
-589,167	-52,113	-0,042	0,014
-588,152	-55,708	0,058	-0,019
-587,138	-138,275	0,134	0,011
-586,123	-24,280	-0,162	-0,070
-585,109	800,000	0,006	-0,012
-584,094	-98,680	-0,090	-0,017
-583,079	58,023	0,153	0,110
-582,065	-200,000	0,022	0,081
-581,050	-200,000	-0,008	-0,057
-580,036	800,000	0,015	-0,048
-579,021	483,945	-0,092	-0,154
-578,006	-200,000	0,026	-0,128
-576,992	29,671	0,128	-0,080
-575,977	-200,000	0,004	0,045
-574,963	-30,391	-0,083	0,034
-573,948	-200,000	-0,008	0,143
-572,934	95,933	0,046	-0,038
-571,919	800,000	-0,030	0,063
-570,904	-170,393	0,093	-0,002
-569,890	-200,000	0,007	0,060
-568,875	-76,417	0,042	0,011
-567,861	508,245	0,084	0,142
-566,846	174,205	-0,031	0,032
-565,831	-200,000	0,022	-0,092
-564,817	-187,009	-0,070	0,001
-563,802	12,661	-0,109	-0,062
-562,788	-106,360	0,033	-0,005
-561,773	40,611	-0,074	0,049
-560,758	800,000	-0,039	-0,113
-559,744	122,355	-0,093	0,085
-558,729	-6,918	0,026	0,013
-557,715	69,802	-0,110	-0,083
-556,700	293,187	0,044	-0,059
-555,685	233,530	-0,036	0,043
-554,671	800,000	-0,028	0,086
-553,656	800,000	0,041	0,107
-552,642	-77,177	0,072	0,018
-551,627	-160,158	-0,016	-0,001
-550,612	54,958	0,072	0,051
-549,598	56,109	0,052	-0,037
-548,583	-42,043	-0,145	0,054
-547,569	111,565	0,137	-0,121
-546,554	-200,000	-0,008	-0,168
-545,539	800,000	0,038	0,106
-544,525	120,142	0,030	0,027
-543,510	139,932	-0,105	0,101
-542,496	800,000	0,065	-0,152
-541,481	236,598	-0,069	-0,084
-540,466	-200,000	0,030	0,164
-539,452	27,372	-0,120	-0,074
-538,437	-137,753	0,141	-0,011
-537,423	-7,478	0,075	0,037
-536,408	-136,314	-0,093	-0,008
-535,393	-77,619	-0,166	-0,042
-534,379	155,262	0,182	-0,183
-533,364	14,917	-0,124	-0,071
-532,350	44,617	0,032	-0,021
-531,335	54,703	0,068	-0,048
-530,321	82,436	0,116	-0,092
-529,306	800,000	0,039	0,116
-528,291	-45,620	-0,051	-0,018
-527,277	180,077	-0,060	0,064
-526,262	-97,500	-0,072	0,014
-525,248	52,767	0,143	0,100
-524,233	800,000	0,003	-0,009
-523,218	-107,248	-0,015	-0,002
-522,204	800,000	-0,074	0,167
-521,189	800,000	0,020	-0,055
-520,175	158,056	0,018	0,019
-519,160	800,000	0,026	-0,070
-518,145	800,000	0,030	0,074
-517,131	16,237	-0,071	-0,041
-516,116	519,475	0,073	-0,125
-515,102	-200,000	-0,030	-0,192
-514,087	-106,824	-0,148	-0,024
-513,072	800,000	0,033	0,080
-512,058	-135,611	0,131	-0,011
-511,043	-200,000	0,045	-0,161
-510,029	-65,230	0,045	0,013
-509,014	-101,001	-0,031	0,006
-507,999	800,000	-0,035	0,092
-506,985	-200,000	0,012	0,094
-505,970	-200,000	-0,076	0,000
-504,956	29,774	-0,105	0,065
-503,941	800,000	-0,085	0,200
-502,926	800,000	0,042	0,101
-501,912	-60,059	0,095	0,030
-500,897	-200,000	0,016	-0,099
-499,883	-8,882	0,035	0,017
-498,868	800,000	-0,015	-0,031
-497,853	210,017	-0,018	-0,021
-496,839	-26,525	-0,166	-0,070
-495,824	751,521	0,040	-0,080
-494,810	-200,000	-0,017	-0,125
-493,795	-200,000	-0,010	0,061
-492,781	-105,800	-0,048	-0,008
-491,766	160,936	-0,091	-0,093
-490,751	36,380	0,088	-0,057
-489,737	14,231	-0,036	0,021
-488,722	800,000	0,075	0,162
-487,708	137,596	-0,088	0,084
-486,693	-200,000	0,031	0,139
-485,678	198,281	-0,069	0,077
-484,664	-200,000	-0,003	0,054
-483,649	142,685	-0,040	-0,039
-482,635	-141,729	-0,041	-0,003
-481,620	-200,000	0,043	0,146
-480,605	327,179	0,043	0,060
-479,591	93,580	0,115	0,095
-478,576	800,000	0,009	0,023
-477,562	-200,000	0,012	-0,048
-476,547	-200,000	0,006	0,019
-475,532	-67,226	0,099	-0,028
-474,518	339,621	0,058	-0,083
-473,503	800,000	0,036	-0,093
-472,489	404,241	-0,041	0,063
-471,474	92,580	0,031	-0,025
-470,459	-50,228	-0,074	0,025
-469,445	800,000	-0,019	0,045
-468,430	-200,000	0,024	-0,144
-467,416	-40,766	-0,078	-0,029
-466,401	193,058	-0,026	-0,029
-465,386	545,707	0,040	0,071
-464,372	-29,559	-0,096	-0,040
-463,357	37,170	-0,011	-0,007
-462,343	92,979	0,092	0,075
-461,328	-26,156	-0,072	-0,031
-460,313	-152,091	-0,070	-0,004
-459,299	312,310	-0,024	-0,033
-458,284	628,881	0,056	-0,103
-457,270	800,000	-0,033	0,095
-456,255	53,168	-0,043	0,030
-455,241	-200,000	-0,028	-0,163
-454,226	-38,363	-0,067	-0,026
-453,211	-200,000	-0,003	0,056
-452,197	800,000	0,039	0,086
-451,182	800,000	-0,017	-0,042
-450,168	-16,107	0,091	-0,042
-449,153	-200,000	0,014	0,054
-448,138	486,443	-0,066	-0,110
-447,124	-46,832	-0,048	-0,017
-446,109	-200,000	-0,023	-0,120
-445,095	56,336	0,024	-0,017
-444,080	-200,000	-0,022	-0,074
-443,065	-200,000	0,007	-0,045
-442,051	-200,000	-0,015	-0,075
-441,036	-200,000	-0,014	-0,077
-440,022	-112,833	0,125	0,018
-439,007	-200,000	-0,027	0,088
-437,992	-110,908	0,066	0,010
-436,978	-135,624	0,079	-0,007
-435,963	-200,000	0,010	-0,058
-434,949	56,961	-0,137	-0,097
-433,934	-51,783	-0,074	-0,025
-432,919	-200,000	0,000	-0,168
-431,905	288,014	0,135	0,179
-430,890	-200,000	-0,009	0,056
-429,876	338,121	0,019	-0,026
-428,861	53,053	0,044	0,030
-427,846	-200,000	-0,019	0,104
-426,832	-100,111	-0,043	-0,008
-425,817	-200,000	0,033	0,122
-424,803	-44,091	-0,033	0,012
-423,788	-200,000	0,018	-0,072
-422,773	-71,694	0,122	-0,033
-421,759	-44,491	0,039	0,014
-420,744	56,540	-0,065	0,046
-419,730	-200,000	-0,002	0,013
-418,715	800,000	-0,022	-0,050
-417,701	670,998	0,048	0,091
-416,686	-21,451	0,116	0,051
-415,671	10,372	-0,060	-0,033
-414,657	-172,799	-0,109	0,002
-413,642	1,565	0,086	-0,045
-412,628	-64,198	-0,171	-0,050
-411,613	-106,415	0,058	-0,009
-410,598	173,469	0,053	-0,055
-409,584	-85,810	0,126	0,028
-408,569	-200,000	0,030	0,126
-407,555	-14,367	0,174	0,081
-406,540	-200,000	-0,014	-0,066
-405,525	-200,000	0,014	0,171
-404,511	-168,047	-0,072	-0,002
-403,496	-139,537	0,022	-0,002
-402,482	-97,249	-0,050	0,009
-401,467	245,447	0,042	-0,051
-400,452	405,549	0,055	-0,084
-399,438	800,000	0,045	-0,102
-398,423	46,077	0,055	0,037
-397,409	-200,000	-0,033	-0,140
-396,394	-21,615	0,086	-0,038
-395,379	211,167	-0,059	-0,068
-394,365	-200,000	-0,026	-0,096
-393,350	1,822	0,121	0,063
-392,336	-138,025	0,132	-0,011
-391,321	800,000	0,007	0,014
-390,306	-29,494	-0,115	-0,048
-389,292	-200,000	-0,010	-0,037
-388,277	160,761	0,100	0,102
-387,263	-200,000	-0,003	0,071
-386,248	800,000	-0,027	0,083
-385,233	-200,000	-0,012	0,053
-384,219	558,968	0,055	0,098
-383,204	9,172	0,088	-0,048
-382,190	-25,252	-0,059	0,025
-381,175	-200,000	0,022	-0,093
-380,160	-92,932	0,106	-0,021
-379,146	800,000	-0,002	0,006
-378,131	-200,000	-0,036	0,162
-377,117	-200,000	0,001	-0,111
-376,102	800,000	0,028	0,075
-375,088	263,612	-0,061	0,078
-374,073	-200,000	0,010	-0,078
-373,058	-200,000	0,037	0,165
-372,044	-72,225	0,083	-0,022
-371,029	-132,627	0,089	-0,008
-370,015	-61,774	0,076	-0,023
-369,000	-72,145	-0,147	-0,039
-367,985	782,536	-0,051	-0,102
-366,971	-200,000	-0,002	-0,170
-365,956	136,198	-0,068	0,064
-364,942	-200,000	0,018	0,156
-363,927	383,055	0,016	0,024
-362,912	-52,127	0,055	0,019
-361,898	241,920	-0,067	0,081
-360,883	5,762	-0,141	-0,076
-359,869	800,000	0,007	0,020
-358,854	-98,983	0,071	-0,013
-357,839	-200,000	-0,006	0,189
-356,825	328,523	0,049	0,069
-355,810	162,611	-0,077	0,079
-354,796	97,255	-0,084	0,070
-353,781	-200,000	0,013	-0,071
-352,766	-28,926	-0,122	0,050
-351,752	12,532	-0,019	-0,011
-350,737	11,394	0,153	0,085
-349,723	-100,485	0,022	0,004
-348,708	158,835	0,123	0,124
-347,693	-47,566	-0,135	-0,047
-346,679	800,000	0,032	-0,077
-345,664	-0,613	0,079	-0,041
-344,650	213,802	-0,067	0,077
-343,635	-200,000	-0,028	0,116
-342,620	-200,000	0,011	0,160
-341,606	-52,564	0,076	-0,025
-340,591	-200,000	-0,007	-0,125
-339,577	-200,000	-0,027	-0,118
-338,562	178,911	-0,046	0,049
-337,548	278,869	-0,011	-0,015
-336,533	-154,597	-0,022	-0,001
-335,518	-171,283	0,043	0,001
-334,504	67,339	-0,095	0,070
-333,489	-200,000	0,005	0,036
-332,475	-31,417	-0,053	-0,021
-331,460	-200,000	-0,021	0,116
-330,445	-200,000	-0,036	0,135
-329,431	-59,980	0,203	-0,063
-328,416	14,771	-0,061	0,034
-327,402	245,661	-0,060	0,073
-326,387	800,000	-0,037	0,090
-325,372	-200,000	-0,007	-0,048
-324,358	-112,348	-0,045	0,007
-323,343	131,706	0,094	0,088
-322,329	87,468	0,046	0,037
-321,314	-102,089	0,073	-0,013
-320,299	356,189	-0,039	-0,056
-319,285	374,590	-0,029	0,043
-318,270	-200,000	0,007	0,099
-317,256	86,619	-0,097	-0,077
-316,241	800,000	-0,024	-0,068
-315,226	-16,101	0,044	0,020
-314,212	-200,000	0,012	-0,168
-313,197	800,000	-0,022	-0,050
-312,183	-200,000	0,024	-0,105
-311,168	3,260	-0,097	0,051
-310,153	-166,771	-0,087	-0,003
-309,139	756,362	-0,054	0,106
-308,124	734,349	0,081	-0,157
-307,110	739,349	-0,003	0,006
-306,095	140,074	-0,028	-0,027
-305,080	-200,000	-0,002	0,052
-304,066	153,112	-0,084	-0,083
-303,051	-200,000	-0,014	-0,048
-302,037	-3,136	-0,047	-0,024
-301,022	491,156	-0,018	-0,030
-300,008	800,000	-0,031	0,087
-298,993	181,398	0,049	0,053
-297,978	-200,000	0,004	-0,036
-296,964	-27,618	-0,096	0,040
-295,949	94,917	-0,057	-0,047
-294,935	23,940	-0,104	0,062
-293,920	-13,207	0,020	0,010
-292,905	800,000	0,091	0,202
-291,891	-169,925	0,159	0,004
-290,876	-200,000	0,001	-0,063
-289,862	800,000	-0,043	0,088
-288,847	385,884	-0,042	-0,062
-287,832	-13,743	-0,122	-0,057
-286,818	6,837	0,055	0,029
-285,803	-47,593	0,086	0,030
-284,789	-200,000	0,000	-0,161
-283,774	800,000	0,070	-0,180
-282,759	-81,037	-0,195	0,046
-281,745	18,337	0,095	-0,055
-280,730	-200,000	-0,015	-0,141
-279,716	-200,000	-0,009	-0,037
-278,701	404,254	0,096	0,147
-277,686	-200,000	-0,006	0,063
-276,672	-200,000	-0,034	0,109
-275,657	157,831	-0,034	0,034
-274,643	476,503	0,086	-0,141
-273,628	-200,000	0,006	0,038
-272,613	-147,903	-0,063	-0,004
-271,599	-123,774	0,094	0,011
-270,584	-62,000	0,028	0,008
-269,570	96,704	-0,102	-0,085
-268,555	-200,000	-0,011	0,110
-267,540	-200,000	0,014	-0,164
-266,526	14,568	-0,017	-0,010
-265,511	-17,241	-0,100	0,046
-264,497	-200,000	-0,013	0,056
-263,482	-84,438	0,169	-0,038
-262,467	800,000	0,026	-0,079
-261,453	-200,000	-0,009	0,141
-260,438	27,775	0,069	-0,042
-259,424	-200,000	-0,018	-0,096
-258,409	-129,671	-0,127	0,012
-257,395	-200,000	0,015	-0,101
-256,380	77,120	0,076	0,058
-255,365	731,869	-0,053	0,103
-254,351	90,848	-0,083	-0,067
-253,336	48,476	0,073	-0,050
-252,322	-200,000	0,004	-0,104
-251,307	116,262	-0,019	-0,016
-250,292	-129,795	0,118	0,012
-249,278	284,990	-0,077	0,100
-248,263	-200,000	0,012	0,079
-247,249	138,248	0,088	0,083
-246,234	278,875	-0,025	0,032
-245,219	416,589	-0,047	-0,073
-244,205	99,833	0,025	-0,021
-243,190	41,702	-0,038	-0,025
-242,176	800,000	-0,041	0,102
-241,161	-200,000	0,015	0,194
-240,146	-200,000	0,006	-0,139
-239,132	403,565	0,130	-0,198
-238,117	-69,178	-0,110	-0,030
-237,103	-200,000	0,004	-0,051
-236,088	101,900	0,103	0,087
-235,073	207,895	0,014	-0,016
-234,059	26,508	0,036	0,022
-233,044	-28,739	0,038	-0,016
-232,030	3,616	0,064	-0,034
-231,015	-200,000	0,014	0,057
-230,000	-122,319	-0,187	-0,022
-228,986	108,878	0,067	0,058
-227,971	222,309	0,071	0,083
-226,957	59,853	0,071	0,050
-225,942	69,861	0,031	-0,023
-224,927	-90,673	0,164	0,034
-223,913	800,000	-0,053	-0,113
-222,898	5,840	0,071	-0,038
-221,884	164,387	-0,074	0,075
-220,869	-35,957	0,126	-0,049
-219,855	152,880	-0,036	-0,036
-218,840	-200,000	0,016	0,081
-217,825	-200,000	-0,005	-0,107
-216,811	-170,686	-0,122	-0,003
-215,796	-200,000	0,001	-0,142
-214,782	-200,000	-0,039	-0,192
-213,767	120,841	0,065	0,058
-212,752	-152,290	0,093	0,005
-211,738	84,283	-0,037	0,030
-210,723	-57,982	-0,100	-0,031
-209,709	-200,000	0,026	0,101
-208,694	-94,798	0,167	0,032
-207,679	95,394	0,041	0,033
-206,665	-200,000	0,035	0,115
-205,650	70,817	0,133	0,100
-204,636	-67,473	0,072	0,020
-203,621	55,383	0,125	-0,087
-202,606	6,814	-0,092	0,049
-201,592	8,029	-0,134	-0,072
-200,577	-17,635	-0,109	-0,049
-199,563	-200,000	-0,008	-0,114
-198,548	309,903	0,094	-0,128
-197,533	-34,005	0,128	-0,050
-196,519	-26,175	-0,030	0,012
-195,504	-200,000	-0,001	0,027
-194,490	-200,000	-0,019	-0,079
-193,475	-29,571	-0,129	-0,053
-192,460	325,412	0,111	0,154
-191,446	800,000	0,050	0,121
-190,431	52,909	-0,068	-0,046
-189,417	109,506	-0,060	0,052
-188,402	800,000	-0,079	-0,165
-187,387	6,202	-0,046	-0,025
-186,373	-168,975	0,048	-0,001
-185,358	46,026	0,103	-0,069
-184,344	15,427	0,023	-0,013
-183,329	-154,255	0,139	0,007
-182,315	-200,000	-0,004	0,076
-181,300	201,831	-0,048	0,053
-180,285	-132,754	-0,078	-0,007
-179,271	-200,000	-0,018	0,070
-178,256	800,000	-0,034	-0,081
-177,242	800,000	-0,044	0,135
-176,227	140,201	-0,053	0,050
-175,212	-135,335	-0,204	0,017
-174,198	375,676	-0,121	0,178
-173,183	79,759	-0,121	-0,094
-172,169	-200,000	-0,005	-0,048
-171,154	-200,000	0,013	0,054
-170,139	26,729	-0,049	0,029
-169,125	-200,000	0,020	0,239
-168,110	-36,062	-0,172	0,067
-167,096	-163,293	0,101	-0,003
-166,081	257,395	-0,048	0,059
-165,066	197,060	-0,117	-0,129
-164,052	492,870	-0,062	-0,102
-163,037	-22,303	0,085	-0,037
-162,023	683,319	0,052	0,099
-161,008	-200,000	0,014	-0,097
-159,993	-100,990	-0,087	-0,015
-158,979	7,823	-0,070	-0,038
-157,964	-52,303	0,055	0,018
-156,950	300,365	-0,029	-0,039
-155,935	-73,207	-0,049	-0,013
-154,920	-26,678	0,078	-0,033
-153,906	0,766	-0,095	0,049
-152,891	-120,942	0,110	0,013
-151,877	-49,818	-0,030	0,010
-150,862	472,605	0,071	-0,115
-149,847	-74,660	0,100	-0,026
-148,833	-152,260	0,157	-0,008
-147,818	-200,000	0,038	0,202
-146,804	800,000	0,053	0,150
-145,789	-200,000	-0,027	0,100
-144,775	-200,000	0,016	0,063
-143,760	82,154	-0,103	0,080
-142,745	227,004	0,074	-0,087
-141,731	-200,000	-0,013	-0,186
-140,716	-200,000	0,006	0,114
-139,702	172,481	-0,080	0,083
-138,687	218,476	-0,020	0,023
-137,672	-200,000	0,050	0,177
-136,658	-107,866	0,067	-0,010
-135,643	-56,557	-0,126	0,040
-134,629	191,648	-0,079	0,086
-133,614	-200,000	0,028	0,117
-132,599	-200,000	0,003	0,062
-131,585	177,480	0,015	0,016
-130,570	254,798	0,014	0,017
-129,556	800,000	-0,029	-0,073
-128,541	800,000	0,032	-0,100
-127,526	-46,029	0,077	-0,027
-126,512	93,688	-0,051	0,041
-125,497	130,437	-0,033	0,031
-124,483	119,779	0,098	0,087
-123,468	41,859	0,069	-0,045
-122,453	-200,000	-0,019	-0,125
-121,439	457,878	0,055	-0,088
-120,424	758,317	0,015	0,029
-119,410	-110,364	-0,068	-0,010
