DTS Sentinel unit serial number:	SN410029Multiplexer serial number:	ORYXHardware model number:	OX2-SRSoftware version number:	ORYX F/W v4,00 Oryx Data Collector v3.7.2.0data status	okinstallation	B5 Nyhavnadifferential loss correction	single-endedforward channel	channel 2reverse channel	N/Adate	2023/12/13time	09:17:13forward acquisition time	300,00reverse acquisition time	0,00gamma	499,1914k internal	0,3160k external	0,3160temperature offset calibration	1,0000default loss term (dB/km)	0,3820temperature slope calibration	1,0000multiplexer offset coefficient	1,0000multiplexer slope coefficient	1,0000fibre end	0,00T internal ref (°C)	13,65T ext. ref 1 (°C)	-2,71T ext. ref 2 (°C)	-3,03length (m)	temperature (°C)	Stokes	anti-Stokes-744,400	11,035	0,121	0,068
-743,385	-65,476	-0,260	-0,076
-742,371	116,340	0,115	0,104
-741,356	-150,106	-0,235	0,013
-740,342	166,927	0,086	0,090
-739,327	-129,633	-0,431	0,043
-738,312	-145,935	0,104	-0,007
-737,298	-49,972	-0,190	0,066
-736,283	-95,886	0,171	0,033
-735,269	-81,264	-0,316	0,076
-734,254	-169,009	0,088	-0,002
-733,239	-89,636	-0,477	-0,102
-732,225	-91,020	0,188	0,040
-731,210	-200,000	0,007	0,096
-730,196	-35,840	-0,081	-0,032
-729,181	103,243	-0,064	0,055
-728,167	107,205	0,044	0,039
-727,152	-113,627	0,112	0,016
-726,137	338,856	-0,050	0,072
-725,123	800,000	-0,047	0,153
-724,108	-70,447	-0,138	-0,038
-723,094	-10,237	-0,147	0,071
-722,079	353,841	-0,051	-0,075
-721,064	-35,739	-0,073	0,029
-720,050	-92,391	0,128	-0,026
-719,035	-200,000	0,009	-0,124
-718,021	273,847	-0,049	-0,064
-717,006	-71,744	-0,120	0,033
-715,991	255,518	-0,054	0,068
-714,977	192,588	0,138	0,154
-713,962	800,000	0,025	0,078
-712,948	-126,845	0,088	0,009
-711,933	-46,268	-0,034	-0,012
-710,918	800,000	-0,041	-0,091
-709,904	-41,443	-0,218	-0,082
-708,889	-49,411	-0,034	-0,012
-707,875	-200,000	-0,039	-0,272
-706,860	326,707	-0,033	-0,047
-705,845	-200,000	-0,009	0,128
-704,831	800,000	-0,063	0,156
-703,816	-6,449	-0,018	0,009
-702,802	-200,000	-0,020	0,122
-701,787	800,000	0,034	-0,078
-700,772	800,000	-0,011	0,034
-699,758	214,580	-0,070	-0,082
-698,743	-129,272	0,234	0,024
-697,729	-200,000	-0,005	0,102
-696,714	-200,000	0,034	0,143
-695,699	800,000	-0,036	-0,108
-694,685	-200,000	-0,010	0,044
-693,670	-132,206	0,060	-0,006
-692,656	-85,982	-0,038	0,009
-691,641	-200,000	0,017	0,062
-690,627	6,458	-0,073	-0,040
-689,612	-126,358	0,154	-0,017
-688,597	-200,000	-0,013	-0,139
-687,583	800,000	0,039	-0,098
-686,568	-200,000	0,005	-0,059
-685,554	-200,000	0,016	-0,073
-684,539	-200,000	-0,021	0,133
-683,524	76,158	-0,023	-0,018
-682,510	-106,353	0,107	0,017
-681,495	-200,000	-0,006	-0,078
-680,481	-130,972	-0,088	-0,009
-679,466	196,633	-0,051	-0,057
-678,451	98,338	-0,048	0,041
-677,437	800,000	0,068	-0,202
-676,422	127,148	0,052	0,049
-675,408	107,298	-0,102	-0,089
-674,393	-148,042	-0,069	-0,004
-673,378	-200,000	0,002	-0,053
-672,364	-17,660	-0,206	-0,095
-671,349	-92,594	-0,070	-0,014
-670,335	-153,200	-0,088	-0,004
-669,320	190,311	-0,065	-0,071
-668,305	-200,000	-0,012	-0,042
-667,291	-68,935	-0,067	-0,019
-666,276	108,320	0,053	-0,046
-665,262	685,608	-0,067	0,129
-664,247	800,000	0,017	0,044
-663,232	-160,135	0,060	-0,002
-662,218	-200,000	0,007	0,117
-661,203	-200,000	-0,132	0,000
-660,189	-142,354	-0,148	0,011
-659,174	800,000	-0,003	0,010
-658,159	-83,129	-0,129	0,030
-657,145	187,805	-0,004	0,005
-656,130	-75,381	0,129	-0,034
-655,116	-34,138	-0,080	-0,032
-654,101	137,974	-0,084	-0,081
-653,086	-138,500	-0,098	-0,008
-652,072	-200,000	-0,005	-0,080
-651,057	-108,801	-0,039	-0,006
-650,043	-89,309	0,121	0,026
-649,028	-200,000	0,031	-0,176
-648,014	-184,796	0,060	-0,001
-646,999	0,752	0,073	-0,038
-645,984	87,257	-0,037	-0,030
-644,970	-65,372	-0,134	0,039
-643,955	200,745	-0,077	0,088
-642,941	22,513	0,027	-0,016
-641,926	-200,000	-0,007	-0,026
-640,911	49,768	0,028	-0,019
-639,897	692,412	0,091	0,175
-638,882	-200,000	-0,005	0,065
-637,868	-67,470	0,038	0,011
-636,853	800,000	-0,014	0,034
-635,838	95,721	0,032	0,027
-634,824	800,000	0,057	-0,124
-633,809	22,565	0,072	0,043
-632,795	-200,000	-0,018	0,132
-631,780	424,874	-0,038	0,060
-630,765	-50,588	-0,143	-0,049
-629,751	-28,551	-0,072	0,030
-628,736	-45,640	-0,068	0,025
-627,722	11,154	0,045	0,025
-626,707	67,880	-0,168	0,125
-625,692	-200,000	0,022	0,119
-624,678	170,234	0,070	0,074
-623,663	800,000	-0,055	-0,170
-622,649	-46,729	-0,053	-0,019
-621,634	-200,000	-0,007	-0,081
-620,619	15,042	-0,108	-0,062
-619,605	38,373	-0,051	-0,033
-618,590	-63,600	-0,065	-0,019
-617,576	-200,000	-0,043	0,138
-616,561	-149,681	-0,167	-0,009
-615,546	-134,367	-0,048	0,004
-614,532	800,000	-0,071	-0,193
-613,517	570,634	0,039	-0,070
-612,503	687,470	-0,037	-0,071
-611,488	92,954	-0,123	-0,102
-610,474	85,890	0,074	0,059
-609,459	-146,903	-0,067	-0,004
-608,444	-200,000	-0,011	-0,080
-607,430	305,374	-0,043	-0,059
-606,415	-200,000	-0,001	0,014
-605,401	800,000	0,015	-0,042
-604,386	374,270	0,037	0,055
-603,371	315,807	0,094	0,131
-602,357	-200,000	0,001	0,029
-601,342	150,073	-0,015	0,015
-600,328	93,371	-0,122	-0,101
-599,313	48,544	0,085	-0,058
-598,298	15,790	0,068	0,039
-597,284	-161,888	0,123	-0,004
-596,269	-7,921	-0,022	0,011
-595,255	282,654	-0,047	-0,061
-594,240	-6,229	-0,179	-0,089
-593,225	-200,000	-0,017	0,096
-592,211	19,938	0,072	0,042
-591,196	234,681	0,064	0,077
-590,182	-60,048	-0,052	-0,016
-589,167	-171,914	-0,036	0,001
-588,152	-200,000	0,022	0,242
-587,138	-200,000	-0,029	0,171
-586,123	800,000	0,017	0,037
-585,109	132,556	-0,057	-0,053
-584,094	-200,000	-0,017	0,070
-583,079	70,953	0,023	-0,018
-582,065	-200,000	0,004	0,045
-581,050	549,528	-0,042	-0,073
-580,036	118,163	-0,084	-0,075
-579,021	26,670	-0,064	0,039
-578,006	-200,000	-0,006	-0,058
-576,992	40,532	-0,042	-0,027
-575,977	-55,893	0,167	-0,054
-574,963	-200,000	0,006	-0,047
-573,948	397,058	0,018	0,028
-572,934	664,034	-0,045	0,086
-571,919	-146,329	-0,157	-0,010
-570,904	-71,179	-0,022	0,006
-569,890	297,232	-0,080	-0,107
-568,875	555,921	-0,052	-0,092
-567,861	-200,000	0,025	0,170
-566,846	147,256	0,058	0,057
-565,831	-200,000	-0,035	0,147
-564,817	-200,000	0,007	-0,101
-563,802	-107,682	-0,108	-0,017
-562,788	-0,283	-0,020	0,011
-561,773	53,881	0,054	0,038
-560,758	144,317	0,134	0,131
-559,744	247,233	-0,099	-0,123
-558,729	-200,000	-0,016	0,071
-557,715	415,459	-0,046	0,073
-556,700	800,000	0,026	0,065
-555,685	99,883	-0,070	-0,059
-554,671	-200,000	-0,022	0,110
-553,656	-200,000	-0,026	0,151
-552,642	-66,290	0,112	-0,032
-551,627	27,395	-0,034	-0,021
-550,612	62,641	0,180	-0,131
-549,598	312,919	-0,029	0,039
-548,583	192,985	-0,035	0,039
-547,569	-200,000	0,002	-0,052
-546,554	-200,000	-0,007	-0,027
-545,539	-200,000	-0,013	0,077
-544,525	-200,000	-0,028	-0,104
-543,510	800,000	0,061	-0,136
-542,496	-200,000	-0,011	-0,111
-541,481	686,837	-0,021	-0,040
-540,466	-16,603	-0,175	0,081
-539,452	-153,028	-0,163	0,008
-538,437	795,287	0,022	0,045
-537,423	66,345	-0,034	0,025
-536,408	-200,000	0,044	-0,169
-535,393	-200,000	0,034	-0,124
-534,379	45,704	-0,053	-0,036
-533,364	182,563	0,115	-0,125
-532,350	-165,441	0,071	0,002
-531,335	-44,083	0,024	0,009
-530,321	465,777	0,075	-0,123
-529,306	163,182	0,034	0,035
-528,291	-200,000	-0,015	-0,136
-527,277	-125,291	-0,146	-0,016
-526,262	31,268	0,091	-0,057
-525,248	-43,937	-0,028	-0,010
-524,233	-24,438	0,092	-0,040
-523,218	-76,485	0,130	-0,033
-522,204	373,558	-0,076	-0,113
-521,189	439,059	0,048	-0,077
-520,175	-89,909	-0,118	0,025
-519,160	96,648	-0,064	-0,054
-518,145	65,372	0,057	-0,042
-517,131	282,241	0,019	0,025
-516,116	63,143	0,077	0,056
-515,102	547,604	0,059	0,104
-514,087	13,637	0,016	0,009
-513,072	-101,989	-0,131	-0,023
-512,058	-94,124	0,103	0,020
-511,043	217,675	-0,035	0,041
-510,029	-200,000	-0,013	-0,075
-509,014	276,908	0,032	0,041
-507,999	-97,090	0,046	0,009
-506,985	-53,839	-0,044	0,014
-505,970	-200,000	0,012	-0,141
-504,956	786,609	0,042	-0,085
-503,941	-200,000	-0,013	0,069
-502,926	800,000	-0,020	0,059
-501,912	101,822	0,105	0,089
-500,897	-29,735	-0,013	0,006
-499,883	-200,000	-0,002	0,160
-498,868	12,051	0,088	0,049
-497,853	52,936	-0,164	-0,114
-496,839	-104,100	-0,055	0,009
-495,824	-200,000	0,012	0,062
-494,810	426,623	-0,082	0,130
-493,795	-200,000	0,003	0,046
-492,781	800,000	-0,035	-0,076
-491,766	19,561	-0,143	-0,083
-490,751	58,507	0,073	-0,052
-489,737	27,282	0,083	-0,051
-488,722	204,683	0,074	-0,084
-487,708	156,285	-0,111	0,112
-486,693	-123,007	0,084	-0,010
-485,678	-200,000	0,019	-0,095
-484,664	-69,101	0,036	-0,010
-483,649	-200,000	0,012	-0,049
-482,635	440,220	-0,037	0,059
-481,620	-69,922	-0,097	-0,027
-480,605	-114,699	0,232	-0,032
-479,591	-151,170	-0,073	-0,004
-478,576	-37,076	0,042	0,016
-477,562	56,943	0,029	0,020
-476,547	-200,000	-0,015	0,111
-475,532	-52,844	0,034	0,011
-474,518	-129,353	0,027	-0,003
-473,503	87,060	0,062	0,050
-472,489	-200,000	0,009	0,130
-471,474	-100,221	-0,084	0,015
-470,459	36,127	-0,110	0,070
-469,445	12,404	0,012	0,006
-468,430	-36,664	0,103	-0,040
-467,416	-200,000	-0,016	0,054
-466,401	-10,591	0,022	-0,011
-465,386	-200,000	-0,024	0,104
-464,372	417,596	0,014	-0,022
-463,357	-200,000	0,017	0,060
-462,343	800,000	0,017	0,037
-461,328	800,000	0,016	0,051
-460,313	800,000	0,039	0,083
-459,299	103,886	0,077	0,066
-458,284	397,565	-0,070	-0,107
-457,270	606,770	-0,112	-0,204
-456,255	-200,000	-0,027	0,110
-455,241	-200,000	0,016	-0,122
-454,226	58,562	-0,070	-0,050
-453,211	188,622	-0,030	0,033
-452,197	-200,000	0,028	0,094
-451,182	-131,744	0,083	0,008
-450,168	788,052	-0,041	0,082
-449,153	126,516	-0,072	-0,067
-448,138	246,832	-0,026	-0,032
-447,124	-130,399	-0,076	-0,007
-446,109	24,565	-0,067	0,040
-445,095	-200,000	0,005	0,055
-444,080	-112,743	-0,039	0,006
-443,065	-98,921	0,085	0,016
-442,051	514,975	0,062	-0,105
-441,036	206,166	-0,096	-0,109
-440,022	128,176	-0,069	0,064
-439,007	-196,803	0,109	0,001
-437,992	286,238	0,093	0,122
-436,978	140,794	-0,074	0,071
-435,963	-95,876	0,052	-0,010
-434,949	800,000	0,055	0,140
-433,934	498,534	-0,064	0,107
-432,919	800,000	0,028	0,073
-431,905	141,307	-0,061	-0,059
-430,890	354,976	0,092	0,134
-429,876	-118,456	-0,063	-0,008
-428,861	-53,902	-0,044	-0,015
-427,846	-29,227	-0,058	-0,024
-426,832	-200,000	0,008	-0,048
-425,817	57,985	-0,166	-0,118
-424,803	-200,000	-0,001	0,057
-423,788	-21,020	0,069	0,031
-422,773	-200,000	0,023	0,127
-421,759	-20,170	0,049	-0,022
-420,744	152,959	-0,156	0,155
-419,730	-200,000	0,016	-0,072
-418,715	-200,000	-0,006	-0,077
-417,701	-200,000	0,003	-0,127
-416,686	166,347	-0,056	0,058
-415,671	800,000	0,021	0,057
-414,657	800,000	0,033	-0,077
-413,642	31,145	0,050	-0,031
-412,628	-102,072	-0,146	0,025
-411,613	81,705	-0,019	-0,015
-410,598	-200,000	-0,014	-0,129
-409,584	-200,000	-0,010	-0,074
-408,569	800,000	0,059	0,160
-407,555	209,897	-0,066	0,075
-406,540	-200,000	0,026	0,168
-405,525	24,333	-0,090	0,054
-404,511	-65,413	0,081	-0,023
-403,496	800,000	-0,016	-0,042
-402,482	-200,000	0,026	0,142
-401,467	-22,660	0,063	-0,028
-400,452	151,827	0,091	-0,090
-399,438	118,971	-0,035	-0,031
-398,423	79,210	0,122	0,095
-397,409	-131,040	-0,155	0,015
-396,394	161,564	0,019	0,020
-395,379	25,496	0,038	-0,023
-394,365	-104,084	0,167	0,028
-393,350	-57,023	0,037	0,012
-392,336	-197,606	-0,132	-0,001
-391,321	-200,000	0,030	0,137
-390,306	-117,976	-0,061	-0,008
-389,292	-186,133	0,085	0,001
-388,277	-117,855	-0,032	0,004
-387,263	-169,433	0,053	-0,001
-386,248	-122,261	-0,051	-0,006
-385,233	130,360	0,144	0,134
-384,219	141,030	0,052	0,050
-383,204	17,230	-0,020	-0,012
-382,190	-136,403	-0,073	0,006
-381,175	42,202	0,128	0,084
-380,160	-200,000	0,010	0,121
-379,146	795,337	0,052	-0,104
-378,131	68,601	0,057	-0,042
-377,117	-195,119	0,063	0,000
-376,102	-149,277	-0,100	0,006
-375,088	-7,869	-0,031	-0,015
-374,073	-11,673	0,094	0,045
-373,058	800,000	-0,041	0,100
-372,044	102,654	-0,092	0,078
-371,029	63,714	0,043	-0,031
-370,015	800,000	0,003	0,008
-369,000	800,000	-0,015	-0,047
-367,985	-200,000	-0,011	-0,106
-366,971	515,660	0,041	0,070
-365,956	-200,000	-0,007	0,061
-364,942	92,704	0,029	0,024
-363,927	639,904	-0,022	0,040
-362,912	316,300	-0,041	0,056
-361,898	-87,216	-0,152	-0,033
-360,883	29,734	0,145	0,089
-359,869	300,457	-0,071	-0,095
-358,854	-200,000	0,004	-0,098
-357,839	800,000	0,045	0,120
-356,825	-56,521	0,075	-0,024
-355,810	-16,996	0,146	-0,067
-354,796	-126,161	0,111	-0,012
-353,781	203,162	-0,049	-0,055
-352,766	-45,414	-0,037	-0,013
-351,752	45,217	-0,139	0,093
-350,737	79,817	-0,096	-0,075
-349,723	800,000	0,037	-0,112
-348,708	-56,081	-0,095	0,030
-347,693	-200,000	0,020	-0,067
-346,679	38,440	-0,047	-0,031
-345,664	-39,367	-0,020	0,007
-344,650	4,725	0,050	-0,027
-343,635	-200,000	-0,008	0,048
-342,620	697,882	0,050	-0,096
-341,606	800,000	0,024	-0,057
-340,591	-62,544	0,061	0,018
-339,577	-200,000	0,001	0,142
-338,562	800,000	-0,044	0,098
-337,548	102,878	0,092	-0,078
-336,533	68,446	0,094	0,070
-335,518	-200,000	0,007	0,043
-334,504	-200,000	0,002	-0,017
-333,489	251,766	0,038	0,047
-332,475	232,954	-0,068	-0,082
-331,460	37,506	-0,157	-0,101
-330,445	-104,108	0,030	-0,005
-329,431	-82,277	0,123	0,029
-328,416	249,381	0,042	-0,052
-327,402	-53,155	0,157	-0,052
-326,387	-104,411	0,024	0,004
-325,372	-161,926	-0,094	-0,003
-324,358	-59,972	-0,173	0,053
-323,343	-127,679	0,092	0,009
-322,329	-200,000	0,029	0,113
-321,314	123,557	-0,122	-0,111
-320,299	-91,423	0,120	-0,025
-319,285	94,301	0,076	0,062
-318,270	-200,000	-0,005	-0,017
-317,256	306,986	0,044	0,059
-316,241	-200,000	0,001	0,038
-315,226	-200,000	-0,014	0,071
-314,212	-61,356	-0,064	0,019
-313,197	438,623	0,073	-0,115
-312,183	216,414	-0,040	0,046
-311,168	44,448	0,103	-0,068
-310,153	294,134	0,052	-0,069
-309,139	139,820	0,036	-0,035
-308,124	-38,465	-0,057	0,022
-307,110	164,364	0,086	0,087
-306,095	800,000	0,030	-0,074
-305,080	29,457	-0,041	-0,025
-304,066	-200,000	-0,036	0,125
-303,051	800,000	-0,042	0,114
-302,037	-150,079	0,154	0,009
-301,022	177,379	0,103	0,109
-300,008	-76,197	-0,101	-0,026
-298,993	-106,974	0,132	-0,021
-297,978	-72,646	0,043	0,011
-296,964	7,031	0,112	-0,060
-295,949	310,405	-0,074	-0,100
-294,935	800,000	0,036	-0,078
-293,920	-200,000	0,027	-0,096
-292,905	-200,000	0,036	0,174
-291,891	133,018	0,042	0,040
-290,876	282,351	0,031	0,041
-289,862	-200,000	-0,002	0,062
-288,847	-200,000	0,011	-0,108
-287,832	-56,317	-0,102	0,033
-286,818	92,483	0,025	0,020
-285,803	89,958	-0,082	0,066
-284,789	-200,000	-0,015	0,060
-283,774	-3,954	0,054	-0,027
-282,759	800,000	0,010	-0,024
-281,745	-200,000	0,006	-0,094
-280,730	-126,665	-0,078	-0,008
-279,716	-172,612	0,025	0,001
-278,701	-200,000	0,004	-0,027
-277,686	562,945	0,088	-0,156
-276,672	3,019	-0,137	0,072
-275,657	-64,065	-0,061	-0,018
-274,643	-200,000	0,007	-0,094
-273,628	-200,000	-0,003	0,084
-272,613	-200,000	-0,005	-0,244
-271,599	-167,677	0,123	0,003
-270,584	5,495	0,095	-0,051
-269,570	-64,158	-0,053	0,016
-268,555	-109,403	-0,072	-0,011
-267,540	130,701	-0,037	-0,034
-266,526	159,008	-0,054	-0,055
-265,511	3,559	0,066	-0,035
-264,497	-41,622	-0,164	-0,061
-263,482	-120,788	0,083	0,010
-262,467	-200,000	0,003	0,052
-261,453	-200,000	-0,050	0,178
-260,438	-200,000	0,008	0,096
-259,424	-18,736	-0,011	0,005
-258,409	-90,612	-0,018	0,004
-257,395	59,712	0,101	0,072
-256,380	-70,965	-0,042	-0,011
-255,365	-23,165	0,137	0,059
-254,351	-103,169	-0,166	0,028
-253,336	-116,303	-0,100	-0,013
-252,322	-200,000	-0,008	-0,093
-251,307	800,000	0,044	-0,103
-250,292	-200,000	-0,013	-0,101
-249,278	-200,000	-0,016	0,109
-248,263	-99,775	-0,081	-0,015
-247,249	-191,215	-0,073	-0,001
-246,234	-52,516	-0,121	0,040
-245,219	800,000	-0,022	0,069
-244,205	800,000	-0,029	-0,074
-243,190	180,121	-0,037	-0,039
-242,176	30,049	-0,057	-0,035
-241,161	-200,000	-0,003	0,126
-240,146	107,122	-0,083	-0,071
-239,132	800,000	0,033	-0,101
-238,117	-200,000	-0,008	0,044
-237,103	-128,892	-0,073	-0,007
-236,088	-200,000	0,014	0,069
-235,073	-64,395	0,162	-0,047
-234,059	800,000	0,031	0,090
-233,044	-200,000	0,013	-0,084
-232,030	-200,000	-0,036	0,130
-231,015	64,407	0,033	-0,024
-230,000	800,000	-0,055	-0,114
-228,986	-133,665	0,071	-0,006
-227,971	-200,000	0,008	-0,103
-226,957	413,131	0,023	0,036
-225,942	150,297	0,032	0,032
-224,927	2,196	0,104	0,054
-223,913	-130,054	-0,116	-0,011
-222,898	72,231	0,066	-0,050
-221,884	-166,733	0,079	-0,002
-220,869	-200,000	-0,005	0,063
-219,855	-60,972	0,141	0,043
-218,840	5,849	0,118	0,063
-217,825	303,034	-0,057	-0,076
-216,811	-200,000	-0,011	-0,049
-215,796	-200,000	-0,014	-0,211
-214,782	-200,000	-0,044	-0,211
-213,767	800,000	0,055	0,138
-212,752	111,616	0,072	0,063
-211,738	139,276	-0,082	-0,078
-210,723	-200,000	-0,012	-0,106
-209,709	-200,000	0,032	-0,131
-208,694	275,492	0,047	-0,060
-207,679	-56,346	-0,120	-0,038
-206,665	-154,627	0,021	0,001
-205,650	800,000	-0,020	-0,054
-204,636	-200,000	-0,022	0,115
-203,621	-200,000	0,034	-0,126
-202,606	-200,000	-0,004	-0,034
-201,592	-25,875	-0,062	0,026
-200,577	800,000	-0,100	-0,234
-199,563	615,056	0,008	-0,015
-198,548	-8,171	-0,061	0,029
-197,533	377,561	0,058	0,086
-196,519	800,000	0,048	-0,137
-195,504	-147,792	0,038	0,002
-194,490	-15,059	-0,103	-0,047
-193,475	800,000	-0,027	-0,074
-192,460	-166,162	-0,104	-0,003
-191,446	55,105	0,129	0,090
-190,431	29,088	0,124	0,075
-189,417	-200,000	0,010	0,099
-188,402	-89,574	0,086	0,018
-187,387	-81,636	-0,007	-0,002
-186,373	-15,137	0,154	-0,071
-185,358	800,000	-0,030	-0,094
-184,344	-92,826	0,160	0,032
-183,329	800,000	0,062	0,152
-182,315	118,255	-0,108	0,096
-181,300	-88,569	-0,037	0,008
-180,285	231,678	0,096	0,114
-179,271	800,000	0,040	-0,127
-178,256	-84,835	-0,058	0,013
-177,242	21,930	-0,105	0,061
-176,227	50,895	0,061	-0,042
-175,212	-86,098	0,141	-0,031
-174,198	26,739	-0,033	-0,020
-173,183	112,276	-0,085	-0,074
-172,169	257,222	0,016	0,020
-171,154	-17,101	-0,036	-0,016
-170,139	-3,114	0,078	-0,039
-169,125	-63,036	0,087	0,026
-168,110	686,206	0,073	0,137
-167,096	-200,000	-0,041	0,137
-166,081	65,807	-0,007	0,005
-165,066	-200,000	0,027	-0,269
-164,052	-115,855	-0,048	0,006
-163,037	-30,288	0,080	0,033
-162,023	800,000	-0,015	-0,041
-161,008	-22,611	0,244	0,106
-159,993	800,000	0,024	-0,068
-158,979	89,640	-0,027	-0,022
-157,964	82,019	-0,072	-0,056
-156,950	215,165	-0,063	0,072
-155,935	800,000	0,052	-0,116
-154,920	-200,000	-0,003	-0,070
-153,906	-165,226	-0,098	0,003
-152,891	-126,446	-0,022	-0,002
-151,877	-31,687	-0,040	0,016
-150,862	-200,000	0,019	-0,190
-149,847	800,000	-0,088	-0,210
-148,833	-200,000	0,013	-0,105
-147,818	207,019	-0,080	0,090
-146,804	202,522	-0,081	0,090
-145,789	115,423	0,099	-0,087
-144,775	-186,252	0,029	0,000
-143,760	265,897	-0,068	-0,086
-142,745	454,918	-0,083	0,132
-141,731	236,715	0,066	0,078
-140,716	1,566	0,079	0,041
-139,702	-200,000	0,012	0,103
-138,687	27,944	0,070	-0,042
-137,672	-13,506	-0,104	-0,048
-136,658	225,078	0,039	-0,045
-135,643	332,133	0,050	-0,070
-134,629	-86,793	0,094	0,021
-133,614	800,000	-0,044	-0,105
-132,599	-35,004	-0,046	-0,018
-131,585	46,924	0,088	0,058
-130,570	-200,000	0,012	-0,073
-129,556	800,000	0,039	-0,096
-128,541	519,448	-0,093	-0,157
-127,526	-165,588	0,077	-0,002
-126,512	-200,000	0,024	0,112
-125,497	800,000	0,040	-0,089
-124,483	-200,000	0,030	-0,105
-123,468	517,929	0,041	-0,069
-122,453	312,565	-0,071	-0,096
-121,439	-200,000	0,013	-0,081
-120,424	800,000	0,036	0,087
