DTS Sentinel unit serial number:	SN410029Multiplexer serial number:	ORYXHardware model number:	OX2-SRSoftware version number:	ORYX F/W v4,00 Oryx Data Collector v3.7.2.0data status	okinstallation	B5 Nyhavnadifferential loss correction	single-endedforward channel	channel 2reverse channel	N/Adate	2023/12/13time	20:32:13forward acquisition time	300,00reverse acquisition time	0,00gamma	499,1914k internal	0,3157k external	0,3157temperature offset calibration	1,0000default loss term (dB/km)	0,3820temperature slope calibration	1,0000multiplexer offset coefficient	1,0000multiplexer slope coefficient	1,0000fibre end	0,00T internal ref (°C)	10,72T ext. ref 1 (°C)	-6,30T ext. ref 2 (°C)	-6,40length (m)	temperature (°C)	Stokes	anti-Stokes-744,400	8,795	0,139	-0,077
-743,385	-140,319	-0,355	0,027
-742,371	800,000	0,082	0,250
-741,356	-186,077	-0,264	0,003
-740,342	240,854	0,143	0,177
-739,327	-80,578	-0,364	-0,089
-738,312	249,530	-0,038	0,047
-737,298	-46,361	-0,249	-0,090
-736,283	-139,684	0,128	-0,010
-735,269	-123,885	-0,286	-0,033
-734,254	15,728	0,130	-0,075
-733,239	101,479	-0,385	-0,330
-732,225	54,883	0,190	0,135
-731,210	-200,000	0,024	-0,178
-730,196	40,666	0,037	-0,025
-729,181	-200,000	-0,008	0,030
-728,167	-200,000	0,017	0,055
-727,152	-200,000	-0,003	-0,173
-726,137	-115,275	-0,206	0,028
-725,123	49,450	-0,022	-0,015
-724,108	-106,723	-0,161	-0,026
-723,094	61,002	-0,112	-0,082
-722,079	-153,341	-0,226	0,011
-721,064	800,000	-0,023	-0,055
-720,050	-64,591	0,092	-0,027
-719,035	93,268	0,052	-0,043
-718,021	-146,872	-0,084	-0,005
-717,006	-120,362	-0,084	0,010
-715,991	576,906	-0,081	-0,146
-714,977	-116,689	-0,151	0,020
-713,962	800,000	0,035	0,091
-712,948	-2,247	-0,021	-0,011
-711,933	362,977	0,085	0,126
-710,918	-108,336	-0,138	-0,022
-709,904	-9,991	0,063	-0,030
-708,889	186,058	-0,038	-0,041
-707,875	129,194	-0,089	-0,084
-706,860	-178,916	-0,221	-0,004
-705,845	-200,000	0,000	0,031
-704,831	-200,000	-0,020	0,123
-703,816	427,716	0,029	0,046
-702,802	-18,065	-0,098	-0,045
-701,787	-43,911	-0,059	-0,022
-700,772	71,356	0,032	-0,025
-699,758	245,486	-0,048	0,060
-698,743	312,497	-0,019	-0,027
-697,729	228,254	-0,056	0,067
-696,714	800,000	0,054	0,126
-695,699	-200,000	0,035	0,136
-694,685	8,271	-0,062	-0,034
-693,670	-200,000	0,003	-0,016
-692,656	388,780	-0,022	0,034
-691,641	188,119	-0,022	-0,024
-690,627	-30,947	0,098	0,041
-689,612	-72,819	-0,101	-0,027
-688,597	-200,000	0,004	-0,094
-687,583	-200,000	0,007	-0,137
-686,568	-104,478	-0,041	-0,007
-685,554	25,473	0,066	0,040
-684,539	729,220	0,046	0,090
-683,524	502,175	-0,025	0,043
-682,510	249,253	-0,056	-0,070
-681,495	800,000	0,013	-0,037
-680,481	-200,000	-0,007	-0,054
-679,466	129,770	-0,028	-0,027
-678,451	321,803	-0,068	-0,096
-677,437	45,403	0,052	0,035
-676,422	800,000	0,071	0,153
-675,408	-31,414	-0,088	0,036
-674,393	-116,582	0,063	-0,008
-673,378	-200,000	-0,035	-0,128
-672,364	800,000	-0,038	-0,080
-671,349	-200,000	-0,015	-0,130
-670,335	800,000	0,032	0,079
-669,320	-185,141	0,131	0,001
-668,305	-32,371	-0,029	-0,012
-667,291	-124,761	-0,031	0,004
-666,276	800,000	0,081	-0,174
-665,262	344,848	-0,066	-0,096
-664,247	476,613	0,060	-0,099
-663,232	-200,000	-0,074	-0,000
-662,218	-46,462	-0,104	0,037
-661,203	-16,078	0,017	0,008
-660,189	431,463	0,069	-0,110
-659,174	730,665	-0,055	-0,108
-658,159	40,889	0,023	-0,015
-657,145	-188,811	-0,118	0,001
-656,130	142,203	0,064	0,063
-655,116	-200,000	0,006	0,083
-654,101	-84,207	-0,076	-0,018
-653,086	51,096	-0,097	0,068
-652,072	-200,000	0,016	-0,106
-651,057	243,087	0,066	0,082
-650,043	640,795	-0,058	-0,108
-649,028	427,366	-0,060	-0,096
-648,014	-200,000	-0,002	0,074
-646,999	694,269	0,029	0,057
-645,984	-200,000	-0,026	-0,126
-644,970	44,543	-0,103	-0,069
-643,955	30,398	-0,079	-0,049
-642,941	182,321	-0,082	-0,089
-641,926	-200,000	-0,011	-0,097
-640,911	-131,815	0,137	-0,013
-639,897	-151,609	-0,207	-0,011
-638,882	-86,036	0,068	-0,015
-637,868	-90,359	-0,110	0,023
-636,853	-118,971	-0,159	-0,020
-635,838	-92,549	0,034	-0,007
-634,824	-61,187	-0,128	0,039
-633,809	-200,000	-0,009	-0,078
-632,795	800,000	-0,029	0,067
-631,780	-200,000	-0,004	0,137
-630,765	634,246	0,077	-0,144
-629,751	490,608	-0,042	0,070
-628,736	-54,233	-0,086	-0,029
-627,722	289,924	0,053	-0,071
-626,707	-200,000	-0,019	-0,165
-625,692	-200,000	-0,001	0,095
-624,678	229,330	0,086	0,103
-623,663	0,448	0,081	0,043
-622,649	-12,194	0,122	0,058
-621,634	27,929	-0,156	-0,096
-620,619	-200,000	0,036	-0,140
-619,605	-200,000	0,002	0,025
-618,590	800,000	-0,012	-0,025
-617,576	-200,000	-0,001	0,165
-616,561	149,177	0,026	-0,026
-615,546	-200,000	0,032	-0,213
-614,532	-21,318	-0,041	-0,018
-613,517	48,803	0,096	0,066
-612,503	-103,989	0,109	0,019
-611,488	-200,000	0,023	-0,084
-610,474	54,524	0,153	-0,108
-609,459	-200,000	0,009	-0,050
-608,444	-200,000	0,036	-0,128
-607,430	151,550	0,045	-0,045
-606,415	16,959	-0,045	-0,026
-605,401	-200,000	0,012	-0,059
-604,386	85,910	0,123	0,100
-603,371	424,262	0,085	0,135
-602,357	800,000	0,011	0,030
-601,342	-200,000	0,007	0,064
-600,328	800,000	-0,045	-0,106
-599,313	-200,000	0,010	-0,098
-598,298	139,754	-0,021	0,020
-597,284	335,460	0,047	0,067
-596,269	269,218	-0,055	0,071
-595,255	-118,688	0,094	0,012
-594,240	-200,000	-0,016	0,051
-593,225	63,835	0,067	-0,049
-592,211	86,925	-0,104	-0,084
-591,196	23,257	-0,135	0,081
-590,182	65,588	0,023	-0,017
-589,167	800,000	0,030	-0,069
-588,152	299,085	-0,060	0,081
-587,138	32,265	0,084	0,053
-586,123	-15,550	-0,113	-0,053
-585,109	447,505	-0,073	-0,119
-584,094	81,208	0,068	-0,054
-583,079	-200,000	-0,001	0,005
-582,065	24,645	-0,108	0,066
-581,050	68,761	0,038	0,029
-580,036	-164,345	0,041	-0,001
-579,021	393,221	0,060	-0,091
-578,006	-200,000	0,023	0,077
-576,992	-88,178	-0,025	0,005
-575,977	-110,872	0,123	0,018
-574,963	277,636	-0,006	-0,008
-573,948	-81,875	-0,066	0,016
-572,934	-27,314	-0,072	-0,030
-571,919	399,224	-0,044	-0,068
-570,904	38,207	-0,033	-0,021
-569,890	17,125	-0,098	-0,057
-568,875	34,637	0,019	0,012
-567,861	-200,000	0,032	0,185
-566,846	4,508	-0,048	-0,026
-565,831	-94,180	-0,070	0,014
-564,817	800,000	0,030	0,094
-563,802	-200,000	-0,014	-0,220
-562,788	-200,000	-0,023	-0,136
-561,773	800,000	-0,053	-0,108
-560,758	41,534	-0,063	0,042
-559,744	-140,316	-0,102	0,008
-558,729	-12,507	-0,068	0,032
-557,715	-51,431	-0,099	0,034
-556,700	126,727	0,046	-0,043
-555,685	105,093	-0,037	0,032
-554,671	-172,558	0,128	0,003
-553,656	-200,000	0,000	-0,062
-552,642	-84,948	-0,152	-0,035
-551,627	392,309	-0,032	0,048
-550,612	288,247	-0,070	-0,093
-549,598	-200,000	0,004	0,081
-548,583	565,056	0,055	-0,098
-547,569	419,176	0,065	-0,101
-546,554	203,021	0,089	-0,101
-545,539	-4,264	-0,037	0,019
-544,525	170,333	0,079	0,083
-543,510	-112,811	-0,130	-0,019
-542,496	-200,000	0,063	-0,213
-541,481	339,720	-0,081	-0,116
-540,466	800,000	-0,044	-0,122
-539,452	800,000	0,031	0,068
-538,437	-110,675	0,051	-0,008
-537,423	30,210	0,084	-0,052
-536,408	-200,000	-0,001	0,097
-535,393	759,054	-0,064	0,127
-534,379	-106,685	-0,070	0,011
-533,364	-200,000	-0,010	0,131
-532,350	-70,049	0,217	0,060
-531,335	-200,000	0,014	-0,056
-530,321	800,000	-0,018	-0,044
-529,306	139,736	0,070	0,067
-528,291	-98,893	-0,023	0,004
-527,277	51,840	-0,040	-0,028
-526,262	-31,769	0,130	0,053
-525,248	-186,794	-0,060	0,001
-524,233	18,833	0,030	0,018
-523,218	-103,831	0,009	0,002
-522,204	136,853	-0,024	0,023
-521,189	-81,165	-0,100	-0,024
-520,175	-56,876	-0,095	-0,031
-519,160	115,037	0,110	0,098
-518,145	800,000	0,047	-0,115
-517,131	-10,428	0,071	0,034
-516,116	-97,497	-0,054	-0,010
-515,102	747,273	0,102	0,201
-514,087	-200,000	-0,052	0,217
-513,072	51,308	0,023	0,016
-512,058	362,472	-0,147	0,217
-511,043	43,626	0,079	-0,053
-510,029	219,266	0,059	0,069
-509,014	-53,249	0,130	0,043
-507,999	134,074	0,038	0,036
-506,985	-200,000	-0,047	0,171
-505,970	40,772	-0,065	-0,043
-504,956	-50,193	-0,046	-0,016
-503,941	800,000	-0,054	-0,135
-502,926	-200,000	0,002	0,069
-501,912	785,946	-0,026	-0,052
-500,897	-144,479	-0,056	-0,004
-499,883	117,803	0,073	0,065
-498,868	24,263	-0,140	-0,084
-497,853	-119,741	0,040	-0,005
-496,839	26,501	-0,084	0,051
-495,824	159,293	-0,024	-0,024
-494,810	198,759	0,014	0,016
-493,795	-200,000	0,000	0,022
-492,781	-200,000	-0,006	0,047
-491,766	-65,894	-0,055	0,016
-490,751	471,013	-0,032	-0,053
-489,737	287,636	0,040	-0,053
-488,722	-95,683	0,127	0,025
-487,708	800,000	0,057	0,160
-486,693	-200,000	-0,028	0,103
-485,678	-200,000	-0,027	-0,141
-484,664	800,000	-0,055	-0,160
-483,649	-200,000	0,009	0,070
-482,635	261,530	-0,049	0,062
-481,620	800,000	0,029	0,064
-480,605	-134,177	0,074	-0,007
-479,591	-52,957	0,023	-0,008
-478,576	800,000	0,063	-0,192
-477,562	332,047	-0,028	0,039
-476,547	-200,000	0,020	-0,196
-475,532	-143,236	-0,036	-0,003
-474,518	-109,251	-0,055	-0,008
-473,503	-58,809	-0,027	-0,009
-472,489	-84,693	-0,171	-0,039
-471,474	-145,284	-0,153	-0,010
-470,459	56,369	0,033	0,023
-469,445	-140,397	-0,069	-0,005
-468,430	-125,103	-0,193	-0,021
-467,416	-119,033	0,061	0,008
-466,401	50,805	0,104	0,072
-465,386	-96,439	0,021	0,004
-464,372	392,417	-0,013	0,020
-463,357	-200,000	-0,005	0,044
-462,343	-93,627	-0,101	-0,020
-461,328	-109,102	0,192	-0,030
-460,313	156,884	0,045	0,045
-459,299	-7,025	0,072	0,036
-458,284	-53,819	0,023	-0,007
-457,270	148,086	-0,081	0,080
-456,255	527,203	0,063	-0,108
-455,241	35,007	-0,070	0,045
-454,226	-137,134	-0,076	0,006
-453,211	-200,000	-0,005	0,143
-452,197	-200,000	0,009	-0,058
-451,182	442,145	-0,033	-0,053
-450,168	800,000	-0,029	-0,094
-449,153	-200,000	-0,006	0,088
-448,138	319,258	0,018	-0,025
-447,124	-153,344	-0,077	0,004
-446,109	-200,000	-0,005	-0,080
-445,095	176,535	0,012	-0,013
-444,080	256,264	-0,012	0,015
-443,065	14,985	-0,099	-0,056
-442,051	552,428	0,052	-0,092
-441,036	800,000	0,049	0,099
-440,022	800,000	0,010	-0,024
-439,007	-59,081	-0,059	0,018
-437,992	95,606	0,099	0,082
-436,978	66,986	0,138	0,102
-435,963	36,553	-0,004	-0,002
-434,949	474,161	-0,063	0,104
-433,934	-200,000	0,002	-0,008
-432,919	-200,000	0,015	-0,083
-431,905	590,859	-0,007	-0,012
-430,890	330,687	-0,027	0,038
-429,876	775,845	0,029	0,057
-428,861	780,309	-0,030	0,060
-427,846	439,819	-0,059	-0,095
-426,832	-200,000	0,008	-0,205
-425,817	266,297	0,036	-0,046
-424,803	45,759	-0,057	-0,039
-423,788	-200,000	0,023	-0,129
-422,773	-20,666	0,078	-0,035
-421,759	-166,543	0,093	0,003
-420,744	800,000	-0,028	0,057
-419,730	800,000	-0,016	0,042
-418,715	-78,148	0,043	0,011
-417,701	240,240	0,044	-0,054
-416,686	25,541	-0,093	-0,056
-415,671	-10,664	0,100	-0,048
-414,657	524,498	0,025	0,043
-413,642	800,000	0,040	0,127
-412,628	154,857	0,034	0,034
-411,613	800,000	0,043	-0,119
-410,598	-101,750	-0,065	0,011
-409,584	-75,738	0,029	-0,007
-408,569	183,842	0,025	-0,027
-407,555	-32,276	0,083	-0,034
-406,540	224,716	0,148	-0,174
-405,525	43,721	0,162	0,108
-404,511	-136,977	-0,177	0,015
-403,496	-200,000	-0,022	-0,101
-402,482	800,000	0,047	0,095
-401,467	-200,000	0,040	0,184
-400,452	-116,197	0,101	0,013
-399,438	-200,000	-0,026	-0,088
-398,423	-56,639	-0,187	0,060
-397,409	-0,420	-0,098	0,050
-396,394	-200,000	0,016	-0,056
-395,379	-200,000	0,002	0,098
-394,365	550,138	-0,040	0,070
-393,350	-0,434	-0,036	-0,019
-392,336	-92,984	0,139	-0,028
-391,321	363,112	-0,062	-0,091
-390,306	-91,980	0,061	-0,013
-389,292	-191,461	0,069	0,000
-388,277	-66,703	-0,071	-0,020
-387,263	-200,000	0,055	0,193
-386,248	800,000	-0,016	-0,047
-385,233	82,456	0,255	0,201
-384,219	-200,000	-0,024	-0,110
-383,204	-29,498	-0,048	-0,020
-382,190	192,250	0,052	-0,057
-381,175	4,635	0,094	0,050
-380,160	167,266	-0,025	-0,026
-379,146	-102,296	0,089	0,015
-378,131	-200,000	-0,022	0,105
-377,117	-33,576	0,034	-0,014
-376,102	131,236	0,061	-0,057
-375,088	-78,040	0,056	-0,014
-374,073	-65,049	0,077	0,022
-373,058	-200,000	-0,037	0,217
-372,044	49,168	0,061	-0,042
-371,029	800,000	-0,028	0,069
-370,015	-200,000	-0,017	0,112
-369,000	-15,815	0,064	-0,030
-367,985	800,000	-0,014	0,042
-366,971	240,064	-0,043	-0,052
-365,956	-82,744	-0,030	-0,007
-364,942	-200,000	0,013	0,127
-363,927	-163,143	0,078	0,003
-362,912	-19,383	-0,120	0,054
-361,898	-200,000	0,001	0,081
-360,883	395,195	-0,009	0,013
-359,869	-200,000	-0,018	0,086
-358,854	234,689	-0,029	0,035
-357,839	217,505	-0,068	0,079
-356,825	64,156	0,027	-0,020
-355,810	-62,526	-0,050	-0,015
-354,796	-155,259	-0,185	-0,009
-353,781	52,549	-0,038	0,026
-352,766	800,000	0,059	0,138
-351,752	70,782	0,051	0,038
-350,737	-53,413	0,058	0,019
-349,723	335,104	0,026	-0,037
-348,708	-32,523	0,082	-0,033
-347,693	17,560	0,050	0,029
-346,679	800,000	0,058	-0,134
-345,664	99,152	-0,095	-0,079
-344,650	288,536	-0,034	-0,045
-343,635	-52,502	0,157	-0,052
-342,620	-65,819	-0,028	0,008
-341,606	-89,282	-0,063	-0,013
-340,591	110,916	-0,040	-0,035
-339,577	159,591	-0,055	-0,056
-338,562	63,322	-0,059	-0,043
-337,548	-200,000	-0,037	-0,120
-336,533	-200,000	0,021	0,110
-335,518	-200,000	-0,007	0,067
-334,504	-200,000	0,015	-0,071
-333,489	-200,000	0,004	-0,020
-332,475	353,744	-0,014	-0,020
-331,460	22,651	-0,039	-0,023
-330,445	134,377	0,054	-0,051
-329,431	-183,320	0,055	-0,001
-328,416	-39,099	-0,031	-0,012
-327,402	800,000	0,049	0,138
-326,387	25,668	-0,116	0,070
-325,372	-5,481	-0,057	-0,028
-324,358	-200,000	0,003	-0,164
-323,343	-200,000	-0,015	-0,130
-322,329	280,944	-0,015	0,019
-321,314	800,000	0,050	0,130
-320,299	68,975	-0,046	0,034
-319,285	800,000	0,047	0,111
-318,270	-79,545	-0,203	0,049
-317,256	109,210	-0,052	0,045
-316,241	-200,000	0,001	-0,095
-315,226	566,133	0,055	0,098
-314,212	10,020	-0,071	-0,039
-313,197	-200,000	-0,001	0,010
-312,183	67,718	-0,162	0,120
-311,168	800,000	0,018	0,049
-310,153	-147,740	-0,117	0,007
-309,139	-200,000	-0,002	0,018
-308,124	-106,278	-0,141	0,023
-307,110	412,680	-0,096	0,148
-306,095	9,198	0,062	-0,034
-305,080	143,922	0,111	-0,108
-304,066	800,000	-0,024	0,053
-303,051	-200,000	0,032	0,115
-302,037	242,759	-0,071	-0,087
-301,022	296,023	-0,018	0,024
-300,008	-22,094	0,045	-0,020
-298,993	-53,615	0,063	0,021
-297,978	800,000	0,059	0,143
-296,964	-200,000	0,001	-0,061
-295,949	800,000	0,036	0,105
-294,935	55,229	-0,123	-0,086
-293,920	-66,443	0,086	0,025
-292,905	156,726	0,099	0,099
-291,891	-111,185	-0,076	0,011
-290,876	90,579	0,067	0,054
-289,862	-200,000	0,001	0,019
-288,847	-200,000	-0,013	0,088
-287,832	79,004	0,067	0,052
-286,818	1,324	0,147	-0,076
-285,803	-200,000	0,002	0,028
-284,789	-200,000	0,005	0,058
-283,774	-200,000	-0,033	0,118
-282,759	800,000	0,043	0,115
-281,745	4,332	-0,100	-0,053
-280,730	-22,614	-0,048	-0,021
-279,716	54,568	-0,100	-0,070
-278,701	-200,000	0,006	0,126
-277,686	800,000	0,084	0,177
-276,672	-108,134	-0,074	-0,011
-275,657	-14,290	0,057	-0,026
-274,643	-174,319	-0,083	0,002
-273,628	800,000	0,042	-0,088
-272,613	153,773	0,054	0,053
-271,599	-107,132	0,149	0,024
-270,584	-146,363	-0,060	0,004
-269,570	-69,580	0,104	-0,029
-268,555	-49,534	0,144	0,049
-267,540	47,404	0,074	0,050
-266,526	267,461	-0,027	0,034
-265,511	-200,000	0,025	-0,169
-264,497	800,000	-0,040	0,093
-263,482	306,794	-0,047	0,063
-262,467	382,454	0,012	-0,017
-261,453	-34,032	-0,061	0,024
-260,438	-200,000	0,009	-0,037
-259,424	-200,000	0,006	-0,074
-258,409	-141,680	0,097	-0,007
-257,395	-41,153	-0,009	0,003
-256,380	217,179	0,080	-0,092
-255,365	109,181	0,038	0,033
-254,351	152,436	0,025	0,024
-253,336	-81,266	0,067	0,016
-252,322	61,421	0,038	-0,027
-251,307	800,000	-0,036	-0,085
-250,292	692,892	-0,042	0,081
-249,278	-16,132	0,072	0,033
-248,263	-200,000	0,021	0,227
-247,249	-200,000	-0,005	-0,031
-246,234	800,000	-0,068	-0,204
-245,219	-68,915	0,073	-0,020
-244,205	-200,000	0,007	-0,024
-243,190	466,089	-0,034	0,055
-242,176	44,646	0,065	0,043
-241,161	-200,000	0,023	-0,189
-240,146	800,000	0,021	-0,047
-239,132	-32,928	-0,081	-0,032
-238,117	800,000	-0,017	-0,037
-237,103	-81,856	-0,094	-0,022
-236,088	343,463	-0,068	-0,097
-235,073	130,297	0,103	-0,095
-234,059	-200,000	0,007	-0,028
-233,044	182,044	0,024	-0,025
-232,030	-153,275	-0,114	-0,006
-231,015	108,116	0,048	0,041
-230,000	800,000	0,036	-0,075
-228,986	-109,675	0,176	0,027
-227,971	362,139	-0,062	-0,089
-226,957	573,104	0,069	0,123
-225,942	483,367	0,015	-0,025
-224,927	163,452	0,061	0,062
-223,913	74,121	0,104	-0,079
-222,898	22,767	-0,123	-0,073
-221,884	-200,000	0,016	-0,159
-220,869	-200,000	-0,025	0,106
-219,855	-119,863	-0,136	0,017
-218,840	149,391	0,124	-0,122
-217,825	137,030	-0,045	-0,043
-216,811	-200,000	-0,005	0,052
-215,796	-41,802	-0,071	0,026
-214,782	-200,000	0,001	-0,178
-213,767	624,033	-0,013	0,025
-212,752	-74,495	0,097	0,025
-211,738	-200,000	-0,011	0,052
-210,723	-200,000	-0,000	0,009
-209,709	315,911	-0,005	0,007
-208,694	-200,000	0,039	-0,135
-207,679	73,780	-0,190	-0,143
-206,665	96,159	0,077	0,064
-205,650	256,915	0,019	-0,024
-204,636	-200,000	0,013	0,053
-203,621	69,079	-0,076	0,057
-202,606	-200,000	0,005	-0,018
-201,592	-200,000	-0,012	-0,053
-200,577	-200,000	-0,006	0,042
-199,563	21,127	-0,061	-0,036
-198,548	-45,838	0,058	-0,021
-197,533	-200,000	0,004	-0,103
-196,519	361,239	0,045	-0,065
-195,504	438,619	0,097	-0,153
-194,490	-26,142	-0,083	0,035
-193,475	-200,000	-0,001	0,041
-192,460	-200,000	-0,037	-0,122
-191,446	52,366	0,129	0,089
-190,431	199,270	0,095	0,105
-189,417	38,698	0,098	0,063
-188,402	-200,000	-0,008	0,100
-187,387	-162,702	-0,108	0,004
-186,373	800,000	-0,040	0,109
-185,358	-200,000	0,005	-0,079
-184,344	-13,258	-0,129	0,060
-183,329	491,134	-0,053	0,089
-182,315	112,947	0,012	0,010
-181,300	-177,558	0,093	0,002
-180,285	-130,026	-0,144	0,014
-179,271	-200,000	-0,009	-0,129
-178,256	-75,170	-0,031	-0,008
-177,242	-200,000	-0,002	0,101
-176,227	-57,561	0,018	0,006
-175,212	-150,871	-0,091	-0,005
-174,198	-5,919	-0,025	0,012
-173,183	-6,078	0,127	0,062
-172,169	506,158	0,070	0,118
-171,154	696,950	0,033	-0,063
-170,139	-200,000	0,014	0,092
-169,125	-40,890	0,025	0,009
-168,110	-200,000	0,002	-0,053
-167,096	-200,000	0,002	0,056
-166,081	139,705	-0,102	-0,097
-165,066	-200,000	-0,042	-0,178
-164,052	45,373	-0,043	0,029
-163,037	105,323	-0,075	-0,064
-162,023	22,672	0,090	0,053
-161,008	-200,000	0,000	0,032
-159,993	-9,604	0,099	-0,048
-158,979	-200,000	-0,024	-0,086
-157,964	-87,020	-0,128	0,028
-156,950	-200,000	-0,013	0,000
-155,935	-11,386	0,034	-0,016
-154,920	149,185	0,069	0,068
-153,906	-131,450	-0,024	0,002
-152,891	291,667	0,057	-0,075
-151,877	-6,084	-0,139	-0,068
-150,862	-200,000	0,021	-0,106
-149,847	102,857	0,064	-0,054
-148,833	593,552	-0,023	0,040
-147,818	-14,414	0,187	0,086
-146,804	-41,058	0,170	-0,063
-145,789	-119,733	-0,078	-0,010
-144,775	-131,479	0,062	-0,006
-143,760	215,749	-0,037	-0,043
-142,745	175,728	0,067	0,070
-141,731	-200,000	-0,005	0,106
-140,716	800,000	0,036	0,086
-139,702	-152,182	0,235	-0,012
-138,687	-18,116	0,042	0,019
-137,672	215,237	-0,074	-0,084
-136,658	604,897	-0,039	-0,071
-135,643	-170,202	-0,132	-0,003
-134,629	-15,462	0,066	-0,030
-133,614	-165,705	-0,147	0,004
-132,599	360,976	-0,045	0,065
-131,585	47,747	0,048	0,032
-130,570	-200,000	-0,006	0,045
-129,556	-104,943	0,102	-0,017
-128,541	-121,820	0,082	-0,010
-127,526	800,000	-0,010	-0,028
-126,512	323,703	0,054	-0,074
-125,497	5,736	0,127	-0,067
-124,483	146,956	-0,066	-0,064
-123,468	-17,987	-0,071	0,032
-122,453	-168,981	-0,062	-0,002
-121,439	-200,000	-0,036	-0,118
-120,424	240,659	0,050	-0,060
-119,410	-200,000	0,004	-0,075
