DTS Sentinel unit serial number:	SN410029Multiplexer serial number:	ORYXHardware model number:	OX2-SRSoftware version number:	ORYX F/W v4,00 Oryx Data Collector v3.7.2.0data status	okinstallation	B5 Nyhavnadifferential loss correction	single-endedforward channel	channel 2reverse channel	N/Adate	2023/12/14time	11:37:13forward acquisition time	300,00reverse acquisition time	0,00gamma	499,1914k internal	0,3159k external	0,3159temperature offset calibration	1,0000default loss term (dB/km)	0,3820temperature slope calibration	1,0000multiplexer offset coefficient	1,0000multiplexer slope coefficient	1,0000fibre end	0,00T internal ref (°C)	7,48T ext. ref 1 (°C)	-7,95T ext. ref 2 (°C)	-7,98length (m)	temperature (°C)	Stokes	anti-Stokes-744,400	-16,162	0,138	0,064
-743,385	-178,527	-0,396	0,007
-742,371	250,681	0,117	0,146
-741,356	-57,217	-0,419	-0,135
-740,342	70,177	0,131	0,100
-739,327	87,225	-0,176	-0,143
-738,312	90,707	0,093	0,076
-737,298	-39,158	-0,273	-0,105
-736,283	-107,128	0,189	0,030
-735,269	-52,241	-0,287	-0,097
-734,254	117,200	0,224	0,203
-733,239	-45,073	-0,603	-0,220
-732,225	-20,445	0,278	0,125
-731,210	46,449	-0,051	-0,035
-730,196	125,110	0,007	-0,006
-729,181	-165,048	-0,030	-0,001
-728,167	371,997	-0,048	-0,073
-727,152	652,791	0,068	-0,129
-726,137	-187,526	-0,099	-0,001
-725,123	800,000	-0,030	-0,064
-724,108	-200,000	-0,020	-0,093
-723,094	-78,619	0,085	-0,021
-722,079	800,000	0,067	-0,166
-721,064	93,145	-0,023	-0,019
-720,050	85,471	0,059	-0,048
-719,035	97,664	-0,068	-0,057
-718,021	8,933	0,092	0,051
-717,006	-200,000	-0,016	-0,072
-715,991	-17,200	-0,118	0,055
-714,977	-54,026	0,082	-0,027
-713,962	36,567	-0,048	-0,031
-712,948	-160,194	0,075	0,003
-711,933	-200,000	0,012	0,056
-710,918	104,929	-0,098	0,085
-709,904	376,355	0,073	-0,109
-708,889	-87,551	-0,171	-0,038
-707,875	647,615	-0,072	-0,136
-706,860	-86,350	0,115	-0,026
-705,845	-200,000	0,011	0,104
-704,831	-200,000	0,010	0,195
-703,816	207,010	-0,044	0,050
-702,802	-81,428	-0,094	0,023
-701,787	355,609	-0,050	-0,073
-700,772	-200,000	-0,005	-0,017
-699,758	11,757	0,095	0,053
-698,743	800,000	0,050	-0,104
-697,729	356,871	-0,085	-0,124
-696,714	17,660	-0,061	0,036
-695,699	78,645	-0,100	0,078
-694,685	-200,000	0,034	-0,125
-693,670	-57,066	-0,174	0,056
-692,656	800,000	-0,031	-0,065
-691,641	800,000	-0,035	0,081
-690,627	-200,000	0,005	0,086
-689,612	-143,008	-0,120	-0,008
-688,597	125,846	0,068	0,063
-687,583	27,658	-0,031	-0,019
-686,568	43,060	0,048	-0,032
-685,554	-200,000	0,001	0,158
-684,539	-200,000	0,030	-0,153
-683,524	98,908	-0,080	0,068
-682,510	-43,594	-0,122	-0,045
-681,495	800,000	0,035	-0,082
-680,481	13,717	-0,079	-0,045
-679,466	-68,038	-0,122	0,035
-678,451	560,835	0,026	0,046
-677,437	253,160	-0,044	0,056
-676,422	-200,000	0,000	-0,092
-675,408	800,000	-0,041	0,084
-674,393	149,638	-0,076	-0,076
-673,378	-200,000	0,016	-0,079
-672,364	-200,000	-0,004	-0,090
-671,349	43,377	-0,047	-0,031
-670,335	800,000	0,062	0,175
-669,320	-31,738	0,142	0,058
-668,305	170,002	-0,093	0,098
-667,291	209,474	0,027	-0,031
-666,276	192,775	-0,045	0,050
-665,262	296,334	0,083	-0,112
-664,247	-200,000	0,009	-0,035
-663,232	86,137	-0,102	0,082
-662,218	257,150	-0,054	0,068
-661,203	-28,685	0,050	-0,021
-660,189	300,002	-0,030	-0,040
-659,174	358,215	-0,076	-0,112
-658,159	-19,887	-0,120	-0,054
-657,145	-2,254	-0,082	-0,042
-656,130	30,296	-0,037	-0,023
-655,116	-192,241	0,035	0,000
-654,101	248,260	0,085	0,106
-653,086	-200,000	-0,039	-0,142
-652,072	800,000	0,026	-0,067
-651,057	-92,707	-0,129	0,026
-650,043	-88,015	-0,030	0,006
-649,028	-130,971	0,130	-0,013
-648,014	-187,493	0,090	-0,001
-646,999	-200,000	-0,021	0,076
-645,984	51,549	-0,034	0,023
-644,970	-200,000	0,036	-0,173
-643,955	276,637	0,008	0,011
-642,941	-200,000	-0,004	-0,065
-641,926	259,738	0,100	-0,127
-640,911	800,000	0,048	-0,098
-639,897	244,786	0,065	0,081
-638,882	749,786	0,035	-0,070
-637,868	-96,758	-0,216	-0,041
-636,853	171,142	-0,020	-0,021
-635,838	757,045	0,052	0,104
-634,824	222,874	-0,051	0,061
-633,809	394,939	0,015	-0,022
-632,795	-200,000	-0,004	-0,097
-631,780	800,000	-0,020	-0,058
-630,765	-81,122	-0,128	0,031
-629,751	213,619	-0,026	0,031
-628,736	199,495	-0,153	0,172
-627,722	617,428	0,041	-0,076
-626,707	248,396	0,033	-0,041
-625,692	373,511	-0,042	-0,063
-624,678	-200,000	-0,009	0,032
-623,663	-9,736	-0,067	0,033
-622,649	-98,543	-0,162	0,030
-621,634	800,000	0,024	-0,066
-620,619	48,156	0,064	-0,043
-619,605	-200,000	-0,018	-0,072
-618,590	-200,000	0,022	0,138
-617,576	-200,000	0,003	-0,059
-616,561	42,213	0,035	0,024
-615,546	800,000	-0,010	-0,026
-614,532	-37,126	-0,036	0,014
-613,517	-200,000	-0,028	-0,120
-612,503	97,594	0,026	-0,022
-611,488	800,000	0,023	0,068
-610,474	468,657	-0,047	0,077
-609,459	23,885	0,019	0,012
-608,444	-63,498	-0,240	-0,072
-607,430	-67,902	0,147	-0,042
-606,415	18,419	-0,204	-0,119
-605,401	122,112	0,082	0,075
-604,386	133,616	0,072	-0,068
-603,371	145,041	-0,037	-0,036
-602,357	-57,778	0,033	0,011
-601,342	-200,000	0,011	-0,203
-600,328	-200,000	-0,032	-0,184
-599,313	800,000	-0,018	-0,038
-598,298	611,576	0,021	-0,038
-597,284	800,000	-0,015	0,035
-596,269	-200,000	0,022	0,076
-595,255	66,957	-0,021	-0,016
-594,240	-200,000	0,016	-0,096
-593,225	132,497	0,023	-0,021
-592,211	-161,787	0,058	-0,002
-591,196	408,148	-0,068	0,105
-590,182	34,785	-0,037	0,024
-589,167	-200,000	0,004	0,143
-588,152	-178,627	-0,034	0,001
-587,138	282,845	0,099	0,131
-586,123	-133,100	-0,097	0,009
-585,109	278,447	0,016	-0,021
-584,094	121,592	0,067	-0,062
-583,079	352,338	-0,046	0,066
-582,065	-200,000	-0,046	-0,164
-581,050	800,000	-0,012	-0,034
-580,036	9,498	0,062	0,034
-579,021	-69,844	-0,083	-0,023
-578,006	60,546	-0,084	0,061
-576,992	6,518	0,137	-0,074
-575,977	-138,092	-0,149	-0,012
-574,963	11,617	0,099	-0,056
-573,948	-200,000	0,010	0,216
-572,934	-61,714	0,076	0,023
-571,919	237,554	-0,077	-0,094
-570,904	121,126	-0,130	-0,118
-569,890	-106,549	0,014	0,002
-568,875	761,439	-0,021	-0,041
-567,861	36,466	0,060	-0,039
-566,846	-200,000	-0,003	-0,094
-565,831	771,137	-0,034	-0,068
-564,817	-25,924	-0,086	-0,037
-563,802	202,496	-0,063	0,071
-562,788	-120,935	-0,045	0,006
-561,773	281,442	0,125	0,164
-560,758	108,443	-0,045	-0,039
-559,744	800,000	-0,046	0,131
-558,729	-200,000	-0,008	0,053
-557,715	648,633	0,006	-0,011
-556,700	-200,000	0,007	0,185
-555,685	46,570	0,058	-0,039
-554,671	-128,045	-0,124	0,013
-553,656	800,000	0,024	0,056
-552,642	-200,000	-0,006	-0,074
-551,627	-9,565	-0,021	0,010
-550,612	800,000	0,018	0,056
-549,598	192,026	-0,015	0,016
-548,583	59,907	-0,149	0,108
-547,569	800,000	0,017	0,043
-546,554	10,977	0,069	0,039
-545,539	-88,288	0,098	0,021
-544,525	-97,928	-0,102	0,019
-543,510	-31,874	0,074	-0,030
-542,496	87,074	0,080	-0,065
-541,481	-70,006	-0,138	0,038
-540,466	146,853	-0,016	0,016
-539,452	30,284	0,153	0,095
-538,437	218,282	0,029	0,034
-537,423	-138,790	-0,020	0,002
-536,408	370,945	0,007	-0,010
-535,393	800,000	0,032	0,079
-534,379	121,774	-0,116	-0,105
-533,364	-71,907	-0,068	0,018
-532,350	-200,000	0,002	-0,112
-531,335	-200,000	0,001	0,119
-530,321	371,887	-0,034	0,051
-529,306	56,933	-0,063	0,045
-528,291	412,612	-0,032	-0,050
-527,277	-200,000	0,002	-0,094
-526,262	140,898	0,050	0,048
-525,248	696,593	0,021	0,041
-524,233	800,000	0,032	-0,082
-523,218	-117,876	-0,087	-0,011
-522,204	-200,000	-0,004	-0,077
-521,189	-5,800	0,210	-0,105
-520,175	-19,809	0,076	-0,034
-519,160	-37,563	0,077	-0,030
-518,145	-92,206	-0,036	-0,007
-517,131	-200,000	0,006	-0,069
-516,116	666,446	0,051	0,096
-515,102	800,000	-0,036	0,074
-514,087	-141,489	0,080	0,006
-513,072	-200,000	0,002	-0,074
-512,058	-43,912	-0,064	0,023
-511,043	-153,886	0,048	-0,002
-510,029	251,812	-0,022	0,027
-509,014	800,000	0,017	0,048
-507,999	-76,034	0,090	0,023
-506,985	153,310	0,114	0,114
-505,970	171,185	0,019	-0,020
-504,956	-30,851	0,017	-0,007
-503,941	-171,761	0,032	-0,001
-502,926	56,481	0,088	-0,062
-501,912	40,340	0,093	-0,061
-500,897	54,309	-0,037	0,026
-499,883	-149,956	-0,062	0,003
-498,868	88,865	0,028	-0,023
-497,853	-200,000	-0,010	-0,111
-496,839	190,044	0,059	-0,064
-495,824	800,000	0,033	0,084
-494,810	132,216	0,077	-0,072
-493,795	44,906	0,106	-0,071
-492,781	-93,096	-0,111	0,022
-491,766	-11,872	-0,036	-0,017
-490,751	-119,829	0,031	-0,004
-489,737	603,179	0,052	-0,094
-488,722	39,544	-0,057	0,037
-487,708	-32,802	0,059	0,024
-486,693	-200,000	-0,007	0,107
-485,678	595,214	-0,042	0,075
-484,664	-200,000	-0,005	0,050
-483,649	-200,000	-0,004	-0,091
-482,635	800,000	0,067	0,178
-481,620	-28,578	0,141	-0,059
-480,605	-200,000	-0,036	-0,127
-479,591	640,537	0,022	-0,042
-478,576	-161,179	-0,119	0,004
-477,562	-200,000	0,003	-0,027
-476,547	516,112	-0,064	-0,109
-475,532	-113,835	-0,082	-0,012
-474,518	-200,000	-0,008	-0,049
-473,503	-36,733	0,101	0,039
-472,489	558,206	0,026	0,047
-471,474	-71,904	0,066	-0,018
-470,459	187,046	-0,073	0,079
-469,445	36,884	0,043	-0,028
-468,430	800,000	-0,028	0,072
-467,416	362,952	-0,059	0,087
-466,401	-79,599	0,046	-0,011
-465,386	90,947	0,089	0,073
-464,372	211,600	-0,035	-0,041
-463,357	-200,000	-0,024	-0,100
-462,343	-12,271	-0,016	0,008
-461,328	58,368	-0,160	-0,114
-460,313	160,883	0,006	0,006
-459,299	-109,519	0,174	0,027
-458,284	177,764	0,068	0,072
-457,270	-200,000	-0,012	0,052
-456,255	800,000	-0,023	0,074
-455,241	130,268	0,071	-0,066
-454,226	86,337	-0,075	-0,061
-453,211	-40,985	0,014	0,005
-452,197	242,499	0,092	0,112
-451,182	-58,447	0,053	-0,017
-450,168	51,562	-0,067	0,046
-449,153	101,691	-0,071	-0,060
-448,138	67,645	0,046	-0,035
-447,124	-155,393	-0,095	-0,004
-446,109	-7,140	0,105	0,052
-445,095	-108,796	0,127	0,020
-444,080	-21,270	0,063	-0,028
-443,065	800,000	-0,024	-0,072
-442,051	-46,323	-0,128	-0,045
-441,036	800,000	-0,050	-0,136
-440,022	-200,000	0,000	-0,158
-439,007	-200,000	-0,022	-0,084
-437,992	-200,000	0,029	0,154
-436,978	-200,000	-0,033	0,120
-435,963	271,223	0,046	0,059
-434,949	310,730	-0,036	-0,049
-433,934	-38,182	-0,137	-0,053
-432,919	67,668	-0,037	-0,028
-431,905	800,000	0,028	-0,069
-430,890	-200,000	0,007	0,112
-429,876	800,000	0,014	0,045
-428,861	-55,796	-0,092	-0,030
-427,846	-200,000	0,014	-0,070
-426,832	800,000	-0,041	-0,125
-425,817	-178,684	0,091	-0,001
-424,803	173,721	-0,143	0,151
-423,788	-55,750	0,038	0,012
-422,773	505,203	-0,004	-0,006
-421,759	-200,000	0,025	0,166
-420,744	-200,000	-0,033	0,227
-419,730	673,133	-0,101	-0,192
-418,715	-200,000	-0,004	-0,070
-417,701	92,843	-0,053	-0,044
-416,686	-62,547	0,132	0,040
-415,671	800,000	0,044	0,099
-414,657	600,209	-0,101	0,184
-413,642	105,059	-0,095	-0,082
-412,628	800,000	0,033	-0,067
-411,613	376,307	0,054	-0,081
-410,598	-98,703	0,034	0,006
-409,584	73,473	-0,014	-0,011
-408,569	-200,000	0,018	0,154
-407,555	-200,000	-0,001	-0,003
-406,540	31,546	-0,029	0,018
-405,525	800,000	0,031	0,064
-404,511	-68,305	0,022	-0,006
-403,496	-200,000	0,021	0,119
-402,482	33,061	0,090	-0,056
-401,467	-200,000	-0,003	-0,029
-400,452	-80,424	0,019	0,005
-399,438	-200,000	0,009	0,161
-398,423	4,565	0,046	0,025
-397,409	88,004	0,002	0,001
-396,394	10,604	-0,143	0,079
-395,379	191,117	0,116	0,127
-394,365	133,982	0,118	0,111
-393,350	800,000	-0,019	-0,051
-392,336	24,057	-0,049	-0,029
-391,321	-81,354	0,031	-0,007
-390,306	260,125	-0,072	0,090
-389,292	-57,556	-0,171	-0,054
-388,277	-62,427	0,118	-0,036
-387,263	6,017	-0,192	-0,103
-386,248	198,345	-0,026	0,029
-385,233	83,267	0,055	-0,044
-384,219	-200,000	0,005	-0,105
-383,204	-17,004	-0,058	-0,027
-382,190	-128,380	-0,078	0,008
-381,175	-89,310	-0,170	-0,036
-380,160	-23,993	0,117	0,050
-379,146	-149,128	0,061	0,003
-378,131	-7,204	-0,032	0,016
-377,117	43,173	0,051	0,034
-376,102	-200,000	-0,098	0,000
-375,088	-200,000	-0,010	-0,094
-374,073	-200,000	0,006	-0,106
-373,058	131,315	0,052	0,048
-372,044	-200,000	-0,042	0,137
-371,029	194,284	-0,009	0,010
-370,015	-200,000	0,020	-0,100
-369,000	-200,000	0,025	0,095
-367,985	800,000	-0,020	0,059
-366,971	-58,682	0,026	-0,008
-365,956	236,904	0,000	0,000
-364,942	-42,158	-0,069	0,025
-363,927	48,477	0,099	0,067
-362,912	15,382	-0,117	-0,066
-361,898	290,534	0,091	-0,121
-360,883	67,533	-0,042	0,031
-359,869	260,248	-0,025	0,031
-358,854	-13,790	0,083	0,039
-357,839	800,000	0,049	0,104
-356,825	-26,116	0,021	-0,009
-355,810	800,000	-0,020	-0,041
-354,796	-9,843	-0,044	-0,021
-353,781	309,542	-0,068	0,092
-352,766	-29,196	0,119	0,049
-351,752	-129,189	0,066	0,007
-350,737	180,059	0,113	0,120
-349,723	264,605	0,082	0,103
-348,708	-200,000	-0,011	0,081
-347,693	800,000	-0,040	0,119
-346,679	63,959	0,021	0,015
-345,664	351,114	-0,017	0,024
-344,650	-114,608	0,068	0,009
-343,635	328,484	0,042	0,059
-342,620	666,247	-0,018	-0,035
-341,606	-64,021	0,093	0,027
-340,591	800,000	0,035	-0,088
-339,577	-111,929	-0,163	0,024
-338,562	3,262	0,058	-0,031
-337,548	-200,000	-0,006	0,145
-336,533	-33,136	-0,054	0,022
-335,518	151,939	0,026	0,026
-334,504	800,000	-0,029	-0,066
-333,489	359,522	0,040	-0,058
-332,475	800,000	-0,102	-0,284
-331,460	-96,900	-0,211	0,040
-330,445	106,532	0,062	0,053
-329,431	339,876	0,065	0,092
-328,416	800,000	0,067	-0,144
-327,402	-200,000	-0,035	-0,175
-326,387	-200,000	-0,020	0,065
-325,372	672,000	0,018	-0,035
-324,358	448,675	-0,052	0,084
-323,343	800,000	0,018	0,050
-322,329	639,458	-0,039	0,072
-321,314	-200,000	-0,013	0,061
-320,299	-12,527	0,075	0,035
-319,285	-200,000	0,017	0,059
-318,270	-200,000	0,000	0,140
-317,256	-200,000	0,019	0,080
-316,241	36,519	-0,032	0,020
-315,226	-100,960	-0,028	0,005
-314,212	800,000	0,052	0,128
-313,197	-98,429	-0,009	-0,002
-312,183	420,491	-0,059	-0,092
-311,168	469,611	-0,086	-0,140
-310,153	492,817	-0,069	-0,115
-309,139	-187,964	0,071	0,001
-308,124	-200,000	0,001	-0,108
-307,110	800,000	-0,025	0,070
-306,095	543,241	0,067	-0,116
-305,080	-200,000	-0,042	0,150
-304,066	-66,151	-0,151	0,043
-303,051	-200,000	-0,038	-0,149
-302,037	800,000	-0,015	-0,035
-301,022	-104,651	-0,113	-0,019
-300,008	20,537	0,065	0,038
-298,993	-33,378	0,168	0,067
-297,978	603,885	0,043	-0,078
-296,964	-52,591	-0,019	0,006
-295,949	-32,732	-0,100	-0,040
-294,935	143,906	0,068	-0,066
-293,920	-121,249	0,017	-0,002
-292,905	74,113	0,068	0,052
-291,891	800,000	-0,023	-0,059
-290,876	167,512	0,093	0,095
-289,862	257,677	0,054	-0,068
-288,847	-26,592	-0,248	-0,105
-287,832	-200,000	-0,001	-0,115
-286,818	-200,000	-0,007	-0,095
-285,803	66,700	0,086	0,063
-284,789	-200,000	0,004	0,240
-283,774	800,000	-0,020	-0,047
-282,759	-137,148	0,033	0,003
-281,745	49,001	-0,078	0,053
-280,730	317,385	0,081	-0,112
-279,716	-200,000	0,018	0,074
-278,701	118,172	0,049	-0,043
-277,686	-71,846	0,069	-0,018
-276,672	224,597	-0,033	0,039
-275,657	800,000	-0,003	0,007
-274,643	-185,877	-0,196	0,002
-273,628	-121,257	0,082	-0,010
-272,613	28,019	-0,079	-0,048
-271,599	-200,000	0,005	0,042
-270,584	81,073	0,107	0,083
-269,570	189,111	-0,033	-0,036
-268,555	-76,832	0,166	-0,042
-267,540	-27,378	0,045	-0,019
-266,526	-200,000	-0,012	-0,122
-265,511	-73,530	-0,082	-0,021
-264,497	800,000	0,049	-0,155
-263,482	115,137	0,063	0,055
-262,467	56,428	0,034	0,024
-261,453	-200,000	-0,008	-0,039
-260,438	71,747	0,044	0,033
-259,424	-200,000	-0,016	0,059
-258,409	506,338	0,048	-0,080
-257,395	197,442	0,044	0,049
-256,380	26,264	-0,020	-0,012
-255,365	88,779	0,066	-0,053
-254,351	-94,017	-0,096	-0,019
-253,336	800,000	0,013	-0,028
-252,322	-145,048	-0,090	0,006
-251,307	310,091	0,058	0,079
-250,292	-200,000	-0,019	0,077
-249,278	-51,866	0,107	-0,036
-248,263	-200,000	0,042	-0,185
-247,249	172,526	-0,039	-0,041
-246,234	-63,341	0,100	0,030
-245,219	-53,659	0,155	-0,051
-244,205	243,965	0,059	0,072
-243,190	256,327	-0,047	0,059
-242,176	16,372	0,061	0,035
-241,161	800,000	0,025	0,061
-240,146	125,913	0,067	0,061
-239,132	202,832	0,072	0,081
-238,117	121,288	-0,057	-0,051
-237,103	451,092	-0,055	-0,089
-236,088	-200,000	0,009	0,052
-235,073	312,359	0,048	-0,066
-234,059	-200,000	0,026	0,130
-233,044	223,067	-0,037	0,043
-232,030	564,135	0,017	0,030
-231,015	40,791	-0,071	0,046
-230,000	-118,087	-0,238	-0,030
-228,986	-74,001	-0,132	0,034
-227,971	73,007	0,166	-0,125
-226,957	264,697	-0,056	-0,071
-225,942	800,000	0,028	-0,085
-224,927	-37,396	-0,128	-0,049
-223,913	-123,120	0,106	-0,012
-222,898	800,000	-0,024	-0,059
-221,884	50,000	-0,133	-0,090
-220,869	-73,187	-0,056	-0,015
-219,855	-30,114	-0,059	-0,024
-218,840	800,000	-0,037	0,088
-217,825	345,435	0,057	0,081
-216,811	59,570	0,011	-0,008
-215,796	-200,000	-0,028	-0,102
-214,782	-137,874	-0,065	0,005
-213,767	33,570	0,151	-0,094
-212,752	-121,035	0,089	-0,011
-211,738	-200,000	0,002	-0,029
-210,723	302,115	0,028	-0,038
-209,709	101,081	-0,060	-0,050
-208,694	-200,000	-0,021	-0,121
-207,679	-24,957	0,026	-0,011
-206,665	223,419	0,115	-0,134
-205,650	-200,000	-0,004	-0,138
-204,636	-35,116	0,031	-0,012
-203,621	-200,000	-0,034	0,107
-202,606	-200,000	0,010	-0,051
-201,592	-200,000	-0,046	-0,151
-200,577	-200,000	-0,034	-0,143
-199,563	800,000	-0,008	0,020
-198,548	-200,000	0,013	0,083
-197,533	392,776	-0,059	0,089
-196,519	1,096	0,123	-0,064
-195,504	-55,318	-0,122	-0,039
-194,490	-200,000	0,010	-0,087
-193,475	-43,409	0,072	0,026
-192,460	-106,291	0,096	-0,015
-191,446	-87,706	-0,043	-0,009
-190,431	-54,440	0,071	0,023
-189,417	-50,012	0,057	0,020
-188,402	39,577	0,054	-0,035
-187,387	55,525	-0,024	0,017
-186,373	-162,542	0,158	0,006
-185,358	-156,190	-0,126	0,006
-184,344	800,000	-0,013	0,032
-183,329	-121,686	0,107	0,013
-182,315	32,458	-0,061	0,038
-181,300	223,607	-0,094	0,109
-180,285	800,000	-0,010	-0,023
-179,271	162,134	-0,093	0,094
-178,256	-200,000	0,014	-0,163
-177,242	490,487	-0,084	0,138
-176,227	-152,283	-0,011	0,001
-175,212	-200,000	0,007	-0,084
-174,198	-200,000	-0,015	0,050
-173,183	-108,326	-0,102	0,016
-172,169	800,000	0,027	0,071
-171,154	-200,000	0,002	-0,088
-170,139	416,949	-0,076	0,117
-169,125	-114,130	0,094	-0,013
-168,110	-200,000	0,010	0,078
-167,096	383,145	-0,022	0,033
-166,081	17,162	-0,030	0,017
-165,066	-52,390	0,069	0,023
-164,052	-135,047	-0,049	-0,004
-163,037	-200,000	0,009	0,034
-162,023	-77,467	-0,071	0,018
-161,008	301,884	-0,024	0,032
-159,993	-200,000	0,011	0,117
-158,979	61,513	-0,091	0,065
-157,964	800,000	-0,045	-0,117
-156,950	800,000	-0,023	-0,060
-155,935	-200,000	0,032	0,127
-154,920	-58,268	0,029	0,009
-153,906	696,211	0,110	0,209
-152,891	-200,000	0,019	0,111
-151,877	-179,256	-0,047	-0,001
-150,862	-102,473	0,020	-0,003
-149,847	31,131	-0,094	0,058
-148,833	261,099	0,079	0,099
-147,818	155,157	0,048	0,047
-146,804	800,000	0,043	0,087
-145,789	-200,000	0,016	0,200
-144,775	136,248	0,135	0,127
-143,760	40,148	-0,207	0,134
-142,745	-168,563	0,068	0,002
-141,731	99,141	0,053	0,044
-140,716	-132,807	0,108	-0,010
-139,702	242,911	0,041	-0,049
-138,687	-200,000	-0,012	0,062
-137,672	-200,000	0,010	0,044
-136,658	-135,945	0,031	0,003
-135,643	257,919	-0,059	-0,073
-134,629	665,415	0,062	0,116
-133,614	161,775	0,027	0,027
-132,599	227,511	0,132	0,155
-131,585	447,865	-0,016	0,026
-130,570	-200,000	-0,021	0,109
-129,556	159,536	-0,019	0,019
-128,541	334,564	-0,033	-0,047
-127,526	-4,836	0,166	0,082
-126,512	800,000	-0,039	-0,112
-125,497	696,230	-0,020	0,037
-124,483	34,270	-0,052	-0,032
-123,468	362,254	-0,023	-0,033
-122,453	-200,000	-0,005	0,137
-121,439	-125,850	-0,124	-0,013
-120,424	103,026	0,031	-0,026
-119,410	-200,000	-0,007	0,119
-118,395	221,082	-0,045	0,052
