DTS Sentinel unit serial number:	SN410029Multiplexer serial number:	ORYXHardware model number:	OX2-SRSoftware version number:	ORYX F/W v4,00 Oryx Data Collector v3.7.2.0data status	okinstallation	B5 Nyhavnadifferential loss correction	single-endedforward channel	channel 2reverse channel	N/Adate	2023/12/12time	19:42:13forward acquisition time	300,00reverse acquisition time	0,00gamma	499,1914k internal	0,3157k external	0,3157temperature offset calibration	1,0000default loss term (dB/km)	0,3820temperature slope calibration	1,0000multiplexer offset coefficient	1,0000multiplexer slope coefficient	1,0000fibre end	0,00T internal ref (°C)	15,43T ext. ref 1 (°C)	-1,24T ext. ref 2 (°C)	-1,53length (m)	temperature (°C)	Stokes	anti-Stokes-744,400	107,310	0,092	0,081
-743,385	-29,954	-0,243	0,102
-742,371	324,364	0,141	0,199
-741,356	-22,750	-0,279	0,124
-740,342	800,000	0,046	0,141
-739,327	-122,054	-0,244	0,029
-738,312	-23,345	0,123	-0,054
-737,298	-144,152	-0,422	-0,029
-736,283	-200,000	0,003	-0,044
-735,269	-89,652	-0,263	0,056
-734,254	-150,495	0,120	-0,007
-733,239	-64,975	-0,494	-0,146
-732,225	-57,936	0,098	0,031
-731,210	800,000	0,060	0,152
-730,196	642,442	-0,040	-0,075
-729,181	-200,000	0,013	0,050
-728,167	-200,000	-0,017	-0,122
-727,152	-200,000	-0,042	0,154
-726,137	-200,000	0,005	-0,112
-725,123	40,421	-0,197	-0,131
-724,108	-43,402	-0,126	-0,047
-723,094	-200,000	-0,011	0,043
-722,079	111,432	-0,118	-0,105
-721,064	760,117	-0,051	-0,102
-720,050	800,000	-0,011	0,036
-719,035	-97,512	-0,046	0,009
-718,021	164,431	-0,086	0,090
-717,006	-200,000	0,064	-0,253
-715,991	800,000	0,007	-0,018
-714,977	-13,750	-0,082	-0,039
-713,962	634,622	0,038	0,071
-712,948	308,485	0,037	0,051
-711,933	78,214	-0,126	0,099
-710,918	115,007	0,076	0,068
-709,904	-200,000	-0,028	-0,122
-708,889	-200,000	-0,030	-0,099
-707,875	-200,000	-0,012	-0,070
-706,860	800,000	-0,021	-0,049
-705,845	73,014	-0,116	0,089
-704,831	-95,652	0,078	-0,015
-703,816	-200,000	-0,022	0,077
-702,802	172,153	0,022	-0,024
-701,787	211,399	0,071	-0,082
-700,772	303,892	-0,061	-0,084
-699,758	-200,000	-0,015	0,080
-698,743	-5,227	0,064	0,032
-697,729	800,000	0,068	0,142
-696,714	800,000	0,036	-0,102
-695,699	359,587	-0,021	0,032
-694,685	201,941	0,012	-0,014
-693,670	-37,393	-0,169	0,066
-692,656	-1,319	0,008	-0,004
-691,641	800,000	0,048	0,144
-690,627	-6,676	-0,054	0,027
-689,612	55,458	-0,132	-0,094
-688,597	112,185	-0,038	0,033
-687,583	446,141	0,073	-0,118
-686,568	-109,364	-0,043	-0,007
-685,554	-8,542	0,095	-0,047
-684,539	43,881	-0,082	-0,055
-683,524	279,200	0,071	-0,094
-682,510	-111,226	-0,090	0,013
-681,495	206,696	-0,068	-0,078
-680,481	60,487	-0,048	0,035
-679,466	-131,739	-0,122	-0,012
-678,451	-120,075	0,088	-0,011
-677,437	133,485	-0,114	-0,108
-676,422	-200,000	-0,045	0,238
-675,408	-200,000	-0,018	0,106
-674,393	-35,603	0,074	0,029
-673,378	2,161	-0,079	-0,042
-672,364	-73,253	-0,069	0,019
-671,349	-200,000	-0,012	-0,141
-670,335	208,022	0,061	0,070
-669,320	12,149	0,032	0,018
-668,305	800,000	-0,035	0,079
-667,291	-200,000	0,005	-0,078
-666,276	-200,000	-0,048	-0,196
-665,262	-200,000	-0,022	-0,077
-664,247	-200,000	0,001	0,040
-663,232	-170,211	0,041	-0,001
-662,218	174,393	-0,036	0,039
-661,203	-200,000	0,025	0,115
-660,189	-64,107	-0,089	-0,026
-659,174	126,884	0,057	-0,053
-658,159	62,110	-0,141	-0,103
-657,145	800,000	-0,069	-0,191
-656,130	-125,004	0,169	0,019
-655,116	277,322	-0,036	-0,047
-654,101	92,339	0,031	0,026
-653,086	-87,032	-0,110	0,024
-652,072	800,000	0,019	-0,051
-651,057	10,040	0,029	0,016
-650,043	95,768	-0,016	0,013
-649,028	63,712	0,091	-0,067
-648,014	22,189	0,040	0,024
-646,999	-78,900	0,143	0,035
-645,984	-31,238	0,045	0,019
-644,970	214,875	-0,059	-0,069
-643,955	-111,870	-0,187	0,027
-642,941	603,770	-0,070	-0,129
-641,926	385,065	-0,069	-0,105
-640,911	-200,000	-0,027	0,145
-639,897	30,963	0,055	0,035
-638,882	800,000	-0,031	-0,080
-637,868	-13,590	0,148	0,070
-636,853	-112,698	-0,160	-0,023
-635,838	202,162	0,074	0,084
-634,824	-157,222	0,063	0,003
-633,809	26,007	-0,102	0,062
-632,795	-200,000	-0,022	0,077
-631,780	-70,466	-0,020	-0,006
-630,765	290,451	-0,078	-0,104
-629,751	263,178	-0,077	-0,098
-628,736	-108,494	0,097	-0,015
-627,722	-200,000	0,011	-0,042
-626,707	-35,948	-0,010	-0,004
-625,692	-122,361	0,199	-0,024
-624,678	-139,317	0,035	0,003
-623,663	119,264	-0,091	-0,083
-622,649	-118,195	-0,105	0,014
-621,634	385,894	-0,069	0,105
-620,619	591,072	-0,036	-0,065
-619,605	-147,347	-0,079	0,005
-618,590	186,897	-0,096	0,106
-617,576	-132,773	-0,102	0,009
-616,561	-60,400	-0,113	-0,035
-615,546	-55,966	0,076	-0,025
-614,532	-200,000	-0,001	0,024
-613,517	33,196	0,043	-0,027
-612,503	800,000	0,040	0,092
-611,488	311,157	-0,089	0,123
-610,474	-200,000	0,036	0,160
-609,459	-200,000	0,023	-0,142
-608,444	624,942	-0,046	-0,086
-607,430	289,788	0,032	0,042
-606,415	329,077	0,014	-0,019
-605,401	-96,884	-0,243	-0,046
-604,386	-108,884	0,163	-0,025
-603,371	-200,000	-0,018	-0,071
-602,357	-200,000	0,002	0,012
-601,342	800,000	0,020	-0,042
-600,328	800,000	-0,009	-0,023
-599,313	-139,676	-0,116	-0,009
-598,298	-29,060	-0,074	0,031
-597,284	-200,000	0,017	0,143
-596,269	483,654	-0,027	-0,045
-595,255	219,605	-0,104	0,122
-594,240	428,542	-0,070	0,112
-593,225	689,487	-0,072	-0,140
-592,211	446,569	-0,043	-0,070
-591,196	-200,000	0,019	0,073
-590,182	537,472	0,035	0,061
-589,167	-101,955	0,093	0,016
-588,152	246,946	0,026	-0,033
-587,138	-103,348	0,043	0,007
-586,123	327,438	0,072	-0,101
-585,109	495,189	-0,054	-0,091
-584,094	-41,870	0,045	0,017
-583,079	190,941	0,085	0,094
-582,065	-89,110	-0,111	0,024
-581,050	-200,000	0,012	-0,054
-580,036	618,480	0,071	-0,132
-579,021	800,000	0,011	0,023
-578,006	413,068	0,038	-0,059
-576,992	-111,805	-0,166	-0,024
-575,977	-18,332	0,009	0,004
-574,963	-138,284	0,017	0,001
-573,948	-138,941	0,075	0,006
-572,934	185,713	-0,045	0,049
-571,919	-200,000	-0,007	-0,071
-570,904	-78,320	-0,081	-0,020
-569,890	-200,000	-0,007	0,062
-568,875	-41,964	0,124	0,046
-567,861	-0,713	-0,031	0,016
-566,846	-152,810	-0,068	-0,003
-565,831	-38,756	-0,100	0,039
-564,817	-200,000	-0,046	-0,188
-563,802	601,419	-0,085	-0,155
-562,788	561,360	0,053	-0,095
-561,773	703,893	0,040	-0,077
-560,758	-97,033	-0,011	-0,002
-559,744	800,000	-0,056	0,124
-558,729	-200,000	0,021	-0,132
-557,715	588,499	0,019	0,034
-556,700	-15,144	-0,023	0,011
-555,685	-124,126	-0,102	-0,012
-554,671	117,120	-0,111	-0,100
-553,656	371,954	0,004	-0,007
-552,642	800,000	0,057	0,123
-551,627	82,998	0,068	0,054
-550,612	-93,752	0,059	-0,012
-549,598	-200,000	-0,032	-0,146
-548,583	112,687	-0,067	-0,059
-547,569	207,353	0,042	-0,048
-546,554	-200,000	-0,009	-0,099
-545,539	240,221	-0,107	-0,131
-544,525	-80,218	0,048	-0,012
-543,510	150,955	0,050	0,050
-542,496	545,237	0,052	-0,092
-541,481	546,736	0,051	-0,090
-540,466	64,753	0,054	0,040
-539,452	-200,000	-0,014	0,047
-538,437	-144,204	0,182	-0,012
-537,423	-158,881	-0,102	-0,004
-536,408	403,877	0,005	-0,007
-535,393	532,686	-0,033	-0,058
-534,379	-200,000	0,057	-0,189
-533,364	-128,768	0,082	0,008
-532,350	-152,335	0,060	0,003
-531,335	800,000	0,008	0,018
-530,321	90,427	-0,045	-0,037
-529,306	164,171	-0,058	0,060
-528,291	205,579	-0,035	-0,040
-527,277	800,000	0,010	-0,028
-526,262	-200,000	-0,011	-0,065
-525,248	282,817	-0,029	0,039
-524,233	145,541	0,034	0,034
-523,218	-123,826	0,098	0,011
-522,204	349,888	0,033	-0,048
-521,189	282,874	0,030	0,040
-520,175	-115,580	-0,140	0,019
-519,160	800,000	0,031	-0,075
-518,145	336,540	-0,057	0,081
-517,131	254,972	-0,045	0,057
-516,116	800,000	-0,045	0,117
-515,102	-200,000	0,017	0,059
-514,087	-91,945	0,077	-0,016
-513,072	-200,000	0,001	-0,119
-512,058	-120,791	-0,108	-0,013
-511,043	754,229	-0,049	-0,096
-510,029	-97,134	-0,086	0,016
-509,014	348,924	-0,058	-0,084
-507,999	75,952	0,091	0,070
-506,985	-25,896	-0,048	0,021
-505,970	-200,000	0,019	0,101
-504,956	-200,000	-0,009	-0,125
-503,941	-195,826	0,029	-0,000
-502,926	-8,282	-0,037	0,018
-501,912	148,106	-0,043	0,042
-500,897	375,051	-0,043	0,064
-499,883	-37,625	-0,111	0,043
-498,868	-19,955	0,039	-0,018
-497,853	800,000	-0,021	0,049
-496,839	359,945	-0,078	0,114
-495,824	-86,191	0,104	-0,023
-494,810	86,970	-0,025	0,020
-493,795	325,718	-0,049	-0,068
-492,781	-82,531	-0,029	-0,007
-491,766	-177,879	-0,017	0,000
-490,751	-200,000	0,022	0,163
-489,737	392,505	-0,049	0,075
-488,722	271,853	-0,040	-0,051
-487,708	-200,000	0,000	0,146
-486,693	448,539	-0,008	0,014
-485,678	-200,000	-0,009	0,033
-484,664	-48,109	-0,122	-0,043
-483,649	-49,729	0,007	-0,002
-482,635	-62,674	0,145	0,044
-481,620	434,958	-0,039	0,062
-480,605	800,000	0,039	0,123
-479,591	433,504	0,074	0,118
-478,576	29,446	0,043	-0,027
-477,562	427,118	0,023	0,037
-476,547	34,904	-0,092	-0,058
-475,532	-59,833	-0,077	0,024
-474,518	-7,842	0,081	0,040
-473,503	713,736	-0,032	-0,061
-472,489	800,000	-0,047	0,118
-471,474	-14,584	0,062	-0,029
-470,459	32,335	-0,142	0,089
-469,445	800,000	-0,042	-0,096
-468,430	-101,083	0,092	-0,016
-467,416	-78,502	0,070	0,017
-466,401	-200,000	0,004	0,089
-465,386	-200,000	-0,018	-0,059
-464,372	-200,000	-0,012	-0,088
-463,357	157,539	0,027	0,027
-462,343	-13,398	0,024	0,011
-461,328	291,799	-0,032	-0,043
-460,313	800,000	0,005	-0,012
-459,299	516,072	0,035	-0,060
-458,284	-200,000	0,005	0,099
-457,270	-119,383	-0,133	-0,017
-456,255	800,000	0,036	0,091
-455,241	-93,513	0,041	-0,008
-454,226	19,467	0,074	0,043
-453,211	255,042	0,078	-0,098
-452,197	800,000	0,010	-0,028
-451,182	221,128	-0,097	-0,113
-450,168	-200,000	0,016	-0,119
-449,153	-200,000	-0,002	-0,047
-448,138	-141,436	-0,033	0,002
-447,124	-200,000	-0,024	0,081
-446,109	-163,940	-0,008	-0,000
-445,095	-12,980	-0,071	-0,034
-444,080	233,950	0,050	-0,060
-443,065	800,000	0,044	0,090
-442,051	668,594	-0,085	0,160
-441,036	-170,624	-0,045	-0,001
-440,022	9,614	0,148	0,081
-439,007	56,214	-0,103	-0,073
-437,992	60,798	0,083	-0,060
-436,978	710,287	0,028	0,054
-435,963	-69,489	0,109	0,030
-434,949	47,981	-0,126	-0,086
-433,934	-200,000	-0,007	-0,240
-432,919	9,308	-0,060	0,033
-431,905	-200,000	0,003	0,012
-430,890	-185,131	0,082	-0,001
-429,876	-158,271	-0,126	-0,005
-428,861	-126,160	0,048	-0,005
-427,846	800,000	0,026	-0,073
-426,832	-70,346	-0,248	-0,068
-425,817	120,628	0,056	-0,050
-424,803	-73,214	0,074	0,020
-423,788	650,740	0,053	0,100
-422,773	580,811	-0,010	-0,017
-421,759	369,977	0,026	-0,038
-420,744	-53,779	-0,059	-0,020
-419,730	92,799	-0,066	-0,054
-418,715	-40,308	-0,065	0,025
-417,701	217,879	-0,029	0,034
-416,686	275,780	-0,021	-0,027
-415,671	54,710	0,093	0,065
-414,657	139,895	0,079	0,076
-413,642	-43,467	0,025	-0,009
-412,628	234,339	0,056	0,067
-411,613	-22,974	-0,172	0,075
-410,598	-200,000	0,009	0,049
-409,584	-200,000	0,018	0,061
-408,569	459,568	0,108	0,175
-407,555	162,186	-0,118	-0,120
-406,540	800,000	-0,032	0,092
-405,525	41,788	-0,063	0,042
-404,511	-95,675	-0,058	0,011
-403,496	800,000	0,045	-0,114
-402,482	-34,349	0,182	-0,072
-401,467	489,315	0,053	-0,088
-400,452	312,024	0,084	0,114
-399,438	34,296	0,024	0,015
-398,423	421,100	-0,076	0,119
-397,409	-200,000	-0,000	0,070
-396,394	-118,218	-0,056	0,007
-395,379	-143,670	0,114	-0,008
-394,365	-200,000	0,025	0,108
-393,350	800,000	0,011	-0,026
-392,336	-200,000	0,002	0,118
-391,321	-200,000	-0,020	-0,067
-390,306	393,682	0,050	-0,076
-389,292	-200,000	-0,020	-0,111
-388,277	107,191	-0,039	0,033
-387,263	-195,519	-0,050	0,000
-386,248	-30,073	0,086	0,035
-385,233	-200,000	0,007	0,031
-384,219	491,226	0,059	-0,099
-383,204	-10,309	-0,129	-0,062
-382,190	-121,713	-0,239	-0,028
-381,175	139,264	-0,045	-0,043
-380,160	-158,811	-0,086	-0,003
-379,146	800,000	-0,031	0,067
-378,131	-200,000	-0,015	-0,141
-377,117	65,811	-0,086	-0,064
-376,102	800,000	0,049	-0,144
-375,088	-39,521	0,135	-0,051
-374,073	-56,627	0,105	-0,034
-373,058	-200,000	-0,057	0,183
-372,044	-47,438	0,103	0,036
-371,029	57,901	-0,153	-0,109
-370,015	800,000	0,025	-0,074
-369,000	800,000	-0,037	-0,118
-367,985	800,000	0,042	-0,111
-366,971	-28,561	0,040	-0,017
-365,956	-28,676	0,091	0,038
-364,942	91,508	-0,162	0,132
-363,927	188,180	0,108	0,118
-362,912	800,000	0,031	0,083
-361,898	79,436	-0,078	-0,061
-360,883	248,168	0,070	-0,086
-359,869	286,489	0,009	-0,012
-358,854	-53,128	0,221	-0,073
-357,839	-200,000	0,041	0,137
-356,825	800,000	-0,029	0,073
-355,810	-160,397	-0,088	-0,003
-354,796	-32,217	0,074	-0,030
-353,781	470,498	-0,050	-0,081
-352,766	-14,628	0,092	0,043
-351,752	-200,000	0,034	0,118
-350,737	311,324	-0,083	-0,113
-349,723	800,000	-0,012	-0,037
-348,708	547,569	-0,088	0,153
-347,693	18,219	-0,113	-0,065
-346,679	-200,000	0,010	0,076
-345,664	-53,370	-0,069	-0,023
-344,650	-200,000	0,001	0,050
-343,635	-23,183	0,128	-0,056
-342,620	800,000	-0,062	0,158
-341,606	-12,182	0,115	0,054
-340,591	800,000	-0,044	-0,128
-339,577	-200,000	0,017	0,094
-338,562	800,000	-0,013	-0,035
-337,548	-123,685	-0,079	-0,009
-336,533	83,227	-0,044	0,035
-335,518	128,222	0,086	0,079
-334,504	234,452	0,062	-0,074
-333,489	-57,402	0,203	-0,064
-332,475	38,144	-0,042	-0,027
-331,460	383,080	-0,051	-0,077
-330,445	-200,000	0,035	0,162
-329,431	-29,072	0,075	0,031
-328,416	-103,984	0,152	-0,025
-327,402	120,376	-0,078	0,070
-326,387	800,000	-0,008	0,018
-325,372	-200,000	-0,030	-0,128
-324,358	126,199	-0,057	-0,052
-323,343	609,075	0,058	0,106
-322,329	27,845	0,015	0,009
-321,314	-200,000	0,026	0,235
-320,299	-113,377	0,113	-0,016
-319,285	111,230	0,038	0,033
-318,270	-200,000	-0,002	0,026
-317,256	-192,780	-0,158	-0,001
-316,241	29,105	-0,066	0,040
-315,226	411,980	-0,056	-0,086
-314,212	76,338	0,177	0,136
-313,197	-165,554	0,117	-0,004
-312,183	78,912	-0,078	0,060
-311,168	800,000	0,049	0,115
-310,153	-200,000	-0,009	-0,029
-309,139	-132,686	0,144	-0,013
-308,124	-63,633	0,099	-0,029
-307,110	408,166	0,052	-0,079
-306,095	-1,047	0,104	0,053
-305,080	11,023	-0,059	-0,033
-304,066	800,000	-0,046	-0,124
-303,051	16,827	0,061	0,035
-302,037	-83,818	-0,204	-0,047
-301,022	40,585	0,064	0,042
-300,008	51,691	-0,107	-0,074
-298,993	-120,055	0,085	0,010
-297,978	800,000	0,036	0,100
-296,964	-200,000	-0,014	-0,048
-295,949	95,356	-0,079	-0,066
-294,935	-200,000	-0,036	-0,134
-293,920	-53,760	0,123	-0,040
-292,905	673,440	-0,057	0,108
-291,891	375,482	-0,017	-0,026
-290,876	205,795	-0,024	-0,027
-289,862	-200,000	-0,015	0,058
-288,847	-78,323	-0,071	0,018
-287,832	-200,000	0,000	-0,008
-286,818	52,526	0,097	0,067
-285,803	71,582	0,039	0,029
-284,789	-62,899	0,132	0,039
-283,774	791,036	-0,005	0,011
-282,759	-200,000	-0,006	-0,036
-281,745	800,000	0,028	0,085
-280,730	-18,967	-0,074	-0,033
-279,716	146,344	-0,004	-0,004
-278,701	246,863	0,059	0,073
-277,686	800,000	0,036	-0,095
-276,672	-200,000	0,004	-0,093
-275,657	-200,000	0,011	0,134
-274,643	30,676	-0,047	0,029
-273,628	123,413	-0,074	0,067
-272,613	-41,858	0,069	0,025
-271,599	33,881	-0,057	-0,036
-270,584	79,902	-0,058	-0,045
-269,570	139,276	0,080	0,076
-268,555	586,765	0,032	0,057
-267,540	-200,000	0,012	0,051
-266,526	-200,000	0,006	0,039
-265,511	-114,042	-0,060	-0,008
-264,497	800,000	-0,037	0,109
-263,482	-200,000	0,010	-0,051
-262,467	-28,883	0,070	0,029
-261,453	-119,753	-0,139	0,017
-260,438	511,632	-0,085	-0,144
-259,424	288,113	-0,015	0,020
-258,409	-200,000	0,006	-0,125
-257,395	-137,818	0,253	0,020
-256,380	-144,299	0,100	-0,007
-255,365	-6,001	0,165	-0,081
-254,351	-40,173	-0,020	0,007
-253,336	-62,883	-0,043	0,013
-252,322	-200,000	-0,010	-0,074
-251,307	39,598	-0,092	0,060
-250,292	419,450	0,055	-0,086
-249,278	800,000	0,029	0,065
-248,263	186,638	0,030	0,032
-247,249	156,319	0,186	0,186
-246,234	800,000	0,027	-0,061
-245,219	-200,000	0,021	0,089
-244,205	0,356	0,146	-0,075
-243,190	-19,086	0,019	0,009
-242,176	77,517	0,100	0,077
-241,161	-115,766	0,159	0,021
-240,146	-4,583	0,051	-0,025
-239,132	800,000	0,011	-0,027
-238,117	-200,000	-0,010	-0,121
-237,103	-200,000	-0,006	-0,081
-236,088	-200,000	-0,060	0,000
-235,073	190,139	0,016	0,018
-234,059	-96,230	0,142	0,027
-233,044	-9,115	-0,091	-0,044
-232,030	-23,323	-0,103	0,045
-231,015	-200,000	-0,014	-0,086
-230,000	115,345	-0,065	-0,058
-228,986	-5,358	-0,030	0,015
-227,971	129,706	-0,036	0,034
-226,957	-79,581	0,040	-0,010
-225,942	-200,000	-0,000	0,083
-224,927	800,000	0,022	0,054
-223,913	-200,000	-0,018	0,062
-222,898	-200,000	0,015	-0,163
-221,884	116,802	0,033	-0,029
-220,869	800,000	0,022	0,056
-219,855	-200,000	0,009	-0,175
-218,840	-20,102	0,028	-0,012
-217,825	-171,412	-0,084	-0,002
-216,811	800,000	-0,084	-0,185
-215,796	-178,745	0,197	-0,003
-214,782	-200,000	0,015	-0,152
-213,767	-20,281	-0,031	-0,014
-212,752	80,931	0,092	0,072
-211,738	356,896	-0,077	0,111
-210,723	212,662	0,063	0,072
-209,709	81,035	-0,096	0,075
-208,694	3,526	0,049	0,026
-207,679	37,104	0,136	-0,087
-206,665	409,430	-0,005	-0,008
-205,650	-69,619	-0,079	0,022
-204,636	-200,000	-0,080	0,000
-203,621	311,100	-0,066	-0,090
-202,606	106,763	-0,087	-0,074
-201,592	135,064	0,110	-0,103
-200,577	1,629	-0,052	-0,027
-199,563	-91,780	0,123	-0,025
-198,548	77,189	0,038	-0,029
-197,533	-81,272	-0,102	-0,024
-196,519	-3,107	-0,044	-0,022
-195,504	-146,018	-0,188	-0,012
-194,490	323,381	0,054	-0,075
-193,475	-70,271	0,052	0,014
-192,460	-76,661	-0,063	-0,016
-191,446	52,444	0,059	0,041
-190,431	-67,224	0,022	0,006
-189,417	-200,000	0,005	0,117
-188,402	-53,856	0,095	-0,031
-187,387	-12,860	-0,135	0,063
-186,373	98,044	-0,033	-0,027
-185,358	-193,815	-0,099	-0,001
-184,344	285,879	0,058	-0,076
-183,329	-200,000	-0,030	0,202
-182,315	800,000	0,049	0,129
-181,300	-86,658	0,063	0,014
-180,285	-40,489	-0,023	0,009
-179,271	133,543	-0,051	0,048
-178,256	-64,198	0,026	0,008
-177,242	800,000	-0,021	0,062
-176,227	504,356	0,055	-0,092
-175,212	27,603	-0,018	-0,011
-174,198	-200,000	-0,004	0,063
-173,183	31,563	-0,038	0,023
-172,169	800,000	0,054	-0,130
-171,154	585,650	0,051	-0,091
-170,139	574,783	-0,090	0,159
-169,125	-135,282	0,137	-0,012
-168,110	-200,000	-0,001	0,112
-167,096	-6,220	-0,074	0,036
-166,081	453,191	-0,063	0,101
-165,066	800,000	-0,040	-0,096
-164,052	-168,535	-0,138	0,004
-163,037	-68,066	0,069	0,019
-162,023	-200,000	0,014	0,090
-161,008	-145,240	0,081	-0,005
-159,993	-200,000	-0,004	-0,038
-158,979	200,183	-0,062	0,069
-157,964	-2,413	0,052	0,026
-156,950	-8,690	-0,117	-0,057
-155,935	12,682	0,026	0,014
-154,920	-33,647	0,098	0,039
-153,906	66,293	0,091	0,067
-152,891	152,770	0,079	-0,078
-151,877	800,000	0,047	-0,138
-150,862	-60,985	-0,088	0,027
-149,847	175,691	-0,093	-0,098
-148,833	-200,000	0,015	0,052
-147,818	-200,000	0,001	-0,009
-146,804	392,335	0,029	0,043
-145,789	239,848	-0,011	-0,013
-144,775	800,000	-0,024	0,062
-143,760	-184,898	0,159	0,002
-142,745	-111,543	-0,109	0,016
-141,731	-26,688	0,072	-0,030
-140,716	-8,185	0,080	0,039
-139,702	-200,000	-0,029	0,126
-138,687	-80,136	-0,104	0,025
-137,672	-164,744	-0,097	-0,003
-136,658	36,440	0,039	0,025
-135,643	-85,310	-0,033	0,007
-134,629	-3,793	-0,059	0,029
-133,614	-68,290	0,095	0,026
-132,599	69,747	0,151	0,112
-131,585	9,050	-0,091	0,049
-130,570	-43,076	-0,055	-0,020
-129,556	149,491	0,066	-0,064
-128,541	661,468	-0,042	-0,078
-127,526	615,189	0,051	-0,093
-126,512	261,836	-0,023	0,028
-125,497	97,621	0,060	-0,049
-124,483	68,327	0,076	0,056
-123,468	158,463	-0,026	-0,026
-122,453	-200,000	-0,018	0,071
-121,439	77,321	-0,115	-0,088
-120,424	-27,894	-0,110	-0,046
-119,410	520,377	0,051	0,086
