DTS Sentinel unit serial number:	SN410029Multiplexer serial number:	ORYXHardware model number:	OX2-SRSoftware version number:	ORYX F/W v4,00 Oryx Data Collector v3.7.2.0data status	okinstallation	B5 Nyhavnadifferential loss correction	single-endedforward channel	channel 2reverse channel	N/Adate	2023/12/13time	20:17:13forward acquisition time	300,00reverse acquisition time	0,00gamma	499,1914k internal	0,3158k external	0,3158temperature offset calibration	1,0000default loss term (dB/km)	0,3820temperature slope calibration	1,0000multiplexer offset coefficient	1,0000multiplexer slope coefficient	1,0000fibre end	0,00T internal ref (°C)	10,94T ext. ref 1 (°C)	-6,09T ext. ref 2 (°C)	-6,14length (m)	temperature (°C)	Stokes	anti-Stokes-744,400	-104,713	0,233	0,039
-743,385	-94,046	-0,371	-0,074
-742,371	148,193	0,101	0,101
-741,356	-126,487	-0,279	0,030
-740,342	-200,000	-0,023	0,145
-739,327	-120,666	-0,372	-0,046
-738,312	-200,000	0,005	0,040
-737,298	7,755	-0,285	-0,157
-736,283	156,404	0,070	0,072
-735,269	-137,346	-0,334	0,028
-734,254	10,441	0,184	0,103
-733,239	-89,466	-0,574	-0,123
-732,225	-62,530	0,172	0,052
-731,210	-61,562	0,075	0,023
-730,196	227,058	-0,107	-0,128
-729,181	-200,000	-0,030	-0,134
-728,167	217,083	-0,023	-0,027
-727,152	800,000	-0,045	0,133
-726,137	-101,912	-0,056	0,010
-725,123	-100,469	-0,046	-0,008
-724,108	800,000	-0,060	-0,147
-723,094	13,550	0,104	-0,059
-722,079	-3,711	-0,165	-0,084
-721,064	800,000	0,021	0,050
-720,050	-99,628	-0,017	0,003
-719,035	404,840	-0,062	0,097
-718,021	-83,466	-0,124	-0,029
-717,006	-200,000	-0,001	-0,076
-715,991	549,858	-0,040	-0,071
-714,977	-200,000	0,037	-0,155
-713,962	-200,000	-0,007	-0,057
-712,948	29,170	-0,125	-0,078
-711,933	63,777	-0,055	-0,041
-710,918	618,389	0,069	0,127
-709,904	-79,160	-0,184	-0,046
-708,889	800,000	-0,019	-0,051
-707,875	-28,210	-0,138	0,058
-706,860	-103,913	0,026	0,005
-705,845	-152,146	0,154	0,008
-704,831	-200,000	-0,006	-0,068
-703,816	42,601	-0,084	-0,056
-702,802	362,829	-0,042	-0,063
-701,787	-200,000	0,011	0,084
-700,772	-98,925	0,099	-0,018
-699,758	800,000	-0,096	-0,214
-698,743	70,426	0,082	0,062
-697,729	-28,547	0,135	0,057
-696,714	-50,604	0,071	-0,024
-695,699	-200,000	0,013	0,066
-694,685	-200,000	-0,016	-0,118
-693,670	40,207	0,069	0,046
-692,656	-102,809	0,087	-0,015
-691,641	800,000	0,028	-0,087
-690,627	-9,279	0,041	0,020
-689,612	-200,000	0,003	-0,025
-688,597	-96,622	-0,186	0,036
-687,583	120,443	-0,131	0,119
-686,568	61,042	0,040	0,029
-685,554	-40,949	-0,122	-0,046
-684,539	177,303	0,035	0,038
-683,524	-200,000	0,018	0,157
-682,510	21,851	-0,088	0,052
-681,495	-200,000	-0,001	-0,061
-680,481	-200,000	-0,025	-0,137
-679,466	344,581	0,041	-0,060
-678,451	-200,000	-0,011	-0,055
-677,437	-88,524	-0,124	-0,027
-676,422	-14,819	0,048	-0,023
-675,408	800,000	0,027	-0,076
-674,393	217,233	0,045	-0,053
-673,378	-200,000	0,000	-0,040
-672,364	19,197	0,018	-0,011
-671,349	-32,567	-0,021	0,008
-670,335	-200,000	0,016	0,112
-669,320	-40,660	-0,040	0,015
-668,305	-41,429	0,107	-0,040
-667,291	-93,578	-0,101	0,020
-666,276	-200,000	-0,002	0,086
-665,262	-200,000	0,027	-0,129
-664,247	-200,000	-0,022	-0,118
-663,232	800,000	0,036	-0,102
-662,218	-200,000	-0,003	0,057
-661,203	-100,179	0,106	-0,019
-660,189	620,016	-0,071	0,133
-659,174	636,245	-0,067	-0,126
-658,159	-33,294	0,037	0,015
-657,145	-200,000	0,008	0,088
-656,130	800,000	-0,009	-0,029
-655,116	-153,352	0,087	0,004
-654,101	-200,000	-0,018	0,088
-653,086	-43,122	0,047	-0,017
-652,072	345,003	0,018	-0,027
-651,057	-74,221	-0,138	-0,036
-650,043	282,944	-0,084	-0,111
-649,028	-200,000	0,019	-0,085
-648,014	-200,000	0,017	0,131
-646,999	800,000	0,037	0,080
-645,984	157,403	0,095	-0,096
-644,970	20,180	-0,023	-0,014
-643,955	270,692	-0,042	-0,055
-642,941	619,303	-0,091	-0,169
-641,926	56,867	0,132	-0,095
-640,911	-3,115	0,055	-0,028
-639,897	800,000	-0,062	0,133
-638,882	-59,182	0,141	0,044
-637,868	690,411	-0,050	0,096
-636,853	35,971	-0,109	0,070
-635,838	-200,000	0,109	-0,000
-634,824	777,664	-0,071	-0,143
-633,809	-79,143	-0,058	0,014
-632,795	626,360	0,047	-0,087
-631,780	800,000	-0,010	0,024
-630,765	-100,353	-0,036	-0,006
-629,751	800,000	0,083	-0,177
-628,736	-200,000	0,022	-0,113
-627,722	384,042	-0,031	-0,047
-626,707	488,656	0,025	-0,042
-625,692	-26,200	-0,072	0,031
-624,678	-110,338	-0,116	-0,018
-623,663	-200,000	-0,019	-0,069
-622,649	606,262	0,036	-0,066
-621,634	-45,735	-0,135	-0,049
-620,619	581,210	-0,019	-0,035
-619,605	-41,136	0,063	0,024
-618,590	-66,749	-0,083	0,024
-617,576	304,600	0,067	0,091
-616,561	165,125	-0,055	0,057
-615,546	-200,000	-0,018	0,123
-614,532	285,537	0,013	-0,017
-613,517	-200,000	0,012	-0,064
-612,503	48,283	-0,050	0,034
-611,488	-82,722	-0,072	-0,017
-610,474	188,613	0,144	0,159
-609,459	800,000	-0,014	-0,036
-608,444	-200,000	-0,008	-0,189
-607,430	171,829	-0,016	0,017
-606,415	-200,000	-0,017	-0,094
-605,401	800,000	-0,037	-0,077
-604,386	800,000	-0,034	-0,081
-603,371	339,051	0,082	-0,118
-602,357	41,501	-0,111	0,074
-601,342	-15,522	-0,077	-0,036
-600,328	240,789	0,027	-0,033
-599,313	185,318	-0,050	-0,055
-598,298	-43,038	-0,108	-0,040
-597,284	800,000	0,042	0,099
-596,269	17,573	0,093	0,054
-595,255	-200,000	-0,018	0,067
-594,240	800,000	-0,046	-0,100
-593,225	-53,115	0,089	-0,030
-592,211	109,306	-0,074	-0,065
-591,196	52,990	-0,068	-0,048
-590,182	0,960	0,085	0,045
-589,167	-41,806	0,022	-0,008
-588,152	-200,000	0,005	0,096
-587,138	580,367	0,017	-0,030
-586,123	-118,031	-0,214	0,028
-585,109	139,619	-0,034	0,033
-584,094	142,604	-0,030	0,029
-583,079	5,859	0,067	-0,036
-582,065	-104,919	0,066	-0,011
-581,050	-157,787	-0,084	-0,004
-580,036	547,095	0,055	0,096
-579,021	152,122	-0,011	0,011
-578,006	82,368	-0,099	-0,079
-576,992	-57,143	0,091	0,029
-575,977	-55,108	-0,108	0,035
-574,963	491,480	0,027	-0,045
-573,948	460,996	0,005	0,008
-572,934	85,231	-0,052	-0,042
-571,919	800,000	0,022	0,053
-570,904	547,532	0,058	0,103
-569,890	800,000	-0,040	-0,083
-568,875	-200,000	0,012	-0,078
-567,861	-200,000	0,009	0,079
-566,846	-200,000	-0,001	-0,062
-565,831	162,609	0,053	0,054
-564,817	-200,000	0,013	0,094
-563,802	89,921	0,094	0,077
-562,788	599,687	-0,065	-0,119
-561,773	477,266	0,013	0,022
-560,758	98,238	0,102	-0,086
-559,744	381,839	-0,022	0,033
-558,729	-69,598	0,049	-0,014
-557,715	105,487	-0,051	0,044
-556,700	92,265	-0,112	-0,092
-555,685	187,660	-0,043	-0,047
-554,671	126,550	-0,052	0,048
-553,656	-75,929	-0,094	0,024
-552,642	19,411	-0,011	-0,007
-551,627	-106,985	-0,100	-0,016
-550,612	67,972	0,069	0,052
-549,598	-200,000	0,021	0,103
-548,583	800,000	0,038	-0,102
-547,569	-8,048	0,015	-0,007
-546,554	701,537	0,076	-0,147
-545,539	166,983	0,054	-0,056
-544,525	-136,530	0,089	-0,007
-543,510	317,287	-0,071	-0,098
-542,496	-130,674	-0,088	-0,009
-541,481	-200,000	0,011	-0,071
-540,466	-22,277	0,048	-0,021
-539,452	-139,269	-0,116	-0,009
-538,437	-113,263	0,065	-0,009
-537,423	800,000	-0,010	0,030
-536,408	-200,000	0,008	-0,117
-535,393	-200,000	-0,043	-0,139
-534,379	-27,861	-0,071	0,030
-533,364	130,868	0,069	0,065
-532,350	92,797	-0,016	0,013
-531,335	-200,000	0,011	0,105
-530,321	-76,909	0,058	-0,015
-529,306	461,091	-0,057	-0,093
-528,291	49,456	0,129	-0,088
-527,277	6,876	0,137	-0,074
-526,262	545,725	-0,030	-0,053
-525,248	-139,824	-0,040	-0,003
-524,233	-170,415	0,087	-0,002
-523,218	74,446	0,100	0,076
-522,204	800,000	0,018	-0,045
-521,189	225,390	-0,058	0,069
-520,175	14,828	0,102	0,058
-519,160	567,728	0,029	0,052
-518,145	-200,000	-0,001	0,083
-517,131	-200,000	0,002	0,048
-516,116	309,152	0,058	0,079
-515,102	309,108	0,044	-0,060
-514,087	55,858	-0,026	0,019
-513,072	316,945	-0,009	-0,013
-512,058	78,649	-0,081	0,063
-511,043	634,675	-0,107	0,199
-510,029	-200,000	0,014	0,079
-509,014	-200,000	-0,014	0,082
-507,999	800,000	0,019	0,048
-506,985	242,802	0,054	0,067
-505,970	153,174	-0,124	0,124
-504,956	149,222	-0,076	-0,075
-503,941	-103,765	0,085	-0,014
-502,926	800,000	0,058	-0,177
-501,912	800,000	-0,094	0,199
-500,897	-200,000	0,000	0,124
-499,883	-101,746	-0,244	-0,043
-498,868	-200,000	0,017	-0,212
-497,853	-114,058	0,057	0,008
-496,839	-90,773	0,077	0,016
-495,824	800,000	0,040	0,113
-494,810	11,676	0,061	-0,034
-493,795	-71,476	-0,068	-0,018
-492,781	665,846	-0,058	-0,110
-491,766	-200,000	0,036	-0,119
-490,751	517,197	-0,020	0,034
-489,737	-200,000	-0,015	0,067
-488,722	172,489	-0,024	-0,025
-487,708	-55,087	0,032	0,011
-486,693	140,027	0,062	0,059
-485,678	-200,000	0,004	-0,080
-484,664	380,785	-0,045	-0,068
-483,649	230,604	-0,102	-0,122
-482,635	-77,237	0,035	0,009
-481,620	178,012	-0,058	0,061
-480,605	297,144	0,047	0,063
-479,591	800,000	-0,023	0,054
-478,576	800,000	-0,079	0,165
-477,562	-32,203	0,102	0,041
-476,547	111,088	-0,039	-0,034
-475,532	-200,000	-0,022	0,079
-474,518	4,689	-0,082	-0,044
-473,503	395,930	-0,071	0,109
-472,489	124,263	-0,110	0,101
-471,474	267,238	-0,036	0,046
-470,459	326,624	-0,111	-0,156
-469,445	800,000	-0,041	-0,123
-468,430	-139,453	-0,122	0,009
-467,416	-200,000	-0,006	0,022
-466,401	-78,332	0,199	0,049
-465,386	800,000	-0,029	0,088
-464,372	-200,000	0,027	0,126
-463,357	-84,419	-0,075	0,017
-462,343	800,000	0,079	-0,216
-461,328	-200,000	0,005	0,067
-460,313	383,947	0,013	0,020
-459,299	-7,679	0,143	0,070
-458,284	-114,378	0,048	-0,007
-457,270	240,255	0,051	-0,062
-456,255	-200,000	0,000	-0,070
-455,241	-5,597	-0,036	-0,018
-454,226	-46,468	-0,058	0,020
-453,211	800,000	0,060	-0,127
-452,197	110,369	0,033	0,029
-451,182	-59,988	0,056	0,017
-450,168	349,753	0,077	0,111
-449,153	-200,000	-0,013	0,102
-448,138	25,433	0,159	-0,096
-447,124	99,363	-0,102	-0,086
-446,109	105,824	-0,080	0,069
-445,095	-200,000	-0,016	0,119
-444,080	695,438	0,021	-0,041
-443,065	-117,776	-0,097	0,013
-442,051	800,000	0,008	0,019
-441,036	-102,053	0,065	0,011
-440,022	85,704	-0,100	-0,080
-439,007	-200,000	-0,008	-0,088
-437,992	34,487	-0,010	-0,007
-436,978	715,654	-0,044	0,085
-435,963	47,106	0,083	0,056
-434,949	800,000	-0,075	0,153
-433,934	-115,113	-0,061	-0,008
-432,919	255,922	-0,052	-0,065
-431,905	-130,281	0,080	0,008
-430,890	541,961	0,068	0,118
-429,876	800,000	0,018	-0,048
-428,861	-200,000	-0,001	-0,135
-427,846	800,000	-0,021	-0,063
-426,832	2,349	-0,135	-0,071
-425,817	-200,000	-0,011	-0,119
-424,803	287,549	0,067	-0,088
-423,788	508,092	0,053	0,090
-422,773	-94,269	0,069	0,014
-421,759	-144,430	0,038	0,003
-420,744	-200,000	0,002	-0,101
-419,730	-145,831	-0,079	-0,005
-418,715	-136,300	-0,072	0,006
-417,701	-200,000	0,014	0,086
-416,686	-200,000	0,008	-0,076
-415,671	-200,000	-0,021	0,149
-414,657	256,212	0,048	0,060
-413,642	119,487	-0,042	0,038
-412,628	692,976	-0,055	0,106
-411,613	48,946	0,115	0,078
-410,598	88,413	0,112	-0,090
-409,584	30,873	0,142	0,088
-408,569	574,897	0,050	-0,090
-407,555	-59,757	-0,093	-0,029
-406,540	-200,000	-0,003	0,056
-405,525	44,424	-0,089	-0,059
-404,511	46,888	-0,048	-0,032
-403,496	800,000	-0,005	-0,011
-402,482	84,148	0,231	-0,183
-401,467	-82,025	-0,092	-0,022
-400,452	142,512	0,022	-0,022
-399,438	-200,000	-0,008	0,041
-398,423	704,186	-0,013	0,025
-397,409	222,213	-0,038	-0,044
-396,394	-200,000	-0,050	-0,175
-395,379	800,000	0,045	-0,130
-394,365	92,986	-0,120	-0,099
-393,350	-124,221	0,082	0,009
-392,336	-79,592	0,064	0,016
-391,321	-150,115	0,020	-0,001
-390,306	327,557	-0,036	0,050
-389,292	800,000	-0,031	0,075
-388,277	348,133	0,064	0,092
-387,263	-200,000	-0,033	0,143
-386,248	-126,805	0,079	-0,008
-385,233	-134,708	-0,028	0,002
-384,219	217,796	-0,032	0,037
-383,204	-200,000	0,002	0,032
-382,190	320,151	-0,107	-0,147
-381,175	800,000	-0,011	-0,024
-380,160	156,694	0,034	0,034
-379,146	-26,945	-0,133	0,056
-378,131	800,000	0,023	0,063
-377,117	-28,058	0,057	-0,024
-376,102	-200,000	-0,001	-0,058
-375,088	461,450	0,075	0,123
-374,073	-72,735	0,049	0,013
-373,058	327,893	-0,105	0,147
-372,044	456,874	0,070	0,113
-371,029	-200,000	0,012	0,065
-370,015	126,798	-0,070	0,064
-369,000	800,000	-0,018	-0,046
-367,985	-23,252	0,082	-0,036
-366,971	800,000	-0,072	0,176
-365,956	800,000	-0,009	0,025
-364,942	-170,241	0,311	-0,008
-363,927	800,000	-0,066	0,146
-362,912	-125,137	0,182	0,020
-361,898	-200,000	0,000	-0,080
-360,883	-77,521	-0,189	0,047
-359,869	4,973	-0,026	-0,014
-358,854	800,000	0,005	-0,012
-357,839	800,000	-0,013	0,030
-356,825	-200,000	-0,008	0,026
-355,810	528,195	-0,093	0,161
-354,796	-158,652	-0,083	0,003
-353,781	51,309	-0,009	-0,006
-352,766	113,524	0,016	-0,014
-351,752	-30,110	-0,051	-0,021
-350,737	-200,000	-0,020	-0,073
-349,723	-200,000	-0,017	0,123
-348,708	-31,074	-0,049	0,020
-347,693	30,729	-0,004	-0,003
-346,679	-49,125	-0,109	-0,038
-345,664	62,601	-0,040	0,029
-344,650	-200,000	0,014	0,074
-343,635	24,813	-0,067	-0,040
-342,620	-150,586	0,115	-0,006
-341,606	272,912	-0,054	0,070
-340,591	800,000	-0,042	-0,092
-339,577	501,093	-0,069	0,117
-338,562	501,654	-0,016	-0,027
-337,548	-200,000	-0,010	0,036
-336,533	-200,000	-0,029	-0,104
-335,518	800,000	0,039	0,078
-334,504	7,576	0,127	-0,069
-333,489	-89,319	-0,162	-0,034
-332,475	34,750	-0,062	0,039
-331,460	-200,000	-0,002	-0,147
-330,445	43,458	0,075	-0,050
-329,431	23,630	0,048	-0,028
-328,416	71,209	-0,082	0,062
-327,402	289,789	0,113	0,149
-326,387	240,622	-0,024	0,029
-325,372	-200,000	-0,012	-0,159
-324,358	800,000	0,067	-0,172
-323,343	143,889	-0,020	0,019
-322,329	-16,036	-0,031	-0,014
-321,314	-42,217	-0,022	0,008
-320,299	-200,000	0,002	0,125
-319,285	592,302	-0,037	0,066
-318,270	60,164	0,017	0,012
-317,256	257,237	0,061	-0,076
-316,241	73,560	-0,111	-0,084
-315,226	-143,671	0,024	-0,002
-314,212	-200,000	0,024	0,105
-313,197	684,877	0,034	-0,065
-312,183	2,779	0,108	-0,057
-311,168	800,000	-0,018	-0,038
-310,153	71,961	0,119	0,089
-309,139	-200,000	0,007	0,078
-308,124	-200,000	-0,017	-0,060
-307,110	19,168	-0,059	-0,034
-306,095	359,348	0,082	0,119
-305,080	-29,728	-0,110	0,045
-304,066	738,442	0,028	0,055
-303,051	5,684	-0,074	0,040
-302,037	-180,311	0,024	-0,000
-301,022	62,921	0,091	-0,066
-300,008	-15,570	0,028	0,013
-298,993	422,635	0,026	0,041
-297,978	59,350	0,168	0,120
-296,964	-200,000	-0,004	0,053
-295,949	-179,320	0,071	-0,001
-294,935	309,987	-0,123	-0,167
-293,920	800,000	-0,044	-0,122
-292,905	-200,000	-0,011	0,091
-291,891	-200,000	0,011	-0,068
-290,876	-200,000	-0,012	0,116
-289,862	-9,519	-0,101	0,048
-288,847	800,000	-0,023	0,062
-287,832	184,697	-0,084	-0,091
-286,818	-200,000	-0,020	-0,099
-285,803	2,654	0,027	-0,014
-284,789	-47,845	0,120	-0,042
-283,774	-147,524	-0,076	-0,005
-282,759	-116,270	-0,071	0,009
-281,745	92,834	-0,048	-0,039
-280,730	-12,633	-0,119	-0,056
-279,716	141,165	0,063	0,060
-278,701	-200,000	-0,016	-0,084
-277,686	-104,160	-0,033	-0,006
-276,672	-200,000	0,003	-0,062
-275,657	454,053	0,069	-0,111
-274,643	-167,790	-0,157	0,004
-273,628	-71,231	0,171	0,046
-272,613	117,315	-0,118	0,105
-271,599	-9,261	0,092	0,044
-270,584	-26,623	0,045	0,019
-269,570	107,756	-0,049	0,043
-268,555	58,837	0,088	-0,062
-267,540	-200,000	-0,027	-0,160
-266,526	-200,000	-0,004	-0,157
-265,511	-200,000	-0,007	-0,056
-264,497	318,861	-0,061	0,084
-263,482	-42,163	0,040	0,015
-262,467	25,817	-0,021	0,013
-261,453	-124,910	0,110	-0,012
-260,438	-2,957	-0,121	-0,061
-259,424	486,930	0,041	-0,067
-258,409	-200,000	-0,003	-0,042
-257,395	-200,000	0,001	-0,193
-256,380	-200,000	-0,014	-0,050
-255,365	-42,405	0,040	-0,015
-254,351	-79,197	-0,045	0,011
-253,336	-200,000	0,025	-0,086
-252,322	800,000	-0,037	-0,080
-251,307	131,288	0,010	-0,009
-250,292	66,358	0,125	0,092
-249,278	800,000	0,032	0,078
-248,263	-64,890	-0,046	-0,013
-247,249	-200,000	0,013	-0,078
-246,234	-45,671	0,030	-0,011
-245,219	128,813	-0,100	0,092
-244,205	79,501	0,092	0,071
-243,190	-94,176	0,089	0,017
-242,176	800,000	0,042	-0,087
-241,161	20,812	-0,087	0,051
-240,146	476,962	0,024	-0,040
-239,132	-200,000	0,040	-0,164
-238,117	-112,716	-0,012	0,002
-237,103	-184,118	-0,163	0,002
-236,088	-200,000	0,010	0,104
-235,073	198,601	0,036	0,040
-234,059	-200,000	-0,004	-0,019
-233,044	97,985	0,025	0,020
-232,030	800,000	-0,017	0,042
-231,015	-143,979	-0,055	-0,004
-230,000	800,000	0,039	0,096
-228,986	54,392	0,019	0,013
-227,971	632,722	0,099	0,182
-226,957	-23,411	-0,096	0,042
-225,942	-94,902	-0,071	0,014
-224,927	70,174	-0,076	0,056
-223,913	279,375	0,028	0,036
-222,898	7,022	0,155	-0,083
-221,884	-119,170	0,047	-0,006
-220,869	-180,654	0,122	-0,002
-219,855	1,355	0,124	-0,064
-218,840	-29,936	0,029	-0,012
-217,825	-42,946	-0,058	-0,021
-216,811	569,634	-0,069	0,122
-215,796	137,185	-0,040	-0,038
-214,782	18,411	-0,118	0,068
-213,767	800,000	0,034	0,075
-212,752	267,634	0,053	0,068
-211,738	69,530	-0,080	0,059
-210,723	-105,821	-0,034	-0,006
-209,709	520,555	-0,078	-0,132
-208,694	1,730	0,072	-0,037
-207,679	-8,420	-0,030	-0,015
-206,665	571,647	0,027	-0,048
-205,650	157,496	-0,055	0,055
-204,636	56,486	0,097	0,068
-203,621	57,120	0,057	-0,040
-202,606	-169,261	0,072	-0,002
-201,592	-200,000	0,002	-0,061
-200,577	152,421	-0,088	0,087
-199,563	-13,546	0,057	0,026
-198,548	-200,000	-0,009	-0,044
-197,533	8,213	0,153	-0,082
-196,519	-200,000	-0,010	-0,039
-195,504	-87,311	-0,093	0,020
-194,490	475,133	0,028	0,046
-193,475	-78,976	0,026	-0,006
-192,460	800,000	-0,031	-0,071
-191,446	-3,874	0,090	-0,045
-190,431	612,225	0,058	0,105
-189,417	800,000	0,076	0,154
-188,402	451,474	-0,052	-0,083
-187,387	248,558	0,058	-0,071
-186,373	800,000	0,067	-0,191
-185,358	64,091	-0,056	-0,041
-184,344	-46,436	-0,118	-0,042
-183,329	-34,533	-0,009	0,003
-182,315	800,000	-0,083	0,201
-181,300	141,978	0,041	0,039
-180,285	-200,000	-0,002	-0,073
-179,271	-85,774	0,053	0,012
-178,256	-200,000	-0,011	0,082
-177,242	797,507	0,031	0,062
-176,227	182,356	-0,087	0,093
-175,212	-200,000	-0,028	0,185
-174,198	29,801	0,091	0,056
-173,183	800,000	0,022	-0,049
-172,169	163,147	0,097	-0,098
-171,154	-106,228	0,086	0,014
-170,139	42,574	0,131	0,086
-169,125	800,000	0,050	-0,142
-168,110	131,393	-0,076	-0,070
-167,096	-12,995	0,052	0,024
-166,081	22,570	-0,127	0,075
-165,066	575,665	-0,015	0,027
-164,052	98,530	-0,095	-0,079
-163,037	48,083	0,106	0,071
-162,023	-69,465	0,070	0,019
-161,008	800,000	0,031	0,089
-159,993	-200,000	-0,007	0,052
-158,979	252,239	0,026	-0,032
-157,964	30,886	0,029	0,018
-156,950	75,457	0,092	-0,070
-155,935	596,769	0,055	-0,098
-154,920	-43,393	0,082	0,030
-153,906	140,325	0,056	0,053
-152,891	192,733	-0,096	-0,105
-151,877	389,075	-0,044	0,067
-150,862	800,000	0,017	0,053
-149,847	800,000	-0,036	-0,101
-148,833	-200,000	0,023	-0,086
-147,818	-126,630	-0,078	0,008
-146,804	-128,866	-0,040	-0,004
-145,789	-200,000	0,012	-0,083
-144,775	51,634	0,039	-0,026
-143,760	-44,846	-0,094	0,034
-142,745	13,386	0,059	0,033
-141,731	-198,783	-0,177	-0,001
-140,716	-200,000	0,005	0,075
-139,702	786,675	-0,024	0,048
-138,687	800,000	-0,011	0,033
-137,672	83,062	-0,076	0,060
-136,658	-59,051	-0,103	-0,032
-135,643	206,051	0,033	0,037
-134,629	-12,262	-0,051	0,024
-133,614	800,000	0,021	-0,063
-132,599	136,485	-0,077	0,072
-131,585	36,789	0,042	0,027
-130,570	-128,264	-0,207	-0,021
-129,556	800,000	-0,021	0,044
-128,541	252,538	-0,059	-0,072
-127,526	98,104	-0,127	-0,105
-126,512	170,790	0,074	-0,076
-125,497	250,415	0,059	0,072
-124,483	-200,000	0,015	0,106
-123,468	-34,289	-0,095	0,037
-122,453	-118,292	-0,121	-0,015
-121,439	-200,000	0,017	-0,101
-120,424	-200,000	-0,008	0,030
-119,410	665,850	-0,035	-0,066
-118,395	27,442	0,061	0,037
