DTS Sentinel unit serial number:	SN410029Multiplexer serial number:	ORYXHardware model number:	OX2-SRSoftware version number:	ORYX F/W v4,00 Oryx Data Collector v3.7.2.0data status	okinstallation	B5 Nyhavnadifferential loss correction	single-endedforward channel	channel 2reverse channel	N/Adate	2023/12/12time	16:42:13forward acquisition time	300,00reverse acquisition time	0,00gamma	499,1914k internal	0,3156k external	0,3156temperature offset calibration	1,0000default loss term (dB/km)	0,3820temperature slope calibration	1,0000multiplexer offset coefficient	1,0000multiplexer slope coefficient	1,0000fibre end	0,00T internal ref (°C)	15,82T ext. ref 1 (°C)	-0,68T ext. ref 2 (°C)	-0,99length (m)	temperature (°C)	Stokes	anti-Stokes-744,400	126,390	0,060	-0,056
-743,385	-45,370	-0,237	0,086
-742,371	-17,999	0,152	-0,070
-741,356	-67,879	-0,177	0,051
-740,342	10,202	-0,051	0,029
-739,327	-94,762	-0,331	0,066
-738,312	800,000	0,045	0,140
-737,298	3,062	-0,300	-0,160
-736,283	-27,408	-0,094	-0,040
-735,269	-57,950	-0,083	-0,027
-734,254	179,496	0,051	-0,055
-733,239	-60,737	-0,474	-0,147
-732,225	-186,058	0,178	-0,002
-731,210	-12,316	0,138	-0,066
-730,196	800,000	-0,030	-0,077
-729,181	-200,000	0,004	-0,037
-728,167	-165,289	-0,063	-0,002
-727,152	-200,000	0,007	-0,139
-726,137	-26,795	-0,048	0,021
-725,123	-12,014	-0,124	-0,059
-724,108	21,201	-0,087	-0,052
-723,094	55,337	-0,030	-0,021
-722,079	34,912	-0,031	0,020
-721,064	-200,000	0,006	-0,069
-720,050	311,375	-0,052	0,073
-719,035	-17,633	-0,045	0,021
-718,021	-22,257	-0,174	-0,078
-717,006	-200,000	-0,012	-0,079
-715,991	239,941	-0,088	-0,108
-714,977	800,000	-0,035	-0,102
-713,962	-137,512	-0,093	-0,008
-712,948	800,000	-0,061	0,142
-711,933	739,243	-0,018	-0,035
-710,918	-200,000	0,002	-0,025
-709,904	800,000	0,036	0,080
-708,889	383,069	-0,079	-0,120
-707,875	-200,000	-0,014	-0,102
-706,860	-200,000	-0,025	-0,087
-705,845	243,205	0,094	0,116
-704,831	-18,039	0,167	0,077
-703,816	-200,000	0,012	-0,251
-702,802	800,000	0,016	-0,035
-701,787	-76,338	-0,126	0,032
-700,772	4,599	-0,028	-0,015
-699,758	800,000	-0,022	-0,063
-698,743	-200,000	0,004	-0,088
-697,729	349,954	0,071	0,103
-696,714	-200,000	-0,014	0,069
-695,699	-58,328	-0,134	0,043
-694,685	128,799	-0,028	0,026
-693,670	-200,000	-0,011	-0,093
-692,656	216,881	0,066	0,078
-691,641	-200,000	0,004	-0,041
-690,627	18,180	-0,036	-0,021
-689,612	632,517	-0,042	-0,078
-688,597	374,801	-0,082	-0,123
-687,583	-200,000	0,007	0,064
-686,568	-148,965	0,066	0,004
-685,554	-114,538	0,121	0,017
-684,539	63,722	0,077	0,057
-683,524	641,865	0,052	0,097
-682,510	-95,223	-0,076	-0,015
-681,495	420,718	-0,016	0,025
-680,481	-200,000	0,020	-0,098
-679,466	-126,466	-0,074	-0,008
-678,451	800,000	0,027	-0,070
-677,437	-200,000	0,026	0,098
-676,422	-200,000	-0,011	-0,044
-675,408	46,190	-0,060	-0,041
-674,393	-131,927	-0,052	-0,005
-673,378	207,527	-0,069	-0,079
-672,364	472,390	-0,016	-0,027
-671,349	58,240	-0,021	0,015
-670,335	18,007	-0,083	-0,049
-669,320	-96,584	-0,050	0,010
-668,305	102,830	-0,043	-0,037
-667,291	39,163	-0,091	-0,060
-666,276	-4,478	-0,079	0,040
-665,262	-54,466	-0,104	0,035
-664,247	800,000	0,027	0,080
-663,232	800,000	-0,035	-0,112
-662,218	-115,347	0,107	0,015
-661,203	26,134	-0,048	0,029
-660,189	-156,429	0,090	0,004
-659,174	291,381	-0,015	-0,020
-658,159	409,343	-0,052	-0,081
-657,145	-89,646	-0,067	0,014
-656,130	-104,814	0,110	0,018
-655,116	26,130	0,086	-0,053
-654,101	-152,037	-0,079	-0,004
-653,086	243,934	-0,035	-0,043
-652,072	-200,000	0,002	0,017
-651,057	-137,747	0,104	0,008
-650,043	-200,000	-0,002	-0,082
-649,028	118,010	0,086	-0,077
-648,014	11,275	-0,064	0,036
-646,999	-116,689	0,089	-0,012
-645,984	-89,100	0,044	-0,009
-644,970	800,000	-0,045	0,118
-643,955	101,403	-0,018	-0,015
-642,941	800,000	0,026	0,071
-641,926	-120,053	0,036	0,004
-640,911	-120,531	-0,195	-0,024
-639,897	111,018	0,066	-0,059
-638,882	-113,114	-0,074	-0,011
-637,868	529,787	0,077	-0,135
-636,853	800,000	0,060	-0,174
-635,838	171,744	0,067	0,071
-634,824	57,076	-0,099	-0,071
-633,809	-141,891	-0,063	0,005
-632,795	-200,000	-0,001	-0,060
-631,780	-154,236	0,097	-0,005
-630,765	-8,406	-0,067	-0,033
-629,751	-26,100	-0,039	-0,017
-628,736	-141,457	-0,153	-0,011
-627,722	-200,000	0,012	0,113
-626,707	-200,000	-0,010	0,038
-625,692	273,759	-0,055	-0,071
-624,678	-137,966	-0,067	-0,005
-623,663	-200,000	-0,010	-0,207
-622,649	800,000	0,023	-0,071
-621,634	127,957	-0,076	-0,071
-620,619	-140,505	-0,022	0,002
-619,605	-200,000	0,011	0,060
-618,590	578,628	0,068	-0,122
-617,576	128,405	-0,071	-0,066
-616,561	-48,212	0,033	-0,011
-615,546	-130,481	-0,113	-0,011
-614,532	-200,000	-0,005	-0,091
-613,517	-200,000	0,008	0,153
-612,503	197,354	-0,127	0,142
-611,488	-200,000	-0,011	-0,036
-610,474	-114,808	-0,175	-0,024
-609,459	800,000	0,037	-0,103
-608,444	32,896	-0,054	-0,034
-607,430	301,297	0,081	-0,110
-606,415	800,000	0,018	-0,054
-605,401	-162,552	-0,047	-0,002
-604,386	800,000	0,041	-0,084
-603,371	184,526	0,051	0,056
-602,357	45,222	0,054	-0,037
-601,342	-200,000	-0,036	0,128
-600,328	13,411	-0,087	-0,049
-599,313	800,000	-0,042	-0,111
-598,298	-39,313	-0,040	0,015
-597,284	139,572	0,058	0,056
-596,269	-82,970	-0,082	0,019
-595,255	125,589	-0,039	0,036
-594,240	-200,000	0,006	0,114
-593,225	52,795	0,082	0,057
-592,211	-92,563	-0,107	0,022
-591,196	-124,686	0,163	-0,018
-590,182	20,833	0,064	0,038
-589,167	-79,916	-0,093	-0,023
-588,152	124,870	0,097	0,090
-587,138	27,831	-0,090	0,055
-586,123	733,221	-0,019	-0,038
-585,109	-6,378	-0,250	-0,125
-584,094	-200,000	0,000	-0,044
-583,079	-93,691	0,109	-0,022
-582,065	-200,000	-0,010	-0,061
-581,050	6,302	-0,039	0,021
-580,036	-200,000	-0,018	-0,078
-579,021	399,523	0,037	-0,058
-578,006	-62,680	-0,155	-0,047
-576,992	277,098	-0,081	-0,106
-575,977	-200,000	0,023	0,092
-574,963	30,276	-0,146	-0,091
-573,948	-153,290	0,100	-0,005
-572,934	-200,000	0,005	-0,072
-571,919	-102,062	-0,159	0,028
-570,904	-85,719	0,091	-0,020
-569,890	-11,863	-0,137	0,065
-568,875	-200,000	-0,027	-0,161
-567,861	-200,000	0,005	0,125
-566,846	92,135	0,023	0,019
-565,831	-114,024	-0,087	0,012
-564,817	-200,000	0,022	0,092
-563,802	243,780	-0,047	-0,057
-562,788	74,144	0,026	-0,020
-561,773	800,000	0,041	-0,112
-560,758	-61,838	0,159	-0,048
-559,744	-16,583	0,017	0,008
-558,729	800,000	0,019	-0,042
-557,715	-200,000	-0,011	-0,128
-556,700	123,724	-0,186	-0,171
-555,685	800,000	-0,043	-0,107
-554,671	-200,000	0,012	0,049
-553,656	-109,935	0,094	0,014
-552,642	306,764	0,016	-0,022
-551,627	262,489	-0,085	-0,108
-550,612	800,000	-0,035	0,089
-549,598	-200,000	-0,001	0,083
-548,583	800,000	-0,075	-0,169
-547,569	67,678	-0,021	0,015
-546,554	-200,000	-0,023	0,096
-545,539	136,160	-0,020	-0,019
-544,525	-26,390	0,070	0,030
-543,510	-200,000	-0,003	0,141
-542,496	399,358	-0,068	0,104
-541,481	141,573	-0,108	-0,105
-540,466	800,000	0,050	-0,129
-539,452	-22,282	0,083	-0,037
-538,437	72,479	-0,026	0,020
-537,423	341,321	-0,056	0,080
-536,408	-200,000	0,006	-0,073
-535,393	44,698	-0,036	0,024
-534,379	-200,000	0,007	-0,082
-533,364	800,000	0,031	-0,067
-532,350	59,827	0,028	-0,020
-531,335	347,585	0,083	0,120
-530,321	153,067	0,064	0,064
-529,306	-84,735	-0,024	0,006
-528,291	-16,399	-0,132	0,061
-527,277	-200,000	0,016	-0,115
-526,262	-200,000	0,024	-0,094
-525,248	69,184	0,077	0,058
-524,233	-200,000	0,000	0,079
-523,218	154,214	-0,017	-0,017
-522,204	-33,475	-0,023	0,009
-521,189	156,961	-0,007	0,007
-520,175	113,039	-0,107	-0,095
-519,160	3,510	0,075	-0,040
-518,145	7,434	0,150	-0,082
-517,131	-17,807	-0,076	0,035
-516,116	196,833	0,019	-0,021
-515,102	-59,092	-0,023	-0,007
-514,087	-200,000	-0,019	0,073
-513,072	800,000	-0,012	0,027
-512,058	-200,000	0,003	-0,151
-511,043	800,000	0,015	0,039
-510,029	-103,405	0,014	-0,002
-509,014	800,000	-0,063	0,161
-507,999	689,308	0,025	0,047
-506,985	-29,460	-0,098	-0,041
-505,970	-162,129	-0,088	0,003
-504,956	193,547	-0,064	0,071
-503,941	-200,000	-0,006	0,052
-502,926	800,000	-0,014	0,032
-501,912	116,641	0,043	-0,038
-500,897	-200,000	0,021	0,091
-499,883	499,148	0,017	-0,029
-498,868	-200,000	-0,026	-0,146
-497,853	800,000	-0,042	0,101
-496,839	89,456	0,110	-0,090
-495,824	15,241	0,095	0,054
-494,810	-166,180	0,059	-0,002
-493,795	105,494	0,068	0,059
-492,781	21,261	-0,179	-0,106
-491,766	-102,086	-0,103	-0,018
-490,751	468,354	0,043	0,071
-489,737	-200,000	-0,000	0,037
-488,722	-200,000	0,006	0,075
-487,708	63,862	0,015	0,011
-486,693	687,260	-0,036	-0,068
-485,678	-200,000	0,016	0,137
-484,664	800,000	-0,030	-0,068
-483,649	10,285	-0,162	-0,090
-482,635	185,586	-0,124	-0,135
-481,620	-45,351	0,086	-0,031
-480,605	278,080	-0,046	0,060
-479,591	792,461	0,055	0,111
-478,576	576,742	-0,051	-0,091
-477,562	-200,000	0,041	-0,178
-476,547	-200,000	-0,016	-0,166
-475,532	-22,886	0,132	0,058
-474,518	-83,095	-0,094	-0,022
-473,503	19,646	0,111	0,065
-472,489	90,287	0,164	-0,134
-471,474	-200,000	0,004	-0,061
-470,459	-71,928	0,034	-0,009
-469,445	-141,970	-0,117	-0,008
-468,430	-200,000	-0,007	-0,129
-467,416	-200,000	0,016	0,055
-466,401	-110,065	-0,004	0,001
-465,386	125,206	-0,063	0,058
-464,372	-113,143	-0,019	-0,003
-463,357	-200,000	0,003	0,050
-462,343	800,000	-0,045	-0,095
-461,328	-200,000	0,011	-0,173
-460,313	231,764	-0,056	0,068
-459,299	-42,217	0,119	0,044
-458,284	-60,591	0,119	-0,037
-457,270	-20,504	0,034	0,015
-456,255	-78,834	-0,121	0,030
-455,241	-200,000	0,001	0,108
-454,226	-200,000	-0,020	-0,067
-453,211	-200,000	0,002	-0,077
-452,197	-7,910	-0,100	-0,049
-451,182	145,726	-0,053	0,052
-450,168	139,519	-0,017	-0,017
-449,153	-65,570	-0,097	0,028
-448,138	210,591	-0,092	0,105
-447,124	-80,765	0,149	-0,036
-446,109	188,355	-0,008	0,009
-445,095	17,198	-0,010	0,006
-444,080	-146,023	0,026	0,002
-443,065	62,036	-0,089	0,065
-442,051	-200,000	0,006	0,080
-441,036	800,000	-0,016	0,047
-440,022	23,272	-0,060	-0,036
-439,007	-200,000	-0,002	0,041
-437,992	418,105	0,082	0,128
-436,978	173,358	0,089	-0,094
-435,963	-200,000	0,019	0,066
-434,949	101,621	-0,059	0,050
-433,934	539,204	-0,073	-0,128
-432,919	503,476	-0,023	-0,039
-431,905	735,459	0,031	-0,060
-430,890	-200,000	-0,009	-0,072
-429,876	-200,000	0,018	0,106
-428,861	-82,358	0,049	0,011
-427,846	78,367	0,014	-0,011
-426,832	-200,000	-0,003	-0,044
-425,817	-200,000	0,006	-0,098
-424,803	89,537	-0,030	-0,024
-423,788	-159,326	0,050	0,002
-422,773	800,000	0,047	0,149
-421,759	32,860	0,030	0,019
-420,744	165,823	0,040	0,042
-419,730	781,035	-0,032	-0,063
-418,715	130,817	0,066	0,062
-417,701	165,571	0,040	-0,041
-416,686	-200,000	-0,021	0,070
-415,671	167,982	0,127	0,131
-414,657	113,157	-0,027	0,024
-413,642	493,847	-0,016	0,027
-412,628	-8,342	0,066	-0,032
-411,613	30,892	-0,093	-0,058
-410,598	472,414	-0,056	-0,093
-409,584	-200,000	-0,047	0,155
-408,569	-200,000	-0,014	-0,049
-407,555	800,000	-0,033	0,076
-406,540	-200,000	0,018	0,088
-405,525	-69,975	0,023	-0,006
-404,511	103,348	-0,090	0,077
-403,496	-0,809	0,034	0,018
-402,482	-116,000	-0,124	-0,017
-401,467	-200,000	0,001	0,075
-400,452	800,000	0,050	0,110
-399,438	-200,000	0,019	-0,126
-398,423	-200,000	-0,010	0,103
-397,409	45,485	0,047	0,032
-396,394	800,000	-0,028	-0,077
-395,379	800,000	0,040	0,121
-394,365	275,837	0,058	0,075
-393,350	-138,701	0,045	0,004
-392,336	166,016	-0,049	0,051
-391,321	-95,706	-0,050	-0,010
-390,306	-153,819	-0,065	0,003
-389,292	91,783	0,105	-0,086
-388,277	-46,518	-0,032	-0,012
-387,263	-200,000	-0,019	0,086
-386,248	32,919	0,088	0,055
-385,233	-102,508	0,114	-0,020
-384,219	-13,043	-0,076	0,036
-383,204	800,000	0,022	-0,046
-382,190	-71,450	0,050	-0,014
-381,175	754,546	-0,089	0,175
-380,160	800,000	0,015	0,034
-379,146	382,461	0,045	0,068
-378,131	156,266	0,079	-0,079
-377,117	-42,741	-0,079	0,029
-376,102	-21,541	-0,051	0,023
-375,088	-3,523	-0,137	0,069
-374,073	-200,000	-0,008	-0,048
-373,058	-81,157	0,122	-0,029
-372,044	-200,000	-0,001	0,008
-371,029	102,489	0,068	0,058
-370,015	-54,772	-0,119	0,039
-369,000	-200,000	0,009	0,087
-367,985	759,236	-0,036	-0,071
-366,971	-200,000	0,055	-0,183
-365,956	-200,000	0,033	-0,134
-364,942	122,845	0,081	-0,074
-363,927	-200,000	0,016	-0,067
-362,912	321,097	0,121	-0,168
-361,898	-81,820	-0,072	-0,017
-360,883	-200,000	0,003	-0,083
-359,869	-46,331	0,106	0,038
-358,854	27,340	-0,013	0,008
-357,839	-200,000	-0,024	0,140
-356,825	153,690	0,074	0,073
-355,810	-200,000	-0,013	0,077
-354,796	-200,000	-0,015	0,077
-353,781	-200,000	-0,012	-0,077
-352,766	-93,051	0,138	-0,028
-351,752	565,908	-0,045	-0,080
-350,737	-137,507	-0,101	-0,008
-349,723	259,739	0,100	0,125
-348,708	800,000	-0,025	-0,053
-347,693	-200,000	0,004	-0,133
-346,679	800,000	-0,018	0,038
-345,664	800,000	0,061	-0,125
-344,650	-21,534	-0,046	-0,020
-343,635	800,000	0,017	-0,053
-342,620	800,000	-0,026	-0,057
-341,606	157,747	-0,037	-0,038
-340,591	343,843	0,058	0,083
-339,577	800,000	0,027	0,076
-338,562	-132,082	0,193	-0,018
-337,548	-12,862	-0,093	-0,044
-336,533	-31,914	-0,053	-0,021
-335,518	800,000	0,033	0,089
-334,504	-14,074	0,056	-0,026
-333,489	104,387	0,050	0,043
-332,475	-113,348	-0,049	0,007
-331,460	-200,000	0,000	0,103
-330,445	-200,000	0,003	0,082
-329,431	-100,060	0,122	0,022
-328,416	4,951	-0,037	0,020
-327,402	-85,711	0,073	0,016
-326,387	17,805	-0,009	-0,005
-325,372	30,786	-0,098	0,061
-324,358	-184,031	-0,077	-0,001
-323,343	-12,940	-0,101	-0,047
-322,329	140,305	0,061	-0,058
-321,314	800,000	-0,022	-0,067
-320,299	800,000	0,046	0,098
-319,285	-81,573	0,070	0,017
-318,270	-72,081	-0,051	0,014
-317,256	-125,988	-0,074	0,008
-316,241	-115,346	-0,085	0,012
-315,226	-200,000	-0,006	0,099
-314,212	172,452	0,052	0,054
-313,197	-134,380	-0,108	-0,009
-312,183	-36,215	0,132	-0,051
-311,168	-124,095	0,026	0,003
-310,153	-200,000	0,022	0,070
-309,139	-200,000	0,027	-0,097
-308,124	-105,637	0,265	-0,043
-307,110	-200,000	-0,016	0,091
-306,095	-31,405	0,053	-0,022
-305,080	-200,000	-0,012	0,110
-304,066	250,541	0,056	-0,070
-303,051	-200,000	-0,001	-0,100
-302,037	164,529	0,095	0,097
-301,022	-85,394	0,061	-0,014
-300,008	714,058	0,037	-0,072
-298,993	800,000	0,061	0,140
-297,978	800,000	-0,020	0,045
-296,964	124,444	0,090	0,082
-295,949	352,885	-0,051	-0,074
-294,935	-34,942	-0,093	-0,037
-293,920	800,000	0,028	-0,062
-292,905	305,950	0,085	0,114
-291,891	-200,000	0,000	0,071
-290,876	400,293	-0,037	0,056
-289,862	278,531	0,020	-0,026
-288,847	419,147	0,076	-0,118
-287,832	22,579	0,030	0,018
-286,818	-200,000	-0,011	0,038
-285,803	800,000	-0,037	-0,091
-284,789	-146,737	0,074	0,005
-283,774	-15,177	-0,086	0,040
-282,759	-200,000	0,015	-0,095
-281,745	345,825	0,024	0,035
-280,730	553,103	0,047	-0,082
-279,716	-110,034	0,087	0,013
-278,701	31,274	-0,040	0,025
-277,686	164,224	-0,124	-0,127
-276,672	143,849	-0,107	-0,103
-275,657	-142,076	0,022	0,002
-274,643	379,902	-0,047	-0,070
-273,628	26,280	0,093	-0,056
-272,613	-93,863	0,171	-0,034
-271,599	206,817	0,091	-0,103
-270,584	64,554	-0,064	0,046
-269,570	-9,602	-0,070	0,034
-268,555	3,536	0,040	-0,021
-267,540	-82,206	0,176	0,041
-266,526	800,000	-0,033	-0,071
-265,511	68,184	0,068	-0,050
-264,497	567,222	0,042	0,074
-263,482	800,000	0,038	0,078
-262,467	-19,075	0,132	0,059
-261,453	-200,000	0,011	0,096
-260,438	-200,000	0,005	0,108
-259,424	98,338	-0,073	0,061
-258,409	-200,000	0,026	-0,123
-257,395	800,000	-0,041	0,093
-256,380	158,425	-0,049	-0,049
-255,365	-50,592	0,108	0,037
-254,351	439,537	-0,072	0,113
-253,336	-120,289	0,109	-0,013
-252,322	193,173	-0,117	0,128
-251,307	800,000	-0,005	0,014
-250,292	800,000	0,057	-0,175
-249,278	14,898	0,090	-0,051
-248,263	350,524	0,035	0,050
-247,249	27,679	0,029	0,017
-246,234	157,193	-0,105	-0,105
-245,219	-26,236	-0,018	0,008
-244,205	800,000	0,054	-0,145
-243,190	-200,000	-0,057	0,233
-242,176	20,234	-0,038	0,022
-241,161	-133,995	-0,103	0,009
-240,146	221,371	0,143	0,166
-239,132	0,006	-0,097	0,050
-238,117	66,134	0,089	0,065
-237,103	189,506	-0,069	0,075
-236,088	567,632	0,034	-0,059
-235,073	-200,000	-0,005	0,041
-234,059	800,000	0,021	-0,043
-233,044	167,502	0,112	0,115
-232,030	228,090	0,061	-0,072
-231,015	-47,447	-0,114	-0,040
-230,000	227,154	-0,055	-0,065
-228,986	11,049	0,019	-0,010
-227,971	-47,597	0,093	0,032
-226,957	-169,334	0,064	0,002
-225,942	26,610	0,065	0,039
-224,927	26,672	0,063	0,038
-223,913	254,571	-0,015	0,019
-222,898	-200,000	0,014	-0,089
-221,884	-0,613	-0,053	-0,027
-220,869	-200,000	0,024	0,206
-219,855	-40,947	-0,115	0,043
-218,840	-39,755	-0,193	0,073
-217,825	176,642	-0,017	-0,018
-216,811	800,000	0,024	0,058
-215,796	-15,046	-0,098	-0,045
-214,782	317,381	0,036	-0,049
-213,767	340,403	-0,041	-0,058
-212,752	462,882	0,114	-0,184
-211,738	607,285	-0,047	0,084
-210,723	-200,000	0,001	-0,051
-209,709	706,525	0,011	-0,022
-208,694	-200,000	-0,010	-0,034
-207,679	267,133	-0,022	-0,027
-206,665	245,048	0,044	-0,054
-205,650	702,589	0,032	-0,060
-204,636	-200,000	0,018	0,142
-203,621	-200,000	-0,015	0,100
-202,606	174,005	-0,107	-0,111
-201,592	-200,000	0,030	0,124
-200,577	72,816	0,105	0,079
-199,563	10,800	-0,063	-0,035
-198,548	800,000	0,028	0,067
-197,533	800,000	0,057	0,138
-196,519	-200,000	0,005	0,086
-195,504	800,000	0,010	0,022
-194,490	-184,769	-0,091	-0,001
-193,475	565,795	0,050	0,087
-192,460	287,891	0,145	0,190
-191,446	172,713	-0,086	0,089
-190,431	693,221	0,104	0,197
-189,417	800,000	0,008	-0,020
-188,402	160,096	-0,043	0,044
-187,387	42,789	-0,066	-0,043
-186,373	107,762	0,026	0,022
-185,358	-175,693	-0,157	-0,003
-184,344	93,442	0,072	-0,058
-183,329	-200,000	0,011	-0,077
-182,315	728,845	-0,005	0,010
-181,300	800,000	-0,038	-0,122
-180,285	106,437	-0,032	0,028
-179,271	131,369	-0,092	-0,085
-178,256	-43,217	-0,116	-0,042
-177,242	397,436	0,044	0,067
-176,227	-136,476	0,083	-0,007
-175,212	-120,423	0,070	0,008
-174,198	-200,000	-0,011	0,050
-173,183	800,000	0,031	-0,090
-172,169	-200,000	0,012	-0,100
-171,154	-123,802	0,090	0,010
-170,139	147,545	0,026	0,025
-169,125	407,604	-0,025	0,039
-168,110	-87,154	0,064	-0,014
-167,096	-120,497	0,098	-0,012
-166,081	800,000	-0,062	-0,195
-165,066	-200,000	0,016	0,134
-164,052	417,611	-0,070	-0,109
-163,037	5,341	-0,054	0,029
-162,023	-103,012	0,042	0,007
-161,008	800,000	-0,033	0,078
-159,993	-97,821	0,060	-0,011
-158,979	800,000	0,011	-0,023
-157,964	498,624	-0,062	0,104
-156,950	195,379	-0,095	0,104
-155,935	-61,944	0,041	0,012
-154,920	-200,000	-0,001	0,054
-153,906	54,846	0,024	-0,017
-152,891	-83,073	0,108	0,025
-151,877	800,000	0,023	0,048
-150,862	-43,345	0,046	-0,017
-149,847	-56,889	-0,099	-0,031
-148,833	46,745	-0,034	0,023
-147,818	192,021	-0,099	0,108
-146,804	-29,313	0,116	0,048
-145,789	800,000	0,069	-0,184
-144,775	-200,000	-0,012	-0,120
-143,760	800,000	-0,026	0,065
-142,745	-35,187	-0,092	-0,036
-141,731	543,736	0,037	-0,065
-140,716	-200,000	-0,002	0,052
-139,702	100,031	0,029	0,024
-138,687	114,611	-0,135	-0,119
-137,672	54,358	-0,104	0,072
-136,658	-79,712	-0,073	0,018
-135,643	-0,047	0,105	0,054
-134,629	-200,000	0,005	-0,044
-133,614	-54,033	-0,087	0,028
-132,599	-80,260	0,087	-0,021
-131,585	76,680	0,129	-0,098
-130,570	-200,000	-0,035	0,121
-129,556	475,699	-0,032	-0,053
-128,541	-200,000	0,013	-0,066
-127,526	-41,793	-0,057	-0,021
-126,512	-100,362	0,079	0,014
-125,497	637,734	0,021	0,039
-124,483	-87,363	0,066	0,014
-123,468	147,669	0,043	0,042
-122,453	355,336	-0,037	-0,053
-121,439	800,000	-0,069	-0,151
-120,424	-170,595	-0,140	-0,003
-119,410	78,146	0,140	0,107
