DTS Sentinel unit serial number:	SN410029Multiplexer serial number:	ORYXHardware model number:	OX2-SRSoftware version number:	ORYX F/W v4,00 Oryx Data Collector v3.7.2.0data status	okinstallation	B5 Nyhavnadifferential loss correction	single-endedforward channel	channel 2reverse channel	N/Adate	2023/12/13time	18:27:13forward acquisition time	300,00reverse acquisition time	0,00gamma	499,1914k internal	0,3160k external	0,3160temperature offset calibration	1,0000default loss term (dB/km)	0,3820temperature slope calibration	1,0000multiplexer offset coefficient	1,0000multiplexer slope coefficient	1,0000fibre end	0,00T internal ref (°C)	12,75T ext. ref 1 (°C)	-4,49T ext. ref 2 (°C)	-4,55length (m)	temperature (°C)	Stokes	anti-Stokes-744,400	-42,245	0,083	-0,031
-743,385	-69,531	-0,338	0,095
-742,371	294,787	0,105	0,142
-741,356	-23,791	-0,251	0,110
-740,342	3,888	0,180	-0,096
-739,327	-183,106	-0,299	0,004
-738,312	-54,097	0,120	0,040
-737,298	-21,522	-0,337	-0,151
-736,283	32,659	0,049	-0,031
-735,269	-110,896	-0,270	0,041
-734,254	-75,065	0,127	0,033
-733,239	-35,001	-0,482	-0,193
-732,225	-97,384	0,202	0,038
-731,210	-102,696	-0,082	-0,014
-730,196	253,413	0,086	-0,108
-729,181	-200,000	0,007	-0,214
-728,167	486,892	-0,097	-0,164
-727,152	-200,000	-0,007	-0,084
-726,137	203,366	-0,115	0,131
-725,123	-200,000	0,021	-0,127
-724,108	-59,422	-0,106	0,033
-723,094	800,000	0,046	0,130
-722,079	640,405	0,042	-0,080
-721,064	168,523	0,071	-0,075
-720,050	800,000	0,023	0,052
-719,035	123,393	-0,084	-0,078
-718,021	471,347	-0,068	-0,113
-717,006	5,367	-0,112	-0,061
-715,991	-102,193	-0,151	-0,027
-714,977	-200,000	0,006	0,067
-713,962	217,447	-0,003	0,004
-712,948	568,449	-0,039	-0,069
-711,933	102,844	0,077	-0,067
-710,918	57,423	-0,039	0,028
-709,904	313,073	-0,061	-0,084
-708,889	-200,000	-0,011	0,080
-707,875	-154,366	-0,116	-0,006
-706,860	176,857	-0,017	0,018
-705,845	-200,000	0,041	0,164
-704,831	-200,000	-0,006	0,030
-703,816	-74,867	-0,111	-0,029
-702,802	272,097	0,056	0,072
-701,787	188,163	-0,039	-0,043
-700,772	-97,393	0,029	0,006
-699,758	155,799	-0,032	-0,033
-698,743	-144,801	0,025	0,002
-697,729	27,880	-0,045	-0,028
-696,714	-69,480	0,134	0,038
-695,699	-173,448	0,142	0,003
-694,685	112,371	-0,044	-0,039
-693,670	-36,238	-0,121	-0,048
-692,656	800,000	0,015	-0,041
-691,641	143,945	-0,100	-0,099
-690,627	204,730	0,049	0,056
-689,612	-9,630	-0,161	0,079
-688,597	447,583	-0,023	-0,038
-687,583	800,000	0,050	-0,122
-686,568	125,862	0,053	-0,050
-685,554	357,449	-0,054	0,079
-684,539	-42,354	-0,100	0,037
-683,524	505,581	0,061	-0,105
-682,510	295,002	-0,159	-0,214
-681,495	468,819	0,060	-0,099
-680,481	64,371	-0,097	-0,071
-679,466	-125,234	0,063	0,007
-678,451	64,975	0,083	-0,062
-677,437	-200,000	-0,031	-0,115
-676,422	347,438	-0,010	0,014
-675,408	203,305	-0,072	0,081
-674,393	36,315	0,144	-0,093
-673,378	-95,168	-0,077	0,015
-672,364	800,000	0,064	-0,141
-671,349	-200,000	-0,001	-0,244
-670,335	800,000	-0,020	-0,059
-669,320	43,188	0,007	-0,004
-668,305	-200,000	0,013	-0,075
-667,291	800,000	-0,049	-0,120
-666,276	-200,000	-0,031	0,161
-665,262	800,000	-0,033	-0,089
-664,247	800,000	0,025	-0,053
-663,232	-122,314	-0,139	0,016
-662,218	442,430	0,049	0,080
-661,203	17,162	0,041	-0,024
-660,189	188,487	0,050	-0,055
-659,174	255,121	0,022	0,028
-658,159	-125,012	-0,055	0,006
-657,145	43,007	-0,076	-0,051
-656,130	-200,000	-0,007	0,044
-655,116	-13,970	0,122	0,058
-654,101	-200,000	0,013	0,076
-653,086	800,000	-0,029	0,076
-652,072	120,107	-0,183	-0,167
-651,057	-200,000	0,006	-0,149
-650,043	10,751	-0,052	-0,029
-649,028	225,438	-0,116	-0,138
-648,014	-200,000	0,014	-0,050
-646,999	11,905	0,211	-0,119
-645,984	-86,563	-0,110	-0,024
-644,970	12,854	-0,175	-0,099
-643,955	800,000	-0,031	0,085
-642,941	190,356	-0,086	-0,095
-641,926	800,000	-0,036	-0,077
-640,911	-200,000	0,008	0,036
-639,897	349,460	0,070	-0,101
-638,882	-200,000	0,023	-0,135
-637,868	-23,649	0,064	0,028
-636,853	21,706	0,024	-0,014
-635,838	-182,397	-0,055	-0,001
-634,824	89,835	-0,077	-0,063
-633,809	-200,000	0,025	-0,137
-632,795	451,242	-0,093	0,151
-631,780	179,688	0,083	0,090
-630,765	-87,330	0,009	0,002
-629,751	44,068	-0,057	-0,038
-628,736	-53,077	-0,200	-0,067
-627,722	467,618	0,054	0,090
-626,707	80,485	-0,030	0,023
-625,692	-68,938	-0,064	0,018
-624,678	-111,051	-0,093	0,014
-623,663	-95,771	-0,117	0,023
-622,649	-160,371	0,102	-0,004
-621,634	267,145	-0,046	0,059
-620,619	-96,561	0,113	-0,022
-619,605	-200,000	0,017	0,128
-618,590	800,000	-0,019	0,039
-617,576	-200,000	-0,014	0,054
-616,561	381,358	-0,015	0,023
-615,546	-3,559	-0,164	-0,083
-614,532	243,658	0,034	-0,042
-613,517	178,095	0,043	-0,046
-612,503	-30,593	-0,102	-0,042
-611,488	-200,000	0,006	0,077
-610,474	23,724	0,162	0,097
-609,459	-70,673	0,016	-0,005
-608,444	-32,649	-0,053	0,021
-607,430	-200,000	-0,003	-0,080
-606,415	-200,000	0,014	-0,115
-605,401	-200,000	-0,023	-0,093
-604,386	106,218	0,092	-0,080
-603,371	147,385	-0,052	-0,052
-602,357	-200,000	0,005	-0,058
-601,342	-18,835	0,076	0,035
-600,328	-200,000	0,004	0,034
-599,313	13,596	0,130	0,074
-598,298	-154,350	0,039	0,002
-597,284	-151,627	0,216	0,011
-596,269	58,147	-0,102	0,073
-595,255	-63,841	0,124	0,037
-594,240	-9,797	-0,170	-0,082
-593,225	51,879	-0,043	-0,030
-592,211	4,991	-0,129	0,069
-591,196	88,652	0,043	0,035
-590,182	353,353	-0,051	-0,074
-589,167	-75,347	-0,029	0,007
-588,152	5,900	0,073	-0,040
-587,138	79,616	-0,025	-0,020
-586,123	-41,816	0,043	-0,016
-585,109	-150,579	0,070	-0,004
-584,094	372,852	-0,042	-0,063
-583,079	-200,000	-0,006	-0,033
-582,065	-149,376	0,063	0,004
-581,050	101,609	-0,041	0,035
-580,036	800,000	-0,017	0,039
-579,021	390,682	-0,051	-0,078
-578,006	318,758	-0,049	-0,068
-576,992	-200,000	0,005	-0,165
-575,977	388,033	0,125	0,190
-574,963	362,319	0,057	0,084
-573,948	541,087	-0,017	0,030
-572,934	92,128	-0,073	-0,060
-571,919	112,042	0,056	0,050
-570,904	-200,000	-0,002	-0,180
-569,890	152,817	-0,027	-0,027
-568,875	71,434	-0,027	0,020
-567,861	800,000	-0,089	0,185
-566,846	464,070	0,104	0,171
-565,831	800,000	-0,026	-0,060
-564,817	-139,752	0,029	0,002
-563,802	-43,934	0,087	0,032
-562,788	-113,136	-0,046	0,007
-561,773	-200,000	-0,026	-0,088
-560,758	-68,458	0,050	0,014
-559,744	724,799	0,034	0,066
-558,729	55,515	-0,111	-0,079
-557,715	-200,000	-0,006	0,070
-556,700	79,196	-0,024	0,019
-555,685	-200,000	0,003	-0,048
-554,671	36,064	-0,038	0,024
-553,656	-109,557	0,056	0,008
-552,642	-31,372	0,171	-0,070
-551,627	-200,000	0,003	0,075
-550,612	-200,000	-0,013	-0,047
-549,598	247,395	-0,101	-0,125
-548,583	-200,000	0,020	-0,157
-547,569	680,851	0,054	-0,103
-546,554	10,463	-0,046	-0,026
-545,539	265,482	0,104	0,133
-544,525	57,517	0,113	0,081
-543,510	-200,000	-0,023	-0,082
-542,496	-27,880	-0,008	0,003
-541,481	-200,000	0,009	0,153
-540,466	731,714	0,038	0,074
-539,452	-200,000	-0,007	-0,030
-538,437	6,341	0,132	-0,071
-537,423	800,000	-0,024	0,077
-536,408	161,620	0,157	0,161
-535,393	-118,997	-0,102	-0,013
-534,379	17,206	-0,076	-0,044
-533,364	-200,000	0,002	-0,167
-532,350	219,665	-0,030	0,035
-531,335	365,093	0,058	0,086
-530,321	104,596	0,082	-0,071
-529,306	-200,000	-0,001	0,072
-528,291	800,000	-0,026	-0,076
-527,277	-200,000	-0,016	-0,111
-526,262	-200,000	-0,005	-0,065
-525,248	295,656	-0,029	0,039
-524,233	-70,564	0,125	0,034
-523,218	184,961	0,018	0,019
-522,204	-200,000	0,002	0,007
-521,189	18,954	-0,037	0,021
-520,175	-167,004	-0,080	-0,002
-519,160	-3,227	-0,078	-0,040
-518,145	797,404	0,037	-0,075
-517,131	176,152	0,035	0,037
-516,116	800,000	-0,036	-0,087
-515,102	800,000	0,025	-0,073
-514,087	800,000	-0,046	-0,111
-513,072	-200,000	0,002	-0,022
-512,058	-123,349	-0,084	0,010
-511,043	800,000	0,055	-0,123
-510,029	-12,146	-0,080	-0,038
-509,014	-83,652	-0,140	0,032
-507,999	81,567	0,085	-0,067
-506,985	80,372	-0,090	-0,071
-505,970	-200,000	-0,017	-0,058
-504,956	395,723	0,055	-0,084
-503,941	-69,028	0,093	0,026
-502,926	-140,775	0,054	-0,004
-501,912	-126,075	0,135	0,015
-500,897	-24,697	-0,109	0,047
-499,883	-122,164	-0,161	0,019
-498,868	-143,156	-0,073	0,005
-497,853	-200,000	-0,003	-0,073
-496,839	-135,616	0,109	-0,009
-495,824	136,283	-0,085	0,081
-494,810	-127,269	0,136	0,014
-493,795	291,887	-0,054	-0,072
-492,781	31,276	0,024	-0,015
-491,766	136,358	-0,116	0,111
-490,751	-200,000	-0,008	0,087
-489,737	90,104	-0,094	-0,076
-488,722	523,567	-0,037	-0,064
-487,708	-132,916	0,144	0,013
-486,693	-32,350	0,124	0,050
-485,678	61,523	-0,128	-0,092
-484,664	-122,748	0,052	0,006
-483,649	-200,000	-0,007	-0,128
-482,635	-200,000	-0,019	-0,096
-481,620	-108,875	-0,108	0,017
-480,605	183,137	-0,045	0,048
-479,591	-28,173	-0,016	-0,007
-478,576	465,054	-0,045	0,074
-477,562	-200,000	0,007	0,029
-476,547	257,688	-0,061	-0,076
-475,532	800,000	0,017	0,043
-474,518	-200,000	-0,006	-0,085
-473,503	-200,000	0,016	0,110
-472,489	69,827	-0,091	0,068
-471,474	-42,953	0,039	0,014
-470,459	800,000	0,016	0,049
-469,445	-9,935	-0,049	-0,024
-468,430	416,502	-0,047	0,074
-467,416	44,580	-0,058	-0,039
-466,401	-117,836	-0,062	-0,008
-465,386	89,440	-0,133	0,108
-464,372	795,847	-0,057	-0,115
-463,357	-200,000	0,019	-0,113
-462,343	-40,165	-0,199	-0,075
-461,328	491,941	0,056	-0,093
-460,313	-200,000	0,033	-0,172
-459,299	-8,105	0,062	-0,030
-458,284	48,244	0,102	-0,070
-457,270	699,436	0,029	-0,056
-456,255	122,665	0,099	0,090
-455,241	622,644	0,027	0,050
-454,226	800,000	-0,045	-0,093
-453,211	800,000	0,044	-0,108
-452,197	-200,000	0,016	0,077
-451,182	314,850	-0,091	0,125
-450,168	-78,729	0,117	-0,029
-449,153	641,280	-0,022	0,041
-448,138	135,480	-0,144	0,136
-447,124	-8,090	-0,190	0,093
-446,109	-165,510	0,117	0,004
-445,095	24,461	-0,078	0,047
-444,080	-81,990	-0,062	0,015
-443,065	800,000	0,045	-0,099
-442,051	694,553	0,027	-0,052
-441,036	-76,184	-0,064	0,016
-440,022	-76,688	-0,069	-0,017
-439,007	800,000	0,008	0,017
-437,992	-24,035	0,062	-0,027
-436,978	-200,000	0,020	0,121
-435,963	-122,982	0,059	-0,007
-434,949	571,926	-0,103	0,184
-433,934	255,216	-0,014	-0,017
-432,919	800,000	-0,017	0,042
-431,905	800,000	-0,033	0,068
-430,890	-64,440	0,108	-0,032
-429,876	245,182	-0,110	0,135
-428,861	-200,000	-0,001	0,055
-427,846	-200,000	0,006	-0,026
-426,832	-84,254	-0,118	-0,027
-425,817	441,032	0,026	0,042
-424,803	800,000	0,091	-0,194
-423,788	-200,000	-0,047	-0,162
-422,773	55,535	0,100	-0,071
-421,759	20,723	-0,052	-0,030
-420,744	-200,000	-0,002	-0,016
-419,730	-78,132	0,121	-0,030
-418,715	-179,022	-0,103	0,002
-417,701	-11,734	0,084	0,040
-416,686	800,000	0,015	0,033
-415,671	38,474	-0,038	0,024
-414,657	-200,000	0,007	0,246
-413,642	314,882	0,016	0,023
-412,628	800,000	-0,029	-0,091
-411,613	-191,524	0,067	-0,000
-410,598	-200,000	0,020	0,088
-409,584	557,279	-0,041	0,072
-408,569	-78,420	0,032	0,008
-407,555	-200,000	0,009	0,068
-406,540	800,000	-0,056	0,125
-405,525	172,196	-0,056	-0,059
-404,511	-50,839	0,107	-0,036
-403,496	162,463	-0,034	0,035
-402,482	143,737	-0,013	0,013
-401,467	800,000	0,037	0,090
-400,452	-13,532	0,067	-0,032
-399,438	-198,941	0,039	-0,000
-398,423	-109,825	0,071	0,011
-397,409	-70,798	-0,027	-0,007
-396,394	79,361	0,027	0,021
-395,379	168,789	0,083	-0,086
-394,365	-200,000	-0,015	-0,064
-393,350	-117,863	0,129	-0,017
-392,336	-200,000	-0,022	0,092
-391,321	2,151	-0,020	-0,010
-390,306	41,562	-0,056	0,037
-389,292	-200,000	-0,010	-0,060
-388,277	800,000	-0,015	0,034
-387,263	33,316	0,006	0,004
-386,248	313,958	0,089	-0,122
-385,233	-200,000	-0,003	-0,113
-384,219	-200,000	-0,015	0,049
-383,204	-66,609	-0,039	0,011
-382,190	434,708	-0,017	-0,027
-381,175	-200,000	-0,015	0,197
-380,160	-7,647	0,063	0,031
-379,146	91,377	0,069	0,056
-378,131	-74,082	-0,050	0,013
-377,117	152,252	0,095	0,094
-376,102	-200,000	0,007	0,040
-375,088	-111,464	-0,120	-0,018
-374,073	214,391	0,022	0,026
-373,058	800,000	0,025	-0,051
-372,044	99,540	-0,104	0,087
-371,029	261,937	0,030	0,037
-370,015	654,370	-0,041	0,077
-369,000	146,237	-0,080	0,078
-367,985	768,533	-0,024	-0,047
-366,971	-200,000	0,032	-0,119
-365,956	665,244	0,039	0,074
-364,942	221,636	0,109	0,127
-363,927	-45,919	-0,112	-0,040
-362,912	476,421	-0,030	0,050
-361,898	800,000	-0,032	0,100
-360,883	128,324	0,045	-0,041
-359,869	800,000	0,050	-0,131
-358,854	459,524	0,017	-0,027
-357,839	79,633	0,123	0,095
-356,825	-200,000	0,046	0,189
-355,810	-120,665	0,034	0,004
-354,796	-185,147	-0,121	-0,001
-353,781	-200,000	0,005	-0,125
-352,766	-200,000	0,044	-0,000
-351,752	258,746	0,112	-0,140
-350,737	-30,737	0,114	0,047
-349,723	403,484	0,047	-0,072
-348,708	323,610	0,042	-0,058
-347,693	-200,000	0,019	0,069
-346,679	69,588	-0,129	0,096
-345,664	14,135	0,047	-0,027
-344,650	284,827	0,042	0,055
-343,635	-200,000	0,026	0,101
-342,620	-18,391	0,053	0,024
-341,606	-200,000	0,005	0,150
-340,591	95,216	0,033	-0,027
-339,577	-73,216	0,133	-0,035
-338,562	49,024	0,063	0,043
-337,548	-57,309	-0,146	0,046
-336,533	763,706	0,046	-0,091
-335,518	286,335	-0,054	0,071
-334,504	636,942	0,028	0,052
-333,489	652,799	-0,067	-0,125
-332,475	14,298	-0,045	0,025
-331,460	483,701	-0,054	0,090
-330,445	-40,424	0,113	-0,042
-329,431	-148,327	-0,149	-0,009
-328,416	-30,532	0,119	-0,049
-327,402	91,342	-0,014	-0,011
-326,387	-11,745	0,044	-0,021
-325,372	-200,000	0,007	-0,023
-324,358	352,017	-0,034	0,050
-323,343	180,803	-0,072	-0,077
-322,329	800,000	-0,019	0,043
-321,314	166,763	0,091	0,094
-320,299	555,889	0,045	0,079
-319,285	586,413	0,032	-0,057
-318,270	-96,290	0,048	0,009
-317,256	-200,000	-0,032	0,213
-316,241	-200,000	0,002	-0,047
-315,226	172,421	0,012	-0,013
-314,212	71,756	-0,081	-0,061
-313,197	122,053	-0,050	-0,045
-312,183	199,527	0,029	0,032
-311,168	800,000	0,010	-0,032
-310,153	-200,000	0,009	-0,052
-309,139	-200,000	0,005	0,040
-308,124	469,681	0,058	0,095
-307,110	381,214	0,028	0,041
-306,095	-57,301	-0,057	0,018
-305,080	800,000	-0,068	-0,196
-304,066	546,197	-0,037	-0,065
-303,051	418,449	-0,044	0,068
-302,037	800,000	-0,024	0,052
-301,022	-94,193	0,085	0,017
-300,008	157,282	-0,010	-0,010
-298,993	-192,610	-0,030	-0,000
-297,978	-59,009	-0,076	-0,024
-296,964	-9,442	-0,071	-0,034
-295,949	-200,000	-0,001	-0,187
-294,935	12,227	-0,038	-0,021
-293,920	800,000	0,024	-0,060
-292,905	-132,120	0,078	-0,007
-291,891	748,710	0,019	0,038
-290,876	-108,856	0,105	0,016
-289,862	-200,000	0,000	-0,086
-288,847	-200,000	0,014	-0,090
-287,832	-115,334	0,052	-0,007
-286,818	241,739	0,079	0,095
-285,803	700,840	0,050	0,096
-284,789	-38,121	0,048	0,018
-283,774	-200,000	-0,012	0,057
-282,759	-69,247	0,027	0,007
-281,745	-95,529	-0,134	-0,026
-280,730	726,930	-0,050	-0,097
-279,716	386,926	0,078	-0,117
-278,701	56,158	0,031	0,022
-277,686	-200,000	0,015	0,065
-276,672	10,321	-0,079	0,043
-275,657	-200,000	-0,028	-0,119
-274,643	67,638	-0,116	-0,086
-273,628	-134,086	0,063	-0,006
-272,613	65,238	-0,013	0,009
-271,599	-190,661	0,149	-0,001
-270,584	144,845	-0,036	0,035
-269,570	-12,705	0,065	0,031
-268,555	-54,731	-0,069	0,022
-267,540	800,000	-0,065	-0,144
-266,526	-200,000	0,009	-0,197
-265,511	77,444	0,073	0,056
-264,497	-188,164	0,075	0,001
-263,482	800,000	0,021	-0,057
-262,467	-137,868	0,071	0,006
-261,453	-78,807	0,062	-0,015
-260,438	800,000	-0,049	-0,111
-259,424	167,844	0,069	-0,071
-258,409	-1,391	-0,162	0,082
-257,395	-200,000	-0,007	-0,057
-256,380	50,981	0,047	0,032
-255,365	-200,000	0,009	0,031
-254,351	-91,474	0,126	0,026
-253,336	-5,615	-0,091	-0,045
-252,322	544,561	0,055	-0,095
-251,307	800,000	0,030	-0,079
-250,292	-200,000	0,011	0,058
-249,278	-13,550	-0,108	0,050
-248,263	800,000	0,015	0,036
-247,249	334,597	0,055	-0,077
-246,234	-200,000	-0,069	0,000
-245,219	27,827	-0,124	0,075
-244,205	481,738	0,058	-0,096
-243,190	84,862	0,008	0,006
-242,176	158,899	0,101	0,101
-241,161	-200,000	0,010	0,075
-240,146	-36,327	-0,028	0,011
-239,132	-136,432	-0,063	0,005
-238,117	111,827	-0,048	0,042
-237,103	495,434	-0,026	-0,042
-236,088	-200,000	0,012	0,118
-235,073	-200,000	0,023	0,074
-234,059	348,803	0,025	0,035
-233,044	-200,000	0,028	0,101
-232,030	-200,000	0,015	0,065
-231,015	231,412	0,042	-0,049
-230,000	121,018	-0,017	-0,016
-228,986	-74,863	-0,020	-0,005
-227,971	318,400	-0,095	0,131
-226,957	149,786	-0,034	0,033
-225,942	-200,000	-0,005	0,079
-224,927	-200,000	0,004	0,017
-223,913	-200,000	-0,033	-0,132
-222,898	-14,231	-0,098	-0,046
-221,884	246,181	0,053	0,064
-220,869	652,331	0,012	-0,022
-219,855	-200,000	-0,011	0,050
-218,840	322,454	-0,012	0,017
-217,825	-200,000	-0,003	-0,009
-216,811	-34,935	-0,162	-0,064
-215,796	-10,644	0,137	-0,065
-214,782	-200,000	0,017	-0,078
-213,767	157,702	-0,099	0,099
-212,752	210,575	0,026	-0,030
-211,738	-200,000	-0,001	-0,023
-210,723	310,546	0,072	0,098
-209,709	76,010	0,037	-0,028
-208,694	395,325	0,035	-0,053
-207,679	-200,000	0,006	0,035
-206,665	-159,611	0,054	0,002
-205,650	148,684	0,111	-0,108
-204,636	800,000	-0,045	0,133
-203,621	800,000	-0,034	0,102
-202,606	800,000	-0,024	0,058
-201,592	64,804	-0,068	-0,050
-200,577	-139,475	0,038	0,003
-199,563	72,992	0,125	-0,094
-198,548	800,000	-0,004	-0,011
-197,533	24,722	-0,048	0,028
-196,519	800,000	-0,017	0,046
-195,504	792,905	0,035	-0,071
-194,490	609,455	-0,037	0,067
-193,475	-77,973	-0,050	0,012
-192,460	348,495	0,108	0,154
-191,446	-82,607	0,059	-0,014
-190,431	-60,920	-0,071	-0,022
-189,417	199,191	0,074	-0,082
-188,402	41,243	0,010	-0,007
-187,387	-108,987	-0,021	0,003
-186,373	800,000	0,009	0,027
-185,358	-65,845	-0,141	0,040
-184,344	422,815	-0,086	0,133
-183,329	-200,000	0,056	0,203
-182,315	-30,454	-0,084	0,034
-181,300	-20,059	0,033	-0,015
-180,285	-200,000	-0,002	-0,030
-179,271	-20,294	-0,130	-0,058
-178,256	319,538	0,054	-0,074
-177,242	588,871	0,086	-0,154
-176,227	-200,000	-0,013	0,112
-175,212	583,055	0,048	0,085
-174,198	85,056	-0,107	0,084
-173,183	100,478	-0,057	0,047
-172,169	24,567	-0,052	-0,031
-171,154	-200,000	0,025	-0,084
-170,139	-121,313	0,045	-0,005
-169,125	800,000	0,030	-0,087
-168,110	253,544	0,070	0,086
-167,096	-200,000	0,005	0,039
-166,081	-183,510	-0,272	0,003
-165,066	303,686	0,026	0,035
-164,052	-200,000	0,012	0,050
-163,037	-124,980	0,117	0,013
-162,023	769,746	-0,043	-0,085
-161,008	-72,760	-0,126	-0,033
-159,993	800,000	0,013	0,039
-158,979	-133,424	-0,076	0,007
-157,964	-23,982	0,160	-0,069
-156,950	800,000	-0,010	-0,020
-155,935	-75,874	0,144	-0,037
-154,920	-200,000	0,002	0,053
-153,906	196,634	0,075	0,083
-152,891	549,581	0,048	0,084
-151,877	62,124	-0,057	0,041
-150,862	-169,308	-0,116	-0,003
-149,847	164,383	-0,045	0,046
-148,833	-200,000	-0,004	-0,046
-147,818	800,000	-0,035	-0,086
-146,804	332,352	-0,033	0,046
-145,789	43,364	0,072	-0,047
-144,775	-89,032	-0,106	-0,022
-143,760	-85,395	0,032	-0,007
-142,745	800,000	-0,032	0,087
-141,731	-29,974	-0,117	-0,048
-140,716	78,454	-0,034	0,026
-139,702	276,013	-0,050	0,064
-138,687	800,000	-0,065	0,151
-137,672	800,000	0,022	-0,045
-136,658	-43,905	0,011	-0,004
-135,643	-0,794	-0,091	-0,046
-134,629	-170,433	0,117	-0,003
-133,614	-200,000	0,007	-0,090
-132,599	-41,421	-0,094	-0,035
-131,585	101,899	-0,166	-0,140
-130,570	800,000	-0,025	-0,080
-129,556	776,085	-0,035	0,070
-128,541	800,000	-0,035	-0,081
-127,526	26,162	0,152	0,091
-126,512	-200,000	0,025	-0,159
-125,497	800,000	0,012	0,033
-124,483	109,316	0,040	-0,035
-123,468	352,609	0,037	0,053
-122,453	74,726	0,024	-0,018
-121,439	800,000	-0,059	-0,186
-120,424	-45,301	0,124	-0,044
-119,410	-69,804	-0,133	0,036
-118,395	5,665	0,065	-0,034
