DTS Sentinel unit serial number:	SN410029Multiplexer serial number:	ORYXHardware model number:	OX2-SRSoftware version number:	ORYX F/W v4,00 Oryx Data Collector v3.7.2.0data status	okinstallation	B5 Nyhavnadifferential loss correction	single-endedforward channel	channel 2reverse channel	N/Adate	2023/12/13time	10:37:13forward acquisition time	300,00reverse acquisition time	0,00gamma	499,1914k internal	0,3160k external	0,3160temperature offset calibration	1,0000default loss term (dB/km)	0,3820temperature slope calibration	1,0000multiplexer offset coefficient	1,0000multiplexer slope coefficient	1,0000fibre end	0,00T internal ref (°C)	13,65T ext. ref 1 (°C)	-2,67T ext. ref 2 (°C)	-2,97length (m)	temperature (°C)	Stokes	anti-Stokes-744,400	800,000	0,053	0,143
-743,385	-70,351	-0,298	0,083
-742,371	-82,655	0,167	-0,040
-741,356	-172,893	-0,191	-0,004
-740,342	-113,777	0,244	0,035
-739,327	-178,131	-0,314	0,005
-738,312	209,831	0,137	0,158
-737,298	17,136	-0,282	-0,165
-736,283	-85,534	0,112	0,026
-735,269	-127,245	-0,189	0,020
-734,254	-66,713	0,017	0,005
-733,239	-115,507	-0,402	-0,055
-732,225	-80,527	0,119	-0,029
-731,210	164,806	0,017	-0,017
-730,196	-18,315	-0,069	-0,032
-729,181	163,502	-0,107	-0,111
-728,167	800,000	0,061	-0,156
-727,152	-149,560	0,029	0,002
-726,137	-200,000	-0,004	0,038
-725,123	734,673	-0,059	-0,117
-724,108	-25,780	-0,123	0,053
-723,094	33,564	-0,065	-0,042
-722,079	-200,000	0,044	-0,168
-721,064	45,316	0,060	0,040
-720,050	-88,386	0,096	-0,021
-719,035	800,000	-0,011	-0,032
-718,021	800,000	-0,028	-0,072
-717,006	-51,981	-0,167	-0,057
-715,991	600,147	0,044	-0,080
-714,977	144,803	-0,083	0,081
-713,962	142,195	-0,082	-0,080
-712,948	-41,463	0,017	0,007
-711,933	-200,000	0,029	0,154
-710,918	-200,000	0,042	0,211
-709,904	-200,000	0,029	-0,103
-708,889	-70,025	-0,064	-0,018
-707,875	-200,000	0,001	0,006
-706,860	148,976	0,068	-0,067
-705,845	-200,000	-0,002	0,043
-704,831	-61,874	0,045	0,014
-703,816	371,866	-0,040	0,060
-702,802	-30,444	0,119	0,050
-701,787	800,000	0,050	-0,132
-700,772	-96,412	-0,043	-0,008
-699,758	-54,556	0,137	0,045
-698,743	-200,000	0,011	0,041
-697,729	32,713	0,067	0,043
-696,714	-132,482	0,071	-0,007
-695,699	-200,000	0,044	-0,239
-694,685	296,253	-0,119	-0,160
-693,670	-200,000	0,003	0,026
-692,656	-200,000	-0,012	0,068
-691,641	-174,518	0,124	0,003
-690,627	-200,000	0,029	0,179
-689,612	220,993	-0,068	-0,080
-688,597	70,535	0,073	0,055
-687,583	-200,000	-0,002	-0,087
-686,568	40,515	-0,104	0,069
-685,554	194,771	-0,038	-0,043
-684,539	-88,742	-0,136	-0,029
-683,524	23,050	-0,030	0,018
-682,510	525,027	-0,028	0,049
-681,495	-28,923	0,099	-0,042
-680,481	-157,037	-0,046	-0,002
-679,466	283,217	-0,176	-0,233
-678,451	-200,000	-0,006	0,093
-677,437	800,000	-0,084	-0,178
-676,422	-98,711	0,131	0,024
-675,408	262,689	0,058	-0,075
-674,393	-200,000	0,011	0,091
-673,378	800,000	0,042	0,100
-672,364	-74,190	-0,218	0,058
-671,349	-200,000	0,020	-0,123
-670,335	698,606	-0,061	0,119
-669,320	26,842	-0,075	-0,046
-668,305	-56,914	-0,105	-0,034
-667,291	193,666	-0,023	-0,026
-666,276	316,445	-0,063	-0,088
-665,262	-200,000	-0,009	-0,067
-664,247	-200,000	0,004	-0,058
-663,232	-200,000	0,012	0,093
-662,218	-108,365	0,116	-0,018
-661,203	-10,235	0,095	-0,046
-660,189	800,000	0,021	0,067
-659,174	-112,723	-0,017	-0,003
-658,159	-132,356	-0,112	0,011
-657,145	152,349	-0,062	0,062
-656,130	-200,000	-0,001	0,046
-655,116	800,000	-0,058	-0,134
-654,101	-8,522	-0,066	-0,032
-653,086	-69,838	-0,046	0,013
-652,072	-200,000	-0,018	0,059
-651,057	-37,068	-0,078	0,030
-650,043	139,534	-0,046	-0,044
-649,028	468,351	0,085	0,140
-648,014	-14,027	0,122	-0,058
-646,999	-106,823	0,093	-0,015
-645,984	94,948	0,065	0,054
-644,970	152,328	-0,111	-0,111
-643,955	-39,799	-0,041	-0,016
-642,941	16,208	-0,096	-0,056
-641,926	-64,104	-0,109	0,032
-640,911	-132,332	0,060	-0,006
-639,897	112,978	0,103	-0,092
-638,882	-141,707	-0,137	-0,010
-637,868	-43,640	-0,122	-0,045
-636,853	800,000	0,064	-0,145
-635,838	-200,000	0,006	0,039
-634,824	-83,347	-0,090	-0,021
-633,809	186,629	0,150	0,164
-632,795	528,933	-0,057	0,099
-631,780	89,696	0,045	0,036
-630,765	137,783	-0,018	-0,018
-629,751	-200,000	-0,000	-0,237
-628,736	360,313	0,018	-0,027
-627,722	49,441	0,088	-0,061
-626,707	-128,806	0,133	-0,014
-625,692	-200,000	0,011	0,084
-624,678	170,097	0,007	-0,008
-623,663	-92,526	-0,138	0,028
-622,649	342,690	-0,049	-0,071
-621,634	-200,000	0,009	-0,045
-620,619	161,452	-0,088	-0,090
-619,605	800,000	0,058	0,123
-618,590	-200,000	-0,019	-0,104
-617,576	-18,428	-0,118	0,054
-616,561	91,919	-0,049	0,041
-615,546	-17,894	-0,079	0,036
-614,532	111,197	0,063	-0,056
-613,517	800,000	0,032	-0,103
-612,503	800,000	-0,055	-0,119
-611,488	-200,000	0,003	0,050
-610,474	102,814	-0,044	0,038
-609,459	-82,310	-0,117	-0,028
-608,444	90,929	0,051	-0,042
-607,430	-135,682	-0,075	0,006
-606,415	-117,675	0,022	0,003
-605,401	-124,789	0,138	0,015
-604,386	800,000	-0,027	0,057
-603,371	-200,000	-0,039	-0,151
-602,357	-200,000	0,005	0,071
-601,342	800,000	0,020	-0,065
-600,328	72,651	0,029	0,022
-599,313	200,465	-0,084	-0,095
-598,298	-200,000	-0,005	-0,018
-597,284	800,000	-0,059	0,141
-596,269	800,000	-0,056	0,153
-595,255	-200,000	-0,020	-0,097
-594,240	800,000	-0,014	-0,028
-593,225	800,000	0,019	-0,050
-592,211	-200,000	-0,043	-0,000
-591,196	-10,860	0,127	-0,061
-590,182	-200,000	0,006	0,030
-589,167	326,746	-0,031	-0,044
-588,152	800,000	0,024	-0,074
-587,138	-200,000	-0,001	-0,120
-586,123	-200,000	-0,011	-0,069
-585,109	-164,838	-0,099	0,003
-584,094	-200,000	-0,017	-0,077
-583,079	-200,000	0,018	-0,087
-582,065	37,177	-0,075	0,049
-581,050	157,200	0,026	-0,026
-580,036	800,000	-0,030	0,087
-579,021	-111,999	-0,057	-0,008
-578,006	800,000	-0,050	-0,159
-576,992	-109,531	-0,076	0,012
-575,977	-90,368	-0,048	0,010
-574,963	-133,579	0,088	0,008
-573,948	50,487	-0,035	0,024
-572,934	800,000	0,027	0,060
-571,919	80,298	0,027	0,021
-570,904	57,618	0,066	-0,047
-569,890	-200,000	0,002	-0,109
-568,875	800,000	0,043	0,124
-567,861	-57,811	0,128	0,041
-566,846	289,454	0,021	-0,028
-565,831	46,103	0,074	0,050
-564,817	-200,000	0,025	-0,098
-563,802	-18,406	-0,105	-0,048
-562,788	105,567	-0,092	-0,080
-561,773	-196,469	0,121	-0,001
-560,758	279,539	-0,033	-0,043
-559,744	1,942	-0,102	0,054
-558,729	-200,000	-0,020	0,154
-557,715	-200,000	-0,006	-0,084
-556,700	800,000	0,051	-0,130
-555,685	-200,000	-0,013	0,085
-554,671	-200,000	0,007	0,055
-553,656	238,305	0,099	0,120
-552,642	-130,370	0,051	0,005
-551,627	800,000	0,028	0,088
-550,612	-102,656	-0,228	-0,039
-549,598	-6,366	-0,092	-0,046
-548,583	-14,284	0,078	0,037
-547,569	-200,000	0,014	0,078
-546,554	105,705	-0,042	-0,036
-545,539	127,012	0,060	0,055
-544,525	47,278	-0,097	0,066
-543,510	-18,397	0,060	0,027
-542,496	-112,175	-0,113	-0,016
-541,481	337,229	0,017	-0,025
-540,466	58,343	0,092	-0,066
-539,452	52,071	0,005	0,003
-538,437	119,331	0,073	-0,066
-537,423	-69,156	-0,160	-0,045
-536,408	430,701	0,083	-0,132
-535,393	-200,000	0,007	-0,038
-534,379	-109,662	-0,083	0,013
-533,364	-200,000	0,037	0,119
-532,350	-75,131	0,047	0,012
-531,335	104,983	-0,061	0,053
-530,321	387,369	-0,052	-0,079
-529,306	132,621	-0,042	0,040
-528,291	-63,748	-0,208	-0,062
-527,277	-56,526	0,154	-0,050
-526,262	-145,284	-0,110	0,007
-525,248	800,000	-0,012	0,031
-524,233	800,000	0,031	0,097
-523,218	121,694	-0,019	0,017
-522,204	368,621	-0,042	-0,063
-521,189	-88,854	-0,137	0,029
-520,175	-66,805	0,078	-0,022
-519,160	88,031	-0,018	-0,015
-518,145	-79,708	-0,140	-0,034
-517,131	-157,491	0,167	-0,007
-516,116	-97,926	0,070	0,013
-515,102	-200,000	-0,002	-0,078
-514,087	800,000	-0,036	-0,083
-513,072	656,402	0,023	-0,043
-512,058	114,819	-0,054	0,048
-511,043	232,583	0,052	0,063
-510,029	68,092	0,034	0,025
-509,014	20,137	0,037	0,021
-507,999	-52,732	-0,018	0,006
-506,985	141,345	-0,073	-0,070
-505,970	-200,000	0,012	-0,084
-504,956	-200,000	-0,015	-0,093
-503,941	-17,608	0,103	-0,047
-502,926	-200,000	-0,009	-0,047
-501,912	-47,288	0,115	-0,041
-500,897	-107,434	-0,076	-0,012
-499,883	-200,000	-0,036	0,127
-498,868	369,638	-0,087	-0,128
-497,853	-200,000	0,005	0,073
-496,839	396,100	0,106	-0,161
-495,824	130,055	0,054	-0,050
-494,810	277,022	0,071	-0,093
-493,795	-200,000	-0,028	0,121
-492,781	193,371	-0,055	-0,061
-491,766	-200,000	-0,012	-0,064
-490,751	42,397	-0,133	0,088
-489,737	-123,949	0,078	0,009
-488,722	-111,872	-0,088	-0,013
-487,708	66,903	0,073	-0,054
-486,693	334,863	-0,018	-0,026
-485,678	-50,433	-0,083	0,028
-484,664	-97,772	-0,150	-0,028
-483,649	102,178	0,023	-0,020
-482,635	322,538	-0,071	-0,098
-481,620	169,634	-0,073	-0,076
-480,605	-135,584	0,056	0,005
-479,591	82,424	-0,027	-0,021
-478,576	137,042	-0,029	0,027
-477,562	-111,802	-0,149	-0,022
-476,547	221,505	0,063	0,074
-475,532	-200,000	-0,000	0,041
-474,518	800,000	-0,044	-0,133
-473,503	28,354	-0,088	0,054
-472,489	613,136	0,052	0,095
-471,474	800,000	0,013	-0,038
-470,459	92,928	0,079	0,065
-469,445	82,163	-0,044	0,035
-468,430	186,077	-0,067	-0,072
-467,416	-200,000	-0,010	-0,088
-466,401	-200,000	-0,007	0,030
-465,386	-200,000	-0,007	-0,071
-464,372	-200,000	0,003	-0,107
-463,357	800,000	-0,046	-0,136
-462,343	52,041	-0,155	0,108
-461,328	513,204	0,032	-0,054
-460,313	166,590	-0,034	0,035
-459,299	101,406	0,085	-0,072
-458,284	139,088	0,074	0,070
-457,270	-71,739	0,157	0,042
-456,255	800,000	-0,032	0,075
-455,241	800,000	-0,021	-0,046
-454,226	-172,785	-0,118	-0,003
-453,211	800,000	-0,026	0,072
-452,197	-200,000	-0,015	-0,068
-451,182	-200,000	0,022	-0,099
-450,168	15,917	-0,136	0,078
-449,153	142,174	0,090	0,087
-448,138	-200,000	0,023	-0,102
-447,124	-48,843	-0,091	-0,031
-446,109	-200,000	0,015	-0,121
-445,095	-200,000	-0,003	0,124
-444,080	347,947	0,034	0,048
-443,065	-200,000	0,003	0,150
-442,051	-60,381	-0,040	0,012
-441,036	-200,000	0,009	0,045
-440,022	372,557	0,061	-0,090
-439,007	-53,848	0,190	-0,063
-437,992	800,000	0,013	-0,027
-436,978	428,223	0,074	0,117
-435,963	-6,153	0,075	-0,037
-434,949	6,702	-0,066	-0,035
-433,934	-43,609	-0,053	-0,019
-432,919	-136,040	-0,080	0,007
-431,905	-200,000	0,016	-0,064
-430,890	113,421	0,086	-0,076
-429,876	469,964	0,039	0,063
-428,861	494,092	0,042	0,071
-427,846	133,379	-0,098	-0,092
-426,832	-200,000	0,018	-0,124
-425,817	87,173	-0,068	-0,055
-424,803	10,589	0,110	0,061
-423,788	-200,000	0,001	0,032
-422,773	-27,002	0,006	-0,002
-421,759	-83,893	-0,047	0,011
-420,744	800,000	0,052	0,130
-419,730	-95,428	0,051	-0,010
-418,715	96,297	-0,097	-0,081
-417,701	-200,000	-0,011	0,117
-416,686	-200,000	0,002	0,035
-415,671	59,018	0,088	0,063
-414,657	-13,273	0,159	0,075
-413,642	-200,000	0,010	-0,033
-412,628	-119,960	0,058	-0,007
-411,613	349,635	0,021	-0,030
-410,598	463,116	0,018	-0,029
-409,584	10,833	0,194	0,107
-408,569	-200,000	-0,024	0,123
-407,555	23,499	-0,076	0,045
-406,540	93,767	-0,058	-0,047
-405,525	-14,036	0,104	-0,048
-404,511	-200,000	0,004	-0,043
-403,496	-200,000	0,019	-0,081
-402,482	-200,000	0,010	-0,107
-401,467	800,000	-0,026	0,061
-400,452	800,000	0,044	0,111
-399,438	-155,554	0,163	-0,007
-398,423	612,050	-0,072	0,131
-397,409	651,083	-0,063	-0,117
-396,394	-200,000	-0,001	-0,079
-395,379	-200,000	-0,002	-0,166
-394,365	-33,527	-0,109	-0,043
-393,350	629,186	-0,087	0,161
-392,336	-81,123	0,069	0,016
-391,321	51,108	0,072	0,049
-390,306	182,166	-0,027	0,029
-389,292	-58,959	0,072	-0,023
-388,277	-12,319	-0,049	-0,023
-387,263	-86,469	-0,091	-0,020
-386,248	-200,000	0,090	0,000
-385,233	-200,000	0,033	-0,168
-384,219	-200,000	0,003	-0,100
-383,204	88,627	-0,069	0,056
-382,190	265,550	0,136	0,173
-381,175	-200,000	-0,019	0,185
-380,160	-28,306	-0,047	0,020
-379,146	-40,310	0,152	-0,057
-378,131	330,369	0,052	0,073
-377,117	-81,901	-0,052	-0,012
-376,102	-169,299	0,059	0,002
-375,088	-13,981	-0,043	-0,020
-374,073	-82,466	-0,146	0,034
-373,058	392,900	0,038	-0,058
-372,044	121,052	-0,057	0,052
-371,029	-200,000	-0,003	0,030
-370,015	242,895	0,055	0,067
-369,000	-98,976	-0,183	0,033
-367,985	-37,098	0,088	0,034
-366,971	-200,000	0,006	0,054
-365,956	45,267	0,176	-0,118
-364,942	214,827	0,034	-0,039
-363,927	-117,559	-0,142	0,018
-362,912	-134,464	-0,146	0,013
-361,898	122,420	0,050	-0,045
-360,883	97,197	-0,050	-0,042
-359,869	197,114	-0,084	-0,093
-358,854	-51,112	0,044	-0,015
-357,839	108,478	0,098	0,085
-356,825	-72,716	0,114	0,030
-355,810	-200,000	-0,016	-0,099
-354,796	800,000	-0,030	-0,060
-353,781	-200,000	0,007	-0,105
-352,766	-200,000	-0,028	-0,206
-351,752	800,000	0,022	-0,053
-350,737	-79,286	0,091	0,022
-349,723	33,587	0,106	-0,066
-348,708	-106,540	-0,104	0,017
-347,693	-200,000	-0,005	-0,035
-346,679	67,527	-0,133	-0,099
-345,664	-21,260	-0,114	-0,050
-344,650	26,926	-0,071	0,043
-343,635	-31,577	0,099	0,040
-342,620	-200,000	-0,012	-0,060
-341,606	21,810	0,070	-0,041
-340,591	198,360	0,058	-0,064
-339,577	0,808	-0,090	0,046
-338,562	-200,000	-0,009	0,044
-337,548	-117,106	0,065	0,008
-336,533	-59,218	0,101	0,031
-335,518	-200,000	-0,013	-0,121
-334,504	-122,502	-0,066	0,008
-333,489	800,000	-0,057	-0,133
-332,475	-122,817	0,027	-0,003
-331,460	598,475	-0,053	-0,096
-330,445	-200,000	0,024	0,083
-329,431	454,450	0,037	-0,059
-328,416	800,000	-0,048	0,143
-327,402	-46,792	-0,047	-0,016
-326,387	-200,000	-0,019	0,094
-325,372	-200,000	0,009	0,118
-324,358	210,027	-0,109	-0,124
-323,343	800,000	0,059	0,134
-322,329	1,329	0,005	-0,003
-321,314	92,250	0,156	0,127
-320,299	61,311	-0,036	0,026
-319,285	-200,000	-0,008	-0,091
-318,270	800,000	-0,056	0,145
-317,256	-110,878	0,015	0,002
-316,241	800,000	-0,030	-0,072
-315,226	-124,055	-0,102	0,011
-314,212	67,663	0,108	-0,080
-313,197	800,000	-0,034	0,100
-312,183	800,000	0,038	0,122
-311,168	353,864	-0,041	-0,059
-310,153	23,475	-0,057	-0,034
-309,139	615,028	0,009	-0,016
-308,124	-200,000	-0,006	-0,060
-307,110	-200,000	0,026	0,106
-306,095	397,827	-0,008	-0,012
-305,080	800,000	0,030	0,067
-304,066	-200,000	-0,008	-0,107
-303,051	800,000	-0,011	-0,034
-302,037	-200,000	-0,013	0,053
-301,022	125,868	0,023	0,021
-300,008	135,899	0,028	-0,026
-298,993	-200,000	0,007	0,094
-297,978	741,904	0,027	0,053
-296,964	-200,000	-0,015	-0,048
-295,949	-200,000	-0,002	-0,075
-294,935	-200,000	-0,016	-0,074
-293,920	31,406	0,058	-0,036
-292,905	-200,000	-0,040	0,150
-291,891	-6,572	0,017	0,008
-290,876	-100,888	0,144	0,025
-289,862	314,795	-0,093	0,127
-288,847	54,649	0,011	-0,007
-287,832	-29,787	0,006	-0,002
-286,818	68,353	0,064	-0,047
-285,803	23,424	0,141	-0,084
-284,789	-200,000	-0,024	0,101
-283,774	800,000	-0,027	0,066
-282,759	-200,000	-0,001	-0,026
-281,745	169,451	-0,037	0,038
-280,730	-200,000	-0,003	-0,131
-279,716	288,800	0,059	-0,078
-278,701	-59,009	-0,114	0,035
-277,686	-149,510	-0,040	0,002
-276,672	-133,859	0,176	0,016
-275,657	-32,583	0,132	-0,053
-274,643	-107,540	-0,107	0,017
-273,628	-200,000	0,010	-0,081
-272,613	462,489	-0,041	-0,067
-271,599	195,340	0,087	-0,095
-270,584	-200,000	-0,009	-0,067
-269,570	-46,298	-0,036	-0,013
-268,555	800,000	-0,044	0,096
-267,540	-3,872	0,126	0,063
-266,526	108,905	-0,100	0,086
-265,511	-148,507	0,075	-0,004
-264,497	-200,000	0,016	0,086
-263,482	134,823	-0,011	0,011
-262,467	-153,378	-0,143	0,007
-261,453	-93,675	-0,152	0,030
-260,438	25,824	-0,113	0,068
-259,424	800,000	-0,019	0,056
-258,409	800,000	-0,036	0,106
-257,395	657,903	-0,044	0,082
-256,380	800,000	-0,048	0,117
-255,365	17,680	0,154	0,088
-254,351	-163,986	-0,142	0,005
-253,336	-200,000	0,022	-0,089
-252,322	-47,448	-0,071	0,025
-251,307	61,844	0,142	0,102
-250,292	169,534	0,062	0,064
-249,278	800,000	-0,043	0,098
-248,263	-200,000	-0,010	0,160
-247,249	47,331	0,080	0,054
-246,234	-200,000	-0,016	-0,099
-245,219	90,795	-0,080	0,065
-244,205	80,779	0,133	0,103
-243,190	2,534	0,059	-0,031
-242,176	147,379	0,032	0,031
-241,161	149,217	0,053	-0,052
-240,146	-200,000	-0,006	0,028
-239,132	-200,000	-0,005	0,070
-238,117	644,957	0,039	0,072
-237,103	402,353	0,092	0,140
-236,088	-200,000	-0,016	-0,106
-235,073	-200,000	0,029	0,122
-234,059	-200,000	0,014	-0,082
-233,044	-34,740	-0,048	0,019
-232,030	350,602	0,034	0,049
-231,015	-118,715	-0,150	0,019
-230,000	181,533	-0,068	-0,072
-228,986	256,798	0,025	-0,031
-227,971	-200,000	-0,016	-0,061
-226,957	15,201	0,076	-0,043
-225,942	53,675	0,107	0,074
-224,927	28,846	0,027	-0,016
-223,913	118,334	-0,056	-0,050
-222,898	1,139	-0,167	-0,086
-221,884	-200,000	-0,005	0,106
-220,869	-9,361	-0,046	0,022
-219,855	223,690	-0,073	0,085
-218,840	361,080	0,121	0,175
-217,825	-120,243	-0,071	-0,009
-216,811	96,793	-0,144	-0,119
-215,796	164,186	-0,055	-0,056
-214,782	166,862	0,068	0,070
-213,767	-200,000	0,031	0,177
-212,752	-10,756	0,091	0,043
-211,738	800,000	0,024	0,076
-210,723	800,000	0,027	0,068
-209,709	246,588	-0,112	-0,137
-208,694	800,000	0,081	-0,167
-207,679	8,339	-0,009	-0,005
-206,665	439,509	0,045	0,072
-205,650	609,610	-0,032	0,058
-204,636	32,715	0,095	-0,059
-203,621	340,411	0,087	-0,123
-202,606	16,124	-0,084	-0,048
-201,592	32,652	0,045	0,028
-200,577	118,955	0,070	-0,063
-199,563	800,000	-0,004	-0,008
-198,548	640,756	0,012	-0,021
-197,533	-16,036	0,065	-0,030
-196,519	94,999	0,077	-0,063
-195,504	221,457	-0,094	-0,109
-194,490	-83,842	-0,126	-0,029
-193,475	-200,000	-0,004	-0,064
-192,460	113,469	-0,015	0,013
-191,446	-200,000	-0,022	-0,086
-190,431	-200,000	0,002	0,136
-189,417	800,000	0,041	0,102
-188,402	215,277	0,075	0,086
-187,387	206,609	-0,056	-0,062
-186,373	48,904	0,028	0,019
-185,358	-200,000	0,005	-0,069
-184,344	129,906	0,135	0,125
-183,329	-11,691	-0,062	0,029
-182,315	-110,668	0,069	0,010
-181,300	20,049	0,078	-0,045
-180,285	-200,000	0,004	0,031
-179,271	156,303	0,086	0,086
-178,256	-119,918	0,193	-0,024
-177,242	-200,000	0,012	0,203
-176,227	800,000	0,044	0,099
-175,212	-128,840	0,059	-0,006
-174,198	-200,000	0,010	0,041
-173,183	-138,177	0,109	0,009
-172,169	800,000	-0,011	-0,033
-171,154	-10,124	-0,048	0,023
-170,139	-200,000	-0,018	0,127
-169,125	38,620	0,112	0,072
-168,110	574,178	0,055	0,097
-167,096	-94,085	-0,069	0,013
-166,081	-141,321	-0,101	0,007
-165,066	-157,777	0,045	-0,002
-164,052	800,000	-0,051	0,142
-163,037	69,917	-0,078	0,058
-162,023	-21,328	0,113	-0,049
-161,008	-200,000	0,007	0,067
-159,993	-200,000	-0,001	0,147
-158,979	45,703	0,017	-0,011
-157,964	528,995	-0,094	-0,161
-156,950	199,466	0,089	-0,099
-155,935	-97,739	0,014	-0,003
-154,920	800,000	0,068	0,139
-153,906	-65,869	-0,046	-0,013
-152,891	-61,598	-0,107	-0,032
-151,877	-200,000	-0,006	0,116
-150,862	-90,177	-0,044	0,009
-149,847	-188,192	-0,150	-0,001
-148,833	-47,882	0,139	0,048
-147,818	16,691	0,106	-0,060
-146,804	338,857	-0,050	0,071
-145,789	339,684	0,033	0,047
-144,775	-200,000	-0,015	0,089
-143,760	-160,423	-0,069	-0,003
-142,745	-20,645	-0,052	-0,023
-141,731	438,819	0,025	-0,040
-140,716	86,420	-0,022	-0,017
-139,702	-89,425	0,026	-0,005
-138,687	155,813	-0,030	0,029
-137,672	112,525	0,059	-0,051
-136,658	-64,455	-0,067	0,020
-135,643	99,746	0,029	-0,024
-134,629	-200,000	-0,003	-0,119
-133,614	-60,863	0,229	-0,069
-132,599	471,673	0,094	0,153
-131,585	-24,023	-0,134	0,058
-130,570	-53,718	0,084	0,028
-129,556	-200,000	-0,006	-0,037
-128,541	-76,245	0,038	0,010
-127,526	-200,000	-0,035	-0,122
-126,512	52,051	0,123	0,084
-125,497	197,789	0,094	0,103
-124,483	-200,000	-0,003	-0,019
-123,468	800,000	0,031	-0,073
-122,453	-148,514	-0,322	-0,019
-121,439	208,337	-0,050	0,056
-120,424	212,494	-0,023	0,026
