DTS Sentinel unit serial number:	SN410029Multiplexer serial number:	ORYXHardware model number:	OX2-SRSoftware version number:	ORYX F/W v4,00 Oryx Data Collector v3.7.2.0data status	okinstallation	B5 Nyhavnadifferential loss correction	single-endedforward channel	channel 2reverse channel	N/Adate	2023/12/14time	17:37:13forward acquisition time	300,00reverse acquisition time	0,00gamma	499,1914k internal	0,3157k external	0,3157temperature offset calibration	1,0000default loss term (dB/km)	0,3820temperature slope calibration	1,0000multiplexer offset coefficient	1,0000multiplexer slope coefficient	1,0000fibre end	0,00T internal ref (°C)	8,27T ext. ref 1 (°C)	-7,13T ext. ref 2 (°C)	-7,20length (m)	temperature (°C)	Stokes	anti-Stokes-744,400	743,682	0,037	0,074
-743,385	-42,081	-0,201	-0,076
-742,371	161,869	0,165	0,170
-741,356	4,817	-0,229	-0,124
-740,342	-84,492	0,067	0,016
-739,327	-79,597	-0,363	-0,090
-738,312	-124,358	0,069	0,008
-737,298	-39,497	-0,451	-0,173
-736,283	-200,000	-0,000	0,110
-735,269	-61,745	-0,398	-0,122
-734,254	78,697	0,141	0,111
-733,239	-18,235	-0,514	-0,236
-732,225	116,251	0,234	0,211
-731,210	-64,029	0,115	-0,034
-730,196	241,340	-0,033	0,041
-729,181	119,191	-0,026	0,023
-728,167	103,025	-0,055	-0,047
-727,152	97,752	-0,006	0,005
-726,137	106,067	0,076	-0,066
-725,123	-200,000	-0,002	-0,048
-724,108	-11,913	-0,080	-0,038
-723,094	-200,000	-0,015	0,068
-722,079	6,996	-0,079	-0,043
-721,064	-24,725	0,081	-0,035
-720,050	81,021	0,088	0,070
-719,035	-61,377	-0,060	0,018
-718,021	43,974	-0,031	-0,021
-717,006	-14,229	0,085	-0,040
-715,991	-72,523	-0,033	-0,009
-714,977	470,569	-0,082	0,136
-713,962	-30,387	-0,113	-0,047
-712,948	-200,000	-0,002	0,026
-711,933	-195,264	0,041	0,000
-710,918	-154,363	-0,059	-0,003
-709,904	-200,000	-0,000	-0,036
-708,889	597,824	-0,081	-0,149
-707,875	-162,823	-0,123	0,004
-706,860	-47,893	0,025	-0,009
-705,845	118,091	0,048	0,043
-704,831	-88,841	0,180	0,039
-703,816	-130,017	-0,105	-0,010
-702,802	94,503	-0,062	-0,052
-701,787	52,626	-0,107	0,075
-700,772	469,020	0,090	0,149
-699,758	279,544	-0,005	0,006
-698,743	-200,000	0,008	0,035
-697,729	726,010	0,033	0,064
-696,714	-147,481	-0,047	0,003
-695,699	-30,964	-0,174	-0,072
-694,685	153,414	-0,129	-0,130
-693,670	-73,076	-0,105	-0,028
-692,656	111,852	0,079	-0,070
-691,641	800,000	-0,049	-0,101
-690,627	800,000	0,020	0,044
-689,612	-29,886	0,010	-0,004
-688,597	-198,664	-0,121	0,000
-687,583	-84,273	-0,206	-0,048
-686,568	-200,000	0,023	-0,132
-685,554	-83,936	-0,086	-0,020
-684,539	800,000	-0,011	-0,025
-683,524	-14,912	-0,047	0,022
-682,510	800,000	0,028	-0,060
-681,495	-68,264	-0,131	0,037
-680,481	22,351	0,055	0,033
-679,466	-141,913	-0,088	-0,006
-678,451	-200,000	-0,011	-0,105
-677,437	-200,000	0,002	0,056
-676,422	800,000	0,021	-0,065
-675,408	200,774	-0,053	0,061
-674,393	613,973	0,026	-0,049
-673,378	-47,293	0,049	-0,017
-672,364	350,146	-0,008	-0,011
-671,349	-200,000	-0,005	-0,108
-670,335	-148,266	0,090	-0,005
-669,320	800,000	0,035	-0,089
-668,305	-88,267	-0,101	-0,022
-667,291	-123,074	0,147	-0,017
-666,276	-46,409	0,025	0,009
-665,262	-20,689	-0,114	-0,051
-664,247	-200,000	-0,013	-0,068
-663,232	737,157	-0,076	-0,150
-662,218	223,758	-0,069	0,082
-661,203	96,152	0,077	0,065
-660,189	-60,685	0,069	0,021
-659,174	333,589	0,029	0,041
-658,159	35,161	-0,035	0,023
-657,145	231,640	-0,077	-0,093
-656,130	6,399	0,073	0,039
-655,116	47,688	-0,112	-0,077
-654,101	-127,246	-0,092	0,010
-653,086	-49,178	0,024	0,008
-652,072	-200,000	-0,002	-0,076
-651,057	492,678	-0,033	-0,056
-650,043	-200,000	-0,003	0,066
-649,028	-109,244	0,039	0,006
-648,014	-37,030	0,046	-0,018
-646,999	-82,048	-0,049	-0,012
-645,984	-200,000	0,010	-0,063
-644,970	-117,916	-0,152	0,020
-643,955	69,044	-0,083	-0,063
-642,941	8,153	-0,060	-0,033
-641,926	-55,886	0,177	0,058
-640,911	-23,631	-0,137	0,060
-639,897	392,047	-0,039	0,060
-638,882	-169,157	0,081	-0,002
-637,868	685,243	-0,049	-0,094
-636,853	800,000	-0,019	-0,059
-635,838	-200,000	-0,018	-0,135
-634,824	-99,882	0,044	-0,008
-633,809	-79,470	0,121	-0,030
-632,795	216,285	-0,043	0,051
-631,780	-200,000	-0,004	-0,116
-630,765	800,000	-0,023	-0,058
-629,751	-74,819	-0,075	0,020
-628,736	-165,762	-0,094	0,003
-627,722	-200,000	-0,001	-0,148
-626,707	-114,767	0,081	-0,011
-625,692	158,254	-0,023	-0,024
-624,678	800,000	-0,099	-0,223
-623,663	174,741	0,068	-0,072
-622,649	-139,898	-0,054	0,004
-621,634	-57,379	-0,025	-0,008
-620,619	282,333	0,033	0,043
-619,605	-77,235	0,086	0,022
-618,590	-41,945	0,035	-0,013
-617,576	-37,575	-0,081	-0,032
-616,561	191,527	0,045	0,050
-615,546	800,000	-0,076	0,180
-614,532	499,994	0,100	-0,170
-613,517	-21,843	-0,079	-0,035
-612,503	-5,149	-0,122	0,061
-611,488	-38,081	-0,064	0,025
-610,474	23,566	0,160	0,096
-609,459	-62,169	-0,049	-0,015
-608,444	208,110	-0,047	0,054
-607,430	-200,000	0,023	0,094
-606,415	51,072	0,051	-0,035
-605,401	681,680	0,032	-0,061
-604,386	449,220	-0,045	0,074
-603,371	35,427	-0,048	0,031
-602,357	-91,841	0,005	0,001
-601,342	181,272	-0,049	-0,053
-600,328	-38,514	-0,085	-0,033
-599,313	248,830	-0,100	-0,124
-598,298	178,298	0,071	-0,076
-597,284	170,358	-0,060	-0,063
-596,269	-26,012	-0,075	-0,032
-595,255	92,854	0,108	-0,090
-594,240	-69,417	-0,152	-0,042
-593,225	258,613	-0,077	-0,098
-592,211	-109,450	-0,078	-0,012
-591,196	-200,000	0,002	-0,019
-590,182	323,686	-0,028	0,039
-589,167	-200,000	0,017	-0,089
-588,152	-43,267	0,100	-0,037
-587,138	-108,575	-0,054	0,008
-586,123	139,287	-0,068	0,066
-585,109	800,000	0,029	-0,070
-584,094	24,542	-0,083	0,050
-583,079	334,120	0,038	-0,054
-582,065	-200,000	-0,007	-0,048
-581,050	800,000	-0,020	-0,059
-580,036	-128,843	-0,221	-0,022
-579,021	123,919	0,180	-0,166
-578,006	149,972	-0,101	0,100
-576,992	353,669	0,043	0,063
-575,977	590,927	0,027	-0,049
-574,963	304,768	0,078	0,106
-573,948	108,162	-0,071	-0,062
-572,934	-62,183	0,069	-0,021
-571,919	24,665	-0,171	-0,104
-570,904	800,000	-0,044	-0,099
-569,890	26,799	-0,085	-0,052
-568,875	-200,000	-0,002	0,072
-567,861	-128,152	0,056	-0,006
-566,846	800,000	0,034	0,084
-565,831	-157,503	-0,095	-0,004
-564,817	-61,121	-0,164	-0,050
-563,802	-200,000	0,002	-0,136
-562,788	195,698	0,068	-0,075
-561,773	-71,970	0,087	-0,024
-560,758	518,643	0,101	0,173
-559,744	311,147	-0,126	0,173
-558,729	298,415	0,031	-0,042
-557,715	152,765	-0,145	0,145
-556,700	58,830	0,040	0,028
-555,685	800,000	-0,063	-0,197
-554,671	-200,000	-0,011	0,070
-553,656	262,842	0,065	0,083
-552,642	-200,000	-0,006	0,075
-551,627	800,000	0,018	-0,042
-550,612	-99,025	-0,025	-0,005
-549,598	287,371	-0,069	-0,092
-548,583	-82,180	0,034	0,008
-547,569	800,000	0,050	-0,124
-546,554	594,805	0,092	0,167
-545,539	-200,000	0,012	0,081
-544,525	800,000	-0,030	-0,081
-543,510	262,746	-0,078	-0,100
-542,496	-68,449	-0,066	-0,019
-541,481	-200,000	-0,004	0,025
-540,466	-106,864	-0,106	-0,017
-539,452	-200,000	-0,009	-0,069
-538,437	-66,271	0,087	0,025
-537,423	-20,359	0,024	-0,011
-536,408	-101,846	0,056	-0,010
-535,393	240,046	0,045	-0,054
-534,379	795,806	-0,025	-0,051
-533,364	390,211	0,062	-0,094
-532,350	-165,861	0,100	-0,003
-531,335	125,651	-0,015	0,013
-530,321	158,359	0,006	-0,007
-529,306	734,722	0,028	-0,056
-528,291	-200,000	0,003	0,015
-527,277	800,000	-0,030	0,071
-526,262	621,982	0,052	0,096
-525,248	800,000	0,056	0,174
-524,233	-133,126	-0,099	-0,009
-523,218	664,070	0,029	0,055
-522,204	-200,000	-0,017	-0,135
-521,189	188,961	-0,040	-0,044
-520,175	-200,000	-0,006	-0,045
-519,160	800,000	0,024	-0,068
-518,145	-200,000	-0,017	0,172
-517,131	423,544	0,038	0,060
-516,116	-22,045	-0,063	0,028
-515,102	698,407	0,005	-0,010
-514,087	20,739	-0,058	0,034
-513,072	-133,311	0,063	0,006
-512,058	-17,815	0,143	0,065
-511,043	121,799	-0,080	-0,073
-510,029	-125,247	0,142	0,016
-509,014	120,905	-0,094	0,086
-507,999	295,599	0,045	0,060
-506,985	156,834	0,024	0,025
-505,970	378,886	0,033	-0,049
-504,956	306,703	0,092	-0,125
-503,941	-200,000	-0,008	-0,045
-502,926	573,292	0,092	-0,165
-501,912	-200,000	-0,007	0,120
-500,897	800,000	-0,066	0,178
-499,883	493,254	-0,049	0,083
-498,868	-13,029	0,018	-0,008
-497,853	261,712	-0,046	-0,058
-496,839	-7,682	-0,048	0,024
-495,824	-132,889	0,036	-0,003
-494,810	800,000	-0,050	0,103
-493,795	606,292	-0,096	0,176
-492,781	-200,000	0,013	-0,063
-491,766	469,092	-0,120	-0,197
-490,751	-150,649	-0,228	-0,013
-489,737	181,971	0,048	-0,051
-488,722	-200,000	-0,026	0,087
-487,708	-52,542	0,117	-0,039
-486,693	173,387	-0,011	0,012
-485,678	-200,000	0,023	0,147
-484,664	-200,000	0,016	-0,061
-483,649	-85,467	-0,127	-0,029
-482,635	44,212	-0,060	-0,040
-481,620	-27,962	0,092	0,039
-480,605	-82,425	0,205	-0,048
-479,591	786,494	-0,033	0,066
-478,576	67,457	0,129	-0,096
-477,562	-200,000	0,033	-0,107
-476,547	-59,270	0,187	0,059
-475,532	-200,000	0,004	0,091
-474,518	43,877	0,026	-0,017
-473,503	-64,236	0,069	-0,020
-472,489	103,117	0,077	0,066
-471,474	800,000	-0,035	0,102
-470,459	-132,502	-0,070	-0,006
-469,445	38,930	-0,143	0,093
-468,430	397,008	-0,066	-0,101
-467,416	43,275	0,159	0,106
-466,401	800,000	0,055	0,158
-465,386	-200,000	0,031	0,102
-464,372	115,807	0,079	0,071
-463,357	-200,000	0,027	0,148
-462,343	-200,000	0,006	-0,023
-461,328	-120,844	0,157	0,019
-460,313	330,365	0,061	0,085
-459,299	125,072	0,102	-0,094
-458,284	-10,762	-0,122	0,059
-457,270	-200,000	0,013	-0,073
-456,255	800,000	-0,027	-0,058
-455,241	24,436	-0,140	-0,084
-454,226	169,139	0,063	-0,066
-453,211	-3,710	0,160	-0,081
-452,197	-200,000	0,043	-0,143
-451,182	265,486	-0,046	-0,058
-450,168	-74,176	-0,071	-0,019
-449,153	-200,000	0,020	-0,093
-448,138	470,684	0,091	-0,149
-447,124	567,008	0,065	-0,116
-446,109	278,896	0,051	0,066
-445,095	-76,844	0,100	-0,025
-444,080	-154,426	-0,045	-0,002
-443,065	-200,000	0,008	-0,050
-442,051	267,514	-0,034	0,044
-441,036	64,915	-0,062	0,046
-440,022	800,000	0,020	0,045
-439,007	92,449	0,062	0,051
-437,992	106,107	0,071	0,062
-436,978	800,000	-0,039	0,113
-435,963	29,650	0,059	0,036
-434,949	305,674	-0,070	-0,095
-433,934	-200,000	-0,044	-0,185
-432,919	111,115	0,042	-0,037
-431,905	135,046	-0,019	-0,018
-430,890	800,000	-0,028	-0,066
-429,876	-119,746	0,053	-0,007
-428,861	331,476	0,035	0,049
-427,846	-126,316	0,042	-0,005
-426,832	-131,672	0,052	0,005
-425,817	-84,659	-0,129	0,029
-424,803	16,629	-0,085	-0,049
-423,788	62,110	0,112	0,082
-422,773	-200,000	-0,002	0,158
-421,759	119,160	0,066	0,059
-420,744	33,697	-0,134	0,085
-419,730	-193,629	-0,037	0,000
-418,715	170,977	-0,060	0,063
-417,701	-70,048	-0,026	0,007
-416,686	800,000	-0,028	0,068
-415,671	-112,770	0,090	-0,013
-414,657	-37,825	0,022	0,008
-413,642	-45,218	-0,032	-0,012
-412,628	-200,000	-0,009	0,104
-411,613	65,953	0,060	0,044
-410,598	-200,000	-0,056	-0,201
-409,584	-200,000	-0,007	-0,084
-408,569	318,368	-0,027	-0,037
-407,555	240,427	0,033	0,040
-406,540	-114,826	0,101	0,014
-405,525	138,414	-0,008	-0,008
-404,511	391,579	-0,042	0,063
-403,496	175,148	0,108	0,114
-402,482	-34,368	0,046	0,018
-401,467	-200,000	-0,004	0,058
-400,452	15,298	0,044	0,025
-399,438	-200,000	-0,007	0,118
-398,423	101,235	-0,082	0,070
-397,409	274,127	0,037	0,047
-396,394	-55,141	0,045	-0,015
-395,379	-120,871	0,063	0,008
-394,365	-200,000	-0,039	-0,139
-393,350	-27,620	0,130	0,055
-392,336	-69,404	-0,082	0,023
-391,321	237,146	-0,028	-0,034
-390,306	244,571	0,021	-0,026
-389,292	497,030	-0,067	-0,113
-388,277	-200,000	0,016	0,077
-387,263	308,403	-0,050	0,069
-386,248	158,053	0,094	0,095
-385,233	39,359	-0,056	-0,036
-384,219	169,350	0,118	0,123
-383,204	-200,000	-0,020	0,108
-382,190	390,602	0,077	-0,117
-381,175	-172,406	0,062	0,001
-380,160	65,607	0,100	0,074
-379,146	-200,000	0,012	0,130
-378,131	800,000	0,037	0,113
-377,117	295,217	-0,145	-0,194
-376,102	800,000	0,041	-0,095
-375,088	-32,089	0,038	-0,016
-374,073	-157,163	-0,180	0,008
-373,058	-117,258	0,119	-0,016
-372,044	719,705	0,032	-0,063
-371,029	30,934	0,066	0,041
-370,015	690,208	-0,030	0,057
-369,000	-45,771	-0,108	-0,039
-367,985	-67,007	-0,076	-0,022
-366,971	-57,455	-0,052	-0,017
-365,956	-200,000	0,016	-0,084
-364,942	236,822	-0,076	0,091
-363,927	54,403	0,016	0,011
-362,912	-200,000	0,006	0,052
-361,898	77,225	-0,166	-0,128
-360,883	800,000	0,055	-0,122
-359,869	-82,698	-0,131	-0,031
-358,854	-200,000	0,018	0,137
-357,839	5,605	0,053	-0,028
-356,825	256,048	0,052	0,065
-355,810	21,022	0,040	0,023
-354,796	-72,604	-0,148	-0,039
-353,781	206,406	-0,040	0,045
-352,766	-200,000	0,041	-0,139
-351,752	338,995	-0,041	-0,059
-350,737	-189,393	0,143	-0,001
-349,723	-200,000	0,025	0,109
-348,708	66,903	-0,051	-0,037
-347,693	30,788	0,058	0,036
-346,679	794,055	0,033	-0,066
-345,664	30,937	0,026	-0,016
-344,650	800,000	0,023	-0,056
-343,635	-200,000	-0,026	0,085
-342,620	-136,701	0,104	-0,009
-341,606	-200,000	-0,003	-0,074
-340,591	157,614	-0,103	0,104
-339,577	254,650	-0,131	0,164
-338,562	215,974	-0,087	0,100
-337,548	800,000	-0,012	-0,032
-336,533	269,464	0,071	0,091
-335,518	-200,000	0,000	-0,144
-334,504	101,888	0,094	0,080
-333,489	314,702	0,046	-0,063
-332,475	90,124	-0,026	0,021
-331,460	212,976	-0,010	0,012
-330,445	559,187	0,022	0,039
-329,431	800,000	-0,031	0,074
-328,416	253,605	0,065	0,081
-327,402	-200,000	0,022	0,174
-326,387	285,898	0,053	0,069
-325,372	38,576	-0,061	-0,039
-324,358	-200,000	-0,014	-0,052
-323,343	24,794	0,091	-0,055
-322,329	87,850	-0,069	-0,056
-321,314	343,554	0,055	-0,078
-320,299	-200,000	0,006	-0,027
-319,285	608,096	-0,033	0,060
-318,270	100,012	-0,056	-0,047
-317,256	436,058	-0,021	-0,033
-316,241	-74,469	-0,066	-0,017
-315,226	218,233	0,074	0,085
-314,212	22,117	0,079	0,047
-313,197	12,448	0,130	0,072
-312,183	-200,000	-0,009	-0,080
-311,168	82,612	-0,082	0,065
-310,153	-33,443	0,035	-0,014
-309,139	800,000	0,034	-0,086
-308,124	310,454	-0,041	-0,056
-307,110	-101,031	0,114	-0,020
-306,095	-200,000	0,019	0,128
-305,080	106,833	-0,069	0,059
-304,066	800,000	0,013	0,039
-303,051	-18,949	-0,116	0,052
-302,037	730,588	-0,076	0,147
-301,022	-200,000	0,022	-0,080
-300,008	-200,000	0,012	0,098
-298,993	-103,083	0,150	-0,025
-297,978	3,985	0,026	0,014
-296,964	-200,000	0,035	-0,130
-295,949	-19,960	-0,080	0,036
-294,935	148,035	-0,187	-0,183
-293,920	193,861	-0,031	-0,034
-292,905	-200,000	-0,001	0,019
-291,891	3,704	-0,051	-0,027
-290,876	-102,709	-0,152	-0,026
-289,862	163,739	0,139	0,142
-288,847	-200,000	0,010	0,035
-287,832	-125,018	0,155	-0,017
-286,818	800,000	-0,009	-0,019
-285,803	-49,908	0,098	-0,033
-284,789	-129,109	0,078	-0,008
-283,774	283,690	-0,063	-0,082
-282,759	-22,784	-0,061	-0,027
-281,745	55,535	-0,079	-0,056
-280,730	-200,000	0,012	0,039
-279,716	246,967	0,057	0,070
-278,701	-144,487	0,135	0,009
-277,686	800,000	0,054	0,122
-276,672	-21,683	0,072	0,031
-275,657	165,733	0,070	0,072
-274,643	-52,203	0,069	-0,023
-273,628	-200,000	-0,000	-0,223
-272,613	-125,645	-0,080	0,009
-271,599	32,226	0,050	-0,031
-270,584	621,535	-0,045	-0,083
-269,570	800,000	-0,027	-0,061
-268,555	-65,590	-0,096	0,028
-267,540	-175,681	-0,141	-0,003
-266,526	208,420	0,021	0,024
-265,511	-144,336	-0,102	-0,007
-264,497	49,264	0,125	-0,085
-263,482	-200,000	0,000	-0,047
-262,467	-71,433	-0,056	0,015
-261,453	-139,581	0,133	0,010
-260,438	390,937	-0,022	0,033
-259,424	350,916	-0,077	-0,111
-258,409	98,537	0,051	-0,043
-257,395	-200,000	-0,005	-0,041
-256,380	-74,053	0,144	0,038
-255,365	-91,954	0,037	0,008
-254,351	800,000	0,014	-0,030
-253,336	800,000	0,006	0,014
-252,322	-103,254	-0,060	0,010
-251,307	7,606	0,068	-0,037
-250,292	-26,737	-0,133	0,056
-249,278	23,897	0,111	0,066
-248,263	-16,024	-0,042	0,019
-247,249	-26,050	0,070	0,030
-246,234	-18,381	-0,093	-0,042
-245,219	246,206	0,044	0,053
-244,205	8,591	-0,072	-0,039
-243,190	-54,702	-0,036	-0,012
-242,176	-200,000	0,005	0,103
-241,161	-46,837	-0,091	0,032
-240,146	-110,692	0,119	-0,018
-239,132	289,466	-0,159	-0,209
-238,117	29,725	-0,023	-0,014
-237,103	-27,554	-0,099	-0,041
-236,088	244,088	-0,046	-0,056
-235,073	120,484	0,126	0,113
-234,059	-26,601	0,084	0,035
-233,044	296,977	-0,104	0,138
-232,030	345,631	-0,043	-0,061
-231,015	135,388	0,041	0,039
-230,000	113,187	0,080	-0,070
-228,986	-129,098	-0,132	-0,013
-227,971	68,514	0,050	-0,037
-226,957	-112,397	0,072	0,010
-225,942	-131,759	0,043	-0,004
-224,927	-200,000	0,018	0,064
-223,913	436,218	-0,036	0,057
-222,898	-35,290	-0,043	0,017
-221,884	-200,000	-0,008	0,068
-220,869	-200,000	-0,028	0,095
-219,855	243,365	-0,066	0,080
-218,840	-39,772	0,043	0,016
-217,825	800,000	-0,037	-0,107
-216,811	-200,000	-0,002	-0,187
-215,796	-200,000	0,003	0,017
-214,782	96,563	0,057	-0,047
-213,767	-65,812	0,140	0,040
-212,752	-200,000	0,008	-0,098
-211,738	469,945	-0,037	-0,060
-210,723	96,849	-0,163	0,135
-209,709	269,867	-0,057	0,072
-208,694	-200,000	0,003	-0,011
-207,679	-200,000	-0,013	0,106
-206,665	-29,088	0,072	-0,030
-205,650	28,362	-0,066	0,040
-204,636	-200,000	0,020	-0,101
-203,621	236,972	-0,013	0,016
-202,606	208,323	0,091	0,103
-201,592	153,458	0,041	-0,041
-200,577	-59,751	-0,057	0,017
-199,563	-123,584	-0,070	-0,008
-198,548	343,669	-0,032	0,045
-197,533	274,184	0,021	0,027
-196,519	201,313	0,078	0,086
-195,504	-200,000	-0,012	-0,052
-194,490	-107,212	-0,118	0,019
-193,475	71,197	-0,091	0,068
-192,460	63,330	0,074	-0,053
-191,446	-200,000	-0,000	0,007
-190,431	-118,870	0,035	-0,004
-189,417	-74,205	-0,105	-0,027
-188,402	-20,081	-0,115	-0,051
-187,387	-40,224	-0,197	-0,074
-186,373	135,474	0,070	-0,066
-185,358	-114,608	0,027	-0,004
-184,344	227,320	0,030	-0,035
-183,329	5,774	-0,068	0,036
-182,315	65,397	0,067	0,049
-181,300	-200,000	-0,000	-0,030
-180,285	800,000	-0,017	-0,043
-179,271	-99,089	0,062	-0,011
-178,256	188,897	0,036	0,039
-177,242	-149,689	-0,117	0,007
-176,227	800,000	-0,003	0,007
-175,212	100,890	0,117	-0,098
-174,198	-98,447	0,048	0,009
-173,183	-200,000	-0,000	0,007
-172,169	800,000	-0,026	-0,058
-171,154	-200,000	-0,039	0,149
-170,139	52,822	0,080	0,055
-169,125	-200,000	0,024	0,183
-168,110	-200,000	0,002	0,048
-167,096	59,961	0,071	-0,051
-166,081	-37,237	-0,098	-0,037
-165,066	-200,000	0,005	-0,061
-164,052	-128,214	0,110	-0,011
-163,037	-200,000	0,007	0,050
-162,023	-200,000	-0,003	0,052
-161,008	212,626	0,067	0,077
-159,993	-200,000	-0,007	-0,090
-158,979	-28,700	-0,065	-0,027
-157,964	39,425	0,103	0,066
-156,950	32,749	0,048	0,030
-155,935	-144,685	0,170	-0,011
-154,920	287,931	-0,077	0,101
-153,906	8,439	-0,030	0,016
-152,891	-200,000	-0,028	-0,098
-151,877	-200,000	0,004	-0,196
-150,862	447,840	-0,010	0,017
-149,847	185,763	0,060	0,065
-148,833	181,957	-0,090	-0,096
-147,818	-47,684	0,127	0,044
-146,804	-118,844	0,177	-0,022
-145,789	-200,000	-0,047	0,216
-144,775	-20,596	0,049	0,022
-143,760	-47,021	-0,056	0,020
-142,745	-177,292	-0,115	-0,002
-141,731	574,425	0,007	-0,013
-140,716	-53,346	-0,042	0,014
-139,702	-77,071	0,205	-0,051
-138,687	277,916	0,037	-0,048
-137,672	800,000	-0,029	0,065
-136,658	76,042	-0,098	-0,074
-135,643	168,575	0,077	-0,079
-134,629	437,594	0,124	-0,196
-133,614	126,924	0,096	0,088
-132,599	6,897	-0,043	-0,023
-131,585	-200,000	0,008	0,119
-130,570	-46,251	-0,084	-0,030
-129,556	-200,000	0,018	0,093
-128,541	93,751	-0,074	-0,061
-127,526	352,519	-0,031	-0,044
-126,512	688,253	-0,028	0,053
-125,497	-200,000	0,000	-0,098
-124,483	-159,319	0,075	0,003
-123,468	340,639	0,009	-0,013
-122,453	-76,567	0,116	-0,029
-121,439	-200,000	-0,021	0,083
-120,424	5,621	0,074	0,039
-119,410	-116,280	0,128	-0,017
