DTS Sentinel unit serial number:	SN410029Multiplexer serial number:	ORYXHardware model number:	OX2-SRSoftware version number:	ORYX F/W v4,00 Oryx Data Collector v3.7.2.0data status	okinstallation	B5 Nyhavnadifferential loss correction	single-endedforward channel	channel 2reverse channel	N/Adate	2023/12/11time	14:32:13forward acquisition time	300,00reverse acquisition time	0,00gamma	499,1914k internal	0,3167k external	0,3167temperature offset calibration	1,0000default loss term (dB/km)	0,3820temperature slope calibration	1,0000multiplexer offset coefficient	1,0000multiplexer slope coefficient	1,0000fibre end	0,00T internal ref (°C)	12,52T ext. ref 1 (°C)	-1,85T ext. ref 2 (°C)	-1,83length (m)	temperature (°C)	Stokes	anti-Stokes-744,400	100,018	0,090	-0,076
-743,385	-156,490	-0,343	0,015
-742,371	-49,961	0,237	0,082
-741,356	-86,370	-0,236	0,053
-740,342	-200,000	0,044	0,224
-739,327	-176,472	-0,333	-0,006
-738,312	-40,412	0,198	-0,075
-737,298	-165,261	-0,310	-0,010
-736,283	-200,000	-0,029	0,107
-735,269	-111,371	-0,247	0,037
-734,254	-136,234	0,025	-0,002
-733,239	-73,774	-0,483	-0,128
-732,225	-10,847	0,198	-0,096
-731,210	224,294	0,049	0,059
-730,196	54,853	-0,060	-0,042
-729,181	-72,495	-0,155	0,042
-728,167	484,678	0,031	-0,052
-727,152	-178,767	0,048	-0,001
-726,137	82,250	-0,102	-0,081
-725,123	60,437	-0,070	-0,051
-724,108	226,306	-0,024	-0,029
-723,094	572,784	-0,047	-0,084
-722,079	668,601	-0,100	-0,190
-721,064	26,465	0,054	-0,033
-720,050	46,246	-0,096	0,065
-719,035	-90,701	-0,125	-0,026
-718,021	-108,680	-0,062	-0,010
-717,006	-129,413	-0,082	0,008
-715,991	403,301	-0,115	-0,178
-714,977	-67,986	-0,193	-0,055
-713,962	-200,000	-0,029	0,137
-712,948	-10,064	-0,045	0,022
-711,933	-200,000	0,020	0,079
-710,918	-117,764	-0,110	-0,014
-709,904	180,698	-0,141	-0,153
-708,889	259,402	-0,085	0,108
-707,875	-61,125	0,015	0,005
-706,860	-200,000	0,007	-0,093
-705,845	-164,557	0,137	-0,004
-704,831	800,000	-0,092	0,242
-703,816	-200,000	-0,014	-0,052
-702,802	-138,432	-0,153	0,012
-701,787	-200,000	0,016	-0,133
-700,772	-23,825	-0,164	0,072
-699,758	-200,000	0,016	-0,114
-698,743	-8,566	-0,064	0,031
-697,729	-64,714	-0,042	-0,012
-696,714	800,000	0,064	0,143
-695,699	-38,615	-0,211	0,081
-694,685	748,599	-0,046	0,091
-693,670	-28,708	-0,182	0,077
-692,656	-122,277	0,039	0,005
-691,641	78,736	-0,070	-0,055
-690,627	-200,000	0,032	0,121
-689,612	-200,000	0,015	0,086
-688,597	800,000	-0,016	-0,045
-687,583	800,000	-0,073	-0,202
-686,568	-200,000	0,014	-0,108
-685,554	-43,950	-0,192	-0,070
-684,539	475,719	0,041	-0,069
-683,524	295,314	-0,036	-0,049
-682,510	-17,582	-0,116	0,053
-681,495	-9,223	-0,084	-0,041
-680,481	-77,587	-0,149	0,038
-679,466	84,024	-0,135	-0,108
-678,451	199,036	0,032	-0,036
-677,437	189,520	-0,024	0,026
-676,422	479,006	0,082	0,136
-675,408	-200,000	0,007	0,128
-674,393	294,583	-0,071	-0,096
-673,378	-53,180	-0,029	0,010
-672,364	-31,950	-0,217	0,089
-671,349	-200,000	0,030	-0,185
-670,335	171,182	-0,085	-0,089
-669,320	-200,000	-0,004	-0,031
-668,305	-39,485	-0,058	-0,022
-667,291	-200,000	0,011	0,056
-666,276	-200,000	0,006	-0,032
-665,262	191,151	-0,074	-0,082
-664,247	-121,522	-0,118	-0,014
-663,232	-1,364	0,093	0,048
-662,218	760,082	0,034	0,067
-661,203	-200,000	0,018	-0,095
-660,189	218,703	-0,100	-0,117
-659,174	-200,000	0,013	0,109
-658,159	104,916	-0,070	-0,060
-657,145	-200,000	0,034	-0,141
-656,130	485,784	0,044	0,074
-655,116	748,628	-0,027	-0,055
-654,101	277,165	-0,036	-0,047
-653,086	146,503	0,033	0,033
-652,072	163,243	-0,118	-0,121
-651,057	-200,000	-0,003	-0,219
-650,043	3,131	0,109	-0,058
-649,028	-200,000	0,009	0,036
-648,014	-51,087	-0,010	0,003
-646,999	149,527	-0,075	0,075
-645,984	-200,000	0,008	-0,086
-644,970	113,597	0,011	0,009
-643,955	-200,000	-0,006	-0,069
-642,941	-200,000	0,033	-0,117
-641,926	800,000	-0,015	-0,032
-640,911	-162,006	-0,064	0,002
-639,897	-17,913	0,047	0,022
-638,882	730,157	0,066	0,130
-637,868	200,685	0,065	0,073
-636,853	-9,979	-0,189	0,092
-635,838	483,236	-0,068	-0,113
-634,824	800,000	0,049	-0,134
-633,809	-194,311	0,042	-0,000
-632,795	38,140	0,198	-0,128
-631,780	81,541	-0,085	-0,067
-630,765	-111,624	0,148	-0,022
-629,751	24,179	-0,184	-0,111
-628,736	172,188	-0,020	-0,021
-627,722	-98,160	-0,086	0,016
-626,707	484,961	0,045	-0,076
-625,692	-114,974	0,156	0,021
-624,678	-39,937	-0,221	-0,084
-623,663	800,000	0,059	0,125
-622,649	-200,000	-0,001	-0,207
-621,634	-98,078	-0,060	0,011
-620,619	800,000	0,060	0,150
-619,605	56,158	0,053	0,038
-618,590	-112,251	0,072	0,010
-617,576	-88,680	0,123	0,027
-616,561	46,714	-0,190	0,129
-615,546	70,065	-0,057	-0,043
-614,532	-200,000	0,001	0,018
-613,517	-67,613	-0,020	-0,006
-612,503	800,000	-0,035	0,086
-611,488	-75,195	0,115	0,030
-610,474	284,278	0,119	-0,157
-609,459	409,630	-0,043	0,067
-608,444	-63,015	-0,112	0,034
-607,430	132,825	-0,075	-0,071
-606,415	-29,289	0,011	0,004
-605,401	264,250	-0,076	-0,097
-604,386	800,000	-0,012	-0,024
-603,371	281,748	0,060	0,079
-602,357	-1,008	-0,025	-0,013
-601,342	-50,780	0,051	0,017
-600,328	90,131	-0,020	0,016
-599,313	507,213	-0,061	-0,104
-598,298	-70,128	-0,024	0,007
-597,284	376,124	-0,006	0,010
-596,269	-61,614	-0,103	0,031
-595,255	27,500	-0,059	0,036
-594,240	-163,599	-0,164	0,006
-593,225	-200,000	-0,012	-0,091
-592,211	113,805	0,017	-0,015
-591,196	800,000	0,011	-0,033
-590,182	306,936	-0,044	-0,061
-589,167	125,298	-0,071	-0,066
-588,152	577,163	0,018	0,032
-587,138	-7,677	-0,072	0,035
-586,123	104,148	-0,098	-0,084
-585,109	800,000	-0,009	0,021
-584,094	145,123	-0,172	0,168
-583,079	-34,834	-0,044	-0,017
-582,065	-108,347	-0,147	0,023
-581,050	102,159	0,074	0,063
-580,036	289,463	-0,041	0,055
-579,021	-132,637	-0,096	-0,009
-578,006	-31,262	-0,081	-0,033
-576,992	31,862	-0,034	-0,022
-575,977	-25,634	-0,101	-0,043
-574,963	274,444	0,034	-0,044
-573,948	-200,000	-0,004	0,097
-572,934	23,820	-0,064	-0,039
-571,919	205,094	-0,114	-0,129
-570,904	-168,280	-0,009	-0,000
-569,890	5,135	-0,035	-0,019
-568,875	-36,204	-0,093	-0,036
-567,861	394,361	-0,078	-0,119
-566,846	-200,000	0,015	-0,063
-565,831	-0,077	-0,088	0,046
-564,817	115,619	-0,157	-0,140
-563,802	-50,105	-0,057	-0,020
-562,788	-140,312	0,020	0,001
-561,773	-110,436	0,051	-0,008
-560,758	-200,000	0,024	-0,158
-559,744	88,281	-0,038	-0,031
-558,729	-200,000	-0,012	0,108
-557,715	-200,000	0,035	-0,139
-556,700	698,877	0,009	0,018
-555,685	153,145	-0,029	-0,029
-554,671	143,908	0,125	-0,122
-553,656	264,716	0,036	0,046
-552,642	-200,000	0,012	-0,088
-551,627	89,229	-0,100	0,081
-550,612	76,141	-0,094	-0,072
-549,598	-200,000	-0,006	-0,042
-548,583	800,000	0,011	0,024
-547,569	800,000	0,048	0,099
-546,554	800,000	0,035	0,073
-545,539	266,232	0,155	0,197
-544,525	43,407	0,052	0,034
-543,510	800,000	-0,015	-0,048
-542,496	238,055	0,044	0,054
-541,481	800,000	-0,047	-0,119
-540,466	36,191	0,064	-0,041
-539,452	129,633	-0,005	0,005
-538,437	-124,828	0,086	0,010
-537,423	-39,731	-0,097	-0,037
-536,408	660,762	-0,099	-0,187
-535,393	239,652	-0,077	-0,093
-534,379	-37,695	-0,111	-0,043
-533,364	-200,000	0,023	0,096
-532,350	-200,000	-0,011	0,047
-531,335	61,706	0,139	0,101
-530,321	80,274	0,125	0,098
-529,306	205,518	0,088	-0,100
-528,291	800,000	0,007	0,017
-527,277	119,971	-0,073	0,066
-526,262	-82,253	-0,089	0,021
-525,248	-200,000	0,029	0,115
-524,233	-200,000	-0,002	0,033
-523,218	429,430	0,054	0,086
-522,204	-56,535	0,007	-0,002
-521,189	0,887	0,070	0,037
-520,175	-200,000	-0,067	-0,241
-519,160	-175,115	-0,074	0,001
-518,145	800,000	-0,036	-0,094
-517,131	-18,644	0,066	0,030
-516,116	-5,369	0,067	-0,033
-515,102	-200,000	0,000	-0,097
-514,087	-127,731	-0,148	0,015
-513,072	269,556	0,032	-0,041
-512,058	133,314	-0,038	0,035
-511,043	-200,000	-0,016	-0,057
-510,029	77,755	-0,036	-0,028
-509,014	-200,000	0,021	0,200
-507,999	800,000	0,058	0,149
-506,985	39,059	-0,074	-0,048
-505,970	800,000	-0,042	-0,112
-504,956	-9,394	-0,185	-0,090
-503,941	139,405	0,084	-0,080
-502,926	498,294	-0,042	-0,071
-501,912	-149,492	0,096	-0,005
-500,897	230,094	0,037	-0,044
-499,883	48,162	0,132	-0,089
-498,868	23,291	-0,103	-0,061
-497,853	316,295	0,089	-0,123
-496,839	-79,399	0,029	0,007
-495,824	-96,430	0,066	0,012
-494,810	573,552	0,077	0,137
-493,795	800,000	0,029	0,083
-492,781	179,373	0,052	-0,055
-491,766	-75,792	-0,135	-0,034
-490,751	-200,000	0,002	0,051
-489,737	-50,144	-0,049	-0,017
-488,722	-200,000	0,023	0,173
-487,708	92,916	0,087	0,071
-486,693	-200,000	0,000	0,017
-485,678	-7,795	-0,077	-0,037
-484,664	3,973	-0,115	-0,061
-483,649	-200,000	-0,008	-0,060
-482,635	203,183	0,091	-0,103
-481,620	-120,468	0,158	-0,019
-480,605	166,871	0,078	-0,081
-479,591	-200,000	-0,055	0,178
-478,576	-200,000	0,024	0,098
-477,562	28,757	0,032	0,020
-476,547	-200,000	-0,007	-0,075
-475,532	723,663	-0,034	-0,066
-474,518	81,866	-0,142	0,112
-473,503	159,420	-0,035	-0,036
-472,489	-113,081	0,082	-0,012
-471,474	-35,105	0,063	0,025
-470,459	334,958	0,055	0,077
-469,445	-98,746	0,125	0,023
-468,430	-200,000	0,001	-0,159
-467,416	12,613	-0,037	0,020
-466,401	-89,579	0,033	-0,007
-465,386	315,788	-0,041	0,056
-464,372	-200,000	-0,010	0,054
-463,357	84,137	0,057	-0,045
-462,343	-45,208	-0,208	0,075
-461,328	-51,444	-0,157	-0,053
-460,313	-58,111	-0,085	0,027
-459,299	-200,000	-0,017	0,086
-458,284	66,733	0,053	-0,039
-457,270	568,844	0,044	-0,079
-456,255	-98,036	-0,067	-0,012
-455,241	-200,000	0,013	0,062
-454,226	-200,000	-0,006	-0,024
-453,211	131,195	-0,080	0,075
-452,197	-200,000	-0,005	-0,101
-451,182	185,733	0,013	0,014
-450,168	800,000	0,047	0,132
-449,153	538,606	0,063	0,109
-448,138	800,000	-0,068	-0,182
-447,124	-200,000	-0,005	-0,020
-446,109	308,427	-0,052	-0,071
-445,095	-60,561	0,167	-0,051
-444,080	243,953	0,052	0,064
-443,065	-8,575	0,057	0,028
-442,051	-200,000	-0,004	-0,022
-441,036	-200,000	-0,010	0,096
-440,022	800,000	-0,048	-0,133
-439,007	800,000	-0,016	0,035
-437,992	107,507	-0,108	-0,094
-436,978	-200,000	-0,003	0,079
-435,963	800,000	0,051	0,148
-434,949	800,000	0,048	0,106
-433,934	235,048	-0,075	-0,090
-432,919	13,297	0,029	0,016
-431,905	-200,000	-0,002	0,098
-430,890	134,953	0,081	0,076
-429,876	216,619	0,064	-0,074
-428,861	-145,201	0,064	-0,004
-427,846	-29,937	-0,103	-0,042
-426,832	-84,349	0,095	0,022
-425,817	-200,000	0,003	0,032
-424,803	4,318	0,139	0,074
-423,788	-181,758	0,043	-0,001
-422,773	-200,000	0,031	0,136
-421,759	302,870	0,031	0,042
-420,744	97,316	-0,039	-0,032
-419,730	465,631	-0,027	-0,044
-418,715	117,030	-0,061	-0,054
-417,701	800,000	0,031	-0,082
-416,686	106,445	0,064	0,055
-415,671	-131,841	0,065	-0,006
-414,657	18,549	-0,078	-0,045
-413,642	462,285	-0,031	0,050
-412,628	-104,229	-0,140	-0,023
-411,613	-45,331	-0,080	0,029
-410,598	577,119	0,028	-0,049
-409,584	-88,647	0,138	0,030
-408,569	242,949	0,108	0,132
-407,555	-200,000	-0,015	-0,052
-406,540	27,640	-0,039	0,024
-405,525	106,520	0,160	0,138
-404,511	800,000	-0,028	0,059
-403,496	-139,469	-0,111	-0,008
-402,482	128,623	0,079	0,073
-401,467	72,983	0,155	0,117
-400,452	-200,000	-0,015	0,127
-399,438	201,871	-0,055	0,061
-398,423	-23,484	-0,023	-0,010
-397,409	592,344	0,018	-0,032
-396,394	800,000	0,029	-0,059
-395,379	313,532	0,065	-0,089
-394,365	496,009	0,058	-0,097
-393,350	362,232	-0,037	0,054
-392,336	152,985	0,039	-0,039
-391,321	166,813	-0,006	-0,007
-390,306	-30,542	-0,181	0,074
-389,292	-60,983	0,041	0,012
-388,277	-200,000	0,039	0,142
-387,263	12,344	0,120	0,067
-386,248	369,242	-0,012	-0,018
-385,233	490,077	0,007	-0,011
-384,219	187,021	0,065	-0,070
-383,204	-200,000	0,003	-0,031
-382,190	79,864	0,031	-0,024
-381,175	132,154	-0,079	0,073
-380,160	-200,000	-0,015	-0,058
-379,146	-44,979	0,100	0,036
-378,131	347,664	-0,038	0,054
-377,117	41,064	0,045	-0,029
-376,102	40,031	0,039	-0,026
-375,088	183,817	0,030	-0,032
-374,073	-112,213	-0,111	0,016
-373,058	-132,734	-0,069	0,006
-372,044	123,352	0,038	0,035
-371,029	-200,000	-0,015	0,134
-370,015	495,139	0,050	0,083
-369,000	-200,000	0,006	0,084
-367,985	800,000	-0,027	-0,072
-366,971	-2,731	0,082	-0,041
-365,956	496,717	0,042	-0,070
-364,942	-168,933	0,059	0,002
-363,927	-140,726	0,241	0,018
-362,912	404,423	-0,017	-0,026
-361,898	-146,337	0,101	-0,006
-360,883	407,284	0,085	-0,130
-359,869	-200,000	-0,007	-0,025
-358,854	2,586	0,057	-0,030
-357,839	452,464	0,045	0,073
-356,825	378,200	0,034	0,050
-355,810	-105,082	-0,043	0,007
-354,796	-6,895	0,025	-0,012
-353,781	119,481	-0,105	0,094
-352,766	127,021	-0,049	0,045
-351,752	-200,000	0,014	-0,107
-350,737	40,753	0,102	-0,066
-349,723	-2,116	0,020	0,010
-348,708	766,343	-0,070	0,139
-347,693	520,894	0,068	0,115
-346,679	-14,775	-0,178	-0,082
-345,664	515,230	0,049	-0,083
-344,650	66,058	-0,037	0,027
-343,635	-2,094	-0,061	0,031
-342,620	259,926	0,065	0,081
-341,606	148,358	-0,086	-0,084
-340,591	-89,813	0,112	0,024
-339,577	-13,252	0,133	-0,062
-338,562	418,462	0,097	-0,150
-337,548	-200,000	0,016	-0,189
-336,533	-94,816	0,165	0,032
-335,518	229,962	0,054	-0,064
-334,504	800,000	0,002	0,004
-333,489	239,586	0,071	0,086
-332,475	-97,456	0,038	-0,007
-331,460	239,682	0,061	-0,074
-330,445	-66,797	0,103	0,029
-329,431	-79,238	-0,053	-0,013
-328,416	57,780	-0,033	0,023
-327,402	-200,000	0,018	0,082
-326,387	-8,010	0,144	-0,070
-325,372	-200,000	-0,013	0,091
-324,358	156,685	-0,030	0,030
-323,343	-18,206	0,042	0,019
-322,329	800,000	0,046	0,100
-321,314	329,131	-0,054	0,075
-320,299	199,232	-0,057	0,063
-319,285	-200,000	0,016	0,057
-318,270	-200,000	-0,006	-0,068
-317,256	101,694	-0,124	0,104
-316,241	-100,926	0,102	-0,018
-315,226	424,262	-0,035	-0,055
-314,212	406,382	-0,130	0,199
-313,197	186,128	-0,037	-0,040
-312,183	800,000	0,037	-0,097
-311,168	418,519	-0,017	-0,027
-310,153	-29,072	-0,092	-0,038
-309,139	-200,000	-0,011	0,052
-308,124	47,394	-0,056	-0,038
-307,110	800,000	0,036	0,088
-306,095	-200,000	-0,007	0,067
-305,080	343,284	-0,064	0,091
-304,066	-200,000	0,018	0,101
-303,051	101,054	-0,064	0,054
-302,037	-135,830	0,106	-0,009
-301,022	-156,569	0,121	-0,005
-300,008	800,000	0,008	-0,019
-298,993	63,608	-0,013	0,009
-297,978	252,986	0,073	-0,090
-296,964	-200,000	-0,047	-0,162
-295,949	147,468	0,024	-0,023
-294,935	590,986	0,034	-0,061
-293,920	-64,698	0,210	-0,061
-292,905	-12,120	0,044	0,021
-291,891	-200,000	-0,034	-0,114
-290,876	273,774	-0,086	0,110
-289,862	19,224	0,042	-0,024
-288,847	-47,886	0,069	-0,024
-287,832	800,000	-0,066	-0,143
-286,818	-169,305	-0,055	-0,001
-285,803	-86,909	-0,051	-0,011
-284,789	384,689	0,102	0,152
-283,774	-10,164	0,108	-0,052
-282,759	141,100	0,058	-0,055
-281,745	-124,857	-0,039	0,004
-280,730	800,000	0,043	0,119
-279,716	-72,700	0,061	-0,016
-278,701	267,927	0,047	-0,060
-277,686	0,599	0,050	-0,026
-276,672	800,000	0,011	0,032
-275,657	-200,000	0,005	-0,049
-274,643	800,000	-0,036	-0,074
-273,628	14,684	-0,029	0,016
-272,613	-34,620	-0,099	-0,039
-271,599	716,906	0,065	-0,125
-270,584	-9,573	0,091	0,044
-269,570	415,500	-0,073	0,113
-268,555	-200,000	0,016	-0,056
-267,540	183,944	-0,051	-0,055
-266,526	-200,000	-0,026	-0,137
-265,511	691,019	0,059	0,111
-264,497	-15,172	-0,128	0,059
-263,482	-200,000	0,014	0,076
-262,467	53,594	0,069	0,048
-261,453	-200,000	0,016	0,109
-260,438	36,880	0,060	-0,038
-259,424	-56,904	-0,196	0,062
-258,409	-200,000	0,006	-0,134
-257,395	-141,224	-0,120	-0,009
-256,380	704,284	0,006	0,012
-255,365	68,130	0,083	-0,062
-254,351	800,000	-0,029	0,087
-253,336	-200,000	-0,003	0,016
-252,322	800,000	0,038	-0,078
-251,307	-200,000	-0,003	0,072
-250,292	-23,680	-0,019	0,008
-249,278	-157,126	-0,146	-0,006
-248,263	448,580	0,065	0,104
-247,249	-200,000	0,032	0,126
-246,234	800,000	-0,015	-0,035
-245,219	-200,000	-0,031	-0,110
-244,205	128,933	0,094	-0,086
-243,190	8,589	0,055	0,030
-242,176	169,706	0,065	0,067
-241,161	-79,754	-0,022	0,005
-240,146	88,551	-0,144	-0,115
-239,132	-200,000	0,029	0,136
-238,117	167,565	0,054	0,056
-237,103	-147,019	-0,107	-0,007
-236,088	-24,697	0,106	0,045
-235,073	168,483	0,083	0,085
-234,059	-200,000	-0,004	-0,039
-233,044	55,656	0,098	0,068
-232,030	290,342	0,094	0,123
-231,015	398,159	-0,035	0,053
-230,000	-24,436	-0,050	-0,021
-228,986	462,002	-0,074	-0,120
-227,971	-200,000	-0,003	0,131
-226,957	-200,000	-0,011	-0,041
-225,942	800,000	-0,030	-0,072
-224,927	-125,145	-0,026	0,003
-223,913	45,270	-0,162	-0,107
-222,898	-64,910	0,162	-0,047
-221,884	-200,000	-0,033	-0,189
-220,869	495,790	0,010	-0,017
-219,855	765,128	-0,068	0,134
-218,840	800,000	-0,051	0,103
-217,825	800,000	-0,032	-0,092
-216,811	100,402	-0,078	-0,065
-215,796	146,362	-0,024	0,023
-214,782	-18,081	-0,064	-0,029
-213,767	38,282	0,054	0,034
-212,752	-128,323	0,107	0,011
-211,738	12,047	0,100	0,055
-210,723	307,475	0,055	-0,074
-209,709	119,481	-0,087	-0,078
-208,694	-200,000	0,002	0,027
-207,679	118,444	-0,023	-0,020
-206,665	-200,000	0,011	-0,209
-205,650	19,566	0,092	0,053
-204,636	88,641	0,151	0,121
-203,621	-146,612	-0,225	-0,014
-202,606	-106,870	-0,043	-0,007
-201,592	-129,689	-0,108	-0,011
-200,577	67,893	0,235	-0,173
-199,563	-27,379	0,076	-0,032
-198,548	-36,379	0,064	0,025
-197,533	-96,831	-0,103	-0,019
-196,519	93,432	-0,109	0,089
-195,504	68,014	-0,088	-0,064
-194,490	-23,089	0,071	-0,031
-193,475	-200,000	0,012	0,044
-192,460	-75,080	0,044	0,011
-191,446	-47,492	-0,137	-0,048
-190,431	-200,000	-0,010	-0,034
-189,417	-63,916	-0,024	0,007
-188,402	71,447	-0,009	-0,007
-187,387	174,068	-0,094	-0,098
-186,373	800,000	0,027	0,066
-185,358	-192,929	-0,082	0,001
-184,344	512,172	0,012	0,020
-183,329	800,000	0,073	0,170
-182,315	60,253	0,044	0,031
-181,300	-51,361	-0,088	-0,029
-180,285	-200,000	0,014	-0,108
-179,271	-79,466	0,111	-0,027
-178,256	-200,000	-0,002	0,085
-177,242	-104,451	0,239	0,039
-176,227	34,452	0,051	-0,032
-175,212	101,741	-0,088	-0,074
-174,198	800,000	-0,028	0,064
-173,183	-53,896	-0,117	0,038
-172,169	-41,249	-0,110	-0,041
-171,154	311,822	-0,048	0,065
-170,139	800,000	0,003	-0,009
-169,125	29,573	0,164	-0,100
-168,110	143,774	0,008	-0,007
-167,096	0,094	-0,048	0,025
-166,081	-99,747	0,017	-0,003
-165,066	800,000	-0,020	-0,053
-164,052	88,541	-0,043	-0,034
-163,037	-200,000	-0,004	0,171
-162,023	67,188	-0,076	0,055
-161,008	-200,000	0,012	0,132
-159,993	159,247	0,057	-0,057
-158,979	101,843	-0,082	0,068
-157,964	-200,000	0,003	-0,042
-156,950	328,236	-0,043	0,059
-155,935	-200,000	-0,016	0,093
-154,920	-76,110	0,030	0,008
-153,906	-24,345	0,085	0,036
-152,891	-118,875	-0,161	0,020
-151,877	788,409	0,018	0,037
-150,862	-200,000	0,019	-0,153
-149,847	800,000	-0,026	0,069
-148,833	-200,000	0,012	-0,100
-147,818	261,284	-0,128	0,159
-146,804	-200,000	-0,008	0,188
-145,789	417,350	0,073	-0,113
-144,775	-200,000	0,018	-0,191
-143,760	-151,249	-0,108	0,006
-142,745	-47,133	0,085	0,030
-141,731	19,150	-0,124	-0,071
-140,716	-200,000	0,006	0,041
-139,702	19,632	0,123	0,071
-138,687	-200,000	0,006	0,042
-137,672	-200,000	-0,020	0,076
-136,658	365,829	0,023	-0,033
-135,643	800,000	-0,029	0,078
-134,629	800,000	-0,031	0,078
-133,614	800,000	0,021	0,064
-132,599	-5,386	0,121	0,059
-131,585	515,464	0,012	-0,021
-130,570	800,000	0,034	0,079
-129,556	185,781	0,013	0,014
-128,541	-27,482	-0,071	-0,029
-127,526	-78,109	-0,184	0,045
-126,512	-200,000	0,004	-0,097
-125,497	-200,000	0,024	0,097
-124,483	-80,155	0,085	-0,020
-123,468	-84,357	-0,085	0,019
-122,453	459,681	-0,070	-0,112
-121,439	34,467	-0,127	-0,079
-120,424	385,808	0,020	0,030
-119,410	85,218	-0,092	-0,072
-118,395	188,483	-0,056	0,061
