DTS Sentinel unit serial number:	SN410029Multiplexer serial number:	ORYXHardware model number:	OX2-SRSoftware version number:	ORYX F/W v4,00 Oryx Data Collector v3.7.2.0data status	okinstallation	B5 Nyhavnadifferential loss correction	single-endedforward channel	channel 2reverse channel	N/Adate	2023/12/14time	05:42:13forward acquisition time	300,00reverse acquisition time	0,00gamma	499,1914k internal	0,3157k external	0,3157temperature offset calibration	1,0000default loss term (dB/km)	0,3820temperature slope calibration	1,0000multiplexer offset coefficient	1,0000multiplexer slope coefficient	1,0000fibre end	0,00T internal ref (°C)	7,73T ext. ref 1 (°C)	-8,76T ext. ref 2 (°C)	-8,85length (m)	temperature (°C)	Stokes	anti-Stokes-744,400	136,231	0,072	0,070
-743,385	-86,343	-0,245	-0,055
-742,371	534,933	0,092	0,161
-741,356	-117,378	-0,392	-0,052
-740,342	-44,201	0,119	-0,044
-739,327	-104,571	-0,448	-0,075
-738,312	-9,167	0,125	-0,062
-737,298	6,633	-0,330	-0,180
-736,283	-119,213	0,181	-0,023
-735,269	-122,384	-0,354	0,042
-734,254	-88,735	0,231	0,050
-733,239	-81,865	-0,510	-0,122
-732,225	332,771	0,158	0,226
-731,210	-200,000	-0,019	0,079
-730,196	-98,427	-0,064	0,012
-729,181	-37,885	-0,195	0,076
-728,167	-27,139	-0,083	0,035
-727,152	800,000	-0,007	0,018
-726,137	48,305	-0,094	0,065
-725,123	-200,000	-0,005	-0,061
-724,108	94,748	0,062	-0,052
-723,094	-125,463	-0,179	0,020
-722,079	106,444	-0,042	-0,037
-721,064	165,066	0,026	0,027
-720,050	800,000	0,039	0,088
-719,035	-56,394	0,038	-0,013
-718,021	29,780	-0,060	-0,038
-717,006	-200,000	0,014	-0,113
-715,991	800,000	-0,052	-0,142
-714,977	-200,000	-0,011	0,075
-713,962	-139,442	0,066	-0,005
-712,948	800,000	-0,005	-0,011
-711,933	-200,000	0,006	-0,159
-710,918	10,833	-0,153	-0,086
-709,904	127,237	-0,015	0,014
-708,889	55,019	-0,040	0,029
-707,875	-200,000	-0,029	-0,123
-706,860	-200,000	-0,016	0,153
-705,845	-87,420	0,119	-0,026
-704,831	-133,574	-0,013	0,001
-703,816	118,112	-0,036	-0,032
-702,802	800,000	-0,036	-0,096
-701,787	-200,000	-0,023	-0,165
-700,772	800,000	-0,052	0,113
-699,758	749,086	-0,044	-0,087
-698,743	-49,773	-0,047	0,016
-697,729	71,293	-0,079	0,060
-696,714	-1,192	-0,031	0,016
-695,699	-200,000	-0,035	0,140
-694,685	-24,954	-0,149	-0,065
-693,670	374,555	0,025	0,038
-692,656	-11,056	-0,111	0,054
-691,641	-200,000	0,006	-0,083
-690,627	197,873	0,010	0,011
-689,612	51,935	0,047	-0,033
-688,597	-105,556	-0,085	-0,014
-687,583	-163,611	-0,100	0,003
-686,568	800,000	-0,028	-0,066
-685,554	366,802	-0,037	-0,056
-684,539	48,671	0,042	-0,029
-683,524	-200,000	0,034	-0,110
-682,510	203,674	0,041	0,046
-681,495	-14,736	0,042	0,020
-680,481	800,000	-0,014	0,037
-679,466	94,910	-0,117	-0,098
-678,451	39,495	-0,118	-0,078
-677,437	-57,848	-0,143	-0,046
-676,422	-49,713	0,128	0,045
-675,408	200,093	0,042	0,047
-674,393	-31,140	0,024	0,010
-673,378	191,104	-0,131	-0,145
-672,364	79,835	0,106	0,084
-671,349	-200,000	0,003	-0,153
-670,335	-200,000	-0,008	0,079
-669,320	-200,000	-0,006	-0,051
-668,305	-200,000	0,004	-0,015
-667,291	336,172	0,044	0,063
-666,276	-48,721	-0,022	0,008
-665,262	274,211	0,070	0,091
-664,247	-69,458	0,113	-0,032
-663,232	161,896	0,019	-0,019
-662,218	-200,000	0,030	0,115
-661,203	566,840	0,018	-0,032
-660,189	13,509	-0,105	-0,060
-659,174	-118,812	-0,066	0,008
-658,159	-59,573	-0,073	0,023
-657,145	-55,488	-0,056	0,018
-656,130	614,903	-0,005	-0,009
-655,116	101,158	0,064	-0,055
-654,101	48,497	-0,035	0,024
-653,086	134,338	0,100	-0,096
-652,072	321,869	-0,073	0,103
-651,057	800,000	-0,059	0,121
-650,043	256,265	-0,052	-0,065
-649,028	-200,000	-0,039	-0,149
-648,014	2,437	-0,045	-0,024
-646,999	800,000	-0,030	0,078
-645,984	98,153	-0,089	-0,076
-644,970	-200,000	-0,028	-0,118
-643,955	-101,528	-0,104	-0,018
-642,941	346,523	0,041	-0,059
-641,926	800,000	0,069	-0,200
-640,911	-200,000	0,001	0,085
-639,897	-200,000	-0,002	-0,037
-638,882	-200,000	-0,010	0,150
-637,868	-109,248	-0,122	-0,019
-636,853	409,865	-0,018	-0,028
-635,838	103,044	-0,040	-0,034
-634,824	379,999	0,075	-0,113
-633,809	80,729	0,153	-0,121
-632,795	-200,000	0,000	0,067
-631,780	-141,510	-0,056	-0,004
-630,765	-110,061	0,123	-0,019
-629,751	-160,383	-0,061	-0,002
-628,736	-41,623	-0,154	0,058
-627,722	100,415	0,110	-0,093
-626,707	-174,091	-0,137	0,003
-625,692	29,763	0,113	0,071
-624,678	-200,000	-0,004	-0,045
-623,663	75,336	-0,110	-0,085
-622,649	74,037	-0,062	-0,047
-621,634	800,000	-0,028	-0,091
-620,619	-200,000	-0,028	0,128
-619,605	577,755	0,086	0,155
-618,590	-200,000	-0,010	-0,157
-617,576	89,649	0,109	0,089
-616,561	-200,000	0,016	0,094
-615,546	137,836	0,083	-0,080
-614,532	-200,000	0,030	-0,107
-613,517	20,208	-0,071	0,042
-612,503	110,465	0,045	0,040
-611,488	220,351	-0,040	-0,047
-610,474	256,240	0,015	0,019
-609,459	-200,000	-0,025	0,095
-608,444	-200,000	-0,007	-0,047
-607,430	507,052	-0,045	-0,077
-606,415	-82,143	-0,155	-0,037
-605,401	-128,064	-0,100	0,010
-604,386	800,000	-0,041	0,089
-603,371	-200,000	0,006	0,139
-602,357	-200,000	0,023	0,206
-601,342	-200,000	0,035	-0,126
-600,328	-133,793	0,070	0,006
-599,313	87,567	-0,090	-0,073
-598,298	385,339	0,047	0,071
-597,284	-200,000	0,005	0,102
-596,269	800,000	0,017	-0,053
-595,255	-74,128	-0,205	-0,054
-594,240	223,572	-0,094	-0,111
-593,225	-152,005	-0,046	0,002
-592,211	-62,821	-0,092	0,028
-591,196	-200,000	-0,028	0,099
-590,182	282,825	-0,036	0,047
-589,167	294,952	0,072	0,096
-588,152	-165,782	0,110	0,003
-587,138	455,065	-0,048	0,078
-586,123	-200,000	-0,020	-0,092
-585,109	-116,095	-0,106	-0,014
-584,094	40,025	0,095	-0,062
-583,079	160,910	0,079	0,081
-582,065	33,414	0,119	-0,076
-581,050	-105,755	-0,025	0,004
-580,036	318,209	-0,053	-0,074
-579,021	-39,450	-0,049	-0,019
-578,006	54,173	-0,162	-0,114
-576,992	703,441	0,057	-0,111
-575,977	91,410	0,078	-0,064
-574,963	-104,149	0,097	0,016
-573,948	-200,000	-0,007	-0,026
-572,934	-200,000	-0,001	-0,055
-571,919	87,173	-0,095	0,077
-570,904	383,135	-0,053	0,080
-569,890	317,033	0,058	0,080
-568,875	-200,000	-0,001	0,077
-567,861	-200,000	-0,027	0,118
-566,846	-161,457	0,030	0,001
-565,831	-93,346	-0,218	-0,044
-564,817	9,173	0,019	0,010
-563,802	-200,000	0,002	-0,029
-562,788	800,000	0,042	0,118
-561,773	-200,000	-0,017	-0,075
-560,758	-124,958	0,179	-0,020
-559,744	-38,056	0,093	0,036
-558,729	800,000	0,035	0,102
-557,715	255,363	0,035	-0,044
-556,700	-175,467	-0,012	0,000
-555,685	-134,132	0,034	-0,003
-554,671	171,912	-0,034	0,035
-553,656	-76,481	0,046	0,012
-552,642	-130,067	0,071	0,007
-551,627	-86,272	-0,133	0,030
-550,612	-200,000	-0,035	0,133
-549,598	800,000	-0,034	0,107
-548,583	-200,000	-0,043	-0,154
-547,569	567,406	-0,028	0,050
-546,554	-200,000	-0,023	0,100
-545,539	-178,601	0,055	-0,001
-544,525	-200,000	0,024	0,178
-543,510	-200,000	-0,005	-0,020
-542,496	-200,000	0,015	-0,125
-541,481	-163,124	-0,127	0,004
-540,466	800,000	0,031	-0,072
-539,452	-200,000	0,010	0,039
-538,437	800,000	-0,068	0,146
-537,423	-46,671	-0,034	0,012
-536,408	216,672	0,115	0,134
-535,393	800,000	0,032	-0,097
-534,379	3,221	-0,101	-0,054
-533,364	-200,000	0,039	-0,181
-532,350	800,000	0,032	-0,084
-531,335	-200,000	-0,015	0,069
-530,321	278,250	-0,051	0,067
-529,306	-61,802	-0,104	0,032
-528,291	73,733	-0,035	-0,027
-527,277	-47,760	-0,151	-0,053
-526,262	-137,505	0,105	0,009
-525,248	32,529	0,014	0,009
-524,233	-200,000	-0,013	0,175
-523,218	8,688	0,146	-0,080
-522,204	-169,201	-0,066	0,002
-521,189	-29,669	-0,099	-0,041
-520,175	-14,695	0,030	-0,014
-519,160	236,224	-0,066	-0,080
-518,145	800,000	-0,039	0,112
-517,131	-200,000	-0,039	0,154
-516,116	-200,000	0,004	0,042
-515,102	269,462	0,022	0,028
-514,087	578,630	-0,046	-0,083
-513,072	-200,000	0,012	-0,169
-512,058	36,457	-0,046	-0,030
-511,043	308,763	0,048	-0,066
-510,029	153,398	0,060	-0,060
-509,014	-196,982	-0,175	-0,001
-507,999	-122,455	-0,030	0,003
-506,985	-23,471	-0,062	0,027
-505,970	-200,000	-0,002	0,065
-504,956	576,420	0,023	-0,042
-503,941	800,000	0,036	-0,085
-502,926	-200,000	-0,002	-0,051
-501,912	520,234	-0,049	-0,085
-500,897	430,662	-0,106	0,168
-499,883	-22,203	-0,034	-0,015
-498,868	-200,000	0,005	0,064
-497,853	380,117	0,013	0,020
-496,839	-200,000	0,029	0,101
-495,824	-200,000	-0,002	-0,087
-494,810	-108,886	0,089	0,014
-493,795	800,000	0,035	0,088
-492,781	71,658	-0,087	0,066
-491,766	9,861	-0,095	0,053
-490,751	800,000	-0,055	-0,148
-489,737	-200,000	-0,019	-0,116
-488,722	402,183	0,005	-0,007
-487,708	-133,312	0,150	-0,014
-486,693	233,673	0,085	0,102
-485,678	800,000	-0,002	-0,004
-484,664	47,525	-0,064	0,044
-483,649	-193,596	-0,127	0,001
-482,635	800,000	-0,046	0,125
-481,620	-112,647	0,051	0,007
-480,605	-6,309	0,146	0,073
-479,591	-13,957	0,030	0,014
-478,576	142,959	-0,031	0,030
-477,562	-84,364	-0,046	0,011
-476,547	-61,614	-0,061	0,019
-475,532	800,000	-0,046	-0,097
-474,518	-42,398	0,046	0,017
-473,503	-35,402	0,122	-0,048
-472,489	-41,984	0,131	-0,049
-471,474	-60,881	0,159	0,049
-470,459	129,379	0,054	-0,050
-469,445	41,737	0,070	0,046
-468,430	217,151	0,029	0,033
-467,416	423,666	0,037	-0,058
-466,401	67,306	-0,130	0,097
-465,386	-23,364	0,086	0,037
-464,372	-192,394	0,074	0,000
-463,357	317,634	0,041	-0,057
-462,343	-140,381	0,077	0,006
-461,328	442,108	-0,041	-0,066
-460,313	-200,000	-0,002	-0,185
-459,299	299,427	0,080	0,108
-458,284	-53,094	0,093	0,031
-457,270	715,270	-0,050	-0,098
-456,255	800,000	-0,051	0,106
-455,241	281,535	-0,027	0,035
-454,226	-200,000	0,003	-0,019
-453,211	160,590	-0,030	-0,031
-452,197	312,530	0,064	0,088
-451,182	-200,000	-0,049	0,169
-450,168	-200,000	-0,006	0,103
-449,153	-127,466	-0,124	-0,013
-448,138	190,615	-0,041	-0,045
-447,124	449,657	0,057	-0,092
-446,109	4,724	-0,029	-0,015
-445,095	-200,000	0,018	0,066
-444,080	-46,557	-0,066	0,024
-443,065	138,798	0,091	-0,087
-442,051	800,000	0,019	-0,060
-441,036	43,611	-0,055	-0,037
-440,022	753,648	0,035	-0,069
-439,007	-77,679	0,112	-0,028
-437,992	160,924	-0,120	0,122
-436,978	380,638	0,099	0,149
-435,963	183,931	-0,073	0,079
-434,949	209,012	-0,105	-0,120
-433,934	-142,263	-0,027	-0,002
-432,919	231,510	-0,070	0,084
-431,905	71,823	0,098	-0,074
-430,890	152,570	0,077	0,077
-429,876	343,359	-0,112	0,161
-428,861	402,095	0,103	0,158
-427,846	-0,381	0,043	-0,022
-426,832	-57,930	-0,038	-0,012
-425,817	55,023	-0,085	0,060
-424,803	800,000	-0,001	0,004
-423,788	155,586	-0,052	0,052
-422,773	-41,991	0,116	0,043
-421,759	-62,516	0,095	-0,029
-420,744	-52,637	-0,115	-0,038
-419,730	69,146	-0,058	-0,044
-418,715	332,937	-0,059	-0,083
-417,701	390,001	-0,081	-0,123
-416,686	9,362	0,053	0,029
-415,671	800,000	0,083	0,178
-414,657	-30,905	0,033	0,013
-413,642	-20,436	0,020	0,009
-412,628	289,088	-0,065	-0,086
-411,613	-200,000	0,016	-0,131
-410,598	-200,000	-0,015	-0,143
-409,584	-146,556	-0,122	-0,008
-408,569	-78,700	-0,043	-0,011
-407,555	-200,000	0,005	-0,039
-406,540	-175,494	0,150	-0,003
-405,525	137,334	0,155	-0,148
-404,511	414,221	0,039	-0,060
-403,496	71,344	0,086	0,065
-402,482	283,242	0,082	0,108
-401,467	-200,000	0,031	0,103
-400,452	-200,000	0,022	0,100
-399,438	-4,313	0,057	-0,029
-398,423	-200,000	-0,022	-0,112
-397,409	800,000	-0,072	-0,146
-396,394	308,035	-0,063	-0,086
-395,379	-147,264	0,038	-0,002
-394,365	616,063	0,028	-0,051
-393,350	-200,000	-0,010	0,076
-392,336	-200,000	-0,012	-0,044
-391,321	88,005	-0,088	-0,071
-390,306	-88,631	0,029	0,006
-389,292	504,803	-0,025	0,042
-388,277	3,808	-0,135	0,071
-387,263	219,139	-0,075	-0,088
-386,248	77,803	-0,062	-0,048
-385,233	-48,694	-0,113	0,039
-384,219	800,000	-0,038	-0,091
-383,204	-200,000	0,049	-0,159
-382,190	-200,000	0,024	-0,080
-381,175	-8,740	-0,018	0,009
-380,160	800,000	0,033	-0,067
-379,146	279,019	0,056	0,072
-378,131	25,114	0,032	0,019
-377,117	182,715	-0,085	0,091
-376,102	112,832	0,097	-0,085
-375,088	-200,000	-0,006	-0,131
-374,073	223,571	-0,067	-0,079
-373,058	-12,295	0,092	0,043
-372,044	602,951	0,053	0,097
-371,029	113,244	-0,112	0,099
-370,015	247,694	0,043	0,052
-369,000	-100,327	-0,090	0,016
-367,985	-7,506	-0,043	-0,021
-366,971	170,845	-0,014	-0,015
-365,956	251,730	0,027	0,034
-364,942	-91,622	0,132	-0,027
-363,927	221,860	0,056	0,066
-362,912	582,353	-0,032	-0,057
-361,898	-5,444	-0,072	-0,036
-360,883	438,561	-0,025	0,039
-359,869	81,033	0,045	0,035
-358,854	-200,000	0,012	-0,048
-357,839	157,889	-0,081	0,082
-356,825	82,992	-0,016	0,012
-355,810	288,689	0,051	-0,068
-354,796	95,779	0,088	0,073
-353,781	-200,000	0,017	-0,089
-352,766	-200,000	-0,011	-0,096
-351,752	-45,197	-0,032	-0,012
-350,737	-200,000	-0,011	0,074
-349,723	-200,000	0,003	0,030
-348,708	-200,000	-0,002	0,138
-347,693	645,216	-0,052	-0,097
-346,679	145,076	0,083	-0,081
-345,664	-140,931	-0,053	-0,004
-344,650	-111,951	0,120	0,017
-343,635	800,000	0,043	0,087
-342,620	-91,323	-0,133	0,027
-341,606	239,161	-0,091	0,110
-340,591	230,807	-0,066	-0,078
-339,577	-200,000	0,005	0,132
-338,562	97,973	0,112	0,094
-337,548	-66,758	0,109	-0,031
-336,533	-73,210	0,175	0,046
-335,518	800,000	-0,018	0,047
-334,504	-200,000	0,012	-0,050
-333,489	-99,751	-0,093	0,017
-332,475	-133,986	-0,038	0,003
-331,460	693,911	-0,079	0,151
-330,445	-99,995	-0,054	-0,010
-329,431	-200,000	0,040	0,192
-328,416	-80,737	-0,024	0,006
-327,402	26,657	-0,089	0,054
-326,387	-200,000	-0,022	-0,093
-325,372	533,201	-0,071	-0,122
-324,358	-55,585	0,034	-0,011
-323,343	37,464	-0,048	0,031
-322,329	-200,000	0,023	0,116
-321,314	126,693	0,047	0,043
-320,299	358,242	0,040	0,058
-319,285	481,034	-0,049	-0,081
-318,270	800,000	0,075	-0,181
-317,256	583,441	-0,052	-0,092
-316,241	57,483	-0,131	0,093
-315,226	592,578	-0,020	-0,035
-314,212	52,348	0,033	0,023
-313,197	800,000	0,042	0,096
-312,183	-56,180	-0,043	0,014
-311,168	-152,167	-0,088	0,005
-310,153	-200,000	-0,017	-0,164
-309,139	488,400	0,037	-0,061
-308,124	371,634	0,072	0,107
-307,110	-200,000	-0,003	0,156
-306,095	171,380	0,014	-0,014
-305,080	800,000	-0,013	-0,031
-304,066	382,431	0,033	0,050
-303,051	722,470	-0,029	-0,056
-302,037	800,000	-0,061	-0,188
-301,022	-159,330	0,179	0,007
-300,008	800,000	-0,018	0,044
-298,993	125,702	0,066	0,061
-297,978	-116,512	0,239	-0,032
-296,964	356,244	0,003	0,004
-295,949	392,620	-0,053	-0,081
-294,935	-19,539	-0,077	0,034
-293,920	60,508	0,095	0,068
-292,905	-200,000	0,022	-0,092
-291,891	-200,000	0,016	-0,051
-290,876	167,868	0,041	0,042
-289,862	256,602	0,106	0,132
-288,847	-43,046	-0,047	-0,017
-287,832	-200,000	0,013	-0,214
-286,818	-200,000	0,004	-0,075
-285,803	56,820	-0,101	-0,071
-284,789	-73,102	0,087	-0,023
-283,774	-200,000	0,032	0,119
-282,759	55,796	-0,057	0,040
-281,745	90,409	-0,005	0,004
-280,730	482,354	0,037	-0,062
-279,716	-67,988	-0,083	-0,023
-278,701	-200,000	0,004	0,042
-277,686	-200,000	0,030	0,114
-276,672	21,975	0,084	-0,049
-275,657	-200,000	0,003	-0,037
-274,643	-200,000	-0,019	-0,077
-273,628	-53,568	0,144	-0,047
-272,613	498,627	-0,039	-0,066
-271,599	-200,000	0,006	-0,065
-270,584	14,949	0,122	-0,069
-269,570	-44,948	-0,014	0,005
-268,555	-4,392	-0,063	0,031
-267,540	-103,929	0,124	0,021
-266,526	-200,000	-0,033	-0,133
-265,511	-78,582	0,095	-0,023
-264,497	25,910	-0,029	0,017
-263,482	-200,000	0,003	0,056
-262,467	90,702	-0,024	-0,019
-261,453	164,540	0,032	0,033
-260,438	67,640	-0,037	-0,027
-259,424	54,799	-0,140	0,098
-258,409	326,613	0,033	-0,046
-257,395	165,085	-0,047	0,048
-256,380	498,519	0,006	0,010
-255,365	-166,557	0,064	0,002
-254,351	-154,563	0,057	0,003
-253,336	-74,434	-0,100	0,026
-252,322	25,773	-0,019	-0,011
-251,307	130,683	0,038	-0,036
-250,292	800,000	-0,054	-0,127
-249,278	800,000	0,008	-0,025
-248,263	756,127	0,081	0,159
-247,249	600,982	-0,054	-0,098
-246,234	-110,899	0,055	-0,008
-245,219	337,684	-0,034	0,048
-244,205	-200,000	0,008	-0,066
-243,190	-87,911	0,021	-0,004
-242,176	425,119	-0,014	0,022
-241,161	-150,955	0,146	-0,008
-240,146	72,005	0,109	-0,082
-239,132	4,786	-0,040	-0,021
-238,117	42,873	-0,213	-0,140
-237,103	-200,000	-0,017	-0,107
-236,088	12,201	-0,108	0,060
-235,073	497,066	0,052	0,087
-234,059	-133,108	0,044	0,004
-233,044	-20,676	-0,076	-0,034
-232,030	19,407	0,072	0,042
-231,015	-28,786	0,020	-0,008
-230,000	260,671	-0,040	-0,050
-228,986	-28,547	-0,072	-0,030
-227,971	-200,000	-0,010	0,152
-226,957	359,015	-0,015	0,022
-225,942	-49,093	-0,054	0,019
-224,927	231,877	-0,063	-0,074
-223,913	14,276	-0,054	0,030
-222,898	-57,503	0,150	-0,047
-221,884	39,400	0,030	0,019
-220,869	-200,000	0,024	0,090
-219,855	800,000	-0,033	0,090
-218,840	122,943	0,104	0,094
-217,825	-200,000	-0,009	0,037
-216,811	-149,624	-0,086	-0,005
-215,796	800,000	0,054	-0,126
-214,782	-116,071	-0,136	0,018
-213,767	10,258	0,182	0,099
-212,752	-97,603	-0,078	0,015
-211,738	-121,939	-0,058	0,007
-210,723	800,000	0,045	-0,104
-209,709	-107,933	0,122	0,019
-208,694	-200,000	0,001	-0,103
-207,679	582,243	0,036	0,065
-206,665	212,327	0,054	0,062
-205,650	-123,432	0,140	-0,016
-204,636	127,882	0,034	-0,031
-203,621	-200,000	-0,006	0,041
-202,606	243,134	-0,026	0,032
-201,592	414,694	-0,055	-0,085
-200,577	800,000	0,055	-0,126
-199,563	-200,000	0,014	0,189
-198,548	-131,443	0,074	0,007
-197,533	-97,664	0,123	0,023
-196,519	9,827	0,081	-0,044
-195,504	18,459	-0,117	0,067
-194,490	-18,782	-0,126	-0,056
-193,475	800,000	0,041	-0,108
-192,460	800,000	0,018	-0,054
-191,446	-0,976	-0,123	0,063
-190,431	800,000	-0,019	0,054
-189,417	-19,977	0,062	0,028
-188,402	348,615	0,047	-0,066
-187,387	-30,100	-0,209	0,085
-186,373	-162,212	0,142	0,005
-185,358	800,000	0,027	0,071
-184,344	800,000	0,030	0,083
-183,329	336,803	0,020	0,028
-182,315	800,000	0,028	-0,073
-181,300	-42,294	-0,080	0,029
-180,285	800,000	0,005	0,015
-179,271	800,000	0,035	-0,111
-178,256	-104,414	-0,106	-0,018
-177,242	-51,275	0,019	-0,006
-176,227	-200,000	-0,008	0,172
-175,212	-200,000	0,015	0,096
-174,198	110,406	-0,091	0,079
-173,183	219,622	-0,135	-0,156
-172,169	800,000	-0,003	-0,006
-171,154	-101,916	-0,029	-0,005
-170,139	429,803	-0,022	0,035
-169,125	-43,940	0,148	0,053
-168,110	-33,370	0,068	0,027
-167,096	226,887	-0,085	0,100
-166,081	-169,187	0,179	-0,005
-165,066	-200,000	0,020	-0,133
-164,052	-200,000	0,014	0,124
-163,037	187,371	-0,061	0,066
-162,023	800,000	0,036	0,076
-161,008	-71,787	0,119	-0,032
-159,993	1,103	0,062	-0,032
-158,979	67,827	0,051	-0,038
-157,964	-200,000	-0,014	-0,069
-156,950	-200,000	-0,102	-0,000
-155,935	-167,911	0,138	-0,004
-154,920	568,931	0,054	-0,094
-153,906	-5,139	-0,051	0,025
-152,891	-200,000	-0,008	-0,222
-151,877	-200,000	-0,007	-0,062
-150,862	324,075	-0,070	-0,096
-149,847	292,615	0,033	-0,043
-148,833	-52,284	0,119	0,039
-147,818	800,000	-0,048	0,126
-146,804	-200,000	0,000	0,054
-145,789	55,682	0,042	-0,029
-144,775	-33,462	-0,027	0,011
-143,760	270,746	0,075	-0,095
-142,745	8,876	0,054	0,029
-141,731	391,306	-0,101	-0,151
-140,716	-142,526	0,062	-0,004
-139,702	22,160	0,056	0,033
-138,687	52,233	-0,063	0,043
-137,672	-200,000	0,000	0,073
-136,658	-200,000	-0,005	-0,098
-135,643	90,078	0,077	-0,062
-134,629	-200,000	-0,021	-0,072
-133,614	261,997	-0,073	0,091
-132,599	427,188	-0,034	0,053
-131,585	-34,597	0,073	0,029
-130,570	-143,960	0,021	0,001
-129,556	462,905	0,018	-0,029
-128,541	-22,025	0,050	0,022
-127,526	800,000	0,029	0,060
-126,512	232,724	-0,029	0,034
-125,497	73,920	0,068	0,052
-124,483	800,000	0,025	0,077
-123,468	-200,000	0,013	0,050
-122,453	800,000	-0,042	-0,112
-121,439	86,803	-0,082	-0,065
-120,424	6,153	0,122	-0,065
-119,410	800,000	0,077	-0,165
