DTS Sentinel unit serial number:	SN410029Multiplexer serial number:	ORYXHardware model number:	OX2-SRSoftware version number:	ORYX F/W v4,00 Oryx Data Collector v3.7.2.0data status	okinstallation	B5 Nyhavnadifferential loss correction	single-endedforward channel	channel 2reverse channel	N/Adate	2023/12/12time	02:12:13forward acquisition time	300,00reverse acquisition time	0,00gamma	499,1914k internal	0,3156k external	0,3156temperature offset calibration	1,0000default loss term (dB/km)	0,3820temperature slope calibration	1,0000multiplexer offset coefficient	1,0000multiplexer slope coefficient	1,0000fibre end	0,00T internal ref (°C)	15,81T ext. ref 1 (°C)	-0,57T ext. ref 2 (°C)	-0,84length (m)	temperature (°C)	Stokes	anti-Stokes-744,400	73,787	-0,039	-0,031
-743,385	-52,491	-0,182	0,062
-742,371	-200,000	0,007	-0,082
-741,356	-160,150	-0,186	0,007
-740,342	166,327	0,036	0,038
-739,327	19,564	-0,224	-0,133
-738,312	-140,442	0,165	-0,012
-737,298	-78,029	-0,404	0,102
-736,283	800,000	0,040	0,083
-735,269	-35,244	-0,255	0,102
-734,254	117,707	0,069	0,062
-733,239	-99,064	-0,496	-0,092
-732,225	0,328	0,120	-0,063
-731,210	-142,291	0,068	-0,005
-730,196	-39,378	-0,082	-0,031
-729,181	-120,901	-0,092	0,011
-728,167	287,459	0,034	-0,045
-727,152	-200,000	-0,055	-0,244
-726,137	-32,355	-0,081	-0,033
-725,123	238,121	-0,067	-0,083
-724,108	25,975	0,053	-0,033
-723,094	-26,342	-0,173	-0,075
-722,079	24,595	-0,148	-0,090
-721,064	-59,157	0,145	-0,046
-720,050	800,000	0,021	0,060
-719,035	-33,688	-0,125	0,050
-718,021	767,236	-0,040	0,080
-717,006	269,012	-0,008	0,011
-715,991	-24,090	-0,057	0,025
-714,977	37,250	-0,042	-0,027
-713,962	-121,858	-0,126	-0,015
-712,948	-54,095	0,112	0,037
-711,933	107,422	0,033	0,029
-710,918	278,427	0,053	0,070
-709,904	800,000	-0,062	0,140
-708,889	336,078	0,024	-0,034
-707,875	-200,000	-0,003	-0,095
-706,860	-84,642	0,034	-0,008
-705,845	-114,395	-0,040	-0,006
-704,831	87,977	-0,008	-0,006
-703,816	643,301	0,014	0,027
-702,802	800,000	-0,022	-0,057
-701,787	747,418	-0,016	-0,031
-700,772	330,360	0,008	-0,012
-699,758	-59,210	-0,036	-0,011
-698,743	-52,728	0,075	-0,025
-697,729	-200,000	-0,007	0,145
-696,714	-168,276	0,149	0,004
-695,699	-200,000	0,010	0,088
-694,685	-90,757	-0,011	0,002
-693,670	800,000	0,023	-0,075
-692,656	28,309	0,023	0,014
-691,641	105,619	-0,107	0,093
-690,627	-200,000	0,009	0,092
-689,612	386,148	0,114	0,174
-688,597	-114,577	0,034	-0,005
-687,583	800,000	-0,034	-0,085
-686,568	169,985	0,091	-0,096
-685,554	-114,039	0,033	0,005
-684,539	564,067	0,071	-0,127
-683,524	-86,487	0,074	-0,017
-682,510	-200,000	-0,002	0,023
-681,495	304,293	-0,033	-0,046
-680,481	-200,000	0,010	-0,038
-679,466	780,923	0,047	-0,094
-678,451	58,796	-0,169	-0,122
-677,437	100,756	0,012	-0,011
-676,422	-200,000	-0,004	0,087
-675,408	800,000	0,014	-0,039
-674,393	800,000	-0,020	0,052
-673,378	-69,228	-0,086	0,024
-672,364	-200,000	0,011	-0,152
-671,349	-200,000	-0,003	-0,038
-670,335	5,410	0,052	0,028
-669,320	-52,288	0,048	-0,016
-668,305	-200,000	-0,009	-0,034
-667,291	259,216	0,060	0,077
-666,276	800,000	-0,008	0,017
-665,262	800,000	-0,005	-0,016
-664,247	-200,000	-0,025	-0,225
-663,232	-31,657	0,201	0,082
-662,218	-39,810	0,072	0,027
-661,203	95,440	-0,073	-0,061
-660,189	73,510	0,122	-0,094
-659,174	-200,000	0,015	-0,268
-658,159	31,138	-0,149	-0,094
-657,145	41,160	0,021	0,014
-656,130	800,000	0,011	0,027
-655,116	800,000	0,021	0,046
-654,101	29,064	-0,051	0,031
-653,086	360,124	-0,090	-0,133
-652,072	109,963	-0,101	-0,089
-651,057	-132,125	-0,127	-0,012
-650,043	-200,000	-0,021	-0,074
-649,028	-31,329	0,053	0,022
-648,014	800,000	0,036	0,077
-646,999	149,198	0,082	0,082
-645,984	25,428	-0,054	0,033
-644,970	652,777	-0,027	-0,051
-643,955	213,486	0,064	-0,075
-642,941	-86,163	-0,121	-0,027
-641,926	251,371	-0,070	0,088
-640,911	-200,000	-0,005	-0,052
-639,897	324,298	0,027	0,037
-638,882	-200,000	0,000	-0,018
-637,868	-93,936	-0,120	-0,024
-636,853	400,559	-0,107	-0,165
-635,838	800,000	-0,026	-0,075
-634,824	-200,000	0,002	0,054
-633,809	-1,819	-0,055	-0,028
-632,795	-57,151	0,158	0,051
-631,780	300,508	0,021	-0,029
-630,765	-43,091	-0,114	-0,042
-629,751	800,000	-0,100	-0,228
-628,736	-200,000	-0,016	-0,073
-627,722	-200,000	0,002	-0,015
-626,707	-200,000	0,012	0,040
-625,692	37,232	0,164	0,106
-624,678	-200,000	0,026	-0,091
-623,663	-200,000	0,004	0,114
-622,649	43,780	-0,187	-0,126
-621,634	800,000	0,014	0,036
-620,619	694,901	0,015	-0,029
-619,605	347,173	-0,024	-0,035
-618,590	-200,000	0,033	-0,117
-617,576	-20,825	-0,034	-0,015
-616,561	-200,000	0,014	-0,066
-615,546	800,000	0,030	0,080
-614,532	-127,205	0,061	0,006
-613,517	-69,997	0,127	-0,035
-612,503	31,100	-0,116	0,073
-611,488	-9,177	0,032	-0,015
-610,474	-200,000	0,017	0,057
-609,459	-182,908	-0,096	-0,001
-608,444	-200,000	0,012	-0,070
-607,430	-200,000	0,016	-0,091
-606,415	-200,000	0,002	-0,010
-605,401	-200,000	0,034	-0,116
-604,386	800,000	-0,049	0,143
-603,371	800,000	0,072	0,210
-602,357	105,830	0,064	0,056
-601,342	-128,598	-0,170	-0,017
-600,328	-40,989	0,037	0,014
-599,313	-200,000	0,033	-0,130
-598,298	178,450	0,069	-0,074
-597,284	-15,435	0,106	-0,050
-596,269	207,848	-0,095	0,109
-595,255	-102,877	-0,040	-0,007
-594,240	-101,010	-0,014	0,003
-593,225	-62,451	-0,055	-0,017
-592,211	692,503	-0,059	-0,114
-591,196	-67,326	0,034	-0,010
-590,182	-27,251	-0,089	0,038
-589,167	113,423	-0,049	-0,044
-588,152	-200,000	-0,006	0,160
-587,138	104,521	0,025	-0,022
-586,123	77,153	-0,085	-0,066
-585,109	484,724	0,003	0,005
-584,094	-116,570	-0,063	-0,008
-583,079	126,688	0,088	0,081
-582,065	409,990	0,050	-0,078
-581,050	-200,000	-0,023	-0,097
-580,036	-65,237	-0,005	-0,001
-579,021	-200,000	0,024	-0,122
-578,006	483,803	0,034	-0,057
-576,992	751,814	0,003	-0,006
-575,977	-128,090	0,036	-0,004
-574,963	130,875	0,058	0,054
-573,948	120,311	0,119	0,109
-572,934	215,147	0,060	0,070
-571,919	702,466	-0,041	-0,079
-570,904	800,000	-0,039	-0,116
-569,890	-200,000	-0,003	0,122
-568,875	-99,346	0,109	-0,020
-567,861	8,988	0,044	-0,024
-566,846	38,681	-0,038	-0,025
-565,831	-200,000	0,004	-0,050
-564,817	52,994	-0,065	-0,046
-563,802	-124,964	-0,170	0,019
-562,788	-129,756	-0,110	-0,011
-561,773	-200,000	-0,000	-0,023
-560,758	800,000	0,049	0,138
-559,744	-200,000	0,029	0,152
-558,729	-200,000	-0,009	0,106
-557,715	303,478	0,025	-0,034
-556,700	10,194	0,033	-0,018
-555,685	-89,415	-0,055	-0,012
-554,671	285,226	0,030	-0,039
-553,656	-91,682	-0,095	0,020
-552,642	-200,000	0,000	-0,007
-551,627	369,870	-0,081	0,121
-550,612	293,969	0,062	0,083
-549,598	16,191	0,053	-0,030
-548,583	300,358	0,093	-0,125
-547,569	160,981	-0,040	0,041
-546,554	-200,000	0,020	0,078
-545,539	277,428	-0,057	-0,074
-544,525	800,000	-0,048	0,103
-543,510	-113,911	-0,179	0,025
-542,496	-200,000	0,004	-0,068
-541,481	260,286	-0,066	-0,083
-540,466	-14,848	0,136	0,064
-539,452	358,861	0,045	0,066
-538,437	-15,834	-0,071	-0,033
-537,423	63,211	-0,038	-0,028
-536,408	642,268	-0,025	-0,047
-535,393	-112,357	0,026	-0,004
-534,379	-200,000	0,003	-0,040
-533,364	67,275	-0,043	0,032
-532,350	800,000	-0,034	-0,081
-531,335	548,339	-0,083	0,147
-530,321	145,169	-0,063	-0,062
-529,306	-98,289	-0,071	0,013
-528,291	-89,081	-0,068	-0,015
-527,277	311,210	-0,049	0,067
-526,262	118,991	0,089	0,080
-525,248	800,000	-0,021	0,052
-524,233	-65,587	0,125	-0,036
-523,218	-150,818	0,064	-0,004
-522,204	1,731	-0,095	0,050
-521,189	-200,000	-0,003	0,161
-520,175	10,047	-0,044	-0,025
-519,160	800,000	-0,082	-0,209
-518,145	-110,682	0,195	-0,029
-517,131	76,126	-0,032	-0,024
-516,116	-9,507	0,063	-0,031
-515,102	-200,000	0,013	-0,088
-514,087	576,710	-0,041	0,074
-513,072	548,580	-0,029	0,052
-512,058	-200,000	-0,009	-0,100
-511,043	-43,272	0,099	0,036
-510,029	23,054	0,067	0,040
-509,014	800,000	0,008	-0,019
-507,999	-111,852	-0,048	0,007
-506,985	-123,680	-0,123	0,014
-505,970	-200,000	-0,018	-0,066
-504,956	-200,000	-0,004	0,047
-503,941	-200,000	0,013	0,122
-502,926	-200,000	0,016	0,155
-501,912	716,680	-0,043	-0,084
-500,897	-200,000	-0,002	0,027
-499,883	-153,769	0,100	0,005
-498,868	302,852	0,107	-0,146
-497,853	45,498	0,089	-0,060
-496,839	800,000	0,039	-0,115
-495,824	-96,864	0,088	0,017
-494,810	9,447	0,043	0,024
-493,795	442,192	-0,073	0,117
-492,781	44,923	-0,031	0,021
-491,766	315,830	-0,046	-0,064
-490,751	-58,851	-0,108	0,034
-489,737	163,940	-0,041	0,042
-488,722	-32,668	0,153	-0,062
-487,708	41,657	0,042	-0,028
-486,693	-139,750	0,104	0,008
-485,678	-200,000	0,000	0,004
-484,664	144,880	0,022	0,022
-483,649	-112,529	0,197	-0,028
-482,635	93,923	-0,053	-0,044
-481,620	-200,000	-0,006	0,047
-480,605	-200,000	0,019	0,163
-479,591	44,474	0,046	-0,031
-478,576	168,032	0,091	-0,094
-477,562	-68,680	0,107	0,030
-476,547	-60,744	-0,082	0,025
-475,532	-200,000	0,016	-0,090
-474,518	800,000	0,041	0,088
-473,503	-93,613	0,081	0,016
-472,489	-200,000	0,011	-0,093
-471,474	699,079	-0,031	-0,060
-470,459	-35,926	-0,212	-0,083
-469,445	368,219	0,064	-0,094
-468,430	-200,000	-0,009	0,108
-467,416	-75,038	-0,098	0,025
-466,401	-200,000	-0,010	0,165
-465,386	-200,000	0,006	0,026
-464,372	270,609	0,077	0,099
-463,357	468,279	0,052	-0,086
-462,343	-160,273	-0,130	0,005
-461,328	-92,803	0,018	-0,004
-460,313	800,000	0,003	0,009
-459,299	-52,034	-0,149	-0,050
-458,284	-153,231	0,184	-0,009
-457,270	-200,000	0,015	0,064
-456,255	-106,348	-0,181	0,029
-455,241	94,322	-0,124	-0,103
-454,226	-200,000	0,012	0,115
-453,211	-85,262	-0,070	-0,016
-452,197	-200,000	0,003	0,157
-451,182	-100,528	-0,034	0,006
-450,168	455,824	0,046	0,074
-449,153	355,039	-0,079	0,115
-448,138	-116,319	-0,080	0,011
-447,124	-30,099	0,118	0,049
-446,109	-200,000	0,004	0,054
-445,095	-3,160	-0,012	0,006
-444,080	800,000	0,079	0,171
-443,065	87,439	-0,076	-0,061
-442,051	135,895	-0,074	-0,070
-441,036	-22,413	-0,028	0,012
-440,022	-200,000	0,009	-0,036
-439,007	-43,747	-0,090	0,033
-437,992	-200,000	0,033	-0,174
-436,978	-0,930	0,052	0,027
-435,963	401,232	-0,066	0,102
-434,949	-13,426	-0,125	-0,059
-433,934	27,716	-0,101	-0,062
-432,919	-68,464	-0,125	-0,035
-431,905	-200,000	0,018	-0,081
-430,890	155,772	0,071	-0,071
-429,876	9,309	-0,080	-0,044
-428,861	-200,000	-0,030	0,249
-427,846	800,000	-0,035	0,072
-426,832	86,046	0,097	0,078
-425,817	-200,000	0,011	-0,053
-424,803	-152,137	0,086	-0,004
-423,788	-200,000	0,001	0,088
-422,773	98,846	0,066	0,056
-421,759	-168,558	0,173	0,005
-420,744	-118,774	-0,214	0,027
-419,730	-91,386	-0,108	0,022
-418,715	6,379	0,183	0,099
-417,701	5,140	0,048	0,025
-416,686	98,431	0,094	-0,079
-415,671	-200,000	0,006	0,079
-414,657	112,028	-0,132	0,116
-413,642	-200,000	-0,008	-0,083
-412,628	-200,000	-0,002	-0,113
-411,613	-52,407	-0,172	-0,058
-410,598	72,421	0,103	0,078
-409,584	-200,000	-0,032	-0,240
-408,569	-200,000	0,015	0,000
-407,555	263,060	-0,032	0,041
-406,540	-200,000	0,005	0,058
-405,525	194,283	0,045	-0,049
-404,511	-60,686	-0,021	-0,006
-403,496	162,041	-0,025	0,025
-402,482	292,811	-0,032	0,043
-401,467	246,052	-0,025	0,031
-400,452	-50,973	-0,140	0,048
-399,438	-122,861	0,044	0,005
-398,423	-200,000	-0,035	-0,112
-397,409	-200,000	0,029	-0,115
-396,394	-152,459	-0,085	0,004
-395,379	155,804	0,038	0,039
-394,365	462,860	0,031	0,051
-393,350	-75,534	0,065	0,017
-392,336	154,107	-0,090	-0,090
-391,321	112,363	0,034	-0,030
-390,306	125,389	-0,093	0,086
-389,292	200,766	0,041	0,046
-388,277	-47,587	0,118	-0,042
-387,263	559,939	0,037	0,065
-386,248	-200,000	0,010	0,133
-385,233	-21,148	-0,125	-0,055
-384,219	611,863	-0,034	-0,061
-383,204	3,959	-0,076	-0,040
-382,190	528,611	0,052	-0,089
-381,175	48,697	0,033	0,022
-380,160	-146,186	-0,023	-0,001
-379,146	-104,718	0,099	-0,016
-378,131	-200,000	-0,001	-0,102
-377,117	183,519	-0,028	0,030
-376,102	-38,685	-0,055	-0,021
-375,088	478,718	-0,080	-0,131
-374,073	-107,388	0,082	-0,013
-373,058	492,677	0,073	0,122
-372,044	320,307	-0,073	0,100
-371,029	800,000	-0,038	0,078
-370,015	43,711	-0,036	0,024
-369,000	795,937	-0,009	0,018
-367,985	-200,000	-0,007	0,023
-366,971	48,679	-0,035	-0,023
-365,956	318,897	0,125	-0,173
-364,942	-150,256	0,052	-0,003
-363,927	475,939	0,037	0,061
-362,912	227,296	0,056	0,066
-361,898	206,576	-0,048	-0,055
-360,883	141,770	0,017	0,016
-359,869	-200,000	-0,017	-0,093
-358,854	800,000	-0,041	0,095
-357,839	152,552	0,168	0,166
-356,825	-200,000	0,004	0,033
-355,810	-200,000	-0,007	0,028
-354,796	452,305	-0,067	-0,108
-353,781	177,609	-0,081	-0,086
-352,766	40,805	0,088	-0,058
-351,752	176,888	0,080	-0,085
-350,737	-200,000	0,040	0,146
-349,723	-51,036	-0,228	0,077
-348,708	-101,349	-0,058	0,010
-347,693	-200,000	0,010	0,068
-346,679	48,322	-0,193	-0,131
-345,664	546,370	-0,041	-0,071
-344,650	503,370	0,040	0,067
-343,635	318,924	-0,041	0,057
-342,620	-139,707	0,111	0,008
-341,606	285,565	0,017	0,022
-340,591	-69,057	-0,093	-0,026
-339,577	-200,000	-0,021	0,151
-338,562	-2,108	-0,107	0,054
-337,548	50,429	-0,018	0,012
-336,533	24,878	-0,066	0,040
-335,518	-200,000	0,025	0,140
-334,504	800,000	0,042	0,116
-333,489	171,085	-0,046	-0,048
-332,475	322,072	0,055	-0,076
-331,460	-37,325	0,080	0,031
-330,445	797,239	0,031	0,063
-329,431	68,574	-0,036	0,027
-328,416	467,135	-0,142	0,231
-327,402	-200,000	0,027	0,100
-326,387	136,307	-0,053	0,050
-325,372	563,615	-0,101	-0,178
-324,358	569,589	0,025	-0,044
-323,343	-122,863	0,036	0,004
-322,329	213,918	0,052	-0,060
-321,314	-200,000	0,023	-0,116
-320,299	-164,176	-0,048	-0,002
-319,285	430,191	-0,006	-0,009
-318,270	498,417	0,021	0,035
-317,256	330,052	-0,087	-0,122
-316,241	158,574	0,045	-0,046
-315,226	-150,002	0,100	-0,006
-314,212	19,100	-0,092	-0,053
-313,197	395,182	0,037	0,056
-312,183	21,131	-0,084	0,049
-311,168	-200,000	0,012	0,046
-310,153	-200,000	0,019	-0,078
-309,139	448,544	-0,042	-0,068
-308,124	-41,579	0,068	0,025
-307,110	-200,000	0,011	-0,124
-306,095	222,964	0,076	0,088
-305,080	130,302	0,106	0,099
-304,066	-200,000	0,025	-0,113
-303,051	326,135	-0,101	-0,141
-302,037	-200,000	0,036	-0,186
-301,022	11,197	0,034	-0,019
-300,008	87,075	0,095	-0,076
-298,993	510,177	0,077	-0,130
-297,978	-78,974	-0,111	-0,027
-296,964	800,000	-0,035	0,073
-295,949	-34,232	-0,026	-0,010
-294,935	800,000	0,043	-0,136
-293,920	353,440	-0,089	-0,128
-292,905	554,238	-0,108	0,189
-291,891	3,470	0,234	0,123
-290,876	800,000	0,040	0,100
-289,862	19,297	0,203	-0,118
-288,847	-146,328	-0,134	0,008
-287,832	356,323	-0,060	-0,087
-286,818	-200,000	0,024	0,086
-285,803	-46,639	0,057	0,020
-284,789	-200,000	-0,014	0,128
-283,774	361,468	0,075	0,109
-282,759	92,439	0,083	0,068
-281,745	-200,000	-0,016	-0,169
-280,730	467,502	0,054	0,089
-279,716	-188,836	-0,031	0,000
-278,701	112,947	0,048	0,042
-277,686	383,587	0,115	0,172
-276,672	-200,000	-0,069	0,231
-275,657	775,672	0,057	0,114
-274,643	-68,304	0,132	-0,037
-273,628	800,000	-0,056	-0,169
-272,613	2,229	0,046	-0,024
-271,599	-115,536	0,094	0,013
-270,584	56,413	0,209	0,147
-269,570	337,551	-0,135	-0,190
-268,555	-60,158	0,099	-0,030
-267,540	-26,185	-0,138	-0,058
-266,526	269,580	-0,038	0,049
-265,511	-132,561	-0,130	-0,012
-264,497	756,792	0,028	0,056
-263,482	800,000	-0,044	0,103
-262,467	-123,064	-0,081	0,009
-261,453	-89,263	-0,011	-0,002
-260,438	-200,000	0,001	-0,123
-259,424	800,000	-0,011	-0,026
-258,409	70,382	-0,026	0,019
-257,395	5,790	0,112	-0,060
-256,380	-51,994	0,080	0,027
-255,365	27,451	0,074	0,045
-254,351	-200,000	-0,002	0,032
-253,336	-93,164	-0,046	-0,009
-252,322	460,000	0,043	-0,070
-251,307	-200,000	-0,001	0,006
-250,292	183,369	0,042	0,045
-249,278	28,461	0,076	0,046
-248,263	-50,943	0,058	0,020
-247,249	-200,000	-0,019	0,182
-246,234	-92,794	0,070	-0,014
-245,219	-174,273	-0,055	-0,001
-244,205	800,000	0,018	0,041
-243,190	-22,389	0,087	0,038
-242,176	800,000	0,011	0,026
-241,161	-198,520	0,096	-0,000
-240,146	800,000	-0,037	0,081
-239,132	55,965	0,084	0,059
-238,117	349,896	-0,053	-0,076
-237,103	40,042	0,072	-0,046
-236,088	-200,000	-0,034	-0,131
-235,073	-9,579	0,086	-0,041
-234,059	-200,000	-0,003	0,017
-233,044	-9,559	0,095	0,046
-232,030	800,000	-0,008	0,021
-231,015	-72,667	-0,039	-0,010
-230,000	-200,000	0,014	-0,055
-228,986	-116,696	0,081	-0,011
-227,971	304,591	-0,025	0,034
-226,957	-200,000	-0,012	0,062
-225,942	-200,000	0,013	0,113
-224,927	800,000	0,035	0,076
-223,913	-200,000	0,016	-0,104
-222,898	-91,175	0,129	0,026
-221,884	800,000	-0,052	-0,107
-220,869	65,609	0,130	-0,095
-219,855	-40,749	-0,070	0,026
-218,840	-15,140	0,110	0,050
-217,825	20,666	-0,142	0,083
-216,811	800,000	0,032	-0,096
-215,796	-48,014	-0,118	0,041
-214,782	-169,150	0,068	0,002
-213,767	-200,000	-0,004	-0,054
-212,752	152,499	0,108	-0,107
-211,738	309,217	-0,048	-0,065
-210,723	-68,538	0,083	-0,023
-209,709	-111,125	-0,071	-0,010
-208,694	-200,000	0,005	-0,139
-207,679	-118,108	0,138	-0,018
-206,665	-141,113	-0,117	-0,008
-205,650	-54,076	0,048	-0,016
-204,636	-58,074	0,014	-0,004
-203,621	-65,502	-0,051	-0,015
-202,606	-200,000	-0,026	-0,150
-201,592	800,000	0,033	0,092
-200,577	-200,000	-0,034	-0,129
-199,563	-24,887	-0,069	-0,030
-198,548	184,306	0,022	0,023
-197,533	800,000	0,054	-0,135
-196,519	28,100	-0,148	0,090
-195,504	-51,768	-0,062	-0,021
-194,490	-200,000	0,016	-0,062
-193,475	236,900	0,040	-0,048
-192,460	-200,000	-0,009	0,056
-191,446	-200,000	-0,023	-0,083
-190,431	-144,188	0,068	-0,004
-189,417	-84,313	-0,097	0,022
-188,402	-200,000	-0,009	-0,163
-187,387	366,307	-0,123	-0,180
-186,373	132,323	-0,158	-0,147
-185,358	293,682	-0,075	-0,099
-184,344	-105,949	0,077	0,012
-183,329	-143,942	0,156	0,010
-182,315	-56,177	0,147	0,047
-181,300	-159,213	-0,113	0,004
-180,285	-200,000	-0,005	-0,191
-179,271	192,656	-0,050	0,054
-178,256	122,529	0,170	0,153
-177,242	-200,000	0,017	0,068
-176,227	-60,978	-0,122	-0,037
-175,212	-133,155	-0,087	0,008
-174,198	204,444	0,080	-0,089
-173,183	632,417	-0,044	0,081
-172,169	101,896	-0,021	-0,018
-171,154	104,643	-0,030	0,026
-170,139	-200,000	0,043	0,200
-169,125	-130,858	0,070	0,007
-168,110	494,459	-0,038	0,064
-167,096	-200,000	0,014	-0,046
-166,081	-82,198	-0,135	-0,032
-165,066	-5,840	-0,025	-0,012
-164,052	-9,737	0,111	-0,053
-163,037	-200,000	0,011	0,083
-162,023	-200,000	-0,003	-0,032
-161,008	-47,267	0,109	0,038
-159,993	-28,537	0,070	0,029
-158,979	-200,000	0,004	-0,057
-157,964	-200,000	0,018	0,067
-156,950	211,679	-0,040	0,046
-155,935	-200,000	-0,005	-0,035
-154,920	158,007	-0,057	0,057
-153,906	278,107	0,044	0,056
-152,891	-200,000	-0,006	-0,066
-151,877	-166,505	-0,079	0,002
-150,862	27,070	0,058	-0,035
-149,847	-46,953	-0,130	-0,046
-148,833	800,000	0,047	0,109
-147,818	-5,912	-0,074	0,036
-146,804	138,430	0,048	-0,045
-145,789	-114,324	0,010	-0,001
-144,775	-200,000	-0,005	-0,038
-143,760	-9,934	-0,095	0,046
-142,745	-125,112	0,058	-0,006
-141,731	800,000	-0,075	0,156
-140,716	-200,000	-0,014	-0,100
-139,702	800,000	0,054	0,142
-138,687	1,613	-0,059	0,030
-137,672	-97,217	0,075	-0,014
-136,658	-74,674	0,067	0,017
-135,643	-200,000	-0,001	0,010
-134,629	800,000	-0,055	-0,120
-133,614	106,705	-0,057	0,049
-132,599	-54,223	0,074	0,024
-131,585	-78,670	-0,063	-0,015
-130,570	-200,000	-0,003	-0,036
-129,556	274,810	-0,040	-0,051
-128,541	255,730	0,040	-0,050
-127,526	451,615	0,078	-0,125
-126,512	137,390	0,056	-0,053
-125,497	-91,751	0,130	0,026
-124,483	-200,000	0,034	0,108
-123,468	507,705	-0,026	0,044
-122,453	-200,000	-0,010	-0,060
-121,439	27,112	-0,057	-0,035
-120,424	800,000	-0,043	0,093
-119,410	-200,000	0,004	0,041
