DTS Sentinel unit serial number:	SN410029Multiplexer serial number:	ORYXHardware model number:	OX2-SRSoftware version number:	ORYX F/W v4,00 Oryx Data Collector v3.7.2.0data status	okinstallation	B5 Nyhavnadifferential loss correction	single-endedforward channel	channel 2reverse channel	N/Adate	2023/12/14time	06:27:13forward acquisition time	300,00reverse acquisition time	0,00gamma	499,1914k internal	0,3158k external	0,3158temperature offset calibration	1,0000default loss term (dB/km)	0,3820temperature slope calibration	1,0000multiplexer offset coefficient	1,0000multiplexer slope coefficient	1,0000fibre end	0,00T internal ref (°C)	7,48T ext. ref 1 (°C)	-9,00T ext. ref 2 (°C)	-9,07length (m)	temperature (°C)	Stokes	anti-Stokes-744,400	30,797	0,185	0,117
-743,385	-100,393	-0,310	-0,056
-742,371	-26,964	0,170	0,073
-741,356	-72,569	-0,410	0,111
-740,342	272,094	0,133	0,174
-739,327	70,460	-0,227	-0,173
-738,312	-54,930	0,119	0,039
-737,298	-75,790	-0,371	-0,096
-736,283	70,769	0,180	-0,137
-735,269	-38,874	-0,291	-0,112
-734,254	800,000	0,088	0,285
-733,239	25,420	-0,478	-0,293
-732,225	-7,734	0,202	0,100
-731,210	175,324	-0,049	0,053
-730,196	-41,854	-0,057	0,021
-729,181	33,500	0,029	0,019
-728,167	-130,898	-0,094	0,009
-727,152	-200,000	-0,005	-0,081
-726,137	-200,000	-0,035	-0,123
-725,123	-200,000	-0,027	-0,146
-724,108	-10,597	-0,093	-0,045
-723,094	-200,000	-0,029	-0,111
-722,079	-0,369	-0,030	0,016
-721,064	-137,378	0,189	0,016
-720,050	-159,329	-0,163	-0,007
-719,035	-51,950	0,065	0,022
-718,021	109,811	-0,053	0,046
-717,006	-48,438	-0,108	-0,038
-715,991	-200,000	0,038	-0,147
-714,977	-109,422	0,079	-0,012
-713,962	-82,276	0,026	-0,006
-712,948	800,000	0,007	-0,016
-711,933	-62,269	-0,071	0,022
-710,918	-90,812	-0,028	-0,006
-709,904	75,760	-0,113	0,088
-708,889	-200,000	-0,027	0,127
-707,875	85,418	-0,073	-0,059
-706,860	800,000	-0,036	0,090
-705,845	-23,636	-0,095	0,042
-704,831	10,989	-0,090	0,050
-703,816	800,000	-0,031	-0,067
-702,802	75,610	-0,052	-0,040
-701,787	-36,021	-0,054	0,021
-700,772	342,048	-0,059	0,085
-699,758	-45,738	-0,144	-0,052
-698,743	800,000	0,037	0,088
-697,729	59,990	0,050	-0,036
-696,714	529,643	-0,039	0,069
-695,699	800,000	0,029	-0,070
-694,685	-20,710	-0,111	-0,050
-693,670	102,734	-0,068	-0,059
-692,656	-170,211	0,132	-0,003
-691,641	51,105	-0,116	0,081
-690,627	579,469	0,066	0,119
-689,612	-200,000	0,001	0,154
-688,597	800,000	-0,031	0,079
-687,583	-200,000	0,016	-0,121
-686,568	-88,611	-0,096	-0,021
-685,554	50,944	0,148	-0,103
-684,539	-25,835	-0,015	-0,006
-683,524	-200,000	0,003	0,083
-682,510	250,899	-0,022	0,028
-681,495	171,134	-0,063	-0,066
-680,481	-200,000	-0,010	-0,111
-679,466	-200,000	-0,017	0,124
-678,451	-94,190	-0,077	-0,015
-677,437	-115,928	-0,094	-0,013
-676,422	-179,118	0,122	-0,002
-675,408	-200,000	0,006	0,073
-674,393	0,049	-0,030	0,016
-673,378	800,000	0,032	-0,102
-672,364	-200,000	-0,036	-0,146
-671,349	-96,083	-0,092	-0,018
-670,335	800,000	-0,033	-0,094
-669,320	653,487	0,030	-0,057
-668,305	170,673	-0,023	-0,025
-667,291	-142,375	0,029	-0,002
-666,276	-137,189	-0,154	0,013
-665,262	-77,252	-0,132	-0,034
-664,247	6,238	-0,018	0,010
-663,232	-90,735	-0,138	0,029
-662,218	225,835	0,034	-0,040
-661,203	-200,000	-0,031	0,110
-660,189	-142,324	-0,081	0,006
-659,174	-112,797	-0,113	-0,016
-658,159	800,000	0,050	-0,139
-657,145	88,642	0,054	-0,044
-656,130	-120,650	0,008	-0,001
-655,116	493,234	0,032	-0,055
-654,101	52,257	0,041	0,029
-653,086	-200,000	0,014	-0,146
-652,072	32,306	-0,023	-0,014
-651,057	-200,000	0,031	-0,152
-650,043	-131,062	-0,010	0,001
-649,028	-22,877	-0,056	-0,025
-648,014	303,229	0,081	-0,111
-646,999	62,403	-0,083	-0,061
-645,984	-200,000	0,042	0,137
-644,970	645,799	-0,038	-0,072
-643,955	-200,000	0,015	-0,061
-642,941	654,927	0,063	-0,120
-641,926	-200,000	-0,004	-0,056
-640,911	-101,491	-0,030	-0,005
-639,897	-200,000	-0,002	-0,027
-638,882	-85,655	-0,081	-0,018
-637,868	533,111	-0,039	0,068
-636,853	-200,000	0,011	-0,073
-635,838	435,202	-0,055	-0,088
-634,824	205,601	-0,044	-0,051
-633,809	446,981	0,061	-0,099
-632,795	-142,325	0,034	-0,002
-631,780	800,000	-0,022	0,048
-630,765	76,880	-0,040	0,031
-629,751	31,138	0,034	-0,022
-628,736	-200,000	-0,009	-0,072
-627,722	14,619	-0,130	0,074
-626,707	-200,000	0,018	0,109
-625,692	-60,638	0,060	-0,019
-624,678	-200,000	0,014	0,112
-623,663	-200,000	0,015	0,051
-622,649	-200,000	-0,003	-0,040
-621,634	256,741	-0,057	0,072
-620,619	496,820	-0,020	-0,033
-619,605	5,161	-0,098	-0,053
-618,590	-92,392	0,175	0,036
-617,576	-178,237	0,097	-0,002
-616,561	-55,352	-0,074	-0,024
-615,546	-200,000	-0,025	0,093
-614,532	435,046	0,020	-0,031
-613,517	-200,000	0,009	0,078
-612,503	344,939	0,049	-0,071
-611,488	59,593	0,106	0,077
-610,474	537,433	-0,024	0,041
-609,459	48,256	-0,069	0,048
-608,444	-21,472	-0,020	0,009
-607,430	352,678	0,028	-0,040
-606,415	800,000	0,028	0,063
-605,401	-200,000	0,013	0,083
-604,386	-200,000	0,011	0,109
-603,371	108,081	0,023	-0,021
-602,357	800,000	-0,016	-0,032
-601,342	539,138	0,039	0,069
-600,328	266,560	-0,072	0,092
-599,313	357,309	-0,088	-0,130
-598,298	-200,000	0,010	-0,077
-597,284	800,000	0,012	0,031
-596,269	302,203	-0,104	0,141
-595,255	26,198	0,078	0,047
-594,240	-101,612	0,146	0,026
-593,225	800,000	-0,046	-0,095
-592,211	-4,105	-0,058	-0,030
-591,196	800,000	-0,041	0,088
-590,182	-200,000	-0,015	0,143
-589,167	105,085	-0,058	-0,050
-588,152	468,299	-0,055	0,090
-587,138	114,130	-0,064	0,057
-586,123	-1,542	0,098	-0,050
-585,109	576,153	-0,081	-0,145
-584,094	-9,592	-0,156	-0,076
-583,079	-128,246	0,125	-0,013
-582,065	-200,000	0,003	-0,043
-581,050	516,493	-0,078	0,134
-580,036	40,476	-0,070	0,046
-579,021	-200,000	-0,025	-0,121
-578,006	62,302	0,063	-0,046
-576,992	-200,000	-0,008	-0,042
-575,977	800,000	-0,039	0,109
-574,963	800,000	0,033	0,075
-573,948	-19,156	0,018	-0,008
-572,934	-40,844	0,039	0,015
-571,919	201,424	0,116	-0,131
-570,904	71,708	-0,095	-0,072
-569,890	800,000	0,072	-0,148
-568,875	-137,045	-0,051	0,004
-567,861	-200,000	0,028	0,152
-566,846	30,544	0,087	-0,055
-565,831	-200,000	-0,020	0,087
-564,817	-200,000	0,021	0,076
-563,802	15,168	-0,076	0,044
-562,788	43,684	0,111	-0,074
-561,773	23,682	0,078	-0,047
-560,758	138,459	-0,038	0,036
-559,744	-133,611	-0,089	0,008
-558,729	72,929	0,056	-0,043
-557,715	-102,800	0,108	0,019
-556,700	164,795	-0,088	0,091
-555,685	-200,000	0,008	-0,043
-554,671	-200,000	-0,004	-0,059
-553,656	143,017	0,096	0,094
-552,642	-200,000	0,042	-0,221
-551,627	-60,503	-0,090	-0,028
-550,612	-200,000	-0,041	-0,135
-549,598	235,017	-0,057	-0,069
-548,583	102,993	0,066	-0,056
-547,569	-22,219	0,129	-0,057
-546,554	21,070	0,084	-0,050
-545,539	731,437	-0,039	0,077
-544,525	-200,000	0,033	-0,152
-543,510	-139,990	-0,139	0,011
-542,496	-1,883	-0,119	0,061
-541,481	-200,000	0,010	0,053
-540,466	-31,233	-0,085	-0,035
-539,452	86,877	0,043	0,035
-538,437	429,648	0,045	-0,071
-537,423	-200,000	-0,029	0,099
-536,408	-12,962	0,030	-0,014
-535,393	-200,000	-0,030	-0,179
-534,379	421,120	-0,022	-0,035
-533,364	47,096	0,060	-0,041
-532,350	-140,334	0,017	-0,001
-531,335	-95,172	0,122	0,024
-530,321	86,587	0,050	0,041
-529,306	-200,000	-0,014	-0,068
-528,291	-200,000	-0,001	-0,107
-527,277	-200,000	-0,036	-0,137
-526,262	800,000	0,016	0,048
-525,248	777,529	0,067	0,134
-524,233	-18,442	0,073	-0,033
-523,218	-72,601	0,038	-0,010
-522,204	204,466	-0,087	0,099
-521,189	-200,000	0,007	-0,055
-520,175	-44,625	-0,124	-0,045
-519,160	800,000	-0,048	-0,146
-518,145	583,497	0,039	0,071
-517,131	-200,000	0,012	0,069
-516,116	16,415	-0,085	0,049
-515,102	-47,184	-0,144	0,051
-514,087	64,675	-0,101	0,074
-513,072	319,113	-0,048	-0,067
-512,058	-200,000	-0,011	-0,053
-511,043	-101,852	-0,054	-0,010
-510,029	-3,900	0,116	0,059
-509,014	-200,000	-0,001	0,048
-507,999	-99,596	-0,070	0,013
-506,985	0,431	0,123	-0,064
-505,970	-70,103	-0,099	-0,027
-504,956	-54,205	0,071	-0,023
-503,941	31,293	0,069	0,043
-502,926	390,902	0,064	-0,097
-501,912	338,657	0,021	-0,031
-500,897	-200,000	0,013	0,101
-499,883	800,000	0,036	-0,081
-498,868	-200,000	0,013	-0,113
-497,853	0,866	0,087	-0,046
-496,839	-161,465	0,112	-0,004
-495,824	608,144	-0,004	-0,007
-494,810	800,000	-0,061	-0,147
-493,795	-23,515	0,071	0,031
-492,781	-84,188	-0,060	-0,014
-491,766	371,956	0,050	-0,075
-490,751	-105,842	-0,258	-0,042
-489,737	228,944	0,033	0,039
-488,722	-40,816	0,147	-0,055
-487,708	232,205	0,057	-0,068
-486,693	128,397	-0,027	-0,025
-485,678	-200,000	-0,014	0,072
-484,664	17,101	-0,055	0,032
-483,649	-158,091	0,116	-0,005
-482,635	-16,702	0,041	0,019
-481,620	-150,126	-0,184	0,010
-480,605	393,831	-0,072	0,110
-479,591	-116,185	0,122	-0,016
-478,576	223,406	-0,084	0,099
-477,562	61,897	0,154	0,112
-476,547	-54,188	0,074	0,024
-475,532	-200,000	-0,004	-0,049
-474,518	800,000	0,040	-0,086
-473,503	-104,139	0,102	0,017
-472,489	-160,726	-0,039	0,001
-471,474	-112,662	0,012	-0,002
-470,459	-163,346	-0,221	0,008
-469,445	70,068	-0,109	-0,082
-468,430	-200,000	-0,014	-0,128
-467,416	-200,000	-0,015	-0,177
-466,401	-130,099	0,011	0,001
-465,386	800,000	0,032	0,092
-464,372	-155,522	0,103	-0,005
-463,357	-106,318	-0,075	0,012
-462,343	-61,857	-0,068	0,021
-461,328	-85,993	0,092	0,021
-460,313	800,000	0,052	0,112
-459,299	124,098	0,087	0,080
-458,284	-200,000	0,037	0,189
-457,270	-200,000	0,008	-0,108
-456,255	701,887	0,080	0,155
-455,241	17,452	-0,043	0,025
-454,226	-137,112	0,091	0,007
-453,211	-200,000	-0,004	0,118
-452,197	800,000	0,037	0,090
-451,182	-200,000	-0,007	0,026
-450,168	800,000	0,021	0,058
-449,153	-57,154	-0,080	0,026
-448,138	-200,000	0,022	-0,094
-447,124	16,845	-0,146	-0,084
-446,109	-122,181	0,153	0,018
-445,095	18,910	-0,019	0,011
-444,080	-200,000	0,017	-0,072
-443,065	29,730	-0,015	-0,010
-442,051	11,685	-0,127	-0,071
-441,036	155,544	-0,020	-0,020
-440,022	27,460	0,047	0,029
-439,007	-200,000	-0,017	-0,089
-437,992	800,000	0,031	-0,076
-436,978	800,000	-0,025	0,076
-435,963	800,000	-0,031	0,089
-434,949	559,492	-0,032	-0,056
-433,934	800,000	-0,033	-0,081
-432,919	385,354	0,015	0,023
-431,905	-54,952	-0,104	0,034
-430,890	-200,000	-0,003	-0,065
-429,876	-200,000	-0,010	0,107
-428,861	800,000	0,011	0,029
-427,846	800,000	0,078	0,178
-426,832	-75,925	0,074	-0,019
-425,817	-200,000	-0,028	0,095
-424,803	778,791	0,012	-0,023
-423,788	96,849	-0,055	-0,046
-422,773	-132,250	0,031	0,003
-421,759	128,335	0,061	0,057
-420,744	182,409	-0,106	0,114
-419,730	-9,646	-0,098	0,047
-418,715	-139,390	-0,098	0,008
-417,701	-200,000	0,024	-0,095
-416,686	-200,000	0,008	0,127
-415,671	108,924	0,139	0,121
-414,657	800,000	-0,031	0,066
-413,642	800,000	0,013	0,028
-412,628	92,613	-0,039	0,032
-411,613	-200,000	-0,014	-0,091
-410,598	-200,000	-0,001	-0,020
-409,584	-200,000	-0,036	-0,119
-408,569	201,924	0,055	0,062
-407,555	-200,000	0,008	0,039
-406,540	-200,000	-0,015	0,072
-405,525	800,000	0,042	-0,129
-404,511	-200,000	0,022	-0,078
-403,496	436,931	-0,085	-0,135
-402,482	186,818	-0,028	0,031
-401,467	772,862	-0,055	0,110
-400,452	-26,099	0,033	0,014
-399,438	356,819	-0,046	0,067
-398,423	-36,940	0,037	-0,014
-397,409	12,136	-0,072	-0,040
-396,394	-200,000	-0,030	-0,103
-395,379	-200,000	-0,001	0,170
-394,365	607,734	0,078	0,142
-393,350	-76,924	-0,020	0,005
-392,336	-200,000	-0,015	0,089
-391,321	107,368	0,056	-0,048
-390,306	800,000	-0,032	-0,084
-389,292	-157,063	-0,166	-0,007
-388,277	10,482	0,108	0,060
-387,263	166,675	-0,069	-0,071
-386,248	141,123	-0,076	0,073
-385,233	-198,682	0,031	-0,000
-384,219	186,329	0,042	0,045
-383,204	692,523	-0,013	-0,025
-382,190	-200,000	0,031	-0,182
-381,175	354,716	-0,088	-0,128
-380,160	584,773	-0,040	-0,072
-379,146	800,000	-0,042	0,108
-378,131	-97,192	0,069	0,013
-377,117	605,083	-0,050	0,091
-376,102	-119,100	-0,006	0,001
-375,088	173,096	-0,023	0,024
-374,073	170,739	0,117	-0,122
-373,058	243,028	-0,099	0,121
-372,044	-200,000	0,003	0,024
-371,029	-200,000	-0,018	-0,073
-370,015	-71,583	0,112	-0,030
-369,000	151,801	-0,126	-0,125
-367,985	22,867	-0,161	-0,096
-366,971	341,599	0,034	0,048
-365,956	-200,000	-0,035	0,171
-364,942	97,135	0,091	-0,075
-363,927	-14,111	0,120	0,056
-362,912	54,066	0,020	-0,014
-361,898	153,669	-0,041	0,040
-360,883	-160,426	0,139	-0,005
-359,869	800,000	0,019	0,046
-358,854	595,746	0,038	-0,068
-357,839	-200,000	0,035	-0,147
-356,825	106,408	-0,104	-0,090
-355,810	137,936	0,048	-0,046
-354,796	-200,000	-0,094	0,000
-353,781	-200,000	0,018	-0,148
-352,766	800,000	-0,056	0,132
-351,752	10,066	-0,030	-0,017
-350,737	356,883	0,130	0,189
-349,723	-18,448	0,065	0,029
-348,708	-200,000	-0,004	-0,044
-347,693	148,225	-0,023	-0,023
-346,679	-200,000	-0,004	-0,026
-345,664	-200,000	0,008	-0,057
-344,650	-51,124	0,067	0,023
-343,635	26,559	0,049	0,030
-342,620	-137,706	-0,049	-0,004
-341,606	-94,050	0,088	-0,017
-340,591	800,000	-0,060	-0,121
-339,577	-80,054	-0,128	0,031
-338,562	-56,031	0,069	0,022
-337,548	-121,878	-0,065	0,008
-336,533	37,635	0,109	0,070
-335,518	800,000	-0,047	0,114
-334,504	-52,198	-0,116	0,039
-333,489	-200,000	0,015	-0,065
-332,475	536,825	-0,076	0,132
-331,460	454,005	-0,034	-0,055
-330,445	52,835	-0,015	0,011
-329,431	-51,833	0,014	-0,005
-328,416	-80,394	-0,070	-0,017
-327,402	27,606	-0,090	0,055
-326,387	-59,716	-0,153	0,047
-325,372	-117,487	-0,178	0,023
-324,358	-28,959	-0,021	-0,009
-323,343	545,334	0,083	0,145
-322,329	800,000	0,030	0,085
-321,314	127,424	-0,082	-0,076
-320,299	1,220	0,080	0,042
-319,285	282,643	0,085	0,110
-318,270	-16,453	0,073	0,033
-317,256	-45,437	-0,176	-0,063
-316,241	313,085	-0,088	-0,121
-315,226	-200,000	0,001	0,049
-314,212	136,280	0,036	-0,034
-313,197	275,817	-0,057	-0,074
-312,183	32,673	0,068	0,042
-311,168	-200,000	-0,007	-0,194
-310,153	168,050	-0,048	-0,050
-309,139	-32,195	0,066	-0,027
-308,124	141,389	0,066	0,063
-307,110	-121,775	-0,028	-0,003
-306,095	-101,375	0,075	0,013
-305,080	-165,714	-0,091	0,003
-304,066	-119,560	-0,140	0,017
-303,051	492,572	0,050	-0,084
-302,037	-78,116	-0,139	-0,034
-301,022	12,077	0,063	0,035
-300,008	-200,000	0,020	0,103
-298,993	643,992	0,041	-0,075
-297,978	800,000	0,095	-0,196
-296,964	-102,593	0,028	-0,005
-295,949	-139,508	-0,012	-0,001
-294,935	-60,688	-0,013	0,004
-293,920	-44,102	0,076	-0,028
-292,905	43,425	-0,126	0,083
-291,891	308,523	0,054	0,073
-290,876	-182,509	0,123	0,002
-289,862	344,558	-0,057	-0,081
-288,847	-79,006	-0,083	0,020
-287,832	800,000	-0,026	-0,076
-286,818	-89,533	0,124	0,026
-285,803	-53,886	-0,070	0,023
-284,789	-200,000	-0,014	0,126
-283,774	800,000	0,038	0,084
-282,759	-45,028	0,047	0,017
-281,745	800,000	0,062	-0,124
-280,730	800,000	0,027	-0,080
-279,716	278,817	-0,104	0,134
-278,701	-200,000	-0,002	0,039
-277,686	10,067	0,131	0,072
-276,672	-66,688	-0,053	0,015
-275,657	59,076	-0,039	-0,028
-274,643	214,868	-0,085	-0,098
-273,628	-46,343	0,120	-0,042
-272,613	8,067	-0,078	-0,042
-271,599	72,920	0,060	-0,045
-270,584	134,067	0,051	-0,048
-269,570	800,000	-0,036	-0,093
-268,555	-200,000	0,009	-0,091
-267,540	86,441	0,015	0,012
-266,526	209,198	0,033	0,037
-265,511	800,000	0,041	0,114
-264,497	-137,855	0,050	0,004
-263,482	-85,798	0,105	0,023
-262,467	-200,000	-0,002	-0,035
-261,453	31,564	0,083	-0,052
-260,438	166,117	-0,032	0,032
-259,424	244,578	0,092	0,113
-258,409	-200,000	0,001	-0,074
-257,395	667,740	0,045	-0,084
-256,380	360,051	-0,071	0,104
-255,365	7,370	0,026	0,014
-254,351	-47,598	0,118	0,041
-253,336	-102,010	-0,199	0,034
-252,322	161,343	0,038	0,038
-251,307	582,902	0,026	-0,047
-250,292	98,197	-0,111	0,093
-249,278	27,964	0,126	-0,076
-248,263	360,434	0,033	-0,048
-247,249	-82,589	-0,038	0,009
-246,234	350,499	-0,125	0,179
-245,219	59,654	0,075	0,053
-244,205	155,990	-0,011	-0,011
-243,190	-40,622	0,041	0,015
-242,176	-21,089	0,189	0,083
-241,161	-200,000	0,003	0,059
-240,146	-98,310	-0,079	-0,014
-239,132	-200,000	0,001	0,019
-238,117	-200,000	-0,021	-0,076
-237,103	-44,958	0,049	0,017
-236,088	800,000	-0,032	-0,071
-235,073	-114,079	-0,075	0,010
-234,059	-200,000	0,002	-0,022
-233,044	126,412	0,085	0,078
-232,030	800,000	0,053	0,120
-231,015	-65,394	0,203	-0,059
-230,000	384,929	-0,121	-0,181
-228,986	-77,694	0,110	-0,027
-227,971	33,447	0,077	0,048
-226,957	-27,783	0,079	0,033
-225,942	-200,000	0,003	0,132
-224,927	-200,000	-0,013	0,101
-223,913	-111,081	-0,024	-0,003
-222,898	145,657	-0,064	-0,062
-221,884	148,281	-0,076	-0,075
-220,869	800,000	-0,021	0,052
-219,855	131,055	0,068	-0,063
-218,840	-109,580	0,095	0,014
-217,825	185,192	-0,066	0,070
-216,811	142,807	-0,042	-0,041
-215,796	-200,000	0,013	0,088
-214,782	476,352	0,088	-0,144
-213,767	641,582	-0,036	0,067
-212,752	149,931	-0,073	-0,071
-211,738	359,835	-0,048	0,070
-210,723	7,042	0,175	0,094
-209,709	-200,000	0,030	-0,125
-208,694	112,556	-0,032	-0,028
-207,679	-93,584	0,062	0,012
-206,665	-51,336	-0,100	0,034
-205,650	-46,356	-0,015	0,005
-204,636	472,305	0,066	0,108
-203,621	-122,758	0,134	-0,015
-202,606	71,635	-0,155	-0,116
-201,592	104,405	0,047	-0,040
-200,577	-42,583	-0,212	-0,078
-199,563	-105,939	0,125	0,020
-198,548	800,000	-0,037	0,076
-197,533	-98,351	0,073	-0,013
-196,519	-140,217	-0,073	-0,005
-195,504	169,946	-0,067	0,070
-194,490	-35,299	-0,112	-0,044
-193,475	147,023	0,066	0,064
-192,460	-200,000	-0,010	0,105
-191,446	-200,000	0,031	0,136
-190,431	69,052	0,079	-0,059
-189,417	98,266	0,103	0,085
-188,402	800,000	-0,016	0,037
-187,387	176,885	-0,057	-0,060
-186,373	-200,000	0,005	-0,229
-185,358	449,858	0,052	-0,083
-184,344	-135,659	0,128	0,011
-183,329	-136,356	0,065	-0,005
-182,315	-200,000	0,007	-0,127
-181,300	354,455	-0,028	-0,040
-180,285	113,648	-0,041	-0,036
-179,271	157,586	-0,038	-0,038
-178,256	724,625	0,077	0,149
-177,242	-151,691	-0,224	-0,012
-176,227	-139,947	0,002	-0,000
-175,212	0,731	0,090	0,046
-174,198	-1,515	-0,109	-0,055
-173,183	-80,958	-0,068	-0,016
-172,169	-187,849	-0,140	0,001
-171,154	230,352	0,074	-0,087
-170,139	-200,000	-0,018	-0,105
-169,125	800,000	-0,033	0,085
-168,110	65,343	0,069	-0,050
-167,096	800,000	-0,036	0,087
-166,081	-146,731	-0,067	-0,004
-165,066	0,864	-0,080	-0,041
-164,052	-200,000	0,025	0,083
-163,037	100,630	-0,014	-0,012
-162,023	209,696	0,107	-0,121
-161,008	137,701	0,106	0,100
-159,993	15,149	0,055	-0,031
-158,979	-73,130	0,019	0,005
-157,964	-200,000	0,001	0,063
-156,950	97,170	-0,042	-0,035
-155,935	-121,118	0,104	-0,012
-154,920	261,813	-0,096	0,120
-153,906	308,235	0,048	0,065
-152,891	-200,000	-0,014	0,063
-151,877	800,000	-0,007	0,018
-150,862	-66,273	-0,098	-0,028
-149,847	11,003	-0,144	-0,079
-148,833	158,461	0,070	0,070
-147,818	753,242	-0,037	-0,072
-146,804	-200,000	0,001	-0,151
-145,789	-200,000	0,017	0,071
-144,775	800,000	0,030	-0,066
-143,760	-141,213	-0,108	-0,008
-142,745	-32,051	-0,092	0,037
-141,731	484,726	0,110	-0,182
-140,716	91,888	0,052	0,042
-139,702	39,339	0,078	0,050
-138,687	-56,288	0,149	0,047
-137,672	-200,000	0,018	0,200
-136,658	-77,128	-0,079	-0,020
-135,643	800,000	-0,061	0,149
-134,629	-200,000	0,022	0,151
-133,614	-200,000	0,010	0,042
-132,599	365,678	0,059	0,085
-131,585	800,000	0,011	0,028
-130,570	-101,801	-0,093	-0,016
-129,556	-200,000	-0,019	-0,082
-128,541	176,909	0,057	-0,060
-127,526	241,027	-0,027	-0,032
-126,512	-200,000	0,035	0,143
-125,497	-200,000	0,021	0,070
-124,483	800,000	0,019	0,046
-123,468	800,000	0,033	0,073
-122,453	-200,000	-0,001	0,074
-121,439	-24,733	-0,127	0,054
-120,424	323,358	-0,028	-0,038
-119,410	800,000	-0,017	-0,042
