DTS Sentinel unit serial number:	SN410029Multiplexer serial number:	ORYXHardware model number:	OX2-SRSoftware version number:	ORYX F/W v4,00 Oryx Data Collector v3.7.2.0data status	okinstallation	B5 Nyhavnadifferential loss correction	single-endedforward channel	channel 2reverse channel	N/Adate	2023/12/12time	01:27:13forward acquisition time	300,00reverse acquisition time	0,00gamma	499,1914k internal	0,3156k external	0,3156temperature offset calibration	1,0000default loss term (dB/km)	0,3820temperature slope calibration	1,0000multiplexer offset coefficient	1,0000multiplexer slope coefficient	1,0000fibre end	0,00T internal ref (°C)	15,93T ext. ref 1 (°C)	-0,47T ext. ref 2 (°C)	-0,76length (m)	temperature (°C)	Stokes	anti-Stokes-744,400	551,977	0,064	0,113
-743,385	-45,304	-0,302	0,110
-742,371	-50,704	0,068	0,023
-741,356	-100,380	-0,312	0,056
-740,342	-43,818	0,147	0,054
-739,327	-150,021	-0,251	0,014
-738,312	-200,000	0,009	-0,157
-737,298	-115,123	-0,272	0,038
-736,283	-127,295	0,065	-0,007
-735,269	-21,859	-0,197	0,088
-734,254	-200,000	0,006	0,066
-733,239	-13,361	-0,411	-0,196
-732,225	15,648	0,180	0,104
-731,210	-200,000	0,023	0,108
-730,196	218,214	-0,030	-0,035
-729,181	53,028	-0,132	-0,093
-728,167	148,218	-0,085	0,085
-727,152	58,387	0,070	0,051
-726,137	-41,206	-0,149	-0,056
-725,123	800,000	-0,018	-0,042
-724,108	-200,000	-0,024	-0,088
-723,094	174,425	-0,114	-0,122
-722,079	409,208	0,075	-0,117
-721,064	382,858	0,048	-0,073
-720,050	-185,764	-0,035	0,000
-719,035	-76,734	0,070	0,018
-718,021	-49,953	-0,064	0,022
-717,006	800,000	0,018	-0,056
-715,991	-84,901	-0,159	-0,036
-714,977	-168,533	0,085	-0,002
-713,962	61,747	0,089	-0,065
-712,948	-117,718	-0,135	0,018
-711,933	141,005	0,078	-0,076
-710,918	44,225	0,129	0,087
-709,904	-123,830	-0,077	0,009
-708,889	-200,000	-0,021	-0,143
-707,875	295,096	0,056	-0,076
-706,860	676,675	-0,040	-0,077
-705,845	11,782	-0,050	0,028
-704,831	535,902	0,025	-0,044
-703,816	-200,000	0,002	-0,012
-702,802	-118,734	-0,193	-0,025
-701,787	-200,000	-0,020	-0,072
-700,772	361,285	0,019	-0,028
-699,758	188,980	0,020	0,022
-698,743	-49,425	0,207	0,072
-697,729	0,540	-0,044	0,023
-696,714	14,334	-0,046	-0,026
-695,699	800,000	-0,047	-0,097
-694,685	632,829	-0,024	-0,046
-693,670	134,005	0,017	0,017
-692,656	41,207	0,020	-0,013
-691,641	800,000	-0,027	-0,056
-690,627	223,725	0,087	-0,104
-689,612	29,373	0,127	-0,079
-688,597	-200,000	0,019	-0,064
-687,583	-55,763	-0,082	-0,027
-686,568	-88,805	0,074	0,016
-685,554	61,176	-0,056	0,041
-684,539	332,434	0,100	0,142
-683,524	-11,713	0,075	-0,036
-682,510	-200,000	-0,001	0,032
-681,495	-200,000	0,056	0,183
-680,481	-15,763	-0,087	0,040
-679,466	-200,000	-0,009	-0,044
-678,451	37,470	0,106	-0,069
-677,437	30,236	-0,085	-0,053
-676,422	-200,000	0,021	-0,126
-675,408	-77,227	0,052	0,013
-674,393	276,483	0,074	0,097
-673,378	23,000	-0,128	-0,077
-672,364	312,703	0,038	-0,053
-671,349	206,057	-0,091	-0,105
-670,335	800,000	-0,025	-0,060
-669,320	145,893	0,093	0,092
-668,305	179,954	-0,077	0,083
-667,291	190,323	0,034	-0,038
-666,276	-200,000	-0,005	-0,080
-665,262	800,000	-0,025	-0,051
-664,247	-29,812	0,151	0,063
-663,232	52,513	-0,165	0,116
-662,218	286,710	0,040	0,053
-661,203	-200,000	-0,004	0,035
-660,189	-41,061	-0,084	0,032
-659,174	442,341	0,054	-0,087
-658,159	546,558	0,058	-0,102
-657,145	-159,948	-0,026	0,001
-656,130	-32,204	-0,078	0,032
-655,116	361,406	0,026	-0,039
-654,101	41,576	-0,026	0,017
-653,086	129,093	-0,106	0,099
-652,072	800,000	-0,040	-0,120
-651,057	-139,860	0,074	-0,006
-650,043	63,574	-0,048	-0,035
-649,028	800,000	-0,030	-0,079
-648,014	-45,456	0,050	-0,018
-646,999	-6,837	-0,028	0,014
-645,984	186,366	0,085	0,093
-644,970	800,000	-0,074	0,173
-643,955	800,000	0,013	0,033
-642,941	800,000	-0,002	0,005
-641,926	-90,320	0,055	0,012
-640,911	-96,003	0,071	0,014
-639,897	25,987	-0,040	-0,025
-638,882	800,000	-0,011	0,035
-637,868	-91,203	0,080	-0,017
-636,853	800,000	-0,031	0,065
-635,838	-200,000	0,011	0,053
-634,824	-46,494	-0,078	0,028
-633,809	800,000	0,063	0,145
-632,795	79,025	0,168	0,132
-631,780	-200,000	0,015	0,090
-630,765	-200,000	-0,005	0,085
-629,751	321,441	-0,031	-0,043
-628,736	-100,569	0,010	-0,002
-627,722	-123,046	-0,024	0,003
-626,707	111,468	0,120	-0,106
-625,692	-200,000	0,031	0,102
-624,678	-110,639	-0,058	-0,009
-623,663	-200,000	-0,007	0,034
-622,649	77,130	0,063	-0,049
-621,634	-102,271	-0,130	-0,023
-620,619	-129,225	-0,098	-0,010
-619,605	-200,000	0,022	0,082
-618,590	99,631	-0,083	-0,070
-617,576	-152,194	-0,109	-0,006
-616,561	800,000	-0,033	0,077
-615,546	-125,022	-0,059	-0,007
-614,532	53,667	-0,099	-0,070
-613,517	331,292	-0,056	-0,079
-612,503	125,632	0,104	0,096
-611,488	800,000	0,036	-0,094
-610,474	-200,000	0,006	-0,044
-609,459	75,468	0,079	-0,061
-608,444	-128,271	-0,136	0,014
-607,430	800,000	-0,023	0,067
-606,415	270,691	-0,073	0,095
-605,401	13,940	-0,070	0,040
-604,386	47,644	0,103	-0,070
-603,371	-41,598	0,082	-0,031
-602,357	-200,000	-0,014	0,115
-601,342	800,000	0,024	-0,059
-600,328	-200,000	-0,001	-0,107
-599,313	800,000	-0,040	0,082
-598,298	-138,273	0,141	-0,011
-597,284	800,000	0,031	-0,066
-596,269	800,000	0,009	-0,021
-595,255	-200,000	-0,010	-0,126
-594,240	-128,960	-0,043	-0,004
-593,225	565,389	0,053	0,095
-592,211	-200,000	0,002	-0,117
-591,196	-129,317	0,155	-0,016
-590,182	-200,000	-0,006	0,063
-589,167	-107,685	0,117	-0,019
-588,152	-200,000	-0,010	-0,058
-587,138	317,671	-0,047	-0,065
-586,123	-200,000	0,001	-0,234
-585,109	-6,847	-0,090	-0,045
-584,094	-132,710	0,065	-0,006
-583,079	40,807	0,121	-0,080
-582,065	191,366	-0,088	0,097
-581,050	-70,909	-0,075	0,020
-580,036	-107,437	-0,050	-0,008
-579,021	71,637	-0,034	-0,026
-578,006	35,623	-0,063	-0,041
-576,992	284,816	0,042	0,056
-575,977	66,427	0,035	0,026
-574,963	800,000	-0,013	-0,031
-573,948	-79,017	0,020	0,005
-572,934	108,574	-0,034	0,030
-571,919	-200,000	-0,005	-0,031
-570,904	-200,000	-0,013	0,073
-569,890	26,264	0,147	0,090
-568,875	800,000	0,075	0,162
-567,861	234,218	-0,098	0,119
-566,846	367,518	-0,077	-0,114
-565,831	800,000	0,013	0,040
-564,817	354,951	-0,029	-0,042
-563,802	456,434	-0,051	-0,083
-562,788	68,394	0,076	-0,057
-561,773	10,286	-0,102	0,057
-560,758	73,715	0,147	-0,113
-559,744	-200,000	0,020	-0,073
-558,729	-200,000	0,012	0,084
-557,715	-200,000	0,004	0,062
-556,700	-22,025	-0,020	0,009
-555,685	-200,000	0,007	-0,203
-554,671	254,959	0,060	0,075
-553,656	-200,000	0,019	0,129
-552,642	507,821	-0,049	0,083
-551,627	-133,793	-0,107	0,010
-550,612	800,000	0,028	-0,073
-549,598	378,703	-0,036	-0,054
-548,583	-200,000	0,014	-0,122
-547,569	-88,028	-0,057	-0,012
-546,554	800,000	-0,045	0,098
-545,539	148,479	-0,055	0,055
-544,525	86,629	0,097	0,078
-543,510	253,831	0,012	-0,015
-542,496	725,273	-0,039	-0,077
-541,481	31,493	-0,107	-0,067
-540,466	-200,000	0,006	-0,127
-539,452	-200,000	0,023	0,119
-538,437	62,412	-0,119	0,087
-537,423	800,000	-0,050	0,117
-536,408	-19,143	-0,050	-0,023
-535,393	800,000	-0,059	-0,188
-534,379	663,310	0,075	-0,143
-533,364	271,638	0,048	0,062
-532,350	-85,184	-0,029	-0,007
-531,335	467,500	0,062	-0,102
-530,321	628,930	0,003	0,006
-529,306	800,000	-0,054	0,110
-528,291	-71,901	-0,073	0,020
-527,277	-19,582	-0,186	0,084
-526,262	48,279	0,073	-0,050
-525,248	435,359	-0,056	-0,089
-524,233	102,284	0,164	0,140
-523,218	80,442	-0,044	-0,035
-522,204	-39,065	-0,051	0,020
-521,189	103,705	-0,068	0,059
-520,175	-32,196	-0,069	-0,028
-519,160	86,821	-0,053	-0,043
-518,145	165,451	-0,098	0,101
-517,131	-158,926	0,057	0,002
-516,116	189,255	0,018	0,020
-515,102	-125,022	0,136	-0,015
-514,087	62,377	0,032	-0,023
-513,072	800,000	0,047	-0,136
-512,058	121,946	-0,060	-0,054
-511,043	-200,000	0,011	0,077
-510,029	800,000	-0,067	-0,162
-509,014	-153,165	0,072	-0,004
-507,999	-200,000	-0,005	0,081
-506,985	-97,137	0,071	-0,013
-505,970	597,803	-0,009	-0,017
-504,956	197,322	-0,060	0,067
-503,941	613,295	-0,040	0,073
-502,926	148,606	0,110	0,109
-501,912	-200,000	-0,001	0,084
-500,897	-163,064	0,048	0,002
-499,883	-114,677	-0,005	0,001
-498,868	-8,852	0,013	-0,006
-497,853	800,000	-0,064	-0,152
-496,839	36,621	-0,032	-0,021
-495,824	800,000	0,022	0,065
-494,810	-200,000	0,020	-0,133
-493,795	255,817	-0,058	0,073
-492,781	-200,000	-0,005	0,056
-491,766	-43,592	-0,146	0,053
-490,751	-45,928	0,048	0,017
-489,737	60,447	-0,095	-0,069
-488,722	-200,000	0,004	-0,055
-487,708	800,000	-0,037	0,095
-486,693	-200,000	-0,015	-0,086
-485,678	521,556	0,102	0,175
-484,664	258,622	0,028	-0,035
-483,649	800,000	0,023	0,051
-482,635	-133,933	0,051	-0,005
-481,620	-200,000	0,004	0,168
-480,605	-55,278	0,086	-0,028
-479,591	3,714	0,069	-0,036
-478,576	-41,134	0,180	-0,067
-477,562	154,870	-0,121	-0,122
-476,547	25,055	0,099	-0,060
-475,532	-56,771	-0,059	0,019
-474,518	38,363	-0,024	0,015
-473,503	107,639	0,066	-0,057
-472,489	800,000	-0,009	-0,022
-471,474	352,699	0,033	-0,048
-470,459	-200,000	-0,012	-0,063
-469,445	485,246	0,102	0,170
-468,430	800,000	-0,035	0,075
-467,416	48,129	0,052	0,035
-466,401	114,277	-0,071	0,063
-465,386	337,470	0,081	0,116
-464,372	210,282	-0,092	-0,106
-463,357	-200,000	-0,039	-0,149
-462,343	-200,000	-0,029	-0,140
-461,328	109,008	-0,150	-0,131
-460,313	437,815	0,109	-0,174
-459,299	-20,930	0,038	0,017
-458,284	56,928	0,022	0,016
-457,270	-64,881	-0,092	-0,027
-456,255	-200,000	0,041	-0,184
-455,241	38,061	-0,025	-0,016
-454,226	-23,653	-0,065	0,028
-453,211	-200,000	0,005	-0,105
-452,197	-84,287	0,063	-0,014
-451,182	381,083	0,088	0,132
-450,168	-62,788	-0,017	-0,005
-449,153	-140,037	0,093	0,007
-448,138	-200,000	-0,002	-0,041
-447,124	-200,000	-0,012	-0,074
-446,109	-200,000	-0,044	0,183
-445,095	-200,000	0,043	0,161
-444,080	-166,451	-0,056	-0,002
-443,065	800,000	-0,016	-0,040
-442,051	-166,140	0,137	0,004
-441,036	-200,000	-0,007	0,047
-440,022	12,016	-0,109	0,061
-439,007	-140,077	0,029	0,002
-437,992	320,763	-0,074	0,102
-436,978	-124,616	0,111	0,012
-435,963	13,340	0,132	0,074
-434,949	-28,231	0,072	0,030
-433,934	-136,460	-0,114	0,010
-432,919	800,000	-0,003	0,008
-431,905	-106,334	0,020	-0,003
-430,890	300,328	0,094	0,127
-429,876	-200,000	-0,010	0,108
-428,861	241,730	-0,049	0,059
-427,846	446,677	-0,044	-0,072
-426,832	167,493	-0,151	-0,157
-425,817	353,182	-0,044	-0,064
-424,803	112,184	-0,109	-0,096
-423,788	46,767	0,095	-0,064
-422,773	800,000	0,018	0,046
-421,759	18,116	0,007	0,004
-420,744	800,000	0,029	-0,089
-419,730	-112,633	-0,149	-0,021
-418,715	441,280	-0,051	-0,082
-417,701	-119,815	0,082	0,010
-416,686	6,866	0,084	0,046
-415,671	-85,836	-0,074	-0,017
-414,657	800,000	-0,009	0,020
-413,642	400,491	-0,060	0,092
-412,628	800,000	0,021	0,045
-411,613	12,534	-0,083	-0,046
-410,598	800,000	-0,021	0,067
-409,584	69,538	0,053	0,039
-408,569	691,634	0,079	0,151
-407,555	-103,859	0,073	-0,012
-406,540	-52,899	0,033	0,011
-405,525	800,000	0,052	0,111
-404,511	-6,771	-0,054	-0,027
-403,496	-70,306	-0,119	0,033
-402,482	557,112	-0,053	0,094
-401,467	-110,656	0,150	0,022
-400,452	215,842	0,053	0,061
-399,438	46,666	0,115	0,078
-398,423	-85,072	-0,164	-0,037
-397,409	-32,057	-0,052	-0,021
-396,394	20,976	0,011	-0,006
-395,379	-76,886	-0,130	-0,033
-394,365	151,562	0,066	-0,066
-393,350	-38,321	-0,124	-0,048
-392,336	60,481	0,066	-0,047
-391,321	608,742	0,085	-0,156
-390,306	19,085	-0,199	-0,116
-389,292	176,895	0,045	-0,047
-388,277	708,586	-0,057	0,110
-387,263	41,060	-0,032	-0,021
-386,248	-99,857	0,125	0,022
-385,233	61,400	0,073	0,053
-384,219	800,000	-0,034	-0,075
-383,204	-200,000	-0,021	-0,074
-382,190	-200,000	-0,006	0,038
-381,175	70,468	0,073	0,055
-380,160	-200,000	0,007	-0,022
-379,146	72,706	0,090	0,068
-378,131	17,155	-0,114	-0,065
-377,117	800,000	-0,031	-0,090
-376,102	276,715	0,061	-0,079
-375,088	39,587	-0,071	0,046
-374,073	-200,000	-0,049	0,188
-373,058	25,303	0,068	0,041
-372,044	-200,000	0,002	-0,025
-371,029	481,422	0,032	0,054
-370,015	-200,000	0,011	0,041
-369,000	800,000	0,007	0,020
-367,985	708,752	-0,058	-0,112
-366,971	-200,000	-0,015	-0,169
-365,956	50,252	0,081	-0,056
-364,942	-126,670	0,093	0,010
-363,927	0,730	0,060	0,031
-362,912	-24,947	0,090	-0,039
-361,898	303,077	-0,038	-0,051
-360,883	800,000	0,031	0,077
-359,869	-71,440	0,047	0,013
-358,854	346,737	-0,069	0,099
-357,839	189,440	-0,015	-0,016
-356,825	12,064	-0,027	0,015
-355,810	-83,423	0,149	-0,034
-354,796	51,797	-0,088	-0,061
-353,781	291,188	-0,022	-0,029
-352,766	-5,211	-0,024	-0,012
-351,752	-200,000	0,009	0,070
-350,737	-157,259	0,084	0,004
-349,723	202,735	0,096	-0,108
-348,708	800,000	0,033	-0,105
-347,693	237,817	-0,095	-0,115
-346,679	800,000	0,023	-0,058
-345,664	800,000	0,063	0,127
-344,650	37,623	0,055	0,035
-343,635	800,000	0,019	0,045
-342,620	-80,717	0,008	0,002
-341,606	-74,464	-0,057	-0,015
-340,591	29,470	-0,079	-0,049
-339,577	800,000	-0,023	-0,069
-338,562	152,632	-0,022	-0,022
-337,548	800,000	0,064	0,183
-336,533	372,584	-0,043	0,063
-335,518	562,132	0,017	-0,030
-334,504	800,000	0,015	0,038
-333,489	-45,488	-0,036	-0,013
-332,475	488,638	0,049	0,082
-331,460	49,284	-0,112	-0,076
-330,445	-74,740	0,052	0,013
-329,431	800,000	0,050	0,109
-328,416	-200,000	0,012	0,044
-327,402	8,888	-0,045	0,025
-326,387	69,032	-0,081	-0,060
-325,372	356,337	-0,058	-0,084
-324,358	-200,000	-0,003	-0,113
-323,343	302,460	-0,063	0,085
-322,329	121,605	-0,025	-0,023
-321,314	-2,252	0,027	-0,014
-320,299	53,474	-0,103	0,071
-319,285	-70,239	0,134	0,037
-318,270	160,945	0,057	-0,058
-317,256	-200,000	0,015	-0,079
-316,241	-24,244	0,067	-0,029
-315,226	800,000	-0,028	-0,068
-314,212	-12,458	0,083	0,039
-313,197	800,000	0,066	0,200
-312,183	698,175	0,032	-0,062
-311,168	-82,878	-0,099	-0,023
-310,153	52,542	-0,117	-0,081
-309,139	-200,000	0,025	-0,133
-308,124	-75,636	0,076	-0,019
-307,110	91,380	0,128	-0,104
-306,095	-62,507	0,098	0,029
-305,080	186,584	-0,082	0,088
-304,066	267,098	0,015	0,019
-303,051	-111,413	0,016	-0,002
-302,037	-147,290	0,067	0,004
-301,022	-5,628	0,107	-0,053
-300,008	120,148	-0,030	-0,027
-298,993	228,088	-0,022	-0,026
-297,978	800,000	0,014	0,036
-296,964	-61,177	0,105	-0,032
-295,949	-11,098	-0,068	-0,033
-294,935	-200,000	-0,003	0,010
-293,920	-159,371	-0,058	-0,002
-292,905	-200,000	0,001	0,026
-291,891	129,697	-0,047	0,043
-290,876	-150,096	0,107	-0,006
-289,862	-200,000	0,012	0,081
-288,847	229,740	-0,064	-0,076
-287,832	-200,000	-0,042	-0,150
-286,818	800,000	-0,017	0,046
-285,803	-14,160	0,047	0,022
-284,789	-76,691	0,148	-0,037
-283,774	442,608	0,064	0,102
-282,759	-167,418	-0,054	0,002
-281,745	446,929	0,046	-0,073
-280,730	-200,000	-0,045	-0,161
-279,716	163,804	0,030	-0,030
-278,701	7,730	-0,081	0,044
-277,686	-34,559	0,046	-0,018
-276,672	-140,146	0,054	0,004
-275,657	-91,344	-0,148	0,030
-274,643	-200,000	0,035	-0,131
-273,628	-153,436	-0,134	0,007
-272,613	788,169	0,041	-0,082
-271,599	-111,282	-0,034	-0,005
-270,584	800,000	0,023	0,051
-269,570	477,286	0,082	0,135
-268,555	-146,339	-0,016	0,001
-267,540	-108,953	-0,218	-0,033
-266,526	-200,000	-0,001	-0,043
-265,511	-74,803	-0,060	0,015
-264,497	800,000	0,024	0,058
-263,482	183,381	0,069	0,074
-262,467	-151,698	0,174	0,009
-261,453	-36,539	-0,221	-0,086
-260,438	436,442	-0,054	-0,086
-259,424	140,152	-0,035	-0,033
-258,409	-52,125	-0,091	0,030
-257,395	54,278	0,112	0,078
-256,380	-133,624	-0,141	0,013
-255,365	-200,000	0,017	0,064
-254,351	490,274	0,041	-0,068
-253,336	-17,416	0,065	-0,030
-252,322	800,000	-0,030	-0,064
-251,307	-121,591	-0,136	-0,016
-250,292	16,433	0,098	-0,056
-249,278	48,700	0,097	-0,066
-248,263	-200,000	-0,014	0,121
-247,249	-200,000	0,028	0,157
-246,234	-84,570	-0,023	0,005
-245,219	-200,000	-0,016	-0,093
-244,205	-200,000	0,019	0,062
-243,190	800,000	-0,023	-0,053
-242,176	67,147	-0,033	0,024
-241,161	-123,999	0,116	0,013
-240,146	405,536	0,048	-0,074
-239,132	-29,869	-0,066	-0,027
-238,117	155,308	-0,116	-0,116
-237,103	800,000	0,032	-0,086
-236,088	257,351	0,041	-0,051
-235,073	103,777	-0,015	0,013
-234,059	64,412	-0,098	0,072
-233,044	277,662	0,075	0,096
-232,030	-200,000	-0,022	-0,071
-231,015	-165,973	-0,102	0,003
-230,000	304,781	0,013	0,017
-228,986	800,000	-0,037	-0,101
-227,971	-105,235	0,071	0,012
-226,957	285,817	0,050	-0,066
-225,942	170,080	-0,061	-0,063
-224,927	-98,154	-0,047	0,009
-223,913	-200,000	0,005	-0,113
-222,898	-172,360	-0,117	-0,003
-221,884	-16,758	0,146	-0,066
-220,869	-99,142	-0,114	0,021
-219,855	300,372	0,018	0,024
-218,840	36,152	0,084	0,054
-217,825	96,572	-0,077	0,064
-216,811	-14,655	-0,120	-0,055
-215,796	-200,000	-0,004	-0,069
-214,782	-85,510	0,048	0,011
-213,767	61,325	0,083	0,060
-212,752	-200,000	0,056	0,295
-211,738	-200,000	-0,025	0,193
-210,723	428,986	0,049	0,076
-209,709	595,723	-0,056	0,100
-208,694	-88,355	-0,061	-0,013
-207,679	1,599	-0,069	-0,036
-206,665	800,000	-0,063	0,154
-205,650	223,755	-0,054	-0,063
-204,636	-165,175	0,209	0,007
-203,621	-200,000	-0,012	0,069
-202,606	204,459	0,097	-0,108
-201,592	107,095	-0,107	-0,092
-200,577	-11,070	-0,094	0,045
-199,563	-200,000	0,004	-0,014
-198,548	-48,162	0,061	0,021
-197,533	-101,404	-0,062	-0,011
-196,519	451,194	0,004	-0,007
-195,504	-82,841	0,010	0,002
-194,490	-200,000	-0,013	-0,181
-193,475	229,351	0,054	0,063
-192,460	640,127	-0,088	0,163
-191,446	250,313	0,008	-0,009
-190,431	-130,583	-0,035	-0,003
-189,417	-138,255	-0,026	-0,002
-188,402	-200,000	-0,019	-0,082
-187,387	-93,143	-0,009	-0,002
-186,373	308,567	-0,023	0,031
-185,358	-69,370	0,030	0,008
-184,344	107,518	0,137	0,118
-183,329	-200,000	-0,003	-0,055
-182,315	430,384	-0,062	0,097
-181,300	-200,000	-0,018	-0,066
-180,285	800,000	-0,037	-0,094
-179,271	-200,000	0,008	0,091
-178,256	-45,525	-0,139	-0,050
-177,242	-200,000	-0,028	-0,211
-176,227	-82,037	0,197	-0,046
-175,212	577,261	0,060	0,106
-174,198	-41,133	0,043	-0,016
-173,183	-122,236	-0,042	0,005
-172,169	-76,652	0,080	-0,020
-171,154	-200,000	0,002	0,009
-170,139	44,077	0,113	0,075
-169,125	-94,777	0,091	0,018
-168,110	87,938	0,060	0,048
-167,096	800,000	-0,068	0,201
-166,081	-200,000	-0,007	-0,081
-165,066	215,333	-0,091	-0,104
-164,052	211,984	0,098	0,112
-163,037	-200,000	0,008	-0,038
-162,023	198,721	0,071	-0,079
-161,008	-22,467	-0,056	-0,024
-159,993	800,000	-0,003	0,009
-158,979	-200,000	-0,003	0,027
-157,964	51,261	-0,079	0,054
-156,950	-122,788	0,056	0,006
-155,935	28,959	0,083	0,050
-154,920	800,000	-0,045	0,105
-153,906	-200,000	0,008	0,032
-152,891	-62,796	-0,076	0,022
-151,877	176,495	-0,032	0,034
-150,862	-3,367	-0,096	0,048
-149,847	15,397	-0,138	-0,078
-148,833	-200,000	-0,005	-0,020
-147,818	800,000	0,046	0,093
-146,804	-94,346	-0,019	-0,004
-145,789	143,159	0,088	0,085
-144,775	487,703	0,065	-0,108
-143,760	156,076	-0,106	0,105
-142,745	800,000	-0,027	-0,061
-141,731	-200,000	0,020	0,071
-140,716	435,592	-0,091	0,144
-139,702	420,786	0,076	0,117
-138,687	800,000	0,026	-0,079
-137,672	340,290	0,054	-0,076
-136,658	428,908	-0,096	-0,150
-135,643	3,438	-0,077	0,040
-134,629	800,000	0,066	0,133
-133,614	-10,778	-0,053	-0,025
-132,599	-16,880	-0,134	0,061
-131,585	163,249	-0,079	-0,080
-130,570	619,713	0,058	0,105
-129,556	58,741	0,083	0,058
-128,541	-100,302	-0,096	0,017
-127,526	-130,961	0,177	0,017
-126,512	-200,000	0,005	0,033
-125,497	-200,000	0,003	-0,066
-124,483	-31,018	-0,041	-0,016
-123,468	199,221	-0,083	0,092
-122,453	-200,000	-0,017	0,064
-121,439	55,122	0,061	0,042
-120,424	146,527	0,027	-0,026
-119,410	-200,000	-0,007	-0,099
-118,395	-11,761	0,073	0,034
