DTS Sentinel unit serial number:	SN410029Multiplexer serial number:	ORYXHardware model number:	OX2-SRSoftware version number:	ORYX F/W v4,00 Oryx Data Collector v3.7.2.0data status	okinstallation	B5 Nyhavnadifferential loss correction	single-endedforward channel	channel 2reverse channel	N/Adate	2023/12/12time	03:27:13forward acquisition time	300,00reverse acquisition time	0,00gamma	499,1914k internal	0,3156k external	0,3156temperature offset calibration	1,0000default loss term (dB/km)	0,3820temperature slope calibration	1,0000multiplexer offset coefficient	1,0000multiplexer slope coefficient	1,0000fibre end	0,00T internal ref (°C)	15,68T ext. ref 1 (°C)	-0,82T ext. ref 2 (°C)	-1,11length (m)	temperature (°C)	Stokes	anti-Stokes-744,400	311,567	-0,017	0,023
-743,385	-14,129	-0,172	0,082
-742,371	-74,228	0,116	0,031
-741,356	-25,689	-0,169	0,073
-740,342	114,120	-0,097	0,087
-739,327	-80,164	-0,299	-0,073
-738,312	-124,230	0,047	0,005
-737,298	-170,738	-0,212	0,005
-736,283	130,823	0,089	0,084
-735,269	30,452	-0,169	-0,107
-734,254	-46,671	0,066	0,024
-733,239	-54,519	-0,443	-0,147
-732,225	21,803	0,184	0,111
-731,210	-114,224	-0,085	-0,012
-730,196	419,828	0,045	-0,071
-729,181	800,000	0,032	-0,080
-728,167	-200,000	0,027	0,090
-727,152	800,000	0,023	-0,062
-726,137	351,337	-0,052	0,076
-725,123	17,870	0,082	-0,048
-724,108	86,813	-0,107	-0,087
-723,094	-100,700	-0,087	0,016
-722,079	161,753	0,036	-0,037
-721,064	-89,725	0,099	-0,021
-720,050	447,014	0,042	0,069
-719,035	64,135	-0,045	0,033
-718,021	2,515	-0,127	-0,067
-717,006	422,926	-0,081	-0,128
-715,991	89,919	0,059	-0,048
-714,977	15,013	-0,068	0,039
-713,962	124,016	-0,095	-0,088
-712,948	-120,684	-0,008	0,001
-711,933	-82,863	0,012	-0,003
-710,918	24,071	-0,034	0,021
-709,904	-200,000	0,015	-0,089
-708,889	97,105	0,034	-0,029
-707,875	-61,261	-0,071	-0,022
-706,860	355,790	-0,061	-0,089
-705,845	35,488	-0,107	0,069
-704,831	118,265	0,066	-0,060
-703,816	-200,000	-0,005	0,078
-702,802	15,700	-0,192	-0,111
-701,787	-200,000	-0,048	-0,157
-700,772	-49,989	-0,107	0,037
-699,758	211,250	0,072	-0,084
-698,743	-102,328	0,015	0,003
-697,729	-200,000	0,004	0,019
-696,714	-108,676	-0,074	0,012
-695,699	83,157	0,113	-0,091
-694,685	-11,021	0,103	0,050
-693,670	-24,904	-0,096	-0,042
-692,656	461,575	0,101	-0,167
-691,641	800,000	0,011	-0,031
-690,627	29,510	0,070	0,043
-689,612	31,047	-0,079	-0,050
-688,597	-180,461	0,078	0,001
-687,583	-116,304	-0,097	-0,013
-686,568	85,734	-0,029	-0,023
-685,554	-15,712	0,086	0,040
-684,539	-128,610	-0,098	-0,010
-683,524	253,349	-0,013	-0,016
-682,510	-200,000	0,003	0,036
-681,495	-124,590	0,023	-0,003
-680,481	-44,767	-0,123	-0,045
-679,466	495,113	-0,038	-0,065
-678,451	-64,869	-0,168	-0,050
-677,437	800,000	-0,034	-0,085
-676,422	-24,388	0,050	-0,022
-675,408	-177,327	-0,089	-0,002
-674,393	13,662	0,019	0,011
-673,378	584,990	0,037	-0,068
-672,364	-12,754	-0,098	-0,047
-671,349	-38,230	0,124	-0,048
-670,335	466,849	-0,096	-0,159
-669,320	-152,918	-0,099	-0,005
-668,305	28,202	0,085	0,053
-667,291	-94,856	-0,169	0,033
-666,276	7,216	-0,067	-0,036
-665,262	800,000	-0,015	-0,042
-664,247	15,549	-0,112	-0,064
-663,232	301,319	0,046	0,062
-662,218	212,636	0,031	0,036
-661,203	-76,378	-0,075	0,019
-660,189	-19,624	-0,061	0,028
-659,174	-161,509	-0,100	0,004
-658,159	52,875	-0,079	-0,055
-657,145	19,740	0,076	-0,045
-656,130	305,409	0,065	0,090
-655,116	-148,737	-0,056	-0,003
-654,101	212,179	-0,039	0,045
-653,086	-200,000	0,033	-0,174
-652,072	-200,000	-0,017	-0,110
-651,057	443,494	-0,066	-0,107
-650,043	81,924	-0,089	-0,071
-649,028	-200,000	-0,015	0,061
-648,014	800,000	-0,033	0,080
-646,999	-94,597	-0,135	0,027
-645,984	-30,671	0,150	-0,062
-644,970	718,331	-0,052	-0,102
-643,955	-72,963	-0,048	-0,013
-642,941	-200,000	-0,027	-0,134
-641,926	-46,431	-0,095	-0,034
-640,911	-61,595	0,092	-0,028
-639,897	786,331	-0,049	0,100
-638,882	800,000	0,027	0,063
-637,868	151,760	-0,035	0,035
-636,853	-200,000	-0,013	-0,160
-635,838	-200,000	0,014	-0,143
-634,824	-79,808	0,075	-0,018
-633,809	284,986	-0,034	-0,045
-632,795	-147,033	-0,070	0,004
-631,780	19,858	-0,088	0,052
-630,765	-191,973	0,052	0,000
-629,751	-58,492	-0,008	-0,002
-628,736	-70,741	-0,111	0,031
-627,722	11,271	-0,061	-0,034
-626,707	-200,000	0,007	-0,051
-625,692	-200,000	-0,001	-0,007
-624,678	-200,000	0,003	-0,089
-623,663	-200,000	-0,027	0,119
-622,649	-200,000	-0,015	0,136
-621,634	-140,499	-0,129	0,010
-620,619	22,736	0,103	-0,062
-619,605	11,221	0,078	-0,044
-618,590	244,648	-0,028	-0,035
-617,576	677,445	0,040	0,077
-616,561	800,000	0,013	0,028
-615,546	-200,000	0,000	0,004
-614,532	-110,843	0,025	-0,004
-613,517	-76,065	0,092	0,024
-612,503	800,000	0,037	-0,110
-611,488	131,233	-0,054	0,051
-610,474	495,598	-0,103	0,174
-609,459	-56,515	0,104	0,034
-608,444	344,102	-0,124	0,179
-607,430	205,372	-0,096	0,109
-606,415	-200,000	0,065	0,000
-605,401	-36,053	-0,091	-0,036
-604,386	36,988	0,066	-0,043
-603,371	-200,000	0,012	-0,173
-602,357	-43,946	-0,050	0,018
-601,342	-123,557	-0,089	0,010
-600,328	405,514	-0,055	0,085
-599,313	84,661	-0,047	-0,038
-598,298	-200,000	0,001	-0,040
-597,284	111,709	-0,090	-0,080
-596,269	-79,794	-0,139	0,034
-595,255	-200,000	-0,002	0,014
-594,240	-200,000	-0,023	0,092
-593,225	800,000	-0,069	-0,178
-592,211	800,000	-0,032	-0,093
-591,196	117,479	0,022	0,020
-590,182	-71,789	-0,195	0,053
-589,167	-200,000	0,036	0,196
-588,152	-92,698	-0,033	0,007
-587,138	-71,333	0,089	-0,024
-586,123	53,709	-0,037	-0,026
-585,109	-200,000	0,023	-0,075
-584,094	49,375	-0,078	-0,054
-583,079	-200,000	-0,002	0,091
-582,065	-7,843	0,078	0,039
-581,050	747,983	0,035	0,069
-580,036	-155,069	-0,129	0,006
-579,021	29,731	-0,038	0,024
-578,006	650,589	-0,056	-0,106
-576,992	800,000	-0,047	-0,129
-575,977	-45,429	0,115	-0,041
-574,963	31,024	0,120	0,075
-573,948	203,230	0,118	0,134
-572,934	-66,231	-0,031	-0,009
-571,919	103,331	0,086	0,074
-570,904	170,037	0,089	-0,094
-569,890	-48,687	0,105	-0,037
-568,875	199,217	0,026	0,029
-567,861	800,000	0,053	0,128
-566,846	-112,964	0,047	0,007
-565,831	30,174	0,084	-0,052
-564,817	36,980	-0,094	0,061
-563,802	186,704	-0,092	-0,100
-562,788	800,000	0,028	0,080
-561,773	6,144	0,127	-0,069
-560,758	193,931	-0,064	0,071
-559,744	-10,753	0,111	0,054
-558,729	-147,755	-0,136	0,008
-557,715	-64,841	0,073	0,021
-556,700	-200,000	-0,027	-0,116
-555,685	321,753	-0,044	0,062
-554,671	-200,000	-0,012	-0,044
-553,656	343,614	0,019	0,027
-552,642	-200,000	0,017	0,074
-551,627	187,881	-0,089	0,097
-550,612	800,000	-0,030	-0,083
-549,598	-200,000	-0,034	-0,154
-548,583	-69,436	-0,082	0,023
-547,569	-200,000	0,000	0,038
-546,554	-35,343	-0,036	0,014
-545,539	800,000	0,043	0,116
-544,525	-109,126	0,049	0,008
-543,510	-81,418	0,045	-0,011
-542,496	12,380	-0,178	0,100
-541,481	164,090	-0,053	-0,054
-540,466	-128,858	0,073	0,007
-539,452	-200,000	0,001	-0,038
-538,437	89,506	0,043	0,035
-537,423	55,164	0,062	0,044
-536,408	158,804	-0,067	0,068
-535,393	65,833	-0,074	-0,055
-534,379	-200,000	-0,005	0,041
-533,364	-5,607	0,055	0,027
-532,350	800,000	-0,055	0,170
-531,335	6,140	0,064	0,034
-530,321	269,253	-0,063	-0,080
-529,306	800,000	0,019	-0,043
-528,291	-6,088	0,069	-0,034
-527,277	64,051	-0,043	-0,032
-526,262	-39,011	0,051	-0,020
-525,248	800,000	0,049	-0,107
-524,233	-200,000	0,007	-0,225
-523,218	-89,032	-0,051	0,011
-522,204	29,457	-0,161	0,100
-521,189	-190,239	-0,161	-0,001
-520,175	-48,541	-0,072	0,025
-519,160	-57,105	0,123	-0,039
-518,145	768,998	-0,030	-0,061
-517,131	-200,000	0,007	0,102
-516,116	-100,272	0,131	0,024
-515,102	685,719	-0,058	-0,111
-514,087	96,617	-0,109	0,091
-513,072	115,374	0,055	-0,049
-512,058	-200,000	-0,049	-0,198
-511,043	-200,000	0,029	-0,150
-510,029	-88,488	0,204	0,044
-509,014	-200,000	0,010	0,081
-507,999	-200,000	0,029	0,104
-506,985	1,787	-0,091	0,048
-505,970	-35,362	-0,133	-0,052
-504,956	-166,203	0,112	0,003
-503,941	-74,073	-0,065	-0,017
-502,926	-200,000	-0,015	0,057
-501,912	539,353	0,051	-0,089
-500,897	-144,894	-0,164	-0,011
-499,883	-200,000	-0,007	0,031
-498,868	3,725	-0,035	0,019
-497,853	-200,000	-0,017	0,084
-496,839	633,740	-0,022	-0,040
-495,824	249,419	0,075	-0,093
-494,810	-64,674	0,102	-0,030
-493,795	-126,463	0,069	0,007
-492,781	800,000	-0,058	0,140
-491,766	-200,000	0,003	0,024
-490,751	800,000	-0,026	0,063
-489,737	241,987	-0,017	0,021
-488,722	-200,000	0,021	0,148
-487,708	412,780	0,146	0,227
-486,693	-142,945	-0,089	0,006
-485,678	-28,465	-0,133	0,056
-484,664	-24,905	-0,055	-0,024
-483,649	-167,414	-0,101	0,003
-482,635	191,790	0,118	0,130
-481,620	800,000	-0,016	-0,033
-480,605	-200,000	-0,022	0,089
-479,591	800,000	-0,042	0,104
-478,576	183,026	-0,103	0,111
-477,562	143,949	0,110	-0,107
-476,547	-71,596	-0,160	-0,043
-475,532	18,011	-0,153	-0,089
-474,518	168,931	0,062	-0,064
-473,503	-9,661	0,100	0,048
-472,489	60,258	-0,078	0,056
-471,474	800,000	0,018	-0,046
-470,459	-80,000	-0,065	-0,016
-469,445	16,791	0,109	-0,063
-468,430	-200,000	-0,023	-0,075
-467,416	-200,000	0,004	0,198
-466,401	-170,311	0,020	-0,001
-465,386	347,073	0,040	0,058
-464,372	519,407	-0,058	-0,100
-463,357	140,621	-0,019	0,019
-462,343	311,793	-0,048	0,066
-461,328	-200,000	-0,041	-0,192
-460,313	208,453	0,086	-0,098
-459,299	-10,501	-0,121	-0,058
-458,284	171,125	0,041	-0,043
-457,270	101,617	0,082	0,070
-456,255	-67,994	0,024	-0,007
-455,241	342,600	-0,061	-0,087
-454,226	-200,000	0,031	0,175
-453,211	-0,858	-0,056	-0,029
-452,197	-147,385	0,194	0,012
-451,182	-200,000	-0,002	-0,029
-450,168	106,056	-0,040	0,035
-449,153	-18,686	0,137	-0,062
-448,138	616,618	0,043	0,078
-447,124	91,034	0,026	-0,021
-446,109	-200,000	-0,014	-0,056
-445,095	282,805	-0,020	-0,026
-444,080	478,784	0,018	0,030
-443,065	-200,000	-0,007	0,146
-442,051	800,000	-0,021	-0,043
-441,036	67,813	0,075	-0,056
-440,022	-19,317	-0,095	0,043
-439,007	207,507	0,038	-0,043
-437,992	491,134	-0,048	0,080
-436,978	-200,000	-0,026	-0,134
-435,963	229,868	0,079	-0,094
-434,949	800,000	-0,029	-0,068
-433,934	392,983	-0,069	-0,105
-432,919	800,000	-0,021	0,053
-431,905	92,185	0,066	-0,054
-430,890	-51,895	0,073	0,025
-429,876	90,651	0,153	0,125
-428,861	800,000	0,039	-0,079
-427,846	-200,000	0,016	0,069
-426,832	-155,263	0,070	-0,003
-425,817	-96,785	-0,056	0,011
-424,803	-89,585	0,089	-0,019
-423,788	-93,528	0,108	-0,022
-422,773	-155,133	0,063	-0,003
-421,759	800,000	0,051	0,146
-420,744	442,272	-0,028	-0,045
-419,730	526,537	0,055	-0,094
-418,715	-200,000	-0,003	-0,025
-417,701	800,000	0,020	-0,054
-416,686	-200,000	-0,006	0,029
-415,671	-112,736	0,088	0,013
-414,657	112,698	0,036	-0,032
-413,642	27,814	0,138	0,084
-412,628	-200,000	0,087	0,000
-411,613	800,000	-0,073	-0,156
-410,598	582,567	0,079	-0,141
-409,584	-78,563	0,115	-0,028
-408,569	159,195	0,156	0,158
-407,555	-105,191	-0,045	-0,007
-406,540	-200,000	-0,017	-0,116
-405,525	-200,000	0,004	0,072
-404,511	-200,000	-0,010	-0,041
-403,496	304,092	0,020	0,027
-402,482	-89,253	-0,048	0,010
-401,467	-200,000	0,012	0,119
-400,452	205,725	0,125	0,142
-399,438	-200,000	0,001	0,069
-398,423	453,901	-0,049	-0,079
-397,409	-47,753	0,056	0,020
-396,394	-6,587	-0,050	-0,025
-395,379	201,883	0,100	-0,112
-394,365	-200,000	-0,028	-0,147
-393,350	-5,101	0,107	0,053
-392,336	-47,880	-0,053	0,019
-391,321	297,816	0,038	-0,051
-390,306	60,093	-0,057	0,041
-389,292	-13,418	0,078	0,036
-388,277	-200,000	0,005	-0,102
-387,263	225,053	0,031	-0,037
-386,248	264,839	0,114	0,145
-385,233	-0,781	-0,104	0,053
-384,219	553,903	-0,012	-0,021
-383,204	-200,000	0,015	-0,105
-382,190	187,992	0,045	-0,049
-381,175	-124,176	-0,097	0,011
-380,160	514,417	0,041	0,070
-379,146	490,574	-0,018	0,030
-378,131	-200,000	-0,007	0,024
-377,117	68,928	-0,078	-0,058
-376,102	800,000	0,056	0,122
-375,088	1,765	-0,080	-0,042
-374,073	-200,000	-0,022	0,176
-373,058	344,825	0,041	0,059
-372,044	-200,000	0,048	-0,159
-371,029	-176,364	0,072	0,001
-370,015	-200,000	0,010	-0,133
-369,000	38,662	-0,055	0,036
-367,985	-200,000	0,016	-0,141
-366,971	392,812	0,052	-0,080
-365,956	800,000	0,055	0,132
-364,942	525,737	0,033	-0,057
-363,927	21,179	0,118	0,070
-362,912	-200,000	-0,022	-0,070
-361,898	-62,274	0,040	-0,012
-360,883	-200,000	0,006	-0,103
-359,869	-200,000	0,016	-0,089
-358,854	476,509	-0,066	0,108
-357,839	192,438	0,057	0,063
-356,825	-200,000	0,021	0,080
-355,810	-0,678	0,031	-0,016
-354,796	99,911	-0,085	-0,071
-353,781	-134,058	-0,062	-0,006
-352,766	-61,995	0,068	0,020
-351,752	-200,000	0,035	-0,141
-350,737	800,000	0,041	0,098
-349,723	745,116	0,062	-0,121
-348,708	-55,256	-0,038	-0,012
-347,693	234,966	-0,073	-0,088
-346,679	-83,912	-0,168	0,039
-345,664	290,390	0,064	-0,085
-344,650	-200,000	-0,005	-0,020
-343,635	800,000	0,078	0,159
-342,620	137,506	0,031	-0,029
-341,606	-200,000	-0,012	-0,059
-340,591	-62,408	0,019	0,006
-339,577	31,731	0,065	0,040
-338,562	-2,992	-0,136	-0,069
-337,548	214,636	-0,057	0,066
-336,533	0,758	0,003	0,001
-335,518	639,455	-0,033	0,062
-334,504	800,000	-0,016	-0,042
-333,489	-84,127	-0,190	0,043
-332,475	120,159	0,053	0,047
-331,460	-104,082	0,050	0,008
-330,445	800,000	0,046	-0,132
-329,431	111,741	0,096	-0,084
-328,416	-114,575	-0,070	0,010
-327,402	-143,788	-0,152	-0,010
-326,387	10,268	0,083	-0,046
-325,372	-200,000	-0,057	0,000
-324,358	-42,725	-0,299	0,110
-323,343	537,112	-0,034	-0,060
-322,329	14,480	0,148	-0,084
-321,314	738,242	-0,026	0,050
-320,299	800,000	-0,032	0,071
-319,285	-108,077	-0,003	0,000
-318,270	40,841	-0,080	-0,052
-317,256	39,958	-0,037	-0,024
-316,241	-87,370	0,074	-0,016
-315,226	800,000	-0,043	0,099
-314,212	358,626	0,028	-0,040
-313,197	366,337	-0,039	0,058
-312,183	537,973	0,085	0,146
-311,168	-200,000	0,002	0,029
-310,153	208,676	0,064	-0,073
-309,139	69,325	0,044	0,033
-308,124	800,000	0,046	0,131
-307,110	-23,967	0,074	0,032
-306,095	-19,307	-0,080	-0,036
-305,080	-200,000	-0,008	0,104
-304,066	-105,796	-0,168	-0,027
-303,051	-200,000	-0,006	0,021
-302,037	-200,000	0,011	-0,088
-301,022	245,149	0,036	0,043
-300,008	450,536	0,055	0,088
-298,993	800,000	0,020	0,056
-297,978	-66,578	0,099	-0,028
-296,964	163,080	0,070	-0,071
-295,949	-178,841	-0,078	-0,001
-294,935	-19,619	-0,070	-0,031
-293,920	308,324	0,011	0,015
-292,905	134,786	0,072	0,068
-291,891	-200,000	-0,035	0,112
-290,876	243,293	0,026	0,032
-289,862	-141,760	0,140	-0,010
-288,847	-200,000	0,001	-0,069
-287,832	-10,127	0,231	-0,111
-286,818	-96,102	0,096	0,018
-285,803	800,000	0,013	-0,028
-284,789	-71,536	0,063	0,017
-283,774	800,000	-0,014	0,044
-282,759	20,089	0,051	-0,030
-281,745	57,957	0,103	-0,073
-280,730	7,982	-0,096	-0,052
-279,716	253,330	0,172	-0,214
-278,701	-200,000	0,032	-0,163
-277,686	800,000	0,028	-0,069
-276,672	800,000	0,031	0,071
-275,657	507,212	-0,071	-0,120
-274,643	800,000	0,027	-0,081
-273,628	-179,740	-0,052	0,001
-272,613	120,912	-0,114	-0,103
-271,599	-72,195	-0,023	0,006
-270,584	-46,238	-0,028	-0,010
-269,570	800,000	-0,012	0,031
-268,555	-98,309	0,109	-0,020
-267,540	-18,795	-0,079	0,036
-266,526	682,016	0,049	-0,093
-265,511	-76,910	-0,119	0,030
-264,497	-31,214	0,072	0,029
-263,482	-200,000	-0,012	0,151
-262,467	9,676	0,027	-0,015
-261,453	30,899	0,066	0,041
-260,438	30,715	-0,178	0,110
-259,424	800,000	-0,019	-0,046
-258,409	-200,000	-0,006	0,022
-257,395	-131,587	0,188	0,018
-256,380	-65,471	0,074	-0,022
-255,365	-200,000	-0,011	-0,054
-254,351	-200,000	-0,016	0,074
-253,336	101,906	-0,137	0,116
-252,322	197,303	-0,092	-0,102
-251,307	20,296	-0,021	-0,012
-250,292	-200,000	0,006	0,084
-249,278	-74,208	0,085	-0,022
-248,263	-200,000	0,013	-0,064
-247,249	21,375	0,056	-0,033
-246,234	-33,317	-0,121	0,048
-245,219	118,709	-0,073	0,065
-244,205	-162,010	-0,011	0,000
-243,190	-200,000	-0,030	-0,101
-242,176	-200,000	0,005	0,080
-241,161	7,495	0,016	-0,009
-240,146	32,628	-0,116	0,072
-239,132	-200,000	-0,012	0,050
-238,117	-78,546	-0,087	-0,021
-237,103	-200,000	0,007	-0,085
-236,088	-200,000	-0,023	-0,087
-235,073	3,711	-0,044	0,023
-234,059	800,000	-0,051	-0,104
-233,044	59,134	-0,020	-0,014
-232,030	800,000	0,026	0,077
-231,015	92,230	-0,046	0,038
-230,000	-200,000	-0,031	-0,122
-228,986	6,076	-0,045	0,024
-227,971	-92,248	0,020	0,004
-226,957	-0,650	0,086	-0,044
-225,942	-21,963	-0,116	0,051
-224,927	21,209	-0,077	0,045
-223,913	-200,000	-0,011	0,061
-222,898	-1,593	-0,085	-0,043
-221,884	-41,929	-0,242	0,089
-220,869	128,375	-0,077	-0,071
-219,855	-147,679	0,109	-0,007
-218,840	-69,734	-0,148	-0,040
-217,825	-200,000	0,004	0,097
-216,811	520,213	-0,062	-0,106
-215,796	-137,049	0,037	0,003
-214,782	444,446	-0,028	0,044
-213,767	-72,373	0,197	-0,052
-212,752	-200,000	-0,008	-0,094
-211,738	153,425	-0,063	-0,062
-210,723	800,000	0,040	0,090
-209,709	224,429	0,016	-0,019
-208,694	34,132	-0,103	0,065
-207,679	800,000	0,024	-0,061
-206,665	471,308	0,038	0,062
-205,650	800,000	-0,029	0,073
-204,636	-22,138	0,065	0,028
-203,621	147,934	-0,048	0,047
-202,606	718,331	0,051	0,098
-201,592	-200,000	-0,006	0,050
-200,577	800,000	0,030	-0,080
-199,563	-200,000	-0,011	0,043
-198,548	208,008	0,109	0,123
-197,533	-37,562	0,110	0,042
-196,519	-130,820	-0,038	-0,004
-195,504	30,221	0,162	0,100
-194,490	-135,172	-0,125	-0,011
-193,475	800,000	0,038	-0,085
-192,460	-65,994	-0,044	0,013
-191,446	22,896	-0,058	0,034
-190,431	800,000	-0,037	0,077
-189,417	800,000	0,011	0,031
-188,402	-50,515	0,161	0,055
-187,387	174,912	-0,024	-0,025
-186,373	162,152	-0,030	-0,030
-185,358	800,000	0,033	-0,079
-184,344	800,000	0,036	0,084
-183,329	162,030	-0,078	0,079
-182,315	136,595	-0,050	0,047
-181,300	-200,000	0,017	-0,091
-180,285	-75,227	-0,042	0,011
-179,271	-200,000	0,006	-0,047
-178,256	-200,000	0,009	0,073
-177,242	-98,961	0,090	-0,016
-176,227	240,384	0,107	-0,129
-175,212	800,000	-0,053	-0,144
-174,198	-64,946	0,078	0,023
-173,183	-118,047	-0,137	0,017
-172,169	663,686	0,063	-0,119
-171,154	100,483	0,085	-0,071
-170,139	-200,000	0,014	-0,108
-169,125	700,863	-0,014	0,026
-168,110	-200,000	0,014	0,056
-167,096	800,000	-0,020	0,061
-166,081	269,782	0,029	-0,037
-165,066	-116,344	0,069	0,009
-164,052	-25,085	-0,032	-0,014
-163,037	-45,907	0,116	0,041
-162,023	-79,943	0,088	0,021
-161,008	145,721	-0,027	0,026
-159,993	-80,233	-0,106	-0,025
-158,979	-133,706	-0,158	0,014
-157,964	716,962	-0,051	-0,099
-156,950	464,286	0,064	0,104
-155,935	-50,478	-0,035	0,012
-154,920	170,078	-0,073	0,075
-153,906	-200,000	-0,011	-0,096
-152,891	-138,774	0,140	0,011
-151,877	87,429	-0,025	0,020
-150,862	53,767	0,082	-0,057
-149,847	127,367	-0,010	0,009
-148,833	65,925	-0,180	0,132
-147,818	-200,000	-0,004	0,104
-146,804	179,988	-0,031	0,033
-145,789	-200,000	-0,001	0,059
-144,775	-139,837	-0,104	0,008
-143,760	-47,157	-0,049	-0,017
-142,745	800,000	-0,009	-0,025
-141,731	-3,089	0,089	-0,045
-140,716	152,709	0,029	0,029
-139,702	-118,233	0,064	-0,008
-138,687	800,000	0,023	0,056
-137,672	85,764	-0,070	0,055
-136,658	-200,000	0,000	0,068
-135,643	554,589	-0,104	0,182
-134,629	-119,076	-0,161	-0,020
-133,614	-200,000	0,010	0,034
-132,599	-63,542	0,028	0,008
-131,585	-200,000	-0,018	-0,067
-130,570	65,448	-0,074	-0,054
-129,556	138,002	0,103	-0,097
-128,541	587,574	-0,090	-0,160
-127,526	57,609	-0,073	0,051
-126,512	75,003	-0,015	-0,011
-125,497	-82,346	0,124	0,029
-124,483	49,743	0,069	0,047
-123,468	82,045	-0,115	-0,090
-122,453	297,685	0,024	0,032
-121,439	-42,774	0,017	0,006
-120,424	800,000	-0,053	0,140
-119,410	-43,272	-0,043	-0,016
-118,395	-34,693	0,114	-0,045
