DTS Sentinel unit serial number:	SN410029Multiplexer serial number:	ORYXHardware model number:	OX2-SRSoftware version number:	ORYX F/W v4,00 Oryx Data Collector v3.7.2.0data status	okinstallation	B5 Nyhavnadifferential loss correction	single-endedforward channel	channel 2reverse channel	N/Adate	2023/12/14time	13:32:13forward acquisition time	300,00reverse acquisition time	0,00gamma	499,1914k internal	0,3157k external	0,3157temperature offset calibration	1,0000default loss term (dB/km)	0,3820temperature slope calibration	1,0000multiplexer offset coefficient	1,0000multiplexer slope coefficient	1,0000fibre end	0,00T internal ref (°C)	8,06T ext. ref 1 (°C)	-7,75T ext. ref 2 (°C)	-7,82length (m)	temperature (°C)	Stokes	anti-Stokes-744,400	-157,657	0,203	0,009
-743,385	-1,954	-0,294	-0,152
-742,371	-98,083	0,272	0,051
-741,356	-147,631	-0,485	0,030
-740,342	434,660	0,085	0,136
-739,327	-173,463	-0,372	0,008
-738,312	800,000	0,026	0,056
-737,298	-141,231	-0,411	0,030
-736,283	-6,445	0,241	0,121
-735,269	-98,037	-0,376	0,071
-734,254	-32,512	0,032	-0,013
-733,239	33,278	-0,537	-0,342
-732,225	-40,659	0,260	0,099
-731,210	487,332	0,038	0,064
-730,196	350,801	0,021	-0,030
-729,181	800,000	-0,029	-0,090
-728,167	399,378	-0,042	0,066
-727,152	-200,000	0,001	-0,044
-726,137	117,255	-0,080	-0,072
-725,123	359,832	-0,073	-0,108
-724,108	286,315	-0,058	-0,077
-723,094	-41,933	-0,086	-0,032
-722,079	-120,433	-0,081	0,010
-721,064	-135,553	0,139	0,012
-720,050	800,000	-0,024	-0,062
-719,035	521,821	0,052	0,090
-718,021	146,746	0,042	0,041
-717,006	-185,754	0,141	-0,002
-715,991	213,743	-0,108	-0,126
-714,977	800,000	0,031	-0,099
-713,962	-61,115	0,076	-0,024
-712,948	-146,932	0,123	0,008
-711,933	-162,621	-0,089	0,003
-710,918	-200,000	-0,015	0,178
-709,904	-200,000	0,028	-0,205
-708,889	-125,696	-0,050	-0,006
-707,875	-76,461	0,064	0,016
-706,860	-17,417	0,062	-0,029
-705,845	-200,000	0,011	0,109
-704,831	-33,553	0,106	-0,043
-703,816	800,000	0,038	0,083
-702,802	148,930	-0,059	0,059
-701,787	7,405	0,036	-0,020
-700,772	-185,143	-0,068	-0,001
-699,758	800,000	-0,037	0,081
-698,743	-200,000	0,019	0,107
-697,729	-0,282	0,079	0,041
-696,714	415,488	-0,036	0,057
-695,699	-66,956	0,044	-0,013
-694,685	31,346	-0,118	0,074
-693,670	800,000	-0,041	-0,102
-692,656	262,551	-0,066	0,084
-691,641	-94,156	-0,101	-0,020
-690,627	-3,267	0,132	-0,068
-689,612	-189,745	0,044	0,000
-688,597	210,407	0,036	-0,041
-687,583	464,741	-0,045	-0,074
-686,568	104,292	-0,016	-0,014
-685,554	-86,889	-0,073	0,016
-684,539	498,674	0,072	-0,122
-683,524	318,905	-0,100	-0,140
-682,510	595,939	-0,067	0,122
-681,495	800,000	0,034	-0,091
-680,481	142,850	-0,120	0,117
-679,466	183,565	-0,072	0,079
-678,451	-57,792	-0,025	0,008
-677,437	-200,000	-0,013	-0,067
-676,422	800,000	0,041	0,122
-675,408	-4,699	-0,105	-0,053
-674,393	-200,000	0,025	-0,165
-673,378	82,713	0,087	0,070
-672,364	-200,000	0,027	-0,092
-671,349	800,000	0,003	-0,007
-670,335	291,145	0,023	0,031
-669,320	102,667	-0,041	0,036
-668,305	-200,000	0,002	0,103
-667,291	195,956	0,047	-0,053
-666,276	70,830	-0,101	-0,077
-665,262	94,196	-0,086	-0,071
-664,247	-32,446	0,079	-0,032
-663,232	-8,593	-0,056	0,027
-662,218	154,648	-0,082	0,082
-661,203	73,225	-0,089	-0,068
-660,189	369,733	-0,036	-0,054
-659,174	-200,000	0,021	-0,100
-658,159	-200,000	-0,016	-0,184
-657,145	-119,662	-0,102	-0,013
-656,130	-200,000	0,003	0,071
-655,116	-167,378	0,096	-0,003
-654,101	800,000	0,057	0,157
-653,086	800,000	-0,073	-0,165
-652,072	270,417	-0,085	0,110
-651,057	-200,000	-0,017	-0,180
-650,043	-31,768	-0,065	-0,027
-649,028	-200,000	-0,014	-0,064
-648,014	75,169	-0,033	0,025
-646,999	290,563	0,033	0,045
-645,984	63,114	-0,084	0,061
-644,970	-160,451	0,055	-0,002
-643,955	36,182	-0,120	0,077
-642,941	63,753	0,053	0,039
-641,926	-200,000	-0,003	-0,040
-640,911	-200,000	0,010	0,072
-639,897	-48,704	0,049	0,017
-638,882	27,652	-0,034	0,021
-637,868	43,674	-0,080	-0,054
-636,853	345,639	-0,064	-0,093
-635,838	-164,214	0,030	-0,001
-634,824	548,879	0,008	0,014
-633,809	-200,000	-0,039	0,132
-632,795	-118,127	-0,054	-0,007
-631,780	52,972	0,062	-0,044
-630,765	85,750	-0,102	-0,083
-629,751	-103,092	-0,120	-0,021
-628,736	-200,000	0,017	-0,116
-627,722	57,956	-0,074	0,053
-626,707	234,446	0,088	0,107
-625,692	-111,807	0,079	-0,012
-624,678	667,317	0,039	0,073
-623,663	-200,000	0,028	0,092
-622,649	70,566	0,034	0,026
-621,634	-92,164	-0,069	0,014
-620,619	800,000	0,027	-0,085
-619,605	83,289	0,043	-0,035
-618,590	-157,012	-0,143	0,006
-617,576	40,924	0,119	0,079
-616,561	-143,087	-0,098	0,007
-615,546	800,000	0,063	-0,130
-614,532	112,722	-0,028	-0,024
-613,517	-162,091	-0,197	-0,007
-612,503	300,558	0,040	-0,054
-611,488	-200,000	0,034	0,183
-610,474	-200,000	0,005	0,081
-609,459	-200,000	-0,017	0,136
-608,444	-153,553	0,040	-0,002
-607,430	-200,000	-0,027	0,158
-606,415	-1,737	-0,198	-0,102
-605,401	-139,060	0,160	0,013
-604,386	-63,180	0,040	0,012
-603,371	-200,000	0,007	-0,150
-602,357	800,000	-0,023	-0,052
-601,342	410,842	0,108	-0,168
-600,328	800,000	-0,073	-0,169
-599,313	800,000	0,026	-0,059
-598,298	-200,000	0,025	-0,094
-597,284	-48,384	0,092	0,032
-596,269	65,393	0,127	0,094
-595,255	387,653	0,085	0,129
-594,240	-200,000	0,000	0,031
-593,225	388,675	-0,094	-0,143
-592,211	800,000	0,027	-0,069
-591,196	6,349	-0,026	0,014
-590,182	-200,000	-0,002	0,070
-589,167	97,344	-0,038	-0,032
-588,152	7,684	-0,050	0,027
-587,138	18,266	-0,011	-0,006
-586,123	408,197	-0,018	-0,027
-585,109	359,237	-0,010	-0,015
-584,094	146,990	0,099	0,097
-583,079	-200,000	-0,007	0,090
-582,065	390,083	-0,092	0,140
-581,050	28,811	0,053	0,033
-580,036	-52,831	0,141	0,047
-579,021	-1,136	-0,099	0,051
-578,006	286,020	-0,027	-0,036
-576,992	800,000	0,040	-0,120
-575,977	148,939	-0,021	0,021
-574,963	310,221	-0,061	0,084
-573,948	-161,272	-0,031	-0,001
-572,934	-200,000	0,003	0,059
-571,919	-200,000	-0,018	-0,165
-570,904	200,523	-0,119	-0,134
-569,890	800,000	-0,018	0,041
-568,875	38,615	0,084	-0,055
-567,861	-12,425	0,092	-0,044
-566,846	800,000	-0,016	0,047
-565,831	-94,319	-0,102	-0,020
-564,817	-200,000	-0,019	-0,078
-563,802	-163,420	-0,160	-0,005
-562,788	-200,000	-0,003	-0,021
-561,773	800,000	-0,022	-0,070
-560,758	-35,749	-0,043	0,017
-559,744	-200,000	-0,026	-0,118
-558,729	107,280	-0,096	-0,083
-557,715	800,000	-0,047	0,097
-556,700	14,983	-0,061	-0,035
-555,685	-157,739	-0,100	-0,004
-554,671	-200,000	-0,025	-0,127
-553,656	-200,000	-0,019	-0,062
-552,642	18,364	0,014	0,008
-551,627	444,553	-0,049	0,079
-550,612	800,000	-0,033	-0,092
-549,598	-200,000	0,024	-0,117
-548,583	-43,434	-0,122	-0,045
-547,569	-183,223	0,066	-0,001
-546,554	19,151	-0,070	-0,041
-545,539	800,000	0,018	0,047
-544,525	-197,371	-0,172	-0,001
-543,510	237,696	-0,064	0,078
-542,496	-200,000	0,007	-0,093
-541,481	158,752	-0,035	-0,036
-540,466	68,204	-0,128	-0,096
-539,452	534,270	-0,017	-0,030
-538,437	204,032	0,140	-0,158
-537,423	-200,000	0,004	0,093
-536,408	-88,542	-0,178	0,039
-535,393	-200,000	-0,007	-0,117
-534,379	26,978	-0,030	0,018
-533,364	-200,000	0,016	-0,111
-532,350	-57,055	0,110	0,035
-531,335	-20,471	0,061	-0,027
-530,321	-9,543	-0,136	0,066
-529,306	505,318	0,020	0,033
-528,291	-200,000	-0,000	0,077
-527,277	-200,000	-0,010	-0,197
-526,262	-200,000	-0,003	0,010
-525,248	-200,000	-0,011	-0,041
-524,233	502,426	-0,037	0,062
-523,218	401,939	-0,052	0,080
-522,204	-200,000	-0,003	-0,031
-521,189	-200,000	0,002	-0,108
-520,175	-130,536	-0,101	0,010
-519,160	-165,347	-0,085	-0,003
-518,145	-163,198	0,145	-0,005
-517,131	-131,779	-0,113	-0,011
-516,116	-42,996	-0,025	-0,009
-515,102	255,394	0,096	0,121
-514,087	800,000	-0,009	0,021
-513,072	-98,446	-0,076	-0,014
-512,058	180,609	0,118	-0,127
-511,043	184,662	-0,039	-0,042
-510,029	-57,891	0,069	-0,022
-509,014	800,000	-0,017	-0,038
-507,999	327,571	-0,027	-0,037
-506,985	26,874	-0,038	0,023
-505,970	-95,206	0,024	0,005
-504,956	161,523	-0,040	-0,041
-503,941	-200,000	-0,003	-0,033
-502,926	-38,594	0,071	-0,027
-501,912	-200,000	-0,008	0,114
-500,897	37,680	0,107	0,069
-499,883	-108,393	-0,109	-0,017
-498,868	-119,235	-0,133	0,017
-497,853	-200,000	0,011	-0,135
-496,839	149,423	-0,080	0,079
-495,824	-200,000	0,029	-0,094
-494,810	800,000	-0,049	0,145
-493,795	-65,657	0,095	-0,028
-492,781	800,000	-0,044	0,121
-491,766	45,257	-0,153	0,103
-490,751	396,300	-0,049	-0,076
-489,737	163,959	0,082	-0,085
-488,722	115,610	-0,023	-0,020
-487,708	212,647	0,126	0,145
-486,693	389,347	0,018	0,028
-485,678	-165,068	0,078	-0,002
-484,664	-200,000	-0,028	-0,127
-483,649	-7,992	0,073	-0,036
-482,635	-137,157	0,114	-0,009
-481,620	-45,921	-0,067	-0,024
-480,605	45,195	0,029	-0,019
-479,591	34,942	0,070	-0,045
-478,576	-200,000	0,025	-0,125
-477,562	506,715	-0,037	-0,063
-476,547	-200,000	-0,011	-0,072
-475,532	443,567	-0,037	-0,059
-474,518	-64,592	0,130	0,038
-473,503	66,950	0,035	-0,026
-472,489	-59,557	-0,108	-0,034
-471,474	159,803	-0,026	-0,027
-470,459	14,793	-0,108	0,062
-469,445	-200,000	-0,031	-0,143
-468,430	-200,000	0,011	0,057
-467,416	173,184	0,039	-0,041
-466,401	800,000	-0,020	-0,059
-465,386	-19,347	-0,124	0,056
-464,372	-95,703	0,045	0,009
-463,357	96,898	-0,027	0,023
-462,343	-32,726	-0,094	0,038
-461,328	-0,624	0,128	-0,066
-460,313	-80,007	-0,037	0,009
-459,299	-133,881	0,064	-0,006
-458,284	-200,000	0,032	0,190
-457,270	-200,000	0,007	0,046
-456,255	124,929	-0,098	-0,090
-455,241	394,873	0,061	-0,093
-454,226	224,283	0,049	0,058
-453,211	-200,000	0,016	0,057
-452,197	156,982	0,147	-0,148
-451,182	161,950	0,019	0,019
-450,168	261,806	0,023	-0,030
-449,153	-101,807	-0,024	-0,004
-448,138	-200,000	0,003	0,119
-447,124	33,902	-0,092	0,058
-446,109	26,806	0,154	0,094
-445,095	800,000	0,005	0,013
-444,080	-200,000	0,023	0,128
-443,065	-200,000	-0,003	0,087
-442,051	193,112	-0,101	0,111
-441,036	-150,662	-0,129	-0,007
-440,022	-200,000	-0,002	0,045
-439,007	-110,600	0,091	-0,014
-437,992	-43,570	0,043	-0,016
-436,978	114,245	-0,069	0,061
-435,963	-130,747	0,088	-0,008
-434,949	-200,000	-0,018	0,106
-433,934	12,669	-0,168	-0,094
-432,919	800,000	-0,047	-0,114
-431,905	-200,000	0,044	-0,188
-430,890	39,042	0,070	0,046
-429,876	119,422	0,067	0,060
-428,861	-94,115	-0,087	-0,017
-427,846	14,588	0,062	-0,035
-426,832	91,018	0,063	-0,051
-425,817	101,317	-0,070	0,059
-424,803	-200,000	-0,014	0,060
-423,788	-39,516	-0,222	-0,084
-422,773	380,486	-0,062	0,094
-421,759	-200,000	0,017	-0,082
-420,744	800,000	0,010	-0,030
-419,730	59,760	-0,089	-0,064
-418,715	73,843	0,105	0,080
-417,701	181,792	-0,023	-0,025
-416,686	-200,000	0,002	0,098
-415,671	270,269	-0,049	0,063
-414,657	21,321	0,144	0,085
-413,642	141,084	-0,069	-0,066
-412,628	90,384	-0,117	0,095
-411,613	-49,795	-0,017	-0,006
-410,598	-200,000	0,013	-0,119
-409,584	800,000	0,026	-0,070
-408,569	381,654	0,025	0,038
-407,555	50,181	0,083	0,057
-406,540	-84,020	0,031	-0,007
-405,525	275,553	-0,046	-0,059
-404,511	-69,194	0,139	0,039
-403,496	536,240	0,044	-0,076
-402,482	19,805	0,117	0,069
-401,467	-200,000	-0,010	0,134
-400,452	22,629	-0,064	0,038
-399,438	567,375	0,065	-0,115
-398,423	61,979	-0,022	0,016
-397,409	273,482	-0,024	0,030
-396,394	-84,300	0,069	0,016
-395,379	-70,611	-0,065	0,018
-394,365	-20,046	0,037	-0,017
-393,350	-200,000	-0,006	-0,049
-392,336	-200,000	0,003	-0,045
-391,321	800,000	0,001	-0,002
-390,306	33,794	-0,032	0,020
-389,292	-200,000	0,048	0,160
-388,277	-200,000	0,030	0,000
-387,263	-200,000	-0,017	0,062
-386,248	-43,923	0,055	0,020
-385,233	334,042	0,023	-0,032
-384,219	-200,000	-0,019	0,125
-383,204	3,026	0,036	0,019
-382,190	-97,297	-0,079	0,015
-381,175	-106,750	0,152	0,024
-380,160	-200,000	0,017	0,075
-379,146	-120,390	0,158	0,019
-378,131	-90,798	0,057	-0,012
-377,117	800,000	-0,055	-0,128
-376,102	-200,000	-0,011	0,055
-375,088	-49,208	0,071	-0,025
-374,073	-5,339	0,164	0,082
-373,058	229,695	-0,005	0,006
-372,044	-54,845	0,051	0,017
-371,029	4,032	-0,066	0,035
-370,015	120,900	-0,052	-0,047
-369,000	-200,000	0,002	0,054
-367,985	-200,000	-0,029	-0,169
-366,971	-200,000	0,001	-0,050
-365,956	800,000	-0,031	0,080
-364,942	-77,343	0,063	0,016
-363,927	-124,344	0,145	0,016
-362,912	462,323	0,041	0,066
-361,898	-200,000	0,007	-0,054
-360,883	800,000	0,009	-0,021
-359,869	36,749	-0,047	-0,030
-358,854	-7,454	0,055	0,027
-357,839	102,161	-0,059	-0,050
-356,825	-66,554	0,161	-0,046
-355,810	676,674	-0,037	-0,071
-354,796	179,902	-0,118	-0,126
-353,781	800,000	-0,022	-0,049
-352,766	-200,000	0,005	0,081
-351,752	800,000	0,008	0,023
-350,737	490,113	0,020	-0,034
-349,723	-200,000	-0,005	0,133
-348,708	-200,000	0,040	0,154
-347,693	110,341	-0,057	0,049
-346,679	-88,562	-0,126	0,027
-345,664	61,938	-0,049	0,035
-344,650	531,826	0,080	-0,137
-343,635	5,791	0,077	0,041
-342,620	-45,549	0,079	-0,028
-341,606	-2,482	-0,038	0,019
-340,591	-75,302	0,212	-0,054
-339,577	800,000	-0,044	-0,132
-338,562	-200,000	0,005	0,024
-337,548	600,677	-0,038	-0,069
-336,533	140,441	-0,090	-0,086
-335,518	-200,000	-0,013	-0,095
-334,504	-18,036	-0,048	0,022
-333,489	155,118	-0,006	0,005
-332,475	-67,178	-0,192	0,055
-331,460	-155,227	0,158	-0,007
-330,445	365,563	0,073	-0,107
-329,431	471,359	0,068	0,112
-328,416	-136,227	0,024	-0,002
-327,402	46,311	0,047	-0,032
-326,387	-103,995	-0,134	0,023
-325,372	-30,008	-0,079	-0,032
-324,358	-200,000	0,017	-0,061
-323,343	-200,000	-0,010	0,052
-322,329	-200,000	-0,001	-0,155
-321,314	-25,829	0,104	-0,044
-320,299	552,761	-0,019	0,034
-319,285	54,587	-0,047	0,032
-318,270	652,414	-0,044	-0,083
-317,256	43,911	0,114	-0,076
-316,241	46,304	-0,016	0,011
-315,226	-98,430	0,202	0,037
-314,212	-200,000	-0,014	-0,063
-313,197	-89,515	0,012	-0,003
-312,183	800,000	-0,059	0,182
-311,168	-131,934	0,068	0,006
-310,153	271,319	-0,087	0,111
-309,139	800,000	-0,035	-0,076
-308,124	-200,000	0,026	0,088
-307,110	800,000	-0,024	0,070
-306,095	-50,890	-0,080	0,027
-305,080	800,000	-0,039	-0,079
-304,066	-200,000	-0,004	0,061
-303,051	-200,000	0,024	-0,222
-302,037	-200,000	0,016	-0,068
-301,022	-200,000	-0,000	0,116
-300,008	-151,528	0,077	-0,004
-298,993	168,111	0,040	0,041
-297,978	388,511	0,033	0,050
-296,964	112,042	-0,048	-0,042
-295,949	-116,689	-0,111	0,015
-294,935	-113,972	0,035	0,005
-293,920	111,674	-0,077	0,067
-292,905	800,000	0,078	0,177
-291,891	-200,000	-0,028	0,174
-290,876	800,000	0,040	0,103
-289,862	800,000	-0,032	0,090
-288,847	145,122	-0,075	-0,072
-287,832	-33,524	-0,094	0,038
-286,818	71,750	-0,114	-0,086
-285,803	-200,000	0,023	-0,089
-284,789	656,261	0,069	0,130
-283,774	29,366	0,141	0,087
-282,759	-200,000	-0,003	-0,074
-281,745	-200,000	-0,024	-0,171
-280,730	579,311	-0,075	-0,134
-279,716	172,924	0,055	0,057
-278,701	-127,993	0,016	-0,002
-277,686	-51,800	-0,057	0,019
-276,672	-149,480	0,216	-0,012
-275,657	-200,000	0,029	0,100
-274,643	-9,856	0,060	0,029
-273,628	-16,451	-0,148	-0,067
-272,613	-116,825	-0,158	0,021
-271,599	-28,838	0,137	0,057
-270,584	139,380	-0,071	0,068
-269,570	382,468	0,059	0,089
-268,555	243,622	-0,031	-0,038
-267,540	312,449	-0,031	-0,043
-266,526	-200,000	0,020	0,131
-265,511	-200,000	0,066	0,264
-264,497	-7,124	-0,051	0,025
-263,482	-64,381	0,100	-0,029
-262,467	509,503	0,042	0,071
-261,453	-200,000	-0,011	-0,068
-260,438	481,556	-0,056	-0,093
-259,424	12,880	0,087	0,048
-258,409	88,938	-0,105	-0,085
-257,395	-42,007	0,138	0,051
-256,380	-89,361	0,081	-0,017
-255,365	-86,894	0,110	0,024
-254,351	-112,288	0,115	0,017
-253,336	451,040	0,022	0,036
-252,322	-50,783	-0,041	0,014
-251,307	159,756	-0,083	0,084
-250,292	218,280	0,069	0,080
-249,278	-104,850	0,009	-0,001
-248,263	-111,022	0,120	-0,018
-247,249	-116,514	0,016	-0,002
-246,234	563,469	-0,045	0,079
-245,219	49,986	-0,133	-0,090
-244,205	-107,892	-0,076	-0,012
-243,190	-30,844	0,061	-0,025
-242,176	-200,000	0,041	0,184
-241,161	800,000	0,030	0,083
-240,146	34,635	0,028	-0,018
-239,132	152,210	0,019	-0,019
-238,117	3,984	-0,134	0,070
-237,103	-116,149	-0,121	0,016
-236,088	208,805	-0,052	-0,059
-235,073	59,634	-0,006	0,004
-234,059	133,229	0,044	-0,041
-233,044	-154,908	0,068	0,003
-232,030	-147,819	-0,086	-0,005
-231,015	-200,000	-0,007	-0,120
-230,000	800,000	-0,021	-0,058
-228,986	-29,854	-0,130	0,053
-227,971	-64,809	0,227	-0,066
-226,957	-25,769	-0,010	0,004
-225,942	-200,000	-0,060	0,200
-224,927	800,000	0,036	0,105
-223,913	800,000	0,057	-0,118
-222,898	-200,000	0,012	-0,045
-221,884	-78,513	0,032	0,008
-220,869	-162,657	0,051	0,002
-219,855	35,691	-0,074	0,047
-218,840	201,233	0,111	0,123
-217,825	-3,327	-0,030	0,015
-216,811	800,000	0,017	-0,036
-215,796	-200,000	-0,004	-0,072
-214,782	-200,000	0,012	-0,068
-213,767	495,308	0,031	-0,051
-212,752	-99,379	-0,080	-0,014
-211,738	41,859	0,016	-0,011
-210,723	-39,116	0,097	-0,037
-209,709	-20,996	0,063	-0,028
-208,694	-200,000	0,000	-0,058
-207,679	-84,653	0,049	0,011
-206,665	314,580	0,044	0,061
-205,650	-112,780	-0,112	0,016
-204,636	54,011	0,045	-0,031
-203,621	147,867	-0,021	0,021
-202,606	129,415	0,098	-0,090
-201,592	-92,657	-0,056	0,011
-200,577	108,384	0,067	-0,058
-199,563	-200,000	-0,025	0,102
-198,548	399,827	0,134	0,204
-197,533	-166,551	-0,040	0,001
-196,519	-200,000	0,026	0,105
-195,504	800,000	-0,042	0,131
-194,490	-94,858	0,055	-0,011
-193,475	-200,000	-0,001	0,075
-192,460	-200,000	-0,030	0,154
-191,446	-200,000	-0,007	-0,065
-190,431	491,170	-0,040	0,066
-189,417	-103,424	-0,040	0,007
-188,402	800,000	0,032	-0,078
-187,387	-200,000	-0,008	-0,071
-186,373	-43,823	-0,081	-0,029
-185,358	454,072	-0,028	-0,045
-184,344	-93,578	0,034	-0,007
-183,329	-200,000	-0,008	0,085
-182,315	54,048	-0,076	0,053
-181,300	-18,228	0,138	-0,062
-180,285	-85,996	-0,085	-0,019
-179,271	305,220	-0,010	0,013
-178,256	-46,469	0,042	0,015
-177,242	-200,000	-0,001	-0,023
-176,227	117,304	0,078	-0,069
-175,212	-155,140	-0,044	-0,002
-174,198	-92,986	0,060	-0,012
-173,183	-12,123	0,054	-0,026
-172,169	-12,267	-0,077	-0,036
-171,154	-5,268	0,132	-0,065
-170,139	495,308	-0,032	-0,053
-169,125	-146,255	-0,151	-0,009
-168,110	800,000	0,063	0,135
-167,096	337,029	-0,126	-0,177
-166,081	371,062	0,022	-0,032
-165,066	-95,642	-0,132	-0,025
-164,052	-200,000	-0,022	-0,147
-163,037	249,217	0,090	0,110
-162,023	154,984	0,136	-0,135
-161,008	144,160	-0,014	0,014
-159,993	177,823	0,100	0,106
-158,979	72,408	0,061	-0,046
-157,964	459,090	0,048	-0,077
-156,950	66,799	-0,018	-0,013
-155,935	-8,969	-0,048	-0,023
-154,920	-46,411	0,086	0,030
-153,906	0,394	-0,022	-0,011
-152,891	800,000	0,014	-0,029
-151,877	144,517	-0,196	-0,189
-150,862	-11,088	0,078	0,037
-149,847	-200,000	-0,040	0,139
-148,833	221,982	0,069	0,080
-147,818	-200,000	-0,006	0,085
-146,804	67,906	-0,086	0,063
-145,789	-68,887	0,060	0,017
-144,775	-36,047	-0,069	-0,027
-143,760	-61,665	-0,022	0,007
-142,745	-200,000	-0,011	-0,055
-141,731	41,119	0,124	0,080
-140,716	800,000	-0,012	0,030
-139,702	-200,000	0,036	0,167
-138,687	525,291	0,034	0,059
-137,672	28,841	0,100	0,061
-136,658	800,000	-0,050	0,153
-135,643	46,805	-0,025	0,017
-134,629	222,087	-0,040	-0,047
-133,614	-200,000	-0,002	0,017
-132,599	40,907	0,065	0,042
-131,585	139,604	0,110	-0,104
-130,570	532,371	-0,033	-0,057
-129,556	215,170	0,040	-0,045
-128,541	-56,380	-0,083	-0,026
-127,526	-107,945	0,151	-0,023
-126,512	800,000	0,014	0,038
-125,497	70,527	0,039	-0,029
-124,483	-51,612	-0,087	-0,029
-123,468	126,208	0,066	0,060
-122,453	-12,703	0,131	0,061
-121,439	-162,966	0,023	0,001
-120,424	-200,000	-0,039	-0,151
-119,410	800,000	0,021	0,043
