DTS Sentinel unit serial number:	SN410029Multiplexer serial number:	ORYXHardware model number:	OX2-SRSoftware version number:	ORYX F/W v4,00 Oryx Data Collector v3.7.2.0data status	okinstallation	B5 Nyhavnadifferential loss correction	single-endedforward channel	channel 2reverse channel	N/Adate	2023/12/13time	04:52:13forward acquisition time	300,00reverse acquisition time	0,00gamma	499,1914k internal	0,3160k external	0,3160temperature offset calibration	1,0000default loss term (dB/km)	0,3820temperature slope calibration	1,0000multiplexer offset coefficient	1,0000multiplexer slope coefficient	1,0000fibre end	0,00T internal ref (°C)	13,90T ext. ref 1 (°C)	-2,52T ext. ref 2 (°C)	-2,86length (m)	temperature (°C)	Stokes	anti-Stokes-744,400	304,889	0,133	0,182
-743,385	33,212	-0,226	0,144
-742,371	-200,000	0,035	0,163
-741,356	-79,821	-0,476	0,117
-740,342	-17,504	0,080	0,037
-739,327	-95,264	-0,475	-0,093
-738,312	-20,547	0,107	0,048
-737,298	-73,386	-0,367	-0,098
-736,283	218,065	0,116	0,137
-735,269	-89,388	-0,224	-0,048
-734,254	13,543	0,061	-0,035
-733,239	35,870	-0,571	-0,369
-732,225	91,938	0,234	0,194
-731,210	800,000	-0,041	0,097
-730,196	209,273	0,018	-0,021
-729,181	295,098	-0,024	0,033
-728,167	-200,000	-0,013	-0,044
-727,152	-200,000	0,008	-0,151
-726,137	125,985	-0,071	-0,066
-725,123	-200,000	-0,023	-0,084
-724,108	-200,000	-0,002	0,044
-723,094	29,764	-0,049	-0,031
-722,079	234,470	-0,073	-0,089
-721,064	64,931	-0,141	0,104
-720,050	114,049	0,073	-0,065
-719,035	-31,139	-0,177	-0,073
-718,021	-158,849	0,122	0,005
-717,006	800,000	0,032	-0,102
-715,991	-200,000	-0,017	-0,067
-714,977	68,984	-0,094	0,071
-713,962	800,000	-0,068	0,157
-712,948	-50,605	-0,124	-0,043
-711,933	-185,611	0,115	0,001
-710,918	800,000	-0,032	0,073
-709,904	-200,000	0,002	0,088
-708,889	327,230	-0,077	-0,109
-707,875	800,000	-0,067	-0,145
-706,860	-37,354	0,023	-0,009
-705,845	800,000	0,032	0,077
-704,831	310,591	-0,056	-0,078
-703,816	-200,000	0,004	0,238
-702,802	-33,421	0,100	-0,041
-701,787	587,840	0,058	-0,105
-700,772	800,000	0,039	-0,092
-699,758	571,358	-0,056	-0,100
-698,743	-200,000	-0,008	-0,033
-697,729	-35,235	0,074	-0,029
-696,714	-46,221	0,056	-0,020
-695,699	-17,289	0,086	-0,040
-694,685	800,000	-0,006	0,014
-693,670	800,000	-0,051	0,110
-692,656	103,568	0,036	0,031
-691,641	800,000	-0,029	-0,063
-690,627	619,641	0,035	0,065
-689,612	132,693	-0,037	-0,035
-688,597	264,543	0,081	-0,104
-687,583	-86,091	0,096	-0,022
-686,568	-181,114	-0,092	0,001
-685,554	-6,592	0,053	0,026
-684,539	-91,741	0,075	-0,016
-683,524	51,193	0,214	-0,149
-682,510	547,147	0,049	-0,087
-681,495	-200,000	0,014	-0,123
-680,481	-200,000	-0,004	0,047
-679,466	206,700	-0,022	0,025
-678,451	264,835	0,046	-0,059
-677,437	793,721	-0,053	-0,109
-676,422	-200,000	-0,035	0,129
-675,408	474,539	0,060	-0,099
-674,393	133,615	-0,089	0,085
-673,378	-89,873	-0,141	0,030
-672,364	26,925	0,033	-0,020
-671,349	50,364	-0,054	-0,037
-670,335	-123,292	-0,132	-0,015
-669,320	800,000	-0,020	0,062
-668,305	411,649	0,035	0,054
-667,291	-111,569	-0,151	-0,022
-666,276	-200,000	-0,002	0,069
-665,262	-200,000	0,020	0,076
-664,247	800,000	-0,052	0,116
-663,232	191,174	-0,064	-0,071
-662,218	136,833	0,132	0,126
-661,203	119,610	0,086	0,078
-660,189	-200,000	0,011	-0,050
-659,174	-122,845	-0,165	-0,019
-658,159	-200,000	-0,032	-0,124
-657,145	340,495	0,057	0,082
-656,130	-118,989	0,050	0,006
-655,116	800,000	0,026	0,066
-654,101	666,778	0,056	0,106
-653,086	780,018	0,011	-0,023
-652,072	68,819	-0,137	-0,103
-651,057	38,720	0,072	-0,047
-650,043	800,000	-0,013	-0,037
-649,028	674,267	0,016	-0,031
-648,014	268,316	-0,070	-0,090
-646,999	-71,116	0,190	0,052
-645,984	-5,345	-0,059	0,029
-644,970	-148,535	-0,074	-0,004
-643,955	-200,000	0,011	0,041
-642,941	372,860	-0,057	0,086
-641,926	-200,000	0,024	0,084
-640,911	-200,000	-0,009	0,065
-639,897	43,485	0,132	0,088
-638,882	123,583	-0,037	0,034
-637,868	-94,105	-0,160	-0,032
-636,853	-200,000	-0,024	-0,141
-635,838	-200,000	0,011	-0,116
-634,824	-200,000	0,000	-0,015
-633,809	-200,000	-0,005	-0,119
-632,795	0,018	0,144	0,075
-631,780	29,465	-0,035	0,022
-630,765	140,268	-0,079	-0,077
-629,751	18,559	0,040	-0,024
-628,736	183,739	0,080	-0,087
-627,722	-200,000	-0,009	0,066
-626,707	508,541	-0,028	-0,048
-625,692	800,000	-0,035	-0,083
-624,678	-200,000	-0,012	0,116
-623,663	567,552	0,012	-0,022
-622,649	40,312	-0,131	-0,086
-621,634	800,000	0,026	-0,053
-620,619	-200,000	0,053	0,000
-619,605	62,360	0,042	0,031
-618,590	118,248	0,065	0,059
-617,576	800,000	0,018	0,049
-616,561	53,408	0,161	-0,113
-615,546	-200,000	0,034	-0,192
-614,532	80,729	-0,122	-0,096
-613,517	367,130	-0,057	0,085
-612,503	-200,000	-0,001	-0,127
-611,488	-193,638	-0,032	-0,000
-610,474	590,711	-0,009	-0,016
-609,459	800,000	-0,012	-0,036
-608,444	-200,000	0,004	0,038
-607,430	-200,000	-0,020	-0,217
-606,415	-200,000	-0,070	-0,234
-605,401	-92,124	0,195	-0,040
-604,386	-200,000	0,025	0,100
-603,371	-13,485	-0,073	0,035
-602,357	459,590	-0,058	0,095
-601,342	303,770	-0,039	0,053
-600,328	-168,802	-0,125	-0,003
-599,313	-7,906	0,107	-0,053
-598,298	800,000	-0,084	-0,217
-597,284	-37,055	-0,125	0,049
-596,269	-200,000	-0,006	-0,027
-595,255	4,529	-0,033	-0,018
-594,240	-56,151	0,018	0,006
-593,225	-200,000	-0,002	-0,045
-592,211	-91,560	-0,144	0,030
-591,196	124,582	-0,129	0,119
-590,182	154,723	0,049	-0,049
-589,167	141,472	0,083	0,081
-588,152	229,462	0,015	-0,018
-587,138	800,000	-0,016	-0,040
-586,123	800,000	-0,055	-0,126
-585,109	-88,634	-0,153	-0,033
-584,094	-1,730	-0,060	0,031
-583,079	-200,000	0,010	0,199
-582,065	-6,391	-0,079	0,039
-581,050	595,219	-0,011	0,020
-580,036	800,000	-0,017	0,055
-579,021	159,028	0,011	0,011
-578,006	606,715	-0,012	0,022
-576,992	305,782	-0,007	0,009
-575,977	119,424	0,092	0,083
-574,963	-117,404	0,072	0,009
-573,948	-200,000	-0,012	-0,053
-572,934	-135,499	-0,149	-0,013
-571,919	13,281	-0,124	-0,070
-570,904	-200,000	0,001	-0,024
-569,890	244,009	-0,039	-0,048
-568,875	800,000	-0,008	0,018
-567,861	-54,437	0,158	-0,052
-566,846	32,696	0,116	0,073
-565,831	-48,158	-0,170	0,060
-564,817	348,838	-0,031	0,045
-563,802	-200,000	0,043	-0,176
-562,788	-126,961	-0,172	0,018
-561,773	10,697	0,119	0,066
-560,758	-200,000	0,017	-0,097
-559,744	-200,000	-0,009	-0,052
-558,729	800,000	-0,009	-0,026
-557,715	800,000	-0,067	0,210
-556,700	57,109	-0,078	-0,056
-555,685	-200,000	-0,001	-0,060
-554,671	11,395	0,067	-0,038
-553,656	191,674	0,046	0,051
-552,642	800,000	0,084	-0,176
-551,627	-200,000	0,011	0,072
-550,612	264,965	-0,043	-0,055
-549,598	239,759	0,012	-0,015
-548,583	-143,485	0,017	-0,001
-547,569	-200,000	0,007	-0,125
-546,554	-13,112	0,067	0,032
-545,539	-200,000	0,000	-0,077
-544,525	-200,000	-0,000	0,118
-543,510	-44,643	-0,146	0,053
-542,496	95,791	0,028	-0,023
-541,481	259,497	-0,073	0,092
-540,466	618,988	-0,048	-0,088
-539,452	800,000	-0,028	-0,077
-538,437	-60,487	0,132	0,041
-537,423	20,780	-0,044	-0,026
-536,408	-168,787	0,029	0,001
-535,393	414,709	0,127	-0,198
-534,379	3,746	-0,062	0,033
-533,364	519,419	-0,051	0,087
-532,350	238,974	-0,046	0,056
-531,335	-18,579	-0,080	-0,036
-530,321	800,000	0,067	0,163
-529,306	-36,593	-0,047	0,018
-528,291	-200,000	0,018	-0,073
-527,277	-200,000	-0,008	-0,097
-526,262	-77,644	0,144	0,036
-525,248	7,886	0,110	0,060
-524,233	2,567	0,084	0,045
-523,218	58,243	-0,099	-0,071
-522,204	-17,182	0,078	0,036
-521,189	-200,000	-0,014	0,108
-520,175	800,000	-0,013	0,034
-519,160	-5,593	-0,057	-0,028
-518,145	-0,753	-0,037	-0,019
-517,131	-7,174	0,122	-0,060
-516,116	-118,453	-0,169	-0,022
-515,102	-200,000	0,035	0,118
-514,087	193,585	0,045	-0,050
-513,072	324,620	-0,017	-0,024
-512,058	-42,789	0,129	0,048
-511,043	-80,144	-0,097	-0,023
-510,029	-196,697	-0,064	-0,000
-509,014	-112,653	-0,002	-0,000
-507,999	79,502	0,096	0,075
-506,985	-200,000	0,009	-0,089
-505,970	258,466	-0,036	-0,046
-504,956	151,870	-0,162	-0,161
-503,941	-76,727	0,141	-0,036
-502,926	-200,000	0,020	0,088
-501,912	-101,534	0,128	-0,022
-500,897	-200,000	0,004	-0,025
-499,883	21,819	-0,095	0,057
-498,868	91,492	0,105	0,086
-497,853	-200,000	-0,011	-0,042
-496,839	92,806	-0,098	-0,081
-495,824	800,000	-0,012	0,038
-494,810	-93,421	0,043	-0,009
-493,795	-200,000	0,025	-0,097
-492,781	-36,151	0,093	-0,037
-491,766	-94,876	-0,113	-0,022
-490,751	403,139	-0,044	-0,068
-489,737	447,536	-0,010	-0,017
-488,722	229,174	0,151	0,180
-487,708	160,368	-0,044	0,045
-486,693	-100,847	0,119	0,021
-485,678	267,610	-0,053	-0,068
-484,664	-160,598	-0,117	-0,004
-483,649	-109,224	-0,040	0,006
-482,635	-200,000	0,022	-0,181
-481,620	800,000	0,085	-0,190
-480,605	-23,627	0,218	-0,095
-479,591	74,748	0,089	-0,068
-478,576	-42,519	0,054	-0,020
-477,562	777,078	0,015	-0,029
-476,547	-200,000	0,038	0,167
-475,532	-7,565	-0,045	-0,022
-474,518	108,805	0,065	0,057
-473,503	-21,519	0,109	0,048
-472,489	300,658	0,032	0,044
-471,474	385,758	-0,093	0,140
-470,459	-200,000	0,011	-0,133
-469,445	-200,000	-0,022	-0,075
-468,430	-200,000	-0,028	-0,093
-467,416	50,087	0,028	-0,019
-466,401	0,783	0,091	0,047
-465,386	364,097	-0,081	0,119
-464,372	102,370	0,068	0,058
-463,357	-200,000	-0,008	0,055
-462,343	800,000	-0,045	-0,120
-461,328	-94,292	-0,106	-0,021
-460,313	17,132	-0,089	-0,051
-459,299	-113,571	0,015	0,002
-458,284	10,409	0,057	0,031
-457,270	280,965	-0,056	-0,073
-456,255	800,000	0,038	0,084
-455,241	22,305	-0,045	-0,027
-454,226	800,000	0,028	-0,058
-453,211	633,994	0,018	-0,033
-452,197	4,296	0,136	0,073
-451,182	207,629	0,104	0,119
-450,168	800,000	-0,053	0,113
-449,153	20,486	-0,155	0,091
-448,138	-76,355	0,031	0,008
-447,124	-200,000	0,017	-0,099
-446,109	-89,692	-0,030	-0,006
-445,095	-105,284	0,233	0,038
-444,080	-77,860	0,092	-0,023
-443,065	800,000	-0,048	0,102
-442,051	-200,000	-0,023	-0,079
-441,036	-200,000	-0,050	-0,206
-440,022	800,000	-0,013	-0,039
-439,007	-63,842	0,057	-0,017
-437,992	380,820	-0,064	0,096
-436,978	366,326	0,070	0,103
-435,963	-139,487	0,100	-0,008
-434,949	171,265	-0,025	0,026
-433,934	170,871	-0,051	-0,053
-432,919	800,000	-0,011	-0,030
-431,905	-48,306	0,165	0,057
-430,890	118,034	0,075	0,067
-429,876	-71,985	0,176	0,047
-428,861	-75,329	0,097	0,025
-427,846	-162,818	0,064	0,002
-426,832	-175,720	-0,058	0,001
-425,817	-59,382	0,106	-0,033
-424,803	800,000	0,097	-0,230
-423,788	10,587	-0,044	-0,024
-422,773	-200,000	0,003	0,054
-421,759	311,210	-0,078	0,107
-420,744	-200,000	0,013	-0,050
-419,730	70,711	-0,079	-0,060
-418,715	-200,000	-0,017	0,065
-417,701	-71,511	0,039	0,011
-416,686	185,041	0,088	0,096
-415,671	43,666	-0,074	0,049
-414,657	-137,917	0,124	-0,010
-413,642	324,296	0,090	0,126
-412,628	-200,000	0,004	-0,041
-411,613	14,511	0,040	-0,022
-410,598	298,679	0,097	0,130
-409,584	-200,000	0,002	-0,039
-408,569	-142,458	0,116	-0,008
-407,555	-75,102	-0,165	-0,042
-406,540	-200,000	0,022	-0,088
-405,525	123,867	-0,013	-0,012
-404,511	64,252	-0,031	-0,023
-403,496	-120,818	-0,014	0,002
-402,482	-67,647	-0,079	-0,022
-401,467	164,396	0,111	0,114
-400,452	-35,819	-0,098	0,038
-399,438	-200,000	-0,016	0,076
-398,423	66,516	-0,033	0,024
-397,409	84,000	0,039	-0,031
-396,394	-200,000	0,011	0,087
-395,379	800,000	0,064	0,187
-394,365	-59,597	0,073	-0,023
-393,350	172,069	-0,066	0,069
-392,336	258,088	0,012	-0,015
-391,321	-20,071	-0,099	-0,044
-390,306	-68,481	-0,005	0,002
-389,292	12,849	-0,101	-0,056
-388,277	-200,000	0,007	-0,055
-387,263	-7,791	0,095	-0,046
-386,248	79,959	0,088	0,069
-385,233	137,819	0,058	0,055
-384,219	575,460	-0,052	-0,093
-383,204	-200,000	-0,018	-0,167
-382,190	-200,000	0,021	0,145
-381,175	800,000	-0,017	0,051
-380,160	241,930	-0,016	-0,020
-379,146	666,696	-0,061	0,115
-378,131	-200,000	0,013	0,118
-377,117	-82,880	0,031	0,007
-376,102	800,000	-0,040	0,124
-375,088	-100,409	0,083	-0,015
-374,073	-119,847	-0,114	-0,014
-373,058	-33,809	-0,171	0,068
-372,044	482,617	-0,014	0,022
-371,029	-87,861	0,094	-0,020
-370,015	155,811	-0,009	-0,009
-369,000	800,000	-0,060	-0,136
-367,985	31,275	0,049	-0,031
-366,971	-200,000	0,021	0,076
-365,956	106,139	0,037	-0,031
-364,942	252,515	0,082	0,101
-363,927	-86,889	0,082	0,018
-362,912	-113,715	-0,030	0,004
-361,898	29,892	-0,064	-0,040
-360,883	800,000	-0,037	-0,076
-359,869	3,986	0,073	-0,039
-358,854	-34,396	0,101	-0,040
-357,839	-100,629	0,060	0,011
-356,825	-36,904	-0,077	0,030
-355,810	-200,000	-0,000	-0,116
-354,796	-127,656	-0,131	-0,014
-353,781	-200,000	-0,005	-0,076
-352,766	-53,080	-0,119	0,040
-351,752	-107,921	-0,083	0,013
-350,737	-41,628	0,026	0,010
-349,723	-200,000	-0,009	0,032
-348,708	-36,728	0,235	-0,091
-347,693	251,482	-0,067	-0,082
-346,679	-83,764	-0,136	0,031
-345,664	800,000	-0,014	0,036
-344,650	-200,000	0,018	0,073
-343,635	-200,000	0,014	-0,051
-342,620	33,839	-0,048	-0,030
-341,606	-200,000	0,001	0,068
-340,591	800,000	-0,030	0,062
-339,577	-65,909	-0,160	-0,046
-338,562	800,000	0,030	-0,079
-337,548	434,436	-0,020	-0,032
-336,533	241,802	-0,086	0,104
-335,518	-112,602	0,145	-0,021
-334,504	743,594	-0,079	0,156
-333,489	-200,000	-0,025	0,135
-332,475	800,000	0,029	-0,060
-331,460	-104,834	-0,071	-0,012
-330,445	-25,171	0,126	-0,054
-329,431	-109,480	-0,081	0,012
-328,416	-32,439	0,087	0,035
-327,402	718,593	0,030	0,059
-326,387	51,327	-0,119	-0,082
-325,372	-30,445	0,043	-0,018
-324,358	519,174	-0,016	0,028
-323,343	220,252	0,047	-0,055
-322,329	-108,813	0,087	-0,013
-321,314	226,663	0,110	0,130
-320,299	800,000	0,053	0,109
-319,285	-200,000	-0,035	-0,175
-318,270	-200,000	-0,018	-0,069
-317,256	7,040	-0,026	-0,014
-316,241	-200,000	0,122	-0,000
-315,226	-200,000	0,007	0,031
-314,212	27,988	0,085	-0,052
-313,197	207,138	-0,017	-0,020
-312,183	-42,629	0,038	-0,014
-311,168	-200,000	-0,007	-0,034
-310,153	-108,907	-0,146	-0,022
-309,139	800,000	-0,007	0,015
-308,124	-200,000	0,024	-0,152
-307,110	3,873	0,073	-0,039
-306,095	-200,000	0,005	0,072
-305,080	24,188	0,084	0,050
-304,066	411,497	-0,019	-0,029
-303,051	-81,756	0,133	-0,031
-302,037	-200,000	0,001	-0,075
-301,022	800,000	-0,031	-0,074
-300,008	214,245	0,056	0,065
-298,993	-50,269	0,122	-0,042
-297,978	-200,000	-0,010	-0,036
-296,964	-101,673	0,046	-0,008
-295,949	167,771	-0,148	-0,153
-294,935	800,000	-0,052	-0,163
-293,920	800,000	0,029	-0,078
-292,905	-79,880	0,010	-0,002
-291,891	461,411	0,049	-0,079
-290,876	-39,711	-0,028	-0,011
-289,862	-94,902	-0,082	0,016
-288,847	-168,734	0,100	-0,003
-287,832	121,079	-0,020	-0,018
-286,818	-53,361	-0,093	-0,031
-285,803	800,000	0,045	-0,103
-284,789	-3,602	-0,072	-0,036
-283,774	-200,000	-0,002	0,024
-282,759	-184,312	-0,142	0,002
-281,745	-167,444	-0,036	0,001
-280,730	99,086	-0,112	-0,093
-279,716	-64,906	0,023	-0,007
-278,701	186,041	-0,026	0,028
-277,686	-29,154	-0,083	0,034
-276,672	32,429	-0,038	0,024
-275,657	-200,000	-0,010	0,031
-274,643	648,200	0,033	-0,062
-273,628	800,000	0,058	-0,151
-272,613	382,627	-0,023	-0,034
-271,599	345,790	-0,064	0,091
-270,584	-83,449	0,076	0,017
-269,570	79,273	-0,041	0,032
-268,555	487,499	-0,018	-0,030
-267,540	800,000	-0,027	-0,082
-266,526	78,456	-0,047	-0,036
-265,511	326,278	-0,017	0,023
-264,497	105,812	-0,079	0,068
-263,482	-200,000	0,009	0,048
-262,467	-200,000	-0,034	0,110
-261,453	-200,000	0,038	-0,125
-260,438	-0,931	-0,101	-0,051
-259,424	800,000	-0,034	0,071
-258,409	-106,145	-0,113	-0,018
-257,395	-118,334	0,065	0,008
-256,380	800,000	0,015	0,036
-255,365	41,803	-0,105	0,069
-254,351	35,378	-0,062	-0,039
-253,336	-200,000	-0,024	0,124
-252,322	382,417	-0,037	0,055
-251,307	133,653	0,096	0,090
-250,292	-200,000	-0,000	0,054
-249,278	-129,881	-0,014	-0,001
-248,263	44,117	-0,069	0,046
-247,249	-66,963	0,132	-0,037
-246,234	-5,281	0,039	-0,019
-245,219	-200,000	-0,007	-0,093
-244,205	-123,850	0,050	0,006
-243,190	357,415	0,035	0,051
-242,176	-69,662	-0,087	-0,024
-241,161	-200,000	0,003	0,062
-240,146	-56,087	0,055	0,018
-239,132	114,184	0,069	0,061
-238,117	301,109	0,114	-0,153
-237,103	-141,050	-0,094	0,007
-236,088	-159,480	0,060	-0,002
-235,073	-96,159	0,083	0,016
-234,059	434,357	0,069	0,109
-233,044	-200,000	0,005	0,251
-232,030	14,730	-0,059	-0,033
-231,015	-54,357	0,084	-0,027
-230,000	800,000	-0,022	-0,063
-228,986	-131,970	0,050	-0,005
-227,971	142,310	0,087	0,083
-226,957	-200,000	-0,012	0,154
-225,942	-103,981	-0,058	-0,010
-224,927	-200,000	0,033	-0,152
-223,913	800,000	-0,030	-0,063
-222,898	615,572	-0,057	0,103
-221,884	-200,000	-0,020	-0,070
-220,869	-72,603	0,017	0,004
-219,855	157,110	0,011	0,011
-218,840	108,261	-0,060	0,052
-217,825	800,000	-0,046	0,097
-216,811	196,501	0,049	-0,054
-215,796	39,337	0,063	-0,041
-214,782	-200,000	-0,025	-0,094
-213,767	175,836	-0,041	0,043
-212,752	99,327	0,049	0,041
-211,738	800,000	-0,055	0,118
-210,723	800,000	-0,044	-0,089
-209,709	-19,598	-0,060	0,027
-208,694	-118,130	-0,090	0,011
-207,679	138,956	-0,047	0,045
-206,665	-200,000	-0,041	0,205
-205,650	-200,000	0,005	0,215
-204,636	72,498	0,050	-0,038
-203,621	-200,000	-0,018	-0,115
-202,606	217,354	0,032	0,036
-201,592	800,000	-0,008	-0,023
-200,577	-200,000	0,010	-0,043
-199,563	800,000	0,040	0,099
-198,548	-41,375	-0,117	0,043
-197,533	-200,000	0,006	0,157
-196,519	-55,999	-0,020	-0,006
-195,504	800,000	-0,032	-0,078
-194,490	226,494	0,087	-0,101
-193,475	-38,214	0,128	0,049
-192,460	602,062	-0,071	0,127
-191,446	-0,983	0,101	0,051
-190,431	86,448	0,050	0,040
-189,417	53,100	-0,005	-0,003
-188,402	-200,000	-0,001	-0,039
-187,387	666,579	-0,033	0,062
-186,373	-200,000	-0,038	0,128
-185,358	421,420	-0,056	0,087
-184,344	-7,249	-0,064	0,031
-183,329	775,311	0,044	0,087
-182,315	214,531	-0,052	-0,059
-181,300	-7,864	-0,072	0,035
-180,285	-81,757	-0,108	0,025
-179,271	698,785	0,020	0,037
-178,256	-140,923	0,042	-0,003
-177,242	-122,712	-0,224	0,026
-176,227	-200,000	0,042	-0,134
-175,212	127,950	-0,023	0,021
-174,198	-94,055	-0,163	0,032
-173,183	-200,000	-0,036	-0,185
-172,169	23,608	-0,147	-0,087
-171,154	-50,363	-0,040	-0,014
-170,139	-44,825	0,088	0,031
-169,125	105,617	0,039	0,033
-168,110	361,797	0,023	0,033
-167,096	363,284	0,034	-0,049
-166,081	218,041	-0,069	-0,080
-165,066	-62,064	0,129	0,039
-164,052	800,000	0,035	0,072
-163,037	3,620	0,030	0,016
-162,023	185,020	-0,023	-0,024
-161,008	32,758	0,078	-0,049
-159,993	-200,000	0,018	0,067
-158,979	-200,000	0,010	-0,096
-157,964	165,974	0,088	0,089
-156,950	394,155	0,028	0,043
-155,935	87,874	0,139	0,111
-154,920	-200,000	0,010	0,047
-153,906	-200,000	-0,054	0,199
-152,891	-168,642	-0,104	-0,003
-151,877	-107,279	-0,049	0,008
-150,862	195,090	-0,081	0,088
-149,847	-88,289	0,046	0,010
-148,833	-200,000	-0,002	0,025
-147,818	-200,000	-0,004	0,084
-146,804	658,525	0,060	0,112
-145,789	800,000	0,049	0,101
-144,775	-51,096	0,068	0,023
-143,760	800,000	0,032	-0,092
-142,745	-33,000	-0,108	0,043
-141,731	6,600	-0,059	0,031
-140,716	156,255	-0,042	0,042
-139,702	181,404	-0,074	-0,078
-138,687	-6,164	-0,074	-0,036
-137,672	800,000	-0,059	-0,186
-136,658	751,417	-0,077	-0,151
-135,643	-136,020	-0,102	0,008
-134,629	-35,769	0,079	0,031
-133,614	800,000	-0,058	0,153
-132,599	-94,984	-0,089	0,017
-131,585	323,207	-0,050	0,068
-130,570	-47,615	0,112	-0,039
-129,556	578,210	-0,018	0,032
-128,541	167,409	0,036	-0,036
-127,526	800,000	-0,003	-0,008
-126,512	-45,671	0,090	0,032
-125,497	800,000	0,040	0,103
-124,483	-200,000	-0,009	-0,061
-123,468	-99,652	-0,025	0,004
-122,453	-200,000	-0,002	-0,078
-121,439	408,985	-0,026	0,039
-120,424	262,757	0,061	-0,077
-119,410	-200,000	0,012	0,100
