DTS Sentinel unit serial number:	SN410029Multiplexer serial number:	ORYXHardware model number:	OX2-SRSoftware version number:	ORYX F/W v4,00 Oryx Data Collector v3.7.2.0data status	okinstallation	B5 Nyhavnadifferential loss correction	single-endedforward channel	channel 2reverse channel	N/Adate	2023/12/14time	02:27:13forward acquisition time	300,00reverse acquisition time	0,00gamma	499,1914k internal	0,3155k external	0,3155temperature offset calibration	1,0000default loss term (dB/km)	0,3820temperature slope calibration	1,0000multiplexer offset coefficient	1,0000multiplexer slope coefficient	1,0000fibre end	0,00T internal ref (°C)	8,52T ext. ref 1 (°C)	-7,78T ext. ref 2 (°C)	-7,83length (m)	temperature (°C)	Stokes	anti-Stokes-744,400	-200,000	0,039	0,166
-743,385	-96,170	-0,305	-0,059
-742,371	30,697	0,252	0,159
-741,356	-120,662	-0,458	-0,056
-740,342	800,000	0,098	0,261
-739,327	-200,000	-0,481	0,001
-738,312	46,539	0,043	0,029
-737,298	-66,352	-0,338	-0,099
-736,283	422,488	0,144	0,228
-735,269	-122,752	-0,386	-0,045
-734,254	-70,195	0,260	0,072
-733,239	-2,947	-0,426	-0,219
-732,225	-38,688	0,183	0,071
-731,210	-107,818	0,120	-0,019
-730,196	-118,369	-0,118	0,015
-729,181	80,868	-0,054	0,043
-728,167	80,511	-0,038	0,031
-727,152	-200,000	-0,018	0,163
-726,137	507,800	-0,088	-0,151
-725,123	333,110	0,041	-0,058
-724,108	-101,290	-0,142	-0,025
-723,094	-200,000	-0,047	-0,164
-722,079	800,000	-0,033	-0,069
-721,064	467,915	-0,007	-0,012
-720,050	182,581	-0,058	-0,063
-719,035	188,923	-0,069	-0,076
-718,021	-109,199	-0,091	-0,014
-717,006	-73,378	-0,039	-0,010
-715,991	-200,000	0,000	-0,021
-714,977	-120,364	0,079	-0,010
-713,962	66,567	-0,053	0,040
-712,948	-157,410	0,028	-0,001
-711,933	-200,000	-0,003	-0,082
-710,918	89,038	0,107	-0,087
-709,904	-91,045	-0,147	-0,031
-708,889	-200,000	0,012	0,089
-707,875	149,720	0,086	-0,086
-706,860	-64,198	0,083	0,025
-705,845	169,002	0,043	0,045
-704,831	800,000	-0,044	0,120
-703,816	73,770	-0,120	-0,093
-702,802	-63,786	-0,155	0,047
-701,787	-200,000	0,005	-0,059
-700,772	301,570	0,076	0,103
-699,758	-103,052	0,221	-0,038
-698,743	-200,000	-0,017	-0,094
-697,729	-200,000	0,024	-0,127
-696,714	174,899	0,050	0,053
-695,699	800,000	0,021	-0,062
-694,685	106,548	-0,087	0,076
-693,670	800,000	-0,044	-0,101
-692,656	335,308	-0,047	-0,067
-691,641	-129,543	-0,056	-0,006
-690,627	53,174	0,082	0,058
-689,612	-200,000	-0,011	0,053
-688,597	10,562	-0,055	0,031
-687,583	-67,451	-0,156	-0,045
-686,568	186,438	-0,013	-0,015
-685,554	189,338	-0,028	0,031
-684,539	2,186	-0,113	0,060
-683,524	-200,000	0,024	0,086
-682,510	49,260	0,073	-0,051
-681,495	-100,251	-0,053	0,010
-680,481	480,912	0,009	0,014
-679,466	-9,737	-0,177	-0,087
-678,451	415,834	-0,032	0,050
-677,437	-200,000	0,010	0,032
-676,422	186,307	0,055	0,060
-675,408	-42,678	-0,029	0,011
-674,393	-200,000	-0,027	0,133
-673,378	116,070	-0,087	-0,078
-672,364	-10,899	-0,182	-0,088
-671,349	275,983	0,027	-0,035
-670,335	-27,494	0,070	-0,030
-669,320	271,806	0,080	-0,104
-668,305	488,661	0,111	0,188
-667,291	-33,351	-0,067	0,027
-666,276	-200,000	0,012	-0,065
-665,262	766,586	-0,042	-0,085
-664,247	-30,326	-0,070	-0,029
-663,232	-200,000	0,015	0,077
-662,218	39,103	0,105	-0,069
-661,203	-200,000	-0,010	0,048
-660,189	-200,000	0,002	0,050
-659,174	-11,319	-0,176	-0,085
-658,159	-51,001	-0,019	0,007
-657,145	-200,000	0,011	0,051
-656,130	-102,608	-0,081	-0,014
-655,116	38,158	0,059	-0,039
-654,101	-3,100	-0,058	-0,030
-653,086	-200,000	0,004	-0,089
-652,072	-200,000	-0,008	0,069
-651,057	-89,918	-0,134	-0,028
-650,043	-200,000	0,015	-0,066
-649,028	-200,000	-0,006	-0,053
-648,014	100,292	0,103	0,088
-646,999	-3,494	0,074	-0,038
-645,984	345,823	-0,029	0,043
-644,970	-200,000	-0,054	-0,184
-643,955	800,000	0,012	-0,038
-642,941	19,278	0,093	-0,055
-641,926	100,672	0,114	0,098
-640,911	-74,164	0,028	0,007
-639,897	-200,000	0,005	-0,139
-638,882	272,900	-0,046	0,060
-637,868	465,500	0,022	0,036
-636,853	62,197	-0,027	-0,020
-635,838	636,562	-0,007	-0,013
-634,824	-6,649	0,020	-0,010
-633,809	-193,657	0,210	0,001
-632,795	-200,000	-0,012	0,054
-631,780	176,352	-0,015	0,016
-630,765	-183,020	-0,102	0,001
-629,751	800,000	0,023	0,059
-628,736	318,443	-0,016	0,022
-627,722	213,014	-0,067	-0,078
-626,707	-200,000	-0,006	0,037
-625,692	-64,744	0,077	0,023
-624,678	800,000	-0,036	0,111
-623,663	-93,604	-0,068	-0,014
-622,649	305,637	-0,074	-0,102
-621,634	72,907	0,010	0,007
-620,619	-22,512	-0,073	-0,032
-619,605	-180,096	0,079	-0,001
-618,590	273,806	-0,078	-0,101
-617,576	143,576	-0,061	-0,060
-616,561	14,356	-0,037	-0,021
-615,546	508,117	-0,095	-0,162
-614,532	3,329	0,129	0,069
-613,517	-200,000	0,023	-0,088
-612,503	153,407	-0,100	-0,100
-611,488	-41,735	-0,049	-0,018
-610,474	357,345	0,057	-0,084
-609,459	-200,000	-0,002	-0,097
-608,444	118,133	0,051	-0,046
-607,430	-21,564	-0,050	0,022
-606,415	70,045	-0,034	0,026
-605,401	-200,000	0,028	-0,110
-604,386	104,562	0,025	0,022
-603,371	306,953	0,075	0,102
-602,357	-104,950	0,048	0,008
-601,342	-200,000	-0,021	-0,150
-600,328	-91,688	-0,083	0,017
-599,313	-148,760	-0,091	-0,005
-598,298	-200,000	0,010	0,088
-597,284	-200,000	-0,000	0,070
-596,269	-200,000	-0,012	-0,051
-595,255	-200,000	0,002	0,066
-594,240	-200,000	0,003	-0,087
-593,225	800,000	0,023	-0,063
-592,211	-52,215	-0,165	-0,056
-591,196	-22,638	0,021	-0,009
-590,182	-130,449	0,032	0,003
-589,167	-21,317	0,168	0,075
-588,152	239,234	0,023	-0,028
-587,138	-132,709	-0,135	-0,013
-586,123	-97,030	-0,082	-0,016
-585,109	16,998	-0,018	-0,010
-584,094	-109,544	-0,130	0,020
-583,079	800,000	0,023	-0,071
-582,065	203,727	0,053	0,061
-581,050	-200,000	0,006	0,089
-580,036	60,539	-0,010	-0,007
-579,021	-200,000	-0,036	0,155
-578,006	113,979	-0,066	-0,059
-576,992	800,000	0,013	-0,040
-575,977	800,000	-0,022	-0,064
-574,963	-200,000	-0,022	-0,129
-573,948	-200,000	-0,021	0,079
-572,934	-76,807	-0,083	0,021
-571,919	800,000	-0,058	-0,136
-570,904	-200,000	-0,000	-0,185
-569,890	143,989	-0,140	-0,137
-568,875	438,754	0,078	0,125
-567,861	-200,000	-0,008	0,127
-566,846	-200,000	-0,020	-0,083
-565,831	-93,294	-0,120	-0,024
-564,817	15,129	0,057	-0,033
-563,802	-200,000	0,004	-0,027
-562,788	263,226	-0,044	-0,056
-561,773	620,892	0,016	-0,029
-560,758	-122,247	-0,028	-0,003
-559,744	-134,679	0,090	-0,008
-558,729	-200,000	-0,002	0,095
-557,715	477,331	-0,063	-0,105
-556,700	-113,649	-0,046	0,007
-555,685	-2,943	-0,116	-0,059
-554,671	-54,641	0,102	0,033
-553,656	2,841	-0,143	0,076
-552,642	771,109	-0,031	0,063
-551,627	268,429	0,091	0,118
-550,612	166,215	-0,067	0,069
-549,598	-27,325	-0,053	0,023
-548,583	-141,250	0,103	0,008
-547,569	-200,000	0,013	0,082
-546,554	-39,397	0,037	-0,014
-545,539	-200,000	0,003	-0,082
-544,525	-200,000	-0,002	-0,045
-543,510	-119,159	0,105	0,013
-542,496	-200,000	-0,002	-0,040
-541,481	8,624	-0,046	-0,025
-540,466	-200,000	0,003	0,041
-539,452	176,605	-0,093	-0,099
-538,437	-114,618	-0,118	-0,016
-537,423	800,000	0,042	0,092
-536,408	58,617	-0,070	0,050
-535,393	15,789	-0,038	0,022
-534,379	-200,000	-0,018	-0,078
-533,364	435,100	0,051	-0,082
-532,350	-61,007	0,100	-0,031
-531,335	800,000	0,080	0,219
-530,321	-200,000	0,007	0,073
-529,306	40,278	-0,088	-0,058
-528,291	749,569	-0,046	-0,092
-527,277	684,175	-0,067	-0,129
-526,262	-200,000	0,014	0,143
-525,248	332,826	-0,034	0,048
-524,233	671,281	0,037	0,070
-523,218	-17,424	0,151	0,069
-522,204	-200,000	0,020	0,068
-521,189	-200,000	-0,001	-0,082
-520,175	-189,240	0,092	-0,001
-519,160	-122,327	-0,073	0,009
-518,145	181,524	0,158	0,170
-517,131	-11,858	0,082	-0,039
-516,116	170,664	0,027	-0,029
-515,102	800,000	0,024	-0,055
-514,087	-3,113	0,095	0,048
-513,072	-200,000	0,003	-0,053
-512,058	-200,000	0,013	-0,071
-511,043	101,893	0,147	0,125
-510,029	-153,153	-0,067	-0,003
-509,014	-200,000	-0,003	-0,016
-507,999	-87,162	0,151	0,033
-506,985	-69,966	-0,077	0,021
-505,970	800,000	-0,069	0,169
-504,956	194,576	0,104	-0,116
-503,941	-200,000	0,014	-0,049
-502,926	800,000	-0,038	0,093
-501,912	-43,074	0,104	0,038
-500,897	800,000	0,055	-0,130
-499,883	-200,000	-0,017	-0,126
-498,868	41,700	0,078	-0,052
-497,853	86,778	-0,070	0,057
-496,839	2,633	-0,028	-0,015
-495,824	-58,237	0,087	0,028
-494,810	363,237	0,086	0,126
-493,795	-60,159	0,061	-0,019
-492,781	72,119	-0,199	-0,151
-491,766	453,681	0,069	-0,112
-490,751	800,000	-0,005	0,011
-489,737	800,000	-0,008	-0,022
-488,722	-200,000	0,004	0,030
-487,708	-200,000	0,017	0,089
-486,693	199,873	0,111	0,125
-485,678	-64,173	-0,173	-0,051
-484,664	-62,772	0,018	-0,006
-483,649	-200,000	0,002	-0,050
-482,635	733,746	0,021	0,041
-481,620	-24,008	0,172	0,075
-480,605	-45,966	-0,070	-0,025
-479,591	238,868	-0,022	-0,027
-478,576	64,862	-0,062	0,046
-477,562	-48,511	-0,052	-0,018
-476,547	134,664	0,022	-0,021
-475,532	-193,278	-0,055	-0,000
-474,518	-200,000	0,077	-0,260
-473,503	800,000	0,042	0,120
-472,489	-200,000	-0,004	0,087
-471,474	138,718	0,092	-0,089
-470,459	800,000	-0,026	-0,080
-469,445	-95,597	0,125	-0,024
-468,430	-200,000	-0,009	0,037
-467,416	689,257	-0,070	0,134
-466,401	5,644	0,078	0,042
-465,386	-30,672	0,035	0,015
-464,372	-72,458	-0,066	0,018
-463,357	-80,378	0,035	0,008
-462,343	-179,002	-0,080	-0,001
-461,328	-200,000	0,009	-0,116
-460,313	-200,000	0,008	0,145
-459,299	81,232	-0,063	0,049
-458,284	-73,415	0,110	0,029
-457,270	800,000	0,015	0,031
-456,255	-172,163	-0,051	-0,001
-455,241	800,000	0,042	-0,097
-454,226	119,821	-0,028	-0,025
-453,211	-200,000	0,001	0,014
-452,197	-37,572	0,103	0,040
-451,182	273,472	-0,024	-0,031
-450,168	-200,000	0,001	-0,010
-449,153	-35,144	0,085	-0,034
-448,138	168,164	-0,043	0,044
-447,124	-9,769	-0,049	0,024
-446,109	-12,299	-0,093	-0,044
-445,095	800,000	-0,031	0,077
-444,080	66,224	0,096	0,071
-443,065	-200,000	-0,019	0,075
-442,051	800,000	-0,055	-0,130
-441,036	399,424	0,055	-0,085
-440,022	-123,222	-0,126	0,014
-439,007	351,488	-0,093	-0,134
-437,992	-164,933	0,101	-0,003
-436,978	-158,572	0,062	0,003
-435,963	376,848	0,021	-0,031
-434,949	48,398	-0,174	-0,118
-433,934	800,000	-0,019	-0,051
-432,919	122,985	-0,055	0,050
-431,905	-5,511	-0,060	-0,030
-430,890	-200,000	0,045	-0,168
-429,876	160,823	0,060	-0,061
-428,861	75,746	0,077	0,059
-427,846	-18,940	-0,168	-0,076
-426,832	-14,215	0,029	0,014
-425,817	302,337	0,065	-0,087
-424,803	6,147	-0,117	-0,063
-423,788	345,498	-0,023	-0,034
-422,773	165,581	0,048	0,050
-421,759	-44,098	0,115	0,042
-420,744	294,581	0,036	0,048
-419,730	32,228	-0,097	0,061
-418,715	191,597	-0,059	-0,065
-417,701	221,578	0,047	0,055
-416,686	-10,416	-0,066	-0,032
-415,671	-7,807	-0,059	-0,029
-414,657	800,000	0,028	-0,078
-413,642	800,000	0,019	0,049
-412,628	-200,000	-0,003	0,169
-411,613	162,351	0,095	0,097
-410,598	126,042	-0,072	-0,067
-409,584	-200,000	0,013	-0,096
-408,569	104,720	0,088	0,075
-407,555	-200,000	-0,007	0,028
-406,540	800,000	-0,047	0,119
-405,525	-200,000	0,018	0,120
-404,511	800,000	0,023	-0,048
-403,496	207,362	0,076	-0,086
-402,482	496,729	-0,074	0,124
-401,467	55,869	0,020	-0,014
-400,452	-139,806	0,078	0,006
-399,438	215,573	0,061	0,071
-398,423	-23,232	-0,019	-0,008
-397,409	100,344	-0,030	0,025
-396,394	-46,554	-0,128	-0,045
-395,379	800,000	0,046	-0,122
-394,365	258,468	0,037	0,046
-393,350	140,650	-0,038	0,037
-392,336	739,301	0,101	0,199
-391,321	-200,000	0,003	0,068
-390,306	57,402	-0,051	-0,036
-389,292	-31,714	0,111	0,045
-388,277	259,517	0,059	-0,075
-387,263	-73,398	0,058	-0,015
-386,248	800,000	-0,009	0,022
-385,233	70,490	0,093	0,070
-384,219	-200,000	-0,015	-0,062
-383,204	-10,881	-0,086	0,041
-382,190	-200,000	-0,010	-0,112
-381,175	20,207	0,039	-0,023
-380,160	-200,000	0,000	-0,142
-379,146	177,099	0,051	0,055
-378,131	-200,000	0,018	-0,107
-377,117	-10,688	-0,162	0,078
-376,102	224,617	0,036	-0,042
-375,088	-52,207	-0,112	-0,037
-374,073	-200,000	0,004	0,035
-373,058	81,555	0,075	-0,059
-372,044	359,492	0,080	0,116
-371,029	-105,253	0,028	-0,005
-370,015	-200,000	0,002	0,071
-369,000	-200,000	0,031	-0,123
-367,985	219,839	-0,091	0,106
-366,971	22,229	0,080	0,048
-365,956	800,000	-0,033	0,070
-364,942	-118,949	-0,063	-0,008
-363,927	-200,000	-0,019	-0,061
-362,912	800,000	-0,003	0,007
-361,898	-20,399	-0,130	-0,058
-360,883	-102,713	0,149	0,026
-359,869	70,980	0,098	-0,074
-358,854	800,000	0,022	0,058
-357,839	-28,198	0,074	-0,031
-356,825	-79,140	-0,036	-0,009
-355,810	-3,896	0,120	0,061
-354,796	217,677	0,105	0,121
-353,781	-51,336	-0,063	-0,021
-352,766	-97,300	0,132	0,025
-351,752	247,753	0,044	0,055
-350,737	355,785	-0,019	0,028
-349,723	-176,092	0,028	0,001
-348,708	-43,863	0,070	-0,026
-347,693	61,816	-0,115	-0,083
-346,679	-200,000	0,028	-0,197
-345,664	-115,018	-0,032	0,004
-344,650	800,000	0,014	0,035
-343,635	-200,000	-0,003	0,078
-342,620	-61,509	-0,108	0,033
-341,606	-21,577	-0,022	-0,010
-340,591	740,372	0,029	0,057
-339,577	-49,576	0,033	-0,011
-338,562	11,505	-0,147	0,082
-337,548	-200,000	-0,007	-0,205
-336,533	52,782	0,111	0,077
-335,518	158,747	0,102	0,103
-334,504	-20,940	0,169	0,075
-333,489	800,000	-0,060	0,129
-332,475	800,000	-0,036	-0,102
-331,460	-70,138	-0,132	-0,036
-330,445	-1,694	0,041	-0,021
-329,431	-21,088	0,053	0,023
-328,416	800,000	-0,033	0,067
-327,402	61,156	0,054	0,039
-326,387	386,374	-0,049	0,073
-325,372	-18,152	-0,124	0,056
-324,358	800,000	0,031	-0,078
-323,343	48,089	-0,112	0,076
-322,329	79,065	0,022	0,017
-321,314	7,591	-0,109	0,059
-320,299	-200,000	0,014	0,076
-319,285	-81,596	-0,009	-0,002
-318,270	-74,338	-0,159	-0,041
-317,256	-131,444	-0,041	-0,004
-316,241	-86,049	0,061	-0,014
-315,226	701,548	0,056	0,108
-314,212	14,542	-0,097	0,055
-313,197	-30,693	-0,057	-0,023
-312,183	-166,866	0,104	0,003
-311,168	-21,799	-0,076	0,033
-310,153	171,088	0,009	-0,009
-309,139	-122,953	-0,101	-0,012
-308,124	-122,897	0,024	0,003
-307,110	800,000	0,016	-0,042
-306,095	-64,351	0,016	-0,005
-305,080	123,008	0,047	0,043
-304,066	360,806	-0,020	-0,029
-303,051	378,430	-0,049	-0,072
-302,037	-88,801	0,074	-0,016
-301,022	278,921	0,045	-0,058
-300,008	14,991	0,067	-0,038
-298,993	-127,797	0,062	-0,006
-297,978	-59,785	-0,051	0,016
-296,964	-38,616	-0,113	0,043
-295,949	800,000	0,048	0,109
-294,935	192,397	0,090	0,099
-293,920	-75,366	-0,007	0,002
-292,905	-104,574	0,143	0,024
-291,891	-24,773	-0,102	-0,044
-290,876	-104,825	0,018	0,003
-289,862	-138,085	0,118	0,009
-288,847	277,850	-0,114	-0,147
-287,832	795,264	0,072	-0,144
-286,818	-181,049	0,070	-0,001
-285,803	314,586	0,015	0,020
-284,789	176,869	-0,062	-0,066
-283,774	800,000	-0,040	0,081
-282,759	800,000	0,016	-0,045
-281,745	0,635	-0,015	0,008
-280,730	-80,182	-0,055	0,013
-279,716	-200,000	-0,002	-0,032
-278,701	148,752	0,022	0,021
-277,686	246,723	0,034	0,042
-276,672	126,184	0,132	0,121
-275,657	800,000	0,046	-0,119
-274,643	-126,890	-0,119	-0,013
-273,628	45,155	-0,070	0,047
-272,613	30,762	-0,104	-0,064
-271,599	-70,796	0,080	0,022
-270,584	-200,000	-0,056	0,182
-269,570	-10,825	0,144	0,069
-268,555	-200,000	-0,008	-0,105
-267,540	-200,000	0,020	0,133
-266,526	492,479	0,062	-0,103
-265,511	412,439	-0,084	-0,129
-264,497	-40,899	0,136	0,051
-263,482	377,874	0,056	0,084
-262,467	13,673	0,060	-0,033
-261,453	800,000	-0,045	0,136
-260,438	-200,000	0,007	-0,054
-259,424	483,900	-0,081	0,134
-258,409	189,273	0,009	-0,010
-257,395	258,195	0,057	0,071
-256,380	-166,530	0,135	-0,004
-255,365	-200,000	0,027	0,113
-254,351	303,781	-0,029	0,039
-253,336	292,522	-0,071	-0,094
-252,322	-200,000	0,012	-0,058
-251,307	-200,000	-0,014	-0,128
-250,292	-200,000	-0,002	0,085
-249,278	-85,869	-0,143	0,032
-248,263	-39,176	-0,044	0,017
-247,249	-60,325	0,102	0,031
-246,234	-67,524	-0,080	0,023
-245,219	-200,000	-0,031	-0,124
-244,205	768,986	0,008	-0,016
-243,190	-200,000	-0,012	0,135
-242,176	179,315	-0,132	0,140
-241,161	-187,594	-0,128	0,001
-240,146	-78,617	-0,093	-0,023
-239,132	-133,017	0,075	-0,007
-238,117	-36,909	-0,116	-0,045
-237,103	135,429	0,095	-0,089
-236,088	-200,000	0,026	-0,167
-235,073	-200,000	-0,004	0,015
-234,059	792,034	0,091	0,183
-233,044	531,507	0,057	0,097
-232,030	800,000	0,032	-0,085
-231,015	93,536	-0,063	0,051
-230,000	-200,000	-0,054	-0,226
-228,986	58,971	-0,036	-0,026
-227,971	-200,000	-0,026	0,093
-226,957	-131,547	0,152	-0,014
-225,942	139,982	-0,057	0,054
-224,927	-200,000	0,023	0,129
-223,913	67,093	0,078	-0,057
-222,898	-200,000	-0,020	-0,085
-221,884	-6,619	-0,026	0,013
-220,869	-200,000	0,016	0,136
-219,855	800,000	0,004	0,012
-218,840	-200,000	-0,025	0,081
-217,825	800,000	0,015	-0,032
-216,811	-200,000	0,013	-0,126
-215,796	135,596	0,103	0,097
-214,782	-152,897	-0,094	-0,005
-213,767	273,061	0,062	-0,080
-212,752	800,000	-0,046	0,095
-211,738	-76,549	0,067	-0,017
-210,723	23,733	-0,118	0,070
-209,709	-200,000	0,016	0,117
-208,694	-200,000	0,022	0,092
-207,679	-178,949	0,069	-0,001
-206,665	-69,845	0,019	0,005
-205,650	38,805	0,081	0,052
-204,636	-99,356	-0,012	-0,002
-203,621	-200,000	-0,003	0,111
-202,606	-56,087	-0,119	0,038
-201,592	-200,000	-0,004	0,026
-200,577	800,000	-0,017	0,038
-199,563	750,956	-0,064	-0,125
-198,548	30,823	0,024	-0,015
-197,533	-124,848	0,079	-0,009
-196,519	52,932	-0,089	-0,061
-195,504	-60,720	-0,106	0,032
-194,490	691,021	0,031	-0,060
-193,475	128,693	0,050	0,046
-192,460	-123,665	-0,073	-0,008
-191,446	337,970	-0,043	-0,060
-190,431	-200,000	-0,025	0,121
-189,417	-101,291	0,093	-0,016
-188,402	-200,000	-0,027	-0,161
-187,387	-59,758	-0,152	0,047
-186,373	-31,408	-0,043	-0,017
-185,358	-129,970	-0,137	0,013
-184,344	66,161	-0,090	0,066
-183,329	-200,000	-0,030	0,116
-182,315	48,839	0,094	0,063
-181,300	54,232	0,130	-0,090
-180,285	800,000	-0,011	-0,029
-179,271	77,258	-0,101	-0,077
-178,256	-200,000	-0,002	-0,076
-177,242	275,923	-0,057	0,073
-176,227	-101,393	0,135	0,024
-175,212	800,000	-0,019	-0,051
-174,198	-76,872	-0,069	-0,017
-173,183	69,207	0,054	0,040
-172,169	276,254	-0,050	-0,064
-171,154	10,752	-0,071	0,039
-170,139	-104,538	0,041	-0,007
-169,125	-200,000	0,024	-0,110
-168,110	-120,625	0,038	-0,005
-167,096	-121,646	-0,115	-0,014
-166,081	166,045	0,036	-0,037
-165,066	-200,000	0,002	-0,134
-164,052	481,684	0,052	-0,085
-163,037	-200,000	-0,022	0,131
-162,023	-200,000	-0,036	0,169
-161,008	-86,124	0,074	0,016
-159,993	-117,614	0,091	-0,012
-158,979	-199,227	-0,112	0,000
-157,964	800,000	0,060	-0,166
-156,950	301,852	-0,032	0,042
-155,935	-200,000	0,024	-0,161
-154,920	14,804	-0,117	-0,066
-153,906	122,984	0,041	0,037
-152,891	800,000	0,032	-0,081
-151,877	-200,000	-0,007	-0,058
-150,862	-85,886	-0,105	-0,023
-149,847	-200,000	0,001	0,029
-148,833	225,044	0,019	0,022
-147,818	224,961	-0,062	0,072
-146,804	-129,839	0,198	-0,019
-145,789	-75,628	-0,074	0,019
-144,775	164,880	0,020	-0,020
-143,760	-56,827	-0,055	0,017
-142,745	-111,805	0,069	-0,010
-141,731	800,000	-0,039	0,104
-140,716	-38,643	0,166	0,063
-139,702	2,282	0,085	0,044
-138,687	-143,568	-0,122	-0,008
-137,672	-200,000	0,004	0,024
-136,658	18,865	-0,114	0,065
-135,643	633,290	0,028	-0,051
-134,629	-26,045	0,121	-0,051
-133,614	-55,241	0,174	0,056
-132,599	-0,501	0,016	0,008
-131,585	800,000	0,044	0,098
-130,570	-92,233	-0,181	-0,037
-129,556	-200,000	0,022	0,077
-128,541	11,727	-0,037	-0,020
-127,526	800,000	-0,048	-0,110
-126,512	800,000	-0,077	0,174
-125,497	35,385	-0,023	-0,015
-124,483	-200,000	-0,006	0,020
-123,468	800,000	0,003	-0,007
-122,453	366,272	-0,039	-0,057
-121,439	19,061	0,044	0,026
-120,424	-115,086	0,054	-0,007
-119,410	-152,410	-0,062	0,003
