DTS Sentinel unit serial number:	SN410029Multiplexer serial number:	ORYXHardware model number:	OX2-SRSoftware version number:	ORYX F/W v4,00 Oryx Data Collector v3.7.2.0data status	okinstallation	B5 Nyhavnadifferential loss correction	single-endedforward channel	channel 2reverse channel	N/Adate	2023/12/13time	22:47:13forward acquisition time	300,00reverse acquisition time	0,00gamma	499,1914k internal	0,3154k external	0,3154temperature offset calibration	1,0000default loss term (dB/km)	0,3820temperature slope calibration	1,0000multiplexer offset coefficient	1,0000multiplexer slope coefficient	1,0000fibre end	0,00T internal ref (°C)	9,19T ext. ref 1 (°C)	-7,50T ext. ref 2 (°C)	-7,51length (m)	temperature (°C)	Stokes	anti-Stokes-744,400	-0,312	0,097	-0,051
-743,385	-121,473	-0,447	-0,054
-742,371	161,825	-0,021	0,022
-741,356	33,880	-0,194	-0,124
-740,342	-85,039	0,081	0,019
-739,327	-192,534	-0,328	0,002
-738,312	263,593	0,105	0,135
-737,298	2,194	-0,353	-0,188
-736,283	-171,017	0,312	0,008
-735,269	-93,597	-0,356	-0,072
-734,254	13,572	0,171	0,098
-733,239	-30,187	-0,373	-0,156
-732,225	-74,020	0,285	0,076
-731,210	-85,557	-0,073	-0,017
-730,196	-11,229	-0,194	-0,094
-729,181	468,318	-0,023	0,039
-728,167	-138,985	0,177	-0,014
-727,152	-200,000	-0,000	0,070
-726,137	-200,000	-0,026	-0,093
-725,123	211,342	-0,068	-0,079
-724,108	-5,745	0,156	0,079
-723,094	-177,871	-0,098	-0,002
-722,079	800,000	-0,057	-0,146
-721,064	131,953	0,056	0,053
-720,050	-200,000	0,005	0,103
-719,035	-200,000	-0,020	-0,096
-718,021	-118,525	-0,046	0,006
-717,006	800,000	-0,023	0,053
-715,991	-200,000	0,014	-0,110
-714,977	800,000	-0,065	-0,196
-713,962	33,659	-0,121	-0,077
-712,948	-200,000	-0,004	0,093
-711,933	5,660	-0,020	0,011
-710,918	22,277	-0,098	-0,059
-709,904	-28,266	-0,038	0,016
-708,889	-200,000	-0,016	-0,068
-707,875	8,033	0,034	-0,019
-706,860	-3,852	0,110	0,056
-705,845	402,510	-0,056	0,087
-704,831	530,523	-0,057	0,100
-703,816	-46,294	0,051	-0,018
-702,802	-99,833	-0,024	0,004
-701,787	-116,908	-0,126	0,017
-700,772	-200,000	0,008	-0,097
-699,758	92,514	0,074	-0,062
-698,743	-200,000	0,012	0,044
-697,729	800,000	-0,024	0,064
-696,714	-57,636	0,089	0,029
-695,699	566,992	-0,014	-0,025
-694,685	-118,317	-0,105	-0,014
-693,670	800,000	-0,035	0,075
-692,656	-145,648	-0,065	-0,004
-691,641	-143,198	-0,190	-0,013
-690,627	-200,000	0,023	0,185
-689,612	205,932	-0,064	0,074
-688,597	-47,934	0,121	-0,043
-687,583	-97,187	-0,078	-0,015
-686,568	290,573	-0,027	0,036
-685,554	523,036	-0,020	0,035
-684,539	76,927	0,024	-0,018
-683,524	201,358	0,045	0,051
-682,510	-200,000	0,035	0,200
-681,495	244,011	-0,127	-0,157
-680,481	-200,000	-0,007	0,047
-679,466	226,200	-0,100	-0,120
-678,451	-200,000	0,025	-0,140
-677,437	162,953	0,013	-0,014
-676,422	-182,417	0,096	-0,001
-675,408	-200,000	-0,020	-0,101
-674,393	293,977	0,075	-0,101
-673,378	152,718	-0,063	-0,063
-672,364	-200,000	-0,021	-0,072
-671,349	13,637	-0,097	-0,055
-670,335	56,932	0,080	0,058
-669,320	20,477	0,088	-0,052
-668,305	-200,000	0,032	0,126
-667,291	800,000	0,043	-0,094
-666,276	800,000	-0,046	-0,104
-665,262	342,481	-0,091	-0,132
-664,247	-50,461	0,095	-0,033
-663,232	379,618	-0,028	-0,043
-662,218	-17,890	0,064	0,030
-661,203	-151,904	0,016	0,001
-660,189	-200,000	-0,044	0,255
-659,174	69,240	-0,130	-0,098
-658,159	174,585	-0,026	0,028
-657,145	-29,817	-0,087	-0,036
-656,130	-14,789	0,097	-0,046
-655,116	-200,000	0,030	-0,163
-654,101	800,000	-0,046	0,114
-653,086	256,363	-0,022	-0,027
-652,072	-200,000	0,021	-0,114
-651,057	-200,000	0,000	-0,106
-650,043	22,756	-0,098	-0,059
-649,028	79,108	0,054	-0,042
-648,014	800,000	-0,033	-0,074
-646,999	-200,000	-0,023	0,094
-645,984	704,389	-0,033	0,064
-644,970	-200,000	-0,009	-0,059
-643,955	-124,138	-0,077	0,009
-642,941	317,133	-0,077	-0,108
-641,926	34,750	0,104	0,067
-640,911	-158,322	0,049	-0,002
-639,897	53,200	-0,050	-0,035
-638,882	89,153	-0,064	0,052
-637,868	362,813	-0,027	-0,040
-636,853	210,190	-0,033	-0,038
-635,838	34,238	0,100	0,064
-634,824	163,317	0,064	-0,066
-633,809	-123,999	0,082	-0,009
-632,795	-200,000	0,027	0,103
-631,780	-173,959	-0,047	0,001
-630,765	-200,000	0,006	0,027
-629,751	7,417	0,100	0,055
-628,736	226,327	-0,113	-0,135
-627,722	-175,550	0,062	0,001
-626,707	-95,768	0,051	0,010
-625,692	-82,070	0,124	0,030
-624,678	36,377	-0,058	-0,038
-623,663	-200,000	-0,025	0,137
-622,649	112,107	0,065	-0,058
-621,634	306,328	-0,033	-0,046
-620,619	505,439	0,077	-0,132
-619,605	39,930	0,008	-0,005
-618,590	374,842	0,087	-0,130
-617,576	-14,598	-0,058	-0,027
-616,561	620,893	0,039	0,071
-615,546	-11,349	-0,094	0,045
-614,532	-200,000	0,035	0,120
-613,517	-144,675	-0,126	-0,008
-612,503	-103,389	-0,053	0,009
-611,488	177,154	0,076	-0,081
-610,474	262,558	0,017	-0,022
-609,459	-200,000	-0,015	-0,050
-608,444	16,871	-0,061	-0,036
-607,430	409,234	0,136	-0,212
-606,415	800,000	0,032	-0,081
-605,401	-200,000	-0,034	0,118
-604,386	-67,076	0,022	-0,006
-603,371	-25,302	0,118	0,051
-602,357	155,731	-0,106	-0,107
-601,342	-117,503	-0,010	0,001
-600,328	237,593	0,021	0,026
-599,313	-84,913	-0,033	0,008
-598,298	-55,526	-0,051	-0,017
-597,284	-34,133	0,103	-0,041
-596,269	173,089	-0,077	0,081
-595,255	-11,356	-0,107	0,051
-594,240	-99,146	-0,055	-0,010
-593,225	-64,544	0,068	-0,020
-592,211	651,260	0,070	0,132
-591,196	257,855	-0,114	-0,144
-590,182	-35,703	0,110	-0,043
-589,167	162,912	0,169	0,175
-588,152	220,844	-0,061	-0,072
-587,138	-122,766	-0,030	-0,004
-586,123	-43,782	-0,114	-0,042
-585,109	359,309	-0,054	-0,079
-584,094	-68,137	0,099	0,028
-583,079	467,221	-0,005	0,009
-582,065	-200,000	0,007	-0,049
-581,050	101,450	-0,143	0,122
-580,036	-91,935	-0,117	0,024
-579,021	189,038	0,064	-0,071
-578,006	-200,000	-0,015	0,075
-576,992	666,142	0,022	0,042
-575,977	54,094	-0,025	-0,017
-574,963	-200,000	0,012	0,072
-573,948	147,904	-0,032	-0,032
-572,934	700,034	-0,045	0,087
-571,919	8,508	0,044	0,024
-570,904	146,229	0,019	-0,019
-569,890	207,473	0,098	-0,112
-568,875	160,524	0,071	0,073
-567,861	-200,000	-0,002	0,091
-566,846	54,121	0,015	0,011
-565,831	-106,731	-0,125	-0,020
-564,817	-200,000	0,095	0,000
-563,802	800,000	-0,042	-0,110
-562,788	800,000	0,056	0,176
-561,773	78,428	-0,157	-0,123
-560,758	55,956	-0,075	-0,053
-559,744	-176,486	-0,035	0,001
-558,729	800,000	0,034	0,105
-557,715	800,000	-0,047	-0,133
-556,700	-24,315	0,089	0,039
-555,685	70,602	-0,103	-0,078
-554,671	82,467	0,051	-0,041
-553,656	800,000	0,039	0,118
-552,642	800,000	0,038	0,084
-551,627	-93,671	-0,156	-0,031
-550,612	122,244	0,054	-0,050
-549,598	800,000	-0,061	-0,136
-548,583	-200,000	0,022	0,083
-547,569	42,634	-0,012	-0,008
-546,554	-7,368	-0,057	0,028
-545,539	162,067	-0,123	0,126
-544,525	762,911	0,055	-0,109
-543,510	-40,487	0,019	-0,007
-542,496	-87,818	0,075	0,016
-541,481	113,122	-0,098	-0,087
-540,466	800,000	0,024	-0,054
-539,452	-25,269	0,087	-0,038
-538,437	-200,000	0,017	0,091
-537,423	-200,000	0,000	-0,035
-536,408	27,375	0,084	0,052
-535,393	764,332	0,081	-0,162
-534,379	400,446	-0,109	-0,168
-533,364	135,366	-0,059	-0,057
-532,350	51,725	-0,135	-0,094
-531,335	214,624	0,022	-0,026
-530,321	800,000	0,053	-0,155
-529,306	-200,000	0,003	-0,028
-528,291	800,000	0,064	-0,168
-527,277	525,211	-0,044	0,075
-526,262	-107,971	-0,099	-0,016
-525,248	-88,886	0,012	0,002
-524,233	44,660	0,133	0,089
-523,218	57,460	0,060	-0,043
-522,204	-68,641	-0,130	-0,036
-521,189	75,490	0,034	-0,027
-520,175	40,477	-0,113	0,074
-519,160	800,000	-0,005	0,015
-518,145	-200,000	0,000	-0,001
-517,131	-125,507	0,044	-0,005
-516,116	132,690	-0,056	0,053
-515,102	-20,671	0,073	-0,033
-514,087	-0,761	-0,055	0,028
-513,072	70,007	-0,016	-0,012
-512,058	246,969	0,041	-0,050
-511,043	-62,956	-0,093	-0,028
-510,029	-200,000	0,016	0,170
-509,014	-200,000	0,055	0,178
-507,999	167,578	-0,100	-0,104
-506,985	-24,267	0,022	0,010
-505,970	-200,000	0,011	-0,055
-504,956	203,792	-0,113	-0,128
-503,941	-29,878	-0,074	-0,031
-502,926	190,511	-0,080	0,088
-501,912	-0,168	0,125	0,065
-500,897	-55,847	-0,079	-0,025
-499,883	110,367	0,159	-0,139
-498,868	-41,174	-0,166	-0,062
-497,853	-99,664	0,058	-0,010
-496,839	29,463	0,083	0,052
-495,824	-144,766	-0,097	0,006
-494,810	-200,000	0,005	0,031
-493,795	-200,000	-0,004	0,029
-492,781	81,209	0,022	0,017
-491,766	-44,381	-0,034	-0,012
-490,751	518,262	0,039	-0,067
-489,737	-33,978	-0,071	-0,029
-488,722	-93,450	0,084	-0,017
-487,708	800,000	0,045	0,093
-486,693	-68,597	0,063	0,018
-485,678	157,706	-0,049	0,050
-484,664	-56,543	0,031	0,010
-483,649	-96,947	0,051	0,010
-482,635	-200,000	-0,001	-0,154
-481,620	-62,830	0,083	-0,025
-480,605	800,000	0,015	0,035
-479,591	41,999	-0,037	0,025
-478,576	-200,000	0,005	0,035
-477,562	-200,000	0,003	-0,108
-476,547	17,454	0,124	-0,071
-475,532	-200,000	-0,005	-0,135
-474,518	-78,464	0,090	-0,022
-473,503	172,230	-0,072	-0,076
-472,489	-57,118	0,050	0,016
-471,474	3,495	-0,060	-0,032
-470,459	126,107	0,101	0,094
-469,445	-200,000	0,012	-0,151
-468,430	-137,073	0,055	-0,005
-467,416	-200,000	0,006	0,059
-466,401	-61,139	-0,074	-0,023
-465,386	198,553	-0,159	0,178
-464,372	-200,000	-0,002	-0,088
-463,357	336,481	-0,051	0,072
-462,343	143,363	0,085	-0,083
-461,328	118,484	-0,038	0,035
-460,313	-200,000	-0,014	0,117
-459,299	-32,890	0,110	0,045
-458,284	-200,000	0,032	0,126
-457,270	667,030	-0,014	-0,026
-456,255	193,190	0,046	-0,050
-455,241	-154,762	0,121	0,006
-454,226	-145,567	0,099	0,006
-453,211	50,684	0,073	0,050
-452,197	-119,355	-0,088	-0,011
-451,182	-200,000	-0,024	0,144
-450,168	800,000	0,079	-0,167
-449,153	800,000	0,033	0,088
-448,138	-14,110	-0,119	-0,056
-447,124	-160,753	-0,055	0,002
-446,109	-200,000	-0,019	0,068
-445,095	-55,772	0,054	0,017
-444,080	155,542	-0,036	0,036
-443,065	314,136	-0,033	0,046
-442,051	-47,203	0,185	0,066
-441,036	438,169	-0,067	-0,106
-440,022	-54,533	-0,072	-0,024
-439,007	-200,000	-0,002	0,025
-437,992	435,209	0,042	-0,066
-436,978	1,551	0,030	0,016
-435,963	-122,078	0,022	0,003
-434,949	20,912	-0,068	-0,040
-433,934	-70,499	-0,099	-0,027
-432,919	191,557	-0,097	-0,106
-431,905	-65,194	-0,051	-0,015
-430,890	53,170	-0,066	-0,046
-429,876	800,000	-0,040	0,091
-428,861	-7,229	0,058	0,029
-427,846	-28,748	0,035	-0,015
-426,832	293,229	-0,030	0,041
-425,817	-147,437	-0,194	-0,012
-424,803	147,428	0,072	-0,070
-423,788	-200,000	0,005	-0,029
-422,773	800,000	0,034	-0,109
-421,759	-51,557	-0,137	0,046
-420,744	-156,196	-0,078	-0,004
-419,730	86,078	0,119	-0,095
-418,715	37,611	-0,062	0,040
-417,701	-98,471	0,067	-0,012
-416,686	-66,943	-0,125	-0,036
-415,671	-5,531	0,055	0,028
-414,657	127,431	-0,060	-0,056
-413,642	-154,810	0,066	0,003
-412,628	-88,540	-0,083	0,018
-411,613	-36,603	-0,114	-0,044
-410,598	23,224	0,148	-0,088
-409,584	327,471	0,029	0,040
-408,569	-159,876	0,017	0,001
-407,555	-69,182	-0,151	0,042
-406,540	-200,000	-0,046	0,170
-405,525	-13,297	-0,025	-0,012
-404,511	-167,264	-0,078	-0,002
-403,496	-200,000	0,023	0,080
-402,482	36,259	0,047	-0,030
-401,467	5,128	-0,149	-0,079
-400,452	8,884	-0,009	0,005
-399,438	28,911	0,088	0,054
-398,423	-107,819	-0,093	0,015
-397,409	117,820	0,127	-0,114
-396,394	31,465	-0,144	0,090
-395,379	494,939	0,049	-0,083
-394,365	-39,170	0,103	0,039
-393,350	254,321	0,058	-0,072
-392,336	800,000	-0,022	-0,059
-391,321	800,000	0,070	-0,173
-390,306	800,000	-0,044	-0,111
-389,292	-73,978	0,133	0,035
-388,277	280,882	0,025	0,033
-387,263	30,358	-0,025	0,015
-386,248	-111,225	-0,050	0,007
-385,233	800,000	-0,016	0,045
-384,219	800,000	0,042	-0,098
-383,204	800,000	0,019	-0,055
-382,190	800,000	-0,044	-0,120
-381,175	-200,000	0,000	-0,016
-380,160	40,202	-0,143	-0,094
-379,146	800,000	0,032	0,084
-378,131	-200,000	0,003	-0,117
-377,117	-200,000	-0,014	-0,054
-376,102	90,071	-0,025	-0,020
-375,088	70,203	-0,057	0,043
-374,073	-99,943	0,031	-0,006
-373,058	800,000	0,006	-0,018
-372,044	800,000	-0,021	-0,066
-371,029	-75,797	-0,233	0,060
-370,015	248,196	0,020	-0,025
-369,000	-77,412	0,044	0,011
-367,985	800,000	-0,038	0,095
-366,971	-68,848	0,070	0,020
-365,956	40,148	0,075	0,049
-364,942	-73,011	-0,118	-0,031
-363,927	321,818	-0,004	-0,006
-362,912	-173,080	-0,030	0,001
-361,898	175,448	-0,065	-0,069
-360,883	50,808	-0,061	0,042
-359,869	-200,000	0,039	-0,158
-358,854	43,175	0,056	-0,037
-357,839	-200,000	0,012	0,043
-356,825	-38,219	-0,006	-0,002
-355,810	-200,000	0,011	0,069
-354,796	-200,000	-0,010	-0,141
-353,781	-200,000	-0,003	-0,044
-352,766	800,000	-0,019	0,045
-351,752	442,858	-0,065	0,104
-350,737	-200,000	0,009	-0,082
-349,723	-200,000	-0,008	0,103
-348,708	-200,000	-0,001	0,083
-347,693	381,575	-0,070	0,104
-346,679	-133,687	-0,115	0,010
-345,664	-16,347	0,074	0,034
-344,650	-20,002	0,127	0,057
-343,635	-46,208	0,159	-0,057
-342,620	132,980	0,061	-0,057
-341,606	544,656	0,046	-0,080
-340,591	-200,000	-0,009	0,061
-339,577	618,910	0,044	-0,080
-338,562	-200,000	0,001	-0,036
-337,548	107,338	0,048	0,041
-336,533	99,442	0,169	0,142
-335,518	210,089	0,125	-0,143
-334,504	-200,000	0,048	0,162
-333,489	469,058	-0,032	0,052
-332,475	-4,299	-0,047	0,024
-331,460	-37,192	0,019	0,007
-330,445	141,277	-0,054	0,052
-329,431	-57,722	0,048	-0,015
-328,416	145,203	0,062	-0,060
-327,402	-11,862	0,098	0,046
-326,387	-200,000	0,001	0,063
-325,372	101,787	-0,079	-0,067
-324,358	-160,186	0,073	-0,003
-323,343	-71,806	0,090	-0,024
-322,329	-200,000	-0,014	0,081
-321,314	66,139	-0,041	0,030
-320,299	800,000	-0,057	0,129
-319,285	-200,000	-0,019	-0,105
-318,270	189,994	-0,040	-0,044
-317,256	466,658	0,042	-0,069
-316,241	321,652	0,046	-0,063
-315,226	800,000	-0,008	0,019
-314,212	-200,000	0,018	0,105
-313,197	800,000	0,086	0,191
-312,183	18,613	0,073	0,042
-311,168	-102,068	-0,083	-0,014
-310,153	399,830	0,032	-0,050
-309,139	-66,621	-0,126	-0,036
-308,124	-24,798	-0,141	-0,061
-307,110	-77,478	0,115	-0,029
-306,095	375,085	0,101	0,150
-305,080	-200,000	-0,004	0,087
-304,066	800,000	-0,021	0,055
-303,051	-188,087	-0,021	-0,000
-302,037	-34,695	-0,114	-0,045
-301,022	800,000	0,023	-0,064
-300,008	800,000	0,031	0,083
-298,993	800,000	0,031	0,087
-297,978	357,804	-0,088	0,128
-296,964	-119,671	0,055	-0,007
-295,949	-133,052	0,158	0,014
-294,935	123,844	-0,116	-0,105
-293,920	800,000	0,014	-0,034
-292,905	800,000	0,010	0,023
-291,891	-200,000	-0,013	0,113
-290,876	800,000	-0,015	0,040
-289,862	-108,586	0,018	-0,003
-288,847	108,936	-0,082	-0,071
-287,832	-52,025	0,095	0,032
-286,818	89,096	-0,012	-0,010
-285,803	-200,000	0,023	0,093
-284,789	249,630	-0,060	-0,074
-283,774	123,724	-0,066	0,060
-282,759	79,922	0,126	-0,098
-281,745	-105,208	-0,095	-0,016
-280,730	-91,765	-0,048	-0,010
-279,716	-200,000	0,028	-0,173
-278,701	190,877	0,006	0,006
-277,686	22,105	0,044	0,026
-276,672	7,772	0,090	0,049
-275,657	-71,257	-0,096	0,026
-274,643	61,606	-0,089	0,064
-273,628	190,034	0,059	-0,064
-272,613	800,000	0,030	-0,079
-271,599	-70,842	0,052	0,014
-270,584	414,136	0,065	-0,100
-269,570	60,351	0,136	0,098
-268,555	50,114	0,223	0,152
-267,540	-200,000	-0,012	-0,049
-266,526	-200,000	0,005	0,043
-265,511	-0,148	0,106	0,054
-264,497	-5,501	-0,070	-0,035
-263,482	16,003	0,074	0,042
-262,467	243,626	-0,031	0,037
-261,453	-143,127	-0,122	-0,008
-260,438	1,380	-0,063	0,033
-259,424	-200,000	-0,001	-0,050
-258,409	-129,489	0,033	0,003
-257,395	800,000	0,041	0,082
-256,380	800,000	0,062	0,141
-255,365	800,000	-0,032	0,072
-254,351	800,000	0,021	0,055
-253,336	412,050	-0,062	0,096
-252,322	800,000	-0,018	-0,039
-251,307	-190,383	-0,169	-0,001
-250,292	-105,841	0,066	0,011
-249,278	-200,000	-0,022	0,095
-248,263	-152,739	0,127	-0,006
-247,249	-111,484	0,107	0,016
-246,234	-175,114	0,136	-0,003
-245,219	-200,000	0,012	0,078
-244,205	-200,000	-0,006	0,089
-243,190	97,059	0,055	-0,046
-242,176	-138,181	0,091	-0,007
-241,161	48,980	0,141	0,096
-240,146	-116,313	-0,078	0,010
-239,132	800,000	-0,040	0,117
-238,117	197,338	0,032	0,036
-237,103	34,359	0,139	-0,087
-236,088	-90,715	0,049	-0,010
-235,073	-41,725	-0,046	-0,017
-234,059	-50,017	0,122	0,042
-233,044	800,000	0,012	-0,038
-232,030	37,876	-0,018	-0,012
-231,015	73,712	-0,048	0,036
-230,000	301,675	-0,062	0,083
-228,986	253,388	-0,024	-0,030
-227,971	-131,461	-0,075	0,007
-226,957	-143,070	-0,122	0,008
-225,942	-39,300	-0,121	0,046
-224,927	800,000	0,036	-0,090
-223,913	-69,641	-0,065	0,018
-222,898	-11,869	0,039	0,018
-221,884	311,724	-0,008	0,011
-220,869	-200,000	0,002	0,057
-219,855	140,165	0,063	-0,060
-218,840	-200,000	0,001	-0,033
-217,825	-36,157	-0,143	-0,055
-216,811	800,000	-0,056	-0,125
-215,796	-200,000	-0,015	0,066
-214,782	-200,000	0,012	-0,046
-213,767	120,725	-0,103	0,092
-212,752	-125,216	0,072	0,008
-211,738	800,000	-0,037	-0,099
-210,723	-185,104	-0,118	0,001
-209,709	800,000	0,026	0,073
-208,694	800,000	0,079	0,172
-207,679	128,284	-0,077	0,071
-206,665	310,807	-0,072	-0,098
-205,650	149,585	0,156	0,153
-204,636	623,467	0,014	-0,025
-203,621	-34,277	-0,079	-0,031
-202,606	-38,080	-0,053	0,020
-201,592	800,000	-0,031	-0,063
-200,577	-122,476	0,153	-0,018
-199,563	800,000	0,017	0,035
-198,548	-200,000	-0,023	0,114
-197,533	30,911	-0,067	-0,042
-196,519	-95,965	0,044	0,008
-195,504	57,845	-0,091	-0,064
-194,490	18,245	-0,100	0,058
-193,475	-163,959	0,070	0,002
-192,460	-200,000	-0,007	0,069
-191,446	156,778	0,067	-0,067
-190,431	53,225	-0,016	-0,011
-189,417	-46,298	0,029	0,010
-188,402	389,706	0,051	0,076
-187,387	-200,000	0,013	-0,062
-186,373	-200,000	-0,025	-0,080
-185,358	790,696	0,045	-0,090
-184,344	133,008	0,062	0,058
-183,329	16,295	-0,066	-0,038
-182,315	-200,000	0,002	-0,049
-181,300	141,609	-0,069	-0,066
-180,285	343,665	0,072	-0,102
-179,271	475,015	-0,054	0,089
-178,256	-109,952	0,087	0,013
-177,242	134,063	-0,103	0,096
-176,227	-200,000	0,005	0,113
-175,212	-95,215	0,054	0,011
-174,198	-9,758	0,025	-0,012
-173,183	199,028	0,030	-0,034
-172,169	-167,111	-0,113	0,003
-171,154	-79,606	0,060	0,014
-170,139	1,397	0,092	-0,047
-169,125	-132,083	-0,116	-0,011
-168,110	-200,000	-0,036	0,149
-167,096	-200,000	-0,014	0,049
-166,081	-56,709	-0,096	0,030
-165,066	-200,000	0,010	-0,174
-164,052	217,845	-0,040	-0,046
-163,037	-5,964	0,080	-0,039
-162,023	46,701	0,069	0,046
-161,008	800,000	-0,022	0,057
-159,993	800,000	-0,087	0,206
-158,979	-200,000	-0,019	-0,072
-157,964	-200,000	-0,021	-0,070
-156,950	-10,759	0,078	0,037
-155,935	-200,000	0,021	-0,084
-154,920	800,000	-0,030	0,079
-153,906	20,659	0,030	-0,017
-152,891	191,870	-0,068	0,074
-151,877	3,708	-0,060	0,032
-150,862	800,000	0,059	-0,152
-149,847	-200,000	0,008	-0,055
-148,833	90,088	-0,006	0,005
-147,818	-200,000	-0,003	0,039
-146,804	-200,000	-0,009	-0,097
-145,789	-200,000	0,012	-0,088
-144,775	-200,000	-0,003	0,014
-143,760	-102,067	0,090	0,016
-142,745	-200,000	0,008	-0,087
-141,731	800,000	0,071	0,177
-140,716	187,481	-0,047	0,051
-139,702	649,893	-0,096	0,178
-138,687	-5,388	0,097	0,048
-137,672	10,060	-0,155	0,085
-136,658	-200,000	0,010	-0,045
-135,643	54,578	-0,094	0,065
-134,629	-122,041	0,071	0,008
-133,614	129,984	0,048	0,045
-132,599	-29,067	0,092	-0,038
-131,585	62,693	-0,106	-0,076
-130,570	361,576	-0,130	-0,189
-129,556	-48,518	-0,034	-0,012
-128,541	-162,391	0,127	0,004
-127,526	800,000	0,029	0,060
-126,512	717,773	-0,061	0,117
-125,497	800,000	0,031	0,066
-124,483	261,955	0,043	0,054
-123,468	-122,720	-0,083	-0,010
-122,453	800,000	-0,005	0,013
-121,439	-200,000	0,000	0,012
-120,424	59,930	-0,067	-0,047
-119,410	800,000	-0,033	-0,069
-118,395	-200,000	0,014	-0,068
