DTS Sentinel unit serial number:	SN410029Multiplexer serial number:	ORYXHardware model number:	OX2-SRSoftware version number:	ORYX F/W v4,00 Oryx Data Collector v3.7.2.0data status	okinstallation	B5 Nyhavnadifferential loss correction	single-endedforward channel	channel 2reverse channel	N/Adate	2023/12/14time	17:52:13forward acquisition time	300,00reverse acquisition time	0,00gamma	499,1914k internal	0,3156k external	0,3156temperature offset calibration	1,0000default loss term (dB/km)	0,3820temperature slope calibration	1,0000multiplexer offset coefficient	1,0000multiplexer slope coefficient	1,0000fibre end	0,00T internal ref (°C)	8,31T ext. ref 1 (°C)	-7,14T ext. ref 2 (°C)	-7,19length (m)	temperature (°C)	Stokes	anti-Stokes-744,400	-32,631	0,117	-0,048
-743,385	-160,960	-0,224	0,009
-742,371	-96,435	0,270	0,052
-741,356	-124,910	-0,365	-0,041
-740,342	26,637	0,181	0,111
-739,327	-67,513	-0,375	-0,108
-738,312	5,375	0,135	0,073
-737,298	-65,625	-0,393	-0,116
-736,283	46,175	0,169	0,115
-735,269	-183,725	-0,307	0,004
-734,254	-166,582	0,064	0,002
-733,239	-13,353	-0,538	-0,256
-732,225	-175,104	0,232	-0,005
-731,210	800,000	-0,041	0,103
-730,196	-47,494	-0,031	0,011
-729,181	-182,234	-0,089	-0,001
-728,167	800,000	0,024	-0,055
-727,152	-162,335	-0,153	0,005
-726,137	353,762	-0,050	0,074
-725,123	-200,000	0,038	-0,128
-724,108	-200,000	0,007	-0,103
-723,094	800,000	-0,034	-0,076
-722,079	-200,000	0,005	-0,139
-721,064	-68,585	0,062	-0,018
-720,050	17,952	-0,072	0,042
-719,035	800,000	-0,032	0,105
-718,021	-200,000	0,016	-0,086
-717,006	118,595	0,033	-0,030
-715,991	16,705	-0,128	-0,074
-714,977	-200,000	-0,000	-0,108
-713,962	45,246	-0,097	-0,066
-712,948	-200,000	-0,001	-0,052
-711,933	161,240	-0,176	-0,181
-710,918	-52,810	0,122	0,041
-709,904	-84,002	0,192	-0,045
-708,889	218,136	-0,085	-0,101
-707,875	117,765	-0,080	-0,073
-706,860	-11,642	-0,105	0,051
-705,845	13,987	-0,063	0,036
-704,831	131,719	-0,095	0,090
-703,816	799,160	-0,044	0,091
-702,802	132,421	-0,111	-0,105
-701,787	-200,000	-0,009	0,062
-700,772	-200,000	-0,008	0,038
-699,758	-200,000	0,090	0,000
-698,743	228,910	-0,039	0,048
-697,729	-200,000	0,140	0,000
-696,714	-200,000	0,017	0,089
-695,699	38,562	-0,112	0,073
-694,685	-35,181	-0,126	0,050
-693,670	-138,042	-0,132	-0,011
-692,656	800,000	-0,063	0,191
-691,641	191,380	0,067	0,074
-690,627	-200,000	0,030	0,142
-689,612	-200,000	0,006	0,024
-688,597	-111,895	0,043	-0,006
-687,583	396,602	0,052	-0,081
-686,568	800,000	-0,026	-0,057
-685,554	-118,782	0,085	-0,011
-684,539	2,939	-0,060	-0,032
-683,524	-111,041	0,078	-0,012
-682,510	-106,669	-0,052	0,008
-681,495	800,000	-0,010	-0,025
-680,481	-5,070	-0,162	0,082
-679,466	379,885	-0,074	-0,112
-678,451	800,000	-0,055	-0,146
-677,437	800,000	-0,030	-0,094
-676,422	-200,000	0,008	0,125
-675,408	-41,266	0,170	-0,064
-674,393	221,731	0,034	-0,040
-673,378	800,000	0,015	-0,045
-672,364	-200,000	-0,018	-0,158
-671,349	-110,062	0,105	-0,016
-670,335	0,663	0,181	0,095
-669,320	800,000	-0,014	0,035
-668,305	-88,820	-0,128	0,028
-667,291	-200,000	0,002	0,086
-666,276	-24,384	-0,046	-0,020
-665,262	-33,377	-0,073	-0,029
-664,247	-69,834	0,037	-0,010
-663,232	160,130	-0,017	0,017
-662,218	-171,293	0,157	-0,004
-661,203	-108,230	-0,165	-0,026
-660,189	-200,000	0,002	0,033
-659,174	-113,051	0,065	-0,009
-658,159	372,865	-0,014	0,021
-657,145	478,226	0,066	0,111
-656,130	-67,757	0,121	-0,035
-655,116	-138,790	-0,026	-0,002
-654,101	-200,000	-0,008	0,049
-653,086	553,332	-0,031	0,054
-652,072	-200,000	0,001	-0,076
-651,057	-102,539	-0,192	-0,033
-650,043	185,036	-0,110	-0,120
-649,028	-56,678	0,231	-0,075
-648,014	677,274	-0,046	0,088
-646,999	548,263	0,100	0,176
-645,984	-148,725	0,027	0,002
-644,970	-200,000	0,005	0,108
-643,955	-200,000	0,037	0,124
-642,941	2,221	-0,186	-0,098
-641,926	-39,179	-0,081	-0,031
-640,911	-87,662	0,039	0,009
-639,897	-58,128	0,100	-0,032
-638,882	-200,000	-0,034	-0,111
-637,868	413,698	-0,052	0,082
-636,853	106,592	-0,102	-0,089
-635,838	-200,000	-0,015	-0,101
-634,824	52,781	-0,124	-0,087
-633,809	-177,374	0,013	-0,000
-632,795	800,000	-0,015	-0,043
-631,780	800,000	-0,018	0,057
-630,765	175,436	0,102	0,109
-629,751	-107,215	-0,022	-0,003
-628,736	59,571	-0,063	-0,046
-627,722	-200,000	-0,005	0,024
-626,707	509,229	-0,086	-0,147
-625,692	-200,000	0,003	0,048
-624,678	201,986	-0,084	0,095
-623,663	-57,844	-0,083	0,027
-622,649	-192,815	-0,149	0,001
-621,634	-200,000	-0,013	0,075
-620,619	-139,179	-0,163	0,013
-619,605	800,000	-0,023	-0,055
-618,590	-40,012	0,121	0,046
-617,576	-200,000	-0,003	0,014
-616,561	57,837	0,101	-0,073
-615,546	145,014	0,043	-0,043
-614,532	471,119	-0,021	-0,035
-613,517	-200,000	-0,036	-0,145
-612,503	329,550	-0,059	0,084
-611,488	326,649	-0,046	0,065
-610,474	-200,000	-0,026	0,096
-609,459	360,114	-0,069	-0,102
-608,444	-200,000	-0,031	-0,117
-607,430	800,000	-0,002	-0,005
-606,415	340,647	-0,049	-0,070
-605,401	-200,000	-0,001	-0,096
-604,386	-83,437	0,143	0,033
-603,371	-14,594	-0,044	-0,021
-602,357	800,000	0,013	-0,043
-601,342	-55,806	0,085	-0,028
-600,328	-139,885	-0,103	0,008
-599,313	112,021	-0,088	-0,078
-598,298	145,923	0,061	-0,060
-597,284	-200,000	0,002	0,114
-596,269	-71,153	0,113	0,031
-595,255	-200,000	-0,008	0,056
-594,240	60,377	-0,074	-0,053
-593,225	49,583	-0,033	-0,023
-592,211	-140,089	0,097	-0,007
-591,196	-41,730	-0,075	-0,028
-590,182	-200,000	0,002	0,011
-589,167	-200,000	0,010	-0,065
-588,152	356,495	-0,058	-0,085
-587,138	-200,000	-0,013	0,086
-586,123	800,000	-0,029	-0,080
-585,109	354,589	0,047	-0,069
-584,094	180,492	0,073	-0,079
-583,079	46,426	-0,015	-0,010
-582,065	-128,541	0,134	-0,014
-581,050	194,722	0,108	-0,121
-580,036	-200,000	-0,027	0,118
-579,021	220,778	-0,102	-0,120
-578,006	669,001	-0,018	-0,034
-576,992	-144,506	0,091	-0,006
-575,977	-44,368	-0,096	-0,035
-574,963	-200,000	0,013	0,115
-573,948	-34,828	0,114	-0,045
-572,934	109,128	-0,080	-0,070
-571,919	-200,000	0,002	-0,075
-570,904	22,785	-0,066	0,040
-569,890	-172,865	-0,082	0,002
-568,875	-134,609	0,076	0,007
-567,861	19,788	0,023	0,014
-566,846	-200,000	0,004	0,074
-565,831	465,676	-0,023	-0,039
-564,817	136,368	-0,104	-0,099
-563,802	800,000	-0,060	-0,146
-562,788	800,000	-0,031	-0,097
-561,773	597,543	0,098	0,178
-560,758	12,221	0,109	-0,061
-559,744	635,602	-0,033	-0,062
-558,729	-200,000	0,005	-0,034
-557,715	197,264	0,094	-0,106
-556,700	-47,541	-0,248	-0,088
-555,685	-152,306	-0,023	0,001
-554,671	63,794	-0,092	0,067
-553,656	-200,000	0,024	0,088
-552,642	-59,271	0,039	-0,012
-551,627	96,187	-0,035	-0,029
-550,612	-200,000	0,004	-0,092
-549,598	-145,164	0,140	0,009
-548,583	800,000	0,057	-0,144
-547,569	85,926	0,134	-0,108
-546,554	800,000	0,042	0,087
-545,539	-187,474	0,057	-0,001
-544,525	800,000	0,008	0,025
-543,510	-181,969	-0,143	0,002
-542,496	800,000	-0,039	0,082
-541,481	800,000	-0,045	-0,120
-540,466	-200,000	-0,005	-0,042
-539,452	199,871	0,059	0,066
-538,437	390,258	-0,022	-0,034
-537,423	-200,000	0,005	0,092
-536,408	800,000	0,038	-0,079
-535,393	-60,025	0,096	0,030
-534,379	-23,993	-0,039	-0,017
-533,364	-200,000	-0,014	0,054
-532,350	77,072	-0,007	-0,005
-531,335	208,174	-0,045	0,052
-530,321	-99,823	0,075	0,014
-529,306	221,040	0,069	0,081
-528,291	2,979	-0,113	0,060
-527,277	116,252	0,111	0,100
-526,262	30,334	0,112	0,070
-525,248	-43,068	-0,049	0,018
-524,233	42,068	0,119	-0,079
-523,218	800,000	-0,037	-0,082
-522,204	51,817	-0,088	0,061
-521,189	115,827	-0,140	-0,126
-520,175	-200,000	-0,005	-0,132
-519,160	355,719	-0,085	-0,125
-518,145	-200,000	0,030	0,192
-517,131	76,856	0,064	0,050
-516,116	800,000	0,032	0,067
-515,102	35,327	0,075	-0,048
-514,087	273,345	-0,069	-0,090
-513,072	800,000	-0,050	-0,131
-512,058	-200,000	-0,006	-0,131
-511,043	-135,760	-0,039	-0,003
-510,029	50,620	-0,038	0,026
-509,014	-5,731	0,116	0,058
-507,999	21,834	0,061	0,036
-506,985	800,000	0,035	-0,080
-505,970	187,569	0,044	-0,049
-504,956	595,157	-0,121	0,219
-503,941	82,693	-0,092	0,073
-502,926	113,126	-0,044	-0,039
-501,912	-94,708	-0,020	-0,004
-500,897	-101,585	0,061	-0,011
-499,883	244,424	-0,114	-0,140
-498,868	-200,000	-0,002	-0,032
-497,853	303,933	0,084	-0,115
-496,839	-200,000	0,010	-0,080
-495,824	102,142	0,069	0,059
-494,810	-98,431	-0,022	-0,004
-493,795	-102,390	0,122	-0,021
-492,781	-200,000	0,017	-0,059
-491,766	-200,000	-0,031	-0,121
-490,751	740,287	0,004	0,008
-489,737	143,407	0,038	0,036
-488,722	800,000	0,023	-0,048
-487,708	-85,789	0,068	0,015
-486,693	-200,000	-0,011	0,069
-485,678	335,962	-0,013	0,019
-484,664	71,410	-0,095	-0,072
-483,649	24,675	0,025	-0,015
-482,635	-40,201	-0,029	0,011
-481,620	-111,027	-0,052	0,008
-480,605	800,000	-0,013	0,033
-479,591	-159,529	0,168	0,007
-478,576	79,433	0,032	0,025
-477,562	-200,000	-0,036	0,145
-476,547	-200,000	-0,004	0,104
-475,532	-22,632	-0,069	0,030
-474,518	279,100	-0,025	-0,033
-473,503	-125,589	0,141	-0,015
-472,489	191,780	0,043	-0,047
-471,474	415,296	-0,044	0,069
-470,459	42,354	0,042	0,028
-469,445	-200,000	-0,014	0,052
-468,430	-200,000	0,001	0,007
-467,416	-35,047	0,101	0,040
-466,401	269,930	-0,059	0,075
-465,386	66,659	-0,109	0,081
-464,372	-200,000	0,001	-0,010
-463,357	523,240	-0,040	0,070
-462,343	-47,357	-0,027	0,010
-461,328	-200,000	-0,009	0,129
-460,313	28,670	0,111	0,068
-459,299	-57,111	0,062	-0,020
-458,284	-92,285	0,184	0,038
-457,270	800,000	-0,065	0,154
-456,255	-200,000	-0,003	-0,025
-455,241	-28,463	-0,072	-0,030
-454,226	410,149	0,003	-0,005
-453,211	-58,830	0,164	-0,051
-452,197	800,000	-0,017	0,037
-451,182	12,004	0,121	-0,068
-450,168	-200,000	0,000	0,098
-449,153	-200,000	-0,040	-0,133
-448,138	-108,108	0,113	0,018
-447,124	800,000	-0,061	0,155
-446,109	-3,140	0,032	-0,016
-445,095	30,351	-0,074	0,046
-444,080	83,434	-0,035	0,028
-443,065	229,947	-0,040	-0,048
-442,051	-50,261	0,038	-0,013
-441,036	161,404	-0,091	0,093
-440,022	105,942	0,105	0,091
-439,007	-200,000	-0,009	0,133
-437,992	-200,000	-0,006	0,199
-436,978	-200,000	-0,030	0,097
-435,963	-200,000	-0,006	-0,023
-434,949	800,000	-0,081	-0,201
-433,934	-200,000	-0,013	-0,050
-432,919	-41,712	-0,082	0,031
-431,905	800,000	-0,032	0,066
-430,890	16,530	0,126	0,072
-429,876	377,618	0,064	0,095
-428,861	800,000	0,050	0,137
-427,846	191,800	0,071	-0,078
-426,832	-124,097	0,062	0,007
-425,817	-40,453	-0,044	0,017
-424,803	-200,000	-0,013	-0,049
-423,788	-72,006	0,083	-0,022
-422,773	-130,357	-0,117	0,011
-421,759	-83,415	0,025	-0,006
-420,744	-200,000	0,006	0,064
-419,730	-104,225	0,073	-0,012
-418,715	800,000	0,039	0,090
-417,701	-89,114	0,051	0,011
-416,686	-41,901	0,044	-0,016
-415,671	43,703	0,057	0,038
-414,657	-171,672	0,056	-0,001
-413,642	-40,341	0,082	-0,031
-412,628	-73,946	-0,192	0,050
-411,613	462,971	0,072	-0,118
-410,598	-200,000	-0,135	-0,000
-409,584	130,655	-0,016	0,015
-408,569	-200,000	0,003	0,067
-407,555	-200,000	0,011	0,050
-406,540	-200,000	-0,006	0,021
-405,525	800,000	-0,025	-0,056
-404,511	226,143	0,004	-0,005
-403,496	-187,853	-0,059	-0,001
-402,482	16,156	0,134	-0,076
-401,467	-200,000	0,010	-0,067
-400,452	62,222	-0,095	0,069
-399,438	10,146	-0,112	0,062
-398,423	70,004	-0,077	-0,058
-397,409	-22,891	-0,114	-0,050
-396,394	-104,326	-0,056	-0,009
-395,379	-200,000	0,014	0,078
-394,365	179,807	0,115	0,123
-393,350	-120,345	0,056	0,007
-392,336	228,260	0,067	-0,079
-391,321	94,057	-0,142	-0,118
-390,306	7,886	0,099	-0,054
-389,292	-200,000	0,019	-0,083
-388,277	-18,661	0,084	-0,038
-387,263	27,264	0,066	0,040
-386,248	132,366	-0,065	-0,061
-385,233	-81,224	0,100	0,024
-384,219	-200,000	-0,029	0,111
-383,204	800,000	0,029	-0,075
-382,190	-200,000	-0,061	-0,248
-381,175	335,077	-0,084	-0,119
-380,160	152,519	0,043	0,042
-379,146	-200,000	0,027	0,088
-378,131	9,447	0,055	0,030
-377,117	103,399	0,045	-0,039
-376,102	196,377	-0,070	0,077
-375,088	-102,186	-0,112	-0,019
-374,073	-200,000	0,009	0,090
-373,058	170,048	-0,043	-0,044
-372,044	-200,000	0,018	0,074
-371,029	230,062	-0,131	0,155
-370,015	800,000	0,026	0,070
-369,000	-59,130	-0,023	0,007
-367,985	800,000	0,041	-0,114
-366,971	481,195	-0,065	-0,107
-365,956	88,646	0,167	0,135
-364,942	-31,308	0,061	0,025
-363,927	198,875	-0,040	0,044
-362,912	800,000	-0,046	-0,109
-361,898	-25,965	-0,091	-0,039
-360,883	505,686	-0,045	-0,076
-359,869	-47,254	-0,048	-0,017
-358,854	800,000	0,041	0,098
-357,839	-200,000	0,001	0,051
-356,825	167,369	0,072	0,074
-355,810	-153,371	0,031	-0,002
-354,796	44,044	-0,020	0,013
-353,781	65,587	-0,067	-0,049
-352,766	800,000	-0,007	0,024
-351,752	104,975	0,177	-0,152
-350,737	-200,000	0,006	0,083
-349,723	-47,755	0,121	0,042
-348,708	796,175	-0,031	0,062
-347,693	-200,000	0,015	0,080
-346,679	501,858	0,063	-0,105
-345,664	86,894	-0,042	-0,034
-344,650	-143,338	0,090	0,006
-343,635	-162,945	0,053	-0,002
-342,620	325,917	-0,036	0,050
-341,606	800,000	0,025	0,059
-340,591	-103,353	-0,024	0,004
-339,577	268,420	-0,113	-0,144
-338,562	-74,106	-0,034	0,009
-337,548	-43,398	-0,130	0,047
-336,533	316,900	0,108	-0,149
-335,518	496,848	0,041	-0,069
-334,504	-43,355	0,062	-0,023
-333,489	539,644	-0,053	0,093
-332,475	-67,498	-0,211	-0,060
-331,460	-22,376	-0,072	-0,031
-330,445	524,742	-0,039	-0,067
-329,431	752,831	0,021	0,041
-328,416	800,000	0,030	0,060
-327,402	256,217	-0,038	-0,047
-326,387	200,904	-0,036	0,040
-325,372	50,540	0,036	-0,025
-324,358	368,205	-0,067	0,099
-323,343	-31,539	0,117	0,048
-322,329	-24,596	0,081	-0,035
-321,314	76,312	0,136	-0,104
-320,299	-200,000	-0,015	0,117
-319,285	-31,283	0,065	-0,026
-318,270	800,000	0,008	0,021
-317,256	46,697	-0,104	-0,070
-316,241	800,000	-0,027	-0,075
-315,226	-37,671	0,050	-0,019
-314,212	-21,652	0,096	0,042
-313,197	-200,000	0,028	0,090
-312,183	-73,529	0,124	-0,033
-311,168	228,445	0,012	-0,014
-310,153	79,225	-0,051	0,039
-309,139	-200,000	-0,019	0,071
-308,124	-150,346	0,063	-0,003
-307,110	232,143	-0,013	0,016
-306,095	-193,432	0,229	0,001
-305,080	-200,000	0,017	-0,081
-304,066	122,166	-0,070	-0,063
-303,051	-200,000	0,020	0,167
-302,037	-87,381	-0,048	0,010
-301,022	-184,295	0,082	0,001
-300,008	-200,000	-0,024	0,110
-298,993	800,000	0,048	0,131
-297,978	-200,000	0,022	0,095
-296,964	-4,462	-0,069	0,035
-295,949	213,926	-0,053	0,061
-294,935	-200,000	0,026	0,101
-293,920	34,378	-0,151	0,096
-292,905	349,175	-0,058	-0,083
-291,891	419,758	0,134	0,208
-290,876	-134,194	0,122	-0,011
-289,862	13,413	-0,119	-0,067
-288,847	-15,392	0,122	0,056
-287,832	-123,027	-0,126	-0,014
-286,818	248,014	-0,071	-0,087
-285,803	-200,000	0,006	0,023
-284,789	250,127	-0,014	0,017
-283,774	800,000	-0,027	0,066
-282,759	-200,000	0,014	-0,106
-281,745	-200,000	-0,020	0,080
-280,730	-77,152	-0,152	-0,038
-279,716	-74,024	-0,119	-0,031
-278,701	-200,000	0,005	0,037
-277,686	-77,080	0,068	0,017
-276,672	322,934	0,045	-0,063
-275,657	-200,000	0,004	0,033
-274,643	-84,176	0,145	-0,033
-273,628	-200,000	-0,018	0,127
-272,613	-19,353	-0,077	0,034
-271,599	41,032	0,036	-0,024
-270,584	23,494	0,177	0,105
-269,570	34,763	-0,168	0,106
-268,555	65,182	0,005	-0,004
-267,540	800,000	-0,034	-0,087
-266,526	301,394	-0,061	-0,082
-265,511	-200,000	-0,030	-0,129
-264,497	-200,000	0,001	-0,160
-263,482	-104,988	0,112	0,018
-262,467	-85,493	0,130	0,029
-261,453	-200,000	-0,006	0,060
-260,438	-3,975	-0,132	-0,066
-259,424	-6,871	0,139	0,068
-258,409	57,202	-0,224	0,158
-257,395	67,892	0,145	0,107
-256,380	-200,000	-0,022	0,103
-255,365	35,011	-0,030	-0,019
-254,351	-200,000	0,006	0,063
-253,336	800,000	-0,065	-0,146
-252,322	-109,048	-0,074	-0,011
-251,307	-153,829	-0,082	0,004
-250,292	60,025	0,157	-0,112
-249,278	-200,000	0,003	0,087
-248,263	34,449	-0,050	-0,031
-247,249	-4,808	-0,057	0,028
-246,234	-19,233	-0,031	0,014
-245,219	-127,992	0,110	0,011
-244,205	199,367	0,041	0,045
-243,190	-200,000	-0,010	-0,037
-242,176	-200,000	-0,020	0,134
-241,161	-11,474	0,054	0,026
-240,146	248,850	-0,022	0,028
-239,132	351,936	0,053	0,076
-238,117	-200,000	-0,017	-0,062
-237,103	-200,000	-0,007	0,075
-236,088	800,000	-0,015	-0,039
-235,073	-72,068	0,160	-0,043
-234,059	-200,000	-0,003	-0,047
-233,044	800,000	-0,048	0,138
-232,030	-3,360	-0,047	-0,024
-231,015	-161,025	-0,096	0,004
-230,000	800,000	-0,007	-0,015
-228,986	-200,000	0,008	-0,110
-227,971	87,332	-0,053	-0,042
-226,957	17,996	-0,062	0,036
-225,942	-51,051	0,059	0,020
-224,927	-200,000	0,008	-0,101
-223,913	-167,659	0,093	-0,003
-222,898	-149,907	-0,122	0,007
-221,884	-200,000	-0,015	-0,050
-220,869	-200,000	-0,002	-0,033
-219,855	-96,015	-0,211	0,040
-218,840	-116,255	0,146	0,019
-217,825	-140,273	-0,108	0,008
-216,811	800,000	-0,024	0,055
-215,796	-105,603	0,133	-0,022
-214,782	30,640	-0,120	-0,074
-213,767	16,751	0,072	0,041
-212,752	223,976	-0,010	0,011
-211,738	-200,000	0,008	0,092
-210,723	180,922	-0,064	0,068
-209,709	124,359	0,111	0,101
-208,694	-200,000	-0,020	-0,098
-207,679	-150,998	-0,042	0,002
-206,665	-91,345	-0,045	0,009
-205,650	99,802	0,151	0,126
-204,636	237,229	0,083	0,100
-203,621	308,648	-0,048	0,065
-202,606	185,312	-0,050	-0,054
-201,592	140,257	-0,098	-0,094
-200,577	135,689	-0,054	0,051
-199,563	800,000	-0,049	0,125
-198,548	800,000	0,034	-0,078
-197,533	800,000	0,018	-0,048
-196,519	-13,689	-0,152	0,071
-195,504	-31,134	0,062	-0,025
-194,490	317,480	0,077	-0,105
-193,475	-29,384	0,060	-0,025
-192,460	63,178	0,086	0,062
-191,446	-200,000	0,015	0,074
-190,431	277,653	0,032	-0,041
-189,417	800,000	0,025	0,055
-188,402	-200,000	0,006	-0,049
-187,387	-200,000	-0,022	-0,095
-186,373	-200,000	0,005	0,120
-185,358	800,000	-0,023	-0,057
-184,344	-118,322	0,134	0,017
-183,329	109,349	0,037	0,032
-182,315	-68,345	0,061	-0,017
-181,300	163,167	-0,084	-0,085
-180,285	198,579	-0,072	-0,079
-179,271	-59,934	-0,106	0,032
-178,256	-18,637	-0,071	-0,032
-177,242	60,984	0,127	-0,091
-176,227	800,000	-0,042	0,091
-175,212	-50,905	-0,085	-0,029
-174,198	454,406	-0,032	-0,051
-173,183	-200,000	0,008	-0,079
-172,169	-22,234	-0,032	-0,014
-171,154	40,764	0,035	0,023
-170,139	-200,000	0,043	0,151
-169,125	257,324	-0,077	-0,095
-168,110	172,160	-0,108	-0,113
-167,096	177,152	0,087	-0,091
-166,081	-191,479	-0,076	0,001
-165,066	-200,000	0,043	-0,203
-164,052	800,000	-0,058	-0,136
-163,037	800,000	0,014	-0,044
-162,023	200,648	-0,047	-0,052
-161,008	-200,000	-0,005	-0,062
-159,993	327,843	0,044	-0,061
-158,979	-200,000	0,015	0,098
-157,964	-33,528	-0,117	-0,046
-156,950	330,425	0,035	0,048
-155,935	99,053	0,077	-0,064
-154,920	751,758	0,052	-0,102
-153,906	-169,150	0,058	-0,002
-152,891	145,116	-0,023	-0,022
-151,877	-116,121	-0,187	-0,025
-150,862	800,000	0,011	-0,032
-149,847	800,000	0,023	-0,048
-148,833	-200,000	-0,016	0,072
-147,818	215,595	0,087	0,100
-146,804	-14,369	0,066	-0,030
-145,789	-124,272	-0,097	-0,011
-144,775	561,852	-0,034	-0,059
-143,760	536,266	-0,057	-0,098
-142,745	-200,000	-0,001	-0,091
-141,731	-23,840	0,124	0,053
-140,716	-9,844	0,101	0,048
-139,702	166,127	0,021	-0,021
-138,687	58,565	0,091	0,064
-137,672	727,547	0,027	-0,052
-136,658	800,000	-0,040	-0,103
-135,643	144,836	0,050	-0,048
-134,629	-200,000	-0,027	-0,152
-133,614	291,209	0,056	0,073
-132,599	-200,000	0,033	0,107
-131,585	363,506	0,055	0,080
-130,570	66,114	0,056	-0,041
-129,556	-119,625	-0,104	-0,013
-128,541	-109,392	0,135	0,020
-127,526	800,000	-0,070	-0,163
-126,512	77,523	0,104	0,080
-125,497	-200,000	-0,020	0,067
-124,483	-200,000	-0,023	-0,084
-123,468	80,883	-0,063	0,049
-122,453	409,102	-0,023	-0,034
-121,439	74,646	-0,028	0,021
-120,424	380,374	-0,067	-0,099
