DTS Sentinel unit serial number:	SN410029Multiplexer serial number:	ORYXHardware model number:	OX2-SRSoftware version number:	ORYX F/W v4,00 Oryx Data Collector v3.7.2.0data status	okinstallation	B5 Nyhavnadifferential loss correction	single-endedforward channel	channel 2reverse channel	N/Adate	2023/12/11time	19:17:13forward acquisition time	300,00reverse acquisition time	0,00gamma	499,1914k internal	0,3159k external	0,3159temperature offset calibration	1,0000default loss term (dB/km)	0,3820temperature slope calibration	1,0000multiplexer offset coefficient	1,0000multiplexer slope coefficient	1,0000fibre end	0,00T internal ref (°C)	15,56T ext. ref 1 (°C)	-0,17T ext. ref 2 (°C)	-0,40length (m)	temperature (°C)	Stokes	anti-Stokes-744,400	800,000	-0,057	0,121
-743,385	-164,851	-0,263	-0,009
-742,371	-132,264	0,108	-0,010
-741,356	-124,605	-0,274	0,031
-740,342	19,894	0,014	0,009
-739,327	-38,669	-0,235	0,091
-738,312	-0,865	0,042	0,022
-737,298	22,050	-0,296	0,178
-736,283	-115,716	0,134	0,018
-735,269	-54,852	-0,381	0,126
-734,254	-55,558	0,080	-0,026
-733,239	-81,612	-0,443	-0,106
-732,225	40,872	0,089	-0,059
-731,210	-200,000	-0,035	-0,153
-730,196	-89,481	-0,064	0,014
-729,181	73,557	-0,147	-0,113
-728,167	66,324	0,012	-0,009
-727,152	95,816	-0,055	0,046
-726,137	-142,859	-0,060	0,004
-725,123	27,122	-0,080	-0,049
-724,108	530,528	-0,096	-0,167
-723,094	-13,997	-0,180	-0,085
-722,079	-200,000	0,017	-0,090
-721,064	27,860	-0,048	0,030
-720,050	-193,445	-0,106	-0,001
-719,035	531,204	-0,069	0,121
-718,021	-4,390	-0,159	-0,080
-717,006	800,000	-0,009	-0,026
-715,991	237,526	-0,218	-0,266
-714,977	196,347	-0,075	-0,084
-713,962	243,103	-0,029	0,036
-712,948	-23,906	0,078	0,034
-711,933	59,320	-0,087	-0,063
-710,918	503,278	-0,049	-0,083
-709,904	800,000	-0,034	-0,099
-708,889	100,466	-0,134	-0,115
-707,875	-80,435	-0,104	-0,025
-706,860	173,931	-0,053	-0,057
-705,845	589,880	0,029	-0,053
-704,831	-106,097	-0,142	-0,023
-703,816	800,000	0,025	-0,060
-702,802	17,576	-0,051	0,030
-701,787	800,000	-0,035	-0,086
-700,772	13,807	0,014	0,008
-699,758	-83,534	-0,156	-0,036
-698,743	325,997	0,069	0,098
-697,729	-99,250	-0,104	-0,019
-696,714	193,444	0,123	-0,137
-695,699	-172,791	-0,164	-0,004
-694,685	606,584	-0,069	-0,126
-693,670	-135,573	-0,079	-0,007
-692,656	141,787	0,023	0,023
-691,641	21,949	-0,010	-0,006
-690,627	59,791	0,095	0,069
-689,612	-46,347	-0,074	0,027
-688,597	-200,000	0,031	0,105
-687,583	493,634	0,054	-0,091
-686,568	800,000	-0,071	-0,151
-685,554	-200,000	-0,032	-0,129
-684,539	-97,579	0,094	-0,018
-683,524	-98,896	0,066	0,012
-682,510	-92,624	0,077	0,016
-681,495	437,248	0,037	0,060
-680,481	-200,000	-0,025	-0,243
-679,466	12,462	0,097	-0,055
-678,451	354,904	0,051	-0,075
-677,437	-200,000	0,040	-0,151
-676,422	-126,186	-0,070	0,008
-675,408	-200,000	-0,019	0,149
-674,393	7,694	-0,096	-0,053
-673,378	-54,686	-0,105	0,035
-672,364	219,560	-0,064	-0,075
-671,349	-166,658	0,044	-0,001
-670,335	17,566	-0,071	0,041
-669,320	800,000	0,025	-0,050
-668,305	-200,000	-0,004	-0,014
-667,291	224,917	-0,021	-0,025
-666,276	-200,000	-0,030	-0,147
-665,262	220,259	-0,067	-0,079
-664,247	-65,492	0,070	0,020
-663,232	-103,719	0,084	-0,014
-662,218	-200,000	-0,003	0,068
-661,203	729,244	0,020	-0,039
-660,189	-60,247	0,127	-0,040
-659,174	-200,000	0,006	-0,132
-658,159	800,000	0,031	-0,068
-657,145	-24,601	-0,151	-0,066
-656,130	-21,592	-0,071	-0,032
-655,116	800,000	0,017	-0,036
-654,101	363,002	0,009	-0,013
-653,086	-102,505	-0,141	-0,025
-652,072	418,684	0,046	-0,073
-651,057	-200,000	0,020	-0,085
-650,043	434,388	-0,077	-0,123
-649,028	59,497	-0,062	0,045
-648,014	800,000	0,018	0,057
-646,999	165,453	0,115	-0,119
-645,984	-200,000	-0,007	-0,034
-644,970	93,988	-0,051	0,043
-643,955	309,068	-0,036	0,049
-642,941	-26,369	-0,182	-0,078
-641,926	-200,000	-0,024	0,099
-640,911	21,359	-0,097	-0,058
-639,897	-61,431	-0,105	0,032
-638,882	-127,690	0,138	0,014
-637,868	800,000	0,004	-0,011
-636,853	100,818	-0,080	-0,069
-635,838	800,000	0,053	-0,159
-634,824	275,628	-0,083	-0,109
-633,809	-39,798	-0,041	0,016
-632,795	-148,142	0,116	-0,007
-631,780	142,615	-0,070	0,068
-630,765	-101,520	-0,064	-0,011
-629,751	800,000	-0,023	-0,069
-628,736	522,626	0,045	-0,078
-627,722	-145,426	-0,064	-0,004
-626,707	614,336	-0,025	-0,047
-625,692	-99,966	0,059	-0,011
-624,678	-42,822	-0,109	0,040
-623,663	-200,000	0,017	-0,109
-622,649	322,182	0,020	-0,028
-621,634	800,000	0,020	-0,054
-620,619	238,817	0,030	-0,036
-619,605	-47,577	0,049	0,017
-618,590	276,375	0,070	0,091
-617,576	28,007	0,083	-0,051
-616,561	-200,000	0,005	-0,140
-615,546	-200,000	0,006	0,044
-614,532	123,192	-0,068	0,062
-613,517	-104,488	0,028	0,005
-612,503	-138,050	0,093	-0,007
-611,488	329,672	0,027	-0,038
-610,474	-90,752	0,155	0,032
-609,459	356,276	0,020	-0,030
-608,444	53,313	0,049	0,034
-607,430	-200,000	0,021	-0,099
-606,415	-70,900	-0,091	-0,025
-605,401	-0,829	0,166	-0,086
-604,386	800,000	0,024	0,070
-603,371	274,337	-0,063	0,081
-602,357	-25,745	-0,075	0,032
-601,342	-200,000	0,009	-0,065
-600,328	-62,671	-0,043	0,013
-599,313	800,000	0,030	-0,091
-598,298	431,228	0,021	0,034
-597,284	-15,971	0,073	0,034
-596,269	-136,264	0,036	-0,003
-595,255	196,160	0,065	-0,073
-594,240	341,863	-0,029	-0,042
-593,225	-200,000	-0,033	-0,165
-592,211	-44,196	0,026	0,010
-591,196	28,415	-0,045	0,028
-590,182	800,000	0,023	0,070
-589,167	304,149	-0,048	0,065
-588,152	-200,000	0,019	0,122
-587,138	800,000	-0,005	-0,016
-586,123	66,115	0,115	-0,085
-585,109	-52,505	-0,048	0,016
-584,094	-116,869	-0,093	-0,012
-583,079	251,880	0,051	-0,063
-582,065	-200,000	0,015	0,068
-581,050	144,103	0,083	0,081
-580,036	-200,000	-0,004	0,083
-579,021	800,000	-0,041	0,092
-578,006	-200,000	-0,030	-0,111
-576,992	-22,708	-0,153	0,067
-575,977	3,359	0,070	0,037
-574,963	200,722	0,057	0,064
-573,948	-95,570	0,068	-0,013
-572,934	69,665	-0,109	0,082
-571,919	177,223	-0,094	-0,101
-570,904	-35,282	-0,017	-0,007
-569,890	100,311	-0,038	-0,032
-568,875	-200,000	-0,015	-0,080
-567,861	304,283	0,165	0,225
-566,846	-97,218	-0,116	-0,022
-565,831	-200,000	-0,014	-0,084
-564,817	-13,762	-0,049	-0,023
-563,802	-200,000	-0,005	-0,048
-562,788	9,464	-0,018	-0,010
-561,773	-105,328	0,092	-0,015
-560,758	800,000	-0,019	0,058
-559,744	698,252	0,023	-0,044
-558,729	161,653	0,088	-0,090
-557,715	-118,054	0,165	-0,021
-556,700	-148,610	0,022	-0,001
-555,685	363,086	-0,041	-0,061
-554,671	316,390	0,013	0,018
-553,656	263,013	-0,017	-0,022
-552,642	290,289	-0,053	0,070
-551,627	-95,038	0,024	-0,005
-550,612	-32,300	0,056	-0,023
-549,598	-200,000	-0,020	-0,126
-548,583	-200,000	-0,031	-0,124
-547,569	414,523	0,063	0,098
-546,554	-65,644	0,144	0,042
-545,539	728,462	0,079	-0,155
-544,525	691,179	-0,014	-0,027
-543,510	-200,000	0,009	-0,175
-542,496	-100,085	-0,050	-0,009
-541,481	189,124	-0,099	0,108
-540,466	-200,000	-0,004	0,068
-539,452	-42,253	-0,075	-0,028
-538,437	37,597	0,145	0,094
-537,423	-200,000	0,005	0,095
-536,408	-15,731	-0,170	-0,079
-535,393	153,912	0,027	0,027
-534,379	-200,000	0,009	-0,036
-533,364	-49,043	0,142	0,050
-532,350	-74,951	0,166	0,043
-531,335	-96,936	0,085	0,016
-530,321	398,272	0,037	0,057
-529,306	9,973	-0,064	-0,036
-528,291	-192,840	-0,080	-0,001
-527,277	-143,592	-0,076	0,005
-526,262	622,182	-0,059	0,109
-525,248	800,000	0,072	-0,156
-524,233	88,904	-0,060	0,049
-523,218	-200,000	0,014	0,110
-522,204	-200,000	-0,009	-0,101
-521,189	102,252	0,093	-0,079
-520,175	95,823	0,065	0,054
-519,160	800,000	0,034	-0,076
-518,145	-200,000	0,031	0,123
-517,131	-150,708	0,044	-0,002
-516,116	-47,458	0,040	0,014
-515,102	800,000	-0,024	0,073
-514,087	-46,910	0,053	0,019
-513,072	-144,300	-0,039	0,003
-512,058	-115,796	-0,187	-0,025
-511,043	-56,169	-0,014	0,005
-510,029	-125,615	0,115	0,013
-509,014	452,352	0,051	0,083
-507,999	10,246	0,070	-0,039
-506,985	-200,000	0,022	-0,158
-505,970	-139,756	-0,085	0,007
-504,956	800,000	0,045	0,102
-503,941	-200,000	0,021	-0,098
-502,926	-200,000	0,042	0,163
-501,912	800,000	-0,018	0,041
-500,897	219,302	0,039	-0,046
-499,883	131,844	-0,102	0,096
-498,868	-112,193	-0,033	0,005
-497,853	-200,000	-0,002	0,046
-496,839	-200,000	-0,008	0,070
-495,824	68,676	0,093	-0,070
-494,810	150,605	0,096	-0,095
-493,795	62,792	-0,031	-0,023
-492,781	19,857	-0,116	0,068
-491,766	691,138	0,045	-0,087
-490,751	-200,000	0,011	0,124
-489,737	800,000	0,023	0,074
-488,722	36,383	-0,069	-0,044
-487,708	237,999	0,080	-0,097
-486,693	771,777	-0,021	-0,041
-485,678	800,000	-0,025	-0,065
-484,664	-200,000	-0,057	-0,216
-483,649	203,413	0,059	0,066
-482,635	-47,219	-0,074	-0,026
-481,620	382,361	0,052	-0,079
-480,605	-200,000	-0,035	-0,153
-479,591	800,000	0,030	-0,075
-478,576	-200,000	0,025	0,165
-477,562	800,000	0,037	0,106
-476,547	-9,796	-0,169	0,082
-475,532	558,444	0,044	-0,077
-474,518	-200,000	-0,002	-0,057
-473,503	-200,000	-0,005	-0,023
-472,489	26,700	0,077	0,047
-471,474	-200,000	0,007	-0,038
-470,459	-54,004	-0,223	0,074
-469,445	-80,053	-0,057	0,014
-468,430	-67,819	-0,137	-0,039
-467,416	-200,000	-0,018	-0,075
-466,401	-133,452	0,231	-0,021
-465,386	-143,767	-0,104	0,007
-464,372	-93,149	0,092	0,019
-463,357	246,797	-0,034	0,042
-462,343	-167,955	-0,069	0,002
-461,328	-82,169	0,096	0,023
-460,313	-200,000	-0,004	-0,098
-459,299	53,264	0,123	0,086
-458,284	-113,981	-0,028	0,004
-457,270	800,000	0,043	-0,112
-456,255	-200,000	0,014	-0,083
-455,241	-113,888	-0,097	0,014
-454,226	-122,791	-0,063	0,007
-453,211	14,558	-0,034	0,019
-452,197	-200,000	-0,011	0,104
-451,182	52,217	0,062	0,043
-450,168	9,471	0,057	-0,032
-449,153	188,373	-0,037	0,040
-448,138	645,998	0,062	-0,115
-447,124	126,709	-0,044	-0,041
-446,109	99,370	0,028	-0,024
-445,095	10,787	0,126	-0,070
-444,080	31,273	0,023	0,015
-443,065	151,699	-0,024	-0,024
-442,051	-200,000	0,026	0,101
-441,036	204,980	-0,084	0,095
-440,022	541,058	0,079	0,138
-439,007	43,301	0,090	-0,060
-437,992	800,000	0,052	0,121
-436,978	800,000	-0,075	0,221
-435,963	37,073	0,175	0,113
-434,949	129,849	-0,065	-0,061
-433,934	-200,000	-0,001	-0,008
-432,919	338,744	-0,080	-0,113
-431,905	404,948	-0,044	-0,067
-430,890	42,798	0,105	0,069
-429,876	-200,000	-0,012	-0,118
-428,861	-43,952	0,210	-0,076
-427,846	800,000	0,003	0,009
-426,832	-200,000	-0,011	-0,051
-425,817	686,780	-0,079	-0,151
-424,803	-200,000	0,050	-0,205
-423,788	-33,690	0,089	-0,036
-422,773	-55,950	-0,095	-0,031
-421,759	-55,364	-0,180	-0,059
-420,744	-200,000	0,001	-0,085
-419,730	-53,958	-0,093	0,031
-418,715	-200,000	-0,007	-0,048
-417,701	393,998	0,025	0,037
-416,686	-200,000	-0,011	0,068
-415,671	266,096	0,119	-0,152
-414,657	131,511	0,039	0,037
-413,642	167,236	-0,049	-0,051
-412,628	670,030	-0,054	0,103
-411,613	73,444	-0,028	0,022
-410,598	545,987	-0,057	0,099
-409,584	-153,793	0,033	-0,002
-408,569	-45,987	-0,051	-0,018
-407,555	663,489	-0,044	0,082
-406,540	52,397	0,100	-0,069
-405,525	800,000	0,025	-0,059
-404,511	-125,344	-0,090	0,010
-403,496	464,139	0,101	-0,165
-402,482	391,983	0,026	-0,040
-401,467	-138,330	-0,077	-0,006
-400,452	-200,000	0,003	0,017
-399,438	50,290	-0,024	-0,016
-398,423	-200,000	-0,011	0,050
-397,409	19,435	-0,108	0,063
-396,394	-130,845	-0,056	0,005
-395,379	171,864	-0,115	0,120
-394,365	-29,258	-0,043	-0,018
-393,350	570,176	0,034	0,060
-392,336	-149,685	0,124	-0,007
-391,321	800,000	0,021	-0,059
-390,306	-55,951	-0,114	-0,037
-389,292	267,372	0,061	-0,077
-388,277	261,573	0,084	0,106
-387,263	-200,000	-0,020	-0,145
-386,248	-200,000	-0,028	0,106
-385,233	-200,000	0,002	0,045
-384,219	-54,010	-0,032	-0,011
-383,204	-191,651	-0,109	-0,001
-382,190	236,011	-0,024	-0,028
-381,175	-76,113	-0,051	0,013
-380,160	-98,967	0,089	-0,016
-379,146	214,847	0,020	0,023
-378,131	371,211	-0,080	0,118
-377,117	384,066	0,056	-0,084
-376,102	-146,864	-0,080	-0,005
-375,088	262,479	-0,060	-0,076
-374,073	-137,444	-0,064	0,005
-373,058	373,509	-0,113	-0,168
-372,044	800,000	0,075	0,152
-371,029	-200,000	0,000	0,039
-370,015	-185,406	-0,062	0,001
-369,000	800,000	-0,065	0,138
-367,985	122,923	-0,026	0,024
-366,971	-200,000	0,020	-0,106
-365,956	577,975	-0,060	-0,107
-364,942	-200,000	-0,047	0,190
-363,927	-200,000	-0,002	0,072
-362,912	195,312	-0,081	-0,090
-361,898	-200,000	0,007	0,096
-360,883	30,141	-0,153	0,095
-359,869	-136,845	0,196	0,016
-358,854	-60,883	0,121	-0,037
-357,839	-200,000	-0,012	0,093
-356,825	800,000	-0,034	0,085
-355,810	174,992	0,111	0,117
-354,796	-200,000	0,011	-0,043
-353,781	-84,778	-0,059	0,013
-352,766	-200,000	0,006	0,075
-351,752	-113,597	-0,077	-0,011
-350,737	226,365	-0,005	0,006
-349,723	66,961	-0,018	-0,014
-348,708	-200,000	-0,005	0,124
-347,693	-25,640	-0,098	0,042
-346,679	-3,009	-0,096	-0,048
-345,664	465,162	0,054	0,088
-344,650	800,000	0,066	0,177
-343,635	-136,239	0,117	0,010
-342,620	-200,000	-0,007	-0,048
-341,606	191,737	0,061	0,067
-340,591	-200,000	0,021	0,110
-339,577	-200,000	0,005	-0,050
-338,562	-200,000	0,016	-0,107
-337,548	-200,000	-0,006	0,052
-336,533	800,000	0,019	-0,044
-335,518	36,470	0,124	-0,079
-334,504	39,442	-0,059	0,038
-333,489	-50,953	-0,150	-0,051
-332,475	-159,960	-0,084	-0,003
-331,460	178,349	-0,035	-0,037
-330,445	-19,813	-0,147	0,065
-329,431	8,064	-0,038	-0,021
-328,416	53,486	0,125	-0,087
-327,402	24,948	-0,103	0,062
-326,387	-200,000	-0,075	0,000
-325,372	-134,165	0,044	-0,004
-324,358	338,912	-0,121	-0,172
-323,343	49,396	-0,095	-0,065
-322,329	-189,259	0,196	-0,002
-321,314	12,667	-0,152	0,085
-320,299	50,219	0,006	-0,004
-319,285	-90,641	0,055	0,011
-318,270	-165,604	-0,154	0,005
-317,256	-93,996	-0,129	-0,025
-316,241	121,594	-0,057	0,051
-315,226	-119,899	0,115	0,014
-314,212	13,941	0,063	0,035
-313,197	-113,691	0,111	0,015
-312,183	800,000	-0,042	0,120
-311,168	-156,871	-0,049	-0,002
-310,153	37,582	-0,079	0,051
-309,139	-115,449	-0,039	-0,005
-308,124	-189,664	0,148	-0,001
-307,110	-125,340	-0,064	0,007
-306,095	662,478	0,077	0,144
-305,080	-113,836	-0,095	0,013
-304,066	-200,000	-0,012	0,074
-303,051	92,264	0,066	0,054
-302,037	232,080	-0,064	-0,076
-301,022	90,166	0,073	0,059
-300,008	584,549	0,049	0,088
-298,993	-195,802	0,112	0,001
-297,978	97,803	-0,090	0,075
-296,964	11,210	-0,118	-0,065
-295,949	305,605	-0,047	-0,064
-294,935	-101,423	0,164	-0,029
-293,920	-83,379	-0,084	0,019
-292,905	-200,000	-0,006	0,021
-291,891	373,993	0,029	0,043
-290,876	-39,167	0,047	-0,018
-289,862	193,009	0,078	-0,085
-288,847	800,000	0,051	-0,128
-287,832	219,776	-0,106	0,123
-286,818	-107,956	-0,129	-0,020
-285,803	-200,000	0,019	-0,071
-284,789	-72,372	0,118	-0,031
-283,774	53,780	-0,125	0,087
-282,759	-67,314	-0,037	-0,010
-281,745	216,435	-0,068	0,078
-280,730	-56,369	0,229	-0,073
-279,716	-9,567	0,124	-0,060
-278,701	282,708	-0,117	0,152
-277,686	2,117	0,109	0,057
-276,672	300,543	0,068	0,090
-275,657	-43,567	-0,026	0,010
-274,643	-200,000	-0,028	0,091
-273,628	74,410	-0,059	-0,045
-272,613	427,826	0,040	0,063
-271,599	92,279	0,078	-0,064
-270,584	171,993	0,062	-0,064
-269,570	-102,447	0,041	0,007
-268,555	-200,000	0,017	0,121
-267,540	393,729	0,074	-0,111
-266,526	28,087	0,136	0,083
-265,511	-200,000	-0,035	-0,133
-264,497	-200,000	-0,012	0,054
-263,482	-61,230	0,116	0,035
-262,467	599,308	-0,059	-0,107
-261,453	260,018	0,095	-0,119
-260,438	-200,000	-0,010	-0,043
-259,424	343,939	-0,045	-0,064
-258,409	-200,000	0,003	0,018
-257,395	-200,000	-0,002	0,046
-256,380	175,025	0,042	0,044
-255,365	-161,232	0,094	-0,003
-254,351	-116,689	-0,102	-0,013
-253,336	416,545	-0,029	0,045
-252,322	-62,269	-0,058	-0,017
-251,307	184,573	-0,056	-0,060
-250,292	108,138	0,042	-0,036
-249,278	25,801	0,021	0,013
-248,263	159,324	0,073	-0,074
-247,249	-200,000	0,019	0,093
-246,234	234,144	0,020	0,024
-245,219	32,035	-0,091	-0,057
-244,205	-200,000	-0,015	-0,147
-243,190	-103,513	-0,045	-0,008
-242,176	114,236	0,068	0,060
-241,161	-49,739	0,106	-0,036
-240,146	69,149	-0,082	0,061
-239,132	44,670	-0,051	0,034
-238,117	7,712	-0,033	0,018
-237,103	-162,065	-0,118	-0,004
-236,088	-200,000	-0,001	-0,058
-235,073	188,072	0,085	0,092
-234,059	-84,964	-0,160	0,036
-233,044	417,413	-0,084	0,130
-232,030	131,480	0,103	-0,095
-231,015	-44,971	0,103	0,037
-230,000	800,000	0,024	0,052
-228,986	63,643	-0,144	-0,104
-227,971	-19,029	-0,064	-0,029
-226,957	-59,944	0,197	0,060
-225,942	777,985	0,035	-0,069
-224,927	162,274	0,055	0,056
-223,913	-37,188	-0,092	0,035
-222,898	800,000	-0,065	-0,170
-221,884	-74,262	-0,052	0,014
-220,869	41,397	0,063	0,041
-219,855	-41,298	0,030	-0,011
-218,840	800,000	0,017	0,042
-217,825	278,505	0,011	0,015
-216,811	-200,000	0,005	-0,094
-215,796	430,763	-0,049	0,076
-214,782	800,000	0,062	0,141
-213,767	-200,000	0,023	0,153
-212,752	246,500	0,085	0,104
-211,738	-200,000	-0,032	0,106
-210,723	50,135	0,149	0,101
-209,709	49,528	-0,107	-0,073
-208,694	32,429	-0,136	-0,084
-207,679	507,351	-0,046	0,078
-206,665	128,729	-0,035	-0,032
-205,650	431,735	0,082	0,128
-204,636	85,243	0,052	0,041
-203,621	800,000	-0,022	-0,071
-202,606	-147,044	-0,078	0,005
-201,592	-82,994	-0,119	-0,028
-200,577	800,000	-0,042	0,116
-199,563	-74,149	0,156	0,040
-198,548	-200,000	0,002	0,063
-197,533	-110,521	0,164	-0,024
-196,519	17,116	-0,057	0,032
-195,504	800,000	0,050	-0,103
-194,490	18,704	-0,069	0,040
-193,475	-200,000	0,024	-0,101
-192,460	800,000	-0,046	0,134
-191,446	254,243	0,098	0,121
-190,431	17,035	-0,041	0,023
-189,417	-200,000	-0,002	-0,035
-188,402	-52,980	0,161	-0,053
-187,387	-105,700	-0,097	-0,016
-186,373	171,443	-0,046	-0,048
-185,358	-90,374	0,022	0,005
-184,344	754,287	0,032	-0,062
-183,329	518,824	0,088	-0,148
-182,315	150,657	-0,074	-0,073
-181,300	-200,000	0,009	0,042
-180,285	455,116	0,084	-0,134
-179,271	-27,512	-0,208	-0,087
-178,256	-200,000	0,013	0,094
-177,242	450,998	0,093	-0,148
-176,227	213,689	0,078	-0,089
-175,212	-200,000	-0,021	0,121
-174,198	-200,000	-0,007	0,129
-173,183	-78,953	-0,091	0,022
-172,169	128,117	0,085	-0,078
-171,154	117,294	-0,043	-0,038
-170,139	800,000	-0,022	0,049
-169,125	100,847	-0,075	-0,063
-168,110	148,575	0,113	0,110
-167,096	236,995	-0,036	-0,043
-166,081	285,211	-0,043	0,056
-165,066	-172,404	-0,146	0,003
-164,052	800,000	-0,021	-0,060
-163,037	-147,857	0,080	-0,005
-162,023	800,000	0,013	0,034
-161,008	-200,000	-0,003	0,040
-159,993	19,100	0,056	0,032
-158,979	453,453	-0,074	-0,118
-157,964	800,000	0,018	-0,039
-156,950	382,511	-0,070	-0,104
-155,935	-200,000	0,012	-0,041
-154,920	-73,788	0,090	0,023
-153,906	-43,693	-0,105	0,038
-152,891	683,134	0,037	-0,069
-151,877	800,000	-0,032	0,100
-150,862	40,266	-0,063	-0,041
-149,847	63,487	0,118	0,085
-148,833	800,000	-0,032	0,101
-147,818	164,516	0,174	0,177
-146,804	-200,000	0,039	0,153
-145,789	-126,241	0,165	-0,018
-144,775	38,777	-0,097	0,062
-143,760	-16,257	0,039	0,018
-142,745	800,000	-0,040	-0,080
-141,731	-200,000	0,007	-0,030
-140,716	135,747	0,062	-0,058
-139,702	-138,671	-0,067	-0,005
-138,687	-200,000	0,017	-0,113
-137,672	-200,000	-0,031	-0,146
-136,658	-129,717	-0,045	0,004
-135,643	101,381	0,042	-0,035
-134,629	99,451	-0,115	-0,096
-133,614	800,000	0,016	-0,045
-132,599	800,000	-0,045	-0,124
-131,585	558,092	-0,025	-0,043
-130,570	-200,000	-0,014	-0,084
-129,556	-200,000	0,001	-0,063
-128,541	-95,252	0,028	0,005
-127,526	141,008	-0,079	-0,076
-126,512	-200,000	-0,005	0,080
-125,497	56,909	-0,176	0,123
-124,483	-60,706	0,095	-0,029
-123,468	-3,697	-0,123	-0,061
-122,453	-200,000	0,003	-0,106
-121,439	34,195	-0,109	-0,068
-120,424	-200,000	0,004	0,131
