DTS Sentinel unit serial number:	SN410029Multiplexer serial number:	ORYXHardware model number:	OX2-SRSoftware version number:	ORYX F/W v4,00 Oryx Data Collector v3.7.2.0data status	okinstallation	B5 Nyhavnadifferential loss correction	single-endedforward channel	channel 2reverse channel	N/Adate	2023/12/13time	10:12:13forward acquisition time	300,00reverse acquisition time	0,00gamma	499,1914k internal	0,3160k external	0,3160temperature offset calibration	1,0000default loss term (dB/km)	0,3820temperature slope calibration	1,0000multiplexer offset coefficient	1,0000multiplexer slope coefficient	1,0000fibre end	0,00T internal ref (°C)	13,64T ext. ref 1 (°C)	-2,69T ext. ref 2 (°C)	-3,00length (m)	temperature (°C)	Stokes	anti-Stokes-744,400	-95,300	0,131	-0,026
-743,385	-64,732	-0,274	-0,081
-742,371	-79,359	0,071	-0,018
-741,356	-163,205	-0,315	-0,011
-740,342	-61,257	0,183	0,057
-739,327	-85,594	-0,248	0,056
-738,312	159,396	0,059	-0,061
-737,298	-78,798	-0,393	0,098
-736,283	-28,475	0,176	0,074
-735,269	-155,718	-0,327	-0,015
-734,254	-34,601	0,144	0,058
-733,239	-98,973	-0,560	-0,104
-732,225	93,197	0,113	-0,094
-731,210	716,903	0,018	-0,035
-730,196	800,000	-0,037	-0,080
-729,181	160,128	-0,077	-0,079
-728,167	-85,661	-0,060	-0,014
-727,152	17,413	0,075	-0,044
-726,137	93,999	-0,070	-0,059
-725,123	-170,532	-0,184	0,005
-724,108	111,176	-0,107	-0,095
-723,094	-3,451	-0,023	-0,012
-722,079	280,286	-0,051	-0,067
-721,064	372,198	-0,019	0,028
-720,050	312,806	0,025	0,034
-719,035	77,029	0,105	-0,082
-718,021	229,304	0,036	-0,043
-717,006	193,849	-0,062	-0,069
-715,991	-87,483	-0,185	-0,041
-714,977	15,775	-0,065	-0,038
-713,962	800,000	0,057	-0,129
-712,948	-73,384	-0,070	0,019
-711,933	17,891	0,075	-0,044
-710,918	-150,231	-0,233	0,013
-709,904	800,000	0,011	0,026
-708,889	182,377	-0,077	-0,084
-707,875	39,326	-0,111	-0,073
-706,860	-200,000	-0,003	0,045
-705,845	605,261	-0,028	-0,051
-704,831	554,762	-0,071	-0,126
-703,816	19,808	0,123	-0,073
-702,802	236,677	-0,067	-0,082
-701,787	368,869	-0,040	-0,059
-700,772	67,085	-0,082	-0,061
-699,758	18,289	-0,148	-0,086
-698,743	-200,000	0,008	0,081
-697,729	148,717	-0,020	0,020
-696,714	127,733	0,058	0,055
-695,699	800,000	-0,002	-0,005
-694,685	53,750	-0,064	-0,045
-693,670	45,614	-0,112	-0,076
-692,656	-66,042	-0,141	-0,041
-691,641	-200,000	0,018	0,081
-690,627	205,653	0,030	0,034
-689,612	-122,873	-0,044	0,005
-688,597	-200,000	-0,013	0,051
-687,583	774,011	-0,081	-0,163
-686,568	-139,388	-0,146	-0,011
-685,554	-110,610	-0,058	-0,009
-684,539	800,000	0,042	0,097
-683,524	786,514	0,053	0,108
-682,510	-35,666	0,058	0,023
-681,495	659,516	-0,034	-0,065
-680,481	800,000	0,011	0,034
-679,466	543,879	-0,137	-0,241
-678,451	746,116	0,040	0,079
-677,437	273,649	-0,019	0,024
-676,422	70,138	0,075	0,057
-675,408	800,000	0,045	0,116
-674,393	8,176	-0,133	0,073
-673,378	483,086	-0,069	-0,115
-672,364	-169,476	-0,079	-0,002
-671,349	725,829	-0,044	0,086
-670,335	800,000	-0,008	-0,024
-669,320	94,470	-0,079	0,066
-668,305	52,277	0,109	-0,076
-667,291	800,000	-0,053	-0,131
-666,276	800,000	-0,039	0,080
-665,262	160,584	0,034	-0,035
-664,247	42,290	0,064	0,043
-663,232	-6,461	0,086	-0,043
-662,218	174,088	-0,053	-0,056
-661,203	-92,263	0,117	0,024
-660,189	250,832	-0,029	0,036
-659,174	800,000	-0,032	-0,089
-658,159	106,947	-0,035	0,030
-657,145	-200,000	-0,027	-0,145
-656,130	139,931	0,071	-0,068
-655,116	800,000	-0,046	-0,101
-654,101	276,636	0,100	0,130
-653,086	800,000	-0,052	0,152
-652,072	36,670	0,050	-0,033
-651,057	-153,885	-0,171	0,008
-650,043	603,263	-0,056	0,104
-649,028	-147,806	-0,168	-0,010
-648,014	-145,027	0,047	0,003
-646,999	-66,084	0,213	0,062
-645,984	-200,000	-0,004	0,046
-644,970	-99,297	-0,089	0,016
-643,955	-18,093	-0,128	-0,059
-642,941	-127,630	-0,042	0,004
-641,926	800,000	0,036	-0,085
-640,911	-200,000	0,016	0,054
-639,897	-200,000	0,007	-0,033
-638,882	51,183	-0,036	0,025
-637,868	800,000	-0,019	0,059
-636,853	800,000	-0,058	-0,123
-635,838	-200,000	0,016	-0,087
-634,824	298,007	0,050	-0,067
-633,809	380,107	0,105	0,159
-632,795	800,000	0,048	0,128
-631,780	623,700	-0,037	-0,069
-630,765	-122,306	0,015	-0,002
-629,751	48,796	0,028	-0,019
-628,736	318,845	-0,096	-0,133
-627,722	329,893	0,037	-0,052
-626,707	800,000	-0,030	0,086
-625,692	-200,000	0,015	0,085
-624,678	-44,932	-0,115	0,042
-623,663	-98,348	-0,192	0,036
-622,649	-141,511	-0,087	0,006
-621,634	-200,000	-0,002	0,072
-620,619	73,463	-0,168	-0,129
-619,605	-200,000	0,014	0,085
-618,590	714,122	-0,038	0,075
-617,576	-200,000	0,028	0,209
-616,561	-157,676	0,078	0,003
-615,546	-200,000	-0,001	-0,038
-614,532	93,408	-0,120	-0,099
-613,517	482,315	-0,047	-0,078
-612,503	-200,000	0,024	-0,115
-611,488	-200,000	0,011	-0,084
-610,474	20,314	0,079	-0,047
-609,459	800,000	-0,058	0,142
-608,444	-22,498	-0,049	0,022
-607,430	-200,000	-0,022	-0,134
-606,415	409,691	-0,041	-0,063
-605,401	144,182	0,098	-0,096
-604,386	-8,296	-0,073	-0,036
-603,371	800,000	0,046	0,129
-602,357	-136,820	-0,083	0,007
-601,342	-200,000	0,014	0,047
-600,328	-145,066	-0,003	-0,000
-599,313	604,761	0,044	0,081
-598,298	-200,000	-0,008	-0,115
-597,284	-200,000	0,007	-0,052
-596,269	-200,000	-0,002	-0,052
-595,255	20,819	0,070	-0,041
-594,240	-134,738	-0,176	0,015
-593,225	-200,000	0,010	-0,083
-592,211	-200,000	-0,012	-0,078
-591,196	-6,527	-0,046	0,023
-590,182	91,360	0,171	0,141
-589,167	-16,954	-0,091	0,042
-588,152	-177,658	0,063	-0,001
-587,138	-200,000	-0,044	-0,159
-586,123	608,978	0,053	0,098
-585,109	43,781	0,007	-0,005
-584,094	-54,177	0,087	0,029
-583,079	-58,911	0,100	-0,031
-582,065	-200,000	0,023	0,106
-581,050	-83,237	0,113	-0,026
-580,036	-200,000	-0,120	0,000
-579,021	287,567	0,027	0,036
-578,006	281,189	-0,108	-0,142
-576,992	32,563	-0,066	-0,042
-575,977	-141,732	-0,037	0,003
-574,963	-200,000	-0,011	-0,083
-573,948	-117,513	0,049	-0,006
-572,934	-33,460	0,031	0,013
-571,919	-108,623	-0,055	0,009
-570,904	800,000	-0,079	-0,173
-569,890	-200,000	-0,003	0,140
-568,875	-174,303	-0,126	-0,003
-567,861	417,543	-0,022	-0,035
-566,846	800,000	-0,044	0,100
-565,831	23,254	-0,016	0,010
-564,817	197,390	0,028	0,031
-563,802	39,452	-0,033	-0,022
-562,788	481,344	0,020	0,034
-561,773	-200,000	0,012	-0,054
-560,758	124,924	-0,012	-0,011
-559,744	-200,000	0,020	0,182
-558,729	-20,529	0,116	0,052
-557,715	-145,890	-0,152	-0,010
-556,700	426,749	-0,077	0,121
-555,685	411,655	-0,020	-0,031
-554,671	445,718	0,024	-0,038
-553,656	385,554	-0,051	-0,076
-552,642	312,999	0,085	0,116
-551,627	101,709	0,050	-0,043
-550,612	112,775	-0,055	0,049
-549,598	617,918	-0,046	-0,085
-548,583	-200,000	0,012	-0,051
-547,569	363,749	-0,004	0,006
-546,554	-200,000	-0,002	0,033
-545,539	54,775	0,039	-0,028
-544,525	-200,000	-0,023	0,123
-543,510	5,249	-0,080	-0,043
-542,496	580,157	-0,044	0,080
-541,481	-83,168	0,134	0,031
-540,466	-200,000	0,004	0,039
-539,452	314,068	0,089	0,123
-538,437	-89,293	-0,086	-0,018
-537,423	-200,000	0,020	-0,078
-536,408	79,946	0,054	-0,042
-535,393	162,008	-0,058	-0,059
-534,379	-162,376	-0,028	-0,001
-533,364	-200,000	0,004	0,044
-532,350	414,383	0,081	0,127
-531,335	523,481	-0,055	0,094
-530,321	365,610	-0,060	0,089
-529,306	-41,199	0,146	0,055
-528,291	12,678	-0,143	-0,080
-527,277	283,987	-0,044	-0,058
-526,262	78,432	-0,174	-0,136
-525,248	-200,000	-0,017	-0,083
-524,233	15,541	0,143	0,082
-523,218	-40,781	-0,115	-0,043
-522,204	29,595	-0,048	-0,030
-521,189	41,255	-0,078	-0,052
-520,175	69,259	-0,091	0,069
-519,160	518,871	0,058	-0,100
-518,145	-200,000	0,000	-0,121
-517,131	-102,399	-0,110	0,019
-516,116	-40,670	-0,108	0,041
-515,102	800,000	0,048	0,132
-514,087	-200,000	0,000	-0,006
-513,072	-200,000	-0,007	-0,143
-512,058	-200,000	-0,003	0,020
-511,043	-200,000	-0,003	-0,037
-510,029	-41,024	-0,056	-0,021
-509,014	39,720	0,059	0,039
-507,999	160,759	-0,023	-0,024
-506,985	-200,000	-0,014	-0,123
-505,970	127,342	-0,100	-0,092
-504,956	607,386	0,043	-0,079
-503,941	-200,000	-0,005	0,019
-502,926	92,741	0,091	0,075
-501,912	251,798	-0,036	-0,045
-500,897	800,000	-0,045	0,119
-499,883	-200,000	-0,015	-0,083
-498,868	-95,797	-0,104	-0,020
-497,853	-75,925	-0,082	0,021
-496,839	800,000	0,032	-0,070
-495,824	-200,000	0,003	0,015
-494,810	-26,095	-0,043	-0,018
-493,795	17,281	0,054	0,031
-492,781	-77,569	-0,049	0,012
-491,766	-126,647	0,133	0,014
-490,751	800,000	0,012	0,036
-489,737	800,000	0,023	0,048
-488,722	18,298	0,156	0,091
-487,708	29,316	0,028	0,017
-486,693	340,721	0,051	0,073
-485,678	201,752	0,121	0,136
-484,664	-139,327	-0,168	-0,013
-483,649	-188,316	-0,106	0,001
-482,635	452,848	-0,031	0,050
-481,620	-200,000	0,003	0,011
-480,605	205,413	0,096	0,109
-479,591	189,051	-0,045	0,049
-478,576	260,183	-0,047	-0,059
-477,562	-52,294	0,105	0,035
-476,547	-200,000	-0,030	0,102
-475,532	800,000	-0,017	-0,036
-474,518	-43,864	0,055	-0,020
-473,503	-11,504	-0,093	-0,044
-472,489	-200,000	0,014	0,085
-471,474	800,000	0,015	-0,041
-470,459	166,916	-0,062	-0,064
-469,445	-200,000	0,001	-0,032
-468,430	-200,000	0,006	-0,052
-467,416	-200,000	0,015	0,159
-466,401	47,137	0,147	0,100
-465,386	-2,890	0,017	-0,009
-464,372	-72,255	-0,072	0,019
-463,357	800,000	-0,019	0,043
-462,343	194,350	-0,017	0,019
-461,328	592,282	0,073	-0,132
-460,313	-200,000	0,021	0,201
-459,299	-62,604	-0,037	-0,011
-458,284	-200,000	0,031	0,146
-457,270	-200,000	0,013	0,047
-456,255	293,929	-0,048	-0,063
-455,241	357,080	0,082	-0,119
-454,226	244,382	-0,092	-0,113
-453,211	159,352	-0,056	-0,057
-452,197	277,090	0,074	0,096
-451,182	137,084	0,037	0,035
-450,168	504,889	0,073	-0,124
-449,153	-200,000	0,021	-0,102
-448,138	20,457	-0,013	-0,007
-447,124	290,748	-0,027	-0,036
-446,109	-29,120	-0,056	0,023
-445,095	81,328	-0,069	-0,054
-444,080	-200,000	0,002	-0,032
-443,065	-157,750	0,092	-0,004
-442,051	37,592	-0,105	-0,068
-441,036	-200,000	-0,002	-0,117
-440,022	-200,000	0,006	0,073
-439,007	-53,976	-0,072	0,024
-437,992	1,381	0,064	0,034
-436,978	-200,000	0,004	0,112
-435,963	800,000	-0,034	-0,093
-434,949	309,055	-0,017	-0,023
-433,934	403,222	0,004	0,006
-432,919	-200,000	0,004	0,064
-431,905	-142,673	0,154	-0,011
-430,890	-104,781	0,216	-0,036
-429,876	116,861	0,032	0,028
-428,861	789,720	0,057	0,115
-427,846	70,674	-0,117	-0,088
-426,832	492,801	-0,037	0,062
-425,817	800,000	0,007	-0,016
-424,803	-200,000	0,023	-0,095
-423,788	127,886	0,081	0,075
-422,773	-200,000	-0,008	0,130
-421,759	-25,750	0,109	0,047
-420,744	800,000	-0,014	-0,043
-419,730	-83,728	0,088	0,020
-418,715	445,440	0,107	-0,172
-417,701	-103,798	-0,124	0,021
-416,686	63,440	0,118	0,086
-415,671	-200,000	0,019	0,178
-414,657	632,818	0,076	0,141
-413,642	369,353	-0,031	-0,046
-412,628	74,992	-0,093	0,072
-411,613	329,656	-0,071	-0,100
-410,598	543,262	0,018	0,032
-409,584	800,000	0,009	-0,029
-408,569	490,306	-0,061	0,101
-407,555	269,842	0,033	0,043
-406,540	-200,000	-0,004	-0,060
-405,525	-200,000	0,013	0,110
-404,511	-27,795	0,134	-0,056
-403,496	-200,000	0,001	0,047
-402,482	-162,042	0,100	-0,004
-401,467	-193,725	0,074	-0,000
-400,452	800,000	0,043	0,128
-399,438	-200,000	-0,006	-0,026
-398,423	-71,900	0,059	-0,016
-397,409	61,551	0,058	-0,042
-396,394	29,149	0,043	-0,027
-395,379	-70,230	0,154	0,042
-394,365	-200,000	-0,004	0,070
-393,350	-200,000	0,015	0,109
-392,336	120,336	0,010	0,009
-391,321	66,977	-0,092	0,068
-390,306	-200,000	0,003	-0,117
-389,292	-52,979	-0,044	0,015
-388,277	-84,754	0,139	0,032
-387,263	-200,000	-0,009	0,033
-386,248	89,970	0,101	0,082
-385,233	110,520	-0,091	0,080
-384,219	393,590	0,052	-0,078
-383,204	-123,945	0,081	-0,009
-382,190	-200,000	0,026	-0,094
-381,175	-81,644	0,032	-0,007
-380,160	-200,000	-0,005	-0,032
-379,146	-200,000	-0,003	0,118
-378,131	156,890	0,091	0,092
-377,117	-81,998	-0,040	-0,009
-376,102	-132,225	-0,050	0,005
-375,088	800,000	-0,043	-0,133
-374,073	800,000	0,030	-0,064
-373,058	-51,759	0,064	-0,022
-372,044	-200,000	0,039	-0,136
-371,029	220,800	-0,104	-0,121
-370,015	-200,000	0,006	0,040
-369,000	58,882	0,049	0,035
-367,985	768,476	-0,019	-0,037
-366,971	-8,210	-0,007	-0,004
-365,956	134,324	-0,029	-0,027
-364,942	-200,000	0,022	-0,103
-363,927	-41,269	0,066	-0,025
-362,912	-47,528	-0,085	0,030
-361,898	640,993	-0,021	-0,038
-360,883	-22,207	-0,185	-0,081
-359,869	110,788	-0,033	-0,029
-358,854	71,226	0,131	-0,098
-357,839	339,227	-0,120	-0,170
-356,825	418,968	0,059	0,092
-355,810	247,669	-0,032	0,039
-354,796	143,903	0,067	-0,065
-353,781	800,000	-0,051	-0,153
-352,766	19,478	-0,066	-0,038
-351,752	338,507	0,042	0,059
-350,737	246,741	0,059	-0,072
-349,723	638,160	0,026	0,048
-348,708	-200,000	0,016	0,131
-347,693	-200,000	0,005	0,031
-346,679	450,985	-0,052	-0,084
-345,664	800,000	-0,044	-0,091
-344,650	99,746	0,059	-0,049
-343,635	129,542	-0,034	-0,031
-342,620	-200,000	0,009	0,134
-341,606	-105,193	0,127	0,021
-340,591	60,705	0,116	-0,083
-339,577	16,713	0,052	0,030
-338,562	212,579	0,030	-0,035
-337,548	678,067	-0,014	0,027
-336,533	800,000	0,028	-0,059
-335,518	-200,000	-0,017	-0,064
-334,504	-162,482	0,027	0,001
-333,489	280,953	-0,095	0,123
-332,475	800,000	0,009	0,023
-331,460	67,829	-0,044	-0,033
-330,445	632,622	0,013	-0,024
-329,431	-200,000	-0,001	0,061
-328,416	-200,000	0,022	0,141
-327,402	146,048	0,049	0,047
-326,387	-7,721	0,004	-0,002
-325,372	-8,490	-0,086	0,042
-324,358	47,866	0,022	0,015
-323,343	800,000	-0,044	-0,088
-322,329	58,335	0,093	0,066
-321,314	-200,000	-0,002	0,038
-320,299	-18,490	0,147	-0,066
-319,285	800,000	0,036	0,086
-318,270	-23,527	-0,159	-0,069
-317,256	800,000	0,023	-0,072
-316,241	319,617	0,026	0,036
-315,226	-87,765	0,123	0,027
-314,212	131,042	-0,091	0,085
-313,197	800,000	-0,016	-0,033
-312,183	-64,196	0,062	-0,018
-311,168	800,000	0,025	-0,057
-310,153	-200,000	-0,041	-0,270
-309,139	537,317	0,052	-0,090
-308,124	-200,000	0,028	-0,120
-307,110	-27,475	-0,133	0,056
-306,095	26,866	-0,103	0,062
-305,080	89,657	0,154	-0,125
-304,066	233,053	-0,103	-0,122
-303,051	224,765	0,036	-0,042
-302,037	-200,000	-0,004	0,056
-301,022	-200,000	-0,009	0,066
-300,008	-200,000	0,016	0,125
-298,993	-64,485	0,074	0,022
-297,978	402,340	0,059	-0,090
-296,964	-200,000	-0,031	0,161
-295,949	32,627	0,091	-0,057
-294,935	334,797	0,069	0,097
-293,920	-200,000	-0,008	0,043
-292,905	456,213	-0,032	-0,052
-291,891	209,000	0,088	0,100
-290,876	-72,702	0,160	0,042
-289,862	-134,968	-0,078	0,007
-288,847	-200,000	-0,012	-0,057
-287,832	22,041	-0,055	-0,033
-286,818	800,000	-0,044	-0,099
-285,803	225,743	0,043	0,051
-284,789	-5,939	0,142	-0,070
-283,774	321,149	0,054	0,074
-282,759	121,010	0,040	0,036
-281,745	335,536	-0,054	-0,075
-280,730	800,000	-0,012	-0,027
-279,716	214,010	-0,046	0,053
-278,701	1,403	-0,054	-0,028
-277,686	492,218	0,023	-0,038
-276,672	-200,000	0,016	0,065
-275,657	-52,552	-0,092	-0,031
-274,643	-137,879	-0,068	-0,005
-273,628	200,839	0,074	-0,082
-272,613	123,615	-0,119	-0,108
-271,599	62,009	0,049	-0,036
-270,584	-200,000	0,008	0,139
-269,570	800,000	0,062	0,147
-268,555	-117,977	0,117	-0,015
-267,540	394,966	-0,054	-0,081
-266,526	103,783	-0,117	0,100
-265,511	-68,688	-0,148	0,041
-264,497	-200,000	-0,033	-0,124
-263,482	718,017	-0,038	-0,073
-262,467	-80,265	0,132	-0,032
-261,453	-200,000	-0,016	-0,054
-260,438	202,946	0,053	0,060
-259,424	263,180	-0,022	0,028
-258,409	195,441	-0,071	-0,078
-257,395	-23,739	0,093	0,040
-256,380	-168,397	0,092	-0,003
-255,365	-80,546	0,070	-0,017
-254,351	19,922	-0,109	0,063
-253,336	30,428	0,084	-0,052
-252,322	223,818	-0,046	-0,054
-251,307	-200,000	0,008	0,075
-250,292	-200,000	0,002	0,011
-249,278	-43,489	-0,028	0,010
-248,263	-200,000	0,004	0,038
-247,249	-200,000	-0,018	0,139
-246,234	-200,000	0,066	-0,239
-245,219	-5,079	-0,081	-0,040
-244,205	800,000	-0,036	0,100
-243,190	149,019	0,035	0,034
-242,176	-200,000	-0,005	0,128
-241,161	800,000	-0,075	-0,152
-240,146	-200,000	0,023	-0,093
-239,132	-200,000	0,006	0,129
-238,117	800,000	-0,039	0,104
-237,103	-89,637	-0,090	-0,019
-236,088	-200,000	-0,013	-0,048
-235,073	113,982	0,104	-0,091
-234,059	800,000	0,027	-0,062
-233,044	226,090	0,065	0,077
-232,030	-200,000	-0,028	-0,147
-231,015	-200,000	0,029	0,096
-230,000	-200,000	0,034	-0,115
-228,986	-19,560	0,060	0,027
-227,971	-200,000	0,004	0,018
-226,957	-47,181	0,084	0,029
-225,942	-200,000	-0,004	0,039
-224,927	14,775	0,064	-0,036
-223,913	83,955	-0,118	-0,093
-222,898	-200,000	-0,036	-0,141
-221,884	-192,195	-0,068	-0,000
-220,869	-39,268	0,011	-0,004
-219,855	-200,000	0,017	0,059
-218,840	198,296	-0,034	0,037
-217,825	-200,000	0,049	0,193
-216,811	-200,000	-0,009	-0,049
-215,796	42,564	-0,075	-0,049
-214,782	800,000	-0,035	-0,071
-213,767	-200,000	0,002	-0,073
-212,752	-200,000	0,002	0,084
-211,738	146,550	-0,025	0,025
-210,723	800,000	-0,023	0,047
-209,709	-200,000	0,011	-0,072
-208,694	-93,114	-0,124	0,025
-207,679	458,509	-0,036	0,058
-206,665	-200,000	0,002	-0,109
-205,650	-200,000	0,001	0,183
-204,636	11,902	-0,076	0,042
-203,621	55,465	-0,060	0,042
-202,606	35,603	-0,073	-0,046
-201,592	375,801	-0,056	-0,083
-200,577	800,000	-0,018	-0,046
-199,563	-11,213	0,060	0,028
-198,548	-200,000	-0,025	0,093
-197,533	-200,000	-0,018	0,089
-196,519	29,503	0,220	0,135
-195,504	-42,782	-0,019	0,007
-194,490	-200,000	-0,024	-0,161
-193,475	751,158	-0,049	0,095
-192,460	132,541	0,091	-0,085
-191,446	-200,000	0,022	-0,112
-190,431	52,932	0,144	0,099
-189,417	211,274	-0,048	0,054
-188,402	7,515	0,047	0,025
-187,387	-64,178	0,070	-0,020
-186,373	-200,000	-0,039	-0,170
-185,358	8,455	-0,063	-0,034
-184,344	73,308	0,093	0,070
-183,329	800,000	-0,028	0,086
-182,315	800,000	-0,067	0,143
-181,300	800,000	-0,013	-0,036
-180,285	-200,000	0,009	-0,060
-179,271	120,832	-0,049	0,044
-178,256	26,176	0,029	-0,018
-177,242	-62,719	0,077	0,023
-176,227	430,856	-0,040	0,062
-175,212	215,392	-0,101	-0,115
-174,198	83,205	0,111	-0,087
-173,183	111,903	-0,028	0,024
-172,169	154,652	0,099	-0,098
-171,154	143,608	-0,116	-0,111
-170,139	23,598	-0,051	-0,030
-169,125	559,874	-0,019	0,034
-168,110	800,000	-0,020	0,049
-167,096	432,948	-0,051	0,080
-166,081	-148,192	0,039	0,002
-165,066	-200,000	0,025	-0,167
-164,052	-64,988	0,120	-0,035
-163,037	-200,000	-0,030	0,104
-162,023	451,931	0,037	0,059
-161,008	7,243	-0,058	0,031
-159,993	757,196	-0,075	0,148
-158,979	-84,730	-0,124	-0,028
-157,964	-146,496	-0,031	0,002
-156,950	141,405	-0,039	-0,037
-155,935	389,805	0,042	0,063
-154,920	90,935	0,030	0,024
-153,906	7,067	0,031	-0,017
-152,891	-88,057	0,063	0,014
-151,877	32,698	0,119	0,074
-150,862	-200,000	-0,013	-0,107
-149,847	-200,000	0,001	-0,159
-148,833	-200,000	0,001	-0,023
-147,818	-200,000	0,042	0,148
-146,804	-98,537	-0,042	-0,008
-145,789	689,645	-0,023	0,044
-144,775	-76,956	0,051	0,013
-143,760	10,671	0,036	0,020
-142,745	-23,667	-0,012	-0,005
-141,731	800,000	-0,017	0,049
-140,716	314,226	-0,103	0,140
-139,702	-200,000	0,008	0,082
-138,687	-61,832	0,049	0,015
-137,672	800,000	0,026	0,053
-136,658	-200,000	-0,002	-0,058
-135,643	-40,419	0,100	-0,037
-134,629	254,517	-0,018	0,023
-133,614	800,000	-0,022	-0,056
-132,599	-151,150	0,140	0,007
-131,585	786,860	0,019	-0,037
-130,570	-200,000	0,008	-0,039
-129,556	800,000	-0,063	-0,127
-128,541	800,000	0,015	0,032
-127,526	800,000	-0,052	-0,104
-126,512	-200,000	0,010	0,100
-125,497	-89,512	-0,099	-0,021
-124,483	160,486	-0,049	0,049
-123,468	196,805	0,044	0,048
-122,453	-12,996	-0,072	-0,034
-121,439	2,222	-0,035	0,018
-120,424	800,000	0,035	-0,093
-119,410	349,539	0,053	0,075
