DTS Sentinel unit serial number:	SN410029Multiplexer serial number:	ORYXHardware model number:	OX2-SRSoftware version number:	ORYX F/W v4,00 Oryx Data Collector v3.7.2.0data status	okinstallation	B5 Nyhavnadifferential loss correction	single-endedforward channel	channel 2reverse channel	N/Adate	2023/12/13time	03:07:13forward acquisition time	300,00reverse acquisition time	0,00gamma	499,1914k internal	0,3160k external	0,3160temperature offset calibration	1,0000default loss term (dB/km)	0,3820temperature slope calibration	1,0000multiplexer offset coefficient	1,0000multiplexer slope coefficient	1,0000fibre end	0,00T internal ref (°C)	13,96T ext. ref 1 (°C)	-2,47T ext. ref 2 (°C)	-2,77length (m)	temperature (°C)	Stokes	anti-Stokes-744,400	178,567	0,096	0,104
-743,385	-174,591	-0,280	-0,006
-742,371	28,245	0,095	0,059
-741,356	5,721	-0,291	0,158
-740,342	-37,631	0,130	-0,051
-739,327	-158,013	-0,320	-0,014
-738,312	6,395	0,037	0,020
-737,298	-143,428	-0,214	-0,015
-736,283	16,637	0,158	0,092
-735,269	-141,704	-0,403	-0,029
-734,254	-162,923	0,132	-0,005
-733,239	-41,937	-0,549	-0,206
-732,225	11,216	0,144	0,081
-731,210	63,642	-0,067	0,050
-730,196	274,524	-0,082	-0,107
-729,181	-24,139	-0,097	-0,043
-728,167	-168,063	-0,134	0,004
-727,152	-200,000	0,015	-0,093
-726,137	-60,028	-0,087	0,027
-725,123	643,391	-0,080	0,150
-724,108	-62,778	-0,029	0,009
-723,094	21,022	-0,150	-0,089
-722,079	-200,000	-0,022	0,207
-721,064	-53,347	-0,047	0,016
-720,050	139,789	0,072	-0,070
-719,035	800,000	0,027	-0,060
-718,021	-173,094	-0,063	0,001
-717,006	12,326	-0,060	-0,034
-715,991	800,000	-0,077	-0,177
-714,977	-200,000	0,019	-0,080
-713,962	524,766	-0,049	-0,085
-712,948	232,182	-0,072	-0,088
-711,933	-59,784	-0,070	0,022
-710,918	40,440	0,117	-0,078
-709,904	96,335	-0,129	-0,109
-708,889	-130,496	-0,029	-0,003
-707,875	-200,000	0,005	-0,015
-706,860	225,787	-0,063	0,075
-705,845	800,000	-0,023	0,052
-704,831	113,386	0,013	0,012
-703,816	-122,331	-0,065	-0,008
-702,802	52,166	-0,135	-0,095
-701,787	-200,000	-0,011	-0,059
-700,772	-130,732	-0,124	-0,012
-699,758	311,172	-0,046	-0,064
-698,743	768,096	0,062	-0,125
-697,729	800,000	0,025	0,053
-696,714	800,000	0,088	0,202
-695,699	636,877	-0,068	0,128
-694,685	268,612	-0,041	0,053
-693,670	800,000	-0,040	-0,088
-692,656	301,177	0,053	0,072
-691,641	-200,000	-0,040	0,147
-690,627	-200,000	0,027	0,103
-689,612	-200,000	-0,007	0,074
-688,597	238,715	-0,029	0,035
-687,583	-200,000	-0,029	-0,161
-686,568	-200,000	0,013	0,052
-685,554	-200,000	-0,009	-0,100
-684,539	104,447	-0,025	0,022
-683,524	-200,000	0,012	-0,105
-682,510	405,242	0,059	0,091
-681,495	305,177	-0,059	-0,081
-680,481	787,401	0,015	0,030
-679,466	563,028	-0,070	-0,126
-678,451	-8,674	-0,183	-0,090
-677,437	770,319	0,080	-0,161
-676,422	104,307	-0,060	-0,052
-675,408	800,000	-0,032	-0,076
-674,393	61,504	0,070	-0,051
-673,378	247,927	-0,026	-0,033
-672,364	-21,934	-0,107	0,048
-671,349	-93,055	-0,061	-0,012
-670,335	36,183	0,050	0,032
-669,320	7,282	-0,033	-0,018
-668,305	-135,873	0,070	-0,006
-667,291	0,017	0,097	0,051
-666,276	-157,404	-0,216	0,009
-665,262	215,460	-0,035	-0,041
-664,247	93,905	0,083	-0,069
-663,232	-200,000	-0,013	0,125
-662,218	800,000	0,005	0,015
-661,203	8,880	-0,056	-0,031
-660,189	159,550	0,041	-0,042
-659,174	-78,762	-0,007	0,002
-658,159	-114,327	-0,234	-0,033
-657,145	150,259	-0,081	-0,081
-656,130	-200,000	-0,010	0,049
-655,116	-200,000	0,031	0,155
-654,101	306,855	0,067	0,092
-653,086	800,000	0,006	-0,015
-652,072	67,326	-0,081	-0,060
-651,057	-124,140	-0,076	-0,009
-650,043	452,083	0,060	-0,098
-649,028	800,000	0,038	0,109
-648,014	539,611	-0,028	-0,049
-646,999	128,564	-0,096	0,089
-645,984	44,161	-0,072	-0,048
-644,970	-200,000	0,008	-0,088
-643,955	109,170	-0,067	0,059
-642,941	-200,000	-0,024	-0,137
-641,926	-200,000	0,025	-0,088
-640,911	-3,964	0,089	0,045
-639,897	-114,498	-0,023	0,003
-638,882	-200,000	0,021	-0,157
-637,868	-200,000	-0,020	0,073
-636,853	-200,000	-0,037	0,123
-635,838	-60,328	-0,159	-0,049
-634,824	68,457	-0,140	-0,105
-633,809	-19,443	0,069	-0,031
-632,795	473,354	-0,048	-0,079
-631,780	185,160	0,043	0,047
-630,765	-200,000	0,012	-0,150
-629,751	2,065	0,058	-0,030
-628,736	800,000	-0,032	0,085
-627,722	-78,761	0,042	0,011
-626,707	-200,000	0,008	-0,065
-625,692	-122,751	-0,184	-0,022
-624,678	-32,451	-0,162	0,066
-623,663	285,398	0,086	-0,114
-622,649	527,384	0,023	-0,040
-621,634	-159,825	-0,106	0,004
-620,619	-41,680	0,086	-0,032
-619,605	800,000	0,063	0,180
-618,590	-200,000	0,006	0,075
-617,576	-43,034	0,028	0,010
-616,561	-200,000	0,007	-0,033
-615,546	-24,739	-0,123	0,054
-614,532	800,000	-0,039	0,089
-613,517	800,000	-0,033	-0,071
-612,503	13,916	0,114	-0,065
-611,488	257,343	-0,043	-0,054
-610,474	161,893	-0,149	0,153
-609,459	50,539	0,076	0,053
-608,444	-39,324	-0,111	-0,042
-607,430	-200,000	-0,030	-0,121
-606,415	75,705	-0,085	0,066
-605,401	383,939	0,027	-0,041
-604,386	-200,000	-0,008	0,068
-603,371	28,578	0,082	-0,051
-602,357	800,000	-0,009	-0,018
-601,342	-31,711	-0,085	-0,035
-600,328	800,000	0,015	-0,034
-599,313	800,000	-0,049	-0,113
-598,298	99,380	0,111	-0,094
-597,284	-200,000	-0,013	-0,135
-596,269	408,013	-0,026	-0,040
-595,255	334,040	0,051	0,073
-594,240	21,987	-0,118	-0,070
-593,225	-200,000	-0,021	-0,102
-592,211	-200,000	-0,001	-0,161
-591,196	-109,665	-0,077	0,012
-590,182	-200,000	-0,001	0,039
-589,167	-129,106	-0,070	0,007
-588,152	339,350	0,042	0,059
-587,138	-200,000	-0,000	-0,022
-586,123	800,000	-0,066	0,176
-585,109	270,131	-0,073	0,094
-584,094	360,938	0,078	-0,115
-583,079	-200,000	-0,010	-0,210
-582,065	-122,614	-0,068	0,008
-581,050	151,135	0,127	0,127
-580,036	57,938	-0,118	-0,085
-579,021	66,048	-0,055	-0,041
-578,006	-78,834	-0,170	-0,042
-576,992	-200,000	-0,043	0,151
-575,977	70,891	0,071	-0,054
-574,963	-200,000	-0,001	-0,043
-573,948	-200,000	0,013	0,080
-572,934	-200,000	0,004	-0,038
-571,919	-200,000	0,009	-0,038
-570,904	399,073	0,077	-0,118
-569,890	139,159	-0,015	-0,014
-568,875	-5,638	0,097	0,049
-567,861	-200,000	0,049	0,173
-566,846	66,506	0,077	-0,057
-565,831	-200,000	-0,020	-0,087
-564,817	220,293	-0,068	-0,080
-563,802	43,587	-0,079	-0,053
-562,788	-121,183	0,062	-0,007
-561,773	91,172	0,122	0,100
-560,758	488,638	-0,047	0,079
-559,744	-200,000	-0,012	-0,130
-558,729	102,048	-0,026	0,022
-557,715	360,440	-0,064	-0,095
-556,700	800,000	0,038	-0,122
-555,685	-200,000	0,010	0,059
-554,671	82,939	-0,017	0,014
-553,656	14,546	0,059	0,034
-552,642	800,000	-0,040	-0,087
-551,627	-102,131	0,043	-0,008
-550,612	-200,000	-0,022	-0,071
-549,598	800,000	-0,052	-0,115
-548,583	-200,000	0,022	0,144
-547,569	-92,661	0,080	0,016
-546,554	-200,000	0,003	-0,078
-545,539	-28,514	0,045	-0,019
-544,525	-21,905	-0,037	-0,016
-543,510	354,779	-0,012	0,017
-542,496	-30,799	-0,058	0,024
-541,481	-130,527	0,073	-0,007
-540,466	25,660	-0,131	-0,080
-539,452	106,008	0,074	-0,064
-538,437	-18,517	-0,225	-0,102
-537,423	62,192	0,050	-0,037
-536,408	28,771	0,058	-0,036
-535,393	800,000	-0,040	-0,096
-534,379	-23,969	-0,024	-0,011
-533,364	-119,113	0,102	-0,013
-532,350	-200,000	-0,001	-0,110
-531,335	255,660	0,036	0,046
-530,321	93,769	0,083	0,069
-529,306	18,355	0,068	-0,040
-528,291	70,128	0,033	0,025
-527,277	428,591	-0,045	0,072
-526,262	495,698	0,065	0,109
-525,248	-200,000	-0,014	0,128
-524,233	-117,266	0,066	0,009
-523,218	166,535	-0,027	-0,028
-522,204	-200,000	0,001	-0,051
-521,189	478,842	-0,033	0,055
-520,175	-72,871	0,123	0,033
-519,160	-95,099	-0,152	0,030
-518,145	35,698	-0,059	0,038
-517,131	800,000	0,015	0,034
-516,116	-200,000	0,015	-0,060
-515,102	800,000	0,036	-0,113
-514,087	28,986	-0,066	-0,041
-513,072	-58,390	0,086	-0,027
-512,058	81,836	-0,031	0,024
-511,043	136,859	-0,078	0,074
-510,029	800,000	-0,070	-0,194
-509,014	-200,000	0,014	0,070
-507,999	-0,543	0,052	0,027
-506,985	-200,000	-0,011	0,057
-505,970	5,643	-0,130	0,070
-504,956	90,131	0,052	-0,042
-503,941	203,607	-0,008	0,010
-502,926	800,000	-0,061	0,144
-501,912	-9,979	0,108	0,052
-500,897	-39,430	-0,071	0,027
-499,883	0,449	0,134	0,070
-498,868	107,871	0,071	-0,062
-497,853	-34,905	0,093	0,037
-496,839	800,000	0,017	0,040
-495,824	-200,000	0,046	0,151
-494,810	162,676	0,078	0,080
-493,795	88,208	0,026	-0,021
-492,781	653,633	-0,017	-0,032
-491,766	-200,000	-0,053	-0,179
-490,751	136,213	-0,058	-0,055
-489,737	136,365	0,076	0,072
-488,722	34,762	0,078	-0,049
-487,708	-200,000	0,002	0,126
-486,693	54,308	0,086	-0,060
-485,678	-160,740	-0,097	-0,004
-484,664	-200,000	-0,009	0,104
-483,649	-176,952	-0,170	-0,003
-482,635	131,235	-0,055	0,052
-481,620	-179,447	0,116	0,002
-480,605	128,493	0,082	0,076
-479,591	32,114	-0,078	-0,049
-478,576	-200,000	0,002	-0,038
-477,562	-200,000	-0,018	-0,107
-476,547	-46,601	-0,133	-0,047
-475,532	-60,722	-0,054	0,016
-474,518	-200,000	-0,019	0,123
-473,503	31,767	-0,129	-0,081
-472,489	37,309	0,083	-0,054
-471,474	-19,725	-0,112	-0,050
-470,459	-200,000	-0,010	-0,199
-469,445	800,000	0,029	-0,078
-468,430	178,727	0,072	-0,077
-467,416	-200,000	0,034	0,126
-466,401	800,000	0,049	0,139
-465,386	-53,524	0,113	-0,038
-464,372	200,613	-0,081	0,091
-463,357	304,830	0,048	0,065
-462,343	45,953	0,068	-0,046
-461,328	-200,000	-0,001	0,037
-460,313	510,265	0,065	0,110
-459,299	-200,000	0,004	0,066
-458,284	20,000	0,062	0,036
-457,270	-104,800	-0,087	0,014
-456,255	-200,000	-0,025	-0,141
-455,241	-200,000	-0,004	-0,015
-454,226	356,744	0,065	-0,094
-453,211	-200,000	-0,036	0,152
-452,197	635,477	0,020	0,036
-451,182	-18,877	0,102	0,046
-450,168	588,819	-0,112	0,201
-449,153	260,899	-0,041	0,052
-448,138	28,400	-0,125	0,077
-447,124	193,098	0,040	-0,044
-446,109	-200,000	-0,029	-0,147
-445,095	125,593	0,114	0,105
-444,080	128,723	0,075	-0,070
-443,065	-200,000	0,019	0,107
-442,051	-200,000	-0,023	0,101
-441,036	-63,582	-0,038	-0,011
-440,022	800,000	0,069	-0,150
-439,007	108,690	0,033	0,029
-437,992	17,812	0,087	0,050
-436,978	800,000	0,012	-0,027
-435,963	-118,522	0,060	0,008
-434,949	552,389	0,024	0,042
-433,934	179,835	-0,091	-0,097
-432,919	279,459	-0,108	-0,141
-431,905	-200,000	0,031	-0,137
-430,890	-165,895	0,188	-0,006
-429,876	-200,000	-0,020	0,132
-428,861	800,000	-0,044	-0,099
-427,846	-148,951	0,146	0,008
-426,832	76,677	-0,097	0,075
-425,817	-200,000	-0,014	-0,212
-424,803	-23,749	-0,034	-0,015
-423,788	17,839	-0,053	-0,030
-422,773	-158,757	0,063	0,003
-421,759	313,638	0,078	0,107
-420,744	609,789	-0,045	0,082
-419,730	-26,250	-0,109	-0,046
-418,715	50,719	-0,089	0,062
-417,701	-26,515	0,075	-0,032
-416,686	-37,128	0,157	0,061
-415,671	-7,799	0,129	0,063
-414,657	-200,000	0,012	-0,089
-413,642	16,924	-0,060	0,034
-412,628	-35,515	-0,127	0,050
-411,613	-35,669	-0,056	0,022
-410,598	159,076	0,061	-0,062
-409,584	174,825	0,061	-0,064
-408,569	800,000	-0,014	0,038
-407,555	-200,000	-0,001	-0,094
-406,540	391,339	0,054	0,082
-405,525	800,000	-0,033	-0,098
-404,511	41,143	0,100	-0,066
-403,496	-26,609	-0,100	0,042
-402,482	193,095	-0,096	0,106
-401,467	-200,000	-0,012	-0,067
-400,452	221,459	0,031	0,036
-399,438	4,723	-0,095	-0,051
-398,423	-200,000	-0,000	0,078
-397,409	325,490	-0,055	0,076
-396,394	120,420	0,049	-0,044
-395,379	83,583	0,076	-0,060
-394,365	-200,000	0,042	0,153
-393,350	800,000	-0,017	0,050
-392,336	268,228	-0,021	-0,027
-391,321	80,734	-0,030	-0,024
-390,306	52,723	0,052	-0,036
-389,292	-162,171	-0,057	0,002
-388,277	-78,360	-0,137	0,034
-387,263	-35,612	0,040	-0,016
-386,248	-200,000	0,011	-0,135
-385,233	452,473	0,025	0,040
-384,219	384,300	-0,047	0,071
-383,204	-200,000	0,011	0,058
-382,190	-25,402	0,101	-0,043
-381,175	367,226	-0,058	-0,085
-380,160	118,377	0,108	0,097
-379,146	47,906	-0,050	-0,034
-378,131	148,688	0,053	0,052
-377,117	86,637	0,027	0,021
-376,102	800,000	-0,038	-0,090
-375,088	-200,000	-0,012	0,099
-374,073	59,947	0,017	0,012
-373,058	800,000	0,095	0,198
-372,044	-24,631	0,087	-0,038
-371,029	-55,672	-0,067	0,022
-370,015	-200,000	-0,019	0,109
-369,000	-200,000	-0,016	-0,096
-367,985	-200,000	0,018	-0,096
-366,971	-102,160	-0,010	0,002
-365,956	-45,960	0,128	-0,046
-364,942	-162,242	0,055	-0,002
-363,927	-200,000	0,021	-0,109
-362,912	-200,000	-0,009	0,031
-361,898	800,000	0,057	-0,175
-360,883	-47,054	0,076	-0,027
-359,869	527,801	-0,039	-0,066
-358,854	-43,089	-0,035	-0,013
-357,839	800,000	-0,047	0,139
-356,825	-139,530	0,051	-0,004
-355,810	-24,465	-0,087	0,037
-354,796	-68,873	0,021	-0,006
-353,781	-83,916	-0,070	-0,016
-352,766	164,703	-0,061	0,062
-351,752	241,552	-0,077	-0,094
-350,737	800,000	0,048	0,128
-349,723	564,271	-0,043	0,076
-348,708	-200,000	-0,036	-0,132
-347,693	-118,638	0,087	0,011
-346,679	-200,000	-0,016	-0,088
-345,664	-91,317	0,022	-0,004
-344,650	-130,204	0,027	-0,003
-343,635	23,756	-0,048	0,029
-342,620	-83,744	0,178	-0,041
-341,606	95,756	0,095	0,079
-340,591	233,428	-0,052	-0,063
-339,577	203,491	-0,109	0,122
-338,562	-9,570	-0,030	0,015
-337,548	-129,961	-0,054	-0,005
-336,533	137,885	0,033	0,031
-335,518	72,949	0,104	0,079
-334,504	-200,000	0,002	0,015
-333,489	800,000	0,023	-0,060
-332,475	123,322	0,052	0,047
-331,460	-68,498	-0,038	-0,011
-330,445	105,136	-0,046	-0,040
-329,431	219,784	-0,031	0,036
-328,416	168,393	-0,058	0,060
-327,402	141,193	-0,050	0,048
-326,387	45,462	-0,175	0,117
-325,372	361,730	0,027	0,040
-324,358	-200,000	0,029	0,093
-323,343	-74,706	0,051	-0,013
-322,329	-112,178	0,048	-0,007
-321,314	-69,146	-0,067	0,018
-320,299	256,096	0,029	-0,036
-319,285	-22,566	0,057	-0,025
-318,270	-200,000	-0,002	-0,038
-317,256	-200,000	-0,001	-0,049
-316,241	-200,000	-0,022	-0,090
-315,226	-200,000	0,004	-0,063
-314,212	37,242	0,095	0,061
-313,197	169,048	0,098	0,101
-312,183	-99,956	-0,075	-0,014
-311,168	-200,000	-0,005	0,040
-310,153	101,304	-0,032	-0,027
-309,139	-200,000	0,002	-0,068
-308,124	-200,000	-0,026	0,086
-307,110	-200,000	-0,018	0,058
-306,095	84,518	-0,032	0,025
-305,080	448,951	-0,113	0,181
-304,066	-200,000	0,015	-0,050
-303,051	274,407	-0,072	-0,092
-302,037	-67,783	-0,132	0,037
-301,022	70,987	0,180	-0,135
-300,008	-145,981	0,056	0,004
-298,993	-48,822	0,184	0,063
-297,978	10,612	-0,085	0,047
-296,964	800,000	0,037	-0,076
-295,949	45,525	-0,168	0,112
-294,935	-135,694	0,192	-0,016
-293,920	-33,496	0,076	-0,030
-292,905	-200,000	-0,011	0,042
-291,891	584,906	0,076	0,135
-290,876	-35,838	0,095	-0,037
-289,862	129,510	-0,081	0,075
-288,847	133,401	0,012	0,011
-287,832	-86,196	-0,033	-0,007
-286,818	-200,000	-0,010	0,102
-285,803	800,000	-0,033	0,094
-284,789	201,191	-0,090	0,100
-283,774	-122,470	-0,107	-0,012
-282,759	379,797	-0,021	0,031
-281,745	800,000	0,038	-0,089
-280,730	104,298	-0,113	-0,097
-279,716	-200,000	-0,027	-0,135
-278,701	-200,000	-0,006	0,107
-277,686	-200,000	0,002	-0,091
-276,672	143,336	0,042	-0,041
-275,657	-42,520	-0,058	-0,021
-274,643	-200,000	-0,005	-0,025
-273,628	53,605	-0,067	-0,046
-272,613	-200,000	0,012	-0,041
-271,599	232,169	-0,028	0,033
-270,584	129,504	0,135	-0,125
-269,570	-19,035	0,180	-0,081
-268,555	-200,000	0,006	0,095
-267,540	264,891	0,090	0,113
-266,526	103,465	0,092	-0,078
-265,511	696,360	-0,033	0,063
-264,497	368,313	0,021	-0,031
-263,482	29,262	-0,053	-0,032
-262,467	376,575	0,073	0,108
-261,453	239,748	0,059	0,071
-260,438	65,848	-0,158	-0,115
-259,424	277,741	0,023	0,030
-258,409	343,469	0,072	-0,102
-257,395	-200,000	0,002	-0,029
-256,380	-200,000	-0,001	0,082
-255,365	10,954	0,194	-0,107
-254,351	-118,196	-0,114	-0,014
-253,336	-96,201	0,172	-0,033
-252,322	174,214	-0,168	-0,175
-251,307	800,000	0,084	0,175
-250,292	-9,496	-0,130	0,062
-249,278	-200,000	0,001	-0,016
-248,263	-15,632	0,050	-0,023
-247,249	277,491	-0,100	0,129
-246,234	-78,415	-0,080	0,020
-245,219	-106,079	-0,063	-0,010
-244,205	49,331	-0,030	-0,020
-243,190	-54,960	-0,054	0,017
-242,176	257,795	-0,061	0,076
-241,161	475,007	0,035	0,057
-240,146	-200,000	-0,020	0,084
-239,132	-105,585	0,109	0,018
-238,117	447,798	-0,082	-0,131
-237,103	-200,000	0,005	-0,049
-236,088	-90,783	-0,086	-0,018
-235,073	-109,492	0,111	-0,017
-234,059	-111,436	0,121	-0,018
-233,044	-200,000	0,003	0,168
-232,030	800,000	0,035	0,090
-231,015	-200,000	0,026	-0,126
-230,000	-63,426	0,020	0,006
-228,986	446,925	-0,069	0,110
-227,971	532,244	0,087	0,149
-226,957	55,251	0,062	-0,043
-225,942	79,464	0,094	0,073
-224,927	-200,000	0,009	-0,104
-223,913	800,000	-0,013	-0,037
-222,898	413,756	-0,058	0,090
-221,884	-11,871	-0,044	0,021
-220,869	115,071	0,141	-0,124
-219,855	-200,000	-0,007	-0,038
-218,840	192,533	-0,064	0,070
-217,825	-200,000	0,004	0,035
-216,811	277,203	-0,047	0,060
-215,796	800,000	0,089	-0,193
-214,782	46,780	-0,157	-0,105
-213,767	315,676	0,085	0,116
-212,752	800,000	0,027	0,061
-211,738	-200,000	0,004	0,077
-210,723	-45,614	0,030	-0,011
-209,709	-200,000	0,007	-0,227
-208,694	-200,000	-0,025	-0,100
-207,679	800,000	0,039	-0,094
-206,665	800,000	-0,082	0,182
-205,650	-200,000	-0,002	0,028
-204,636	163,661	0,075	0,076
-203,621	800,000	-0,055	0,150
-202,606	-200,000	-0,005	0,084
-201,592	170,472	-0,087	0,090
-200,577	-2,242	0,132	0,067
-199,563	800,000	-0,038	0,099
-198,548	-38,107	-0,008	-0,003
-197,533	800,000	0,058	0,164
-196,519	22,948	-0,036	0,021
-195,504	-36,509	0,081	0,031
-194,490	-200,000	-0,007	-0,138
-193,475	-200,000	-0,027	-0,099
-192,460	-200,000	0,003	0,044
-191,446	72,576	0,065	0,049
-190,431	-71,664	0,029	-0,008
-189,417	-200,000	-0,012	0,038
-188,402	85,030	0,011	0,009
-187,387	-200,000	0,011	-0,039
-186,373	-193,702	0,019	-0,000
-185,358	168,967	-0,062	-0,064
-184,344	-36,604	-0,054	-0,021
-183,329	190,325	0,049	0,053
-182,315	-87,377	0,072	0,016
-181,300	260,808	0,042	-0,052
-180,285	16,009	-0,157	-0,089
-179,271	40,703	0,038	-0,025
-178,256	-0,447	0,143	0,073
-177,242	89,947	-0,170	0,137
-176,227	29,337	-0,105	-0,064
-175,212	-200,000	-0,007	0,044
-174,198	128,838	0,033	-0,030
-173,183	197,659	-0,103	0,114
-172,169	67,723	-0,065	-0,048
-171,154	-200,000	-0,003	-0,255
-170,139	-200,000	0,014	-0,079
-169,125	-128,011	0,105	-0,011
-168,110	-200,000	-0,013	0,074
-167,096	93,845	-0,026	-0,021
-166,081	-200,000	-0,033	-0,156
-165,066	-200,000	0,022	-0,181
-164,052	800,000	-0,064	-0,132
-163,037	-123,397	0,088	0,010
-162,023	-155,405	0,059	0,003
-161,008	800,000	0,054	0,169
-159,993	-70,989	0,134	0,036
-158,979	-200,000	-0,005	-0,048
-157,964	-200,000	-0,019	0,116
-156,950	408,933	-0,054	-0,082
-155,935	304,184	0,022	-0,029
-154,920	396,623	-0,068	0,103
-153,906	800,000	0,036	0,081
-152,891	397,258	0,010	0,015
-151,877	-200,000	0,005	0,130
-150,862	176,669	-0,011	-0,011
-149,847	264,369	-0,029	0,037
-148,833	481,365	0,083	-0,136
-147,818	-200,000	-0,049	0,189
-146,804	-200,000	-0,020	0,135
-145,789	-147,171	-0,141	0,009
-144,775	-134,646	-0,116	-0,010
-143,760	800,000	0,032	-0,082
-142,745	-17,044	-0,115	0,052
-141,731	-200,000	-0,005	0,035
-140,716	800,000	0,019	-0,060
-139,702	-200,000	0,003	0,147
-138,687	1,351	-0,049	-0,025
-137,672	-3,924	-0,048	0,024
-136,658	621,440	0,066	-0,121
-135,643	294,816	-0,005	-0,007
-134,629	-200,000	0,000	-0,024
-133,614	-200,000	0,017	0,095
-132,599	-7,186	0,063	0,031
-131,585	800,000	0,023	-0,049
-130,570	166,388	0,079	-0,080
-129,556	-63,956	-0,170	0,050
-128,541	291,477	0,051	-0,067
-127,526	562,783	-0,017	-0,029
-126,512	-0,529	0,103	0,052
-125,497	-133,369	0,044	-0,004
-124,483	-87,757	-0,110	0,024
-123,468	-76,973	-0,126	0,031
-122,453	24,968	-0,048	-0,029
-121,439	-200,000	0,002	0,182
-120,424	171,973	0,040	-0,041
-119,410	-200,000	-0,029	-0,164
