DTS Sentinel unit serial number:	SN410029Multiplexer serial number:	ORYXHardware model number:	OX2-SRSoftware version number:	ORYX F/W v4,00 Oryx Data Collector v3.7.2.0data status	okinstallation	B5 Nyhavnadifferential loss correction	single-endedforward channel	channel 2reverse channel	N/Adate	2023/12/12time	07:47:13forward acquisition time	300,00reverse acquisition time	0,00gamma	499,1914k internal	0,3158k external	0,3158temperature offset calibration	1,0000default loss term (dB/km)	0,3820temperature slope calibration	1,0000multiplexer offset coefficient	1,0000multiplexer slope coefficient	1,0000fibre end	0,00T internal ref (°C)	15,13T ext. ref 1 (°C)	-1,19T ext. ref 2 (°C)	-1,45length (m)	temperature (°C)	Stokes	anti-Stokes-744,400	-3,689	0,130	-0,066
-743,385	-163,117	-0,351	-0,012
-742,371	-64,795	0,093	0,028
-741,356	-30,485	-0,351	0,146
-740,342	-53,579	0,096	0,032
-739,327	-103,125	-0,290	-0,050
-738,312	-91,755	0,065	-0,013
-737,298	-106,015	-0,282	0,046
-736,283	-200,000	-0,004	-0,054
-735,269	262,348	-0,070	0,090
-734,254	-136,159	0,048	0,004
-733,239	-25,272	-0,525	-0,228
-732,225	-200,000	0,157	0,000
-731,210	-200,000	-0,023	0,110
-730,196	181,781	0,051	0,056
-729,181	417,092	-0,049	-0,077
-728,167	225,223	-0,002	0,002
-727,152	389,865	-0,015	-0,023
-726,137	-200,000	0,013	-0,053
-725,123	418,921	-0,025	0,040
-724,108	119,550	-0,081	-0,074
-723,094	-69,848	0,046	-0,013
-722,079	-125,543	-0,099	-0,011
-721,064	-61,113	-0,108	-0,033
-720,050	-91,321	-0,092	-0,019
-719,035	-13,490	-0,057	0,027
-718,021	266,365	-0,098	-0,126
-717,006	-89,519	-0,025	-0,005
-715,991	66,608	-0,192	-0,144
-714,977	-37,170	0,022	-0,008
-713,962	772,050	0,041	-0,083
-712,948	22,161	0,053	0,032
-711,933	-200,000	-0,096	0,000
-710,918	593,241	-0,019	0,036
-709,904	21,821	0,068	-0,041
-708,889	27,707	-0,123	-0,076
-707,875	800,000	0,030	-0,089
-706,860	-66,161	0,109	-0,032
-705,845	-200,000	0,027	0,093
-704,831	272,347	0,104	0,136
-703,816	-30,755	-0,074	-0,031
-702,802	254,220	-0,076	0,096
-701,787	-200,000	-0,005	-0,071
-700,772	-200,000	0,019	-0,069
-699,758	-146,008	0,089	0,006
-698,743	-76,553	-0,007	0,002
-697,729	-200,000	0,005	-0,058
-696,714	0,592	0,094	-0,049
-695,699	-200,000	-0,033	-0,224
-694,685	-13,290	0,047	0,022
-693,670	-104,863	-0,050	-0,008
-692,656	-69,763	0,038	-0,011
-691,641	11,713	0,055	-0,031
-690,627	-200,000	-0,012	-0,055
-689,612	-106,717	0,130	-0,021
-688,597	-200,000	-0,001	-0,083
-687,583	800,000	-0,035	-0,107
-686,568	800,000	-0,042	0,122
-685,554	-44,427	0,064	0,024
-684,539	-200,000	0,029	0,098
-683,524	-65,474	0,105	0,031
-682,510	800,000	-0,038	0,113
-681,495	64,063	0,039	-0,029
-680,481	-93,802	-0,131	-0,026
-679,466	800,000	-0,060	-0,169
-678,451	-200,000	0,022	-0,159
-677,437	-91,801	0,017	0,003
-676,422	301,862	0,048	0,065
-675,408	97,737	-0,116	0,098
-674,393	239,554	-0,035	0,043
-673,378	800,000	-0,028	-0,075
-672,364	-81,175	-0,043	0,010
-671,349	-9,642	-0,091	-0,044
-670,335	183,823	-0,095	-0,103
-669,320	-98,270	0,117	-0,022
-668,305	-200,000	0,001	0,059
-667,291	339,532	-0,073	0,105
-666,276	800,000	-0,066	-0,144
-665,262	800,000	0,016	0,037
-664,247	380,948	-0,013	0,020
-663,232	157,617	0,070	0,071
-662,218	42,535	0,159	-0,106
-661,203	-200,000	0,010	0,218
-660,189	-200,000	-0,024	0,079
-659,174	244,829	-0,061	-0,076
-658,159	-98,539	-0,053	-0,010
-657,145	167,954	-0,072	-0,076
-656,130	-200,000	0,026	-0,090
-655,116	-200,000	-0,012	-0,093
-654,101	20,676	0,107	-0,063
-653,086	285,844	-0,041	-0,055
-652,072	339,638	-0,025	0,036
-651,057	535,392	-0,094	-0,164
-650,043	-200,000	-0,020	-0,137
-649,028	-200,000	-0,001	0,085
-648,014	-200,000	-0,013	-0,055
-646,999	-104,026	-0,140	-0,024
-645,984	800,000	0,023	-0,066
-644,970	103,247	0,049	0,042
-643,955	166,972	0,090	-0,093
-642,941	55,393	-0,107	-0,076
-641,926	348,736	-0,055	0,080
-640,911	800,000	0,015	0,048
-639,897	62,763	0,025	0,019
-638,882	84,310	-0,050	-0,040
-637,868	471,216	-0,060	-0,099
-636,853	60,426	-0,127	-0,092
-635,838	54,669	-0,076	-0,053
-634,824	321,419	-0,039	-0,054
-633,809	168,465	0,108	-0,113
-632,795	305,488	-0,067	0,091
-631,780	-200,000	0,019	-0,076
-630,765	-63,778	-0,121	0,036
-629,751	-105,244	0,022	-0,004
-628,736	800,000	-0,058	-0,150
-627,722	214,600	-0,014	0,016
-626,707	501,485	0,017	0,029
-625,692	277,583	-0,013	0,017
-624,678	-81,288	0,130	-0,031
-623,663	-131,766	-0,072	-0,007
-622,649	-75,484	-0,089	-0,023
-621,634	800,000	0,018	0,057
-620,619	-200,000	-0,005	0,089
-619,605	-200,000	-0,004	0,142
-618,590	635,518	-0,036	0,067
-617,576	-79,668	0,103	0,025
-616,561	52,217	-0,050	-0,035
-615,546	800,000	-0,069	-0,166
-614,532	163,309	-0,030	-0,031
-613,517	217,632	0,046	-0,054
-612,503	-200,000	-0,016	0,077
-611,488	282,461	0,105	0,139
-610,474	57,399	0,140	0,100
-609,459	195,051	0,071	0,079
-608,444	-200,000	-0,018	-0,080
-607,430	-0,433	0,042	-0,022
-606,415	-200,000	0,016	-0,104
-605,401	112,834	0,104	-0,092
-604,386	800,000	0,043	0,094
-603,371	-76,661	-0,028	-0,007
-602,357	38,900	0,062	-0,041
-601,342	800,000	-0,028	-0,077
-600,328	110,629	0,060	-0,053
-599,313	-131,617	-0,207	-0,020
-598,298	-73,497	0,257	0,068
-597,284	-5,605	-0,058	-0,029
-596,269	646,382	-0,032	-0,060
-595,255	-200,000	-0,001	0,128
-594,240	37,126	0,044	-0,029
-593,225	-132,610	-0,100	0,009
-592,211	507,071	-0,049	-0,084
-591,196	800,000	-0,008	0,024
-590,182	-72,215	0,094	-0,025
-589,167	51,682	0,082	0,057
-588,152	-200,000	-0,003	0,033
-587,138	-200,000	-0,007	-0,066
-586,123	-90,237	-0,115	-0,024
-585,109	-68,054	-0,056	-0,016
-584,094	130,473	-0,059	-0,055
-583,079	70,334	-0,011	0,009
-582,065	-200,000	0,009	-0,034
-581,050	50,246	0,047	-0,032
-580,036	237,127	-0,133	-0,162
-579,021	342,055	-0,056	-0,081
-578,006	-200,000	0,007	-0,186
-576,992	-200,000	-0,005	0,019
-575,977	27,767	0,176	-0,109
-574,963	277,964	-0,065	0,086
-573,948	143,102	0,148	-0,144
-572,934	-72,720	-0,077	-0,021
-571,919	-200,000	0,013	-0,053
-570,904	800,000	-0,076	-0,214
-569,890	800,000	-0,045	-0,107
-568,875	-62,083	0,054	-0,017
-567,861	-200,000	-0,009	-0,042
-566,846	-200,000	-0,011	-0,115
-565,831	-142,438	-0,034	-0,002
-564,817	800,000	0,046	-0,098
-563,802	-200,000	-0,033	-0,125
-562,788	395,304	0,012	-0,018
-561,773	-200,000	0,008	-0,122
-560,758	-114,996	0,112	-0,015
-559,744	771,822	0,076	0,152
-558,729	-59,243	0,101	0,032
-557,715	-178,013	-0,101	0,002
-556,700	-44,514	0,101	-0,037
-555,685	-200,000	-0,013	-0,079
-554,671	-200,000	0,005	-0,056
-553,656	-16,107	0,036	0,017
-552,642	26,449	0,042	0,025
-551,627	-124,087	0,045	0,005
-550,612	279,990	-0,061	-0,080
-549,598	-200,000	-0,002	-0,010
-548,583	-108,143	-0,084	0,013
-547,569	800,000	0,031	0,085
-546,554	-200,000	0,014	0,081
-545,539	16,405	0,084	0,049
-544,525	65,413	-0,097	0,072
-543,510	-45,663	0,170	-0,061
-542,496	263,989	-0,078	-0,099
-541,481	133,850	0,055	-0,052
-540,466	-85,049	0,094	0,021
-539,452	212,438	0,036	-0,042
-538,437	206,431	-0,083	0,094
-537,423	-200,000	-0,030	0,215
-536,408	133,886	0,089	0,085
-535,393	-18,928	-0,037	0,017
-534,379	375,324	0,013	-0,019
-533,364	-18,966	-0,108	-0,049
-532,350	-200,000	-0,005	0,030
-531,335	-42,211	0,135	0,050
-530,321	43,153	-0,081	-0,054
-529,306	-0,816	-0,040	-0,021
-528,291	800,000	-0,046	0,114
-527,277	550,253	-0,090	-0,159
-526,262	800,000	0,024	-0,076
-525,248	66,977	-0,113	0,084
-524,233	800,000	0,029	-0,063
-523,218	-200,000	-0,021	0,141
-522,204	-200,000	0,016	0,126
-521,189	-68,256	0,080	-0,023
-520,175	-200,000	-0,008	-0,084
-519,160	-200,000	0,034	0,165
-518,145	-200,000	0,001	0,103
-517,131	-200,000	0,014	0,088
-516,116	-200,000	0,004	0,060
-515,102	150,355	-0,077	0,077
-514,087	163,517	0,039	0,040
-513,072	800,000	-0,030	0,077
-512,058	165,313	0,012	-0,012
-511,043	-200,000	-0,002	0,070
-510,029	56,164	0,030	0,021
-509,014	-183,619	-0,045	-0,001
-507,999	-200,000	0,026	0,120
-506,985	-200,000	-0,022	0,206
-505,970	800,000	0,048	-0,151
-504,956	-112,404	-0,084	0,012
-503,941	-200,000	0,018	0,168
-502,926	-99,284	0,116	0,021
-501,912	126,282	0,105	0,097
-500,897	31,405	0,019	0,012
-499,883	239,130	-0,083	0,101
-498,868	94,912	-0,129	0,107
-497,853	-56,984	-0,042	0,013
-496,839	516,073	-0,074	-0,127
-495,824	800,000	0,075	0,239
-494,810	800,000	0,034	0,108
-493,795	369,587	-0,071	-0,106
-492,781	-74,470	-0,018	-0,005
-491,766	-200,000	-0,011	-0,040
-490,751	-167,796	-0,104	-0,003
-489,737	-102,460	-0,136	0,024
-488,722	-21,960	-0,079	0,035
-487,708	-29,111	0,021	-0,009
-486,693	800,000	0,025	-0,054
-485,678	800,000	0,010	-0,032
-484,664	219,646	-0,084	0,098
-483,649	-200,000	-0,002	-0,051
-482,635	497,575	0,026	0,045
-481,620	-200,000	0,007	-0,140
-480,605	-133,447	0,166	-0,015
-479,591	456,974	0,074	0,120
-478,576	800,000	0,024	-0,060
-477,562	-200,000	0,005	0,068
-476,547	-83,423	-0,026	0,006
-475,532	-143,767	-0,082	0,006
-474,518	-43,839	0,172	-0,063
-473,503	-77,649	-0,025	0,006
-472,489	73,421	0,050	0,038
-471,474	472,880	-0,054	-0,089
-470,459	-76,344	-0,062	0,016
-469,445	-57,754	0,036	0,012
-468,430	-111,030	-0,108	0,016
-467,416	-155,857	0,198	0,009
-466,401	-200,000	0,014	0,107
-465,386	800,000	0,031	0,074
-464,372	143,404	0,025	-0,025
-463,357	-38,080	0,061	-0,023
-462,343	-200,000	0,005	0,091
-461,328	800,000	0,016	-0,038
-460,313	-117,237	0,191	0,025
-459,299	16,308	0,068	-0,039
-458,284	-97,728	-0,038	0,007
-457,270	-200,000	-0,009	-0,050
-456,255	-20,356	-0,047	0,021
-455,241	59,167	-0,020	0,014
-454,226	109,547	0,034	0,030
-453,211	-28,547	-0,204	-0,085
-452,197	98,561	0,048	-0,041
-451,182	-120,475	0,065	-0,008
-450,168	692,422	0,048	0,092
-449,153	375,359	0,017	-0,026
-448,138	417,938	0,029	-0,045
-447,124	51,716	0,091	0,063
-446,109	800,000	-0,007	-0,022
-445,095	-200,000	-0,019	-0,079
-444,080	-200,000	0,005	-0,051
-443,065	56,981	-0,064	0,045
-442,051	800,000	-0,035	0,078
-441,036	45,816	0,053	-0,035
-440,022	221,382	-0,029	-0,034
-439,007	-200,000	0,010	-0,066
-437,992	707,155	-0,062	0,120
-436,978	246,414	0,093	-0,114
-435,963	-200,000	-0,020	0,081
-434,949	138,405	0,082	-0,079
-433,934	465,982	-0,050	-0,081
-432,919	29,064	0,050	-0,031
-431,905	-171,844	0,115	0,003
-430,890	222,330	0,009	0,011
-429,876	107,622	0,048	0,041
-428,861	53,415	0,031	0,022
-427,846	-88,727	0,100	0,021
-426,832	-130,579	-0,111	-0,011
-425,817	-200,000	-0,004	-0,053
-424,803	527,102	0,023	0,040
-423,788	-200,000	-0,004	-0,030
-422,773	-22,476	0,096	0,042
-421,759	-17,371	0,077	0,035
-420,744	-200,000	0,022	0,119
-419,730	109,538	-0,059	-0,052
-418,715	297,311	0,071	-0,095
-417,701	199,740	0,069	-0,077
-416,686	-100,458	-0,096	-0,017
-415,671	-200,000	0,013	0,103
-414,657	800,000	-0,003	-0,010
-413,642	-70,873	-0,167	-0,045
-412,628	-200,000	-0,037	-0,142
-411,613	145,961	0,068	-0,066
-410,598	-90,920	-0,116	-0,024
-409,584	172,309	0,086	0,090
-408,569	79,507	0,122	0,095
-407,555	-200,000	0,013	0,242
-406,540	800,000	0,018	0,049
-405,525	800,000	-0,019	-0,041
-404,511	480,982	0,024	0,039
-403,496	41,239	-0,070	0,046
-402,482	800,000	0,042	0,103
-401,467	-22,510	-0,053	-0,023
-400,452	461,625	0,043	-0,070
-399,438	-200,000	-0,004	0,041
-398,423	202,281	0,069	-0,078
-397,409	-200,000	-0,014	-0,099
-396,394	121,135	0,084	0,076
-395,379	212,394	-0,105	0,121
-394,365	800,000	0,024	0,051
-393,350	-200,000	0,009	0,084
-392,336	292,614	0,160	0,213
-391,321	-165,615	-0,070	-0,002
-390,306	39,448	-0,042	-0,027
-389,292	-200,000	-0,011	-0,053
-388,277	406,970	-0,077	-0,118
-387,263	760,973	-0,065	0,128
-386,248	-11,425	-0,113	0,054
-385,233	-85,832	0,070	0,016
-384,219	-92,717	0,151	-0,030
-383,204	-200,000	-0,009	-0,038
-382,190	-114,940	-0,084	-0,011
-381,175	270,539	0,098	-0,126
-380,160	-200,000	0,017	0,057
-379,146	-17,829	0,122	0,055
-378,131	-63,756	-0,062	-0,018
-377,117	743,109	-0,019	0,037
-376,102	17,277	-0,080	-0,046
-375,088	3,185	-0,102	-0,054
-374,073	29,132	-0,093	-0,057
-373,058	422,696	0,097	-0,151
-372,044	-200,000	-0,026	0,153
-371,029	800,000	0,044	0,099
-370,015	-76,842	-0,174	0,044
-369,000	-200,000	0,005	-0,125
-367,985	360,718	-0,008	0,011
-366,971	-52,267	-0,089	0,030
-365,956	-46,978	-0,072	0,025
-364,942	63,658	0,028	-0,020
-363,927	17,884	0,177	0,102
-362,912	-43,281	0,077	-0,028
-361,898	716,463	-0,034	-0,065
-360,883	-100,874	-0,178	-0,031
-359,869	-9,275	0,056	-0,027
-358,854	217,689	0,031	0,036
-357,839	85,993	0,032	-0,025
-356,825	274,358	-0,040	0,051
-355,810	-200,000	-0,023	0,109
-354,796	132,526	0,059	-0,055
-353,781	65,949	-0,117	-0,086
-352,766	110,584	-0,117	0,102
-351,752	800,000	-0,057	0,183
-350,737	49,783	0,084	-0,057
-349,723	180,572	0,007	0,007
-348,708	-200,000	-0,007	0,157
-347,693	-200,000	0,016	0,155
-346,679	34,214	-0,104	0,065
-345,664	56,171	-0,117	-0,082
-344,650	15,524	0,035	-0,020
-343,635	-120,608	-0,063	0,008
-342,620	-95,853	0,088	-0,017
-341,606	439,796	-0,029	0,045
-340,591	126,026	-0,067	-0,061
-339,577	21,271	-0,017	0,010
-338,562	-200,000	-0,010	-0,130
-337,548	28,035	-0,057	0,035
-336,533	232,425	0,020	0,024
-335,518	-24,637	-0,065	-0,028
-334,504	-200,000	0,009	0,043
-333,489	-139,777	0,091	-0,007
-332,475	800,000	0,063	-0,201
-331,460	-44,312	0,036	-0,013
-330,445	72,215	-0,080	-0,060
-329,431	-200,000	0,008	0,063
-328,416	-200,000	-0,003	0,056
-327,402	246,520	-0,072	-0,088
-326,387	800,000	0,026	-0,082
-325,372	-110,536	0,016	-0,002
-324,358	-180,180	-0,037	-0,001
-323,343	-26,919	-0,024	-0,010
-322,329	-83,127	0,015	-0,003
-321,314	-200,000	0,019	0,098
-320,299	-96,240	-0,057	0,011
-319,285	76,543	-0,120	0,093
-318,270	27,725	-0,168	0,102
-317,256	-138,720	-0,082	-0,006
-316,241	-44,662	0,081	-0,029
-315,226	560,668	-0,058	-0,102
-314,212	120,738	-0,077	0,069
-313,197	245,872	0,076	-0,093
-312,183	-92,736	-0,084	-0,017
-311,168	-200,000	0,027	-0,120
-310,153	165,571	-0,092	-0,095
-309,139	102,552	-0,090	-0,076
-308,124	-61,763	0,081	-0,025
-307,110	800,000	0,053	-0,116
-306,095	-109,077	-0,066	0,010
-305,080	2,703	-0,097	0,051
-304,066	800,000	0,037	-0,087
-303,051	-132,339	0,102	-0,009
-302,037	184,256	-0,077	-0,083
-301,022	800,000	0,017	0,038
-300,008	-37,338	0,068	0,026
-298,993	-200,000	-0,014	0,167
-297,978	-200,000	-0,033	0,140
-296,964	-200,000	0,010	0,136
-295,949	15,150	-0,055	-0,031
-294,935	-177,127	0,118	-0,002
-293,920	-116,536	0,014	-0,002
-292,905	-21,583	0,129	0,057
-291,891	102,148	-0,050	-0,042
-290,876	301,452	0,082	-0,110
-289,862	800,000	0,022	-0,054
-288,847	44,920	0,119	-0,079
-287,832	52,720	-0,022	-0,015
-286,818	-68,859	0,078	0,022
-285,803	401,900	0,054	0,082
-284,789	-200,000	0,036	0,159
-283,774	-200,000	0,027	0,105
-282,759	17,514	-0,021	0,012
-281,745	-200,000	-0,007	0,128
-280,730	-127,246	-0,064	0,007
-279,716	-125,469	-0,070	0,008
-278,701	203,793	-0,088	-0,099
-277,686	-51,572	0,121	0,041
-276,672	-112,004	-0,190	0,027
-275,657	-136,803	-0,132	-0,011
-274,643	-41,500	-0,079	-0,029
-273,628	278,014	0,023	-0,029
-272,613	-200,000	0,015	-0,136
-271,599	-94,768	0,101	-0,020
-270,584	-200,000	0,035	0,123
-269,570	-200,000	0,021	0,272
-268,555	800,000	-0,015	-0,032
-267,540	-200,000	0,010	-0,067
-266,526	-200,000	0,000	-0,018
-265,511	120,469	-0,052	0,046
-264,497	751,832	0,074	0,145
-263,482	98,403	-0,041	0,034
-262,467	-58,291	0,064	0,020
-261,453	800,000	0,042	-0,111
-260,438	231,883	-0,117	-0,139
-259,424	800,000	0,044	-0,102
-258,409	461,857	0,085	-0,138
-257,395	-147,766	-0,117	0,007
-256,380	-200,000	0,015	0,071
-255,365	16,867	-0,085	0,048
-254,351	-164,423	-0,093	0,003
-253,336	125,793	-0,121	-0,111
-252,322	38,542	0,018	0,012
-251,307	800,000	-0,047	0,105
-250,292	12,195	-0,076	0,042
-249,278	800,000	0,043	-0,086
-248,263	-165,448	0,104	0,003
-247,249	-200,000	-0,016	-0,103
-246,234	-200,000	-0,010	-0,041
-245,219	-6,316	-0,115	-0,056
-244,205	64,605	0,104	0,076
-243,190	203,533	0,028	0,031
-242,176	-48,533	0,075	-0,026
-241,161	36,896	0,008	0,005
-240,146	-73,196	0,045	0,012
-239,132	35,411	0,098	-0,062
-238,117	800,000	0,024	0,074
-237,103	342,892	0,026	0,037
-236,088	573,434	0,021	0,038
-235,073	-200,000	0,023	0,137
-234,059	800,000	0,027	0,065
-233,044	-90,821	0,118	0,024
-232,030	138,711	0,037	-0,035
-231,015	-58,584	-0,084	-0,026
-230,000	83,397	-0,036	0,028
-228,986	68,262	0,089	-0,065
-227,971	-163,188	0,086	-0,003
-226,957	368,204	0,073	0,108
-225,942	440,614	-0,085	0,135
-224,927	-50,859	0,097	0,033
-223,913	248,571	-0,016	-0,019
-222,898	-200,000	0,030	-0,123
-221,884	-16,962	0,107	0,048
-220,869	800,000	0,040	-0,081
-219,855	-135,292	0,083	-0,007
-218,840	245,594	0,088	-0,107
-217,825	-200,000	-0,006	-0,139
-216,811	-52,860	-0,065	-0,022
-215,796	-93,954	-0,289	-0,057
-214,782	218,966	0,021	0,024
-213,767	-200,000	0,002	0,014
-212,752	19,953	0,190	-0,111
-211,738	760,903	-0,032	-0,063
-210,723	40,653	0,020	-0,013
-209,709	140,330	0,065	-0,062
-208,694	800,000	0,047	-0,124
-207,679	-86,629	0,038	-0,008
-206,665	164,982	0,118	0,121
-205,650	75,395	-0,079	-0,060
-204,636	47,894	-0,118	0,079
-203,621	-185,157	-0,057	0,001
-202,606	-200,000	-0,004	0,029
-201,592	-200,000	0,014	0,102
-200,577	618,383	-0,044	-0,080
-199,563	800,000	0,027	-0,082
-198,548	355,802	0,076	0,109
-197,533	-200,000	-0,001	0,042
-196,519	13,608	0,070	-0,039
-195,504	-131,710	-0,093	0,009
-194,490	45,474	0,050	-0,033
-193,475	768,125	-0,046	-0,091
-192,460	-60,599	0,025	0,008
-191,446	-200,000	-0,028	0,124
-190,431	-144,890	-0,038	-0,002
-189,417	-47,028	-0,088	-0,031
-188,402	114,086	-0,064	-0,056
-187,387	0,216	-0,084	0,043
-186,373	367,422	0,096	-0,140
-185,358	7,559	0,099	-0,053
-184,344	107,971	0,078	0,067
-183,329	-200,000	0,011	0,079
-182,315	352,498	-0,057	0,082
-181,300	-65,303	-0,130	0,037
-180,285	-135,830	-0,083	0,007
-179,271	-200,000	0,004	-0,094
-178,256	-92,395	-0,048	-0,010
-177,242	57,409	0,075	-0,053
-176,227	105,199	0,028	0,024
-175,212	800,000	-0,017	-0,035
-174,198	-128,989	-0,079	0,008
-173,183	57,400	-0,091	-0,064
-172,169	-123,239	-0,015	0,002
-171,154	405,190	-0,095	-0,145
-170,139	75,145	0,081	0,062
-169,125	81,879	0,077	0,060
-168,110	147,620	0,057	0,056
-167,096	544,739	0,060	-0,104
-166,081	-33,088	-0,124	-0,049
-165,066	-75,506	-0,144	-0,037
-164,052	800,000	-0,026	0,052
-163,037	-149,888	0,074	-0,004
-162,023	108,298	-0,068	0,058
-161,008	-119,442	0,215	0,027
-159,993	800,000	0,064	-0,146
-158,979	-59,354	-0,026	0,008
-157,964	237,725	-0,026	-0,031
-156,950	486,098	-0,079	0,130
-155,935	-200,000	0,021	-0,103
-154,920	-200,000	0,014	0,136
-153,906	286,791	0,056	0,073
-152,891	-200,000	0,025	-0,088
-151,877	99,500	-0,104	-0,086
-150,862	-200,000	0,024	-0,090
-149,847	256,484	-0,035	-0,044
-148,833	-200,000	-0,029	0,118
-147,818	-65,415	-0,119	0,034
-146,804	-200,000	0,015	0,136
-145,789	-78,686	0,185	0,045
-144,775	-200,000	0,009	0,138
-143,760	-136,529	0,122	0,010
-142,745	-200,000	-0,001	0,022
-141,731	611,174	-0,033	0,059
-140,716	800,000	0,010	-0,031
-139,702	-93,683	-0,055	0,011
-138,687	-200,000	0,027	0,105
-137,672	-100,240	-0,036	0,006
-136,658	156,872	-0,092	0,092
-135,643	-200,000	-0,008	-0,138
-134,629	731,335	-0,084	-0,163
-133,614	421,185	0,089	0,137
-132,599	46,173	-0,009	-0,006
-131,585	-9,596	-0,056	-0,027
-130,570	-111,851	-0,090	-0,013
-129,556	-200,000	0,002	-0,065
-128,541	26,234	-0,116	-0,070
-127,526	440,469	-0,052	-0,082
-126,512	-200,000	-0,020	0,099
-125,497	-80,308	-0,104	0,025
-124,483	-87,586	-0,217	0,047
-123,468	-125,324	-0,151	-0,016
-122,453	-200,000	0,034	-0,223
-121,439	-108,340	0,083	-0,013
-120,424	23,308	-0,063	0,037
-119,410	-200,000	-0,005	0,082
