DTS Sentinel unit serial number:	SN410029Multiplexer serial number:	ORYXHardware model number:	OX2-SRSoftware version number:	ORYX F/W v4,00 Oryx Data Collector v3.7.2.0data status	okinstallation	B5 Nyhavnadifferential loss correction	single-endedforward channel	channel 2reverse channel	N/Adate	2023/12/11time	20:37:13forward acquisition time	300,00reverse acquisition time	0,00gamma	499,1914k internal	0,3157k external	0,3157temperature offset calibration	1,0000default loss term (dB/km)	0,3820temperature slope calibration	1,0000multiplexer offset coefficient	1,0000multiplexer slope coefficient	1,0000fibre end	0,00T internal ref (°C)	16,02T ext. ref 1 (°C)	0,22T ext. ref 2 (°C)	-0,04length (m)	temperature (°C)	Stokes	anti-Stokes-744,400	71,677	0,110	0,084
-743,385	-79,055	-0,260	-0,065
-742,371	64,996	0,179	0,133
-741,356	-25,146	-0,172	-0,075
-740,342	660,092	0,127	0,242
-739,327	-82,722	-0,209	-0,050
-738,312	93,047	0,051	-0,042
-737,298	-2,133	-0,192	-0,099
-736,283	800,000	0,037	0,094
-735,269	144,406	-0,139	0,137
-734,254	173,369	0,068	-0,072
-733,239	-117,289	-0,543	-0,072
-732,225	39,241	0,036	0,024
-731,210	-200,000	0,003	0,045
-730,196	-93,192	-0,069	-0,014
-729,181	-68,154	-0,164	0,047
-728,167	-200,000	0,002	-0,017
-727,152	19,276	0,134	-0,079
-726,137	-2,950	-0,090	0,046
-725,123	-116,715	-0,039	0,005
-724,108	397,920	-0,063	-0,098
-723,094	-106,049	-0,075	0,012
-722,079	-22,276	-0,061	0,027
-721,064	-71,205	0,095	-0,026
-720,050	-71,992	-0,105	0,029
-719,035	563,842	0,028	-0,050
-718,021	11,757	-0,095	-0,054
-717,006	-200,000	0,024	-0,135
-715,991	59,212	-0,228	-0,165
-714,977	667,094	-0,088	-0,167
-713,962	800,000	-0,030	-0,087
-712,948	-200,000	-0,003	0,063
-711,933	800,000	-0,071	0,147
-710,918	-56,831	0,079	0,026
-709,904	-200,000	-0,002	-0,103
-708,889	-113,592	-0,121	-0,017
-707,875	60,544	-0,040	0,029
-706,860	800,000	-0,028	0,084
-705,845	239,172	-0,098	-0,121
-704,831	-200,000	0,017	-0,126
-703,816	-14,950	-0,124	-0,058
-702,802	-200,000	0,001	-0,106
-701,787	728,734	-0,036	-0,071
-700,772	-200,000	-0,004	0,060
-699,758	274,581	-0,065	0,085
-698,743	-200,000	-0,005	-0,088
-697,729	-200,000	-0,002	-0,040
-696,714	-157,665	-0,028	0,001
-695,699	453,426	-0,031	0,050
-694,685	42,127	-0,053	0,036
-693,670	800,000	-0,044	-0,128
-692,656	-36,417	0,117	0,046
-691,641	-200,000	0,002	0,086
-690,627	-80,067	-0,082	-0,020
-689,612	-33,064	0,133	0,054
-688,597	326,674	0,027	0,038
-687,583	800,000	-0,018	0,055
-686,568	800,000	-0,037	-0,100
-685,554	390,826	0,117	-0,179
-684,539	46,818	0,101	0,069
-683,524	-200,000	0,046	-0,157
-682,510	37,717	0,026	-0,017
-681,495	706,465	-0,012	-0,023
-680,481	-200,000	0,018	-0,103
-679,466	800,000	0,041	-0,118
-678,451	-200,000	0,016	0,100
-677,437	-113,378	-0,070	-0,010
-676,422	230,703	0,027	-0,032
-675,408	-38,395	0,019	0,007
-674,393	-200,000	0,013	0,063
-673,378	-200,000	-0,005	0,055
-672,364	800,000	-0,025	-0,063
-671,349	24,535	0,063	-0,038
-670,335	96,314	0,064	-0,054
-669,320	-80,728	0,060	-0,015
-668,305	-117,009	0,099	0,013
-667,291	-152,626	-0,144	0,007
-666,276	103,713	-0,016	-0,014
-665,262	43,109	-0,066	-0,044
-664,247	800,000	0,041	-0,120
-663,232	235,237	-0,072	-0,088
-662,218	-200,000	-0,016	-0,051
-661,203	704,838	0,078	0,152
-660,189	183,454	-0,064	0,070
-659,174	60,267	0,043	-0,031
-658,159	221,524	0,026	-0,031
-657,145	111,218	0,120	0,106
-656,130	-200,000	0,027	-0,100
-655,116	800,000	-0,003	0,008
-654,101	-113,778	0,037	-0,005
-653,086	55,753	0,093	0,066
-652,072	340,255	-0,081	-0,116
-651,057	-110,959	0,078	-0,012
-650,043	-27,970	-0,090	-0,038
-649,028	89,056	-0,070	-0,057
-648,014	-57,620	0,072	0,023
-646,999	-92,414	0,005	0,001
-645,984	110,046	-0,023	-0,020
-644,970	-100,647	0,063	-0,011
-643,955	60,396	-0,139	-0,101
-642,941	-13,911	0,078	-0,037
-641,926	-169,267	-0,085	-0,002
-640,911	-200,000	-0,012	0,057
-639,897	40,311	0,149	-0,099
-638,882	-102,336	-0,086	0,015
-637,868	-200,000	0,003	0,047
-636,853	134,630	-0,030	0,029
-635,838	239,354	0,061	0,074
-634,824	-200,000	0,026	-0,156
-633,809	800,000	0,066	0,157
-632,795	800,000	0,046	-0,129
-631,780	-34,171	-0,020	-0,008
-630,765	213,348	0,040	0,046
-629,751	59,243	-0,062	0,045
-628,736	351,392	0,081	-0,117
-627,722	-55,084	-0,092	0,030
-626,707	364,024	-0,016	-0,024
-625,692	312,949	0,089	0,123
-624,678	-200,000	-0,006	0,112
-623,663	-78,752	-0,042	0,010
-622,649	661,640	-0,071	-0,136
-621,634	194,180	0,085	-0,094
-620,619	-98,216	-0,054	-0,010
-619,605	137,925	-0,020	-0,019
-618,590	39,639	0,056	0,036
-617,576	800,000	-0,024	-0,058
-616,561	-108,238	-0,100	-0,016
-615,546	92,920	-0,079	0,066
-614,532	689,436	0,039	0,075
-613,517	186,005	-0,061	0,067
-612,503	-200,000	-0,009	-0,109
-611,488	72,401	-0,052	-0,040
-610,474	-200,000	-0,001	0,066
-609,459	-200,000	-0,078	0,000
-608,444	-110,110	-0,118	-0,018
-607,430	-200,000	0,003	-0,040
-606,415	376,939	0,093	-0,140
-605,401	-49,930	0,101	0,035
-604,386	-49,817	-0,083	-0,029
-603,371	800,000	0,032	0,082
-602,357	39,558	-0,019	-0,013
-601,342	800,000	-0,038	0,092
-600,328	-137,162	-0,136	0,011
-599,313	-200,000	0,010	0,153
-598,298	43,162	-0,090	-0,060
-597,284	800,000	0,062	0,160
-596,269	77,225	0,067	-0,052
-595,255	-200,000	0,019	-0,155
-594,240	800,000	-0,057	-0,152
-593,225	16,520	0,027	0,016
-592,211	-200,000	0,016	-0,117
-591,196	-161,224	-0,194	0,007
-590,182	-98,256	0,012	-0,002
-589,167	336,991	-0,079	-0,113
-588,152	-45,154	0,100	0,036
-587,138	-200,000	-0,021	0,103
-586,123	-87,663	0,022	0,005
-585,109	22,740	-0,115	-0,069
-584,094	265,727	0,067	0,085
-583,079	26,351	0,075	-0,046
-582,065	800,000	-0,068	0,175
-581,050	6,298	0,091	0,050
-580,036	-200,000	-0,039	-0,130
-579,021	-44,149	-0,192	-0,070
-578,006	214,785	0,078	-0,091
-576,992	800,000	-0,054	0,156
-575,977	-200,000	0,013	-0,086
-574,963	154,237	-0,035	-0,035
-573,948	-106,727	0,091	0,015
-572,934	165,997	0,068	-0,071
-571,919	-85,548	-0,068	-0,015
-570,904	-64,596	-0,155	-0,046
-569,890	-12,755	0,078	-0,037
-568,875	-16,190	0,026	0,012
-567,861	79,406	-0,095	0,074
-566,846	118,872	0,101	-0,092
-565,831	40,323	-0,059	0,039
-564,817	-180,625	0,090	0,001
-563,802	-169,789	-0,052	-0,001
-562,788	279,675	-0,123	-0,161
-561,773	-156,362	0,105	0,005
-560,758	-58,228	0,143	-0,045
-559,744	17,278	-0,066	0,038
-558,729	-112,981	-0,086	-0,012
-557,715	-13,235	0,115	-0,055
-556,700	228,260	-0,088	-0,105
-555,685	800,000	-0,010	0,025
-554,671	-200,000	0,019	-0,091
-553,656	-129,631	0,189	-0,019
-552,642	-52,679	0,125	-0,042
-551,627	392,221	0,008	0,012
-550,612	-153,006	-0,081	0,004
-549,598	-200,000	0,014	0,100
-548,583	800,000	0,032	-0,082
-547,569	372,613	-0,024	-0,036
-546,554	159,342	0,082	0,083
-545,539	-44,911	0,118	-0,043
-544,525	-200,000	0,002	-0,027
-543,510	-38,816	0,081	-0,031
-542,496	159,536	0,061	-0,063
-541,481	445,983	0,030	-0,049
-540,466	15,479	0,054	0,031
-539,452	99,191	-0,062	0,053
-538,437	-200,000	0,015	-0,091
-537,423	92,146	-0,021	-0,017
-536,408	-113,521	0,107	0,015
-535,393	354,364	-0,037	-0,053
-534,379	173,559	0,021	-0,022
-533,364	-82,029	-0,107	-0,025
-532,350	-110,352	0,144	-0,022
-531,335	183,972	-0,049	-0,053
-530,321	800,000	-0,021	0,052
-529,306	-111,956	0,052	-0,008
-528,291	81,899	-0,085	0,067
-527,277	-200,000	0,051	0,186
-526,262	482,949	-0,019	-0,032
-525,248	-200,000	0,018	-0,058
-524,233	122,724	0,083	-0,075
-523,218	-36,994	-0,072	-0,028
-522,204	110,632	0,083	-0,073
-521,189	-200,000	-0,019	0,098
-520,175	-200,000	-0,000	-0,014
-519,160	-200,000	-0,005	-0,024
-518,145	150,685	-0,066	0,065
-517,131	-200,000	0,001	0,139
-516,116	800,000	-0,030	0,072
-515,102	-200,000	-0,011	0,073
-514,087	800,000	-0,038	-0,085
-513,072	-200,000	-0,002	0,070
-512,058	800,000	0,051	0,124
-511,043	-88,800	0,082	0,018
-510,029	-10,670	-0,084	0,041
-509,014	207,960	0,092	0,105
-507,999	3,722	0,105	0,056
-506,985	327,329	0,057	0,080
-505,970	259,500	0,103	0,130
-504,956	-121,935	-0,088	-0,010
-503,941	-142,942	0,025	-0,002
-502,926	800,000	0,022	0,057
-501,912	15,988	0,093	0,053
-500,897	262,174	-0,165	0,210
-499,883	-200,000	-0,029	-0,143
-498,868	-200,000	-0,021	-0,069
-497,853	-161,987	-0,066	0,002
-496,839	-200,000	0,012	-0,043
-495,824	-200,000	-0,023	0,130
-494,810	-0,824	0,037	-0,019
-493,795	214,987	0,056	0,064
-492,781	-149,483	-0,067	-0,004
-491,766	47,292	0,160	0,109
-490,751	305,241	-0,105	-0,143
-489,737	-25,522	-0,103	0,044
-488,722	-94,122	0,120	-0,024
-487,708	-200,000	-0,011	0,124
-486,693	163,800	-0,030	0,031
-485,678	659,992	-0,036	-0,067
-484,664	15,643	-0,061	-0,035
-483,649	-70,101	0,018	0,005
-482,635	255,622	-0,061	0,076
-481,620	-152,164	0,106	-0,005
-480,605	178,822	0,017	0,018
-479,591	394,048	-0,048	-0,072
-478,576	488,183	0,088	0,148
-477,562	-16,751	-0,119	-0,055
-476,547	-141,025	-0,024	-0,002
-475,532	368,905	0,029	-0,043
-474,518	240,109	-0,050	0,061
-473,503	-152,735	0,017	0,001
-472,489	274,892	-0,119	-0,155
-471,474	-200,000	-0,013	0,104
-470,459	167,837	-0,013	0,014
-469,445	-4,862	-0,087	-0,043
-468,430	800,000	-0,054	-0,122
-467,416	274,523	0,095	0,123
-466,401	46,565	0,018	0,012
-465,386	467,121	0,050	0,081
-464,372	800,000	-0,040	-0,090
-463,357	517,235	-0,049	0,083
-462,343	-169,919	-0,099	-0,003
-461,328	-200,000	0,006	0,097
-460,313	201,284	0,087	0,098
-459,299	356,594	0,035	-0,051
-458,284	-45,068	0,077	0,028
-457,270	-200,000	-0,033	-0,111
-456,255	584,506	-0,042	0,075
-455,241	461,603	-0,010	0,016
-454,226	-200,000	-0,005	0,046
-453,211	-178,384	-0,044	-0,001
-452,197	264,630	0,020	-0,026
-451,182	-41,712	-0,018	0,007
-450,168	-76,507	0,087	0,022
-449,153	-63,869	-0,126	0,037
-448,138	79,121	-0,091	-0,071
-447,124	-200,000	0,002	0,059
-446,109	207,838	0,085	-0,097
-445,095	137,561	-0,125	0,119
-444,080	-57,365	0,060	-0,019
-443,065	91,367	-0,055	0,045
-442,051	-116,173	-0,080	0,011
-441,036	202,215	-0,052	0,058
-440,022	-200,000	0,004	-0,103
-439,007	24,102	-0,027	0,016
-437,992	800,000	0,092	0,213
-436,978	-118,078	-0,044	-0,006
-435,963	-200,000	0,023	0,102
-434,949	-115,481	-0,042	0,006
-433,934	-94,719	-0,126	-0,025
-432,919	-200,000	-0,031	-0,224
-431,905	800,000	-0,023	-0,064
-430,890	107,661	-0,093	-0,080
-429,876	800,000	0,035	0,083
-428,861	421,556	-0,072	0,113
-427,846	184,526	0,057	-0,061
-426,832	-200,000	-0,019	-0,065
-425,817	594,808	0,026	0,048
-424,803	-200,000	-0,063	-0,284
-423,788	-110,785	-0,082	-0,012
-422,773	203,701	0,050	-0,057
-421,759	24,610	0,039	-0,024
-420,744	800,000	0,024	-0,076
-419,730	144,329	-0,119	-0,116
-418,715	-46,905	0,127	-0,045
-417,701	800,000	-0,046	-0,100
-416,686	800,000	-0,030	-0,067
-415,671	800,000	-0,009	0,027
-414,657	164,599	0,040	0,041
-413,642	-19,380	0,127	0,057
-412,628	-40,332	-0,007	-0,003
-411,613	-10,861	-0,153	-0,073
-410,598	-59,950	0,065	0,020
-409,584	3,953	0,125	0,066
-408,569	-36,240	0,039	-0,015
-407,555	-79,683	0,171	-0,042
-406,540	351,015	0,053	0,076
-405,525	-3,189	0,111	-0,056
-404,511	-200,000	-0,036	-0,166
-403,496	-200,000	-0,005	-0,067
-402,482	-200,000	-0,028	-0,134
-401,467	79,142	0,082	0,064
-400,452	164,933	0,100	-0,103
-399,438	-151,711	0,058	-0,003
-398,423	-200,000	0,008	-0,065
-397,409	191,321	-0,030	0,033
-396,394	-122,705	0,038	-0,004
-395,379	-149,721	0,107	0,006
-394,365	-200,000	-0,021	0,101
-393,350	-8,103	-0,024	-0,012
-392,336	-4,683	0,088	0,044
-391,321	138,748	0,103	0,099
-390,306	800,000	0,022	0,067
-389,292	210,708	-0,092	0,105
-388,277	-25,880	0,057	0,024
-387,263	152,133	-0,062	0,061
-386,248	697,160	0,021	0,041
-385,233	42,573	-0,168	0,111
-384,219	-200,000	0,009	0,067
-383,204	59,833	-0,133	-0,095
-382,190	-67,727	-0,053	0,015
-381,175	0,645	-0,095	0,049
-380,160	404,708	0,030	-0,046
-379,146	151,398	0,039	0,039
-378,131	800,000	-0,026	0,067
-377,117	63,927	-0,051	0,037
-376,102	800,000	-0,019	-0,057
-375,088	-20,157	0,025	-0,011
-374,073	109,475	-0,093	0,081
-373,058	528,276	0,078	-0,135
-372,044	-200,000	-0,016	0,107
-371,029	580,253	0,048	-0,085
-370,015	-200,000	0,007	-0,168
-369,000	800,000	0,071	0,166
-367,985	-200,000	0,004	0,025
-366,971	-81,536	-0,034	-0,008
-365,956	-200,000	-0,009	-0,136
-364,942	66,318	0,084	-0,062
-363,927	44,510	0,063	-0,042
-362,912	206,683	0,035	-0,040
-361,898	94,543	-0,017	0,014
-360,883	-61,662	-0,115	-0,035
-359,869	238,375	0,033	-0,039
-358,854	331,824	0,032	-0,045
-357,839	-117,884	0,091	0,012
-356,825	197,892	0,052	0,058
-355,810	93,982	-0,078	0,064
-354,796	-84,175	-0,075	0,017
-353,781	181,450	0,011	-0,011
-352,766	-200,000	0,008	-0,089
-351,752	-200,000	0,010	-0,069
-350,737	-200,000	0,039	0,210
-349,723	-71,786	0,138	0,037
-348,708	-68,722	-0,086	-0,024
-347,693	168,358	-0,062	-0,064
-346,679	-79,126	-0,153	-0,038
-345,664	-1,189	-0,061	-0,031
-344,650	-200,000	-0,001	-0,011
-343,635	-179,633	0,034	-0,001
-342,620	19,042	0,159	-0,092
-341,606	-74,574	-0,130	-0,034
-340,591	-122,723	-0,061	0,007
-339,577	263,063	0,021	-0,026
-338,562	-200,000	0,002	0,022
-337,548	485,578	0,039	0,065
-336,533	681,272	0,041	-0,077
-335,518	12,631	-0,023	-0,013
-334,504	80,853	-0,022	0,017
-333,489	266,565	0,041	-0,052
-332,475	-200,000	0,002	-0,085
-331,460	83,435	-0,108	-0,085
-330,445	800,000	-0,035	-0,079
-329,431	-54,833	0,081	0,026
-328,416	-47,347	0,044	0,016
-327,402	800,000	0,049	0,113
-326,387	-30,211	0,142	0,058
-325,372	245,044	-0,089	-0,109
-324,358	-63,110	-0,154	-0,046
-323,343	800,000	-0,055	-0,111
-322,329	-140,181	0,089	0,007
-321,314	-21,432	0,132	0,058
-320,299	-55,539	0,028	-0,009
-319,285	-125,792	-0,076	0,008
-318,270	-100,004	-0,115	-0,021
-317,256	800,000	-0,030	0,061
-316,241	800,000	-0,041	0,089
-315,226	-200,000	-0,006	0,042
-314,212	800,000	-0,045	0,111
-313,197	-200,000	-0,018	0,133
-312,183	-102,751	0,057	0,010
-311,168	24,930	-0,059	-0,036
-310,153	38,844	0,087	0,056
-309,139	10,553	0,079	-0,044
-308,124	-53,752	-0,113	-0,037
-307,110	-200,000	0,002	-0,048
-306,095	800,000	0,042	0,103
-305,080	250,558	-0,036	-0,044
-304,066	-200,000	0,026	-0,154
-303,051	66,767	0,056	0,041
-302,037	-113,632	-0,077	-0,011
-301,022	800,000	0,031	-0,062
-300,008	17,807	0,027	0,016
-298,993	800,000	0,080	0,200
-297,978	-200,000	0,008	0,179
-296,964	-200,000	0,009	-0,132
-295,949	167,852	-0,091	-0,094
-294,935	-40,841	0,086	-0,032
-293,920	279,585	0,059	-0,077
-292,905	-102,931	-0,069	0,012
-291,891	0,789	0,086	0,044
-290,876	168,808	0,093	0,096
-289,862	800,000	-0,070	-0,146
-288,847	-10,076	-0,049	0,024
-287,832	800,000	0,046	-0,093
-286,818	178,265	-0,048	-0,051
-285,803	83,075	-0,053	-0,042
-284,789	-23,589	-0,140	-0,061
-283,774	-200,000	0,079	0,266
-282,759	31,108	-0,076	-0,047
-281,745	-82,863	-0,136	-0,031
-280,730	-200,000	-0,024	-0,084
-279,716	56,091	0,111	-0,078
-278,701	43,540	0,104	0,069
-277,686	-200,000	0,036	-0,125
-276,672	588,463	-0,014	0,025
-275,657	-200,000	0,004	0,044
-274,643	800,000	0,068	-0,138
-273,628	-148,118	0,068	-0,004
-272,613	-200,000	-0,003	0,117
-271,599	695,316	0,020	0,038
-270,584	800,000	-0,048	0,148
-269,570	-35,626	0,233	-0,091
-268,555	81,461	-0,088	-0,069
-267,540	-25,228	-0,064	0,027
-266,526	800,000	-0,068	-0,174
-265,511	-98,760	-0,076	0,014
-264,497	142,381	0,028	-0,027
-263,482	-200,000	0,003	0,095
-262,467	166,475	0,066	0,068
-261,453	28,652	0,055	-0,034
-260,438	211,067	0,074	-0,085
-259,424	-57,021	0,027	0,009
-258,409	-61,439	0,203	-0,061
-257,395	123,104	-0,055	-0,050
-256,380	-200,000	0,006	0,066
-255,365	-82,844	0,096	-0,022
-254,351	-161,577	-0,047	-0,002
-253,336	-132,367	-0,088	-0,008
-252,322	180,982	-0,118	-0,126
-251,307	800,000	-0,074	-0,176
-250,292	207,761	-0,120	0,135
-249,278	420,680	-0,080	-0,125
-248,263	10,905	-0,018	0,010
-247,249	17,607	-0,117	-0,067
-246,234	477,308	0,034	-0,056
-245,219	800,000	-0,051	-0,108
-244,205	800,000	-0,036	-0,074
-243,190	800,000	-0,028	-0,061
-242,176	118,063	0,108	-0,097
-241,161	-111,598	-0,037	0,005
-240,146	168,808	-0,038	0,039
-239,132	-34,863	0,050	-0,020
-238,117	-138,927	-0,087	0,007
-237,103	681,341	0,060	-0,113
-236,088	80,665	0,053	0,041
-235,073	-200,000	-0,017	0,083
-234,059	72,409	0,067	0,050
-233,044	-101,588	0,126	0,022
-232,030	-89,145	-0,127	0,027
-231,015	-8,223	-0,086	-0,042
-230,000	262,515	-0,060	-0,076
-228,986	-43,841	-0,149	0,054
-227,971	317,806	0,091	-0,125
-226,957	-200,000	-0,024	0,084
-225,942	-200,000	0,014	0,185
-224,927	174,023	-0,055	0,058
-223,913	800,000	-0,022	0,064
-222,898	11,116	-0,058	-0,032
-221,884	198,622	-0,065	0,072
-220,869	-77,432	0,093	-0,023
-219,855	250,594	0,193	0,238
-218,840	-200,000	0,000	0,109
-217,825	343,915	0,061	0,087
-216,811	567,043	-0,047	-0,083
-215,796	-55,877	0,089	-0,028
-214,782	285,917	0,046	-0,061
-213,767	314,053	0,049	-0,067
-212,752	-117,751	-0,129	0,017
-211,738	225,689	0,081	0,095
-210,723	-200,000	-0,012	0,194
-209,709	88,924	-0,113	-0,090
-208,694	800,000	0,071	-0,186
-207,679	-200,000	-0,022	0,129
-206,665	432,050	0,037	0,059
-205,650	-200,000	0,011	0,120
-204,636	446,170	-0,048	0,076
-203,621	57,314	-0,020	0,014
-202,606	208,773	-0,079	-0,090
-201,592	800,000	-0,077	-0,225
-200,577	456,156	0,098	-0,157
-199,563	289,563	-0,052	-0,069
-198,548	800,000	-0,004	-0,008
-197,533	-56,966	-0,029	-0,009
-196,519	96,931	0,082	0,068
-195,504	800,000	-0,079	-0,238
-194,490	15,941	-0,140	0,080
-193,475	-145,149	-0,191	0,012
-192,460	610,450	0,024	0,043
-191,446	-200,000	0,003	0,092
-190,431	-200,000	-0,014	0,081
-189,417	800,000	0,054	0,110
-188,402	-200,000	-0,014	0,167
-187,387	83,523	-0,095	0,074
-186,373	420,977	0,063	-0,098
-185,358	381,257	0,047	0,070
-184,344	-187,158	0,071	-0,001
-183,329	15,265	0,024	-0,014
-182,315	-200,000	0,001	0,133
-181,300	800,000	-0,014	-0,039
-180,285	-79,476	0,076	-0,018
-179,271	-200,000	-0,039	0,166
-178,256	-200,000	0,002	0,022
-177,242	-200,000	-0,005	-0,026
-176,227	800,000	0,032	-0,085
-175,212	-35,305	0,092	0,036
-174,198	233,529	-0,102	-0,121
-173,183	800,000	-0,012	-0,028
-172,169	-200,000	-0,010	0,078
-171,154	107,425	0,120	0,103
-170,139	-84,143	0,112	0,025
-169,125	-0,171	0,068	0,035
-168,110	800,000	0,071	0,157
-167,096	-200,000	0,001	-0,012
-166,081	800,000	0,037	0,111
-165,066	-20,526	-0,093	-0,041
-164,052	-75,536	0,105	0,027
-163,037	264,684	0,123	-0,154
-162,023	-200,000	-0,036	0,161
-161,008	13,634	0,075	-0,042
-159,993	800,000	0,054	0,147
-158,979	800,000	0,029	-0,088
-157,964	108,113	-0,065	-0,056
-156,950	54,829	-0,156	0,108
-155,935	-99,416	0,085	-0,015
-154,920	-51,083	0,113	0,038
-153,906	800,000	-0,063	0,133
-152,891	-49,304	0,105	0,036
-151,877	-200,000	0,032	0,104
-150,862	201,069	0,012	0,013
-149,847	800,000	-0,003	0,007
-148,833	51,836	0,113	-0,078
-147,818	-200,000	0,017	0,064
-146,804	800,000	-0,022	-0,051
-145,789	63,300	0,051	0,036
-144,775	-200,000	-0,000	-0,151
-143,760	-200,000	-0,124	-0,000
-142,745	800,000	0,012	-0,030
-141,731	144,339	-0,109	-0,105
-140,716	67,915	-0,038	0,028
-139,702	-84,032	0,055	-0,012
-138,687	22,925	0,082	-0,048
-137,672	211,786	0,096	-0,110
-136,658	-200,000	-0,025	-0,150
-135,643	-111,043	-0,022	0,003
-134,629	554,785	-0,011	-0,020
-133,614	-49,074	-0,036	-0,012
-132,599	-34,183	0,028	0,011
-131,585	-4,998	-0,038	-0,019
-130,570	-85,163	0,058	0,013
-129,556	800,000	0,073	-0,213
-128,541	-200,000	-0,022	-0,123
-127,526	800,000	-0,048	-0,111
-126,512	431,434	0,047	0,073
-125,497	10,935	0,131	0,072
-124,483	800,000	-0,012	-0,035
-123,468	-200,000	0,026	-0,140
-122,453	-126,785	0,050	0,005
-121,439	-101,963	0,026	0,004
-120,424	772,853	-0,037	0,073
-119,410	67,332	0,094	-0,069
