DTS Sentinel unit serial number:	SN410029Multiplexer serial number:	ORYXHardware model number:	OX2-SRSoftware version number:	ORYX F/W v4,00 Oryx Data Collector v3.7.2.0data status	okinstallation	B5 Nyhavnadifferential loss correction	single-endedforward channel	channel 2reverse channel	N/Adate	2023/12/14time	08:27:13forward acquisition time	300,00reverse acquisition time	0,00gamma	499,1914k internal	0,3160k external	0,3160temperature offset calibration	1,0000default loss term (dB/km)	0,3820temperature slope calibration	1,0000multiplexer offset coefficient	1,0000multiplexer slope coefficient	1,0000fibre end	0,00T internal ref (°C)	7,04T ext. ref 1 (°C)	-9,16T ext. ref 2 (°C)	-9,23length (m)	temperature (°C)	Stokes	anti-Stokes-744,400	-31,131	0,158	0,065
-743,385	-114,662	-0,366	-0,051
-742,371	30,353	0,243	0,152
-741,356	-71,941	-0,296	-0,081
-740,342	55,773	0,206	0,147
-739,327	-56,618	-0,456	-0,148
-738,312	-53,971	0,238	0,079
-737,298	-142,915	-0,299	-0,021
-736,283	160,425	0,181	0,187
-735,269	-152,842	-0,234	0,012
-734,254	800,000	0,090	0,195
-733,239	18,217	-0,444	-0,260
-732,225	56,331	0,145	0,104
-731,210	71,746	-0,107	0,082
-730,196	800,000	-0,017	0,038
-729,181	276,673	0,021	0,028
-728,167	-83,987	-0,105	0,024
-727,152	-84,834	-0,050	0,011
-726,137	-46,821	-0,033	-0,012
-725,123	-108,543	-0,057	0,009
-724,108	119,078	-0,135	-0,122
-723,094	-42,029	-0,133	-0,050
-722,079	-43,586	-0,123	-0,045
-721,064	-200,000	0,000	0,074
-720,050	308,484	-0,074	-0,101
-719,035	-63,713	-0,121	-0,036
-718,021	246,955	-0,074	-0,093
-717,006	282,139	-0,086	-0,114
-715,991	147,734	-0,095	-0,094
-714,977	125,095	-0,079	-0,073
-713,962	173,284	-0,093	0,099
-712,948	93,413	-0,056	-0,047
-711,933	74,497	0,151	-0,116
-710,918	84,551	-0,083	0,067
-709,904	289,322	-0,066	0,088
-708,889	95,704	-0,025	0,021
-707,875	-136,658	-0,137	0,011
-706,860	-102,204	0,106	0,019
-705,845	166,274	-0,084	-0,087
-704,831	657,787	-0,031	0,059
-703,816	-137,964	-0,091	0,007
-702,802	-40,231	-0,098	-0,037
-701,787	300,145	-0,087	-0,119
-700,772	-200,000	-0,024	-0,126
-699,758	-200,000	0,028	-0,092
-698,743	-200,000	-0,004	0,107
-697,729	-106,527	0,044	0,007
-696,714	800,000	0,035	0,078
-695,699	340,527	-0,061	-0,088
-694,685	210,140	-0,110	-0,127
-693,670	180,229	-0,129	-0,140
-692,656	114,947	0,092	-0,083
-691,641	-200,000	0,005	0,076
-690,627	-177,894	-0,126	0,002
-689,612	393,576	-0,046	-0,071
-688,597	50,172	0,049	0,034
-687,583	-63,189	-0,010	-0,003
-686,568	-200,000	0,006	0,032
-685,554	-200,000	0,003	-0,074
-684,539	800,000	0,007	-0,018
-683,524	27,350	0,122	0,075
-682,510	-200,000	0,021	0,102
-681,495	160,103	-0,088	0,091
-680,481	800,000	0,016	-0,047
-679,466	800,000	0,022	0,046
-678,451	155,045	-0,106	-0,107
-677,437	22,803	0,056	-0,034
-676,422	315,286	0,016	0,022
-675,408	131,424	0,028	0,026
-674,393	-146,768	0,078	-0,005
-673,378	-200,000	-0,002	-0,073
-672,364	119,756	-0,042	-0,038
-671,349	114,849	-0,072	0,064
-670,335	-200,000	-0,019	0,149
-669,320	-44,550	-0,103	-0,037
-668,305	-125,942	-0,018	0,002
-667,291	19,224	0,053	-0,031
-666,276	-65,080	-0,146	-0,043
-665,262	-82,702	-0,055	0,013
-664,247	-200,000	-0,009	-0,108
-663,232	81,043	-0,063	-0,050
-662,218	800,000	-0,022	-0,049
-661,203	-86,735	0,049	0,011
-660,189	142,173	-0,064	-0,062
-659,174	-154,763	-0,137	-0,007
-658,159	133,430	0,052	0,049
-657,145	-30,115	-0,117	0,049
-656,130	391,600	-0,029	0,045
-655,116	126,780	0,054	-0,050
-654,101	507,535	-0,051	0,088
-653,086	-200,000	0,005	-0,062
-652,072	800,000	-0,065	0,141
-651,057	-200,000	-0,010	-0,159
-650,043	-200,000	0,015	-0,079
-649,028	-199,762	0,035	0,000
-648,014	94,487	0,049	-0,041
-646,999	122,571	0,097	0,089
-645,984	120,532	0,069	-0,063
-644,970	800,000	0,039	-0,106
-643,955	-173,755	-0,147	0,003
-642,941	800,000	-0,049	-0,140
-641,926	-171,738	-0,110	0,003
-640,911	-200,000	0,007	-0,071
-639,897	800,000	-0,024	0,052
-638,882	-200,000	0,002	0,068
-637,868	331,208	-0,019	-0,027
-636,853	-70,735	-0,181	-0,050
-635,838	-200,000	0,026	-0,145
-634,824	299,306	0,035	0,047
-633,809	171,842	0,077	-0,081
-632,795	153,584	0,072	0,072
-631,780	111,462	-0,107	-0,094
-630,765	-200,000	-0,022	-0,081
-629,751	-200,000	0,000	-0,009
-628,736	267,139	0,052	-0,067
-627,722	-58,045	-0,070	0,022
-626,707	-86,195	0,110	0,025
-625,692	-43,171	0,072	-0,026
-624,678	-200,000	-0,013	-0,058
-623,663	-132,016	0,089	0,008
-622,649	-64,505	-0,092	-0,027
-621,634	-200,000	-0,017	-0,057
-620,619	800,000	0,016	-0,050
-619,605	-39,294	0,044	0,017
-618,590	800,000	0,053	0,126
-617,576	-138,214	-0,090	0,007
-616,561	800,000	0,019	0,055
-615,546	-72,526	0,126	0,034
-614,532	-39,240	0,051	-0,019
-613,517	-200,000	-0,009	-0,036
-612,503	-40,316	0,094	0,036
-611,488	-100,681	0,103	0,018
-610,474	30,838	-0,037	0,023
-609,459	242,745	-0,048	-0,058
-608,444	183,894	0,067	-0,073
-607,430	320,464	-0,067	0,093
-606,415	-65,999	-0,066	0,019
-605,401	800,000	-0,027	-0,081
-604,386	-136,493	0,064	-0,005
-603,371	-15,728	0,055	-0,025
-602,357	12,873	0,051	0,029
-601,342	-171,951	-0,033	0,001
-600,328	800,000	0,024	-0,057
-599,313	172,554	-0,060	-0,064
-598,298	-12,415	-0,089	0,042
-597,284	-9,846	0,110	-0,054
-596,269	625,960	-0,078	0,145
-595,255	800,000	-0,011	-0,028
-594,240	-142,135	-0,068	0,005
-593,225	605,603	0,063	0,115
-592,211	46,150	-0,152	0,103
-591,196	525,410	0,007	0,013
-590,182	47,222	-0,076	0,051
-589,167	-60,089	0,022	-0,007
-588,152	-78,546	-0,158	0,039
-587,138	-30,886	0,033	-0,013
-586,123	-200,000	-0,042	-0,160
-585,109	800,000	0,023	-0,064
-584,094	-200,000	-0,003	-0,098
-583,079	-98,490	0,137	0,025
-582,065	-96,280	-0,021	0,004
-581,050	193,327	-0,106	0,118
-580,036	-173,090	-0,146	-0,003
-579,021	-103,516	-0,019	-0,003
-578,006	-16,066	0,075	0,035
-576,992	123,239	-0,104	0,096
-575,977	-144,964	-0,072	-0,005
-574,963	518,536	0,025	-0,043
-573,948	2,137	0,057	0,030
-572,934	40,668	-0,070	0,046
-571,919	177,472	-0,059	0,063
-570,904	-134,498	-0,086	-0,008
-569,890	298,468	0,058	0,078
-568,875	-163,755	0,045	-0,002
-567,861	85,435	-0,010	-0,008
-566,846	-200,000	0,037	0,210
-565,831	-101,589	-0,101	-0,018
-564,817	101,711	-0,054	-0,046
-563,802	87,991	0,033	0,027
-562,788	122,892	0,044	0,040
-561,773	20,474	0,081	-0,048
-560,758	-76,155	-0,021	-0,006
-559,744	113,738	-0,021	-0,019
-558,729	-200,000	-0,018	-0,083
-557,715	366,724	-0,055	0,081
-556,700	-200,000	0,008	0,049
-555,685	281,461	0,090	-0,118
-554,671	-200,000	-0,035	-0,187
-553,656	519,508	-0,014	0,024
-552,642	43,660	0,083	-0,055
-551,627	498,014	-0,023	-0,040
-550,612	709,839	-0,055	-0,106
-549,598	66,339	-0,067	0,049
-548,583	280,607	0,048	0,062
-547,569	100,730	-0,043	0,037
-546,554	30,755	0,068	-0,043
-545,539	-103,487	-0,053	-0,009
-544,525	-8,300	0,060	0,030
-543,510	272,294	-0,073	-0,094
-542,496	448,105	0,008	-0,013
-541,481	9,109	0,055	-0,030
-540,466	-37,069	-0,097	-0,038
-539,452	-200,000	0,015	-0,054
-538,437	-14,898	-0,054	0,025
-537,423	-200,000	0,037	0,149
-536,408	150,104	0,028	0,027
-535,393	-200,000	-0,010	-0,087
-534,379	456,818	-0,059	-0,096
-533,364	800,000	0,068	-0,139
-532,350	-200,000	-0,019	0,142
-531,335	27,956	-0,147	0,091
-530,321	72,308	-0,142	0,108
-529,306	-92,590	0,055	0,011
-528,291	-200,000	0,014	0,100
-527,277	-200,000	-0,004	-0,018
-526,262	-200,000	0,019	-0,083
-525,248	800,000	-0,078	0,158
-524,233	8,053	-0,144	0,079
-523,218	-35,260	-0,067	-0,026
-522,204	776,717	0,045	-0,091
-521,189	-200,000	-0,007	-0,071
-520,175	-32,286	-0,103	-0,042
-519,160	125,103	-0,064	0,059
-518,145	-200,000	-0,005	0,027
-517,131	427,459	-0,014	0,022
-516,116	-200,000	0,005	0,023
-515,102	261,395	0,012	-0,016
-514,087	130,581	-0,083	0,078
-513,072	-147,279	0,053	0,003
-512,058	-97,282	-0,133	0,025
-511,043	-20,974	0,076	0,034
-510,029	-200,000	0,006	-0,059
-509,014	-131,448	-0,040	0,004
-507,999	-18,981	0,110	-0,050
-506,985	-200,000	0,027	-0,170
-505,970	-58,555	-0,019	0,006
-504,956	119,768	-0,115	-0,104
-503,941	-200,000	-0,020	0,085
-502,926	221,934	0,080	0,094
-501,912	800,000	-0,036	-0,073
-500,897	-200,000	0,004	-0,045
-499,883	-200,000	0,019	0,078
-498,868	-57,264	-0,078	-0,025
-497,853	-37,445	0,016	-0,006
-496,839	59,353	0,125	-0,090
-495,824	88,993	0,011	0,009
-494,810	475,776	-0,046	0,076
-493,795	511,192	0,029	0,050
-492,781	20,167	-0,161	-0,094
-491,766	-144,066	-0,160	-0,011
-490,751	190,965	0,083	0,091
-489,737	79,468	0,040	-0,031
-488,722	-99,026	0,091	0,017
-487,708	-94,326	-0,165	-0,033
-486,693	-72,242	0,039	-0,011
-485,678	286,037	-0,047	0,062
-484,664	800,000	-0,051	-0,124
-483,649	-162,357	-0,118	-0,004
-482,635	800,000	-0,034	0,083
-481,620	321,759	0,084	0,118
-480,605	800,000	-0,055	0,149
-479,591	-200,000	0,028	0,092
-478,576	-200,000	-0,017	0,068
-477,562	-104,879	-0,055	0,009
-476,547	800,000	0,035	-0,078
-475,532	184,991	-0,107	0,116
-474,518	800,000	-0,007	-0,020
-473,503	-200,000	0,028	-0,141
-472,489	-66,454	-0,155	0,045
-471,474	-29,914	-0,010	0,004
-470,459	34,164	-0,163	-0,103
-469,445	-200,000	0,010	0,036
-468,430	-200,000	0,008	-0,055
-467,416	-200,000	-0,001	0,082
-466,401	-68,600	0,138	0,039
-465,386	-87,180	0,052	0,011
-464,372	124,139	-0,063	0,058
-463,357	-140,945	-0,040	-0,003
-462,343	800,000	0,011	0,028
-461,328	-49,735	-0,049	0,017
-460,313	-127,177	0,150	-0,016
-459,299	-8,610	-0,021	-0,010
-458,284	-200,000	-0,001	0,115
-457,270	-142,666	0,097	-0,007
-456,255	-200,000	-0,036	-0,129
-455,241	-97,490	0,090	0,017
-454,226	417,176	-0,065	0,101
-453,211	-200,000	0,018	0,154
-452,197	-7,253	-0,062	0,031
-451,182	-141,851	-0,078	-0,006
-450,168	-159,587	0,183	0,007
-449,153	159,678	-0,073	0,074
-448,138	64,307	-0,154	-0,113
-447,124	-200,000	-0,007	-0,030
-446,109	-200,000	0,011	0,049
-445,095	101,105	0,065	-0,055
-444,080	187,178	0,047	0,051
-443,065	-94,300	-0,117	0,023
-442,051	800,000	0,001	-0,004
-441,036	-200,000	0,001	0,067
-440,022	-139,679	-0,225	-0,017
-439,007	-31,352	-0,036	-0,015
-437,992	202,723	0,118	-0,133
-436,978	-200,000	0,011	0,113
-435,963	-200,000	-0,006	-0,109
-434,949	-124,794	-0,106	-0,012
-433,934	-21,351	0,108	-0,048
-432,919	164,033	0,129	0,133
-431,905	44,307	-0,074	0,049
-430,890	800,000	0,050	0,106
-429,876	-50,089	0,049	0,017
-428,861	-165,571	0,098	0,003
-427,846	-132,793	-0,040	0,004
-426,832	800,000	0,028	-0,068
-425,817	311,515	-0,019	0,026
-424,803	1,502	0,143	-0,075
-423,788	-200,000	0,003	-0,019
-422,773	-200,000	0,018	-0,121
-421,759	11,472	0,123	-0,068
-420,744	-64,196	0,102	0,030
-419,730	-200,000	0,026	0,143
-418,715	-200,000	0,008	-0,139
-417,701	695,037	0,038	-0,074
-416,686	99,736	0,153	0,129
-415,671	270,751	-0,082	0,105
-414,657	441,328	-0,025	0,039
-413,642	800,000	-0,020	-0,053
-412,628	800,000	-0,044	-0,121
-411,613	-94,690	-0,073	-0,014
-410,598	228,935	0,051	-0,061
-409,584	28,486	-0,022	-0,013
-408,569	697,483	-0,039	0,075
-407,555	128,125	-0,067	0,062
-406,540	-127,635	0,145	-0,015
-405,525	-200,000	0,003	-0,054
-404,511	638,710	-0,029	-0,053
-403,496	-200,000	0,005	-0,025
-402,482	-89,851	0,125	-0,026
-401,467	-68,611	0,129	0,036
-400,452	57,749	0,087	0,062
-399,438	-108,451	0,085	-0,013
-398,423	556,557	0,025	0,044
-397,409	149,529	-0,068	0,067
-396,394	-200,000	-0,022	-0,222
-395,379	-105,677	0,026	-0,004
-394,365	-3,474	-0,149	0,075
-393,350	-200,000	-0,006	0,057
-392,336	800,000	0,039	0,093
-391,321	134,070	-0,060	0,056
-390,306	-18,968	0,048	-0,021
-389,292	-185,522	-0,099	-0,001
-388,277	-17,892	-0,071	-0,032
-387,263	800,000	-0,001	-0,003
-386,248	-117,004	-0,075	0,010
-385,233	668,292	0,033	0,061
-384,219	33,857	-0,036	-0,023
-383,204	377,272	0,023	-0,035
-382,190	-32,144	-0,113	-0,046
-381,175	165,283	-0,069	-0,071
-380,160	-77,733	-0,039	-0,010
-379,146	-50,613	0,031	-0,011
-378,131	-200,000	0,009	0,079
-377,117	-200,000	0,039	-0,174
-376,102	-69,859	-0,076	-0,021
-375,088	-200,000	-0,004	0,096
-374,073	-22,495	0,193	0,084
-373,058	126,437	0,050	-0,046
-372,044	84,169	0,028	-0,022
-371,029	-127,947	0,154	-0,016
-370,015	58,938	0,050	0,035
-369,000	-81,091	0,067	0,016
-367,985	519,840	-0,049	-0,083
-366,971	-119,796	-0,172	0,021
-365,956	-200,000	-0,036	-0,130
-364,942	129,457	-0,065	0,060
-363,927	-200,000	0,013	0,068
-362,912	18,127	-0,093	0,053
-361,898	151,705	0,053	0,052
-360,883	56,367	0,043	0,030
-359,869	-46,605	-0,100	-0,035
-358,854	800,000	0,046	0,112
-357,839	-137,951	0,043	0,003
-356,825	317,671	0,078	0,107
-355,810	-200,000	0,007	0,104
-354,796	-53,018	-0,115	0,038
-353,781	43,040	-0,066	-0,044
-352,766	-138,340	-0,096	-0,008
-351,752	-133,080	-0,049	0,004
-350,737	800,000	0,041	0,092
-349,723	-15,077	-0,101	-0,047
-348,708	-24,818	-0,044	-0,019
-347,693	215,503	-0,064	0,073
-346,679	100,223	-0,036	0,030
-345,664	178,499	0,023	-0,025
-344,650	-135,672	-0,058	-0,005
-343,635	105,820	-0,029	0,025
-342,620	-200,000	-0,015	0,161
-341,606	17,829	0,129	0,075
-340,591	-142,360	-0,067	-0,005
-339,577	-22,990	0,055	0,024
-338,562	325,496	0,062	-0,086
-337,548	433,770	0,052	0,083
-336,533	800,000	-0,023	0,063
-335,518	21,874	0,031	-0,018
-334,504	62,365	-0,015	-0,011
-333,489	-71,319	-0,082	0,022
-332,475	-75,268	0,083	0,021
-331,460	-200,000	-0,012	-0,103
-330,445	800,000	0,032	-0,100
-329,431	-200,000	-0,007	-0,039
-328,416	-37,523	0,117	-0,045
-327,402	115,024	0,017	0,015
-326,387	114,488	0,066	0,058
-325,372	422,660	-0,053	-0,083
-324,358	-200,000	0,001	-0,137
-323,343	-135,497	-0,150	0,013
-322,329	414,331	0,079	-0,122
-321,314	550,209	0,131	-0,229
-320,299	-200,000	-0,008	0,099
-319,285	-200,000	-0,023	0,128
-318,270	415,475	0,032	-0,049
-317,256	276,450	0,028	-0,036
-316,241	187,871	0,046	0,050
-315,226	32,052	-0,044	0,027
-314,212	-28,033	0,020	-0,008
-313,197	156,720	0,072	0,072
-312,183	74,350	-0,049	-0,037
-311,168	-200,000	-0,006	0,059
-310,153	-200,000	0,041	-0,134
-309,139	37,566	-0,093	-0,060
-308,124	126,557	0,129	-0,118
-307,110	-172,243	-0,076	0,002
-306,095	102,556	0,122	0,103
-305,080	-200,000	-0,019	0,097
-304,066	-71,890	0,069	-0,018
-303,051	-200,000	-0,008	-0,057
-302,037	-138,410	0,069	0,005
-301,022	800,000	0,037	0,076
-300,008	-200,000	0,025	0,143
-298,993	-200,000	0,036	0,129
-297,978	-97,717	-0,062	0,011
-296,964	378,835	-0,052	0,077
-295,949	800,000	-0,023	0,058
-294,935	-200,000	-0,001	-0,092
-293,920	-126,313	0,051	-0,005
-292,905	227,663	0,081	0,095
-291,891	366,800	0,063	-0,092
-290,876	166,975	0,050	0,051
-289,862	800,000	-0,037	0,111
-288,847	800,000	0,013	-0,041
-287,832	282,268	-0,046	0,060
-286,818	-200,000	-0,010	-0,059
-285,803	15,694	-0,043	-0,024
-284,789	-200,000	-0,010	0,056
-283,774	6,064	-0,037	0,020
-282,759	800,000	-0,057	-0,118
-281,745	-200,000	0,024	-0,106
-280,730	-200,000	-0,011	-0,073
-279,716	-139,548	-0,027	0,002
-278,701	-51,626	0,082	0,028
-277,686	800,000	0,029	0,086
-276,672	119,352	0,052	0,046
-275,657	51,885	-0,082	0,056
-274,643	326,276	0,037	0,051
-273,628	-143,922	-0,132	0,009
-272,613	-200,000	0,032	-0,123
-271,599	800,000	0,030	0,061
-270,584	-200,000	-0,011	0,076
-269,570	-6,924	0,030	-0,015
-268,555	-200,000	0,006	0,050
-267,540	54,642	-0,035	-0,024
-266,526	139,804	0,088	-0,084
-265,511	174,632	0,045	0,047
-264,497	-128,287	-0,208	-0,021
-263,482	121,254	0,154	0,139
-262,467	800,000	0,033	-0,085
-261,453	-200,000	-0,000	-0,105
-260,438	-200,000	-0,002	-0,033
-259,424	409,880	0,093	0,143
-258,409	106,297	-0,099	0,085
-257,395	-162,775	0,060	0,002
-256,380	789,842	0,049	0,098
-255,365	163,692	0,105	-0,106
-254,351	360,172	0,073	-0,106
-253,336	-200,000	-0,012	0,101
-252,322	469,276	-0,012	0,020
-251,307	-200,000	0,021	0,097
-250,292	535,582	-0,055	0,095
-249,278	-28,536	0,072	0,030
-248,263	-83,057	0,127	-0,029
-247,249	800,000	0,071	-0,162
-246,234	490,192	0,029	-0,048
-245,219	800,000	0,041	-0,089
-244,205	-134,960	0,020	0,002
-243,190	699,864	-0,037	-0,071
-242,176	-1,633	0,015	0,007
-241,161	-68,829	0,095	-0,026
-240,146	-42,743	0,116	0,042
-239,132	-200,000	0,020	-0,081
-238,117	-85,912	0,120	0,027
-237,103	-200,000	0,001	-0,013
-236,088	-3,077	-0,024	-0,012
-235,073	79,237	0,152	0,118
-234,059	-44,791	-0,049	0,018
-233,044	-122,195	0,072	-0,008
-232,030	-200,000	0,000	-0,056
-231,015	800,000	-0,035	-0,101
-230,000	800,000	0,027	-0,077
-228,986	800,000	-0,022	-0,050
-227,971	-63,798	0,075	-0,022
-226,957	-200,000	0,005	0,103
-225,942	554,323	0,091	0,160
-224,927	-200,000	0,027	-0,099
-223,913	82,835	-0,017	0,014
-222,898	340,353	-0,093	-0,132
-221,884	8,834	0,054	0,029
-220,869	210,811	-0,050	-0,057
-219,855	-26,905	0,103	0,043
-218,840	-84,086	0,144	-0,033
-217,825	461,862	-0,011	-0,018
-216,811	314,311	-0,102	0,140
-215,796	721,396	-0,044	0,085
-214,782	800,000	0,035	0,107
-213,767	-160,965	-0,078	-0,003
-212,752	-7,877	-0,010	-0,005
-211,738	800,000	0,020	-0,055
-210,723	-200,000	0,018	-0,059
-209,709	800,000	-0,021	0,054
-208,694	528,892	-0,139	-0,238
-207,679	132,658	-0,030	-0,028
-206,665	113,450	0,028	0,025
-205,650	-126,858	-0,057	0,006
-204,636	-33,175	-0,077	-0,031
-203,621	171,894	-0,035	-0,036
-202,606	-200,000	-0,003	-0,047
-201,592	-113,981	0,124	-0,017
-200,577	-114,235	0,091	-0,013
-199,563	284,819	-0,082	-0,106
-198,548	-45,314	0,106	0,038
-197,533	-177,628	-0,132	-0,002
-196,519	-200,000	-0,027	0,153
-195,504	-200,000	-0,013	0,132
-194,490	-154,855	-0,168	-0,008
-193,475	800,000	-0,024	-0,058
-192,460	273,373	0,039	0,050
-191,446	-1,070	0,052	0,027
-190,431	-91,511	0,094	-0,019
-189,417	-200,000	-0,000	-0,096
-188,402	-22,480	-0,116	0,051
-187,387	-82,536	0,093	-0,022
-186,373	-167,333	-0,166	-0,005
-185,358	382,278	0,058	-0,087
-184,344	756,747	-0,089	0,174
-183,329	62,459	0,170	0,122
-182,315	128,555	-0,066	-0,060
-181,300	-200,000	0,004	-0,141
-180,285	-130,217	0,010	0,001
-179,271	800,000	0,017	0,039
-178,256	-61,745	-0,025	0,007
-177,242	-107,199	0,043	0,007
-176,227	-39,768	0,208	0,078
-175,212	800,000	0,060	-0,135
-174,198	301,114	-0,045	0,059
-173,183	-10,660	0,080	0,038
-172,169	427,595	0,016	-0,025
-171,154	668,663	-0,032	-0,060
-170,139	-200,000	-0,015	-0,120
-169,125	800,000	-0,018	0,049
-168,110	-200,000	0,010	-0,060
-167,096	81,163	-0,129	-0,101
-166,081	796,018	0,051	0,101
-165,066	-200,000	0,009	-0,135
-164,052	800,000	0,029	-0,088
-163,037	370,006	-0,023	0,034
-162,023	-50,872	-0,056	0,019
-161,008	-142,091	0,052	-0,004
-159,993	-200,000	0,007	-0,109
-158,979	-45,764	-0,161	-0,057
-157,964	244,182	0,065	-0,079
-156,950	-27,153	0,051	-0,021
-155,935	800,000	-0,011	-0,033
-154,920	414,063	0,024	-0,037
-153,906	-70,387	0,046	0,013
-152,891	-133,427	-0,042	-0,004
-151,877	800,000	-0,062	-0,179
-150,862	409,134	-0,059	-0,091
-149,847	-149,253	-0,114	-0,006
-148,833	800,000	0,057	0,116
-147,818	-200,000	-0,022	0,084
-146,804	440,959	0,110	-0,175
-145,789	80,243	0,070	-0,054
-144,775	-2,731	-0,033	-0,017
-143,760	-200,000	-0,022	-0,075
-142,745	109,591	-0,049	-0,042
-141,731	138,888	-0,141	0,133
-140,716	-200,000	0,014	-0,049
-139,702	47,978	-0,105	0,071
-138,687	-200,000	-0,018	0,074
-137,672	800,000	-0,012	0,029
-136,658	153,213	0,029	0,029
-135,643	348,713	-0,017	0,024
-134,629	-200,000	0,003	0,046
-133,614	281,776	0,043	0,056
-132,599	-145,601	0,179	0,011
-131,585	-130,311	-0,039	-0,004
-130,570	-99,933	0,139	0,025
-129,556	398,898	0,114	-0,172
-128,541	-200,000	-0,000	-0,048
-127,526	185,708	-0,135	0,145
-126,512	492,789	-0,057	0,094
-125,497	-103,392	0,042	-0,007
-124,483	-200,000	0,004	0,095
-123,468	-17,048	-0,015	0,007
-122,453	-12,546	0,045	-0,021
-121,439	-19,901	-0,181	0,080
-120,424	95,495	0,129	-0,106
