DTS Sentinel unit serial number:	SN410029Multiplexer serial number:	ORYXHardware model number:	OX2-SRSoftware version number:	ORYX F/W v4,00 Oryx Data Collector v3.7.2.0data status	okinstallation	B5 Nyhavnadifferential loss correction	single-endedforward channel	channel 2reverse channel	N/Adate	2023/12/12time	21:27:13forward acquisition time	300,00reverse acquisition time	0,00gamma	499,1914k internal	0,3158k external	0,3158temperature offset calibration	1,0000default loss term (dB/km)	0,3820temperature slope calibration	1,0000multiplexer offset coefficient	1,0000multiplexer slope coefficient	1,0000fibre end	0,00T internal ref (°C)	14,91T ext. ref 1 (°C)	-1,71T ext. ref 2 (°C)	-2,00length (m)	temperature (°C)	Stokes	anti-Stokes-744,400	-29,371	0,186	0,078
-743,385	-114,844	-0,352	0,049
-742,371	-145,592	0,240	0,016
-741,356	-106,250	-0,265	-0,043
-740,342	119,995	0,081	0,074
-739,327	-94,648	-0,277	0,055
-738,312	-200,000	0,021	-0,123
-737,298	-113,048	-0,328	-0,047
-736,283	79,190	-0,013	0,010
-735,269	-77,374	-0,198	-0,050
-734,254	-200,000	-0,008	-0,039
-733,239	-5,474	-0,462	-0,233
-732,225	-72,880	0,209	0,056
-731,210	-29,062	0,156	-0,066
-730,196	757,487	0,021	-0,041
-729,181	37,961	-0,106	-0,069
-728,167	-200,000	-0,005	-0,038
-727,152	-161,530	-0,097	0,004
-726,137	91,739	0,027	-0,023
-725,123	255,010	0,046	-0,058
-724,108	800,000	-0,062	-0,146
-723,094	-89,897	-0,055	-0,012
-722,079	-141,068	-0,161	-0,012
-721,064	-200,000	0,020	-0,145
-720,050	-200,000	-0,041	0,166
-719,035	254,765	0,062	0,079
-718,021	42,311	-0,081	-0,054
-717,006	-48,209	-0,074	0,026
-715,991	-73,697	-0,111	-0,029
-714,977	-200,000	0,022	-0,076
-713,962	-200,000	-0,033	-0,130
-712,948	755,804	-0,044	0,088
-711,933	-138,410	0,108	0,009
-710,918	800,000	-0,035	0,096
-709,904	2,469	-0,057	-0,030
-708,889	191,357	-0,014	0,015
-707,875	-63,678	0,088	-0,027
-706,860	800,000	-0,014	0,045
-705,845	-200,000	0,015	-0,099
-704,831	800,000	-0,023	-0,060
-703,816	321,686	0,059	0,083
-702,802	800,000	0,036	0,093
-701,787	74,268	-0,109	-0,084
-700,772	83,166	-0,040	-0,032
-699,758	99,895	0,015	0,013
-698,743	-149,448	0,044	0,003
-697,729	800,000	-0,029	-0,066
-696,714	-200,000	-0,000	0,051
-695,699	-163,464	0,043	-0,001
-694,685	94,871	-0,068	-0,057
-693,670	341,049	-0,096	-0,138
-692,656	56,737	-0,022	0,015
-691,641	-58,037	-0,063	0,020
-690,627	504,678	-0,035	-0,060
-689,612	-58,603	-0,025	-0,008
-688,597	41,580	0,098	0,065
-687,583	-57,897	-0,105	-0,034
-686,568	-63,398	-0,117	-0,035
-685,554	-120,788	-0,094	-0,012
-684,539	800,000	-0,044	0,094
-683,524	376,450	0,037	0,056
-682,510	71,677	-0,056	0,043
-681,495	-55,878	0,047	-0,015
-680,481	23,488	0,125	-0,075
-679,466	56,787	0,049	-0,035
-678,451	-50,833	-0,267	-0,092
-677,437	-107,383	0,103	-0,016
-676,422	800,000	0,054	0,134
-675,408	-200,000	-0,010	0,042
-674,393	800,000	-0,017	-0,046
-673,378	24,960	-0,089	-0,054
-672,364	-53,083	0,086	0,029
-671,349	280,975	-0,016	0,021
-670,335	800,000	-0,025	0,068
-669,320	463,735	0,047	-0,078
-668,305	800,000	-0,019	0,051
-667,291	-47,299	0,116	-0,041
-666,276	413,602	-0,047	-0,074
-665,262	-153,100	-0,171	0,009
-664,247	-200,000	0,006	-0,077
-663,232	-200,000	-0,028	-0,227
-662,218	-200,000	-0,024	0,135
-661,203	8,513	0,008	0,005
-660,189	48,983	0,030	-0,021
-659,174	172,991	0,006	0,007
-658,159	-200,000	-0,045	-0,149
-657,145	117,929	-0,054	0,049
-656,130	800,000	-0,010	-0,028
-655,116	608,384	0,036	-0,065
-654,101	164,653	-0,033	-0,034
-653,086	-10,230	-0,049	-0,024
-652,072	287,927	0,078	0,104
-651,057	114,897	-0,059	0,053
-650,043	44,188	-0,074	-0,050
-649,028	60,909	0,041	0,030
-648,014	-36,187	-0,092	-0,036
-646,999	-200,000	0,027	0,135
-645,984	800,000	0,012	-0,032
-644,970	-82,270	-0,082	-0,019
-643,955	-126,232	-0,159	-0,017
-642,941	-200,000	-0,012	0,045
-641,926	-29,304	-0,068	-0,029
-640,911	-114,732	0,133	0,019
-639,897	257,095	0,043	-0,054
-638,882	39,466	-0,087	0,057
-637,868	-52,061	0,058	0,020
-636,853	-112,280	-0,060	0,009
-635,838	800,000	0,024	0,074
-634,824	-5,611	0,093	0,047
-633,809	125,858	0,064	-0,060
-632,795	800,000	-0,038	0,095
-631,780	702,769	-0,037	0,072
-630,765	479,577	-0,070	-0,116
-629,751	541,712	0,078	0,136
-628,736	281,214	0,023	-0,031
-627,722	-52,263	0,002	0,001
-626,707	-56,092	-0,083	-0,027
-625,692	-200,000	0,031	-0,149
-624,678	26,942	0,089	-0,054
-623,663	-200,000	-0,021	-0,106
-622,649	148,265	-0,139	-0,138
-621,634	-58,825	-0,122	0,038
-620,619	163,993	-0,064	0,066
-619,605	711,619	-0,044	-0,086
-618,590	-47,211	0,104	0,037
-617,576	17,022	0,086	0,050
-616,561	-200,000	-0,030	-0,168
-615,546	404,534	-0,018	-0,027
-614,532	-181,323	0,041	0,001
-613,517	-136,654	0,096	-0,008
-612,503	127,134	-0,077	0,072
-611,488	-200,000	-0,023	0,076
-610,474	-57,431	-0,148	-0,047
-609,459	152,317	-0,060	0,060
-608,444	185,071	0,066	0,072
-607,430	-52,705	-0,091	-0,031
-606,415	347,947	-0,058	0,085
-605,401	216,099	0,035	0,040
-604,386	-110,329	0,030	0,005
-603,371	-96,190	-0,179	0,035
-602,357	170,860	-0,044	0,047
-601,342	-38,446	-0,054	0,021
-600,328	643,707	-0,034	-0,064
-599,313	800,000	-0,075	-0,213
-598,298	228,891	-0,026	0,031
-597,284	-200,000	0,034	0,123
-596,269	82,887	-0,096	-0,076
-595,255	-32,478	-0,041	0,017
-594,240	-165,352	-0,211	-0,007
-593,225	10,991	-0,147	-0,082
-592,211	-200,000	0,003	-0,022
-591,196	720,190	0,032	-0,064
-590,182	28,361	0,068	0,042
-589,167	-200,000	-0,005	-0,044
-588,152	515,923	0,087	0,149
-587,138	450,873	0,016	0,027
-586,123	-81,021	0,159	-0,038
-585,109	-20,033	0,070	-0,031
-584,094	-78,718	0,020	0,005
-583,079	800,000	0,054	0,148
-582,065	-47,240	-0,062	0,022
-581,050	-159,026	-0,059	0,002
-580,036	-50,569	-0,011	0,004
-579,021	-59,158	-0,119	-0,037
-578,006	69,079	0,048	-0,036
-576,992	260,224	0,024	-0,030
-575,977	362,646	-0,026	-0,039
-574,963	-156,734	0,011	-0,001
-573,948	51,818	0,032	-0,022
-572,934	369,937	0,024	0,036
-571,919	-200,000	-0,009	-0,095
-570,904	250,081	-0,115	0,144
-569,890	-200,000	-0,004	-0,096
-568,875	-18,655	0,044	0,020
-567,861	-200,000	0,011	-0,128
-566,846	-53,767	0,024	0,008
-565,831	445,396	-0,043	0,070
-564,817	-45,754	-0,109	-0,039
-563,802	234,539	-0,054	0,065
-562,788	-54,107	0,073	0,024
-561,773	800,000	-0,044	0,140
-560,758	279,542	0,046	-0,060
-559,744	-200,000	-0,041	0,177
-558,729	-200,000	-0,010	0,047
-557,715	-200,000	-0,013	-0,046
-556,700	-123,995	-0,043	0,005
-555,685	216,294	-0,060	-0,070
-554,671	-139,372	-0,062	0,005
-553,656	800,000	0,019	0,045
-552,642	637,396	-0,064	-0,119
-551,627	48,218	0,126	-0,086
-550,612	242,511	-0,032	0,040
-549,598	-200,000	-0,001	-0,108
-548,583	87,964	-0,024	-0,020
-547,569	102,226	-0,042	0,036
-546,554	274,991	-0,056	0,072
-545,539	-23,797	0,074	0,032
-544,525	49,634	-0,034	0,024
-543,510	111,893	0,093	0,082
-542,496	71,602	0,046	-0,035
-541,481	-200,000	-0,018	-0,096
-540,466	-200,000	-0,006	0,100
-539,452	-6,379	0,096	0,048
-538,437	-40,417	-0,072	0,027
-537,423	800,000	0,058	-0,139
-536,408	-200,000	0,003	-0,155
-535,393	-200,000	0,022	-0,100
-534,379	-200,000	0,003	0,026
-533,364	153,026	0,104	-0,104
-532,350	-200,000	0,005	0,056
-531,335	-6,931	-0,075	-0,037
-530,321	424,311	-0,075	0,118
-529,306	106,277	-0,096	0,083
-528,291	800,000	-0,003	-0,009
-527,277	-200,000	-0,009	0,036
-526,262	-200,000	0,001	0,041
-525,248	-98,270	-0,040	-0,007
-524,233	-200,000	-0,034	0,151
-523,218	-128,493	0,191	0,020
-522,204	-200,000	-0,020	-0,089
-521,189	484,978	-0,020	-0,033
-520,175	-200,000	-0,021	-0,076
-519,160	138,764	0,107	-0,103
-518,145	-178,132	0,085	0,001
-517,131	9,992	0,090	-0,050
-516,116	2,368	-0,060	-0,032
-515,102	-93,931	-0,171	0,034
-514,087	-140,026	-0,083	0,006
-513,072	-41,362	-0,107	-0,040
-512,058	172,965	0,089	-0,093
-511,043	800,000	0,006	-0,013
-510,029	-200,000	0,038	0,164
-509,014	286,972	0,050	0,066
-507,999	800,000	-0,017	-0,039
-506,985	-200,000	0,013	-0,152
-505,970	270,505	-0,107	0,137
-504,956	9,116	0,102	0,056
-503,941	800,000	-0,014	0,042
-502,926	525,153	-0,035	-0,060
-501,912	-200,000	-0,001	-0,025
-500,897	-200,000	-0,012	0,115
-499,883	-68,385	-0,142	0,040
-498,868	32,380	-0,063	-0,040
-497,853	334,855	0,023	0,032
-496,839	242,365	0,047	-0,058
-495,824	-200,000	-0,017	0,144
-494,810	235,554	0,089	0,108
-493,795	186,271	0,006	0,006
-492,781	-200,000	-0,025	-0,164
-491,766	-200,000	-0,017	-0,070
-490,751	-200,000	-0,000	0,080
-489,737	-100,654	0,112	-0,020
-488,722	-200,000	-0,009	0,073
-487,708	500,399	-0,061	-0,104
-486,693	-200,000	0,034	0,176
-485,678	646,048	0,014	0,027
-484,664	-68,811	0,049	0,014
-483,649	39,514	-0,080	0,052
-482,635	189,805	0,027	-0,029
-481,620	-200,000	0,035	0,114
-480,605	-200,000	-0,002	-0,005
-479,591	133,319	-0,025	0,023
-478,576	-85,819	-0,152	0,034
-477,562	800,000	0,031	-0,076
-476,547	6,818	-0,073	0,040
-475,532	-200,000	-0,032	-0,148
-474,518	-200,000	0,015	0,092
-473,503	-125,948	0,013	0,001
-472,489	-126,610	-0,138	-0,015
-471,474	-68,917	0,051	0,014
-470,459	443,450	0,072	-0,115
-469,445	-174,970	-0,115	0,002
-468,430	516,729	-0,065	-0,112
-467,416	761,480	0,050	-0,100
-466,401	411,823	0,045	0,070
-465,386	-125,389	0,162	-0,018
-464,372	224,798	-0,027	0,032
-463,357	9,518	0,176	0,097
-462,343	367,694	-0,022	-0,033
-461,328	800,000	0,043	-0,104
-460,313	-200,000	-0,022	0,098
-459,299	0,671	0,042	-0,022
-458,284	-176,030	-0,134	0,003
-457,270	800,000	0,032	0,069
-456,255	-57,206	-0,239	-0,076
-455,241	404,289	-0,062	-0,095
-454,226	86,710	-0,095	-0,076
-453,211	176,710	0,085	-0,090
-452,197	16,381	0,060	-0,035
-451,182	145,081	0,108	0,105
-450,168	800,000	-0,035	-0,089
-449,153	-107,279	-0,189	0,030
-448,138	163,962	0,130	0,133
-447,124	-112,916	-0,066	-0,009
-446,109	339,933	-0,032	0,046
-445,095	180,203	0,084	0,090
-444,080	-69,750	0,047	-0,013
-443,065	272,868	0,043	0,056
-442,051	-36,959	-0,117	-0,045
-441,036	-200,000	-0,001	-0,221
-440,022	-72,239	0,089	0,024
-439,007	-74,954	0,050	-0,013
-437,992	316,087	0,009	0,013
-436,978	-87,588	0,131	0,029
-435,963	-200,000	-0,007	0,055
-434,949	-129,541	-0,068	0,007
-433,934	455,361	0,043	0,070
-432,919	-84,083	-0,068	0,016
-431,905	28,754	0,093	0,057
-430,890	6,486	0,172	0,093
-429,876	-109,402	-0,095	0,015
-428,861	-8,428	0,112	0,054
-427,846	113,886	0,048	0,043
-426,832	-23,385	-0,093	0,041
-425,817	434,526	0,056	0,089
-424,803	128,930	0,101	0,094
-423,788	545,264	0,041	-0,071
-422,773	259,140	0,121	-0,152
-421,759	800,000	-0,011	0,028
-420,744	-112,695	-0,079	0,011
-419,730	-200,000	-0,027	0,093
-418,715	-146,704	-0,105	0,007
-417,701	-200,000	0,012	-0,047
-416,686	-200,000	-0,002	0,026
-415,671	12,939	0,122	0,069
-414,657	-8,914	-0,157	-0,076
-413,642	-200,000	0,002	0,056
-412,628	-26,384	0,062	-0,026
-411,613	118,942	0,097	-0,087
-410,598	-50,143	0,032	0,011
-409,584	800,000	0,053	0,149
-408,569	-65,336	0,130	-0,038
-407,555	-100,189	-0,126	0,023
-406,540	372,152	0,035	0,052
-405,525	209,965	0,110	-0,126
-404,511	-129,681	-0,125	0,012
-403,496	223,130	0,004	-0,004
-402,482	800,000	0,018	-0,053
-401,467	-43,300	0,113	-0,041
-400,452	-72,708	0,110	-0,029
-399,438	800,000	0,032	-0,077
-398,423	141,296	0,068	0,066
-397,409	117,385	-0,056	0,050
-396,394	-139,259	-0,150	0,012
-395,379	271,983	0,089	-0,114
-394,365	800,000	-0,057	0,128
-393,350	-104,393	-0,064	0,011
-392,336	-200,000	0,014	0,047
-391,321	266,643	-0,024	-0,030
-390,306	-87,292	0,082	-0,018
-389,292	185,716	-0,035	0,038
-388,277	-129,143	0,057	0,006
-387,263	11,663	0,120	0,067
-386,248	800,000	-0,012	-0,028
-385,233	800,000	-0,025	-0,066
-384,219	-200,000	-0,015	0,152
-383,204	-34,387	-0,048	-0,019
-382,190	378,389	-0,050	-0,074
-381,175	-22,048	-0,042	0,019
-380,160	48,736	0,115	0,078
-379,146	214,703	-0,025	0,029
-378,131	-47,343	0,162	0,057
-377,117	-200,000	0,009	0,173
-376,102	-200,000	-0,029	-0,116
-375,088	146,731	-0,045	-0,044
-374,073	800,000	0,034	0,081
-373,058	55,867	0,032	0,022
-372,044	115,402	0,089	0,079
-371,029	-20,177	0,064	0,029
-370,015	-129,055	-0,099	-0,010
-369,000	-178,268	-0,036	-0,001
-367,985	-200,000	-0,001	-0,023
-366,971	800,000	-0,013	-0,033
-365,956	800,000	0,001	-0,003
-364,942	-19,417	0,089	0,040
-363,927	-200,000	-0,019	0,083
-362,912	-48,947	0,107	-0,037
-361,898	216,013	0,063	-0,073
-360,883	493,195	0,052	-0,086
-359,869	154,233	0,080	-0,079
-358,854	-169,858	-0,082	0,002
-357,839	17,322	0,100	0,057
-356,825	-3,051	0,062	0,032
-355,810	-139,337	0,178	-0,014
-354,796	-200,000	-0,017	-0,198
-353,781	800,000	0,065	-0,152
-352,766	-80,357	-0,167	0,040
-351,752	58,878	-0,029	-0,021
-350,737	-122,503	0,101	0,012
-349,723	800,000	0,015	-0,049
-348,708	344,870	-0,022	-0,031
-347,693	-200,000	-0,024	0,152
-346,679	41,813	-0,254	-0,167
-345,664	-200,000	-0,047	-0,166
-344,650	-25,853	-0,160	-0,068
-343,635	800,000	0,041	-0,098
-342,620	149,811	0,115	0,113
-341,606	535,189	0,017	-0,030
-340,591	-200,000	0,028	0,134
-339,577	222,616	0,068	-0,080
-338,562	-200,000	-0,012	-0,137
-337,548	-200,000	0,020	0,083
-336,533	-38,134	0,038	0,015
-335,518	-1,518	0,080	-0,041
-334,504	800,000	-0,038	-0,118
-333,489	-200,000	0,013	0,079
-332,475	19,576	-0,101	-0,059
-331,460	123,893	-0,080	-0,073
-330,445	-200,000	0,013	0,154
-329,431	71,194	0,037	0,028
-328,416	-200,000	0,023	0,079
-327,402	50,402	-0,071	0,048
-326,387	-84,842	0,121	0,027
-325,372	119,559	-0,057	0,052
-324,358	-60,646	0,185	0,056
-323,343	-85,512	-0,165	0,037
-322,329	93,954	0,071	-0,058
-321,314	457,543	-0,037	-0,059
-320,299	800,000	-0,010	0,022
-319,285	25,070	-0,145	0,087
-318,270	-131,140	-0,053	0,005
-317,256	800,000	-0,013	0,027
-316,241	-200,000	-0,003	0,052
-315,226	-195,908	0,123	-0,001
-314,212	-90,813	-0,054	-0,011
-313,197	68,092	0,097	-0,072
-312,183	-1,982	0,088	0,045
-311,168	-200,000	-0,006	0,145
-310,153	-72,780	0,077	0,020
-309,139	26,210	0,078	0,047
-308,124	-106,686	0,038	-0,006
-307,110	-165,342	0,146	0,005
-306,095	-200,000	-0,011	0,055
-305,080	19,500	0,006	-0,004
-304,066	-10,480	0,085	0,041
-303,051	-58,061	0,071	-0,022
-302,037	-25,132	-0,071	0,030
-301,022	-107,494	-0,061	-0,010
-300,008	-26,715	-0,050	-0,021
-298,993	-74,930	-0,105	-0,027
-297,978	-169,179	-0,055	0,001
-296,964	350,963	-0,082	0,117
-295,949	118,712	0,075	0,068
-294,935	-51,213	-0,094	0,032
-293,920	313,632	-0,020	0,028
-292,905	800,000	-0,019	-0,048
-291,891	-200,000	0,027	0,134
-290,876	0,362	-0,045	-0,023
-289,862	143,005	0,064	0,062
-288,847	-200,000	0,014	-0,068
-287,832	392,979	-0,039	0,059
-286,818	800,000	-0,031	-0,082
-285,803	800,000	0,007	0,015
-284,789	-200,000	0,005	0,072
-283,774	760,305	-0,015	0,030
-282,759	800,000	0,033	0,072
-281,745	-200,000	-0,021	-0,084
-280,730	-200,000	-0,016	-0,141
-279,716	760,781	-0,071	0,139
-278,701	493,105	0,071	0,118
-277,686	-80,379	-0,077	-0,018
-276,672	0,775	0,077	0,040
-275,657	-0,589	-0,098	0,050
-274,643	-65,193	-0,107	0,031
-273,628	-200,000	-0,025	-0,097
-272,613	74,708	0,020	0,015
-271,599	261,080	0,041	0,052
-270,584	800,000	0,080	0,169
-269,570	-33,877	-0,068	0,027
-268,555	800,000	0,014	-0,039
-267,540	800,000	-0,032	-0,084
-266,526	11,857	-0,076	-0,042
-265,511	-95,858	-0,087	0,017
-264,497	-69,106	-0,098	0,027
-263,482	-12,587	0,172	-0,081
-262,467	-200,000	-0,034	-0,151
-261,453	129,659	0,091	-0,084
-260,438	-165,673	0,068	0,002
-259,424	486,749	0,070	-0,115
-258,409	4,694	0,047	-0,025
-257,395	-200,000	0,034	-0,138
-256,380	653,204	0,072	-0,134
-255,365	-45,661	0,128	-0,045
-254,351	-200,000	-0,002	-0,016
-253,336	-200,000	-0,018	-0,067
-252,322	77,139	0,166	-0,128
-251,307	-183,429	-0,127	0,002
-250,292	-200,000	0,007	0,033
-249,278	-200,000	0,024	0,183
-248,263	158,323	0,125	0,125
-247,249	-200,000	0,001	0,094
-246,234	-96,740	-0,106	-0,020
-245,219	43,725	-0,037	0,024
-244,205	-200,000	-0,004	0,030
-243,190	-39,594	-0,074	0,028
-242,176	-200,000	-0,047	-0,231
-241,161	-108,628	-0,072	-0,011
-240,146	-200,000	0,000	0,137
-239,132	-31,432	-0,072	-0,029
-238,117	-100,191	-0,105	0,019
-237,103	-200,000	0,014	-0,105
-236,088	-115,174	-0,055	-0,007
-235,073	493,741	0,068	0,113
-234,059	29,488	-0,032	-0,020
-233,044	77,659	0,067	0,051
-232,030	-200,000	-0,003	-0,061
-231,015	-105,379	-0,175	-0,028
-230,000	423,851	0,060	0,094
-228,986	143,776	-0,082	-0,079
-227,971	6,782	-0,054	-0,029
-226,957	3,443	0,139	0,073
-225,942	-200,000	-0,009	-0,053
-224,927	-17,021	0,026	-0,012
-223,913	-200,000	-0,012	-0,115
-222,898	800,000	0,051	-0,148
-221,884	282,451	0,053	0,069
-220,869	735,703	0,026	0,051
-219,855	75,896	-0,036	0,027
-218,840	86,193	-0,055	0,043
-217,825	28,783	-0,026	0,016
-216,811	4,063	-0,216	-0,114
-215,796	35,104	-0,107	-0,067
-214,782	-141,618	0,111	0,008
-213,767	-71,683	-0,039	-0,010
-212,752	-49,440	-0,071	-0,024
-211,738	-200,000	-0,020	0,078
-210,723	-116,266	-0,044	-0,006
-209,709	800,000	-0,024	0,067
-208,694	240,055	0,086	-0,103
-207,679	800,000	-0,079	-0,182
-206,665	22,937	-0,033	0,020
-205,650	-179,836	0,081	0,001
-204,636	-74,844	-0,031	-0,008
-203,621	-200,000	-0,026	-0,133
-202,606	11,968	-0,085	0,047
-201,592	312,030	0,047	-0,064
-200,577	800,000	-0,043	-0,088
-199,563	42,663	0,041	-0,027
-198,548	9,095	0,046	0,025
-197,533	23,869	-0,105	-0,062
-196,519	800,000	-0,022	0,050
-195,504	-200,000	0,006	0,065
-194,490	1,822	0,055	0,028
-193,475	29,780	-0,093	-0,057
-192,460	-49,700	-0,082	0,028
-191,446	125,776	0,098	0,089
-190,431	-200,000	0,015	0,068
-189,417	314,748	-0,003	0,004
-188,402	800,000	-0,067	-0,155
-187,387	174,868	0,087	0,091
-186,373	19,577	-0,110	-0,064
-185,358	69,544	0,056	-0,042
-184,344	205,166	0,032	-0,036
-183,329	613,324	0,064	0,117
-182,315	-114,189	0,116	0,016
-181,300	-34,744	-0,071	-0,028
-180,285	507,816	0,035	-0,059
-179,271	366,021	-0,012	-0,018
-178,256	-120,977	-0,093	-0,011
-177,242	-127,137	0,094	-0,010
-176,227	-10,337	0,121	-0,058
-175,212	-200,000	0,041	-0,136
-174,198	-78,421	-0,071	0,018
-173,183	-135,508	0,013	0,001
-172,169	-32,199	0,069	0,028
-171,154	351,241	0,098	-0,140
-170,139	-120,733	0,110	0,013
-169,125	-28,835	0,140	0,058
-168,110	-4,365	0,071	0,035
-167,096	-10,501	0,054	0,026
-166,081	-59,145	0,069	0,021
-165,066	-150,690	-0,139	0,007
-164,052	800,000	0,017	0,054
-163,037	-64,109	0,102	0,030
-162,023	90,410	0,041	-0,033
-161,008	608,410	-0,037	-0,066
-159,993	-56,842	0,077	0,024
-158,979	800,000	-0,022	0,052
-157,964	800,000	-0,079	-0,160
-156,950	250,529	-0,031	-0,038
-155,935	-60,970	0,059	0,018
-154,920	-200,000	-0,033	0,127
-153,906	-5,816	0,129	0,064
-152,891	-58,358	-0,113	-0,035
-151,877	-80,271	-0,034	0,008
-150,862	-200,000	-0,000	-0,142
-149,847	800,000	-0,052	-0,144
-148,833	-33,666	-0,074	0,029
-147,818	-18,008	0,066	-0,030
-146,804	-200,000	-0,002	0,023
-145,789	100,435	0,059	-0,050
-144,775	-52,609	-0,005	0,002
-143,760	-200,000	0,002	-0,128
-142,745	-160,764	-0,197	0,007
-141,731	-74,659	0,074	0,019
-140,716	-200,000	-0,002	-0,040
-139,702	-66,525	0,059	0,017
-138,687	-106,462	-0,127	-0,020
-137,672	-118,164	-0,155	0,020
-136,658	-200,000	0,005	-0,055
-135,643	256,311	0,043	-0,054
-134,629	80,438	-0,099	0,076
-133,614	-77,396	-0,053	0,013
-132,599	194,779	-0,023	0,025
-131,585	-200,000	0,021	-0,111
-130,570	421,648	0,074	0,114
-129,556	-36,952	-0,181	-0,069
-128,541	-200,000	0,003	-0,081
-127,526	800,000	-0,061	-0,158
-126,512	-200,000	0,017	-0,076
-125,497	43,156	0,041	0,027
-124,483	-200,000	0,001	-0,081
-123,468	-200,000	0,024	-0,151
-122,453	-200,000	0,002	0,066
-121,439	354,518	0,023	-0,033
-120,424	72,004	-0,097	-0,072
-119,410	13,302	0,067	0,037
-118,395	-100,684	-0,025	0,004
