DTS Sentinel unit serial number:	SN410029Multiplexer serial number:	ORYXHardware model number:	OX2-SRSoftware version number:	ORYX F/W v4,00 Oryx Data Collector v3.7.2.0data status	okinstallation	B5 Nyhavnadifferential loss correction	single-endedforward channel	channel 2reverse channel	N/Adate	2023/12/12time	10:02:13forward acquisition time	300,00reverse acquisition time	0,00gamma	499,1914k internal	0,3158k external	0,3158temperature offset calibration	1,0000default loss term (dB/km)	0,3820temperature slope calibration	1,0000multiplexer offset coefficient	1,0000multiplexer slope coefficient	1,0000fibre end	0,00T internal ref (°C)	15,00T ext. ref 1 (°C)	-1,30T ext. ref 2 (°C)	-1,60length (m)	temperature (°C)	Stokes	anti-Stokes-744,400	715,619	0,059	0,117
-743,385	-98,920	-0,247	0,046
-742,371	-114,841	0,200	0,028
-741,356	-93,737	-0,195	-0,039
-740,342	50,974	0,123	0,086
-739,327	-96,402	-0,423	-0,082
-738,312	800,000	0,063	0,139
-737,298	-155,496	-0,335	0,016
-736,283	58,602	0,052	-0,037
-735,269	-91,525	-0,414	0,086
-734,254	93,023	0,099	0,082
-733,239	2,642	-0,388	-0,207
-732,225	-104,968	0,301	-0,050
-731,210	-55,685	0,167	-0,055
-730,196	26,005	-0,047	0,029
-729,181	677,468	0,061	0,117
-728,167	-134,530	-0,141	-0,013
-727,152	-117,628	-0,187	-0,025
-726,137	74,090	-0,080	0,062
-725,123	505,261	-0,104	0,179
-724,108	77,189	-0,041	-0,032
-723,094	162,637	-0,025	0,026
-722,079	-29,027	-0,142	-0,060
-721,064	-200,000	0,032	-0,148
-720,050	-200,000	-0,011	0,038
-719,035	-24,441	-0,169	0,074
-718,021	800,000	-0,018	-0,045
-717,006	-200,000	0,032	-0,178
-715,991	169,118	-0,127	-0,133
-714,977	800,000	-0,012	0,026
-713,962	12,406	-0,090	-0,051
-712,948	-19,840	0,150	-0,068
-711,933	-194,769	-0,139	-0,001
-710,918	-66,775	-0,153	-0,044
-709,904	-200,000	-0,004	-0,186
-708,889	59,085	-0,045	0,032
-707,875	-21,344	-0,063	0,028
-706,860	65,321	-0,055	0,041
-705,845	-123,837	-0,189	0,022
-704,831	-200,000	-0,005	0,057
-703,816	800,000	-0,020	-0,048
-702,802	800,000	-0,014	0,029
-701,787	-95,730	-0,079	-0,015
-700,772	-200,000	-0,002	-0,089
-699,758	215,024	-0,029	-0,033
-698,743	-96,620	0,212	-0,041
-697,729	2,934	-0,043	0,023
-696,714	-26,885	-0,058	0,025
-695,699	126,001	-0,084	-0,078
-694,685	-122,149	-0,080	0,010
-693,670	329,189	0,066	-0,094
-692,656	800,000	-0,062	0,143
-691,641	800,000	0,024	0,051
-690,627	-147,247	0,135	-0,008
-689,612	-106,026	-0,073	-0,012
-688,597	307,289	-0,087	-0,119
-687,583	-142,492	-0,187	-0,013
-686,568	441,939	-0,099	-0,161
-685,554	123,650	-0,068	-0,062
-684,539	122,552	0,042	-0,038
-683,524	-200,000	-0,005	0,065
-682,510	457,681	-0,035	0,058
-681,495	-15,453	-0,076	-0,036
-680,481	576,049	-0,040	-0,072
-679,466	-23,372	-0,063	-0,028
-678,451	-167,045	-0,132	-0,004
-677,437	324,319	-0,030	-0,043
-676,422	-172,577	0,158	0,004
-675,408	414,326	0,046	-0,072
-674,393	546,628	0,074	-0,131
-673,378	-97,558	-0,023	-0,004
-672,364	431,950	-0,093	-0,149
-671,349	800,000	-0,022	0,067
-670,335	-88,384	0,019	0,004
-669,320	167,235	0,046	0,048
-668,305	-10,991	-0,031	-0,015
-667,291	-25,829	-0,110	0,047
-666,276	307,730	-0,062	0,085
-665,262	-27,499	0,065	-0,027
-664,247	278,764	-0,101	-0,133
-663,232	-200,000	-0,025	-0,098
-662,218	-200,000	-0,008	-0,072
-661,203	-81,711	-0,079	-0,019
-660,189	70,561	-0,077	0,058
-659,174	-200,000	-0,004	-0,077
-658,159	26,888	-0,173	0,106
-657,145	-200,000	0,007	0,050
-656,130	383,736	0,031	0,046
-655,116	-21,566	0,047	0,021
-654,101	-200,000	0,011	0,135
-653,086	-143,992	-0,163	0,011
-652,072	-154,821	0,027	-0,001
-651,057	-200,000	-0,018	0,067
-650,043	800,000	-0,078	-0,209
-649,028	327,175	-0,054	-0,077
-648,014	-65,629	0,158	-0,046
-646,999	319,609	-0,032	0,044
-645,984	-24,643	-0,052	0,023
-644,970	800,000	0,033	0,098
-643,955	800,000	0,059	-0,133
-642,941	800,000	-0,008	0,023
-641,926	-200,000	0,002	-0,147
-640,911	-200,000	0,014	0,127
-639,897	-30,867	-0,046	-0,019
-638,882	-71,765	0,049	0,013
-637,868	-200,000	0,017	-0,122
-636,853	-96,787	-0,220	-0,042
-635,838	607,619	0,065	0,119
-634,824	800,000	-0,053	-0,129
-633,809	39,426	-0,051	-0,034
-632,795	102,104	0,110	-0,094
-631,780	800,000	0,031	-0,067
-630,765	123,819	0,039	-0,036
-629,751	-54,135	-0,102	0,034
-628,736	146,413	-0,125	-0,124
-627,722	-123,070	-0,111	0,013
-626,707	242,220	-0,011	-0,014
-625,692	-145,676	0,140	-0,009
-624,678	-200,000	0,034	0,147
-623,663	800,000	0,053	0,161
-622,649	465,503	-0,104	-0,171
-621,634	223,805	0,064	-0,076
-620,619	456,477	-0,048	-0,079
-619,605	-200,000	0,011	-0,052
-618,590	800,000	0,011	0,029
-617,576	-200,000	-0,012	-0,132
-616,561	574,079	-0,077	0,138
-615,546	95,543	-0,038	-0,032
-614,532	323,882	-0,061	-0,086
-613,517	800,000	-0,068	0,160
-612,503	-200,000	0,011	0,064
-611,488	-200,000	0,029	-0,167
-610,474	-10,968	0,050	-0,024
-609,459	-92,355	-0,225	-0,046
-608,444	35,986	-0,042	-0,027
-607,430	299,256	0,044	0,060
-606,415	-77,587	-0,117	-0,029
-605,401	6,783	-0,020	-0,011
-604,386	-165,026	0,021	-0,001
-603,371	800,000	0,022	0,053
-602,357	-153,710	0,125	-0,006
-601,342	70,404	-0,136	0,103
-600,328	-200,000	0,014	0,084
-599,313	-6,086	0,088	-0,044
-598,298	32,778	0,061	-0,038
-597,284	113,808	-0,064	-0,057
-596,269	50,934	-0,016	0,011
-595,255	451,363	0,052	-0,085
-594,240	-62,837	-0,079	-0,024
-593,225	23,822	0,005	-0,003
-592,211	800,000	-0,056	-0,169
-591,196	148,647	-0,082	0,081
-590,182	-158,470	0,088	0,004
-589,167	-200,000	0,009	0,191
-588,152	-200,000	0,019	0,070
-587,138	369,267	-0,064	0,096
-586,123	-1,778	-0,093	0,048
-585,109	-200,000	0,001	-0,054
-584,094	-200,000	-0,009	-0,067
-583,079	200,420	0,091	0,103
-582,065	-200,000	-0,010	-0,104
-581,050	-200,000	0,005	0,157
-580,036	-200,000	0,003	-0,073
-579,021	-200,000	-0,029	0,121
-578,006	-200,000	0,009	-0,137
-576,992	246,427	-0,126	-0,156
-575,977	-44,010	0,115	0,042
-574,963	-200,000	-0,002	0,032
-573,948	-110,104	-0,032	-0,005
-572,934	-104,887	0,140	-0,023
-571,919	285,864	0,034	-0,045
-570,904	-200,000	-0,006	0,022
-569,890	26,283	0,102	-0,062
-568,875	800,000	-0,015	0,040
-567,861	517,989	-0,041	0,070
-566,846	-57,085	-0,139	0,045
-565,831	31,484	0,059	0,037
-564,817	244,793	-0,016	0,019
-563,802	-71,791	-0,208	-0,056
-562,788	-200,000	-0,003	-0,013
-561,773	91,408	0,069	0,057
-560,758	45,441	0,082	0,055
-559,744	5,783	0,101	-0,055
-558,729	-177,162	-0,072	-0,001
-557,715	128,104	0,065	-0,061
-556,700	195,937	-0,023	-0,026
-555,685	-14,992	-0,115	0,054
-554,671	-86,237	0,085	0,019
-553,656	305,598	-0,040	0,055
-552,642	572,291	0,031	0,055
-551,627	303,623	0,034	0,047
-550,612	800,000	0,051	-0,145
-549,598	26,694	-0,033	0,020
-548,583	-7,882	-0,100	0,049
-547,569	800,000	-0,037	-0,078
-546,554	-200,000	0,026	0,132
-545,539	800,000	-0,030	0,075
-544,525	171,155	0,057	0,060
-543,510	-61,055	0,079	0,024
-542,496	800,000	0,036	0,088
-541,481	-200,000	0,032	-0,128
-540,466	165,901	-0,092	-0,096
-539,452	-72,841	0,087	-0,023
-538,437	88,984	-0,099	0,081
-537,423	-174,795	0,101	0,002
-536,408	-15,242	-0,111	0,052
-535,393	53,585	-0,045	0,032
-534,379	-200,000	-0,027	-0,092
-533,364	71,343	-0,046	-0,035
-532,350	250,715	-0,058	0,072
-531,335	73,450	0,022	-0,017
-530,321	800,000	-0,042	0,112
-529,306	415,789	-0,067	0,105
-528,291	289,116	0,036	0,048
-527,277	57,781	-0,071	-0,051
-526,262	800,000	-0,009	-0,022
-525,248	135,589	0,057	-0,054
-524,233	29,521	0,061	-0,038
-523,218	-90,995	0,158	0,033
-522,204	-148,419	-0,030	0,002
-521,189	39,819	0,138	-0,090
-520,175	214,004	-0,046	0,053
-519,160	102,261	-0,089	0,076
-518,145	157,552	0,026	-0,026
-517,131	-200,000	0,005	0,065
-516,116	775,974	0,025	-0,050
-515,102	800,000	-0,018	-0,040
-514,087	-92,908	-0,123	0,025
-513,072	800,000	0,046	-0,119
-512,058	-200,000	0,005	-0,079
-511,043	-4,112	0,131	-0,066
-510,029	323,737	-0,081	0,113
-509,014	-200,000	0,010	0,146
-507,999	-200,000	-0,017	0,095
-506,985	351,919	0,094	-0,137
-505,970	203,111	-0,076	-0,086
-504,956	-200,000	-0,002	0,026
-503,941	13,440	0,040	-0,022
-502,926	157,113	0,023	0,023
-501,912	800,000	-0,021	0,062
-500,897	227,430	-0,060	-0,072
-499,883	800,000	-0,027	-0,086
-498,868	-84,074	-0,113	-0,026
-497,853	144,051	-0,124	-0,120
-496,839	75,952	0,082	0,063
-495,824	800,000	-0,034	0,089
-494,810	-132,103	-0,054	0,005
-493,795	-200,000	0,001	-0,039
-492,781	-200,000	-0,011	0,224
-491,766	-7,221	-0,086	0,042
-490,751	53,224	0,043	0,030
-489,737	-105,317	0,017	0,003
-488,722	-200,000	-0,014	-0,057
-487,708	-200,000	0,011	-0,076
-486,693	556,130	-0,064	0,113
-485,678	-200,000	0,032	0,114
-484,664	126,927	0,037	-0,034
-483,649	-55,105	0,039	0,013
-482,635	800,000	0,070	-0,153
-481,620	-200,000	-0,000	-0,099
-480,605	-69,927	-0,050	0,014
-479,591	-134,548	-0,010	-0,001
-478,576	-9,882	-0,075	0,036
-477,562	-200,000	0,007	0,022
-476,547	468,441	0,054	-0,090
-475,532	56,749	0,023	-0,017
-474,518	112,217	0,102	-0,090
-473,503	-200,000	0,024	-0,110
-472,489	-200,000	-0,006	0,042
-471,474	449,272	0,058	-0,094
-470,459	108,586	-0,058	-0,050
-469,445	-91,061	-0,036	0,007
-468,430	-200,000	0,000	-0,116
-467,416	234,471	-0,088	0,106
-466,401	-200,000	0,000	0,061
-465,386	-78,852	-0,046	-0,011
-464,372	800,000	0,052	0,114
-463,357	62,070	0,085	0,062
-462,343	68,401	-0,012	-0,009
-461,328	800,000	0,032	-0,098
-460,313	59,272	0,098	0,070
-459,299	516,172	0,124	0,212
-458,284	29,866	-0,073	0,045
-457,270	-101,341	-0,213	-0,037
-456,255	271,542	-0,078	-0,101
-455,241	295,860	-0,014	-0,018
-454,226	-200,000	-0,001	-0,025
-453,211	-200,000	0,016	0,061
-452,197	-1,166	0,043	-0,022
-451,182	800,000	0,005	0,014
-450,168	800,000	-0,022	0,045
-449,153	31,386	-0,128	-0,080
-448,138	12,682	0,044	-0,025
-447,124	800,000	0,027	0,070
-446,109	57,331	-0,076	0,054
-445,095	-24,522	-0,038	-0,016
-444,080	-200,000	0,011	-0,095
-443,065	-200,000	0,003	-0,040
-442,051	103,976	-0,099	-0,085
-441,036	-141,367	0,014	0,001
-440,022	228,254	-0,078	0,092
-439,007	612,331	0,040	0,074
-437,992	-125,139	0,077	-0,009
-436,978	-200,000	-0,002	-0,048
-435,963	130,828	0,120	0,113
-434,949	55,280	0,099	-0,069
-433,934	134,204	-0,080	-0,075
-432,919	614,758	0,020	0,036
-431,905	41,355	0,078	-0,051
-430,890	-200,000	-0,014	0,216
-429,876	21,291	-0,137	0,081
-428,861	-127,081	-0,018	-0,002
-427,846	5,379	-0,187	-0,100
-426,832	324,062	-0,004	0,005
-425,817	800,000	-0,034	0,088
-424,803	373,818	0,124	-0,184
-423,788	409,340	-0,025	0,038
-422,773	800,000	-0,061	0,182
-421,759	-200,000	-0,035	0,176
-420,744	-19,305	-0,040	-0,018
-419,730	-16,339	-0,038	0,017
-418,715	-85,778	-0,118	0,026
-417,701	-178,201	-0,070	0,001
-416,686	-60,051	0,064	-0,020
-415,671	-200,000	-0,010	0,057
-414,657	-200,000	-0,017	-0,118
-413,642	-41,259	-0,185	0,069
-412,628	-200,000	-0,017	-0,076
-411,613	350,275	-0,057	-0,083
-410,598	-10,832	0,040	0,019
-409,584	474,287	-0,029	-0,048
-408,569	-16,022	-0,073	0,034
-407,555	-135,063	0,110	-0,010
-406,540	512,095	-0,049	-0,083
-405,525	-48,728	-0,203	0,070
-404,511	106,610	0,065	0,056
-403,496	-43,269	-0,128	-0,047
-402,482	775,303	-0,024	0,049
-401,467	-55,955	-0,060	-0,019
-400,452	-24,184	0,128	-0,055
-399,438	800,000	-0,037	0,104
-398,423	-41,801	-0,075	0,028
-397,409	-200,000	-0,020	-0,121
-396,394	-200,000	-0,012	0,072
-395,379	-110,102	-0,088	-0,013
-394,365	-200,000	-0,003	0,070
-393,350	362,939	0,077	0,113
-392,336	-141,706	-0,128	0,009
-391,321	-200,000	-0,018	-0,071
-390,306	-200,000	-0,013	-0,066
-389,292	542,444	-0,046	-0,081
-388,277	-200,000	0,035	-0,165
-387,263	-83,956	-0,043	-0,010
-386,248	483,528	0,024	-0,040
-385,233	67,653	-0,053	0,039
-384,219	800,000	0,065	0,161
-383,204	484,828	-0,022	0,037
-382,190	800,000	0,049	-0,120
-381,175	-200,000	-0,005	0,141
-380,160	437,561	0,026	0,041
-379,146	160,470	-0,069	0,070
-378,131	-31,013	0,052	0,021
-377,117	-11,515	-0,142	0,067
-376,102	-23,386	0,055	-0,024
-375,088	-200,000	-0,008	0,041
-374,073	-162,813	0,052	-0,002
-373,058	-200,000	0,001	0,062
-372,044	-100,882	0,137	-0,024
-371,029	-95,936	0,181	-0,035
-370,015	-52,083	0,082	-0,027
-369,000	-13,565	-0,056	-0,026
-367,985	61,166	0,087	-0,062
-366,971	13,201	0,094	0,053
-365,956	-48,804	-0,072	0,025
-364,942	122,637	0,056	0,051
-363,927	75,949	-0,055	-0,043
-362,912	334,528	-0,049	0,069
-361,898	800,000	-0,007	-0,020
-360,883	399,049	0,055	-0,084
-359,869	800,000	-0,034	-0,079
-358,854	58,103	0,068	-0,049
-357,839	-200,000	-0,033	0,126
-356,825	-200,000	0,021	0,073
-355,810	158,765	-0,047	0,047
-354,796	-123,347	-0,096	-0,011
-353,781	491,289	-0,017	0,028
-352,766	-200,000	-0,004	-0,015
-351,752	450,097	0,040	0,064
-350,737	-200,000	-0,003	0,061
-349,723	-200,000	-0,033	-0,127
-348,708	-21,927	0,050	-0,022
-347,693	-200,000	0,002	0,026
-346,679	195,159	-0,023	0,026
-345,664	-114,897	0,023	-0,003
-344,650	-33,861	-0,037	0,015
-343,635	-200,000	-0,021	0,074
-342,620	-200,000	0,001	-0,036
-341,606	-10,132	0,048	0,023
-340,591	-10,192	-0,124	-0,060
-339,577	30,450	-0,095	-0,059
-338,562	-200,000	0,004	0,086
-337,548	800,000	0,019	-0,043
-336,533	-200,000	0,004	0,104
-335,518	-200,000	0,005	0,104
-334,504	-136,106	0,139	0,012
-333,489	-86,053	-0,088	-0,020
-332,475	-99,011	0,062	-0,011
-331,460	-74,203	-0,078	0,020
-330,445	52,928	-0,172	0,120
-329,431	-200,000	0,013	0,129
-328,416	-127,749	0,070	-0,007
-327,402	408,384	0,021	0,033
-326,387	-200,000	-0,031	0,144
-325,372	-83,146	0,019	0,004
-324,358	800,000	0,040	-0,119
-323,343	-58,509	-0,019	0,006
-322,329	-103,364	0,066	0,011
-321,314	508,037	0,070	-0,118
-320,299	-200,000	-0,046	0,167
-319,285	159,983	0,051	0,052
-318,270	-200,000	-0,002	0,091
-317,256	564,796	0,074	-0,130
-316,241	35,451	-0,057	-0,036
-315,226	301,307	-0,060	-0,080
-314,212	30,774	0,109	-0,068
-313,197	128,529	0,089	-0,082
-312,183	-200,000	0,033	0,190
-311,168	800,000	-0,046	0,132
-310,153	-180,252	-0,064	0,001
-309,139	800,000	0,014	0,040
-308,124	19,196	-0,071	0,041
-307,110	384,136	-0,060	0,090
-306,095	105,389	0,130	0,111
-305,080	133,396	0,034	0,032
-304,066	-200,000	0,004	-0,068
-303,051	-105,636	0,064	-0,010
-302,037	197,770	-0,015	-0,016
-301,022	-200,000	0,000	0,074
-300,008	-200,000	0,008	-0,053
-298,993	-100,463	-0,067	0,012
-297,978	95,468	-0,050	-0,041
-296,964	-84,585	-0,075	-0,017
-295,949	-131,961	0,035	-0,003
-294,935	249,486	-0,109	-0,134
-293,920	-200,000	-0,011	-0,109
-292,905	-190,766	0,070	-0,001
-291,891	662,483	0,057	-0,108
-290,876	-46,520	0,037	0,013
-289,862	-51,509	-0,111	-0,037
-288,847	577,877	0,022	-0,039
-287,832	584,795	-0,066	-0,117
-286,818	379,686	-0,082	-0,122
-285,803	-200,000	0,006	-0,045
-284,789	51,062	0,104	-0,071
-283,774	180,821	0,025	0,027
-282,759	140,575	0,109	-0,105
-281,745	-33,557	-0,070	0,028
-280,730	800,000	0,032	0,072
-279,716	-36,948	-0,062	0,024
-278,701	-57,011	0,123	0,039
-277,686	155,471	0,153	0,152
-276,672	800,000	0,026	0,065
-275,657	-0,975	0,192	-0,098
-274,643	-200,000	-0,004	-0,018
-273,628	-96,432	-0,154	-0,029
-272,613	2,695	-0,068	0,036
-271,599	-46,753	-0,042	0,015
-270,584	73,354	-0,083	0,063
-269,570	15,823	0,212	0,121
-268,555	87,206	-0,018	-0,014
-267,540	171,765	-0,013	-0,013
-266,526	-200,000	0,024	-0,140
-265,511	128,178	0,036	-0,033
-264,497	-57,358	-0,074	0,023
-263,482	-17,089	0,066	0,030
-262,467	47,442	0,065	-0,044
-261,453	451,028	0,080	-0,128
-260,438	48,155	0,101	-0,068
-259,424	800,000	0,074	-0,165
-258,409	134,499	0,019	-0,018
-257,395	-200,000	0,038	0,140
-256,380	187,097	0,067	0,072
-255,365	377,328	-0,030	-0,045
-254,351	567,444	-0,032	0,056
-253,336	-96,220	0,049	0,009
-252,322	140,723	-0,086	-0,082
-251,307	-23,984	-0,028	0,012
-250,292	120,633	-0,071	0,064
-249,278	-135,643	0,093	0,008
-248,263	235,263	0,072	0,086
-247,249	195,889	-0,095	-0,104
-246,234	-200,000	0,026	-0,209
-245,219	10,016	-0,173	0,095
-244,205	-200,000	-0,002	-0,036
-243,190	331,748	0,030	0,042
-242,176	673,202	0,067	-0,125
-241,161	800,000	-0,026	0,080
-240,146	-200,000	-0,001	-0,054
-239,132	-135,433	0,111	-0,009
-238,117	-17,707	-0,064	0,029
-237,103	-200,000	-0,016	-0,129
-236,088	-200,000	-0,004	-0,080
-235,073	-200,000	0,003	-0,043
-234,059	-200,000	0,002	0,112
-233,044	800,000	0,019	0,053
-232,030	-16,223	-0,089	-0,041
-231,015	-14,462	0,106	-0,049
-230,000	-119,339	-0,082	-0,010
-228,986	-3,668	-0,128	-0,064
-227,971	160,797	0,037	0,037
-226,957	-200,000	0,004	0,151
-225,942	161,182	-0,048	-0,048
-224,927	-200,000	0,023	0,084
-223,913	-4,170	0,020	0,010
-222,898	658,689	-0,033	-0,061
-221,884	81,529	0,023	-0,018
-220,869	-200,000	-0,011	-0,044
-219,855	329,552	0,078	0,108
-218,840	38,321	0,008	0,005
-217,825	-34,125	-0,048	-0,019
-216,811	-200,000	-0,042	-0,141
-215,796	-122,447	-0,056	-0,006
-214,782	-127,617	0,193	-0,020
-213,767	-200,000	-0,001	0,035
-212,752	-200,000	-0,002	0,031
-211,738	368,038	0,018	-0,026
-210,723	-200,000	0,025	-0,176
-209,709	-107,212	-0,093	0,015
-208,694	-163,457	0,126	-0,004
-207,679	35,121	0,037	0,023
-206,665	-200,000	0,022	0,120
-205,650	-82,989	-0,073	0,017
-204,636	-129,453	0,180	0,018
-203,621	26,430	-0,048	-0,029
-202,606	9,970	0,046	-0,025
-201,592	16,898	0,139	-0,079
-200,577	-65,640	0,076	0,022
-199,563	800,000	-0,022	0,066
-198,548	119,973	0,119	0,107
-197,533	-200,000	0,001	0,028
-196,519	147,802	0,044	0,042
-195,504	-103,166	0,141	0,024
-194,490	-130,233	-0,083	0,008
-193,475	-77,633	-0,129	-0,032
-192,460	269,273	-0,103	-0,130
-191,446	-200,000	0,014	-0,084
-190,431	57,402	0,079	0,056
-189,417	-200,000	0,011	-0,037
-188,402	362,249	0,075	0,109
-187,387	-200,000	0,002	-0,040
-186,373	57,712	0,049	0,034
-185,358	-36,618	0,087	0,034
-184,344	800,000	-0,010	0,029
-183,329	346,472	0,047	0,067
-182,315	-59,455	-0,071	0,022
-181,300	65,821	0,037	0,027
-180,285	-3,322	-0,110	0,055
-179,271	334,205	0,055	-0,078
-178,256	147,410	-0,054	-0,052
-177,242	-82,004	0,183	0,043
-176,227	-78,166	0,064	0,016
-175,212	8,350	-0,079	-0,043
-174,198	-151,281	-0,061	0,003
-173,183	-48,886	0,051	-0,017
-172,169	147,201	-0,071	-0,069
-171,154	-184,737	0,075	-0,001
-170,139	800,000	-0,020	-0,062
-169,125	25,093	0,114	-0,068
-168,110	-200,000	0,028	-0,090
-167,096	136,480	0,033	-0,031
-166,081	295,645	-0,042	0,056
-165,066	374,888	0,054	0,080
-164,052	-200,000	0,014	0,067
-163,037	90,618	0,156	0,126
-162,023	314,238	0,087	0,119
-161,008	-200,000	0,024	0,100
-159,993	373,676	0,050	-0,074
-158,979	-200,000	-0,018	-0,078
-157,964	-168,115	0,127	-0,003
-156,950	61,951	-0,076	-0,054
-155,935	800,000	0,021	-0,053
-154,920	-200,000	0,020	0,103
-153,906	321,638	0,105	-0,144
-152,891	-200,000	0,001	-0,146
-151,877	-90,728	0,076	0,016
-150,862	207,260	-0,049	-0,055
-149,847	270,593	-0,084	-0,107
-148,833	210,138	0,030	0,034
-147,818	-200,000	0,002	0,011
-146,804	800,000	-0,001	0,002
-145,789	-48,528	-0,103	-0,036
-144,775	224,769	-0,028	-0,032
-143,760	197,635	0,135	-0,149
-142,745	-200,000	-0,016	0,119
-141,731	125,783	-0,090	0,082
-140,716	89,054	0,082	-0,065
-139,702	548,066	-0,045	0,077
-138,687	-13,829	0,158	-0,073
-137,672	-200,000	0,011	-0,057
-136,658	-200,000	-0,005	-0,112
-135,643	-102,777	0,144	0,024
-134,629	-200,000	-0,001	-0,029
-133,614	224,507	0,142	0,165
-132,599	153,985	-0,035	0,034
-131,585	-41,094	0,088	0,032
-130,570	76,613	0,092	0,070
-129,556	-77,672	-0,203	0,050
-128,541	-200,000	-0,018	0,165
-127,526	62,769	0,116	-0,083
-126,512	800,000	0,012	0,034
-125,497	123,337	0,107	0,096
-124,483	-200,000	-0,020	0,072
-123,468	-155,244	0,089	-0,004
-122,453	-1,830	-0,178	0,090
-121,439	337,610	-0,106	-0,149
-120,424	630,953	-0,097	-0,178
-119,410	-200,000	-0,019	0,139
