DTS Sentinel unit serial number:	SN410029Multiplexer serial number:	ORYXHardware model number:	OX2-SRSoftware version number:	ORYX F/W v4,00 Oryx Data Collector v3.7.2.0data status	okinstallation	B5 Nyhavnadifferential loss correction	single-endedforward channel	channel 2reverse channel	N/Adate	2023/12/14time	08:57:13forward acquisition time	300,00reverse acquisition time	0,00gamma	499,1914k internal	0,3160k external	0,3160temperature offset calibration	1,0000default loss term (dB/km)	0,3820temperature slope calibration	1,0000multiplexer offset coefficient	1,0000multiplexer slope coefficient	1,0000fibre end	0,00T internal ref (°C)	7,00T ext. ref 1 (°C)	-9,17T ext. ref 2 (°C)	-9,23length (m)	temperature (°C)	Stokes	anti-Stokes-744,400	-200,000	0,032	0,118
-743,385	-131,967	-0,329	-0,031
-742,371	-120,045	0,121	0,015
-741,356	5,412	-0,284	-0,154
-740,342	376,222	0,109	0,165
-739,327	-72,892	-0,411	-0,110
-738,312	54,397	0,081	0,057
-737,298	-110,405	-0,450	0,068
-736,283	136,377	0,091	0,088
-735,269	2,690	-0,217	-0,115
-734,254	800,000	0,017	0,045
-733,239	-66,207	-0,612	-0,178
-732,225	-1,515	0,181	0,094
-731,210	800,000	0,025	0,080
-730,196	800,000	0,037	-0,114
-729,181	800,000	-0,060	0,125
-728,167	-110,375	0,057	0,009
-727,152	800,000	-0,045	0,099
-726,137	800,000	-0,023	-0,064
-725,123	-67,881	-0,043	-0,012
-724,108	800,000	-0,039	0,120
-723,094	69,403	0,051	-0,039
-722,079	-53,674	-0,113	0,038
-721,064	800,000	0,005	0,012
-720,050	28,122	-0,074	0,046
-719,035	-42,584	0,061	-0,023
-718,021	176,389	-0,043	-0,046
-717,006	800,000	-0,038	-0,123
-715,991	-57,316	-0,173	-0,056
-714,977	800,000	-0,056	-0,134
-713,962	-200,000	-0,020	-0,073
-712,948	-200,000	-0,016	0,097
-711,933	800,000	-0,017	0,051
-710,918	692,659	0,023	0,045
-709,904	83,514	-0,134	-0,107
-708,889	-200,000	-0,003	-0,174
-707,875	-200,000	-0,015	0,065
-706,860	-39,464	-0,111	-0,042
-705,845	-41,589	0,046	0,017
-704,831	-138,704	0,043	-0,003
-703,816	51,923	0,131	0,092
-702,802	164,822	-0,053	0,055
-701,787	-200,000	0,014	-0,050
-700,772	-190,016	-0,137	0,001
-699,758	-200,000	0,000	-0,136
-698,743	2,480	-0,109	0,058
-697,729	-6,126	-0,010	0,005
-696,714	-38,312	0,020	-0,008
-695,699	-200,000	-0,035	0,118
-694,685	-200,000	-0,013	-0,119
-693,670	125,541	-0,105	-0,098
-692,656	164,618	0,043	-0,044
-691,641	-143,181	0,235	0,016
-690,627	89,202	-0,043	0,036
-689,612	-200,000	-0,014	-0,065
-688,597	208,620	-0,048	0,055
-687,583	459,600	-0,067	-0,110
-686,568	534,373	-0,041	-0,073
-685,554	800,000	0,020	-0,056
-684,539	-200,000	-0,026	0,093
-683,524	586,244	-0,002	0,004
-682,510	72,550	-0,095	0,073
-681,495	-179,808	0,082	0,001
-680,481	-151,319	-0,074	0,004
-679,466	271,563	0,100	-0,130
-678,451	-200,000	-0,003	-0,076
-677,437	171,627	-0,024	0,025
-676,422	205,709	0,108	0,123
-675,408	-200,000	-0,030	0,112
-674,393	-13,674	0,082	-0,039
-673,378	-200,000	-0,025	-0,095
-672,364	800,000	0,077	0,192
-671,349	146,517	0,104	-0,103
-670,335	95,702	-0,063	0,053
-669,320	79,072	0,087	-0,068
-668,305	800,000	0,035	-0,107
-667,291	-2,009	-0,045	0,023
-666,276	800,000	-0,082	-0,204
-665,262	273,601	-0,098	-0,128
-664,247	800,000	-0,018	-0,054
-663,232	27,503	-0,065	0,040
-662,218	800,000	-0,013	-0,031
-661,203	284,514	-0,041	0,055
-660,189	42,858	0,080	-0,053
-659,174	124,153	-0,102	-0,094
-658,159	-200,000	0,014	-0,079
-657,145	-65,070	-0,056	-0,016
-656,130	-20,175	-0,116	0,052
-655,116	405,287	-0,083	0,129
-654,101	487,553	0,076	0,127
-653,086	-114,847	-0,192	0,027
-652,072	85,189	-0,014	0,012
-651,057	212,754	-0,026	-0,030
-650,043	-7,032	-0,148	-0,073
-649,028	800,000	-0,019	0,047
-648,014	705,502	0,051	0,099
-646,999	668,414	0,066	0,125
-645,984	113,243	-0,086	0,076
-644,970	196,916	-0,072	0,081
-643,955	148,610	-0,080	0,080
-642,941	-200,000	0,002	-0,039
-641,926	431,034	0,074	0,118
-640,911	-56,666	0,144	-0,046
-639,897	20,514	0,189	-0,112
-638,882	800,000	-0,014	0,043
-637,868	-200,000	0,002	-0,009
-636,853	-33,358	-0,138	0,056
-635,838	267,081	-0,023	0,029
-634,824	491,989	-0,098	-0,165
-633,809	-200,000	0,026	-0,155
-632,795	-200,000	0,011	-0,185
-631,780	800,000	-0,020	0,045
-630,765	90,093	-0,077	-0,063
-629,751	-200,000	0,000	-0,065
-628,736	-200,000	-0,031	-0,110
-627,722	280,116	-0,079	-0,104
-626,707	-200,000	-0,018	0,077
-625,692	-200,000	-0,004	0,037
-624,678	-81,763	-0,174	0,042
-623,663	-200,000	0,001	0,054
-622,649	37,730	-0,055	-0,036
-621,634	17,657	0,014	-0,008
-620,619	-170,700	-0,147	0,004
-619,605	281,797	0,034	0,045
-618,590	-200,000	0,015	0,055
-617,576	398,818	-0,053	-0,082
-616,561	-200,000	0,019	-0,164
-615,546	-200,000	0,007	-0,067
-614,532	-200,000	-0,037	-0,144
-613,517	-65,707	-0,084	-0,025
-612,503	800,000	0,028	0,062
-611,488	-25,796	0,268	-0,115
-610,474	-122,723	-0,115	-0,014
-609,459	-200,000	-0,007	0,050
-608,444	319,169	0,052	-0,073
-607,430	37,901	-0,073	0,048
-606,415	-200,000	0,016	0,141
-605,401	-143,536	-0,179	-0,012
-604,386	800,000	0,022	0,051
-603,371	457,898	0,024	0,039
-602,357	170,610	-0,159	-0,167
-601,342	-29,952	-0,121	-0,050
-600,328	-57,564	-0,053	-0,017
-599,313	-200,000	-0,012	-0,085
-598,298	-200,000	0,003	0,037
-597,284	496,300	0,095	0,160
-596,269	-200,000	-0,003	0,093
-595,255	105,076	0,038	-0,033
-594,240	157,446	-0,030	-0,030
-593,225	84,256	0,092	-0,073
-592,211	-200,000	-0,043	-0,207
-591,196	-63,218	-0,075	-0,022
-590,182	-62,696	0,071	-0,022
-589,167	-200,000	0,012	0,043
-588,152	90,840	-0,103	-0,085
-587,138	-37,590	-0,036	0,014
-586,123	-200,000	0,014	-0,082
-585,109	18,124	0,074	-0,043
-584,094	-200,000	-0,017	-0,147
-583,079	-200,000	-0,021	0,107
-582,065	9,727	-0,030	-0,016
-581,050	-200,000	-0,002	0,114
-580,036	146,958	-0,086	-0,085
-579,021	-126,695	0,024	0,003
-578,006	-200,000	0,005	0,073
-576,992	800,000	0,041	-0,103
-575,977	234,908	0,022	0,026
-574,963	100,926	0,048	-0,041
-573,948	101,597	0,137	-0,117
-572,934	-79,309	0,062	0,015
-571,919	686,154	0,030	-0,057
-570,904	27,426	-0,104	0,064
-569,890	280,265	-0,032	0,042
-568,875	19,535	-0,128	-0,075
-567,861	526,372	0,036	0,063
-566,846	643,548	-0,033	0,061
-565,831	101,057	-0,130	-0,110
-564,817	471,195	-0,036	-0,060
-563,802	-10,887	-0,113	-0,054
-562,788	734,085	-0,031	-0,062
-561,773	178,980	0,047	-0,050
-560,758	-25,345	-0,089	0,038
-559,744	-1,401	0,115	0,059
-558,729	37,467	0,106	0,069
-557,715	229,024	0,010	0,012
-556,700	-200,000	-0,014	-0,045
-555,685	-200,000	0,012	-0,083
-554,671	-200,000	0,006	0,062
-553,656	681,254	0,067	0,128
-552,642	-200,000	0,007	-0,053
-551,627	-113,888	0,077	-0,011
-550,612	-153,881	0,090	0,004
-549,598	-75,592	-0,006	-0,002
-548,583	231,035	-0,046	-0,056
-547,569	294,786	0,017	-0,022
-546,554	357,372	-0,082	0,120
-545,539	-8,910	-0,057	-0,028
-544,525	89,030	-0,066	-0,054
-543,510	-35,455	0,062	-0,024
-542,496	800,000	0,036	-0,086
-541,481	-30,056	-0,116	0,048
-540,466	800,000	0,047	-0,123
-539,452	800,000	-0,039	0,120
-538,437	800,000	0,031	0,094
-537,423	-112,702	-0,031	0,005
-536,408	-64,229	0,031	-0,009
-535,393	-139,288	-0,049	-0,004
-534,379	-54,808	-0,084	0,028
-533,364	-200,000	-0,006	0,031
-532,350	800,000	-0,032	-0,085
-531,335	551,423	-0,022	0,038
-530,321	399,550	-0,078	0,120
-529,306	-64,389	-0,082	0,024
-528,291	40,929	0,085	-0,056
-527,277	-62,425	0,076	-0,023
-526,262	-200,000	-0,002	0,060
-525,248	800,000	0,016	-0,052
-524,233	-200,000	0,008	0,081
-523,218	201,942	0,115	0,130
-522,204	-200,000	0,039	-0,136
-521,189	800,000	-0,067	-0,203
-520,175	177,573	-0,142	-0,151
-519,160	-200,000	-0,011	-0,139
-518,145	800,000	0,035	0,106
-517,131	-200,000	-0,010	0,057
-516,116	-72,775	0,079	0,021
-515,102	-200,000	0,020	-0,128
-514,087	140,176	-0,100	0,097
-513,072	18,229	0,034	-0,020
-512,058	-200,000	-0,000	0,087
-511,043	0,427	0,120	0,062
-510,029	264,160	-0,039	-0,049
-509,014	320,211	0,035	0,049
-507,999	-200,000	-0,004	-0,117
-506,985	800,000	-0,024	-0,059
-505,970	-200,000	-0,042	-0,182
-504,956	136,121	-0,069	-0,066
-503,941	433,126	0,023	-0,037
-502,926	-113,368	-0,055	0,008
-501,912	414,027	0,062	0,097
-500,897	800,000	-0,009	0,023
-499,883	-52,875	0,033	-0,011
-498,868	362,184	-0,069	-0,101
-497,853	-200,000	-0,021	-0,135
-496,839	-200,000	0,001	-0,024
-495,824	800,000	-0,032	0,091
-494,810	105,788	-0,103	0,089
-493,795	800,000	0,030	-0,087
-492,781	761,006	0,009	-0,018
-491,766	695,474	-0,037	-0,072
-490,751	14,484	-0,040	-0,023
-489,737	800,000	0,046	0,132
-488,722	29,981	0,055	0,034
-487,708	-147,138	-0,155	0,010
-486,693	-200,000	0,006	-0,063
-485,678	-200,000	0,015	0,065
-484,664	253,598	-0,064	-0,079
-483,649	-10,935	0,032	-0,016
-482,635	-172,635	-0,011	-0,000
-481,620	246,718	0,018	-0,022
-480,605	-125,633	0,100	0,011
-479,591	1,059	0,106	-0,055
-478,576	-147,141	0,082	0,005
-477,562	110,208	-0,031	-0,027
-476,547	-19,339	-0,027	0,012
-475,532	180,939	0,053	0,057
-474,518	800,000	0,053	-0,133
-473,503	422,496	-0,048	0,075
-472,489	110,965	-0,072	-0,063
-471,474	-116,800	0,092	0,012
-470,459	800,000	-0,044	0,101
-469,445	-78,389	0,083	0,021
-468,430	242,774	-0,044	-0,054
-467,416	-200,000	-0,001	-0,068
-466,401	313,611	0,053	0,072
-465,386	6,791	0,050	0,027
-464,372	-161,483	-0,089	-0,003
-463,357	15,291	-0,183	-0,105
-462,343	127,180	0,058	-0,053
-461,328	-54,117	-0,150	0,049
-460,313	800,000	0,050	-0,118
-459,299	-200,000	0,062	0,239
-458,284	-70,313	0,067	-0,018
-457,270	69,845	-0,069	-0,052
-456,255	182,378	-0,078	-0,083
-455,241	16,386	-0,010	-0,006
-454,226	-99,179	-0,162	0,030
-453,211	800,000	-0,025	-0,053
-452,197	800,000	0,067	0,210
-451,182	-71,052	0,041	-0,011
-450,168	800,000	-0,048	0,147
-449,153	-4,999	-0,085	-0,042
-448,138	557,070	-0,092	-0,163
-447,124	-5,351	0,075	-0,037
-446,109	-143,950	-0,209	0,014
-445,095	-91,709	0,119	0,024
-444,080	240,613	-0,064	-0,078
-443,065	4,542	0,044	0,023
-442,051	-42,455	-0,162	-0,060
-441,036	800,000	-0,063	-0,144
-440,022	-200,000	0,020	0,105
-439,007	-49,626	0,161	0,055
-437,992	51,192	-0,106	0,073
-436,978	-77,190	0,013	0,003
-435,963	47,400	0,082	0,056
-434,949	-143,932	0,025	-0,002
-433,934	-162,167	-0,022	-0,001
-432,919	-200,000	0,004	-0,204
-431,905	82,906	0,010	-0,008
-430,890	121,362	0,045	0,041
-429,876	111,862	0,106	0,093
-428,861	70,046	-0,023	0,018
-427,846	35,165	-0,085	0,054
-426,832	-200,000	0,012	-0,055
-425,817	-200,000	-0,007	-0,046
-424,803	26,421	0,024	-0,015
-423,788	71,473	0,089	-0,068
-422,773	-200,000	0,042	0,136
-421,759	36,264	0,131	-0,084
-420,744	-200,000	-0,024	0,196
-419,730	-106,872	-0,224	-0,036
-418,715	-4,196	0,138	-0,069
-417,701	261,338	-0,023	-0,030
-416,686	800,000	0,017	-0,036
-415,671	181,617	0,120	0,128
-414,657	-200,000	-0,002	0,068
-413,642	510,773	-0,041	-0,070
-412,628	-200,000	0,012	0,065
-411,613	753,517	0,095	0,187
-410,598	58,103	-0,057	-0,040
-409,584	-200,000	-0,001	-0,077
-408,569	120,347	0,105	-0,095
-407,555	584,190	-0,071	0,127
-406,540	-200,000	-0,013	-0,056
-405,525	56,930	-0,179	-0,126
-404,511	-42,632	0,055	0,020
-403,496	74,975	0,020	-0,015
-402,482	-175,553	0,174	0,003
-401,467	293,622	-0,024	0,032
-400,452	-200,000	0,011	0,143
-399,438	-200,000	-0,012	0,040
-398,423	-33,853	-0,098	-0,039
-397,409	100,692	-0,042	-0,035
-396,394	17,006	-0,040	0,023
-395,379	-31,531	0,071	0,029
-394,365	800,000	-0,006	0,014
-393,350	613,463	0,093	0,171
-392,336	182,839	0,087	-0,093
-391,321	184,284	0,039	0,042
-390,306	-200,000	0,009	0,049
-389,292	175,090	-0,089	-0,094
-388,277	-200,000	0,005	-0,123
-387,263	-20,307	0,062	-0,028
-386,248	-122,384	-0,115	0,013
-385,233	42,784	-0,133	0,088
-384,219	86,749	-0,077	0,062
-383,204	-200,000	-0,016	0,089
-382,190	-200,000	0,019	-0,092
-381,175	114,096	-0,103	-0,091
-380,160	-200,000	0,008	0,125
-379,146	-11,901	-0,105	0,050
-378,131	-18,414	-0,150	0,068
-377,117	-200,000	0,026	0,105
-376,102	-200,000	-0,054	0,000
-375,088	632,507	-0,109	-0,201
-374,073	-200,000	-0,001	0,044
-373,058	-158,784	0,125	-0,005
-372,044	-200,000	0,004	0,097
-371,029	-200,000	-0,002	0,047
-370,015	800,000	-0,025	-0,066
-369,000	-170,955	0,150	0,004
-367,985	800,000	0,021	0,052
-366,971	-172,533	0,093	-0,002
-365,956	442,871	0,032	0,051
-364,942	-200,000	-0,023	-0,123
-363,927	-80,188	0,077	-0,019
-362,912	-200,000	0,015	0,084
-361,898	140,439	0,080	-0,077
-360,883	-117,715	-0,108	-0,014
-359,869	-200,000	-0,004	0,020
-358,854	-169,359	0,086	0,002
-357,839	295,789	0,101	0,135
-356,825	-200,000	0,024	0,090
-355,810	106,954	0,116	-0,100
-354,796	-142,082	-0,063	0,005
-353,781	-200,000	-0,004	0,021
-352,766	-200,000	-0,020	0,091
-351,752	270,722	0,063	-0,081
-350,737	-200,000	-0,017	0,105
-349,723	153,699	0,093	0,092
-348,708	-55,368	-0,078	0,025
-347,693	479,933	0,024	-0,039
-346,679	800,000	-0,023	0,055
-345,664	-78,268	0,071	-0,018
-344,650	-124,335	0,128	-0,014
-343,635	92,036	0,109	0,089
-342,620	-95,668	0,195	0,038
-341,606	21,977	-0,102	0,060
-340,591	390,485	-0,075	0,113
-339,577	-140,044	-0,036	-0,003
-338,562	800,000	-0,007	-0,019
-337,548	-92,950	-0,082	-0,017
-336,533	-88,385	0,215	-0,046
-335,518	-120,344	0,105	-0,013
-334,504	4,582	0,195	0,103
-333,489	-91,797	-0,098	0,020
-332,475	-200,000	0,014	-0,076
-331,460	380,113	-0,038	-0,057
-330,445	-57,624	0,132	-0,042
-329,431	-114,257	-0,105	0,014
-328,416	96,447	0,138	0,115
-327,402	-200,000	0,027	-0,139
-326,387	-200,000	0,027	0,148
-325,372	-81,261	-0,148	-0,035
-324,358	63,186	-0,062	-0,045
-323,343	-200,000	0,028	-0,125
-322,329	157,837	0,094	0,094
-321,314	-39,836	0,046	-0,017
-320,299	-90,877	-0,105	0,022
-319,285	248,990	0,027	0,034
-318,270	90,379	-0,087	-0,070
-317,256	-127,717	-0,037	0,004
-316,241	162,592	0,085	-0,087
-315,226	-109,165	0,076	-0,012
-314,212	79,104	0,130	-0,101
-313,197	60,307	-0,068	0,048
-312,183	-62,179	-0,079	-0,024
-311,168	-200,000	0,001	-0,038
-310,153	-65,937	-0,081	-0,023
-309,139	-200,000	0,003	-0,101
-308,124	800,000	0,069	-0,147
-307,110	429,747	0,049	0,077
-306,095	-65,608	0,026	0,008
-305,080	-0,365	-0,065	-0,033
-304,066	180,745	-0,074	-0,078
-303,051	-96,562	-0,127	0,024
-302,037	51,639	0,106	0,073
-301,022	-200,000	-0,014	-0,111
-300,008	-189,758	0,104	0,001
-298,993	-55,999	0,038	-0,012
-297,978	-133,720	-0,012	-0,001
-296,964	-200,000	0,036	-0,150
-295,949	-200,000	-0,028	-0,193
-294,935	-41,894	-0,036	-0,013
-293,920	-160,130	0,051	-0,002
-292,905	-40,825	0,135	-0,050
-291,891	35,974	-0,059	0,037
-290,876	272,251	-0,015	0,020
-289,862	-200,000	-0,007	0,204
-288,847	-9,020	-0,134	0,065
-287,832	-200,000	0,004	0,017
-286,818	-104,278	-0,041	-0,007
-285,803	800,000	-0,073	-0,160
-284,789	-80,384	0,090	0,022
-283,774	142,422	0,050	0,048
-282,759	-200,000	-0,015	0,176
-281,745	204,206	-0,054	-0,060
-280,730	-200,000	-0,001	-0,076
-279,716	-200,000	0,014	0,094
-278,701	57,193	0,165	0,116
-277,686	-11,048	0,029	-0,014
-276,672	679,188	-0,064	0,122
-275,657	800,000	-0,009	0,027
-274,643	-16,646	-0,080	-0,037
-273,628	53,608	-0,077	-0,053
-272,613	78,038	0,105	-0,081
-271,599	97,552	-0,086	0,071
-270,584	-82,564	0,083	0,019
-269,570	-200,000	-0,013	0,088
-268,555	-200,000	0,000	-0,100
-267,540	-146,804	-0,128	0,008
-266,526	739,886	-0,044	0,085
-265,511	-200,000	-0,016	-0,064
-264,497	245,056	0,132	-0,161
-263,482	-20,448	0,127	0,056
-262,467	240,476	-0,026	-0,032
-261,453	-84,099	-0,031	0,007
-260,438	104,505	-0,055	-0,047
-259,424	-93,526	0,095	0,019
-258,409	288,655	0,031	0,041
-257,395	220,105	0,021	-0,025
-256,380	800,000	-0,020	0,058
-255,365	800,000	0,048	0,104
-254,351	-10,385	0,081	-0,039
-253,336	609,942	0,070	0,126
-252,322	-200,000	0,005	0,060
-251,307	-99,916	-0,100	-0,018
-250,292	47,304	0,026	0,017
-249,278	-3,369	0,030	0,015
-248,263	164,714	0,044	0,045
-247,249	275,506	0,101	0,129
-246,234	-200,000	-0,082	0,000
-245,219	-200,000	0,001	-0,079
-244,205	-200,000	-0,003	-0,072
-243,190	-45,685	-0,176	-0,063
-242,176	800,000	-0,012	-0,026
-241,161	-106,778	0,093	-0,015
-240,146	-15,618	-0,099	0,045
-239,132	-69,970	-0,122	0,033
-238,117	40,390	-0,048	0,031
-237,103	348,091	0,061	0,087
-236,088	63,606	0,059	0,043
-235,073	-56,130	0,238	-0,076
-234,059	137,798	-0,034	0,032
-233,044	-27,726	-0,049	0,021
-232,030	193,945	-0,041	-0,044
-231,015	-54,843	0,110	-0,036
-230,000	-2,672	0,007	0,004
-228,986	511,875	0,054	0,092
-227,971	-200,000	-0,021	-0,097
-226,957	800,000	0,035	0,098
-225,942	528,304	-0,036	0,061
-224,927	800,000	-0,043	0,086
-223,913	-25,270	0,061	-0,026
-222,898	38,148	-0,142	-0,091
-221,884	106,053	-0,098	0,084
-220,869	213,235	0,062	0,071
-219,855	-14,734	-0,152	0,070
-218,840	-35,174	0,053	0,021
-217,825	24,916	0,161	0,096
-216,811	-54,101	-0,114	-0,037
-215,796	208,599	-0,030	0,034
-214,782	198,252	-0,029	-0,032
-213,767	659,345	0,073	0,137
-212,752	342,369	0,111	-0,157
-211,738	-200,000	-0,004	-0,124
-210,723	-135,104	0,104	-0,009
-209,709	-109,288	0,216	0,033
-208,694	7,561	0,059	-0,032
-207,679	588,558	-0,086	-0,154
-206,665	-29,180	0,157	0,065
-205,650	-108,591	-0,134	0,021
-204,636	13,949	0,165	0,092
-203,621	77,582	-0,076	0,058
-202,606	-200,000	-0,019	0,098
-201,592	-200,000	-0,025	-0,133
-200,577	-183,531	-0,100	-0,001
-199,563	-200,000	-0,053	0,247
-198,548	800,000	0,014	-0,034
-197,533	173,995	0,087	0,091
-196,519	547,252	0,043	0,074
-195,504	-36,599	-0,179	-0,069
-194,490	318,732	0,053	-0,072
-193,475	-200,000	-0,023	-0,102
-192,460	411,019	0,098	-0,150
-191,446	94,306	0,087	-0,071
-190,431	23,425	-0,059	-0,035
-189,417	-200,000	0,009	0,065
-188,402	-200,000	-0,051	0,179
-187,387	5,808	-0,081	-0,043
-186,373	800,000	0,011	-0,032
-185,358	-200,000	0,002	0,096
-184,344	146,548	0,046	-0,045
-183,329	-200,000	0,033	0,166
-182,315	507,582	0,068	0,114
-181,300	-52,392	0,091	0,030
-180,285	-200,000	0,009	0,059
-179,271	67,982	0,082	-0,060
-178,256	189,022	0,096	0,103
-177,242	339,243	-0,095	0,134
-176,227	14,915	-0,048	0,027
-175,212	46,227	-0,117	0,078
-174,198	14,276	-0,052	-0,029
-173,183	-200,000	-0,014	-0,215
-172,169	-33,190	-0,124	0,049
-171,154	-200,000	-0,005	-0,153
-170,139	-127,759	0,139	-0,014
-169,125	234,650	-0,032	0,039
-168,110	-13,622	0,037	-0,017
-167,096	-200,000	0,010	-0,067
-166,081	41,035	0,100	-0,065
-165,066	185,366	-0,095	-0,101
-164,052	800,000	-0,023	-0,055
-163,037	268,388	0,109	0,137
-162,023	619,484	-0,059	0,107
-161,008	488,922	-0,055	0,090
-159,993	-200,000	0,014	0,047
-158,979	-100,247	0,071	-0,013
-157,964	-63,048	0,097	-0,029
-156,950	377,174	-0,042	0,062
-155,935	149,073	0,101	0,099
-154,920	-11,366	-0,064	0,030
-153,906	-127,893	-0,072	0,007
-152,891	-200,000	-0,012	-0,071
-151,877	-200,000	0,010	-0,033
-150,862	25,891	-0,082	-0,049
-149,847	209,727	0,019	-0,021
-148,833	-200,000	0,015	0,208
-147,818	800,000	0,061	0,191
-146,804	21,778	0,108	-0,063
-145,789	42,930	-0,066	0,043
-144,775	800,000	0,017	-0,040
-143,760	-200,000	-0,012	-0,120
-142,745	-95,212	-0,140	-0,027
-141,731	-200,000	-0,007	0,096
-140,716	471,538	-0,039	-0,063
-139,702	215,006	0,015	-0,017
-138,687	-88,397	-0,035	-0,007
-137,672	800,000	-0,024	0,063
-136,658	565,221	0,088	-0,155
-135,643	478,024	-0,059	-0,097
-134,629	499,044	0,034	-0,057
-133,614	-200,000	0,006	-0,091
-132,599	84,786	0,062	0,049
-131,585	800,000	0,033	0,069
-130,570	-200,000	-0,001	0,173
-129,556	81,366	0,068	-0,053
-128,541	-200,000	-0,039	-0,232
-127,526	-116,218	0,112	-0,015
-126,512	-43,334	-0,071	0,026
-125,497	414,806	0,095	0,146
-124,483	-143,923	-0,039	0,003
-123,468	-200,000	0,024	0,160
-122,453	800,000	-0,012	0,034
-121,439	-200,000	0,034	-0,158
-120,424	69,011	-0,120	0,089
-119,410	157,901	0,048	-0,048
