DTS Sentinel unit serial number:	SN410029Multiplexer serial number:	ORYXHardware model number:	OX2-SRSoftware version number:	ORYX F/W v4,00 Oryx Data Collector v3.7.2.0data status	okinstallation	B5 Nyhavnadifferential loss correction	single-endedforward channel	channel 2reverse channel	N/Adate	2023/12/13time	00:47:13forward acquisition time	300,00reverse acquisition time	0,00gamma	499,1914k internal	0,3159k external	0,3159temperature offset calibration	1,0000default loss term (dB/km)	0,3820temperature slope calibration	1,0000multiplexer offset coefficient	1,0000multiplexer slope coefficient	1,0000fibre end	0,00T internal ref (°C)	14,22T ext. ref 1 (°C)	-2,26T ext. ref 2 (°C)	-2,56length (m)	temperature (°C)	Stokes	anti-Stokes-744,400	800,000	0,025	-0,077
-743,385	-90,502	-0,263	0,056
-742,371	-100,221	0,133	-0,024
-741,356	-100,568	-0,165	0,030
-740,342	-7,521	0,080	0,040
-739,327	-53,554	-0,312	-0,104
-738,312	400,331	-0,039	0,060
-737,298	-124,979	-0,424	-0,048
-736,283	-1,005	0,201	-0,104
-735,269	7,647	-0,315	-0,173
-734,254	164,267	0,037	0,039
-733,239	-1,220	-0,477	-0,247
-732,225	-11,144	0,221	0,107
-731,210	73,446	-0,057	0,044
-730,196	155,496	-0,077	-0,078
-729,181	44,340	-0,141	-0,095
-728,167	268,985	-0,042	0,054
-727,152	-0,706	0,109	0,057
-726,137	9,024	-0,095	-0,053
-725,123	-60,251	-0,192	-0,060
-724,108	-4,896	0,002	0,001
-723,094	800,000	0,031	-0,087
-722,079	78,666	-0,116	-0,091
-721,064	243,632	0,010	0,013
-720,050	105,416	-0,055	0,048
-719,035	800,000	0,039	0,126
-718,021	-100,633	-0,097	0,017
-717,006	-177,428	-0,031	0,001
-715,991	236,279	-0,107	-0,131
-714,977	53,569	-0,056	-0,039
-713,962	-134,449	-0,069	0,006
-712,948	-200,000	-0,011	-0,148
-711,933	324,080	-0,025	0,036
-710,918	-200,000	0,008	0,096
-709,904	-125,618	-0,072	-0,008
-708,889	-116,168	-0,124	-0,017
-707,875	-41,707	-0,157	-0,059
-706,860	-107,312	0,034	0,005
-705,845	-161,651	-0,137	0,005
-704,831	150,537	0,041	0,041
-703,816	-114,110	-0,048	-0,007
-702,802	-200,000	-0,023	-0,085
-701,787	203,319	-0,178	0,202
-700,772	-5,554	0,122	-0,061
-699,758	437,335	0,073	-0,118
-698,743	-36,276	-0,036	-0,014
-697,729	-51,246	0,051	-0,018
-696,714	73,621	0,089	0,068
-695,699	-21,199	-0,115	0,051
-694,685	-200,000	-0,015	-0,067
-693,670	-99,048	0,023	-0,004
-692,656	193,242	-0,080	0,089
-691,641	-168,776	0,092	-0,003
-690,627	-47,765	-0,179	0,064
-689,612	-139,544	-0,057	-0,004
-688,597	-84,686	-0,127	-0,029
-687,583	-50,731	-0,140	0,048
-686,568	-136,082	0,115	-0,010
-685,554	-67,489	-0,139	-0,040
-684,539	-200,000	0,000	-0,035
-683,524	-200,000	0,028	0,096
-682,510	-125,936	0,120	0,013
-681,495	-74,084	-0,065	0,017
-680,481	-63,604	-0,165	-0,050
-679,466	-129,094	0,081	0,008
-678,451	-200,000	0,006	-0,050
-677,437	213,147	-0,054	-0,063
-676,422	800,000	0,038	0,120
-675,408	781,737	-0,024	0,048
-674,393	800,000	0,022	0,069
-673,378	-114,384	-0,086	0,012
-672,364	-69,377	-0,060	0,017
-671,349	727,497	-0,032	-0,064
-670,335	154,514	-0,044	-0,044
-669,320	453,071	0,018	0,030
-668,305	800,000	0,047	-0,113
-667,291	9,825	0,090	0,050
-666,276	221,179	-0,048	-0,056
-665,262	-120,526	-0,051	0,006
-664,247	208,532	0,075	-0,086
-663,232	-39,224	-0,108	-0,041
-662,218	74,418	0,038	0,029
-661,203	-11,157	0,073	0,035
-660,189	-67,059	0,141	0,041
-659,174	75,880	0,043	0,033
-658,159	96,100	-0,101	-0,085
-657,145	-39,137	-0,159	-0,061
-656,130	9,401	-0,033	-0,018
-655,116	216,468	0,040	0,046
-654,101	4,321	0,083	0,045
-653,086	-200,000	0,021	0,103
-652,072	-200,000	-0,013	-0,242
-651,057	244,645	0,055	-0,068
-650,043	-200,000	0,003	-0,036
-649,028	-47,305	-0,136	-0,048
-648,014	-80,290	0,142	-0,035
-646,999	800,000	-0,055	0,122
-645,984	-200,000	-0,128	0,000
-644,970	59,551	-0,097	-0,070
-643,955	297,965	-0,040	-0,053
-642,941	-200,000	0,030	-0,104
-641,926	-52,039	0,066	0,022
-640,911	184,204	-0,074	-0,081
-639,897	-200,000	0,005	-0,050
-638,882	-25,361	-0,154	0,066
-637,868	-5,584	-0,080	0,040
-636,853	-66,820	-0,089	-0,026
-635,838	800,000	0,007	0,018
-634,824	-68,939	0,061	0,017
-633,809	88,078	0,072	0,059
-632,795	-30,472	0,070	-0,029
-631,780	700,829	-0,054	0,105
-630,765	336,751	-0,094	0,135
-629,751	197,472	-0,059	-0,067
-628,736	800,000	0,030	-0,062
-627,722	238,584	-0,131	-0,160
-626,707	800,000	-0,053	-0,148
-625,692	137,304	0,089	-0,086
-624,678	230,667	0,027	-0,032
-623,663	-200,000	0,010	-0,125
-622,649	-200,000	-0,017	-0,106
-621,634	-138,859	-0,114	-0,009
-620,619	433,333	-0,001	0,002
-619,605	-200,000	0,034	-0,120
-618,590	178,081	0,043	0,046
-617,576	800,000	0,046	-0,135
-616,561	35,293	0,029	0,019
-615,546	800,000	-0,062	-0,130
-614,532	176,238	-0,042	-0,045
-613,517	-200,000	-0,028	-0,106
-612,503	-28,218	-0,031	0,013
-611,488	397,010	0,022	0,034
-610,474	-88,381	0,125	-0,027
-609,459	472,428	-0,064	0,107
-608,444	639,171	0,018	0,033
-607,430	800,000	0,030	-0,076
-606,415	-200,000	-0,001	-0,033
-605,401	68,719	0,061	0,046
-604,386	209,218	0,048	-0,055
-603,371	-11,224	0,139	-0,067
-602,357	-109,765	-0,036	-0,006
-601,342	-156,988	-0,086	-0,004
-600,328	14,836	-0,050	-0,028
-599,313	279,656	-0,058	-0,076
-598,298	-200,000	0,015	0,071
-597,284	90,852	-0,057	-0,047
-596,269	46,351	-0,032	-0,022
-595,255	-200,000	0,004	-0,176
-594,240	-69,159	-0,005	-0,002
-593,225	-15,298	0,048	0,023
-592,211	11,336	-0,067	0,038
-591,196	-103,497	0,023	-0,004
-590,182	800,000	0,013	-0,033
-589,167	-48,772	0,038	0,013
-588,152	97,074	0,052	0,044
-587,138	-30,609	-0,021	0,009
-586,123	-200,000	-0,031	-0,143
-585,109	147,924	-0,119	-0,118
-584,094	-200,000	0,049	-0,202
-583,079	223,789	-0,045	0,053
-582,065	-200,000	0,012	-0,056
-581,050	453,864	0,037	0,059
-580,036	-164,301	-0,181	-0,006
-579,021	581,492	0,035	-0,063
-578,006	-200,000	0,046	-0,204
-576,992	22,998	-0,149	0,090
-575,977	-200,000	-0,018	0,124
-574,963	218,922	0,035	-0,041
-573,948	117,569	0,068	0,061
-572,934	-46,222	-0,104	-0,037
-571,919	-98,177	-0,099	0,018
-570,904	-200,000	-0,020	-0,074
-569,890	-77,535	-0,102	-0,026
-568,875	-142,597	0,131	-0,009
-567,861	-200,000	-0,002	-0,060
-566,846	-106,623	-0,102	-0,017
-565,831	36,903	0,008	-0,005
-564,817	-200,000	-0,001	-0,090
-563,802	-4,051	-0,086	-0,044
-562,788	2,725	0,137	-0,072
-561,773	800,000	0,046	-0,096
-560,758	38,181	0,073	0,048
-559,744	28,307	0,062	-0,038
-558,729	-174,427	-0,079	0,002
-557,715	42,470	0,037	-0,025
-556,700	72,799	-0,074	-0,056
-555,685	162,784	0,116	-0,119
-554,671	-109,112	-0,067	-0,010
-553,656	256,930	0,029	0,036
-552,642	127,395	0,111	0,103
-551,627	-131,706	-0,116	-0,011
-550,612	-200,000	-0,032	-0,169
-549,598	12,353	-0,091	0,051
-548,583	-200,000	0,021	-0,091
-547,569	800,000	0,039	0,097
-546,554	-66,537	-0,038	-0,011
-545,539	184,226	0,096	0,104
-544,525	69,534	0,086	0,065
-543,510	81,950	-0,073	-0,058
-542,496	-200,000	0,013	0,146
-541,481	149,160	-0,179	0,178
-540,466	3,535	0,080	-0,043
-539,452	-22,777	0,033	-0,015
-538,437	238,024	-0,014	0,017
-537,423	59,749	-0,042	0,031
-536,408	601,536	-0,019	-0,035
-535,393	-21,472	-0,060	-0,027
-534,379	-65,183	-0,151	0,044
-533,364	-41,629	0,035	0,013
-532,350	62,765	-0,075	-0,055
-531,335	122,089	-0,031	-0,029
-530,321	-200,000	0,003	0,022
-529,306	105,196	0,030	0,025
-528,291	-200,000	-0,004	-0,117
-527,277	-200,000	0,020	-0,084
-526,262	694,087	0,051	0,098
-525,248	800,000	-0,029	-0,065
-524,233	-200,000	-0,036	0,216
-523,218	185,476	0,063	-0,069
-522,204	308,753	-0,038	0,052
-521,189	-200,000	0,011	-0,067
-520,175	-200,000	-0,004	-0,091
-519,160	31,863	-0,068	0,043
-518,145	-134,597	0,154	0,014
-517,131	-11,900	0,092	0,044
-516,116	276,279	0,084	0,110
-515,102	-200,000	-0,017	-0,084
-514,087	23,903	0,101	0,061
-513,072	-87,237	0,035	-0,008
-512,058	52,223	-0,036	-0,025
-511,043	50,181	0,036	0,024
-510,029	-200,000	-0,003	-0,073
-509,014	-118,246	0,164	0,021
-507,999	800,000	-0,041	0,099
-506,985	-94,842	-0,199	-0,039
-505,970	800,000	-0,013	0,032
-504,956	-200,000	0,023	-0,161
-503,941	-200,000	-0,011	-0,157
-502,926	800,000	0,045	0,121
-501,912	-69,343	0,109	0,030
-500,897	-93,093	0,092	-0,018
-499,883	126,232	-0,126	-0,116
-498,868	131,901	-0,019	-0,018
-497,853	70,449	0,030	0,023
-496,839	88,255	-0,013	0,011
-495,824	-200,000	-0,009	0,127
-494,810	-200,000	-0,011	0,090
-493,795	687,744	-0,067	0,128
-492,781	223,599	-0,055	0,065
-491,766	655,460	-0,017	-0,033
-490,751	457,727	-0,121	-0,197
-489,737	-200,000	0,012	-0,047
-488,722	375,323	0,031	0,047
-487,708	-200,000	0,022	-0,092
-486,693	140,723	-0,098	-0,095
-485,678	800,000	-0,049	-0,135
-484,664	800,000	-0,013	-0,040
-483,649	800,000	0,025	-0,068
-482,635	-200,000	0,006	-0,140
-481,620	497,973	-0,015	-0,025
-480,605	-200,000	-0,008	-0,084
-479,591	77,585	0,091	0,071
-478,576	443,600	-0,040	0,064
-477,562	-15,316	-0,073	-0,034
-476,547	-200,000	0,002	0,014
-475,532	-24,807	0,179	-0,077
-474,518	135,242	0,078	-0,074
-473,503	-122,940	-0,044	-0,005
-472,489	36,952	0,046	-0,030
-471,474	-200,000	-0,011	-0,043
-470,459	-177,002	-0,122	-0,002
-469,445	166,063	-0,114	-0,118
-468,430	-200,000	-0,027	-0,091
-467,416	-2,462	0,037	0,019
-466,401	800,000	-0,046	0,112
-465,386	-200,000	0,008	0,044
-464,372	800,000	0,054	0,133
-463,357	133,317	0,064	-0,061
-462,343	-30,270	-0,031	-0,013
-461,328	471,711	0,041	-0,067
-460,313	120,109	-0,024	-0,022
-459,299	-200,000	0,012	0,091
-458,284	219,810	-0,041	-0,048
-457,270	-200,000	0,022	-0,254
-456,255	45,423	-0,117	0,079
-455,241	102,427	-0,046	0,040
-454,226	141,153	-0,044	0,043
-453,211	117,808	-0,120	0,107
-452,197	140,821	0,040	0,039
-451,182	290,143	0,074	0,098
-450,168	-200,000	-0,003	-0,014
-449,153	-57,527	-0,031	0,010
-448,138	30,881	0,060	-0,037
-447,124	-200,000	-0,011	0,137
-446,109	89,285	-0,049	-0,040
-445,095	-195,177	0,043	0,000
-444,080	242,325	-0,035	0,043
-443,065	244,712	-0,077	0,094
-442,051	-61,528	0,096	-0,029
-441,036	126,338	-0,048	0,044
-440,022	800,000	-0,040	0,111
-439,007	302,545	-0,043	-0,058
-437,992	-21,773	0,064	-0,028
-436,978	189,000	0,019	0,021
-435,963	800,000	0,077	0,160
-434,949	-200,000	0,011	0,061
-433,934	12,089	0,179	-0,100
-432,919	307,150	-0,062	-0,084
-431,905	800,000	-0,029	0,085
-430,890	4,224	0,147	-0,078
-429,876	800,000	0,006	0,017
-428,861	-59,938	0,137	-0,042
-427,846	-200,000	0,001	0,055
-426,832	94,383	0,068	0,056
-425,817	-137,988	-0,120	-0,010
-424,803	412,542	0,067	-0,104
-423,788	-73,782	0,044	0,012
-422,773	-159,706	0,112	-0,004
-421,759	720,748	-0,018	0,035
-420,744	-200,000	-0,008	0,066
-419,730	132,436	-0,188	-0,177
-418,715	84,435	-0,101	-0,080
-417,701	239,947	-0,086	0,104
-416,686	75,740	-0,062	-0,048
-415,671	-200,000	-0,013	-0,046
-414,657	674,668	0,030	-0,056
-413,642	-200,000	-0,012	-0,062
-412,628	-117,398	-0,072	0,009
-411,613	800,000	-0,057	-0,157
-410,598	-200,000	-0,004	-0,050
-409,584	217,865	-0,080	-0,093
-408,569	193,065	0,065	-0,072
-407,555	121,830	0,088	-0,080
-406,540	-129,498	0,070	0,007
-405,525	-2,061	-0,077	0,039
-404,511	-162,609	-0,120	-0,004
-403,496	595,434	-0,037	0,066
-402,482	-19,836	-0,189	0,084
-401,467	-200,000	0,022	-0,077
-400,452	45,039	0,040	0,027
-399,438	800,000	-0,021	0,065
-398,423	-16,834	-0,155	0,071
-397,409	-179,337	-0,056	-0,001
-396,394	800,000	-0,049	-0,129
-395,379	18,813	0,150	-0,087
-394,365	21,658	0,060	-0,036
-393,350	161,051	-0,067	0,068
-392,336	-88,806	-0,072	0,015
-391,321	355,368	0,040	0,058
-390,306	800,000	-0,050	-0,130
-389,292	-98,378	0,164	0,030
-388,277	-85,592	0,105	-0,024
-387,263	242,047	-0,091	0,111
-386,248	-200,000	-0,014	0,195
-385,233	-84,685	0,110	0,025
-384,219	726,411	0,027	-0,053
-383,204	-50,073	-0,088	-0,030
-382,190	-21,741	-0,057	-0,025
-381,175	-140,555	0,124	-0,009
-380,160	184,738	-0,047	0,051
-379,146	-6,797	-0,034	0,017
-378,131	657,922	-0,038	-0,072
-377,117	800,000	-0,013	-0,029
-376,102	241,047	-0,110	-0,134
-375,088	-200,000	0,006	-0,030
-374,073	681,157	-0,027	0,051
-373,058	-200,000	0,008	0,112
-372,044	-30,528	0,118	0,049
-371,029	-200,000	-0,001	0,095
-370,015	409,340	0,071	0,110
-369,000	-132,585	-0,111	-0,010
-367,985	202,570	-0,106	-0,118
-366,971	64,932	-0,068	-0,049
-365,956	-200,000	0,010	-0,032
-364,942	-12,024	0,174	0,082
-363,927	203,105	-0,077	0,086
-362,912	-128,591	-0,119	-0,012
-361,898	-157,876	0,105	0,004
-360,883	-19,366	-0,093	0,042
-359,869	800,000	-0,042	0,126
-358,854	45,550	0,076	-0,051
-357,839	800,000	0,023	-0,053
-356,825	161,646	0,028	0,029
-355,810	54,022	0,130	0,091
-354,796	-50,640	0,146	-0,050
-353,781	-83,525	-0,103	-0,024
-352,766	223,190	0,072	0,085
-351,752	164,640	0,123	0,126
-350,737	235,333	0,064	0,077
-349,723	-200,000	0,040	0,233
-348,708	-112,190	-0,030	-0,004
-347,693	-200,000	-0,006	-0,098
-346,679	316,165	-0,067	0,092
-345,664	-84,737	0,099	0,022
-344,650	316,019	0,064	-0,088
-343,635	14,533	0,077	-0,044
-342,620	-200,000	0,045	0,188
-341,606	-97,980	-0,133	-0,025
-340,591	33,712	0,067	-0,042
-339,577	416,518	-0,034	-0,052
-338,562	10,411	0,084	0,046
-337,548	800,000	0,011	0,025
-336,533	561,319	0,049	-0,086
-335,518	-121,823	0,116	0,014
-334,504	-86,505	0,076	0,017
-333,489	296,485	-0,007	-0,009
-332,475	-136,550	0,088	-0,007
-331,460	526,623	-0,018	-0,031
-330,445	800,000	0,038	-0,120
-329,431	77,129	0,109	0,084
-328,416	733,104	0,024	0,046
-327,402	-50,426	-0,038	0,013
-326,387	125,421	0,083	-0,076
-325,372	-70,729	-0,089	0,024
-324,358	136,888	0,071	0,067
-323,343	400,405	0,051	0,078
-322,329	23,541	0,065	0,039
-321,314	183,748	0,100	0,108
-320,299	-103,496	0,048	0,008
-319,285	119,715	-0,081	0,073
-318,270	-4,356	-0,115	0,057
-317,256	-59,648	0,076	0,023
-316,241	-34,628	-0,113	0,044
-315,226	155,578	-0,089	-0,089
-314,212	-200,000	-0,013	0,142
-313,197	114,953	0,026	0,023
-312,183	239,278	0,065	0,079
-311,168	53,785	0,030	-0,021
-310,153	-200,000	0,026	0,104
-309,139	438,461	-0,048	0,076
-308,124	86,716	0,068	-0,055
-307,110	-28,984	0,065	0,027
-306,095	124,548	0,041	0,037
-305,080	-138,244	0,012	-0,001
-304,066	-74,432	-0,038	-0,010
-303,051	-15,310	0,168	-0,078
-302,037	9,229	0,099	-0,054
-301,022	800,000	0,032	-0,065
-300,008	373,738	-0,059	0,088
-298,993	-100,487	0,097	0,017
-297,978	149,604	0,049	-0,048
-296,964	-47,846	-0,106	0,037
-295,949	-200,000	-0,020	-0,213
-294,935	-40,143	0,129	-0,048
-293,920	-200,000	0,004	-0,082
-292,905	379,940	-0,026	0,039
-291,891	-200,000	-0,021	-0,128
-290,876	-200,000	0,016	0,120
-289,862	9,523	0,132	0,072
-288,847	-117,832	0,081	-0,010
-287,832	102,395	-0,054	0,046
-286,818	71,981	-0,086	0,065
-285,803	78,323	0,098	0,076
-284,789	-110,558	-0,090	0,013
-283,774	338,389	-0,034	-0,048
-282,759	-65,047	-0,119	0,035
-281,745	499,407	-0,030	-0,051
-280,730	18,451	-0,063	0,037
-279,716	800,000	-0,025	0,072
-278,701	-42,570	-0,087	0,032
-277,686	-38,334	0,070	0,027
-276,672	2,507	-0,138	0,072
-275,657	-200,000	-0,019	-0,093
-274,643	-10,948	-0,133	-0,063
-273,628	-60,639	-0,058	0,018
-272,613	-41,592	-0,133	-0,049
-271,599	7,850	0,085	0,046
-270,584	-200,000	-0,002	0,061
-269,570	236,982	0,065	0,078
-268,555	243,109	0,021	-0,025
-267,540	800,000	-0,057	-0,158
-266,526	-200,000	-0,022	0,109
-265,511	-112,658	-0,113	-0,016
-264,497	-200,000	0,021	0,099
-263,482	800,000	-0,052	-0,147
-262,467	-200,000	0,015	0,139
-261,453	-200,000	-0,016	0,110
-260,438	25,967	-0,119	-0,072
-259,424	456,307	0,030	0,048
-258,409	-67,767	0,055	0,016
-257,395	800,000	0,033	0,092
-256,380	299,868	0,126	0,168
-255,365	-200,000	0,002	0,071
-254,351	800,000	-0,055	0,147
-253,336	12,217	0,016	0,009
-252,322	10,152	0,126	-0,069
-251,307	-200,000	0,002	-0,099
-250,292	20,765	0,083	0,049
-249,278	-200,000	-0,017	0,075
-248,263	800,000	0,041	0,089
-247,249	-200,000	-0,015	0,073
-246,234	610,170	-0,006	0,010
-245,219	-66,974	-0,108	-0,030
-244,205	292,207	0,039	0,052
-243,190	49,396	0,055	-0,037
-242,176	-26,995	0,159	0,067
-241,161	-62,143	0,110	-0,033
-240,146	800,000	0,063	0,163
-239,132	251,987	0,046	-0,056
-238,117	456,504	-0,118	-0,190
-237,103	81,617	-0,100	-0,078
-236,088	800,000	-0,046	0,115
-235,073	390,549	0,051	0,077
-234,059	-120,414	0,046	-0,006
-233,044	-34,543	-0,136	0,054
-232,030	246,850	0,104	0,127
-231,015	-200,000	-0,007	0,039
-230,000	2,159	0,075	0,039
-228,986	32,581	-0,096	-0,060
-227,971	58,063	0,058	0,041
-226,957	170,439	0,076	0,078
-225,942	-200,000	0,049	0,171
-224,927	544,235	0,094	-0,163
-223,913	800,000	-0,047	-0,130
-222,898	-8,536	0,090	0,044
-221,884	-111,774	-0,189	-0,027
-220,869	22,594	0,108	-0,064
-219,855	-101,351	0,120	0,021
-218,840	800,000	-0,028	0,086
-217,825	-107,689	-0,154	-0,024
-216,811	172,858	-0,043	0,045
-215,796	116,770	-0,029	0,026
-214,782	289,488	-0,027	-0,036
-213,767	438,979	0,010	-0,015
-212,752	-146,808	0,185	-0,011
-211,738	540,274	-0,009	-0,015
-210,723	-98,471	-0,059	-0,011
-209,709	-200,000	0,003	-0,063
-208,694	800,000	0,010	0,031
-207,679	221,243	0,029	-0,034
-206,665	-200,000	-0,022	0,095
-205,650	-189,495	-0,121	0,001
-204,636	800,000	0,032	0,098
-203,621	50,610	-0,078	0,053
-202,606	-150,043	-0,034	-0,002
-201,592	352,500	-0,076	0,109
-200,577	215,208	0,030	-0,034
-199,563	453,144	0,011	0,017
-198,548	20,125	0,194	0,113
-197,533	19,207	0,118	0,068
-196,519	-200,000	0,012	-0,069
-195,504	800,000	-0,032	0,082
-194,490	-200,000	-0,020	0,070
-193,475	-200,000	0,036	-0,128
-192,460	-97,453	0,036	-0,007
-191,446	237,547	0,072	-0,087
-190,431	94,983	0,065	-0,053
-189,417	800,000	0,044	-0,114
-188,402	-177,306	-0,044	-0,001
-187,387	209,518	-0,070	-0,080
-186,373	89,680	-0,108	-0,087
-185,358	778,711	-0,026	0,052
-184,344	-200,000	-0,023	0,000
-183,329	-108,045	0,138	-0,021
-182,315	-200,000	-0,004	0,123
-181,300	-200,000	0,004	-0,133
-180,285	50,011	-0,082	0,056
-179,271	-200,000	0,008	-0,051
-178,256	110,656	0,016	-0,014
-177,242	-200,000	-0,003	0,047
-176,227	175,499	0,081	0,084
-175,212	-28,847	0,049	-0,020
-174,198	162,139	0,024	0,024
-173,183	800,000	-0,069	-0,201
-172,169	-12,641	-0,090	0,042
-171,154	286,101	-0,059	0,077
-170,139	165,777	0,114	0,116
-169,125	774,416	0,022	0,044
-168,110	350,364	0,103	0,147
-167,096	-200,000	0,020	0,116
-166,081	-60,309	-0,155	0,047
-165,066	-4,825	-0,083	0,041
-164,052	800,000	-0,027	-0,057
-163,037	-57,446	0,090	-0,028
-162,023	-86,612	0,068	-0,015
-161,008	3,731	0,063	0,033
-159,993	-66,527	-0,063	0,018
-158,979	-63,614	0,068	0,020
-157,964	511,140	-0,026	-0,044
-156,950	550,890	-0,036	-0,063
-155,935	44,083	-0,056	0,037
-154,920	47,667	0,105	0,070
-153,906	800,000	0,026	0,059
-152,891	800,000	-0,028	-0,057
-151,877	-156,591	0,046	0,002
-150,862	800,000	0,019	-0,043
-149,847	3,766	0,074	-0,039
-148,833	481,514	-0,028	-0,045
-147,818	316,232	0,090	0,123
-146,804	800,000	-0,037	0,105
-145,789	800,000	0,016	0,035
-144,775	75,005	-0,090	-0,068
-143,760	-200,000	0,020	0,075
-142,745	-25,374	0,135	-0,057
-141,731	58,580	-0,092	0,065
-140,716	31,767	0,091	0,056
-139,702	-118,154	0,110	0,014
-138,687	9,035	-0,081	0,044
-137,672	35,919	-0,022	-0,014
-136,658	58,614	-0,010	-0,007
-135,643	-200,000	0,003	0,094
-134,629	396,681	-0,105	0,159
-133,614	763,370	-0,027	0,053
-132,599	186,878	0,062	0,066
-131,585	800,000	0,046	0,136
-130,570	800,000	-0,019	0,050
-129,556	800,000	0,013	0,035
-128,541	543,071	-0,123	-0,212
-127,526	14,782	-0,057	0,032
-126,512	-43,299	0,161	0,058
-125,497	-4,801	0,045	0,022
-124,483	-198,211	0,076	-0,000
-123,468	10,485	-0,066	-0,036
-122,453	-170,263	0,039	-0,001
-121,439	336,375	0,026	0,036
-120,424	-86,018	-0,054	-0,012
-119,410	619,458	0,067	0,122
-118,395	-200,000	0,029	0,000
-117,380	-18,788	0,054	-0,024
