DTS Sentinel unit serial number:	SN410029Multiplexer serial number:	ORYXHardware model number:	OX2-SRSoftware version number:	ORYX F/W v4,00 Oryx Data Collector v3.7.2.0data status	okinstallation	B5 Nyhavnadifferential loss correction	single-endedforward channel	channel 2reverse channel	N/Adate	2023/12/13time	22:37:13forward acquisition time	300,00reverse acquisition time	0,00gamma	499,1914k internal	0,3154k external	0,3154temperature offset calibration	1,0000default loss term (dB/km)	0,3820temperature slope calibration	1,0000multiplexer offset coefficient	1,0000multiplexer slope coefficient	1,0000fibre end	0,00T internal ref (°C)	9,28T ext. ref 1 (°C)	-7,42T ext. ref 2 (°C)	-7,45length (m)	temperature (°C)	Stokes	anti-Stokes-744,400	86,716	0,092	-0,075
-743,385	-74,001	-0,325	-0,086
-742,371	-100,539	0,211	-0,038
-741,356	-38,581	-0,273	-0,106
-740,342	-193,263	0,245	0,002
-739,327	-143,592	-0,316	-0,022
-738,312	-74,739	0,153	0,040
-737,298	-154,262	-0,409	-0,020
-736,283	-44,957	0,177	0,065
-735,269	-159,069	-0,228	0,009
-734,254	-173,604	0,213	-0,005
-733,239	28,346	-0,599	-0,373
-732,225	102,618	0,113	0,097
-731,210	800,000	-0,026	0,057
-730,196	334,566	-0,008	-0,012
-729,181	-87,047	-0,105	-0,023
-728,167	-162,082	0,112	-0,004
-727,152	416,803	0,050	0,080
-726,137	-109,847	-0,066	0,010
-725,123	434,676	-0,043	0,069
-724,108	-105,307	-0,141	-0,024
-723,094	-200,000	-0,027	-0,223
-722,079	800,000	-0,011	-0,026
-721,064	319,621	0,023	-0,032
-720,050	-92,694	-0,081	0,017
-719,035	274,145	-0,061	0,079
-718,021	-200,000	-0,005	-0,041
-717,006	-53,047	-0,098	0,033
-715,991	800,000	-0,082	-0,200
-714,977	-19,910	-0,082	-0,037
-713,962	18,148	0,088	0,052
-712,948	3,711	0,146	0,078
-711,933	-18,124	-0,179	0,082
-710,918	493,417	0,049	-0,083
-709,904	-36,895	-0,133	-0,052
-708,889	126,043	-0,120	-0,112
-707,875	-67,653	-0,105	0,030
-706,860	157,378	0,065	-0,066
-705,845	236,075	-0,083	-0,101
-704,831	215,752	0,060	0,070
-703,816	138,887	-0,131	-0,127
-702,802	423,482	-0,071	-0,112
-701,787	-200,000	-0,011	-0,070
-700,772	244,512	0,052	-0,064
-699,758	-20,956	0,045	-0,020
-698,743	137,684	0,032	0,031
-697,729	-41,544	0,114	0,043
-696,714	134,025	-0,066	-0,063
-695,699	-48,700	-0,055	0,019
-694,685	-200,000	-0,001	0,006
-693,670	41,120	-0,111	0,074
-692,656	-200,000	-0,005	0,035
-691,641	-200,000	-0,004	-0,103
-690,627	800,000	-0,031	0,085
-689,612	217,768	0,109	-0,128
-688,597	-200,000	-0,014	0,083
-687,583	2,044	0,122	-0,065
-686,568	490,181	0,052	0,089
-685,554	800,000	-0,063	-0,174
-684,539	800,000	0,064	0,144
-683,524	458,695	0,120	-0,198
-682,510	357,037	-0,029	0,042
-681,495	-200,000	0,000	-0,020
-680,481	509,701	-0,026	0,044
-679,466	310,090	0,060	0,083
-678,451	77,451	-0,060	-0,047
-677,437	706,101	0,060	0,117
-676,422	-175,854	0,131	-0,003
-675,408	43,731	0,008	-0,005
-674,393	-131,947	-0,104	-0,010
-673,378	138,218	0,050	-0,048
-672,364	284,157	-0,090	-0,120
-671,349	-14,454	0,196	-0,092
-670,335	-200,000	0,008	-0,080
-669,320	-74,843	-0,094	-0,025
-668,305	-124,920	0,041	0,005
-667,291	800,000	0,043	-0,115
-666,276	520,433	-0,031	-0,054
-665,262	-86,905	-0,108	-0,024
-664,247	105,973	-0,053	0,046
-663,232	-70,201	0,112	0,031
-662,218	800,000	-0,022	0,057
-661,203	-119,841	0,017	-0,002
-660,189	653,530	-0,059	-0,111
-659,174	-58,261	-0,033	0,010
-658,159	-200,000	-0,017	0,058
-657,145	-49,157	-0,139	0,049
-656,130	-200,000	0,005	0,048
-655,116	-200,000	-0,001	0,120
-654,101	32,017	0,090	0,057
-653,086	-200,000	-0,035	0,130
-652,072	800,000	-0,006	-0,017
-651,057	-20,289	-0,021	0,009
-650,043	96,747	0,021	0,017
-649,028	-129,993	-0,120	-0,012
-648,014	-8,097	0,149	-0,074
-646,999	800,000	-0,013	0,031
-645,984	34,123	-0,054	-0,035
-644,970	800,000	0,034	-0,097
-643,955	88,990	-0,098	-0,080
-642,941	95,285	-0,019	-0,016
-641,926	-67,475	-0,040	-0,011
-640,911	-3,741	-0,084	-0,043
-639,897	800,000	-0,003	0,007
-638,882	738,426	-0,043	-0,086
-637,868	-45,711	-0,083	-0,030
-636,853	-113,676	-0,054	0,008
-635,838	251,384	-0,080	0,100
-634,824	800,000	0,031	-0,074
-633,809	-151,113	-0,071	0,004
-632,795	183,607	0,098	-0,106
-631,780	104,481	0,160	-0,138
-630,765	-200,000	-0,010	-0,033
-629,751	78,167	0,154	0,120
-628,736	-51,555	0,069	-0,024
-627,722	800,000	0,010	-0,025
-626,707	70,552	0,003	0,002
-625,692	23,780	-0,046	0,028
-624,678	-56,280	-0,060	-0,019
-623,663	-200,000	0,011	-0,043
-622,649	-200,000	-0,010	-0,084
-621,634	511,998	-0,110	-0,189
-620,619	800,000	-0,042	-0,103
-619,605	48,700	0,143	0,098
-618,590	543,272	-0,045	-0,079
-617,576	39,848	-0,092	0,061
-616,561	36,546	-0,026	-0,017
-615,546	-16,593	-0,067	-0,031
-614,532	-200,000	0,017	0,057
-613,517	428,595	0,063	0,100
-612,503	-89,891	-0,103	-0,022
-611,488	-108,853	-0,102	-0,016
-610,474	-200,000	0,005	0,079
-609,459	-96,171	0,112	0,022
-608,444	397,445	-0,075	-0,116
-607,430	691,145	-0,015	-0,030
-606,415	-102,616	0,073	-0,013
-605,401	-200,000	0,008	0,052
-604,386	800,000	0,024	0,074
-603,371	194,000	0,029	-0,032
-602,357	-51,164	0,097	0,033
-601,342	29,451	-0,126	-0,078
-600,328	-128,925	-0,096	0,010
-599,313	-53,114	-0,076	0,025
-598,298	75,965	-0,031	-0,024
-597,284	-200,000	0,015	-0,084
-596,269	228,092	-0,062	-0,074
-595,255	-39,725	0,079	0,030
-594,240	-200,000	0,011	0,110
-593,225	800,000	0,080	-0,212
-592,211	656,812	-0,089	-0,169
-591,196	325,565	0,052	0,073
-590,182	-5,115	-0,071	0,036
-589,167	2,438	-0,117	-0,062
-588,152	-56,360	-0,059	-0,019
-587,138	800,000	-0,056	-0,114
-586,123	296,491	0,008	0,010
-585,109	60,719	-0,126	-0,092
-584,094	-188,807	-0,046	-0,000
-583,079	-25,967	0,118	-0,051
-582,065	63,326	0,055	-0,040
-581,050	117,968	-0,145	-0,131
-580,036	-151,865	0,091	-0,005
-579,021	140,786	0,054	0,052
-578,006	137,105	-0,039	-0,038
-576,992	550,868	-0,007	-0,012
-575,977	108,687	0,120	-0,105
-574,963	-89,706	-0,148	0,032
-573,948	-127,972	0,162	0,017
-572,934	-52,720	-0,025	0,008
-571,919	-84,404	-0,091	-0,021
-570,904	-200,000	-0,020	0,074
-569,890	284,348	0,098	0,129
-568,875	106,988	-0,117	0,102
-567,861	266,322	-0,135	0,173
-566,846	-200,000	-0,015	0,099
-565,831	-81,198	0,101	-0,024
-564,817	800,000	-0,041	-0,112
-563,802	308,540	0,042	-0,058
-562,788	175,840	-0,080	0,085
-561,773	64,557	0,078	0,058
-560,758	-188,475	-0,040	-0,000
-559,744	99,000	0,027	-0,023
-558,729	-200,000	0,000	0,105
-557,715	4,576	-0,152	0,082
-556,700	-132,046	-0,119	0,011
-555,685	-65,019	-0,129	0,038
-554,671	-200,000	0,010	0,050
-553,656	448,578	0,012	-0,020
-552,642	84,598	-0,106	-0,085
-551,627	-73,852	0,060	-0,016
-550,612	72,895	0,075	0,057
-549,598	-200,000	0,001	-0,065
-548,583	125,472	0,064	-0,059
-547,569	-200,000	-0,012	-0,045
-546,554	30,791	0,059	0,037
-545,539	209,724	-0,035	0,040
-544,525	-3,902	0,079	0,040
-543,510	800,000	-0,054	-0,117
-542,496	-200,000	0,004	-0,122
-541,481	-137,723	-0,076	-0,006
-540,466	-200,000	0,008	-0,090
-539,452	-200,000	0,015	-0,113
-538,437	364,671	0,030	-0,045
-537,423	444,672	-0,031	-0,049
-536,408	11,477	-0,050	-0,028
-535,393	-13,140	0,041	0,019
-534,379	-9,817	0,040	0,019
-533,364	60,167	-0,088	0,064
-532,350	-65,090	0,093	-0,027
-531,335	800,000	0,024	-0,068
-530,321	269,947	-0,021	0,027
-529,306	227,257	-0,011	0,013
-528,291	273,066	0,041	-0,053
-527,277	-35,829	0,089	-0,035
-526,262	484,606	-0,019	0,032
-525,248	800,000	0,030	-0,086
-524,233	-200,000	-0,014	0,051
-523,218	800,000	0,030	-0,082
-522,204	-200,000	-0,013	-0,139
-521,189	127,683	-0,045	0,042
-520,175	-200,000	-0,010	0,093
-519,160	-155,301	0,065	0,003
-518,145	277,538	-0,100	0,130
-517,131	800,000	-0,019	0,062
-516,116	377,851	0,075	0,112
-515,102	139,105	0,069	0,066
-514,087	-50,174	-0,115	0,040
-513,072	-200,000	-0,032	-0,124
-512,058	174,098	0,085	-0,090
-511,043	45,949	0,032	0,022
-510,029	281,244	-0,005	-0,007
-509,014	4,065	0,061	-0,033
-507,999	-200,000	-0,010	0,037
-506,985	64,694	0,021	0,015
-505,970	282,578	-0,049	-0,065
-504,956	-55,927	-0,059	0,019
-503,941	-200,000	-0,014	0,077
-502,926	55,251	0,095	-0,067
-501,912	-200,000	0,011	0,083
-500,897	217,206	-0,119	0,139
-499,883	32,684	-0,124	-0,078
-498,868	-200,000	0,007	-0,039
-497,853	-29,903	0,147	0,061
-496,839	-200,000	0,005	0,037
-495,824	-200,000	-0,022	0,175
-494,810	31,527	0,163	0,102
-493,795	679,938	-0,038	0,073
-492,781	-62,020	0,051	-0,015
-491,766	-200,000	-0,000	-0,010
-490,751	-122,315	-0,049	-0,006
-489,737	-116,700	-0,074	0,010
-488,722	-200,000	-0,002	0,069
-487,708	147,905	-0,079	0,078
-486,693	46,955	-0,049	-0,033
-485,678	-200,000	-0,010	-0,078
-484,664	-92,504	0,174	-0,035
-483,649	226,851	0,071	0,085
-482,635	-145,754	-0,009	0,001
-481,620	264,499	-0,099	0,127
-480,605	-33,709	0,162	0,065
-479,591	113,822	-0,071	-0,063
-478,576	21,385	-0,104	-0,061
-477,562	42,546	-0,045	-0,030
-476,547	134,220	0,073	-0,069
-475,532	91,084	-0,076	-0,062
-474,518	-13,458	0,095	0,045
-473,503	644,708	0,027	0,051
-472,489	-59,979	-0,063	-0,019
-471,474	-27,943	0,091	-0,038
-470,459	-200,000	-0,010	-0,040
-469,445	-53,570	-0,079	0,026
-468,430	2,704	-0,033	-0,017
-467,416	-200,000	-0,011	0,114
-466,401	196,569	0,072	-0,081
-465,386	261,804	-0,046	0,059
-464,372	800,000	0,068	-0,164
-463,357	77,673	-0,117	0,091
-462,343	800,000	-0,034	-0,070
-461,328	800,000	-0,023	0,071
-460,313	-64,980	0,132	-0,039
-459,299	238,431	0,084	-0,102
-458,284	-65,529	-0,054	0,016
-457,270	573,915	-0,081	-0,144
-456,255	-89,940	-0,130	0,027
-455,241	-66,336	0,110	0,032
-454,226	79,480	-0,114	0,089
-453,211	274,502	-0,024	-0,030
-452,197	155,980	0,053	-0,053
-451,182	236,873	0,054	0,065
-450,168	673,758	0,014	-0,027
-449,153	-125,576	-0,070	0,008
-448,138	382,455	-0,023	0,034
-447,124	334,854	0,036	0,051
-446,109	109,836	0,025	-0,022
-445,095	-92,421	0,160	0,032
-444,080	-16,104	0,082	-0,038
-443,065	-26,071	0,214	-0,092
-442,051	-200,000	0,003	-0,038
-441,036	-200,000	0,011	0,046
-440,022	-150,050	0,121	-0,007
-439,007	800,000	-0,038	0,086
-437,992	77,213	-0,064	-0,049
-436,978	-97,886	0,135	0,025
-435,963	588,360	0,084	0,151
-434,949	495,537	0,022	-0,036
-433,934	47,354	0,075	0,051
-432,919	-200,000	0,019	-0,064
-431,905	426,700	-0,037	0,058
-430,890	50,990	0,091	0,063
-429,876	580,878	-0,040	0,072
-428,861	-126,926	0,081	0,009
-427,846	231,167	0,052	0,062
-426,832	800,000	-0,017	-0,050
-425,817	-200,000	-0,043	0,172
-424,803	116,999	0,021	0,019
-423,788	21,026	-0,068	0,040
-422,773	11,893	0,102	0,057
-421,759	18,926	-0,144	0,084
-420,744	-200,000	0,002	0,076
-419,730	-48,731	0,087	0,030
-418,715	227,037	-0,024	-0,028
-417,701	-200,000	-0,001	0,090
-416,686	-36,768	-0,024	0,009
-415,671	800,000	-0,001	-0,004
-414,657	-154,733	-0,089	-0,004
-413,642	-200,000	0,010	0,143
-412,628	420,751	0,031	-0,049
-411,613	-107,626	0,059	0,009
-410,598	-200,000	0,009	-0,044
-409,584	800,000	0,020	0,058
-408,569	800,000	0,015	-0,043
-407,555	-200,000	-0,012	0,076
-406,540	800,000	0,062	0,164
-405,525	-200,000	-0,014	0,118
-404,511	787,822	0,021	0,042
-403,496	646,472	0,025	-0,046
-402,482	-200,000	0,023	0,121
-401,467	800,000	-0,036	-0,090
-400,452	11,222	0,080	0,044
-399,438	154,016	-0,044	0,044
-398,423	77,411	-0,029	-0,023
-397,409	-107,353	-0,101	0,016
-396,394	-11,635	-0,022	-0,010
-395,379	-200,000	-0,014	0,068
-394,365	-98,915	0,017	0,003
-393,350	77,557	0,046	0,036
-392,336	8,884	-0,063	0,034
-391,321	72,491	-0,122	0,092
-390,306	133,614	0,007	-0,006
-389,292	-200,000	-0,007	0,073
-388,277	-75,339	0,100	-0,026
-387,263	-200,000	-0,063	-0,216
-386,248	188,495	-0,024	-0,027
-385,233	-200,000	0,019	-0,073
-384,219	244,597	-0,047	-0,057
-383,204	720,114	0,024	0,047
-382,190	56,609	0,046	-0,033
-381,175	181,500	0,086	-0,093
-380,160	-200,000	-0,019	0,127
-379,146	319,497	0,060	-0,083
-378,131	167,700	0,088	0,091
-377,117	-200,000	-0,017	0,153
-376,102	-200,000	-0,015	-0,115
-375,088	800,000	-0,023	-0,072
-374,073	127,867	-0,057	0,052
-373,058	-200,000	-0,059	0,214
-372,044	-200,000	0,029	0,167
-371,029	175,966	-0,075	0,080
-370,015	-134,301	-0,041	-0,004
-369,000	-52,187	0,187	-0,063
-367,985	358,496	-0,049	0,071
-366,971	-132,833	-0,112	-0,010
-365,956	59,010	0,087	0,062
-364,942	2,536	-0,114	-0,060
-363,927	196,766	0,120	0,133
-362,912	-85,573	-0,124	0,028
-361,898	80,917	-0,101	-0,079
-360,883	-121,712	0,059	0,007
-359,869	800,000	-0,046	-0,099
-358,854	-200,000	0,022	0,163
-357,839	-151,687	0,038	-0,002
-356,825	121,698	0,095	0,086
-355,810	-91,838	-0,144	0,030
-354,796	246,285	-0,082	0,101
-353,781	133,235	0,075	-0,070
-352,766	800,000	-0,037	0,085
-351,752	800,000	-0,027	-0,057
-350,737	800,000	-0,016	-0,046
-349,723	-50,409	0,073	0,025
-348,708	625,683	0,026	-0,048
-347,693	800,000	-0,035	-0,073
-346,679	-148,879	-0,156	0,009
-345,664	160,911	-0,045	0,046
-344,650	800,000	-0,027	0,061
-343,635	-200,000	-0,041	0,145
-342,620	800,000	-0,019	0,046
-341,606	19,250	-0,072	0,042
-340,591	-12,139	-0,050	-0,024
-339,577	424,970	-0,046	-0,072
-338,562	708,308	0,031	0,060
-337,548	-200,000	-0,032	-0,232
-336,533	175,323	0,104	0,110
-335,518	-103,397	0,195	0,033
-334,504	-48,794	-0,120	0,042
-333,489	310,548	0,038	0,052
-332,475	800,000	0,052	-0,106
-331,460	-200,000	0,017	-0,094
-330,445	-80,985	-0,033	-0,008
-329,431	-126,403	0,045	-0,005
-328,416	91,707	-0,020	0,016
-327,402	-111,213	0,125	-0,018
-326,387	152,159	0,089	0,088
-325,372	-200,000	0,004	0,079
-324,358	-78,907	0,048	0,012
-323,343	-86,923	-0,057	-0,012
-322,329	-16,027	-0,012	-0,006
-321,314	24,725	0,057	-0,034
-320,299	-200,000	0,040	0,167
-319,285	-16,317	-0,044	-0,020
-318,270	204,236	-0,051	-0,058
-317,256	205,035	0,036	-0,040
-316,241	-57,310	-0,111	-0,035
-315,226	99,689	-0,069	-0,058
-314,212	-200,000	0,006	0,097
-313,197	128,311	0,052	-0,048
-312,183	-200,000	-0,032	-0,122
-311,168	571,255	0,102	0,181
-310,153	-106,486	-0,080	-0,013
-309,139	196,055	0,086	0,095
-308,124	-114,169	0,134	0,019
-307,110	-200,000	0,001	0,079
-306,095	800,000	0,029	-0,081
-305,080	236,611	0,038	0,045
-304,066	269,240	0,064	-0,082
-303,051	-200,000	0,025	-0,099
-302,037	121,310	0,080	0,072
-301,022	-200,000	-0,015	0,117
-300,008	129,252	0,036	-0,034
-298,993	339,081	0,008	0,012
-297,978	101,072	0,021	-0,018
-296,964	166,864	-0,110	-0,113
-295,949	-200,000	-0,035	-0,131
-294,935	800,000	-0,021	-0,053
-293,920	675,614	-0,087	-0,165
-292,905	-200,000	0,008	0,057
-291,891	-154,018	-0,045	0,002
-290,876	-62,780	-0,039	-0,012
-289,862	353,981	0,080	-0,116
-288,847	-107,376	-0,091	-0,014
-287,832	293,434	0,096	-0,128
-286,818	-200,000	-0,008	-0,030
-285,803	186,877	0,019	-0,020
-284,789	-200,000	0,030	-0,214
-283,774	40,597	0,071	0,046
-282,759	-76,769	-0,145	-0,036
-281,745	-200,000	-0,016	-0,169
-280,730	-128,670	-0,017	0,002
-279,716	800,000	-0,038	0,114
-278,701	-111,457	0,043	0,006
-277,686	-200,000	-0,007	-0,034
-276,672	383,872	-0,062	0,093
-275,657	23,450	0,086	-0,051
-274,643	-6,568	-0,102	-0,050
-273,628	121,260	-0,049	-0,044
-272,613	-200,000	0,009	0,093
-271,599	244,360	-0,069	0,084
-270,584	-200,000	0,013	0,112
-269,570	-3,986	-0,066	-0,033
-268,555	705,229	0,037	0,071
-267,540	-63,576	-0,095	-0,028
-266,526	-200,000	-0,006	-0,107
-265,511	5,632	-0,061	-0,032
-264,497	350,462	0,120	0,173
-263,482	6,079	0,025	-0,013
-262,467	360,642	-0,072	-0,105
-261,453	159,344	0,030	-0,030
-260,438	-200,000	-0,003	-0,129
-259,424	800,000	0,027	-0,067
-258,409	-133,009	0,021	-0,002
-257,395	558,883	0,050	-0,087
-256,380	800,000	-0,044	-0,097
-255,365	800,000	0,034	0,070
-254,351	87,826	-0,083	-0,066
-253,336	655,412	0,034	0,063
-252,322	222,237	-0,042	-0,049
-251,307	-200,000	-0,013	-0,060
-250,292	-200,000	-0,018	0,105
-249,278	2,551	-0,026	0,014
-248,263	38,062	0,025	0,016
-247,249	-200,000	0,021	-0,076
-246,234	142,836	0,070	0,068
-245,219	258,670	0,029	0,037
-244,205	401,306	-0,045	-0,069
-243,190	-200,000	-0,019	-0,186
-242,176	232,744	-0,051	0,061
-241,161	115,801	-0,032	-0,028
-240,146	800,000	0,044	-0,108
-239,132	58,882	0,061	0,043
-238,117	-23,349	-0,225	-0,098
-237,103	364,367	0,042	0,061
-236,088	42,896	-0,113	0,074
-235,073	409,776	-0,106	-0,163
-234,059	-126,489	0,074	-0,008
-233,044	-200,000	-0,053	0,177
-232,030	-200,000	-0,003	-0,054
-231,015	80,731	-0,102	-0,080
-230,000	-200,000	-0,007	-0,074
-228,986	800,000	0,051	0,106
-227,971	-66,188	0,148	-0,042
-226,957	800,000	0,021	-0,067
-225,942	-90,296	-0,090	-0,019
-224,927	-200,000	0,009	-0,079
-223,913	-80,488	0,013	0,003
-222,898	-200,000	-0,036	-0,120
-221,884	639,275	0,054	-0,099
-220,869	3,852	-0,010	-0,005
-219,855	18,334	0,105	0,060
-218,840	-47,298	-0,151	0,053
-217,825	20,761	0,082	0,048
-216,811	88,629	0,032	-0,026
-215,796	-200,000	-0,001	-0,061
-214,782	313,003	0,061	-0,083
-213,767	-98,060	0,144	0,027
-212,752	-200,000	-0,024	0,132
-211,738	-21,258	-0,103	0,045
-210,723	800,000	-0,058	0,151
-209,709	-111,458	-0,013	-0,002
-208,694	88,224	0,144	0,116
-207,679	132,555	0,138	0,128
-206,665	116,922	-0,067	0,060
-205,650	-130,011	0,113	0,011
-204,636	-61,209	0,127	0,039
-203,621	11,194	0,117	0,065
-202,606	213,311	0,102	0,117
-201,592	-46,944	0,061	0,021
-200,577	-37,337	0,015	-0,006
-199,563	695,921	0,067	-0,128
-198,548	42,932	0,050	-0,033
-197,533	104,439	0,174	0,148
-196,519	91,222	0,069	-0,056
-195,504	-200,000	-0,001	-0,032
-194,490	85,873	-0,153	-0,122
-193,475	688,995	-0,051	0,098
-192,460	-5,106	0,161	-0,080
-191,446	800,000	-0,025	0,068
-190,431	183,077	-0,108	0,115
-189,417	-100,229	0,050	0,009
-188,402	800,000	0,029	-0,077
-187,387	171,537	0,055	-0,057
-186,373	30,356	-0,050	0,030
-185,358	227,888	-0,073	-0,086
-184,344	55,279	0,077	0,054
-183,329	-51,310	0,124	0,042
-182,315	-200,000	-0,013	0,117
-181,300	249,099	-0,016	-0,020
-180,285	-152,679	0,033	0,002
-179,271	133,456	-0,104	-0,097
-178,256	49,406	-0,097	-0,066
-177,242	-160,303	0,007	-0,000
-176,227	-112,141	0,038	0,005
-175,212	15,079	0,115	-0,065
-174,198	-200,000	-0,005	-0,073
-173,183	43,867	-0,177	-0,117
-172,169	37,690	0,117	0,075
-171,154	-158,541	-0,047	0,002
-170,139	30,292	-0,118	0,072
-169,125	-200,000	0,006	0,051
-168,110	-89,490	0,159	0,034
-167,096	-200,000	0,019	-0,130
-166,081	265,498	0,038	-0,048
-165,066	87,001	-0,158	-0,126
-164,052	-20,817	-0,065	0,028
-163,037	-200,000	0,002	0,073
-162,023	74,122	0,126	0,095
-161,008	-200,000	0,009	0,047
-159,993	41,233	0,015	-0,010
-158,979	-112,026	0,110	-0,016
-157,964	198,090	0,055	0,061
-156,950	162,923	-0,144	-0,146
-155,935	-149,592	-0,127	-0,007
-154,920	7,810	0,045	0,024
-153,906	800,000	-0,063	0,163
-152,891	-200,000	-0,001	-0,081
-151,877	-73,287	0,119	0,031
-150,862	61,266	0,151	-0,108
-149,847	28,474	-0,051	-0,031
-148,833	-200,000	0,001	-0,050
-147,818	178,016	0,072	-0,076
-146,804	96,098	0,082	0,068
-145,789	178,542	-0,085	0,090
-144,775	124,856	0,100	-0,090
-143,760	800,000	-0,042	-0,105
-142,745	-66,545	-0,017	-0,005
-141,731	-200,000	0,001	-0,013
-140,716	35,523	-0,049	0,031
-139,702	-32,033	-0,108	-0,043
-138,687	122,598	0,047	-0,042
-137,672	196,597	0,044	-0,048
-136,658	515,294	-0,027	0,045
-135,643	800,000	0,024	0,055
-134,629	208,064	-0,032	-0,037
-133,614	-102,655	0,174	-0,030
-132,599	26,610	0,174	0,105
-131,585	239,553	0,074	0,089
-130,570	-200,000	-0,007	0,111
-129,556	109,028	-0,073	-0,062
-128,541	-200,000	-0,002	-0,100
-127,526	-200,000	0,007	-0,081
-126,512	-200,000	0,016	0,125
-125,497	115,132	-0,017	-0,015
-124,483	-200,000	0,011	-0,057
-123,468	61,789	0,020	0,015
-122,453	-37,423	0,172	-0,066
-121,439	148,035	0,022	-0,022
-120,424	-23,444	0,093	-0,040
-119,410	-93,743	0,101	-0,020
-118,395	119,954	0,070	-0,063
