DTS Sentinel unit serial number:	SN410029Multiplexer serial number:	ORYXHardware model number:	OX2-SRSoftware version number:	ORYX F/W v4,00 Oryx Data Collector v3.7.2.0data status	okinstallation	B5 Nyhavnadifferential loss correction	single-endedforward channel	channel 2reverse channel	N/Adate	2023/12/13time	05:47:13forward acquisition time	300,00reverse acquisition time	0,00gamma	499,1914k internal	0,3160k external	0,3160temperature offset calibration	1,0000default loss term (dB/km)	0,3820temperature slope calibration	1,0000multiplexer offset coefficient	1,0000multiplexer slope coefficient	1,0000fibre end	0,00T internal ref (°C)	13,82T ext. ref 1 (°C)	-2,64T ext. ref 2 (°C)	-2,96length (m)	temperature (°C)	Stokes	anti-Stokes-744,400	441,711	0,083	0,134
-743,385	-51,103	-0,285	0,098
-742,371	41,242	0,128	0,085
-741,356	-92,621	-0,200	0,041
-740,342	396,775	0,032	0,049
-739,327	-59,958	-0,277	0,087
-738,312	433,630	0,072	0,116
-737,298	-41,569	-0,378	-0,143
-736,283	-45,299	0,100	-0,036
-735,269	-72,220	-0,294	-0,080
-734,254	111,813	-0,027	-0,024
-733,239	-22,563	-0,597	-0,265
-732,225	-77,856	0,159	-0,040
-731,210	-127,571	0,090	0,010
-730,196	-200,000	0,003	-0,042
-729,181	-200,000	0,012	-0,132
-728,167	249,744	-0,034	-0,043
-727,152	389,282	-0,106	-0,162
-726,137	135,029	-0,077	-0,074
-725,123	-200,000	-0,020	-0,143
-724,108	86,926	-0,060	-0,049
-723,094	29,730	-0,176	-0,110
-722,079	78,949	0,068	-0,054
-721,064	-30,757	-0,130	0,054
-720,050	-63,926	0,055	0,016
-719,035	-18,531	0,090	-0,041
-718,021	227,253	-0,095	-0,114
-717,006	-22,463	-0,120	-0,053
-715,991	800,000	-0,073	-0,162
-714,977	75,133	-0,097	-0,075
-713,962	-67,102	-0,088	-0,025
-712,948	434,462	0,078	0,126
-711,933	-97,662	0,134	-0,025
-710,918	55,627	-0,041	0,029
-709,904	-96,619	-0,087	0,017
-708,889	800,000	-0,022	-0,051
-707,875	800,000	-0,042	-0,089
-706,860	0,572	0,138	-0,073
-705,845	-124,784	0,060	-0,007
-704,831	-30,401	0,040	0,017
-703,816	-38,903	-0,141	-0,054
-702,802	-10,587	0,045	0,022
-701,787	66,661	-0,041	0,031
-700,772	-200,000	-0,005	-0,035
-699,758	312,500	0,054	0,074
-698,743	-124,108	0,117	0,013
-697,729	268,536	0,074	0,095
-696,714	-102,302	-0,068	0,012
-695,699	92,015	-0,048	-0,040
-694,685	154,912	0,043	0,044
-693,670	58,774	0,085	0,062
-692,656	-146,333	0,128	0,008
-691,641	17,621	0,123	0,072
-690,627	800,000	0,012	0,035
-689,612	56,521	-0,054	-0,039
-688,597	-200,000	0,012	-0,059
-687,583	73,020	-0,082	-0,063
-686,568	88,695	-0,160	-0,130
-685,554	-179,037	-0,142	0,002
-684,539	-59,094	0,057	-0,018
-683,524	800,000	-0,042	0,115
-682,510	-200,000	0,006	0,038
-681,495	108,525	-0,083	-0,073
-680,481	-20,960	-0,158	-0,071
-679,466	-171,664	-0,058	-0,001
-678,451	300,260	-0,059	-0,080
-677,437	57,728	0,101	0,073
-676,422	-200,000	-0,007	0,144
-675,408	517,122	-0,102	0,175
-674,393	85,493	-0,096	-0,078
-673,378	800,000	-0,035	-0,094
-672,364	119,842	-0,115	-0,104
-671,349	-144,660	-0,049	0,003
-670,335	800,000	-0,014	0,029
-669,320	-16,815	0,051	0,024
-668,305	-200,000	-0,018	0,078
-667,291	-110,809	-0,039	0,006
-666,276	-200,000	-0,036	-0,158
-665,262	-139,359	-0,087	-0,007
-664,247	20,883	-0,113	0,067
-663,232	-200,000	0,009	0,031
-662,218	-200,000	-0,002	0,007
-661,203	-200,000	-0,008	0,032
-660,189	45,790	0,091	0,062
-659,174	-8,897	0,049	-0,024
-658,159	358,860	0,029	-0,043
-657,145	471,442	-0,090	-0,150
-656,130	800,000	0,059	-0,120
-655,116	537,712	0,031	-0,054
-654,101	-200,000	-0,015	-0,098
-653,086	18,007	0,120	0,070
-652,072	-200,000	-0,000	-0,073
-651,057	-75,938	-0,096	0,025
-650,043	-166,953	0,044	0,001
-649,028	50,036	-0,042	0,029
-648,014	800,000	-0,069	0,171
-646,999	65,448	0,033	0,025
-645,984	800,000	-0,038	0,082
-644,970	-200,000	-0,005	0,138
-643,955	74,342	0,044	-0,034
-642,941	-80,916	-0,066	0,016
-641,926	-68,699	0,059	0,017
-640,911	186,785	0,103	-0,113
-639,897	-200,000	-0,031	0,143
-638,882	-200,000	-0,005	-0,031
-637,868	800,000	-0,047	-0,106
-636,853	165,284	0,035	-0,037
-635,838	-97,044	-0,032	0,006
-634,824	48,937	0,051	0,035
-633,809	-72,274	0,119	0,032
-632,795	-30,547	0,152	-0,063
-631,780	219,224	-0,106	0,125
-630,765	61,890	-0,081	-0,059
-629,751	-116,752	-0,071	0,010
-628,736	-176,691	-0,048	0,001
-627,722	-200,000	0,008	0,104
-626,707	800,000	-0,044	0,104
-625,692	-200,000	0,008	0,115
-624,678	-144,068	-0,067	0,005
-623,663	-29,639	-0,087	0,036
-622,649	5,130	-0,098	-0,053
-621,634	253,866	0,066	-0,083
-620,619	664,554	0,036	-0,069
-619,605	-200,000	0,035	0,123
-618,590	800,000	0,028	0,071
-617,576	-109,755	-0,084	0,013
-616,561	-0,814	0,073	0,038
-615,546	800,000	-0,074	-0,153
-614,532	24,102	0,111	-0,067
-613,517	645,732	-0,044	-0,083
-612,503	-72,673	-0,137	-0,037
-611,488	-200,000	0,004	-0,026
-610,474	308,467	-0,115	0,157
-609,459	800,000	0,046	0,095
-608,444	645,742	-0,026	0,049
-607,430	-200,000	0,013	-0,135
-606,415	-64,583	-0,098	-0,029
-605,401	-200,000	-0,048	-0,203
-604,386	800,000	-0,048	0,117
-603,371	-33,909	0,035	0,014
-602,357	-200,000	-0,014	-0,062
-601,342	429,088	-0,046	-0,073
-600,328	18,681	-0,129	-0,076
-599,313	81,421	0,059	0,046
-598,298	747,829	0,034	-0,068
-597,284	97,922	-0,063	0,053
-596,269	125,127	0,122	0,113
-595,255	177,142	-0,062	0,066
-594,240	39,338	0,055	-0,036
-593,225	120,259	-0,041	0,037
-592,211	512,044	-0,017	-0,030
-591,196	39,474	0,014	0,009
-590,182	-200,000	0,004	0,028
-589,167	-200,000	-0,016	0,080
-588,152	-200,000	-0,004	0,049
-587,138	161,001	-0,038	-0,038
-586,123	-10,070	0,104	0,050
-585,109	-200,000	0,001	0,019
-584,094	-200,000	-0,001	-0,040
-583,079	800,000	0,052	-0,108
-582,065	-200,000	-0,034	0,135
-581,050	-44,037	0,094	0,034
-580,036	131,200	-0,059	0,055
-579,021	67,855	-0,055	0,041
-578,006	275,670	0,096	-0,125
-576,992	-200,000	0,012	-0,137
-575,977	185,177	-0,070	0,076
-574,963	474,800	-0,042	-0,070
-573,948	-54,179	-0,040	0,013
-572,934	-200,000	0,001	-0,079
-571,919	-107,681	-0,124	0,020
-570,904	800,000	-0,020	-0,051
-569,890	800,000	-0,076	-0,163
-568,875	-200,000	0,015	-0,067
-567,861	39,434	0,045	0,029
-566,846	-170,693	-0,022	0,001
-565,831	-200,000	0,018	0,079
-564,817	49,176	0,107	-0,073
-563,802	-168,904	-0,072	-0,002
-562,788	527,873	-0,053	0,092
-561,773	-200,000	0,004	-0,062
-560,758	800,000	-0,023	-0,071
-559,744	-200,000	0,019	0,168
-558,729	191,300	0,095	-0,105
-557,715	445,708	-0,051	0,082
-556,700	800,000	0,052	-0,138
-555,685	-95,446	0,137	-0,027
-554,671	-4,159	0,120	0,061
-553,656	2,583	-0,036	0,019
-552,642	-200,000	0,006	-0,115
-551,627	-128,285	-0,048	0,005
-550,612	8,877	-0,078	-0,043
-549,598	12,286	-0,234	-0,131
-548,583	-20,902	0,129	-0,058
-547,569	121,867	0,121	0,110
-546,554	225,612	0,003	0,004
-545,539	57,724	-0,021	0,015
-544,525	-200,000	-0,003	-0,019
-543,510	-200,000	-0,009	-0,057
-542,496	-0,851	-0,108	-0,056
-541,481	-200,000	0,001	-0,009
-540,466	800,000	0,050	0,107
-539,452	-104,011	-0,067	0,011
-538,437	-72,561	-0,008	0,002
-537,423	-29,375	0,018	0,008
-536,408	-40,338	0,054	-0,021
-535,393	-159,622	-0,168	-0,007
-534,379	800,000	0,019	0,056
-533,364	-200,000	-0,026	-0,090
-532,350	-101,622	0,144	-0,025
-531,335	800,000	-0,019	-0,055
-530,321	-95,738	-0,113	-0,022
-529,306	800,000	0,022	-0,066
-528,291	-75,367	-0,054	-0,014
-527,277	-18,033	-0,088	-0,040
-526,262	-121,454	0,076	0,009
-525,248	-200,000	-0,112	0,000
-524,233	15,913	0,087	-0,050
-523,218	-146,153	0,075	-0,005
-522,204	86,329	0,043	0,035
-521,189	-132,315	0,065	-0,006
-520,175	-200,000	-0,004	-0,035
-519,160	12,131	-0,123	-0,069
-518,145	250,292	-0,050	0,062
-517,131	193,994	0,083	0,092
-516,116	314,606	0,027	0,038
-515,102	800,000	-0,033	-0,100
-514,087	-108,410	0,199	-0,031
-513,072	-104,869	-0,174	0,029
-512,058	44,320	-0,044	0,030
-511,043	-200,000	0,005	0,078
-510,029	-200,000	0,022	0,095
-509,014	-52,410	0,057	-0,019
-507,999	-89,680	-0,072	0,015
-506,985	-78,112	-0,033	0,008
-505,970	-145,949	-0,153	0,010
-504,956	-122,580	-0,046	0,005
-503,941	-14,236	0,068	0,032
-502,926	-76,030	0,123	-0,032
-501,912	147,645	-0,065	-0,064
-500,897	-200,000	-0,043	0,244
-499,883	-1,135	0,109	0,056
-498,868	-108,608	-0,120	-0,019
-497,853	-157,706	0,076	0,003
-496,839	-200,000	-0,030	-0,163
-495,824	28,349	0,046	-0,028
-494,810	-200,000	-0,016	0,132
-493,795	-200,000	0,009	0,063
-492,781	800,000	-0,030	0,093
-491,766	-131,362	-0,060	-0,006
-490,751	-200,000	0,003	-0,053
-489,737	-71,875	-0,118	-0,032
-488,722	-200,000	0,016	-0,097
-487,708	63,424	-0,057	0,042
-486,693	-98,650	-0,072	-0,013
-485,678	71,799	0,088	-0,066
-484,664	800,000	-0,026	0,070
-483,649	152,549	-0,023	-0,023
-482,635	172,604	0,046	0,048
-481,620	185,857	-0,121	0,131
-480,605	214,367	0,020	0,024
-479,591	106,373	-0,031	-0,027
-478,576	-200,000	-0,002	-0,067
-477,562	109,949	-0,039	0,034
-476,547	800,000	0,020	-0,054
-475,532	232,531	-0,146	-0,175
-474,518	-83,717	0,084	0,019
-473,503	195,602	-0,049	-0,054
-472,489	65,680	0,055	-0,041
-471,474	788,757	0,068	0,138
-470,459	800,000	-0,059	0,121
-469,445	-139,602	-0,181	0,014
-468,430	-136,857	0,151	-0,013
-467,416	189,556	0,084	-0,092
-466,401	-25,530	0,128	-0,055
-465,386	120,224	-0,038	0,034
-464,372	-143,590	0,098	0,007
-463,357	-27,099	0,030	-0,013
-462,343	-200,000	0,013	-0,112
-461,328	800,000	0,018	-0,053
-460,313	7,270	-0,111	-0,060
-459,299	-200,000	-0,003	-0,059
-458,284	-118,399	-0,042	0,005
-457,270	-102,616	-0,051	0,009
-456,255	85,052	0,088	-0,070
-455,241	8,982	-0,083	-0,046
-454,226	88,177	-0,078	0,063
-453,211	-85,720	0,112	-0,025
-452,197	800,000	0,048	-0,105
-451,182	208,648	-0,095	-0,109
-450,168	-25,394	-0,149	-0,064
-449,153	172,087	0,064	-0,067
-448,138	259,329	-0,038	0,048
-447,124	-200,000	0,011	-0,051
-446,109	-108,628	-0,019	-0,003
-445,095	506,929	-0,053	-0,090
-444,080	-200,000	0,025	-0,136
-443,065	-200,000	-0,009	0,038
-442,051	175,762	0,142	-0,150
-441,036	341,160	0,038	-0,055
-440,022	-200,000	0,023	-0,074
-439,007	1,182	0,125	-0,065
-437,992	800,000	-0,007	-0,021
-436,978	186,162	0,129	0,140
-435,963	-200,000	0,051	0,254
-434,949	-60,050	-0,079	-0,024
-433,934	226,647	0,018	-0,022
-432,919	800,000	0,048	0,108
-431,905	389,710	0,041	-0,062
-430,890	103,566	0,049	-0,042
-429,876	-162,367	0,101	0,004
-428,861	676,108	-0,039	0,074
-427,846	26,600	-0,122	0,074
-426,832	-200,000	-0,003	0,122
-425,817	-200,000	-0,055	-0,193
-424,803	250,115	0,111	-0,138
-423,788	-46,063	0,082	-0,029
-422,773	-11,103	-0,041	0,019
-421,759	-69,101	-0,104	0,029
-420,744	259,991	0,055	0,070
-419,730	-117,483	-0,034	0,004
-418,715	284,803	-0,059	-0,078
-417,701	-72,984	0,125	-0,033
-416,686	82,486	0,076	0,060
-415,671	2,174	0,165	-0,086
-414,657	-200,000	-0,001	0,055
-413,642	-71,068	-0,027	-0,007
-412,628	340,694	0,062	0,088
-411,613	-200,000	-0,016	-0,074
-410,598	-124,552	-0,069	-0,008
-409,584	-200,000	0,011	0,051
-408,569	-12,104	-0,039	0,018
-407,555	23,381	-0,054	-0,032
-406,540	57,619	0,067	-0,047
-405,525	62,198	0,026	0,019
-404,511	538,825	-0,063	0,110
-403,496	289,535	-0,049	-0,065
-402,482	-94,466	0,150	-0,029
-401,467	713,608	-0,045	-0,088
-400,452	800,000	-0,025	0,053
-399,438	130,251	-0,035	0,033
-398,423	-153,874	-0,051	-0,002
-397,409	-200,000	-0,019	-0,137
-396,394	800,000	-0,027	-0,065
-395,379	262,577	-0,056	-0,071
-394,365	-10,564	0,151	-0,072
-393,350	-90,748	-0,064	0,013
-392,336	-200,000	-0,012	0,191
-391,321	-2,619	0,095	-0,048
-390,306	6,343	0,019	-0,010
-389,292	161,812	-0,049	-0,050
-388,277	-200,000	-0,024	-0,136
-387,263	-200,000	0,001	-0,012
-386,248	-103,941	0,118	0,020
-385,233	-200,000	0,008	0,095
-384,219	625,169	-0,013	-0,024
-383,204	-200,000	-0,000	-0,139
-382,190	146,345	0,042	-0,041
-381,175	-200,000	0,006	-0,022
-380,160	-200,000	-0,012	0,060
-379,146	80,908	0,077	-0,061
-378,131	-200,000	-0,022	-0,110
-377,117	242,083	-0,053	0,065
-376,102	-69,729	0,036	0,010
-375,088	800,000	-0,042	0,114
-374,073	800,000	0,053	0,159
-373,058	-200,000	0,004	-0,034
-372,044	295,983	0,059	0,078
-371,029	-16,845	0,062	-0,028
-370,015	800,000	0,027	-0,055
-369,000	74,010	0,009	-0,007
-367,985	34,989	-0,142	0,090
-366,971	-110,200	-0,065	-0,010
-365,956	340,924	-0,029	0,041
-364,942	-10,863	0,188	0,090
-363,927	339,870	0,069	0,097
-362,912	-88,971	-0,026	-0,005
-361,898	-200,000	-0,010	0,049
-360,883	-148,327	-0,097	-0,006
-359,869	525,711	-0,014	0,024
-358,854	4,044	0,010	-0,005
-357,839	-200,000	0,018	0,082
-356,825	-200,000	0,011	0,159
-355,810	-200,000	-0,005	0,034
-354,796	23,994	-0,043	0,026
-353,781	800,000	-0,047	-0,102
-352,766	-200,000	0,000	-0,132
-351,752	712,567	-0,018	-0,034
-350,737	325,844	-0,054	0,075
-349,723	800,000	0,034	-0,103
-348,708	355,970	0,044	0,064
-347,693	-44,330	-0,017	0,006
-346,679	456,610	-0,008	0,013
-345,664	32,741	0,067	0,042
-344,650	390,039	0,067	0,100
-343,635	286,158	-0,093	0,121
-342,620	294,710	0,081	0,108
-341,606	-20,745	0,094	-0,041
-340,591	536,144	-0,022	-0,039
-339,577	-35,092	-0,105	-0,041
-338,562	-87,296	-0,200	0,044
-337,548	4,903	0,118	-0,063
-336,533	-176,918	0,168	-0,003
-335,518	-112,509	0,062	-0,009
-334,504	-14,345	-0,111	0,051
-333,489	75,920	0,046	-0,036
-332,475	-4,523	0,079	0,039
-331,460	-98,135	-0,088	-0,016
-330,445	224,159	0,082	0,096
-329,431	95,397	0,009	0,007
-328,416	-200,000	-0,007	0,137
-327,402	-48,726	-0,083	0,029
-326,387	531,961	0,025	-0,043
-325,372	-107,435	-0,033	-0,005
-324,358	153,340	0,035	0,035
-323,343	-200,000	-0,016	-0,056
-322,329	800,000	0,031	0,086
-321,314	584,802	0,067	0,119
-320,299	-21,499	0,119	0,053
-319,285	95,477	-0,007	0,005
-318,270	7,579	0,002	-0,001
-317,256	-200,000	0,008	0,034
-316,241	-21,301	-0,048	0,021
-315,226	-110,808	0,063	0,009
-314,212	-163,666	-0,041	-0,001
-313,197	-200,000	0,030	0,128
-312,183	-200,000	-0,001	0,038
-311,168	-27,074	-0,186	0,078
-310,153	403,143	-0,082	0,125
-309,139	256,744	0,077	-0,096
-308,124	124,864	-0,039	-0,036
-307,110	800,000	-0,016	0,049
-306,095	191,082	0,035	0,038
-305,080	-200,000	-0,022	0,095
-304,066	-200,000	0,021	-0,099
-303,051	233,914	0,080	-0,096
-302,037	-200,000	-0,010	-0,063
-301,022	334,689	0,029	0,041
-300,008	438,702	0,033	-0,052
-298,993	133,610	0,117	0,110
-297,978	134,808	-0,021	-0,020
-296,964	800,000	0,028	-0,063
-295,949	139,214	-0,063	-0,060
-294,935	84,827	0,081	-0,065
-293,920	-41,472	0,030	-0,011
-292,905	152,102	0,076	0,075
-291,891	109,529	0,088	-0,076
-290,876	19,010	0,062	0,036
-289,862	800,000	-0,022	0,051
-288,847	-110,612	-0,183	-0,027
-287,832	-200,000	-0,031	0,110
-286,818	-200,000	0,023	0,133
-285,803	613,189	0,079	0,145
-284,789	-136,290	0,136	-0,011
-283,774	-200,000	0,018	0,196
-282,759	-39,750	-0,066	-0,025
-281,745	-42,098	-0,189	0,069
-280,730	-200,000	-0,011	-0,095
-279,716	48,359	0,118	0,080
-278,701	247,290	-0,036	-0,044
-277,686	-15,289	0,096	-0,044
-276,672	112,379	-0,075	0,065
-275,657	-129,127	-0,094	0,009
-274,643	126,625	0,097	-0,089
-273,628	320,431	0,031	0,043
-272,613	-5,855	-0,031	-0,015
-271,599	36,885	0,114	0,072
-270,584	-79,287	0,088	0,021
-269,570	800,000	-0,045	-0,098
-268,555	294,768	-0,017	-0,023
-267,540	9,217	0,113	-0,062
-266,526	-166,565	0,048	0,001
-265,511	-200,000	-0,000	0,080
-264,497	-82,954	-0,033	-0,008
-263,482	-200,000	-0,011	0,037
-262,467	178,043	-0,111	0,117
-261,453	-93,568	0,054	0,011
-260,438	800,000	0,041	-0,127
-259,424	657,199	-0,032	0,060
-258,409	-71,148	-0,071	0,019
-257,395	-121,843	0,062	0,007
-256,380	-64,175	-0,044	0,013
-255,365	-89,809	0,106	0,022
-254,351	-200,000	0,020	-0,105
-253,336	147,603	0,058	-0,056
-252,322	393,645	0,061	-0,092
-251,307	-85,473	-0,123	0,027
-250,292	-200,000	0,005	0,025
-249,278	58,867	0,034	-0,024
-248,263	44,887	0,161	0,107
-247,249	-162,509	-0,033	-0,001
-246,234	41,683	0,085	-0,055
-245,219	412,418	0,031	-0,048
-244,205	-57,167	-0,102	0,032
-243,190	800,000	0,080	-0,169
-242,176	-200,000	0,014	-0,074
-241,161	-200,000	-0,004	0,071
-240,146	-77,111	0,086	0,021
-239,132	800,000	-0,003	-0,008
-238,117	-200,000	-0,015	0,104
-237,103	-79,923	0,083	-0,020
-236,088	-200,000	0,017	0,077
-235,073	128,196	0,031	0,029
-234,059	-87,948	-0,031	0,007
-233,044	-30,236	0,046	-0,019
-232,030	8,879	-0,094	-0,051
-231,015	9,382	-0,011	-0,006
-230,000	800,000	-0,023	0,060
-228,986	378,413	-0,056	-0,083
-227,971	800,000	0,062	0,147
-226,957	-200,000	-0,008	0,086
-225,942	-152,702	-0,143	-0,007
-224,927	-129,555	-0,059	0,006
-223,913	160,725	0,057	0,058
-222,898	36,714	-0,021	0,013
-221,884	-113,273	-0,139	-0,020
-220,869	-200,000	0,000	-0,049
-219,855	503,811	0,040	-0,068
-218,840	-107,748	-0,076	0,012
-217,825	25,349	-0,109	0,065
-216,811	8,817	0,061	-0,033
-215,796	-200,000	0,001	-0,020
-214,782	67,605	0,083	-0,061
-213,767	800,000	0,038	0,104
-212,752	61,553	0,092	0,066
-211,738	-200,000	-0,003	-0,089
-210,723	800,000	0,068	-0,155
-209,709	-126,206	-0,153	-0,016
-208,694	-17,166	0,024	-0,011
-207,679	-116,271	-0,092	0,012
-206,665	687,027	-0,014	-0,027
-205,650	720,023	-0,055	0,106
-204,636	340,023	-0,027	-0,038
-203,621	-171,554	0,069	-0,002
-202,606	800,000	-0,062	-0,136
-201,592	-200,000	-0,030	-0,110
-200,577	121,799	0,108	0,097
-199,563	-61,904	0,026	0,008
-198,548	203,024	0,086	-0,096
-197,533	347,211	-0,078	-0,111
-196,519	-91,048	0,118	0,024
-195,504	572,999	0,036	-0,063
-194,490	-89,955	0,110	0,023
-193,475	-200,000	-0,009	-0,119
-192,460	-33,319	-0,063	0,025
-191,446	800,000	0,044	0,088
-190,431	48,828	-0,039	0,026
-189,417	24,893	-0,024	-0,014
-188,402	-113,234	-0,119	0,017
-187,387	800,000	0,038	-0,122
-186,373	36,356	-0,117	-0,074
-185,358	613,200	0,036	-0,064
-184,344	621,067	0,050	-0,090
-183,329	370,866	0,008	0,012
-182,315	87,714	-0,087	0,070
-181,300	-200,000	-0,008	0,036
-180,285	125,643	-0,090	-0,082
-179,271	-200,000	-0,008	-0,065
-178,256	-200,000	0,008	0,087
-177,242	223,633	-0,046	-0,054
-176,227	68,962	-0,038	0,028
-175,212	385,065	0,056	0,083
-174,198	38,450	-0,060	0,038
-173,183	-200,000	0,010	0,064
-172,169	-33,588	-0,116	-0,046
-171,154	81,290	-0,035	0,027
-170,139	-2,920	0,064	0,032
-169,125	-40,834	-0,148	-0,055
-168,110	-62,100	0,059	0,018
-167,096	-200,000	-0,013	0,057
-166,081	-200,000	0,001	0,106
-165,066	-200,000	-0,000	0,096
-164,052	-69,984	0,139	-0,038
-163,037	9,967	0,110	-0,060
-162,023	-37,779	0,004	0,001
-161,008	-64,373	-0,088	-0,025
-159,993	128,134	0,072	-0,066
-158,979	-200,000	-0,031	-0,110
-157,964	69,904	-0,068	-0,050
-156,950	-200,000	0,019	-0,099
-155,935	-200,000	0,017	-0,077
-154,920	800,000	0,034	0,102
-153,906	-200,000	-0,012	0,043
-152,891	-101,205	-0,131	-0,023
-151,877	282,364	0,054	-0,070
-150,862	-136,043	-0,159	-0,013
-149,847	84,540	-0,080	0,063
-148,833	-200,000	0,024	-0,184
-147,818	-107,555	0,063	-0,010
-146,804	-52,972	0,028	0,009
-145,789	127,224	0,064	-0,059
-144,775	800,000	0,046	0,098
-143,760	-193,895	0,108	-0,001
-142,745	800,000	-0,062	-0,127
-141,731	87,667	0,058	0,046
-140,716	25,572	-0,112	-0,067
-139,702	-41,162	0,037	0,014
-138,687	315,587	-0,033	-0,045
-137,672	-200,000	-0,001	-0,050
-136,658	800,000	0,041	-0,090
-135,643	54,940	-0,120	-0,084
-134,629	212,450	0,117	-0,133
-133,614	-96,026	0,129	0,024
-132,599	-200,000	-0,009	0,112
-131,585	4,669	0,093	0,049
-130,570	-200,000	0,013	0,104
-129,556	-39,286	-0,169	0,064
-128,541	399,957	-0,009	-0,013
-127,526	641,391	-0,085	-0,156
-126,512	564,047	-0,074	0,130
-125,497	83,113	-0,061	-0,048
-124,483	-130,801	0,079	-0,008
-123,468	53,233	-0,053	0,037
-122,453	170,969	0,050	0,051
-121,439	429,824	-0,064	0,100
-120,424	-84,101	-0,126	0,029
-119,410	800,000	-0,022	-0,047
