DTS Sentinel unit serial number:	SN410029Multiplexer serial number:	ORYXHardware model number:	OX2-SRSoftware version number:	ORYX F/W v4,00 Oryx Data Collector v3.7.2.0data status	okinstallation	B5 Nyhavnadifferential loss correction	single-endedforward channel	channel 2reverse channel	N/Adate	2023/12/11time	22:32:13forward acquisition time	300,00reverse acquisition time	0,00gamma	499,1914k internal	0,3156k external	0,3156temperature offset calibration	1,0000default loss term (dB/km)	0,3820temperature slope calibration	1,0000multiplexer offset coefficient	1,0000multiplexer slope coefficient	1,0000fibre end	0,00T internal ref (°C)	16,31T ext. ref 1 (°C)	0,14T ext. ref 2 (°C)	-0,14length (m)	temperature (°C)	Stokes	anti-Stokes-744,400	-200,000	0,030	-0,101
-743,385	-194,947	-0,228	-0,001
-742,371	-6,150	0,136	0,068
-741,356	-136,634	-0,097	0,008
-740,342	288,579	0,065	0,087
-739,327	-152,866	-0,323	-0,017
-738,312	800,000	0,063	0,160
-737,298	-139,625	-0,359	0,028
-736,283	-66,931	0,129	0,037
-735,269	-0,034	-0,219	0,115
-734,254	800,000	0,074	0,175
-733,239	-186,511	-0,457	0,005
-732,225	-18,806	0,206	-0,094
-731,210	25,550	0,039	0,024
-730,196	-200,000	-0,006	0,058
-729,181	169,119	-0,053	-0,056
-728,167	29,787	0,170	-0,107
-727,152	-48,002	-0,021	-0,008
-726,137	800,000	0,012	-0,026
-725,123	204,545	-0,084	-0,097
-724,108	449,471	0,050	0,081
-723,094	800,000	-0,112	-0,233
-722,079	800,000	0,012	-0,031
-721,064	-3,180	0,018	0,009
-720,050	85,417	-0,050	-0,040
-719,035	369,871	-0,096	-0,143
-718,021	371,914	-0,023	-0,034
-717,006	-36,914	-0,121	-0,048
-715,991	-200,000	-0,009	-0,031
-714,977	-117,523	-0,105	0,014
-713,962	190,700	-0,077	0,086
-712,948	422,708	-0,048	0,076
-711,933	4,905	0,145	0,079
-710,918	58,565	-0,051	0,037
-709,904	-8,836	-0,093	-0,046
-708,889	28,023	-0,057	0,035
-707,875	404,805	-0,056	-0,087
-706,860	-200,000	0,014	0,073
-705,845	-200,000	0,052	-0,185
-704,831	89,425	-0,013	-0,011
-703,816	-45,982	-0,194	0,070
-702,802	-200,000	-0,026	0,124
-701,787	-200,000	-0,007	-0,202
-700,772	-136,074	-0,072	-0,006
-699,758	-200,000	-0,011	-0,138
-698,743	-76,516	-0,056	-0,014
-697,729	216,024	-0,038	-0,045
-696,714	-200,000	-0,016	0,073
-695,699	-200,000	-0,001	-0,009
-694,685	-145,200	-0,031	-0,002
-693,670	539,797	0,051	-0,090
-692,656	-54,051	0,065	0,022
-691,641	563,160	0,064	-0,114
-690,627	39,793	0,076	0,050
-689,612	-200,000	0,030	-0,156
-688,597	-132,547	-0,096	0,009
-687,583	-200,000	-0,012	-0,051
-686,568	199,779	-0,066	-0,075
-685,554	-137,828	-0,058	0,005
-684,539	-80,950	-0,322	-0,078
-683,524	-184,235	-0,059	0,001
-682,510	800,000	-0,027	-0,057
-681,495	-200,000	-0,003	-0,079
-680,481	-35,224	-0,172	-0,068
-679,466	-37,053	-0,076	0,030
-678,451	-104,159	0,100	-0,017
-677,437	-200,000	-0,011	0,076
-676,422	-28,392	0,040	0,017
-675,408	-128,603	-0,181	0,019
-674,393	-35,750	-0,065	0,026
-673,378	-200,000	-0,003	-0,010
-672,364	121,244	-0,095	-0,087
-671,349	-200,000	0,009	-0,068
-670,335	-200,000	-0,042	0,166
-669,320	98,784	-0,086	0,073
-668,305	391,079	-0,075	-0,115
-667,291	787,627	-0,103	-0,210
-666,276	-65,009	-0,140	0,041
-665,262	-200,000	-0,003	-0,079
-664,247	101,636	-0,096	-0,082
-663,232	-200,000	0,020	-0,081
-662,218	103,691	0,061	-0,053
-661,203	-51,150	0,131	0,045
-660,189	-41,234	-0,196	0,074
-659,174	-42,442	-0,017	0,006
-658,159	-200,000	-0,030	0,124
-657,145	16,039	0,068	0,039
-656,130	72,345	-0,045	-0,034
-655,116	112,597	0,136	-0,121
-654,101	-75,947	0,059	0,015
-653,086	186,129	0,029	0,031
-652,072	-97,149	-0,052	-0,010
-651,057	730,569	-0,060	-0,119
-650,043	536,684	-0,025	0,044
-649,028	-200,000	0,009	0,049
-648,014	143,373	-0,036	0,035
-646,999	-200,000	0,007	-0,102
-645,984	-52,210	-0,143	0,048
-644,970	-75,665	-0,031	-0,008
-643,955	45,938	-0,072	-0,049
-642,941	-126,436	-0,131	0,014
-641,926	-38,959	0,092	-0,035
-640,911	-135,173	-0,008	-0,001
-639,897	216,080	-0,083	0,098
-638,882	612,686	-0,081	-0,149
-637,868	256,034	0,078	-0,098
-636,853	214,196	-0,134	-0,156
-635,838	-73,266	0,095	-0,025
-634,824	26,503	0,132	-0,081
-633,809	29,136	-0,040	-0,025
-632,795	49,656	-0,081	0,056
-631,780	30,566	-0,104	0,065
-630,765	569,363	0,021	0,038
-629,751	115,872	0,053	0,047
-628,736	800,000	-0,031	-0,099
-627,722	220,041	-0,020	-0,024
-626,707	404,435	0,039	-0,060
-625,692	-200,000	0,001	-0,065
-624,678	-155,560	0,055	-0,003
-623,663	-62,465	-0,136	-0,041
-622,649	287,706	-0,082	-0,109
-621,634	-105,219	-0,140	0,023
-620,619	65,266	-0,041	-0,030
-619,605	-64,251	0,074	-0,022
-618,590	239,624	-0,041	0,050
-617,576	-200,000	0,000	-0,004
-616,561	112,897	-0,127	-0,113
-615,546	800,000	-0,057	-0,128
-614,532	278,400	0,114	-0,149
-613,517	158,960	-0,031	0,032
-612,503	-200,000	-0,027	-0,115
-611,488	-200,000	-0,017	0,057
-610,474	74,199	-0,107	0,083
-609,459	60,453	-0,041	0,029
-608,444	-12,909	-0,046	0,022
-607,430	4,882	0,087	0,047
-606,415	15,562	0,116	-0,067
-605,401	770,953	0,004	-0,009
-604,386	-13,825	0,153	-0,072
-603,371	624,022	-0,015	0,027
-602,357	-1,067	-0,146	0,075
-601,342	-21,851	0,026	0,012
-600,328	-200,000	0,007	0,047
-599,313	-166,912	-0,173	0,005
-598,298	213,954	-0,090	-0,105
-597,284	310,924	0,037	-0,052
-596,269	407,285	0,053	-0,082
-595,255	-200,000	0,000	0,082
-594,240	505,635	-0,060	0,103
-593,225	226,757	0,006	0,007
-592,211	-50,620	-0,133	0,046
-591,196	310,763	0,012	-0,016
-590,182	-50,471	0,064	-0,022
-589,167	92,612	-0,084	0,070
-588,152	-200,000	0,029	0,144
-587,138	-200,000	0,009	0,075
-586,123	-200,000	0,034	-0,244
-585,109	-200,000	-0,021	-0,103
-584,094	-200,000	0,005	0,052
-583,079	-200,000	-0,002	-0,072
-582,065	-30,915	0,096	-0,040
-581,050	5,020	-0,090	0,049
-580,036	-200,000	0,025	-0,096
-579,021	-68,356	-0,113	-0,032
-578,006	800,000	-0,018	-0,043
-576,992	-200,000	0,004	0,015
-575,977	-200,000	0,010	-0,039
-574,963	35,303	0,019	0,012
-573,948	206,391	-0,051	-0,059
-572,934	-2,115	-0,137	-0,070
-571,919	-200,000	-0,001	-0,022
-570,904	-38,384	-0,105	-0,041
-569,890	-200,000	-0,008	-0,103
-568,875	-86,167	0,020	0,004
-567,861	149,277	-0,043	0,042
-566,846	-50,199	-0,167	0,057
-565,831	66,748	-0,060	-0,045
-564,817	117,000	0,035	-0,031
-563,802	134,022	-0,023	-0,022
-562,788	220,741	0,087	0,102
-561,773	103,010	-0,065	-0,056
-560,758	200,640	0,036	-0,041
-559,744	461,991	-0,051	0,084
-558,729	494,446	-0,081	-0,136
-557,715	-47,085	-0,083	-0,030
-556,700	800,000	0,020	-0,058
-555,685	-89,550	-0,168	-0,036
-554,671	39,522	0,126	-0,082
-553,656	258,742	0,045	0,057
-552,642	-7,821	0,102	0,050
-551,627	-196,007	-0,076	0,000
-550,612	-200,000	0,032	-0,162
-549,598	-200,000	0,002	-0,115
-548,583	-44,616	-0,159	-0,058
-547,569	-125,580	0,062	-0,007
-546,554	568,256	0,026	-0,046
-545,539	-200,000	0,010	0,050
-544,525	800,000	-0,055	-0,114
-543,510	62,013	0,073	-0,053
-542,496	-90,424	0,142	-0,030
-541,481	-200,000	0,011	0,105
-540,466	-123,837	-0,060	-0,007
-539,452	-179,151	0,112	0,002
-538,437	349,601	-0,058	-0,084
-537,423	-200,000	-0,014	0,081
-536,408	-55,206	0,039	-0,013
-535,393	-53,259	0,185	0,062
-534,379	-38,829	-0,029	0,011
-533,364	561,517	-0,064	0,113
-532,350	47,534	-0,005	-0,004
-531,335	800,000	-0,044	0,105
-530,321	39,956	-0,072	0,047
-529,306	-61,568	0,091	0,028
-528,291	800,000	-0,060	0,169
-527,277	-91,910	-0,112	-0,023
-526,262	87,674	-0,124	-0,100
-525,248	-89,791	-0,108	-0,023
-524,233	-119,323	0,070	-0,009
-523,218	-126,762	-0,068	-0,007
-522,204	-200,000	0,008	-0,163
-521,189	60,345	-0,023	0,017
-520,175	588,789	0,028	-0,051
-519,160	-2,726	0,053	-0,027
-518,145	-26,858	0,047	-0,020
-517,131	21,977	0,059	-0,035
-516,116	26,986	0,024	-0,015
-515,102	800,000	0,025	0,070
-514,087	-16,584	-0,041	0,019
-513,072	-71,201	-0,118	-0,032
-512,058	-156,105	0,120	0,005
-511,043	-200,000	0,015	0,105
-510,029	-77,323	0,010	-0,003
-509,014	197,598	-0,089	0,099
-507,999	324,095	0,010	-0,014
-506,985	-200,000	0,028	0,196
-505,970	-200,000	-0,003	0,048
-504,956	-132,649	-0,013	0,001
-503,941	525,957	-0,090	-0,156
-502,926	-100,770	0,081	0,015
-501,912	139,562	0,067	0,065
-500,897	132,936	-0,063	0,060
-499,883	787,005	-0,050	-0,101
-498,868	55,079	-0,065	0,046
-497,853	199,334	-0,057	0,064
-496,839	-97,477	-0,055	0,010
-495,824	800,000	-0,029	-0,074
-494,810	376,080	0,084	0,125
-493,795	-59,553	-0,022	-0,007
-492,781	656,885	-0,045	0,085
-491,766	-37,946	0,081	0,031
-490,751	55,707	0,066	0,047
-489,737	800,000	0,007	-0,023
-488,722	191,747	0,093	-0,103
-487,708	-134,090	0,133	0,012
-486,693	-200,000	0,026	0,087
-485,678	93,542	-0,113	0,093
-484,664	-102,590	-0,093	0,016
-483,649	445,280	-0,050	0,081
-482,635	11,437	-0,092	-0,051
-481,620	-200,000	-0,008	0,144
-480,605	-61,885	0,169	-0,051
-479,591	171,807	0,063	-0,066
-478,576	-129,319	-0,060	-0,006
-477,562	-57,666	-0,111	-0,035
-476,547	-200,000	-0,006	-0,037
-475,532	-115,633	0,107	0,015
-474,518	309,535	0,031	-0,043
-473,503	-0,103	0,044	-0,023
-472,489	-74,516	0,077	0,020
-471,474	800,000	-0,010	-0,031
-470,459	-122,784	-0,164	-0,019
-469,445	144,141	-0,025	0,024
-468,430	186,073	0,097	0,106
-467,416	-200,000	-0,003	0,097
-466,401	-134,322	0,244	0,022
-465,386	-169,810	-0,137	-0,004
-464,372	800,000	0,070	0,155
-463,357	-200,000	-0,004	-0,218
-462,343	-200,000	0,003	0,050
-461,328	-200,000	0,025	0,132
-460,313	-200,000	-0,001	0,055
-459,299	118,415	-0,023	0,020
-458,284	-122,586	0,098	0,011
-457,270	153,533	0,010	-0,010
-456,255	370,343	-0,024	-0,035
-455,241	251,691	-0,076	0,095
-454,226	-71,712	-0,118	-0,032
-453,211	740,953	0,024	0,047
-452,197	-200,000	-0,025	0,110
-451,182	339,384	-0,075	0,107
-450,168	-105,850	-0,056	-0,009
-449,153	-200,000	-0,005	-0,021
-448,138	-153,556	0,112	0,006
-447,124	69,881	0,032	-0,024
-446,109	-22,268	-0,045	-0,020
-445,095	-72,656	0,094	0,025
-444,080	-70,879	-0,116	-0,032
-443,065	114,916	0,030	0,026
-442,051	375,728	0,022	0,032
-441,036	-200,000	-0,011	-0,105
-440,022	-200,000	0,022	0,095
-439,007	800,000	-0,039	-0,093
-437,992	124,303	0,078	0,071
-436,978	-6,528	0,036	-0,018
-435,963	-109,866	0,107	-0,016
-434,949	-37,086	0,077	0,030
-433,934	-25,777	-0,039	0,017
-432,919	800,000	0,029	0,082
-431,905	141,658	-0,127	0,122
-430,890	-200,000	0,038	0,127
-429,876	800,000	-0,009	0,021
-428,861	-200,000	0,004	-0,013
-427,846	291,080	0,108	-0,144
-426,832	141,968	-0,074	0,072
-425,817	264,298	-0,052	-0,066
-424,803	164,039	0,028	-0,029
-423,788	143,741	0,151	0,147
-422,773	-200,000	-0,027	0,131
-421,759	-84,956	0,179	-0,041
-420,744	-200,000	-0,003	-0,097
-419,730	-200,000	0,014	-0,050
-418,715	-200,000	0,004	0,027
-417,701	346,470	0,044	0,063
-416,686	-47,252	0,110	0,039
-415,671	-54,753	0,040	0,013
-414,657	800,000	0,014	-0,029
-413,642	-200,000	0,003	0,065
-412,628	345,956	-0,020	0,028
-411,613	-72,628	0,057	-0,015
-410,598	590,905	-0,079	0,143
-409,584	-112,366	0,025	0,004
-408,569	-155,344	0,199	-0,009
-407,555	89,250	-0,118	-0,096
-406,540	-25,723	0,076	0,032
-405,525	7,047	-0,050	0,027
-404,511	-200,000	0,012	0,080
-403,496	-65,527	-0,071	-0,021
-402,482	-73,530	0,093	0,024
-401,467	472,631	0,046	-0,076
-400,452	-128,597	0,116	0,012
-399,438	133,353	0,090	-0,085
-398,423	702,484	-0,009	0,018
-397,409	161,970	-0,048	0,049
-396,394	-42,581	-0,024	-0,009
-395,379	-130,679	-0,056	0,005
-394,365	59,612	0,111	0,080
-393,350	271,749	0,042	-0,054
-392,336	55,791	0,083	-0,058
-391,321	-21,091	-0,097	0,043
-390,306	-88,495	0,144	-0,031
-389,292	-112,809	-0,034	-0,005
-388,277	-35,450	0,076	0,030
-387,263	-200,000	0,011	-0,095
-386,248	-171,541	-0,084	0,002
-385,233	-200,000	-0,008	0,149
-384,219	-175,224	-0,101	0,002
-383,204	39,248	-0,044	0,028
-382,190	116,484	-0,031	-0,027
-381,175	-200,000	-0,000	-0,051
-380,160	-115,621	0,035	0,005
-379,146	653,830	0,032	-0,060
-378,131	43,351	0,117	0,078
-377,117	-124,503	-0,075	-0,008
-376,102	133,914	0,050	-0,047
-375,088	-45,946	-0,100	0,036
-374,073	113,262	0,035	0,031
-373,058	183,334	0,026	-0,028
-372,044	121,869	-0,066	0,060
-371,029	-25,663	0,094	0,040
-370,015	800,000	-0,007	-0,020
-369,000	-60,586	0,081	-0,025
-367,985	50,288	0,084	-0,058
-366,971	139,465	0,061	-0,058
-365,956	-144,769	-0,177	-0,012
-364,942	232,834	-0,057	-0,068
-363,927	-72,259	0,167	0,045
-362,912	24,946	0,033	-0,020
-361,898	-200,000	0,004	0,031
-360,883	-20,566	-0,064	-0,028
-359,869	14,645	-0,172	-0,097
-358,854	194,641	-0,075	0,083
-357,839	-61,220	0,068	-0,021
-356,825	800,000	-0,021	0,046
-355,810	45,484	0,022	0,015
-354,796	800,000	-0,021	-0,057
-353,781	-94,044	0,043	0,008
-352,766	9,030	-0,074	-0,041
-351,752	111,825	0,085	-0,075
-350,737	303,460	0,032	0,044
-349,723	84,740	0,064	0,051
-348,708	-15,552	0,104	-0,048
-347,693	800,000	-0,023	0,055
-346,679	-200,000	-0,019	-0,077
-345,664	-181,377	0,111	0,002
-344,650	-200,000	-0,011	-0,072
-343,635	-71,783	0,083	-0,022
-342,620	586,109	-0,076	0,137
-341,606	-87,933	-0,083	0,018
-340,591	-200,000	0,013	-0,104
-339,577	800,000	-0,024	-0,065
-338,562	137,965	0,072	-0,069
-337,548	-16,615	0,112	-0,051
-336,533	-180,146	-0,126	0,002
-335,518	-200,000	-0,011	-0,036
-334,504	-122,254	0,123	0,014
-333,489	768,488	0,026	-0,052
-332,475	-166,838	-0,072	-0,002
-331,460	354,584	-0,067	-0,097
-330,445	186,556	0,049	0,053
-329,431	385,416	-0,020	0,029
-328,416	-200,000	-0,032	0,156
-327,402	800,000	0,018	0,036
-326,387	153,046	-0,049	0,049
-325,372	383,334	-0,036	0,054
-324,358	17,475	0,032	0,018
-323,343	94,533	0,052	0,043
-322,329	800,000	-0,057	-0,141
-321,314	32,116	-0,069	0,043
-320,299	168,497	0,019	0,019
-319,285	-112,153	-0,033	-0,005
-318,270	-47,374	-0,166	0,058
-317,256	-200,000	-0,007	0,097
-316,241	237,041	0,025	0,030
-315,226	12,445	-0,078	0,043
-314,212	-35,661	0,113	-0,044
-313,197	-196,546	0,100	0,000
-312,183	23,935	0,112	0,067
-311,168	-200,000	0,008	0,086
-310,153	13,256	-0,109	-0,061
-309,139	-200,000	0,007	0,029
-308,124	474,592	-0,044	-0,072
-307,110	84,788	0,066	0,053
-306,095	800,000	0,096	0,197
-305,080	-85,799	0,114	0,025
-304,066	14,365	-0,109	-0,061
-303,051	-33,080	-0,121	-0,049
-302,037	-200,000	0,023	-0,110
-301,022	800,000	0,029	-0,084
-300,008	125,544	0,039	0,036
-298,993	-16,564	0,119	-0,054
-297,978	-10,969	0,008	0,004
-296,964	-200,000	-0,000	0,013
-295,949	-138,043	-0,104	-0,008
-294,935	310,449	0,042	0,057
-293,920	223,242	0,065	0,076
-292,905	-105,738	0,034	0,006
-291,891	132,323	-0,076	-0,071
-290,876	195,735	-0,066	0,072
-289,862	-58,631	-0,176	-0,055
-288,847	-31,776	-0,072	0,029
-287,832	235,493	0,034	0,041
-286,818	-140,648	-0,079	0,006
-285,803	6,293	-0,104	0,056
-284,789	587,384	0,068	0,122
-283,774	-104,932	0,030	-0,005
-282,759	675,321	0,040	-0,075
-281,745	5,566	-0,067	-0,036
-280,730	-34,983	0,072	-0,028
-279,716	176,857	0,016	0,017
-278,701	-200,000	0,000	0,136
-277,686	-3,140	0,085	0,043
-276,672	565,672	0,014	-0,024
-275,657	-46,826	0,164	-0,058
-274,643	-103,320	-0,042	0,007
-273,628	-200,000	-0,003	0,034
-272,613	800,000	0,016	-0,040
-271,599	-85,103	0,066	0,015
-270,584	-148,533	0,077	0,004
-269,570	-93,474	0,065	0,013
-268,555	-144,694	0,117	0,008
-267,540	800,000	-0,024	0,062
-266,526	-94,750	-0,125	-0,024
-265,511	800,000	0,082	-0,185
-264,497	800,000	0,046	-0,104
-263,482	-200,000	-0,009	0,144
-262,467	-200,000	-0,051	0,201
-261,453	-103,678	0,073	0,012
-260,438	800,000	-0,049	-0,149
-259,424	185,376	0,048	-0,052
-258,409	800,000	0,033	-0,068
-257,395	608,557	-0,008	-0,015
-256,380	-200,000	-0,005	0,054
-255,365	215,939	0,076	0,087
-254,351	-200,000	-0,008	0,088
-253,336	-90,626	0,088	-0,018
-252,322	82,314	-0,071	0,055
-251,307	-200,000	-0,019	0,076
-250,292	-200,000	0,011	0,051
-249,278	317,533	0,035	0,048
-248,263	-200,000	0,021	0,075
-247,249	96,772	0,025	-0,020
-246,234	795,474	-0,041	-0,083
-245,219	-200,000	0,001	-0,179
-244,205	65,622	-0,045	0,033
-243,190	43,093	-0,095	0,063
-242,176	800,000	0,005	0,012
-241,161	-31,337	0,055	-0,022
-240,146	244,586	0,039	-0,048
-239,132	-200,000	0,047	0,154
-238,117	10,368	0,049	-0,027
-237,103	800,000	-0,022	-0,044
-236,088	47,000	0,006	0,004
-235,073	-81,580	-0,052	-0,012
-234,059	-200,000	-0,019	0,148
-233,044	-200,000	0,018	-0,108
-232,030	800,000	-0,059	-0,133
-231,015	-34,856	-0,088	-0,035
-230,000	-155,925	-0,095	-0,004
-228,986	426,503	0,062	0,097
-227,971	154,435	-0,112	0,112
-226,957	-27,526	0,218	0,091
-225,942	263,938	-0,052	-0,066
-224,927	-74,468	0,168	0,044
-223,913	-76,074	-0,032	0,008
-222,898	-113,949	-0,023	-0,003
-221,884	800,000	-0,037	-0,101
-220,869	515,917	-0,036	0,062
-219,855	105,584	-0,072	-0,061
-218,840	800,000	0,050	0,141
-217,825	283,562	0,086	0,112
-216,811	39,391	0,067	-0,043
-215,796	-140,750	-0,026	0,002
-214,782	-74,644	0,045	0,012
-213,767	800,000	0,019	0,046
-212,752	-200,000	0,004	0,139
-211,738	363,105	-0,097	-0,142
-210,723	800,000	0,039	-0,089
-209,709	-200,000	-0,001	0,070
-208,694	-144,641	0,085	0,006
-207,679	-105,584	0,105	0,017
-206,665	-108,807	0,043	-0,007
-205,650	76,102	-0,071	-0,054
-204,636	98,480	0,104	0,086
-203,621	-200,000	0,019	0,113
-202,606	-20,057	-0,108	-0,048
-201,592	-200,000	-0,012	-0,052
-200,577	213,450	-0,015	0,017
-199,563	-200,000	0,006	-0,107
-198,548	-200,000	-0,011	0,056
-197,533	800,000	0,019	-0,046
-196,519	-8,493	-0,080	0,039
-195,504	-98,406	-0,072	-0,013
-194,490	800,000	-0,007	-0,021
-193,475	-200,000	-0,014	-0,085
-192,460	-200,000	0,024	0,110
-191,446	-115,508	0,135	-0,018
-190,431	800,000	0,013	-0,038
-189,417	-152,178	0,026	0,001
-188,402	428,597	-0,032	-0,050
-187,387	-200,000	-0,011	0,053
-186,373	651,855	0,031	0,057
-185,358	-200,000	0,001	-0,022
-184,344	-58,418	0,130	0,040
-183,329	800,000	-0,037	0,080
-182,315	800,000	0,041	0,116
-181,300	607,159	-0,020	-0,037
-180,285	-126,900	-0,146	0,015
-179,271	800,000	0,048	0,116
-178,256	554,024	-0,038	0,067
-177,242	-149,643	0,096	-0,005
-176,227	-139,881	-0,055	-0,004
-175,212	782,730	-0,016	-0,031
-174,198	-200,000	0,061	-0,196
-173,183	-200,000	-0,001	0,033
-172,169	568,065	0,074	-0,131
-171,154	-48,593	0,075	-0,026
-170,139	134,945	-0,041	-0,039
-169,125	-200,000	-0,015	0,062
-168,110	-52,482	-0,106	-0,035
-167,096	375,910	0,049	-0,072
-166,081	120,635	-0,099	-0,089
-165,066	-200,000	0,008	-0,115
-164,052	45,105	-0,085	-0,057
-163,037	14,437	0,075	-0,042
-162,023	294,301	0,039	-0,052
-161,008	800,000	0,016	0,051
-159,993	-200,000	-0,011	-0,045
-158,979	59,573	-0,084	-0,059
-157,964	381,543	0,078	-0,116
-156,950	800,000	-0,016	0,039
-155,935	16,057	-0,094	-0,053
-154,920	800,000	0,062	-0,134
-153,906	-200,000	0,009	0,034
-152,891	-105,293	-0,111	-0,018
-151,877	599,274	-0,062	-0,111
-150,862	158,751	-0,127	-0,127
-149,847	269,440	0,069	-0,087
-148,833	-200,000	0,012	-0,079
-147,818	-178,709	0,091	0,001
-146,804	-138,981	-0,033	0,003
-145,789	-12,221	0,172	-0,081
-144,775	25,469	0,076	0,045
-143,760	134,847	0,076	-0,071
-142,745	279,259	0,004	0,006
-141,731	289,630	0,090	0,118
-140,716	-73,476	0,172	0,045
-139,702	-65,530	-0,126	-0,036
-138,687	800,000	-0,019	0,043
-137,672	-135,040	-0,125	0,011
-136,658	-107,603	0,034	0,005
-135,643	71,567	0,047	0,035
-134,629	800,000	0,015	-0,040
-133,614	74,661	0,153	0,116
-132,599	792,692	-0,016	0,032
-131,585	209,617	-0,142	0,160
-130,570	-147,489	-0,067	0,004
-129,556	500,469	0,058	-0,097
-128,541	-200,000	-0,037	-0,122
-127,526	330,520	0,067	0,094
-126,512	-57,945	0,050	-0,016
-125,497	62,969	0,070	-0,050
-124,483	83,215	0,083	0,065
-123,468	644,651	0,032	0,060
-122,453	800,000	-0,035	-0,073
-121,439	-200,000	-0,029	-0,104
-120,424	-23,507	-0,176	0,076
-119,410	-200,000	0,005	0,090
