DTS Sentinel unit serial number:	SN410029Multiplexer serial number:	ORYXHardware model number:	OX2-SRSoftware version number:	ORYX F/W v4,00 Oryx Data Collector v3.7.2.0data status	okinstallation	B5 Nyhavnadifferential loss correction	single-endedforward channel	channel 2reverse channel	N/Adate	2023/12/14time	17:07:13forward acquisition time	300,00reverse acquisition time	0,00gamma	499,1914k internal	0,3157k external	0,3157temperature offset calibration	1,0000default loss term (dB/km)	0,3820temperature slope calibration	1,0000multiplexer offset coefficient	1,0000multiplexer slope coefficient	1,0000fibre end	0,00T internal ref (°C)	8,13T ext. ref 1 (°C)	-7,22T ext. ref 2 (°C)	-7,26length (m)	temperature (°C)	Stokes	anti-Stokes-744,400	-139,304	0,271	0,021
-743,385	-77,441	-0,361	-0,092
-742,371	-113,748	0,119	0,017
-741,356	-52,727	-0,301	0,102
-740,342	800,000	0,124	0,290
-739,327	-90,741	-0,368	-0,078
-738,312	-200,000	0,020	-0,070
-737,298	-16,081	-0,266	-0,124
-736,283	81,296	0,221	0,176
-735,269	-100,298	-0,190	-0,035
-734,254	303,778	0,125	0,171
-733,239	-29,340	-0,637	-0,268
-732,225	41,143	0,109	0,073
-731,210	800,000	0,028	-0,063
-730,196	-62,684	-0,120	-0,036
-729,181	97,187	-0,081	0,068
-728,167	150,366	0,057	-0,057
-727,152	70,656	-0,027	-0,021
-726,137	-134,634	-0,219	0,019
-725,123	248,014	0,053	-0,067
-724,108	33,842	-0,137	-0,087
-723,094	800,000	-0,079	-0,173
-722,079	-116,177	0,043	-0,006
-721,064	-200,000	-0,082	0,293
-720,050	623,383	0,059	0,110
-719,035	184,950	0,032	-0,035
-718,021	-53,664	-0,206	-0,069
-717,006	800,000	0,024	0,074
-715,991	165,154	-0,122	-0,127
-714,977	684,541	-0,062	-0,120
-713,962	366,352	0,055	-0,082
-712,948	58,359	-0,113	0,082
-711,933	-200,000	-0,013	-0,054
-710,918	148,876	-0,021	0,021
-709,904	306,891	0,041	0,056
-708,889	198,508	-0,152	-0,171
-707,875	-88,028	-0,027	0,006
-706,860	-200,000	-0,035	-0,117
-705,845	132,423	0,095	-0,090
-704,831	67,787	0,030	0,022
-703,816	29,575	0,081	0,051
-702,802	119,019	-0,068	-0,062
-701,787	800,000	0,025	-0,071
-700,772	152,202	-0,030	-0,030
-699,758	-200,000	-0,010	-0,089
-698,743	158,925	0,089	0,091
-697,729	-200,000	-0,015	-0,053
-696,714	-200,000	-0,026	0,097
-695,699	-200,000	0,017	-0,105
-694,685	-200,000	-0,038	-0,126
-693,670	-200,000	-0,029	-0,135
-692,656	455,224	-0,020	-0,032
-691,641	-1,726	0,082	0,042
-690,627	-200,000	-0,030	-0,128
-689,612	-200,000	0,020	0,179
-688,597	66,724	0,056	-0,042
-687,583	-133,668	-0,177	0,016
-686,568	800,000	-0,069	0,140
-685,554	-75,013	-0,065	0,017
-684,539	11,320	0,108	-0,061
-683,524	-3,978	0,133	-0,068
-682,510	434,334	0,044	0,070
-681,495	800,000	-0,034	-0,079
-680,481	-173,204	-0,184	-0,004
-679,466	800,000	-0,064	-0,183
-678,451	112,182	0,016	-0,014
-677,437	-147,050	0,087	-0,005
-676,422	-200,000	-0,011	-0,060
-675,408	-200,000	0,008	-0,065
-674,393	-200,000	0,007	-0,065
-673,378	-100,620	-0,089	0,016
-672,364	-200,000	0,016	-0,078
-671,349	-53,509	0,092	-0,031
-670,335	-200,000	0,028	0,206
-669,320	685,904	0,032	0,063
-668,305	262,451	0,041	0,053
-667,291	800,000	-0,030	0,090
-666,276	14,830	0,130	-0,075
-665,262	-200,000	-0,028	-0,164
-664,247	243,643	-0,138	-0,170
-663,232	-91,852	-0,031	0,006
-662,218	-200,000	0,002	0,049
-661,203	55,770	0,102	-0,072
-660,189	413,790	-0,069	-0,109
-659,174	800,000	0,012	-0,027
-658,159	800,000	0,056	-0,135
-657,145	36,325	-0,123	-0,079
-656,130	-200,000	-0,136	-0,000
-655,116	230,996	0,062	-0,075
-654,101	527,792	0,054	0,093
-653,086	-200,000	-0,010	0,058
-652,072	-200,000	0,001	-0,037
-651,057	-81,602	-0,128	-0,031
-650,043	-200,000	0,022	0,096
-649,028	-31,543	0,083	0,034
-648,014	-200,000	-0,014	-0,098
-646,999	-11,477	-0,210	-0,101
-645,984	2,151	-0,040	0,021
-644,970	375,264	-0,057	-0,086
-643,955	256,364	-0,076	0,096
-642,941	122,133	-0,063	-0,058
-641,926	660,103	0,033	0,062
-640,911	171,878	-0,053	0,055
-639,897	800,000	-0,021	0,066
-638,882	-160,050	-0,071	0,003
-637,868	210,504	-0,075	-0,087
-636,853	-94,166	-0,012	0,002
-635,838	20,135	-0,064	-0,038
-634,824	-55,910	0,033	-0,011
-633,809	-200,000	-0,030	-0,117
-632,795	165,852	0,115	0,119
-631,780	800,000	0,033	0,072
-630,765	25,012	-0,067	-0,041
-629,751	-19,369	-0,036	-0,016
-628,736	-13,109	-0,090	-0,043
-627,722	-47,820	0,052	0,018
-626,707	3,961	0,077	0,041
-625,692	-9,305	0,014	0,007
-624,678	800,000	-0,045	-0,095
-623,663	13,750	0,086	-0,049
-622,649	-200,000	-0,029	-0,097
-621,634	115,612	-0,037	-0,034
-620,619	-144,887	0,057	0,004
-619,605	-200,000	-0,010	0,050
-618,590	-200,000	0,001	0,107
-617,576	-200,000	-0,024	0,107
-616,561	-83,771	-0,104	-0,024
-615,546	-200,000	0,005	-0,073
-614,532	-200,000	-0,054	-0,181
-613,517	151,963	-0,044	-0,044
-612,503	-200,000	0,000	0,043
-611,488	210,668	-0,028	-0,033
-610,474	-167,086	0,040	0,001
-609,459	-200,000	-0,015	0,082
-608,444	71,334	-0,174	0,132
-607,430	93,418	-0,111	-0,092
-606,415	-200,000	-0,034	-0,118
-605,401	-34,428	0,070	0,028
-604,386	-61,458	0,151	0,046
-603,371	-35,072	-0,101	0,040
-602,357	-200,000	-0,016	0,120
-601,342	-200,000	0,004	-0,039
-600,328	-174,476	0,048	-0,001
-599,313	46,710	0,049	-0,033
-598,298	-200,000	0,005	0,020
-597,284	800,000	0,028	0,086
-596,269	501,253	-0,044	-0,074
-595,255	-111,097	0,037	-0,006
-594,240	800,000	-0,079	0,162
-593,225	3,900	-0,124	-0,066
-592,211	-200,000	-0,006	0,074
-591,196	800,000	-0,010	-0,025
-590,182	14,598	0,146	-0,083
-589,167	-78,825	-0,077	-0,019
-588,152	353,332	-0,133	0,194
-587,138	275,812	0,040	0,052
-586,123	-200,000	-0,010	-0,037
-585,109	230,159	0,091	-0,109
-584,094	479,502	-0,045	-0,076
-583,079	-104,397	-0,184	-0,031
-582,065	107,656	0,079	0,069
-581,050	-200,000	0,002	-0,100
-580,036	-200,000	0,015	0,050
-579,021	-200,000	0,005	0,106
-578,006	-200,000	-0,009	0,066
-576,992	800,000	0,036	-0,100
-575,977	298,490	-0,049	-0,066
-574,963	-87,246	0,093	-0,021
-573,948	-57,231	-0,122	-0,039
-572,934	-200,000	0,001	0,027
-571,919	480,994	-0,072	-0,120
-570,904	800,000	-0,016	-0,046
-569,890	487,097	0,051	0,085
-568,875	-200,000	-0,014	0,057
-567,861	146,320	0,016	-0,015
-566,846	90,490	0,014	0,011
-565,831	-63,647	-0,113	-0,034
-564,817	-110,286	-0,126	-0,019
-563,802	-200,000	0,044	-0,171
-562,788	4,535	0,149	-0,080
-561,773	-200,000	0,029	0,140
-560,758	-200,000	0,013	0,107
-559,744	262,510	0,046	-0,058
-558,729	-104,068	-0,054	-0,009
-557,715	-200,000	0,024	0,121
-556,700	25,907	-0,115	-0,070
-555,685	752,057	-0,005	-0,011
-554,671	252,833	0,106	0,133
-553,656	-37,119	-0,034	0,013
-552,642	-200,000	-0,035	0,134
-551,627	142,850	-0,112	0,109
-550,612	368,802	0,035	0,052
-549,598	301,924	-0,061	-0,082
-548,583	-200,000	0,008	-0,098
-547,569	91,227	0,017	-0,014
-546,554	14,207	0,143	-0,081
-545,539	-109,910	-0,045	0,007
-544,525	149,679	-0,119	0,118
-543,510	287,605	0,066	0,087
-542,496	-200,000	-0,033	-0,117
-541,481	-200,000	0,019	-0,229
-540,466	-200,000	-0,016	-0,054
-539,452	19,295	0,052	-0,030
-538,437	798,146	-0,029	-0,060
-537,423	55,645	-0,057	0,040
-536,408	-1,743	0,069	0,035
-535,393	-200,000	0,019	0,076
-534,379	-66,561	0,039	-0,011
-533,364	182,944	0,008	-0,008
-532,350	800,000	0,057	-0,129
-531,335	205,332	0,062	-0,070
-530,321	-200,000	-0,008	-0,049
-529,306	205,664	0,033	0,038
-528,291	800,000	-0,071	-0,153
-527,277	800,000	0,040	-0,100
-526,262	800,000	-0,030	0,060
-525,248	400,860	0,036	0,055
-524,233	-200,000	-0,005	0,072
-523,218	-28,569	-0,075	-0,031
-522,204	12,725	-0,031	0,017
-521,189	212,682	0,012	-0,014
-520,175	800,000	0,068	-0,181
-519,160	151,679	-0,073	-0,073
-518,145	-200,000	-0,006	0,160
-517,131	19,742	0,141	-0,083
-516,116	5,396	-0,045	0,024
-515,102	70,144	-0,066	-0,050
-514,087	30,533	0,066	0,041
-513,072	44,830	-0,082	-0,055
-512,058	-81,116	0,109	0,026
-511,043	-200,000	0,031	0,154
-510,029	-146,251	0,040	0,003
-509,014	-200,000	0,009	0,059
-507,999	646,320	0,021	0,039
-506,985	-70,512	0,144	0,040
-505,970	659,770	-0,037	0,070
-504,956	62,104	-0,056	0,041
-503,941	-101,691	0,079	0,014
-502,926	-200,000	0,010	0,132
-501,912	800,000	0,024	0,054
-500,897	-93,793	-0,091	0,018
-499,883	-131,342	-0,038	0,004
-498,868	13,218	0,039	-0,022
-497,853	-113,755	-0,139	0,020
-496,839	9,775	0,169	-0,093
-495,824	184,790	-0,017	0,019
-494,810	-0,290	0,216	0,112
-493,795	800,000	0,013	-0,031
-492,781	216,843	0,021	0,024
-491,766	800,000	0,035	-0,112
-490,751	604,791	-0,059	-0,107
-489,737	-200,000	0,012	-0,051
-488,722	-138,650	0,138	0,011
-487,708	484,223	-0,066	0,110
-486,693	-32,643	0,120	0,049
-485,678	263,364	0,024	-0,031
-484,664	64,391	0,047	-0,034
-483,649	-200,000	0,016	-0,139
-482,635	62,988	-0,050	0,036
-481,620	-62,318	0,129	-0,039
-480,605	-79,287	0,052	-0,013
-479,591	123,537	0,076	-0,069
-478,576	-200,000	-0,017	0,073
-477,562	66,810	-0,108	0,080
-476,547	-200,000	0,005	-0,114
-475,532	96,164	-0,165	-0,138
-474,518	-140,839	0,017	0,001
-473,503	-200,000	0,023	-0,077
-472,489	49,919	-0,065	-0,044
-471,474	-21,143	-0,066	-0,029
-470,459	-200,000	-0,018	-0,138
-469,445	-114,824	0,080	0,011
-468,430	-200,000	-0,026	-0,168
-467,416	206,279	-0,082	-0,094
-466,401	34,093	0,034	0,022
-465,386	-18,494	0,066	0,030
-464,372	91,966	-0,064	-0,053
-463,357	-174,380	-0,123	0,003
-462,343	-64,848	-0,109	0,032
-461,328	-200,000	0,021	-0,187
-460,313	505,903	-0,075	-0,127
-459,299	24,811	0,018	0,011
-458,284	-200,000	-0,015	0,097
-457,270	529,822	-0,066	0,114
-456,255	-129,181	-0,114	0,011
-455,241	-200,000	0,001	-0,115
-454,226	110,771	0,048	-0,042
-453,211	-37,981	-0,053	0,021
-452,197	800,000	0,092	0,189
-451,182	-112,257	-0,078	-0,011
-450,168	-38,561	0,228	0,087
-449,153	-200,000	-0,005	0,044
-448,138	25,743	-0,069	-0,042
-447,124	390,642	-0,031	-0,047
-446,109	360,070	0,039	0,058
-445,095	5,406	0,068	-0,036
-444,080	-80,428	-0,079	0,019
-443,065	-28,263	0,111	0,047
-442,051	-187,646	-0,106	-0,001
-441,036	-200,000	0,009	0,040
-440,022	61,549	-0,140	0,101
-439,007	592,868	-0,052	0,094
-437,992	-20,497	-0,036	-0,016
-436,978	-6,807	0,086	0,043
-435,963	9,922	0,153	-0,084
-434,949	-200,000	0,000	0,041
-433,934	-200,000	-0,008	-0,087
-432,919	400,675	0,078	-0,120
-431,905	-200,000	-0,007	0,030
-430,890	368,248	-0,024	-0,035
-429,876	800,000	0,022	0,057
-428,861	-96,246	0,102	0,019
-427,846	206,141	-0,039	0,044
-426,832	-39,343	0,090	-0,034
-425,817	-200,000	0,014	0,056
-424,803	800,000	-0,042	0,100
-423,788	60,725	0,075	-0,054
-422,773	-108,384	0,058	-0,009
-421,759	96,012	-0,046	0,038
-420,744	800,000	0,018	-0,049
-419,730	-72,603	-0,164	0,044
-418,715	-73,219	-0,118	-0,031
-417,701	52,483	-0,067	0,046
-416,686	499,546	-0,010	-0,017
-415,671	161,267	-0,019	0,020
-414,657	438,893	0,020	-0,031
-413,642	-48,914	0,156	0,054
-412,628	-200,000	-0,017	-0,065
-411,613	160,305	-0,140	-0,143
-410,598	263,797	-0,080	-0,102
-409,584	800,000	-0,035	0,085
-408,569	-200,000	0,010	-0,048
-407,555	70,789	0,036	0,027
-406,540	26,940	0,104	0,063
-405,525	-200,000	-0,019	0,062
-404,511	-128,432	-0,114	-0,012
-403,496	85,053	-0,088	0,070
-402,482	34,726	-0,037	-0,023
-401,467	800,000	-0,033	0,082
-400,452	284,767	0,115	0,152
-399,438	-53,568	0,155	0,051
-398,423	-87,716	0,133	0,029
-397,409	196,326	-0,023	-0,026
-396,394	319,719	-0,021	0,029
-395,379	-181,536	0,077	0,001
-394,365	68,592	-0,052	-0,039
-393,350	-17,146	0,107	-0,049
-392,336	800,000	-0,043	-0,088
-391,321	-93,904	-0,080	-0,016
-390,306	11,104	0,141	-0,078
-389,292	-115,355	-0,178	-0,024
-388,277	-15,344	-0,050	0,023
-387,263	800,000	0,042	0,110
-386,248	675,672	-0,029	-0,055
-385,233	445,483	0,079	0,127
-384,219	800,000	-0,036	0,082
-383,204	58,434	-0,012	0,009
-382,190	-200,000	0,028	-0,119
-381,175	269,460	0,070	0,090
-380,160	-200,000	-0,001	-0,008
-379,146	56,098	0,119	-0,084
-378,131	-200,000	0,028	0,146
-377,117	373,580	0,032	0,048
-376,102	-200,000	-0,015	-0,069
-375,088	-126,472	-0,090	-0,010
-374,073	60,461	0,090	-0,065
-373,058	-200,000	-0,025	-0,091
-372,044	-200,000	0,022	-0,104
-371,029	-9,525	0,102	-0,049
-370,015	-11,932	-0,111	-0,053
-369,000	-32,863	0,046	0,019
-367,985	-82,744	-0,125	-0,029
-366,971	355,562	0,023	0,033
-365,956	336,911	0,108	0,153
-364,942	-103,989	-0,058	0,010
-363,927	234,564	-0,035	-0,042
-362,912	-57,841	-0,088	-0,028
-361,898	459,832	0,008	0,014
-360,883	-139,544	-0,093	-0,007
-359,869	110,624	-0,146	0,127
-358,854	427,274	0,101	0,159
-357,839	27,939	0,108	-0,066
-356,825	-200,000	0,001	-0,002
-355,810	635,963	0,013	-0,023
-354,796	-0,660	-0,081	0,042
-353,781	-200,000	-0,008	-0,158
-352,766	330,868	0,034	-0,048
-351,752	-200,000	-0,004	0,125
-350,737	76,063	0,038	0,029
-349,723	800,000	-0,018	0,041
-348,708	800,000	0,061	-0,172
-347,693	-110,215	-0,103	-0,015
-346,679	-19,395	-0,074	-0,033
-345,664	172,838	-0,105	-0,110
-344,650	-200,000	-0,000	0,040
-343,635	-200,000	0,006	0,078
-342,620	560,229	-0,068	0,119
-341,606	-44,322	-0,011	-0,004
-340,591	315,742	0,018	-0,025
-339,577	129,590	-0,052	-0,048
-338,562	490,561	-0,033	0,056
-337,548	-200,000	0,026	-0,104
-336,533	22,703	0,096	0,057
-335,518	192,347	0,048	0,052
-334,504	179,647	0,062	-0,066
-333,489	-200,000	0,022	0,126
-332,475	-28,844	-0,075	-0,031
-331,460	-200,000	0,016	-0,104
-330,445	151,012	0,176	-0,174
-329,431	-200,000	-0,011	0,082
-328,416	-200,000	0,015	-0,071
-327,402	-200,000	0,012	0,076
-326,387	-200,000	0,033	-0,120
-325,372	42,630	-0,123	-0,081
-324,358	-200,000	0,006	-0,101
-323,343	2,992	-0,124	-0,065
-322,329	-132,931	0,148	-0,014
-321,314	-200,000	-0,027	0,115
-320,299	-3,716	0,127	0,064
-319,285	800,000	0,056	0,142
-318,270	-123,451	0,166	-0,019
-317,256	-200,000	0,024	0,109
-316,241	-99,660	-0,042	-0,008
-315,226	91,404	0,030	0,024
-314,212	-142,971	0,038	-0,003
-313,197	-6,135	0,051	0,025
-312,183	26,002	0,140	0,085
-311,168	775,656	-0,037	0,074
-310,153	-187,415	0,070	-0,001
-309,139	800,000	-0,041	0,101
-308,124	-200,000	-0,022	0,110
-307,110	-200,000	-0,028	-0,113
-306,095	-49,389	-0,045	0,015
-305,080	300,459	0,011	-0,015
-304,066	-200,000	0,038	0,126
-303,051	-66,487	0,036	-0,010
-302,037	800,000	-0,083	-0,186
-301,022	19,216	-0,020	-0,012
-300,008	-200,000	-0,005	-0,020
-298,993	-200,000	0,005	0,059
-297,978	-15,894	0,059	0,027
-296,964	-128,609	-0,045	0,005
-295,949	800,000	-0,046	0,127
-294,935	151,921	-0,072	-0,071
-293,920	201,753	-0,051	0,057
-292,905	-200,000	0,021	0,135
-291,891	800,000	-0,021	0,056
-290,876	-200,000	0,007	0,120
-289,862	21,050	-0,049	0,029
-288,847	800,000	0,052	-0,132
-287,832	435,903	0,042	0,067
-286,818	37,142	0,101	-0,065
-285,803	487,050	0,067	-0,111
-284,789	135,089	0,037	-0,035
-283,774	-200,000	0,015	-0,048
-282,759	-157,578	-0,085	-0,004
-281,745	58,362	0,017	-0,012
-280,730	-57,996	0,117	-0,037
-279,716	-200,000	0,006	-0,092
-278,701	258,383	0,040	-0,050
-277,686	168,931	0,094	0,097
-276,672	-200,000	0,025	0,112
-275,657	-200,000	0,000	-0,058
-274,643	98,073	0,067	-0,056
-273,628	-88,862	0,083	0,018
-272,613	800,000	0,047	-0,128
-271,599	491,897	0,053	-0,088
-270,584	800,000	0,079	0,163
-269,570	-200,000	0,006	0,021
-268,555	-200,000	0,005	0,153
-267,540	-200,000	-0,024	0,102
-266,526	800,000	0,035	-0,089
-265,511	800,000	0,027	-0,079
-264,497	-200,000	0,005	0,073
-263,482	-44,859	0,198	-0,071
-262,467	-200,000	-0,052	0,166
-261,453	-146,357	-0,090	0,006
-260,438	-200,000	-0,013	-0,067
-259,424	-90,505	-0,085	-0,018
-258,409	97,044	0,111	0,092
-257,395	800,000	0,015	-0,036
-256,380	-183,063	0,040	-0,000
-255,365	-200,000	0,010	-0,132
-254,351	173,220	-0,089	0,093
-253,336	800,000	-0,036	-0,100
-252,322	3,732	0,074	-0,039
-251,307	8,746	-0,076	-0,041
-250,292	-188,303	0,128	-0,001
-249,278	552,812	-0,018	-0,032
-248,263	800,000	-0,007	-0,019
-247,249	-200,000	0,017	0,128
-246,234	-58,889	-0,210	0,065
-245,219	487,569	-0,095	-0,158
-244,205	34,333	0,163	-0,102
-243,190	-30,893	-0,123	-0,050
-242,176	-104,592	0,041	-0,007
-241,161	314,012	-0,021	0,028
-240,146	-117,998	-0,123	0,016
-239,132	800,000	0,011	-0,028
-238,117	-124,508	0,032	0,004
-237,103	261,019	-0,047	-0,059
-236,088	305,253	0,096	-0,129
-235,073	-200,000	0,009	0,040
-234,059	800,000	0,055	0,130
-233,044	-73,868	0,127	-0,033
-232,030	-5,003	-0,134	-0,067
-231,015	800,000	0,050	-0,102
-230,000	0,823	0,119	-0,062
-228,986	143,256	-0,053	0,051
-227,971	-200,000	0,016	0,228
-226,957	190,308	0,023	0,025
-225,942	-13,656	-0,070	-0,033
-224,927	67,681	-0,119	0,088
-223,913	-131,411	0,125	0,012
-222,898	52,106	-0,036	-0,025
-221,884	800,000	0,053	-0,137
-220,869	675,920	-0,065	-0,122
-219,855	37,175	0,070	-0,045
-218,840	-200,000	0,012	0,103
-217,825	241,540	0,091	0,110
-216,811	228,677	0,116	-0,137
-215,796	800,000	-0,040	0,099
-214,782	-113,373	-0,089	-0,012
-213,767	-81,466	0,084	0,020
-212,752	-200,000	0,007	0,107
-211,738	-200,000	0,046	0,163
-210,723	-200,000	0,010	0,000
-209,709	-200,000	-0,024	-0,157
-208,694	-173,321	0,080	0,002
-207,679	7,908	-0,132	-0,071
-206,665	-24,173	0,061	0,026
-205,650	-75,884	0,090	0,023
-204,636	-26,188	-0,049	0,020
-203,621	147,055	0,051	-0,049
-202,606	262,706	-0,064	-0,080
-201,592	-105,741	0,019	-0,003
-200,577	123,185	-0,140	0,127
-199,563	137,284	-0,097	0,091
-198,548	-73,164	0,187	0,049
-197,533	800,000	0,034	-0,096
-196,519	-4,205	0,109	0,054
-195,504	289,279	-0,090	-0,118
-194,490	-31,172	0,043	-0,017
-193,475	59,934	-0,070	-0,050
-192,460	-118,874	-0,045	0,006
-191,446	-200,000	0,001	-0,043
-190,431	32,998	-0,059	-0,037
-189,417	-19,808	-0,067	0,030
-188,402	-200,000	0,009	0,097
-187,387	-200,000	-0,013	0,046
-186,373	25,505	-0,026	-0,015
-185,358	342,972	-0,052	0,073
-184,344	346,807	-0,088	0,125
-183,329	125,958	0,086	-0,079
-182,315	-175,127	0,106	-0,002
-181,300	-65,166	-0,120	-0,035
-180,285	800,000	0,012	-0,030
-179,271	-200,000	-0,033	0,154
-178,256	-131,864	-0,081	-0,008
-177,242	214,992	0,081	0,093
-176,227	592,890	-0,027	-0,047
-175,212	-200,000	0,001	-0,084
-174,198	-108,464	0,080	-0,012
-173,183	-159,066	-0,037	-0,001
-172,169	51,335	0,028	0,019
-171,154	59,866	0,114	0,081
-170,139	-55,726	0,107	-0,034
-169,125	9,024	0,094	-0,051
-168,110	-75,720	-0,070	-0,018
-167,096	-200,000	0,017	-0,102
-166,081	496,975	-0,088	-0,146
-165,066	223,456	-0,055	0,064
-164,052	12,198	-0,191	0,106
-163,037	-200,000	0,014	0,134
-162,023	112,743	0,075	0,065
-161,008	48,776	-0,064	0,043
-159,993	-69,948	-0,087	-0,024
-158,979	294,636	-0,132	0,175
-157,964	-154,994	-0,088	0,004
-156,950	-36,107	0,101	-0,039
-155,935	74,669	0,040	-0,030
-154,920	800,000	0,069	0,139
-153,906	-85,442	-0,064	0,014
-152,891	-46,558	-0,139	0,049
-151,877	-200,000	-0,002	0,059
-150,862	-200,000	-0,015	-0,067
-149,847	21,626	-0,026	0,015
-148,833	96,958	-0,087	-0,072
-147,818	91,977	0,085	-0,069
-146,804	800,000	-0,040	-0,085
-145,789	-38,249	-0,070	0,027
-144,775	259,716	0,127	-0,158
-143,760	800,000	-0,051	0,116
-142,745	56,338	0,036	-0,025
-141,731	-68,155	0,060	-0,017
-140,716	273,661	0,092	0,117
-139,702	160,177	-0,053	0,053
-138,687	-119,612	-0,134	-0,016
-137,672	-36,573	-0,023	0,009
-136,658	-200,000	0,029	0,097
-135,643	-41,643	-0,081	0,030
-134,629	-200,000	0,025	-0,094
-133,614	-92,443	0,046	0,009
-132,599	10,821	0,125	0,068
-131,585	-200,000	0,024	0,161
-130,570	98,192	-0,119	-0,099
-129,556	-190,988	0,091	-0,001
-128,541	-200,000	-0,022	0,107
-127,526	275,189	0,037	0,047
-126,512	68,359	0,125	0,092
-125,497	-200,000	-0,032	0,108
-124,483	0,925	0,092	-0,047
-123,468	-108,929	-0,219	0,033
-122,453	-15,167	-0,085	0,039
-121,439	42,426	-0,127	-0,083
-120,424	800,000	0,086	-0,192
-119,410	5,767	0,099	0,052
-118,395	-200,000	0,002	0,114
