DTS Sentinel unit serial number:	SN410029Multiplexer serial number:	ORYXHardware model number:	OX2-SRSoftware version number:	ORYX F/W v4,00 Oryx Data Collector v3.7.2.0data status	okinstallation	B5 Nyhavnadifferential loss correction	single-endedforward channel	channel 2reverse channel	N/Adate	2023/12/12time	13:47:13forward acquisition time	300,00reverse acquisition time	0,00gamma	499,1914k internal	0,3157k external	0,3157temperature offset calibration	1,0000default loss term (dB/km)	0,3820temperature slope calibration	1,0000multiplexer offset coefficient	1,0000multiplexer slope coefficient	1,0000fibre end	0,00T internal ref (°C)	15,71T ext. ref 1 (°C)	-0,27T ext. ref 2 (°C)	-0,53length (m)	temperature (°C)	Stokes	anti-Stokes-744,400	331,804	0,059	-0,084
-743,385	-53,736	-0,237	0,079
-742,371	-78,973	0,212	-0,053
-741,356	-75,629	-0,277	0,072
-740,342	-66,693	0,067	-0,019
-739,327	-60,393	-0,265	-0,082
-738,312	-78,011	-0,061	-0,015
-737,298	-122,014	-0,303	-0,036
-736,283	-32,988	0,059	-0,024
-735,269	-73,126	-0,250	0,067
-734,254	800,000	0,059	0,193
-733,239	-54,343	-0,581	-0,193
-732,225	-88,132	0,194	0,043
-731,210	188,822	0,089	-0,098
-730,196	800,000	-0,027	0,063
-729,181	316,586	-0,030	0,042
-728,167	800,000	0,009	-0,023
-727,152	-107,242	0,095	0,015
-726,137	800,000	0,070	-0,160
-725,123	-11,690	-0,040	-0,019
-724,108	74,487	0,113	-0,087
-723,094	90,216	-0,060	-0,049
-722,079	101,740	-0,113	-0,097
-721,064	-200,000	0,002	-0,084
-720,050	159,654	-0,043	-0,044
-719,035	-97,054	-0,151	0,029
-718,021	386,174	-0,066	-0,101
-717,006	-26,726	-0,105	-0,045
-715,991	-200,000	0,031	-0,119
-714,977	-14,683	-0,104	-0,049
-713,962	130,213	-0,074	-0,069
-712,948	-200,000	0,016	0,131
-711,933	-116,603	0,038	-0,005
-710,918	84,537	-0,057	0,046
-709,904	800,000	-0,036	-0,074
-708,889	704,619	0,015	-0,029
-707,875	-200,000	0,003	-0,127
-706,860	354,734	-0,066	-0,097
-705,845	-200,000	-0,002	-0,062
-704,831	50,286	0,056	-0,039
-703,816	14,906	-0,050	-0,029
-702,802	191,793	-0,048	0,053
-701,787	-200,000	-0,008	-0,118
-700,772	-32,070	-0,081	-0,033
-699,758	-86,533	0,090	0,020
-698,743	-64,595	0,053	0,016
-697,729	353,910	-0,093	0,136
-696,714	132,455	-0,138	-0,131
-695,699	27,007	-0,020	-0,012
-694,685	-104,025	-0,024	-0,004
-693,670	800,000	-0,037	-0,086
-692,656	-200,000	-0,004	-0,096
-691,641	-5,258	-0,087	-0,044
-690,627	34,154	0,037	-0,024
-689,612	-12,402	-0,178	-0,085
-688,597	-151,191	-0,151	-0,008
-687,583	59,411	-0,053	-0,038
-686,568	-200,000	0,015	-0,117
-685,554	-99,872	-0,092	0,017
-684,539	800,000	-0,042	-0,119
-683,524	-200,000	0,000	-0,058
-682,510	-95,784	0,189	0,037
-681,495	800,000	0,021	-0,061
-680,481	-200,000	-0,002	0,053
-679,466	-58,563	0,085	-0,027
-678,451	-200,000	-0,009	-0,031
-677,437	-200,000	0,017	-0,059
-676,422	701,984	0,078	0,152
-675,408	-106,795	-0,142	0,023
-674,393	-161,503	0,097	0,004
-673,378	80,708	-0,190	-0,151
-672,364	-69,267	-0,049	0,014
-671,349	226,258	-0,146	-0,174
-670,335	2,766	0,117	-0,062
-669,320	-40,119	0,109	-0,042
-668,305	270,911	0,130	-0,169
-667,291	49,134	-0,066	-0,045
-666,276	271,011	-0,053	0,069
-665,262	-200,000	-0,015	-0,094
-664,247	800,000	-0,050	-0,145
-663,232	-200,000	-0,003	0,060
-662,218	-53,903	0,046	0,015
-661,203	-200,000	-0,038	0,231
-660,189	736,991	0,031	0,061
-659,174	-26,361	-0,142	-0,061
-658,159	25,940	-0,103	-0,063
-657,145	800,000	-0,045	-0,093
-656,130	38,781	0,127	-0,083
-655,116	-77,825	0,017	0,004
-654,101	755,512	-0,008	-0,017
-653,086	800,000	0,032	-0,079
-652,072	-200,000	-0,015	0,099
-651,057	-45,479	-0,087	-0,032
-650,043	-200,000	0,033	-0,203
-649,028	216,063	-0,119	-0,139
-648,014	357,269	0,043	-0,064
-646,999	-86,561	-0,007	-0,002
-645,984	-200,000	0,003	-0,114
-644,970	800,000	-0,050	-0,103
-643,955	265,097	-0,064	-0,082
-642,941	-200,000	-0,018	0,114
-641,926	-90,261	-0,083	0,018
-640,911	-200,000	-0,006	0,068
-639,897	-156,607	0,112	-0,005
-638,882	194,243	0,054	0,060
-637,868	618,507	-0,050	-0,093
-636,853	-14,367	-0,102	0,048
-635,838	-200,000	-0,007	-0,027
-634,824	800,000	0,046	-0,119
-633,809	648,567	0,006	0,012
-632,795	-200,000	0,010	0,042
-631,780	-200,000	0,015	0,102
-630,765	-45,935	-0,117	-0,042
-629,751	-112,666	0,053	-0,008
-628,736	54,789	-0,088	-0,062
-627,722	203,270	0,040	0,046
-626,707	38,936	0,132	0,087
-625,692	-200,000	-0,006	0,077
-624,678	-200,000	-0,031	0,107
-623,663	-46,749	-0,022	0,008
-622,649	-200,000	-0,023	-0,093
-621,634	146,459	0,070	-0,069
-620,619	122,266	0,016	0,015
-619,605	-37,664	0,095	-0,037
-618,590	63,984	-0,142	0,105
-617,576	-126,700	0,068	-0,007
-616,561	237,980	-0,031	0,038
-615,546	564,399	-0,049	-0,087
-614,532	-200,000	-0,006	-0,060
-613,517	764,994	0,047	0,094
-612,503	496,631	0,079	-0,134
-611,488	-200,000	0,028	-0,091
-610,474	-86,145	-0,048	0,011
-609,459	-106,222	-0,061	0,010
-608,444	85,397	-0,084	-0,068
-607,430	282,813	-0,062	-0,082
-606,415	800,000	-0,016	0,044
-605,401	-139,255	-0,104	-0,008
-604,386	-98,465	0,056	-0,010
-603,371	477,742	0,061	0,102
-602,357	287,047	-0,050	-0,067
-601,342	570,938	0,001	-0,001
-600,328	244,371	-0,098	-0,120
-599,313	-200,000	0,015	-0,083
-598,298	43,352	0,174	0,117
-597,284	220,940	0,109	0,129
-596,269	800,000	0,034	0,092
-595,255	-27,990	0,014	-0,006
-594,240	80,703	-0,044	-0,035
-593,225	800,000	0,046	-0,112
-592,211	235,053	0,090	-0,109
-591,196	396,251	0,067	0,103
-590,182	-200,000	-0,014	0,061
-589,167	280,124	0,024	-0,031
-588,152	-96,111	-0,062	-0,012
-587,138	-200,000	0,014	0,045
-586,123	28,601	-0,096	-0,060
-585,109	38,693	0,037	-0,024
-584,094	500,263	-0,040	-0,067
-583,079	-200,000	0,041	-0,160
-582,065	2,259	0,173	0,092
-581,050	24,176	0,055	-0,033
-580,036	-200,000	0,034	-0,194
-579,021	69,116	-0,146	-0,110
-578,006	376,702	-0,089	0,133
-576,992	800,000	0,070	-0,165
-575,977	30,930	-0,104	0,065
-574,963	-200,000	-0,047	0,172
-573,948	-167,484	0,041	0,001
-572,934	-18,586	-0,154	0,070
-571,919	-151,622	0,108	-0,006
-570,904	-35,792	0,017	0,007
-569,890	365,096	-0,049	-0,072
-568,875	-20,432	-0,026	0,012
-567,861	-27,760	-0,010	0,004
-566,846	-158,720	0,133	-0,005
-565,831	-200,000	0,003	-0,169
-564,817	97,518	0,049	-0,041
-563,802	-200,000	0,023	-0,109
-562,788	265,094	-0,031	0,040
-561,773	-200,000	0,000	0,019
-560,758	4,547	-0,024	-0,013
-559,744	-200,000	-0,027	-0,119
-558,729	-82,005	-0,030	-0,007
-557,715	-200,000	0,035	-0,130
-556,700	42,973	-0,121	-0,081
-555,685	-128,799	-0,088	-0,009
-554,671	732,641	0,026	0,051
-553,656	-98,585	0,103	0,019
-552,642	58,914	0,111	0,080
-551,627	-200,000	-0,012	0,182
-550,612	-60,735	0,061	-0,019
-549,598	-151,009	-0,114	-0,006
-548,583	-200,000	0,002	0,054
-547,569	-123,886	0,036	0,004
-546,554	-59,796	-0,061	0,019
-545,539	-32,106	-0,031	-0,012
-544,525	-112,094	0,040	0,006
-543,510	59,527	-0,013	0,009
-542,496	299,792	0,004	0,005
-541,481	800,000	-0,028	-0,063
-540,466	-81,036	-0,109	-0,026
-539,452	45,755	0,066	-0,045
-538,437	-99,375	-0,068	-0,012
-537,423	232,095	-0,085	-0,102
-536,408	595,758	-0,039	-0,072
-535,393	47,013	-0,082	0,055
-534,379	-78,049	-0,056	-0,014
-533,364	287,516	0,061	0,080
-532,350	-137,859	0,170	-0,014
-531,335	-103,249	-0,046	-0,008
-530,321	-200,000	0,089	0,000
-529,306	800,000	-0,035	-0,099
-528,291	-124,076	-0,093	-0,011
-527,277	-200,000	-0,000	-0,017
-526,262	-124,056	0,066	0,007
-525,248	-2,438	-0,033	-0,017
-524,233	-67,457	-0,065	-0,018
-523,218	-126,838	0,086	-0,009
-522,204	52,326	-0,044	0,031
-521,189	-61,907	-0,130	0,040
-520,175	63,754	0,025	-0,018
-519,160	-200,000	0,012	-0,058
-518,145	-46,262	0,127	0,046
-517,131	-200,000	0,013	0,129
-516,116	-200,000	0,008	0,040
-515,102	-200,000	0,002	-0,063
-514,087	-116,441	0,102	-0,014
-513,072	-166,328	-0,172	0,005
-512,058	-118,754	-0,087	-0,011
-511,043	-200,000	0,017	0,059
-510,029	800,000	0,052	0,106
-509,014	-200,000	0,022	0,077
-507,999	-182,412	-0,038	-0,000
-506,985	-103,107	-0,093	0,016
-505,970	-56,861	0,047	0,015
-504,956	-98,497	0,071	-0,013
-503,941	608,923	0,042	0,077
-502,926	57,305	0,030	-0,021
-501,912	341,378	0,042	0,060
-500,897	102,323	-0,066	-0,056
-499,883	53,441	-0,088	-0,062
-498,868	-186,448	0,052	0,001
-497,853	-107,771	0,126	0,020
-496,839	700,357	0,031	-0,060
-495,824	441,420	0,075	0,120
-494,810	300,166	0,054	0,074
-493,795	60,066	-0,062	-0,045
-492,781	-152,035	0,023	-0,001
-491,766	-200,000	-0,050	-0,161
-490,751	207,515	0,031	-0,036
-489,737	242,932	-0,074	-0,091
-488,722	-103,765	-0,083	0,014
-487,708	774,457	0,080	0,159
-486,693	-18,624	0,016	-0,007
-485,678	-200,000	-0,001	0,020
-484,664	88,860	0,048	-0,039
-483,649	-115,011	-0,082	-0,011
-482,635	6,476	-0,079	-0,043
-481,620	341,350	-0,063	-0,090
-480,605	344,663	0,106	0,152
-479,591	800,000	-0,060	0,189
-478,576	-200,000	-0,014	-0,065
-477,562	64,062	0,134	0,098
-476,547	445,679	-0,086	0,138
-475,532	-106,078	-0,117	0,019
-474,518	-69,550	0,114	0,032
-473,503	-37,737	-0,040	0,015
-472,489	352,483	0,050	-0,073
-471,474	-200,000	-0,017	-0,066
-470,459	-200,000	0,029	-0,153
-469,445	194,249	0,103	0,114
-468,430	620,443	0,038	0,069
-467,416	-73,733	0,040	0,011
-466,401	-163,917	-0,026	0,001
-465,386	-190,175	-0,074	0,001
-464,372	46,226	0,043	-0,029
-463,357	-200,000	-0,015	-0,117
-462,343	-44,678	-0,066	-0,024
-461,328	28,020	-0,072	-0,044
-460,313	-108,959	0,050	0,008
-459,299	240,945	-0,030	0,036
-458,284	-13,331	0,135	0,064
-457,270	-200,000	0,005	0,066
-456,255	800,000	-0,038	0,100
-455,241	381,002	-0,032	0,048
-454,226	37,473	-0,076	-0,049
-453,211	-200,000	-0,011	0,159
-452,197	-171,778	-0,087	0,002
-451,182	294,352	0,230	0,307
-450,168	-49,369	0,026	-0,009
-449,153	-28,729	-0,100	0,042
-448,138	223,115	0,041	-0,049
-447,124	597,558	-0,033	-0,059
-446,109	93,774	0,069	0,057
-445,095	-200,000	0,007	0,055
-444,080	240,195	-0,038	-0,046
-443,065	-200,000	0,001	-0,013
-442,051	219,055	-0,060	-0,071
-441,036	-50,445	-0,136	0,046
-440,022	45,908	-0,080	-0,054
-439,007	-170,502	-0,046	-0,001
-437,992	-81,397	-0,050	0,012
-436,978	323,509	-0,057	0,079
-435,963	-128,012	0,035	0,004
-434,949	-200,000	-0,005	-0,044
-433,934	-200,000	-0,026	-0,162
-432,919	282,204	-0,136	-0,178
-431,905	-200,000	-0,030	-0,162
-430,890	102,772	-0,091	0,077
-429,876	-47,381	0,066	0,023
-428,861	-200,000	0,015	0,100
-427,846	265,696	-0,072	0,092
-426,832	105,910	-0,053	-0,046
-425,817	96,953	-0,059	0,049
-424,803	40,279	-0,067	0,044
-423,788	-200,000	0,011	0,080
-422,773	-80,865	0,147	0,035
-421,759	-4,289	0,183	0,092
-420,744	800,000	-0,030	-0,071
-419,730	211,792	-0,024	-0,028
-418,715	800,000	0,051	-0,120
-417,701	91,801	0,047	0,039
-416,686	2,527	-0,110	0,058
-415,671	-200,000	-0,034	-0,161
-414,657	-200,000	0,020	-0,071
-413,642	-11,346	-0,096	0,046
-412,628	246,618	0,035	-0,043
-411,613	201,536	-0,071	0,080
-410,598	-200,000	0,008	0,066
-409,584	782,909	-0,057	0,114
-408,569	800,000	0,043	-0,117
-407,555	-62,459	0,103	0,031
-406,540	-200,000	0,021	-0,114
-405,525	360,049	0,097	-0,142
-404,511	800,000	0,018	0,056
-403,496	-200,000	0,007	0,053
-402,482	38,203	0,074	-0,048
-401,467	-200,000	0,010	0,068
-400,452	-158,179	-0,040	0,002
-399,438	-70,463	-0,129	-0,035
-398,423	59,171	-0,094	0,067
-397,409	800,000	-0,054	-0,137
-396,394	-47,672	0,109	0,038
-395,379	-63,335	-0,147	0,044
-394,365	124,339	-0,045	-0,042
-393,350	305,110	0,110	0,149
-392,336	584,779	-0,057	-0,102
-391,321	-200,000	-0,003	-0,057
-390,306	226,765	0,054	-0,064
-389,292	676,904	-0,013	-0,025
-388,277	58,261	-0,067	-0,047
-387,263	-44,633	0,062	-0,022
-386,248	-141,791	-0,040	-0,003
-385,233	-96,603	0,032	-0,006
-384,219	17,618	0,116	-0,067
-383,204	-200,000	0,002	0,093
-382,190	25,732	-0,050	-0,030
-381,175	70,532	-0,042	0,031
-380,160	-200,000	-0,019	-0,097
-379,146	77,943	-0,048	-0,037
-378,131	314,648	0,105	0,145
-377,117	125,440	0,031	0,028
-376,102	120,660	-0,100	0,090
-375,088	-65,666	-0,108	0,031
-374,073	77,537	-0,029	0,022
-373,058	171,809	-0,046	0,048
-372,044	-200,000	0,005	0,104
-371,029	-200,000	0,045	0,186
-370,015	-135,277	-0,088	-0,008
-369,000	-177,498	-0,137	-0,002
-367,985	285,121	0,062	-0,081
-366,971	800,000	0,070	-0,175
-365,956	-200,000	-0,001	-0,137
-364,942	-4,709	0,025	-0,013
-363,927	-200,000	-0,033	0,128
-362,912	-18,490	-0,122	-0,055
-361,898	242,780	-0,096	-0,117
-360,883	171,110	-0,013	0,014
-359,869	143,919	-0,090	-0,087
-358,854	-17,672	0,052	0,024
-357,839	-200,000	-0,000	-0,034
-356,825	-200,000	0,005	0,116
-355,810	300,637	0,045	0,061
-354,796	-200,000	-0,004	0,016
-353,781	-200,000	-0,004	-0,076
-352,766	30,073	-0,053	-0,033
-351,752	800,000	-0,013	0,037
-350,737	186,202	0,103	0,111
-349,723	131,606	-0,033	0,031
-348,708	538,406	0,023	-0,040
-347,693	343,800	0,131	-0,186
-346,679	-200,000	-0,011	-0,128
-345,664	800,000	-0,016	0,050
-344,650	-68,231	0,127	-0,036
-343,635	-200,000	0,026	-0,148
-342,620	-84,555	0,117	-0,027
-341,606	260,303	0,068	-0,085
-340,591	134,146	0,061	-0,057
-339,577	-200,000	-0,033	-0,125
-338,562	800,000	0,024	-0,050
-337,548	800,000	-0,061	0,124
-336,533	44,329	-0,067	-0,045
-335,518	92,366	0,136	0,111
-334,504	-200,000	-0,011	0,084
-333,489	-200,000	-0,022	0,122
-332,475	633,258	-0,086	-0,158
-331,460	6,666	-0,158	-0,085
-330,445	-107,183	-0,048	0,008
-329,431	101,102	0,068	0,057
-328,416	-200,000	-0,017	0,125
-327,402	-200,000	-0,025	0,144
-326,387	-78,287	-0,077	0,019
-325,372	-24,343	-0,077	-0,033
-324,358	-120,814	0,094	-0,011
-323,343	800,000	0,024	-0,051
-322,329	-139,338	0,121	0,009
-321,314	729,344	0,014	0,027
-320,299	487,947	0,028	-0,047
-319,285	401,359	-0,029	-0,044
-318,270	-200,000	-0,001	0,031
-317,256	738,542	-0,049	-0,095
-316,241	-153,573	0,061	0,003
-315,226	101,566	0,058	0,049
-314,212	-150,638	0,119	-0,006
-313,197	-200,000	0,003	-0,104
-312,183	800,000	0,037	0,100
-311,168	217,025	-0,040	-0,047
-310,153	800,000	-0,044	0,127
-309,139	-113,683	0,103	0,014
-308,124	-200,000	-0,007	0,039
-307,110	517,505	-0,022	0,038
-306,095	95,618	-0,075	0,062
-305,080	-32,858	-0,103	-0,041
-304,066	-200,000	-0,024	-0,188
-303,051	458,755	-0,088	-0,143
-302,037	-200,000	0,010	-0,083
-301,022	-200,000	-0,008	0,073
-300,008	262,254	-0,015	-0,019
-298,993	-200,000	-0,011	-0,052
-297,978	2,478	0,056	-0,029
-296,964	800,000	-0,075	-0,196
-295,949	-200,000	-0,008	0,031
-294,935	128,506	-0,015	0,014
-293,920	-103,760	0,102	-0,017
-292,905	155,136	0,040	-0,039
-291,891	-53,355	0,108	0,036
-290,876	497,760	0,109	0,182
-289,862	441,260	-0,075	0,120
-288,847	40,623	0,070	0,045
-287,832	-200,000	0,004	-0,075
-286,818	-200,000	-0,028	0,000
-285,803	-200,000	0,025	0,128
-284,789	216,217	-0,056	0,065
-283,774	313,495	0,040	0,055
-282,759	-45,867	0,124	0,044
-281,745	-69,763	-0,069	0,019
-280,730	-200,000	0,004	0,022
-279,716	-200,000	-0,017	0,142
-278,701	-160,264	0,139	0,005
-277,686	-126,001	0,061	0,007
-276,672	-42,669	-0,131	0,048
-275,657	800,000	0,010	-0,025
-274,643	-200,000	-0,022	-0,130
-273,628	-200,000	-0,126	-0,000
-272,613	800,000	-0,023	-0,045
-271,599	-200,000	0,001	-0,056
-270,584	-59,036	-0,075	0,023
-269,570	688,093	0,040	0,077
-268,555	2,438	-0,111	-0,058
-267,540	-111,056	0,009	-0,001
-266,526	189,749	-0,051	-0,056
-265,511	-108,757	0,025	-0,004
-264,497	30,382	-0,050	0,031
-263,482	800,000	-0,013	0,038
-262,467	800,000	-0,019	0,042
-261,453	127,136	-0,044	0,041
-260,438	-103,889	0,179	0,030
-259,424	188,384	-0,017	0,019
-258,409	531,838	0,038	-0,066
-257,395	321,311	0,041	0,057
-256,380	-200,000	-0,006	0,051
-255,365	-48,738	0,046	0,016
-254,351	660,803	0,054	-0,100
-253,336	66,386	0,089	-0,065
-252,322	-4,165	-0,123	0,061
-251,307	151,041	-0,045	-0,045
-250,292	-200,000	0,004	-0,053
-249,278	441,657	-0,042	0,067
-248,263	50,018	0,070	-0,048
-247,249	-200,000	-0,009	-0,068
-246,234	263,890	-0,078	-0,098
-245,219	-200,000	0,018	-0,087
-244,205	269,283	0,057	-0,072
-243,190	-20,991	0,116	-0,051
-242,176	-76,556	-0,016	0,004
-241,161	629,328	-0,031	-0,057
-240,146	724,229	0,018	-0,034
-239,132	46,941	-0,081	-0,055
-238,117	279,146	0,034	-0,044
-237,103	-200,000	0,021	-0,157
-236,088	800,000	0,047	0,111
-235,073	50,454	0,123	0,084
-234,059	-153,922	0,099	0,005
-233,044	315,973	0,036	0,049
-232,030	-141,195	-0,118	0,009
-231,015	-200,000	-0,026	0,107
-230,000	578,461	-0,071	0,126
-228,986	14,534	0,065	0,036
-227,971	800,000	0,030	0,065
-226,957	800,000	0,061	-0,124
-225,942	16,523	-0,019	-0,011
-224,927	800,000	-0,051	0,143
-223,913	800,000	0,034	0,071
-222,898	14,448	-0,058	0,033
-221,884	-200,000	0,045	0,189
-220,869	-200,000	-0,003	-0,062
-219,855	800,000	-0,038	0,096
-218,840	800,000	0,056	0,162
-217,825	243,874	-0,035	-0,042
-216,811	87,678	-0,056	-0,045
-215,796	-80,455	0,112	-0,027
-214,782	-200,000	0,000	0,033
-213,767	800,000	0,031	-0,063
-212,752	-110,878	-0,087	-0,013
-211,738	-119,614	0,123	-0,015
-210,723	197,165	0,059	-0,065
-209,709	-200,000	-0,020	-0,096
-208,694	-90,750	-0,208	-0,043
-207,679	104,616	0,073	-0,062
-206,665	-200,000	0,002	-0,035
-205,650	-200,000	0,016	0,080
-204,636	370,180	0,040	0,059
-203,621	123,906	0,086	-0,078
-202,606	-200,000	-0,005	-0,030
-201,592	800,000	0,047	0,123
-200,577	352,769	0,026	0,038
-199,563	648,296	-0,029	0,054
-198,548	-200,000	-0,021	0,164
-197,533	-200,000	0,010	0,091
-196,519	47,198	0,171	0,115
-195,504	-88,884	-0,135	-0,029
-194,490	343,652	-0,083	-0,117
-193,475	800,000	0,013	0,040
-192,460	426,499	0,008	0,012
-191,446	-136,824	0,051	-0,004
-190,431	337,041	0,071	0,100
-189,417	-200,000	-0,024	0,171
-188,402	-171,012	-0,189	-0,005
-187,387	347,857	0,046	-0,066
-186,373	113,208	-0,051	-0,045
-185,358	6,302	-0,097	-0,052
-184,344	11,834	0,160	0,089
-183,329	-91,606	0,189	0,039
-182,315	-106,333	0,159	-0,025
-181,300	-9,958	-0,122	0,058
-180,285	48,446	0,067	-0,045
-179,271	-83,531	0,081	0,019
-178,256	143,199	-0,016	0,015
-177,242	535,790	0,061	-0,104
-176,227	800,000	-0,022	0,052
-175,212	-200,000	-0,006	0,086
-174,198	-200,000	-0,015	-0,062
-173,183	91,611	-0,018	-0,014
-172,169	37,276	0,099	0,063
-171,154	-200,000	-0,004	0,033
-170,139	423,253	0,084	0,130
-169,125	-146,990	0,130	0,008
-168,110	190,953	-0,165	-0,180
-167,096	-128,879	-0,147	-0,015
-166,081	-96,212	-0,046	0,009
-165,066	179,565	-0,025	-0,027
-164,052	-42,550	0,042	0,015
-163,037	165,266	0,062	-0,063
-162,023	800,000	0,014	0,035
-161,008	-83,453	0,125	-0,029
-159,993	-181,706	-0,049	-0,001
-158,979	-200,000	-0,003	0,106
-157,964	800,000	0,021	-0,045
-156,950	624,126	-0,058	0,106
-155,935	42,792	0,141	0,092
-154,920	-134,550	-0,116	-0,010
-153,906	5,030	0,163	-0,086
-152,891	-150,975	-0,054	-0,003
-151,877	-37,514	-0,022	-0,008
-150,862	295,006	-0,042	-0,055
-149,847	-200,000	-0,019	0,081
-148,833	79,600	-0,055	-0,043
-147,818	-78,405	0,081	0,020
-146,804	-200,000	-0,001	-0,041
-145,789	800,000	0,006	-0,016
-144,775	24,271	0,051	0,030
-143,760	-200,000	0,002	-0,013
-142,745	74,676	-0,050	-0,038
-141,731	-15,677	-0,076	-0,035
-140,716	349,853	0,059	-0,084
-139,702	-111,705	0,099	0,014
-138,687	233,402	0,064	-0,075
-137,672	800,000	0,007	-0,018
-136,658	-111,000	-0,068	0,010
-135,643	-65,673	-0,079	0,023
-134,629	-200,000	-0,005	0,055
-133,614	349,024	-0,131	0,186
-132,599	316,856	-0,066	0,090
-131,585	84,993	0,031	-0,024
-130,570	35,130	-0,077	-0,048
-129,556	666,656	0,083	-0,155
-128,541	-144,746	0,154	-0,010
-127,526	-89,803	-0,125	-0,026
-126,512	35,371	0,028	-0,018
-125,497	-174,186	-0,168	0,003
-124,483	512,753	-0,057	0,096
-123,468	171,297	-0,039	0,041
-122,453	229,836	-0,084	-0,100
-121,439	266,463	-0,091	-0,114
-120,424	173,881	0,096	0,100
