DTS Sentinel unit serial number:	SN410029Multiplexer serial number:	ORYXHardware model number:	OX2-SRSoftware version number:	ORYX F/W v4,00 Oryx Data Collector v3.7.2.0data status	okinstallation	B5 Nyhavnadifferential loss correction	single-endedforward channel	channel 2reverse channel	N/Adate	2023/12/13time	21:12:13forward acquisition time	300,00reverse acquisition time	0,00gamma	499,1914k internal	0,3156k external	0,3156temperature offset calibration	1,0000default loss term (dB/km)	0,3820temperature slope calibration	1,0000multiplexer offset coefficient	1,0000multiplexer slope coefficient	1,0000fibre end	0,00T internal ref (°C)	10,17T ext. ref 1 (°C)	-6,72T ext. ref 2 (°C)	-6,78length (m)	temperature (°C)	Stokes	anti-Stokes-744,400	-200,000	-0,000	-0,051
-743,385	-84,188	-0,289	-0,067
-742,371	-20,881	0,124	0,056
-741,356	-89,797	-0,262	0,056
-740,342	51,712	0,176	0,123
-739,327	-134,076	-0,280	-0,025
-738,312	-82,296	0,121	0,029
-737,298	-104,644	-0,249	-0,042
-736,283	-200,000	0,026	0,096
-735,269	-122,912	-0,258	-0,030
-734,254	265,039	0,091	0,117
-733,239	-119,173	-0,303	-0,039
-732,225	-6,514	0,163	0,082
-731,210	-200,000	-0,044	0,151
-730,196	-39,409	-0,039	0,015
-729,181	762,702	0,067	-0,134
-728,167	800,000	-0,054	-0,120
-727,152	-47,665	-0,066	-0,024
-726,137	-200,000	-0,023	-0,091
-725,123	800,000	0,011	-0,030
-724,108	-200,000	-0,021	-0,116
-723,094	104,387	-0,030	-0,026
-722,079	743,003	-0,081	0,162
-721,064	93,496	-0,020	0,016
-720,050	-118,111	0,066	-0,009
-719,035	38,766	-0,119	-0,078
-718,021	-86,821	0,015	-0,003
-717,006	-30,598	-0,167	-0,069
-715,991	-70,142	0,080	0,022
-714,977	368,344	0,023	-0,034
-713,962	390,944	0,064	-0,098
-712,948	254,277	0,032	-0,040
-711,933	-200,000	-0,004	0,130
-710,918	426,040	0,045	0,072
-709,904	716,425	0,022	0,044
-708,889	-112,537	0,069	-0,010
-707,875	10,948	-0,134	-0,075
-706,860	800,000	0,036	0,079
-705,845	80,667	-0,059	-0,047
-704,831	90,774	0,115	0,095
-703,816	162,220	-0,028	-0,029
-702,802	-159,059	-0,097	-0,004
-701,787	-165,465	-0,159	0,005
-700,772	-92,698	-0,067	-0,014
-699,758	-62,932	0,132	-0,040
-698,743	201,870	0,049	0,056
-697,729	204,238	0,135	0,154
-696,714	-200,000	0,013	0,049
-695,699	-200,000	-0,014	0,098
-694,685	18,982	-0,024	-0,014
-693,670	800,000	0,031	-0,091
-692,656	129,363	0,012	-0,012
-691,641	57,940	0,047	0,034
-690,627	293,860	-0,047	0,063
-689,612	18,409	0,107	-0,063
-688,597	-125,996	-0,071	-0,008
-687,583	-69,375	0,062	0,017
-686,568	-46,338	-0,141	-0,051
-685,554	-98,789	0,043	-0,008
-684,539	-200,000	-0,011	-0,083
-683,524	144,061	-0,015	-0,015
-682,510	121,124	-0,026	-0,024
-681,495	-19,490	-0,106	0,048
-680,481	183,158	-0,030	-0,033
-679,466	800,000	-0,092	-0,223
-678,451	16,482	-0,098	0,057
-677,437	40,269	0,048	-0,032
-676,422	800,000	0,047	0,130
-675,408	-200,000	0,008	-0,035
-674,393	-200,000	-0,011	-0,087
-673,378	310,272	-0,071	-0,099
-672,364	133,861	-0,060	-0,057
-671,349	100,991	-0,038	-0,032
-670,335	348,643	-0,034	-0,049
-669,320	124,694	-0,030	0,028
-668,305	312,179	0,014	0,019
-667,291	800,000	-0,061	-0,148
-666,276	18,207	-0,046	0,027
-665,262	-115,678	-0,112	-0,015
-664,247	-139,491	-0,067	0,005
-663,232	-81,505	0,134	-0,032
-662,218	678,329	0,022	0,043
-661,203	0,181	0,101	-0,053
-660,189	-135,744	0,059	-0,005
-659,174	-200,000	-0,087	0,000
-658,159	800,000	-0,054	0,150
-657,145	155,697	-0,027	0,027
-656,130	29,265	0,039	-0,024
-655,116	54,153	-0,108	0,076
-654,101	-157,980	0,058	-0,002
-653,086	-98,984	-0,100	0,019
-652,072	-87,234	-0,130	0,029
-651,057	43,541	0,041	-0,028
-650,043	2,310	0,144	-0,077
-649,028	-200,000	-0,031	-0,143
-648,014	-86,824	0,082	0,018
-646,999	99,287	-0,044	0,038
-645,984	-58,425	-0,218	0,069
-644,970	-151,303	0,091	-0,005
-643,955	800,000	-0,033	0,104
-642,941	152,089	-0,129	-0,129
-641,926	168,780	-0,026	-0,027
-640,911	424,640	0,079	-0,126
-639,897	252,999	0,058	0,073
-638,882	-200,000	-0,012	0,050
-637,868	-55,473	-0,077	-0,025
-636,853	-93,398	-0,133	0,027
-635,838	800,000	0,039	-0,121
-634,824	284,902	0,062	-0,082
-633,809	16,034	-0,111	-0,064
-632,795	-200,000	0,019	-0,131
-631,780	-200,000	0,019	-0,113
-630,765	-26,813	0,048	-0,021
-629,751	-0,493	-0,115	0,060
-628,736	-200,000	0,009	-0,111
-627,722	800,000	-0,034	-0,088
-626,707	-200,000	-0,021	-0,075
-625,692	578,089	-0,030	-0,053
-624,678	343,677	-0,048	0,069
-623,663	-61,181	-0,086	0,027
-622,649	-200,000	-0,040	-0,184
-621,634	800,000	-0,022	-0,065
-620,619	-200,000	0,024	0,167
-619,605	-31,645	0,118	-0,048
-618,590	-200,000	0,020	-0,150
-617,576	151,480	0,048	-0,048
-616,561	332,587	-0,041	0,058
-615,546	800,000	-0,040	0,100
-614,532	14,149	-0,029	-0,016
-613,517	770,957	-0,028	-0,056
-612,503	800,000	0,017	-0,039
-611,488	-200,000	-0,003	0,118
-610,474	-200,000	-0,002	0,146
-609,459	-7,871	-0,066	0,033
-608,444	73,251	-0,111	-0,085
-607,430	-5,809	-0,114	-0,057
-606,415	-109,387	-0,088	-0,014
-605,401	12,443	0,059	-0,033
-604,386	162,633	0,080	0,083
-603,371	-153,430	-0,118	-0,006
-602,357	86,772	0,057	0,046
-601,342	-92,394	0,132	-0,027
-600,328	800,000	-0,073	0,190
-599,313	23,264	-0,059	0,035
-598,298	800,000	0,032	0,099
-597,284	72,256	-0,055	0,042
-596,269	800,000	-0,061	0,142
-595,255	134,114	0,041	-0,039
-594,240	169,723	0,039	-0,041
-593,225	-59,759	-0,066	-0,020
-592,211	53,570	0,086	-0,061
-591,196	-200,000	0,016	0,073
-590,182	285,292	0,057	0,076
-589,167	359,909	0,096	0,141
-588,152	-200,000	0,001	0,019
-587,138	208,330	0,085	0,098
-586,123	4,166	-0,099	-0,053
-585,109	226,380	-0,014	-0,017
-584,094	301,346	0,040	-0,055
-583,079	326,161	0,043	-0,060
-582,065	198,507	0,034	0,038
-581,050	-200,000	-0,007	-0,106
-580,036	-200,000	-0,001	0,099
-579,021	-200,000	0,000	-0,029
-578,006	-3,939	-0,098	-0,050
-576,992	800,000	-0,004	0,010
-575,977	-200,000	-0,006	-0,057
-574,963	800,000	0,024	0,064
-573,948	-200,000	-0,021	0,103
-572,934	364,054	0,051	0,076
-571,919	0,244	0,042	-0,022
-570,904	263,050	0,087	-0,111
-569,890	800,000	0,030	-0,079
-568,875	561,739	-0,064	0,114
-567,861	-200,000	-0,014	-0,048
-566,846	131,039	-0,072	-0,067
-565,831	210,759	-0,089	-0,102
-564,817	-200,000	0,016	0,085
-563,802	553,453	0,023	0,041
-562,788	61,804	-0,134	-0,098
-561,773	177,258	-0,052	0,055
-560,758	800,000	0,024	0,072
-559,744	26,158	0,043	-0,026
-558,729	-200,000	-0,006	-0,085
-557,715	-200,000	-0,004	-0,136
-556,700	43,018	0,084	-0,056
-555,685	-200,000	0,033	-0,126
-554,671	121,193	0,081	-0,073
-553,656	-200,000	0,004	-0,045
-552,642	275,469	0,050	0,065
-551,627	357,397	0,044	-0,064
-550,612	-129,301	-0,021	-0,002
-549,598	-200,000	-0,018	-0,089
-548,583	-200,000	0,016	-0,109
-547,569	-173,752	0,022	0,000
-546,554	-200,000	-0,007	0,104
-545,539	202,277	0,042	-0,047
-544,525	-118,719	-0,048	0,006
-543,510	-81,445	-0,093	-0,022
-542,496	305,833	0,063	0,086
-541,481	164,486	-0,028	0,028
-540,466	-42,664	0,092	0,034
-539,452	-101,695	0,070	-0,012
-538,437	20,665	0,142	0,084
-537,423	-21,081	0,054	-0,024
-536,408	-4,107	0,124	-0,063
-535,393	-30,226	-0,075	-0,031
-534,379	-115,890	-0,033	-0,004
-533,364	231,867	0,086	-0,103
-532,350	-200,000	-0,015	-0,055
-531,335	33,287	-0,075	-0,048
-530,321	800,000	-0,013	0,026
-529,306	-200,000	-0,019	0,086
-528,291	482,096	-0,046	-0,077
-527,277	324,739	-0,095	0,134
-526,262	675,567	-0,023	-0,044
-525,248	-140,387	0,049	0,004
-524,233	-200,000	-0,014	0,131
-523,218	33,429	0,105	-0,067
-522,204	-200,000	0,019	-0,084
-521,189	-107,313	-0,097	0,015
-520,175	-200,000	-0,026	-0,102
-519,160	206,548	-0,078	-0,089
-518,145	-98,461	0,051	0,010
-517,131	114,272	-0,048	0,042
-516,116	34,707	-0,035	-0,022
-515,102	-13,406	0,043	0,020
-514,087	387,902	0,027	-0,041
-513,072	-136,741	0,029	0,002
-512,058	-200,000	-0,004	-0,024
-511,043	-16,558	-0,089	-0,041
-510,029	-200,000	-0,005	-0,097
-509,014	-75,361	-0,039	0,010
-507,999	-42,180	0,028	0,010
-506,985	99,651	-0,135	-0,114
-505,970	800,000	0,029	-0,071
-504,956	90,402	-0,125	-0,102
-503,941	-200,000	0,017	-0,076
-502,926	-35,232	-0,088	0,035
-501,912	-200,000	-0,004	-0,082
-500,897	-70,120	-0,163	-0,045
-499,883	399,522	-0,076	-0,117
-498,868	800,000	0,029	0,086
-497,853	43,296	-0,124	-0,083
-496,839	324,216	0,024	-0,033
-495,824	-200,000	0,008	0,046
-494,810	-51,221	-0,038	0,013
-493,795	426,821	-0,041	0,064
-492,781	-126,582	0,021	0,002
-491,766	-102,151	-0,199	-0,035
-490,751	71,240	-0,083	-0,063
-489,737	800,000	-0,024	0,067
-488,722	-200,000	0,014	0,086
-487,708	800,000	-0,040	0,114
-486,693	103,167	0,092	0,079
-485,678	-200,000	0,015	-0,053
-484,664	800,000	0,029	0,073
-483,649	535,579	-0,028	-0,049
-482,635	800,000	0,026	-0,059
-481,620	446,206	-0,030	0,048
-480,605	-109,118	-0,087	0,013
-479,591	22,273	0,142	0,084
-478,576	-200,000	0,002	0,056
-477,562	267,247	-0,072	0,092
-476,547	353,944	-0,041	0,060
-475,532	623,687	0,045	0,084
-474,518	-43,936	0,122	0,044
-473,503	800,000	-0,010	0,032
-472,489	-55,630	0,028	0,009
-471,474	83,733	-0,083	-0,066
-470,459	365,154	-0,013	0,020
-469,445	108,874	-0,067	0,058
-468,430	800,000	-0,013	0,034
-467,416	154,022	0,088	-0,088
-466,401	-200,000	0,006	-0,077
-465,386	383,797	0,099	-0,149
-464,372	-200,000	-0,002	0,070
-463,357	-200,000	-0,007	0,117
-462,343	-200,000	-0,018	0,000
-461,328	299,763	-0,039	-0,052
-460,313	-200,000	0,019	0,070
-459,299	-62,410	0,129	0,039
-458,284	44,841	-0,042	0,028
-457,270	54,909	-0,063	0,044
-456,255	-85,523	0,051	-0,011
-455,241	353,784	-0,042	-0,061
-454,226	-200,000	0,001	0,012
-453,211	110,020	-0,049	0,042
-452,197	111,452	0,019	-0,017
-451,182	-151,314	0,093	0,005
-450,168	270,874	0,024	-0,030
-449,153	-32,450	-0,108	0,044
-448,138	-200,000	-0,001	-0,043
-447,124	-200,000	-0,020	-0,127
-446,109	-58,453	0,139	0,044
-445,095	-39,661	0,061	-0,023
-444,080	-200,000	-0,013	0,103
-443,065	-169,004	-0,076	-0,002
-442,051	-200,000	-0,015	0,058
-441,036	-83,733	0,017	0,004
-440,022	320,589	-0,020	-0,028
-439,007	-159,260	0,078	0,003
-437,992	31,909	-0,126	-0,079
-436,978	43,959	0,084	-0,056
-435,963	-68,552	0,121	0,034
-434,949	730,201	-0,090	0,177
-433,934	800,000	-0,027	-0,080
-432,919	-122,561	-0,046	-0,005
-431,905	-22,683	-0,037	0,016
-430,890	-105,262	0,131	-0,021
-429,876	-22,413	0,060	-0,027
-428,861	45,507	-0,073	0,049
-427,846	800,000	0,043	-0,135
-426,832	-15,154	0,044	-0,021
-425,817	800,000	0,048	-0,126
-424,803	-23,972	-0,115	0,050
-423,788	-128,350	0,255	-0,026
-422,773	-34,727	-0,014	-0,005
-421,759	-24,051	-0,093	0,040
-420,744	-12,964	0,102	0,048
-419,730	800,000	-0,055	-0,119
-418,715	-24,010	-0,034	-0,015
-417,701	332,152	-0,075	0,106
-416,686	108,024	0,034	0,029
-415,671	-200,000	-0,025	0,101
-414,657	621,290	0,062	0,113
-413,642	-31,601	-0,027	0,011
-412,628	-52,685	-0,112	-0,037
-411,613	6,517	-0,140	-0,075
-410,598	55,792	0,053	0,037
-409,584	-10,252	-0,098	-0,047
-408,569	-113,320	-0,057	0,008
-407,555	-200,000	0,006	-0,076
-406,540	-200,000	0,018	-0,097
-405,525	31,538	-0,103	0,064
-404,511	64,968	-0,090	-0,066
-403,496	-200,000	0,019	0,070
-402,482	114,857	-0,037	0,033
-401,467	-160,243	0,024	-0,001
-400,452	339,037	-0,106	-0,151
-399,438	-16,526	0,069	-0,032
-398,423	800,000	0,021	0,064
-397,409	-200,000	-0,017	-0,120
-396,394	717,482	0,034	0,065
-395,379	208,970	-0,095	0,108
-394,365	42,160	0,046	0,030
-393,350	336,605	-0,042	-0,059
-392,336	83,559	0,076	0,060
-391,321	178,900	-0,058	-0,061
-390,306	-200,000	0,026	-0,159
-389,292	-52,961	-0,160	-0,053
-388,277	-7,337	0,025	-0,012
-387,263	-19,319	0,045	-0,020
-386,248	176,838	0,079	0,084
-385,233	-14,675	0,031	-0,014
-384,219	46,928	-0,034	0,023
-383,204	800,000	0,019	-0,054
-382,190	-172,802	0,087	-0,002
-381,175	-85,672	-0,072	0,016
-380,160	302,314	0,072	0,097
-379,146	102,240	-0,041	-0,034
-378,131	-185,578	-0,039	-0,000
-377,117	-200,000	-0,004	-0,049
-376,102	81,146	0,053	0,042
-375,088	212,031	-0,025	0,029
-374,073	-200,000	-0,008	0,086
-373,058	800,000	-0,015	0,034
-372,044	-200,000	-0,024	0,126
-371,029	-99,651	-0,085	-0,015
-370,015	56,905	0,101	-0,071
-369,000	-200,000	0,005	-0,046
-367,985	-200,000	-0,002	-0,089
-366,971	146,756	0,069	0,068
-365,956	213,338	-0,067	-0,077
-364,942	3,457	-0,035	-0,018
-363,927	800,000	0,018	0,051
-362,912	474,246	-0,093	0,153
-361,898	140,875	-0,108	0,104
-360,883	-200,000	0,012	0,093
-359,869	-79,859	0,033	0,008
-358,854	-29,562	0,076	-0,032
-357,839	480,147	0,047	0,079
-356,825	800,000	0,001	-0,002
-355,810	555,081	0,067	-0,118
-354,796	152,155	-0,086	-0,086
-353,781	-200,000	-0,031	-0,101
-352,766	12,510	0,051	-0,028
-351,752	-200,000	0,006	-0,042
-350,737	-200,000	-0,002	0,084
-349,723	-109,928	0,132	0,020
-348,708	-122,717	0,134	-0,016
-347,693	-200,000	-0,011	-0,047
-346,679	12,876	-0,066	-0,037
-345,664	778,713	0,056	-0,112
-344,650	-74,836	0,080	0,021
-343,635	-200,000	0,006	0,120
-342,620	104,346	0,106	0,090
-341,606	-52,356	-0,048	0,016
-340,591	146,038	0,086	-0,084
-339,577	-126,535	-0,147	-0,016
-338,562	-200,000	0,007	-0,042
-337,548	22,758	0,081	0,048
-336,533	501,545	0,037	0,063
-335,518	-200,000	-0,048	0,170
-334,504	720,346	0,033	0,063
-333,489	-200,000	-0,023	-0,090
-332,475	-200,000	-0,014	-0,053
-331,460	-200,000	0,015	0,063
-330,445	602,207	0,043	-0,078
-329,431	43,116	0,142	0,094
-328,416	246,403	0,038	0,047
-327,402	-150,322	-0,084	-0,005
-326,387	67,850	0,026	-0,019
-325,372	215,623	0,025	-0,029
-324,358	263,365	0,016	0,020
-323,343	-200,000	-0,002	0,042
-322,329	800,000	0,081	0,165
-321,314	-44,378	0,051	-0,018
-320,299	32,042	0,061	0,038
-319,285	117,508	-0,119	-0,106
-318,270	322,280	-0,111	-0,154
-317,256	-200,000	-0,046	-0,154
-316,241	-138,525	0,094	-0,007
-315,226	335,732	0,011	0,016
-314,212	-144,105	0,107	-0,007
-313,197	362,535	-0,068	-0,100
-312,183	-61,391	0,065	-0,020
-311,168	378,846	-0,090	-0,134
-310,153	113,556	0,053	-0,046
-309,139	-103,857	-0,074	0,012
-308,124	428,446	0,039	0,062
-307,110	27,749	-0,062	0,038
-306,095	-54,925	0,163	0,053
-305,080	-167,514	-0,172	0,005
-304,066	-8,541	0,081	0,039
-303,051	-72,485	-0,097	0,026
-302,037	-88,446	-0,135	-0,029
-301,022	800,000	0,033	-0,094
-300,008	231,000	0,039	0,046
-298,993	-200,000	-0,005	0,091
-297,978	800,000	-0,013	0,035
-296,964	118,111	0,092	-0,082
-295,949	-98,329	-0,172	-0,032
-294,935	41,499	0,033	-0,022
-293,920	74,637	0,075	-0,057
-292,905	501,009	0,051	-0,086
-291,891	782,498	-0,014	0,027
-290,876	223,223	0,024	-0,028
-289,862	-200,000	-0,020	-0,089
-288,847	-148,482	0,129	-0,008
-287,832	177,404	0,093	-0,098
-286,818	20,124	-0,057	0,033
-285,803	-42,143	0,051	-0,019
-284,789	37,388	-0,110	0,070
-283,774	-200,000	-0,005	0,025
-282,759	111,057	0,081	0,071
-281,745	-200,000	0,001	-0,023
-280,730	35,096	-0,023	0,014
-279,716	800,000	0,034	-0,079
-278,701	408,318	-0,031	0,048
-277,686	176,527	-0,065	0,068
-276,672	-17,526	0,067	0,030
-275,657	622,569	0,064	0,118
-274,643	-200,000	0,004	-0,056
-273,628	800,000	-0,013	0,027
-272,613	722,201	0,053	0,103
-271,599	312,714	0,050	-0,068
-270,584	349,547	-0,067	-0,095
-269,570	95,544	-0,064	0,053
-268,555	800,000	-0,022	-0,050
-267,540	330,060	0,084	0,117
-266,526	21,406	0,065	-0,038
-265,511	-200,000	-0,007	-0,077
-264,497	-39,072	0,011	0,004
-263,482	-76,088	0,038	-0,010
-262,467	800,000	-0,018	0,045
-261,453	110,006	0,087	-0,076
-260,438	-54,361	0,022	-0,007
-259,424	-79,241	-0,043	0,011
-258,409	-58,105	-0,104	0,033
-257,395	-200,000	0,021	0,152
-256,380	125,659	-0,092	0,084
-255,365	-158,684	0,141	0,006
-254,351	116,003	-0,039	0,034
-253,336	594,386	-0,034	0,061
-252,322	109,614	0,055	-0,048
-251,307	279,687	-0,073	0,095
-250,292	-200,000	0,014	-0,174
-249,278	64,001	0,048	0,035
-248,263	6,991	-0,031	-0,017
-247,249	800,000	0,014	-0,031
-246,234	-200,000	-0,018	-0,072
-245,219	-138,042	-0,062	-0,005
-244,205	-63,505	0,193	-0,057
-243,190	-200,000	-0,012	-0,138
-242,176	-200,000	-0,033	0,187
-241,161	589,234	0,107	0,191
-240,146	-200,000	0,000	-0,006
-239,132	60,081	0,024	-0,017
-238,117	-200,000	-0,020	-0,072
-237,103	-200,000	0,014	-0,090
-236,088	625,881	-0,040	0,072
-235,073	-3,689	0,091	-0,046
-234,059	504,045	0,053	0,088
-233,044	33,666	-0,069	0,043
-232,030	9,219	0,076	-0,041
-231,015	144,382	0,049	0,047
-230,000	-200,000	-0,004	0,061
-228,986	532,667	-0,080	0,137
-227,971	244,479	0,043	0,052
-226,957	-200,000	0,031	-0,101
-225,942	-100,857	0,064	-0,011
-224,927	-102,917	-0,181	0,031
-223,913	-86,006	-0,131	0,029
-222,898	-200,000	0,023	-0,175
-221,884	-109,802	0,038	-0,006
-220,869	-139,094	0,120	0,009
-219,855	-36,150	0,059	-0,023
-218,840	-40,661	-0,017	0,006
-217,825	279,859	0,049	0,064
-216,811	-95,198	-0,052	0,010
-215,796	7,461	0,059	-0,032
-214,782	-200,000	-0,013	-0,046
-213,767	75,352	0,020	0,015
-212,752	60,778	0,034	0,024
-211,738	-200,000	0,029	0,144
-210,723	-72,265	-0,114	0,030
-209,709	193,571	-0,026	0,029
-208,694	190,291	-0,076	0,082
-207,679	745,835	-0,048	0,094
-206,665	-200,000	0,011	0,100
-205,650	785,279	-0,061	-0,121
-204,636	-200,000	0,010	-0,036
-203,621	800,000	-0,046	0,145
-202,606	237,801	-0,042	0,050
-201,592	800,000	-0,037	-0,101
-200,577	396,327	-0,025	-0,038
-199,563	800,000	-0,037	-0,100
-198,548	800,000	0,042	0,130
-197,533	108,461	-0,021	-0,018
-196,519	-200,000	0,035	0,114
-195,504	-99,572	-0,098	-0,018
-194,490	800,000	-0,050	0,118
-193,475	5,333	0,090	0,048
-192,460	-22,678	-0,095	0,041
-191,446	-200,000	-0,016	-0,118
-190,431	-200,000	0,018	0,063
-189,417	621,194	0,015	-0,028
-188,402	334,660	0,082	0,115
-187,387	-200,000	0,029	-0,095
-186,373	104,329	-0,158	-0,134
-185,358	-150,263	0,091	0,005
-184,344	-109,864	0,129	0,019
-183,329	-200,000	-0,019	0,082
-182,315	800,000	-0,037	0,087
-181,300	19,895	-0,065	0,038
-180,285	800,000	0,051	-0,128
-179,271	-200,000	0,003	-0,084
-178,256	0,166	-0,012	0,006
-177,242	18,788	-0,094	0,054
-176,227	767,455	0,123	0,243
-175,212	-36,323	0,064	0,025
-174,198	7,816	0,038	-0,020
-173,183	90,618	0,040	0,032
-172,169	-200,000	-0,119	-0,000
-171,154	-145,288	0,082	-0,005
-170,139	-200,000	-0,026	-0,108
-169,125	757,069	0,043	0,084
-168,110	448,781	0,048	-0,077
-167,096	518,953	0,043	-0,074
-166,081	-3,118	-0,031	0,016
-165,066	27,599	0,042	0,025
-164,052	-200,000	0,004	-0,077
-163,037	-200,000	-0,022	0,133
-162,023	-60,953	0,153	0,046
-161,008	-200,000	0,023	0,225
-159,993	4,715	0,060	0,031
-158,979	454,100	0,058	-0,093
-157,964	-45,206	-0,029	-0,010
-156,950	-200,000	0,000	-0,173
-155,935	321,825	0,044	0,061
-154,920	-77,367	0,083	-0,021
-153,906	-200,000	0,037	0,181
-152,891	165,503	0,100	0,102
-151,877	-200,000	-0,003	-0,175
-150,862	-130,158	-0,080	0,008
-149,847	245,835	-0,015	-0,019
-148,833	-200,000	-0,016	-0,085
-147,818	-200,000	-0,007	0,051
-146,804	60,048	-0,086	0,061
-145,789	311,885	0,042	0,057
-144,775	800,000	0,024	-0,056
-143,760	800,000	0,038	0,093
-142,745	-64,952	0,038	0,011
-141,731	608,001	-0,035	0,063
-140,716	-51,800	0,149	-0,050
-139,702	2,246	0,101	0,053
-138,687	-169,841	0,106	-0,003
-137,672	-58,547	-0,118	-0,037
-136,658	317,278	-0,037	-0,051
-135,643	-117,072	0,085	-0,011
-134,629	800,000	-0,022	-0,061
-133,614	573,569	0,081	-0,144
-132,599	57,359	-0,012	-0,009
-131,585	-200,000	-0,027	0,117
-130,570	-200,000	-0,144	0,000
-129,556	475,965	-0,050	0,082
-128,541	188,952	-0,070	-0,076
-127,526	68,925	-0,090	-0,066
-126,512	433,793	0,071	0,112
-125,497	616,571	0,066	0,120
-124,483	347,545	0,042	0,060
-123,468	509,323	-0,020	-0,034
-122,453	447,494	0,023	-0,037
-121,439	-135,640	0,106	-0,009
-120,424	613,051	-0,039	0,071
-119,410	-30,030	0,122	0,050
