DTS Sentinel unit serial number:	SN410029Multiplexer serial number:	ORYXHardware model number:	OX2-SRSoftware version number:	ORYX F/W v4,00 Oryx Data Collector v3.7.2.0data status	okinstallation	B5 Nyhavnadifferential loss correction	single-endedforward channel	channel 2reverse channel	N/Adate	2023/12/11time	16:52:13forward acquisition time	300,00reverse acquisition time	0,00gamma	499,1914k internal	0,3165k external	0,3165temperature offset calibration	1,0000default loss term (dB/km)	0,3820temperature slope calibration	1,0000multiplexer offset coefficient	1,0000multiplexer slope coefficient	1,0000fibre end	0,00T internal ref (°C)	14,31T ext. ref 1 (°C)	-0,72T ext. ref 2 (°C)	-0,84length (m)	temperature (°C)	Stokes	anti-Stokes-744,400	128,325	0,055	-0,052
-743,385	-82,682	-0,333	0,079
-742,371	151,792	0,118	-0,118
-741,356	-66,979	-0,327	0,094
-740,342	-128,057	0,180	-0,019
-739,327	94,420	-0,203	-0,169
-738,312	178,381	0,179	0,193
-737,298	-116,793	-0,329	0,044
-736,283	-191,756	0,146	-0,001
-735,269	-137,070	-0,239	-0,020
-734,254	-200,000	0,020	0,084
-733,239	-14,099	-0,552	-0,261
-732,225	-110,213	0,134	0,020
-731,210	36,771	0,019	0,012
-730,196	-94,480	-0,040	-0,008
-729,181	-200,000	-0,020	-0,129
-728,167	-200,000	-0,014	-0,100
-727,152	-68,341	0,057	-0,016
-726,137	11,185	-0,245	-0,137
-725,123	-200,000	-0,004	-0,085
-724,108	800,000	-0,042	-0,105
-723,094	-200,000	0,009	-0,100
-722,079	800,000	-0,044	-0,101
-721,064	-200,000	-0,005	-0,016
-720,050	-158,673	-0,022	-0,001
-719,035	90,209	-0,049	0,040
-718,021	-29,962	-0,145	0,060
-717,006	80,021	-0,135	-0,107
-715,991	152,958	-0,068	-0,068
-714,977	66,394	-0,054	-0,041
-713,962	800,000	0,031	-0,076
-712,948	-42,130	-0,044	0,017
-711,933	13,863	-0,036	0,020
-710,918	-120,312	-0,147	0,018
-709,904	270,946	0,097	-0,125
-708,889	-83,616	0,046	0,011
-707,875	338,002	-0,057	-0,082
-706,860	800,000	-0,036	-0,076
-705,845	-200,000	0,009	0,077
-704,831	-101,684	-0,089	0,016
-703,816	-200,000	-0,004	0,025
-702,802	-91,412	-0,163	0,034
-701,787	-71,540	0,030	0,008
-700,772	141,444	-0,109	0,106
-699,758	184,096	0,036	-0,039
-698,743	-112,660	0,029	-0,004
-697,729	-83,895	0,049	0,011
-696,714	-175,749	0,058	-0,001
-695,699	-99,869	-0,223	0,041
-694,685	-200,000	-0,010	-0,063
-693,670	136,364	-0,035	-0,033
-692,656	-21,442	0,159	0,071
-691,641	526,116	0,033	-0,058
-690,627	800,000	0,026	0,077
-689,612	-200,000	0,000	-0,006
-688,597	180,280	-0,074	-0,079
-687,583	-200,000	-0,035	-0,116
-686,568	128,184	0,018	0,017
-685,554	184,369	0,127	-0,138
-684,539	159,724	-0,040	0,041
-683,524	51,879	0,082	0,057
-682,510	800,000	0,007	0,020
-681,495	448,369	-0,065	-0,106
-680,481	316,594	0,032	0,044
-679,466	7,322	-0,099	-0,054
-678,451	800,000	0,051	-0,108
-677,437	-181,679	-0,066	-0,001
-676,422	48,848	0,066	-0,046
-675,408	-25,184	0,131	0,057
-674,393	-200,000	0,017	0,118
-673,378	-200,000	0,002	-0,020
-672,364	227,485	0,036	-0,043
-671,349	0,350	0,201	0,105
-670,335	800,000	0,046	0,098
-669,320	70,665	-0,036	0,027
-668,305	126,476	-0,084	0,078
-667,291	127,645	-0,039	0,036
-666,276	-200,000	-0,015	-0,113
-665,262	182,320	-0,116	-0,126
-664,247	16,283	-0,074	0,043
-663,232	423,419	0,025	0,040
-662,218	467,694	0,055	0,091
-661,203	-99,674	-0,093	0,017
-660,189	-200,000	0,003	-0,059
-659,174	122,625	-0,072	-0,066
-658,159	-66,307	0,089	0,026
-657,145	-5,026	0,091	0,046
-656,130	-37,948	-0,068	0,026
-655,116	270,543	-0,021	-0,027
-654,101	662,609	-0,025	0,048
-653,086	-96,946	-0,069	-0,013
-652,072	-81,812	-0,078	-0,019
-651,057	587,329	-0,061	-0,110
-650,043	-200,000	0,002	-0,073
-649,028	-200,000	0,020	-0,072
-648,014	136,388	-0,053	0,051
-646,999	191,409	0,028	0,031
-645,984	-200,000	-0,017	-0,059
-644,970	444,219	-0,081	0,130
-643,955	-200,000	-0,011	0,049
-642,941	509,104	-0,081	-0,138
-641,926	-149,199	0,021	-0,001
-640,911	89,291	0,078	-0,063
-639,897	800,000	-0,039	0,091
-638,882	72,950	-0,020	0,015
-637,868	692,602	-0,053	-0,103
-636,853	171,764	-0,039	-0,042
-635,838	81,582	-0,014	0,011
-634,824	-200,000	0,011	-0,093
-633,809	800,000	0,026	0,072
-632,795	646,467	0,032	-0,059
-631,780	-200,000	0,012	0,068
-630,765	-200,000	0,018	0,245
-629,751	-29,794	0,131	-0,055
-628,736	114,771	-0,042	-0,037
-627,722	77,627	0,051	0,040
-626,707	-108,220	-0,018	-0,003
-625,692	205,929	0,107	0,122
-624,678	-200,000	-0,002	-0,086
-623,663	-168,275	-0,022	0,001
-622,649	-200,000	0,010	-0,137
-621,634	7,999	-0,022	0,012
-620,619	-89,832	-0,062	-0,013
-619,605	250,878	0,109	-0,136
-618,590	-73,319	0,044	0,012
-617,576	-200,000	-0,010	0,041
-616,561	76,581	-0,041	0,032
-615,546	-200,000	-0,025	-0,127
-614,532	595,447	0,047	-0,085
-613,517	-5,822	0,107	-0,053
-612,503	265,126	0,041	-0,053
-611,488	63,738	0,035	-0,026
-610,474	-113,587	0,071	0,010
-609,459	-200,000	0,018	-0,062
-608,444	112,633	-0,036	-0,031
-607,430	56,577	-0,095	-0,067
-606,415	-200,000	-0,009	-0,041
-605,401	357,673	0,042	-0,061
-604,386	735,969	-0,020	0,040
-603,371	-96,398	0,111	-0,021
-602,357	-200,000	0,017	0,150
-601,342	317,683	-0,083	0,115
-600,328	181,499	-0,058	0,062
-599,313	-200,000	0,017	0,060
-598,298	729,368	0,051	-0,099
-597,284	-75,558	-0,071	0,018
-596,269	-200,000	-0,015	0,053
-595,255	-24,060	0,075	-0,033
-594,240	-49,483	-0,153	0,053
-593,225	800,000	-0,060	-0,130
-592,211	-23,281	-0,103	-0,045
-591,196	800,000	-0,048	0,098
-590,182	800,000	0,038	-0,103
-589,167	-74,036	0,181	0,048
-588,152	637,215	-0,037	0,070
-587,138	-200,000	-0,030	0,113
-586,123	203,290	0,014	0,016
-585,109	72,211	0,123	0,093
-584,094	-136,638	-0,146	-0,012
-583,079	66,303	0,053	-0,039
-582,065	-38,955	0,087	-0,033
-581,050	-25,594	0,138	-0,059
-580,036	19,876	0,040	-0,024
-579,021	-119,593	-0,075	-0,009
-578,006	-166,228	0,059	0,002
-576,992	321,816	-0,018	0,026
-575,977	800,000	-0,036	0,087
-574,963	800,000	0,027	0,070
-573,948	118,938	0,062	-0,056
-572,934	625,225	0,081	0,150
-571,919	800,000	0,005	0,014
-570,904	-200,000	0,010	-0,076
-569,890	299,632	0,033	0,044
-568,875	-200,000	0,011	0,094
-567,861	35,633	0,064	0,041
-566,846	180,534	-0,036	0,039
-565,831	-200,000	0,042	0,209
-564,817	-136,981	-0,137	0,011
-563,802	90,130	-0,044	0,036
-562,788	70,491	-0,040	-0,030
-561,773	-106,516	0,020	-0,003
-560,758	-200,000	-0,023	0,109
-559,744	-26,006	-0,078	0,033
-558,729	73,228	0,069	0,053
-557,715	-146,115	-0,078	0,005
-556,700	77,567	-0,032	-0,025
-555,685	-200,000	-0,001	-0,069
-554,671	-151,262	-0,127	-0,007
-553,656	23,721	0,125	0,075
-552,642	-13,599	0,124	0,058
-551,627	-61,194	-0,062	-0,019
-550,612	-138,999	-0,079	-0,006
-549,598	-200,000	-0,034	0,229
-548,583	-200,000	-0,010	0,144
-547,569	-200,000	-0,007	0,082
-546,554	-5,621	-0,071	-0,035
-545,539	800,000	0,033	-0,081
-544,525	800,000	-0,068	0,154
-543,510	800,000	-0,015	-0,035
-542,496	177,534	0,046	-0,049
-541,481	-200,000	0,013	-0,171
-540,466	-200,000	0,003	0,077
-539,452	88,778	-0,047	0,038
-538,437	-62,485	-0,027	-0,008
-537,423	-200,000	-0,006	0,119
-536,408	800,000	-0,076	-0,200
-535,393	47,564	0,070	-0,047
-534,379	788,592	-0,024	-0,048
-533,364	102,011	0,052	-0,044
-532,350	102,226	-0,079	-0,068
-531,335	-114,073	0,173	-0,024
-530,321	800,000	0,025	-0,054
-529,306	-200,000	-0,015	0,188
-528,291	-200,000	-0,001	0,026
-527,277	146,251	0,055	-0,054
-526,262	255,817	-0,107	-0,134
-525,248	192,404	0,080	-0,088
-524,233	-200,000	-0,007	-0,053
-523,218	-200,000	0,004	-0,039
-522,204	-141,526	-0,073	-0,005
-521,189	800,000	-0,048	-0,154
-520,175	-200,000	0,026	0,091
-519,160	14,649	-0,123	0,070
-518,145	-200,000	-0,011	0,067
-517,131	164,191	-0,006	0,006
-516,116	800,000	-0,027	-0,076
-515,102	-200,000	-0,002	0,080
-514,087	-69,065	-0,066	-0,018
-513,072	-200,000	-0,003	-0,102
-512,058	-185,447	-0,087	0,001
-511,043	97,108	-0,040	0,034
-510,029	800,000	-0,045	-0,102
-509,014	-200,000	0,024	0,108
-507,999	10,327	0,067	-0,037
-506,985	192,717	-0,078	0,086
-505,970	800,000	0,032	-0,078
-504,956	201,250	0,147	-0,165
-503,941	295,570	0,074	0,099
-502,926	-200,000	-0,007	-0,034
-501,912	74,873	0,055	-0,042
-500,897	-36,416	0,044	0,017
-499,883	800,000	0,021	-0,045
-498,868	-2,119	0,049	0,025
-497,853	77,201	-0,163	0,127
-496,839	-200,000	0,041	0,169
-495,824	800,000	-0,029	0,073
-494,810	-200,000	0,023	0,089
-493,795	-200,000	0,039	0,134
-492,781	198,064	-0,009	0,010
-491,766	228,735	-0,094	-0,112
-490,751	-21,695	-0,070	-0,031
-489,737	-200,000	0,007	0,026
-488,722	800,000	0,039	-0,086
-487,708	-200,000	0,023	-0,131
-486,693	567,127	-0,035	-0,062
-485,678	87,443	0,077	-0,062
-484,664	-137,969	0,036	-0,003
-483,649	-200,000	-0,003	0,056
-482,635	120,102	-0,030	-0,027
-481,620	-10,650	0,068	-0,033
-480,605	-200,000	0,047	-0,160
-479,591	800,000	-0,045	0,103
-478,576	187,444	-0,035	0,038
-477,562	-200,000	-0,018	-0,070
-476,547	800,000	0,060	-0,132
-475,532	138,495	-0,068	-0,065
-474,518	81,656	0,101	-0,079
-473,503	-40,092	0,106	-0,040
-472,489	272,078	-0,020	-0,025
-471,474	27,344	-0,042	-0,026
-470,459	-5,751	0,101	0,050
-469,445	311,716	0,043	-0,060
-468,430	-66,093	-0,032	0,009
-467,416	-42,957	-0,087	0,032
-466,401	67,303	0,098	-0,073
-465,386	105,959	0,079	0,068
-464,372	-200,000	-0,018	-0,098
-463,357	101,182	0,126	0,107
-462,343	-82,287	0,095	-0,022
-461,328	800,000	0,005	0,014
-460,313	-200,000	0,007	0,057
-459,299	800,000	-0,055	0,168
-458,284	79,642	-0,120	-0,094
-457,270	378,368	-0,082	-0,122
-456,255	-142,296	-0,025	-0,002
-455,241	800,000	0,024	-0,060
-454,226	800,000	-0,042	-0,125
-453,211	-20,724	0,158	0,070
-452,197	41,956	0,082	0,054
-451,182	325,309	0,101	0,140
-450,168	-200,000	0,016	0,180
-449,153	197,668	-0,119	-0,132
-448,138	133,365	0,050	-0,047
-447,124	-107,767	-0,089	0,014
-446,109	800,000	-0,025	-0,065
-445,095	54,716	0,013	0,009
-444,080	800,000	-0,018	-0,047
-443,065	-88,322	0,119	0,026
-442,051	800,000	0,037	0,082
-441,036	-22,932	-0,155	-0,068
-440,022	-77,413	0,105	0,026
-439,007	661,407	0,073	-0,137
-437,992	-58,944	0,103	-0,032
-436,978	-200,000	-0,018	0,118
-435,963	-68,719	0,155	0,043
-434,949	57,987	-0,081	-0,057
-433,934	91,458	-0,043	-0,035
-432,919	-200,000	-0,017	-0,092
-431,905	-170,889	0,069	0,002
-430,890	469,453	0,072	0,118
-429,876	-200,000	-0,024	0,158
-428,861	-165,044	-0,032	-0,001
-427,846	189,371	-0,033	0,036
-426,832	39,950	-0,031	0,020
-425,817	737,930	-0,053	0,104
-424,803	-62,174	-0,153	0,046
-423,788	-200,000	0,006	0,039
-422,773	-25,376	-0,011	0,005
-421,759	-37,052	-0,040	0,015
-420,744	-200,000	-0,009	-0,049
-419,730	800,000	0,035	-0,108
-418,715	276,421	-0,007	-0,009
-417,701	-167,014	-0,206	-0,006
-416,686	-42,482	0,098	0,036
-415,671	31,796	0,117	0,073
-414,657	216,261	-0,102	0,118
-413,642	19,612	-0,131	0,076
-412,628	800,000	-0,032	-0,087
-411,613	214,767	-0,090	-0,103
-410,598	-101,359	-0,172	0,030
-409,584	-3,563	0,085	-0,043
-408,569	659,182	-0,031	0,059
-407,555	-110,276	0,222	0,033
-406,540	74,508	-0,053	-0,040
-405,525	-200,000	0,010	-0,139
-404,511	800,000	0,027	-0,066
-403,496	800,000	0,050	0,118
-402,482	-149,834	0,061	0,003
-401,467	-191,451	0,174	-0,001
-400,452	-14,436	-0,123	-0,057
-399,438	593,237	-0,038	0,069
-398,423	27,133	-0,130	0,079
-397,409	84,217	0,074	-0,059
-396,394	-200,000	-0,008	0,112
-395,379	800,000	0,037	0,116
-394,365	632,490	-0,056	0,103
-393,350	163,438	0,079	0,081
-392,336	-200,000	0,007	0,035
-391,321	670,938	-0,072	-0,136
-390,306	800,000	0,030	-0,063
-389,292	-191,983	0,119	0,001
-388,277	-108,531	0,117	0,018
-387,263	-135,371	0,190	0,016
-386,248	154,265	-0,013	0,013
-385,233	49,051	-0,078	-0,053
-384,219	169,179	0,052	-0,054
-383,204	12,168	-0,093	-0,052
-382,190	-200,000	0,015	-0,063
-381,175	800,000	-0,029	0,086
-380,160	61,335	0,049	0,035
-379,146	-200,000	-0,011	0,129
-378,131	-200,000	-0,001	-0,034
-377,117	45,933	-0,119	0,080
-376,102	-95,192	0,049	-0,010
-375,088	-200,000	-0,024	-0,161
-374,073	-25,022	-0,132	-0,057
-373,058	-53,234	0,076	-0,025
-372,044	-138,997	-0,073	0,006
-371,029	282,308	-0,115	-0,150
-370,015	-200,000	-0,012	-0,064
-369,000	321,570	-0,032	0,045
-367,985	46,129	-0,048	0,032
-366,971	489,323	-0,027	-0,046
-365,956	0,696	0,088	-0,045
-364,942	33,027	0,164	0,103
-363,927	-116,793	0,067	0,009
-362,912	-18,599	0,076	0,034
-361,898	197,905	0,046	-0,051
-360,883	218,563	0,063	-0,073
-359,869	155,287	-0,096	-0,096
-358,854	800,000	-0,041	-0,107
-357,839	640,411	0,054	-0,101
-356,825	800,000	0,069	0,141
-355,810	168,991	-0,049	0,050
-354,796	-116,802	0,077	0,010
-353,781	-47,344	0,094	0,033
-352,766	-200,000	-0,011	-0,108
-351,752	800,000	-0,042	-0,127
-350,737	-151,488	-0,040	0,002
-349,723	-200,000	0,030	0,120
-348,708	-36,291	-0,076	-0,029
-347,693	-200,000	0,031	-0,098
-346,679	-42,599	-0,070	-0,026
-345,664	800,000	-0,049	-0,116
-344,650	91,650	-0,091	0,074
-343,635	264,785	0,160	0,202
-342,620	6,802	0,071	0,038
-341,606	-200,000	0,035	0,123
-340,591	-48,662	-0,035	-0,012
-339,577	377,937	-0,036	-0,054
-338,562	528,237	-0,056	-0,095
-337,548	-14,384	-0,044	0,020
-336,533	44,504	-0,078	-0,052
-335,518	-26,701	0,080	0,034
-334,504	800,000	0,025	0,071
-333,489	-200,000	0,039	0,139
-332,475	-112,031	-0,185	0,027
-331,460	800,000	0,009	-0,024
-330,445	-54,102	-0,128	-0,042
-329,431	-200,000	0,001	-0,030
-328,416	5,990	0,136	-0,073
-327,402	-38,924	0,053	-0,020
-326,387	41,939	-0,110	0,072
-325,372	-109,059	0,096	0,015
-324,358	-150,624	0,059	0,003
-323,343	698,234	0,038	0,072
-322,329	145,976	-0,017	0,016
-321,314	386,370	0,126	0,189
-320,299	-200,000	-0,013	0,184
-319,285	486,531	0,024	-0,040
-318,270	-13,009	-0,097	-0,046
-317,256	8,718	-0,194	-0,105
-316,241	800,000	0,042	-0,130
-315,226	172,761	0,093	0,097
-314,212	-74,215	0,100	-0,026
-313,197	34,628	-0,066	-0,041
-312,183	675,475	-0,045	-0,086
-311,168	-136,491	-0,138	0,011
-310,153	93,063	0,060	-0,049
-309,139	-165,686	-0,047	-0,001
-308,124	800,000	-0,026	-0,079
-307,110	-200,000	0,002	-0,042
-306,095	88,210	-0,054	0,043
-305,080	165,434	-0,101	0,104
-304,066	114,740	0,057	0,050
-303,051	-200,000	-0,003	-0,096
-302,037	228,333	-0,074	0,087
-301,022	-88,044	0,120	-0,026
-300,008	128,721	0,085	0,078
-298,993	-154,688	-0,088	-0,004
-297,978	236,106	-0,063	0,076
-296,964	9,494	-0,069	-0,038
-295,949	800,000	0,051	-0,150
-294,935	-103,702	-0,044	-0,007
-293,920	187,456	0,050	0,054
-292,905	-117,915	0,079	0,010
-291,891	-200,000	-0,006	0,062
-290,876	78,258	0,061	0,047
-289,862	-145,702	0,060	-0,004
-288,847	81,821	0,096	-0,075
-287,832	-200,000	0,000	0,023
-286,818	800,000	0,016	-0,041
-285,803	-182,782	0,072	0,001
-284,789	800,000	0,045	0,108
-283,774	-1,357	-0,045	-0,023
-282,759	-200,000	-0,003	-0,182
-281,745	273,770	0,061	0,079
-280,730	800,000	0,015	0,033
-279,716	800,000	-0,032	-0,069
-278,701	417,812	0,013	-0,021
-277,686	427,221	-0,110	-0,172
-276,672	-200,000	-0,014	-0,077
-275,657	35,127	-0,063	-0,040
-274,643	138,701	0,060	-0,057
-273,628	800,000	-0,071	-0,196
-272,613	-86,332	-0,115	-0,025
-271,599	339,133	-0,016	0,022
-270,584	-101,133	0,052	0,009
-269,570	323,262	0,060	0,083
-268,555	-200,000	0,005	0,164
-267,540	-151,170	-0,088	-0,005
-266,526	800,000	-0,054	-0,137
-265,511	-112,830	-0,224	0,032
-264,497	-200,000	0,008	0,078
-263,482	103,033	0,081	0,069
-262,467	-200,000	-0,005	-0,055
-261,453	475,563	0,045	-0,074
-260,438	128,626	0,060	-0,055
-259,424	99,412	-0,038	0,032
-258,409	146,020	0,076	0,074
-257,395	-200,000	-0,005	0,060
-256,380	-80,601	-0,117	-0,028
-255,365	-161,132	0,101	-0,004
-254,351	96,677	-0,070	0,058
-253,336	479,955	-0,048	0,079
-252,322	-200,000	-0,027	-0,125
-251,307	-200,000	0,004	-0,017
-250,292	8,038	0,078	0,042
-249,278	241,134	-0,123	0,148
-248,263	-2,946	-0,080	0,040
-247,249	6,127	0,057	0,030
-246,234	-1,119	0,127	-0,065
-245,219	-200,000	-0,009	0,055
-244,205	93,796	0,024	0,020
-243,190	143,124	-0,056	0,053
-242,176	-60,310	0,112	-0,034
-241,161	-200,000	-0,001	0,061
-240,146	-200,000	-0,008	0,149
-239,132	-112,949	-0,133	0,019
-238,117	167,808	0,030	-0,031
-237,103	-92,745	-0,081	0,016
-236,088	36,559	0,117	-0,074
-235,073	-142,971	-0,129	-0,009
-234,059	-200,000	0,060	0,251
-233,044	266,390	0,052	-0,065
-232,030	800,000	-0,041	0,121
-231,015	-200,000	-0,006	-0,107
-230,000	-200,000	0,017	-0,067
-228,986	530,485	-0,029	-0,050
-227,971	-99,220	0,108	0,019
-226,957	800,000	-0,065	-0,179
-225,942	720,888	0,030	-0,057
-224,927	-161,917	-0,101	0,004
-223,913	800,000	0,017	-0,045
-222,898	-200,000	-0,012	-0,098
-221,884	62,354	0,069	-0,050
-220,869	574,288	0,023	-0,041
-219,855	83,734	-0,023	0,018
-218,840	-200,000	0,026	0,139
-217,825	120,975	-0,086	-0,077
-216,811	-64,992	-0,055	-0,016
-215,796	-55,361	0,082	-0,026
-214,782	-169,787	0,019	-0,000
-213,767	-39,412	0,072	-0,027
-212,752	-105,046	0,138	-0,023
-211,738	290,689	0,121	-0,159
-210,723	292,481	0,023	-0,031
-209,709	-9,928	-0,050	0,024
-208,694	186,314	-0,092	-0,099
-207,679	-200,000	0,002	-0,183
-206,665	-96,651	-0,143	-0,027
-205,650	-200,000	0,035	0,174
-204,636	185,210	0,032	0,034
-203,621	800,000	-0,040	-0,102
-202,606	-182,839	-0,038	0,000
-201,592	-85,020	-0,187	0,042
-200,577	179,522	-0,030	-0,032
-199,563	112,608	0,110	0,096
-198,548	204,315	0,045	0,050
-197,533	-167,831	0,224	0,006
-196,519	-200,000	0,005	0,125
-195,504	-56,053	-0,093	-0,030
-194,490	613,480	-0,075	0,136
-193,475	-200,000	-0,016	0,128
-192,460	-74,175	0,147	-0,038
-191,446	-119,139	-0,078	-0,010
-190,431	800,000	-0,027	-0,082
-189,417	91,234	0,069	0,055
-188,402	-15,263	0,111	-0,051
-187,387	-41,468	-0,018	0,007
-186,373	-200,000	0,037	0,154
-185,358	-200,000	-0,003	0,014
-184,344	633,532	-0,047	0,087
-183,329	-17,250	-0,134	0,061
-182,315	425,083	0,083	-0,130
-181,300	-116,335	0,074	0,010
-180,285	800,000	0,010	0,027
-179,271	-200,000	-0,024	-0,159
-178,256	-200,000	0,004	-0,078
-177,242	-88,064	0,065	-0,014
-176,227	-90,480	0,106	-0,022
-175,212	-31,523	-0,169	0,068
-174,198	132,007	-0,070	0,065
-173,183	-200,000	-0,016	0,051
-172,169	278,986	-0,095	0,122
-171,154	800,000	-0,021	-0,060
-170,139	8,663	0,056	0,031
-169,125	-50,734	0,012	-0,004
-168,110	-142,115	0,108	-0,008
-167,096	82,122	-0,028	0,022
-166,081	117,676	-0,047	0,041
-165,066	21,447	-0,117	0,069
-164,052	17,414	-0,033	0,019
-163,037	346,904	-0,057	-0,081
-162,023	800,000	0,026	-0,056
-161,008	-60,779	0,036	0,011
-159,993	800,000	-0,029	0,088
-158,979	-35,909	-0,085	-0,033
-157,964	-47,202	-0,175	-0,061
-156,950	226,244	-0,063	-0,074
-155,935	60,246	0,049	-0,035
-154,920	117,794	0,079	-0,070
-153,906	800,000	0,020	0,063
-152,891	-200,000	-0,012	-0,091
-151,877	-164,400	-0,049	-0,002
-150,862	-200,000	0,016	-0,074
-149,847	508,313	0,062	-0,103
-148,833	215,367	0,076	0,087
-147,818	461,493	0,111	0,179
-146,804	800,000	0,020	-0,041
-145,789	26,719	0,033	0,020
-144,775	-127,568	-0,097	-0,010
-143,760	800,000	-0,039	-0,083
-142,745	359,370	0,014	-0,020
-141,731	-144,306	-0,070	-0,005
-140,716	-78,429	-0,026	0,006
-139,702	-200,000	0,044	0,152
-138,687	-11,827	-0,042	-0,020
-137,672	-200,000	0,026	-0,096
-136,658	-46,325	-0,097	0,034
-135,643	131,010	0,040	-0,036
-134,629	-200,000	-0,002	0,033
-133,614	-137,283	-0,079	0,006
-132,599	-91,427	0,133	-0,027
-131,585	-55,417	0,098	0,031
-130,570	-200,000	0,011	0,076
-129,556	42,173	0,019	0,013
-128,541	-200,000	-0,030	-0,102
-127,526	800,000	0,061	-0,135
-126,512	-200,000	-0,003	0,036
-125,497	800,000	0,020	-0,052
-124,483	-200,000	0,006	0,073
-123,468	198,084	-0,042	-0,046
-122,453	-56,173	0,018	0,006
-121,439	-120,065	-0,083	0,010
-120,424	800,000	0,013	-0,027
-119,410	339,992	0,088	0,123
