DTS Sentinel unit serial number:	SN410029Multiplexer serial number:	ORYXHardware model number:	OX2-SRSoftware version number:	ORYX F/W v4,00 Oryx Data Collector v3.7.2.0data status	okinstallation	B5 Nyhavnadifferential loss correction	single-endedforward channel	channel 2reverse channel	N/Adate	2023/12/12time	00:37:13forward acquisition time	300,00reverse acquisition time	0,00gamma	499,1914k internal	0,3156k external	0,3156temperature offset calibration	1,0000default loss term (dB/km)	0,3820temperature slope calibration	1,0000multiplexer offset coefficient	1,0000multiplexer slope coefficient	1,0000fibre end	0,00T internal ref (°C)	16,07T ext. ref 1 (°C)	-0,33T ext. ref 2 (°C)	-0,63length (m)	temperature (°C)	Stokes	anti-Stokes-744,400	-200,000	0,007	-0,034
-743,385	-199,421	-0,388	-0,001
-742,371	201,176	0,068	-0,077
-741,356	3,486	-0,237	0,127
-740,342	-75,275	0,079	0,021
-739,327	-87,538	-0,330	0,073
-738,312	94,066	-0,018	-0,015
-737,298	-74,935	-0,316	-0,083
-736,283	53,965	0,117	-0,083
-735,269	-35,162	-0,158	-0,063
-734,254	209,785	-0,088	0,102
-733,239	-47,096	-0,434	-0,155
-732,225	396,172	0,121	-0,187
-731,210	55,135	-0,017	-0,012
-730,196	-68,760	-0,111	-0,031
-729,181	800,000	-0,024	-0,064
-728,167	-124,109	0,061	-0,007
-727,152	-200,000	-0,025	-0,114
-726,137	327,107	-0,057	0,081
-725,123	21,794	-0,070	-0,042
-724,108	800,000	0,049	-0,126
-723,094	-182,147	-0,115	-0,002
-722,079	-150,510	0,089	-0,005
-721,064	78,616	0,058	-0,046
-720,050	32,014	0,054	0,034
-719,035	65,919	0,042	-0,032
-718,021	-124,157	-0,079	0,009
-717,006	-200,000	-0,012	-0,076
-715,991	-92,360	-0,134	-0,028
-714,977	371,328	0,042	-0,063
-713,962	-5,187	0,057	-0,029
-712,948	-175,564	-0,081	0,002
-711,933	800,000	0,039	-0,094
-710,918	147,108	-0,114	-0,113
-709,904	73,980	-0,091	-0,071
-708,889	-104,892	0,084	-0,014
-707,875	-105,736	-0,083	-0,014
-706,860	5,496	-0,106	-0,057
-705,845	-56,158	0,171	-0,056
-704,831	-200,000	-0,034	0,130
-703,816	-200,000	0,010	-0,126
-702,802	-200,000	-0,001	0,014
-701,787	49,999	-0,036	-0,025
-700,772	-200,000	0,033	-0,132
-699,758	-200,000	0,003	-0,090
-698,743	102,573	0,018	-0,016
-697,729	800,000	-0,028	0,068
-696,714	87,414	-0,044	-0,036
-695,699	-200,000	0,047	-0,218
-694,685	800,000	0,007	-0,016
-693,670	-150,917	-0,068	0,004
-692,656	-36,713	-0,081	-0,032
-691,641	-193,916	0,046	-0,000
-690,627	17,842	-0,130	-0,076
-689,612	-179,224	0,145	0,002
-688,597	122,725	-0,051	-0,047
-687,583	-200,000	0,001	-0,023
-686,568	-97,874	-0,122	-0,023
-685,554	-12,546	0,181	-0,087
-684,539	179,573	-0,072	0,078
-683,524	129,852	-0,020	0,019
-682,510	99,619	-0,042	0,036
-681,495	24,350	-0,083	0,050
-680,481	-144,437	-0,073	0,005
-679,466	744,314	0,081	-0,161
-678,451	377,443	0,043	-0,065
-677,437	-24,183	0,059	0,026
-676,422	97,398	-0,084	-0,071
-675,408	800,000	0,020	-0,055
-674,393	484,230	-0,084	-0,141
-673,378	-61,713	-0,134	0,041
-672,364	-90,025	-0,128	-0,027
-671,349	-17,225	0,078	0,036
-670,335	800,000	0,019	0,048
-669,320	-5,296	0,074	0,037
-668,305	132,024	0,054	0,051
-667,291	43,543	0,021	0,014
-666,276	-1,381	-0,096	-0,050
-665,262	15,049	-0,148	-0,085
-664,247	-200,000	0,008	-0,094
-663,232	42,408	0,035	0,023
-662,218	-44,993	0,040	0,015
-661,203	82,099	-0,086	0,069
-660,189	16,264	0,069	-0,040
-659,174	-88,734	-0,040	0,009
-658,159	133,817	-0,148	-0,141
-657,145	165,679	0,010	0,010
-656,130	-200,000	-0,003	0,064
-655,116	-155,917	0,147	-0,007
-654,101	115,250	-0,139	0,125
-653,086	-113,495	-0,067	0,010
-652,072	600,408	0,035	-0,064
-651,057	308,315	-0,092	-0,126
-650,043	800,000	0,023	-0,055
-649,028	-101,310	0,070	0,012
-648,014	-115,560	0,099	0,014
-646,999	-200,000	0,007	-0,025
-645,984	91,148	0,025	0,021
-644,970	167,822	-0,069	-0,072
-643,955	71,711	-0,047	-0,036
-642,941	239,449	-0,059	-0,072
-641,926	-193,736	0,100	0,001
-640,911	592,401	0,061	-0,112
-639,897	79,821	-0,096	0,076
-638,882	-200,000	0,047	-0,201
-637,868	-103,721	-0,104	-0,018
-636,853	-200,000	-0,010	0,045
-635,838	-167,075	-0,094	0,003
-634,824	-200,000	-0,004	-0,138
-633,809	201,882	-0,077	-0,087
-632,795	-200,000	0,013	0,152
-631,780	51,528	-0,031	-0,022
-630,765	-168,783	0,097	0,003
-629,751	-95,152	0,025	0,005
-628,736	-72,689	-0,030	0,008
-627,722	-200,000	0,011	0,128
-626,707	154,195	0,087	0,088
-625,692	252,747	0,073	-0,092
-624,678	-142,076	0,061	-0,004
-623,663	-134,575	0,092	0,008
-622,649	15,715	-0,097	-0,056
-621,634	293,221	-0,052	0,070
-620,619	-169,157	-0,116	-0,003
-619,605	-100,383	-0,163	0,029
-618,590	-67,657	-0,090	-0,026
-617,576	-200,000	0,009	0,048
-616,561	175,228	-0,036	-0,038
-615,546	554,153	-0,037	0,066
-614,532	-200,000	0,024	0,103
-613,517	-200,000	0,000	-0,006
-612,503	387,738	-0,017	0,026
-611,488	770,918	-0,043	0,087
-610,474	247,432	-0,053	0,066
-609,459	137,088	-0,017	0,016
-608,444	-200,000	-0,053	-0,187
-607,430	-125,306	-0,025	0,003
-606,415	-200,000	0,036	0,154
-605,401	714,255	-0,055	-0,108
-604,386	-59,006	0,092	0,029
-603,371	1,343	0,061	-0,032
-602,357	104,139	0,071	0,061
-601,342	16,965	0,097	0,056
-600,328	-79,757	-0,131	0,032
-599,313	76,590	0,023	0,018
-598,298	-200,000	0,010	-0,045
-597,284	94,392	0,093	0,077
-596,269	573,860	-0,010	-0,017
-595,255	59,746	-0,093	0,067
-594,240	800,000	-0,057	-0,133
-593,225	-84,829	-0,125	-0,029
-592,211	-200,000	0,002	-0,028
-591,196	-200,000	-0,013	-0,069
-590,182	800,000	0,033	0,077
-589,167	-200,000	0,021	0,078
-588,152	169,409	-0,012	0,012
-587,138	212,750	-0,080	0,093
-586,123	-127,877	0,133	0,014
-585,109	167,809	0,008	-0,009
-584,094	800,000	-0,041	-0,130
-583,079	144,531	0,056	-0,055
-582,065	578,705	0,008	0,014
-581,050	-155,855	0,072	0,003
-580,036	146,438	0,124	-0,122
-579,021	800,000	-0,012	-0,038
-578,006	-35,235	-0,111	0,044
-576,992	79,332	0,101	-0,079
-575,977	-158,148	-0,127	-0,005
-574,963	-90,004	-0,067	0,014
-573,948	-192,260	0,103	0,001
-572,934	75,816	-0,012	0,009
-571,919	86,406	-0,184	-0,148
-570,904	-2,502	0,083	-0,042
-569,890	222,075	-0,095	-0,112
-568,875	-89,115	0,085	0,018
-567,861	-81,648	-0,107	-0,026
-566,846	63,127	0,064	0,047
-565,831	46,166	-0,087	-0,059
-564,817	-136,694	-0,029	-0,002
-563,802	86,610	-0,166	-0,134
-562,788	-84,905	-0,085	-0,019
-561,773	-200,000	0,048	-0,166
-560,758	-6,519	-0,058	0,029
-559,744	-200,000	-0,003	0,010
-558,729	-124,404	-0,066	0,007
-557,715	101,855	-0,145	-0,124
-556,700	257,428	-0,036	0,046
-555,685	-60,461	-0,073	-0,023
-554,671	-200,000	0,008	-0,033
-553,656	-31,549	-0,233	-0,095
-552,642	394,345	-0,049	-0,076
-551,627	-200,000	-0,012	0,118
-550,612	-182,497	0,071	0,001
-549,598	251,577	-0,138	-0,173
-548,583	-127,173	0,077	-0,008
-547,569	-200,000	0,009	0,188
-546,554	-119,987	0,157	0,019
-545,539	-151,835	0,140	-0,007
-544,525	114,213	-0,186	0,166
-543,510	-105,536	0,077	-0,013
-542,496	96,056	-0,011	-0,009
-541,481	-17,503	-0,131	-0,060
-540,466	-62,227	0,166	0,050
-539,452	129,451	0,040	-0,038
-538,437	-200,000	0,009	0,049
-537,423	99,665	-0,072	0,061
-536,408	800,000	0,008	0,017
-535,393	800,000	-0,035	0,077
-534,379	-70,463	-0,093	-0,026
-533,364	97,026	0,066	0,055
-532,350	800,000	0,017	0,037
-531,335	-96,552	-0,158	0,030
-530,321	-26,741	-0,145	0,062
-529,306	-200,000	-0,002	-0,084
-528,291	-3,558	-0,022	-0,011
-527,277	-13,699	0,026	-0,012
-526,262	-200,000	-0,014	-0,136
-525,248	-134,009	-0,140	-0,012
-524,233	-35,636	0,191	-0,075
-523,218	-200,000	-0,001	0,065
-522,204	186,442	0,099	-0,108
-521,189	-200,000	-0,015	-0,196
-520,175	739,216	0,014	-0,028
-519,160	-113,511	-0,103	-0,015
-518,145	-65,842	0,174	0,050
-517,131	-20,618	0,035	0,015
-516,116	205,897	0,028	0,031
-515,102	-41,724	0,083	0,031
-514,087	-200,000	0,000	-0,040
-513,072	453,704	-0,046	-0,074
-512,058	-200,000	-0,001	0,092
-511,043	42,758	0,097	0,065
-510,029	70,926	0,104	0,079
-509,014	351,297	-0,026	0,038
-507,999	728,783	-0,046	-0,090
-506,985	-137,338	0,047	-0,004
-505,970	-118,641	0,071	-0,009
-504,956	200,443	-0,095	0,106
-503,941	114,701	0,027	-0,024
-502,926	-116,293	0,091	-0,012
-501,912	-200,000	-0,034	-0,158
-500,897	-200,000	-0,009	-0,154
-499,883	209,297	-0,123	-0,142
-498,868	-80,769	0,024	0,006
-497,853	-45,629	-0,115	-0,042
-496,839	-200,000	-0,000	0,036
-495,824	-50,440	0,023	-0,008
-494,810	-161,161	0,050	0,002
-493,795	-73,057	0,083	-0,022
-492,781	-200,000	0,010	0,097
-491,766	-200,000	0,006	0,061
-490,751	800,000	-0,055	0,158
-489,737	-132,356	-0,104	-0,010
-488,722	-24,036	0,041	-0,018
-487,708	38,237	0,107	0,070
-486,693	-200,000	-0,003	0,076
-485,678	10,647	-0,070	-0,039
-484,664	800,000	-0,003	-0,009
-483,649	7,402	-0,144	-0,078
-482,635	-200,000	0,007	-0,104
-481,620	234,151	-0,059	-0,071
-480,605	-200,000	0,005	0,195
-479,591	-200,000	-0,008	-0,055
-478,576	344,238	-0,019	0,028
-477,562	-29,140	-0,114	-0,047
-476,547	-200,000	-0,014	0,077
-475,532	548,986	0,013	0,023
-474,518	-101,036	-0,053	0,009
-473,503	-98,371	-0,056	-0,010
-472,489	-33,340	0,083	0,033
-471,474	67,179	0,071	-0,053
-470,459	143,811	-0,125	-0,121
-469,445	-54,979	-0,055	-0,018
-468,430	800,000	-0,030	0,066
-467,416	703,941	-0,035	-0,067
-466,401	-150,325	0,132	0,007
-465,386	677,715	0,044	0,084
-464,372	-200,000	0,011	0,119
-463,357	-200,000	-0,008	-0,073
-462,343	389,592	0,031	-0,047
-461,328	133,695	-0,048	0,045
-460,313	-47,603	0,045	0,016
-459,299	-200,000	-0,010	0,097
-458,284	-116,661	0,079	0,011
-457,270	74,928	0,112	0,086
-456,255	800,000	-0,068	-0,206
-455,241	-106,273	-0,112	0,018
-454,226	800,000	-0,010	-0,021
-453,211	39,651	-0,126	0,083
-452,197	81,919	-0,085	-0,067
-451,182	-200,000	-0,004	0,077
-450,168	-144,661	0,071	0,005
-449,153	800,000	-0,064	-0,134
-448,138	56,698	-0,012	0,008
-447,124	9,384	0,117	-0,064
-446,109	143,947	0,033	0,032
-445,095	545,080	0,033	0,057
-444,080	-200,000	-0,005	0,057
-443,065	65,857	-0,072	-0,053
-442,051	-200,000	-0,010	-0,073
-441,036	366,072	-0,126	-0,186
-440,022	650,077	0,050	0,094
-439,007	15,677	-0,092	0,053
-437,992	62,582	0,070	-0,051
-436,978	-200,000	0,044	-0,231
-435,963	-98,286	0,018	0,003
-434,949	432,136	-0,041	0,065
-433,934	232,722	-0,017	0,020
-432,919	-200,000	-0,007	-0,174
-431,905	-135,677	-0,082	0,007
-430,890	-12,208	0,106	0,050
-429,876	-200,000	-0,024	0,089
-428,861	-200,000	0,010	0,108
-427,846	89,983	-0,047	0,039
-426,832	355,733	-0,007	-0,011
-425,817	800,000	-0,023	-0,060
-424,803	144,218	-0,062	-0,060
-423,788	79,970	0,060	-0,047
-422,773	-69,519	0,029	0,008
-421,759	800,000	0,019	-0,062
-420,744	-200,000	-0,106	-0,000
-419,730	-200,000	0,005	0,114
-418,715	-62,523	0,151	-0,045
-417,701	800,000	0,057	0,136
-416,686	800,000	-0,041	-0,122
-415,671	133,089	0,079	-0,075
-414,657	-200,000	-0,016	-0,097
-413,642	800,000	0,048	-0,096
-412,628	254,180	-0,117	0,146
-411,613	395,695	0,055	0,083
-410,598	-200,000	-0,016	-0,082
-409,584	427,449	-0,029	-0,046
-408,569	98,117	0,132	0,110
-407,555	-200,000	0,004	0,046
-406,540	112,546	0,123	0,108
-405,525	44,908	-0,089	-0,060
-404,511	-9,825	0,076	-0,037
-403,496	-28,767	-0,154	-0,064
-402,482	575,961	0,067	-0,120
-401,467	265,528	-0,015	0,019
-400,452	800,000	0,043	0,129
-399,438	800,000	0,029	0,061
-398,423	800,000	-0,057	0,133
-397,409	89,056	0,082	-0,066
-396,394	126,446	0,028	-0,026
-395,379	1,227	-0,079	0,041
-394,365	-200,000	0,003	0,134
-393,350	-200,000	-0,013	0,244
-392,336	781,095	0,050	0,100
-391,321	800,000	0,020	-0,060
-390,306	-96,405	0,266	0,051
-389,292	568,219	0,022	-0,038
-388,277	122,959	-0,081	-0,074
-387,263	159,365	-0,019	-0,019
-386,248	-200,000	0,030	0,108
-385,233	-50,834	-0,039	-0,013
-384,219	480,065	-0,052	0,087
-383,204	486,437	-0,087	-0,144
-382,190	-13,028	-0,066	-0,031
-381,175	-57,979	-0,067	0,021
-380,160	-106,431	0,051	-0,008
-379,146	72,643	0,116	-0,088
-378,131	153,286	0,126	-0,125
-377,117	-60,628	-0,083	0,026
-376,102	-44,390	-0,096	-0,035
-375,088	358,955	0,013	-0,019
-374,073	447,512	0,094	0,151
-373,058	128,392	-0,089	0,082
-372,044	-87,964	0,140	-0,030
-371,029	17,721	0,080	0,046
-370,015	-126,282	-0,143	-0,015
-369,000	350,484	0,057	-0,082
-367,985	234,229	-0,066	-0,079
-366,971	-200,000	-0,018	-0,075
-365,956	-200,000	-0,006	-0,080
-364,942	-46,315	0,049	-0,017
-363,927	-200,000	-0,002	-0,014
-362,912	-200,000	-0,002	-0,053
-361,898	-10,623	-0,060	-0,029
-360,883	-25,117	0,083	-0,036
-359,869	800,000	0,019	0,042
-358,854	456,737	-0,066	-0,107
-357,839	615,051	0,085	0,155
-356,825	-200,000	-0,005	0,098
-355,810	687,024	0,040	-0,077
-354,796	251,997	-0,046	-0,058
-353,781	-135,922	-0,076	-0,006
-352,766	274,426	-0,013	0,016
-351,752	-44,539	-0,078	-0,028
-350,737	-86,491	0,213	0,047
-349,723	509,828	0,041	-0,070
-348,708	325,233	0,083	0,116
-347,693	-14,202	-0,123	0,057
-346,679	186,954	0,033	0,036
-345,664	-200,000	-0,001	0,021
-344,650	93,217	-0,044	-0,036
-343,635	-167,036	0,065	0,002
-342,620	471,494	-0,026	0,042
-341,606	-55,235	0,148	0,048
-340,591	784,244	-0,055	0,111
-339,577	800,000	-0,018	0,044
-338,562	-97,245	-0,115	-0,022
-337,548	-200,000	-0,004	0,029
-336,533	-9,969	0,059	-0,028
-335,518	800,000	0,067	0,141
-334,504	193,978	0,179	0,197
-333,489	-143,371	-0,047	0,003
-332,475	-48,186	-0,108	-0,038
-331,460	-168,631	0,054	-0,001
-330,445	308,837	0,038	0,051
-329,431	404,822	0,112	0,171
-328,416	-18,724	0,124	0,056
-327,402	198,739	0,073	0,082
-326,387	-200,000	0,033	-0,127
-325,372	-200,000	0,006	-0,173
-324,358	213,746	-0,028	0,033
-323,343	-200,000	-0,013	-0,072
-322,329	-40,579	-0,013	-0,005
-321,314	-200,000	-0,043	0,164
-320,299	-89,690	0,063	0,013
-319,285	8,731	-0,065	0,035
-318,270	279,365	-0,015	0,019
-317,256	-110,589	-0,040	0,006
-316,241	593,815	-0,018	0,032
-315,226	-200,000	-0,006	0,027
-314,212	694,427	-0,031	0,059
-313,197	800,000	0,022	0,067
-312,183	74,903	0,089	-0,068
-311,168	84,668	-0,088	-0,070
-310,153	800,000	-0,034	-0,088
-309,139	47,297	-0,062	-0,042
-308,124	69,155	0,110	0,082
-307,110	250,679	-0,029	-0,035
-306,095	145,927	0,037	0,036
-305,080	800,000	0,040	0,088
-304,066	7,283	-0,047	-0,025
-303,051	-83,560	-0,102	-0,023
-302,037	246,277	-0,041	-0,050
-301,022	198,945	0,020	-0,022
-300,008	73,652	0,027	-0,020
-298,993	-145,828	0,186	-0,012
-297,978	249,584	-0,096	-0,118
-296,964	-186,490	0,101	-0,001
-295,949	-200,000	0,007	-0,023
-294,935	-96,245	0,165	0,031
-293,920	-200,000	-0,019	-0,135
-292,905	-137,988	-0,098	0,008
-291,891	-200,000	0,013	0,043
-290,876	800,000	-0,012	-0,037
-289,862	-200,000	-0,017	0,074
-288,847	-200,000	0,017	-0,109
-287,832	-200,000	0,007	-0,024
-286,818	79,472	-0,070	0,054
-285,803	259,100	-0,053	-0,066
-284,789	294,709	0,089	0,119
-283,774	7,496	0,125	0,068
-282,759	-200,000	0,040	-0,179
-281,745	-200,000	-0,011	-0,059
-280,730	60,644	-0,074	0,053
-279,716	314,421	0,056	0,076
-278,701	-45,478	0,119	0,043
-277,686	81,570	0,116	0,091
-276,672	-200,000	0,005	-0,083
-275,657	-200,000	-0,001	-0,032
-274,643	667,008	-0,021	0,040
-273,628	106,420	0,015	-0,013
-272,613	-117,185	0,055	0,007
-271,599	-100,882	0,084	0,015
-270,584	-200,000	0,019	0,089
-269,570	-200,000	0,000	-0,124
-268,555	-59,937	0,057	-0,018
-267,540	-57,108	0,143	-0,045
-266,526	76,467	-0,066	-0,050
-265,511	-56,961	0,067	-0,021
-264,497	-200,000	0,045	0,206
-263,482	21,983	-0,006	-0,004
-262,467	255,117	-0,077	-0,095
-261,453	-200,000	-0,002	0,052
-260,438	360,385	0,013	0,019
-259,424	-200,000	0,019	-0,068
-258,409	800,000	-0,025	-0,055
-257,395	468,935	0,044	-0,071
-256,380	220,097	0,085	0,099
-255,365	-200,000	0,011	0,066
-254,351	-200,000	-0,008	0,035
-253,336	297,435	0,022	0,029
-252,322	-80,216	0,079	-0,019
-251,307	-79,188	-0,155	0,038
-250,292	307,279	0,066	-0,089
-249,278	-39,018	0,046	0,018
-248,263	-136,257	-0,130	0,011
-247,249	217,807	0,141	0,163
-246,234	-5,287	-0,110	-0,055
-245,219	427,165	-0,065	-0,101
-244,205	198,115	0,011	-0,013
-243,190	-76,945	-0,092	-0,023
-242,176	800,000	-0,012	0,034
-241,161	-18,136	0,111	0,050
-240,146	368,266	0,055	0,081
-239,132	-200,000	-0,024	-0,102
-238,117	330,180	-0,056	-0,078
-237,103	449,443	-0,076	-0,122
-236,088	241,296	0,053	-0,064
-235,073	130,856	-0,037	0,035
-234,059	800,000	0,022	0,052
-233,044	-16,953	0,116	0,053
-232,030	-200,000	-0,028	-0,136
-231,015	800,000	-0,024	0,051
-230,000	-200,000	-0,006	0,107
-228,986	-159,709	-0,136	0,005
-227,971	46,893	-0,098	0,065
-226,957	-34,544	0,192	0,076
-225,942	-200,000	0,007	0,024
-224,927	-96,843	0,088	0,017
-223,913	-16,063	-0,046	-0,021
-222,898	748,919	-0,036	-0,071
-221,884	638,711	0,036	-0,066
-220,869	-200,000	-0,002	-0,085
-219,855	42,220	0,040	0,026
-218,840	-200,000	0,017	0,117
-217,825	585,375	-0,031	0,056
-216,811	-200,000	-0,014	-0,074
-215,796	212,497	-0,034	0,039
-214,782	128,708	0,053	0,048
-213,767	86,537	0,127	-0,101
-212,752	86,259	0,023	0,018
-211,738	-200,000	0,006	0,054
-210,723	-69,120	0,064	0,018
-209,709	588,152	0,028	-0,050
-208,694	-200,000	0,016	-0,063
-207,679	509,549	-0,047	0,079
-206,665	93,778	0,098	-0,080
-205,650	-162,490	-0,023	-0,001
-204,636	139,350	0,045	0,042
-203,621	91,611	0,094	0,077
-202,606	-200,000	0,013	0,079
-201,592	-81,148	-0,059	0,014
-200,577	-200,000	-0,018	0,079
-199,563	43,256	0,029	-0,019
-198,548	226,823	-0,087	0,102
-197,533	800,000	0,025	0,072
-196,519	80,690	-0,055	0,043
-195,504	-100,168	-0,042	0,008
-194,490	146,794	-0,044	-0,043
-193,475	-200,000	0,002	-0,014
-192,460	-200,000	-0,000	-0,020
-191,446	-200,000	0,025	-0,163
-190,431	145,702	0,008	0,007
-189,417	800,000	0,029	0,079
-188,402	12,151	-0,106	0,059
-187,387	-200,000	-0,002	-0,053
-186,373	800,000	-0,097	0,237
-185,358	-200,000	0,030	-0,154
-184,344	35,879	-0,057	0,036
-183,329	-101,013	-0,055	-0,010
-182,315	0,560	-0,044	0,023
-181,300	733,935	0,017	0,034
-180,285	800,000	0,039	-0,108
-179,271	-121,728	-0,104	-0,012
-178,256	408,976	0,037	0,057
-177,242	-111,589	0,086	0,012
-176,227	-200,000	-0,016	0,136
-175,212	-89,836	0,047	-0,010
-174,198	800,000	-0,030	-0,082
-173,183	60,740	-0,075	-0,054
-172,169	98,638	-0,031	0,026
-171,154	800,000	-0,022	-0,064
-170,139	800,000	0,064	0,166
-169,125	143,279	-0,051	-0,049
-168,110	-200,000	0,015	0,067
-167,096	-116,435	-0,232	0,031
-166,081	-23,145	-0,050	0,022
-165,066	118,128	-0,046	-0,041
-164,052	800,000	0,028	-0,078
-163,037	-100,108	0,063	-0,011
-162,023	495,963	0,057	0,094
-161,008	113,155	-0,070	-0,061
-159,993	-25,397	0,127	0,054
-158,979	86,394	0,054	0,043
-157,964	144,841	0,086	-0,083
-156,950	46,424	-0,089	-0,059
-155,935	800,000	-0,003	-0,008
-154,920	355,573	-0,012	0,018
-153,906	191,118	0,097	0,106
-152,891	606,814	0,017	-0,031
-151,877	800,000	-0,038	-0,084
-150,862	-200,000	0,001	0,056
-149,847	110,832	0,058	-0,050
-148,833	-200,000	-0,005	0,040
-147,818	-110,748	-0,009	-0,001
-146,804	-4,480	0,092	-0,046
-145,789	2,197	0,057	-0,030
-144,775	285,323	-0,029	-0,038
-143,760	692,011	0,064	-0,121
-142,745	725,383	0,029	-0,055
-141,731	312,124	0,082	0,111
-140,716	-200,000	-0,020	0,097
-139,702	38,554	0,074	0,048
-138,687	60,001	0,047	-0,034
-137,672	-80,965	-0,151	0,036
-136,658	-36,047	-0,025	-0,010
-135,643	-165,872	0,051	0,002
-134,629	-200,000	0,014	-0,083
-133,614	-200,000	0,008	0,028
-132,599	-133,102	0,020	0,002
-131,585	-200,000	-0,080	0,000
-130,570	-200,000	0,001	-0,111
-129,556	-65,315	0,272	0,078
-128,541	277,239	0,096	-0,123
-127,526	-23,323	0,041	0,018
-126,512	-16,840	0,032	-0,014
-125,497	-109,396	0,051	-0,008
-124,483	43,343	-0,066	0,043
-123,468	24,011	0,026	0,016
-122,453	-63,626	-0,085	0,025
-121,439	800,000	-0,022	-0,053
-120,424	298,206	-0,099	-0,132
-119,410	-137,277	0,109	0,009
