DTS Sentinel unit serial number:	SN410029Multiplexer serial number:	ORYXHardware model number:	OX2-SRSoftware version number:	ORYX F/W v4,00 Oryx Data Collector v3.7.2.0data status	okinstallation	B5 Nyhavnadifferential loss correction	single-endedforward channel	channel 2reverse channel	N/Adate	2023/12/11time	23:22:13forward acquisition time	300,00reverse acquisition time	0,00gamma	499,1914k internal	0,3155k external	0,3155temperature offset calibration	1,0000default loss term (dB/km)	0,3820temperature slope calibration	1,0000multiplexer offset coefficient	1,0000multiplexer slope coefficient	1,0000fibre end	0,00T internal ref (°C)	16,25T ext. ref 1 (°C)	-0,06T ext. ref 2 (°C)	-0,33length (m)	temperature (°C)	Stokes	anti-Stokes-744,400	141,528	-0,040	-0,039
-743,385	-127,960	-0,325	0,034
-742,371	416,749	0,079	-0,125
-741,356	-106,893	-0,183	0,030
-740,342	-200,000	-0,013	0,120
-739,327	-144,477	-0,313	0,021
-738,312	800,000	0,006	0,012
-737,298	18,785	-0,236	0,139
-736,283	-127,998	0,234	-0,024
-735,269	-179,988	-0,267	0,004
-734,254	-110,382	0,082	-0,012
-733,239	-59,089	-0,479	-0,151
-732,225	46,349	0,184	0,126
-731,210	-23,200	-0,135	0,060
-730,196	-60,879	-0,091	-0,028
-729,181	89,824	-0,167	0,138
-728,167	-200,000	-0,016	-0,152
-727,152	-113,659	-0,026	0,004
-726,137	141,403	-0,052	-0,050
-725,123	182,187	0,073	-0,079
-724,108	-59,626	-0,138	0,044
-723,094	-87,208	-0,040	-0,009
-722,079	538,094	-0,073	0,128
-721,064	800,000	-0,039	0,109
-720,050	164,569	0,142	-0,148
-719,035	-122,714	-0,028	0,003
-718,021	-5,160	-0,047	0,024
-717,006	-193,941	-0,125	0,001
-715,991	479,534	-0,093	-0,156
-714,977	201,226	0,106	-0,120
-713,962	730,431	0,037	-0,074
-712,948	-123,371	-0,069	-0,008
-711,933	607,723	0,048	0,089
-710,918	-101,715	-0,127	0,022
-709,904	80,311	-0,027	0,022
-708,889	9,025	-0,060	0,033
-707,875	146,076	0,046	0,046
-706,860	-200,000	0,014	0,137
-705,845	-108,834	0,069	-0,011
-704,831	-200,000	0,013	-0,047
-703,816	78,791	-0,078	0,062
-702,802	800,000	-0,032	0,081
-701,787	-42,675	-0,117	-0,044
-700,772	291,897	-0,101	-0,136
-699,758	259,616	0,038	0,049
-698,743	-168,241	0,104	0,003
-697,729	-100,498	0,102	-0,018
-696,714	63,077	0,096	-0,071
-695,699	182,046	-0,042	-0,046
-694,685	-22,890	0,084	0,037
-693,670	-193,372	-0,053	-0,000
-692,656	-136,229	-0,096	-0,008
-691,641	47,297	-0,035	-0,024
-690,627	4,644	0,113	0,061
-689,612	-118,168	0,099	0,013
-688,597	256,608	-0,069	0,087
-687,583	766,162	-0,053	0,107
-686,568	303,509	0,024	-0,033
-685,554	-200,000	-0,003	-0,014
-684,539	-158,850	0,086	0,004
-683,524	163,610	0,131	0,136
-682,510	48,430	0,086	-0,059
-681,495	800,000	-0,012	-0,037
-680,481	-49,989	-0,108	-0,038
-679,466	133,128	-0,133	-0,126
-678,451	-87,166	-0,115	0,025
-677,437	800,000	0,037	0,097
-676,422	36,694	0,162	-0,105
-675,408	188,536	-0,055	0,060
-674,393	-200,000	0,009	0,043
-673,378	-21,519	-0,236	-0,105
-672,364	-69,594	-0,137	-0,038
-671,349	95,665	0,039	-0,033
-670,335	348,344	-0,053	0,078
-669,320	-47,200	0,080	-0,028
-668,305	264,701	-0,095	0,122
-667,291	567,754	0,076	0,137
-666,276	-200,000	0,007	-0,101
-665,262	-200,000	-0,034	0,120
-664,247	800,000	0,017	0,042
-663,232	-200,000	0,013	0,056
-662,218	-153,968	0,131	0,006
-661,203	21,555	-0,087	-0,052
-660,189	274,292	0,036	0,047
-659,174	-136,477	-0,096	0,008
-658,159	97,009	-0,094	-0,079
-657,145	-130,543	0,098	0,010
-656,130	-200,000	0,000	-0,006
-655,116	21,289	0,035	-0,021
-654,101	-16,216	-0,103	0,048
-653,086	-200,000	-0,025	-0,086
-652,072	18,804	-0,104	0,061
-651,057	29,179	0,057	0,035
-650,043	-105,540	0,160	0,026
-649,028	20,548	0,100	-0,059
-648,014	-82,352	-0,073	-0,017
-646,999	498,595	0,065	0,110
-645,984	-71,554	-0,100	-0,027
-644,970	800,000	0,024	-0,050
-643,955	-106,839	-0,119	-0,019
-642,941	-83,428	0,048	0,011
-641,926	433,243	-0,060	-0,095
-640,911	-122,336	0,102	-0,012
-639,897	388,090	0,053	-0,081
-638,882	-64,638	0,015	0,005
-637,868	-200,000	0,018	-0,093
-636,853	-200,000	0,007	-0,267
-635,838	-64,023	-0,117	-0,035
-634,824	13,246	-0,110	-0,062
-633,809	-200,000	-0,012	0,110
-632,795	-200,000	-0,015	0,118
-631,780	-94,194	-0,117	0,023
-630,765	-127,912	-0,046	-0,005
-629,751	-75,087	-0,078	-0,020
-628,736	269,736	0,044	-0,057
-627,722	-131,072	0,131	0,013
-626,707	-200,000	0,030	-0,112
-625,692	27,619	-0,052	-0,032
-624,678	-123,895	0,109	0,013
-623,663	-200,000	0,003	0,052
-622,649	-200,000	0,014	-0,075
-621,634	-200,000	0,002	-0,060
-620,619	7,321	0,124	0,068
-619,605	14,924	0,121	-0,070
-618,590	-76,928	-0,145	-0,037
-617,576	-200,000	0,012	0,060
-616,561	12,919	0,067	0,038
-615,546	31,150	-0,137	-0,086
-614,532	800,000	0,015	-0,035
-613,517	-108,661	-0,159	0,025
-612,503	179,915	0,104	0,112
-611,488	124,987	0,065	0,060
-610,474	276,896	-0,081	0,105
-609,459	-25,922	-0,100	0,043
-608,444	1,490	-0,065	-0,034
-607,430	800,000	-0,032	0,075
-606,415	800,000	0,035	0,109
-605,401	-144,482	0,100	-0,007
-604,386	368,770	0,082	0,122
-603,371	-13,601	-0,088	0,042
-602,357	-115,016	-0,084	-0,012
-601,342	-64,689	-0,029	-0,009
-600,328	-72,918	0,023	0,006
-599,313	52,731	-0,084	-0,059
-598,298	-43,397	-0,066	0,025
-597,284	-17,172	0,095	0,044
-596,269	37,881	0,023	-0,015
-595,255	475,510	-0,029	-0,049
-594,240	159,792	0,045	-0,046
-593,225	591,392	-0,059	-0,108
-592,211	57,052	0,084	0,060
-591,196	800,000	-0,018	-0,046
-590,182	-90,468	0,098	-0,021
-589,167	800,000	-0,030	-0,071
-588,152	63,756	0,044	-0,032
-587,138	-97,681	-0,021	-0,004
-586,123	-46,897	-0,068	-0,024
-585,109	108,620	-0,178	-0,156
-584,094	56,081	0,047	0,033
-583,079	209,574	-0,024	-0,028
-582,065	332,884	0,037	-0,053
-581,050	-111,638	0,106	-0,016
-580,036	800,000	-0,029	0,064
-579,021	800,000	0,034	-0,075
-578,006	800,000	-0,032	-0,069
-576,992	-117,789	0,088	-0,011
-575,977	-144,032	0,171	-0,012
-574,963	800,000	-0,017	-0,038
-573,948	-72,487	0,089	-0,024
-572,934	3,939	-0,122	-0,065
-571,919	138,219	-0,172	-0,166
-570,904	88,918	-0,096	0,078
-569,890	-200,000	0,017	-0,146
-568,875	42,176	-0,046	-0,030
-567,861	-85,522	0,088	0,020
-566,846	624,194	-0,022	0,040
-565,831	-157,719	-0,076	0,003
-564,817	330,949	-0,099	-0,141
-563,802	-4,309	0,106	0,054
-562,788	-121,998	0,049	0,006
-561,773	-102,543	0,119	-0,021
-560,758	112,417	0,041	-0,036
-559,744	388,018	-0,107	0,163
-558,729	455,534	0,092	0,149
-557,715	-86,385	-0,053	0,012
-556,700	-127,123	0,093	-0,010
-555,685	-200,000	0,014	-0,146
-554,671	107,254	0,076	0,066
-553,656	-200,000	-0,046	0,202
-552,642	-200,000	-0,028	0,113
-551,627	299,022	0,035	-0,047
-550,612	800,000	-0,022	0,063
-549,598	-200,000	-0,040	-0,154
-548,583	239,005	0,029	0,035
-547,569	-200,000	-0,009	0,136
-546,554	-200,000	0,007	-0,027
-545,539	-97,215	-0,034	0,006
-544,525	-101,420	0,091	0,016
-543,510	255,496	0,048	-0,060
-542,496	-200,000	-0,016	-0,087
-541,481	33,698	-0,059	-0,037
-540,466	123,310	-0,066	0,060
-539,452	158,295	0,062	0,063
-538,437	-44,254	0,103	0,038
-537,423	-200,000	-0,003	0,085
-536,408	273,912	0,058	0,075
-535,393	659,912	-0,058	-0,109
-534,379	-200,000	0,035	-0,157
-533,364	800,000	-0,041	-0,091
-532,350	37,895	0,072	0,047
-531,335	-200,000	-0,030	0,100
-530,321	99,434	0,047	-0,040
-529,306	-200,000	0,028	-0,124
-528,291	800,000	0,019	-0,047
-527,277	-200,000	0,008	-0,185
-526,262	-19,933	-0,095	-0,043
-525,248	-200,000	0,010	-0,058
-524,233	177,648	0,103	-0,110
-523,218	-52,567	-0,034	0,012
-522,204	-200,000	-0,105	0,000
-521,189	-200,000	-0,010	-0,089
-520,175	-102,857	-0,046	0,008
-519,160	33,214	0,037	-0,023
-518,145	75,756	-0,060	-0,046
-517,131	111,224	0,006	0,005
-516,116	-200,000	0,082	-0,000
-515,102	427,505	-0,100	0,159
-514,087	-115,840	0,046	-0,006
-513,072	145,927	0,061	0,060
-512,058	115,754	0,113	0,102
-511,043	28,307	-0,053	0,033
-510,029	200,552	0,131	0,147
-509,014	-110,949	0,025	-0,004
-507,999	-52,163	0,097	-0,033
-506,985	-130,651	-0,121	-0,012
-505,970	-200,000	-0,012	-0,052
-504,956	-200,000	-0,003	0,053
-503,941	-200,000	-0,001	0,012
-502,926	349,732	0,046	0,066
-501,912	-200,000	0,005	0,086
-500,897	126,168	-0,012	-0,011
-499,883	800,000	0,036	-0,102
-498,868	142,542	-0,087	-0,084
-497,853	5,817	-0,119	0,064
-496,839	-97,883	0,036	0,007
-495,824	-3,882	0,084	-0,043
-494,810	-66,582	-0,099	-0,029
-493,795	-116,809	0,059	0,008
-492,781	43,578	0,136	0,091
-491,766	559,768	0,025	-0,045
-490,751	40,085	-0,082	0,054
-489,737	800,000	-0,050	0,122
-488,722	-44,074	-0,063	0,023
-487,708	-121,757	0,102	-0,012
-486,693	27,420	0,243	-0,149
-485,678	64,377	-0,019	0,014
-484,664	-200,000	-0,024	-0,122
-483,649	258,753	0,019	-0,024
-482,635	-25,064	0,040	0,017
-481,620	800,000	-0,021	-0,061
-480,605	-123,155	0,087	-0,010
-479,591	-147,254	-0,164	0,010
-478,576	-200,000	-0,014	0,209
-477,562	-125,970	-0,088	-0,010
-476,547	-88,237	0,068	-0,015
-475,532	-200,000	0,001	-0,046
-474,518	-50,475	0,173	-0,059
-473,503	37,713	0,099	0,064
-472,489	-46,296	0,006	0,002
-471,474	800,000	0,035	0,094
-470,459	-72,191	-0,197	0,053
-469,445	800,000	-0,058	0,154
-468,430	500,278	-0,067	-0,113
-467,416	-21,867	-0,087	0,038
-466,401	-200,000	-0,022	0,089
-465,386	-12,896	-0,049	0,023
-464,372	800,000	-0,072	-0,193
-463,357	33,504	-0,087	-0,055
-462,343	-170,296	-0,073	0,002
-461,328	-121,289	0,031	0,004
-460,313	-200,000	-0,011	-0,038
-459,299	168,436	0,024	0,025
-458,284	287,134	0,049	0,065
-457,270	-200,000	-0,013	-0,107
-456,255	800,000	0,037	-0,090
-455,241	-78,078	-0,098	-0,024
-454,226	219,338	-0,041	-0,048
-453,211	-10,530	0,051	-0,025
-452,197	800,000	0,048	0,151
-451,182	36,672	0,160	0,103
-450,168	-200,000	0,008	0,039
-449,153	-151,765	-0,137	-0,007
-448,138	252,259	0,089	0,111
-447,124	-181,021	0,067	0,001
-446,109	-200,000	-0,007	0,029
-445,095	-200,000	0,004	-0,046
-444,080	134,115	0,052	-0,050
-443,065	-106,408	-0,120	0,019
-442,051	-200,000	0,019	-0,062
-441,036	-200,000	-0,009	0,045
-440,022	165,235	0,012	-0,012
-439,007	-200,000	-0,039	0,146
-437,992	85,721	0,056	-0,045
-436,978	-200,000	-0,004	0,016
-435,963	-200,000	-0,027	0,113
-434,949	-200,000	0,009	0,097
-433,934	-200,000	0,003	-0,095
-432,919	-200,000	0,012	0,043
-431,905	6,196	-0,092	0,050
-430,890	-85,086	0,093	-0,021
-429,876	-56,986	-0,027	-0,009
-428,861	361,014	0,041	0,060
-427,846	-4,347	-0,036	0,018
-426,832	79,546	-0,058	0,045
-425,817	-165,049	-0,034	-0,001
-424,803	-200,000	0,011	-0,100
-423,788	-123,310	-0,069	-0,008
-422,773	19,652	-0,071	0,042
-421,759	594,786	0,036	0,065
-420,744	37,417	-0,023	-0,015
-419,730	165,844	-0,060	-0,062
-418,715	-26,320	0,039	0,017
-417,701	-200,000	0,018	0,066
-416,686	-58,418	0,087	0,027
-415,671	-99,604	0,030	0,005
-414,657	-153,478	-0,087	-0,004
-413,642	-59,543	-0,026	-0,008
-412,628	264,691	0,054	0,068
-411,613	-200,000	0,004	-0,166
-410,598	-172,688	0,092	-0,002
-409,584	237,403	-0,061	0,074
-408,569	-67,233	0,122	-0,035
-407,555	624,542	0,042	0,077
-406,540	208,581	0,016	-0,019
-405,525	-25,783	-0,106	-0,045
-404,511	800,000	0,007	-0,015
-403,496	-19,043	-0,091	-0,041
-402,482	-129,669	0,146	0,014
-401,467	39,825	0,060	-0,039
-400,452	317,168	-0,002	0,003
-399,438	676,606	-0,091	0,172
-398,423	-200,000	0,009	0,056
-397,409	41,828	-0,061	-0,041
-396,394	180,226	-0,061	-0,066
-395,379	122,252	-0,072	-0,065
-394,365	-83,151	-0,028	-0,007
-393,350	118,208	0,037	0,033
-392,336	-200,000	-0,022	-0,162
-391,321	-53,933	-0,110	0,036
-390,306	675,418	-0,069	-0,131
-389,292	-109,706	-0,050	-0,008
-388,277	-200,000	-0,018	0,158
-387,263	-200,000	-0,001	0,121
-386,248	-200,000	0,039	0,158
-385,233	164,885	0,052	0,053
-384,219	67,176	-0,038	0,028
-383,204	-55,974	-0,074	-0,024
-382,190	218,172	-0,040	0,046
-381,175	800,000	-0,028	-0,081
-380,160	116,519	0,130	0,116
-379,146	157,527	0,061	-0,062
-378,131	123,598	0,070	0,064
-377,117	-139,406	-0,125	0,010
-376,102	70,557	0,017	0,013
-375,088	446,338	-0,096	-0,154
-374,073	188,530	-0,059	-0,065
-373,058	422,544	0,004	-0,006
-372,044	121,438	-0,037	0,034
-371,029	-22,980	0,074	-0,033
-370,015	106,558	-0,115	0,099
-369,000	-5,637	-0,053	-0,026
-367,985	87,817	0,086	-0,070
-366,971	370,947	-0,053	-0,079
-365,956	-39,088	0,051	0,019
-364,942	-80,330	-0,113	0,027
-363,927	-19,766	-0,102	0,046
-362,912	40,768	0,083	-0,054
-361,898	96,441	-0,038	-0,031
-360,883	8,994	-0,041	0,022
-359,869	499,925	0,061	-0,103
-358,854	23,749	0,089	0,053
-357,839	390,338	-0,073	0,110
-356,825	229,725	-0,101	0,121
-355,810	581,035	-0,039	0,070
-354,796	158,656	0,015	-0,015
-353,781	103,388	-0,057	0,049
-352,766	-177,320	-0,030	0,001
-351,752	-100,265	0,095	-0,017
-350,737	6,392	0,109	0,058
-349,723	-72,865	-0,085	-0,023
-348,708	-200,000	0,007	-0,045
-347,693	-157,239	0,028	-0,001
-346,679	800,000	-0,068	-0,139
-345,664	-164,943	-0,061	-0,002
-344,650	115,980	0,116	0,103
-343,635	800,000	-0,019	-0,059
-342,620	-67,294	0,069	0,020
-341,606	-70,041	-0,020	-0,006
-340,591	510,345	-0,042	0,072
-339,577	19,859	0,089	-0,052
-338,562	289,924	-0,061	0,081
-337,548	800,000	0,042	-0,084
-336,533	-200,000	0,011	0,061
-335,518	-200,000	0,010	-0,086
-334,504	800,000	0,029	0,076
-333,489	49,728	0,055	0,037
-332,475	88,015	-0,062	0,050
-331,460	-30,667	-0,081	-0,033
-330,445	691,142	-0,066	-0,125
-329,431	559,224	0,037	-0,065
-328,416	-200,000	-0,015	0,093
-327,402	85,406	0,031	-0,025
-326,387	-61,073	-0,057	0,017
-325,372	597,797	0,002	0,003
-324,358	800,000	0,058	0,129
-323,343	241,741	0,024	0,029
-322,329	317,119	0,046	-0,064
-321,314	69,508	0,047	0,035
-320,299	123,160	-0,028	-0,025
-319,285	800,000	-0,009	0,028
-318,270	-200,000	-0,015	-0,067
-317,256	213,480	-0,136	0,156
-316,241	-74,198	-0,017	0,004
-315,226	-200,000	-0,004	0,022
-314,212	373,253	0,080	-0,119
-313,197	267,689	-0,076	0,097
-312,183	563,361	-0,031	0,055
-311,168	0,417	0,109	-0,056
-310,153	-103,843	-0,181	0,030
-309,139	-200,000	0,029	-0,092
-308,124	-200,000	-0,007	0,059
-307,110	-200,000	-0,031	-0,152
-306,095	800,000	-0,010	0,024
-305,080	61,974	-0,069	0,050
-304,066	-69,978	0,061	0,017
-303,051	-36,087	-0,031	-0,012
-302,037	-126,844	0,100	0,011
-301,022	42,330	0,043	-0,028
-300,008	395,789	0,038	0,058
-298,993	722,109	-0,025	0,049
-297,978	39,047	0,067	0,043
-296,964	83,185	-0,117	-0,092
-295,949	-200,000	0,007	-0,028
-294,935	-61,161	0,103	0,031
-293,920	290,894	-0,036	0,048
-292,905	66,785	-0,039	-0,029
-291,891	-200,000	-0,007	-0,084
-290,876	800,000	0,006	-0,018
-289,862	88,865	0,084	-0,068
-288,847	-200,000	-0,020	-0,091
-287,832	-200,000	-0,001	-0,036
-286,818	-200,000	0,004	0,018
-285,803	-200,000	-0,006	0,177
-284,789	-200,000	-0,007	-0,048
-283,774	-40,493	0,096	-0,036
-282,759	-200,000	-0,008	0,040
-281,745	-82,963	0,010	0,002
-280,730	528,646	0,025	0,042
-279,716	-76,832	0,036	0,009
-278,701	-200,000	0,007	0,124
-277,686	17,775	0,082	0,047
-276,672	66,980	0,026	-0,019
-275,657	800,000	-0,002	-0,006
-274,643	63,272	0,075	-0,054
-273,628	68,778	0,054	0,040
-272,613	800,000	-0,025	-0,077
-271,599	57,080	-0,029	0,021
-270,584	800,000	0,094	0,215
-269,570	800,000	-0,023	0,061
-268,555	121,721	-0,013	-0,012
-267,540	-200,000	0,025	-0,145
-266,526	-49,246	0,040	0,014
-265,511	182,972	0,102	-0,109
-264,497	-3,529	-0,073	0,036
-263,482	345,475	0,033	0,047
-262,467	-200,000	0,012	0,047
-261,453	800,000	0,010	0,024
-260,438	671,610	-0,031	-0,058
-259,424	213,672	-0,061	0,070
-258,409	800,000	-0,020	0,062
-257,395	-200,000	0,045	0,269
-256,380	-31,595	0,137	0,055
-255,365	-133,834	0,047	-0,004
-254,351	476,999	-0,038	-0,063
-253,336	-200,000	0,020	0,064
-252,322	50,460	-0,107	0,073
-251,307	26,066	0,094	-0,057
-250,292	-89,745	0,063	-0,013
-249,278	800,000	-0,032	-0,077
-248,263	-200,000	-0,005	-0,033
-247,249	-101,144	-0,089	0,016
-246,234	-110,736	0,092	0,014
-245,219	67,834	-0,152	-0,112
-244,205	438,926	-0,003	0,005
-243,190	13,822	0,120	0,067
-242,176	10,546	-0,085	-0,047
-241,161	-200,000	0,002	-0,075
-240,146	-200,000	-0,016	0,148
-239,132	-96,969	-0,161	0,030
-238,117	755,170	0,027	-0,053
-237,103	-132,025	-0,099	-0,009
-236,088	704,504	0,016	-0,031
-235,073	-27,733	0,035	-0,015
-234,059	-200,000	-0,016	-0,226
-233,044	269,156	-0,036	0,046
-232,030	-200,000	-0,009	-0,063
-231,015	-180,885	0,128	0,002
-230,000	-200,000	-0,035	-0,141
-228,986	360,209	-0,087	-0,126
-227,971	15,839	0,060	0,034
-226,957	66,428	0,188	0,138
-225,942	-93,827	0,099	-0,020
-224,927	-200,000	0,011	-0,110
-223,913	800,000	-0,033	-0,086
-222,898	558,164	0,039	-0,068
-221,884	-200,000	0,002	-0,033
-220,869	713,434	-0,045	-0,087
-219,855	-114,162	-0,120	-0,017
-218,840	161,843	0,028	-0,028
-217,825	497,811	-0,021	0,036
-216,811	94,475	-0,040	0,033
-215,796	-102,012	0,041	0,007
-214,782	15,870	-0,063	-0,036
-213,767	-200,000	0,017	-0,096
-212,752	-200,000	0,004	-0,060
-211,738	37,155	-0,142	0,090
-210,723	-102,926	0,039	0,007
-209,709	-200,000	-0,003	0,119
-208,694	29,160	0,107	-0,066
-207,679	658,959	0,020	-0,037
-206,665	-44,066	-0,072	-0,026
-205,650	59,547	0,025	-0,018
-204,636	-200,000	-0,000	0,120
-203,621	381,805	-0,063	0,094
-202,606	800,000	-0,013	-0,029
-201,592	-169,998	0,102	0,003
-200,577	-200,000	-0,044	-0,151
-199,563	800,000	0,039	0,095
-198,548	800,000	-0,029	0,065
-197,533	-50,166	-0,063	0,021
-196,519	-200,000	0,015	-0,137
-195,504	-200,000	-0,002	-0,049
-194,490	-75,023	-0,136	0,035
-193,475	-200,000	0,002	-0,172
-192,460	800,000	-0,048	0,101
-191,446	94,659	0,049	0,040
-190,431	-200,000	0,005	-0,041
-189,417	17,119	0,043	0,025
-188,402	800,000	0,049	-0,109
-187,387	28,790	0,068	0,041
-186,373	22,491	-0,062	-0,037
-185,358	13,556	0,076	0,043
-184,344	48,065	-0,054	-0,036
-183,329	117,565	0,056	-0,050
-182,315	800,000	0,083	0,168
-181,300	-23,832	0,045	-0,019
-180,285	633,869	0,020	0,037
-179,271	69,975	-0,132	-0,098
-178,256	-103,659	0,072	-0,012
-177,242	93,197	0,159	-0,129
-176,227	-200,000	0,006	-0,025
-175,212	800,000	0,026	0,077
-174,198	-200,000	-0,009	-0,034
-173,183	800,000	-0,047	-0,136
-172,169	-200,000	-0,006	-0,108
-171,154	-169,755	-0,042	0,001
-170,139	-200,000	-0,024	0,079
-169,125	116,597	0,054	0,048
-168,110	82,513	0,206	0,161
-167,096	-200,000	-0,001	0,011
-166,081	-43,456	-0,155	0,056
-165,066	-122,719	-0,105	-0,012
-164,052	-77,724	-0,046	-0,011
-163,037	174,012	-0,068	0,070
-162,023	315,625	0,059	0,080
-161,008	-10,040	0,117	-0,056
-159,993	-79,897	0,050	-0,012
-158,979	496,460	0,078	0,130
-157,964	324,907	-0,075	0,104
-156,950	0,632	0,057	0,029
-155,935	5,069	-0,086	0,045
-154,920	148,233	0,189	0,184
-153,906	-127,749	-0,051	0,005
-152,891	156,835	-0,071	-0,071
-151,877	-130,708	0,053	-0,005
-150,862	399,508	0,047	-0,072
-149,847	140,733	-0,044	0,042
-148,833	-200,000	0,017	0,067
-147,818	800,000	-0,024	0,063
-146,804	-176,239	0,163	0,003
-145,789	-59,956	0,073	-0,022
-144,775	118,266	-0,075	0,067
-143,760	60,829	-0,029	0,021
-142,745	155,612	0,077	-0,076
-141,731	-200,000	-0,011	-0,059
-140,716	-109,127	0,101	-0,015
-139,702	7,097	-0,099	0,053
-138,687	-200,000	0,023	0,105
-137,672	-124,786	-0,084	-0,009
-136,658	-8,644	0,117	0,056
-135,643	64,350	-0,055	-0,040
-134,629	211,125	0,044	-0,050
-133,614	287,389	-0,022	0,029
-132,599	-103,834	-0,097	-0,016
-131,585	-76,523	-0,091	-0,023
-130,570	-30,902	-0,082	0,033
-129,556	-87,210	-0,098	-0,021
-128,541	800,000	0,019	0,046
-127,526	-197,497	0,076	-0,000
-126,512	-131,124	-0,066	-0,006
-125,497	-81,449	0,062	0,015
-124,483	108,728	0,101	0,086
-123,468	728,614	-0,031	0,060
-122,453	800,000	0,020	0,059
-121,439	-200,000	0,001	0,034
-120,424	761,881	-0,021	-0,041
-119,410	-43,603	0,039	0,014
-118,395	-100,952	-0,052	0,009
