DTS Sentinel unit serial number:	SN410029Multiplexer serial number:	ORYXHardware model number:	OX2-SRSoftware version number:	ORYX F/W v4,00 Oryx Data Collector v3.7.2.0data status	okinstallation	B5 Nyhavnadifferential loss correction	single-endedforward channel	channel 2reverse channel	N/Adate	2023/12/13time	14:12:13forward acquisition time	300,00reverse acquisition time	0,00gamma	499,1914k internal	0,3160k external	0,3160temperature offset calibration	1,0000default loss term (dB/km)	0,3820temperature slope calibration	1,0000multiplexer offset coefficient	1,0000multiplexer slope coefficient	1,0000fibre end	0,00T internal ref (°C)	14,90T ext. ref 1 (°C)	-1,17T ext. ref 2 (°C)	-1,45length (m)	temperature (°C)	Stokes	anti-Stokes-744,400	-76,271	0,154	-0,040
-743,385	-93,718	-0,288	-0,058
-742,371	147,480	0,053	0,052
-741,356	20,116	-0,249	0,147
-740,342	18,396	0,115	0,068
-739,327	-129,256	-0,139	0,014
-738,312	-48,518	0,126	-0,044
-737,298	-111,206	-0,376	0,056
-736,283	800,000	-0,032	0,087
-735,269	144,639	-0,208	0,205
-734,254	800,000	0,014	-0,040
-733,239	-133,793	-0,407	-0,037
-732,225	-34,345	0,128	0,051
-731,210	800,000	0,070	0,176
-730,196	-200,000	-0,021	-0,072
-729,181	50,422	-0,103	-0,072
-728,167	-76,362	-0,199	0,051
-727,152	571,574	0,058	0,105
-726,137	669,437	-0,044	-0,084
-725,123	-82,359	-0,084	-0,020
-724,108	800,000	-0,063	-0,165
-723,094	525,006	0,066	-0,115
-722,079	18,021	0,069	-0,040
-721,064	800,000	0,031	-0,081
-720,050	-44,862	0,044	-0,016
-719,035	800,000	-0,076	-0,169
-718,021	-26,437	0,105	-0,045
-717,006	-156,155	-0,206	-0,009
-715,991	-69,949	-0,125	0,035
-714,977	-86,812	-0,225	-0,050
-713,962	242,583	0,031	-0,038
-712,948	-194,306	0,150	-0,001
-711,933	800,000	-0,036	-0,101
-710,918	-33,768	0,091	-0,037
-709,904	-200,000	0,002	-0,041
-708,889	800,000	-0,060	-0,160
-707,875	685,142	-0,011	-0,020
-706,860	800,000	0,063	0,155
-705,845	800,000	-0,030	-0,067
-704,831	-200,000	0,007	0,070
-703,816	336,801	-0,022	0,032
-702,802	429,942	0,045	-0,073
-701,787	-200,000	0,043	-0,234
-700,772	-200,000	0,009	-0,066
-699,758	800,000	-0,062	0,183
-698,743	251,345	0,128	-0,160
-697,729	38,339	-0,082	0,053
-696,714	137,152	0,045	-0,043
-695,699	229,191	-0,065	-0,078
-694,685	800,000	-0,056	-0,137
-693,670	-2,460	-0,087	-0,045
-692,656	-49,887	-0,089	0,031
-691,641	179,289	0,023	0,025
-690,627	-200,000	-0,001	0,098
-689,612	98,591	-0,106	-0,090
-688,597	-138,156	0,078	-0,006
-687,583	310,652	-0,148	-0,204
-686,568	158,377	0,047	0,048
-685,554	323,407	-0,056	0,079
-684,539	-120,170	0,023	0,003
-683,524	369,801	-0,033	-0,049
-682,510	-111,266	-0,085	0,013
-681,495	11,060	-0,203	-0,114
-680,481	-200,000	0,007	-0,107
-679,466	197,770	-0,066	0,074
-678,451	44,146	-0,048	-0,032
-677,437	34,268	-0,130	-0,083
-676,422	-48,172	-0,108	-0,038
-675,408	-200,000	0,002	0,043
-674,393	-75,434	0,058	0,015
-673,378	418,959	-0,063	-0,099
-672,364	-115,042	-0,164	-0,023
-671,349	-33,961	-0,076	-0,031
-670,335	-25,470	-0,048	-0,021
-669,320	-80,313	-0,039	-0,010
-668,305	412,266	0,026	-0,040
-667,291	8,371	0,107	0,059
-666,276	634,662	0,023	0,042
-665,262	8,251	0,111	0,061
-664,247	-200,000	-0,001	0,005
-663,232	272,162	-0,055	0,072
-662,218	28,455	0,057	-0,035
-661,203	336,522	0,119	0,171
-660,189	-90,285	0,080	-0,017
-659,174	-200,000	-0,014	-0,096
-658,159	-73,129	-0,107	-0,029
-657,145	309,250	0,038	-0,052
-656,130	800,000	-0,019	-0,043
-655,116	53,694	0,114	0,080
-654,101	9,314	0,117	-0,065
-653,086	800,000	0,046	0,093
-652,072	110,568	0,084	0,074
-651,057	-4,014	-0,048	0,025
-650,043	-200,000	0,001	-0,057
-649,028	-200,000	-0,021	-0,121
-648,014	8,039	0,046	-0,025
-646,999	800,000	-0,019	-0,048
-645,984	542,854	0,062	0,109
-644,970	-200,000	-0,016	0,083
-643,955	-200,000	-0,015	-0,087
-642,941	35,929	-0,083	-0,054
-641,926	-58,702	0,125	-0,040
-640,911	-87,268	-0,140	0,031
-639,897	-200,000	0,006	0,084
-638,882	-45,848	0,082	0,029
-637,868	-200,000	-0,007	-0,055
-636,853	-200,000	-0,004	0,099
-635,838	-8,490	0,054	-0,027
-634,824	-9,900	-0,127	-0,062
-633,809	-34,264	-0,140	0,056
-632,795	-54,816	0,066	0,022
-631,780	800,000	0,049	0,114
-630,765	78,194	0,072	0,056
-629,751	44,417	-0,068	0,045
-628,736	178,760	0,029	0,031
-627,722	129,284	0,007	0,006
-626,707	-73,457	0,034	0,009
-625,692	-108,437	-0,116	-0,018
-624,678	-200,000	-0,011	-0,043
-623,663	-85,231	-0,044	-0,010
-622,649	-34,813	-0,020	0,008
-621,634	26,288	-0,054	-0,033
-620,619	394,229	0,069	0,106
-619,605	-28,887	-0,108	0,045
-618,590	123,681	0,090	-0,082
-617,576	-66,294	0,037	0,011
-616,561	144,538	0,092	-0,090
-615,546	-27,978	-0,054	0,023
-614,532	-105,545	-0,063	-0,010
-613,517	513,937	-0,077	-0,132
-612,503	-119,453	0,092	-0,012
-611,488	-110,389	0,133	-0,020
-610,474	63,439	0,048	0,035
-609,459	-140,143	-0,037	0,003
-608,444	479,327	-0,063	-0,106
-607,430	-28,433	0,115	-0,048
-606,415	-51,276	-0,020	0,007
-605,401	117,278	-0,132	-0,119
-604,386	800,000	-0,033	0,079
-603,371	-200,000	0,028	0,187
-602,357	-24,716	-0,070	0,030
-601,342	-131,814	-0,115	0,011
-600,328	-200,000	-0,024	-0,123
-599,313	25,565	0,059	-0,036
-598,298	-200,000	0,007	-0,108
-597,284	11,711	0,160	0,090
-596,269	362,092	0,012	0,017
-595,255	-200,000	-0,009	0,061
-594,240	82,435	-0,058	0,046
-593,225	227,117	0,103	0,123
-592,211	113,191	-0,041	0,036
-591,196	7,872	-0,089	-0,049
-590,182	121,660	-0,079	-0,072
-589,167	-13,427	0,158	-0,075
-588,152	116,594	-0,101	-0,091
-587,138	800,000	0,048	-0,103
-586,123	-200,000	0,024	0,147
-585,109	-200,000	-0,000	0,005
-584,094	-129,535	-0,126	0,013
-583,079	78,927	0,095	0,074
-582,065	82,514	0,051	-0,041
-581,050	373,198	0,045	0,068
-580,036	233,876	-0,057	-0,068
-579,021	-11,722	-0,084	-0,040
-578,006	508,853	0,034	0,059
-576,992	-53,597	0,055	0,018
-575,977	800,000	0,011	0,022
-574,963	-178,408	-0,136	0,002
-573,948	600,373	0,025	-0,046
-572,934	583,087	-0,017	-0,030
-571,919	-82,290	-0,084	0,020
-570,904	-200,000	0,002	-0,107
-569,890	197,387	-0,109	-0,122
-568,875	139,038	-0,080	-0,077
-567,861	-1,631	-0,080	0,041
-566,846	800,000	-0,017	0,039
-565,831	97,670	0,137	0,115
-564,817	18,375	-0,018	0,011
-563,802	8,994	-0,174	-0,096
-562,788	-200,000	-0,000	-0,035
-561,773	181,083	0,106	-0,114
-560,758	800,000	0,061	-0,128
-559,744	48,176	-0,090	0,062
-558,729	107,277	0,063	-0,055
-557,715	197,365	-0,036	-0,041
-556,700	411,770	-0,072	-0,112
-555,685	57,080	-0,098	-0,070
-554,671	-189,230	-0,063	0,001
-553,656	800,000	0,065	-0,149
-552,642	353,753	0,037	0,053
-551,627	-111,068	0,036	0,005
-550,612	800,000	-0,026	-0,064
-549,598	-200,000	-0,022	-0,143
-548,583	800,000	-0,075	-0,152
-547,569	800,000	0,065	-0,159
-546,554	-200,000	0,010	0,090
-545,539	-102,361	-0,102	0,018
-544,525	309,998	0,048	0,065
-543,510	-200,000	-0,014	-0,070
-542,496	607,308	-0,066	-0,121
-541,481	-133,909	-0,103	-0,009
-540,466	-200,000	0,001	-0,069
-539,452	-139,864	0,033	-0,002
-538,437	-200,000	-0,003	-0,124
-537,423	-47,478	0,090	-0,032
-536,408	164,231	-0,063	0,065
-535,393	-23,878	-0,038	0,017
-534,379	-200,000	-0,004	0,051
-533,364	107,100	-0,157	-0,137
-532,350	344,928	0,027	0,039
-531,335	34,311	-0,118	-0,075
-530,321	-120,859	0,138	0,017
-529,306	-114,923	0,038	0,005
-528,291	-200,000	-0,003	-0,086
-527,277	800,000	-0,060	-0,187
-526,262	113,800	-0,170	-0,151
-525,248	40,116	0,029	0,019
-524,233	122,469	0,012	0,011
-523,218	50,319	0,114	0,078
-522,204	-200,000	0,009	0,109
-521,189	-47,121	-0,118	0,042
-520,175	-200,000	0,006	-0,073
-519,160	-21,136	0,047	0,021
-518,145	800,000	0,033	0,088
-517,131	-200,000	0,018	0,081
-516,116	-160,095	0,036	-0,001
-515,102	800,000	-0,050	0,137
-514,087	-8,823	-0,189	0,092
-513,072	-200,000	-0,019	-0,144
-512,058	31,524	0,042	-0,026
-511,043	177,871	-0,052	-0,055
-510,029	-126,958	0,109	-0,012
-509,014	-200,000	0,008	0,044
-507,999	437,739	0,056	-0,089
-506,985	-163,845	0,013	0,000
-505,970	728,030	0,032	-0,063
-504,956	-200,000	0,006	-0,043
-503,941	-200,000	-0,004	0,100
-502,926	750,233	-0,080	0,158
-501,912	232,427	-0,085	0,102
-500,897	9,203	-0,083	0,045
-499,883	-200,000	-0,027	-0,165
-498,868	200,269	0,072	-0,081
-497,853	111,044	-0,092	-0,080
-496,839	-141,928	0,009	-0,001
-495,824	-153,266	0,009	-0,000
-494,810	-200,000	0,011	0,053
-493,795	520,320	-0,058	0,099
-492,781	-153,165	-0,084	-0,004
-491,766	729,227	0,088	-0,172
-490,751	-200,000	-0,020	-0,141
-489,737	306,950	-0,039	-0,053
-488,722	-200,000	0,002	0,077
-487,708	328,889	0,056	-0,078
-486,693	223,960	0,051	0,061
-485,678	3,367	-0,086	-0,046
-484,664	119,813	-0,053	-0,048
-483,649	391,278	-0,036	0,055
-482,635	71,273	-0,066	-0,050
-481,620	85,377	0,069	0,055
-480,605	-200,000	0,024	0,092
-479,591	147,947	-0,021	0,020
-478,576	-200,000	0,016	0,072
-477,562	-9,366	-0,055	0,027
-476,547	-200,000	0,025	-0,101
-475,532	-200,000	-0,018	-0,109
-474,518	-100,610	0,192	0,034
-473,503	-111,256	0,029	-0,004
-472,489	-164,414	-0,050	-0,002
-471,474	38,969	-0,050	-0,033
-470,459	-171,719	0,042	-0,001
-469,445	502,911	-0,069	-0,116
-468,430	-72,394	-0,105	-0,028
-467,416	277,105	0,068	-0,089
-466,401	-200,000	-0,009	0,058
-465,386	761,744	-0,025	0,049
-464,372	-93,062	-0,093	0,019
-463,357	99,430	-0,027	-0,023
-462,343	354,329	-0,086	-0,124
-461,328	-50,135	-0,048	0,016
-460,313	-131,424	0,123	-0,012
-459,299	116,560	0,146	0,130
-458,284	-132,391	-0,189	0,017
-457,270	800,000	-0,025	-0,053
-456,255	-25,378	-0,051	0,022
-455,241	-100,340	-0,126	-0,023
-454,226	800,000	-0,031	-0,079
-453,211	-200,000	-0,021	-0,069
-452,197	-200,000	0,005	0,068
-451,182	271,559	-0,040	-0,052
-450,168	-200,000	0,009	-0,091
-449,153	-200,000	-0,013	-0,103
-448,138	800,000	0,012	-0,026
-447,124	67,269	-0,110	-0,081
-446,109	-128,785	0,093	0,009
-445,095	-127,413	0,086	-0,009
-444,080	279,764	0,101	0,132
-443,065	-14,446	0,148	-0,069
-442,051	-200,000	0,003	0,102
-441,036	88,741	0,063	-0,051
-440,022	-30,930	0,074	0,030
-439,007	242,263	-0,124	-0,151
-437,992	-200,000	0,029	0,114
-436,978	97,820	-0,049	0,041
-435,963	24,120	-0,004	-0,002
-434,949	-19,586	0,044	-0,020
-433,934	-200,000	0,005	-0,169
-432,919	385,186	-0,080	-0,121
-431,905	-117,392	-0,134	-0,017
-430,890	-47,380	-0,092	0,032
-429,876	-126,036	0,084	0,009
-428,861	-79,601	0,069	0,017
-427,846	-200,000	0,010	-0,045
-426,832	-130,801	-0,152	-0,015
-425,817	189,430	-0,031	-0,034
-424,803	-200,000	0,014	0,138
-423,788	-52,937	0,026	-0,009
-422,773	800,000	0,068	-0,150
-421,759	325,237	-0,068	-0,095
-420,744	-200,000	0,005	0,112
-419,730	218,001	-0,020	0,023
-418,715	112,668	-0,058	0,051
-417,701	-200,000	-0,008	0,090
-416,686	800,000	0,030	0,060
-415,671	75,749	-0,036	-0,028
-414,657	800,000	0,021	-0,062
-413,642	31,009	-0,106	0,066
-412,628	-200,000	-0,037	0,123
-411,613	469,078	0,031	-0,051
-410,598	800,000	-0,062	-0,134
-409,584	196,517	0,097	-0,107
-408,569	-167,984	0,073	0,002
-407,555	-200,000	0,040	0,130
-406,540	-200,000	-0,011	0,054
-405,525	-200,000	-0,003	-0,021
-404,511	-200,000	-0,003	0,014
-403,496	79,026	0,088	-0,069
-402,482	230,504	0,061	0,073
-401,467	800,000	0,092	0,190
-400,452	-200,000	-0,014	0,084
-399,438	-200,000	0,001	0,142
-398,423	800,000	0,028	0,064
-397,409	-100,841	0,069	-0,012
-396,394	201,999	-0,043	-0,049
-395,379	23,643	0,110	-0,066
-394,365	-171,136	0,099	-0,002
-393,350	149,751	0,064	0,063
-392,336	-200,000	0,025	0,134
-391,321	132,364	-0,011	0,010
-390,306	-200,000	0,027	0,126
-389,292	31,159	-0,147	-0,092
-388,277	321,890	-0,026	0,036
-387,263	-200,000	0,006	0,043
-386,248	-200,000	-0,001	-0,059
-385,233	6,653	-0,075	0,040
-384,219	-70,597	0,134	0,036
-383,204	800,000	0,051	-0,119
-382,190	250,754	-0,092	-0,113
-381,175	53,265	0,087	0,060
-380,160	-83,787	-0,070	0,016
-379,146	296,546	0,102	0,136
-378,131	800,000	0,037	0,088
-377,117	-200,000	-0,027	0,117
-376,102	222,594	0,057	-0,067
-375,088	62,361	0,061	0,044
-374,073	-133,760	0,039	0,003
-373,058	800,000	0,023	0,056
-372,044	-37,179	0,156	0,060
-371,029	58,287	0,090	0,064
-370,015	24,893	0,070	-0,042
-369,000	747,945	-0,035	0,068
-367,985	800,000	-0,026	-0,059
-366,971	800,000	0,040	-0,096
-365,956	151,441	0,088	0,087
-364,942	537,428	0,011	0,020
-363,927	242,889	-0,101	-0,122
-362,912	-146,390	0,064	0,004
-361,898	46,064	0,020	-0,013
-360,883	124,180	0,112	-0,103
-359,869	56,757	-0,037	0,026
-358,854	-80,976	-0,092	-0,022
-357,839	-23,225	0,155	0,067
-356,825	-200,000	-0,005	0,124
-355,810	-181,012	-0,092	-0,001
-354,796	247,634	-0,051	-0,063
-353,781	-138,533	-0,037	0,003
-352,766	4,155	-0,133	-0,071
-351,752	-200,000	0,009	0,104
-350,737	732,677	0,039	-0,075
-349,723	-27,543	0,045	0,019
-348,708	277,225	0,084	0,109
-347,693	-114,448	0,063	-0,009
-346,679	142,041	0,045	0,043
-345,664	15,205	-0,041	0,023
-344,650	443,074	0,032	0,051
-343,635	161,166	0,060	-0,061
-342,620	-57,554	0,055	-0,017
-341,606	-200,000	-0,007	-0,046
-340,591	210,390	0,107	0,121
-339,577	9,152	-0,086	0,047
-338,562	800,000	-0,042	-0,096
-337,548	-200,000	0,004	-0,032
-336,533	800,000	0,044	0,117
-335,518	349,443	-0,058	0,084
-334,504	232,379	0,058	0,069
-333,489	144,101	-0,057	-0,055
-332,475	395,809	-0,039	-0,059
-331,460	-28,756	-0,085	0,035
-330,445	800,000	-0,030	-0,063
-329,431	348,247	0,044	0,064
-328,416	41,538	0,016	0,011
-327,402	5,441	-0,047	0,025
-326,387	-176,880	-0,109	-0,002
-325,372	-200,000	-0,002	0,064
-324,358	-40,585	0,084	0,032
-323,343	-200,000	0,008	0,100
-322,329	-22,409	-0,055	0,024
-321,314	-23,761	0,129	0,056
-320,299	34,551	-0,053	-0,034
-319,285	114,356	-0,027	0,024
-318,270	68,895	-0,144	0,107
-317,256	414,814	-0,109	-0,170
-316,241	238,482	0,021	0,026
-315,226	-200,000	-0,058	-0,203
-314,212	-21,326	-0,098	0,043
-313,197	-200,000	0,009	-0,060
-312,183	-200,000	0,041	-0,184
-311,168	-11,490	-0,028	-0,013
-310,153	17,131	-0,073	-0,042
-309,139	268,336	-0,016	-0,020
-308,124	309,869	0,022	-0,030
-307,110	800,000	0,045	0,127
-306,095	18,615	-0,043	-0,025
-305,080	800,000	0,026	0,055
-304,066	-102,690	0,066	-0,011
-303,051	515,521	0,025	-0,042
-302,037	-29,877	0,054	0,022
-301,022	800,000	-0,017	-0,050
-300,008	-200,000	0,001	-0,038
-298,993	-200,000	-0,010	0,038
-297,978	-200,000	0,039	0,135
-296,964	-200,000	-0,021	-0,081
-295,949	270,201	0,036	-0,046
-294,935	-200,000	-0,005	-0,110
-293,920	-200,000	0,034	0,137
-292,905	-200,000	0,028	0,343
-291,891	412,668	-0,070	0,109
-290,876	-35,890	-0,053	0,021
-289,862	800,000	-0,024	-0,052
-288,847	-200,000	-0,005	-0,141
-287,832	-97,700	0,044	0,008
-286,818	800,000	-0,020	-0,048
-285,803	-63,012	0,072	-0,021
-284,789	-200,000	-0,000	0,144
-283,774	800,000	-0,014	0,037
-282,759	-23,885	0,088	0,038
-281,745	-200,000	0,006	0,145
-280,730	-200,000	-0,018	0,077
-279,716	30,134	0,059	-0,037
-278,701	89,383	0,188	0,152
-277,686	-163,419	0,192	0,006
-276,672	-200,000	0,024	0,116
-275,657	96,004	-0,047	-0,039
-274,643	-30,399	-0,022	0,009
-273,628	-200,000	-0,025	0,089
-272,613	-6,232	0,102	0,050
-271,599	-200,000	0,055	0,216
-270,584	-126,614	-0,095	0,010
-269,570	-200,000	0,049	0,209
-268,555	580,800	-0,004	0,007
-267,540	-200,000	0,015	0,162
-266,526	800,000	-0,046	-0,123
-265,511	-103,367	-0,088	0,015
-264,497	-85,671	0,271	0,060
-263,482	215,881	-0,069	0,080
-262,467	-101,081	0,103	-0,018
-261,453	-62,998	0,077	0,023
-260,438	-104,803	-0,098	-0,016
-259,424	430,893	-0,053	-0,082
-258,409	171,303	-0,011	-0,012
-257,395	-200,000	-0,004	0,017
-256,380	-200,000	-0,018	0,127
-255,365	318,671	0,044	-0,060
-254,351	364,469	-0,019	0,027
-253,336	-8,161	0,055	-0,027
-252,322	245,186	0,066	0,081
-251,307	-200,000	0,022	-0,070
-250,292	-10,270	0,075	-0,036
-249,278	399,209	-0,028	-0,043
-248,263	132,817	0,109	-0,102
-247,249	197,561	-0,061	-0,068
-246,234	-15,798	-0,121	0,056
-245,219	595,956	0,045	-0,081
-244,205	431,236	0,034	0,053
-243,190	17,094	0,033	0,019
-242,176	800,000	-0,044	0,122
-241,161	401,960	0,070	0,107
-240,146	142,574	-0,078	0,075
-239,132	-200,000	-0,016	-0,178
-238,117	405,516	-0,111	-0,169
-237,103	-200,000	0,009	-0,034
-236,088	77,176	0,065	0,050
-235,073	-200,000	-0,013	-0,053
-234,059	550,874	0,040	-0,070
-233,044	-200,000	0,006	0,081
-232,030	3,480	-0,075	-0,039
-231,015	-62,922	-0,064	-0,019
-230,000	66,523	-0,112	0,082
-228,986	-5,951	0,051	-0,025
-227,971	188,502	0,075	0,081
-226,957	30,182	-0,024	0,015
-225,942	557,766	0,036	0,062
-224,927	133,041	-0,129	-0,120
-223,913	800,000	0,076	-0,212
-222,898	520,195	-0,068	-0,116
-221,884	24,409	0,063	-0,037
-220,869	800,000	0,024	-0,074
-219,855	-49,150	-0,047	0,016
-218,840	800,000	0,018	-0,045
-217,825	244,846	0,030	-0,037
-216,811	-59,709	0,060	0,019
-215,796	-52,800	0,055	0,018
-214,782	655,721	0,028	-0,052
-213,767	800,000	0,026	0,066
-212,752	15,103	-0,041	-0,023
-211,738	265,008	0,017	0,021
-210,723	800,000	-0,033	-0,071
-209,709	-200,000	0,028	0,116
-208,694	-131,428	-0,029	-0,003
-207,679	268,268	-0,053	-0,067
-206,665	-200,000	-0,022	0,116
-205,650	-76,119	0,066	0,017
-204,636	-136,734	0,019	-0,002
-203,621	-200,000	-0,004	0,014
-202,606	800,000	-0,015	0,048
-201,592	-119,773	-0,099	0,012
-200,577	2,206	-0,071	-0,037
-199,563	583,231	0,029	-0,052
-198,548	-41,166	-0,059	0,022
-197,533	-80,839	0,240	0,057
-196,519	45,231	0,035	-0,023
-195,504	460,669	-0,127	-0,204
-194,490	634,390	-0,028	-0,052
-193,475	-52,340	0,054	0,018
-192,460	303,532	0,066	-0,088
-191,446	-72,323	0,106	-0,028
-190,431	-116,959	0,108	0,014
-189,417	17,053	-0,093	0,053
-188,402	-18,520	-0,091	-0,041
-187,387	229,954	-0,053	-0,062
-186,373	185,560	-0,053	0,057
-185,358	-200,000	0,035	0,173
-184,344	-24,915	0,035	0,015
-183,329	-200,000	-0,023	0,088
-182,315	800,000	0,036	0,098
-181,300	-34,392	0,053	-0,021
-180,285	210,195	-0,048	0,054
-179,271	30,953	-0,103	-0,063
-178,256	800,000	0,047	-0,138
-177,242	-200,000	0,040	0,164
-176,227	800,000	0,055	0,148
-175,212	80,036	0,070	0,054
-174,198	-200,000	-0,005	0,083
-173,183	-200,000	0,004	0,013
-172,169	-148,092	-0,046	0,003
-171,154	-200,000	-0,003	-0,049
-170,139	-113,269	0,129	0,018
-169,125	79,799	-0,084	0,065
-168,110	800,000	-0,049	0,152
-167,096	-200,000	-0,035	-0,126
-166,081	101,483	0,110	0,092
-165,066	-108,676	-0,187	-0,029
-164,052	333,890	0,030	0,042
-163,037	372,084	-0,065	0,096
-162,023	800,000	0,058	0,133
-161,008	-4,034	0,064	0,032
-159,993	-67,956	0,048	-0,013
-158,979	800,000	-0,008	0,016
-157,964	-200,000	0,012	-0,107
-156,950	-200,000	0,008	-0,035
-155,935	-200,000	0,018	-0,205
-154,920	149,984	0,047	0,046
-153,906	66,540	0,145	-0,106
-152,891	126,190	-0,034	-0,031
-151,877	355,730	-0,058	-0,084
-150,862	-105,177	-0,200	-0,033
-149,847	-27,657	0,042	0,017
-148,833	-200,000	-0,003	0,102
-147,818	9,400	-0,031	0,017
-146,804	119,560	0,055	0,049
-145,789	538,255	0,090	0,155
-144,775	54,870	-0,090	-0,062
-143,760	600,040	-0,031	-0,055
-142,745	-61,693	0,015	0,005
-141,731	204,401	-0,028	0,031
-140,716	27,001	0,116	-0,070
-139,702	800,000	0,013	0,037
-138,687	-77,450	0,121	-0,030
-137,672	283,475	0,025	0,032
-136,658	-112,386	0,040	0,006
-135,643	-148,497	-0,168	-0,010
-134,629	255,295	0,098	0,121
-133,614	57,217	-0,050	0,035
-132,599	709,223	-0,016	-0,030
-131,585	555,227	-0,057	0,098
-130,570	185,095	0,044	0,047
-129,556	-101,550	-0,064	-0,011
-128,541	-200,000	0,001	0,016
-127,526	800,000	-0,037	-0,113
-126,512	127,115	-0,043	0,039
-125,497	-20,307	0,152	0,067
-124,483	-200,000	-0,027	-0,086
-123,468	-114,310	0,037	0,005
-122,453	-39,786	-0,066	-0,025
-121,439	-101,701	-0,124	0,021
-120,424	91,868	-0,016	0,013
-119,410	-200,000	0,004	0,117
-118,395	800,000	-0,057	-0,182
