DTS Sentinel unit serial number:	SN410029Multiplexer serial number:	ORYXHardware model number:	OX2-SRSoftware version number:	ORYX F/W v4,00 Oryx Data Collector v3.7.2.0data status	okinstallation	B5 Nyhavnadifferential loss correction	single-endedforward channel	channel 2reverse channel	N/Adate	2023/12/12time	22:32:13forward acquisition time	300,00reverse acquisition time	0,00gamma	499,1914k internal	0,3158k external	0,3158temperature offset calibration	1,0000default loss term (dB/km)	0,3820temperature slope calibration	1,0000multiplexer offset coefficient	1,0000multiplexer slope coefficient	1,0000fibre end	0,00T internal ref (°C)	14,63T ext. ref 1 (°C)	-1,94T ext. ref 2 (°C)	-2,27length (m)	temperature (°C)	Stokes	anti-Stokes-744,400	382,322	0,034	0,051
-743,385	-70,652	-0,307	0,085
-742,371	-200,000	-0,002	0,077
-741,356	-104,651	-0,147	0,025
-740,342	-4,621	0,062	-0,032
-739,327	-105,161	-0,270	-0,045
-738,312	98,710	0,168	0,142
-737,298	-2,670	-0,239	0,123
-736,283	800,000	0,103	0,215
-735,269	-106,245	-0,325	-0,053
-734,254	800,000	0,033	-0,070
-733,239	-104,731	-0,550	-0,092
-732,225	-81,811	0,276	0,066
-731,210	261,177	0,061	0,077
-730,196	423,039	0,013	0,021
-729,181	-100,849	-0,094	0,017
-728,167	-23,941	-0,069	-0,030
-727,152	41,859	-0,112	-0,075
-726,137	-126,586	-0,172	-0,019
-725,123	-58,421	-0,130	0,041
-724,108	158,396	-0,126	-0,128
-723,094	-78,109	0,060	0,015
-722,079	577,222	-0,023	0,041
-721,064	39,712	0,094	-0,062
-720,050	-69,317	0,041	0,011
-719,035	479,012	0,067	0,113
-718,021	-137,913	-0,122	-0,010
-717,006	-200,000	-0,019	-0,175
-715,991	-62,213	-0,117	-0,036
-714,977	219,397	0,046	-0,054
-713,962	-200,000	0,027	-0,165
-712,948	-200,000	-0,010	0,054
-711,933	-102,689	0,051	-0,009
-710,918	59,264	-0,147	0,107
-709,904	164,311	-0,139	-0,145
-708,889	800,000	0,036	-0,111
-707,875	397,457	-0,128	-0,198
-706,860	800,000	-0,063	-0,146
-705,845	95,999	-0,043	-0,036
-704,831	188,993	0,046	0,051
-703,816	-101,100	-0,149	0,027
-702,802	-200,000	-0,009	-0,043
-701,787	-43,131	-0,101	0,037
-700,772	-97,958	-0,111	-0,021
-699,758	21,841	-0,078	0,047
-698,743	-48,423	0,143	0,050
-697,729	-41,537	0,131	-0,049
-696,714	71,807	-0,137	0,105
-695,699	23,660	-0,086	-0,052
-694,685	247,529	-0,084	-0,105
-693,670	-105,463	0,017	0,003
-692,656	-200,000	-0,001	-0,010
-691,641	800,000	0,061	-0,131
-690,627	589,937	0,023	0,043
-689,612	181,437	-0,005	0,006
-688,597	20,199	-0,149	-0,088
-687,583	-200,000	0,002	-0,016
-686,568	92,320	0,042	-0,035
-685,554	61,563	0,083	-0,061
-684,539	-200,000	0,005	0,064
-683,524	148,212	-0,062	0,062
-682,510	304,350	-0,030	0,041
-681,495	417,496	-0,032	-0,051
-680,481	67,969	-0,121	-0,091
-679,466	-200,000	0,021	-0,084
-678,451	-200,000	0,021	0,102
-677,437	800,000	0,028	0,074
-676,422	427,031	-0,052	0,083
-675,408	-151,472	-0,104	0,006
-674,393	-36,320	0,030	-0,012
-673,378	53,383	-0,071	0,050
-672,364	-200,000	0,006	-0,119
-671,349	188,998	-0,072	-0,079
-670,335	800,000	-0,028	-0,077
-669,320	-38,274	-0,127	0,049
-668,305	800,000	-0,012	-0,026
-667,291	183,074	0,031	-0,034
-666,276	110,412	-0,025	-0,022
-665,262	461,338	0,029	0,047
-664,247	99,883	-0,039	-0,033
-663,232	139,705	0,041	-0,040
-662,218	336,724	0,084	0,120
-661,203	111,163	0,104	0,092
-660,189	-101,777	0,127	0,022
-659,174	-58,988	-0,098	-0,031
-658,159	-17,775	-0,087	0,040
-657,145	521,876	0,055	-0,096
-656,130	-83,668	-0,146	-0,034
-655,116	-105,630	-0,104	-0,017
-654,101	298,718	0,114	0,154
-653,086	-100,514	-0,098	0,018
-652,072	-68,021	-0,057	-0,016
-651,057	170,970	-0,079	-0,084
-650,043	800,000	-0,060	-0,129
-649,028	94,746	-0,062	-0,052
-648,014	800,000	-0,055	0,126
-646,999	0,172	0,066	0,035
-645,984	117,999	-0,025	0,023
-644,970	800,000	0,053	-0,123
-643,955	287,577	0,111	-0,147
-642,941	800,000	-0,021	-0,047
-641,926	-27,557	-0,007	-0,003
-640,911	-85,986	0,097	0,022
-639,897	-160,490	-0,035	0,001
-638,882	551,755	0,044	0,078
-637,868	-200,000	-0,008	-0,027
-636,853	284,106	-0,115	-0,152
-635,838	-62,657	-0,214	0,065
-634,824	367,677	0,074	-0,110
-633,809	67,834	-0,100	0,075
-632,795	-94,157	0,083	0,017
-631,780	-57,396	0,154	0,049
-630,765	255,312	-0,070	-0,088
-629,751	-27,558	-0,059	0,025
-628,736	800,000	-0,023	-0,069
-627,722	800,000	-0,023	0,054
-626,707	492,334	-0,029	0,048
-625,692	73,984	0,089	0,069
-624,678	800,000	-0,053	0,148
-623,663	-200,000	0,019	0,149
-622,649	-4,355	-0,178	-0,090
-621,634	294,880	0,013	0,017
-620,619	24,227	-0,055	0,033
-619,605	-200,000	0,030	0,115
-618,590	269,675	0,030	0,039
-617,576	-181,921	0,083	0,001
-616,561	40,549	0,096	-0,063
-615,546	82,229	-0,052	-0,041
-614,532	-143,102	0,065	0,005
-613,517	-25,604	-0,143	-0,062
-612,503	69,839	0,129	-0,097
-611,488	-48,318	-0,121	0,042
-610,474	304,207	0,069	0,094
-609,459	-59,195	-0,047	-0,015
-608,444	-200,000	-0,030	-0,114
-607,430	364,103	-0,024	0,035
-606,415	154,588	-0,162	-0,163
-605,401	137,075	-0,084	0,080
-604,386	-55,148	-0,089	0,029
-603,371	-158,469	0,014	-0,001
-602,357	22,510	0,031	-0,019
-601,342	-184,985	-0,063	0,001
-600,328	-200,000	-0,008	-0,099
-599,313	277,783	0,093	-0,122
-598,298	659,661	0,028	-0,053
-597,284	117,229	0,011	0,010
-596,269	93,380	-0,168	-0,139
-595,255	-31,512	0,106	-0,043
-594,240	117,504	0,103	-0,093
-593,225	107,250	-0,020	0,017
-592,211	800,000	0,057	-0,153
-591,196	-106,905	-0,049	0,008
-590,182	64,415	-0,045	-0,033
-589,167	800,000	-0,018	0,042
-588,152	-108,884	0,024	-0,004
-587,138	-200,000	0,014	-0,080
-586,123	720,161	-0,043	-0,084
-585,109	50,233	-0,031	0,021
-584,094	78,014	0,047	-0,037
-583,079	-52,702	-0,095	0,032
-582,065	-200,000	-0,038	0,153
-581,050	-87,765	-0,063	0,014
-580,036	-53,249	0,072	-0,024
-579,021	152,113	0,086	-0,086
-578,006	-200,000	-0,006	-0,057
-576,992	800,000	0,015	0,040
-575,977	231,145	-0,020	0,024
-574,963	-87,366	-0,125	-0,028
-573,948	800,000	0,029	-0,066
-572,934	261,861	0,030	-0,038
-571,919	-200,000	0,006	-0,066
-570,904	-67,363	-0,107	0,031
-569,890	-200,000	-0,008	-0,064
-568,875	-140,351	-0,019	0,001
-567,861	57,311	0,120	-0,086
-566,846	-200,000	-0,051	-0,175
-565,831	90,002	0,069	0,056
-564,817	800,000	-0,026	-0,064
-563,802	-16,929	-0,080	0,037
-562,788	800,000	-0,064	-0,150
-561,773	800,000	0,012	-0,033
-560,758	800,000	-0,026	0,054
-559,744	800,000	0,013	0,035
-558,729	65,408	0,036	-0,027
-557,715	-5,104	-0,114	-0,057
-556,700	77,563	-0,046	-0,036
-555,685	-74,337	-0,062	-0,016
-554,671	235,727	0,047	0,058
-553,656	69,178	0,068	-0,051
-552,642	184,330	0,077	0,084
-551,627	12,583	0,067	0,038
-550,612	-151,581	-0,153	0,008
-549,598	800,000	0,061	0,147
-548,583	-142,762	0,108	-0,008
-547,569	-107,190	-0,095	0,015
-546,554	492,436	0,022	0,036
-545,539	404,625	0,067	0,103
-544,525	41,631	0,113	-0,075
-543,510	-121,273	-0,064	-0,008
-542,496	800,000	-0,045	0,121
-541,481	-200,000	0,011	0,043
-540,466	334,833	0,040	-0,057
-539,452	-35,983	0,030	0,012
-538,437	541,815	-0,015	-0,026
-537,423	-200,000	-0,008	-0,030
-536,408	-111,679	0,064	-0,009
-535,393	507,682	-0,060	-0,102
-534,379	-200,000	0,003	-0,025
-533,364	-8,221	-0,087	0,043
-532,350	-64,657	0,067	-0,020
-531,335	-104,048	0,120	0,020
-530,321	-200,000	0,015	-0,108
-529,306	-200,000	-0,019	-0,075
-528,291	-200,000	-0,008	-0,086
-527,277	-20,538	-0,032	0,014
-526,262	-200,000	0,004	0,123
-525,248	-112,562	0,067	0,010
-524,233	-127,471	0,100	-0,011
-523,218	29,252	0,082	0,051
-522,204	607,661	0,037	0,069
-521,189	282,257	-0,061	-0,080
-520,175	460,048	-0,091	0,149
-519,160	703,052	0,033	0,064
-518,145	-90,028	-0,019	-0,004
-517,131	-200,000	-0,002	-0,063
-516,116	-42,985	0,094	0,035
-515,102	-200,000	-0,003	0,055
-514,087	4,505	-0,166	0,089
-513,072	-105,315	0,034	-0,006
-512,058	73,229	-0,088	-0,068
-511,043	281,424	-0,074	0,097
-510,029	109,393	-0,073	0,064
-509,014	800,000	0,038	0,099
-507,999	-96,426	-0,147	-0,028
-506,985	46,394	-0,162	0,110
-505,970	-138,405	-0,066	0,005
-504,956	-136,648	-0,176	0,015
-503,941	-200,000	0,005	-0,109
-502,926	324,814	0,054	-0,075
-501,912	-2,081	0,083	-0,043
-500,897	17,483	-0,069	-0,040
-499,883	-82,343	0,132	0,031
-498,868	212,923	0,083	-0,096
-497,853	-200,000	-0,016	-0,090
-496,839	386,545	-0,028	-0,043
-495,824	-200,000	0,006	0,159
-494,810	-0,659	-0,030	-0,015
-493,795	350,720	0,042	-0,061
-492,781	-100,589	0,095	0,017
-491,766	-56,428	0,252	-0,081
-490,751	800,000	-0,086	-0,208
-489,737	-123,037	0,082	-0,010
-488,722	445,213	-0,044	0,071
-487,708	800,000	0,013	-0,028
-486,693	-41,444	0,100	-0,038
-485,678	132,612	-0,116	-0,110
-484,664	800,000	0,022	0,056
-483,649	215,108	-0,059	-0,069
-482,635	724,447	0,059	-0,115
-481,620	-200,000	0,027	0,122
-480,605	269,243	0,034	-0,043
-479,591	-178,636	0,109	0,002
-478,576	-200,000	0,024	-0,093
-477,562	205,570	-0,101	-0,115
-476,547	-127,733	0,028	-0,003
-475,532	411,502	0,095	-0,148
-474,518	55,973	0,126	-0,089
-473,503	-200,000	-0,003	-0,073
-472,489	800,000	0,043	-0,109
-471,474	-200,000	0,011	-0,104
-470,459	62,958	-0,082	0,060
-469,445	198,627	-0,050	0,055
-468,430	136,031	0,059	-0,056
-467,416	94,875	-0,082	0,068
-466,401	32,496	0,096	0,060
-465,386	-70,154	-0,131	0,036
-464,372	-74,098	0,043	0,011
-463,357	302,497	-0,043	-0,058
-462,343	-200,000	-0,007	0,029
-461,328	128,706	0,043	-0,040
-460,313	389,824	0,045	0,068
-459,299	41,984	-0,121	0,080
-458,284	800,000	-0,020	-0,042
-457,270	-200,000	-0,002	-0,094
-456,255	-20,612	-0,034	-0,015
-455,241	4,446	-0,027	0,015
-454,226	-200,000	-0,022	-0,165
-453,211	-18,442	0,071	-0,032
-452,197	8,660	-0,015	0,008
-451,182	800,000	0,029	-0,072
-450,168	-26,265	-0,048	0,021
-449,153	-163,411	0,097	0,003
-448,138	-91,802	-0,126	0,026
-447,124	-29,104	-0,028	0,012
-446,109	611,093	-0,086	0,158
-445,095	-4,659	0,157	0,079
-444,080	-82,291	-0,108	0,025
-443,065	800,000	-0,071	-0,149
-442,051	800,000	0,013	0,040
-441,036	225,596	0,017	-0,020
-440,022	335,778	-0,079	0,112
-439,007	-32,261	-0,025	0,010
-437,992	116,651	-0,035	0,032
-436,978	-19,130	0,041	0,019
-435,963	-116,942	-0,063	0,008
-434,949	243,190	0,047	-0,057
-433,934	800,000	0,043	0,097
-432,919	-97,455	0,075	0,014
-431,905	-200,000	0,027	0,207
-430,890	-70,995	0,152	0,041
-429,876	800,000	-0,002	-0,004
-428,861	800,000	-0,094	0,209
-427,846	6,008	-0,061	0,033
-426,832	597,691	0,066	-0,119
-425,817	-30,840	-0,081	-0,033
-424,803	-6,025	-0,088	-0,044
-423,788	179,933	0,146	-0,156
-422,773	95,430	0,067	0,056
-421,759	-200,000	0,019	0,089
-420,744	800,000	0,004	-0,009
-419,730	48,827	-0,129	-0,088
-418,715	116,408	0,039	0,035
-417,701	-200,000	0,016	-0,130
-416,686	800,000	-0,013	-0,027
-415,671	-160,057	0,057	0,002
-414,657	-102,678	0,123	0,021
-413,642	-2,530	0,056	-0,028
-412,628	800,000	-0,055	0,140
-411,613	-36,746	-0,093	0,036
-410,598	-5,614	-0,162	0,080
-409,584	-200,000	0,030	-0,155
-408,569	-27,787	0,081	0,034
-407,555	171,568	-0,104	0,109
-406,540	-97,724	-0,105	-0,020
-405,525	26,713	0,070	0,043
-404,511	-26,140	0,011	0,005
-403,496	-200,000	-0,022	0,076
-402,482	454,063	0,036	0,059
-401,467	150,573	0,169	0,167
-400,452	358,977	0,125	0,183
-399,438	-200,000	-0,013	-0,072
-398,423	-200,000	-0,030	-0,101
-397,409	217,553	0,044	-0,051
-396,394	66,928	-0,123	-0,091
-395,379	531,020	0,034	0,059
-394,365	2,764	0,105	-0,055
-393,350	-45,683	-0,138	0,049
-392,336	132,795	-0,040	0,038
-391,321	166,796	0,065	0,067
-390,306	-200,000	0,002	-0,063
-389,292	-200,000	-0,022	-0,076
-388,277	-200,000	-0,023	-0,144
-387,263	-40,165	0,054	0,020
-386,248	-200,000	0,012	0,065
-385,233	-200,000	-0,010	0,038
-384,219	122,217	-0,035	-0,032
-383,204	-200,000	0,007	0,036
-382,190	471,640	-0,080	0,132
-381,175	83,093	0,049	0,039
-380,160	203,541	-0,017	0,019
-379,146	-35,472	0,100	0,039
-378,131	800,000	0,026	0,076
-377,117	800,000	0,035	0,082
-376,102	-200,000	-0,034	-0,208
-375,088	-125,108	-0,063	0,007
-374,073	71,078	-0,097	-0,073
-373,058	-105,582	0,026	0,004
-372,044	83,196	0,089	0,070
-371,029	-200,000	0,028	0,119
-370,015	-87,921	-0,160	0,035
-369,000	-133,304	-0,096	-0,009
-367,985	-56,071	0,201	0,065
-366,971	-80,597	0,079	-0,019
-365,956	-144,747	-0,032	-0,002
-364,942	-68,306	0,095	0,027
-363,927	-33,521	-0,116	-0,046
-362,912	-167,092	0,068	-0,002
-361,898	65,494	0,087	0,064
-360,883	800,000	0,027	-0,084
-359,869	-113,520	0,136	-0,019
-358,854	160,900	-0,019	-0,019
-357,839	347,812	0,062	0,089
-356,825	558,091	-0,051	0,090
-355,810	-111,306	0,081	0,012
-354,796	-200,000	0,026	-0,131
-353,781	-76,368	-0,072	0,018
-352,766	-31,833	0,076	-0,031
-351,752	101,038	0,023	-0,019
-350,737	-200,000	0,020	0,164
-349,723	162,221	0,100	0,102
-348,708	57,286	-0,067	0,047
-347,693	376,834	0,040	-0,060
-346,679	6,119	0,023	-0,012
-345,664	-200,000	-0,027	0,094
-344,650	-2,306	-0,072	0,036
-343,635	97,260	0,097	0,081
-342,620	-200,000	0,038	0,140
-341,606	800,000	-0,006	-0,013
-340,591	-71,313	-0,110	0,030
-339,577	256,959	-0,047	0,058
-338,562	-57,778	-0,098	0,031
-337,548	800,000	0,025	0,071
-336,533	286,377	-0,060	0,079
-335,518	800,000	-0,022	0,053
-334,504	-200,000	-0,015	0,115
-333,489	800,000	-0,041	0,101
-332,475	324,839	-0,035	0,048
-331,460	64,073	0,025	0,018
-330,445	508,700	0,082	-0,139
-329,431	16,782	-0,129	-0,074
-328,416	232,905	-0,084	-0,100
-327,402	151,470	-0,027	0,027
-326,387	-200,000	0,015	-0,059
-325,372	346,968	0,020	0,028
-324,358	-57,013	0,143	0,046
-323,343	131,147	0,038	-0,035
-322,329	222,744	0,072	-0,084
-321,314	-22,796	-0,011	0,005
-320,299	-41,772	0,106	0,039
-319,285	330,589	0,085	-0,119
-318,270	-81,307	0,067	0,016
-317,256	-112,362	-0,090	-0,013
-316,241	800,000	0,026	-0,072
-315,226	-2,320	-0,061	-0,031
-314,212	-28,102	0,036	0,015
-313,197	-200,000	-0,016	0,084
-312,183	17,212	-0,097	0,056
-311,168	-200,000	0,023	-0,097
-310,153	157,960	0,081	-0,081
-309,139	4,807	0,011	-0,006
-308,124	304,330	0,107	0,144
-307,110	9,778	0,094	0,051
-306,095	3,063	-0,105	0,055
-305,080	301,148	-0,092	-0,123
-304,066	467,914	-0,017	-0,027
-303,051	-200,000	0,017	-0,067
-302,037	576,572	-0,005	-0,010
-301,022	5,926	-0,111	0,059
-300,008	-118,341	0,014	0,002
-298,993	-94,455	0,037	-0,007
-297,978	-9,388	0,039	0,019
-296,964	326,327	0,032	0,045
-295,949	-10,914	-0,114	0,054
-294,935	-200,000	-0,021	0,124
-293,920	-200,000	0,003	0,077
-292,905	-200,000	-0,022	0,125
-291,891	-200,000	-0,005	-0,021
-290,876	-200,000	0,004	0,056
-289,862	-81,372	0,062	0,015
-288,847	-153,414	0,032	0,002
-287,832	-62,837	0,055	-0,016
-286,818	-200,000	0,005	-0,050
-285,803	528,155	-0,036	-0,062
-284,789	800,000	0,007	0,017
-283,774	34,545	0,021	-0,013
-282,759	-95,790	0,111	-0,021
-281,745	464,062	-0,073	0,118
-280,730	170,327	0,067	0,069
-279,716	86,028	-0,087	0,070
-278,701	800,000	0,043	0,099
-277,686	-200,000	-0,022	0,074
-276,672	71,517	0,093	-0,070
-275,657	-122,199	-0,036	-0,004
-274,643	-200,000	-0,002	-0,104
-273,628	-200,000	-0,009	-0,128
-272,613	800,000	0,039	-0,102
-271,599	800,000	-0,016	0,038
-270,584	8,332	0,038	0,020
-269,570	-114,668	-0,046	-0,006
-268,555	420,767	0,056	0,087
-267,540	-185,277	-0,116	0,001
-266,526	-7,241	0,036	0,018
-265,511	785,718	-0,045	0,090
-264,497	89,031	-0,025	0,020
-263,482	-200,000	-0,008	-0,053
-262,467	-108,972	0,058	-0,009
-261,453	48,108	0,038	-0,026
-260,438	-200,000	0,006	-0,059
-259,424	234,746	0,034	0,041
-258,409	0,395	-0,136	-0,070
-257,395	-200,000	0,014	-0,125
-256,380	201,853	0,026	-0,029
-255,365	62,664	0,040	-0,029
-254,351	-200,000	-0,023	-0,133
-253,336	4,306	0,092	0,049
-252,322	381,539	0,045	0,067
-251,307	-74,399	-0,120	0,031
-250,292	74,983	-0,041	0,031
-249,278	-57,972	0,035	0,011
-248,263	800,000	-0,015	0,042
-247,249	-37,319	0,041	-0,016
-246,234	84,227	-0,051	-0,040
-245,219	-200,000	0,003	-0,108
-244,205	-200,000	-0,009	0,068
-243,190	-200,000	0,011	-0,046
-242,176	-72,091	0,056	-0,015
-241,161	160,880	0,041	-0,041
-240,146	-14,048	0,099	-0,046
-239,132	159,274	-0,073	0,073
-238,117	-200,000	-0,003	-0,055
-237,103	-44,634	0,057	-0,020
-236,088	223,617	-0,060	-0,071
-235,073	-200,000	-0,012	0,050
-234,059	-63,676	-0,166	-0,049
-233,044	355,669	-0,047	-0,068
-232,030	114,836	-0,079	0,070
-231,015	502,509	-0,021	-0,035
-230,000	-200,000	-0,029	-0,103
-228,986	-110,642	0,098	0,015
-227,971	-137,408	0,131	-0,011
-226,957	-200,000	-0,054	-0,198
-225,942	-27,208	0,058	0,024
-224,927	695,254	0,044	0,084
-223,913	60,731	-0,157	0,112
-222,898	178,354	-0,102	-0,108
-221,884	265,161	0,081	-0,103
-220,869	-115,814	0,117	0,016
-219,855	188,382	0,027	0,029
-218,840	-61,674	-0,128	-0,038
-217,825	800,000	0,013	-0,028
-216,811	-27,411	-0,079	0,033
-215,796	22,389	-0,048	0,028
-214,782	408,705	-0,095	-0,146
-213,767	800,000	0,038	-0,077
-212,752	800,000	0,013	-0,029
-211,738	800,000	-0,059	0,130
-210,723	-200,000	0,037	0,117
-209,709	640,227	0,086	0,158
-208,694	318,731	-0,070	0,095
-207,679	-132,555	0,134	0,012
-206,665	-73,708	0,114	-0,030
-205,650	800,000	-0,025	0,079
-204,636	-200,000	0,002	0,033
-203,621	-46,827	0,046	-0,016
-202,606	-200,000	0,021	-0,075
-201,592	-200,000	-0,032	-0,119
-200,577	62,487	-0,018	-0,013
-199,563	498,814	-0,069	0,116
-198,548	218,098	0,030	0,034
-197,533	-28,857	-0,024	-0,010
-196,519	-200,000	0,017	0,139
-195,504	598,035	0,057	-0,102
-194,490	278,768	-0,025	-0,033
-193,475	-5,129	0,067	-0,033
-192,460	50,879	0,083	0,057
-191,446	-200,000	0,011	0,078
-190,431	88,464	0,027	0,022
-189,417	-200,000	-0,078	-0,000
-188,402	-70,532	-0,055	0,015
-187,387	800,000	-0,014	-0,034
-186,373	-138,173	-0,035	-0,003
-185,358	588,020	-0,051	-0,090
-184,344	800,000	0,087	0,180
-183,329	-97,277	-0,082	0,015
-182,315	-200,000	-0,025	0,153
-181,300	-112,005	-0,209	0,030
-180,285	244,550	-0,026	-0,031
-179,271	-200,000	-0,021	-0,090
-178,256	208,991	-0,094	-0,106
-177,242	710,968	0,027	0,051
-176,227	710,335	0,028	0,054
-175,212	-155,739	0,080	-0,004
-174,198	800,000	0,042	0,090
-173,183	-200,000	0,068	-0,226
-172,169	192,388	-0,054	0,059
-171,154	800,000	0,006	0,013
-170,139	42,324	0,019	0,012
-169,125	222,112	0,017	0,020
-168,110	-200,000	0,022	0,163
-167,096	-14,028	0,072	0,033
-166,081	219,838	0,045	-0,052
-165,066	28,795	-0,123	-0,075
-164,052	-200,000	0,005	-0,023
-163,037	-80,045	0,015	-0,004
-162,023	-200,000	-0,008	0,034
-161,008	545,294	0,075	0,130
-159,993	-200,000	0,010	0,037
-158,979	22,882	-0,040	-0,023
-157,964	-64,630	-0,039	0,011
-156,950	-127,006	0,114	0,012
-155,935	-90,472	-0,115	-0,024
-154,920	363,536	0,042	-0,060
-153,906	-45,034	0,142	-0,051
-152,891	152,887	-0,074	-0,073
-151,877	743,261	-0,014	-0,027
-150,862	685,623	-0,051	0,097
-149,847	800,000	-0,014	-0,036
-148,833	-43,895	-0,024	0,009
-147,818	36,727	-0,072	0,046
-146,804	-200,000	-0,010	-0,086
-145,789	-36,395	0,082	0,032
-144,775	-7,929	-0,205	0,099
-143,760	191,488	0,048	-0,052
-142,745	6,334	-0,149	0,079
-141,731	107,626	0,082	0,070
-140,716	-200,000	0,000	0,003
-139,702	24,104	0,155	0,092
-138,687	321,295	-0,059	0,082
-137,672	-145,376	-0,076	0,005
-136,658	118,612	0,116	-0,103
-135,643	-38,121	-0,045	0,017
-134,629	800,000	0,026	0,068
-133,614	-142,563	0,138	0,010
-132,599	587,368	-0,031	-0,056
-131,585	-70,624	0,187	0,050
-130,570	425,437	0,046	0,072
-129,556	-200,000	0,003	0,019
-128,541	-28,030	-0,074	0,031
-127,526	11,469	-0,060	0,033
-126,512	669,970	-0,035	0,065
-125,497	-13,868	-0,075	0,035
-124,483	-64,306	0,004	-0,001
-123,468	-200,000	0,051	0,200
-122,453	-28,593	0,070	0,029
-121,439	224,862	-0,019	-0,022
-120,424	215,136	-0,101	0,115
-119,410	185,054	0,133	0,142
-118,395	122,737	-0,046	0,042
-117,380	-200,000	-0,045	-0,151
