DTS Sentinel unit serial number:	SN410029Multiplexer serial number:	ORYXHardware model number:	OX2-SRSoftware version number:	ORYX F/W v4,00 Oryx Data Collector v3.7.2.0data status	okinstallation	B5 Nyhavnadifferential loss correction	single-endedforward channel	channel 2reverse channel	N/Adate	2023/12/13time	05:12:13forward acquisition time	300,00reverse acquisition time	0,00gamma	499,1914k internal	0,3160k external	0,3160temperature offset calibration	1,0000default loss term (dB/km)	0,3820temperature slope calibration	1,0000multiplexer offset coefficient	1,0000multiplexer slope coefficient	1,0000fibre end	0,00T internal ref (°C)	13,88T ext. ref 1 (°C)	-2,52T ext. ref 2 (°C)	-2,82length (m)	temperature (°C)	Stokes	anti-Stokes-744,400	-200,000	0,004	0,075
-743,385	-132,873	-0,387	-0,036
-742,371	-117,753	0,245	-0,032
-741,356	-159,893	-0,283	0,011
-740,342	-200,000	-0,022	0,129
-739,327	-26,373	-0,352	0,151
-738,312	68,936	-0,052	0,039
-737,298	-120,044	-0,361	0,045
-736,283	-200,000	0,009	0,104
-735,269	8,631	-0,288	0,159
-734,254	348,997	0,036	0,052
-733,239	12,946	-0,391	-0,222
-732,225	38,586	0,171	0,112
-731,210	800,000	0,024	-0,058
-730,196	-87,221	-0,096	-0,021
-729,181	142,704	-0,093	-0,091
-728,167	-200,000	0,017	-0,177
-727,152	481,127	-0,006	0,011
-726,137	36,513	-0,046	0,030
-725,123	450,707	-0,099	-0,162
-724,108	-200,000	-0,005	-0,065
-723,094	-101,169	0,045	-0,008
-722,079	-130,872	-0,188	0,018
-721,064	-115,218	0,121	0,017
-720,050	-3,169	-0,029	0,015
-719,035	-29,825	-0,043	-0,018
-718,021	800,000	-0,070	-0,146
-717,006	-127,178	-0,075	-0,008
-715,991	-55,243	-0,098	-0,032
-714,977	765,272	-0,041	-0,081
-713,962	-200,000	0,000	0,022
-712,948	-200,000	0,004	0,048
-711,933	199,119	-0,011	-0,012
-710,918	534,012	-0,065	0,113
-709,904	-200,000	0,007	-0,110
-708,889	779,246	-0,037	-0,075
-707,875	-200,000	-0,023	-0,087
-706,860	48,985	-0,093	-0,064
-705,845	214,967	0,049	-0,057
-704,831	-64,466	0,192	0,057
-703,816	37,760	-0,071	-0,046
-702,802	-155,850	-0,160	-0,007
-701,787	-200,000	0,005	-0,077
-700,772	-200,000	0,002	-0,014
-699,758	699,966	0,034	-0,065
-698,743	-29,979	0,045	0,019
-697,729	102,838	0,120	0,103
-696,714	142,278	-0,057	0,056
-695,699	-138,831	0,084	0,007
-694,685	800,000	0,031	-0,075
-693,670	78,861	-0,078	-0,061
-692,656	-107,667	-0,109	-0,017
-691,641	-200,000	0,007	0,030
-690,627	519,347	-0,031	0,054
-689,612	-26,177	-0,104	-0,045
-688,597	-200,000	-0,005	0,039
-687,583	-191,656	-0,034	-0,000
-686,568	-200,000	0,018	-0,158
-685,554	92,859	-0,044	0,037
-684,539	800,000	0,004	-0,008
-683,524	408,389	-0,040	-0,063
-682,510	-135,411	0,055	0,005
-681,495	-35,804	-0,178	-0,071
-680,481	-200,000	0,030	-0,154
-679,466	-162,220	-0,074	0,003
-678,451	30,354	-0,115	0,072
-677,437	-97,588	-0,048	0,009
-676,422	-200,000	0,029	-0,107
-675,408	144,866	-0,060	0,059
-674,393	333,296	0,046	-0,066
-673,378	-81,188	-0,136	-0,033
-672,364	-200,000	0,001	-0,067
-671,349	22,655	-0,110	0,066
-670,335	-102,421	-0,056	0,010
-669,320	-200,000	-0,020	0,128
-668,305	683,009	0,025	0,048
-667,291	-200,000	-0,023	-0,109
-666,276	-130,093	-0,187	0,019
-665,262	68,998	-0,106	0,080
-664,247	67,352	-0,012	0,009
-663,232	-87,521	0,050	0,011
-662,218	408,391	-0,065	0,101
-661,203	55,189	-0,098	0,069
-660,189	83,767	-0,060	0,048
-659,174	-200,000	0,018	-0,192
-658,159	-113,549	-0,104	0,015
-657,145	183,716	0,080	-0,087
-656,130	-112,068	0,034	-0,005
-655,116	800,000	-0,032	-0,099
-654,101	-200,000	-0,028	-0,090
-653,086	800,000	0,044	0,121
-652,072	-200,000	0,014	0,169
-651,057	-200,000	-0,022	-0,111
-650,043	800,000	-0,037	-0,082
-649,028	59,217	0,128	-0,092
-648,014	9,680	-0,064	0,036
-646,999	-200,000	-0,036	-0,148
-645,984	-200,000	-0,024	0,112
-644,970	409,228	-0,081	0,126
-643,955	800,000	-0,060	-0,149
-642,941	-118,185	0,035	0,005
-641,926	33,571	0,146	0,093
-640,911	-200,000	0,015	0,078
-639,897	-200,000	0,024	-0,084
-638,882	687,640	0,043	0,082
-637,868	178,072	-0,045	-0,048
-636,853	-43,629	-0,100	-0,037
-635,838	-200,000	-0,007	-0,069
-634,824	-200,000	-0,026	-0,104
-633,809	-200,000	-0,008	0,144
-632,795	109,722	-0,069	0,061
-631,780	342,784	0,047	0,068
-630,765	-44,901	-0,091	-0,033
-629,751	-44,244	0,050	-0,018
-628,736	-76,518	-0,060	-0,015
-627,722	-200,000	0,011	0,065
-626,707	459,158	-0,078	0,128
-625,692	-135,345	0,123	0,011
-624,678	-13,679	-0,117	-0,055
-623,663	-104,267	-0,164	-0,028
-622,649	70,413	0,044	-0,033
-621,634	-58,456	0,120	-0,038
-620,619	800,000	-0,024	0,055
-619,605	102,923	0,120	0,103
-618,590	-29,360	-0,035	-0,015
-617,576	-8,438	-0,109	-0,054
-616,561	-63,450	0,126	-0,038
-615,546	259,382	-0,148	-0,188
-614,532	-200,000	0,001	-0,031
-613,517	-200,000	-0,025	-0,189
-612,503	232,191	0,065	-0,078
-611,488	800,000	-0,015	0,048
-610,474	357,757	0,049	-0,071
-609,459	800,000	0,039	0,093
-608,444	-200,000	-0,012	0,100
-607,430	82,801	0,070	-0,055
-606,415	-58,573	0,007	0,002
-605,401	492,011	-0,051	0,085
-604,386	-200,000	-0,016	-0,079
-603,371	22,811	0,138	0,082
-602,357	271,443	-0,123	-0,159
-601,342	-134,373	-0,038	-0,003
-600,328	41,785	0,085	-0,056
-599,313	12,943	-0,046	-0,026
-598,298	92,138	-0,050	0,041
-597,284	104,125	0,085	-0,073
-596,269	-200,000	-0,010	0,082
-595,255	481,562	-0,010	-0,017
-594,240	65,185	-0,136	-0,101
-593,225	26,141	-0,137	-0,083
-592,211	-200,000	-0,009	0,040
-591,196	-200,000	-0,006	-0,026
-590,182	-200,000	0,013	0,108
-589,167	-76,550	-0,032	-0,008
-588,152	89,273	-0,056	-0,046
-587,138	800,000	0,027	-0,064
-586,123	-37,304	-0,105	0,041
-585,109	-3,658	-0,090	-0,046
-584,094	-200,000	0,024	-0,088
-583,079	-74,849	-0,101	-0,026
-582,065	73,522	0,048	0,037
-581,050	800,000	-0,043	0,134
-580,036	34,768	0,059	-0,038
-579,021	-200,000	0,001	0,020
-578,006	446,234	-0,080	-0,129
-576,992	193,000	-0,115	0,127
-575,977	46,309	0,036	0,024
-574,963	-141,584	0,092	0,007
-573,948	693,158	-0,027	-0,052
-572,934	-48,417	0,035	-0,012
-571,919	-200,000	0,005	-0,028
-570,904	-200,000	-0,031	-0,128
-569,890	63,963	-0,112	-0,082
-568,875	-91,187	0,171	0,036
-567,861	800,000	-0,029	0,076
-566,846	-24,201	0,051	-0,022
-565,831	-76,972	-0,110	0,028
-564,817	-200,000	0,032	0,130
-563,802	800,000	-0,054	-0,123
-562,788	-200,000	0,011	-0,152
-561,773	-200,000	0,006	0,042
-560,758	328,025	0,062	0,088
-559,744	118,093	0,062	-0,056
-558,729	-200,000	-0,013	0,122
-557,715	121,491	-0,036	0,033
-556,700	-200,000	-0,006	-0,053
-555,685	-200,000	0,017	0,058
-554,671	-89,630	0,150	-0,032
-553,656	285,882	0,049	-0,065
-552,642	-200,000	0,004	0,095
-551,627	-112,446	-0,018	0,003
-550,612	574,733	-0,014	-0,026
-549,598	-78,947	-0,162	-0,040
-548,583	-38,349	-0,063	-0,024
-547,569	-200,000	0,013	-0,082
-546,554	800,000	0,039	0,093
-545,539	-34,330	0,135	-0,054
-544,525	479,944	-0,061	-0,101
-543,510	494,010	-0,107	-0,179
-542,496	600,802	0,027	0,048
-541,481	18,414	-0,060	0,035
-540,466	-91,325	-0,059	0,012
-539,452	-54,672	0,067	-0,022
-538,437	368,653	0,018	-0,026
-537,423	54,739	-0,086	-0,061
-536,408	45,892	-0,130	-0,088
-535,393	-200,000	0,004	-0,040
-534,379	-150,515	-0,083	-0,005
-533,364	-123,560	-0,055	0,006
-532,350	800,000	0,042	0,116
-531,335	-102,375	0,044	0,008
-530,321	21,038	-0,065	-0,038
-529,306	38,276	0,067	0,044
-528,291	-200,000	0,002	-0,100
-527,277	800,000	-0,052	-0,130
-526,262	-200,000	-0,011	-0,092
-525,248	800,000	0,049	0,112
-524,233	153,684	0,087	0,087
-523,218	49,689	-0,058	0,040
-522,204	-160,231	-0,103	0,004
-521,189	-175,089	0,015	0,000
-520,175	413,173	0,051	-0,080
-519,160	-116,637	-0,020	0,003
-518,145	-42,033	-0,117	-0,043
-517,131	800,000	0,058	0,135
-516,116	-180,112	-0,128	0,002
-515,102	-124,397	0,059	-0,007
-514,087	-129,892	0,011	0,001
-513,072	800,000	-0,046	-0,104
-512,058	-200,000	0,011	-0,083
-511,043	596,961	-0,016	0,028
-510,029	145,228	0,066	0,065
-509,014	97,690	0,093	0,078
-507,999	-200,000	-0,025	0,154
-506,985	-200,000	-0,031	-0,126
-505,970	-94,480	-0,085	0,017
-504,956	354,059	-0,025	0,036
-503,941	-200,000	0,044	0,147
-502,926	6,408	0,112	-0,060
-501,912	800,000	-0,030	-0,092
-500,897	164,535	-0,009	0,009
-499,883	-122,719	-0,145	0,017
-498,868	441,396	-0,084	-0,134
-497,853	-134,054	-0,040	-0,004
-496,839	-200,000	0,023	0,105
-495,824	-200,000	0,023	0,088
-494,810	283,315	-0,131	0,172
-493,795	54,115	-0,056	0,039
-492,781	109,273	-0,078	-0,068
-491,766	-124,155	-0,213	-0,024
-490,751	800,000	0,040	0,084
-489,737	-83,776	0,103	-0,024
-488,722	85,411	0,057	-0,046
-487,708	407,856	0,089	0,137
-486,693	-200,000	-0,002	0,106
-485,678	182,117	0,043	0,046
-484,664	259,000	-0,044	-0,056
-483,649	-200,000	-0,029	-0,125
-482,635	-30,090	-0,090	0,037
-481,620	332,126	-0,070	0,098
-480,605	-125,180	0,052	-0,006
-479,591	-67,826	-0,104	-0,029
-478,576	800,000	0,068	0,146
-477,562	388,421	-0,013	-0,019
-476,547	134,990	0,037	0,035
-475,532	800,000	-0,026	0,082
-474,518	556,678	0,090	0,160
-473,503	217,752	-0,050	-0,058
-472,489	-200,000	0,007	-0,135
-471,474	337,805	0,060	-0,085
-470,459	-52,175	0,076	-0,026
-469,445	752,095	0,064	-0,126
-468,430	65,599	-0,056	-0,041
-467,416	122,205	-0,030	0,027
-466,401	18,782	0,144	0,084
-465,386	-200,000	-0,012	0,080
-464,372	-42,749	0,041	-0,015
-463,357	-103,398	-0,075	0,013
-462,343	395,279	0,044	-0,067
-461,328	-3,067	0,077	-0,039
-460,313	281,974	0,052	0,068
-459,299	565,561	0,045	0,079
-458,284	27,023	0,095	0,058
-457,270	321,517	-0,071	-0,099
-456,255	156,826	-0,008	0,008
-455,241	-200,000	-0,017	0,137
-454,226	-200,000	0,030	-0,126
-453,211	-162,631	-0,068	-0,002
-452,197	-200,000	0,001	0,062
-451,182	173,045	0,109	0,115
-450,168	376,422	-0,056	-0,084
-449,153	-174,922	-0,097	0,002
-448,138	800,000	-0,025	0,054
-447,124	-200,000	0,000	-0,055
-446,109	333,939	0,051	-0,073
-445,095	-200,000	-0,007	0,061
-444,080	434,442	0,099	0,157
-443,065	-200,000	0,005	-0,062
-442,051	36,196	0,103	0,066
-441,036	117,895	-0,089	-0,080
-440,022	100,890	0,102	-0,087
-439,007	114,351	-0,051	-0,045
-437,992	800,000	0,035	0,103
-436,978	-96,901	0,107	0,020
-435,963	800,000	0,041	0,108
-434,949	105,386	-0,123	0,105
-433,934	178,182	-0,077	-0,082
-432,919	-200,000	-0,024	-0,191
-431,905	-85,252	-0,040	-0,009
-430,890	-200,000	0,002	0,151
-429,876	800,000	-0,030	-0,068
-428,861	-200,000	-0,007	0,057
-427,846	-200,000	0,000	-0,101
-426,832	-158,828	-0,117	-0,005
-425,817	306,385	-0,061	0,083
-424,803	52,049	-0,070	-0,049
-423,788	733,399	-0,015	-0,030
-422,773	156,728	0,078	0,078
-421,759	42,491	-0,058	-0,038
-420,744	115,842	0,104	-0,092
-419,730	-2,790	-0,081	-0,041
-418,715	20,173	-0,065	0,038
-417,701	532,543	0,048	0,084
-416,686	800,000	0,040	0,091
-415,671	-52,698	0,158	0,053
-414,657	800,000	0,055	0,141
-413,642	800,000	0,011	0,025
-412,628	31,461	-0,110	0,068
-411,613	-46,516	-0,090	0,032
-410,598	-200,000	0,003	0,102
-409,584	-46,880	0,098	-0,035
-408,569	-157,278	0,093	-0,004
-407,555	800,000	0,012	0,028
-406,540	490,006	-0,057	0,095
-405,525	-200,000	0,026	-0,101
-404,511	-142,167	0,013	0,001
-403,496	-200,000	-0,014	0,071
-402,482	-200,000	0,042	0,143
-401,467	-200,000	0,047	0,217
-400,452	-49,923	0,007	-0,002
-399,438	-21,798	0,229	-0,101
-398,423	-138,181	-0,107	0,009
-397,409	97,442	0,042	-0,035
-396,394	800,000	0,024	-0,071
-395,379	199,916	0,029	0,033
-394,365	17,001	0,065	0,038
-393,350	194,515	0,126	0,139
-392,336	153,967	0,067	0,067
-391,321	257,033	0,058	0,073
-390,306	-186,519	-0,148	0,001
-389,292	179,500	0,044	-0,047
-388,277	800,000	-0,024	-0,064
-387,263	228,216	0,078	-0,093
-386,248	-6,655	0,123	-0,061
-385,233	-200,000	0,031	0,112
-384,219	-200,000	-0,007	-0,028
-383,204	33,888	-0,049	-0,031
-382,190	800,000	-0,055	-0,132
-381,175	-200,000	-0,010	0,083
-380,160	-102,594	0,155	-0,027
-379,146	288,214	0,122	0,160
-378,131	-165,794	0,095	0,003
-377,117	471,076	-0,028	0,046
-376,102	-116,360	0,066	0,009
-375,088	-32,090	-0,156	-0,063
-374,073	223,586	0,052	0,061
-373,058	-27,382	-0,123	0,052
-372,044	113,266	0,138	0,121
-371,029	217,882	-0,075	0,087
-370,015	-200,000	0,000	0,030
-369,000	223,421	0,048	-0,056
-367,985	277,563	0,040	-0,052
-366,971	800,000	-0,046	0,138
-365,956	79,693	-0,060	0,047
-364,942	800,000	0,031	0,072
-363,927	78,721	0,043	-0,033
-362,912	-200,000	0,018	0,121
-361,898	119,183	0,160	-0,144
-360,883	-200,000	-0,002	0,042
-359,869	56,603	0,079	-0,055
-358,854	-200,000	0,017	-0,070
-357,839	-200,000	0,019	-0,177
-356,825	134,548	-0,032	0,031
-355,810	-200,000	0,003	0,082
-354,796	800,000	0,044	0,118
-353,781	-200,000	-0,005	-0,035
-352,766	120,445	0,066	-0,060
-351,752	800,000	0,033	0,083
-350,737	103,777	-0,027	0,023
-349,723	478,034	0,025	0,041
-348,708	25,257	-0,104	0,062
-347,693	-34,452	-0,007	0,003
-346,679	800,000	0,057	-0,163
-345,664	-37,368	-0,158	-0,061
-344,650	-200,000	0,003	-0,137
-343,635	800,000	0,043	-0,090
-342,620	-200,000	-0,006	-0,056
-341,606	177,933	-0,045	-0,048
-340,591	397,641	-0,030	-0,046
-339,577	-200,000	0,004	-0,044
-338,562	175,689	-0,018	-0,019
-337,548	-77,396	0,069	-0,017
-336,533	800,000	0,031	-0,094
-335,518	-200,000	-0,002	-0,130
-334,504	-200,000	-0,011	-0,047
-333,489	800,000	0,079	-0,178
-332,475	-200,000	-0,032	-0,106
-331,460	-200,000	0,019	0,095
-330,445	-101,453	0,154	0,027
-329,431	-200,000	0,031	0,199
-328,416	800,000	0,044	0,112
-327,402	50,370	0,029	-0,020
-326,387	330,562	-0,024	-0,033
-325,372	-200,000	0,001	0,061
-324,358	717,052	0,075	-0,144
-323,343	-200,000	-0,007	0,108
-322,329	529,688	-0,041	0,071
-321,314	800,000	0,023	-0,048
-320,299	-19,979	-0,120	0,054
-319,285	-33,818	-0,058	-0,023
-318,270	96,792	0,197	-0,163
-317,256	636,528	0,066	-0,121
-316,241	-139,964	-0,020	0,001
-315,226	-200,000	0,001	0,126
-314,212	-76,375	-0,104	-0,026
-313,197	-200,000	0,023	0,191
-312,183	-200,000	0,015	0,190
-311,168	339,795	-0,007	-0,010
-310,153	800,000	0,029	-0,081
-309,139	-61,098	-0,030	0,009
-308,124	124,703	0,059	0,054
-307,110	-56,743	0,037	0,012
-306,095	-79,094	0,064	0,016
-305,080	-19,442	0,014	0,006
-304,066	-147,553	-0,047	-0,003
-303,051	77,921	-0,083	-0,064
-302,037	-200,000	0,005	-0,161
-301,022	573,779	0,030	-0,053
-300,008	206,296	-0,092	0,104
-298,993	168,801	0,137	0,142
-297,978	528,656	0,058	0,099
-296,964	800,000	0,051	0,148
-295,949	99,516	-0,038	-0,032
-294,935	-200,000	0,003	-0,041
-293,920	-5,343	-0,106	-0,053
-292,905	-200,000	-0,010	-0,138
-291,891	665,519	0,019	0,036
-290,876	-72,050	0,085	0,023
-289,862	35,209	-0,103	-0,065
-288,847	-182,299	-0,130	0,002
-287,832	-200,000	0,010	-0,106
-286,818	-146,575	-0,114	-0,007
-285,803	215,678	0,036	0,042
-284,789	124,421	0,079	0,072
-283,774	800,000	0,018	0,053
-282,759	-200,000	-0,015	-0,148
-281,745	-98,254	-0,096	-0,018
-280,730	52,560	0,034	0,024
-279,716	800,000	-0,069	-0,164
-278,701	-195,113	0,078	0,000
-277,686	-88,522	0,085	-0,018
-276,672	-4,792	-0,031	0,015
-275,657	-63,663	0,117	0,035
-274,643	117,780	-0,056	-0,049
-273,628	86,344	0,094	-0,075
-272,613	476,503	-0,083	-0,136
-271,599	-29,957	0,051	-0,021
-270,584	-153,130	0,076	-0,004
-269,570	-200,000	0,014	0,073
-268,555	165,684	-0,030	0,030
-267,540	-135,235	0,099	-0,008
-266,526	579,745	0,021	-0,037
-265,511	800,000	0,020	-0,051
-264,497	-25,154	-0,106	-0,045
-263,482	-81,265	0,040	0,010
-262,467	100,884	-0,085	0,071
-261,453	-200,000	-0,000	-0,045
-260,438	-15,785	-0,160	0,073
-259,424	-94,039	0,067	-0,013
-258,409	-0,318	-0,050	0,026
-257,395	-200,000	0,040	0,135
-256,380	78,389	0,133	-0,103
-255,365	-59,515	0,124	0,038
-254,351	-200,000	-0,004	-0,062
-253,336	-57,197	-0,259	0,082
-252,322	-42,611	-0,038	-0,014
-251,307	-28,083	0,114	0,047
-250,292	400,432	-0,020	0,030
-249,278	47,701	0,129	0,087
-248,263	-152,502	0,195	0,010
-247,249	63,863	0,053	0,039
-246,234	62,834	-0,108	-0,078
-245,219	215,068	-0,034	-0,039
-244,205	-200,000	0,009	0,037
-243,190	319,580	0,043	0,059
-242,176	-200,000	0,005	-0,033
-241,161	-37,863	-0,048	-0,018
-240,146	273,005	0,066	-0,084
-239,132	800,000	0,013	-0,030
-238,117	-77,324	-0,175	0,044
-237,103	474,454	0,030	0,049
-236,088	-164,704	-0,136	-0,004
-235,073	572,874	0,030	-0,053
-234,059	140,089	0,086	-0,082
-233,044	-200,000	-0,013	0,115
-232,030	-200,000	0,004	-0,078
-231,015	50,659	-0,158	-0,108
-230,000	17,378	-0,080	0,046
-228,986	-200,000	0,020	-0,145
-227,971	800,000	-0,030	-0,075
-226,957	-61,076	-0,150	0,045
-225,942	-165,053	0,169	-0,005
-224,927	-78,648	-0,043	0,011
-223,913	391,289	0,077	-0,116
-222,898	-200,000	0,003	0,081
-221,884	-200,000	-0,011	-0,091
-220,869	-200,000	-0,003	-0,036
-219,855	399,535	0,089	0,135
-218,840	-64,028	-0,048	-0,014
-217,825	-159,020	-0,026	0,001
-216,811	184,083	-0,019	0,021
-215,796	800,000	-0,040	-0,116
-214,782	-135,119	0,126	-0,011
-213,767	-200,000	-0,010	0,125
-212,752	-35,924	0,066	0,025
-211,738	-200,000	0,005	0,078
-210,723	62,978	-0,042	-0,030
-209,709	392,235	0,088	-0,132
-208,694	-37,978	-0,111	0,042
-207,679	384,513	-0,035	-0,052
-206,665	-200,000	0,005	-0,023
-205,650	92,264	0,095	-0,077
-204,636	488,712	-0,080	0,132
-203,621	-126,493	-0,077	0,008
-202,606	-123,063	-0,101	-0,012
-201,592	385,590	0,057	-0,085
-200,577	-57,561	-0,046	0,014
-199,563	151,462	0,087	0,085
-198,548	-80,769	-0,142	0,034
-197,533	-28,628	0,042	0,017
-196,519	25,103	-0,125	-0,074
-195,504	800,000	0,042	0,088
-194,490	-200,000	-0,008	-0,054
-193,475	-18,445	0,123	-0,055
-192,460	58,362	0,035	-0,025
-191,446	-69,875	0,081	0,022
-190,431	-200,000	0,026	0,112
-189,417	-200,000	0,016	-0,061
-188,402	120,393	-0,056	-0,050
-187,387	20,949	-0,033	0,019
-186,373	-200,000	0,025	0,126
-185,358	-120,178	-0,072	-0,009
-184,344	-200,000	-0,008	0,115
-183,329	-41,954	-0,037	0,014
-182,315	-200,000	-0,001	-0,108
-181,300	453,857	-0,058	-0,092
-180,285	249,425	-0,026	0,032
-179,271	401,389	-0,056	0,085
-178,256	280,231	0,050	0,065
-177,242	121,980	0,049	0,044
-176,227	410,797	-0,087	0,133
-175,212	-82,810	0,101	-0,023
-174,198	-200,000	0,014	-0,075
-173,183	800,000	-0,056	-0,160
-172,169	13,018	0,051	-0,028
-171,154	-200,000	-0,007	0,093
-170,139	-200,000	-0,026	-0,170
-169,125	353,420	0,085	0,122
-168,110	544,040	0,082	0,141
-167,096	-4,399	0,104	0,051
-166,081	800,000	-0,007	-0,021
-165,066	-200,000	0,022	0,123
-164,052	-50,400	-0,108	-0,037
-163,037	-85,741	-0,100	0,022
-162,023	8,968	0,172	-0,093
-161,008	800,000	-0,056	0,152
-159,993	191,175	-0,013	-0,014
-158,979	322,693	0,013	0,017
-157,964	-3,004	-0,183	-0,092
-156,950	304,810	-0,062	-0,083
-155,935	232,121	-0,028	-0,033
-154,920	636,564	-0,065	-0,119
-153,906	-75,008	0,038	-0,010
-152,891	800,000	0,031	-0,063
-151,877	-109,733	0,033	-0,005
-150,862	800,000	-0,006	0,013
-149,847	176,105	-0,089	-0,093
-148,833	-200,000	0,003	-0,024
-147,818	-15,534	-0,012	0,006
-146,804	370,769	-0,020	-0,030
-145,789	58,012	-0,065	-0,046
-144,775	125,514	0,030	-0,027
-143,760	-200,000	-0,007	-0,125
-142,745	111,159	-0,097	-0,084
-141,731	800,000	-0,055	-0,115
-140,716	-63,629	0,123	0,036
-139,702	800,000	0,048	0,144
-138,687	-70,968	0,114	-0,031
-137,672	-200,000	-0,010	-0,091
-136,658	274,733	0,005	-0,007
-135,643	-47,489	-0,074	-0,026
-134,629	-85,161	0,074	-0,016
-133,614	-139,918	-0,099	0,007
-132,599	-200,000	0,059	-0,000
-131,585	238,098	-0,061	0,073
-130,570	126,968	-0,170	0,155
-129,556	-113,571	0,052	0,007
-128,541	-37,788	-0,146	0,055
-127,526	-200,000	-0,003	0,011
-126,512	24,858	0,048	0,028
-125,497	-200,000	0,006	0,091
-124,483	-171,691	0,071	-0,002
-123,468	274,426	0,076	-0,097
-122,453	-200,000	-0,003	-0,135
-121,439	154,937	0,095	-0,094
-120,424	189,904	-0,064	0,069
