DTS Sentinel unit serial number:	SN410029Multiplexer serial number:	ORYXHardware model number:	OX2-SRSoftware version number:	ORYX F/W v4,00 Oryx Data Collector v3.7.2.0data status	okinstallation	B5 Nyhavnadifferential loss correction	single-endedforward channel	channel 2reverse channel	N/Adate	2023/12/13time	01:42:13forward acquisition time	300,00reverse acquisition time	0,00gamma	499,1914k internal	0,3159k external	0,3159temperature offset calibration	1,0000default loss term (dB/km)	0,3820temperature slope calibration	1,0000multiplexer offset coefficient	1,0000multiplexer slope coefficient	1,0000fibre end	0,00T internal ref (°C)	14,07T ext. ref 1 (°C)	-2,31T ext. ref 2 (°C)	-2,62length (m)	temperature (°C)	Stokes	anti-Stokes-744,400	392,134	0,015	0,023
-743,385	1,955	-0,140	0,074
-742,371	5,786	0,125	0,068
-741,356	-40,096	-0,169	0,065
-740,342	131,396	-0,036	0,034
-739,327	-113,617	-0,317	0,045
-738,312	576,222	0,022	0,040
-737,298	28,543	-0,246	-0,153
-736,283	-124,989	0,146	0,016
-735,269	-92,493	-0,356	0,073
-734,254	-200,000	0,017	-0,072
-733,239	-25,752	-0,564	-0,244
-732,225	-173,709	0,229	-0,005
-731,210	-200,000	-0,027	0,107
-730,196	-200,000	0,001	-0,106
-729,181	113,830	-0,077	0,069
-728,167	-135,565	-0,072	-0,006
-727,152	-200,000	-0,014	-0,128
-726,137	-200,000	0,004	-0,173
-725,123	-200,000	0,030	-0,107
-724,108	20,586	-0,040	-0,024
-723,094	-77,028	0,078	-0,020
-722,079	183,738	-0,088	-0,096
-721,064	800,000	-0,010	0,027
-720,050	-120,431	0,046	0,006
-719,035	74,802	-0,120	-0,093
-718,021	448,338	-0,040	-0,066
-717,006	-152,889	-0,101	-0,005
-715,991	23,780	-0,122	-0,074
-714,977	-5,214	-0,022	0,011
-713,962	-31,580	0,108	-0,045
-712,948	661,300	0,037	0,071
-711,933	-200,000	0,005	0,091
-710,918	-122,430	0,074	-0,009
-709,904	-200,000	-0,009	0,041
-708,889	-58,301	0,112	-0,036
-707,875	3,701	-0,082	-0,044
-706,860	800,000	-0,043	-0,104
-705,845	-200,000	0,005	0,073
-704,831	786,760	-0,007	-0,014
-703,816	-200,000	0,007	0,093
-702,802	101,492	-0,098	-0,084
-701,787	-108,594	-0,063	0,010
-700,772	800,000	-0,030	-0,087
-699,758	84,718	-0,023	0,019
-698,743	129,234	0,102	-0,096
-697,729	-200,000	-0,018	-0,103
-696,714	-55,464	0,053	0,017
-695,699	129,369	-0,082	-0,077
-694,685	-200,000	-0,034	-0,137
-693,670	800,000	-0,060	-0,153
-692,656	-200,000	-0,008	-0,055
-691,641	-200,000	0,031	-0,122
-690,627	76,087	-0,045	0,035
-689,612	61,014	0,063	0,046
-688,597	246,653	-0,069	-0,086
-687,583	81,488	-0,030	0,024
-686,568	-160,517	-0,124	0,005
-685,554	194,491	0,043	-0,047
-684,539	15,083	0,063	-0,036
-683,524	-74,922	0,054	-0,014
-682,510	257,542	-0,022	0,028
-681,495	11,369	0,043	0,024
-680,481	219,035	-0,013	-0,016
-679,466	757,624	-0,049	-0,098
-678,451	266,027	-0,128	-0,164
-677,437	301,994	0,032	-0,043
-676,422	-200,000	0,018	0,141
-675,408	800,000	-0,005	0,013
-674,393	-200,000	-0,009	0,106
-673,378	-115,286	-0,142	0,019
-672,364	282,138	-0,057	0,076
-671,349	800,000	0,051	0,121
-670,335	-133,000	0,056	0,005
-669,320	538,188	-0,021	-0,036
-668,305	800,000	0,048	0,113
-667,291	29,735	0,011	-0,007
-666,276	7,763	-0,035	0,019
-665,262	541,011	-0,069	-0,121
-664,247	157,273	0,046	0,047
-663,232	-162,910	-0,035	-0,001
-662,218	124,236	-0,081	0,075
-661,203	800,000	-0,024	0,074
-660,189	800,000	0,054	0,126
-659,174	640,938	-0,044	0,082
-658,159	-200,000	-0,018	0,104
-657,145	144,576	-0,058	-0,057
-656,130	333,753	-0,145	-0,206
-655,116	420,328	-0,064	0,101
-654,101	215,761	0,019	0,022
-653,086	-63,437	0,085	-0,026
-652,072	-200,000	-0,035	-0,139
-651,057	-200,000	0,012	-0,086
-650,043	-200,000	-0,017	-0,122
-649,028	-200,000	-0,001	-0,018
-648,014	-84,699	-0,045	0,010
-646,999	-200,000	0,027	0,136
-645,984	-118,250	-0,146	0,019
-644,970	-76,010	0,062	0,016
-643,955	-143,249	-0,054	-0,004
-642,941	126,943	-0,050	-0,046
-641,926	-124,823	0,072	0,008
-640,911	-47,982	-0,015	0,005
-639,897	109,241	0,081	0,072
-638,882	-33,507	-0,131	-0,053
-637,868	-200,000	-0,009	-0,039
-636,853	-161,290	-0,076	-0,003
-635,838	-103,721	-0,087	-0,015
-634,824	-200,000	-0,028	-0,139
-633,809	-200,000	-0,001	-0,064
-632,795	55,240	0,072	-0,051
-631,780	470,846	0,056	0,092
-630,765	451,311	0,073	-0,119
-629,751	800,000	0,033	-0,078
-628,736	-99,262	-0,160	-0,029
-627,722	236,450	0,051	0,062
-626,707	344,337	0,086	0,124
-625,692	86,703	-0,045	-0,037
-624,678	665,886	0,030	-0,057
-623,663	-21,897	-0,088	-0,039
-622,649	326,745	0,024	0,033
-621,634	376,276	0,015	0,023
-620,619	-16,452	-0,145	0,067
-619,605	-200,000	0,007	0,071
-618,590	651,269	-0,026	0,049
-617,576	116,849	0,032	-0,029
-616,561	-200,000	-0,006	0,071
-615,546	318,999	-0,037	0,052
-614,532	-200,000	0,006	0,083
-613,517	-200,000	-0,034	-0,214
-612,503	-200,000	-0,009	0,033
-611,488	-200,000	0,029	-0,101
-610,474	-34,264	-0,032	-0,013
-609,459	-152,930	0,071	-0,004
-608,444	-200,000	-0,001	0,109
-607,430	800,000	0,014	0,032
-606,415	51,439	-0,069	-0,048
-605,401	293,247	0,044	0,058
-604,386	-200,000	0,013	0,090
-603,371	183,996	0,035	-0,038
-602,357	24,958	0,114	0,069
-601,342	-200,000	-0,006	-0,144
-600,328	-200,000	0,001	-0,012
-599,313	85,190	-0,120	-0,097
-598,298	-110,083	0,122	0,018
-597,284	-49,688	0,060	0,021
-596,269	29,574	0,035	0,022
-595,255	207,906	0,092	0,105
-594,240	-200,000	-0,034	0,129
-593,225	800,000	-0,019	0,058
-592,211	705,266	0,093	-0,180
-591,196	-103,006	0,053	-0,009
-590,182	202,542	0,075	0,085
-589,167	-100,225	0,186	0,034
-588,152	-200,000	0,005	0,033
-587,138	-200,000	-0,014	0,050
-586,123	-200,000	-0,004	-0,032
-585,109	391,488	-0,071	0,109
-584,094	240,263	-0,049	-0,059
-583,079	-25,702	-0,062	-0,027
-582,065	-67,421	0,022	-0,006
-581,050	42,849	0,016	-0,011
-580,036	22,237	-0,060	-0,036
-579,021	-108,994	-0,022	-0,003
-578,006	26,814	-0,036	-0,022
-576,992	247,506	0,025	0,031
-575,977	-200,000	-0,029	-0,101
-574,963	-152,221	0,039	-0,002
-573,948	-69,003	0,054	-0,015
-572,934	-200,000	-0,013	-0,095
-571,919	82,772	0,044	-0,035
-570,904	-200,000	-0,012	-0,084
-569,890	14,063	-0,030	-0,017
-568,875	592,224	0,026	0,046
-567,861	-200,000	-0,021	-0,084
-566,846	-200,000	0,006	0,036
-565,831	-139,999	0,103	0,008
-564,817	615,979	0,021	0,038
-563,802	785,626	0,067	-0,135
-562,788	-200,000	-0,010	-0,051
-561,773	123,668	-0,083	-0,076
-560,758	-151,269	0,092	-0,005
-559,744	-200,000	0,028	-0,103
-558,729	446,571	0,007	-0,011
-557,715	184,571	0,088	0,096
-556,700	-97,178	-0,126	0,024
-555,685	800,000	0,029	-0,071
-554,671	-200,000	0,137	0,000
-553,656	139,667	-0,071	0,068
-552,642	746,153	0,018	-0,036
-551,627	112,527	0,076	-0,068
-550,612	9,772	-0,091	-0,050
-549,598	11,273	-0,158	-0,088
-548,583	5,843	0,014	-0,008
-547,569	88,680	-0,028	-0,022
-546,554	-200,000	0,030	0,105
-545,539	-167,952	0,079	0,002
-544,525	79,567	-0,076	-0,060
-543,510	123,283	-0,177	-0,162
-542,496	-175,716	0,030	0,001
-541,481	-200,000	-0,010	-0,094
-540,466	-200,000	0,040	0,000
-539,452	-200,000	0,011	0,167
-538,437	-200,000	-0,005	0,036
-537,423	520,068	0,022	-0,037
-536,408	228,673	-0,012	0,014
-535,393	-70,137	-0,048	-0,013
-534,379	225,523	0,054	-0,064
-533,364	-200,000	-0,014	0,116
-532,350	-87,660	-0,131	0,029
-531,335	-116,235	0,124	0,017
-530,321	-200,000	-0,009	0,091
-529,306	232,112	-0,007	-0,008
-528,291	-200,000	0,008	0,037
-527,277	451,498	-0,060	-0,098
-526,262	800,000	0,035	-0,078
-525,248	787,101	-0,036	-0,072
-524,233	-14,851	0,076	0,035
-523,218	-200,000	-0,005	-0,115
-522,204	-167,011	-0,134	0,004
-521,189	-74,992	-0,163	0,042
-520,175	800,000	0,041	-0,110
-519,160	-28,514	-0,088	-0,037
-518,145	800,000	-0,037	-0,099
-517,131	332,514	0,087	0,123
-516,116	-200,000	0,013	0,184
-515,102	-56,966	-0,116	0,037
-514,087	322,000	-0,062	-0,087
-513,072	245,051	-0,062	-0,076
-512,058	30,274	0,059	-0,037
-511,043	111,354	0,107	-0,094
-510,029	395,071	-0,036	0,054
-509,014	-46,632	0,145	-0,052
-507,999	-200,000	0,010	-0,188
-506,985	-169,447	0,097	-0,003
-505,970	-200,000	0,013	-0,099
-504,956	67,759	-0,127	0,095
-503,941	692,715	-0,076	0,146
-502,926	92,193	0,126	0,103
-501,912	-123,509	0,137	-0,016
-500,897	-200,000	-0,013	0,055
-499,883	-67,204	-0,198	0,057
-498,868	233,436	0,082	-0,099
-497,853	-200,000	-0,003	-0,053
-496,839	-45,408	0,108	-0,039
-495,824	10,759	-0,066	0,037
-494,810	189,617	0,050	0,054
-493,795	495,319	-0,044	0,074
-492,781	-140,788	0,093	0,007
-491,766	800,000	0,014	-0,037
-490,751	349,679	-0,034	0,050
-489,737	-106,454	0,070	0,011
-488,722	212,598	0,038	0,044
-487,708	12,489	0,031	-0,017
-486,693	-132,897	-0,049	-0,004
-485,678	800,000	-0,041	0,099
-484,664	654,055	-0,090	-0,169
-483,649	83,726	-0,055	-0,044
-482,635	148,859	-0,048	-0,047
-481,620	-200,000	-0,008	-0,028
-480,605	-87,321	0,026	-0,006
-479,591	-2,948	0,079	-0,040
-478,576	-200,000	0,015	0,059
-477,562	310,071	-0,030	-0,042
-476,547	218,521	-0,047	-0,055
-475,532	-200,000	-0,012	-0,052
-474,518	9,025	0,054	-0,030
-473,503	339,684	-0,023	-0,032
-472,489	-55,016	-0,067	0,022
-471,474	-11,248	0,011	0,005
-470,459	655,807	-0,045	0,085
-469,445	7,190	0,062	0,034
-468,430	-55,114	-0,054	-0,018
-467,416	310,536	0,063	0,086
-466,401	-200,000	0,029	0,178
-465,386	800,000	-0,033	-0,101
-464,372	-10,104	-0,023	-0,011
-463,357	297,588	-0,035	-0,047
-462,343	455,696	-0,057	-0,092
-461,328	-200,000	0,018	-0,165
-460,313	-200,000	0,004	0,081
-459,299	252,521	0,125	-0,156
-458,284	99,155	0,068	0,057
-457,270	800,000	0,035	0,091
-456,255	-70,455	0,063	0,017
-455,241	-200,000	-0,024	-0,133
-454,226	-200,000	-0,013	-0,077
-453,211	-24,757	-0,094	0,041
-452,197	800,000	-0,051	-0,113
-451,182	175,198	0,048	0,051
-450,168	-78,631	-0,122	0,030
-449,153	-168,695	0,039	-0,001
-448,138	-49,665	0,089	-0,031
-447,124	-200,000	-0,044	-0,165
-446,109	184,712	-0,104	-0,113
-445,095	1,241	0,122	0,064
-444,080	-64,392	0,057	-0,017
-443,065	537,030	0,076	-0,132
-442,051	143,383	-0,147	-0,142
-441,036	-33,061	-0,171	0,069
-440,022	674,887	0,035	-0,067
-439,007	-200,000	-0,006	-0,094
-437,992	-200,000	0,002	0,034
-436,978	-200,000	-0,003	0,027
-435,963	-54,960	-0,060	-0,020
-434,949	161,324	0,049	-0,050
-433,934	-124,483	-0,150	-0,017
-432,919	372,381	0,015	0,022
-431,905	-200,000	0,183	0,000
-430,890	-200,000	0,036	0,119
-429,876	43,002	0,070	0,046
-428,861	-44,286	0,084	0,030
-427,846	426,382	0,083	0,131
-426,832	-200,000	-0,002	-0,024
-425,817	-52,280	-0,076	-0,025
-424,803	-40,537	0,136	-0,051
-423,788	214,502	0,102	0,118
-422,773	-169,154	0,071	0,002
-421,759	-200,000	0,029	0,130
-420,744	-7,087	0,046	-0,023
-419,730	-121,578	0,069	0,008
-418,715	230,191	-0,061	0,072
-417,701	208,341	-0,067	-0,076
-416,686	-200,000	0,009	-0,038
-415,671	765,509	-0,040	0,080
-414,657	800,000	-0,015	0,046
-413,642	-132,186	0,016	-0,001
-412,628	95,102	-0,092	0,076
-411,613	272,992	0,022	0,028
-410,598	-130,706	-0,067	-0,006
-409,584	-200,000	0,016	0,233
-408,569	-90,181	0,093	-0,020
-407,555	800,000	-0,066	0,134
-406,540	115,524	-0,039	0,035
-405,525	221,956	-0,037	0,044
-404,511	45,777	0,047	0,031
-403,496	-114,894	-0,149	0,020
-402,482	-41,131	0,106	0,040
-401,467	800,000	0,018	0,040
-400,452	74,465	-0,055	0,042
-399,438	-115,023	0,074	0,010
-398,423	166,262	-0,047	0,049
-397,409	-195,832	0,031	-0,000
-396,394	89,917	0,058	0,047
-395,379	-133,701	-0,107	0,010
-394,365	-117,736	0,149	-0,019
-393,350	-0,115	-0,178	-0,092
-392,336	800,000	0,014	-0,043
-391,321	-200,000	-0,001	0,060
-390,306	-109,296	0,017	-0,003
-389,292	-200,000	-0,007	-0,031
-388,277	-200,000	-0,027	-0,131
-387,263	-200,000	0,019	-0,098
-386,248	169,196	0,066	0,069
-385,233	-72,508	0,095	0,025
-384,219	25,397	0,011	0,007
-383,204	665,606	-0,046	-0,087
-382,190	35,015	-0,061	-0,039
-381,175	-29,546	-0,142	0,058
-380,160	188,794	0,083	0,091
-379,146	-200,000	0,019	-0,102
-378,131	-141,983	0,083	-0,006
-377,117	609,610	-0,069	0,125
-376,102	-200,000	0,018	-0,120
-375,088	-100,700	-0,097	0,017
-374,073	79,577	-0,032	0,025
-373,058	800,000	0,042	0,119
-372,044	800,000	0,037	0,090
-371,029	-200,000	0,009	0,033
-370,015	-200,000	0,013	-0,092
-369,000	800,000	0,008	-0,022
-367,985	228,608	0,073	0,086
-366,971	125,211	-0,028	0,026
-365,956	800,000	-0,052	0,145
-364,942	800,000	-0,039	0,105
-363,927	329,128	-0,092	0,129
-362,912	378,487	0,066	-0,098
-361,898	297,942	-0,075	0,101
-360,883	-200,000	-0,003	-0,014
-359,869	-71,946	0,048	0,013
-358,854	-9,849	0,115	-0,055
-357,839	-108,139	-0,084	-0,013
-356,825	227,731	-0,024	0,029
-355,810	-200,000	0,019	-0,204
-354,796	-60,615	-0,206	0,063
-353,781	-45,770	-0,056	-0,020
-352,766	85,984	-0,056	-0,045
-351,752	343,543	-0,040	-0,057
-350,737	96,579	-0,040	0,033
-349,723	299,271	0,056	0,076
-348,708	-200,000	-0,005	0,097
-347,693	-200,000	0,020	0,080
-346,679	274,156	0,061	-0,078
-345,664	-49,879	-0,135	-0,046
-344,650	-85,316	-0,102	0,023
-343,635	215,519	-0,133	0,153
-342,620	12,361	0,109	0,061
-341,606	16,687	-0,018	0,010
-340,591	661,167	-0,119	-0,223
-339,577	26,909	-0,164	0,100
-338,562	793,358	-0,058	0,116
-337,548	-200,000	-0,015	-0,091
-336,533	800,000	0,030	-0,073
-335,518	108,300	0,118	0,102
-334,504	-145,716	-0,052	0,003
-333,489	181,384	-0,007	0,008
-332,475	-62,444	-0,063	0,019
-331,460	-200,000	-0,019	-0,076
-330,445	18,957	0,030	0,017
-329,431	-86,064	0,095	0,021
-328,416	-200,000	0,010	-0,136
-327,402	-17,732	0,055	-0,025
-326,387	607,704	0,076	0,137
-325,372	800,000	0,030	-0,073
-324,358	-48,244	0,151	-0,053
-323,343	-200,000	0,004	0,124
-322,329	481,774	0,047	-0,077
-321,314	-200,000	0,012	0,049
-320,299	-200,000	-0,001	0,009
-319,285	-91,353	-0,129	-0,027
-318,270	-200,000	-0,021	-0,112
-317,256	800,000	-0,046	-0,111
-316,241	-64,658	-0,016	-0,005
-315,226	25,556	0,115	0,069
-314,212	-14,098	0,104	0,048
-313,197	58,703	0,112	0,079
-312,183	-200,000	-0,003	0,012
-311,168	-72,166	-0,116	0,031
-310,153	252,160	-0,057	-0,070
-309,139	10,659	0,097	0,053
-308,124	125,104	0,066	0,060
-307,110	373,663	-0,073	-0,108
-306,095	194,169	-0,035	0,039
-305,080	-200,000	-0,019	-0,073
-304,066	95,911	0,061	-0,050
-303,051	-24,205	-0,164	-0,070
-302,037	300,309	-0,045	-0,060
-301,022	-104,542	-0,080	0,013
-300,008	-184,875	-0,053	-0,001
-298,993	800,000	0,036	0,076
-297,978	581,386	-0,048	0,085
-296,964	-200,000	0,018	0,086
-295,949	-72,693	0,033	0,009
-294,935	251,677	-0,030	-0,037
-293,920	12,241	0,120	0,067
-292,905	795,805	0,058	0,116
-291,891	-200,000	-0,004	0,051
-290,876	96,081	0,055	0,046
-289,862	-200,000	-0,024	-0,081
-288,847	800,000	-0,085	-0,191
-287,832	-200,000	0,012	-0,055
-286,818	800,000	0,048	-0,140
-285,803	365,904	0,066	-0,097
-284,789	-87,166	-0,066	-0,014
-283,774	25,073	-0,045	-0,027
-282,759	-91,900	-0,040	-0,008
-281,745	229,906	0,065	0,077
-280,730	-121,775	-0,096	0,011
-279,716	-126,937	-0,034	-0,004
-278,701	97,012	0,017	-0,014
-277,686	-200,000	-0,003	0,114
-276,672	-71,156	0,021	-0,006
-275,657	-90,106	-0,116	-0,024
-274,643	800,000	-0,030	-0,089
-273,628	800,000	0,050	-0,119
-272,613	-32,502	-0,132	0,053
-271,599	56,097	-0,012	-0,009
-270,584	80,803	0,079	0,061
-269,570	800,000	-0,040	0,093
-268,555	139,363	0,060	0,058
-267,540	64,418	-0,027	-0,020
-266,526	-77,985	-0,130	0,032
-265,511	800,000	-0,011	-0,023
-264,497	-200,000	-0,033	0,111
-263,482	-200,000	0,029	0,148
-262,467	-200,000	0,002	0,096
-261,453	-79,456	-0,089	-0,022
-260,438	240,272	0,025	-0,030
-259,424	-200,000	0,001	-0,022
-258,409	-200,000	0,005	-0,088
-257,395	101,009	0,062	0,053
-256,380	204,763	0,076	0,085
-255,365	36,057	0,059	0,038
-254,351	616,003	-0,032	0,059
-253,336	-200,000	0,004	0,041
-252,322	-95,268	0,101	0,019
-251,307	11,817	0,029	0,016
-250,292	-138,978	0,009	0,001
-249,278	59,973	0,061	0,044
-248,263	57,225	-0,112	0,079
-247,249	389,338	0,077	-0,115
-246,234	132,918	-0,040	0,037
-245,219	800,000	0,036	0,082
-244,205	-90,162	-0,076	0,016
-243,190	-119,728	0,085	-0,010
-242,176	30,530	0,108	0,066
-241,161	-200,000	0,009	0,065
-240,146	568,388	0,001	0,002
-239,132	-200,000	-0,029	-0,125
-238,117	-200,000	0,031	-0,150
-237,103	193,022	-0,061	0,066
-236,088	140,438	-0,046	0,044
-235,073	-46,994	0,193	0,068
-234,059	398,553	0,027	0,041
-233,044	-200,000	0,003	0,114
-232,030	-33,877	-0,101	0,040
-231,015	-143,460	-0,107	0,007
-230,000	-200,000	-0,007	0,096
-228,986	137,674	-0,024	0,022
-227,971	7,767	-0,118	0,064
-226,957	-200,000	-0,001	0,016
-225,942	-200,000	-0,005	-0,041
-224,927	-200,000	-0,014	0,068
-223,913	-185,334	-0,026	-0,000
-222,898	-200,000	0,004	0,063
-221,884	214,595	0,079	-0,091
-220,869	191,891	0,049	0,054
-219,855	256,104	0,055	-0,068
-218,840	1,578	-0,125	-0,065
-217,825	800,000	0,036	-0,072
-216,811	631,663	-0,070	-0,129
-215,796	535,877	-0,029	-0,050
-214,782	-105,743	0,165	-0,027
-213,767	-50,310	-0,037	-0,013
-212,752	-200,000	0,001	-0,062
-211,738	-200,000	-0,002	-0,049
-210,723	-14,987	0,060	0,028
-209,709	-132,730	0,043	0,004
-208,694	402,752	0,021	-0,033
-207,679	-135,977	0,025	0,002
-206,665	284,362	-0,069	0,090
-205,650	-128,498	0,109	-0,011
-204,636	361,288	0,040	0,058
-203,621	-8,966	0,010	0,005
-202,606	104,115	0,070	0,059
-201,592	131,461	0,170	0,157
-200,577	-98,528	-0,145	0,027
-199,563	-85,766	0,123	-0,027
-198,548	30,192	0,004	0,002
-197,533	61,366	0,083	0,059
-196,519	-40,682	0,065	0,024
-195,504	319,403	-0,048	-0,065
-194,490	800,000	0,029	-0,086
-193,475	-16,837	-0,102	-0,046
-192,460	-200,000	0,011	-0,096
-191,446	-200,000	0,018	0,134
-190,431	126,752	0,009	-0,008
-189,417	45,838	0,046	0,030
-188,402	32,531	0,130	0,081
-187,387	338,477	-0,068	0,095
-186,373	800,000	-0,067	-0,137
-185,358	233,449	0,062	-0,073
-184,344	-171,945	0,054	0,001
-183,329	218,485	-0,065	0,075
-182,315	464,697	0,058	0,093
-181,300	360,906	0,081	-0,117
-180,285	325,925	0,032	0,045
-179,271	489,704	-0,036	-0,059
-178,256	-200,000	-0,002	0,007
-177,242	-200,000	0,014	0,082
-176,227	218,642	0,039	0,045
-175,212	-9,756	-0,148	-0,071
-174,198	521,671	-0,026	0,045
-173,183	-200,000	0,014	-0,110
-172,169	800,000	-0,031	-0,071
-171,154	234,476	0,050	0,059
-170,139	-200,000	-0,029	-0,135
-169,125	-1,830	0,124	-0,063
-168,110	309,870	0,044	-0,059
-167,096	-200,000	0,004	0,057
-166,081	77,077	0,111	-0,085
-165,066	54,857	-0,116	-0,081
-164,052	42,288	0,040	0,026
-163,037	554,160	-0,036	0,062
-162,023	800,000	0,038	-0,098
-161,008	-200,000	-0,002	0,008
-159,993	-200,000	-0,003	-0,054
-158,979	-29,088	-0,133	-0,055
-157,964	206,435	-0,073	-0,082
-156,950	55,426	-0,042	0,029
-155,935	-200,000	0,013	0,128
-154,920	53,075	-0,014	-0,009
-153,906	-200,000	0,002	0,018
-152,891	-200,000	-0,004	-0,058
-151,877	800,000	0,056	-0,143
-150,862	-200,000	-0,002	-0,025
-149,847	-98,001	0,036	0,007
-148,833	281,406	-0,035	0,045
-147,818	162,507	0,221	0,224
-146,804	23,287	0,038	0,023
-145,789	349,018	0,039	-0,055
-144,775	476,198	-0,074	-0,121
-143,760	800,000	-0,038	-0,081
-142,745	-200,000	-0,012	-0,086
-141,731	-200,000	0,002	0,010
-140,716	-98,590	0,073	0,013
-139,702	137,728	-0,034	0,032
-138,687	-200,000	0,011	0,130
-137,672	85,213	-0,091	-0,071
-136,658	800,000	0,061	-0,138
-135,643	98,226	-0,012	0,010
-134,629	163,677	-0,071	-0,072
-133,614	-174,685	-0,062	-0,001
-132,599	-200,000	-0,036	0,161
-131,585	16,671	-0,068	0,039
-130,570	-127,941	-0,029	-0,003
-129,556	103,004	0,074	0,062
-128,541	207,128	-0,055	-0,062
-127,526	800,000	0,018	0,045
-126,512	149,422	0,036	-0,035
-125,497	-200,000	0,002	0,065
-124,483	222,784	-0,046	-0,053
-123,468	-200,000	0,002	0,011
-122,453	-101,156	-0,184	0,032
-121,439	-68,425	0,008	0,002
-120,424	162,858	-0,025	0,026
-119,410	-103,313	0,084	-0,014
