DTS Sentinel unit serial number:	SN410029Multiplexer serial number:	ORYXHardware model number:	OX2-SRSoftware version number:	ORYX F/W v4,00 Oryx Data Collector v3.7.2.0data status	okinstallation	B5 Nyhavnadifferential loss correction	single-endedforward channel	channel 2reverse channel	N/Adate	2023/12/14time	17:02:13forward acquisition time	300,00reverse acquisition time	0,00gamma	499,1914k internal	0,3158k external	0,3158temperature offset calibration	1,0000default loss term (dB/km)	0,3820temperature slope calibration	1,0000multiplexer offset coefficient	1,0000multiplexer slope coefficient	1,0000fibre end	0,00T internal ref (°C)	8,12T ext. ref 1 (°C)	-7,26T ext. ref 2 (°C)	-7,29length (m)	temperature (°C)	Stokes	anti-Stokes-744,400	-71,739	0,153	0,042
-743,385	-156,062	-0,175	-0,008
-742,371	455,360	0,104	0,171
-741,356	-88,444	-0,423	-0,092
-740,342	-41,760	0,166	0,062
-739,327	-82,473	-0,397	-0,094
-738,312	60,427	0,094	0,068
-737,298	-67,843	-0,433	-0,124
-736,283	281,330	0,099	0,131
-735,269	42,182	-0,281	-0,188
-734,254	145,152	0,152	0,150
-733,239	-18,349	-0,571	-0,262
-732,225	-58,526	0,363	0,115
-731,210	800,000	0,060	0,141
-730,196	392,168	-0,016	0,024
-729,181	-1,787	0,010	0,005
-728,167	-200,000	-0,008	0,043
-727,152	27,794	0,045	0,028
-726,137	-78,743	-0,131	-0,033
-725,123	48,333	-0,118	-0,081
-724,108	800,000	0,074	-0,169
-723,094	302,354	-0,110	-0,150
-722,079	-86,776	0,063	-0,014
-721,064	348,045	0,099	-0,144
-720,050	330,598	-0,101	-0,143
-719,035	712,680	0,026	-0,052
-718,021	-21,405	-0,109	-0,049
-717,006	-53,344	-0,139	0,047
-715,991	800,000	0,043	-0,106
-714,977	1,529	-0,196	-0,104
-713,962	-200,000	0,001	0,026
-712,948	-58,553	0,062	0,020
-711,933	-124,900	-0,100	-0,011
-710,918	270,401	-0,020	0,026
-709,904	341,208	-0,092	-0,133
-708,889	-200,000	0,000	-0,093
-707,875	180,177	-0,040	-0,043
-706,860	74,067	-0,057	0,044
-705,845	-200,000	-0,000	0,023
-704,831	168,334	0,042	0,044
-703,816	800,000	0,029	-0,082
-702,802	749,570	-0,019	-0,038
-701,787	-200,000	-0,000	-0,028
-700,772	-200,000	-0,018	0,074
-699,758	-200,000	-0,011	-0,232
-698,743	85,523	-0,081	-0,065
-697,729	800,000	0,027	0,059
-696,714	42,587	-0,028	-0,019
-695,699	-200,000	-0,013	-0,068
-694,685	169,125	-0,086	-0,091
-693,670	26,070	0,061	0,038
-692,656	-200,000	0,023	-0,087
-691,641	-96,799	0,174	-0,033
-690,627	800,000	0,073	0,156
-689,612	75,281	-0,062	0,048
-688,597	261,712	0,096	0,123
-687,583	2,110	-0,116	-0,062
-686,568	42,861	-0,049	-0,033
-685,554	404,290	-0,029	-0,045
-684,539	-71,726	-0,050	-0,014
-683,524	196,588	-0,058	-0,065
-682,510	43,759	-0,015	0,010
-681,495	800,000	0,014	-0,044
-680,481	-200,000	0,005	0,021
-679,466	154,581	0,058	-0,059
-678,451	6,112	-0,017	0,009
-677,437	263,434	0,064	0,081
-676,422	800,000	-0,038	0,098
-675,408	93,865	0,045	0,038
-674,393	-200,000	-0,008	-0,071
-673,378	-185,007	-0,016	0,000
-672,364	-19,682	0,038	-0,017
-671,349	210,253	-0,103	0,119
-670,335	-200,000	-0,010	-0,110
-669,320	330,170	0,052	0,074
-668,305	-171,479	-0,105	-0,003
-667,291	-200,000	0,007	-0,033
-666,276	800,000	-0,052	-0,110
-665,262	-47,044	0,120	0,043
-664,247	526,775	-0,018	0,032
-663,232	-200,000	0,022	0,071
-662,218	92,281	-0,102	0,085
-661,203	-36,341	0,099	0,039
-660,189	739,255	-0,041	-0,081
-659,174	-200,000	-0,023	-0,099
-658,159	129,086	-0,121	-0,113
-657,145	800,000	0,042	-0,126
-656,130	415,879	0,035	0,054
-655,116	-33,697	0,073	0,029
-654,101	800,000	-0,062	0,165
-653,086	-83,738	-0,043	0,010
-652,072	267,136	0,084	0,108
-651,057	-200,000	-0,024	0,115
-650,043	-57,797	0,034	0,011
-649,028	27,436	-0,039	-0,024
-648,014	-133,971	0,038	-0,003
-646,999	258,622	-0,060	0,076
-645,984	-77,067	0,042	0,011
-644,970	623,304	0,022	0,041
-643,955	-200,000	-0,008	-0,077
-642,941	121,027	-0,111	-0,101
-641,926	-200,000	0,015	-0,054
-640,911	3,728	0,077	0,041
-639,897	255,911	-0,050	0,064
-638,882	800,000	0,020	-0,062
-637,868	-200,000	-0,009	-0,087
-636,853	559,759	-0,044	-0,079
-635,838	655,599	0,043	-0,082
-634,824	41,300	-0,209	-0,139
-633,809	22,096	-0,061	0,037
-632,795	-6,226	0,087	-0,043
-631,780	-148,015	-0,155	-0,009
-630,765	448,624	0,046	0,075
-629,751	14,124	0,065	0,037
-628,736	-128,146	-0,131	0,014
-627,722	800,000	0,065	-0,161
-626,707	800,000	0,008	0,019
-625,692	-200,000	-0,022	0,143
-624,678	-24,432	-0,121	0,053
-623,663	-19,168	-0,047	0,021
-622,649	-24,177	0,052	-0,022
-621,634	671,438	0,047	0,090
-620,619	182,566	-0,119	-0,129
-619,605	-60,087	0,123	0,038
-618,590	-200,000	-0,014	0,076
-617,576	-75,213	-0,035	-0,009
-616,561	61,093	-0,059	-0,043
-615,546	375,293	0,058	-0,086
-614,532	-159,063	-0,105	0,004
-613,517	242,754	-0,048	-0,059
-612,503	-157,301	0,065	-0,003
-611,488	251,187	0,085	0,106
-610,474	377,258	0,015	0,023
-609,459	-200,000	-0,005	-0,032
-608,444	-200,000	0,010	0,086
-607,430	-9,591	-0,043	-0,021
-606,415	-87,010	-0,139	-0,031
-605,401	0,548	-0,026	0,014
-604,386	-12,253	0,041	-0,020
-603,371	-70,786	0,019	-0,005
-602,357	480,100	-0,041	0,068
-601,342	7,107	-0,062	-0,034
-600,328	-34,571	-0,098	-0,039
-599,313	-200,000	0,021	-0,110
-598,298	-147,356	-0,043	-0,003
-597,284	-44,461	0,176	0,064
-596,269	-61,254	-0,061	-0,019
-595,255	57,673	-0,082	0,059
-594,240	-200,000	0,027	-0,117
-593,225	800,000	-0,019	-0,053
-592,211	-92,026	-0,096	-0,020
-591,196	37,793	-0,162	0,105
-590,182	800,000	0,062	-0,131
-589,167	665,425	0,062	0,119
-588,152	358,257	-0,040	-0,059
-587,138	800,000	-0,034	-0,071
-586,123	-200,000	-0,009	-0,063
-585,109	-200,000	0,018	-0,071
-584,094	-200,000	-0,055	-0,201
-583,079	-200,000	0,013	0,053
-582,065	-109,469	0,112	0,017
-581,050	-200,000	0,038	0,151
-580,036	248,979	-0,012	0,015
-579,021	-200,000	0,027	-0,179
-578,006	113,088	-0,019	0,017
-576,992	-145,924	0,170	0,011
-575,977	-112,179	-0,045	-0,007
-574,963	296,795	0,036	-0,049
-573,948	-200,000	0,025	-0,112
-572,934	5,855	-0,099	0,054
-571,919	216,533	-0,097	-0,113
-570,904	-200,000	-0,018	0,114
-569,890	800,000	0,023	0,072
-568,875	-73,695	0,096	-0,026
-567,861	-200,000	0,003	-0,025
-566,846	-94,167	0,043	0,009
-565,831	-200,000	0,002	-0,126
-564,817	-79,107	0,140	-0,034
-563,802	-99,369	-0,121	0,022
-562,788	623,230	-0,017	0,032
-561,773	-200,000	-0,007	-0,077
-560,758	355,921	-0,013	-0,019
-559,744	41,787	-0,034	0,022
-558,729	-110,108	0,104	-0,016
-557,715	162,724	-0,050	0,052
-556,700	-200,000	0,035	-0,125
-555,685	800,000	-0,021	0,056
-554,671	88,019	-0,023	0,018
-553,656	-200,000	0,001	0,093
-552,642	-163,222	0,179	-0,006
-551,627	288,702	0,024	-0,031
-550,612	449,579	-0,079	-0,127
-549,598	-200,000	0,005	-0,040
-548,583	518,220	0,040	0,070
-547,569	-200,000	0,004	0,058
-546,554	329,603	0,071	0,100
-545,539	164,375	0,090	-0,093
-544,525	23,969	-0,081	-0,049
-543,510	-11,079	0,071	0,034
-542,496	425,277	-0,066	-0,104
-541,481	800,000	-0,049	0,099
-540,466	254,035	0,082	0,103
-539,452	-141,805	-0,019	0,001
-538,437	-96,965	0,005	-0,001
-537,423	-200,000	0,026	0,150
-536,408	-42,390	0,024	-0,009
-535,393	555,524	-0,079	-0,140
-534,379	800,000	-0,042	-0,134
-533,364	-87,010	-0,059	-0,013
-532,350	-87,689	0,134	-0,029
-531,335	-21,795	0,194	0,086
-530,321	-200,000	0,001	0,012
-529,306	-200,000	0,002	-0,034
-528,291	251,094	0,053	-0,066
-527,277	-74,218	0,071	-0,019
-526,262	-51,650	-0,077	-0,026
-525,248	125,001	-0,077	0,071
-524,233	800,000	-0,047	0,104
-523,218	-200,000	-0,013	-0,080
-522,204	800,000	0,023	0,053
-521,189	-200,000	-0,009	0,030
-520,175	-200,000	0,039	0,178
-519,160	39,955	0,035	-0,023
-518,145	-103,849	0,122	-0,021
-517,131	61,632	0,048	-0,035
-516,116	230,618	-0,053	0,063
-515,102	-59,989	-0,130	0,040
-514,087	-127,990	0,023	0,002
-513,072	-200,000	-0,012	-0,222
-512,058	296,128	0,103	0,138
-511,043	-17,860	0,126	0,057
-510,029	-94,480	0,045	0,009
-509,014	-105,432	0,068	0,011
-507,999	-200,000	-0,010	0,173
-506,985	226,778	0,043	-0,051
-505,970	47,346	0,078	-0,053
-504,956	240,945	-0,083	-0,102
-503,941	44,460	0,074	0,050
-502,926	180,690	-0,063	0,068
-501,912	800,000	0,043	-0,121
-500,897	336,095	-0,054	-0,077
-499,883	43,204	-0,086	0,057
-498,868	800,000	0,035	0,098
-497,853	28,687	-0,042	-0,026
-496,839	320,128	0,057	-0,080
-495,824	90,215	-0,032	-0,026
-494,810	115,377	0,100	0,089
-493,795	-3,331	-0,095	0,048
-492,781	6,719	0,065	-0,035
-491,766	-200,000	0,038	-0,167
-490,751	52,237	-0,100	-0,069
-489,737	140,037	0,110	0,106
-488,722	-112,254	0,096	0,014
-487,708	-73,513	-0,055	0,015
-486,693	-200,000	-0,007	-0,077
-485,678	209,434	-0,137	0,157
-484,664	656,148	0,050	-0,093
-483,649	800,000	0,027	-0,069
-482,635	-21,026	0,099	-0,044
-481,620	-200,000	0,021	0,077
-480,605	79,567	-0,052	0,040
-479,591	-20,114	0,036	-0,016
-478,576	-198,614	0,199	-0,001
-477,562	179,274	-0,119	-0,127
-476,547	332,044	-0,066	0,093
-475,532	0,014	-0,048	0,025
-474,518	4,852	0,138	0,074
-473,503	144,521	0,054	0,053
-472,489	257,853	0,074	0,093
-471,474	-200,000	0,028	0,130
-470,459	60,980	-0,073	0,053
-469,445	800,000	-0,045	-0,095
-468,430	-200,000	-0,021	-0,069
-467,416	-135,718	0,063	0,005
-466,401	-123,486	0,151	-0,017
-465,386	-102,312	0,068	0,012
-464,372	784,453	-0,071	0,143
-463,357	-131,156	-0,080	0,008
-462,343	-33,392	-0,035	0,014
-461,328	564,762	0,024	-0,042
-460,313	-186,459	-0,014	-0,000
-459,299	-99,690	0,121	-0,022
-458,284	0,158	-0,065	-0,034
-457,270	-200,000	0,015	0,108
-456,255	-200,000	0,009	0,035
-455,241	-46,941	-0,088	-0,031
-454,226	244,019	0,066	0,081
-453,211	170,034	0,050	0,053
-452,197	307,828	0,090	0,123
-451,182	-200,000	0,009	0,037
-450,168	-200,000	0,015	-0,088
-449,153	800,000	0,054	0,154
-448,138	-200,000	-0,007	-0,053
-447,124	-9,823	0,146	0,070
-446,109	37,686	-0,057	0,037
-445,095	800,000	-0,027	-0,076
-444,080	172,407	0,014	0,014
-443,065	11,233	-0,095	0,053
-442,051	-62,238	0,106	-0,032
-441,036	90,202	-0,099	-0,081
-440,022	97,908	0,074	0,062
-439,007	104,173	-0,121	-0,104
-437,992	-67,014	0,024	0,007
-436,978	-49,014	0,098	0,034
-435,963	-200,000	-0,000	-0,074
-434,949	800,000	0,035	-0,079
-433,934	-11,827	0,097	-0,046
-432,919	214,960	-0,117	-0,135
-431,905	15,860	0,044	0,025
-430,890	-173,420	-0,049	0,001
-429,876	321,537	0,043	0,060
-428,861	237,652	-0,050	0,061
-427,846	-28,067	-0,001	0,001
-426,832	678,587	-0,035	0,066
-425,817	-200,000	-0,010	0,068
-424,803	800,000	-0,037	-0,090
-423,788	32,407	0,043	-0,027
-422,773	-117,846	0,271	0,035
-421,759	748,766	0,028	0,056
-420,744	-135,051	-0,090	0,008
-419,730	-142,134	-0,061	-0,004
-418,715	0,749	0,017	0,009
-417,701	97,907	0,045	-0,038
-416,686	800,000	-0,036	-0,086
-415,671	403,571	0,092	-0,142
-414,657	-69,635	-0,020	-0,005
-413,642	-200,000	0,006	-0,052
-412,628	-116,794	-0,079	0,010
-411,613	-191,933	-0,193	-0,001
-410,598	-122,615	0,058	0,007
-409,584	136,579	-0,070	-0,066
-408,569	123,435	0,124	-0,113
-407,555	-158,846	-0,042	0,002
-406,540	-33,947	0,154	-0,062
-405,525	-52,920	-0,061	-0,020
-404,511	-156,850	-0,113	0,005
-403,496	97,420	0,150	-0,125
-402,482	-79,551	0,040	0,010
-401,467	-200,000	-0,011	-0,086
-400,452	-200,000	-0,010	-0,035
-399,438	68,187	0,028	-0,021
-398,423	-200,000	-0,010	-0,050
-397,409	-118,262	-0,196	0,025
-396,394	61,222	-0,096	0,069
-395,379	-28,452	0,088	0,037
-394,365	800,000	0,036	0,095
-393,350	-62,679	-0,086	0,026
-392,336	13,828	0,066	0,037
-391,321	-37,668	-0,060	0,023
-390,306	677,562	0,010	0,019
-389,292	318,543	-0,092	-0,127
-388,277	-27,795	-0,173	0,073
-387,263	173,020	-0,031	0,033
-386,248	-111,492	-0,096	-0,014
-385,233	-124,567	-0,155	0,017
-384,219	-100,922	-0,176	0,031
-383,204	156,052	-0,062	-0,062
-382,190	96,676	0,084	-0,070
-381,175	-200,000	0,015	0,189
-380,160	-200,000	-0,028	0,090
-379,146	-29,037	0,091	0,038
-378,131	292,697	0,051	-0,067
-377,117	800,000	-0,058	-0,137
-376,102	-43,837	-0,066	0,024
-375,088	800,000	-0,055	-0,121
-374,073	63,422	-0,069	-0,050
-373,058	-200,000	0,003	0,102
-372,044	-200,000	0,010	0,061
-371,029	-63,215	0,041	-0,012
-370,015	-161,931	-0,114	-0,004
-369,000	-87,127	0,040	-0,009
-367,985	800,000	-0,023	0,062
-366,971	-36,108	-0,095	0,037
-365,956	800,000	0,027	0,063
-364,942	54,166	-0,090	0,063
-363,927	-200,000	0,006	-0,113
-362,912	679,048	-0,015	-0,028
-361,898	-85,537	-0,130	0,029
-360,883	800,000	-0,023	-0,053
-359,869	-200,000	0,003	0,122
-358,854	664,654	-0,042	0,079
-357,839	-123,926	0,116	0,013
-356,825	800,000	0,024	0,068
-355,810	1,628	-0,063	-0,033
-354,796	277,056	0,093	0,120
-353,781	-106,911	0,056	-0,009
-352,766	222,798	0,031	0,036
-351,752	150,532	-0,064	0,063
-350,737	297,192	0,082	0,109
-349,723	-200,000	-0,037	0,146
-348,708	-115,897	0,161	-0,022
-347,693	259,884	-0,079	-0,100
-346,679	-51,824	-0,033	-0,011
-345,664	-171,748	-0,059	0,001
-344,650	-200,000	-0,007	-0,216
-343,635	-10,084	0,158	0,076
-342,620	-200,000	0,028	0,177
-341,606	-200,000	-0,004	-0,022
-340,591	-70,837	-0,080	-0,022
-339,577	227,510	-0,004	-0,005
-338,562	-65,816	-0,127	0,037
-337,548	-52,190	0,116	-0,039
-336,533	-103,382	-0,085	0,014
-335,518	166,179	0,056	-0,057
-334,504	60,471	-0,032	-0,023
-333,489	51,959	0,096	-0,066
-332,475	-36,500	-0,121	0,047
-331,460	-75,055	-0,067	-0,017
-330,445	244,906	0,027	-0,033
-329,431	-200,000	0,023	0,129
-328,416	620,196	0,025	0,046
-327,402	235,758	0,050	0,060
-326,387	-200,000	0,008	0,148
-325,372	-88,424	-0,125	-0,027
-324,358	-166,584	0,189	0,006
-323,343	-102,588	0,053	0,009
-322,329	-200,000	-0,001	-0,233
-321,314	-98,516	0,130	-0,024
-320,299	-66,754	-0,176	-0,050
-319,285	-200,000	0,009	0,047
-318,270	-200,000	0,031	-0,116
-317,256	800,000	-0,044	-0,121
-316,241	416,576	0,046	-0,071
-315,226	125,104	0,043	-0,039
-314,212	-200,000	0,017	-0,149
-313,197	-200,000	0,002	0,147
-312,183	-57,618	-0,022	-0,007
-311,168	70,726	-0,028	0,021
-310,153	136,446	-0,042	-0,040
-309,139	800,000	0,053	-0,126
-308,124	-200,000	-0,013	0,061
-307,110	-125,303	0,023	0,002
-306,095	800,000	0,041	0,094
-305,080	-18,175	-0,177	-0,080
-304,066	-200,000	0,003	0,091
-303,051	-200,000	-0,047	-0,159
-302,037	-82,225	0,090	0,021
-301,022	-60,251	0,092	0,028
-300,008	57,918	0,088	-0,062
-298,993	527,769	0,015	0,025
-297,978	-92,600	-0,045	-0,009
-296,964	800,000	-0,010	-0,023
-295,949	-200,000	-0,004	0,074
-294,935	-200,000	0,007	0,117
-293,920	792,244	-0,014	-0,029
-292,905	-176,698	0,180	-0,003
-291,891	403,244	-0,054	0,082
-290,876	-200,000	-0,008	0,060
-289,862	86,599	-0,092	-0,074
-288,847	162,648	-0,079	-0,081
-287,832	-145,343	0,088	0,006
-286,818	16,047	-0,131	0,074
-285,803	305,744	0,100	0,135
-284,789	54,027	-0,048	0,033
-283,774	800,000	0,067	-0,199
-282,759	-58,542	-0,156	-0,049
-281,745	-200,000	-0,007	0,110
-280,730	800,000	0,026	-0,065
-279,716	-200,000	0,004	0,093
-278,701	-0,102	-0,003	-0,002
-277,686	41,855	0,012	0,008
-276,672	30,480	-0,066	0,041
-275,657	-200,000	-0,017	0,124
-274,643	-37,954	-0,133	0,051
-273,628	-200,000	-0,004	-0,142
-272,613	25,341	-0,143	0,086
-271,599	69,762	0,132	0,099
-270,584	363,943	0,086	0,125
-269,570	-200,000	0,000	0,049
-268,555	736,725	0,041	0,079
-267,540	-58,833	0,067	0,021
-266,526	80,983	0,035	-0,027
-265,511	580,205	0,092	-0,163
-264,497	800,000	-0,063	0,129
-263,482	18,742	0,142	0,082
-262,467	-0,610	0,028	0,015
-261,453	-73,602	-0,197	0,052
-260,438	-98,775	-0,050	-0,009
-259,424	800,000	-0,032	0,070
-258,409	-59,358	0,079	-0,024
-257,395	-200,000	0,009	0,091
-256,380	312,668	0,043	0,059
-255,365	236,296	0,027	0,033
-254,351	170,667	0,059	0,061
-253,336	-127,251	0,121	0,013
-252,322	-200,000	-0,007	-0,098
-251,307	-200,000	-0,026	-0,083
-250,292	-200,000	0,018	-0,086
-249,278	-48,997	0,034	0,012
-248,263	-42,484	0,097	-0,036
-247,249	280,509	-0,043	0,056
-246,234	-200,000	-0,015	0,057
-245,219	-53,168	-0,017	-0,006
-244,205	187,878	-0,051	-0,056
-243,190	-181,032	-0,041	-0,001
-242,176	489,615	0,033	0,054
-241,161	379,191	-0,026	0,039
-240,146	-151,671	0,015	-0,001
-239,132	194,731	0,030	-0,032
-238,117	401,424	-0,130	-0,198
-237,103	122,785	0,116	-0,105
-236,088	-89,139	-0,157	-0,033
-235,073	-32,250	0,080	-0,032
-234,059	-42,491	0,133	-0,049
-233,044	501,525	-0,018	0,031
-232,030	377,390	0,025	0,038
-231,015	-53,379	0,082	0,027
-230,000	605,583	0,044	-0,079
-228,986	-200,000	0,025	-0,167
-227,971	58,812	0,094	-0,066
-226,957	800,000	0,018	0,056
-225,942	-200,000	-0,007	0,053
-224,927	-200,000	-0,015	-0,090
-223,913	-200,000	0,001	0,047
-222,898	59,166	0,038	-0,027
-221,884	181,274	-0,025	-0,027
-220,869	-41,722	0,116	0,043
-219,855	-200,000	0,003	-0,033
-218,840	800,000	0,086	0,181
-217,825	-29,880	-0,051	0,021
-216,811	-115,913	-0,052	-0,007
-215,796	-106,977	-0,111	0,018
-214,782	800,000	-0,054	-0,153
-213,767	52,258	-0,031	0,022
-212,752	75,609	0,070	0,054
-211,738	143,805	0,122	0,117
-210,723	27,041	-0,169	0,102
-209,709	-200,000	0,078	-0,260
-208,694	43,507	0,033	-0,022
-207,679	-47,873	-0,073	-0,025
-206,665	-20,311	0,079	-0,035
-205,650	-200,000	-0,001	0,068
-204,636	-117,633	0,055	0,007
-203,621	-41,500	-0,017	-0,006
-202,606	-0,554	0,087	-0,045
-201,592	800,000	-0,043	-0,087
-200,577	261,408	0,123	-0,154
-199,563	-200,000	-0,005	0,058
-198,548	-200,000	0,015	0,068
-197,533	405,869	-0,017	0,027
-196,519	-22,734	-0,045	0,020
-195,504	115,585	-0,113	0,099
-194,490	-117,074	0,040	0,005
-193,475	327,547	-0,019	0,027
-192,460	-0,594	0,027	-0,014
-191,446	-200,000	-0,012	-0,139
-190,431	195,733	0,112	0,123
-189,417	-200,000	-0,009	0,163
-188,402	800,000	-0,035	0,086
-187,387	-200,000	-0,029	-0,095
-186,373	-23,451	-0,065	0,028
-185,358	-200,000	-0,002	-0,107
-184,344	-69,931	0,165	0,045
-183,329	-200,000	-0,004	-0,028
-182,315	286,470	-0,060	0,079
-181,300	181,910	0,013	-0,014
-180,285	-158,021	-0,170	0,007
-179,271	-200,000	-0,022	-0,105
-178,256	159,305	0,033	0,033
-177,242	-103,345	0,019	-0,003
-176,227	-89,125	-0,075	-0,016
-175,212	-7,307	-0,053	0,026
-174,198	-121,485	-0,124	0,015
-173,183	-200,000	0,021	-0,137
-172,169	78,206	-0,089	0,068
-171,154	-200,000	-0,003	-0,020
-170,139	-94,206	-0,059	0,012
-169,125	61,817	-0,084	-0,060
-168,110	800,000	0,079	0,158
-167,096	800,000	-0,035	0,081
-166,081	-200,000	-0,021	0,075
-165,066	142,716	0,095	0,091
-164,052	-200,000	-0,007	0,146
-163,037	-200,000	-0,006	0,080
-162,023	800,000	0,052	0,146
-161,008	-200,000	-0,038	-0,126
-159,993	-200,000	0,003	-0,142
-158,979	-200,000	-0,016	-0,093
-157,964	-73,663	-0,053	-0,014
-156,950	188,604	0,043	-0,047
-155,935	137,916	-0,057	-0,054
-154,920	283,441	0,043	0,055
-153,906	-200,000	-0,007	0,038
-152,891	176,593	-0,089	-0,093
-151,877	-69,405	0,068	0,019
-150,862	-37,427	0,050	-0,019
-149,847	-200,000	0,015	0,091
-148,833	-200,000	0,030	-0,239
-147,818	-200,000	0,198	-0,001
-146,804	-200,000	-0,007	0,059
-145,789	707,400	-0,036	-0,069
-144,775	21,422	-0,132	0,077
-143,760	112,194	0,069	-0,060
-142,745	0,675	-0,027	-0,014
-141,731	800,000	-0,064	0,167
-140,716	376,711	0,019	-0,028
-139,702	800,000	-0,027	0,062
-138,687	-35,865	-0,100	-0,039
-137,672	51,886	-0,026	0,018
-136,658	164,349	-0,108	-0,110
-135,643	-200,000	0,021	-0,067
-134,629	-200,000	-0,009	0,180
-133,614	32,468	-0,013	-0,008
-132,599	-102,899	0,142	0,024
-131,585	-200,000	-0,014	-0,097
-130,570	408,084	-0,027	-0,041
-129,556	15,947	-0,120	-0,068
-128,541	-140,005	-0,152	-0,011
-127,526	-63,211	-0,137	-0,040
-126,512	-101,032	-0,077	-0,013
-125,497	-52,164	0,038	0,012
-124,483	-152,544	-0,087	0,004
-123,468	136,231	0,045	0,043
-122,453	-200,000	0,002	-0,113
-121,439	583,904	-0,064	0,113
-120,424	261,120	0,015	0,019
-119,410	-200,000	0,020	0,162
