DTS Sentinel unit serial number:	SN410029Multiplexer serial number:	ORYXHardware model number:	OX2-SRSoftware version number:	ORYX F/W v4,00 Oryx Data Collector v3.7.2.0data status	okinstallation	B5 Nyhavnadifferential loss correction	single-endedforward channel	channel 2reverse channel	N/Adate	2023/12/14time	10:47:13forward acquisition time	300,00reverse acquisition time	0,00gamma	499,1914k internal	0,3161k external	0,3161temperature offset calibration	1,0000default loss term (dB/km)	0,3820temperature slope calibration	1,0000multiplexer offset coefficient	1,0000multiplexer slope coefficient	1,0000fibre end	0,00T internal ref (°C)	7,06T ext. ref 1 (°C)	-8,34T ext. ref 2 (°C)	-8,38length (m)	temperature (°C)	Stokes	anti-Stokes-744,400	87,925	0,155	0,126
-743,385	-152,299	-0,339	0,018
-742,371	-79,771	0,236	0,058
-741,356	-155,782	-0,473	-0,022
-740,342	160,896	0,181	0,186
-739,327	-103,797	-0,311	-0,053
-738,312	-200,000	-0,008	0,072
-737,298	-82,041	-0,428	-0,102
-736,283	-30,410	0,061	-0,026
-735,269	-58,878	-0,273	-0,086
-734,254	153,474	0,115	0,116
-733,239	-16,464	-0,448	-0,208
-732,225	21,082	0,273	0,162
-731,210	3,757	-0,078	0,042
-730,196	184,946	-0,027	-0,030
-729,181	-124,153	-0,216	-0,025
-728,167	-9,170	0,124	0,061
-727,152	60,172	0,052	-0,038
-726,137	-143,836	-0,108	-0,007
-725,123	-112,192	-0,079	0,012
-724,108	277,518	-0,063	-0,082
-723,094	232,906	-0,065	-0,078
-722,079	244,439	-0,065	-0,081
-721,064	-200,000	0,058	0,278
-720,050	-5,105	-0,125	0,063
-719,035	105,032	-0,065	0,056
-718,021	110,149	-0,083	0,074
-717,006	128,031	-0,035	-0,033
-715,991	154,651	-0,138	-0,139
-714,977	-200,000	-0,025	-0,127
-713,962	800,000	-0,014	0,028
-712,948	800,000	-0,026	-0,058
-711,933	606,790	0,062	-0,113
-710,918	-40,972	0,122	-0,046
-709,904	20,334	-0,086	-0,051
-708,889	745,038	0,077	-0,153
-707,875	-200,000	-0,056	-0,194
-706,860	546,323	-0,007	0,012
-705,845	342,541	-0,025	-0,037
-704,831	224,526	-0,081	0,097
-703,816	-31,387	-0,175	-0,072
-702,802	226,818	0,040	-0,048
-701,787	-116,378	-0,115	-0,015
-700,772	171,979	0,157	0,166
-699,758	77,538	0,045	-0,035
-698,743	-47,939	0,221	0,078
-697,729	-120,714	0,059	0,007
-696,714	-200,000	-0,004	0,117
-695,699	258,147	-0,059	-0,075
-694,685	800,000	-0,011	0,026
-693,670	178,021	-0,086	-0,092
-692,656	-200,000	-0,023	0,077
-691,641	-200,000	0,019	0,222
-690,627	549,950	-0,081	0,144
-689,612	-91,937	0,054	0,011
-688,597	129,203	0,082	0,077
-687,583	-114,915	-0,092	-0,013
-686,568	8,377	-0,081	-0,045
-685,554	-97,951	-0,135	-0,025
-684,539	800,000	-0,023	-0,057
-683,524	323,809	0,064	0,091
-682,510	-200,000	-0,003	0,055
-681,495	318,851	-0,042	-0,059
-680,481	-200,000	-0,019	0,095
-679,466	-200,000	-0,035	-0,169
-678,451	-128,946	-0,058	-0,006
-677,437	253,508	-0,039	-0,049
-676,422	61,966	0,017	0,012
-675,408	-200,000	-0,006	-0,023
-674,393	-20,889	-0,070	-0,031
-673,378	-108,292	-0,133	0,021
-672,364	-200,000	-0,025	0,089
-671,349	361,513	0,049	-0,073
-670,335	-200,000	-0,000	-0,053
-669,320	-77,529	0,118	-0,030
-668,305	800,000	-0,024	-0,058
-667,291	403,573	-0,041	-0,063
-666,276	800,000	-0,048	-0,109
-665,262	-88,352	0,107	0,023
-664,247	576,039	0,072	-0,130
-663,232	567,579	0,049	-0,087
-662,218	254,607	-0,044	0,055
-661,203	413,646	-0,054	-0,085
-660,189	800,000	0,020	0,043
-659,174	175,433	-0,071	0,076
-658,159	-107,334	-0,044	0,007
-657,145	800,000	-0,009	0,021
-656,130	134,371	0,065	0,062
-655,116	800,000	-0,050	-0,110
-654,101	800,000	-0,041	0,126
-653,086	-200,000	0,061	0,273
-652,072	-28,357	-0,157	0,066
-651,057	148,362	-0,106	-0,106
-650,043	-200,000	-0,005	-0,145
-649,028	800,000	-0,014	-0,039
-648,014	224,656	0,011	-0,013
-646,999	90,443	-0,131	-0,108
-645,984	-124,886	0,136	-0,015
-644,970	800,000	-0,049	0,133
-643,955	-117,128	-0,198	-0,026
-642,941	-200,000	-0,010	-0,124
-641,926	800,000	-0,026	-0,077
-640,911	800,000	0,037	0,117
-639,897	800,000	0,009	-0,019
-638,882	266,273	0,112	0,143
-637,868	161,716	0,057	-0,058
-636,853	51,456	-0,175	-0,122
-635,838	-114,698	0,153	-0,021
-634,824	176,240	-0,072	0,076
-633,809	-200,000	-0,005	-0,050
-632,795	-200,000	-0,017	0,074
-631,780	-77,018	-0,076	0,019
-630,765	309,736	-0,094	-0,129
-629,751	634,002	0,027	-0,050
-628,736	38,577	-0,099	0,065
-627,722	89,480	0,097	0,079
-626,707	171,057	-0,085	0,089
-625,692	-44,536	-0,129	-0,047
-624,678	483,652	0,071	0,119
-623,663	35,510	0,071	-0,046
-622,649	218,263	-0,029	-0,034
-621,634	-200,000	0,005	-0,069
-620,619	-130,128	0,052	-0,005
-619,605	92,615	-0,049	0,040
-618,590	800,000	0,039	-0,088
-617,576	25,377	-0,048	-0,029
-616,561	-200,000	0,029	-0,115
-615,546	800,000	0,011	-0,028
-614,532	-18,566	0,069	-0,031
-613,517	-200,000	0,004	-0,051
-612,503	235,710	-0,076	0,092
-611,488	263,016	0,110	-0,140
-610,474	148,479	0,094	0,093
-609,459	1,790	0,023	0,012
-608,444	18,085	-0,100	0,058
-607,430	97,644	0,102	0,086
-606,415	800,000	0,030	-0,074
-605,401	-200,000	0,003	0,020
-604,386	-76,936	0,138	0,035
-603,371	-68,567	0,091	0,026
-602,357	-100,151	0,018	-0,003
-601,342	33,335	-0,092	-0,058
-600,328	-61,284	-0,051	-0,016
-599,313	113,547	-0,117	0,104
-598,298	-200,000	-0,017	-0,081
-597,284	-200,000	0,010	0,074
-596,269	424,740	0,036	0,057
-595,255	320,967	0,015	-0,021
-594,240	-156,498	-0,075	-0,003
-593,225	-200,000	-0,015	0,057
-592,211	-44,036	-0,051	0,019
-591,196	-200,000	-0,060	-0,216
-590,182	16,502	-0,079	0,046
-589,167	800,000	0,088	0,238
-588,152	41,085	-0,013	0,009
-587,138	418,756	0,066	0,104
-586,123	33,356	-0,050	0,032
-585,109	-2,892	-0,099	0,051
-584,094	-90,933	-0,044	-0,009
-583,079	800,000	0,061	0,124
-582,065	570,461	0,014	0,025
-581,050	-95,399	-0,061	0,012
-580,036	3,784	0,170	0,091
-579,021	4,452	-0,033	-0,018
-578,006	89,044	0,058	-0,047
-576,992	-200,000	0,015	-0,061
-575,977	-200,000	-0,022	0,075
-574,963	-70,217	-0,127	-0,035
-573,948	-42,257	0,167	-0,062
-572,934	352,713	0,084	-0,123
-571,919	139,403	0,167	-0,161
-570,904	93,337	-0,079	-0,065
-569,890	83,691	-0,079	-0,063
-568,875	-87,732	-0,097	-0,021
-567,861	-92,919	0,215	-0,043
-566,846	216,588	0,092	-0,107
-565,831	81,214	-0,087	-0,069
-564,817	800,000	0,070	-0,160
-563,802	122,626	-0,120	-0,110
-562,788	586,730	-0,080	-0,144
-561,773	584,275	0,007	-0,012
-560,758	800,000	0,029	0,072
-559,744	45,551	0,040	-0,027
-558,729	-200,000	0,023	-0,138
-557,715	-200,000	0,006	-0,090
-556,700	-200,000	0,031	-0,126
-555,685	-25,899	0,026	0,011
-554,671	-200,000	0,030	0,172
-553,656	313,077	0,115	0,158
-552,642	-73,621	-0,079	-0,021
-551,627	72,790	-0,058	-0,045
-550,612	-200,000	0,023	0,165
-549,598	283,908	-0,090	-0,119
-548,583	53,641	0,050	-0,035
-547,569	74,466	-0,044	0,034
-546,554	534,534	0,048	-0,083
-545,539	-200,000	0,032	0,157
-544,525	294,909	0,031	0,041
-543,510	-71,808	0,038	0,010
-542,496	78,482	0,064	-0,050
-541,481	-113,329	-0,030	-0,004
-540,466	800,000	-0,040	0,088
-539,452	800,000	0,029	0,074
-538,437	-115,692	0,059	0,008
-537,423	211,876	-0,054	0,062
-536,408	-0,638	-0,101	0,052
-535,393	-113,501	-0,130	-0,018
-534,379	39,149	0,131	-0,085
-533,364	115,114	0,044	0,040
-532,350	142,675	0,061	-0,060
-531,335	-107,026	-0,112	-0,018
-530,321	662,079	-0,047	0,089
-529,306	55,443	0,002	-0,002
-528,291	248,999	-0,054	0,067
-527,277	-64,787	-0,124	-0,036
-526,262	800,000	0,050	-0,110
-525,248	143,623	0,124	0,120
-524,233	-132,867	-0,056	-0,005
-523,218	-200,000	0,023	0,188
-522,204	130,164	-0,027	-0,025
-521,189	800,000	0,051	-0,144
-520,175	0,485	-0,029	-0,015
-519,160	-200,000	0,005	-0,113
-518,145	-200,000	-0,020	0,103
-517,131	-136,952	-0,091	0,008
-516,116	-200,000	0,023	0,221
-515,102	287,374	0,041	-0,055
-514,087	15,321	-0,042	-0,024
-513,072	-38,987	-0,115	-0,044
-512,058	-107,994	-0,069	-0,011
-511,043	-8,141	-0,038	-0,019
-510,029	800,000	-0,038	0,095
-509,014	-200,000	-0,003	0,139
-507,999	169,517	0,075	0,078
-506,985	-200,000	-0,016	-0,104
-505,970	-200,000	0,007	0,104
-504,956	-200,000	-0,007	0,119
-503,941	-11,771	-0,055	0,026
-502,926	79,224	0,010	-0,008
-501,912	-49,309	0,035	0,012
-500,897	-200,000	0,003	0,015
-499,883	-77,805	-0,059	0,015
-498,868	-200,000	0,005	-0,146
-497,853	-71,058	-0,099	-0,027
-496,839	-74,358	0,042	-0,011
-495,824	100,821	-0,056	-0,047
-494,810	639,016	-0,059	0,110
-493,795	800,000	0,046	-0,123
-492,781	297,847	-0,061	0,082
-491,766	698,519	0,010	-0,019
-490,751	95,087	-0,066	-0,055
-489,737	800,000	0,028	-0,079
-488,722	-200,000	-0,003	-0,028
-487,708	190,014	0,076	-0,083
-486,693	20,711	-0,157	-0,093
-485,678	72,529	-0,061	-0,046
-484,664	800,000	-0,052	-0,138
-483,649	-128,230	-0,053	-0,005
-482,635	-200,000	0,000	0,056
-481,620	235,638	0,106	0,127
-480,605	-109,421	0,123	0,019
-479,591	22,914	0,088	0,053
-478,576	-158,666	-0,192	-0,008
-477,562	56,125	-0,020	-0,014
-476,547	-200,000	-0,000	-0,080
-475,532	-1,170	-0,104	0,053
-474,518	-8,044	0,072	0,035
-473,503	640,876	0,022	0,042
-472,489	316,322	-0,047	0,066
-471,474	-200,000	-0,005	0,048
-470,459	-200,000	-0,011	-0,116
-469,445	651,364	-0,027	0,051
-468,430	-200,000	0,002	0,061
-467,416	40,588	0,156	-0,103
-466,401	-200,000	-0,008	0,050
-465,386	18,133	0,052	0,030
-464,372	27,780	-0,088	-0,054
-463,357	-200,000	0,046	-0,171
-462,343	-200,000	-0,018	0,062
-461,328	-83,387	-0,093	-0,021
-460,313	553,864	0,056	0,098
-459,299	-200,000	0,016	-0,053
-458,284	760,316	0,039	0,077
-457,270	598,069	0,074	0,133
-456,255	-106,266	-0,082	0,013
-455,241	258,132	-0,046	-0,058
-454,226	748,315	-0,048	-0,094
-453,211	72,293	-0,023	-0,017
-452,197	-200,000	0,046	-0,203
-451,182	44,369	0,155	0,103
-450,168	800,000	-0,021	-0,049
-449,153	138,521	0,032	0,031
-448,138	-55,039	-0,014	-0,005
-447,124	212,359	-0,045	-0,052
-446,109	800,000	0,072	-0,148
-445,095	800,000	-0,050	0,123
-444,080	63,206	-0,090	0,066
-443,065	670,909	0,076	0,143
-442,051	-12,533	-0,122	0,058
-441,036	237,576	-0,052	-0,062
-440,022	-94,335	0,131	-0,026
-439,007	-88,264	0,165	0,036
-437,992	-114,838	0,119	0,016
-436,978	-200,000	0,008	-0,041
-435,963	-82,203	0,220	-0,052
-434,949	-200,000	-0,007	-0,135
-433,934	-200,000	0,060	-0,197
-432,919	734,318	-0,058	-0,113
-431,905	207,834	0,032	0,036
-430,890	-200,000	0,011	-0,077
-429,876	800,000	0,008	-0,021
-428,861	201,907	0,041	-0,046
-427,846	102,057	-0,171	0,145
-426,832	-88,803	0,036	-0,008
-425,817	715,690	-0,080	-0,154
-424,803	666,436	-0,001	-0,001
-423,788	148,274	0,022	0,021
-422,773	41,881	0,034	0,022
-421,759	-200,000	-0,023	0,098
-420,744	-56,532	-0,174	0,056
-419,730	-114,794	-0,060	-0,008
-418,715	584,938	-0,022	0,039
-417,701	-106,971	-0,120	0,019
-416,686	-119,787	-0,107	-0,013
-415,671	800,000	-0,034	0,104
-414,657	-200,000	-0,008	-0,084
-413,642	212,145	-0,019	0,022
-412,628	143,653	-0,138	0,134
-411,613	-200,000	0,007	-0,078
-410,598	101,096	-0,030	-0,025
-409,584	800,000	-0,053	0,138
-408,569	86,470	0,103	-0,082
-407,555	97,527	-0,006	0,005
-406,540	-22,840	0,083	-0,036
-405,525	71,584	0,091	-0,069
-404,511	105,279	-0,092	0,079
-403,496	-184,316	0,053	0,001
-402,482	208,986	-0,040	-0,046
-401,467	352,447	0,112	0,161
-400,452	793,650	0,025	-0,050
-399,438	-5,911	0,189	-0,094
-398,423	64,900	0,157	-0,115
-397,409	-119,489	0,059	-0,007
-396,394	-69,726	-0,074	0,020
-395,379	-24,834	0,140	-0,060
-394,365	206,944	0,090	0,102
-393,350	-200,000	-0,011	0,064
-392,336	-200,000	0,063	0,222
-391,321	-145,216	-0,105	-0,007
-390,306	464,659	-0,089	-0,145
-389,292	269,532	-0,079	0,101
-388,277	36,225	-0,047	0,030
-387,263	800,000	0,026	-0,069
-386,248	271,799	0,108	0,139
-385,233	-42,547	-0,045	-0,016
-384,219	-200,000	-0,024	0,080
-383,204	109,521	-0,056	-0,049
-382,190	-136,296	-0,066	0,006
-381,175	-3,200	-0,105	-0,053
-380,160	800,000	0,014	0,034
-379,146	504,146	-0,036	0,062
-378,131	53,475	0,014	0,010
-377,117	-200,000	0,000	0,013
-376,102	-200,000	-0,019	0,130
-375,088	800,000	0,015	-0,040
-374,073	-62,557	0,159	0,048
-373,058	-80,511	0,058	-0,014
-372,044	800,000	0,011	0,028
-371,029	-25,680	0,145	0,062
-370,015	160,306	-0,016	-0,017
-369,000	-48,900	0,079	-0,027
-367,985	11,962	-0,027	-0,015
-366,971	-142,044	0,142	-0,010
-365,956	-184,318	0,072	-0,001
-364,942	63,598	-0,069	0,050
-363,927	64,499	-0,051	0,038
-362,912	-200,000	-0,007	0,071
-361,898	-3,731	0,028	-0,014
-360,883	30,375	-0,083	-0,051
-359,869	800,000	-0,017	0,053
-358,854	-102,230	-0,186	-0,032
-357,839	82,358	0,098	0,077
-356,825	227,029	0,139	0,164
-355,810	247,768	0,039	-0,048
-354,796	435,282	-0,042	-0,066
-353,781	-200,000	-0,017	-0,092
-352,766	800,000	0,031	-0,098
-351,752	-200,000	0,008	-0,060
-350,737	-49,991	-0,080	-0,027
-349,723	-44,165	0,024	-0,009
-348,708	74,471	0,164	0,125
-347,693	-40,729	-0,058	0,022
-346,679	123,396	-0,062	0,056
-345,664	-109,737	-0,014	-0,002
-344,650	51,812	0,026	-0,018
-343,635	-101,718	0,091	0,016
-342,620	397,471	-0,032	-0,049
-341,606	-2,140	-0,173	0,088
-340,591	478,497	0,020	-0,032
-339,577	-200,000	-0,003	-0,051
-338,562	-200,000	0,023	-0,158
-337,548	-71,140	-0,134	-0,036
-336,533	-131,773	0,109	-0,010
-335,518	-200,000	0,028	0,109
-334,504	692,952	0,044	0,083
-333,489	-175,211	-0,057	0,001
-332,475	800,000	0,046	0,097
-331,460	99,218	-0,057	0,048
-330,445	405,152	-0,015	-0,023
-329,431	261,867	-0,063	-0,079
-328,416	-136,616	0,142	0,012
-327,402	121,128	-0,051	-0,046
-326,387	-49,526	0,054	0,019
-325,372	109,843	-0,096	0,083
-324,358	225,227	0,051	0,060
-323,343	-166,272	-0,008	0,000
-322,329	-99,304	0,073	-0,013
-321,314	765,897	0,031	0,062
-320,299	-150,978	-0,024	0,001
-319,285	372,044	-0,017	0,025
-318,270	133,527	-0,047	0,044
-317,256	800,000	-0,031	-0,086
-316,241	-150,352	-0,009	0,001
-315,226	594,263	0,042	-0,076
-314,212	-200,000	0,002	0,104
-313,197	56,642	0,117	-0,082
-312,183	-72,141	-0,095	0,025
-311,168	-200,000	0,043	-0,166
-310,153	-200,000	-0,047	-0,177
-309,139	-50,797	-0,084	-0,028
-308,124	-100,806	0,125	-0,022
-307,110	-32,393	0,086	-0,035
-306,095	-200,000	-0,025	0,211
-305,080	53,127	-0,021	-0,014
-304,066	71,477	0,087	0,065
-303,051	-200,000	-0,016	0,133
-302,037	800,000	0,027	-0,068
-301,022	60,593	0,118	-0,085
-300,008	122,411	-0,111	0,101
-298,993	800,000	0,045	0,122
-297,978	133,201	-0,062	0,058
-296,964	-49,853	0,084	0,029
-295,949	66,634	0,069	-0,051
-294,935	312,168	-0,046	-0,062
-293,920	-200,000	0,006	-0,090
-292,905	800,000	0,046	0,123
-291,891	-67,589	0,079	-0,022
-290,876	-39,995	0,036	0,014
-289,862	-70,534	-0,068	0,018
-288,847	81,777	-0,032	0,025
-287,832	508,568	-0,059	-0,100
-286,818	95,001	0,083	0,068
-285,803	800,000	-0,053	-0,118
-284,789	298,818	0,054	0,072
-283,774	-70,587	-0,019	-0,005
-282,759	-91,479	-0,149	-0,030
-281,745	-200,000	-0,003	-0,061
-280,730	-200,000	-0,006	0,051
-279,716	10,948	-0,061	-0,034
-278,701	-1,292	-0,058	0,030
-277,686	-48,313	0,152	-0,053
-276,672	66,171	0,089	0,065
-275,657	-129,124	0,059	-0,006
-274,643	-200,000	-0,021	0,131
-273,628	-200,000	0,017	-0,104
-272,613	151,597	0,110	-0,108
-271,599	174,195	-0,073	0,076
-270,584	-200,000	-0,012	0,118
-269,570	412,934	-0,013	-0,020
-268,555	-200,000	0,017	-0,069
-267,540	232,017	0,050	0,059
-266,526	142,462	-0,091	0,087
-265,511	-31,424	0,073	-0,030
-264,497	-200,000	-0,006	0,030
-263,482	129,324	-0,070	-0,064
-262,467	-142,072	-0,110	0,008
-261,453	345,977	0,079	-0,112
-260,438	-30,283	0,121	-0,049
-259,424	88,861	-0,098	-0,078
-258,409	-135,802	-0,141	-0,012
-257,395	-200,000	0,019	0,081
-256,380	800,000	-0,036	0,084
-255,365	-200,000	-0,000	-0,036
-254,351	800,000	0,034	-0,080
-253,336	-200,000	0,014	-0,109
-252,322	108,783	-0,099	-0,085
-251,307	-200,000	0,001	0,068
-250,292	60,797	0,037	-0,027
-249,278	-4,060	0,152	0,076
-248,263	324,110	-0,068	0,093
-247,249	187,588	0,031	-0,034
-246,234	-200,000	0,012	-0,127
-245,219	-95,131	-0,130	-0,025
-244,205	-142,763	-0,114	0,008
-243,190	-12,992	0,140	-0,065
-242,176	-20,413	-0,050	-0,022
-241,161	-200,000	0,017	0,176
-240,146	-200,000	-0,010	-0,054
-239,132	-66,391	-0,038	-0,011
-238,117	247,198	0,047	0,057
-237,103	572,261	-0,041	-0,072
-236,088	3,715	-0,102	0,053
-235,073	37,105	-0,038	-0,024
-234,059	54,630	0,061	-0,043
-233,044	576,432	-0,063	0,111
-232,030	-200,000	0,012	-0,053
-231,015	53,540	0,034	0,024
-230,000	-105,461	-0,068	0,011
-228,986	-95,722	-0,047	0,009
-227,971	364,129	0,104	-0,151
-226,957	133,958	0,116	0,108
-225,942	-70,253	0,104	0,028
-224,927	-200,000	0,028	-0,100
-223,913	81,094	-0,104	-0,081
-222,898	171,131	-0,074	-0,076
-221,884	-24,426	0,124	0,053
-220,869	-160,012	-0,083	0,003
-219,855	800,000	-0,014	0,031
-218,840	800,000	-0,026	0,068
-217,825	77,843	-0,028	-0,021
-216,811	800,000	-0,034	-0,077
-215,796	-178,041	-0,208	0,003
-214,782	57,809	0,083	0,058
-213,767	22,787	0,059	-0,035
-212,752	-200,000	0,011	-0,085
-211,738	-134,911	-0,072	-0,006
-210,723	658,062	-0,070	-0,131
-209,709	-200,000	-0,064	-0,241
-208,694	353,402	-0,043	-0,061
-207,679	-36,723	0,064	-0,025
-206,665	800,000	0,054	-0,119
-205,650	26,970	0,085	0,051
-204,636	247,838	0,068	0,082
-203,621	800,000	0,009	-0,030
-202,606	322,202	-0,017	-0,024
-201,592	593,715	-0,017	-0,031
-200,577	800,000	-0,033	0,090
-199,563	383,706	0,055	0,081
-198,548	705,304	-0,045	0,086
-197,533	237,426	0,027	0,033
-196,519	571,924	0,029	0,050
-195,504	-34,631	0,085	0,033
-194,490	263,968	0,004	-0,005
-193,475	565,978	-0,075	0,132
-192,460	88,771	0,093	-0,075
-191,446	571,126	-0,027	0,047
-190,431	137,279	-0,199	0,188
-189,417	16,590	0,087	0,049
-188,402	-73,684	-0,152	0,039
-187,387	-90,318	0,061	0,013
-186,373	89,944	0,049	-0,039
-185,358	800,000	0,058	-0,118
-184,344	-67,353	-0,075	-0,021
-183,329	327,983	0,110	0,152
-182,315	800,000	0,041	0,111
-181,300	-118,640	-0,080	0,010
-180,285	265,297	0,054	0,068
-179,271	-42,978	-0,061	-0,022
-178,256	194,739	-0,034	-0,037
-177,242	-106,038	0,003	-0,000
-176,227	50,918	0,143	-0,098
-175,212	-200,000	-0,016	-0,063
-174,198	-136,681	-0,090	-0,007
-173,183	41,303	-0,162	-0,105
-172,169	-91,100	-0,100	0,020
-171,154	-52,047	-0,124	-0,041
-170,139	-136,562	0,023	0,002
-169,125	-57,554	-0,093	0,029
-168,110	36,571	0,113	0,072
-167,096	-99,848	0,128	0,023
-166,081	120,347	0,107	-0,096
-165,066	44,286	-0,064	-0,042
-164,052	800,000	-0,033	0,091
-163,037	65,072	0,061	0,044
-162,023	-200,000	-0,014	0,128
-161,008	103,566	-0,086	-0,072
-159,993	4,677	0,106	-0,056
-158,979	-112,465	0,029	-0,004
-157,964	33,974	0,002	-0,001
-156,950	-200,000	0,009	-0,104
-155,935	423,118	0,059	0,092
-154,920	-139,677	0,143	0,011
-153,906	36,620	0,075	0,047
-152,891	800,000	-0,048	0,150
-151,877	800,000	0,045	0,116
-150,862	800,000	-0,023	-0,053
-149,847	209,553	-0,034	-0,038
-148,833	25,127	0,022	-0,013
-147,818	-200,000	-0,002	0,124
-146,804	493,604	-0,051	0,084
-145,789	-135,572	-0,171	0,014
-144,775	-26,737	0,182	-0,076
-143,760	-32,216	0,009	0,003
-142,745	258,843	-0,033	-0,041
-141,731	-109,520	-0,129	-0,019
-140,716	664,618	0,035	0,066
-139,702	393,625	-0,032	-0,047
-138,687	-47,625	-0,069	-0,024
-137,672	50,541	0,066	-0,045
-136,658	-134,467	0,142	0,012
-135,643	800,000	-0,014	0,041
-134,629	3,312	-0,051	0,027
-133,614	-124,544	-0,140	0,015
-132,599	182,030	0,078	-0,082
-131,585	-33,413	0,071	0,028
-130,570	-101,660	-0,110	-0,019
-129,556	354,828	-0,037	0,052
-128,541	800,000	-0,041	-0,111
-127,526	800,000	-0,042	0,110
-126,512	302,904	0,054	0,072
-125,497	16,196	0,062	0,035
-124,483	-200,000	-0,004	0,014
-123,468	-76,768	-0,159	0,040
-122,453	-153,832	-0,088	0,004
-121,439	56,337	-0,028	-0,020
-120,424	146,223	-0,053	-0,051
-119,410	-200,000	0,026	0,089
