DTS Sentinel unit serial number:	SN410029Multiplexer serial number:	ORYXHardware model number:	OX2-SRSoftware version number:	ORYX F/W v4,00 Oryx Data Collector v3.7.2.0data status	okinstallation	B5 Nyhavnadifferential loss correction	single-endedforward channel	channel 2reverse channel	N/Adate	2023/12/14time	13:12:13forward acquisition time	300,00reverse acquisition time	0,00gamma	499,1914k internal	0,3157k external	0,3157temperature offset calibration	1,0000default loss term (dB/km)	0,3820temperature slope calibration	1,0000multiplexer offset coefficient	1,0000multiplexer slope coefficient	1,0000fibre end	0,00T internal ref (°C)	8,04T ext. ref 1 (°C)	-7,71T ext. ref 2 (°C)	-7,76length (m)	temperature (°C)	Stokes	anti-Stokes-744,400	-147,221	0,105	-0,006
-743,385	-131,595	-0,489	-0,047
-742,371	-152,696	0,266	-0,014
-741,356	-8,922	-0,306	-0,151
-740,342	-13,052	0,145	0,069
-739,327	-73,875	-0,267	-0,071
-738,312	367,890	-0,014	-0,021
-737,298	-12,580	-0,362	-0,174
-736,283	159,388	0,167	0,172
-735,269	-39,087	-0,252	-0,097
-734,254	136,412	0,125	0,121
-733,239	-43,847	-0,574	-0,212
-732,225	54,531	0,205	0,146
-731,210	-76,448	0,134	-0,034
-730,196	182,552	0,018	0,020
-729,181	-47,594	-0,143	0,051
-728,167	-35,085	0,115	0,046
-727,152	330,563	0,034	-0,048
-726,137	-174,600	-0,047	0,001
-725,123	297,735	-0,064	-0,087
-724,108	-55,187	-0,151	-0,050
-723,094	-200,000	0,027	-0,148
-722,079	-200,000	-0,009	0,072
-721,064	-66,729	-0,076	-0,022
-720,050	651,948	-0,061	-0,116
-719,035	40,630	0,114	-0,076
-718,021	140,707	-0,122	-0,119
-717,006	-43,543	-0,098	-0,036
-715,991	495,395	-0,011	-0,019
-714,977	-121,043	-0,116	0,014
-713,962	495,553	-0,020	-0,034
-712,948	-71,215	0,050	-0,014
-711,933	-124,849	-0,128	0,014
-710,918	-83,555	0,019	-0,004
-709,904	13,765	-0,140	-0,080
-708,889	210,946	-0,044	-0,051
-707,875	-200,000	-0,029	-0,149
-706,860	80,600	0,134	0,106
-705,845	-96,723	0,044	0,009
-704,831	38,835	-0,064	0,042
-703,816	-200,000	0,003	0,028
-702,802	93,021	-0,067	0,056
-701,787	-200,000	0,007	0,029
-700,772	-200,000	0,027	-0,101
-699,758	119,469	0,038	0,035
-698,743	244,119	0,034	-0,042
-697,729	-26,783	-0,040	0,017
-696,714	-95,789	0,104	0,020
-695,699	129,859	-0,083	-0,078
-694,685	-200,000	-0,023	-0,119
-693,670	455,731	-0,048	0,078
-692,656	154,550	0,039	-0,039
-691,641	-25,028	-0,074	0,032
-690,627	152,644	0,048	0,048
-689,612	800,000	0,006	0,017
-688,597	-184,455	-0,118	0,001
-687,583	-200,000	-0,002	-0,050
-686,568	-200,000	0,000	0,073
-685,554	800,000	-0,039	0,082
-684,539	-200,000	0,009	-0,032
-683,524	198,421	-0,043	0,049
-682,510	-200,000	-0,006	0,028
-681,495	-0,388	-0,073	-0,038
-680,481	-200,000	-0,017	-0,107
-679,466	303,245	0,105	-0,143
-678,451	45,542	-0,081	0,055
-677,437	16,205	-0,102	0,059
-676,422	800,000	-0,024	0,061
-675,408	562,874	0,017	0,031
-674,393	210,700	-0,043	0,049
-673,378	-133,969	-0,107	-0,010
-672,364	15,629	-0,150	-0,087
-671,349	-81,030	0,143	-0,034
-670,335	-55,930	0,052	-0,017
-669,320	53,102	-0,089	0,063
-668,305	-49,363	-0,113	0,039
-667,291	-103,849	-0,097	-0,016
-666,276	-200,000	0,005	-0,035
-665,262	-152,386	0,081	0,004
-664,247	-106,430	-0,033	-0,005
-663,232	378,835	-0,038	-0,057
-662,218	-34,709	0,163	-0,065
-661,203	645,317	0,054	0,101
-660,189	-32,376	0,084	-0,034
-659,174	-153,555	-0,065	0,003
-658,159	-200,000	-0,021	-0,089
-657,145	272,807	-0,062	0,081
-656,130	-61,865	-0,103	-0,031
-655,116	800,000	0,057	0,147
-654,101	800,000	0,051	0,113
-653,086	-124,198	-0,206	-0,023
-652,072	-167,204	-0,070	0,002
-651,057	-112,679	-0,043	-0,006
-650,043	20,036	0,051	-0,030
-649,028	-200,000	-0,026	-0,097
-648,014	-88,094	-0,028	-0,006
-646,999	-157,555	-0,222	0,010
-645,984	800,000	0,042	0,127
-644,970	63,889	-0,076	-0,056
-643,955	-200,000	-0,018	-0,110
-642,941	-74,507	-0,101	0,027
-641,926	-131,347	0,086	0,008
-640,911	-26,769	-0,065	0,028
-639,897	800,000	0,048	0,124
-638,882	246,111	-0,016	-0,020
-637,868	264,131	0,048	-0,062
-636,853	283,864	0,039	-0,052
-635,838	479,159	-0,040	-0,066
-634,824	369,112	-0,014	-0,021
-633,809	800,000	-0,007	0,017
-632,795	494,811	0,036	0,060
-631,780	800,000	0,023	0,048
-630,765	-178,601	0,066	-0,001
-629,751	-188,700	-0,175	-0,002
-628,736	-200,000	-0,003	-0,057
-627,722	397,041	0,050	-0,077
-626,707	800,000	-0,024	0,063
-625,692	62,888	-0,089	-0,065
-624,678	800,000	0,067	0,178
-623,663	78,895	0,048	-0,037
-622,649	-200,000	-0,019	-0,076
-621,634	-39,379	0,008	0,003
-620,619	-44,764	0,049	0,018
-619,605	-124,709	-0,132	0,015
-618,590	800,000	0,017	0,037
-617,576	-126,883	-0,041	-0,004
-616,561	-64,788	-0,088	-0,026
-615,546	-73,283	-0,064	-0,017
-614,532	33,513	-0,043	-0,027
-613,517	47,041	-0,128	-0,087
-612,503	-44,741	-0,048	0,017
-611,488	-200,000	-0,011	-0,078
-610,474	41,215	0,033	0,022
-609,459	-200,000	0,004	-0,141
-608,444	50,139	0,102	-0,070
-607,430	-3,143	-0,075	-0,038
-606,415	-32,951	0,067	-0,027
-605,401	44,852	0,082	-0,056
-604,386	-144,783	-0,080	0,005
-603,371	215,637	0,098	0,114
-602,357	-90,360	-0,105	-0,022
-601,342	-140,124	0,027	-0,002
-600,328	-200,000	0,036	-0,129
-599,313	-105,378	0,058	-0,010
-598,298	65,647	0,033	-0,024
-597,284	-58,237	0,052	-0,017
-596,269	114,469	-0,099	-0,088
-595,255	-12,991	0,056	-0,026
-594,240	44,655	-0,034	0,023
-593,225	-200,000	0,010	0,035
-592,211	89,815	-0,084	-0,068
-591,196	93,869	0,071	0,059
-590,182	451,031	-0,039	-0,064
-589,167	-74,361	-0,043	0,011
-588,152	214,658	-0,062	-0,073
-587,138	-200,000	0,022	0,101
-586,123	-200,000	0,001	0,018
-585,109	-71,545	-0,071	-0,019
-584,094	-200,000	0,019	-0,067
-583,079	-50,574	0,079	0,027
-582,065	-200,000	0,002	0,089
-581,050	-5,936	0,067	0,033
-580,036	123,713	-0,062	0,057
-579,021	800,000	-0,055	-0,134
-578,006	-200,000	0,024	-0,166
-576,992	55,768	-0,053	-0,037
-575,977	227,202	0,021	0,025
-574,963	-115,888	0,141	-0,019
-573,948	-200,000	0,003	0,160
-572,934	-40,457	-0,064	0,024
-571,919	-200,000	0,002	0,053
-570,904	-200,000	-0,013	0,162
-569,890	177,926	-0,105	0,112
-568,875	-200,000	0,014	0,059
-567,861	-60,693	-0,076	0,023
-566,846	92,089	0,020	0,016
-565,831	800,000	-0,022	0,051
-564,817	-200,000	0,013	0,089
-563,802	800,000	0,041	0,121
-562,788	630,235	0,038	-0,071
-561,773	284,876	-0,043	-0,057
-560,758	800,000	0,017	-0,054
-559,744	-60,630	-0,042	-0,013
-558,729	97,449	-0,119	-0,100
-557,715	-200,000	0,009	-0,067
-556,700	-200,000	0,008	-0,068
-555,685	-200,000	-0,006	-0,061
-554,671	497,636	-0,068	0,115
-553,656	-17,756	-0,068	0,031
-552,642	18,141	0,071	-0,041
-551,627	800,000	-0,016	0,032
-550,612	-38,880	-0,020	0,008
-549,598	-92,329	-0,132	0,027
-548,583	-200,000	0,017	-0,086
-547,569	800,000	-0,047	-0,122
-546,554	-200,000	0,013	-0,044
-545,539	-200,000	-0,024	-0,097
-544,525	-96,862	0,072	0,014
-543,510	-200,000	-0,025	0,086
-542,496	258,887	0,014	-0,018
-541,481	44,138	0,012	-0,008
-540,466	-136,802	-0,147	-0,012
-539,452	-113,215	0,102	0,015
-538,437	800,000	-0,022	-0,059
-537,423	800,000	-0,043	0,101
-536,408	-200,000	-0,002	0,076
-535,393	-19,490	0,082	0,037
-534,379	289,343	-0,118	-0,157
-533,364	-200,000	-0,026	-0,121
-532,350	-136,742	-0,110	0,009
-531,335	-127,775	0,119	0,012
-530,321	800,000	0,009	-0,022
-529,306	463,962	0,047	0,077
-528,291	-200,000	-0,023	-0,109
-527,277	-200,000	-0,000	-0,039
-526,262	-200,000	-0,022	-0,096
-525,248	-136,307	0,060	-0,005
-524,233	-63,155	-0,089	-0,027
-523,218	-200,000	-0,047	-0,269
-522,204	-50,640	0,025	0,008
-521,189	-200,000	-0,006	0,077
-520,175	800,000	0,042	-0,116
-519,160	498,709	-0,027	-0,046
-518,145	473,245	-0,008	0,013
-517,131	800,000	-0,028	-0,083
-516,116	207,800	0,112	0,127
-515,102	-2,997	-0,127	0,065
-514,087	106,580	0,014	0,012
-513,072	-189,962	0,134	0,001
-512,058	800,000	0,055	-0,126
-511,043	603,885	0,009	0,016
-510,029	557,357	0,016	-0,028
-509,014	-72,003	0,033	-0,009
-507,999	-200,000	0,002	-0,146
-506,985	800,000	-0,029	0,062
-505,970	116,697	-0,024	0,022
-504,956	-55,449	-0,050	-0,016
-503,941	800,000	-0,043	-0,092
-502,926	512,497	0,060	0,103
-501,912	-200,000	0,008	0,067
-500,897	-176,010	-0,108	0,002
-499,883	800,000	-0,044	0,102
-498,868	-200,000	0,005	0,077
-497,853	85,869	-0,044	-0,035
-496,839	390,339	-0,059	-0,090
-495,824	310,015	0,015	-0,020
-494,810	58,432	-0,063	0,045
-493,795	477,346	0,026	0,043
-492,781	116,258	-0,060	0,054
-491,766	13,550	-0,049	0,028
-490,751	239,957	-0,104	-0,127
-489,737	-176,429	-0,048	-0,001
-488,722	-150,331	0,021	0,001
-487,708	800,000	-0,040	-0,100
-486,693	298,244	0,023	-0,032
-485,678	-38,351	-0,125	0,048
-484,664	-27,470	-0,109	-0,046
-483,649	-80,374	0,004	-0,001
-482,635	730,024	0,021	-0,042
-481,620	-84,784	0,216	0,049
-480,605	-200,000	0,019	-0,067
-479,591	616,956	0,004	0,007
-478,576	288,200	0,034	0,045
-477,562	303,512	-0,089	-0,120
-476,547	-109,175	-0,084	0,013
-475,532	38,791	0,014	-0,009
-474,518	-105,481	-0,135	-0,022
-473,503	-200,000	0,012	0,097
-472,489	20,046	-0,133	0,078
-471,474	-14,377	0,079	-0,037
-470,459	116,139	-0,077	-0,069
-469,445	-40,298	-0,033	-0,013
-468,430	15,290	-0,230	-0,131
-467,416	-200,000	0,004	-0,059
-466,401	-164,398	0,238	-0,008
-465,386	-5,661	0,051	-0,026
-464,372	-200,000	-0,005	0,080
-463,357	-200,000	-0,019	0,093
-462,343	-65,759	-0,176	-0,051
-461,328	-76,153	-0,124	-0,032
-460,313	-67,082	0,080	-0,023
-459,299	533,022	-0,028	0,048
-458,284	-84,764	0,205	0,047
-457,270	-200,000	-0,015	0,082
-456,255	800,000	0,020	0,058
-455,241	286,872	0,028	0,037
-454,226	-96,035	0,145	0,028
-453,211	-200,000	0,015	0,145
-452,197	6,821	0,105	0,057
-451,182	-33,591	-0,043	0,017
-450,168	800,000	0,050	0,121
-449,153	-45,339	-0,053	-0,019
-448,138	611,417	0,022	0,040
-447,124	-125,530	0,036	-0,004
-446,109	-200,000	0,006	-0,072
-445,095	551,458	-0,066	0,116
-444,080	-200,000	-0,026	0,115
-443,065	-24,361	-0,068	0,029
-442,051	138,782	0,031	0,030
-441,036	87,934	-0,081	-0,065
-440,022	-12,438	0,111	0,053
-439,007	41,063	-0,155	-0,102
-437,992	-94,155	0,185	-0,037
-436,978	257,829	-0,061	-0,077
-435,963	23,796	0,166	0,100
-434,949	-200,000	-0,010	-0,046
-433,934	748,860	-0,032	-0,062
-432,919	-127,524	-0,019	0,002
-431,905	-200,000	0,004	0,035
-430,890	-118,090	0,067	-0,009
-429,876	123,280	0,043	-0,040
-428,861	800,000	0,030	0,081
-427,846	-200,000	0,005	0,094
-426,832	304,022	-0,024	0,033
-425,817	-200,000	-0,010	-0,047
-424,803	-200,000	0,003	-0,028
-423,788	-118,105	0,110	-0,014
-422,773	-200,000	-0,001	-0,029
-421,759	-70,695	0,069	-0,019
-420,744	-160,016	-0,175	-0,007
-419,730	-89,782	0,068	0,014
-418,715	800,000	0,042	-0,098
-417,701	23,982	0,112	-0,067
-416,686	412,682	0,103	0,160
-415,671	-96,094	-0,095	0,018
-414,657	45,495	0,127	0,085
-413,642	-139,249	-0,121	0,009
-412,628	183,897	0,029	0,031
-411,613	-90,466	-0,125	0,026
-410,598	46,216	-0,022	-0,015
-409,584	741,215	-0,021	0,041
-408,569	-86,082	0,107	0,024
-407,555	800,000	-0,012	0,036
-406,540	58,643	-0,045	-0,032
-405,525	800,000	-0,026	-0,064
-404,511	119,499	0,068	0,061
-403,496	-200,000	0,006	-0,103
-402,482	-49,701	0,185	0,064
-401,467	800,000	0,022	0,061
-400,452	-152,231	0,041	0,002
-399,438	-167,923	-0,105	-0,003
-398,423	5,062	-0,063	0,034
-397,409	-200,000	-0,013	0,080
-396,394	-200,000	0,004	0,106
-395,379	-200,000	0,025	-0,121
-394,365	28,651	0,135	0,083
-393,350	-125,100	0,142	-0,016
-392,336	153,472	-0,034	0,034
-391,321	800,000	0,054	-0,137
-390,306	800,000	-0,016	0,032
-389,292	491,094	-0,024	-0,039
-388,277	166,671	-0,096	-0,099
-387,263	612,876	-0,021	0,038
-386,248	26,287	-0,075	0,046
-385,233	244,733	-0,059	-0,073
-384,219	800,000	0,019	0,051
-383,204	-200,000	0,016	-0,054
-382,190	419,617	-0,022	-0,034
-381,175	800,000	0,026	-0,066
-380,160	-188,031	0,116	0,001
-379,146	44,036	0,085	0,056
-378,131	104,229	0,023	-0,020
-377,117	-200,000	-0,017	-0,071
-376,102	-200,000	-0,029	0,121
-375,088	-87,132	-0,095	0,021
-374,073	-200,000	-0,013	0,068
-373,058	-101,041	0,127	-0,022
-372,044	333,733	0,018	0,025
-371,029	-200,000	0,006	0,055
-370,015	800,000	-0,049	-0,102
-369,000	69,501	0,060	0,044
-367,985	-200,000	-0,019	-0,100
-366,971	-92,830	0,055	0,011
-365,956	-141,526	0,106	-0,008
-364,942	316,795	0,063	0,087
-363,927	35,341	0,082	0,052
-362,912	-100,118	0,078	0,014
-361,898	-200,000	-0,018	-0,119
-360,883	-4,504	-0,075	-0,037
-359,869	-200,000	0,009	0,125
-358,854	336,559	0,074	0,105
-357,839	-56,535	0,031	-0,010
-356,825	800,000	0,011	-0,032
-355,810	434,437	0,020	0,032
-354,796	-16,913	-0,049	0,022
-353,781	-80,384	-0,138	0,033
-352,766	12,228	0,075	0,042
-351,752	-114,976	0,156	0,021
-350,737	147,896	-0,058	0,057
-349,723	800,000	0,024	-0,071
-348,708	-200,000	0,015	0,189
-347,693	800,000	0,052	0,115
-346,679	448,558	0,100	-0,161
-345,664	186,507	0,017	0,018
-344,650	62,791	0,084	0,061
-343,635	-200,000	0,025	-0,183
-342,620	-23,573	0,052	0,022
-341,606	-200,000	-0,018	0,129
-340,591	-200,000	0,011	-0,082
-339,577	479,439	0,032	-0,053
-338,562	800,000	-0,041	0,109
-337,548	98,712	0,049	0,041
-336,533	15,597	0,052	0,029
-335,518	45,803	0,128	-0,086
-334,504	-29,151	-0,125	0,052
-333,489	-5,426	-0,066	0,033
-332,475	-79,432	0,016	-0,004
-331,460	-99,269	0,050	0,009
-330,445	-200,000	0,004	0,131
-329,431	-200,000	-0,018	0,087
-328,416	336,814	0,054	0,077
-327,402	161,450	-0,096	0,098
-326,387	18,378	-0,087	-0,051
-325,372	-200,000	-0,025	0,124
-324,358	-105,499	0,093	0,015
-323,343	800,000	0,024	0,068
-322,329	-90,694	-0,160	-0,033
-321,314	-200,000	0,040	0,165
-320,299	64,924	0,036	0,026
-319,285	-141,113	-0,034	0,002
-318,270	-200,000	-0,062	-0,209
-317,256	-113,810	-0,091	-0,013
-316,241	800,000	0,029	0,092
-315,226	35,418	0,010	0,006
-314,212	-200,000	-0,049	0,216
-313,197	-200,000	-0,001	0,062
-312,183	-200,000	0,018	0,078
-311,168	800,000	0,058	-0,122
-310,153	-49,646	-0,111	0,038
-309,139	-200,000	0,019	-0,063
-308,124	-147,043	0,051	0,003
-307,110	800,000	-0,015	0,042
-306,095	-200,000	-0,009	0,145
-305,080	800,000	-0,024	0,071
-304,066	326,280	0,052	0,072
-303,051	183,179	0,124	-0,133
-302,037	529,601	-0,069	0,119
-301,022	-40,909	0,089	-0,033
-300,008	650,753	0,038	0,071
-298,993	800,000	0,023	-0,063
-297,978	159,914	0,105	-0,106
-296,964	-12,293	-0,041	0,019
-295,949	351,602	-0,033	0,048
-294,935	343,330	0,054	0,077
-293,920	-169,244	-0,210	-0,006
-292,905	-14,022	0,125	0,058
-291,891	-18,653	0,127	0,057
-290,876	-42,616	-0,051	-0,019
-289,862	93,854	0,016	0,013
-288,847	-79,083	-0,126	-0,031
-287,832	95,631	-0,092	-0,076
-286,818	-200,000	0,010	0,097
-285,803	27,330	0,072	-0,044
-284,789	91,081	-0,049	-0,040
-283,774	-200,000	-0,001	0,006
-282,759	-200,000	-0,007	-0,097
-281,745	-200,000	-0,001	0,047
-280,730	391,427	0,032	-0,048
-279,716	74,782	-0,067	-0,051
-278,701	-117,937	0,080	0,010
-277,686	575,065	0,076	0,136
-276,672	163,687	0,103	0,105
-275,657	425,191	0,132	-0,207
-274,643	-74,486	0,101	0,026
-273,628	-200,000	-0,002	-0,064
-272,613	327,407	0,064	-0,090
-271,599	800,000	-0,027	-0,081
-270,584	-68,959	0,076	0,021
-269,570	-200,000	-0,002	0,115
-268,555	364,263	-0,050	0,074
-267,540	-38,302	-0,010	0,004
-266,526	800,000	-0,056	-0,161
-265,511	265,127	0,048	-0,060
-264,497	-200,000	-0,051	-0,164
-263,482	800,000	-0,006	0,017
-262,467	-5,177	-0,072	-0,036
-261,453	800,000	0,036	-0,107
-260,438	54,100	0,040	-0,028
-259,424	-40,816	-0,103	-0,038
-258,409	556,665	-0,003	0,005
-257,395	415,246	0,037	0,058
-256,380	-200,000	-0,001	0,070
-255,365	210,863	0,118	0,135
-254,351	-51,177	-0,037	-0,013
-253,336	-83,833	-0,080	-0,018
-252,322	-60,851	-0,100	-0,030
-251,307	489,442	0,026	-0,044
-250,292	13,398	-0,103	0,058
-249,278	741,216	0,021	0,041
-248,263	-193,566	0,121	0,001
-247,249	-68,456	0,014	-0,004
-246,234	157,165	0,079	0,079
-245,219	75,961	0,099	-0,076
-244,205	-200,000	0,005	-0,101
-243,190	800,000	-0,027	0,061
-242,176	178,052	0,071	0,075
-241,161	-116,033	0,123	0,016
-240,146	800,000	-0,055	0,135
-239,132	96,766	0,147	0,122
-238,117	186,167	-0,108	-0,116
-237,103	800,000	0,027	-0,064
-236,088	-200,000	-0,020	-0,077
-235,073	800,000	-0,030	0,093
-234,059	44,004	-0,084	0,055
-233,044	-144,198	0,099	0,007
-232,030	-200,000	-0,002	-0,045
-231,015	657,761	0,105	-0,197
-230,000	-96,190	-0,171	0,032
-228,986	-14,395	0,083	-0,038
-227,971	507,480	-0,040	-0,067
-226,957	-200,000	0,015	0,185
-225,942	-115,845	-0,054	-0,007
-224,927	92,953	-0,088	-0,072
-223,913	778,822	-0,021	0,042
-222,898	-200,000	-0,016	0,053
-221,884	98,500	0,025	0,021
-220,869	-70,146	0,125	-0,034
-219,855	-200,000	-0,018	0,099
-218,840	-200,000	0,037	0,177
-217,825	-64,288	0,060	-0,018
-216,811	141,284	-0,120	-0,115
-215,796	-92,893	0,009	-0,002
-214,782	25,858	-0,060	-0,036
-213,767	-12,358	-0,041	-0,019
-212,752	-23,677	0,117	-0,050
-211,738	800,000	0,053	0,124
-210,723	96,661	0,084	0,070
-209,709	219,272	-0,054	0,063
-208,694	-200,000	-0,021	-0,101
-207,679	10,187	-0,073	-0,040
-206,665	677,860	-0,061	-0,116
-205,650	9,819	0,180	-0,098
-204,636	220,183	0,074	-0,086
-203,621	47,656	0,108	-0,072
-202,606	-200,000	0,014	0,057
-201,592	-200,000	-0,009	-0,045
-200,577	-200,000	-0,017	-0,175
-199,563	-200,000	-0,012	-0,061
-198,548	-136,717	-0,131	0,011
-197,533	41,189	0,042	0,027
-196,519	-200,000	-0,010	-0,054
-195,504	42,346	-0,026	0,017
-194,490	87,290	-0,151	-0,120
-193,475	31,564	-0,173	-0,107
-192,460	-200,000	-0,018	-0,129
-191,446	-200,000	0,001	0,011
-190,431	-200,000	0,001	0,148
-189,417	-200,000	-0,006	0,064
-188,402	744,218	-0,048	0,093
-187,387	330,444	-0,067	0,094
-186,373	-200,000	0,018	-0,110
-185,358	103,928	0,048	0,040
-184,344	345,872	0,072	0,103
-183,329	-82,043	0,035	-0,008
-182,315	55,161	-0,067	0,047
-181,300	-69,103	0,039	0,011
-180,285	430,256	0,011	0,017
-179,271	-142,669	0,082	0,006
-178,256	-102,096	0,038	-0,007
-177,242	-67,108	0,101	0,028
-176,227	199,477	-0,042	-0,047
-175,212	479,844	-0,050	0,082
-174,198	-43,419	-0,123	-0,044
-173,183	144,152	0,034	-0,033
-172,169	386,336	-0,057	0,085
-171,154	40,747	0,073	-0,047
-170,139	-21,334	0,120	-0,053
-169,125	800,000	0,047	-0,131
-168,110	228,076	0,079	-0,092
-167,096	140,647	0,074	0,070
-166,081	-18,313	-0,128	-0,058
-165,066	-151,696	-0,104	-0,005
-164,052	252,785	0,041	-0,050
-163,037	-200,000	-0,013	-0,078
-162,023	-200,000	0,022	-0,107
-161,008	-49,105	-0,051	0,017
-159,993	800,000	-0,027	0,060
-158,979	322,147	-0,063	-0,087
-157,964	-149,229	-0,086	-0,005
-156,950	800,000	-0,040	0,100
-155,935	293,808	0,040	0,052
-154,920	-31,297	0,077	-0,031
-153,906	-80,346	0,030	0,007
-152,891	36,871	-0,076	0,048
-151,877	800,000	-0,016	0,042
-150,862	-200,000	-0,041	0,138
-149,847	-117,998	0,113	0,014
-148,833	-54,991	-0,075	-0,024
-147,818	98,509	0,081	-0,067
-146,804	18,269	0,058	0,033
-145,789	115,490	-0,069	-0,061
-144,775	800,000	-0,012	-0,027
-143,760	-200,000	-0,014	-0,053
-142,745	-200,000	-0,034	-0,160
-141,731	-32,241	-0,034	-0,014
-140,716	-200,000	0,017	0,097
-139,702	800,000	-0,050	0,103
-138,687	-200,000	-0,006	0,071
-137,672	-200,000	0,033	-0,128
-136,658	-200,000	-0,007	-0,085
-135,643	278,360	0,037	0,048
-134,629	36,100	0,116	-0,074
-133,614	87,113	0,077	0,061
-132,599	-139,990	-0,116	-0,009
-131,585	578,458	-0,051	0,090
-130,570	123,031	-0,030	-0,027
-129,556	180,142	0,063	0,066
-128,541	246,949	-0,008	0,010
-127,526	-200,000	-0,008	0,105
-126,512	569,255	0,016	0,028
-125,497	-52,836	0,053	0,017
-124,483	578,592	0,010	0,019
-123,468	641,624	0,001	0,002
-122,453	-81,240	-0,181	-0,043
-121,439	-200,000	-0,014	-0,138
-120,424	313,943	0,037	0,050
-119,410	-26,654	-0,057	-0,024
