DTS Sentinel unit serial number:	SN410029Multiplexer serial number:	ORYXHardware model number:	OX2-SRSoftware version number:	ORYX F/W v4,00 Oryx Data Collector v3.7.2.0data status	okinstallation	B5 Nyhavnadifferential loss correction	single-endedforward channel	channel 2reverse channel	N/Adate	2023/12/13time	07:27:13forward acquisition time	300,00reverse acquisition time	0,00gamma	499,1914k internal	0,3160k external	0,3160temperature offset calibration	1,0000default loss term (dB/km)	0,3820temperature slope calibration	1,0000multiplexer offset coefficient	1,0000multiplexer slope coefficient	1,0000fibre end	0,00T internal ref (°C)	13,68T ext. ref 1 (°C)	-2,73T ext. ref 2 (°C)	-3,04length (m)	temperature (°C)	Stokes	anti-Stokes-744,400	-45,209	0,008	0,003
-743,385	-168,023	-0,327	-0,009
-742,371	-8,155	0,196	0,097
-741,356	-42,280	-0,331	0,124
-740,342	-68,167	0,173	0,049
-739,327	-148,541	-0,318	-0,019
-738,312	-128,373	0,112	-0,012
-737,298	-144,766	-0,301	-0,020
-736,283	181,202	0,058	-0,062
-735,269	-0,780	-0,304	-0,158
-734,254	-30,571	0,225	0,093
-733,239	-17,613	-0,522	-0,241
-732,225	-29,527	0,189	-0,079
-731,210	710,109	-0,046	0,089
-730,196	-23,602	-0,247	0,109
-729,181	21,858	-0,102	-0,061
-728,167	-46,861	0,042	0,015
-727,152	-200,000	0,005	-0,110
-726,137	143,686	-0,048	-0,047
-725,123	-200,000	-0,004	-0,020
-724,108	800,000	-0,035	0,073
-723,094	800,000	-0,038	-0,116
-722,079	86,588	-0,113	-0,092
-721,064	598,111	0,013	0,025
-720,050	-160,011	-0,092	0,004
-719,035	162,533	0,053	0,055
-718,021	105,636	-0,161	-0,140
-717,006	128,561	0,069	-0,065
-715,991	-200,000	-0,007	-0,039
-714,977	-165,976	-0,184	-0,006
-713,962	-53,447	0,048	-0,016
-712,948	68,036	0,230	-0,173
-711,933	-7,217	-0,058	-0,029
-710,918	-75,600	0,052	-0,014
-709,904	-142,290	-0,154	-0,011
-708,889	289,587	-0,115	-0,154
-707,875	53,333	0,114	-0,080
-706,860	-124,332	0,121	0,014
-705,845	110,468	0,023	-0,020
-704,831	289,492	0,025	0,034
-703,816	-200,000	-0,026	-0,124
-702,802	68,233	-0,101	0,076
-701,787	-200,000	0,016	-0,123
-700,772	-78,485	-0,081	-0,020
-699,758	-200,000	-0,015	-0,085
-698,743	326,930	0,060	-0,084
-697,729	-100,196	0,112	0,020
-696,714	218,607	0,003	-0,003
-695,699	-14,842	-0,040	0,019
-694,685	-154,990	-0,088	0,004
-693,670	5,920	-0,067	-0,036
-692,656	-68,546	-0,136	-0,039
-691,641	-200,000	-0,008	0,124
-690,627	-200,000	-0,024	0,151
-689,612	186,907	0,162	-0,178
-688,597	183,729	-0,085	-0,092
-687,583	-200,000	-0,003	-0,084
-686,568	-174,304	0,076	0,002
-685,554	154,578	-0,065	0,066
-684,539	-117,318	0,164	-0,022
-683,524	9,282	0,051	0,028
-682,510	-200,000	0,003	-0,039
-681,495	-200,000	-0,036	-0,145
-680,481	-200,000	-0,014	-0,127
-679,466	254,359	-0,029	-0,037
-678,451	-143,932	-0,227	-0,015
-677,437	-5,046	0,195	-0,098
-676,422	-200,000	-0,010	-0,071
-675,408	120,140	0,066	0,060
-674,393	-2,220	-0,032	0,016
-673,378	-200,000	-0,002	-0,094
-672,364	92,612	-0,061	0,050
-671,349	800,000	0,032	-0,078
-670,335	-200,000	-0,003	0,123
-669,320	58,167	-0,020	-0,015
-668,305	-200,000	0,001	0,068
-667,291	105,557	0,067	-0,058
-666,276	-41,381	-0,060	-0,023
-665,262	332,824	-0,032	0,046
-664,247	-81,123	-0,084	-0,020
-663,232	176,033	-0,051	-0,054
-662,218	-200,000	-0,004	0,065
-661,203	354,218	0,034	0,050
-660,189	-200,000	-0,002	0,042
-659,174	-25,289	-0,060	-0,026
-658,159	800,000	0,003	-0,008
-657,145	28,983	-0,077	0,048
-656,130	-82,700	0,093	0,022
-655,116	346,135	-0,045	-0,064
-654,101	-200,000	-0,013	0,088
-653,086	-200,000	-0,018	-0,115
-652,072	389,555	0,030	-0,045
-651,057	-38,264	-0,150	-0,058
-650,043	-200,000	0,033	0,111
-649,028	-36,639	0,047	-0,018
-648,014	546,471	-0,062	-0,108
-646,999	66,049	-0,025	-0,018
-645,984	88,385	-0,050	-0,041
-644,970	-200,000	0,002	-0,021
-643,955	-150,683	-0,192	0,011
-642,941	-152,260	0,119	-0,006
-641,926	-200,000	-0,012	-0,068
-640,911	-86,451	-0,063	0,014
-639,897	749,916	0,027	0,054
-638,882	-61,824	0,105	0,032
-637,868	709,551	0,051	-0,099
-636,853	-2,704	-0,169	-0,086
-635,838	800,000	-0,044	0,098
-634,824	171,366	-0,118	-0,124
-633,809	51,607	0,038	0,026
-632,795	-117,025	0,087	0,012
-631,780	-62,863	0,081	0,024
-630,765	-200,000	-0,006	-0,066
-629,751	-52,496	-0,098	-0,033
-628,736	196,417	0,058	-0,065
-627,722	-170,248	0,037	0,001
-626,707	800,000	0,032	0,075
-625,692	60,985	0,241	0,175
-624,678	12,756	-0,032	0,018
-623,663	-153,012	-0,186	-0,009
-622,649	-200,000	-0,023	-0,104
-621,634	-200,000	0,000	-0,131
-620,619	-200,000	-0,017	0,126
-619,605	-200,000	0,022	0,079
-618,590	46,929	-0,098	-0,067
-617,576	-70,935	0,118	0,032
-616,561	656,648	-0,063	-0,119
-615,546	-115,965	-0,152	-0,021
-614,532	126,988	0,081	0,075
-613,517	-116,935	0,185	0,025
-612,503	-200,000	0,043	-0,140
-611,488	800,000	-0,021	-0,062
-610,474	-139,748	-0,064	0,005
-609,459	-69,285	0,085	0,024
-608,444	-57,937	0,099	-0,032
-607,430	101,551	-0,105	-0,089
-606,415	347,949	0,060	0,087
-605,401	190,485	-0,020	0,022
-604,386	-184,078	-0,107	0,001
-603,371	-200,000	-0,016	0,096
-602,357	-200,000	-0,007	-0,099
-601,342	49,430	0,071	-0,049
-600,328	-107,325	-0,064	0,010
-599,313	-200,000	0,004	-0,040
-598,298	-200,000	0,010	-0,046
-597,284	-86,993	0,036	-0,008
-596,269	370,261	0,058	0,087
-595,255	-76,769	0,086	-0,022
-594,240	752,617	-0,070	-0,139
-593,225	-120,931	-0,101	-0,012
-592,211	302,079	-0,044	-0,059
-591,196	139,321	0,062	-0,060
-590,182	-200,000	-0,012	0,087
-589,167	-9,056	0,149	0,073
-588,152	-136,445	0,073	0,006
-587,138	39,544	-0,147	0,096
-586,123	-123,123	-0,075	-0,009
-585,109	-200,000	-0,025	0,092
-584,094	800,000	0,060	0,126
-583,079	91,061	0,082	-0,067
-582,065	-200,000	-0,000	0,044
-581,050	637,562	-0,052	-0,097
-580,036	140,275	-0,107	-0,103
-579,021	163,564	-0,094	-0,097
-578,006	-39,413	0,027	0,010
-576,992	67,398	-0,113	-0,084
-575,977	308,388	0,010	-0,013
-574,963	800,000	-0,028	-0,084
-573,948	-105,226	0,121	0,020
-572,934	282,624	-0,086	-0,114
-571,919	220,614	-0,071	0,084
-570,904	-36,108	-0,090	0,036
-569,890	-133,617	-0,140	-0,013
-568,875	800,000	0,028	0,090
-567,861	521,410	0,050	-0,086
-566,846	161,168	0,093	-0,095
-565,831	800,000	-0,056	-0,149
-564,817	-18,615	-0,079	-0,036
-563,802	-200,000	-0,007	-0,189
-562,788	219,178	0,064	-0,075
-561,773	107,828	0,085	0,074
-560,758	800,000	0,020	-0,045
-559,744	-200,000	-0,023	-0,129
-558,729	224,886	-0,022	-0,026
-557,715	305,228	-0,071	-0,097
-556,700	247,183	-0,056	-0,070
-555,685	-200,000	-0,005	0,065
-554,671	-200,000	-0,020	0,154
-553,656	800,000	0,043	-0,098
-552,642	124,574	0,036	0,033
-551,627	-72,095	0,035	0,009
-550,612	176,316	-0,092	0,097
-549,598	14,102	-0,091	0,051
-548,583	143,274	-0,104	-0,101
-547,569	113,717	-0,041	-0,036
-546,554	-50,085	0,105	-0,036
-545,539	-100,999	0,146	0,026
-544,525	-200,000	-0,002	-0,044
-543,510	93,924	-0,089	0,074
-542,496	-55,509	-0,063	-0,021
-541,481	395,724	0,030	0,047
-540,466	-200,000	0,012	-0,062
-539,452	34,269	-0,088	0,056
-538,437	96,228	0,059	-0,049
-537,423	-200,000	-0,003	-0,104
-536,408	608,516	0,018	0,033
-535,393	800,000	0,027	-0,059
-534,379	-187,641	-0,041	0,000
-533,364	432,208	0,043	-0,068
-532,350	-5,837	0,048	-0,024
-531,335	800,000	0,056	0,149
-530,321	-104,771	0,117	0,019
-529,306	-116,508	-0,115	-0,015
-528,291	800,000	0,020	0,047
-527,277	-200,000	0,021	-0,082
-526,262	-200,000	-0,022	-0,153
-525,248	800,000	-0,047	-0,114
-524,233	-64,317	0,076	-0,022
-523,218	491,621	-0,024	-0,040
-522,204	209,619	0,026	0,030
-521,189	534,080	0,084	-0,146
-520,175	518,169	0,060	-0,103
-519,160	800,000	-0,034	0,069
-518,145	-200,000	0,123	0,000
-517,131	422,756	0,075	-0,118
-516,116	-200,000	0,013	-0,090
-515,102	180,085	-0,079	0,084
-514,087	-189,466	-0,112	0,001
-513,072	48,818	0,026	-0,018
-512,058	187,887	-0,059	0,064
-511,043	64,181	0,080	-0,059
-510,029	-34,612	0,069	0,027
-509,014	281,070	-0,020	-0,026
-507,999	-60,171	-0,074	-0,023
-506,985	42,613	-0,110	-0,073
-505,970	-200,000	-0,016	-0,158
-504,956	-102,832	-0,096	0,016
-503,941	110,156	0,035	0,031
-502,926	-200,000	0,002	0,051
-501,912	-112,694	-0,070	-0,010
-500,897	-16,246	0,073	0,034
-499,883	-56,712	0,025	0,008
-498,868	-34,907	-0,120	-0,048
-497,853	-84,709	0,116	-0,027
-496,839	346,001	-0,048	-0,070
-495,824	-200,000	0,025	0,100
-494,810	800,000	0,012	0,036
-493,795	111,918	0,106	0,093
-492,781	800,000	0,017	-0,037
-491,766	378,759	-0,016	-0,024
-490,751	-94,734	0,080	0,016
-489,737	-200,000	0,024	0,112
-488,722	-200,000	-0,038	0,131
-487,708	-41,258	0,064	-0,024
-486,693	-200,000	0,004	-0,019
-485,678	245,859	-0,083	0,102
-484,664	-195,915	0,091	-0,000
-483,649	380,624	0,030	-0,046
-482,635	122,970	0,077	-0,071
-481,620	800,000	-0,035	0,074
-480,605	73,203	0,069	0,053
-479,591	410,903	-0,039	0,061
-478,576	800,000	0,024	0,071
-477,562	-200,000	0,000	-0,034
-476,547	45,067	-0,088	-0,059
-475,532	-200,000	-0,012	-0,133
-474,518	-61,155	0,046	-0,014
-473,503	-200,000	-0,002	-0,018
-472,489	668,843	0,089	-0,169
-471,474	58,919	-0,019	-0,013
-470,459	-200,000	-0,037	-0,180
-469,445	-45,298	-0,101	-0,036
-468,430	90,830	0,037	-0,030
-467,416	89,235	0,120	-0,097
-466,401	93,406	0,049	-0,040
-465,386	-110,295	0,104	0,016
-464,372	608,504	0,103	-0,189
-463,357	-21,659	-0,062	0,027
-462,343	334,005	-0,121	-0,171
-461,328	-200,000	0,022	-0,105
-460,313	121,807	0,118	0,108
-459,299	571,873	0,040	-0,071
-458,284	46,802	0,089	-0,060
-457,270	800,000	-0,053	-0,136
-456,255	-200,000	0,019	-0,132
-455,241	101,856	0,056	0,048
-454,226	32,761	-0,064	-0,041
-453,211	800,000	0,034	0,094
-452,197	390,887	0,036	0,054
-451,182	-124,738	-0,187	0,021
-450,168	27,792	0,112	0,068
-449,153	-43,894	-0,149	-0,054
-448,138	29,711	-0,142	-0,088
-447,124	-68,449	0,026	0,007
-446,109	97,895	0,135	0,113
-445,095	800,000	-0,086	0,199
-444,080	53,885	-0,051	-0,036
-443,065	1,347	0,085	0,044
-442,051	-104,248	0,055	0,009
-441,036	-200,000	-0,014	0,044
-440,022	46,650	-0,098	0,066
-439,007	-200,000	0,014	0,084
-437,992	-200,000	-0,004	-0,018
-436,978	-200,000	-0,002	-0,021
-435,963	-200,000	0,046	0,200
-434,949	70,134	0,076	-0,057
-433,934	276,170	-0,074	-0,096
-432,919	359,701	-0,052	0,076
-431,905	404,462	0,006	-0,009
-430,890	21,775	-0,090	0,053
-429,876	697,452	0,062	0,119
-428,861	-200,000	0,001	0,088
-427,846	125,341	0,047	0,043
-426,832	-75,167	-0,132	-0,034
-425,817	-24,264	-0,097	0,042
-424,803	66,814	-0,190	-0,140
-423,788	340,436	-0,026	0,037
-422,773	-200,000	0,002	0,151
-421,759	-144,426	-0,186	0,012
-420,744	-55,243	0,136	0,044
-419,730	-200,000	-0,008	-0,071
-418,715	606,228	-0,021	0,039
-417,701	334,477	-0,029	-0,041
-416,686	137,531	0,076	0,073
-415,671	-200,000	0,020	0,110
-414,657	53,430	-0,034	0,024
-413,642	441,129	-0,055	-0,087
-412,628	-56,345	0,062	-0,020
-411,613	-76,091	-0,014	0,004
-410,598	144,481	0,033	0,032
-409,584	-200,000	-0,031	0,131
-408,569	184,782	0,107	0,115
-407,555	-28,243	0,061	-0,025
-406,540	128,940	-0,114	0,106
-405,525	-200,000	0,004	0,128
-404,511	598,681	-0,013	0,023
-403,496	247,653	-0,045	-0,055
-402,482	-200,000	0,018	0,072
-401,467	106,873	0,114	0,098
-400,452	111,110	0,057	0,050
-399,438	-50,887	0,016	0,005
-398,423	-103,820	-0,074	-0,012
-397,409	-12,191	-0,033	0,016
-396,394	124,558	0,037	0,034
-395,379	19,011	0,187	-0,109
-394,365	350,212	0,088	0,127
-393,350	-200,000	0,019	0,073
-392,336	136,739	0,114	0,108
-391,321	108,542	0,074	0,064
-390,306	-108,388	-0,034	-0,005
-389,292	220,575	-0,084	-0,099
-388,277	-151,208	0,088	0,005
-387,263	-10,435	0,115	0,055
-386,248	-200,000	-0,045	0,164
-385,233	800,000	-0,031	0,064
-384,219	168,967	0,056	0,058
-383,204	295,743	-0,054	-0,072
-382,190	800,000	-0,013	0,027
-381,175	-200,000	0,022	-0,151
-380,160	-14,642	0,065	0,030
-379,146	-200,000	0,006	0,026
-378,131	800,000	0,009	0,028
-377,117	-200,000	0,000	-0,019
-376,102	186,772	-0,120	-0,130
-375,088	800,000	-0,015	-0,048
-374,073	509,697	-0,017	0,029
-373,058	283,620	0,098	0,128
-372,044	268,769	-0,064	-0,082
-371,029	-146,306	-0,086	0,005
-370,015	-157,591	-0,118	0,005
-369,000	-200,000	-0,028	-0,128
-367,985	-1,018	0,021	-0,011
-366,971	-101,863	-0,143	0,025
-365,956	800,000	-0,012	0,031
-364,942	800,000	0,024	-0,072
-363,927	-107,574	0,032	0,005
-362,912	800,000	-0,048	0,110
-361,898	-16,852	-0,099	0,045
-360,883	-153,722	0,085	0,004
-359,869	23,153	-0,049	0,029
-358,854	-200,000	0,021	0,109
-357,839	-118,543	-0,103	-0,013
-356,825	15,612	0,080	0,046
-355,810	745,867	-0,018	0,035
-354,796	-118,421	-0,057	-0,007
-353,781	440,542	0,128	-0,204
-352,766	800,000	0,024	0,049
-351,752	800,000	0,040	-0,092
-350,737	-200,000	0,035	0,127
-349,723	343,107	-0,023	0,033
-348,708	-16,720	-0,080	0,036
-347,693	800,000	-0,025	0,079
-346,679	26,714	-0,111	-0,068
-345,664	-97,550	0,042	-0,008
-344,650	-200,000	-0,002	-0,051
-343,635	800,000	-0,024	-0,056
-342,620	-200,000	0,029	-0,094
-341,606	36,413	0,019	0,012
-340,591	-200,000	0,006	0,035
-339,577	-68,144	-0,218	-0,061
-338,562	791,095	-0,043	-0,086
-337,548	13,973	0,012	0,007
-336,533	-98,729	-0,003	0,001
-335,518	34,516	-0,141	0,089
-334,504	800,000	0,036	-0,089
-333,489	-14,270	0,052	-0,024
-332,475	-75,306	-0,062	0,016
-331,460	-45,099	-0,169	0,061
-330,445	-99,090	0,112	-0,020
-329,431	-200,000	0,038	0,168
-328,416	800,000	-0,040	0,085
-327,402	-200,000	0,001	0,004
-326,387	144,530	-0,099	0,096
-325,372	-96,057	-0,109	-0,021
-324,358	-40,106	-0,065	0,024
-323,343	463,382	0,067	-0,108
-322,329	-200,000	-0,002	0,078
-321,314	169,646	-0,046	-0,048
-320,299	800,000	0,044	0,113
-319,285	-25,456	-0,025	0,011
-318,270	-150,309	-0,065	-0,004
-317,256	273,003	-0,043	0,055
-316,241	-200,000	-0,010	-0,080
-315,226	-200,000	-0,032	0,134
-314,212	118,322	0,086	0,077
-313,197	13,384	-0,040	-0,023
-312,183	-102,514	-0,091	-0,016
-311,168	-17,013	-0,068	0,031
-310,153	-200,000	0,013	-0,066
-309,139	-40,324	-0,060	-0,023
-308,124	16,101	0,058	0,033
-307,110	-200,000	0,020	0,069
-306,095	256,903	0,049	0,061
-305,080	-11,005	0,084	0,040
-304,066	133,763	0,084	-0,078
-303,051	-200,000	-0,018	0,095
-302,037	122,172	-0,079	-0,072
-301,022	21,658	-0,055	0,033
-300,008	-88,621	0,070	0,015
-298,993	-200,000	-0,026	0,084
-297,978	-200,000	0,017	0,057
-296,964	165,608	-0,016	-0,016
-295,949	-145,045	-0,144	0,009
-294,935	385,293	0,038	-0,057
-293,920	-110,936	-0,021	-0,003
-292,905	-34,870	0,062	-0,025
-291,891	37,031	0,097	0,062
-290,876	269,085	0,050	0,064
-289,862	-62,891	-0,121	0,036
-288,847	-181,808	0,068	0,001
-287,832	-200,000	-0,020	0,085
-286,818	94,025	-0,036	0,030
-285,803	-67,685	0,053	0,015
-284,789	-131,662	0,139	0,013
-283,774	-56,677	-0,057	-0,018
-282,759	-98,699	0,054	0,010
-281,745	-16,204	-0,083	0,038
-280,730	-200,000	-0,007	-0,042
-279,716	-200,000	-0,002	0,069
-278,701	74,887	0,104	-0,079
-277,686	337,688	0,041	-0,058
-276,672	68,883	0,086	-0,064
-275,657	-107,055	0,148	-0,023
-274,643	-8,753	-0,131	-0,063
-273,628	-116,167	-0,164	-0,022
-272,613	-24,436	-0,139	0,060
-271,599	169,437	-0,028	-0,029
-270,584	233,471	0,091	-0,108
-269,570	20,195	0,088	0,051
-268,555	-200,000	-0,004	-0,200
-267,540	-70,381	-0,070	0,019
-266,526	-200,000	0,021	-0,094
-265,511	128,154	-0,122	0,112
-264,497	205,412	0,014	-0,016
-263,482	800,000	0,023	-0,054
-262,467	-27,459	0,144	0,060
-261,453	-42,330	-0,091	-0,033
-260,438	800,000	0,074	-0,151
-259,424	-20,282	0,077	0,034
-258,409	99,679	-0,162	0,135
-257,395	-23,358	-0,113	0,049
-256,380	-69,050	-0,047	-0,013
-255,365	197,761	-0,069	0,076
-254,351	-145,768	0,074	0,005
-253,336	-71,136	-0,076	-0,021
-252,322	800,000	-0,047	-0,097
-251,307	35,527	-0,035	0,022
-250,292	800,000	0,017	0,040
-249,278	35,321	-0,126	0,080
-248,263	-200,000	0,009	-0,087
-247,249	-164,809	0,064	0,002
-246,234	13,000	0,132	-0,074
-245,219	-200,000	-0,025	0,090
-244,205	-200,000	0,027	0,112
-243,190	94,236	0,019	-0,015
-242,176	48,657	0,083	-0,056
-241,161	106,458	0,087	-0,075
-240,146	201,790	0,050	-0,056
-239,132	-68,894	0,061	0,017
-238,117	107,661	0,018	-0,015
-237,103	370,117	0,077	-0,113
-236,088	800,000	0,054	0,148
-235,073	-122,881	0,096	-0,011
-234,059	-200,000	-0,023	-0,141
-233,044	-200,000	0,017	0,204
-232,030	144,600	0,061	-0,059
-231,015	-162,638	-0,103	-0,004
-230,000	76,895	-0,096	0,073
-228,986	148,032	0,109	0,107
-227,971	151,828	0,062	0,061
-226,957	-78,941	0,157	0,038
-225,942	-22,651	0,163	0,071
-224,927	190,819	0,122	0,133
-223,913	38,383	-0,052	-0,033
-222,898	43,504	-0,068	0,045
-221,884	-200,000	0,008	0,099
-220,869	-200,000	0,002	0,046
-219,855	-200,000	0,017	0,093
-218,840	65,418	-0,067	0,049
-217,825	800,000	-0,043	-0,089
-216,811	-70,835	0,067	-0,018
-215,796	-51,568	-0,065	0,022
-214,782	-88,231	-0,046	-0,010
-213,767	155,711	0,037	-0,037
-212,752	384,389	-0,062	0,093
-211,738	-200,000	-0,013	0,060
-210,723	52,985	-0,162	0,111
-209,709	-200,000	-0,002	-0,062
-208,694	800,000	0,009	0,024
-207,679	-200,000	-0,005	-0,049
-206,665	16,096	-0,088	0,050
-205,650	243,501	0,117	0,142
-204,636	370,941	0,041	0,061
-203,621	93,316	0,067	-0,054
-202,606	395,158	0,018	-0,026
-201,592	86,296	-0,034	-0,027
-200,577	-200,000	0,000	-0,018
-199,563	285,814	0,075	-0,097
-198,548	-200,000	0,010	0,083
-197,533	-177,863	0,086	-0,001
-196,519	551,304	0,053	0,092
-195,504	800,000	-0,040	-0,102
-194,490	-27,667	0,066	-0,028
-193,475	-200,000	0,005	0,044
-192,460	23,597	-0,063	-0,037
-191,446	800,000	0,058	-0,123
-190,431	-200,000	-0,037	-0,121
-189,417	-200,000	0,018	0,120
-188,402	602,115	0,041	0,073
-187,387	-37,012	-0,088	-0,034
-186,373	-200,000	-0,023	-0,154
-185,358	166,653	-0,059	-0,061
-184,344	187,646	0,025	-0,027
-183,329	-124,277	0,114	0,013
-182,315	-29,577	0,019	0,008
-181,300	-18,264	-0,050	-0,022
-180,285	-126,087	0,080	0,009
-179,271	800,000	-0,052	0,160
-178,256	-23,989	0,114	-0,049
-177,242	800,000	0,026	0,069
-176,227	138,236	0,104	-0,098
-175,212	-90,819	-0,064	-0,013
-174,198	-64,645	-0,032	-0,009
-173,183	-154,517	-0,054	0,003
-172,169	-21,896	-0,050	0,022
-171,154	-37,386	-0,153	-0,059
-170,139	800,000	0,022	-0,048
-169,125	248,308	0,057	0,069
-168,110	800,000	0,045	0,096
-167,096	435,095	-0,031	0,048
-166,081	103,605	-0,049	0,042
-165,066	239,562	-0,073	-0,087
-164,052	-142,580	0,116	0,008
-163,037	256,624	-0,072	-0,090
-162,023	-96,561	0,069	0,013
-161,008	-200,000	0,004	-0,033
-159,993	800,000	0,033	0,082
-158,979	-33,105	0,112	0,045
-157,964	120,350	-0,067	-0,060
-156,950	-200,000	-0,026	-0,117
-155,935	245,528	-0,043	0,053
-154,920	21,285	0,148	0,086
-153,906	59,208	0,146	0,103
-152,891	-21,911	0,088	-0,038
-151,877	85,025	0,018	0,014
-150,862	-112,252	0,127	0,018
-149,847	-200,000	-0,007	0,073
-148,833	-200,000	-0,033	-0,128
-147,818	-200,000	0,009	0,056
-146,804	-97,909	0,090	0,017
-145,789	-200,000	0,043	0,170
-144,775	31,424	-0,078	0,048
-143,760	800,000	0,049	0,100
-142,745	195,100	0,045	0,049
-141,731	138,976	0,105	-0,099
-140,716	113,023	0,068	0,059
-139,702	-45,366	0,036	0,013
-138,687	49,035	-0,101	-0,068
-137,672	599,882	-0,064	0,116
-136,658	501,792	-0,028	-0,047
-135,643	-200,000	0,012	0,071
-134,629	-147,690	-0,199	0,012
-133,614	595,893	-0,018	0,032
-132,599	800,000	-0,031	0,067
-131,585	442,701	0,042	-0,066
-130,570	-200,000	0,009	-0,127
-129,556	800,000	-0,017	-0,040
-128,541	20,040	0,048	-0,028
-127,526	303,918	-0,036	-0,048
-126,512	-41,224	0,043	0,016
-125,497	53,428	0,066	0,046
-124,483	152,600	0,118	0,116
-123,468	-167,505	-0,032	-0,001
-122,453	-200,000	-0,009	-0,043
-121,439	421,924	-0,026	-0,040
-120,424	-125,534	0,102	0,011
-119,410	98,928	0,073	0,061
