DTS Sentinel unit serial number:	SN410029Multiplexer serial number:	ORYXHardware model number:	OX2-SRSoftware version number:	ORYX F/W v4,00 Oryx Data Collector v3.7.2.0data status	okinstallation	B5 Nyhavnadifferential loss correction	single-endedforward channel	channel 2reverse channel	N/Adate	2023/12/14time	17:47:13forward acquisition time	300,00reverse acquisition time	0,00gamma	499,1914k internal	0,3156k external	0,3156temperature offset calibration	1,0000default loss term (dB/km)	0,3820temperature slope calibration	1,0000multiplexer offset coefficient	1,0000multiplexer slope coefficient	1,0000fibre end	0,00T internal ref (°C)	8,31T ext. ref 1 (°C)	-7,14T ext. ref 2 (°C)	-7,20length (m)	temperature (°C)	Stokes	anti-Stokes-744,400	7,690	0,133	-0,073
-743,385	-84,744	-0,184	-0,042
-742,371	-103,373	0,170	0,029
-741,356	-107,296	-0,401	0,064
-740,342	110,926	0,255	0,226
-739,327	-185,598	-0,329	0,004
-738,312	86,213	0,142	0,115
-737,298	-77,542	-0,364	-0,092
-736,283	98,536	0,135	0,115
-735,269	-58,247	-0,372	-0,119
-734,254	-10,037	0,182	0,089
-733,239	22,877	-0,480	-0,290
-732,225	-94,504	0,242	0,048
-731,210	105,586	0,040	0,035
-730,196	-14,815	-0,012	-0,006
-729,181	75,684	-0,209	0,163
-728,167	720,865	-0,060	-0,118
-727,152	-62,637	-0,063	-0,019
-726,137	50,734	-0,160	-0,111
-725,123	-47,424	0,078	-0,028
-724,108	563,477	0,130	-0,233
-723,094	-200,000	-0,005	-0,048
-722,079	370,501	-0,052	0,078
-721,064	-200,000	0,015	-0,099
-720,050	-200,000	0,009	0,092
-719,035	138,003	0,091	0,088
-718,021	154,730	-0,060	-0,060
-717,006	208,983	-0,070	-0,081
-715,991	-54,130	-0,130	-0,043
-714,977	62,630	-0,117	-0,086
-713,962	5,746	0,042	0,023
-712,948	800,000	-0,039	-0,102
-711,933	474,530	-0,013	-0,022
-710,918	-93,727	-0,080	-0,016
-709,904	-119,853	-0,055	-0,007
-708,889	-32,264	-0,223	-0,091
-707,875	-200,000	-0,014	-0,197
-706,860	79,715	-0,110	0,087
-705,845	-143,056	-0,156	-0,011
-704,831	800,000	0,060	-0,135
-703,816	-200,000	0,004	-0,183
-702,802	-200,000	0,007	0,027
-701,787	-200,000	0,023	-0,096
-700,772	-200,000	0,002	-0,108
-699,758	10,120	0,047	-0,026
-698,743	800,000	0,022	0,046
-697,729	-160,219	0,088	0,003
-696,714	-136,844	0,075	0,006
-695,699	800,000	-0,036	-0,079
-694,685	5,227	-0,089	-0,048
-693,670	-200,000	0,007	0,117
-692,656	-183,639	0,107	0,001
-691,641	446,711	-0,011	-0,017
-690,627	54,638	-0,111	0,079
-689,612	237,581	0,080	0,098
-688,597	127,881	-0,060	-0,056
-687,583	90,425	-0,055	0,045
-686,568	-200,000	0,015	-0,131
-685,554	-200,000	0,006	0,020
-684,539	-200,000	0,025	0,196
-683,524	-77,983	0,034	-0,009
-682,510	-159,379	0,034	-0,001
-681,495	800,000	0,024	-0,049
-680,481	79,687	-0,127	0,100
-679,466	-200,000	-0,013	-0,058
-678,451	-66,614	0,026	-0,008
-677,437	-200,000	-0,027	-0,114
-676,422	550,261	0,056	0,099
-675,408	-12,524	-0,039	-0,018
-674,393	800,000	-0,030	-0,072
-673,378	6,403	-0,091	-0,050
-672,364	-90,573	-0,113	0,024
-671,349	679,173	0,050	-0,095
-670,335	800,000	0,009	0,022
-669,320	301,935	-0,064	-0,087
-668,305	-200,000	0,016	0,155
-667,291	-123,215	-0,131	0,015
-666,276	53,089	-0,094	0,066
-665,262	-48,685	-0,028	-0,010
-664,247	184,108	-0,128	-0,140
-663,232	-103,886	0,073	-0,012
-662,218	14,650	0,059	-0,034
-661,203	-33,681	0,086	0,035
-660,189	-200,000	0,037	-0,120
-659,174	-129,707	-0,179	-0,018
-658,159	-200,000	-0,005	-0,085
-657,145	-3,630	-0,073	-0,037
-656,130	-200,000	-0,001	0,028
-655,116	-200,000	-0,013	0,000
-654,101	-70,058	0,082	-0,023
-653,086	-200,000	-0,005	-0,143
-652,072	153,148	0,022	-0,022
-651,057	-140,020	0,123	0,009
-650,043	-175,118	-0,093	0,002
-649,028	254,141	0,049	0,061
-648,014	800,000	0,013	-0,038
-646,999	58,202	0,095	-0,068
-645,984	-200,000	0,021	-0,077
-644,970	-200,000	-0,012	-0,044
-643,955	-31,400	-0,096	-0,039
-642,941	603,301	0,069	-0,126
-641,926	800,000	-0,031	0,092
-640,911	91,970	0,115	0,095
-639,897	-68,385	-0,145	-0,041
-638,882	92,482	0,088	-0,073
-637,868	384,243	-0,054	-0,081
-636,853	139,984	-0,096	-0,093
-635,838	254,206	-0,030	-0,038
-634,824	472,420	-0,019	-0,031
-633,809	-126,746	0,120	0,013
-632,795	51,286	0,081	0,056
-631,780	132,489	-0,015	0,014
-630,765	-200,000	-0,035	-0,162
-629,751	57,896	-0,095	-0,068
-628,736	-200,000	0,016	0,070
-627,722	-200,000	0,004	0,045
-626,707	-22,684	-0,071	0,031
-625,692	643,734	-0,043	0,081
-624,678	-13,136	-0,043	0,020
-623,663	509,822	-0,027	-0,047
-622,649	521,538	-0,092	-0,159
-621,634	-92,929	-0,152	-0,031
-620,619	561,072	0,010	0,019
-619,605	-153,365	0,106	0,005
-618,590	347,893	-0,050	0,073
-617,576	253,430	-0,063	0,079
-616,561	176,977	-0,163	-0,174
-615,546	-114,033	0,039	0,006
-614,532	-94,008	-0,116	-0,023
-613,517	-19,753	0,071	0,032
-612,503	-22,339	0,114	-0,051
-611,488	23,646	0,040	0,024
-610,474	-125,092	0,146	0,016
-609,459	-78,994	-0,172	0,043
-608,444	-19,204	0,098	-0,045
-607,430	800,000	-0,007	-0,017
-606,415	154,201	-0,040	0,040
-605,401	-200,000	-0,011	-0,093
-604,386	-148,547	-0,138	-0,008
-603,371	330,939	-0,046	0,065
-602,357	800,000	0,055	-0,147
-601,342	-200,000	0,020	-0,189
-600,328	-105,985	-0,072	0,012
-599,313	205,280	-0,059	0,067
-598,298	180,987	-0,039	0,042
-597,284	136,284	0,133	0,128
-596,269	261,234	0,067	0,085
-595,255	70,097	-0,054	0,041
-594,240	-131,446	0,143	0,014
-593,225	56,693	-0,160	-0,114
-592,211	-200,000	0,010	-0,042
-591,196	26,231	0,133	-0,081
-590,182	-109,470	0,052	-0,008
-589,167	206,400	0,013	0,015
-588,152	-66,739	-0,174	0,050
-587,138	800,000	0,009	-0,022
-586,123	-20,060	0,071	0,032
-585,109	609,566	-0,029	0,054
-584,094	608,846	-0,062	0,114
-583,079	412,700	0,030	-0,047
-582,065	115,177	0,093	-0,083
-581,050	-140,947	0,109	-0,008
-580,036	-200,000	0,001	0,013
-579,021	160,422	0,091	0,093
-578,006	-67,226	-0,113	-0,032
-576,992	134,878	-0,111	-0,106
-575,977	-200,000	0,025	0,084
-574,963	-200,000	0,004	0,033
-573,948	-86,820	0,026	0,006
-572,934	-142,133	-0,173	-0,012
-571,919	130,498	-0,035	-0,033
-570,904	-200,000	-0,014	-0,070
-569,890	-127,810	-0,066	0,007
-568,875	482,399	-0,050	0,084
-567,861	800,000	-0,069	-0,154
-566,846	-7,108	0,102	-0,050
-565,831	-200,000	0,015	0,062
-564,817	-117,235	-0,140	-0,018
-563,802	196,200	-0,064	-0,072
-562,788	-81,978	0,050	-0,012
-561,773	-200,000	0,004	0,063
-560,758	-22,374	0,049	0,022
-559,744	-134,327	-0,058	-0,005
-558,729	256,849	0,073	-0,092
-557,715	800,000	-0,036	-0,094
-556,700	181,567	-0,083	-0,090
-555,685	37,141	-0,191	-0,123
-554,671	101,818	0,050	0,043
-553,656	800,000	0,084	0,196
-552,642	690,290	0,041	0,078
-551,627	89,576	0,067	-0,055
-550,612	800,000	0,032	-0,083
-549,598	-86,884	-0,029	-0,007
-548,583	43,511	-0,041	0,028
-547,569	-146,641	0,139	-0,009
-546,554	412,920	0,041	0,064
-545,539	99,478	-0,034	-0,028
-544,525	-133,027	-0,079	0,007
-543,510	110,933	-0,060	-0,053
-542,496	76,580	-0,095	-0,074
-541,481	-66,926	-0,230	0,066
-540,466	47,658	0,090	0,061
-539,452	-36,971	0,063	-0,025
-538,437	377,624	-0,023	0,034
-537,423	-200,000	0,021	-0,126
-536,408	118,618	-0,093	-0,084
-535,393	234,736	-0,039	-0,048
-534,379	-58,574	0,177	-0,056
-533,364	-200,000	0,000	0,008
-532,350	-200,000	-0,017	0,055
-531,335	-145,682	-0,053	0,003
-530,321	800,000	-0,038	-0,081
-529,306	127,759	-0,002	0,002
-528,291	-200,000	-0,012	-0,086
-527,277	244,249	-0,061	-0,075
-526,262	-51,459	-0,063	-0,021
-525,248	800,000	-0,081	0,204
-524,233	-54,669	0,117	0,038
-523,218	5,657	-0,119	0,064
-522,204	-200,000	0,013	0,050
-521,189	800,000	-0,056	-0,165
-520,175	800,000	0,047	-0,134
-519,160	236,078	0,023	-0,027
-518,145	65,167	0,112	-0,083
-517,131	-77,651	-0,071	-0,018
-516,116	-200,000	-0,024	0,113
-515,102	-18,246	-0,080	-0,037
-514,087	-84,157	0,061	-0,014
-513,072	190,815	-0,053	-0,058
-512,058	800,000	-0,038	-0,118
-511,043	-69,800	0,108	-0,030
-510,029	-146,645	0,100	-0,006
-509,014	171,967	0,023	0,024
-507,999	-200,000	0,009	0,041
-506,985	800,000	-0,012	-0,029
-505,970	322,337	-0,069	0,096
-504,956	-155,326	0,099	0,005
-503,941	452,124	-0,097	0,158
-502,926	800,000	0,050	0,130
-501,912	800,000	-0,027	0,075
-500,897	99,243	-0,025	-0,022
-499,883	-160,944	-0,061	0,002
-498,868	-22,601	-0,046	-0,020
-497,853	87,853	-0,045	0,036
-496,839	397,391	0,045	-0,069
-495,824	0,289	0,065	0,034
-494,810	-200,000	0,005	0,119
-493,795	-200,000	-0,002	-0,035
-492,781	30,470	0,069	-0,043
-491,766	800,000	-0,051	0,164
-490,751	127,491	-0,059	0,054
-489,737	-80,275	-0,066	0,016
-488,722	732,812	-0,062	0,123
-487,708	800,000	0,057	-0,137
-486,693	-53,750	0,038	-0,012
-485,678	399,025	-0,027	0,041
-484,664	148,826	-0,029	0,029
-483,649	555,216	-0,046	-0,081
-482,635	350,347	0,040	-0,058
-481,620	159,663	-0,092	0,094
-480,605	800,000	-0,036	-0,112
-479,591	12,289	0,047	0,026
-478,576	79,676	-0,045	0,036
-477,562	800,000	-0,030	-0,079
-476,547	-200,000	-0,009	-0,030
-475,532	-56,279	-0,063	-0,020
-474,518	797,522	0,049	0,099
-473,503	36,566	-0,163	0,105
-472,489	41,105	-0,088	0,058
-471,474	-114,117	-0,092	-0,013
-470,459	414,997	-0,098	-0,153
-469,445	-200,000	-0,036	-0,170
-468,430	-71,943	0,039	-0,011
-467,416	230,802	0,042	0,050
-466,401	12,046	0,038	0,021
-465,386	123,691	0,124	0,113
-464,372	0,334	0,072	-0,038
-463,357	800,000	0,005	-0,014
-462,343	-139,757	0,094	0,007
-461,328	228,499	0,077	-0,092
-460,313	-8,508	0,049	0,024
-459,299	-59,804	0,019	-0,006
-458,284	-200,000	0,015	0,062
-457,270	431,581	0,029	0,046
-456,255	800,000	-0,016	-0,043
-455,241	543,510	0,018	-0,032
-454,226	452,845	0,047	-0,076
-453,211	-81,262	-0,053	-0,013
-452,197	-33,487	0,091	-0,037
-451,182	-46,974	0,116	-0,041
-450,168	-200,000	-0,012	-0,082
-449,153	-200,000	-0,022	0,182
-448,138	-140,689	-0,120	0,009
-447,124	191,413	0,054	0,059
-446,109	425,937	0,064	0,101
-445,095	-200,000	-0,040	0,132
-444,080	-200,000	-0,005	0,119
-443,065	614,717	-0,014	-0,026
-442,051	363,461	0,002	0,004
-441,036	-8,114	-0,128	0,062
-440,022	373,402	0,075	-0,112
-439,007	-36,680	-0,068	-0,027
-437,992	-200,000	0,014	0,137
-436,978	2,713	0,083	-0,044
-435,963	80,181	-0,080	-0,063
-434,949	254,709	0,042	0,053
-433,934	163,571	0,041	0,042
-432,919	-159,732	-0,123	-0,005
-431,905	-200,000	0,027	-0,090
-430,890	63,799	0,097	0,071
-429,876	-89,352	-0,051	-0,011
-428,861	51,856	-0,097	0,067
-427,846	156,993	-0,037	0,037
-426,832	77,673	-0,112	-0,087
-425,817	-63,598	0,042	0,013
-424,803	701,713	0,032	-0,061
-423,788	-14,173	0,110	-0,052
-422,773	206,711	0,035	-0,040
-421,759	-200,000	0,009	0,063
-420,744	-169,786	-0,093	0,002
-419,730	-200,000	-0,025	-0,168
-418,715	800,000	0,049	-0,117
-417,701	800,000	-0,052	-0,158
-416,686	126,297	-0,031	0,028
-415,671	564,568	-0,050	0,089
-414,657	800,000	0,011	0,030
-413,642	-172,872	-0,036	-0,001
-412,628	539,493	-0,089	-0,154
-411,613	22,539	0,135	0,080
-410,598	-200,000	-0,003	0,102
-409,584	293,380	0,081	0,108
-408,569	439,156	0,075	0,120
-407,555	-200,000	-0,004	0,059
-406,540	7,773	0,027	-0,015
-405,525	231,271	-0,076	-0,090
-404,511	-200,000	-0,008	0,052
-403,496	176,734	0,077	-0,081
-402,482	7,742	0,108	0,059
-401,467	-59,139	-0,080	0,025
-400,452	-200,000	-0,006	0,126
-399,438	-200,000	0,001	-0,052
-398,423	-54,479	0,059	0,019
-397,409	800,000	0,039	-0,115
-396,394	800,000	-0,012	-0,035
-395,379	77,312	-0,087	0,067
-394,365	-200,000	0,014	0,056
-393,350	386,074	0,081	0,122
-392,336	27,774	0,122	0,075
-391,321	-23,597	-0,062	0,027
-390,306	105,361	-0,029	0,025
-389,292	340,679	-0,030	0,042
-388,277	-200,000	0,019	0,083
-387,263	800,000	-0,044	0,116
-386,248	8,652	0,011	0,006
-385,233	-200,000	0,015	0,080
-384,219	-142,698	0,056	0,004
-383,204	-200,000	-0,017	0,061
-382,190	110,553	-0,082	-0,072
-381,175	165,526	-0,105	-0,108
-380,160	29,343	-0,052	0,032
-379,146	383,466	0,082	0,123
-378,131	521,747	0,047	0,081
-377,117	345,891	0,051	0,074
-376,102	-200,000	-0,030	-0,106
-375,088	-28,589	0,072	0,030
-374,073	157,264	-0,025	-0,025
-373,058	800,000	0,037	-0,099
-372,044	-200,000	0,007	-0,069
-371,029	-200,000	0,009	0,052
-370,015	-200,000	0,025	0,113
-369,000	-7,044	0,100	-0,049
-367,985	800,000	0,023	-0,064
-366,971	-200,000	0,006	-0,039
-365,956	-49,738	0,102	-0,035
-364,942	-200,000	-0,031	0,106
-363,927	-200,000	-0,009	0,068
-362,912	-126,610	0,110	0,012
-361,898	169,322	-0,154	0,160
-360,883	124,550	-0,068	-0,062
-359,869	-200,000	-0,026	-0,099
-358,854	800,000	0,041	-0,099
-357,839	-45,614	0,081	0,029
-356,825	126,431	-0,120	0,110
-355,810	-167,937	0,055	0,002
-354,796	334,325	0,031	-0,044
-353,781	-55,310	0,092	0,030
-352,766	-108,892	0,046	0,007
-351,752	-84,099	-0,211	0,048
-350,737	800,000	-0,015	-0,031
-349,723	800,000	0,038	-0,091
-348,708	-97,475	-0,039	-0,007
-347,693	-200,000	-0,005	0,057
-346,679	-27,668	0,057	-0,024
-345,664	137,016	0,115	-0,109
-344,650	-165,275	-0,101	-0,003
-343,635	-156,611	-0,009	-0,000
-342,620	800,000	-0,009	0,027
-341,606	-200,000	0,015	-0,144
-340,591	340,120	-0,074	0,106
-339,577	-15,391	-0,037	-0,017
-338,562	-200,000	-0,007	-0,066
-337,548	-10,596	-0,121	-0,058
-336,533	-200,000	-0,004	0,198
-335,518	97,739	0,095	0,079
-334,504	-124,227	0,126	-0,014
-333,489	72,172	-0,023	-0,017
-332,475	257,515	-0,140	-0,175
-331,460	-5,767	-0,066	-0,033
-330,445	800,000	-0,011	-0,023
-329,431	-19,628	0,037	0,017
-328,416	84,201	0,062	0,049
-327,402	-200,000	0,016	0,077
-326,387	800,000	-0,031	0,087
-325,372	800,000	0,008	-0,018
-324,358	-200,000	0,051	-0,171
-323,343	324,418	-0,031	-0,044
-322,329	-101,328	0,098	0,017
-321,314	217,443	0,087	0,101
-320,299	365,802	0,104	0,152
-319,285	96,669	0,083	0,069
-318,270	259,756	0,084	0,105
-317,256	-200,000	0,008	-0,154
-316,241	-11,664	0,056	-0,027
-315,226	213,476	0,057	0,065
-314,212	286,504	0,064	-0,084
-313,197	-175,583	-0,033	-0,001
-312,183	-82,580	-0,037	0,009
-311,168	400,986	0,092	-0,141
-310,153	800,000	-0,063	-0,126
-309,139	800,000	0,091	-0,204
-308,124	282,999	0,064	-0,084
-307,110	-144,668	-0,091	0,006
-306,095	-200,000	-0,001	-0,024
-305,080	216,087	0,081	0,094
-304,066	40,097	-0,089	-0,058
-303,051	-72,722	0,081	0,022
-302,037	82,345	-0,098	-0,077
-301,022	-200,000	0,002	-0,048
-300,008	-32,063	0,075	-0,030
-298,993	-200,000	0,015	0,086
-297,978	93,631	-0,072	0,059
-296,964	-51,660	0,118	0,040
-295,949	-28,220	-0,048	-0,020
-294,935	-200,000	0,013	0,044
-293,920	635,925	-0,016	0,029
-292,905	423,245	0,112	0,175
-291,891	587,519	0,043	0,076
-290,876	-200,000	0,008	0,071
-289,862	-8,123	0,177	-0,086
-288,847	504,717	-0,007	-0,013
-287,832	-79,899	0,029	0,007
-286,818	-59,629	0,109	0,034
-285,803	-27,712	-0,055	-0,023
-284,789	-78,648	0,088	0,022
-283,774	-23,160	0,025	-0,011
-282,759	33,725	-0,144	-0,091
-281,745	118,802	0,038	-0,034
-280,730	-172,387	0,052	-0,001
-279,716	800,000	0,009	-0,026
-278,701	271,784	0,035	-0,045
-277,686	411,103	0,009	0,013
-276,672	206,071	0,092	0,104
-275,657	-23,830	-0,081	-0,035
-274,643	181,811	0,076	-0,081
-273,628	137,095	0,149	0,141
-272,613	-129,670	-0,023	0,002
-271,599	-41,516	-0,022	0,008
-270,584	800,000	-0,031	0,098
-269,570	39,457	0,183	0,118
-268,555	800,000	-0,038	0,080
-267,540	760,573	0,036	0,070
-266,526	-200,000	0,007	-0,080
-265,511	137,502	0,036	0,034
-264,497	351,602	-0,088	0,127
-263,482	-66,260	0,092	0,026
-262,467	286,478	0,063	0,082
-261,453	103,450	-0,118	-0,100
-260,438	100,731	0,075	-0,063
-259,424	622,050	-0,014	-0,025
-258,409	-135,773	-0,077	0,006
-257,395	229,913	-0,069	0,082
-256,380	-26,645	0,103	-0,043
-255,365	57,047	-0,130	-0,092
-254,351	164,448	0,058	-0,059
-253,336	35,547	-0,086	-0,055
-252,322	-72,354	-0,053	0,014
-251,307	-128,666	-0,117	-0,012
-250,292	26,528	-0,047	0,029
-249,278	108,928	-0,137	-0,119
-248,263	-184,891	0,011	0,000
-247,249	-200,000	-0,016	0,057
-246,234	154,317	0,062	-0,061
-245,219	-200,000	-0,022	-0,105
-244,205	800,000	0,034	-0,097
-243,190	-200,000	0,006	-0,153
-242,176	-43,751	0,094	0,034
-241,161	135,846	0,030	0,029
-240,146	206,832	-0,047	-0,053
-239,132	-200,000	0,001	0,017
-238,117	17,422	-0,068	-0,039
-237,103	116,498	-0,011	0,010
-236,088	493,068	0,049	-0,081
-235,073	610,288	-0,103	0,186
-234,059	83,874	-0,110	0,087
-233,044	722,609	0,064	0,123
-232,030	151,745	0,034	0,034
-231,015	380,608	-0,058	-0,087
-230,000	143,615	-0,161	-0,155
-228,986	-200,000	-0,021	0,135
-227,971	-200,000	-0,005	-0,054
-226,957	178,376	0,022	-0,023
-225,942	-103,798	-0,162	-0,027
-224,927	-200,000	0,030	0,114
-223,913	191,885	-0,095	-0,103
-222,898	-200,000	0,018	-0,066
-221,884	83,217	0,069	-0,054
-220,869	-200,000	-0,001	0,114
-219,855	-200,000	-0,008	0,124
-218,840	-37,338	0,104	-0,040
-217,825	-143,401	-0,091	0,006
-216,811	83,269	0,070	-0,055
-215,796	251,767	-0,130	-0,161
-214,782	-200,000	0,006	0,175
-213,767	28,406	0,066	-0,040
-212,752	-62,994	-0,200	-0,059
-211,738	-63,053	0,204	0,060
-210,723	-57,565	-0,064	0,020
-209,709	44,316	0,097	0,064
-208,694	-114,910	-0,057	-0,008
-207,679	44,332	0,057	-0,038
-206,665	-163,608	0,046	-0,002
-205,650	-170,031	0,125	0,003
-204,636	-20,592	0,064	0,028
-203,621	154,880	0,072	0,072
-202,606	-200,000	-0,010	-0,046
-201,592	-52,341	-0,073	-0,024
-200,577	488,343	-0,078	0,130
-199,563	81,188	0,057	0,044
-198,548	-200,000	0,022	0,139
-197,533	-200,000	-0,004	0,063
-196,519	-200,000	0,010	0,061
-195,504	11,308	-0,060	0,033
-194,490	-200,000	-0,013	-0,087
-193,475	800,000	-0,019	-0,052
-192,460	-200,000	-0,009	0,130
-191,446	800,000	-0,054	0,133
-190,431	64,094	0,038	0,028
-189,417	-200,000	0,017	-0,090
-188,402	494,064	0,022	0,037
-187,387	146,947	-0,069	-0,067
-186,373	87,639	0,090	-0,072
-185,358	-200,000	-0,009	0,176
-184,344	383,065	-0,047	-0,070
-183,329	-6,675	-0,118	0,058
-182,315	40,002	-0,071	0,046
-181,300	328,214	0,037	-0,051
-180,285	-79,963	0,124	0,030
-179,271	533,747	-0,022	-0,037
-178,256	800,000	-0,048	-0,114
-177,242	800,000	-0,025	-0,054
-176,227	-19,081	0,196	0,088
-175,212	244,041	0,083	-0,101
-174,198	28,271	-0,127	0,077
-173,183	516,287	0,059	-0,099
-172,169	9,474	0,025	-0,014
-171,154	30,951	-0,054	-0,033
-170,139	-1,871	0,110	0,055
-169,125	61,356	-0,047	-0,033
-168,110	-200,000	0,005	0,041
-167,096	-104,514	0,036	-0,006
-166,081	-200,000	0,005	-0,073
-165,066	800,000	0,031	-0,071
-164,052	-179,353	0,109	0,002
-163,037	800,000	0,040	0,126
-162,023	239,119	0,012	-0,014
-161,008	124,783	-0,064	0,058
-159,993	-200,000	-0,012	0,049
-158,979	280,876	-0,051	-0,067
-157,964	-200,000	0,009	-0,053
-156,950	103,111	0,078	-0,066
-155,935	66,236	0,030	-0,022
-154,920	-165,762	0,056	-0,002
-153,906	800,000	0,050	0,112
-152,891	-6,411	-0,101	0,049
-151,877	409,434	0,036	-0,055
-150,862	800,000	-0,059	0,164
-149,847	-177,449	-0,023	0,000
-148,833	-91,154	-0,099	0,020
-147,818	-2,324	-0,020	0,010
-146,804	282,202	0,060	-0,077
-145,789	-200,000	-0,044	-0,167
-144,775	-1,606	0,099	-0,050
-143,760	-200,000	-0,021	0,083
-142,745	-200,000	-0,028	-0,109
-141,731	268,368	-0,127	-0,161
-140,716	44,377	-0,035	-0,023
-139,702	-180,681	-0,212	-0,003
-138,687	-200,000	-0,011	0,080
-137,672	-85,207	-0,124	-0,028
-136,658	-12,409	-0,095	0,045
-135,643	571,136	-0,030	-0,053
-134,629	800,000	-0,038	-0,104
-133,614	-200,000	-0,002	0,086
-132,599	-200,000	0,005	0,035
-131,585	800,000	-0,048	0,104
-130,570	194,152	-0,080	-0,087
-129,556	83,125	0,072	-0,056
-128,541	-17,324	-0,134	-0,060
-127,526	-200,000	-0,011	-0,045
-126,512	-200,000	0,003	0,140
-125,497	16,298	0,066	0,037
-124,483	-200,000	-0,002	0,072
-123,468	-89,043	-0,115	0,024
-122,453	-157,219	0,073	0,003
-121,439	-101,830	-0,081	0,014
-120,424	16,043	0,075	-0,042
-119,410	145,115	0,137	0,132
-118,395	329,819	0,060	0,083
