DTS Sentinel unit serial number:	SN410029Multiplexer serial number:	ORYXHardware model number:	OX2-SRSoftware version number:	ORYX F/W v4,00 Oryx Data Collector v3.7.2.0data status	okinstallation	B5 Nyhavnadifferential loss correction	single-endedforward channel	channel 2reverse channel	N/Adate	2023/12/13time	18:42:13forward acquisition time	300,00reverse acquisition time	0,00gamma	499,1914k internal	0,3160k external	0,3160temperature offset calibration	1,0000default loss term (dB/km)	0,3820temperature slope calibration	1,0000multiplexer offset coefficient	1,0000multiplexer slope coefficient	1,0000fibre end	0,00T internal ref (°C)	12,49T ext. ref 1 (°C)	-4,68T ext. ref 2 (°C)	-4,74length (m)	temperature (°C)	Stokes	anti-Stokes-744,400	-122,568	0,134	0,016
-743,385	-43,431	-0,362	-0,134
-742,371	-111,829	0,053	0,008
-741,356	-157,220	-0,360	-0,016
-740,342	-80,677	0,111	0,027
-739,327	-112,990	-0,335	-0,048
-738,312	-138,862	0,224	-0,018
-737,298	-138,342	-0,303	0,024
-736,283	-45,835	0,076	0,027
-735,269	-159,441	-0,400	-0,016
-734,254	110,090	0,120	0,106
-733,239	-11,752	-0,452	-0,218
-732,225	-148,136	0,162	0,010
-731,210	114,949	0,062	0,056
-730,196	-166,851	0,068	-0,002
-729,181	-200,000	-0,008	0,082
-728,167	-200,000	-0,025	-0,102
-727,152	233,662	-0,043	0,052
-726,137	-67,775	-0,121	-0,035
-725,123	800,000	-0,047	-0,127
-724,108	142,452	-0,026	-0,026
-723,094	-200,000	-0,034	-0,130
-722,079	-123,136	0,097	-0,011
-721,064	44,977	0,040	-0,027
-720,050	91,837	-0,126	-0,105
-719,035	108,314	-0,033	-0,029
-718,021	763,594	-0,052	0,105
-717,006	90,803	-0,088	0,073
-715,991	64,811	-0,164	-0,122
-714,977	-200,000	0,028	-0,114
-713,962	-25,712	0,122	-0,053
-712,948	-96,204	-0,179	-0,035
-711,933	-116,327	-0,063	-0,009
-710,918	-52,385	0,007	0,002
-709,904	800,000	-0,010	-0,023
-708,889	800,000	0,010	-0,025
-707,875	43,581	0,112	-0,075
-706,860	-200,000	0,002	-0,047
-705,845	-51,357	-0,120	-0,041
-704,831	-200,000	0,006	0,066
-703,816	-200,000	-0,006	-0,034
-702,802	-8,915	-0,044	-0,022
-701,787	759,885	0,040	-0,079
-700,772	-200,000	0,008	0,063
-699,758	684,359	-0,005	-0,010
-698,743	-41,231	0,115	-0,044
-697,729	111,489	-0,067	-0,060
-696,714	45,678	-0,009	0,006
-695,699	374,661	-0,039	0,059
-694,685	-200,000	-0,002	-0,039
-693,670	-6,993	-0,126	-0,063
-692,656	626,524	0,027	-0,051
-691,641	73,622	0,145	-0,111
-690,627	-159,130	0,088	-0,004
-689,612	46,921	-0,037	0,025
-688,597	800,000	0,031	0,077
-687,583	485,917	-0,045	-0,075
-686,568	-112,980	0,139	-0,020
-685,554	120,443	-0,035	-0,032
-684,539	-200,000	-0,027	0,093
-683,524	192,902	-0,022	-0,024
-682,510	-105,687	0,098	-0,016
-681,495	800,000	-0,044	0,100
-680,481	-200,000	0,000	0,015
-679,466	-200,000	0,028	-0,107
-678,451	-200,000	-0,012	0,047
-677,437	-200,000	0,015	0,139
-676,422	91,272	-0,037	-0,031
-675,408	-138,309	-0,187	-0,015
-674,393	800,000	-0,002	-0,007
-673,378	-200,000	0,006	-0,033
-672,364	-17,148	-0,128	-0,059
-671,349	86,425	-0,190	-0,154
-670,335	16,469	-0,133	0,077
-669,320	800,000	0,019	0,039
-668,305	-200,000	0,016	0,122
-667,291	-130,041	-0,197	0,020
-666,276	-28,262	0,070	-0,030
-665,262	800,000	-0,007	-0,023
-664,247	12,805	0,052	0,029
-663,232	-200,000	0,008	-0,060
-662,218	100,314	0,089	-0,076
-661,203	196,061	-0,166	0,186
-660,189	-200,000	-0,030	0,122
-659,174	-200,000	0,001	-0,150
-658,159	211,646	-0,047	-0,055
-657,145	6,017	-0,022	0,012
-656,130	357,267	0,061	0,090
-655,116	-56,932	0,059	0,019
-654,101	-2,170	-0,101	-0,052
-653,086	194,722	-0,042	-0,047
-652,072	120,275	-0,041	0,037
-651,057	43,407	-0,145	-0,097
-650,043	-119,228	-0,060	-0,008
-649,028	-94,303	-0,169	-0,034
-648,014	244,680	0,066	0,081
-646,999	-200,000	-0,022	0,120
-645,984	800,000	-0,034	-0,078
-644,970	-85,633	-0,040	0,009
-643,955	47,140	-0,059	-0,040
-642,941	-12,603	0,036	0,017
-641,926	251,095	-0,093	-0,116
-640,911	-200,000	0,003	-0,110
-639,897	-2,683	0,080	0,041
-638,882	-158,597	-0,067	-0,003
-637,868	61,968	-0,042	0,031
-636,853	-200,000	0,014	-0,058
-635,838	137,433	-0,075	-0,072
-634,824	653,308	0,027	-0,052
-633,809	95,430	0,086	0,072
-632,795	-200,000	-0,009	0,116
-631,780	505,603	0,070	0,119
-630,765	-141,671	-0,148	-0,011
-629,751	516,724	0,044	-0,075
-628,736	212,282	0,042	-0,048
-627,722	-67,944	-0,142	-0,040
-626,707	687,473	0,057	-0,109
-625,692	59,814	-0,055	-0,040
-624,678	-125,380	-0,064	0,007
-623,663	800,000	0,035	-0,099
-622,649	-74,934	-0,163	-0,043
-621,634	252,582	-0,062	0,078
-620,619	-73,527	0,053	-0,014
-619,605	-44,856	0,077	0,028
-618,590	-6,371	0,137	-0,068
-617,576	-200,000	-0,005	0,035
-616,561	-200,000	-0,014	-0,093
-615,546	79,246	-0,092	-0,072
-614,532	800,000	0,012	-0,036
-613,517	-200,000	-0,019	-0,105
-612,503	52,455	-0,055	-0,039
-611,488	269,784	0,123	0,159
-610,474	26,299	-0,193	-0,118
-609,459	-200,000	-0,017	-0,169
-608,444	-8,769	-0,145	-0,071
-607,430	30,559	-0,056	-0,035
-606,415	-12,881	0,104	0,049
-605,401	-200,000	-0,029	-0,095
-604,386	-200,000	-0,019	-0,258
-603,371	-58,204	0,071	0,023
-602,357	68,509	-0,092	-0,069
-601,342	118,994	-0,061	0,055
-600,328	-92,494	-0,110	-0,023
-599,313	-89,781	-0,073	-0,016
-598,298	800,000	-0,079	-0,175
-597,284	-102,503	0,103	-0,018
-596,269	60,710	-0,164	0,119
-595,255	-200,000	-0,009	-0,056
-594,240	-200,000	0,005	-0,072
-593,225	24,543	-0,082	-0,050
-592,211	-79,540	-0,219	-0,054
-591,196	800,000	0,028	-0,070
-590,182	115,905	-0,027	-0,025
-589,167	276,446	-0,067	0,088
-588,152	-149,307	0,054	-0,003
-587,138	-38,544	0,161	-0,062
-586,123	40,024	-0,032	0,021
-585,109	170,433	0,045	-0,047
-584,094	111,135	-0,055	-0,049
-583,079	800,000	0,081	-0,167
-582,065	-143,026	-0,149	0,010
-581,050	275,738	-0,034	-0,045
-580,036	-40,532	-0,053	-0,020
-579,021	25,325	-0,036	-0,022
-578,006	317,738	0,020	-0,028
-576,992	109,779	0,063	-0,055
-575,977	165,515	0,151	-0,157
-574,963	-10,873	0,138	0,067
-573,948	-200,000	0,019	-0,119
-572,934	134,325	-0,029	0,027
-571,919	636,081	-0,100	-0,187
-570,904	800,000	-0,037	-0,078
-569,890	-129,772	0,185	-0,018
-568,875	-200,000	-0,007	0,108
-567,861	-110,049	0,106	0,016
-566,846	-200,000	-0,000	0,044
-565,831	-50,730	-0,152	-0,052
-564,817	-200,000	-0,051	0,169
-563,802	85,906	0,039	-0,031
-562,788	155,023	-0,070	-0,070
-561,773	-77,153	0,044	0,011
-560,758	310,242	-0,022	-0,030
-559,744	219,431	0,030	0,035
-558,729	25,399	0,065	0,040
-557,715	-200,000	-0,015	-0,063
-556,700	137,888	-0,091	-0,087
-555,685	-146,022	-0,122	0,008
-554,671	-173,869	0,095	0,002
-553,656	800,000	0,022	-0,046
-552,642	315,608	0,055	0,076
-551,627	800,000	-0,062	-0,141
-550,612	800,000	-0,017	-0,040
-549,598	262,956	0,041	-0,052
-548,583	72,793	0,032	0,024
-547,569	730,251	0,061	-0,119
-546,554	-81,741	0,023	-0,006
-545,539	-122,865	0,043	-0,005
-544,525	-19,393	0,084	-0,038
-543,510	-200,000	0,011	-0,095
-542,496	-11,544	-0,196	0,094
-541,481	529,922	0,074	-0,128
-540,466	151,615	-0,021	-0,021
-539,452	-21,730	-0,046	0,021
-538,437	-200,000	0,003	0,013
-537,423	62,979	-0,068	-0,050
-536,408	175,244	-0,064	-0,067
-535,393	-200,000	-0,032	-0,120
-534,379	-118,759	-0,116	0,015
-533,364	126,775	0,050	-0,046
-532,350	34,899	0,024	0,015
-531,335	159,815	0,066	0,068
-530,321	800,000	0,044	-0,095
-529,306	97,560	-0,072	0,060
-528,291	-193,483	-0,029	0,000
-527,277	216,969	0,019	-0,022
-526,262	27,121	-0,052	-0,032
-525,248	786,936	-0,014	0,028
-524,233	41,912	0,013	0,009
-523,218	-200,000	0,010	0,042
-522,204	147,451	-0,051	0,050
-521,189	133,770	0,109	0,103
-520,175	-24,137	0,036	-0,016
-519,160	800,000	0,034	-0,097
-518,145	-45,048	0,110	-0,040
-517,131	-200,000	0,042	0,153
-516,116	-160,652	0,056	0,002
-515,102	587,465	-0,086	0,155
-514,087	-160,928	-0,093	-0,003
-513,072	48,672	0,064	-0,044
-512,058	-200,000	0,020	-0,086
-511,043	167,875	0,069	-0,071
-510,029	800,000	-0,027	0,069
-509,014	379,371	-0,092	0,139
-507,999	719,852	0,054	0,106
-506,985	800,000	0,013	-0,028
-505,970	324,084	-0,074	-0,103
-504,956	-200,000	0,014	0,070
-503,941	46,724	-0,106	0,072
-502,926	-136,640	0,065	-0,005
-501,912	-200,000	0,009	0,066
-500,897	-185,079	-0,076	-0,001
-499,883	628,877	0,058	-0,108
-498,868	-87,350	-0,180	0,039
-497,853	412,726	-0,056	-0,088
-496,839	132,162	-0,167	-0,157
-495,824	-28,089	0,081	-0,034
-494,810	-97,894	-0,164	-0,031
-493,795	61,682	0,159	0,116
-492,781	148,171	-0,155	-0,152
-491,766	800,000	-0,028	-0,059
-490,751	13,761	-0,123	-0,070
-489,737	800,000	-0,018	-0,047
-488,722	4,040	-0,097	-0,052
-487,708	-93,884	0,099	-0,020
-486,693	196,125	0,010	0,011
-485,678	-200,000	0,031	-0,116
-484,664	800,000	-0,056	-0,116
-483,649	-200,000	0,013	-0,100
-482,635	-200,000	-0,018	-0,118
-481,620	263,031	0,025	0,032
-480,605	495,431	-0,025	-0,043
-479,591	111,685	-0,032	0,028
-478,576	20,574	-0,068	-0,040
-477,562	236,280	-0,084	-0,101
-476,547	18,784	-0,072	-0,042
-475,532	296,786	-0,024	-0,032
-474,518	299,187	-0,052	0,070
-473,503	8,897	0,181	0,099
-472,489	-200,000	-0,005	-0,086
-471,474	-85,761	-0,054	-0,012
-470,459	28,039	-0,053	-0,033
-469,445	-200,000	-0,015	-0,065
-468,430	92,421	0,026	0,021
-467,416	-200,000	0,020	0,169
-466,401	34,110	0,058	-0,037
-465,386	63,661	-0,140	0,102
-464,372	-37,751	0,104	0,040
-463,357	348,837	-0,042	-0,061
-462,343	-200,000	-0,007	0,038
-461,328	275,580	-0,019	-0,025
-460,313	800,000	0,031	-0,074
-459,299	-57,362	-0,153	0,049
-458,284	-44,841	-0,033	-0,012
-457,270	-125,641	0,066	0,007
-456,255	800,000	0,053	0,144
-455,241	-200,000	0,015	-0,098
-454,226	127,240	-0,061	-0,056
-453,211	167,643	0,117	-0,121
-452,197	190,024	0,071	0,078
-451,182	-66,788	0,016	0,005
-450,168	113,733	0,090	-0,080
-449,153	-94,923	0,094	-0,018
-448,138	-47,370	0,071	0,025
-447,124	-38,458	0,087	-0,033
-446,109	5,947	-0,105	0,056
-445,095	-80,493	0,148	-0,036
-444,080	-23,758	0,026	0,011
-443,065	-200,000	0,025	0,098
-442,051	336,513	-0,044	-0,062
-441,036	-42,604	-0,022	-0,008
-440,022	-142,778	-0,037	0,003
-439,007	102,983	0,068	0,058
-437,992	-15,704	0,046	-0,021
-436,978	-115,567	0,064	0,009
-435,963	800,000	-0,055	0,137
-434,949	-200,000	-0,008	0,049
-433,934	103,669	-0,143	0,122
-432,919	-81,649	0,171	-0,040
-431,905	106,620	0,098	-0,085
-430,890	315,008	0,040	0,056
-429,876	-60,783	0,157	0,048
-428,861	-200,000	-0,015	-0,072
-427,846	-200,000	-0,031	0,157
-426,832	800,000	-0,012	0,029
-425,817	-113,236	-0,138	0,020
-424,803	278,944	-0,041	-0,053
-423,788	-56,268	0,053	0,017
-422,773	-200,000	-0,013	0,085
-421,759	43,772	0,024	-0,016
-420,744	13,147	-0,012	0,007
-419,730	-1,794	0,024	0,012
-418,715	435,942	-0,090	0,143
-417,701	-40,193	-0,052	0,019
-416,686	-200,000	-0,011	-0,092
-415,671	40,573	0,092	0,060
-414,657	-200,000	0,019	0,063
-413,642	-200,000	0,004	0,091
-412,628	-41,370	-0,082	-0,031
-411,613	-56,981	0,169	-0,054
-410,598	-41,704	-0,124	-0,046
-409,584	-200,000	-0,030	0,106
-408,569	-143,790	-0,038	0,003
-407,555	487,931	0,045	0,076
-406,540	-52,005	0,155	-0,052
-405,525	-133,185	-0,057	-0,005
-404,511	291,461	0,043	-0,057
-403,496	49,941	-0,104	0,071
-402,482	-200,000	-0,026	0,134
-401,467	-183,469	-0,063	0,001
-400,452	251,318	0,067	0,083
-399,438	22,583	0,143	0,085
-398,423	-200,000	-0,037	0,123
-397,409	-107,616	0,115	0,018
-396,394	501,605	-0,070	0,119
-395,379	-200,000	-0,005	0,060
-394,365	-36,614	0,079	0,031
-393,350	-117,338	0,114	0,015
-392,336	-66,419	-0,129	-0,037
-391,321	167,758	-0,113	-0,116
-390,306	510,442	-0,019	0,032
-389,292	525,525	0,125	-0,214
-388,277	34,451	0,157	-0,100
-387,263	-7,904	0,233	0,114
-386,248	800,000	-0,035	0,072
-385,233	-200,000	0,003	0,143
-384,219	-200,000	-0,017	0,074
-383,204	-200,000	-0,006	-0,055
-382,190	186,302	0,059	0,064
-381,175	-200,000	-0,001	-0,020
-380,160	-200,000	-0,008	0,047
-379,146	800,000	-0,012	-0,033
-378,131	-173,349	0,167	-0,004
-377,117	156,639	0,057	-0,057
-376,102	-200,000	-0,002	-0,040
-375,088	-156,322	-0,138	0,006
-374,073	-86,562	0,085	-0,019
-373,058	-39,240	0,058	0,022
-372,044	154,572	-0,022	0,022
-371,029	405,910	0,048	-0,074
-370,015	146,071	-0,053	0,051
-369,000	319,305	0,019	0,026
-367,985	17,285	-0,086	-0,049
-366,971	800,000	-0,066	0,192
-365,956	-167,803	0,078	-0,002
-364,942	318,333	-0,065	-0,089
-363,927	318,761	0,085	-0,118
-362,912	-54,318	0,063	0,021
-361,898	800,000	-0,042	0,123
-360,883	-200,000	-0,006	0,026
-359,869	-6,257	0,028	-0,014
-358,854	-78,725	0,121	-0,030
-357,839	19,195	0,055	-0,032
-356,825	219,932	0,094	0,110
-355,810	-79,166	0,118	-0,029
-354,796	800,000	-0,039	-0,087
-353,781	-155,481	-0,123	-0,006
-352,766	5,228	-0,007	-0,004
-351,752	33,350	-0,114	-0,072
-350,737	-90,821	0,054	-0,011
-349,723	-200,000	-0,016	-0,094
-348,708	22,943	-0,120	-0,071
-347,693	800,000	-0,041	-0,101
-346,679	488,120	0,074	0,124
-345,664	-143,464	0,115	-0,008
-344,650	87,473	-0,088	-0,070
-343,635	-104,312	0,132	0,022
-342,620	111,838	0,110	0,096
-341,606	21,879	0,058	0,034
-340,591	-91,029	-0,082	-0,017
-339,577	0,928	0,113	-0,058
-338,562	800,000	0,042	-0,106
-337,548	5,367	0,052	0,028
-336,533	225,099	0,061	0,072
-335,518	206,511	0,055	0,062
-334,504	-200,000	0,002	0,095
-333,489	-200,000	0,004	-0,030
-332,475	739,245	-0,049	-0,097
-331,460	-7,893	-0,118	-0,058
-330,445	-16,599	-0,092	0,042
-329,431	-34,278	0,133	0,053
-328,416	-39,530	-0,203	0,077
-327,402	800,000	-0,018	-0,056
-326,387	-68,646	0,102	0,028
-325,372	-200,000	0,011	0,044
-324,358	800,000	0,039	0,108
-323,343	-200,000	0,009	-0,193
-322,329	-200,000	-0,010	-0,053
-321,314	209,834	0,068	0,077
-320,299	62,545	0,255	0,184
-319,285	800,000	0,044	0,106
-318,270	45,965	-0,016	0,010
-317,256	118,348	-0,136	-0,122
-316,241	-37,332	0,049	-0,019
-315,226	-200,000	0,003	-0,028
-314,212	46,120	0,079	0,053
-313,197	-15,045	0,044	0,020
-312,183	237,472	-0,052	-0,062
-311,168	-35,405	-0,068	0,027
-310,153	293,468	-0,037	0,048
-309,139	-75,802	-0,079	-0,020
-308,124	-40,041	0,130	0,049
-307,110	-91,372	-0,067	0,014
-306,095	210,800	-0,038	0,043
-305,080	536,402	-0,071	0,122
-304,066	410,956	0,056	0,086
-303,051	-59,683	-0,123	-0,038
-302,037	59,487	-0,108	0,077
-301,022	-42,268	0,089	0,033
-300,008	92,071	0,041	0,034
-298,993	310,021	-0,062	-0,084
-297,978	-35,977	0,120	0,047
-296,964	-200,000	0,027	0,118
-295,949	374,119	-0,062	-0,091
-294,935	-200,000	-0,001	-0,060
-293,920	137,535	0,093	0,088
-292,905	800,000	-0,018	0,056
-291,891	-88,340	-0,111	-0,024
-290,876	-200,000	-0,010	0,035
-289,862	44,272	0,073	-0,048
-288,847	-200,000	-0,007	0,024
-287,832	210,464	0,049	0,055
-286,818	-55,517	0,102	0,033
-285,803	-110,857	0,083	-0,012
-284,789	49,223	-0,054	0,037
-283,774	800,000	0,020	0,050
-282,759	-147,192	-0,058	-0,003
-281,745	800,000	-0,053	0,146
-280,730	-200,000	-0,034	-0,188
-279,716	-115,047	-0,098	-0,013
-278,701	800,000	0,020	-0,047
-277,686	240,183	-0,008	0,009
-276,672	-200,000	-0,027	-0,101
-275,657	800,000	-0,044	0,096
-274,643	502,785	-0,120	0,202
-273,628	-200,000	0,012	-0,042
-272,613	-200,000	0,004	-0,032
-271,599	-200,000	-0,005	0,049
-270,584	-200,000	-0,013	0,156
-269,570	800,000	0,056	0,171
-268,555	-58,158	-0,120	-0,038
-267,540	-200,000	-0,032	0,151
-266,526	800,000	-0,038	0,115
-265,511	8,093	-0,025	0,014
-264,497	-200,000	-0,030	-0,098
-263,482	11,540	0,167	0,092
-262,467	-200,000	-0,017	0,136
-261,453	-200,000	0,002	-0,057
-260,438	-200,000	0,004	0,065
-259,424	8,455	0,067	-0,037
-258,409	512,673	0,061	-0,103
-257,395	263,618	-0,057	0,072
-256,380	-200,000	0,002	0,042
-255,365	194,987	0,104	0,115
-254,351	-61,302	0,106	-0,032
-253,336	-131,055	-0,093	-0,009
-252,322	-97,205	-0,101	0,019
-251,307	342,273	0,027	-0,038
-250,292	35,811	0,097	-0,062
-249,278	800,000	0,023	0,063
-248,263	159,780	-0,084	0,084
-247,249	-200,000	-0,005	0,130
-246,234	36,880	-0,191	-0,122
-245,219	14,039	0,107	-0,060
-244,205	-19,014	-0,112	-0,050
-243,190	-89,099	0,092	0,019
-242,176	441,827	0,070	0,111
-241,161	103,102	0,052	0,044
-240,146	-56,685	0,167	-0,053
-239,132	-123,974	-0,144	0,016
-238,117	247,994	-0,016	0,020
-237,103	-136,658	0,086	-0,007
-236,088	-141,409	0,080	-0,006
-235,073	-1,835	0,106	-0,054
-234,059	210,706	0,046	0,053
-233,044	9,556	-0,121	0,066
-232,030	-148,925	0,046	-0,003
-231,015	39,544	-0,118	0,076
-230,000	-5,922	-0,080	-0,039
-228,986	-200,000	-0,021	-0,117
-227,971	-200,000	-0,015	-0,060
-226,957	162,701	0,079	0,080
-225,942	800,000	0,019	0,053
-224,927	142,566	0,029	-0,028
-223,913	-103,127	-0,072	-0,012
-222,898	-135,358	-0,063	-0,005
-221,884	-200,000	0,031	0,111
-220,869	245,529	0,091	0,110
-219,855	-157,276	0,061	-0,003
-218,840	384,919	-0,072	-0,107
-217,825	-200,000	0,046	-0,167
-216,811	800,000	0,021	0,055
-215,796	-41,183	-0,013	-0,005
-214,782	57,383	-0,098	-0,069
-213,767	-200,000	0,028	0,101
-212,752	37,960	0,064	0,041
-211,738	-200,000	-0,000	-0,022
-210,723	-200,000	0,027	0,108
-209,709	800,000	-0,037	0,074
-208,694	-200,000	0,006	-0,058
-207,679	475,523	-0,020	-0,032
-206,665	-163,084	-0,006	-0,000
-205,650	-200,000	-0,017	0,181
-204,636	-126,301	0,081	0,009
-203,621	530,993	0,013	0,022
-202,606	-12,664	0,121	0,057
-201,592	800,000	0,023	0,062
-200,577	800,000	-0,021	0,045
-199,563	107,407	0,020	0,017
-198,548	182,545	-0,049	-0,053
-197,533	264,447	-0,044	0,055
-196,519	6,405	0,055	-0,030
-195,504	565,624	-0,073	-0,128
-194,490	599,872	-0,029	-0,051
-193,475	-147,163	-0,142	0,009
-192,460	18,668	-0,014	0,008
-191,446	-200,000	0,009	-0,063
-190,431	-1,692	0,190	0,096
-189,417	800,000	-0,015	0,034
-188,402	62,046	0,041	-0,029
-187,387	-200,000	0,012	-0,096
-186,373	348,572	0,015	-0,022
-185,358	-93,212	-0,075	0,015
-184,344	-21,043	0,055	-0,024
-183,329	800,000	0,052	0,142
-182,315	45,587	-0,032	0,021
-181,300	-108,891	0,020	0,003
-180,285	-21,373	0,032	-0,014
-179,271	-133,076	-0,196	-0,018
-178,256	-100,059	0,059	-0,011
-177,242	800,000	-0,030	0,072
-176,227	124,305	0,051	-0,046
-175,212	661,255	0,059	0,111
-174,198	-105,673	0,146	-0,024
-173,183	-200,000	0,018	-0,088
-172,169	84,322	-0,148	-0,117
-171,154	-200,000	-0,018	-0,158
-170,139	-200,000	-0,016	0,088
-169,125	-200,000	-0,017	0,142
-168,110	-200,000	0,010	0,063
-167,096	-200,000	0,031	0,190
-166,081	-200,000	0,016	0,137
-165,066	20,756	-0,048	0,028
-164,052	472,758	-0,047	0,076
-163,037	-104,645	-0,049	0,008
-162,023	31,233	0,120	0,074
-161,008	192,377	-0,031	-0,034
-159,993	800,000	0,011	0,027
-158,979	1,286	0,109	-0,056
-157,964	337,485	-0,067	-0,094
-156,950	34,031	-0,135	0,084
-155,935	800,000	-0,056	-0,123
-154,920	800,000	0,017	-0,046
-153,906	-88,087	0,155	0,033
-152,891	-176,191	0,084	-0,002
-151,877	800,000	-0,031	-0,095
-150,862	150,312	-0,047	-0,046
-149,847	16,306	-0,066	-0,037
-148,833	244,563	-0,092	-0,112
-147,818	-200,000	-0,022	0,086
-146,804	800,000	-0,038	0,095
-145,789	-48,010	0,044	0,015
-144,775	311,034	0,064	-0,086
-143,760	-84,928	-0,093	-0,021
-142,745	-200,000	-0,002	-0,042
-141,731	104,504	0,110	0,093
-140,716	100,325	0,014	0,012
-139,702	-34,919	0,176	0,069
-138,687	-20,005	0,013	-0,006
-137,672	603,028	0,032	-0,057
-136,658	-7,719	-0,110	0,053
-135,643	122,815	0,061	0,055
-134,629	-112,477	0,073	0,010
-133,614	111,668	0,098	0,085
-132,599	603,872	0,100	-0,179
-131,585	88,670	0,068	-0,055
-130,570	768,234	0,033	0,065
-129,556	-19,517	0,124	0,055
-128,541	-157,966	0,089	-0,004
-127,526	184,141	0,074	0,079
-126,512	-70,183	0,075	-0,020
-125,497	337,559	-0,067	0,094
-124,483	105,363	-0,070	0,059
-123,468	-118,968	-0,024	-0,003
-122,453	283,942	-0,056	-0,072
-121,439	175,635	-0,096	0,100
-120,424	-27,487	0,066	0,027
-119,410	-19,334	-0,099	-0,044
