DTS Sentinel unit serial number:	SN410029Multiplexer serial number:	ORYXHardware model number:	OX2-SRSoftware version number:	ORYX F/W v4,00 Oryx Data Collector v3.7.2.0data status	okinstallation	B5 Nyhavnadifferential loss correction	single-endedforward channel	channel 2reverse channel	N/Adate	2023/12/13time	03:42:13forward acquisition time	300,00reverse acquisition time	0,00gamma	499,1914k internal	0,3160k external	0,3160temperature offset calibration	1,0000default loss term (dB/km)	0,3820temperature slope calibration	1,0000multiplexer offset coefficient	1,0000multiplexer slope coefficient	1,0000fibre end	0,00T internal ref (°C)	13,95T ext. ref 1 (°C)	-2,44T ext. ref 2 (°C)	-2,75length (m)	temperature (°C)	Stokes	anti-Stokes-744,400	-200,000	0,020	0,107
-743,385	-26,437	-0,347	0,149
-742,371	375,818	0,138	0,208
-741,356	-92,516	-0,179	-0,037
-740,342	-200,000	0,010	0,127
-739,327	-168,756	-0,394	-0,011
-738,312	-154,091	0,194	-0,010
-737,298	-78,934	-0,288	0,072
-736,283	-165,625	0,187	-0,006
-735,269	-117,287	-0,270	0,036
-734,254	-200,000	0,008	0,130
-733,239	10,234	-0,374	-0,209
-732,225	-134,482	0,296	0,026
-731,210	114,996	-0,101	0,091
-730,196	8,380	-0,049	-0,027
-729,181	81,050	-0,070	0,055
-728,167	-200,000	-0,005	-0,036
-727,152	-171,439	0,128	0,003
-726,137	23,848	-0,177	0,107
-725,123	-11,426	0,117	-0,057
-724,108	800,000	-0,068	-0,202
-723,094	100,209	-0,148	-0,127
-722,079	-200,000	-0,009	-0,068
-721,064	-58,850	0,010	0,003
-720,050	-200,000	-0,012	-0,075
-719,035	83,047	-0,069	-0,055
-718,021	800,000	0,013	0,041
-717,006	-3,602	0,019	-0,009
-715,991	800,000	-0,034	-0,083
-714,977	414,746	-0,021	0,033
-713,962	-183,579	0,030	-0,000
-712,948	62,013	-0,056	-0,041
-711,933	-18,081	0,036	0,016
-710,918	101,003	0,018	0,015
-709,904	102,021	-0,148	-0,127
-708,889	-33,483	-0,165	-0,067
-707,875	100,016	-0,135	0,115
-706,860	-71,787	0,035	-0,010
-705,845	558,811	0,003	0,005
-704,831	7,754	0,010	-0,006
-703,816	-200,000	-0,022	0,088
-702,802	268,677	-0,075	-0,097
-701,787	800,000	0,041	-0,119
-700,772	511,397	-0,028	-0,048
-699,758	-51,326	-0,170	-0,058
-698,743	-107,214	0,120	0,019
-697,729	321,571	-0,040	0,056
-696,714	93,604	-0,052	0,043
-695,699	-11,927	0,018	-0,009
-694,685	159,514	0,058	0,060
-693,670	714,250	-0,010	-0,019
-692,656	800,000	-0,045	-0,115
-691,641	-50,706	-0,058	-0,020
-690,627	-104,285	0,130	0,022
-689,612	-58,201	-0,163	-0,052
-688,597	-40,275	-0,046	0,017
-687,583	-200,000	0,033	-0,166
-686,568	152,008	-0,095	-0,095
-685,554	25,304	-0,074	-0,045
-684,539	-200,000	0,003	-0,056
-683,524	-200,000	0,011	0,071
-682,510	22,087	0,111	0,067
-681,495	-200,000	-0,019	-0,086
-680,481	-200,000	-0,009	-0,135
-679,466	-200,000	0,012	-0,171
-678,451	33,943	0,082	-0,052
-677,437	60,169	-0,042	0,031
-676,422	349,850	-0,083	-0,121
-675,408	-25,871	-0,121	0,052
-674,393	43,344	-0,075	-0,050
-673,378	-23,205	-0,106	-0,046
-672,364	-142,789	-0,053	-0,004
-671,349	-10,489	-0,049	-0,024
-670,335	800,000	-0,001	-0,004
-669,320	667,543	0,054	0,104
-668,305	548,568	-0,009	0,015
-667,291	36,577	0,070	-0,045
-666,276	-200,000	-0,002	-0,027
-665,262	-2,408	-0,192	0,098
-664,247	-122,324	-0,072	-0,009
-663,232	-200,000	-0,001	-0,134
-662,218	-134,695	0,117	0,010
-661,203	-200,000	0,008	0,028
-660,189	800,000	-0,056	0,138
-659,174	-200,000	-0,005	-0,057
-658,159	-99,511	-0,106	0,019
-657,145	731,280	-0,061	-0,121
-656,130	113,646	0,041	-0,037
-655,116	-18,164	-0,108	-0,049
-654,101	294,081	0,024	-0,032
-653,086	87,857	0,021	-0,017
-652,072	131,860	0,045	0,042
-651,057	328,790	-0,045	-0,064
-650,043	800,000	0,022	-0,056
-649,028	75,102	-0,048	-0,037
-648,014	70,574	0,130	0,099
-646,999	130,375	0,012	0,012
-645,984	800,000	-0,031	-0,065
-644,970	128,058	-0,077	-0,072
-643,955	800,000	0,010	0,026
-642,941	-81,221	0,135	-0,033
-641,926	-154,488	-0,115	0,006
-640,911	-200,000	0,029	0,123
-639,897	384,938	-0,054	0,082
-638,882	-50,745	-0,114	-0,039
-637,868	-94,053	-0,033	0,007
-636,853	800,000	0,022	-0,045
-635,838	285,857	0,031	0,041
-634,824	-65,927	0,039	-0,011
-633,809	283,578	-0,071	0,094
-632,795	-200,000	0,027	0,159
-631,780	-50,216	0,028	0,010
-630,765	-200,000	-0,001	-0,019
-629,751	19,084	-0,042	-0,025
-628,736	-200,000	0,012	-0,066
-627,722	800,000	-0,066	-0,134
-626,707	-185,812	0,126	-0,001
-625,692	-200,000	0,004	-0,114
-624,678	17,265	0,154	0,089
-623,663	28,249	-0,077	-0,048
-622,649	-76,035	-0,093	-0,024
-621,634	-15,617	0,029	0,014
-620,619	800,000	-0,057	0,141
-619,605	-160,133	-0,032	-0,001
-618,590	-200,000	-0,011	0,048
-617,576	624,941	0,033	-0,061
-616,561	-53,292	-0,049	0,016
-615,546	-200,000	-0,014	0,058
-614,532	134,716	0,015	0,015
-613,517	125,375	0,060	-0,056
-612,503	800,000	0,009	-0,025
-611,488	42,752	0,034	0,023
-610,474	477,945	0,044	-0,073
-609,459	-200,000	-0,006	0,133
-608,444	250,417	-0,061	0,076
-607,430	-99,934	-0,082	-0,015
-606,415	399,876	0,033	0,050
-605,401	-122,897	-0,153	-0,018
-604,386	146,572	0,013	0,013
-603,371	-113,560	-0,035	0,005
-602,357	-200,000	0,019	-0,130
-601,342	-4,211	0,092	-0,046
-600,328	392,237	-0,047	-0,072
-599,313	-200,000	-0,010	-0,093
-598,298	-200,000	0,010	-0,084
-597,284	131,191	0,088	-0,083
-596,269	-59,393	-0,101	0,031
-595,255	-200,000	-0,032	0,103
-594,240	44,704	-0,134	0,090
-593,225	114,639	0,024	0,021
-592,211	-75,683	-0,013	0,003
-591,196	33,515	-0,033	0,021
-590,182	82,742	0,091	-0,073
-589,167	-42,691	0,046	-0,017
-588,152	-16,966	0,039	0,018
-587,138	800,000	-0,021	0,058
-586,123	159,555	-0,065	0,066
-585,109	-200,000	0,013	-0,051
-584,094	313,486	-0,050	-0,069
-583,079	-200,000	0,002	0,046
-582,065	-200,000	-0,010	0,107
-581,050	138,847	0,077	-0,075
-580,036	186,169	-0,105	0,115
-579,021	-17,039	-0,077	-0,035
-578,006	-110,153	-0,090	0,014
-576,992	-139,325	0,098	-0,008
-575,977	800,000	-0,011	-0,029
-574,963	-200,000	0,014	0,150
-573,948	104,651	0,124	0,107
-572,934	48,461	0,119	0,082
-571,919	-200,000	0,021	0,122
-570,904	-39,397	-0,082	-0,031
-569,890	800,000	0,039	-0,101
-568,875	297,216	0,079	0,106
-567,861	286,233	0,130	0,171
-566,846	73,949	0,098	0,075
-565,831	-18,564	0,072	-0,033
-564,817	-200,000	-0,019	-0,078
-563,802	-96,240	-0,051	0,010
-562,788	-15,485	0,113	-0,053
-561,773	353,612	-0,038	-0,056
-560,758	-74,932	0,072	-0,019
-559,744	250,026	0,007	-0,009
-558,729	-70,280	-0,065	-0,018
-557,715	-68,308	-0,059	0,017
-556,700	-104,038	-0,149	-0,025
-555,685	-200,000	-0,000	-0,037
-554,671	-123,011	0,070	0,008
-553,656	-144,238	-0,088	0,006
-552,642	800,000	0,025	-0,052
-551,627	105,652	0,051	-0,044
-550,612	39,679	0,156	0,102
-549,598	-50,311	-0,029	0,010
-548,583	-200,000	-0,012	-0,128
-547,569	800,000	-0,029	-0,078
-546,554	-37,164	0,121	0,047
-545,539	-6,448	0,172	-0,086
-544,525	63,513	0,132	0,096
-543,510	456,641	-0,052	-0,084
-542,496	368,767	0,097	-0,144
-541,481	-42,623	-0,108	-0,040
-540,466	682,490	0,022	-0,042
-539,452	-200,000	0,007	0,088
-538,437	-192,674	0,139	-0,001
-537,423	800,000	-0,036	0,075
-536,408	28,538	0,057	-0,035
-535,393	35,431	-0,031	-0,020
-534,379	-200,000	-0,008	-0,093
-533,364	800,000	0,050	-0,118
-532,350	84,917	-0,067	-0,053
-531,335	393,307	0,065	-0,098
-530,321	121,218	0,093	0,085
-529,306	-42,890	0,061	0,022
-528,291	-200,000	0,001	-0,046
-527,277	505,560	-0,052	0,089
-526,262	5,869	-0,111	-0,060
-525,248	800,000	-0,034	-0,075
-524,233	-108,441	0,051	0,008
-523,218	152,225	0,088	-0,088
-522,204	3,256	-0,135	0,071
-521,189	-200,000	-0,019	-0,065
-520,175	-103,746	0,047	0,008
-519,160	777,583	0,076	0,153
-518,145	800,000	0,022	0,059
-517,131	232,578	0,069	-0,083
-516,116	324,025	0,067	0,094
-515,102	800,000	-0,020	0,051
-514,087	-200,000	-0,023	0,085
-513,072	-126,761	-0,042	0,004
-512,058	17,255	-0,021	-0,012
-511,043	800,000	-0,039	0,091
-510,029	-200,000	-0,004	-0,025
-509,014	-28,454	0,168	0,071
-507,999	-200,000	0,034	0,112
-506,985	-200,000	-0,015	-0,126
-505,970	-132,845	-0,038	0,004
-504,956	224,314	-0,093	-0,110
-503,941	574,007	0,088	-0,158
-502,926	3,943	0,053	-0,028
-501,912	186,803	-0,102	0,111
-500,897	186,233	0,036	-0,039
-499,883	512,428	-0,016	0,027
-498,868	15,953	-0,060	-0,034
-497,853	36,881	0,070	0,045
-496,839	-200,000	0,012	0,091
-495,824	351,004	-0,034	0,049
-494,810	24,845	0,082	-0,049
-493,795	-200,000	-0,002	0,106
-492,781	-92,233	0,131	0,027
-491,766	-166,667	-0,049	0,001
-490,751	-103,477	0,078	0,013
-489,737	-51,335	0,110	0,037
-488,722	-200,000	-0,024	-0,091
-487,708	151,702	0,101	-0,101
-486,693	-200,000	-0,010	-0,077
-485,678	-91,831	-0,166	0,034
-484,664	-200,000	-0,007	-0,028
-483,649	-54,207	-0,090	0,030
-482,635	410,503	-0,033	-0,051
-481,620	144,914	-0,076	-0,074
-480,605	232,968	-0,070	0,085
-479,591	800,000	0,004	0,010
-478,576	-68,763	0,118	-0,033
-477,562	-93,802	-0,132	0,026
-476,547	-111,853	0,160	-0,023
-475,532	-33,221	-0,064	0,026
-474,518	384,461	0,022	0,034
-473,503	549,003	0,022	0,038
-472,489	413,803	0,048	-0,075
-471,474	-200,000	0,003	0,101
-470,459	168,006	-0,059	-0,061
-469,445	256,528	-0,078	-0,097
-468,430	-123,190	-0,076	0,009
-467,416	-41,572	0,071	0,027
-466,401	-200,000	0,020	0,081
-465,386	15,217	0,156	0,089
-464,372	-35,868	0,061	-0,024
-463,357	229,391	-0,053	0,063
-462,343	117,624	-0,093	-0,084
-461,328	-134,211	-0,115	-0,010
-460,313	48,621	0,066	0,045
-459,299	368,953	-0,015	-0,022
-458,284	-91,806	-0,184	0,038
-457,270	35,980	0,129	-0,082
-456,255	-67,733	-0,084	0,024
-455,241	800,000	-0,048	-0,127
-454,226	218,540	0,039	-0,046
-453,211	-200,000	0,003	0,034
-452,197	800,000	-0,034	-0,107
-451,182	691,925	0,070	-0,134
-450,168	628,053	0,039	0,073
-449,153	-138,327	-0,101	-0,008
-448,138	187,073	-0,102	0,111
-447,124	587,277	-0,022	-0,040
-446,109	-200,000	0,000	-0,185
-445,095	34,899	0,064	-0,041
-444,080	163,868	-0,024	-0,025
-443,065	-68,699	0,057	0,016
-442,051	247,045	0,054	0,066
-441,036	324,704	-0,109	-0,152
-440,022	20,164	0,032	0,019
-439,007	288,757	0,086	-0,113
-437,992	71,477	-0,063	-0,047
-436,978	45,796	0,114	0,076
-435,963	-108,836	-0,147	0,023
-434,949	-36,948	0,025	-0,010
-433,934	-88,272	0,078	0,017
-432,919	-101,016	0,036	-0,006
-431,905	130,051	-0,092	0,085
-430,890	800,000	-0,063	0,161
-429,876	685,501	0,031	0,060
-428,861	244,618	0,063	0,078
-427,846	800,000	-0,082	-0,175
-426,832	-200,000	0,006	-0,063
-425,817	-142,262	-0,101	0,007
-424,803	207,088	0,073	-0,083
-423,788	69,981	-0,060	-0,045
-422,773	624,092	0,019	-0,034
-421,759	768,658	0,106	0,211
-420,744	-67,456	-0,123	0,035
-419,730	1,696	-0,093	0,049
-418,715	-200,000	0,025	-0,080
-417,701	150,311	-0,036	0,035
-416,686	91,371	-0,061	0,050
-415,671	-116,643	0,178	0,024
-414,657	1,754	0,134	0,070
-413,642	-3,521	-0,237	0,120
-412,628	-94,694	-0,060	0,012
-411,613	-200,000	-0,019	-0,103
-410,598	-133,553	-0,088	0,008
-409,584	-91,809	-0,057	0,012
-408,569	-200,000	0,006	0,067
-407,555	187,077	0,076	0,083
-406,540	-200,000	0,001	0,032
-405,525	-200,000	0,000	-0,022
-404,511	325,002	-0,057	0,079
-403,496	88,300	0,052	0,042
-402,482	-200,000	0,000	-0,014
-401,467	103,410	-0,022	-0,019
-400,452	122,875	0,047	-0,043
-399,438	-200,000	-0,001	0,097
-398,423	-65,338	-0,022	-0,006
-397,409	70,321	-0,090	-0,067
-396,394	462,560	-0,071	-0,115
-395,379	800,000	-0,008	0,022
-394,365	153,494	0,023	0,023
-393,350	12,876	0,156	0,087
-392,336	275,525	0,096	-0,124
-391,321	-200,000	-0,004	0,046
-390,306	-10,555	-0,085	0,041
-389,292	184,293	-0,051	-0,055
-388,277	60,674	0,022	-0,015
-387,263	-49,238	-0,208	0,072
-386,248	-200,000	0,029	-0,168
-385,233	231,495	-0,105	-0,125
-384,219	329,248	0,040	-0,056
-383,204	387,475	0,052	-0,079
-382,190	800,000	0,055	-0,129
-381,175	-107,584	-0,040	0,006
-380,160	-57,916	0,028	0,009
-379,146	662,757	0,059	0,112
-378,131	109,206	-0,102	0,089
-377,117	800,000	0,058	-0,129
-376,102	-22,745	-0,124	-0,054
-375,088	165,515	0,094	-0,096
-374,073	-200,000	0,001	-0,043
-373,058	-200,000	0,022	0,090
-372,044	48,341	0,037	-0,025
-371,029	148,100	0,065	0,063
-370,015	-56,088	-0,059	-0,019
-369,000	-120,551	-0,011	0,001
-367,985	545,338	0,043	0,075
-366,971	200,187	-0,027	-0,030
-365,956	-200,000	0,003	0,033
-364,942	-34,568	-0,049	0,019
-363,927	333,283	-0,052	-0,073
-362,912	675,026	0,044	0,083
-361,898	322,701	-0,039	-0,053
-360,883	-108,545	-0,087	-0,013
-359,869	-62,348	0,070	-0,021
-358,854	-109,611	0,084	-0,013
-357,839	321,545	0,046	-0,064
-356,825	-200,000	0,004	-0,039
-355,810	367,686	-0,032	0,047
-354,796	55,180	-0,071	-0,050
-353,781	-200,000	0,003	-0,158
-352,766	-102,988	0,043	0,007
-351,752	-50,888	-0,127	0,043
-350,737	-33,773	-0,046	0,018
-349,723	800,000	-0,050	0,105
-348,708	800,000	0,020	-0,045
-347,693	-84,893	0,014	0,003
-346,679	-36,413	-0,115	-0,045
-345,664	382,205	-0,044	-0,066
-344,650	99,718	0,032	-0,027
-343,635	-193,029	0,196	-0,001
-342,620	496,680	-0,007	-0,011
-341,606	800,000	-0,050	0,116
-340,591	216,148	0,013	0,015
-339,577	497,074	-0,026	0,044
-338,562	47,799	0,007	0,005
-337,548	-168,932	-0,047	0,001
-336,533	-106,112	-0,010	0,002
-335,518	193,477	-0,060	-0,066
-334,504	-114,011	0,057	0,008
-333,489	-5,596	-0,032	-0,016
-332,475	333,212	-0,065	-0,092
-331,460	98,709	-0,036	0,030
-330,445	-200,000	0,024	0,107
-329,431	800,000	0,015	0,041
-328,416	251,461	0,061	-0,075
-327,402	35,512	-0,152	-0,096
-326,387	-200,000	0,005	0,058
-325,372	428,907	0,047	0,074
-324,358	187,534	-0,078	0,085
-323,343	-14,068	0,059	0,028
-322,329	77,999	0,071	-0,055
-321,314	456,029	0,062	0,100
-320,299	24,558	0,030	0,018
-319,285	-200,000	0,037	-0,246
-318,270	-200,000	0,006	-0,172
-317,256	800,000	-0,024	-0,059
-316,241	-13,741	-0,137	-0,064
-315,226	226,789	0,034	-0,040
-314,212	-200,000	0,027	0,088
-313,197	64,748	0,070	-0,051
-312,183	253,815	-0,074	0,092
-311,168	59,387	0,056	-0,040
-310,153	-200,000	-0,006	-0,041
-309,139	-200,000	0,007	-0,084
-308,124	-55,728	0,087	0,028
-307,110	-120,753	0,147	-0,018
-306,095	-108,898	0,090	0,014
-305,080	52,521	0,052	-0,036
-304,066	111,969	-0,038	-0,033
-303,051	169,058	-0,079	-0,081
-302,037	610,724	0,076	-0,137
-301,022	-200,000	0,005	0,019
-300,008	-53,437	0,012	-0,004
-298,993	800,000	0,051	0,129
-297,978	51,567	-0,081	-0,056
-296,964	-22,171	-0,086	0,038
-295,949	46,795	0,112	-0,075
-294,935	800,000	0,023	-0,061
-293,920	-118,071	0,030	0,004
-292,905	-103,124	0,090	0,015
-291,891	-199,177	-0,075	0,000
-290,876	-165,721	0,072	-0,002
-289,862	151,911	0,025	0,024
-288,847	-200,000	-0,002	-0,064
-287,832	55,242	-0,008	0,005
-286,818	50,698	-0,044	-0,030
-285,803	800,000	0,040	0,115
-284,789	22,477	0,154	0,091
-283,774	66,104	0,084	0,062
-282,759	120,452	0,103	0,093
-281,745	-200,000	-0,009	0,062
-280,730	381,092	0,044	-0,065
-279,716	-19,880	-0,084	-0,038
-278,701	103,216	0,178	-0,151
-277,686	555,483	0,043	0,075
-276,672	-200,000	0,048	0,167
-275,657	8,986	0,185	-0,101
-274,643	279,695	-0,070	-0,091
-273,628	301,030	0,100	-0,134
-272,613	66,292	-0,099	0,073
-271,599	-43,419	0,185	0,067
-270,584	-168,251	0,069	0,002
-269,570	-74,257	-0,093	-0,024
-268,555	176,300	-0,031	0,033
-267,540	-200,000	0,008	0,135
-266,526	-200,000	-0,003	-0,070
-265,511	24,075	-0,026	-0,016
-264,497	-200,000	-0,005	-0,024
-263,482	-165,708	-0,108	0,003
-262,467	-140,476	0,195	0,014
-261,453	198,220	-0,075	0,083
-260,438	446,602	-0,020	-0,033
-259,424	90,191	-0,043	-0,035
-258,409	800,000	0,075	-0,158
-257,395	-200,000	-0,000	-0,083
-256,380	-105,871	0,148	0,024
-255,365	-176,361	-0,067	-0,001
-254,351	-200,000	0,026	0,091
-253,336	-200,000	0,015	0,067
-252,322	229,921	-0,133	0,158
-251,307	54,495	-0,033	-0,023
-250,292	-200,000	-0,030	0,147
-249,278	166,569	-0,029	-0,030
-248,263	-200,000	0,022	0,124
-247,249	153,765	-0,083	0,082
-246,234	800,000	0,030	-0,079
-245,219	79,665	0,101	-0,079
-244,205	-73,719	0,083	0,022
-243,190	-80,526	0,098	0,023
-242,176	-149,863	-0,098	-0,005
-241,161	81,627	0,041	0,032
-240,146	32,507	-0,028	0,018
-239,132	-200,000	0,040	0,135
-238,117	138,155	-0,081	-0,076
-237,103	-200,000	0,010	-0,046
-236,088	-6,401	-0,179	0,088
-235,073	800,000	0,035	0,102
-234,059	-200,000	0,022	-0,091
-233,044	-200,000	0,003	0,116
-232,030	-200,000	0,001	0,030
-231,015	-200,000	0,003	-0,065
-230,000	153,230	-0,088	-0,087
-228,986	128,945	0,052	-0,048
-227,971	30,588	-0,036	0,022
-226,957	129,183	0,068	0,062
-225,942	546,020	-0,066	-0,115
-224,927	-45,454	0,063	0,022
-223,913	26,324	-0,162	-0,097
-222,898	-24,361	-0,107	-0,046
-221,884	-136,889	-0,077	0,006
-220,869	-200,000	0,013	0,061
-219,855	372,128	-0,072	0,106
-218,840	103,772	-0,035	-0,030
-217,825	427,632	-0,041	0,065
-216,811	-200,000	-0,007	-0,087
-215,796	56,648	-0,067	0,047
-214,782	189,217	0,085	0,092
-213,767	-38,784	0,096	0,036
-212,752	16,281	0,052	-0,030
-211,738	-85,235	-0,109	0,024
-210,723	429,095	0,048	0,075
-209,709	-38,985	0,033	0,013
-208,694	-69,955	-0,108	-0,029
-207,679	781,391	0,044	-0,088
-206,665	-200,000	-0,018	0,062
-205,650	-200,000	-0,005	0,190
-204,636	-62,069	0,124	0,037
-203,621	16,364	0,030	-0,017
-202,606	51,019	-0,078	-0,053
-201,592	-200,000	-0,005	0,039
-200,577	-55,799	-0,094	0,030
-199,563	-200,000	0,038	0,126
-198,548	800,000	-0,032	-0,086
-197,533	738,761	-0,030	0,059
-196,519	-200,000	-0,005	0,022
-195,504	158,006	0,036	0,036
-194,490	305,773	0,010	0,013
-193,475	-200,000	-0,003	-0,031
-192,460	-200,000	0,014	-0,053
-191,446	800,000	0,022	0,051
-190,431	629,138	-0,058	0,107
-189,417	75,350	-0,094	0,071
-188,402	800,000	-0,049	0,130
-187,387	-165,853	-0,009	0,000
-186,373	-177,358	0,097	0,002
-185,358	351,865	-0,055	0,079
-184,344	33,409	0,072	-0,045
-183,329	171,045	-0,081	0,084
-182,315	418,017	0,054	0,084
-181,300	-200,000	0,007	0,087
-180,285	-200,000	-0,005	-0,153
-179,271	-61,087	-0,086	0,026
-178,256	800,000	-0,018	-0,052
-177,242	-200,000	0,011	-0,131
-176,227	250,480	-0,050	-0,062
-175,212	800,000	-0,044	0,089
-174,198	-68,021	-0,075	-0,021
-173,183	398,802	-0,085	-0,129
-172,169	-35,117	-0,104	0,041
-171,154	601,121	0,032	0,058
-170,139	57,758	0,095	0,067
-169,125	25,790	-0,180	-0,108
-168,110	352,182	0,089	0,127
-167,096	-15,203	0,072	-0,033
-166,081	-200,000	-0,011	-0,060
-165,066	-52,826	-0,181	0,060
-164,052	-200,000	0,049	-0,168
-163,037	-200,000	0,035	0,139
-162,023	436,465	0,078	0,122
-161,008	-152,640	0,104	0,005
-159,993	558,703	-0,070	-0,122
-158,979	-166,322	-0,096	-0,003
-157,964	800,000	0,018	0,038
-156,950	165,404	0,081	-0,083
-155,935	-74,447	-0,212	-0,055
-154,920	150,963	-0,017	-0,016
-153,906	-200,000	-0,022	-0,161
-152,891	800,000	-0,030	-0,061
-151,877	34,667	-0,005	0,003
-150,862	800,000	-0,014	-0,027
-149,847	142,114	-0,150	-0,143
-148,833	-200,000	-0,015	-0,060
-147,818	-23,385	0,097	-0,042
-146,804	204,769	-0,139	0,155
-145,789	-200,000	0,006	0,045
-144,775	245,525	0,023	-0,028
-143,760	800,000	-0,014	-0,044
-142,745	152,215	-0,026	-0,025
-141,731	577,623	-0,047	-0,083
-140,716	71,659	-0,161	-0,120
-139,702	0,123	-0,058	-0,030
-138,687	17,309	0,087	0,049
-137,672	-66,573	-0,089	0,025
-136,658	-146,366	0,041	0,003
-135,643	175,846	-0,110	-0,115
-134,629	800,000	0,036	0,112
-133,614	305,888	-0,095	-0,127
-132,599	-200,000	0,002	-0,008
-131,585	-83,915	0,099	0,023
-130,570	50,410	-0,024	-0,016
-129,556	-200,000	-0,020	0,166
-128,541	-200,000	-0,009	-0,059
-127,526	800,000	-0,006	-0,014
-126,512	-200,000	0,015	0,168
-125,497	17,241	0,181	0,103
-124,483	-200,000	0,003	0,051
-123,468	356,795	-0,039	0,056
-122,453	-172,441	-0,124	0,003
-121,439	471,218	0,046	-0,075
-120,424	-189,398	-0,034	0,000
-119,410	-200,000	0,004	0,056
