DTS Sentinel unit serial number:	SN410029Multiplexer serial number:	ORYXHardware model number:	OX2-SRSoftware version number:	ORYX F/W v4,00 Oryx Data Collector v3.7.2.0data status	okinstallation	B5 Nyhavnadifferential loss correction	single-endedforward channel	channel 2reverse channel	N/Adate	2023/12/12time	20:37:13forward acquisition time	300,00reverse acquisition time	0,00gamma	499,1914k internal	0,3157k external	0,3157temperature offset calibration	1,0000default loss term (dB/km)	0,3820temperature slope calibration	1,0000multiplexer offset coefficient	1,0000multiplexer slope coefficient	1,0000fibre end	0,00T internal ref (°C)	15,17T ext. ref 1 (°C)	-1,55T ext. ref 2 (°C)	-1,87length (m)	temperature (°C)	Stokes	anti-Stokes-744,400	30,101	0,103	0,065
-743,385	-134,072	-0,307	0,028
-742,371	33,555	0,177	0,113
-741,356	27,811	-0,255	0,158
-740,342	-81,259	0,128	0,031
-739,327	-88,743	-0,233	-0,051
-738,312	-200,000	-0,004	-0,026
-737,298	-132,092	-0,302	-0,029
-736,283	7,232	0,061	-0,034
-735,269	-140,718	-0,290	0,022
-734,254	-21,004	0,077	0,035
-733,239	-75,610	-0,363	-0,094
-732,225	29,172	0,075	0,047
-731,210	-200,000	-0,007	0,173
-730,196	-93,444	-0,047	-0,010
-729,181	57,391	-0,119	-0,085
-728,167	800,000	-0,024	0,075
-727,152	96,138	-0,111	-0,093
-726,137	-118,559	-0,180	-0,023
-725,123	31,229	0,040	0,025
-724,108	78,565	-0,196	-0,154
-723,094	-200,000	0,010	-0,087
-722,079	800,000	-0,063	-0,173
-721,064	-84,513	0,081	-0,019
-720,050	158,814	-0,065	0,066
-719,035	107,460	-0,093	0,082
-718,021	-39,150	-0,121	-0,047
-717,006	411,776	-0,100	-0,156
-715,991	50,429	-0,070	-0,049
-714,977	119,106	0,023	-0,021
-713,962	559,026	-0,015	-0,026
-712,948	715,305	0,010	-0,019
-711,933	-125,194	-0,063	-0,007
-710,918	800,000	-0,038	-0,081
-709,904	377,387	-0,054	-0,081
-708,889	271,670	-0,055	0,071
-707,875	800,000	-0,028	-0,063
-706,860	89,343	-0,151	-0,124
-705,845	151,739	-0,097	-0,098
-704,831	249,847	0,062	-0,077
-703,816	72,938	0,062	0,048
-702,802	-108,740	-0,081	0,013
-701,787	800,000	-0,042	-0,088
-700,772	404,880	-0,081	-0,125
-699,758	-148,524	-0,054	-0,003
-698,743	276,810	-0,052	-0,068
-697,729	257,722	0,045	0,058
-696,714	311,975	0,077	-0,106
-695,699	-200,000	-0,021	-0,097
-694,685	-91,515	-0,250	0,052
-693,670	800,000	-0,059	-0,158
-692,656	800,000	-0,031	0,064
-691,641	165,356	-0,092	-0,096
-690,627	800,000	0,010	-0,025
-689,612	63,523	0,008	-0,006
-688,597	800,000	-0,033	-0,089
-687,583	-69,641	0,042	-0,012
-686,568	398,222	-0,099	-0,153
-685,554	-200,000	0,017	-0,089
-684,539	-200,000	0,014	-0,049
-683,524	-115,322	0,150	-0,021
-682,510	113,144	-0,133	-0,119
-681,495	457,869	-0,034	-0,056
-680,481	-200,000	0,029	-0,163
-679,466	15,596	-0,110	-0,063
-678,451	-165,913	-0,195	0,006
-677,437	-200,000	0,013	0,058
-676,422	-200,000	0,011	-0,037
-675,408	70,840	0,040	-0,031
-674,393	456,289	-0,013	-0,022
-673,378	199,508	-0,062	-0,070
-672,364	544,915	-0,051	0,090
-671,349	-20,829	0,035	0,016
-670,335	-200,000	0,021	0,106
-669,320	119,003	0,030	-0,027
-668,305	14,566	0,073	0,042
-667,291	141,230	-0,111	0,108
-666,276	-200,000	-0,011	-0,047
-665,262	459,734	-0,080	-0,132
-664,247	110,988	-0,024	-0,021
-663,232	85,152	0,051	0,041
-662,218	800,000	0,022	-0,049
-661,203	-98,696	-0,054	0,010
-660,189	340,022	-0,034	-0,049
-659,174	413,628	0,027	-0,043
-658,159	173,235	-0,110	-0,117
-657,145	-11,939	0,029	-0,014
-656,130	-58,040	-0,061	-0,019
-655,116	55,481	-0,095	-0,067
-654,101	-12,470	0,120	-0,057
-653,086	800,000	0,020	-0,051
-652,072	-23,880	-0,124	0,054
-651,057	229,239	-0,096	-0,115
-650,043	40,397	-0,058	-0,038
-649,028	-8,968	-0,128	0,063
-648,014	777,424	0,056	-0,112
-646,999	-200,000	0,006	-0,125
-645,984	-200,000	-0,007	-0,034
-644,970	589,110	0,035	0,064
-643,955	-9,428	-0,104	-0,051
-642,941	800,000	-0,041	-0,126
-641,926	-200,000	-0,021	-0,129
-640,911	-200,000	0,034	-0,132
-639,897	-160,443	-0,046	-0,002
-638,882	176,036	-0,064	-0,068
-637,868	156,263	-0,121	-0,123
-636,853	300,664	-0,040	0,054
-635,838	800,000	0,010	0,027
-634,824	-200,000	0,016	0,066
-633,809	49,732	-0,034	0,023
-632,795	800,000	0,035	0,109
-631,780	-130,383	-0,059	-0,006
-630,765	800,000	-0,024	-0,054
-629,751	-144,271	-0,109	-0,007
-628,736	97,681	-0,032	-0,027
-627,722	-200,000	-0,012	0,062
-626,707	114,064	-0,031	-0,027
-625,692	29,636	0,130	-0,081
-624,678	247,590	0,050	0,062
-623,663	-200,000	0,012	0,052
-622,649	-200,000	0,000	-0,024
-621,634	191,449	0,048	-0,053
-620,619	-200,000	-0,049	-0,180
-619,605	357,645	0,064	-0,094
-618,590	365,584	0,063	-0,094
-617,576	304,796	0,075	-0,102
-616,561	246,181	-0,037	-0,046
-615,546	-200,000	-0,007	-0,051
-614,532	211,912	-0,078	-0,090
-613,517	-66,801	0,086	0,025
-612,503	357,419	0,060	-0,088
-611,488	-59,596	-0,036	-0,011
-610,474	-128,526	-0,179	-0,018
-609,459	-200,000	-0,009	0,050
-608,444	179,490	-0,110	-0,119
-607,430	183,185	-0,042	-0,045
-606,415	434,936	0,054	-0,087
-605,401	-200,000	-0,019	0,178
-604,386	-200,000	-0,048	0,164
-603,371	-200,000	0,027	0,096
-602,357	800,000	0,032	-0,066
-601,342	800,000	0,027	-0,061
-600,328	-200,000	-0,001	-0,071
-599,313	113,277	0,122	0,108
-598,298	-200,000	-0,003	-0,046
-597,284	287,691	0,100	-0,133
-596,269	-200,000	-0,004	0,015
-595,255	-85,955	-0,156	0,035
-594,240	800,000	0,070	0,147
-593,225	198,434	-0,045	0,050
-592,211	255,729	0,089	-0,112
-591,196	87,478	0,145	-0,118
-590,182	800,000	0,022	0,051
-589,167	75,510	0,088	-0,068
-588,152	-21,107	0,057	-0,026
-587,138	-200,000	-0,008	-0,094
-586,123	-27,025	0,093	-0,040
-585,109	-182,429	-0,178	0,002
-584,094	-122,209	0,061	-0,007
-583,079	800,000	-0,004	0,010
-582,065	129,907	0,063	0,060
-581,050	501,465	-0,030	0,051
-580,036	458,154	-0,073	-0,119
-579,021	154,559	0,078	-0,079
-578,006	635,511	-0,033	0,061
-576,992	-48,184	0,103	-0,036
-575,977	-83,199	-0,047	-0,011
-574,963	-200,000	0,004	0,015
-573,948	800,000	0,040	0,125
-572,934	-59,656	-0,059	-0,018
-571,919	-20,007	-0,095	0,043
-570,904	-70,108	-0,126	0,035
-569,890	-104,630	-0,153	0,026
-568,875	800,000	-0,064	0,144
-567,861	362,372	-0,037	-0,054
-566,846	-200,000	0,004	0,020
-565,831	287,321	-0,047	0,062
-564,817	66,880	0,138	-0,103
-563,802	-146,626	-0,122	-0,008
-562,788	-6,902	0,086	-0,043
-561,773	83,115	-0,084	-0,067
-560,758	-105,738	0,033	0,005
-559,744	-24,596	-0,031	-0,013
-558,729	55,880	0,068	0,049
-557,715	58,506	0,113	0,081
-556,700	-200,000	-0,049	-0,181
-555,685	-200,000	-0,005	0,054
-554,671	-200,000	0,042	0,181
-553,656	13,627	-0,032	-0,018
-552,642	67,060	-0,045	0,033
-551,627	15,324	-0,059	-0,034
-550,612	8,227	-0,101	0,055
-549,598	800,000	-0,027	0,075
-548,583	254,069	-0,049	0,061
-547,569	20,428	0,033	-0,019
-546,554	-200,000	0,000	0,024
-545,539	80,235	0,148	0,117
-544,525	-200,000	0,008	-0,069
-543,510	194,461	0,019	-0,021
-542,496	-7,132	0,077	-0,038
-541,481	56,893	-0,125	-0,089
-540,466	62,228	0,066	0,048
-539,452	800,000	0,063	0,142
-538,437	410,265	-0,036	0,056
-537,423	-57,169	-0,148	-0,047
-536,408	203,716	-0,013	0,015
-535,393	-136,781	0,134	0,011
-534,379	-84,392	-0,018	0,004
-533,364	114,840	0,012	0,010
-532,350	-200,000	-0,002	-0,031
-531,335	211,852	0,018	-0,021
-530,321	-200,000	-0,001	-0,083
-529,306	-24,432	0,032	-0,014
-528,291	304,111	-0,066	0,090
-527,277	-23,386	0,102	-0,045
-526,262	-113,961	-0,136	-0,019
-525,248	-200,000	-0,005	0,090
-524,233	32,655	0,102	0,065
-523,218	-105,938	0,108	-0,018
-522,204	-65,826	0,011	-0,003
-521,189	-200,000	-0,010	-0,061
-520,175	-3,518	0,058	-0,030
-519,160	75,896	-0,079	0,061
-518,145	-5,147	0,219	-0,110
-517,131	638,588	-0,015	0,028
-516,116	-2,597	0,104	0,053
-515,102	188,189	-0,102	0,112
-514,087	-33,426	-0,022	-0,009
-513,072	-23,917	-0,089	-0,039
-512,058	107,587	-0,165	0,143
-511,043	800,000	0,012	-0,026
-510,029	499,128	0,077	0,130
-509,014	-200,000	0,013	-0,152
-507,999	47,101	0,040	0,027
-506,985	14,405	-0,061	0,035
-505,970	-200,000	-0,003	-0,028
-504,956	-200,000	-0,006	0,090
-503,941	35,204	0,101	-0,065
-502,926	-82,281	0,040	-0,009
-501,912	416,749	0,025	0,039
-500,897	94,383	-0,127	0,105
-499,883	-200,000	-0,002	-0,066
-498,868	800,000	-0,034	0,097
-497,853	-65,556	-0,059	-0,017
-496,839	-49,716	-0,093	-0,032
-495,824	-200,000	0,013	0,061
-494,810	-200,000	-0,042	0,207
-493,795	-200,000	0,030	0,195
-492,781	-200,000	-0,033	-0,109
-491,766	-200,000	0,003	0,019
-490,751	49,108	0,027	-0,018
-489,737	-183,266	-0,106	-0,001
-488,722	250,158	0,101	0,126
-487,708	-114,059	0,043	0,006
-486,693	-7,460	0,056	-0,028
-485,678	369,238	-0,090	-0,134
-484,664	-147,641	-0,036	0,002
-483,649	217,888	-0,112	0,130
-482,635	-200,000	-0,016	-0,066
-481,620	800,000	-0,034	0,069
-480,605	-55,867	-0,027	-0,009
-479,591	-54,979	0,081	-0,026
-478,576	49,090	0,091	0,062
-477,562	-129,738	-0,087	-0,009
-476,547	-146,208	0,057	0,004
-475,532	599,470	-0,089	-0,162
-474,518	-141,368	-0,070	0,005
-473,503	-91,519	-0,006	0,001
-472,489	469,520	-0,045	0,074
-471,474	-109,274	0,113	0,017
-470,459	-200,000	0,014	0,106
-469,445	800,000	-0,018	-0,042
-468,430	-200,000	0,002	-0,057
-467,416	-176,513	0,075	0,001
-466,401	731,920	0,067	0,131
-465,386	-200,000	0,001	0,089
-464,372	-87,596	-0,070	-0,015
-463,357	800,000	-0,033	-0,076
-462,343	184,796	0,100	0,108
-461,328	-200,000	0,013	-0,062
-460,313	-200,000	0,034	-0,111
-459,299	-80,270	0,081	-0,020
-458,284	-200,000	-0,005	-0,101
-457,270	119,982	-0,042	0,038
-456,255	-200,000	-0,006	-0,025
-455,241	304,280	-0,037	-0,050
-454,226	-50,950	-0,045	-0,015
-453,211	-200,000	-0,018	0,092
-452,197	83,924	0,113	0,090
-451,182	800,000	0,024	0,074
-450,168	287,479	0,063	0,083
-449,153	112,836	-0,078	0,069
-448,138	528,574	-0,098	-0,170
-447,124	800,000	-0,025	-0,053
-446,109	4,087	0,066	0,035
-445,095	800,000	0,052	0,141
-444,080	614,474	0,025	0,045
-443,065	800,000	-0,015	0,046
-442,051	800,000	-0,039	0,083
-441,036	-15,919	0,018	0,008
-440,022	64,819	0,064	-0,047
-439,007	224,258	0,034	-0,040
-437,992	344,248	0,023	0,033
-436,978	-63,687	0,044	0,013
-435,963	-6,172	0,109	0,054
-434,949	-11,373	-0,124	-0,059
-433,934	-98,708	-0,111	0,020
-432,919	55,582	0,151	0,106
-431,905	-200,000	-0,002	0,057
-430,890	800,000	0,008	-0,022
-429,876	800,000	0,026	0,062
-428,861	-200,000	0,005	0,089
-427,846	-20,278	-0,027	0,012
-426,832	800,000	0,031	0,066
-425,817	240,738	-0,055	-0,066
-424,803	-127,858	-0,086	0,009
-423,788	84,367	0,085	-0,068
-422,773	415,933	0,028	0,044
-421,759	-200,000	0,014	-0,087
-420,744	352,733	0,014	0,020
-419,730	-200,000	-0,013	0,048
-418,715	-69,996	-0,104	-0,029
-417,701	37,122	-0,067	0,043
-416,686	80,684	-0,014	0,011
-415,671	683,978	-0,015	0,028
-414,657	300,250	0,020	0,027
-413,642	50,852	0,141	-0,097
-412,628	345,675	-0,056	-0,080
-411,613	138,030	0,054	0,051
-410,598	-200,000	0,017	0,125
-409,584	-10,998	-0,043	0,021
-408,569	170,788	-0,084	0,088
-407,555	172,143	0,076	0,080
-406,540	133,440	-0,074	-0,070
-405,525	687,941	-0,006	-0,012
-404,511	39,895	-0,066	-0,043
-403,496	19,510	-0,056	0,033
-402,482	273,724	-0,116	0,150
-401,467	271,989	0,047	0,060
-400,452	284,245	0,034	0,044
-399,438	473,528	0,090	0,148
-398,423	-27,240	-0,009	-0,004
-397,409	800,000	0,052	0,159
-396,394	-121,472	-0,156	-0,019
-395,379	372,103	0,031	0,046
-394,365	-200,000	-0,056	0,223
-393,350	59,076	-0,056	-0,040
-392,336	-136,529	0,094	0,008
-391,321	6,116	0,058	-0,031
-390,306	-200,000	0,008	0,038
-389,292	-17,590	0,051	0,023
-388,277	58,233	-0,029	0,021
-387,263	-81,933	-0,024	-0,006
-386,248	-200,000	0,028	0,126
-385,233	-200,000	0,003	0,025
-384,219	55,193	-0,069	0,049
-383,204	99,010	0,039	-0,032
-382,190	-78,248	0,082	0,020
-381,175	-134,657	-0,116	-0,010
-380,160	-200,000	-0,021	-0,073
-379,146	27,441	0,037	0,022
-378,131	-109,221	0,050	-0,008
-377,117	-59,470	0,081	0,025
-376,102	800,000	0,021	0,059
-375,088	344,298	0,088	0,126
-374,073	800,000	-0,028	-0,084
-373,058	800,000	0,009	0,019
-372,044	37,402	0,021	-0,013
-371,029	-200,000	-0,002	0,009
-370,015	-75,571	0,037	-0,010
-369,000	63,213	-0,017	0,012
-367,985	112,734	0,031	0,027
-366,971	-200,000	-0,022	0,110
-365,956	-200,000	-0,010	-0,070
-364,942	735,715	-0,067	-0,130
-363,927	-118,164	-0,061	0,008
-362,912	-200,000	-0,000	-0,093
-361,898	548,051	-0,066	-0,115
-360,883	59,611	0,041	0,030
-359,869	-200,000	0,022	0,112
-358,854	-200,000	-0,021	-0,120
-357,839	80,133	0,079	-0,061
-356,825	-33,011	-0,023	0,009
-355,810	194,520	-0,052	-0,057
-354,796	800,000	0,024	-0,076
-353,781	156,492	0,098	-0,099
-352,766	163,182	-0,069	-0,071
-351,752	-27,811	0,008	-0,003
-350,737	-200,000	-0,003	0,065
-349,723	-200,000	-0,012	0,136
-348,708	-109,115	-0,034	-0,005
-347,693	-116,488	-0,039	-0,005
-346,679	-5,131	0,176	0,087
-345,664	-200,000	0,002	-0,012
-344,650	128,237	-0,052	-0,048
-343,635	407,655	-0,030	0,047
-342,620	-200,000	-0,013	0,070
-341,606	25,023	-0,039	-0,023
-340,591	167,587	-0,005	0,005
-339,577	223,485	-0,117	0,137
-338,562	-170,470	-0,094	-0,002
-337,548	-200,000	0,021	0,085
-336,533	800,000	-0,089	0,226
-335,518	426,567	0,065	-0,101
-334,504	72,701	-0,024	0,018
-333,489	-187,998	0,146	-0,001
-332,475	95,724	-0,076	0,063
-331,460	292,393	0,023	0,031
-330,445	800,000	0,008	-0,025
-329,431	99,079	0,125	0,105
-328,416	-74,426	0,127	-0,033
-327,402	301,075	0,074	-0,100
-326,387	-144,655	0,129	-0,008
-325,372	800,000	-0,047	-0,112
-324,358	-200,000	0,025	-0,092
-323,343	-200,000	0,046	-0,150
-322,329	-34,181	0,051	0,020
-321,314	800,000	0,012	-0,033
-320,299	654,380	0,032	0,060
-319,285	800,000	-0,079	0,195
-318,270	-200,000	0,012	-0,102
-317,256	-200,000	-0,025	-0,170
-316,241	-109,488	-0,095	0,014
-315,226	242,725	0,101	0,123
-314,212	800,000	-0,013	-0,036
-313,197	-40,488	0,046	-0,017
-312,183	800,000	-0,060	-0,157
-311,168	27,065	-0,181	0,110
-310,153	800,000	0,036	0,088
-309,139	800,000	-0,021	0,053
-308,124	74,232	0,044	-0,033
-307,110	71,348	0,023	-0,018
-306,095	66,304	-0,071	-0,052
-305,080	83,233	0,039	-0,031
-304,066	-38,577	0,050	-0,019
-303,051	121,859	-0,067	-0,061
-302,037	-200,000	-0,018	-0,081
-301,022	-118,954	0,068	0,008
-300,008	-200,000	-0,002	-0,047
-298,993	135,983	0,023	0,021
-297,978	-47,644	-0,060	0,021
-296,964	66,137	-0,049	-0,036
-295,949	373,356	-0,070	-0,104
-294,935	77,221	0,065	-0,050
-293,920	800,000	-0,008	0,020
-292,905	-73,359	0,120	0,031
-291,891	-108,368	0,210	0,033
-290,876	431,433	0,091	-0,144
-289,862	-70,766	0,068	-0,019
-288,847	-200,000	-0,006	0,089
-287,832	-11,687	-0,086	-0,041
-286,818	534,194	0,033	-0,057
-285,803	691,908	-0,009	-0,018
-284,789	490,011	0,030	0,050
-283,774	-200,000	-0,024	0,084
-282,759	800,000	-0,050	0,111
-281,745	-28,699	0,082	-0,034
-280,730	24,349	-0,116	-0,069
-279,716	-200,000	-0,001	-0,031
-278,701	75,613	-0,058	-0,044
-277,686	325,380	0,044	-0,061
-276,672	-200,000	0,024	0,120
-275,657	125,495	-0,069	-0,063
-274,643	-57,093	-0,128	-0,041
-273,628	190,055	-0,086	-0,093
-272,613	516,553	0,018	-0,031
-271,599	28,965	0,132	0,081
-270,584	-29,187	0,076	-0,031
-269,570	800,000	0,029	-0,077
-268,555	-108,068	-0,042	0,007
-267,540	-200,000	-0,039	0,171
-266,526	-101,408	0,024	-0,004
-265,511	-0,744	0,010	-0,005
-264,497	-39,506	-0,051	0,019
-263,482	-200,000	-0,001	0,109
-262,467	390,802	-0,036	0,055
-261,453	800,000	-0,053	-0,109
-260,438	-139,364	-0,105	0,008
-259,424	33,394	-0,151	-0,095
-258,409	-94,162	0,077	0,015
-257,395	-200,000	0,016	-0,106
-256,380	713,923	-0,032	-0,062
-255,365	-200,000	-0,006	0,045
-254,351	416,306	-0,035	-0,054
-253,336	-34,081	-0,056	-0,022
-252,322	800,000	0,025	-0,074
-251,307	72,955	0,040	0,030
-250,292	800,000	0,034	-0,088
-249,278	208,723	-0,094	0,107
-248,263	84,200	-0,064	-0,051
-247,249	-69,469	0,077	-0,021
-246,234	800,000	-0,017	-0,035
-245,219	-200,000	-0,026	0,133
-244,205	282,612	0,080	0,104
-243,190	-23,094	0,129	0,056
-242,176	347,919	-0,029	0,041
-241,161	800,000	0,011	-0,030
-240,146	178,851	-0,019	0,020
-239,132	-127,911	0,085	-0,009
-238,117	59,550	0,094	-0,067
-237,103	529,942	0,053	-0,091
-236,088	800,000	-0,020	0,049
-235,073	-200,000	0,010	-0,096
-234,059	-3,981	0,106	0,053
-233,044	-8,113	-0,044	0,022
-232,030	-183,132	0,171	0,002
-231,015	103,335	-0,028	0,024
-230,000	-98,749	-0,064	0,012
-228,986	101,144	0,034	0,028
-227,971	-200,000	0,006	0,032
-226,957	-200,000	-0,039	0,154
-225,942	612,576	0,042	-0,076
-224,927	-45,554	0,029	0,010
-223,913	496,536	0,017	0,028
-222,898	-200,000	-0,021	-0,108
-221,884	-200,000	0,006	0,037
-220,869	-200,000	-0,001	-0,077
-219,855	689,553	-0,038	-0,071
-218,840	-159,392	0,023	0,001
-217,825	105,982	0,067	0,058
-216,811	-200,000	0,014	-0,064
-215,796	-200,000	-0,017	-0,130
-214,782	800,000	0,025	0,067
-213,767	-5,512	-0,055	0,027
-212,752	228,624	-0,038	-0,045
-211,738	800,000	-0,044	0,099
-210,723	652,403	0,028	-0,052
-209,709	553,975	-0,088	-0,154
-208,694	-200,000	-0,003	-0,178
-207,679	97,444	-0,147	-0,122
-206,665	-89,399	0,060	-0,013
-205,650	319,427	0,052	-0,072
-204,636	800,000	0,029	0,067
-203,621	87,507	0,076	0,061
-202,606	-200,000	0,027	0,093
-201,592	-200,000	-0,019	-0,081
-200,577	189,294	-0,049	0,053
-199,563	800,000	0,004	-0,011
-198,548	218,953	0,043	-0,049
-197,533	-58,802	-0,047	0,014
-196,519	-138,385	-0,053	-0,004
-195,504	129,509	-0,065	0,060
-194,490	637,995	0,045	-0,083
-193,475	-200,000	0,022	-0,095
-192,460	-200,000	0,004	-0,080
-191,446	-200,000	-0,000	-0,112
-190,431	-200,000	0,001	-0,026
-189,417	758,060	-0,018	-0,035
-188,402	18,065	-0,112	0,064
-187,387	-200,000	-0,016	-0,104
-186,373	-131,634	-0,098	-0,009
-185,358	800,000	0,050	0,100
-184,344	139,750	0,118	0,112
-183,329	293,956	0,050	-0,066
-182,315	339,986	0,011	0,015
-181,300	-200,000	0,006	-0,083
-180,285	-200,000	-0,036	-0,118
-179,271	-106,045	-0,044	-0,007
-178,256	-63,723	-0,020	-0,006
-177,242	11,032	0,110	0,060
-176,227	-40,533	-0,088	-0,033
-175,212	125,288	0,114	0,104
-174,198	-200,000	0,017	-0,080
-173,183	-200,000	0,005	-0,043
-172,169	-200,000	-0,013	-0,102
-171,154	-200,000	-0,009	-0,129
-170,139	42,749	-0,051	0,033
-169,125	343,008	-0,040	0,057
-168,110	-200,000	0,017	0,117
-167,096	0,324	-0,123	0,063
-166,081	-59,318	0,156	-0,048
-165,066	148,549	-0,055	0,053
-164,052	650,157	0,025	-0,047
-163,037	-200,000	0,001	0,057
-162,023	-70,249	0,041	0,011
-161,008	-35,778	0,045	0,018
-159,993	-1,276	-0,109	0,055
-158,979	178,122	-0,035	0,037
-157,964	-78,391	0,134	-0,033
-156,950	34,580	-0,102	-0,064
-155,935	-200,000	-0,002	0,065
-154,920	53,536	0,040	-0,028
-153,906	-84,011	-0,108	0,025
-152,891	227,219	0,130	-0,153
-151,877	800,000	-0,068	-0,181
-150,862	92,532	-0,038	-0,031
-149,847	72,196	-0,065	0,049
-148,833	-200,000	0,004	-0,026
-147,818	192,420	0,079	-0,086
-146,804	295,518	-0,067	-0,088
-145,789	-68,416	-0,140	-0,039
-144,775	-200,000	-0,013	-0,090
-143,760	-200,000	0,010	-0,092
-142,745	-127,463	-0,130	-0,013
-141,731	434,489	-0,057	0,089
-140,716	800,000	0,061	0,161
-139,702	-76,956	0,059	-0,015
-138,687	-54,554	-0,099	0,032
-137,672	800,000	0,044	0,119
-136,658	26,627	0,025	-0,015
-135,643	-68,702	0,091	0,025
-134,629	551,857	0,050	-0,086
-133,614	-3,320	0,092	0,046
-132,599	-50,274	-0,169	-0,057
-131,585	80,695	0,193	-0,150
-130,570	800,000	-0,045	0,133
-129,556	-200,000	-0,017	-0,107
-128,541	-41,985	-0,239	-0,088
-127,526	157,804	-0,017	-0,017
-126,512	218,218	-0,040	0,046
-125,497	-162,433	-0,143	0,005
-124,483	-130,639	0,034	0,003
-123,468	-200,000	-0,016	0,101
-122,453	60,393	-0,051	0,036
-121,439	-200,000	0,000	0,023
-120,424	-16,623	0,102	0,046
-119,410	112,490	0,064	0,056
