DTS Sentinel unit serial number:	SN410029Multiplexer serial number:	ORYXHardware model number:	OX2-SRSoftware version number:	ORYX F/W v4,00 Oryx Data Collector v3.7.2.0data status	okinstallation	B5 Nyhavnadifferential loss correction	single-endedforward channel	channel 2reverse channel	N/Adate	2023/12/13time	12:02:13forward acquisition time	300,00reverse acquisition time	0,00gamma	499,1914k internal	0,3161k external	0,3161temperature offset calibration	1,0000default loss term (dB/km)	0,3820temperature slope calibration	1,0000multiplexer offset coefficient	1,0000multiplexer slope coefficient	1,0000fibre end	0,00T internal ref (°C)	13,95T ext. ref 1 (°C)	-1,94T ext. ref 2 (°C)	-2,23length (m)	temperature (°C)	Stokes	anti-Stokes-744,400	-136,882	0,189	0,016
-743,385	86,057	-0,188	0,152
-742,371	337,686	0,078	0,112
-741,356	82,601	-0,092	-0,073
-740,342	87,774	-0,032	0,026
-739,327	-128,825	-0,323	0,033
-738,312	-200,000	0,003	0,033
-737,298	29,670	-0,266	-0,166
-736,283	16,655	0,198	0,115
-735,269	-150,095	-0,271	-0,015
-734,254	87,168	0,146	0,119
-733,239	23,232	-0,410	-0,248
-732,225	397,248	0,075	0,116
-731,210	-200,000	-0,001	0,072
-730,196	800,000	-0,022	0,063
-729,181	209,551	-0,025	-0,029
-728,167	10,067	-0,067	0,038
-727,152	365,863	0,075	-0,112
-726,137	800,000	-0,007	-0,017
-725,123	800,000	0,012	-0,035
-724,108	117,630	-0,111	-0,101
-723,094	-200,000	-0,014	-0,083
-722,079	85,724	-0,054	-0,044
-721,064	205,875	0,041	0,047
-720,050	-154,200	-0,036	0,002
-719,035	800,000	-0,025	0,059
-718,021	49,456	-0,044	-0,030
-717,006	-119,992	-0,192	-0,024
-715,991	19,169	-0,051	-0,030
-714,977	800,000	-0,032	-0,102
-713,962	36,907	-0,153	-0,099
-712,948	-200,000	0,005	0,092
-711,933	-55,563	0,040	0,013
-710,918	15,662	-0,099	0,057
-709,904	20,918	0,002	0,001
-708,889	84,348	-0,039	0,032
-707,875	-22,378	-0,031	-0,014
-706,860	-78,892	0,045	-0,011
-705,845	-22,715	0,067	0,030
-704,831	245,992	0,103	0,127
-703,816	-200,000	-0,026	0,143
-702,802	-64,042	0,122	0,036
-701,787	-10,547	-0,102	-0,050
-700,772	254,119	0,039	-0,049
-699,758	-96,379	0,083	0,016
-698,743	404,581	0,132	0,205
-697,729	-200,000	0,040	0,138
-696,714	37,715	0,022	-0,014
-695,699	800,000	0,033	-0,075
-694,685	328,492	0,096	-0,136
-693,670	25,956	-0,151	-0,092
-692,656	398,312	0,042	-0,064
-691,641	800,000	0,018	0,049
-690,627	800,000	0,024	0,072
-689,612	1,227	-0,128	-0,067
-688,597	-39,091	-0,055	-0,021
-687,583	-200,000	0,000	0,012
-686,568	-200,000	-0,007	-0,131
-685,554	236,429	-0,056	-0,068
-684,539	-161,456	0,060	0,002
-683,524	-157,764	0,042	-0,002
-682,510	800,000	0,028	0,074
-681,495	-101,842	-0,155	0,027
-680,481	602,346	-0,031	0,056
-679,466	-55,047	-0,150	0,049
-678,451	-200,000	0,003	0,169
-677,437	4,985	0,047	-0,025
-676,422	800,000	0,019	-0,044
-675,408	-200,000	-0,009	0,039
-674,393	800,000	-0,038	-0,099
-673,378	751,204	-0,047	-0,093
-672,364	800,000	0,016	0,039
-671,349	70,660	-0,077	-0,059
-670,335	24,259	0,092	0,056
-669,320	-200,000	0,003	-0,047
-668,305	-35,833	0,096	0,038
-667,291	-3,522	0,091	0,046
-666,276	43,275	-0,016	0,011
-665,262	800,000	0,089	-0,255
-664,247	362,617	-0,069	-0,102
-663,232	159,739	-0,061	-0,063
-662,218	231,113	-0,033	0,040
-661,203	-13,392	-0,118	0,056
-660,189	188,153	-0,007	0,008
-659,174	419,205	-0,045	-0,071
-658,159	800,000	-0,085	-0,238
-657,145	-200,000	0,027	-0,091
-656,130	800,000	0,029	-0,078
-655,116	92,611	0,045	0,037
-654,101	-7,881	0,008	-0,004
-653,086	-200,000	0,006	0,030
-652,072	307,231	0,047	-0,064
-651,057	-148,259	-0,121	-0,007
-650,043	800,000	0,004	0,009
-649,028	36,586	0,097	-0,063
-648,014	-74,471	-0,070	-0,018
-646,999	778,630	0,035	-0,071
-645,984	-125,560	-0,056	0,006
-644,970	250,338	-0,028	0,035
-643,955	638,694	0,055	-0,103
-642,941	224,918	0,026	-0,032
-641,926	589,265	0,029	-0,053
-640,911	800,000	0,012	0,037
-639,897	317,774	-0,077	-0,108
-638,882	-200,000	0,019	0,092
-637,868	270,501	0,060	0,078
-636,853	245,820	-0,052	-0,065
-635,838	-21,992	-0,037	-0,017
-634,824	86,757	0,037	-0,030
-633,809	11,181	0,024	0,014
-632,795	136,326	-0,051	0,048
-631,780	800,000	-0,021	0,045
-630,765	303,157	-0,070	0,095
-629,751	163,484	0,026	-0,027
-628,736	472,243	-0,015	0,026
-627,722	-74,520	-0,191	0,050
-626,707	-200,000	-0,004	0,014
-625,692	-82,939	0,057	-0,013
-624,678	800,000	0,009	-0,027
-623,663	205,849	-0,041	0,046
-622,649	232,155	-0,029	0,035
-621,634	-200,000	-0,005	-0,068
-620,619	477,837	0,031	-0,052
-619,605	800,000	-0,022	0,049
-618,590	-72,520	-0,076	0,020
-617,576	717,765	-0,061	0,119
-616,561	-124,916	-0,103	-0,012
-615,546	167,821	-0,139	0,145
-614,532	-200,000	0,029	-0,142
-613,517	199,202	0,008	-0,010
-612,503	-44,983	-0,146	0,053
-611,488	-47,617	0,019	0,007
-610,474	-111,832	-0,140	-0,020
-609,459	-200,000	0,008	-0,085
-608,444	800,000	-0,034	-0,081
-607,430	-200,000	0,034	0,119
-606,415	166,598	0,072	-0,075
-605,401	49,016	0,038	0,026
-604,386	42,999	0,119	-0,079
-603,371	-200,000	0,004	0,075
-602,357	132,859	0,042	0,040
-601,342	199,208	-0,058	-0,065
-600,328	-32,739	0,063	0,026
-599,313	800,000	-0,009	-0,024
-598,298	800,000	0,041	-0,092
-597,284	-65,531	0,100	0,029
-596,269	-4,584	0,003	0,002
-595,255	79,647	-0,027	-0,021
-594,240	135,233	0,072	0,069
-593,225	180,540	-0,125	-0,135
-592,211	-200,000	0,001	-0,110
-591,196	-200,000	0,000	-0,032
-590,182	-98,511	0,068	0,013
-589,167	255,521	-0,009	0,012
-588,152	34,823	0,127	-0,081
-587,138	-64,522	-0,143	0,042
-586,123	800,000	0,046	-0,104
-585,109	800,000	-0,015	-0,048
-584,094	96,020	-0,116	-0,097
-583,079	-200,000	0,020	0,089
-582,065	73,963	-0,070	-0,054
-581,050	286,573	-0,048	-0,064
-580,036	58,547	0,041	-0,029
-579,021	372,398	0,078	0,116
-578,006	-93,471	-0,052	-0,010
-576,992	-41,844	0,048	-0,018
-575,977	-120,119	-0,175	0,022
-574,963	-63,322	0,118	0,035
-573,948	-62,396	0,155	0,047
-572,934	800,000	-0,011	0,035
-571,919	800,000	0,028	0,071
-570,904	-51,547	-0,061	-0,021
-569,890	800,000	-0,039	-0,115
-568,875	233,849	-0,033	0,039
-567,861	58,636	0,074	0,053
-566,846	108,787	0,101	-0,088
-565,831	-127,383	-0,116	0,012
-564,817	-200,000	-0,002	-0,035
-563,802	280,394	-0,065	-0,085
-562,788	-143,345	-0,135	-0,009
-561,773	-200,000	-0,018	-0,171
-560,758	193,899	-0,026	-0,028
-559,744	39,376	0,084	0,055
-558,729	403,717	-0,022	0,034
-557,715	-15,229	0,044	-0,021
-556,700	-70,041	-0,050	0,014
-555,685	-200,000	-0,014	-0,071
-554,671	102,567	0,105	0,089
-553,656	-166,436	0,138	0,004
-552,642	-200,000	-0,009	0,067
-551,627	-143,776	0,072	0,005
-550,612	-154,686	0,069	-0,003
-549,598	34,525	-0,030	0,019
-548,583	-200,000	-0,026	-0,091
-547,569	197,112	-0,051	0,057
-546,554	800,000	0,016	-0,046
-545,539	21,738	-0,073	0,043
-544,525	590,462	0,067	0,122
-543,510	-200,000	0,011	-0,070
-542,496	-39,612	0,149	-0,057
-541,481	-49,539	-0,163	-0,056
-540,466	-200,000	0,041	-0,193
-539,452	136,658	-0,081	0,077
-538,437	-144,627	0,192	0,013
-537,423	-200,000	0,022	-0,106
-536,408	449,140	0,081	-0,130
-535,393	-29,738	-0,062	0,026
-534,379	-200,000	-0,019	0,113
-533,364	-200,000	0,002	-0,047
-532,350	115,038	0,077	0,069
-531,335	-132,804	0,111	-0,010
-530,321	-200,000	0,025	0,148
-529,306	103,762	0,076	0,065
-528,291	282,300	-0,057	-0,075
-527,277	800,000	-0,057	-0,163
-526,262	167,241	-0,157	-0,163
-525,248	-200,000	0,004	0,022
-524,233	-144,823	0,069	-0,005
-523,218	-141,142	-0,052	0,004
-522,204	-102,189	-0,040	0,007
-521,189	-200,000	0,022	-0,088
-520,175	-111,996	-0,054	-0,008
-519,160	-195,731	-0,078	-0,000
-518,145	800,000	0,039	0,119
-517,131	-27,660	0,089	0,038
-516,116	-200,000	0,025	0,209
-515,102	-116,507	-0,051	0,007
-514,087	-126,785	0,056	-0,006
-513,072	141,594	-0,050	0,049
-512,058	-200,000	0,013	0,054
-511,043	363,884	0,026	-0,039
-510,029	153,103	0,075	0,075
-509,014	-200,000	0,026	0,102
-507,999	-137,296	-0,066	0,005
-506,985	214,206	-0,089	0,103
-505,970	-165,638	0,036	-0,001
-504,956	430,676	0,044	0,069
-503,941	764,885	-0,016	0,031
-502,926	-48,331	-0,043	-0,015
-501,912	430,144	0,079	-0,124
-500,897	800,000	-0,040	0,107
-499,883	-200,000	0,004	0,047
-498,868	-45,308	0,014	0,005
-497,853	800,000	0,031	-0,077
-496,839	142,613	-0,031	-0,030
-495,824	800,000	0,022	-0,066
-494,810	26,530	0,085	-0,052
-493,795	100,413	-0,039	-0,033
-492,781	25,456	-0,105	-0,064
-491,766	26,372	-0,093	-0,057
-490,751	68,658	0,034	-0,025
-489,737	800,000	-0,022	0,052
-488,722	52,599	0,034	-0,024
-487,708	-118,625	-0,061	0,008
-486,693	-200,000	-0,023	0,086
-485,678	-200,000	-0,006	0,047
-484,664	117,366	-0,050	0,045
-483,649	-200,000	0,011	-0,103
-482,635	-82,671	-0,109	-0,025
-481,620	-93,165	0,110	-0,022
-480,605	-200,000	-0,001	0,021
-479,591	171,844	-0,067	-0,070
-478,576	800,000	-0,019	-0,043
-477,562	546,879	-0,081	-0,142
-476,547	-200,000	-0,023	-0,164
-475,532	134,796	-0,057	-0,054
-474,518	65,347	0,075	0,055
-473,503	176,718	-0,098	0,104
-472,489	183,195	-0,050	0,054
-471,474	-15,536	0,052	0,024
-470,459	349,220	-0,065	-0,094
-469,445	-200,000	-0,019	-0,117
-468,430	-38,212	0,113	-0,043
-467,416	-111,064	0,051	0,008
-466,401	-1,266	-0,059	0,030
-465,386	-12,543	0,063	-0,030
-464,372	8,233	0,027	-0,015
-463,357	-200,000	0,010	-0,128
-462,343	43,777	-0,147	-0,098
-461,328	-200,000	-0,012	-0,120
-460,313	800,000	-0,048	-0,102
-459,299	258,431	0,046	0,058
-458,284	800,000	0,017	0,039
-457,270	72,670	0,078	0,059
-456,255	256,665	-0,086	0,108
-455,241	81,254	0,071	-0,056
-454,226	114,576	0,026	-0,024
-453,211	16,633	-0,029	0,017
-452,197	800,000	-0,036	0,104
-451,182	800,000	-0,016	0,046
-450,168	-139,559	-0,094	-0,007
-449,153	166,726	-0,027	0,028
-448,138	-200,000	-0,001	-0,167
-447,124	-65,914	-0,028	-0,008
-446,109	-53,701	0,131	0,043
-445,095	9,028	-0,080	0,044
-444,080	-90,713	0,047	0,010
-443,065	-81,797	-0,019	-0,004
-442,051	363,849	-0,073	-0,106
-441,036	-174,259	0,093	0,002
-440,022	-200,000	-0,016	-0,090
-439,007	155,044	0,060	-0,060
-437,992	184,282	0,118	0,127
-436,978	-200,000	0,007	0,111
-435,963	245,295	-0,069	0,085
-434,949	85,100	-0,071	-0,057
-433,934	366,265	0,017	-0,024
-432,919	-200,000	0,001	-0,004
-431,905	159,156	-0,041	0,042
-430,890	-200,000	0,015	0,089
-429,876	456,195	-0,036	-0,059
-428,861	-200,000	-0,028	0,177
-427,846	-25,543	0,094	-0,040
-426,832	-93,490	-0,040	0,008
-425,817	-200,000	0,020	-0,137
-424,803	-200,000	0,011	-0,087
-423,788	-122,642	-0,157	0,018
-422,773	-200,000	-0,003	0,179
-421,759	-164,051	-0,034	0,001
-420,744	-154,226	0,196	0,009
-419,730	-79,761	-0,128	0,031
-418,715	-70,521	-0,093	0,025
-417,701	800,000	-0,018	-0,045
-416,686	-200,000	-0,018	0,097
-415,671	-200,000	-0,008	0,084
-414,657	-200,000	-0,018	0,100
-413,642	800,000	0,045	-0,112
-412,628	-200,000	0,020	-0,205
-411,613	192,473	-0,091	-0,100
-410,598	28,907	0,100	0,061
-409,584	800,000	-0,030	0,096
-408,569	-200,000	-0,013	0,154
-407,555	391,074	-0,071	0,107
-406,540	-200,000	0,006	-0,100
-405,525	-200,000	0,004	-0,048
-404,511	-47,759	-0,092	-0,032
-403,496	-63,575	0,036	-0,011
-402,482	-200,000	0,005	0,098
-401,467	63,077	0,096	0,070
-400,452	106,814	0,095	0,082
-399,438	-88,601	0,080	-0,017
-398,423	593,245	-0,089	0,161
-397,409	16,656	-0,034	-0,019
-396,394	176,053	-0,031	-0,032
-395,379	-200,000	0,023	-0,094
-394,365	-200,000	-0,010	-0,038
-393,350	69,745	-0,081	-0,060
-392,336	-200,000	-0,009	0,046
-391,321	29,928	-0,075	0,046
-390,306	365,722	-0,077	-0,114
-389,292	114,109	0,117	-0,103
-388,277	-200,000	0,017	0,098
-387,263	-200,000	-0,052	0,212
-386,248	597,646	-0,053	-0,096
-385,233	180,784	-0,059	-0,063
-384,219	169,834	0,060	-0,063
-383,204	2,238	-0,144	0,075
-382,190	486,731	-0,041	0,068
-381,175	-200,000	-0,005	-0,084
-380,160	-136,988	-0,052	0,004
-379,146	800,000	-0,033	-0,104
-378,131	126,458	-0,084	0,077
-377,117	25,148	-0,095	-0,057
-376,102	159,798	-0,026	-0,026
-375,088	319,583	0,018	-0,025
-374,073	-200,000	0,007	-0,079
-373,058	-11,373	-0,019	-0,009
-372,044	439,955	0,113	0,180
-371,029	511,133	-0,026	0,044
-370,015	-42,617	0,113	-0,042
-369,000	81,129	-0,076	0,060
-367,985	47,813	0,099	-0,067
-366,971	800,000	-0,049	0,148
-365,956	-104,766	-0,066	0,011
-364,942	800,000	0,052	0,115
-363,927	-200,000	0,008	-0,056
-362,912	800,000	0,067	0,192
-361,898	427,268	-0,063	-0,099
-360,883	-200,000	-0,025	-0,096
-359,869	289,352	-0,079	-0,104
-358,854	800,000	-0,034	0,084
-357,839	-200,000	-0,035	-0,139
-356,825	-200,000	0,000	0,010
-355,810	127,743	0,034	-0,031
-354,796	-42,298	0,077	0,029
-353,781	82,227	-0,107	-0,084
-352,766	59,588	-0,014	0,010
-351,752	13,397	0,066	-0,037
-350,737	297,809	0,022	0,029
-349,723	11,991	-0,110	0,061
-348,708	800,000	0,060	0,146
-347,693	-72,307	-0,036	0,010
-346,679	-59,962	-0,101	-0,031
-345,664	-9,253	-0,054	0,026
-344,650	119,879	0,042	-0,038
-343,635	744,438	-0,023	-0,046
-342,620	-200,000	-0,005	-0,078
-341,606	56,170	0,077	-0,054
-340,591	397,251	0,022	-0,034
-339,577	101,634	-0,086	0,073
-338,562	-200,000	-0,014	0,046
-337,548	-200,000	0,013	0,050
-336,533	-61,676	0,043	0,013
-335,518	-65,647	0,068	-0,020
-334,504	-49,557	0,115	0,040
-333,489	-5,667	0,032	-0,016
-332,475	-53,090	-0,104	-0,035
-331,460	-9,225	0,056	0,027
-330,445	374,019	0,049	-0,072
-329,431	-200,000	0,002	0,107
-328,416	-142,917	0,247	0,017
-327,402	-170,416	-0,062	-0,002
-326,387	800,000	0,042	0,112
-325,372	-200,000	0,002	0,036
-324,358	40,402	-0,047	0,030
-323,343	-200,000	-0,002	-0,008
-322,329	-143,833	-0,049	-0,003
-321,314	800,000	0,035	0,105
-320,299	85,043	0,075	0,059
-319,285	531,674	-0,058	-0,101
-318,270	-152,458	0,080	-0,004
-317,256	52,041	0,076	-0,052
-316,241	333,379	-0,081	-0,113
-315,226	82,010	0,119	0,093
-314,212	208,075	0,058	0,066
-313,197	189,228	0,114	0,124
-312,183	130,379	-0,089	0,082
-311,168	-200,000	0,037	-0,141
-310,153	-200,000	0,011	0,043
-309,139	319,453	0,058	-0,080
-308,124	35,354	0,210	-0,133
-307,110	98,484	0,072	0,060
-306,095	31,203	-0,039	-0,024
-305,080	-139,196	0,048	-0,004
-304,066	-200,000	0,010	0,035
-303,051	-19,944	-0,196	0,087
-302,037	-46,289	0,104	-0,037
-301,022	305,045	0,082	-0,110
-300,008	116,795	0,070	0,062
-298,993	317,018	0,072	0,099
-297,978	-200,000	-0,010	0,046
-296,964	800,000	-0,041	0,082
-295,949	41,042	0,074	-0,049
-294,935	35,451	0,117	0,074
-293,920	298,206	0,085	0,114
-292,905	-200,000	-0,006	0,080
-291,891	800,000	0,031	0,086
-290,876	170,809	0,051	-0,053
-289,862	-60,801	-0,069	-0,021
-288,847	252,154	-0,087	0,107
-287,832	-4,557	0,204	0,101
-286,818	-138,194	-0,063	-0,005
-285,803	-200,000	0,015	-0,051
-284,789	587,592	0,019	-0,034
-283,774	-200,000	0,015	0,054
-282,759	756,785	-0,038	-0,075
-281,745	788,705	-0,047	0,094
-280,730	-200,000	-0,031	-0,102
-279,716	223,764	0,078	0,091
-278,701	-75,156	0,113	-0,029
-277,686	800,000	-0,062	0,153
-276,672	-200,000	0,061	0,328
-275,657	800,000	-0,009	0,024
-274,643	-200,000	-0,019	-0,100
-273,628	-200,000	-0,020	-0,077
-272,613	-200,000	-0,032	-0,124
-271,599	-136,444	0,049	0,004
-270,584	177,342	-0,044	-0,046
-269,570	402,943	-0,117	0,178
-268,555	153,010	0,078	0,077
-267,540	425,391	0,023	-0,036
-266,526	18,359	0,070	0,041
-265,511	-200,000	0,001	-0,132
-264,497	-119,124	0,119	-0,015
-263,482	-19,765	0,029	0,013
-262,467	174,218	0,039	0,040
-261,453	800,000	0,051	0,161
-260,438	241,231	0,006	-0,007
-259,424	440,565	0,097	0,154
-258,409	-200,000	0,021	-0,084
-257,395	-141,690	0,078	-0,006
-256,380	3,438	0,081	-0,042
-255,365	25,447	0,062	-0,037
-254,351	-200,000	-0,011	-0,068
-253,336	-200,000	-0,016	0,097
-252,322	164,086	-0,146	-0,149
-251,307	800,000	0,041	-0,091
-250,292	202,613	0,009	-0,010
-249,278	-59,757	0,169	0,052
-248,263	35,928	-0,039	0,024
-247,249	-52,604	-0,180	-0,060
-246,234	-141,203	-0,087	0,006
-245,219	95,806	-0,120	-0,099
-244,205	-140,384	-0,062	-0,005
-243,190	-200,000	-0,005	-0,055
-242,176	8,158	0,092	0,050
-241,161	213,695	0,126	0,144
-240,146	523,667	0,075	-0,127
-239,132	184,892	-0,045	-0,048
-238,117	-200,000	0,017	-0,127
-237,103	-48,713	0,103	0,035
-236,088	208,655	-0,030	0,034
-235,073	49,646	0,183	0,124
-234,059	-200,000	0,014	0,072
-233,044	-200,000	0,030	0,121
-232,030	51,759	0,113	-0,078
-231,015	-200,000	-0,043	-0,137
-230,000	-200,000	0,005	-0,157
-228,986	400,427	-0,014	0,021
-227,971	91,533	-0,036	0,029
-226,957	-58,026	0,125	0,039
-225,942	-27,545	-0,035	-0,015
-224,927	-97,633	0,087	0,016
-223,913	-106,858	-0,149	0,024
-222,898	800,000	0,011	-0,031
-221,884	139,351	0,007	-0,007
-220,869	-44,837	-0,084	0,030
-219,855	32,852	0,142	0,088
-218,840	800,000	-0,048	0,097
-217,825	9,922	-0,046	0,025
-216,811	-160,628	-0,075	0,003
-215,796	-64,503	0,071	-0,021
-214,782	-200,000	0,010	-0,047
-213,767	-85,983	0,146	-0,032
-212,752	141,931	-0,007	-0,007
-211,738	-200,000	-0,018	0,106
-210,723	-56,154	-0,123	0,039
-209,709	-200,000	-0,015	-0,061
-208,694	223,698	0,077	-0,090
-207,679	-200,000	0,033	-0,158
-206,665	800,000	0,043	-0,136
-205,650	-72,986	-0,045	0,012
-204,636	800,000	0,024	0,068
-203,621	-121,216	-0,120	-0,014
-202,606	-17,226	-0,046	0,021
-201,592	-63,602	0,108	-0,032
-200,577	-200,000	-0,038	-0,133
-199,563	-6,209	0,046	0,023
-198,548	701,006	-0,067	0,128
-197,533	-12,256	-0,091	0,043
-196,519	-116,154	-0,043	0,006
-195,504	18,270	-0,069	0,040
-194,490	-200,000	-0,006	-0,042
-193,475	52,059	0,012	0,008
-192,460	-104,584	0,065	-0,011
-191,446	-200,000	-0,012	-0,068
-190,431	166,056	-0,057	-0,058
-189,417	459,439	0,061	-0,098
-188,402	-179,707	-0,080	0,001
-187,387	-174,190	-0,151	0,003
-186,373	-200,000	0,002	0,067
-185,358	-1,180	0,058	-0,029
-184,344	-11,441	0,111	0,052
-183,329	110,570	-0,078	-0,067
-182,315	-88,502	-0,089	0,019
-181,300	588,521	-0,011	0,019
-180,285	-71,037	0,042	0,011
-179,271	800,000	-0,036	-0,088
-178,256	-200,000	-0,014	-0,105
-177,242	800,000	0,012	0,034
-176,227	65,710	0,077	-0,056
-175,212	109,808	-0,041	0,035
-174,198	-200,000	0,003	-0,060
-173,183	118,260	-0,040	0,036
-172,169	-31,568	-0,115	0,046
-171,154	-41,702	-0,065	0,024
-170,139	17,807	-0,120	0,069
-169,125	-200,000	-0,012	0,241
-168,110	800,000	0,062	0,131
-167,096	-148,638	-0,175	0,010
-166,081	-174,715	-0,012	0,000
-165,066	-200,000	0,015	-0,139
-164,052	-200,000	-0,020	-0,171
-163,037	-200,000	0,005	0,055
-162,023	101,829	0,011	0,010
-161,008	21,190	0,162	0,094
-159,993	800,000	0,060	-0,125
-158,979	800,000	-0,005	0,011
-157,964	800,000	0,039	-0,079
-156,950	800,000	-0,011	0,029
-155,935	-117,035	0,048	0,006
-154,920	800,000	-0,018	0,048
-153,906	-200,000	0,017	0,065
-152,891	122,938	-0,120	-0,108
-151,877	-200,000	-0,002	0,011
-150,862	125,099	-0,114	-0,103
-149,847	100,332	0,067	0,056
-148,833	-20,585	0,102	-0,045
-147,818	-101,422	-0,051	-0,009
-146,804	800,000	-0,020	0,052
-145,789	178,647	0,081	-0,086
-144,775	-200,000	-0,015	-0,143
-143,760	60,340	0,159	-0,113
-142,745	800,000	0,054	0,114
-141,731	322,463	-0,051	-0,071
-140,716	24,926	0,065	-0,039
-139,702	200,739	0,046	0,051
-138,687	800,000	0,022	-0,058
-137,672	80,725	0,062	0,048
-136,658	-139,905	-0,076	0,006
-135,643	-40,975	0,108	-0,040
-134,629	-98,499	-0,058	0,011
-133,614	100,222	-0,065	0,054
-132,599	-200,000	-0,010	-0,048
-131,585	800,000	-0,059	0,125
-130,570	91,464	0,066	0,053
-129,556	-37,097	0,103	-0,040
-128,541	-101,299	-0,020	0,003
-127,526	2,640	-0,035	-0,018
-126,512	242,808	-0,086	-0,103
-125,497	-96,948	0,157	0,029
-124,483	-200,000	0,005	-0,043
-123,468	50,025	0,035	-0,024
-122,453	-123,290	0,046	-0,005
-121,439	-38,387	-0,018	0,007
-120,424	542,633	0,051	-0,088
-119,410	-200,000	-0,043	0,171
-118,395	302,672	0,059	0,079
