DTS Sentinel unit serial number:	SN410029Multiplexer serial number:	ORYXHardware model number:	OX2-SRSoftware version number:	ORYX F/W v4,00 Oryx Data Collector v3.7.2.0data status	okinstallation	B5 Nyhavnadifferential loss correction	single-endedforward channel	channel 2reverse channel	N/Adate	2023/12/14time	16:22:13forward acquisition time	300,00reverse acquisition time	0,00gamma	499,1914k internal	0,3158k external	0,3158temperature offset calibration	1,0000default loss term (dB/km)	0,3820temperature slope calibration	1,0000multiplexer offset coefficient	1,0000multiplexer slope coefficient	1,0000fibre end	0,00T internal ref (°C)	7,98T ext. ref 1 (°C)	-7,57T ext. ref 2 (°C)	-7,60length (m)	temperature (°C)	Stokes	anti-Stokes-744,400	78,836	0,047	0,037
-743,385	-88,507	-0,330	-0,072
-742,371	-96,737	0,217	0,042
-741,356	-184,846	-0,351	-0,004
-740,342	80,239	0,191	0,152
-739,327	-58,844	-0,420	-0,133
-738,312	-153,047	0,210	0,011
-737,298	-174,822	-0,393	0,008
-736,283	248,846	0,105	0,131
-735,269	-140,196	-0,288	0,022
-734,254	800,000	0,095	0,207
-733,239	-44,936	-0,487	-0,178
-732,225	207,724	0,152	0,176
-731,210	43,397	-0,084	0,056
-730,196	-200,000	-0,007	-0,053
-729,181	-200,000	-0,016	-0,094
-728,167	800,000	0,072	-0,160
-727,152	593,701	-0,030	0,054
-726,137	-44,614	-0,076	-0,028
-725,123	-125,566	0,068	0,008
-724,108	559,619	-0,056	-0,099
-723,094	-200,000	0,024	-0,130
-722,079	800,000	-0,035	0,090
-721,064	396,184	-0,037	-0,057
-720,050	68,974	-0,059	0,045
-719,035	-64,752	-0,142	0,042
-718,021	16,700	0,116	-0,068
-717,006	16,029	-0,139	-0,081
-715,991	-200,000	-0,023	0,082
-714,977	-91,293	0,057	0,012
-713,962	-116,386	-0,090	0,012
-712,948	-91,861	-0,050	-0,010
-711,933	-53,772	0,021	-0,007
-710,918	800,000	0,030	0,065
-709,904	-114,564	-0,023	-0,003
-708,889	-200,000	0,011	0,134
-707,875	45,552	-0,039	0,026
-706,860	800,000	-0,020	0,056
-705,845	323,111	-0,016	-0,022
-704,831	95,345	0,039	0,033
-703,816	-200,000	-0,013	0,113
-702,802	-200,000	-0,012	0,054
-701,787	-145,162	0,060	0,004
-700,772	643,040	-0,037	0,071
-699,758	-200,000	-0,004	0,037
-698,743	-200,000	-0,026	0,182
-697,729	453,290	0,022	0,036
-696,714	40,392	-0,027	0,018
-695,699	-166,476	-0,106	-0,003
-694,685	-200,000	0,027	-0,107
-693,670	167,536	0,037	0,038
-692,656	-30,831	0,075	0,031
-691,641	-41,841	0,154	0,058
-690,627	-59,183	-0,140	-0,044
-689,612	194,712	0,065	-0,073
-688,597	800,000	0,010	-0,033
-687,583	-200,000	-0,002	-0,034
-686,568	124,466	-0,158	-0,146
-685,554	-43,309	-0,108	-0,040
-684,539	-74,238	0,091	-0,024
-683,524	39,151	-0,151	0,099
-682,510	800,000	-0,022	0,057
-681,495	111,613	0,027	-0,024
-680,481	-163,707	-0,089	-0,003
-679,466	258,007	-0,141	-0,179
-678,451	-200,000	0,012	0,056
-677,437	773,060	0,031	0,062
-676,422	91,326	0,041	0,034
-675,408	-112,865	0,119	-0,017
-674,393	18,497	-0,028	-0,016
-673,378	346,935	-0,079	-0,114
-672,364	38,999	-0,167	-0,109
-671,349	21,114	-0,096	0,057
-670,335	52,192	0,027	-0,019
-669,320	66,241	-0,060	-0,045
-668,305	308,683	-0,018	0,025
-667,291	-200,000	-0,013	0,075
-666,276	80,808	-0,029	-0,023
-665,262	368,952	-0,112	0,167
-664,247	800,000	0,003	0,008
-663,232	-47,071	-0,041	0,015
-662,218	-200,000	-0,012	0,102
-661,203	-200,000	-0,020	0,143
-660,189	800,000	-0,071	0,190
-659,174	533,836	-0,059	0,103
-658,159	59,913	-0,066	0,048
-657,145	96,352	0,056	0,047
-656,130	372,838	0,057	0,085
-655,116	-0,405	0,074	-0,039
-654,101	-179,708	0,048	0,001
-653,086	-31,978	-0,043	0,018
-652,072	800,000	0,008	-0,019
-651,057	-76,495	-0,036	-0,009
-650,043	-200,000	-0,025	0,136
-649,028	-200,000	0,002	0,091
-648,014	134,402	0,023	-0,022
-646,999	758,652	-0,026	-0,051
-645,984	-49,838	0,078	-0,027
-644,970	-200,000	0,017	0,079
-643,955	-200,000	0,006	-0,136
-642,941	125,926	0,068	0,063
-641,926	-200,000	-0,014	-0,100
-640,911	-200,000	-0,001	-0,026
-639,897	-200,000	0,005	0,021
-638,882	800,000	0,047	0,143
-637,868	219,506	0,026	0,030
-636,853	-200,000	-0,015	-0,076
-635,838	-116,296	0,108	-0,014
-634,824	594,059	-0,039	-0,071
-633,809	-200,000	0,006	0,064
-632,795	142,944	0,093	0,091
-631,780	800,000	-0,095	0,201
-630,765	311,472	0,071	0,098
-629,751	206,587	-0,090	-0,103
-628,736	-78,117	-0,051	-0,013
-627,722	413,630	-0,092	0,145
-626,707	-53,261	0,117	0,039
-625,692	78,141	-0,027	0,021
-624,678	-64,578	0,016	-0,005
-623,663	180,136	0,039	0,042
-622,649	101,849	-0,108	-0,093
-621,634	-160,891	-0,062	0,002
-620,619	-172,355	0,020	0,000
-619,605	-200,000	-0,022	-0,071
-618,590	49,477	0,022	0,015
-617,576	-200,000	0,021	-0,155
-616,561	800,000	-0,018	-0,057
-615,546	177,166	0,033	-0,035
-614,532	-32,572	-0,076	-0,031
-613,517	25,585	-0,125	-0,076
-612,503	-61,403	-0,060	-0,018
-611,488	284,630	-0,031	-0,042
-610,474	309,105	0,086	0,118
-609,459	174,465	-0,067	0,071
-608,444	-106,976	-0,013	0,002
-607,430	-148,472	-0,126	-0,007
-606,415	-200,000	0,013	-0,120
-605,401	145,911	-0,034	0,033
-604,386	-200,000	-0,009	0,084
-603,371	-136,698	0,141	-0,012
-602,357	800,000	-0,049	-0,129
-601,342	800,000	0,038	-0,121
-600,328	-32,494	0,042	-0,017
-599,313	186,898	0,061	0,067
-598,298	-197,650	0,066	-0,000
-597,284	209,092	0,033	0,038
-596,269	800,000	0,057	0,154
-595,255	-133,071	-0,140	0,013
-594,240	-96,391	-0,123	-0,024
-593,225	-200,000	-0,011	0,079
-592,211	314,047	-0,052	0,072
-591,196	18,533	0,050	0,029
-590,182	-200,000	-0,002	-0,026
-589,167	6,077	-0,138	0,075
-588,152	39,937	0,107	-0,070
-587,138	362,252	0,019	-0,028
-586,123	197,148	-0,110	-0,123
-585,109	-54,286	0,211	-0,070
-584,094	-200,000	-0,005	0,053
-583,079	-65,772	-0,097	-0,028
-582,065	44,935	0,117	0,079
-581,050	-92,604	-0,054	-0,011
-580,036	17,031	-0,117	0,068
-579,021	-94,513	-0,061	0,012
-578,006	131,457	-0,107	-0,101
-576,992	181,786	0,080	-0,087
-575,977	135,114	0,075	0,071
-574,963	329,869	0,052	0,073
-573,948	643,198	-0,031	0,058
-572,934	800,000	0,009	0,024
-571,919	-153,175	0,168	0,008
-570,904	-200,000	-0,005	-0,172
-569,890	-200,000	-0,010	-0,168
-568,875	236,520	0,054	-0,066
-567,861	22,890	-0,036	-0,022
-566,846	-200,000	-0,003	0,060
-565,831	109,001	-0,113	-0,099
-564,817	120,242	0,134	-0,121
-563,802	-66,027	-0,042	0,012
-562,788	800,000	-0,027	0,065
-561,773	-200,000	0,026	-0,103
-560,758	800,000	0,031	-0,071
-559,744	79,627	-0,087	0,068
-558,729	55,080	-0,118	-0,083
-557,715	-29,343	-0,130	0,054
-556,700	171,777	0,109	-0,115
-555,685	263,258	-0,055	-0,070
-554,671	-200,000	-0,001	0,102
-553,656	-200,000	-0,007	-0,059
-552,642	87,719	0,099	0,080
-551,627	152,623	-0,075	-0,075
-550,612	-200,000	0,003	0,009
-549,598	-200,000	0,002	0,030
-548,583	-27,057	-0,011	-0,005
-547,569	7,298	0,059	-0,032
-546,554	-200,000	0,011	-0,145
-545,539	392,499	-0,044	-0,067
-544,525	-200,000	-0,005	0,125
-543,510	201,119	-0,067	0,075
-542,496	-10,373	0,029	-0,014
-541,481	-78,033	0,041	-0,010
-540,466	800,000	0,021	-0,052
-539,452	-72,778	-0,101	-0,027
-538,437	17,549	0,235	0,136
-537,423	800,000	-0,033	-0,088
-536,408	204,243	-0,091	-0,104
-535,393	-55,216	-0,090	0,030
-534,379	-113,945	0,115	-0,016
-533,364	-200,000	-0,000	0,053
-532,350	-111,383	0,105	0,015
-531,335	-200,000	-0,011	0,052
-530,321	-121,642	0,227	0,027
-529,306	81,188	-0,082	-0,065
-528,291	-184,551	-0,104	-0,001
-527,277	-140,122	-0,035	0,003
-526,262	-35,830	0,137	-0,054
-525,248	800,000	0,020	0,045
-524,233	-29,725	-0,065	0,027
-523,218	12,400	0,088	0,050
-522,204	435,575	-0,075	0,119
-521,189	-70,610	0,050	-0,014
-520,175	800,000	0,032	-0,098
-519,160	150,821	0,071	-0,071
-518,145	640,559	0,018	-0,034
-517,131	-62,727	0,162	0,049
-516,116	194,320	0,068	0,076
-515,102	551,448	-0,027	0,048
-514,087	-78,244	-0,082	-0,020
-513,072	235,467	0,097	0,117
-512,058	-200,000	0,034	0,156
-511,043	404,754	-0,039	-0,060
-510,029	-200,000	0,010	0,109
-509,014	-69,462	-0,050	0,014
-507,999	-200,000	-0,009	-0,203
-506,985	164,593	-0,032	-0,033
-505,970	678,513	0,091	-0,174
-504,956	-164,041	-0,022	-0,001
-503,941	272,615	-0,072	0,094
-502,926	86,581	0,049	0,039
-501,912	800,000	0,026	0,083
-500,897	-4,865	-0,041	0,021
-499,883	-200,000	0,013	0,135
-498,868	83,235	-0,124	-0,098
-497,853	-200,000	-0,004	-0,147
-496,839	557,133	-0,046	-0,082
-495,824	800,000	0,056	0,128
-494,810	8,428	-0,033	0,018
-493,795	800,000	0,020	-0,058
-492,781	-200,000	0,002	-0,031
-491,766	10,804	-0,070	-0,039
-490,751	-78,123	0,034	-0,008
-489,737	326,978	-0,048	-0,068
-488,722	-200,000	0,035	0,173
-487,708	-5,266	0,235	0,117
-486,693	20,224	-0,040	0,024
-485,678	649,427	0,049	-0,091
-484,664	-200,000	0,031	-0,134
-483,649	379,178	0,054	-0,081
-482,635	-200,000	0,010	0,211
-481,620	-28,471	-0,071	0,030
-480,605	32,714	0,068	0,043
-479,591	20,036	0,120	0,071
-478,576	-200,000	-0,013	0,045
-477,562	187,867	0,031	0,034
-476,547	-108,968	-0,167	0,026
-475,532	-200,000	0,021	-0,099
-474,518	-56,944	-0,091	-0,029
-473,503	202,723	0,109	0,122
-472,489	206,313	-0,022	0,025
-471,474	756,089	-0,051	0,101
-470,459	-133,934	-0,189	0,017
-469,445	800,000	0,051	-0,110
-468,430	288,421	0,047	0,062
-467,416	-200,000	-0,039	0,269
-466,401	-50,404	0,073	0,025
-465,386	-200,000	0,016	-0,052
-464,372	-57,475	-0,117	0,037
-463,357	-200,000	0,001	0,028
-462,343	-103,199	-0,043	-0,007
-461,328	-200,000	-0,006	0,048
-460,313	-38,585	-0,030	0,011
-459,299	-42,722	-0,094	0,035
-458,284	13,552	0,100	-0,056
-457,270	-127,855	-0,110	0,011
-456,255	800,000	0,075	-0,214
-455,241	-31,808	-0,190	0,077
-454,226	2,719	0,178	-0,094
-453,211	-99,075	-0,048	0,009
-452,197	746,023	0,029	-0,057
-451,182	-200,000	0,026	-0,109
-450,168	800,000	0,036	0,089
-449,153	4,970	-0,098	-0,053
-448,138	3,728	-0,073	0,039
-447,124	291,149	0,069	0,091
-446,109	-152,493	0,081	-0,004
-445,095	-41,944	0,032	0,012
-444,080	578,642	0,019	0,034
-443,065	334,957	-0,104	0,148
-442,051	-200,000	-0,005	-0,081
-441,036	503,020	-0,095	-0,161
-440,022	800,000	0,040	-0,122
-439,007	-124,225	0,028	-0,003
-437,992	409,669	-0,046	-0,071
-436,978	-30,480	0,032	0,013
-435,963	89,547	-0,074	-0,060
-434,949	4,281	-0,080	-0,042
-433,934	-200,000	0,022	-0,148
-432,919	-159,891	-0,061	-0,002
-431,905	793,545	0,020	-0,040
-430,890	692,701	0,054	0,104
-429,876	-119,562	0,072	0,009
-428,861	396,697	0,043	0,066
-427,846	-172,792	-0,071	-0,002
-426,832	-93,027	0,031	0,006
-425,817	800,000	0,109	-0,227
-424,803	691,172	0,058	-0,110
-423,788	6,457	-0,046	0,025
-422,773	-43,591	0,160	0,059
-421,759	-58,180	0,160	0,050
-420,744	-161,905	-0,075	-0,003
-419,730	-83,325	-0,104	0,024
-418,715	-26,410	-0,068	-0,029
-417,701	-200,000	-0,013	-0,065
-416,686	-22,147	0,109	0,048
-415,671	160,298	0,141	0,144
-414,657	800,000	-0,021	0,056
-413,642	90,601	0,029	0,023
-412,628	-67,042	-0,100	-0,029
-411,613	800,000	-0,074	-0,150
-410,598	-200,000	0,037	-0,143
-409,584	367,812	0,068	0,100
-408,569	91,823	0,028	0,023
-407,555	-176,404	0,066	0,001
-406,540	-200,000	-0,021	-0,092
-405,525	222,810	-0,007	-0,008
-404,511	-79,706	-0,035	-0,009
-403,496	32,229	0,056	0,035
-402,482	-128,479	0,071	-0,007
-401,467	66,881	0,174	-0,129
-400,452	800,000	-0,033	-0,082
-399,438	800,000	-0,025	-0,052
-398,423	124,616	0,072	0,066
-397,409	80,686	0,062	0,049
-396,394	166,686	-0,063	0,066
-395,379	-109,951	0,213	-0,032
-394,365	104,621	-0,040	-0,034
-393,350	287,624	0,099	0,130
-392,336	-200,000	0,009	-0,031
-391,321	-200,000	0,024	-0,078
-390,306	-160,433	-0,088	-0,003
-389,292	800,000	0,060	-0,188
-388,277	26,390	0,032	0,020
-387,263	551,213	0,033	0,057
-386,248	109,266	0,113	0,098
-385,233	406,677	-0,119	0,183
-384,219	-200,000	-0,026	0,138
-383,204	-200,000	0,009	0,176
-382,190	-23,906	-0,073	-0,031
-381,175	-86,756	-0,101	0,022
-380,160	371,222	0,072	-0,106
-379,146	-200,000	-0,030	-0,097
-378,131	-89,353	-0,029	0,006
-377,117	27,088	-0,025	-0,015
-376,102	-97,907	-0,066	0,012
-375,088	362,598	-0,035	0,051
-374,073	-109,243	-0,083	-0,013
-373,058	113,962	-0,101	-0,089
-372,044	800,000	-0,036	0,109
-371,029	140,950	0,036	-0,034
-370,015	-76,653	0,026	0,006
-369,000	800,000	-0,024	0,067
-367,985	800,000	-0,018	0,036
-366,971	-142,589	0,115	0,008
-365,956	66,894	0,097	-0,072
-364,942	11,000	-0,050	0,027
-363,927	-200,000	0,019	0,062
-362,912	-200,000	-0,064	0,268
-361,898	-200,000	0,021	0,164
-360,883	15,033	0,022	0,012
-359,869	219,689	0,047	0,055
-358,854	-141,925	0,120	0,009
-357,839	-200,000	0,012	0,111
-356,825	-200,000	0,009	0,029
-355,810	-110,436	0,065	0,010
-354,796	-148,423	0,049	0,003
-353,781	20,550	-0,077	-0,045
-352,766	-200,000	-0,021	0,174
-351,752	26,892	0,142	0,086
-350,737	800,000	-0,055	0,115
-349,723	-200,000	0,008	-0,133
-348,708	-133,187	0,147	-0,013
-347,693	54,048	0,097	-0,068
-346,679	-53,242	-0,040	-0,013
-345,664	342,609	0,059	0,084
-344,650	-165,140	-0,071	-0,002
-343,635	494,879	0,017	-0,029
-342,620	102,712	0,057	-0,049
-341,606	800,000	0,046	0,106
-340,591	799,767	-0,048	0,097
-339,577	375,452	0,065	0,097
-338,562	-192,612	0,055	0,000
-337,548	-54,013	0,081	0,027
-336,533	-60,662	0,086	0,026
-335,518	212,075	0,016	-0,018
-334,504	-200,000	-0,025	0,097
-333,489	-200,000	-0,010	0,130
-332,475	92,201	-0,107	0,087
-331,460	800,000	-0,050	-0,143
-330,445	-88,670	0,050	0,011
-329,431	-200,000	0,034	0,117
-328,416	81,154	0,051	0,040
-327,402	-32,096	0,127	-0,051
-326,387	221,468	-0,054	-0,063
-325,372	33,507	-0,091	-0,057
-324,358	265,630	0,068	-0,086
-323,343	-200,000	0,036	-0,119
-322,329	69,122	0,041	-0,031
-321,314	17,236	0,148	0,085
-320,299	-200,000	0,001	0,007
-319,285	-200,000	0,005	0,075
-318,270	642,515	-0,058	-0,108
-317,256	-57,510	-0,080	0,025
-316,241	12,552	-0,089	0,050
-315,226	-81,253	-0,060	-0,014
-314,212	-83,068	-0,102	-0,024
-313,197	-200,000	0,006	0,124
-312,183	-145,373	0,142	-0,009
-311,168	-84,955	-0,067	0,015
-310,153	-200,000	-0,035	-0,150
-309,139	27,227	-0,153	-0,093
-308,124	-200,000	0,009	-0,131
-307,110	-143,198	-0,050	0,003
-306,095	215,481	0,054	-0,062
-305,080	36,077	-0,096	-0,061
-304,066	550,412	-0,100	-0,175
-303,051	-79,384	0,056	-0,014
-302,037	-76,835	-0,082	0,021
-301,022	-147,149	-0,108	0,007
-300,008	367,277	-0,070	0,103
-298,993	800,000	-0,027	0,075
-297,978	-76,134	0,061	0,016
-296,964	-25,921	0,062	-0,026
-295,949	-144,686	-0,192	-0,013
-294,935	-39,917	-0,106	0,040
-293,920	647,778	0,034	-0,062
-292,905	28,319	0,065	-0,040
-291,891	-200,000	-0,021	0,120
-290,876	-185,095	-0,040	-0,000
-289,862	800,000	-0,050	-0,111
-288,847	89,851	-0,065	-0,053
-287,832	152,671	0,087	-0,086
-286,818	185,040	-0,036	0,038
-285,803	-200,000	0,010	0,112
-284,789	-139,408	-0,099	0,008
-283,774	-90,982	0,168	-0,035
-282,759	30,794	-0,116	0,072
-281,745	-200,000	-0,011	-0,070
-280,730	-200,000	-0,048	-0,163
-279,716	111,471	-0,065	0,057
-278,701	2,028	0,061	0,032
-277,686	69,975	-0,021	0,016
-276,672	37,102	-0,069	0,044
-275,657	-200,000	-0,001	0,034
-274,643	100,980	0,067	-0,057
-273,628	-200,000	0,002	-0,128
-272,613	-200,000	0,007	0,117
-271,599	123,027	-0,060	-0,054
-270,584	66,905	0,114	0,084
-269,570	109,609	0,064	0,056
-268,555	-200,000	-0,001	0,049
-267,540	-57,647	-0,122	-0,038
-266,526	-120,693	0,055	-0,007
-265,511	100,247	-0,046	-0,038
-264,497	-200,000	-0,044	-0,172
-263,482	75,206	0,064	-0,049
-262,467	-200,000	0,003	0,109
-261,453	800,000	-0,023	0,073
-260,438	-154,838	-0,200	-0,009
-259,424	-101,952	-0,030	0,005
-258,409	-111,956	0,068	0,010
-257,395	518,792	-0,026	-0,045
-256,380	-200,000	-0,027	-0,088
-255,365	800,000	-0,068	0,182
-254,351	-200,000	-0,020	0,112
-253,336	800,000	-0,022	0,065
-252,322	800,000	-0,031	0,070
-251,307	-65,896	-0,050	-0,014
-250,292	-128,116	-0,061	0,006
-249,278	212,540	0,036	0,041
-248,263	-200,000	-0,010	-0,057
-247,249	116,589	0,119	0,105
-246,234	-200,000	-0,024	-0,106
-245,219	800,000	-0,055	0,133
-244,205	12,171	-0,068	-0,038
-243,190	800,000	-0,043	0,089
-242,176	-200,000	-0,003	0,098
-241,161	-153,289	0,056	-0,003
-240,146	-145,171	-0,192	-0,012
-239,132	442,438	-0,031	-0,049
-238,117	-200,000	0,002	-0,091
-237,103	-67,826	-0,088	-0,025
-236,088	800,000	-0,019	0,061
-235,073	-32,927	0,110	-0,044
-234,059	-14,706	0,052	-0,024
-233,044	228,752	-0,033	-0,039
-232,030	800,000	0,019	0,042
-231,015	-200,000	-0,021	-0,095
-230,000	-200,000	-0,024	0,094
-228,986	-89,617	0,178	0,038
-227,971	60,306	-0,115	-0,082
-226,957	235,648	0,099	0,118
-225,942	370,299	-0,067	0,098
-224,927	195,883	0,089	0,098
-223,913	-200,000	-0,014	-0,093
-222,898	-103,522	0,067	0,011
-221,884	800,000	0,052	0,151
-220,869	-138,324	-0,024	0,002
-219,855	309,170	-0,047	-0,064
-218,840	800,000	0,060	-0,138
-217,825	133,213	-0,010	0,009
-216,811	-200,000	-0,004	-0,039
-215,796	162,044	0,059	0,060
-214,782	800,000	0,024	0,072
-213,767	-200,000	-0,009	-0,095
-212,752	-200,000	-0,000	0,011
-211,738	5,435	-0,095	0,050
-210,723	-119,881	0,122	-0,015
-209,709	242,397	-0,064	-0,078
-208,694	-15,268	-0,112	-0,052
-207,679	-34,823	0,137	-0,054
-206,665	-65,180	0,094	-0,027
-205,650	697,517	0,026	-0,050
-204,636	-145,476	0,108	-0,007
-203,621	9,460	-0,135	-0,074
-202,606	175,082	-0,096	-0,100
-201,592	332,598	-0,026	-0,037
-200,577	800,000	0,073	0,166
-199,563	-73,116	-0,094	-0,025
-198,548	800,000	-0,010	0,028
-197,533	800,000	0,044	-0,126
-196,519	-200,000	-0,048	-0,167
-195,504	800,000	-0,041	-0,108
-194,490	634,750	-0,088	-0,161
-193,475	-200,000	0,013	-0,108
-192,460	131,300	0,052	-0,048
-191,446	-200,000	-0,001	0,061
-190,431	30,989	-0,139	0,086
-189,417	-147,323	0,061	-0,004
-188,402	-200,000	0,002	0,118
-187,387	162,593	0,125	-0,127
-186,373	262,735	-0,012	0,015
-185,358	40,912	-0,171	-0,111
-184,344	97,034	-0,120	-0,099
-183,329	800,000	0,011	-0,027
-182,315	-41,998	-0,099	0,036
-181,300	386,444	0,107	-0,160
-180,285	204,902	-0,053	-0,059
-179,271	389,213	0,036	-0,053
-178,256	105,106	-0,049	0,042
-177,242	91,343	0,088	-0,071
-176,227	131,263	-0,078	-0,072
-175,212	230,166	-0,044	0,052
-174,198	-114,579	-0,065	-0,009
-173,183	-200,000	0,038	0,142
-172,169	-43,345	0,104	0,038
-171,154	-200,000	0,001	0,012
-170,139	8,599	0,101	0,055
-169,125	176,160	0,067	0,071
-168,110	632,671	-0,061	0,112
-167,096	-51,720	0,101	0,034
-166,081	98,848	-0,114	0,095
-165,066	-200,000	-0,011	-0,057
-164,052	-95,596	0,048	-0,009
-163,037	276,108	-0,029	-0,038
-162,023	139,051	0,108	-0,102
-161,008	177,070	-0,097	0,102
-159,993	18,240	-0,046	0,026
-158,979	351,723	-0,021	-0,030
-157,964	243,761	0,030	0,036
-156,950	-200,000	-0,001	-0,118
-155,935	201,074	0,038	-0,043
-154,920	800,000	0,037	0,084
-153,906	-63,690	0,038	0,011
-152,891	-67,285	-0,031	-0,009
-151,877	-200,000	-0,010	-0,135
-150,862	800,000	-0,064	-0,170
-149,847	275,603	-0,065	0,084
-148,833	-200,000	-0,009	-0,037
-147,818	170,277	-0,034	0,035
-146,804	-45,836	-0,070	0,025
-145,789	119,427	0,055	-0,049
-144,775	-200,000	0,003	0,076
-143,760	-200,000	0,022	-0,177
-142,745	800,000	-0,041	-0,113
-141,731	800,000	0,038	-0,115
-140,716	153,865	-0,026	-0,025
-139,702	-200,000	0,019	0,168
-138,687	800,000	-0,055	0,137
-137,672	113,276	0,121	-0,106
-136,658	176,151	-0,032	0,034
-135,643	-61,084	0,059	0,018
-134,629	648,808	-0,060	-0,111
-133,614	-130,374	-0,062	0,006
-132,599	-58,002	-0,057	0,018
-131,585	-200,000	-0,003	0,010
-130,570	212,389	0,040	-0,045
-129,556	-200,000	0,004	0,023
-128,541	800,000	-0,033	-0,100
-127,526	107,746	0,134	0,115
-126,512	-200,000	-0,027	0,129
-125,497	243,760	-0,044	-0,053
-124,483	459,091	-0,015	0,024
-123,468	-101,623	0,109	0,019
-122,453	33,606	-0,086	0,053
-121,439	35,457	-0,041	-0,026
-120,424	50,313	-0,118	0,080
-119,410	34,711	0,049	0,031
