DTS Sentinel unit serial number:	SN410029Multiplexer serial number:	ORYXHardware model number:	OX2-SRSoftware version number:	ORYX F/W v4,00 Oryx Data Collector v3.7.2.0data status	okinstallation	B5 Nyhavnadifferential loss correction	single-endedforward channel	channel 2reverse channel	N/Adate	2023/12/11time	23:37:13forward acquisition time	300,00reverse acquisition time	0,00gamma	499,1914k internal	0,3156k external	0,3156temperature offset calibration	1,0000default loss term (dB/km)	0,3820temperature slope calibration	1,0000multiplexer offset coefficient	1,0000multiplexer slope coefficient	1,0000fibre end	0,00T internal ref (°C)	16,24T ext. ref 1 (°C)	-0,10T ext. ref 2 (°C)	-0,39length (m)	temperature (°C)	Stokes	anti-Stokes-744,400	-200,000	-0,052	0,184
-743,385	-157,636	-0,365	0,016
-742,371	-110,971	0,186	0,028
-741,356	115,938	-0,122	0,110
-740,342	763,362	0,018	0,036
-739,327	-65,747	-0,318	0,093
-738,312	212,925	-0,066	0,077
-737,298	-113,575	-0,372	-0,053
-736,283	-200,000	0,038	-0,140
-735,269	-171,006	-0,371	0,009
-734,254	259,340	0,029	-0,036
-733,239	-37,795	-0,375	-0,147
-732,225	-187,581	0,250	0,002
-731,210	-200,000	0,021	-0,072
-730,196	364,173	-0,092	-0,137
-729,181	726,710	0,014	-0,027
-728,167	-140,854	-0,052	0,004
-727,152	-21,709	0,090	0,040
-726,137	170,425	0,027	-0,028
-725,123	119,652	-0,028	0,026
-724,108	-109,334	-0,133	0,021
-723,094	81,067	0,012	0,009
-722,079	-125,937	0,076	-0,008
-721,064	394,226	0,094	0,144
-720,050	-200,000	0,001	0,043
-719,035	23,114	-0,094	0,057
-718,021	-97,388	-0,163	0,031
-717,006	-200,000	0,002	-0,107
-715,991	800,000	0,049	-0,117
-714,977	637,084	0,019	-0,036
-713,962	126,756	-0,078	-0,073
-712,948	164,239	-0,076	-0,079
-711,933	-200,000	0,010	0,072
-710,918	47,527	0,092	0,063
-709,904	181,752	-0,094	-0,102
-708,889	800,000	-0,015	-0,042
-707,875	88,965	-0,131	-0,107
-706,860	-200,000	0,033	-0,154
-705,845	549,627	0,061	-0,109
-704,831	-41,002	0,080	0,030
-703,816	800,000	0,048	-0,147
-702,802	205,963	-0,077	-0,088
-701,787	-200,000	0,026	-0,097
-700,772	800,000	0,040	-0,093
-699,758	38,013	0,033	0,022
-698,743	-61,495	-0,082	0,025
-697,729	-79,980	0,074	0,018
-696,714	295,968	0,091	-0,123
-695,699	9,032	-0,104	-0,058
-694,685	800,000	-0,033	-0,068
-693,670	800,000	0,030	0,076
-692,656	75,334	0,055	0,042
-691,641	-200,000	-0,031	0,132
-690,627	-200,000	0,021	0,140
-689,612	-17,862	-0,028	0,013
-688,597	52,115	-0,071	0,050
-687,583	-200,000	0,024	0,081
-686,568	-56,088	-0,127	0,041
-685,554	569,938	0,018	0,033
-684,539	91,557	-0,049	0,041
-683,524	149,631	0,049	0,048
-682,510	-138,745	-0,146	0,012
-681,495	37,596	0,109	0,071
-680,481	513,312	-0,047	-0,080
-679,466	-61,621	-0,118	0,036
-678,451	546,264	0,049	0,086
-677,437	-200,000	-0,004	-0,041
-676,422	221,521	-0,035	-0,042
-675,408	519,693	-0,023	-0,040
-674,393	-9,072	-0,040	-0,019
-673,378	106,297	-0,074	-0,065
-672,364	-16,059	-0,087	0,040
-671,349	50,343	0,016	0,011
-670,335	-83,177	-0,147	-0,035
-669,320	-150,510	-0,107	-0,006
-668,305	-200,000	0,023	0,091
-667,291	-85,600	-0,054	-0,012
-666,276	800,000	-0,090	-0,199
-665,262	68,900	-0,115	-0,087
-664,247	-17,252	-0,103	0,048
-663,232	48,874	0,025	-0,017
-662,218	-30,751	0,081	0,034
-661,203	-200,000	0,015	-0,169
-660,189	-200,000	-0,007	0,089
-659,174	70,530	-0,089	-0,067
-658,159	-54,641	-0,066	0,022
-657,145	-200,000	-0,016	-0,076
-656,130	154,406	0,127	-0,128
-655,116	-38,618	0,074	0,029
-654,101	800,000	-0,048	0,146
-653,086	800,000	-0,033	0,082
-652,072	-200,000	-0,009	-0,133
-651,057	289,798	-0,045	-0,060
-650,043	-200,000	0,032	-0,131
-649,028	113,473	0,043	-0,039
-648,014	421,868	0,014	-0,023
-646,999	0,385	-0,075	0,039
-645,984	800,000	-0,055	0,157
-644,970	221,978	0,070	0,083
-643,955	800,000	0,022	-0,047
-642,941	800,000	-0,021	0,056
-641,926	-200,000	-0,027	-0,167
-640,911	-81,669	0,064	-0,015
-639,897	53,358	0,084	0,059
-638,882	800,000	-0,062	-0,155
-637,868	-193,604	0,082	-0,001
-636,853	169,965	-0,218	-0,229
-635,838	518,093	-0,065	0,112
-634,824	-64,674	-0,072	-0,021
-633,809	-69,560	-0,106	-0,030
-632,795	325,727	-0,081	-0,114
-631,780	-200,000	0,007	0,047
-630,765	-59,055	-0,209	-0,066
-629,751	-91,073	0,045	0,009
-628,736	800,000	-0,060	-0,167
-627,722	158,309	-0,096	-0,098
-626,707	6,397	0,082	0,044
-625,692	-61,112	-0,072	0,022
-624,678	-200,000	-0,015	0,123
-623,663	153,532	-0,072	0,072
-622,649	-49,490	-0,087	0,030
-621,634	556,060	0,010	-0,018
-620,619	-50,820	-0,165	-0,057
-619,605	-94,465	-0,012	-0,002
-618,590	-125,123	0,052	0,006
-617,576	-88,056	0,050	0,011
-616,561	-73,276	-0,030	-0,008
-615,546	-1,617	0,092	-0,047
-614,532	-200,000	0,003	-0,019
-613,517	-200,000	0,016	-0,064
-612,503	-129,955	0,120	0,012
-611,488	80,654	0,055	-0,043
-610,474	-187,853	0,104	-0,001
-609,459	-72,299	-0,148	0,040
-608,444	320,192	-0,045	-0,063
-607,430	54,432	-0,150	-0,106
-606,415	-200,000	0,006	-0,060
-605,401	-200,000	0,017	0,130
-604,386	270,040	0,045	-0,058
-603,371	100,583	0,040	0,034
-602,357	61,889	0,070	-0,051
-601,342	-140,286	0,009	-0,001
-600,328	235,858	-0,064	0,078
-599,313	800,000	-0,033	-0,094
-598,298	129,547	-0,036	0,034
-597,284	138,462	0,113	0,109
-596,269	-200,000	0,012	-0,143
-595,255	800,000	-0,058	0,168
-594,240	-95,698	-0,074	-0,014
-593,225	-74,533	0,023	0,006
-592,211	61,855	-0,058	0,043
-591,196	382,288	0,031	-0,046
-590,182	677,504	-0,027	0,051
-589,167	-200,000	0,003	-0,053
-588,152	111,527	0,101	-0,089
-587,138	-61,362	0,067	0,021
-586,123	118,213	-0,053	-0,048
-585,109	275,952	-0,049	-0,064
-584,094	741,640	-0,047	-0,094
-583,079	201,682	0,106	-0,120
-582,065	-200,000	-0,004	0,064
-581,050	-95,418	-0,099	0,019
-580,036	160,282	0,060	-0,062
-579,021	92,377	-0,059	-0,048
-578,006	297,515	-0,051	-0,069
-576,992	-200,000	-0,004	-0,089
-575,977	800,000	-0,023	-0,056
-574,963	11,300	-0,043	0,024
-573,948	11,894	0,017	0,009
-572,934	800,000	-0,052	0,107
-571,919	-16,095	-0,165	-0,077
-570,904	127,712	0,085	-0,079
-569,890	-60,489	-0,117	0,036
-568,875	487,766	-0,031	0,051
-567,861	-200,000	0,019	-0,077
-566,846	-105,037	0,022	0,004
-565,831	-134,520	-0,093	-0,008
-564,817	-62,552	-0,104	0,032
-563,802	-78,790	-0,109	-0,027
-562,788	-200,000	-0,020	-0,161
-561,773	19,049	-0,072	0,042
-560,758	-66,602	0,076	0,022
-559,744	270,555	-0,093	-0,121
-558,729	800,000	0,070	0,183
-557,715	-200,000	0,006	0,141
-556,700	-159,355	-0,093	-0,004
-555,685	-200,000	0,041	-0,217
-554,671	-63,921	-0,056	-0,017
-553,656	800,000	0,047	0,133
-552,642	182,736	0,133	0,144
-551,627	294,290	0,030	-0,041
-550,612	254,193	-0,010	0,012
-549,598	800,000	-0,041	-0,098
-548,583	-5,294	-0,082	-0,041
-547,569	8,525	0,116	0,064
-546,554	-200,000	-0,004	0,169
-545,539	32,737	-0,047	0,029
-544,525	-158,471	-0,164	0,007
-543,510	-21,663	-0,044	-0,019
-542,496	800,000	-0,026	-0,075
-541,481	-2,281	-0,079	0,040
-540,466	800,000	-0,014	-0,042
-539,452	-200,000	-0,005	0,069
-538,437	207,722	-0,044	0,051
-537,423	178,470	-0,043	-0,046
-536,408	1,811	-0,078	0,041
-535,393	-200,000	0,000	-0,078
-534,379	647,548	-0,043	-0,081
-533,364	-80,733	-0,030	0,007
-532,350	-165,769	0,128	-0,004
-531,335	-14,676	0,100	0,047
-530,321	31,263	0,077	-0,048
-529,306	800,000	0,041	0,084
-528,291	-36,863	-0,062	-0,024
-527,277	-82,809	-0,076	0,018
-526,262	800,000	0,035	-0,073
-525,248	-12,010	0,043	0,021
-524,233	471,379	0,064	-0,106
-523,218	-59,247	0,145	0,045
-522,204	800,000	0,020	-0,045
-521,189	800,000	0,025	-0,065
-520,175	-200,000	0,036	-0,128
-519,160	-200,000	-0,050	0,000
-518,145	148,734	0,063	0,063
-517,131	-200,000	-0,003	0,044
-516,116	39,952	0,021	0,014
-515,102	-200,000	-0,016	-0,171
-514,087	-79,909	-0,112	-0,027
-513,072	120,322	-0,070	0,064
-512,058	800,000	0,029	-0,059
-511,043	239,789	0,101	0,123
-510,029	800,000	-0,025	-0,056
-509,014	221,507	-0,062	0,073
-507,999	166,160	-0,040	-0,042
-506,985	72,120	0,026	-0,020
-505,970	318,862	-0,029	0,041
-504,956	-35,534	0,087	0,034
-503,941	23,032	-0,039	-0,023
-502,926	-200,000	0,007	-0,139
-501,912	-56,872	0,124	0,040
-500,897	-200,000	0,022	-0,076
-499,883	-83,340	-0,093	0,022
-498,868	-200,000	0,004	0,032
-497,853	-148,775	-0,038	-0,002
-496,839	-200,000	0,010	0,065
-495,824	800,000	0,030	0,095
-494,810	-43,888	0,116	-0,042
-493,795	712,774	-0,052	0,101
-492,781	295,938	0,042	-0,056
-491,766	515,085	0,065	-0,112
-490,751	497,191	-0,039	0,066
-489,737	800,000	0,041	-0,092
-488,722	243,917	0,089	0,109
-487,708	197,616	0,096	-0,107
-486,693	-200,000	0,007	0,048
-485,678	-200,000	0,001	-0,078
-484,664	108,228	0,076	-0,066
-483,649	-99,692	-0,078	0,014
-482,635	800,000	-0,070	-0,147
-481,620	21,972	0,081	-0,048
-480,605	-183,654	0,088	-0,001
-479,591	4,375	-0,136	0,072
-478,576	45,893	-0,070	-0,047
-477,562	114,047	-0,124	-0,110
-476,547	329,784	-0,089	0,125
-475,532	494,656	-0,035	0,058
-474,518	2,808	0,058	0,031
-473,503	800,000	0,054	0,113
-472,489	214,328	-0,049	0,056
-471,474	648,418	0,031	0,059
-470,459	159,091	0,028	0,029
-469,445	-200,000	-0,017	-0,060
-468,430	800,000	-0,021	0,046
-467,416	800,000	0,004	0,010
-466,401	800,000	-0,005	-0,011
-465,386	800,000	-0,026	0,058
-464,372	-200,000	0,009	0,038
-463,357	800,000	0,029	-0,084
-462,343	51,887	-0,060	-0,042
-461,328	214,361	-0,053	-0,062
-460,313	205,086	0,086	-0,098
-459,299	142,000	0,049	0,047
-458,284	-200,000	0,034	0,126
-457,270	605,938	0,045	-0,083
-456,255	-200,000	0,001	0,100
-455,241	-107,079	-0,122	-0,020
-454,226	396,498	0,030	-0,046
-453,211	95,192	0,074	-0,062
-452,197	339,631	-0,077	0,110
-451,182	-200,000	-0,008	0,047
-450,168	800,000	0,036	0,085
-449,153	-200,000	-0,028	0,131
-448,138	0,369	-0,053	-0,028
-447,124	74,485	-0,035	0,027
-446,109	-200,000	0,005	0,028
-445,095	36,279	0,037	-0,024
-444,080	197,496	-0,056	-0,062
-443,065	-200,000	-0,001	0,069
-442,051	-33,829	-0,093	0,037
-441,036	-200,000	0,003	0,018
-440,022	-39,908	-0,132	-0,050
-439,007	-200,000	-0,004	-0,075
-437,992	-20,894	0,092	-0,041
-436,978	182,474	0,123	0,132
-435,963	800,000	-0,057	0,173
-434,949	-200,000	0,028	-0,098
-433,934	-120,011	0,025	0,003
-432,919	164,314	0,013	0,014
-431,905	259,793	-0,064	-0,081
-430,890	43,614	-0,105	-0,070
-429,876	105,828	-0,098	-0,084
-428,861	-28,248	0,090	0,038
-427,846	332,266	-0,085	-0,119
-426,832	657,277	-0,062	0,116
-425,817	514,980	0,055	0,095
-424,803	-200,000	0,001	-0,145
-423,788	137,895	-0,113	0,108
-422,773	21,171	0,112	0,066
-421,759	-19,669	-0,058	-0,026
-420,744	-200,000	0,011	0,146
-419,730	171,173	-0,005	0,005
-418,715	-200,000	0,010	-0,070
-417,701	-137,625	0,075	-0,006
-416,686	796,703	0,044	-0,089
-415,671	206,844	0,102	0,116
-414,657	800,000	0,017	0,054
-413,642	800,000	0,040	0,124
-412,628	186,352	0,027	0,030
-411,613	800,000	-0,024	0,052
-410,598	48,059	-0,157	0,107
-409,584	345,231	0,064	-0,092
-408,569	800,000	0,105	0,244
-407,555	383,577	-0,083	0,125
-406,540	-22,377	0,071	0,031
-405,525	79,347	-0,062	-0,048
-404,511	99,498	-0,027	-0,023
-403,496	-200,000	-0,030	0,104
-402,482	468,798	-0,044	0,073
-401,467	396,916	0,071	-0,108
-400,452	-11,538	0,074	-0,035
-399,438	-200,000	-0,013	-0,075
-398,423	42,688	0,034	-0,022
-397,409	36,906	-0,058	-0,037
-396,394	112,962	-0,071	-0,063
-395,379	-200,000	0,005	0,043
-394,365	777,613	0,078	0,156
-393,350	-56,247	0,053	-0,017
-392,336	-200,000	0,013	-0,109
-391,321	160,104	0,058	0,058
-390,306	-145,631	-0,043	-0,003
-389,292	800,000	0,041	-0,130
-388,277	319,908	0,057	-0,078
-387,263	160,757	0,117	0,119
-386,248	800,000	-0,026	-0,067
-385,233	426,954	-0,141	-0,223
-384,219	384,924	-0,061	-0,091
-383,204	-67,404	0,068	-0,019
-382,190	26,196	-0,087	0,053
-381,175	170,252	-0,016	0,016
-380,160	244,164	0,035	0,042
-379,146	45,951	0,015	0,010
-378,131	-106,127	0,069	-0,011
-377,117	-93,637	0,143	-0,028
-376,102	182,041	0,073	-0,078
-375,088	800,000	-0,037	-0,077
-374,073	-94,563	-0,050	-0,010
-373,058	-147,106	0,168	-0,010
-372,044	800,000	0,021	0,043
-371,029	-0,200	0,072	-0,037
-370,015	-9,530	0,074	0,036
-369,000	-200,000	-0,043	-0,158
-367,985	13,329	0,100	-0,056
-366,971	800,000	-0,066	-0,166
-365,956	121,938	0,036	0,032
-364,942	209,036	-0,059	0,067
-363,927	415,047	0,036	-0,056
-362,912	800,000	-0,056	-0,134
-361,898	608,311	-0,038	-0,069
-360,883	-113,933	-0,045	0,006
-359,869	-68,200	-0,096	-0,027
-358,854	454,949	0,068	0,110
-357,839	800,000	0,018	0,050
-356,825	-200,000	0,022	0,094
-355,810	201,350	0,038	0,043
-354,796	-200,000	0,016	-0,122
-353,781	418,723	-0,038	-0,059
-352,766	800,000	-0,013	0,037
-351,752	-21,835	0,123	0,054
-350,737	194,609	0,049	-0,054
-349,723	-23,355	-0,069	-0,030
-348,708	-200,000	0,006	0,068
-347,693	541,440	0,052	-0,090
-346,679	509,456	0,080	-0,136
-345,664	-50,070	-0,101	-0,034
-344,650	139,011	-0,022	-0,021
-343,635	-23,563	0,103	-0,045
-342,620	-29,534	-0,190	0,079
-341,606	32,473	0,076	0,048
-340,591	211,930	-0,056	-0,064
-339,577	-26,080	0,118	0,050
-338,562	156,250	-0,044	0,045
-337,548	42,086	-0,051	0,034
-336,533	269,423	0,105	-0,135
-335,518	-200,000	-0,001	-0,113
-334,504	-31,086	-0,141	0,058
-333,489	800,000	0,074	-0,152
-332,475	-38,036	0,067	-0,026
-331,460	-200,000	0,000	-0,169
-330,445	-200,000	0,011	-0,101
-329,431	800,000	-0,029	-0,078
-328,416	-200,000	-0,026	-0,094
-327,402	151,621	-0,060	0,059
-326,387	-44,564	0,069	0,025
-325,372	800,000	0,035	-0,097
-324,358	-200,000	-0,005	-0,117
-323,343	91,873	-0,113	0,092
-322,329	546,048	-0,052	-0,090
-321,314	41,510	-0,159	0,104
-320,299	707,848	0,086	-0,166
-319,285	17,574	-0,019	0,011
-318,270	800,000	0,056	0,177
-317,256	800,000	0,048	-0,103
-316,241	-162,241	0,012	-0,000
-315,226	-200,000	-0,004	0,018
-314,212	800,000	0,023	0,059
-313,197	218,022	-0,097	0,113
-312,183	476,827	0,112	0,185
-311,168	-200,000	0,003	0,018
-310,153	9,512	-0,086	0,047
-309,139	800,000	-0,048	0,149
-308,124	-200,000	0,016	0,088
-307,110	-64,671	0,182	0,053
-306,095	-33,343	-0,168	0,067
-305,080	30,568	0,089	-0,055
-304,066	-11,066	0,107	-0,051
-303,051	-103,352	-0,048	0,008
-302,037	800,000	-0,026	-0,075
-301,022	231,992	0,037	0,045
-300,008	-33,058	0,054	-0,021
-298,993	-8,670	-0,059	0,028
-297,978	66,926	0,113	0,083
-296,964	24,504	-0,087	0,052
-295,949	-30,311	-0,081	-0,033
-294,935	486,917	-0,097	-0,161
-293,920	171,525	0,065	0,068
-292,905	800,000	0,023	0,064
-291,891	132,066	-0,085	0,079
-290,876	-24,923	0,078	0,034
-289,862	-109,266	-0,082	-0,013
-288,847	-200,000	-0,036	0,161
-287,832	800,000	0,023	-0,065
-286,818	684,931	-0,017	-0,032
-285,803	-32,968	0,041	-0,017
-284,789	-132,645	-0,053	-0,005
-283,774	244,001	0,094	0,115
-282,759	-200,000	0,002	0,097
-281,745	-192,406	-0,048	-0,000
-280,730	800,000	0,032	0,098
-279,716	176,481	-0,030	0,032
-278,701	9,470	0,040	0,022
-277,686	265,370	0,048	0,061
-276,672	-200,000	0,026	-0,090
-275,657	-35,625	0,087	-0,034
-274,643	-4,480	-0,069	0,034
-273,628	1,844	-0,026	-0,013
-272,613	-200,000	0,026	-0,247
-271,599	672,754	-0,032	-0,061
-270,584	197,793	0,096	-0,106
-269,570	38,676	-0,031	0,020
-268,555	800,000	0,035	-0,097
-267,540	132,137	0,100	-0,093
-266,526	800,000	0,070	0,141
-265,511	392,690	0,056	0,085
-264,497	-200,000	-0,019	0,090
-263,482	295,904	0,137	0,182
-262,467	-200,000	0,021	0,084
-261,453	87,807	0,098	0,079
-260,438	18,033	-0,158	-0,091
-259,424	-131,532	0,019	-0,002
-258,409	-172,350	0,132	-0,003
-257,395	216,429	0,066	0,077
-256,380	-200,000	0,046	0,169
-255,365	-106,026	-0,012	0,002
-254,351	-13,300	-0,185	-0,087
-253,336	-87,965	0,029	-0,006
-252,322	-161,419	-0,114	-0,004
-251,307	800,000	0,012	-0,031
-250,292	-200,000	-0,003	-0,117
-249,278	-89,631	0,153	0,032
-248,263	330,931	0,039	0,054
-247,249	-200,000	0,018	0,157
-246,234	-85,129	-0,060	0,014
-245,219	-200,000	-0,006	-0,079
-244,205	-200,000	0,019	-0,076
-243,190	-200,000	-0,010	0,056
-242,176	49,279	0,090	-0,061
-241,161	-200,000	-0,025	0,161
-240,146	656,590	0,102	-0,191
-239,132	-48,630	-0,040	-0,014
-238,117	278,420	0,037	-0,048
-237,103	27,951	0,095	0,058
-236,088	-36,244	-0,054	-0,021
-235,073	612,282	-0,061	-0,112
-234,059	800,000	-0,029	0,068
-233,044	-200,000	0,005	0,135
-232,030	-200,000	0,014	-0,048
-231,015	16,411	0,066	-0,038
-230,000	-146,829	-0,062	0,004
-228,986	291,333	0,080	0,105
-227,971	-200,000	-0,016	0,150
-226,957	104,665	-0,090	0,076
-225,942	174,580	-0,044	0,046
-224,927	-135,961	-0,037	-0,003
-223,913	-53,549	0,014	0,005
-222,898	-135,936	-0,053	0,004
-221,884	-27,922	0,057	0,024
-220,869	117,960	-0,018	0,016
-219,855	800,000	0,061	0,133
-218,840	680,791	0,047	0,088
-217,825	-27,899	0,053	0,022
-216,811	-69,033	-0,149	-0,041
-215,796	48,551	-0,106	-0,071
-214,782	153,860	0,087	-0,086
-213,767	800,000	-0,018	-0,040
-212,752	-156,226	0,017	0,001
-211,738	-77,983	0,051	-0,012
-210,723	-39,846	0,072	-0,027
-209,709	-95,721	-0,123	-0,024
-208,694	-200,000	-0,003	-0,071
-207,679	-103,146	0,049	-0,008
-206,665	-60,376	0,143	-0,044
-205,650	-200,000	0,007	0,092
-204,636	-11,850	0,083	0,039
-203,621	422,449	-0,037	-0,058
-202,606	-71,929	-0,120	-0,032
-201,592	271,130	-0,091	0,116
-200,577	329,290	-0,054	0,075
-199,563	39,615	0,058	-0,038
-198,548	-200,000	0,012	-0,065
-197,533	556,315	0,038	0,066
-196,519	5,197	-0,090	0,048
-195,504	-140,487	0,092	0,007
-194,490	800,000	0,010	0,027
-193,475	52,572	-0,013	0,009
-192,460	800,000	-0,043	0,108
-191,446	3,740	0,189	0,099
-190,431	-58,402	0,095	0,030
-189,417	-115,875	-0,115	-0,015
-188,402	-200,000	-0,027	-0,088
-187,387	-102,067	-0,057	-0,010
-186,373	-113,199	-0,044	-0,006
-185,358	-160,069	-0,024	-0,001
-184,344	-200,000	0,018	0,060
-183,329	-92,648	0,089	-0,018
-182,315	-18,521	0,118	-0,053
-181,300	-101,590	0,096	-0,017
-180,285	-200,000	0,008	-0,081
-179,271	800,000	-0,046	-0,094
-178,256	211,801	-0,061	-0,069
-177,242	271,808	-0,048	-0,061
-176,227	303,739	0,080	0,107
-175,212	176,497	-0,045	-0,047
-174,198	171,238	0,090	0,093
-173,183	71,898	-0,163	-0,122
-172,169	-80,625	-0,057	0,014
-171,154	-152,978	0,017	-0,001
-170,139	233,357	0,034	0,041
-169,125	-200,000	0,017	0,106
-168,110	203,414	-0,103	0,115
-167,096	341,658	-0,054	-0,077
-166,081	-62,595	-0,074	-0,022
-165,066	96,649	0,096	0,080
-164,052	-100,879	0,052	-0,009
-163,037	800,000	0,020	0,060
-162,023	-106,130	-0,101	0,016
-161,008	-111,006	0,091	0,013
-159,993	-44,923	0,122	0,044
-158,979	-200,000	-0,005	-0,045
-157,964	78,733	0,074	-0,057
-156,950	140,810	-0,117	0,112
-155,935	292,299	0,024	0,031
-154,920	-200,000	0,034	0,142
-153,906	278,417	0,105	0,135
-152,891	-70,901	0,146	0,039
-151,877	-87,230	-0,072	0,016
-150,862	-51,872	0,055	0,019
-149,847	-116,397	0,133	0,018
-148,833	-99,977	-0,058	0,010
-147,818	-200,000	0,019	0,123
-146,804	800,000	-0,049	0,120
-145,789	107,212	0,120	0,103
-144,775	537,845	-0,095	0,163
-143,760	85,780	0,056	0,044
-142,745	-200,000	-0,020	0,076
-141,731	-200,000	0,022	-0,108
-140,716	-114,521	0,145	-0,020
-139,702	168,175	0,045	0,046
-138,687	-43,608	-0,216	-0,078
-137,672	-114,166	-0,155	0,021
-136,658	101,997	-0,148	-0,125
-135,643	800,000	0,049	-0,146
-134,629	-200,000	0,007	-0,061
-133,614	674,723	0,044	0,083
-132,599	100,566	0,089	0,074
-131,585	643,651	-0,024	0,044
-130,570	-78,587	-0,149	-0,036
-129,556	97,351	0,072	0,059
-128,541	-37,215	-0,060	-0,023
-127,526	800,000	-0,018	0,037
-126,512	739,984	-0,058	-0,112
-125,497	800,000	-0,017	-0,052
-124,483	800,000	-0,002	-0,005
-123,468	-131,960	-0,032	0,003
-122,453	520,989	0,052	-0,088
-121,439	296,206	0,013	0,018
-120,424	-9,702	-0,056	-0,027
-119,410	31,628	-0,079	-0,049
-118,395	-31,012	0,053	0,022
