DTS Sentinel unit serial number:	SN410029Multiplexer serial number:	ORYXHardware model number:	OX2-SRSoftware version number:	ORYX F/W v4,00 Oryx Data Collector v3.7.2.0data status	okinstallation	B5 Nyhavnadifferential loss correction	single-endedforward channel	channel 2reverse channel	N/Adate	2023/12/14time	05:07:13forward acquisition time	300,00reverse acquisition time	0,00gamma	499,1914k internal	0,3156k external	0,3156temperature offset calibration	1,0000default loss term (dB/km)	0,3820temperature slope calibration	1,0000multiplexer offset coefficient	1,0000multiplexer slope coefficient	1,0000fibre end	0,00T internal ref (°C)	7,82T ext. ref 1 (°C)	-8,74T ext. ref 2 (°C)	-8,84length (m)	temperature (°C)	Stokes	anti-Stokes-744,400	123,042	0,074	0,068
-743,385	-142,762	-0,273	-0,019
-742,371	-175,760	0,309	0,006
-741,356	-65,988	-0,395	-0,115
-740,342	-11,129	0,173	0,084
-739,327	-116,448	-0,515	-0,069
-738,312	-126,023	0,164	0,018
-737,298	-105,553	-0,581	-0,096
-736,283	84,402	0,019	-0,015
-735,269	-149,983	-0,309	0,017
-734,254	-112,410	0,219	0,032
-733,239	-69,916	-0,600	-0,168
-732,225	-77,483	0,253	0,064
-731,210	-94,971	-0,189	0,037
-730,196	800,000	-0,028	-0,058
-729,181	-200,000	-0,011	0,201
-728,167	800,000	-0,049	0,153
-727,152	328,508	0,031	-0,044
-726,137	800,000	-0,022	0,055
-725,123	-200,000	-0,002	-0,069
-724,108	276,587	-0,095	-0,125
-723,094	60,216	-0,056	-0,041
-722,079	-67,603	-0,165	-0,047
-721,064	-200,000	0,029	0,099
-720,050	800,000	-0,042	0,112
-719,035	-10,076	-0,164	-0,080
-718,021	-200,000	0,040	-0,166
-717,006	388,905	-0,015	-0,022
-715,991	27,172	-0,146	-0,090
-714,977	-200,000	0,026	-0,157
-713,962	580,204	0,109	-0,198
-712,948	177,594	0,087	-0,093
-711,933	-75,213	-0,116	0,030
-710,918	-200,000	0,004	0,039
-709,904	228,487	-0,065	-0,078
-708,889	800,000	-0,014	-0,031
-707,875	-44,724	-0,076	-0,028
-706,860	-106,582	0,060	-0,010
-705,845	800,000	0,039	-0,082
-704,831	502,300	0,021	-0,036
-703,816	108,546	-0,164	0,144
-702,802	-200,000	-0,025	-0,135
-701,787	-80,892	-0,113	-0,027
-700,772	33,980	-0,067	-0,043
-699,758	24,935	-0,058	0,035
-698,743	-76,261	-0,068	0,018
-697,729	39,808	0,034	0,023
-696,714	-200,000	-0,007	-0,146
-695,699	38,797	-0,035	-0,023
-694,685	111,596	-0,093	-0,082
-693,670	8,808	-0,050	-0,028
-692,656	133,378	-0,076	0,072
-691,641	-100,646	0,129	0,023
-690,627	-76,609	0,021	-0,005
-689,612	-53,184	-0,064	0,022
-688,597	57,063	-0,070	0,050
-687,583	-200,000	0,006	-0,073
-686,568	-200,000	0,007	0,056
-685,554	-200,000	0,019	0,076
-684,539	99,820	-0,020	-0,017
-683,524	56,034	-0,057	-0,041
-682,510	-126,806	0,059	-0,006
-681,495	-200,000	0,020	-0,112
-680,481	-200,000	-0,010	-0,152
-679,466	800,000	-0,055	-0,139
-678,451	-73,251	-0,087	0,023
-677,437	-104,208	-0,044	-0,007
-676,422	341,673	0,090	0,130
-675,408	-200,000	-0,021	0,076
-674,393	501,939	0,010	-0,016
-673,378	139,601	0,069	-0,067
-672,364	18,958	-0,082	-0,048
-671,349	25,290	-0,121	0,074
-670,335	-118,854	0,174	-0,022
-669,320	-159,789	0,159	-0,006
-668,305	463,369	-0,061	0,100
-667,291	125,899	0,073	-0,068
-666,276	800,000	-0,024	0,072
-665,262	2,620	-0,076	-0,040
-664,247	423,208	-0,086	-0,137
-663,232	-167,934	0,074	0,002
-662,218	673,797	0,031	-0,060
-661,203	-118,184	-0,097	0,013
-660,189	-68,761	0,086	-0,024
-659,174	-200,000	0,008	0,046
-658,159	-168,382	0,074	0,002
-657,145	-137,053	-0,036	0,003
-656,130	-200,000	-0,004	0,093
-655,116	-122,865	-0,145	-0,017
-654,101	218,118	0,038	-0,045
-653,086	466,741	-0,015	-0,025
-652,072	-4,235	-0,047	-0,024
-651,057	429,334	0,075	-0,119
-650,043	-8,012	0,070	0,034
-649,028	800,000	-0,001	0,003
-648,014	-22,781	0,121	-0,053
-646,999	63,030	-0,068	0,050
-645,984	-146,882	-0,029	-0,002
-644,970	-71,822	-0,078	0,021
-643,955	800,000	-0,062	-0,189
-642,941	53,591	-0,089	-0,062
-641,926	436,727	0,024	0,038
-640,911	0,933	-0,115	-0,060
-639,897	-1,824	0,035	0,018
-638,882	-200,000	-0,009	-0,045
-637,868	-98,432	-0,016	-0,003
-636,853	-200,000	0,003	0,053
-635,838	323,954	-0,042	-0,058
-634,824	584,816	0,058	-0,105
-633,809	-200,000	0,018	-0,081
-632,795	-51,711	-0,095	-0,032
-631,780	56,599	0,130	0,093
-630,765	-69,571	0,150	0,042
-629,751	800,000	0,031	-0,090
-628,736	498,043	-0,069	-0,117
-627,722	-200,000	-0,011	0,140
-626,707	110,170	0,046	0,040
-625,692	-200,000	-0,022	0,082
-624,678	-60,206	0,078	0,024
-623,663	-34,379	-0,073	-0,029
-622,649	175,493	0,141	-0,150
-621,634	-156,763	-0,117	0,005
-620,619	-200,000	0,032	-0,126
-619,605	800,000	0,032	0,076
-618,590	639,725	0,102	-0,191
-617,576	-200,000	-0,009	-0,079
-616,561	-200,000	0,006	0,035
-615,546	-200,000	-0,007	-0,038
-614,532	-41,292	0,130	-0,049
-613,517	-58,740	0,035	-0,011
-612,503	92,899	-0,085	-0,070
-611,488	288,639	0,051	0,068
-610,474	-200,000	0,020	-0,097
-609,459	-196,379	0,045	0,000
-608,444	-90,734	-0,141	0,030
-607,430	103,463	-0,105	-0,091
-606,415	-1,128	-0,100	0,051
-605,401	-200,000	-0,004	-0,042
-604,386	-95,982	0,095	0,018
-603,371	-180,326	-0,101	0,002
-602,357	258,042	0,063	0,080
-601,342	323,174	-0,027	-0,038
-600,328	208,533	-0,086	-0,098
-599,313	-200,000	0,015	-0,075
-598,298	-35,626	0,089	0,035
-597,284	272,914	0,077	-0,100
-596,269	115,461	-0,095	-0,085
-595,255	800,000	-0,017	0,052
-594,240	175,363	-0,046	-0,049
-593,225	71,380	0,028	-0,021
-592,211	159,353	-0,136	-0,138
-591,196	185,398	0,082	-0,089
-590,182	-200,000	0,040	0,156
-589,167	602,435	-0,041	0,074
-588,152	-164,199	0,038	-0,001
-587,138	-24,494	-0,069	0,030
-586,123	410,669	0,031	-0,049
-585,109	238,304	-0,017	-0,021
-584,094	-200,000	0,025	-0,108
-583,079	50,018	-0,117	0,080
-582,065	-142,662	0,097	-0,007
-581,050	800,000	0,050	-0,137
-580,036	-200,000	0,010	-0,152
-579,021	-4,584	-0,150	-0,076
-578,006	41,897	-0,092	-0,061
-576,992	405,586	-0,038	0,058
-575,977	-200,000	0,024	0,100
-574,963	-87,632	0,142	0,031
-573,948	-94,766	0,062	0,012
-572,934	583,228	0,047	0,086
-571,919	441,831	-0,021	-0,033
-570,904	-153,691	-0,085	-0,004
-569,890	-75,923	-0,048	0,012
-568,875	-200,000	0,002	0,079
-567,861	-12,029	-0,053	-0,025
-566,846	12,040	-0,084	0,047
-565,831	800,000	0,066	0,190
-564,817	-139,801	-0,202	-0,015
-563,802	-200,000	-0,014	-0,178
-562,788	117,222	-0,066	0,059
-561,773	-200,000	0,031	0,145
-560,758	595,883	0,030	0,054
-559,744	800,000	-0,046	0,112
-558,729	248,069	0,019	-0,024
-557,715	-54,665	-0,020	0,007
-556,700	-139,432	-0,124	-0,010
-555,685	-3,318	-0,021	0,011
-554,671	-200,000	-0,001	0,117
-553,656	-200,000	0,016	0,127
-552,642	138,582	-0,050	0,048
-551,627	-141,086	0,033	0,002
-550,612	584,155	0,043	-0,077
-549,598	-200,000	0,017	-0,062
-548,583	165,641	-0,072	-0,075
-547,569	-57,504	-0,083	-0,027
-546,554	4,736	-0,072	-0,039
-545,539	-200,000	0,002	0,049
-544,525	-200,000	0,004	0,124
-543,510	97,160	-0,120	0,100
-542,496	139,923	0,056	-0,054
-541,481	60,822	-0,134	-0,097
-540,466	-48,594	0,100	-0,035
-539,452	-53,854	0,078	-0,026
-538,437	-15,657	0,066	0,031
-537,423	-200,000	0,005	0,061
-536,408	9,217	-0,062	-0,034
-535,393	665,350	-0,010	0,019
-534,379	-116,180	-0,070	0,009
-533,364	365,236	-0,144	-0,213
-532,350	-32,229	-0,119	-0,048
-531,335	305,834	0,054	0,073
-530,321	-200,000	0,055	0,200
-529,306	511,480	-0,037	-0,064
-528,291	696,369	0,013	-0,024
-527,277	779,347	0,016	0,033
-526,262	800,000	0,047	0,107
-525,248	-200,000	0,018	-0,081
-524,233	52,851	-0,038	0,026
-523,218	800,000	0,032	-0,068
-522,204	-200,000	0,022	-0,095
-521,189	4,894	-0,084	0,045
-520,175	-75,849	0,132	-0,034
-519,160	800,000	-0,033	0,090
-518,145	-77,816	0,035	-0,009
-517,131	-59,068	0,105	-0,033
-516,116	276,689	-0,090	0,117
-515,102	2,208	0,091	-0,048
-514,087	-16,308	-0,117	-0,054
-513,072	-21,966	-0,094	0,042
-512,058	-100,651	-0,137	-0,024
-511,043	32,465	-0,075	0,047
-510,029	-15,935	0,165	0,077
-509,014	356,527	-0,045	0,065
-507,999	800,000	-0,027	-0,057
-506,985	204,685	-0,229	-0,260
-505,970	133,282	0,080	-0,076
-504,956	11,566	0,182	-0,101
-503,941	-200,000	0,003	-0,013
-502,926	120,436	-0,022	-0,020
-501,912	149,665	0,047	0,047
-500,897	480,432	-0,057	0,095
-499,883	301,898	-0,090	0,122
-498,868	-3,308	0,145	0,073
-497,853	608,791	0,037	0,068
-496,839	-200,000	-0,018	0,100
-495,824	-56,342	0,071	-0,023
-494,810	59,911	0,086	0,062
-493,795	800,000	-0,048	0,099
-492,781	182,212	-0,086	0,093
-491,766	800,000	0,045	-0,123
-490,751	52,658	-0,082	0,057
-489,737	266,517	0,013	0,016
-488,722	-22,637	-0,021	0,009
-487,708	4,368	0,116	0,062
-486,693	187,716	0,082	-0,089
-485,678	800,000	-0,025	-0,054
-484,664	-200,000	0,023	-0,158
-483,649	-200,000	0,005	0,033
-482,635	53,611	-0,079	0,055
-481,620	800,000	-0,026	0,068
-480,605	-200,000	-0,020	0,080
-479,591	301,827	0,027	-0,036
-478,576	-200,000	0,006	0,042
-477,562	-200,000	0,003	0,053
-476,547	-6,618	-0,156	0,077
-475,532	-57,917	0,048	0,015
-474,518	-106,270	-0,034	0,006
-473,503	800,000	0,044	0,133
-472,489	-200,000	-0,005	0,135
-471,474	-200,000	-0,014	0,138
-470,459	-132,926	-0,220	-0,020
-469,445	800,000	0,016	-0,040
-468,430	-82,634	-0,030	-0,007
-467,416	222,400	0,078	0,091
-466,401	800,000	0,047	-0,114
-465,386	10,131	0,055	-0,030
-464,372	-200,000	-0,021	0,174
-463,357	800,000	-0,115	0,327
-462,343	-200,000	-0,009	-0,062
-461,328	-119,665	0,105	-0,013
-460,313	800,000	-0,017	0,053
-459,299	-101,151	-0,060	-0,011
-458,284	800,000	-0,031	0,077
-457,270	800,000	0,015	0,047
-456,255	-59,775	0,110	0,034
-455,241	45,824	-0,034	-0,023
-454,226	17,489	0,180	-0,104
-453,211	53,240	0,115	0,080
-452,197	-60,564	0,089	0,027
-451,182	-79,824	0,140	0,034
-450,168	-200,000	0,025	0,176
-449,153	82,495	0,092	0,073
-448,138	733,502	-0,037	0,073
-447,124	159,712	-0,116	-0,118
-446,109	116,110	0,054	-0,048
-445,095	800,000	0,046	0,141
-444,080	-200,000	-0,010	0,060
-443,065	57,309	-0,031	-0,022
-442,051	24,557	0,056	0,034
-441,036	-32,485	0,044	0,018
-440,022	63,871	-0,004	0,003
-439,007	-200,000	0,006	-0,063
-437,992	227,941	0,097	0,116
-436,978	-114,006	0,075	-0,010
-435,963	800,000	-0,028	0,076
-434,949	320,560	-0,027	-0,038
-433,934	69,640	-0,076	0,057
-432,919	-33,596	0,103	0,041
-431,905	800,000	0,013	0,027
-430,890	-23,548	0,079	0,034
-429,876	554,835	-0,031	0,054
-428,861	7,627	0,068	-0,037
-427,846	-96,454	-0,039	0,007
-426,832	5,357	-0,047	-0,025
-425,817	268,496	-0,046	0,059
-424,803	-165,104	0,027	-0,001
-423,788	-4,002	0,087	0,044
-422,773	-98,124	0,069	0,013
-421,759	-131,959	0,097	0,009
-420,744	54,658	-0,086	-0,061
-419,730	-136,402	-0,080	-0,007
-418,715	72,403	-0,076	0,058
-417,701	159,608	0,098	-0,099
-416,686	-200,000	0,015	0,095
-415,671	-200,000	0,000	0,042
-414,657	800,000	-0,012	0,029
-413,642	157,172	0,055	0,055
-412,628	-200,000	-0,003	-0,194
-411,613	111,703	0,108	0,095
-410,598	58,103	-0,125	-0,089
-409,584	141,300	-0,018	-0,017
-408,569	-102,379	0,170	0,029
-407,555	800,000	-0,078	0,160
-406,540	160,439	0,118	0,120
-405,525	-200,000	-0,010	-0,097
-404,511	219,044	-0,133	-0,155
-403,496	-22,004	-0,092	-0,040
-402,482	-200,000	0,010	0,053
-401,467	-100,384	0,084	0,015
-400,452	588,905	-0,063	0,114
-399,438	114,943	-0,124	-0,110
-398,423	182,827	0,093	-0,100
-397,409	800,000	0,046	-0,130
-396,394	683,775	-0,063	-0,121
-395,379	-200,000	-0,016	-0,054
-394,365	-68,741	-0,090	-0,025
-393,350	664,971	0,019	-0,037
-392,336	139,455	-0,049	-0,047
-391,321	-73,461	-0,158	-0,042
-390,306	-200,000	-0,011	-0,092
-389,292	0,794	-0,097	-0,051
-388,277	273,809	0,116	0,150
-387,263	300,577	0,058	0,078
-386,248	221,130	0,167	-0,195
-385,233	800,000	-0,040	0,096
-384,219	800,000	-0,005	-0,015
-383,204	-5,519	0,084	-0,042
-382,190	-200,000	0,016	0,062
-381,175	56,528	0,057	0,041
-380,160	432,537	-0,037	-0,059
-379,146	-33,331	0,093	0,037
-378,131	580,816	0,076	0,137
-377,117	20,609	0,083	0,049
-376,102	-25,466	-0,034	-0,015
-375,088	-200,000	-0,013	0,054
-374,073	10,303	-0,068	0,038
-373,058	-2,711	0,130	0,066
-372,044	-34,578	0,132	-0,052
-371,029	90,186	0,062	-0,050
-370,015	-91,667	-0,168	0,034
-369,000	-115,465	-0,099	-0,013
-367,985	15,718	-0,072	-0,041
-366,971	-200,000	0,020	-0,090
-365,956	59,717	-0,076	-0,054
-364,942	461,208	-0,031	0,051
-363,927	107,018	0,084	0,073
-362,912	-33,928	0,115	-0,046
-361,898	103,076	-0,081	0,069
-360,883	-156,931	0,063	0,003
-359,869	-121,399	-0,079	-0,010
-358,854	349,312	-0,044	0,063
-357,839	66,540	-0,062	-0,046
-356,825	-84,899	0,112	0,025
-355,810	-100,544	0,141	-0,025
-354,796	420,568	0,051	-0,080
-353,781	-63,961	-0,141	0,041
-352,766	253,301	0,043	0,053
-351,752	-16,248	-0,056	0,026
-350,737	-200,000	0,018	0,092
-349,723	-20,290	0,140	-0,063
-348,708	-39,843	-0,136	-0,051
-347,693	0,609	0,073	0,038
-346,679	-81,459	0,128	0,030
-345,664	-104,946	-0,029	-0,005
-344,650	800,000	0,021	0,048
-343,635	-200,000	0,000	-0,019
-342,620	-200,000	-0,001	0,052
-341,606	122,869	-0,031	0,028
-340,591	-153,092	0,070	-0,004
-339,577	296,787	0,033	0,044
-338,562	-200,000	0,009	-0,112
-337,548	-200,000	0,008	-0,149
-336,533	-34,397	-0,094	-0,037
-335,518	-99,893	0,010	0,002
-334,504	-200,000	-0,041	0,156
-333,489	-11,416	-0,105	0,050
-332,475	428,809	-0,023	-0,036
-331,460	-200,000	-0,002	-0,022
-330,445	800,000	-0,024	-0,050
-329,431	-8,457	0,043	0,021
-328,416	800,000	-0,034	0,091
-327,402	75,953	0,082	0,063
-326,387	166,697	0,076	0,078
-325,372	-200,000	0,031	-0,104
-324,358	800,000	-0,041	-0,117
-323,343	194,908	0,094	0,103
-322,329	10,753	0,136	0,075
-321,314	10,335	-0,131	0,072
-320,299	-16,883	-0,082	0,037
-319,285	-59,413	-0,046	-0,014
-318,270	263,329	0,035	-0,045
-317,256	78,373	0,058	-0,045
-316,241	202,956	-0,046	-0,052
-315,226	-200,000	0,024	0,102
-314,212	-4,146	0,062	-0,031
-313,197	-200,000	-0,002	-0,126
-312,183	-84,871	0,021	0,005
-311,168	-66,896	-0,082	0,023
-310,153	-124,367	0,057	-0,006
-309,139	800,000	-0,034	0,078
-308,124	-18,061	0,144	0,065
-307,110	-200,000	0,007	-0,066
-306,095	527,027	0,065	0,111
-305,080	124,047	-0,086	0,078
-304,066	309,260	-0,084	-0,114
-303,051	126,805	0,129	-0,119
-302,037	246,944	-0,039	-0,048
-301,022	11,075	0,065	-0,036
-300,008	614,197	-0,006	-0,011
-298,993	-4,973	0,111	-0,055
-297,978	8,910	0,045	-0,025
-296,964	162,679	-0,067	0,068
-295,949	-114,255	-0,151	0,021
-294,935	-200,000	-0,010	-0,108
-293,920	800,000	-0,012	-0,025
-292,905	-200,000	-0,015	-0,127
-291,891	-118,060	-0,061	0,008
-290,876	800,000	0,028	0,083
-289,862	-95,684	0,156	-0,030
-288,847	12,438	-0,075	-0,042
-287,832	-35,845	0,069	0,027
-286,818	-200,000	-0,012	-0,132
-285,803	-35,094	0,058	0,023
-284,789	169,778	-0,030	-0,031
-283,774	237,083	0,010	0,012
-282,759	-68,972	-0,070	0,019
-281,745	-121,141	-0,075	-0,009
-280,730	199,344	-0,062	-0,069
-279,716	497,257	-0,053	-0,089
-278,701	-190,825	-0,073	0,001
-277,686	595,919	0,033	0,060
-276,672	-200,000	-0,015	-0,061
-275,657	-50,963	-0,062	-0,021
-274,643	30,140	-0,062	-0,038
-273,628	409,844	0,050	0,077
-272,613	262,366	-0,070	0,088
-271,599	-92,510	0,126	-0,025
-270,584	-51,230	0,113	0,038
-269,570	-200,000	0,001	0,124
-268,555	-200,000	-0,022	0,117
-267,540	-54,053	0,088	0,029
-266,526	233,235	0,046	-0,055
-265,511	-200,000	0,003	0,019
-264,497	-200,000	0,034	-0,199
-263,482	-175,005	0,062	0,001
-262,467	-99,700	0,038	0,007
-261,453	-200,000	0,005	0,041
-260,438	-99,596	0,107	-0,019
-259,424	0,799	-0,106	-0,055
-258,409	253,444	-0,059	0,072
-257,395	800,000	0,020	0,049
-256,380	-200,000	-0,014	-0,061
-255,365	-200,000	0,006	-0,038
-254,351	-61,832	0,076	0,023
-253,336	800,000	-0,016	0,039
-252,322	-86,689	-0,069	-0,015
-251,307	-141,055	0,085	-0,006
-250,292	-154,537	0,075	0,004
-249,278	239,118	0,092	-0,111
-248,263	-23,891	0,084	0,036
-247,249	49,703	-0,050	0,034
-246,234	-65,875	-0,164	-0,047
-245,219	385,613	0,090	-0,135
-244,205	-200,000	-0,013	-0,081
-243,190	-119,716	-0,062	0,008
-242,176	800,000	0,050	-0,107
-241,161	800,000	-0,064	0,141
-240,146	-141,566	0,069	0,005
-239,132	186,448	-0,052	-0,056
-238,117	323,789	0,055	-0,076
-237,103	800,000	0,021	-0,053
-236,088	-135,157	0,072	0,006
-235,073	133,257	-0,055	0,051
-234,059	800,000	0,027	0,062
-233,044	-200,000	0,032	0,122
-232,030	-200,000	0,002	0,123
-231,015	81,441	-0,159	0,124
-230,000	57,189	-0,095	-0,067
-228,986	137,244	0,067	-0,064
-227,971	800,000	-0,036	-0,102
-226,957	-55,196	0,110	0,035
-225,942	-0,864	0,110	-0,056
-224,927	-111,275	-0,113	-0,016
-223,913	46,820	-0,059	0,040
-222,898	-200,000	-0,010	-0,120
-221,884	-200,000	0,011	-0,066
-220,869	-49,898	-0,081	-0,028
-219,855	-200,000	-0,030	0,256
-218,840	40,072	-0,027	0,018
-217,825	800,000	-0,061	-0,138
-216,811	-200,000	-0,040	0,156
-215,796	-200,000	0,014	0,094
-214,782	103,195	0,125	-0,105
-213,767	-200,000	-0,013	-0,085
-212,752	46,669	-0,021	-0,014
-211,738	800,000	0,041	0,127
-210,723	800,000	-0,038	-0,101
-209,709	-150,547	-0,070	0,004
-208,694	507,697	0,026	0,044
-207,679	-200,000	0,010	0,083
-206,665	800,000	0,033	0,072
-205,650	-200,000	0,007	-0,196
-204,636	-129,646	-0,077	0,008
-203,621	-200,000	0,012	0,042
-202,606	-34,743	0,057	0,023
-201,592	-0,161	-0,009	0,005
-200,577	800,000	-0,039	-0,078
-199,563	144,073	-0,083	0,080
-198,548	-11,181	0,134	-0,064
-197,533	4,492	-0,102	0,054
-196,519	728,950	0,047	-0,091
-195,504	210,966	-0,035	0,040
-194,490	383,571	-0,160	-0,238
-193,475	-200,000	-0,019	-0,087
-192,460	-74,000	-0,087	0,023
-191,446	800,000	0,015	0,038
-190,431	178,060	0,066	0,069
-189,417	-42,989	0,027	0,010
-188,402	-173,350	-0,064	-0,001
-187,387	430,017	0,027	-0,043
-186,373	175,679	-0,113	-0,119
-185,358	-200,000	0,018	-0,140
-184,344	349,134	0,055	-0,079
-183,329	254,001	-0,049	0,060
-182,315	800,000	-0,026	0,062
-181,300	-200,000	0,005	0,039
-180,285	-122,753	-0,052	0,006
-179,271	-200,000	0,009	0,051
-178,256	308,842	-0,022	-0,030
-177,242	404,378	0,021	-0,032
-176,227	800,000	0,020	0,051
-175,212	-83,460	-0,066	0,015
-174,198	800,000	-0,054	0,123
-173,183	462,840	0,055	-0,088
-172,169	-135,158	-0,103	-0,009
-171,154	129,573	0,114	-0,105
-170,139	-34,063	-0,037	-0,014
-169,125	-90,811	0,060	0,012
-168,110	87,099	0,079	-0,063
-167,096	-137,318	-0,157	0,013
-166,081	163,557	0,073	-0,074
-165,066	-200,000	-0,007	-0,021
-164,052	800,000	-0,032	-0,077
-163,037	5,573	0,015	-0,008
-162,023	800,000	-0,021	0,052
-161,008	-21,162	0,050	0,022
-159,993	741,097	0,035	-0,067
-158,979	-148,499	0,082	-0,005
-157,964	43,971	-0,106	-0,070
-156,950	800,000	0,024	-0,060
-155,935	800,000	-0,030	-0,067
-154,920	800,000	0,056	0,171
-153,906	114,113	0,197	0,172
-152,891	6,597	-0,076	-0,040
-151,877	-200,000	-0,018	-0,106
-150,862	40,949	0,059	0,038
-149,847	-128,091	-0,112	-0,011
-148,833	-33,563	0,040	-0,016
-147,818	-200,000	-0,009	-0,039
-146,804	20,195	0,048	-0,028
-145,789	-103,568	-0,043	-0,007
-144,775	316,572	0,099	-0,135
-143,760	-200,000	0,025	-0,137
-142,745	-200,000	0,014	-0,200
-141,731	-200,000	-0,000	0,045
-140,716	466,863	0,024	-0,038
-139,702	-89,539	-0,158	0,033
-138,687	3,013	0,049	0,026
-137,672	-200,000	0,002	-0,018
-136,658	-200,000	0,041	0,234
-135,643	-110,800	-0,077	0,011
-134,629	145,523	0,075	-0,072
-133,614	-87,596	0,057	0,012
-132,599	-181,707	0,048	0,001
-131,585	-69,168	0,048	0,013
-130,570	-149,930	-0,055	-0,003
-129,556	-200,000	-0,024	-0,098
-128,541	127,118	-0,055	0,050
-127,526	101,310	-0,063	-0,053
-126,512	239,579	0,068	-0,081
-125,497	-106,485	-0,099	0,016
-124,483	-200,000	0,002	-0,094
-123,468	-98,100	-0,098	0,018
-122,453	-18,667	-0,124	-0,056
-121,439	24,023	-0,031	0,018
-120,424	-56,539	0,025	-0,008
-119,410	169,055	-0,093	0,095
