DTS Sentinel unit serial number:	SN410029Multiplexer serial number:	ORYXHardware model number:	OX2-SRSoftware version number:	ORYX F/W v4,00 Oryx Data Collector v3.7.2.0data status	okinstallation	B5 Nyhavnadifferential loss correction	single-endedforward channel	channel 2reverse channel	N/Adate	2023/12/14time	18:02:13forward acquisition time	300,00reverse acquisition time	0,00gamma	499,1914k internal	0,3157k external	0,3157temperature offset calibration	1,0000default loss term (dB/km)	0,3820temperature slope calibration	1,0000multiplexer offset coefficient	1,0000multiplexer slope coefficient	1,0000fibre end	0,00T internal ref (°C)	8,37T ext. ref 1 (°C)	-7,01T ext. ref 2 (°C)	-7,06length (m)	temperature (°C)	Stokes	anti-Stokes-744,400	-43,583	0,208	0,077
-743,385	-103,813	-0,222	-0,038
-742,371	163,995	0,147	0,152
-741,356	-79,651	-0,429	-0,106
-740,342	-109,067	0,147	-0,023
-739,327	-91,792	-0,378	-0,078
-738,312	95,826	0,102	0,086
-737,298	-17,026	-0,438	-0,203
-736,283	-116,494	0,276	0,037
-735,269	-145,695	-0,347	-0,023
-734,254	46,466	0,116	0,079
-733,239	-126,565	-0,522	-0,056
-732,225	-179,598	0,248	-0,004
-731,210	590,641	-0,088	0,160
-730,196	-200,000	0,008	-0,118
-729,181	63,989	-0,039	0,029
-728,167	-4,435	-0,030	0,015
-727,152	85,408	-0,137	0,110
-726,137	-200,000	0,019	-0,240
-725,123	-138,386	-0,065	0,005
-724,108	704,959	-0,095	-0,186
-723,094	800,000	-0,024	-0,052
-722,079	436,992	-0,032	0,052
-721,064	-139,291	0,089	-0,007
-720,050	10,654	0,170	0,095
-719,035	-200,000	0,013	0,048
-718,021	-35,074	-0,079	0,032
-717,006	-60,058	-0,254	0,079
-715,991	-200,000	-0,043	-0,153
-714,977	-114,099	0,052	0,007
-713,962	-200,000	-0,022	-0,127
-712,948	-95,699	-0,062	-0,012
-711,933	-200,000	-0,039	0,153
-710,918	87,706	-0,068	0,055
-709,904	-14,856	-0,090	-0,042
-708,889	191,166	0,129	0,143
-707,875	46,713	-0,177	-0,121
-706,860	252,812	-0,095	0,120
-705,845	-49,724	0,043	-0,015
-704,831	-110,430	-0,081	0,012
-703,816	-114,643	-0,074	-0,010
-702,802	-200,000	0,013	0,069
-701,787	-200,000	-0,030	-0,107
-700,772	-200,000	-0,003	-0,209
-699,758	-52,168	-0,065	0,022
-698,743	-200,000	-0,000	0,026
-697,729	-75,297	-0,111	0,029
-696,714	403,789	0,089	0,139
-695,699	800,000	0,066	-0,142
-694,685	-200,000	-0,005	-0,124
-693,670	123,736	-0,100	-0,093
-692,656	-200,000	0,020	0,099
-691,641	-6,716	-0,035	0,018
-690,627	-200,000	-0,009	0,102
-689,612	418,497	0,051	0,081
-688,597	-126,029	0,096	0,011
-687,583	223,108	-0,042	0,049
-686,568	800,000	-0,045	-0,139
-685,554	27,495	-0,100	-0,062
-684,539	-200,000	0,002	-0,073
-683,524	15,123	-0,095	-0,054
-682,510	-3,736	-0,097	-0,049
-681,495	607,821	-0,014	0,026
-680,481	233,748	-0,096	-0,116
-679,466	226,219	-0,120	0,143
-678,451	-200,000	0,005	0,068
-677,437	-196,396	0,134	-0,001
-676,422	-200,000	-0,007	-0,060
-675,408	-152,953	0,182	-0,009
-674,393	-200,000	-0,027	-0,113
-673,378	143,817	-0,054	-0,053
-672,364	281,534	-0,037	-0,049
-671,349	-111,065	0,102	0,015
-670,335	-50,012	0,099	-0,034
-669,320	-176,440	-0,081	-0,002
-668,305	-200,000	-0,008	0,064
-667,291	260,204	-0,149	-0,190
-666,276	-10,880	0,063	0,031
-665,262	-200,000	-0,007	-0,053
-664,247	318,509	0,017	0,023
-663,232	113,720	0,024	-0,021
-662,218	-121,019	0,102	0,012
-661,203	-200,000	0,003	-0,032
-660,189	745,676	-0,075	-0,149
-659,174	50,025	0,021	0,014
-658,159	83,724	0,039	0,031
-657,145	51,965	-0,063	0,044
-656,130	-114,221	0,093	-0,013
-655,116	-21,142	0,050	-0,022
-654,101	141,160	0,100	0,097
-653,086	-200,000	0,007	0,046
-652,072	-29,896	-0,096	0,040
-651,057	-74,790	-0,044	-0,012
-650,043	-200,000	-0,008	-0,064
-649,028	-200,000	-0,000	0,065
-648,014	-158,953	0,120	0,005
-646,999	130,020	-0,043	0,040
-645,984	150,238	0,062	0,062
-644,970	-200,000	0,008	-0,040
-643,955	129,470	0,078	0,073
-642,941	335,775	0,036	-0,051
-641,926	66,480	-0,031	0,023
-640,911	27,138	-0,062	-0,038
-639,897	-200,000	0,007	0,097
-638,882	-65,708	0,106	-0,031
-637,868	5,769	-0,142	0,077
-636,853	195,843	-0,113	-0,127
-635,838	102,267	-0,065	-0,056
-634,824	-103,301	-0,092	0,016
-633,809	800,000	0,035	0,105
-632,795	84,494	0,104	0,083
-631,780	-200,000	0,020	-0,086
-630,765	107,537	-0,077	-0,068
-629,751	-200,000	-0,007	0,029
-628,736	24,847	-0,049	0,030
-627,722	-200,000	0,032	-0,107
-626,707	100,104	-0,043	-0,037
-625,692	-200,000	0,017	0,157
-624,678	-200,000	0,009	0,061
-623,663	220,640	-0,030	-0,036
-622,649	173,068	0,107	-0,114
-621,634	-200,000	-0,033	-0,193
-620,619	-200,000	-0,008	0,079
-619,605	180,334	0,122	-0,131
-618,590	-200,000	-0,023	-0,085
-617,576	31,467	0,078	-0,049
-616,561	13,767	-0,038	0,022
-615,546	192,567	0,055	0,061
-614,532	800,000	-0,023	0,059
-613,517	37,774	0,101	0,065
-612,503	800,000	0,037	-0,111
-611,488	-134,639	-0,206	-0,018
-610,474	4,638	0,123	0,066
-609,459	-30,581	0,107	0,044
-608,444	680,323	-0,009	-0,018
-607,430	800,000	-0,035	-0,100
-606,415	800,000	0,064	-0,132
-605,401	195,928	0,140	-0,157
-604,386	141,198	0,146	-0,142
-603,371	-200,000	-0,004	0,015
-602,357	-35,343	-0,126	-0,050
-601,342	468,650	0,120	0,199
-600,328	800,000	-0,009	-0,023
-599,313	-200,000	-0,012	-0,143
-598,298	-200,000	-0,055	-0,209
-597,284	-200,000	-0,014	0,073
-596,269	-28,534	-0,047	0,020
-595,255	800,000	0,014	-0,041
-594,240	95,327	0,051	0,043
-593,225	-195,426	-0,175	-0,001
-592,211	-200,000	0,016	0,141
-591,196	142,518	0,030	-0,029
-590,182	-20,319	-0,024	-0,011
-589,167	-52,884	0,074	-0,025
-588,152	800,000	-0,025	0,052
-587,138	-200,000	-0,040	-0,231
-586,123	188,117	0,086	-0,094
-585,109	-74,068	-0,100	0,026
-584,094	-200,000	0,007	-0,153
-583,079	-137,114	0,070	-0,006
-582,065	-200,000	-0,077	-0,000
-581,050	-200,000	-0,023	0,174
-580,036	162,799	0,082	0,085
-579,021	-200,000	0,018	-0,064
-578,006	-200,000	-0,027	-0,135
-576,992	-1,089	0,030	0,016
-575,977	78,755	-0,058	0,045
-574,963	122,716	0,133	0,122
-573,948	-200,000	0,016	0,114
-572,934	-85,696	0,104	-0,023
-571,919	-73,687	-0,099	0,026
-570,904	-67,632	0,070	-0,020
-569,890	-97,694	0,028	-0,005
-568,875	-32,275	0,082	-0,033
-567,861	-82,955	0,029	0,007
-566,846	150,403	0,161	-0,161
-565,831	-200,000	0,004	-0,029
-564,817	250,655	-0,087	-0,109
-563,802	-78,106	-0,113	-0,028
-562,788	-200,000	0,009	0,120
-561,773	93,449	-0,114	-0,094
-560,758	133,022	0,106	-0,101
-559,744	76,881	-0,136	0,105
-558,729	-10,764	0,155	0,075
-557,715	-99,047	-0,035	-0,006
-556,700	-111,725	0,102	0,015
-555,685	-200,000	-0,004	-0,092
-554,671	-200,000	0,002	0,108
-553,656	-81,985	0,070	0,017
-552,642	-111,977	-0,099	-0,015
-551,627	-24,679	-0,118	-0,051
-550,612	-83,995	-0,065	0,015
-549,598	-143,810	-0,182	-0,012
-548,583	326,734	0,057	0,080
-547,569	-93,486	0,149	0,030
-546,554	143,104	-0,099	-0,096
-545,539	-200,000	-0,006	-0,095
-544,525	710,620	-0,018	0,034
-543,510	-200,000	0,017	-0,073
-542,496	128,063	0,044	-0,041
-541,481	-200,000	-0,001	-0,194
-540,466	304,450	0,050	-0,067
-539,452	-134,850	0,046	-0,004
-538,437	-200,000	-0,028	0,094
-537,423	104,655	0,018	-0,016
-536,408	75,793	-0,051	-0,039
-535,393	-45,497	-0,181	-0,065
-534,379	213,354	0,064	-0,074
-533,364	237,078	-0,062	-0,076
-532,350	-200,000	0,009	-0,096
-531,335	459,930	-0,073	0,119
-530,321	-200,000	-0,012	0,038
-529,306	-96,198	0,085	-0,016
-528,291	164,342	-0,028	-0,029
-527,277	-60,585	0,186	-0,057
-526,262	-200,000	-0,002	0,054
-525,248	67,129	0,067	0,050
-524,233	800,000	-0,024	0,052
-523,218	-40,305	0,118	0,045
-522,204	800,000	0,023	-0,068
-521,189	-139,141	-0,155	0,012
-520,175	364,467	-0,063	-0,093
-519,160	-121,019	0,163	0,020
-518,145	532,388	0,009	0,016
-517,131	-200,000	-0,001	0,044
-516,116	-130,021	0,145	0,014
-515,102	-200,000	0,008	-0,064
-514,087	800,000	0,030	-0,095
-513,072	800,000	-0,058	-0,174
-512,058	800,000	-0,056	-0,160
-511,043	206,564	0,017	-0,020
-510,029	-200,000	0,008	0,123
-509,014	800,000	-0,047	0,105
-507,999	-39,642	-0,141	0,054
-506,985	-200,000	0,010	0,048
-505,970	248,858	-0,081	-0,100
-504,956	800,000	-0,008	-0,017
-503,941	455,497	-0,036	0,059
-502,926	-74,997	0,026	0,007
-501,912	-4,560	0,135	0,068
-500,897	-120,721	-0,071	0,009
-499,883	-5,197	0,104	0,052
-498,868	53,129	-0,095	-0,066
-497,853	385,345	-0,049	-0,075
-496,839	283,341	0,031	-0,041
-495,824	271,236	-0,087	0,113
-494,810	626,184	-0,081	-0,149
-493,795	-27,526	0,158	0,067
-492,781	-117,992	-0,034	-0,004
-491,766	-106,312	0,155	0,025
-490,751	800,000	-0,040	-0,090
-489,737	-200,000	-0,012	-0,054
-488,722	127,224	0,046	-0,043
-487,708	252,777	-0,092	0,115
-486,693	679,586	-0,022	0,041
-485,678	283,970	-0,147	-0,194
-484,664	-200,000	0,034	-0,146
-483,649	265,038	-0,119	0,151
-482,635	107,030	-0,105	-0,091
-481,620	24,724	-0,073	-0,044
-480,605	116,791	0,100	0,090
-479,591	290,842	0,104	0,139
-478,576	-9,358	0,085	-0,041
-477,562	480,727	0,065	0,108
-476,547	63,459	-0,079	0,058
-475,532	-12,975	-0,141	-0,067
-474,518	-200,000	0,003	0,172
-473,503	59,604	0,154	0,111
-472,489	-91,453	0,108	-0,022
-471,474	-200,000	0,021	0,145
-470,459	-85,296	-0,098	0,022
-469,445	-21,009	-0,065	0,029
-468,430	313,250	-0,050	0,068
-467,416	-75,883	0,093	-0,024
-466,401	313,904	0,033	-0,045
-465,386	800,000	-0,005	0,015
-464,372	27,592	0,062	-0,038
-463,357	-96,760	-0,134	0,026
-462,343	800,000	-0,024	0,064
-461,328	800,000	0,033	-0,074
-460,313	17,716	0,028	-0,016
-459,299	145,962	-0,080	0,078
-458,284	200,433	-0,009	-0,010
-457,270	-0,289	0,033	-0,017
-456,255	-200,000	-0,006	-0,045
-455,241	-200,000	-0,014	-0,053
-454,226	800,000	-0,067	-0,161
-453,211	-200,000	-0,017	0,110
-452,197	-10,339	-0,114	-0,055
-451,182	-17,354	-0,085	0,039
-450,168	394,740	-0,069	0,105
-449,153	-200,000	0,017	0,088
-448,138	-22,317	0,146	-0,064
-447,124	-200,000	-0,035	-0,154
-446,109	-132,653	-0,025	0,002
-445,095	574,474	0,044	-0,078
-444,080	-171,847	-0,106	0,002
-443,065	-111,745	-0,200	0,029
-442,051	-100,432	0,100	-0,018
-441,036	602,565	-0,058	-0,106
-440,022	139,108	-0,114	-0,109
-439,007	133,443	0,023	-0,022
-437,992	-200,000	0,000	-0,006
-436,978	-88,599	0,056	0,012
-435,963	-200,000	-0,000	0,062
-434,949	166,599	0,104	-0,108
-433,934	537,786	-0,041	-0,072
-432,919	-131,558	0,121	-0,012
-431,905	434,853	0,036	0,057
-430,890	-28,429	0,172	0,072
-429,876	-80,819	0,190	-0,046
-428,861	800,000	-0,049	0,104
-427,846	-160,963	-0,075	-0,003
-426,832	166,239	-0,041	0,042
-425,817	-47,634	-0,143	-0,050
-424,803	800,000	-0,045	0,122
-423,788	331,877	0,030	-0,043
-422,773	-94,056	0,080	-0,016
-421,759	-17,334	0,097	-0,044
-420,744	-200,000	0,003	-0,109
-419,730	470,561	-0,038	-0,063
-418,715	-34,335	0,080	-0,032
-417,701	-200,000	0,030	-0,124
-416,686	-200,000	0,004	0,076
-415,671	-21,561	0,093	-0,041
-414,657	40,031	-0,055	0,036
-413,642	631,483	-0,028	0,051
-412,628	245,968	0,024	-0,029
-411,613	-6,369	-0,027	0,013
-410,598	1,981	-0,059	-0,031
-409,584	800,000	0,075	0,226
-408,569	-136,458	-0,139	0,012
-407,555	-81,473	0,082	0,020
-406,540	-91,726	-0,068	0,014
-405,525	-169,110	-0,085	0,002
-404,511	716,158	0,043	0,084
-403,496	-56,151	-0,053	0,017
-402,482	-147,854	0,200	0,012
-401,467	110,839	0,055	0,048
-400,452	-200,000	-0,004	-0,063
-399,438	800,000	0,023	-0,050
-398,423	-200,000	-0,013	0,071
-397,409	-11,454	-0,064	-0,031
-396,394	-142,488	-0,114	-0,008
-395,379	-200,000	-0,007	0,026
-394,365	800,000	-0,031	-0,082
-393,350	-141,566	-0,042	-0,003
-392,336	23,539	0,089	0,053
-391,321	-68,754	-0,179	0,050
-390,306	80,743	0,137	-0,107
-389,292	398,909	-0,126	-0,192
-388,277	-200,000	0,025	-0,125
-387,263	250,460	0,016	0,020
-386,248	42,510	0,041	0,027
-385,233	800,000	0,010	-0,022
-384,219	-49,060	-0,085	0,030
-383,204	-7,589	0,073	-0,036
-382,190	173,326	-0,085	0,090
-381,175	-88,329	0,123	0,026
-380,160	344,092	0,010	-0,015
-379,146	-103,042	-0,056	0,009
-378,131	-200,000	0,001	-0,043
-377,117	67,145	0,031	-0,023
-376,102	800,000	-0,023	0,063
-375,088	-200,000	0,023	0,122
-374,073	243,876	-0,030	-0,037
-373,058	-134,479	-0,052	0,005
-372,044	-200,000	-0,005	-0,021
-371,029	-98,170	-0,079	0,015
-370,015	-200,000	0,003	0,142
-369,000	414,191	-0,022	0,034
-367,985	-200,000	0,039	-0,264
-366,971	-200,000	-0,007	-0,084
-365,956	508,674	0,053	0,089
-364,942	-127,968	0,191	-0,020
-363,927	269,800	0,042	0,054
-362,912	324,669	0,017	0,023
-361,898	-61,395	0,183	0,055
-360,883	-53,638	0,103	-0,034
-359,869	-48,191	-0,120	0,042
-358,854	-50,903	0,080	0,027
-357,839	-44,392	0,067	-0,024
-356,825	-60,946	-0,084	0,026
-355,810	-78,964	-0,151	-0,037
-354,796	61,783	-0,066	0,047
-353,781	145,217	-0,046	0,045
-352,766	-30,093	-0,097	0,040
-351,752	-68,663	0,040	-0,011
-350,737	310,590	0,043	-0,059
-349,723	-200,000	-0,015	-0,090
-348,708	-124,438	-0,108	-0,012
-347,693	-200,000	-0,034	-0,123
-346,679	-81,755	0,138	-0,033
-345,664	410,474	0,021	0,033
-344,650	104,165	0,060	0,051
-343,635	117,287	0,062	0,055
-342,620	4,102	-0,126	0,067
-341,606	-99,073	-0,105	0,019
-340,591	280,735	-0,037	0,048
-339,577	-109,672	-0,077	0,012
-338,562	17,378	0,102	-0,059
-337,548	-200,000	0,007	-0,108
-336,533	649,437	0,071	0,132
-335,518	-27,830	0,127	0,053
-334,504	-138,938	-0,114	-0,009
-333,489	340,879	-0,083	-0,118
-332,475	62,536	-0,055	0,040
-331,460	215,413	0,017	-0,019
-330,445	-200,000	0,031	0,168
-329,431	-200,000	-0,003	0,024
-328,416	317,163	-0,022	0,030
-327,402	177,751	0,040	0,042
-326,387	-36,959	0,038	-0,015
-325,372	443,670	-0,047	0,075
-324,358	-107,458	-0,069	-0,011
-323,343	-200,000	0,014	0,077
-322,329	800,000	0,061	0,126
-321,314	-116,935	0,036	-0,005
-320,299	-72,421	-0,047	-0,013
-319,285	-114,652	-0,049	-0,007
-318,270	-200,000	-0,000	-0,030
-317,256	-200,000	-0,020	-0,169
-316,241	-200,000	0,014	0,116
-315,226	800,000	0,050	0,113
-314,212	-128,669	0,083	-0,008
-313,197	-0,677	-0,081	-0,041
-312,183	166,258	0,067	0,069
-311,168	281,760	0,105	-0,137
-310,153	-51,223	0,087	0,029
-309,139	-18,209	0,033	-0,015
-308,124	407,409	0,066	-0,102
-307,110	244,759	-0,040	-0,049
-306,095	-200,000	0,007	-0,033
-305,080	237,361	0,076	-0,091
-304,066	-101,506	0,041	0,007
-303,051	175,591	-0,067	-0,070
-302,037	16,145	-0,088	0,050
-301,022	-82,127	0,015	0,004
-300,008	324,263	-0,102	0,142
-298,993	233,714	0,028	-0,033
-297,978	-200,000	0,049	-0,190
-296,964	46,345	-0,114	-0,076
-295,949	-180,354	-0,139	-0,002
-294,935	21,381	-0,028	0,017
-293,920	-200,000	-0,006	0,161
-292,905	227,221	-0,095	-0,112
-291,891	545,541	0,094	-0,164
-290,876	-32,181	0,085	-0,034
-289,862	800,000	-0,045	0,119
-288,847	26,237	-0,113	-0,068
-287,832	321,117	-0,099	0,136
-286,818	66,295	0,064	0,047
-285,803	-56,189	0,029	0,009
-284,789	481,600	0,039	-0,065
-283,774	-200,000	0,021	-0,093
-282,759	-200,000	-0,012	-0,133
-281,745	38,601	-0,055	-0,035
-280,730	180,652	0,051	-0,055
-279,716	147,313	0,024	-0,023
-278,701	386,399	-0,092	0,139
-277,686	128,515	-0,034	-0,032
-276,672	-34,392	0,058	-0,023
-275,657	320,582	-0,088	0,121
-274,643	-200,000	-0,026	0,134
-273,628	55,187	0,078	0,055
-272,613	279,241	-0,032	-0,042
-271,599	-2,971	0,051	-0,025
-270,584	344,812	-0,169	0,242
-269,570	-8,274	0,162	0,079
-268,555	31,795	0,144	0,090
-267,540	-200,000	-0,011	-0,084
-266,526	-200,000	0,001	0,075
-265,511	64,721	-0,045	-0,033
-264,497	-118,975	-0,087	-0,011
-263,482	-47,071	0,172	-0,060
-262,467	514,947	-0,009	0,015
-261,453	-124,019	-0,140	0,016
-260,438	-72,077	0,052	-0,014
-259,424	-200,000	-0,007	-0,225
-258,409	-70,250	-0,106	-0,029
-257,395	77,892	0,149	-0,115
-256,380	47,409	-0,033	-0,022
-255,365	-121,914	0,107	0,013
-254,351	-176,197	-0,149	-0,003
-253,336	-43,955	-0,112	0,040
-252,322	-200,000	0,001	-0,092
-251,307	24,032	0,063	-0,038
-250,292	800,000	0,015	0,045
-249,278	241,722	-0,011	-0,013
-248,263	-200,000	-0,008	0,035
-247,249	800,000	0,020	0,063
-246,234	84,533	-0,025	0,020
-245,219	-91,190	0,011	-0,002
-244,205	-13,496	-0,081	0,038
-243,190	-51,162	0,075	-0,025
-242,176	-86,634	0,038	-0,008
-241,161	269,163	0,044	-0,056
-240,146	-172,607	-0,070	-0,002
-239,132	101,319	-0,009	0,007
-238,117	-14,312	0,141	0,065
-237,103	170,893	0,036	-0,038
-236,088	20,403	-0,094	-0,055
-235,073	-200,000	0,039	0,194
-234,059	-136,712	-0,051	-0,004
-233,044	167,102	0,090	0,092
-232,030	52,481	0,053	0,036
-231,015	800,000	-0,067	-0,140
-230,000	-184,087	-0,115	-0,001
-228,986	800,000	0,033	-0,077
-227,971	-174,306	0,177	0,004
-226,957	-200,000	0,008	0,120
-225,942	-200,000	0,004	0,048
-224,927	201,245	-0,104	0,116
-223,913	-108,635	-0,093	-0,014
-222,898	154,417	-0,068	-0,067
-221,884	-200,000	-0,004	-0,057
-220,869	-200,000	-0,127	-0,000
-219,855	800,000	0,020	0,064
-218,840	-200,000	-0,009	0,085
-217,825	-200,000	-0,006	-0,028
-216,811	399,193	-0,051	0,078
-215,796	163,247	0,032	-0,032
-214,782	-200,000	-0,036	0,128
-213,767	124,551	-0,018	0,016
-212,752	-26,921	-0,021	0,009
-211,738	-200,000	-0,055	0,202
-210,723	-200,000	-0,014	0,172
-209,709	55,605	-0,065	-0,046
-208,694	800,000	0,061	-0,124
-207,679	-200,000	-0,000	-0,024
-206,665	0,877	0,139	0,071
-205,650	-200,000	0,039	-0,132
-204,636	-200,000	0,018	0,061
-203,621	-14,624	0,051	-0,024
-202,606	-200,000	-0,014	-0,093
-201,592	-200,000	-0,027	-0,106
-200,577	639,093	0,081	0,150
-199,563	-200,000	-0,013	0,046
-198,548	-36,402	0,060	0,023
-197,533	-200,000	0,045	0,155
-196,519	800,000	0,057	0,131
-195,504	800,000	-0,103	0,222
-194,490	683,402	0,065	0,124
-193,475	-81,037	-0,084	-0,020
-192,460	-77,139	-0,051	0,013
-191,446	-89,060	0,084	0,018
-190,431	-200,000	-0,006	0,046
-189,417	-159,853	0,049	0,002
-188,402	10,737	0,031	-0,017
-187,387	39,516	-0,128	-0,082
-186,373	9,100	0,024	0,013
-185,358	80,533	-0,026	0,021
-184,344	663,189	0,011	-0,020
-183,329	-148,357	-0,130	0,008
-182,315	-179,243	0,069	-0,001
-181,300	193,836	0,039	-0,042
-180,285	167,826	-0,122	0,125
-179,271	88,089	-0,054	-0,043
-178,256	188,086	0,046	0,049
-177,242	-8,263	0,066	0,032
-176,227	800,000	0,044	0,105
-175,212	281,076	0,039	-0,050
-174,198	685,700	0,052	0,098
-173,183	35,525	-0,021	0,013
-172,169	117,718	0,116	-0,103
-171,154	121,866	-0,091	-0,082
-170,139	-200,000	0,026	0,119
-169,125	43,473	-0,029	0,019
-168,110	471,661	0,021	0,035
-167,096	-200,000	-0,006	0,085
-166,081	-153,114	-0,067	-0,003
-165,066	705,056	-0,062	-0,118
-164,052	-134,418	-0,140	0,012
-163,037	-53,898	-0,138	-0,045
-162,023	156,691	-0,018	0,018
-161,008	-200,000	0,040	0,217
-159,993	-79,094	-0,273	0,066
-158,979	-190,667	0,079	-0,001
-157,964	-8,026	0,138	-0,067
-156,950	-175,167	0,058	0,001
-155,935	-102,131	0,104	-0,018
-154,920	-200,000	0,007	0,030
-153,906	-21,356	0,141	0,062
-152,891	563,670	0,019	-0,034
-151,877	-200,000	0,015	-0,111
-150,862	-70,293	0,077	-0,021
-149,847	534,254	-0,077	0,132
-148,833	75,963	-0,057	-0,044
-147,818	-41,874	0,183	-0,067
-146,804	-95,948	-0,107	-0,020
-145,789	-190,747	0,044	-0,000
-144,775	78,184	0,059	-0,045
-143,760	800,000	0,021	0,044
-142,745	87,428	-0,185	-0,147
-141,731	37,173	0,111	-0,071
-140,716	134,456	0,063	-0,059
-139,702	-79,477	0,021	0,005
-138,687	11,515	-0,038	-0,021
-137,672	682,436	-0,045	-0,084
-136,658	120,947	0,032	0,029
-135,643	70,324	-0,060	0,045
-134,629	-200,000	0,010	0,075
-133,614	-149,711	0,108	0,006
-132,599	234,972	0,027	-0,032
-131,585	178,147	0,111	0,117
-130,570	-46,873	0,081	-0,028
-129,556	-200,000	-0,038	-0,142
-128,541	-200,000	0,013	-0,069
-127,526	-22,852	-0,028	-0,012
-126,512	293,653	-0,069	0,092
-125,497	32,385	0,113	0,070
-124,483	-200,000	-0,001	-0,047
-123,468	461,059	-0,022	-0,036
-122,453	145,114	-0,044	0,042
-121,439	-57,794	-0,042	0,013
-120,424	57,903	0,039	-0,027
