DTS Sentinel unit serial number:	SN410029Multiplexer serial number:	ORYXHardware model number:	OX2-SRSoftware version number:	ORYX F/W v4,00 Oryx Data Collector v3.7.2.0data status	okinstallation	B5 Nyhavnadifferential loss correction	single-endedforward channel	channel 2reverse channel	N/Adate	2023/12/12time	08:22:13forward acquisition time	300,00reverse acquisition time	0,00gamma	499,1914k internal	0,3157k external	0,3157temperature offset calibration	1,0000default loss term (dB/km)	0,3820temperature slope calibration	1,0000multiplexer offset coefficient	1,0000multiplexer slope coefficient	1,0000fibre end	0,00T internal ref (°C)	15,09T ext. ref 1 (°C)	-1,28T ext. ref 2 (°C)	-1,56length (m)	temperature (°C)	Stokes	anti-Stokes-744,400	-30,061	0,190	-0,079
-743,385	-73,124	-0,263	-0,071
-742,371	-61,230	0,092	0,028
-741,356	-91,912	-0,412	0,085
-740,342	237,383	0,116	0,142
-739,327	-155,312	-0,342	0,016
-738,312	133,283	0,073	0,070
-737,298	-126,757	-0,227	-0,024
-736,283	149,185	0,103	-0,103
-735,269	-17,484	-0,345	0,160
-734,254	-94,422	0,167	0,033
-733,239	47,025	-0,410	-0,280
-732,225	-77,499	0,240	-0,061
-731,210	285,531	0,084	0,112
-730,196	800,000	-0,042	-0,126
-729,181	-97,198	-0,076	-0,014
-728,167	359,819	-0,060	0,088
-727,152	150,852	0,045	-0,045
-726,137	710,113	-0,068	-0,134
-725,123	521,781	-0,083	-0,144
-724,108	240,417	-0,106	-0,130
-723,094	800,000	0,020	-0,060
-722,079	-200,000	0,021	-0,210
-721,064	-200,000	-0,001	0,017
-720,050	66,756	0,036	-0,027
-719,035	124,691	-0,012	0,011
-718,021	800,000	-0,026	0,059
-717,006	-130,886	-0,071	-0,007
-715,991	-200,000	-0,015	-0,139
-714,977	270,597	0,069	-0,090
-713,962	-200,000	0,004	-0,083
-712,948	129,056	0,022	-0,020
-711,933	-200,000	0,035	-0,171
-710,918	593,850	0,029	-0,054
-709,904	-11,054	0,023	0,011
-708,889	26,030	-0,077	-0,047
-707,875	800,000	0,015	0,049
-706,860	-35,456	0,093	-0,037
-705,845	-20,356	0,098	0,044
-704,831	-36,637	0,035	0,014
-703,816	174,379	-0,074	-0,079
-702,802	-85,301	0,128	-0,029
-701,787	624,212	-0,038	-0,070
-700,772	142,238	-0,058	-0,057
-699,758	61,700	-0,099	0,073
-698,743	176,924	-0,105	-0,112
-697,729	150,959	0,090	0,091
-696,714	800,000	-0,071	0,155
-695,699	-80,756	-0,064	-0,016
-694,685	800,000	-0,012	0,035
-693,670	-200,000	-0,001	-0,053
-692,656	54,819	0,049	-0,035
-691,641	-200,000	0,023	-0,156
-690,627	-200,000	0,009	-0,053
-689,612	-200,000	0,022	0,102
-688,597	-200,000	-0,008	0,071
-687,583	-4,842	-0,076	-0,038
-686,568	800,000	0,051	-0,116
-685,554	193,935	0,086	-0,096
-684,539	109,094	-0,014	-0,012
-683,524	182,931	-0,109	0,118
-682,510	-200,000	-0,012	0,156
-681,495	136,919	0,041	0,040
-680,481	-200,000	0,014	-0,062
-679,466	11,390	-0,052	-0,029
-678,451	-14,596	-0,095	0,045
-677,437	-109,348	0,075	-0,012
-676,422	-31,984	-0,115	-0,047
-675,408	241,061	-0,089	-0,110
-674,393	29,832	-0,127	0,079
-673,378	-38,561	-0,084	-0,032
-672,364	211,478	-0,051	-0,059
-671,349	-200,000	-0,035	-0,168
-670,335	-95,161	0,053	-0,010
-669,320	-200,000	0,029	-0,132
-668,305	374,386	-0,080	-0,121
-667,291	144,042	0,124	-0,122
-666,276	-68,085	-0,223	0,064
-665,262	800,000	-0,057	-0,149
-664,247	-45,122	-0,185	0,067
-663,232	55,747	0,098	0,070
-662,218	-61,732	0,062	-0,019
-661,203	66,511	-0,067	-0,050
-660,189	136,293	0,126	-0,121
-659,174	-126,150	-0,055	0,006
-658,159	58,728	-0,168	0,121
-657,145	141,415	-0,081	0,079
-656,130	-200,000	-0,021	0,072
-655,116	-179,877	0,099	0,002
-654,101	-118,641	0,046	-0,006
-653,086	-200,000	-0,005	0,016
-652,072	-200,000	0,004	0,073
-651,057	220,096	0,047	-0,056
-650,043	-48,986	-0,066	-0,023
-649,028	-5,359	-0,088	-0,044
-648,014	-53,860	-0,068	0,023
-646,999	71,582	0,127	-0,097
-645,984	-200,000	-0,001	-0,123
-644,970	-96,808	0,027	-0,005
-643,955	-200,000	0,017	-0,058
-642,941	800,000	0,011	-0,032
-641,926	478,568	-0,086	-0,143
-640,911	-125,478	-0,092	0,010
-639,897	-74,561	0,017	0,004
-638,882	257,782	0,053	-0,067
-637,868	267,151	0,037	0,047
-636,853	393,104	-0,093	0,143
-635,838	97,070	0,122	0,103
-634,824	31,695	0,067	-0,042
-633,809	132,200	-0,057	-0,054
-632,795	358,741	-0,054	0,079
-631,780	2,410	0,051	-0,027
-630,765	-76,512	-0,176	0,045
-629,751	800,000	0,006	-0,018
-628,736	800,000	0,077	-0,247
-627,722	164,458	-0,093	-0,096
-626,707	195,125	0,022	0,024
-625,692	800,000	0,025	-0,056
-624,678	70,131	-0,035	-0,027
-623,663	790,354	-0,002	-0,005
-622,649	800,000	-0,027	0,083
-621,634	629,996	-0,044	0,082
-620,619	-200,000	0,030	0,106
-619,605	-153,019	0,100	0,005
-618,590	-93,187	0,107	-0,022
-617,576	309,200	0,117	0,160
-616,561	-200,000	0,040	0,169
-615,546	-75,328	0,088	0,023
-614,532	800,000	0,028	-0,082
-613,517	-50,744	-0,161	-0,055
-612,503	230,059	0,064	-0,077
-611,488	-200,000	-0,018	0,171
-610,474	37,633	0,023	-0,015
-609,459	54,314	-0,035	-0,025
-608,444	-56,794	0,042	-0,014
-607,430	92,671	0,032	0,026
-606,415	767,707	-0,037	0,075
-605,401	-61,824	-0,034	0,010
-604,386	-110,632	-0,101	0,015
-603,371	346,717	0,110	-0,159
-602,357	-200,000	-0,001	0,167
-601,342	137,133	0,036	0,035
-600,328	376,446	0,070	-0,105
-599,313	800,000	0,073	-0,151
-598,298	707,186	0,009	0,017
-597,284	-200,000	0,024	0,113
-596,269	671,613	-0,022	-0,042
-595,255	-95,451	-0,095	-0,018
-594,240	-150,280	-0,095	-0,005
-593,225	800,000	0,031	-0,065
-592,211	35,147	-0,093	0,060
-591,196	-112,780	-0,111	0,016
-590,182	318,851	0,062	-0,087
-589,167	-141,126	0,113	-0,008
-588,152	800,000	-0,031	-0,070
-587,138	800,000	0,040	0,101
-586,123	-46,096	-0,082	-0,029
-585,109	-152,488	-0,050	0,003
-584,094	29,390	-0,125	0,078
-583,079	-87,482	-0,075	-0,017
-582,065	-200,000	-0,021	-0,095
-581,050	0,717	0,134	0,070
-580,036	10,039	0,095	0,052
-579,021	-64,937	0,035	-0,010
-578,006	10,466	-0,114	-0,063
-576,992	707,467	-0,032	-0,062
-575,977	800,000	-0,078	0,200
-574,963	5,748	0,098	0,053
-573,948	-151,926	0,080	0,004
-572,934	528,221	0,019	-0,032
-571,919	254,874	0,105	-0,132
-570,904	-171,261	-0,068	0,002
-569,890	-200,000	0,010	0,035
-568,875	-200,000	-0,001	0,064
-567,861	206,502	0,100	0,114
-566,846	12,341	0,138	0,078
-565,831	-14,383	-0,090	-0,042
-564,817	-125,575	-0,044	0,005
-563,802	225,475	-0,034	0,041
-562,788	55,237	-0,108	0,077
-561,773	800,000	-0,042	0,091
-560,758	59,852	-0,063	0,046
-559,744	280,779	-0,053	0,070
-558,729	108,352	-0,059	-0,052
-557,715	384,942	0,062	-0,093
-556,700	-200,000	0,008	0,040
-555,685	221,863	-0,063	0,074
-554,671	50,921	0,141	0,098
-553,656	407,449	0,030	0,047
-552,642	48,393	0,067	0,046
-551,627	-44,943	0,158	0,057
-550,612	91,437	-0,012	0,010
-549,598	-200,000	-0,020	0,179
-548,583	437,307	0,089	0,142
-547,569	26,710	0,109	-0,067
-546,554	-200,000	-0,017	-0,090
-545,539	-200,000	0,001	0,051
-544,525	49,396	-0,065	-0,045
-543,510	-200,000	-0,033	0,123
-542,496	-200,000	-0,045	-0,155
-541,481	71,039	-0,097	0,073
-540,466	-120,044	0,037	-0,005
-539,452	-200,000	0,016	0,118
-538,437	-61,369	-0,017	0,005
-537,423	9,899	-0,011	0,006
-536,408	74,330	-0,052	0,040
-535,393	-200,000	0,032	-0,135
-534,379	-200,000	-0,013	0,056
-533,364	362,625	-0,053	-0,078
-532,350	150,007	0,096	0,096
-531,335	800,000	0,030	0,070
-530,321	-103,817	-0,025	0,004
-529,306	-200,000	-0,001	0,054
-528,291	107,231	-0,056	-0,049
-527,277	60,386	-0,124	-0,089
-526,262	166,627	-0,020	0,021
-525,248	-76,426	0,068	-0,017
-524,233	-200,000	0,003	0,047
-523,218	244,354	0,086	0,106
-522,204	-150,403	-0,084	0,005
-521,189	-97,447	-0,138	-0,026
-520,175	800,000	-0,034	-0,078
-519,160	295,702	0,037	-0,050
-518,145	-66,834	0,083	-0,024
-517,131	157,648	-0,057	0,058
-516,116	800,000	-0,031	0,094
-515,102	-152,732	-0,068	0,003
-514,087	-168,750	0,019	-0,001
-513,072	-200,000	-0,009	-0,107
-512,058	679,049	-0,022	-0,042
-511,043	514,861	-0,094	0,161
-510,029	-80,983	0,094	-0,023
-509,014	49,432	-0,049	0,033
-507,999	-10,574	-0,043	-0,021
-506,985	-77,266	-0,066	-0,017
-505,970	298,516	-0,098	-0,132
-504,956	-200,000	-0,024	0,123
-503,941	-143,522	-0,011	-0,001
-502,926	547,872	0,053	-0,094
-501,912	800,000	0,043	0,114
-500,897	-200,000	0,010	0,063
-499,883	161,483	-0,038	0,039
-498,868	800,000	-0,017	-0,041
-497,853	-15,961	0,081	0,037
-496,839	26,106	-0,093	-0,057
-495,824	-53,008	0,034	0,011
-494,810	800,000	0,032	-0,088
-493,795	-81,966	-0,163	-0,039
-492,781	800,000	-0,026	0,064
-491,766	800,000	0,043	0,104
-490,751	800,000	0,017	0,036
-489,737	342,003	-0,075	-0,107
-488,722	260,146	-0,093	-0,118
-487,708	-200,000	0,012	-0,150
-486,693	170,050	0,075	-0,078
-485,678	-200,000	-0,013	-0,044
-484,664	358,627	0,065	-0,095
-483,649	-78,949	-0,043	0,011
-482,635	420,085	-0,084	0,132
-481,620	651,950	0,057	0,106
-480,605	19,701	-0,068	-0,040
-479,591	-89,258	0,189	-0,040
-478,576	-200,000	0,003	-0,014
-477,562	162,149	-0,129	0,132
-476,547	-200,000	0,000	0,149
-475,532	800,000	0,058	-0,120
-474,518	636,825	0,073	0,135
-473,503	-46,907	-0,058	0,021
-472,489	617,998	0,069	-0,127
-471,474	800,000	-0,025	0,073
-470,459	-200,000	-0,017	-0,085
-469,445	214,876	-0,110	-0,128
-468,430	-200,000	0,008	-0,096
-467,416	376,053	0,107	0,160
-466,401	-200,000	-0,002	0,087
-465,386	800,000	-0,028	0,071
-464,372	-74,916	-0,073	0,019
-463,357	326,295	-0,038	-0,054
-462,343	-200,000	-0,009	-0,069
-461,328	-71,271	-0,060	0,016
-460,313	-22,831	0,057	0,025
-459,299	-200,000	0,027	0,139
-458,284	81,468	0,015	-0,012
-457,270	243,008	0,047	0,058
-456,255	-117,032	-0,031	0,004
-455,241	71,604	-0,037	0,028
-454,226	53,625	0,039	-0,027
-453,211	19,658	-0,051	-0,030
-452,197	11,475	-0,062	-0,035
-451,182	324,449	0,072	0,101
-450,168	-200,000	-0,000	0,015
-449,153	285,490	-0,059	0,078
-448,138	-200,000	-0,007	-0,055
-447,124	-53,282	-0,133	0,044
-446,109	-200,000	-0,001	0,010
-445,095	800,000	0,054	0,123
-444,080	436,364	0,046	0,074
-443,065	491,135	0,056	0,094
-442,051	-200,000	-0,037	-0,205
-441,036	-125,081	-0,018	0,002
-440,022	800,000	-0,033	-0,094
-439,007	366,274	0,043	-0,063
-437,992	-22,561	0,138	-0,060
-436,978	800,000	-0,009	0,019
-435,963	-200,000	-0,007	-0,120
-434,949	471,675	0,029	-0,047
-433,934	-200,000	-0,004	0,115
-432,919	242,199	0,093	0,113
-431,905	-137,598	0,183	-0,015
-430,890	86,812	-0,053	-0,043
-429,876	190,648	0,044	-0,048
-428,861	-200,000	0,011	0,058
-427,846	-65,910	-0,108	-0,031
-426,832	111,188	-0,127	-0,111
-425,817	800,000	0,055	0,171
-424,803	125,121	0,076	-0,070
-423,788	218,831	0,081	0,094
-422,773	72,688	0,068	-0,051
-421,759	-200,000	0,005	0,199
-420,744	-116,786	-0,150	0,020
-419,730	-25,879	-0,051	0,022
-418,715	-77,581	-0,175	-0,044
-417,701	-193,807	0,072	-0,000
-416,686	-45,937	0,092	-0,033
-415,671	51,782	0,072	0,050
-414,657	800,000	0,036	0,108
-413,642	81,300	-0,132	-0,104
-412,628	594,682	-0,038	-0,070
-411,613	-105,208	-0,131	0,021
-410,598	-159,207	0,178	0,007
-409,584	800,000	0,063	0,148
-408,569	-126,708	-0,139	0,015
-407,555	-200,000	0,002	0,071
-406,540	800,000	-0,022	0,052
-405,525	567,738	-0,106	-0,188
-404,511	-21,328	-0,036	-0,016
-403,496	-200,000	0,002	0,010
-402,482	-200,000	-0,006	-0,104
-401,467	130,963	0,085	-0,079
-400,452	550,635	-0,019	0,033
-399,438	-132,786	0,151	0,014
-398,423	437,659	0,017	-0,026
-397,409	-138,053	-0,070	0,006
-396,394	386,869	-0,046	-0,069
-395,379	212,881	0,067	-0,077
-394,365	56,185	0,051	0,036
-393,350	-200,000	-0,004	0,078
-392,336	800,000	0,024	-0,071
-391,321	800,000	-0,067	-0,147
-390,306	245,317	-0,069	-0,084
-389,292	174,801	-0,072	0,076
-388,277	-200,000	0,024	0,112
-387,263	175,309	0,083	-0,088
-386,248	594,137	0,055	0,099
-385,233	-76,244	-0,024	0,006
-384,219	800,000	-0,049	-0,111
-383,204	800,000	0,018	-0,051
-382,190	753,053	0,008	-0,015
-381,175	-16,779	0,154	-0,071
-380,160	39,347	0,068	-0,044
-379,146	40,000	-0,047	0,031
-378,131	-26,191	0,193	0,082
-377,117	-167,949	-0,170	-0,005
-376,102	-47,053	-0,045	-0,016
-375,088	-120,676	0,044	0,005
-374,073	-165,031	-0,178	0,006
-373,058	94,701	0,115	-0,095
-372,044	-25,533	0,135	0,058
-371,029	707,124	-0,005	-0,010
-370,015	-106,288	-0,093	-0,015
-369,000	429,866	-0,027	-0,042
-367,985	-200,000	0,025	-0,104
-366,971	113,847	-0,091	0,080
-365,956	90,662	-0,061	-0,050
-364,942	684,321	0,020	-0,038
-363,927	284,740	0,056	0,074
-362,912	-82,326	0,062	0,014
-361,898	-36,071	0,102	-0,040
-360,883	-151,328	-0,103	0,006
-359,869	-9,236	-0,026	0,013
-358,854	-95,653	0,164	-0,032
-357,839	-200,000	-0,013	0,046
-356,825	525,266	0,047	0,081
-355,810	-200,000	0,032	-0,183
-354,796	-200,000	0,003	-0,122
-353,781	33,275	0,088	-0,055
-352,766	-9,222	0,015	0,007
-351,752	-151,565	0,216	-0,011
-350,737	-68,844	0,154	-0,043
-349,723	500,867	0,033	0,055
-348,708	-89,236	-0,085	0,018
-347,693	-200,000	-0,008	-0,063
-346,679	800,000	-0,026	-0,063
-345,664	215,334	-0,086	-0,100
-344,650	800,000	0,008	-0,020
-343,635	-139,377	0,090	-0,007
-342,620	-116,167	0,040	-0,005
-341,606	-51,510	0,202	-0,068
-340,591	-200,000	0,027	-0,123
-339,577	-200,000	-0,004	-0,046
-338,562	-118,777	-0,116	0,015
-337,548	89,211	0,059	0,048
-336,533	-56,876	0,115	-0,037
-335,518	132,322	0,102	0,095
-334,504	73,616	0,079	-0,060
-333,489	-9,019	-0,006	0,003
-332,475	-200,000	0,009	0,103
-331,460	-8,003	-0,088	-0,043
-330,445	-131,728	-0,040	-0,004
-329,431	-163,639	-0,107	0,004
-328,416	235,970	0,086	-0,103
-327,402	-55,499	-0,109	-0,035
-326,387	168,838	0,050	-0,051
-325,372	-166,401	0,051	0,002
-324,358	-75,218	-0,113	0,029
-323,343	709,338	0,053	-0,102
-322,329	-78,724	0,056	-0,014
-321,314	-140,539	0,089	-0,007
-320,299	288,647	0,081	-0,107
-319,285	681,973	-0,060	-0,114
-318,270	55,591	0,074	0,052
-317,256	163,129	-0,071	0,073
-316,241	-200,000	-0,010	-0,086
-315,226	55,978	-0,033	-0,024
-314,212	-34,677	0,143	0,056
-313,197	-200,000	-0,009	-0,093
-312,183	4,047	-0,143	0,075
-311,168	65,001	0,058	-0,043
-310,153	-74,685	-0,108	0,028
-309,139	-16,212	0,103	-0,047
-308,124	800,000	-0,026	0,079
-307,110	353,282	0,083	0,120
-306,095	800,000	0,045	0,138
-305,080	-85,306	-0,058	-0,013
-304,066	787,789	-0,059	-0,117
-303,051	372,286	-0,031	-0,046
-302,037	-67,290	0,193	0,055
-301,022	125,781	-0,107	0,098
-300,008	-103,712	-0,063	0,011
-298,993	138,332	-0,007	0,006
-297,978	-151,552	0,067	-0,004
-296,964	15,418	-0,006	0,003
-295,949	-200,000	0,004	-0,140
-294,935	-51,177	-0,045	0,015
-293,920	120,226	-0,066	-0,059
-292,905	96,567	-0,036	-0,029
-291,891	3,382	-0,060	0,032
-290,876	572,382	0,089	0,158
-289,862	-200,000	0,009	0,047
-288,847	-133,808	-0,092	0,008
-287,832	-50,508	-0,200	-0,068
-286,818	-19,268	0,033	0,015
-285,803	-200,000	-0,001	0,085
-284,789	83,914	0,080	0,063
-283,774	-32,276	0,058	0,023
-282,759	-41,046	-0,036	-0,013
-281,745	-47,877	0,062	0,022
-280,730	736,014	-0,044	-0,085
-279,716	304,137	0,061	0,082
-278,701	221,378	0,058	0,068
-277,686	43,700	-0,085	0,056
-276,672	219,454	-0,036	-0,042
-275,657	800,000	-0,047	-0,127
-274,643	-200,000	-0,004	-0,195
-273,628	49,064	-0,080	-0,055
-272,613	800,000	0,009	-0,022
-271,599	-200,000	0,027	0,093
-270,584	-200,000	0,005	0,102
-269,570	-30,348	0,064	0,026
-268,555	-140,613	-0,052	-0,004
-267,540	75,396	-0,083	-0,063
-266,526	-200,000	-0,015	0,100
-265,511	232,453	-0,037	0,044
-264,497	-41,442	0,135	0,050
-263,482	118,698	0,078	0,070
-262,467	-110,739	-0,116	0,017
-261,453	-102,026	-0,013	-0,002
-260,438	-200,000	-0,029	-0,103
-259,424	-200,000	-0,001	-0,021
-258,409	-200,000	0,004	-0,043
-257,395	800,000	0,088	0,182
-256,380	-200,000	0,007	-0,059
-255,365	-34,781	-0,076	0,030
-254,351	-200,000	-0,004	0,109
-253,336	-200,000	-0,014	-0,064
-252,322	-200,000	-0,002	0,051
-251,307	800,000	0,035	0,091
-250,292	800,000	0,059	0,187
-249,278	-200,000	0,020	0,092
-248,263	139,246	0,060	0,057
-247,249	-30,285	0,085	0,035
-246,234	172,186	0,011	-0,011
-245,219	114,402	-0,034	-0,030
-244,205	800,000	-0,066	-0,140
-243,190	-200,000	-0,016	-0,065
-242,176	266,134	0,020	0,025
-241,161	229,397	-0,007	-0,008
-240,146	-103,672	0,113	-0,019
-239,132	-49,333	-0,048	0,016
-238,117	26,531	-0,033	0,020
-237,103	228,655	0,060	-0,071
-236,088	-185,017	0,086	-0,001
-235,073	-9,014	-0,128	-0,062
-234,059	800,000	-0,025	0,078
-233,044	281,984	0,058	0,075
-232,030	337,263	-0,044	-0,062
-231,015	424,741	0,055	0,086
-230,000	107,300	-0,126	0,108
-228,986	-57,639	-0,093	0,029
-227,971	487,584	-0,025	-0,042
-226,957	315,441	0,035	-0,048
-225,942	6,376	0,042	0,023
-224,927	-143,200	-0,046	0,003
-223,913	-200,000	-0,003	0,034
-222,898	8,533	-0,051	-0,028
-221,884	197,152	-0,073	0,081
-220,869	-12,388	0,118	-0,055
-219,855	800,000	0,022	0,061
-218,840	800,000	-0,019	-0,044
-217,825	800,000	0,056	0,139
-216,811	-45,923	-0,105	0,037
-215,796	800,000	0,047	-0,128
-214,782	74,845	0,071	-0,054
-213,767	800,000	0,059	-0,169
-212,752	55,169	-0,056	0,039
-211,738	31,259	-0,117	-0,073
-210,723	281,798	-0,076	0,098
-209,709	94,131	0,044	-0,036
-208,694	32,149	-0,091	-0,056
-207,679	61,099	-0,012	0,008
-206,665	-183,740	-0,091	0,001
-205,650	226,781	0,101	0,119
-204,636	-139,957	0,103	-0,008
-203,621	5,111	-0,077	0,041
-202,606	-55,417	0,063	-0,020
-201,592	800,000	0,055	-0,166
-200,577	180,966	0,097	-0,103
-199,563	-121,509	-0,048	-0,006
-198,548	201,214	0,088	0,097
-197,533	-200,000	0,041	0,132
-196,519	-97,629	-0,073	-0,014
-195,504	-33,161	0,038	-0,015
-194,490	204,451	0,018	-0,020
-193,475	550,141	-0,062	-0,108
-192,460	8,065	-0,032	-0,017
-191,446	-9,291	-0,041	0,020
-190,431	230,171	0,084	0,099
-189,417	43,786	0,061	0,041
-188,402	223,875	-0,067	0,078
-187,387	-200,000	0,011	-0,193
-186,373	800,000	-0,050	0,105
-185,358	800,000	-0,054	-0,130
-184,344	-200,000	-0,012	-0,095
-183,329	335,136	0,030	0,042
-182,315	-14,079	0,080	0,037
-181,300	-122,774	-0,160	0,018
-180,285	800,000	-0,090	-0,208
-179,271	130,320	-0,056	-0,052
-178,256	-200,000	-0,010	0,042
-177,242	800,000	-0,052	0,108
-176,227	-200,000	-0,008	-0,070
-175,212	56,936	-0,145	0,102
-174,198	800,000	0,046	-0,119
-173,183	800,000	-0,055	-0,167
-172,169	77,418	-0,100	-0,077
-171,154	800,000	-0,051	0,143
-170,139	-96,668	0,199	0,037
-169,125	161,443	-0,023	0,024
-168,110	800,000	0,034	0,070
-167,096	800,000	0,011	0,028
-166,081	91,764	-0,057	0,046
-165,066	24,983	-0,106	-0,063
-164,052	-200,000	0,015	-0,076
-163,037	800,000	-0,026	0,054
-162,023	800,000	-0,004	0,011
-161,008	-200,000	-0,012	-0,093
-159,993	79,191	-0,041	-0,032
-158,979	74,668	0,064	-0,049
-157,964	-95,860	-0,085	-0,016
-156,950	81,674	-0,016	-0,012
-155,935	111,860	0,065	-0,056
-154,920	-200,000	0,030	-0,144
-153,906	-20,803	0,113	0,050
-152,891	-143,999	0,089	-0,006
-151,877	-200,000	0,034	-0,137
-150,862	800,000	-0,062	-0,144
-149,847	-200,000	-0,005	0,125
-148,833	-46,415	0,116	0,041
-147,818	-22,702	0,048	0,021
-146,804	-2,483	0,071	-0,036
-145,789	-16,878	0,046	0,021
-144,775	-48,841	0,041	-0,014
-143,760	238,452	-0,065	0,078
-142,745	800,000	0,028	0,088
-141,731	-140,283	0,048	-0,004
-140,716	800,000	-0,067	0,157
-139,702	-155,225	0,120	0,006
-138,687	112,862	0,032	-0,028
-137,672	139,292	-0,025	-0,024
-136,658	-200,000	0,010	0,078
-135,643	-45,181	-0,009	0,003
-134,629	-60,695	0,088	0,027
-133,614	104,755	0,148	0,125
-132,599	-200,000	0,005	0,025
-131,585	668,731	0,019	-0,035
-130,570	-45,588	-0,030	-0,011
-129,556	47,820	0,052	-0,035
-128,541	-200,000	-0,038	-0,170
-127,526	-200,000	-0,014	-0,093
-126,512	583,273	-0,058	-0,102
-125,497	150,873	0,174	0,171
-124,483	-145,308	-0,114	-0,007
-123,468	800,000	-0,046	-0,106
-122,453	787,462	0,076	-0,151
-121,439	234,959	0,016	-0,019
-120,424	8,086	0,076	-0,041
-119,410	-32,674	0,101	-0,040
-118,395	642,733	0,078	-0,143
