DTS Sentinel unit serial number:	SN410029Multiplexer serial number:	ORYXHardware model number:	OX2-SRSoftware version number:	ORYX F/W v4,00 Oryx Data Collector v3.7.2.0data status	okinstallation	B5 Nyhavnadifferential loss correction	single-endedforward channel	channel 2reverse channel	N/Adate	2023/12/13time	16:22:13forward acquisition time	300,00reverse acquisition time	0,00gamma	499,1914k internal	0,3160k external	0,3160temperature offset calibration	1,0000default loss term (dB/km)	0,3820temperature slope calibration	1,0000multiplexer offset coefficient	1,0000multiplexer slope coefficient	1,0000fibre end	0,00T internal ref (°C)	14,79T ext. ref 1 (°C)	-2,02T ext. ref 2 (°C)	-2,16length (m)	temperature (°C)	Stokes	anti-Stokes-744,400	-111,337	0,157	-0,023
-743,385	40,255	-0,161	-0,106
-742,371	282,053	0,112	0,148
-741,356	-86,991	-0,287	0,064
-740,342	-139,720	0,175	0,013
-739,327	-103,640	-0,339	0,058
-738,312	512,908	0,035	0,061
-737,298	-122,749	-0,250	0,029
-736,283	800,000	0,044	-0,107
-735,269	17,620	-0,271	-0,158
-734,254	-3,156	0,109	0,056
-733,239	-29,466	-0,383	-0,161
-732,225	-62,841	0,187	0,057
-731,210	295,270	0,093	0,126
-730,196	272,818	-0,044	-0,058
-729,181	-22,532	-0,135	0,060
-728,167	28,939	0,054	0,034
-727,152	28,000	0,073	-0,045
-726,137	229,011	-0,072	-0,087
-725,123	270,544	-0,070	-0,091
-724,108	177,685	-0,096	-0,103
-723,094	-200,000	0,008	0,040
-722,079	34,732	-0,081	0,052
-721,064	-79,279	-0,072	-0,018
-720,050	3,791	0,048	0,026
-719,035	147,274	0,025	0,025
-718,021	-60,902	0,121	-0,037
-717,006	-94,293	-0,049	-0,010
-715,991	-200,000	-0,008	-0,082
-714,977	-200,000	0,016	-0,100
-713,962	-63,265	0,079	-0,024
-712,948	-52,411	0,087	-0,029
-711,933	-115,515	0,228	-0,031
-710,918	373,046	-0,019	0,028
-709,904	183,791	0,011	-0,011
-708,889	800,000	-0,061	-0,142
-707,875	-22,840	-0,054	0,024
-706,860	-152,258	-0,103	0,005
-705,845	-200,000	0,005	0,042
-704,831	97,556	-0,039	-0,033
-703,816	800,000	0,025	-0,080
-702,802	800,000	-0,036	0,115
-701,787	10,266	-0,141	0,079
-700,772	-71,665	-0,079	-0,022
-699,758	49,036	0,053	-0,036
-698,743	-200,000	0,002	-0,092
-697,729	-200,000	0,005	0,068
-696,714	45,560	0,012	-0,008
-695,699	283,934	0,051	-0,068
-694,685	800,000	0,037	-0,077
-693,670	37,789	-0,053	0,035
-692,656	-200,000	0,035	0,185
-691,641	-120,116	-0,033	0,004
-690,627	197,315	-0,083	0,093
-689,612	-108,132	0,080	-0,013
-688,597	-167,952	0,145	0,004
-687,583	26,891	-0,082	-0,051
-686,568	-200,000	-0,005	-0,159
-685,554	436,586	-0,058	-0,093
-684,539	-139,390	0,191	-0,015
-683,524	-144,706	0,075	-0,005
-682,510	-119,352	0,083	-0,010
-681,495	-200,000	0,004	-0,050
-680,481	-31,316	-0,112	0,046
-679,466	55,183	-0,086	-0,061
-678,451	800,000	-0,037	0,083
-677,437	234,714	0,034	0,042
-676,422	-200,000	-0,008	0,055
-675,408	20,918	-0,058	0,035
-674,393	99,702	-0,130	-0,111
-673,378	800,000	0,081	-0,204
-672,364	-28,215	-0,109	0,046
-671,349	59,982	-0,123	-0,089
-670,335	-200,000	-0,004	-0,103
-669,320	-144,445	0,091	-0,006
-668,305	800,000	0,069	-0,160
-667,291	-183,583	-0,173	0,002
-666,276	-149,575	-0,143	0,008
-665,262	198,691	-0,080	-0,090
-664,247	-70,787	0,017	-0,005
-663,232	324,360	-0,033	-0,046
-662,218	638,993	0,062	0,116
-661,203	68,741	-0,148	0,111
-660,189	-200,000	-0,018	0,080
-659,174	-101,864	-0,076	-0,013
-658,159	-200,000	0,005	-0,048
-657,145	278,532	-0,014	-0,018
-656,130	385,926	-0,005	-0,008
-655,116	166,134	0,088	0,092
-654,101	-39,018	0,105	-0,041
-653,086	-65,442	-0,058	-0,017
-652,072	-35,822	0,054	-0,021
-651,057	-147,665	-0,117	0,007
-650,043	-156,145	0,126	-0,006
-649,028	475,841	0,060	-0,100
-648,014	-200,000	-0,020	0,085
-646,999	-133,214	0,062	0,006
-645,984	800,000	-0,031	0,092
-644,970	-74,938	-0,091	0,024
-643,955	30,423	0,033	-0,021
-642,941	-164,652	-0,095	0,003
-641,926	31,606	0,087	-0,055
-640,911	-200,000	-0,014	-0,140
-639,897	162,859	0,114	0,118
-638,882	711,363	-0,032	0,062
-637,868	591,410	0,063	0,115
-636,853	800,000	-0,044	-0,100
-635,838	-200,000	0,037	-0,148
-634,824	-200,000	-0,008	-0,053
-633,809	-200,000	-0,001	0,048
-632,795	-200,000	0,015	0,079
-631,780	-80,252	0,015	0,004
-630,765	111,915	-0,023	-0,020
-629,751	-200,000	-0,009	-0,067
-628,736	-93,400	-0,011	-0,002
-627,722	-74,180	0,120	-0,032
-626,707	401,985	-0,023	-0,036
-625,692	-200,000	0,020	-0,167
-624,678	106,849	-0,113	-0,098
-623,663	800,000	0,019	0,050
-622,649	800,000	-0,011	0,028
-621,634	-200,000	0,063	-0,210
-620,619	2,140	-0,044	-0,023
-619,605	458,548	-0,029	0,047
-618,590	265,135	-0,147	0,189
-617,576	-177,323	-0,141	-0,003
-616,561	-200,000	-0,002	0,008
-615,546	172,329	0,084	0,088
-614,532	-200,000	0,003	-0,033
-613,517	501,147	-0,066	-0,112
-612,503	-200,000	0,030	0,122
-611,488	9,974	-0,056	-0,031
-610,474	-200,000	0,013	0,058
-609,459	-54,354	0,055	0,018
-608,444	304,012	-0,038	-0,051
-607,430	-200,000	0,013	-0,075
-606,415	398,991	-0,049	-0,075
-605,401	273,042	-0,099	0,128
-604,386	199,601	0,035	-0,039
-603,371	800,000	0,028	0,087
-602,357	448,863	-0,028	0,046
-601,342	-24,908	0,074	-0,032
-600,328	56,732	-0,061	-0,044
-599,313	-200,000	0,001	-0,010
-598,298	-125,887	0,025	-0,003
-597,284	46,298	0,102	-0,069
-596,269	510,041	-0,026	-0,044
-595,255	800,000	-0,073	0,168
-594,240	-105,171	0,035	0,006
-593,225	215,313	0,013	-0,015
-592,211	-104,701	-0,053	-0,009
-591,196	139,139	-0,047	-0,046
-590,182	-44,017	-0,147	0,054
-589,167	-200,000	0,033	-0,132
-588,152	-200,000	-0,004	0,135
-587,138	454,278	0,020	-0,033
-586,123	13,802	0,024	0,014
-585,109	-109,601	-0,135	0,021
-584,094	-200,000	-0,001	0,019
-583,079	4,912	0,082	0,044
-582,065	-120,864	-0,011	-0,001
-581,050	-200,000	-0,001	-0,126
-580,036	95,534	-0,082	-0,068
-579,021	-86,228	-0,082	-0,018
-578,006	167,673	0,045	0,047
-576,992	270,328	0,056	-0,073
-575,977	163,937	-0,009	-0,010
-574,963	104,752	0,060	0,051
-573,948	157,936	0,045	0,045
-572,934	107,913	0,143	0,124
-571,919	-200,000	-0,014	0,076
-570,904	-122,550	-0,065	0,008
-569,890	-63,315	-0,117	-0,035
-568,875	800,000	0,014	0,045
-567,861	-133,337	0,101	-0,009
-566,846	800,000	0,024	0,059
-565,831	800,000	0,047	0,151
-564,817	800,000	-0,066	-0,150
-563,802	-114,323	-0,044	-0,006
-562,788	210,878	-0,079	0,092
-561,773	-200,000	0,017	0,057
-560,758	-183,278	0,197	0,002
-559,744	-36,468	-0,039	-0,015
-558,729	-7,197	0,090	-0,045
-557,715	800,000	-0,044	-0,106
-556,700	28,919	-0,107	-0,066
-555,685	-200,000	0,007	-0,037
-554,671	-175,356	-0,205	-0,004
-553,656	-200,000	-0,007	0,087
-552,642	354,055	0,147	0,215
-551,627	8,582	-0,090	0,050
-550,612	457,636	-0,025	0,041
-549,598	800,000	-0,024	-0,064
-548,583	81,789	0,074	-0,058
-547,569	800,000	-0,033	0,104
-546,554	-200,000	0,019	0,079
-545,539	21,828	0,041	0,024
-544,525	8,872	-0,028	0,015
-543,510	34,959	-0,076	0,048
-542,496	-200,000	-0,025	0,103
-541,481	-64,280	0,102	0,030
-540,466	135,226	-0,105	-0,100
-539,452	59,875	0,138	0,099
-538,437	349,474	0,044	-0,064
-537,423	122,762	-0,067	0,061
-536,408	-3,411	-0,042	0,021
-535,393	44,464	-0,038	-0,026
-534,379	5,475	-0,058	0,031
-533,364	-200,000	0,025	0,086
-532,350	800,000	-0,039	0,093
-531,335	408,181	0,061	-0,094
-530,321	-200,000	0,009	-0,069
-529,306	-200,000	0,000	0,144
-528,291	-53,406	0,019	0,006
-527,277	-200,000	-0,007	-0,148
-526,262	-200,000	-0,016	-0,066
-525,248	69,137	-0,048	-0,036
-524,233	-23,055	0,031	0,013
-523,218	172,789	0,088	0,093
-522,204	-34,347	-0,095	-0,038
-521,189	800,000	-0,028	-0,090
-520,175	-46,495	-0,035	0,012
-519,160	800,000	-0,043	-0,121
-518,145	800,000	-0,028	0,088
-517,131	-167,143	0,155	0,005
-516,116	-200,000	-0,003	-0,079
-515,102	-90,961	-0,084	-0,017
-514,087	800,000	0,061	-0,163
-513,072	123,131	-0,064	0,059
-512,058	-200,000	0,006	0,037
-511,043	-12,958	0,081	0,038
-510,029	-200,000	0,004	-0,088
-509,014	378,621	-0,040	-0,059
-507,999	-200,000	-0,006	-0,033
-506,985	-74,187	-0,025	0,007
-505,970	800,000	0,035	0,106
-504,956	-89,908	-0,132	-0,028
-503,941	-140,821	0,064	-0,005
-502,926	115,000	0,096	0,085
-501,912	17,224	-0,048	0,028
-500,897	800,000	0,019	-0,050
-499,883	-200,000	-0,033	0,109
-498,868	-77,627	-0,215	0,054
-497,853	-23,249	-0,118	-0,052
-496,839	-103,655	-0,058	-0,010
-495,824	-0,787	0,104	-0,053
-494,810	-131,007	0,070	-0,007
-493,795	-132,172	-0,149	-0,014
-492,781	-22,800	-0,058	0,025
-491,766	-40,804	-0,138	0,052
-490,751	-200,000	0,054	-0,210
-489,737	-200,000	0,004	0,064
-488,722	-200,000	-0,060	0,202
-487,708	800,000	-0,029	0,078
-486,693	0,417	-0,153	0,080
-485,678	134,010	0,053	0,050
-484,664	-138,027	-0,106	0,009
-483,649	800,000	0,032	-0,097
-482,635	38,811	-0,108	0,070
-481,620	189,067	0,027	0,029
-480,605	459,914	-0,062	-0,101
-479,591	-66,455	0,112	-0,032
-478,576	121,353	0,053	0,048
-477,562	217,622	-0,038	-0,044
-476,547	7,217	-0,113	-0,061
-475,532	57,392	-0,033	0,023
-474,518	38,835	0,091	-0,059
-473,503	-200,000	-0,013	0,083
-472,489	-96,772	0,130	0,025
-471,474	-200,000	-0,064	0,208
-470,459	-160,557	-0,100	-0,004
-469,445	222,927	-0,005	0,006
-468,430	124,172	0,031	0,028
-467,416	-38,294	0,062	0,024
-466,401	98,097	0,080	0,067
-465,386	-65,655	0,111	-0,032
-464,372	83,132	-0,049	-0,039
-463,357	706,896	0,043	-0,083
-462,343	-200,000	0,000	-0,108
-461,328	800,000	-0,051	-0,120
-460,313	-56,384	0,045	-0,015
-459,299	-200,000	-0,035	0,167
-458,284	187,542	0,064	0,069
-457,270	-132,614	0,082	-0,008
-456,255	93,277	-0,092	0,076
-455,241	-159,935	0,058	-0,002
-454,226	-200,000	-0,027	-0,112
-453,211	15,860	-0,092	0,053
-452,197	84,827	0,103	-0,082
-451,182	-200,000	-0,040	-0,187
-450,168	319,710	0,074	-0,103
-449,153	4,822	0,147	0,078
-448,138	-200,000	0,003	-0,011
-447,124	-200,000	0,001	-0,050
-446,109	800,000	-0,021	-0,068
-445,095	-28,158	0,187	0,078
-444,080	-55,848	0,119	0,038
-443,065	-51,930	-0,036	0,012
-442,051	-18,152	0,046	-0,021
-441,036	-200,000	0,030	0,119
-440,022	226,220	-0,022	0,026
-439,007	272,986	0,067	0,086
-437,992	-59,427	0,083	0,026
-436,978	128,531	0,052	0,048
-435,963	191,167	-0,112	0,123
-434,949	-200,000	0,014	0,127
-433,934	800,000	-0,007	-0,015
-432,919	-200,000	0,009	-0,035
-431,905	-107,075	0,085	0,014
-430,890	800,000	0,023	-0,061
-429,876	649,808	0,098	0,184
-428,861	-84,241	0,064	0,015
-427,846	187,056	-0,054	0,059
-426,832	179,801	-0,065	0,070
-425,817	-189,391	0,055	-0,000
-424,803	67,121	0,080	-0,059
-423,788	-13,659	-0,090	-0,042
-422,773	49,468	0,069	0,047
-421,759	800,000	-0,044	0,092
-420,744	-200,000	0,016	0,119
-419,730	-99,080	-0,105	-0,019
-418,715	-200,000	0,023	0,096
-417,701	-200,000	0,017	-0,093
-416,686	61,772	0,055	-0,040
-415,671	56,094	0,067	-0,047
-414,657	3,364	0,070	-0,037
-413,642	800,000	0,025	-0,077
-412,628	800,000	0,038	-0,090
-411,613	327,452	-0,131	-0,183
-410,598	-100,315	-0,111	-0,020
-409,584	761,086	0,037	0,073
-408,569	-200,000	0,008	-0,064
-407,555	120,180	0,119	-0,107
-406,540	32,117	-0,046	-0,029
-405,525	-200,000	-0,019	-0,113
-404,511	800,000	-0,020	0,052
-403,496	800,000	0,041	-0,090
-402,482	-102,412	-0,098	-0,017
-401,467	-200,000	-0,018	-0,133
-400,452	63,852	-0,099	0,072
-399,438	800,000	-0,058	-0,153
-398,423	-200,000	0,005	0,056
-397,409	141,440	0,054	0,052
-396,394	119,693	-0,038	-0,034
-395,379	47,917	0,111	-0,076
-394,365	-200,000	-0,023	-0,088
-393,350	65,782	0,043	-0,031
-392,336	-200,000	-0,000	-0,021
-391,321	-124,400	-0,056	-0,006
-390,306	-110,875	-0,065	0,010
-389,292	800,000	0,037	-0,112
-388,277	-177,304	-0,032	-0,001
-387,263	-24,509	-0,116	-0,050
-386,248	-200,000	0,000	0,214
-385,233	161,808	-0,106	-0,108
-384,219	-60,475	0,048	-0,015
-383,204	-200,000	-0,003	0,059
-382,190	-200,000	-0,014	-0,115
-381,175	-200,000	0,006	0,070
-380,160	-117,900	-0,066	-0,008
-379,146	-200,000	-0,005	0,102
-378,131	-200,000	-0,016	0,110
-377,117	800,000	-0,036	0,110
-376,102	221,609	0,100	-0,117
-375,088	800,000	0,035	-0,111
-374,073	-200,000	-0,010	0,091
-373,058	59,611	0,025	0,018
-372,044	-132,153	-0,104	0,010
-371,029	91,809	0,072	0,058
-370,015	-0,452	0,048	-0,025
-369,000	800,000	-0,026	-0,058
-367,985	332,839	0,039	-0,055
-366,971	-200,000	0,010	-0,054
-365,956	52,506	-0,054	-0,037
-364,942	-200,000	-0,069	0,238
-363,927	243,695	0,061	0,075
-362,912	-200,000	-0,004	0,028
-361,898	-200,000	0,002	-0,109
-360,883	446,733	-0,036	-0,058
-359,869	55,440	-0,031	0,022
-358,854	36,051	-0,049	0,032
-357,839	-40,345	-0,090	-0,034
-356,825	-200,000	-0,022	-0,098
-355,810	-10,548	-0,039	0,019
-354,796	-61,829	0,122	-0,037
-353,781	382,114	0,065	-0,097
-352,766	-200,000	-0,003	0,026
-351,752	44,549	-0,175	-0,116
-350,737	-200,000	0,004	-0,045
-349,723	-130,228	0,144	-0,014
-348,708	452,070	-0,063	-0,101
-347,693	-54,719	0,050	0,016
-346,679	-33,987	-0,049	0,020
-345,664	101,986	-0,100	-0,085
-344,650	-116,561	0,080	-0,011
-343,635	-130,637	-0,112	0,011
-342,620	87,388	0,077	-0,062
-341,606	485,967	0,061	0,101
-340,591	-29,502	-0,038	-0,016
-339,577	303,472	-0,061	0,083
-338,562	-97,850	0,171	-0,032
-337,548	363,616	0,090	-0,131
-336,533	202,707	-0,102	0,115
-335,518	-106,748	-0,137	-0,022
-334,504	44,014	0,132	0,088
-333,489	-200,000	0,001	0,012
-332,475	632,321	0,021	-0,038
-331,460	366,410	-0,046	-0,067
-330,445	-200,000	0,030	-0,123
-329,431	-141,224	0,074	0,005
-328,416	-200,000	0,006	-0,038
-327,402	800,000	-0,017	-0,043
-326,387	562,984	0,075	-0,132
-325,372	3,890	-0,130	0,069
-324,358	118,645	0,048	0,043
-323,343	152,012	0,017	-0,017
-322,329	-200,000	0,009	0,126
-321,314	-180,898	-0,069	-0,001
-320,299	-138,074	0,089	0,007
-319,285	-200,000	-0,019	-0,073
-318,270	-125,367	-0,119	-0,013
-317,256	-200,000	-0,007	-0,027
-316,241	-134,963	-0,088	0,008
-315,226	-97,833	-0,066	0,012
-314,212	800,000	-0,067	0,183
-313,197	167,270	-0,109	-0,112
-312,183	-200,000	0,012	0,063
-311,168	-42,979	0,187	-0,068
-310,153	-119,679	-0,098	0,012
-309,139	49,177	-0,122	0,083
-308,124	74,104	0,021	0,016
-307,110	254,879	0,090	0,112
-306,095	-200,000	0,014	-0,048
-305,080	-200,000	-0,006	-0,041
-304,066	272,242	-0,090	0,116
-303,051	754,975	-0,062	0,122
-302,037	800,000	-0,064	0,152
-301,022	-200,000	-0,015	0,050
-300,008	195,644	0,046	0,050
-298,993	149,638	0,081	-0,079
-297,978	270,458	-0,015	0,019
-296,964	-200,000	-0,009	0,030
-295,949	-34,773	0,167	0,066
-294,935	-200,000	-0,003	-0,167
-293,920	714,657	0,057	-0,110
-292,905	489,898	0,070	0,116
-291,891	566,600	0,057	0,101
-290,876	-54,327	-0,035	0,011
-289,862	-200,000	-0,005	0,020
-288,847	215,910	0,025	0,029
-287,832	-200,000	0,040	-0,142
-286,818	-200,000	-0,032	-0,163
-285,803	-92,380	-0,114	0,023
-284,789	-106,045	0,006	0,001
-283,774	408,975	0,034	-0,052
-282,759	-46,832	0,022	-0,008
-281,745	-107,212	0,129	0,020
-280,730	231,503	0,051	-0,061
-279,716	638,794	-0,036	0,066
-278,701	657,293	0,053	0,099
-277,686	-20,970	0,096	0,042
-276,672	-200,000	-0,022	0,119
-275,657	-111,452	0,041	0,006
-274,643	230,488	0,068	0,081
-273,628	-53,058	-0,062	-0,021
-272,613	455,158	0,088	-0,142
-271,599	800,000	0,049	-0,106
-270,584	-92,180	0,038	0,008
-269,570	22,987	0,032	-0,019
-268,555	-200,000	-0,014	0,052
-267,540	800,000	0,022	0,057
-266,526	-200,000	-0,016	0,132
-265,511	0,229	-0,011	-0,006
-264,497	464,812	0,050	0,080
-263,482	361,548	-0,063	-0,092
-262,467	-200,000	-0,016	-0,052
-261,453	-114,793	0,081	0,011
-260,438	-200,000	-0,002	-0,018
-259,424	-173,539	0,039	0,001
-258,409	-111,114	-0,186	-0,027
-257,395	-108,427	0,062	-0,010
-256,380	187,778	0,047	0,051
-255,365	-14,139	0,125	0,058
-254,351	114,261	0,067	0,059
-253,336	-200,000	0,024	-0,137
-252,322	-200,000	-0,017	-0,081
-251,307	-161,063	-0,116	0,004
-250,292	-100,238	0,082	-0,015
-249,278	78,007	0,119	-0,092
-248,263	-200,000	-0,027	0,148
-247,249	0,786	0,034	-0,018
-246,234	597,303	-0,062	-0,111
-245,219	571,865	-0,029	-0,051
-244,205	33,898	-0,144	0,090
-243,190	153,159	0,032	-0,032
-242,176	-49,092	-0,102	0,035
-241,161	19,899	0,061	-0,035
-240,146	212,070	0,056	0,064
-239,132	-102,097	-0,064	0,011
-238,117	-200,000	-0,016	-0,116
-237,103	-200,000	-0,003	-0,062
-236,088	25,536	-0,034	-0,021
-235,073	160,886	0,114	0,115
-234,059	-200,000	-0,035	0,132
-233,044	182,167	0,065	0,069
-232,030	86,850	0,022	0,018
-231,015	124,391	0,119	0,108
-230,000	-89,630	-0,019	0,004
-228,986	23,548	0,016	-0,009
-227,971	800,000	0,026	0,081
-226,957	261,265	-0,104	0,130
-225,942	17,404	0,043	0,024
-224,927	-200,000	0,004	-0,119
-223,913	23,784	0,081	-0,048
-222,898	-200,000	-0,006	-0,115
-221,884	81,956	0,021	0,017
-220,869	539,380	0,043	-0,073
-219,855	26,648	-0,135	-0,081
-218,840	800,000	-0,047	0,100
-217,825	-26,095	-0,083	0,035
-216,811	258,025	0,031	-0,038
-215,796	-34,317	0,047	-0,019
-214,782	-19,678	0,070	-0,031
-213,767	800,000	0,053	0,132
-212,752	-2,824	0,060	-0,030
-211,738	-54,584	-0,032	-0,010
-210,723	131,094	-0,017	-0,015
-209,709	800,000	-0,034	-0,092
-208,694	170,634	-0,056	-0,058
-207,679	-200,000	0,016	-0,218
-206,665	63,221	-0,094	-0,068
-205,650	78,367	-0,080	0,062
-204,636	42,346	-0,134	0,088
-203,621	-200,000	0,016	0,080
-202,606	-35,236	-0,055	-0,022
-201,592	-12,053	-0,024	-0,011
-200,577	111,057	0,014	0,012
-199,563	-200,000	0,001	-0,104
-198,548	-200,000	-0,008	0,110
-197,533	-116,882	0,113	-0,015
-196,519	481,926	-0,035	0,058
-195,504	-58,901	-0,114	0,035
-194,490	524,279	-0,067	0,114
-193,475	800,000	-0,045	-0,109
-192,460	274,917	0,017	-0,022
-191,446	47,688	-0,044	0,029
-190,431	-102,799	-0,149	-0,025
-189,417	-122,483	0,057	-0,007
-188,402	800,000	-0,030	0,091
-187,387	92,297	-0,189	-0,154
-186,373	394,373	0,071	-0,107
-185,358	35,052	-0,110	-0,069
-184,344	35,424	0,057	0,036
-183,329	83,832	0,140	0,110
-182,315	8,474	0,045	0,024
-181,300	-200,000	-0,021	-0,069
-180,285	500,037	-0,024	-0,040
-179,271	-200,000	-0,002	-0,146
-178,256	-69,798	0,130	-0,036
-177,242	-76,862	-0,034	0,008
-176,227	166,174	-0,019	-0,019
-175,212	-9,266	0,055	-0,026
-174,198	219,380	0,060	0,070
-173,183	185,091	-0,063	-0,067
-172,169	-9,615	0,076	-0,036
-171,154	58,072	-0,046	-0,033
-170,139	-200,000	-0,007	-0,069
-169,125	-84,374	0,174	0,039
-168,110	219,874	0,086	0,100
-167,096	-200,000	-0,008	0,168
-166,081	-162,904	-0,081	0,003
-165,066	91,222	0,139	-0,112
-164,052	-17,745	-0,020	0,009
-163,037	-200,000	-0,003	0,033
-162,023	65,913	0,159	0,116
-161,008	43,775	0,039	-0,026
-159,993	-43,094	-0,097	-0,035
-158,979	800,000	0,035	-0,073
-157,964	52,468	0,063	-0,044
-156,950	-200,000	-0,003	0,027
-155,935	800,000	-0,016	0,033
-154,920	248,336	0,044	-0,053
-153,906	228,935	0,098	0,115
-152,891	23,732	0,052	0,031
-151,877	89,382	-0,149	0,119
-150,862	800,000	-0,044	-0,100
-149,847	22,727	-0,104	0,061
-148,833	-200,000	0,001	-0,049
-147,818	800,000	0,029	0,061
-146,804	800,000	0,072	0,217
-145,789	800,000	0,088	0,199
-144,775	-200,000	-0,030	0,117
-143,760	-200,000	-0,017	-0,108
-142,745	202,177	0,096	-0,107
-141,731	162,962	-0,110	-0,111
-140,716	-90,577	-0,057	-0,012
-139,702	-45,758	0,121	0,043
-138,687	184,266	0,066	0,071
-137,672	289,453	0,053	0,069
-136,658	104,679	-0,053	-0,045
-135,643	-75,593	-0,171	0,043
-134,629	-142,684	-0,072	0,005
-133,614	230,288	-0,079	0,094
-132,599	800,000	-0,068	0,166
-131,585	98,725	0,115	0,095
-130,570	-68,340	-0,107	0,030
-129,556	56,057	-0,080	-0,056
-128,541	-200,000	-0,021	-0,149
-127,526	-200,000	-0,001	0,090
-126,512	-102,003	0,109	0,019
-125,497	-200,000	-0,010	0,031
-124,483	330,477	-0,048	0,067
-123,468	322,935	-0,101	0,139
-122,453	-122,909	0,080	-0,009
-121,439	-66,738	0,088	0,025
-120,424	-83,164	-0,039	-0,009
-119,410	-161,151	0,058	0,002
