DTS Sentinel unit serial number:	SN410029Multiplexer serial number:	ORYXHardware model number:	OX2-SRSoftware version number:	ORYX F/W v4,00 Oryx Data Collector v3.7.2.0data status	okinstallation	B5 Nyhavnadifferential loss correction	single-endedforward channel	channel 2reverse channel	N/Adate	2023/12/13time	06:22:13forward acquisition time	300,00reverse acquisition time	0,00gamma	499,1914k internal	0,3160k external	0,3160temperature offset calibration	1,0000default loss term (dB/km)	0,3820temperature slope calibration	1,0000multiplexer offset coefficient	1,0000multiplexer slope coefficient	1,0000fibre end	0,00T internal ref (°C)	13,76T ext. ref 1 (°C)	-2,68T ext. ref 2 (°C)	-2,98length (m)	temperature (°C)	Stokes	anti-Stokes-744,400	-17,737	0,127	-0,058
-743,385	-106,187	-0,358	0,059
-742,371	120,372	0,156	0,142
-741,356	-55,959	-0,233	0,076
-740,342	51,047	0,206	0,144
-739,327	86,864	-0,264	0,214
-738,312	-119,344	0,190	0,024
-737,298	-39,447	-0,396	-0,152
-736,283	340,420	0,073	-0,106
-735,269	-157,531	-0,196	0,009
-734,254	-42,828	0,168	0,062
-733,239	-106,568	-0,443	-0,072
-732,225	-109,252	0,233	0,036
-731,210	-200,000	0,002	0,093
-730,196	79,858	-0,087	0,069
-729,181	-200,000	-0,020	-0,214
-728,167	-200,000	-0,011	-0,087
-727,152	23,921	0,047	0,028
-726,137	-200,000	-0,012	-0,142
-725,123	800,000	0,012	0,025
-724,108	-200,000	-0,009	-0,061
-723,094	-200,000	-0,007	-0,090
-722,079	333,057	-0,053	-0,075
-721,064	15,116	-0,008	-0,005
-720,050	-89,641	-0,045	0,010
-719,035	-200,000	-0,013	0,064
-718,021	-13,823	-0,152	-0,072
-717,006	-200,000	-0,020	-0,123
-715,991	2,852	-0,038	0,020
-714,977	-200,000	0,010	-0,220
-713,962	27,116	0,124	-0,076
-712,948	223,305	0,066	-0,078
-711,933	-200,000	-0,031	-0,101
-710,918	133,169	0,022	0,021
-709,904	-85,992	-0,096	0,022
-708,889	229,102	0,050	-0,060
-707,875	-94,374	-0,062	0,012
-706,860	-108,365	-0,071	0,011
-705,845	-103,523	0,113	0,019
-704,831	800,000	0,052	0,121
-703,816	-121,298	0,123	0,015
-702,802	-200,000	-0,043	0,000
-701,787	800,000	-0,010	-0,031
-700,772	-82,696	-0,198	0,047
-699,758	215,784	-0,082	0,096
-698,743	-86,748	0,191	0,043
-697,729	-200,000	0,025	-0,137
-696,714	405,219	0,090	0,140
-695,699	82,415	-0,085	-0,068
-694,685	-200,000	-0,030	-0,109
-693,670	422,455	-0,046	0,073
-692,656	-200,000	-0,002	0,036
-691,641	-200,000	0,022	-0,133
-690,627	800,000	-0,073	0,191
-689,612	512,826	0,033	0,058
-688,597	352,082	0,098	0,144
-687,583	-104,329	-0,191	0,032
-686,568	-200,000	-0,041	-0,171
-685,554	404,260	0,058	-0,091
-684,539	-57,749	0,094	0,030
-683,524	-200,000	0,017	0,083
-682,510	800,000	-0,021	0,061
-681,495	-5,107	-0,085	-0,043
-680,481	475,708	-0,024	0,040
-679,466	726,756	-0,047	-0,092
-678,451	-65,844	-0,017	-0,005
-677,437	-40,252	-0,141	0,054
-676,422	-111,822	-0,030	0,004
-675,408	215,251	0,130	0,152
-674,393	163,775	0,065	-0,068
-673,378	-200,000	0,002	-0,022
-672,364	-76,030	0,037	-0,009
-671,349	-142,926	-0,085	0,006
-670,335	-135,191	0,072	0,006
-669,320	66,841	-0,082	0,061
-668,305	800,000	0,031	0,067
-667,291	-200,000	0,030	0,143
-666,276	569,250	0,028	0,050
-665,262	173,193	-0,099	-0,105
-664,247	-200,000	-0,003	0,013
-663,232	-10,948	0,132	-0,064
-662,218	-200,000	-0,036	-0,127
-661,203	200,823	-0,086	0,097
-660,189	12,689	-0,091	0,051
-659,174	-200,000	-0,031	0,110
-658,159	37,418	0,012	-0,008
-657,145	104,670	-0,111	-0,096
-656,130	182,077	-0,100	0,109
-655,116	-200,000	0,009	-0,053
-654,101	-93,488	0,081	0,016
-653,086	11,044	0,045	0,025
-652,072	330,007	0,037	-0,052
-651,057	800,000	-0,074	-0,166
-650,043	263,925	-0,079	-0,101
-649,028	474,874	-0,063	-0,105
-648,014	-11,725	0,176	-0,085
-646,999	-112,894	-0,131	0,019
-645,984	800,000	-0,041	-0,100
-644,970	-200,000	-0,012	0,059
-643,955	-200,000	-0,012	-0,108
-642,941	10,213	-0,117	0,065
-641,926	198,535	0,124	-0,140
-640,911	96,883	-0,098	0,082
-639,897	148,047	-0,111	-0,110
-638,882	77,800	0,014	0,011
-637,868	800,000	-0,053	0,113
-636,853	33,771	-0,050	-0,032
-635,838	37,665	-0,046	0,030
-634,824	208,812	-0,005	0,005
-633,809	429,257	0,036	-0,058
-632,795	-178,107	0,175	0,003
-631,780	800,000	0,034	-0,093
-630,765	-200,000	0,000	0,080
-629,751	-200,000	0,045	-0,184
-628,736	174,429	-0,043	0,046
-627,722	-200,000	0,010	0,044
-626,707	65,357	0,118	-0,088
-625,692	-200,000	0,017	-0,075
-624,678	-169,537	-0,064	0,002
-623,663	800,000	0,011	0,030
-622,649	800,000	-0,008	0,022
-621,634	623,904	0,038	-0,071
-620,619	-141,166	0,036	-0,003
-619,605	-73,973	0,078	-0,021
-618,590	-9,160	0,063	0,031
-617,576	272,506	0,112	0,146
-616,561	-200,000	-0,007	-0,074
-615,546	-200,000	-0,017	0,078
-614,532	95,389	-0,083	-0,069
-613,517	-86,826	0,022	0,005
-612,503	-160,998	-0,085	-0,003
-611,488	800,000	-0,032	-0,078
-610,474	-89,118	-0,133	0,029
-609,459	-17,056	0,161	-0,074
-608,444	-200,000	-0,019	-0,069
-607,430	-200,000	0,015	0,055
-606,415	-59,519	-0,086	0,027
-605,401	336,230	0,033	-0,048
-604,386	173,770	0,037	-0,040
-603,371	-158,455	0,137	0,006
-602,357	12,994	0,022	-0,012
-601,342	-149,480	0,063	-0,004
-600,328	800,000	-0,036	0,101
-599,313	-15,286	0,068	-0,032
-598,298	-200,000	-0,015	0,054
-597,284	800,000	-0,016	-0,043
-596,269	-200,000	0,010	0,032
-595,255	-200,000	-0,035	0,155
-594,240	-21,502	0,039	0,018
-593,225	30,090	-0,095	-0,059
-592,211	-200,000	0,060	-0,241
-591,196	800,000	-0,040	-0,122
-590,182	-200,000	0,026	-0,091
-589,167	-200,000	-0,024	-0,093
-588,152	658,443	-0,046	0,088
-587,138	-200,000	0,001	0,016
-586,123	-134,426	-0,097	0,009
-585,109	-200,000	0,032	-0,129
-584,094	-151,197	-0,085	0,005
-583,079	-60,582	0,231	-0,071
-582,065	800,000	0,028	0,061
-581,050	-200,000	0,008	0,142
-580,036	-146,598	0,160	-0,010
-579,021	59,246	-0,088	0,064
-578,006	213,467	0,035	-0,041
-576,992	-200,000	-0,000	0,096
-575,977	800,000	-0,013	0,031
-574,963	295,684	0,071	-0,095
-573,948	181,785	-0,032	0,035
-572,934	198,947	-0,026	0,030
-571,919	451,956	-0,075	0,123
-570,904	800,000	-0,022	0,071
-569,890	-200,000	-0,046	-0,189
-568,875	78,604	-0,065	0,051
-567,861	412,806	-0,039	0,060
-566,846	7,632	-0,048	-0,026
-565,831	25,474	-0,052	-0,032
-564,817	-124,489	0,160	0,018
-563,802	-75,662	0,127	-0,033
-562,788	549,046	-0,085	-0,149
-561,773	96,620	0,045	0,038
-560,758	-2,682	-0,127	0,065
-559,744	275,603	0,065	0,084
-558,729	353,419	-0,062	0,090
-557,715	-19,937	0,046	0,021
-556,700	-3,130	0,014	-0,007
-555,685	272,920	0,070	-0,091
-554,671	110,578	-0,029	0,025
-553,656	10,981	0,102	0,057
-552,642	406,270	0,087	-0,134
-551,627	-200,000	0,007	0,068
-550,612	-200,000	-0,006	0,028
-549,598	-180,527	0,048	-0,001
-548,583	112,851	0,104	-0,092
-547,569	800,000	-0,023	0,068
-546,554	712,617	0,044	0,085
-545,539	-27,811	-0,137	-0,058
-544,525	-84,581	0,049	-0,011
-543,510	-13,429	-0,064	-0,030
-542,496	-11,080	-0,107	-0,051
-541,481	800,000	-0,083	-0,178
-540,466	122,555	-0,091	0,083
-539,452	288,610	0,028	-0,037
-538,437	-200,000	-0,000	-0,015
-537,423	-200,000	0,002	0,051
-536,408	800,000	0,040	-0,098
-535,393	-110,128	-0,185	0,028
-534,379	-200,000	-0,040	-0,140
-533,364	-100,535	0,138	-0,025
-532,350	-21,903	-0,028	-0,012
-531,335	16,246	0,097	-0,056
-530,321	178,853	-0,079	0,085
-529,306	-200,000	0,009	0,032
-528,291	-200,000	-0,010	0,093
-527,277	338,443	0,044	0,063
-526,262	-200,000	0,011	-0,068
-525,248	-200,000	-0,017	-0,091
-524,233	-200,000	0,002	-0,134
-523,218	-68,839	-0,046	0,013
-522,204	231,873	0,030	0,036
-521,189	99,029	-0,011	0,010
-520,175	-44,864	0,042	-0,015
-519,160	-13,525	0,033	0,015
-518,145	800,000	0,049	-0,131
-517,131	-200,000	-0,009	0,050
-516,116	20,880	-0,101	-0,060
-515,102	-123,080	0,058	0,007
-514,087	-32,216	-0,074	-0,030
-513,072	-200,000	0,033	-0,122
-512,058	-172,923	-0,097	0,002
-511,043	-200,000	-0,006	-0,028
-510,029	-184,939	0,143	0,002
-509,014	-200,000	-0,016	0,057
-507,999	-200,000	-0,002	-0,094
-506,985	-200,000	0,006	-0,033
-505,970	-141,714	-0,124	0,009
-504,956	55,351	0,018	0,013
-503,941	-200,000	0,046	-0,161
-502,926	270,280	0,080	-0,103
-501,912	800,000	-0,052	0,118
-500,897	6,286	0,042	-0,023
-499,883	-200,000	-0,019	-0,149
-498,868	34,599	0,013	0,008
-497,853	393,474	-0,107	0,162
-496,839	-123,662	-0,154	0,018
-495,824	63,507	0,137	0,100
-494,810	13,415	0,029	0,016
-493,795	-179,854	0,147	0,002
-492,781	157,080	0,083	0,084
-491,766	-0,275	0,056	0,029
-490,751	800,000	-0,037	-0,084
-489,737	542,046	0,037	-0,064
-488,722	-200,000	0,026	0,122
-487,708	3,218	-0,055	0,029
-486,693	-112,741	0,186	0,027
-485,678	-200,000	-0,002	-0,027
-484,664	347,636	-0,060	0,087
-483,649	-200,000	0,020	0,093
-482,635	-3,770	-0,106	-0,053
-481,620	-139,322	0,122	-0,009
-480,605	134,942	0,047	0,044
-479,591	-200,000	-0,006	-0,106
-478,576	257,459	0,049	0,062
-477,562	719,856	-0,035	0,068
-476,547	-17,923	-0,098	-0,044
-475,532	113,003	-0,110	-0,098
-474,518	23,755	0,115	-0,069
-473,503	-200,000	0,032	0,111
-472,489	4,714	0,094	-0,050
-471,474	800,000	-0,010	-0,025
-470,459	-183,537	0,022	0,000
-469,445	-169,985	0,064	-0,002
-468,430	-200,000	-0,020	-0,093
-467,416	104,572	-0,040	-0,035
-466,401	-64,925	-0,124	-0,036
-465,386	-200,000	0,016	0,095
-464,372	-200,000	0,007	0,064
-463,357	-171,722	-0,116	-0,003
-462,343	-6,917	-0,104	-0,051
-461,328	4,275	0,079	-0,042
-460,313	78,777	-0,112	0,087
-459,299	-65,758	0,151	0,044
-458,284	18,014	0,197	0,114
-457,270	-200,000	0,087	0,000
-456,255	154,606	-0,046	0,046
-455,241	-200,000	0,020	-0,078
-454,226	128,034	0,064	-0,060
-453,211	-200,000	0,003	0,068
-452,197	-130,751	-0,106	0,010
-451,182	-49,994	0,045	0,015
-450,168	319,126	-0,036	0,050
-449,153	-61,762	0,072	-0,022
-448,138	38,783	0,088	0,057
-447,124	-200,000	-0,184	0,001
-446,109	131,059	0,069	-0,065
-445,095	-200,000	-0,015	-0,164
-444,080	-48,088	0,177	-0,062
-443,065	87,194	0,068	0,055
-442,051	-81,568	-0,142	0,034
-441,036	-131,126	-0,078	0,007
-440,022	-200,000	0,004	0,049
-439,007	24,044	0,102	-0,061
-437,992	-200,000	-0,014	-0,060
-436,978	-109,013	0,036	-0,006
-435,963	58,729	0,107	0,076
-434,949	800,000	-0,061	0,158
-433,934	294,289	-0,089	-0,118
-432,919	303,197	0,027	0,036
-431,905	-124,394	0,072	-0,008
-430,890	-44,136	-0,084	-0,031
-429,876	316,029	-0,061	0,085
-428,861	411,313	0,059	0,091
-427,846	-2,059	0,072	0,037
-426,832	25,302	0,042	0,025
-425,817	319,523	-0,021	0,029
-424,803	-11,745	-0,091	-0,043
-423,788	246,146	-0,037	0,046
-422,773	243,725	-0,084	0,103
-421,759	617,961	0,014	-0,025
-420,744	-2,480	-0,090	-0,046
-419,730	30,724	0,019	0,012
-418,715	36,024	0,045	0,029
-417,701	-200,000	0,006	-0,111
-416,686	-93,652	-0,127	0,025
-415,671	800,000	-0,052	0,122
-414,657	228,929	-0,084	0,099
-413,642	-11,881	-0,061	0,029
-412,628	-200,000	0,001	0,039
-411,613	315,733	-0,129	-0,177
-410,598	800,000	0,043	0,126
-409,584	310,469	-0,057	-0,078
-408,569	496,541	0,029	0,049
-407,555	377,685	-0,106	0,158
-406,540	131,423	-0,052	0,048
-405,525	-85,247	-0,129	0,029
-404,511	-54,232	-0,111	-0,036
-403,496	-170,790	0,064	-0,002
-402,482	-200,000	0,004	0,026
-401,467	-7,983	0,180	0,088
-400,452	-36,445	0,139	-0,054
-399,438	-200,000	-0,006	-0,048
-398,423	461,913	0,050	0,081
-397,409	-129,613	0,030	-0,003
-396,394	17,741	-0,068	0,039
-395,379	-143,972	0,059	-0,004
-394,365	-200,000	0,010	0,084
-393,350	108,886	0,125	0,108
-392,336	-200,000	0,029	0,110
-391,321	23,817	-0,115	-0,069
-390,306	27,676	-0,139	-0,085
-389,292	14,031	0,058	-0,033
-388,277	17,157	-0,103	0,059
-387,263	-200,000	-0,016	0,112
-386,248	-41,944	0,071	-0,026
-385,233	-200,000	-0,005	-0,047
-384,219	-200,000	-0,004	-0,040
-383,204	139,846	-0,103	-0,099
-382,190	574,306	-0,026	0,046
-381,175	-75,496	0,092	0,024
-380,160	-65,781	0,143	-0,041
-379,146	800,000	0,022	0,057
-378,131	800,000	-0,007	-0,018
-377,117	253,740	-0,059	0,074
-376,102	86,928	-0,139	0,112
-375,088	-179,910	-0,111	-0,002
-374,073	-200,000	-0,008	-0,100
-373,058	472,858	0,020	-0,034
-372,044	-50,599	0,086	0,029
-371,029	110,372	0,012	-0,011
-370,015	113,479	0,056	-0,050
-369,000	-200,000	0,027	0,126
-367,985	-75,430	-0,095	0,024
-366,971	-200,000	0,007	-0,096
-365,956	-200,000	-0,025	0,098
-364,942	150,501	0,046	0,045
-363,927	-85,900	0,182	0,040
-362,912	534,668	0,069	0,119
-361,898	-34,634	-0,192	-0,076
-360,883	800,000	0,035	-0,103
-359,869	-13,038	-0,087	0,041
-358,854	-200,000	0,018	0,069
-357,839	110,626	0,121	0,105
-356,825	-97,741	0,075	0,014
-355,810	-200,000	-0,023	0,090
-354,796	-107,481	-0,096	-0,015
-353,781	-34,778	-0,090	-0,035
-352,766	46,679	-0,028	0,019
-351,752	800,000	0,035	0,074
-350,737	-200,000	-0,023	0,000
-349,723	22,082	0,060	-0,036
-348,708	-200,000	0,008	-0,055
-347,693	228,258	0,036	-0,043
-346,679	158,259	-0,073	-0,073
-345,664	800,000	-0,046	0,094
-344,650	603,867	-0,042	0,076
-343,635	442,789	0,068	0,109
-342,620	310,975	0,043	0,059
-341,606	800,000	0,050	0,119
-340,591	800,000	-0,051	0,124
-339,577	102,432	-0,082	0,070
-338,562	-200,000	-0,005	0,062
-337,548	-200,000	0,011	0,055
-336,533	-14,890	-0,125	0,058
-335,518	659,838	0,050	0,094
-334,504	-46,862	0,154	0,054
-333,489	-200,000	0,000	0,075
-332,475	71,189	-0,064	-0,048
-331,460	45,502	-0,037	0,025
-330,445	-200,000	0,046	0,155
-329,431	-95,673	-0,046	0,009
-328,416	-59,313	0,174	-0,054
-327,402	96,712	-0,015	0,012
-326,387	519,233	0,010	-0,018
-325,372	529,609	-0,053	-0,091
-324,358	-109,018	0,068	-0,010
-323,343	-200,000	-0,045	-0,149
-322,329	196,126	0,010	0,011
-321,314	63,507	0,091	0,066
-320,299	121,098	0,056	0,050
-319,285	-200,000	0,001	0,140
-318,270	800,000	0,069	-0,154
-317,256	-200,000	0,008	0,093
-316,241	17,424	0,009	0,005
-315,226	270,369	0,049	0,062
-314,212	-127,529	0,123	-0,013
-313,197	-55,905	0,038	-0,012
-312,183	108,711	0,019	-0,016
-311,168	426,824	-0,031	-0,049
-310,153	199,870	0,059	0,066
-309,139	-10,474	-0,132	0,063
-308,124	-200,000	0,013	0,042
-307,110	-135,841	0,040	0,003
-306,095	350,358	0,062	0,089
-305,080	-200,000	0,003	-0,053
-304,066	422,099	-0,045	-0,070
-303,051	-200,000	0,013	0,079
-302,037	-88,677	0,028	-0,006
-301,022	800,000	-0,030	0,086
-300,008	389,071	-0,003	0,005
-298,993	-151,373	-0,079	0,004
-297,978	182,112	0,112	0,119
-296,964	-200,000	0,010	-0,130
-295,949	800,000	-0,027	-0,064
-294,935	-200,000	0,043	-0,234
-293,920	-125,214	-0,057	0,006
-292,905	-200,000	-0,020	-0,152
-291,891	142,709	0,059	0,057
-290,876	545,495	0,022	-0,038
-289,862	81,984	0,080	-0,063
-288,847	429,828	0,035	0,055
-287,832	-49,773	-0,024	-0,008
-286,818	-200,000	0,021	-0,119
-285,803	800,000	-0,046	-0,095
-284,789	-62,541	0,144	0,043
-283,774	-200,000	-0,015	-0,070
-282,759	493,379	-0,057	0,095
-281,745	-91,113	0,049	0,010
-280,730	728,481	0,051	-0,099
-279,716	-200,000	-0,005	-0,016
-278,701	-16,072	0,057	0,026
-277,686	800,000	-0,002	-0,006
-276,672	567,587	-0,042	0,074
-275,657	55,429	-0,127	0,089
-274,643	-200,000	0,006	-0,024
-273,628	-200,000	0,010	-0,197
-272,613	-96,380	-0,154	-0,029
-271,599	-200,000	-0,022	0,076
-270,584	-17,625	0,099	-0,045
-269,570	85,677	-0,079	0,062
-268,555	-52,191	-0,111	-0,037
-267,540	-63,981	-0,046	0,013
-266,526	223,517	-0,030	0,035
-265,511	-200,000	-0,013	0,079
-264,497	-83,985	0,067	0,015
-263,482	-69,800	-0,059	-0,016
-262,467	-67,736	0,059	0,017
-261,453	-200,000	0,010	0,048
-260,438	-200,000	-0,061	-0,196
-259,424	-76,764	-0,051	-0,013
-258,409	38,924	0,037	-0,024
-257,395	56,740	-0,112	0,079
-256,380	254,365	-0,081	0,101
-255,365	800,000	0,014	-0,040
-254,351	172,695	0,067	0,070
-253,336	-200,000	0,001	-0,101
-252,322	360,280	-0,034	0,050
-251,307	-200,000	0,004	0,081
-250,292	41,369	0,136	0,089
-249,278	-159,269	0,153	-0,006
-248,263	284,015	0,040	-0,053
-247,249	-200,000	0,008	-0,069
-246,234	-200,000	-0,001	0,117
-245,219	-11,613	-0,158	-0,075
-244,205	108,757	-0,109	0,094
-243,190	99,725	0,097	0,081
-242,176	164,041	0,029	0,029
-241,161	112,904	0,024	0,021
-240,146	-165,582	-0,161	0,005
-239,132	-200,000	0,003	-0,078
-238,117	568,021	-0,054	-0,095
-237,103	-80,703	-0,067	0,016
-236,088	511,671	0,084	-0,142
-235,073	-200,000	0,018	-0,062
-234,059	13,400	0,041	-0,023
-233,044	-12,867	0,038	-0,018
-232,030	-200,000	0,006	-0,034
-231,015	800,000	-0,009	0,028
-230,000	210,748	-0,113	-0,128
-228,986	-38,413	-0,138	-0,053
-227,971	-120,471	0,136	-0,016
-226,957	800,000	-0,031	-0,081
-225,942	-38,008	0,101	0,039
-224,927	-200,000	-0,019	0,070
-223,913	74,275	-0,076	0,058
-222,898	-73,033	0,096	0,025
-221,884	467,059	-0,100	-0,162
-220,869	277,234	0,011	-0,014
-219,855	-111,866	0,130	-0,019
-218,840	-56,115	0,035	-0,011
-217,825	466,617	0,085	0,138
-216,811	-60,150	-0,094	0,029
-215,796	-200,000	0,014	0,112
-214,782	-164,840	0,094	-0,003
-213,767	-200,000	-0,006	-0,028
-212,752	-8,402	0,122	0,059
-211,738	-200,000	0,005	0,067
-210,723	-200,000	0,005	0,067
-209,709	-200,000	-0,006	0,072
-208,694	37,104	-0,167	-0,107
-207,679	225,956	0,099	-0,117
-206,665	800,000	-0,021	-0,052
-205,650	506,826	0,066	0,110
-204,636	128,078	0,086	0,079
-203,621	-71,230	0,084	-0,023
-202,606	-200,000	0,016	-0,071
-201,592	-200,000	0,002	-0,099
-200,577	-117,635	0,124	0,016
-199,563	-200,000	-0,002	0,122
-198,548	19,309	0,018	-0,010
-197,533	-200,000	0,001	0,114
-196,519	119,234	0,029	-0,026
-195,504	691,089	-0,058	-0,109
-194,490	-64,611	-0,038	-0,011
-193,475	-200,000	-0,007	-0,061
-192,460	382,481	-0,060	0,090
-191,446	-10,527	0,036	0,017
-190,431	124,321	-0,048	0,043
-189,417	730,391	-0,025	0,049
-188,402	68,431	-0,099	-0,073
-187,387	398,882	-0,042	-0,064
-186,373	160,201	0,137	-0,138
-185,358	86,374	-0,094	-0,074
-184,344	268,980	-0,098	-0,124
-183,329	-200,000	0,011	-0,068
-182,315	-39,774	-0,135	0,051
-181,300	800,000	-0,046	0,136
-180,285	-87,177	0,097	-0,021
-179,271	21,157	-0,078	-0,045
-178,256	-24,177	-0,104	-0,045
-177,242	-29,513	-0,052	0,021
-176,227	800,000	0,015	0,032
-175,212	572,742	-0,060	0,106
-174,198	-78,779	-0,085	0,021
-173,183	-118,315	-0,085	-0,011
-172,169	77,095	0,030	0,023
-171,154	373,744	0,085	-0,125
-170,139	800,000	-0,044	-0,135
-169,125	-101,411	0,010	0,002
-168,110	-42,177	-0,075	-0,027
-167,096	-72,276	-0,107	0,028
-166,081	800,000	-0,015	-0,042
-165,066	147,239	-0,076	0,074
-164,052	800,000	-0,018	-0,046
-163,037	392,489	0,091	0,137
-162,023	-23,146	0,076	0,033
-161,008	-113,705	-0,089	0,012
-159,993	119,328	-0,062	-0,055
-158,979	-106,862	-0,102	-0,016
-157,964	309,946	0,067	-0,090
-156,950	-200,000	-0,002	-0,088
-155,935	-91,013	0,087	-0,018
-154,920	-71,938	-0,102	-0,027
-153,906	-148,309	0,081	-0,005
-152,891	-200,000	-0,044	-0,152
-151,877	-141,315	0,008	-0,001
-150,862	318,536	-0,067	-0,091
-149,847	593,452	-0,036	-0,063
-148,833	108,037	0,020	0,017
-147,818	-200,000	0,012	0,089
-146,804	69,433	-0,048	-0,035
-145,789	764,112	-0,051	-0,101
-144,775	-200,000	0,003	-0,020
-143,760	201,406	0,040	-0,044
-142,745	-1,608	0,096	0,049
-141,731	10,026	0,044	-0,024
-140,716	-4,189	0,162	0,081
-139,702	-151,833	0,074	0,004
-138,687	58,865	-0,096	-0,068
-137,672	17,521	0,066	-0,038
-136,658	386,639	-0,114	-0,170
-135,643	800,000	-0,086	-0,174
-134,629	121,626	-0,102	-0,091
-133,614	333,239	0,035	-0,049
-132,599	379,087	0,085	0,125
-131,585	-121,262	0,025	0,003
-130,570	27,857	-0,030	-0,018
-129,556	-200,000	0,006	0,106
-128,541	294,427	-0,068	0,090
-127,526	-123,818	-0,153	0,017
-126,512	-200,000	0,029	-0,136
-125,497	-40,637	0,168	0,062
-124,483	560,096	0,067	-0,117
-123,468	469,284	0,075	-0,122
-122,453	-200,000	0,037	0,129
-121,439	385,821	0,044	0,066
-120,424	177,853	0,042	-0,044
-119,410	-126,769	0,196	-0,021
