DTS Sentinel unit serial number:	SN410029Multiplexer serial number:	ORYXHardware model number:	OX2-SRSoftware version number:	ORYX F/W v4,00 Oryx Data Collector v3.7.2.0data status	okinstallation	B5 Nyhavnadifferential loss correction	single-endedforward channel	channel 2reverse channel	N/Adate	2023/12/11time	19:57:13forward acquisition time	300,00reverse acquisition time	0,00gamma	499,1914k internal	0,3158k external	0,3158temperature offset calibration	1,0000default loss term (dB/km)	0,3820temperature slope calibration	1,0000multiplexer offset coefficient	1,0000multiplexer slope coefficient	1,0000fibre end	0,00T internal ref (°C)	15,82T ext. ref 1 (°C)	0,06T ext. ref 2 (°C)	-0,18length (m)	temperature (°C)	Stokes	anti-Stokes-744,400	-200,000	0,006	-0,047
-743,385	-65,609	-0,216	0,063
-742,371	101,728	0,078	0,067
-741,356	-110,212	-0,277	-0,042
-740,342	95,850	0,062	-0,052
-739,327	-46,221	-0,226	-0,082
-738,312	-39,971	0,115	-0,044
-737,298	-113,597	-0,295	0,042
-736,283	18,480	0,048	-0,028
-735,269	81,280	-0,192	-0,153
-734,254	-96,036	0,148	-0,029
-733,239	-36,008	-0,560	-0,222
-732,225	-68,894	0,148	-0,042
-731,210	-200,000	0,050	0,185
-730,196	464,221	0,065	-0,107
-729,181	800,000	-0,022	-0,059
-728,167	-138,904	-0,095	-0,008
-727,152	146,750	0,107	-0,106
-726,137	198,145	0,120	-0,135
-725,123	-200,000	-0,014	-0,057
-724,108	800,000	0,028	-0,082
-723,094	-200,000	0,003	-0,069
-722,079	800,000	-0,026	0,085
-721,064	-200,000	0,001	0,007
-720,050	-200,000	-0,016	-0,056
-719,035	-5,034	-0,081	0,041
-718,021	160,293	-0,077	-0,079
-717,006	79,251	-0,088	-0,069
-715,991	-200,000	0,026	-0,109
-714,977	800,000	0,025	-0,055
-713,962	49,876	-0,118	0,082
-712,948	40,207	0,140	0,092
-711,933	280,616	-0,140	-0,185
-710,918	-200,000	0,037	0,155
-709,904	29,678	-0,097	-0,061
-708,889	-200,000	0,026	0,137
-707,875	56,516	-0,113	-0,081
-706,860	222,540	0,032	0,038
-705,845	249,945	0,093	-0,117
-704,831	-200,000	0,026	0,110
-703,816	120,492	-0,044	-0,040
-702,802	117,573	-0,046	-0,041
-701,787	-200,000	-0,018	-0,078
-700,772	109,777	0,123	-0,109
-699,758	-200,000	0,015	-0,178
-698,743	179,394	0,033	0,036
-697,729	88,939	0,126	-0,103
-696,714	800,000	0,017	0,047
-695,699	19,042	-0,026	0,015
-694,685	800,000	0,035	0,083
-693,670	-200,000	-0,016	-0,165
-692,656	800,000	-0,047	-0,101
-691,641	-2,232	0,125	0,064
-690,627	-200,000	0,018	-0,085
-689,612	-200,000	-0,019	-0,067
-688,597	-200,000	-0,012	-0,094
-687,583	-200,000	-0,016	-0,133
-686,568	100,427	0,128	-0,109
-685,554	334,089	0,052	0,074
-684,539	-200,000	0,009	0,101
-683,524	156,944	0,064	0,065
-682,510	-200,000	0,019	0,076
-681,495	800,000	0,008	-0,019
-680,481	-95,961	-0,092	0,018
-679,466	800,000	0,041	-0,088
-678,451	-73,931	-0,027	-0,007
-677,437	336,325	0,056	-0,081
-676,422	46,536	0,069	0,047
-675,408	34,496	0,075	0,048
-674,393	-57,235	-0,139	0,045
-673,378	385,547	0,048	-0,073
-672,364	478,892	0,056	-0,093
-671,349	-38,390	-0,054	0,021
-670,335	155,175	-0,110	-0,111
-669,320	-50,606	0,101	-0,035
-668,305	-169,253	0,054	-0,001
-667,291	73,891	-0,114	-0,088
-666,276	105,059	0,023	0,020
-665,262	272,122	-0,027	-0,036
-664,247	748,785	-0,050	-0,099
-663,232	-179,760	0,123	-0,002
-662,218	800,000	0,052	-0,107
-661,203	205,584	-0,053	-0,060
-660,189	191,952	0,024	-0,026
-659,174	800,000	-0,018	-0,047
-658,159	800,000	-0,056	-0,172
-657,145	460,486	-0,154	-0,253
-656,130	-10,535	-0,145	0,070
-655,116	800,000	0,084	0,186
-654,101	-72,110	0,104	-0,028
-653,086	800,000	0,030	0,077
-652,072	-46,910	-0,068	0,024
-651,057	-40,350	-0,127	-0,048
-650,043	193,599	0,119	-0,133
-649,028	380,650	-0,024	-0,036
-648,014	203,618	0,051	0,058
-646,999	-79,648	0,139	0,034
-645,984	1,860	-0,169	-0,089
-644,970	800,000	-0,024	-0,056
-643,955	-200,000	0,008	-0,061
-642,941	-200,000	-0,014	-0,258
-641,926	-111,142	-0,100	-0,015
-640,911	-200,000	-0,003	-0,024
-639,897	-79,332	0,099	-0,024
-638,882	-200,000	-0,032	0,116
-637,868	-102,554	-0,117	-0,020
-636,853	334,704	0,046	0,065
-635,838	621,475	-0,051	0,094
-634,824	-74,420	-0,078	-0,020
-633,809	42,125	-0,065	-0,043
-632,795	682,427	0,045	-0,087
-631,780	339,690	0,099	0,141
-630,765	-130,688	-0,118	-0,012
-629,751	311,063	-0,070	-0,097
-628,736	-200,000	0,030	-0,123
-627,722	-3,117	-0,178	-0,091
-626,707	-200,000	-0,018	-0,097
-625,692	88,555	0,043	0,035
-624,678	-42,212	0,081	0,030
-623,663	-200,000	0,011	-0,117
-622,649	-200,000	-0,004	-0,024
-621,634	334,824	-0,076	0,108
-620,619	717,437	0,055	0,108
-619,605	-200,000	0,002	0,045
-618,590	-75,790	-0,031	0,008
-617,576	49,015	0,148	-0,102
-616,561	-32,711	-0,084	0,034
-615,546	-96,816	-0,005	0,001
-614,532	-16,753	-0,130	-0,060
-613,517	-21,174	-0,085	0,038
-612,503	-136,023	0,122	-0,010
-611,488	680,923	0,033	-0,064
-610,474	-56,894	-0,056	-0,018
-609,459	281,265	-0,009	0,012
-608,444	-118,742	-0,209	-0,027
-607,430	800,000	-0,052	-0,166
-606,415	225,378	-0,106	0,126
-605,401	25,764	-0,044	-0,027
-604,386	800,000	-0,022	0,067
-603,371	-92,106	0,141	0,029
-602,357	-200,000	0,004	-0,058
-601,342	171,633	-0,083	-0,087
-600,328	-200,000	0,027	-0,107
-599,313	-196,267	-0,075	-0,000
-598,298	800,000	0,038	0,083
-597,284	-98,353	0,058	0,011
-596,269	-177,679	0,064	0,001
-595,255	125,857	0,070	-0,065
-594,240	-144,499	0,064	-0,004
-593,225	-46,342	0,062	-0,022
-592,211	800,000	0,032	-0,097
-591,196	-200,000	-0,018	0,189
-590,182	193,541	-0,063	0,070
-589,167	-200,000	0,032	0,128
-588,152	578,770	0,051	0,093
-587,138	91,380	-0,061	0,050
-586,123	187,776	0,077	0,085
-585,109	50,939	-0,166	-0,115
-584,094	-5,627	0,048	0,024
-583,079	655,337	0,017	0,033
-582,065	-36,638	-0,048	-0,019
-581,050	-200,000	0,003	0,087
-580,036	-200,000	-0,042	0,161
-579,021	-70,293	-0,141	0,039
-578,006	87,346	0,069	-0,056
-576,992	687,723	0,032	-0,062
-575,977	-200,000	-0,008	-0,036
-574,963	-114,202	0,089	0,012
-573,948	-200,000	-0,017	0,056
-572,934	800,000	-0,034	-0,104
-571,919	60,404	-0,113	-0,082
-570,904	800,000	0,046	-0,117
-569,890	-141,822	0,034	-0,002
-568,875	-115,383	-0,057	0,008
-567,861	46,305	-0,038	0,026
-566,846	-200,000	0,008	-0,062
-565,831	259,030	-0,050	-0,063
-564,817	407,168	-0,032	0,049
-563,802	306,433	-0,037	-0,051
-562,788	-109,566	-0,141	0,022
-561,773	123,897	0,006	0,006
-560,758	760,495	0,033	-0,065
-559,744	202,798	0,121	-0,137
-558,729	-107,646	0,112	0,018
-557,715	191,272	-0,056	0,062
-556,700	-200,000	-0,033	-0,166
-555,685	415,999	0,035	-0,055
-554,671	-200,000	0,013	0,082
-553,656	169,191	0,084	0,088
-552,642	-75,736	0,126	-0,033
-551,627	476,563	0,068	0,113
-550,612	-200,000	-0,002	0,125
-549,598	6,819	0,039	0,021
-548,583	488,224	-0,070	-0,118
-547,569	-41,494	-0,066	0,025
-546,554	499,844	0,006	0,011
-545,539	-100,839	-0,041	-0,007
-544,525	144,211	-0,022	0,021
-543,510	21,382	-0,049	-0,029
-542,496	-109,608	-0,172	-0,026
-541,481	97,581	-0,103	-0,086
-540,466	800,000	0,029	0,069
-539,452	-200,000	-0,003	-0,037
-538,437	230,480	0,035	0,042
-537,423	-31,560	0,124	0,051
-536,408	-100,481	-0,114	0,020
-535,393	-54,641	-0,107	-0,035
-534,379	9,574	0,082	0,045
-533,364	-103,733	-0,027	-0,005
-532,350	-66,423	0,068	-0,020
-531,335	16,211	0,070	-0,040
-530,321	-44,292	0,066	0,024
-529,306	-200,000	-0,009	-0,074
-528,291	354,398	-0,022	-0,031
-527,277	800,000	-0,056	-0,136
-526,262	-200,000	0,028	-0,167
-525,248	-191,385	-0,085	-0,001
-524,233	649,651	0,072	0,135
-523,218	75,064	0,061	0,047
-522,204	-183,518	0,039	-0,000
-521,189	199,402	-0,098	-0,110
-520,175	-200,000	-0,008	-0,138
-519,160	482,210	-0,055	-0,092
-518,145	710,956	0,009	0,017
-517,131	143,098	0,088	-0,085
-516,116	-6,694	0,041	0,020
-515,102	-153,731	0,058	0,003
-514,087	6,495	0,047	-0,026
-513,072	-200,000	-0,006	0,141
-512,058	269,905	0,063	0,081
-511,043	21,163	-0,018	0,010
-510,029	-57,082	0,129	0,041
-509,014	800,000	0,049	0,124
-507,999	800,000	-0,039	0,087
-506,985	800,000	0,021	-0,048
-505,970	-200,000	-0,056	-0,236
-504,956	240,285	-0,004	-0,005
-503,941	244,245	0,070	0,086
-502,926	-200,000	0,021	0,148
-501,912	-200,000	-0,005	-0,028
-500,897	589,173	0,031	0,056
-499,883	344,450	-0,065	0,094
-498,868	-116,575	0,057	-0,008
-497,853	219,433	-0,048	-0,056
-496,839	17,643	-0,058	0,034
-495,824	767,475	0,015	0,030
-494,810	-49,259	-0,103	0,036
-493,795	314,410	-0,066	0,091
-492,781	-200,000	0,005	-0,036
-491,766	79,238	-0,128	0,100
-490,751	651,874	0,026	-0,050
-489,737	-200,000	0,007	-0,068
-488,722	800,000	0,069	0,154
-487,708	427,845	0,046	0,073
-486,693	-200,000	-0,010	0,159
-485,678	800,000	0,028	0,072
-484,664	-112,255	-0,211	-0,031
-483,649	-200,000	-0,042	-0,167
-482,635	800,000	0,039	-0,127
-481,620	19,740	0,146	-0,085
-480,605	74,181	-0,096	0,074
-479,591	-200,000	0,011	0,067
-478,576	-200,000	0,011	-0,102
-477,562	90,284	-0,048	-0,039
-476,547	3,575	-0,067	-0,035
-475,532	-200,000	0,016	-0,142
-474,518	-130,635	0,115	0,011
-473,503	-200,000	0,034	0,110
-472,489	72,474	0,100	0,076
-471,474	-77,539	0,167	0,042
-470,459	-200,000	0,011	-0,150
-469,445	800,000	-0,023	-0,072
-468,430	-133,794	-0,120	0,011
-467,416	-200,000	0,009	0,057
-466,401	-200,000	0,005	0,022
-465,386	21,207	0,137	0,081
-464,372	-141,556	-0,043	-0,003
-463,357	-200,000	0,012	0,092
-462,343	263,997	0,036	-0,046
-461,328	-143,214	-0,104	-0,007
-460,313	2,219	-0,106	0,056
-459,299	-200,000	-0,026	0,205
-458,284	-200,000	0,006	0,051
-457,270	265,416	-0,033	-0,042
-456,255	-200,000	-0,011	-0,054
-455,241	15,733	-0,023	-0,013
-454,226	-96,149	-0,069	0,013
-453,211	800,000	-0,041	0,100
-452,197	78,347	0,103	0,080
-451,182	-61,512	-0,046	-0,014
-450,168	-31,055	0,117	0,048
-449,153	-200,000	-0,003	-0,035
-448,138	800,000	0,033	0,104
-447,124	41,262	-0,097	-0,064
-446,109	-71,783	0,086	-0,023
-445,095	-38,322	-0,112	0,043
-444,080	-57,336	0,058	0,018
-443,065	-111,618	0,076	-0,011
-442,051	84,258	-0,081	-0,064
-441,036	-200,000	-0,005	-0,113
-440,022	-149,998	-0,162	-0,009
-439,007	-101,326	0,120	-0,021
-437,992	800,000	-0,065	-0,134
-436,978	-200,000	-0,001	0,029
-435,963	547,358	0,035	0,061
-434,949	-16,251	-0,073	-0,034
-433,934	-200,000	-0,004	-0,079
-432,919	21,057	-0,103	-0,061
-431,905	187,316	-0,037	-0,040
-430,890	-83,205	0,136	-0,032
-429,876	-84,317	0,037	0,008
-428,861	-163,554	0,129	-0,004
-427,846	-23,770	-0,090	-0,039
-426,832	332,298	-0,091	0,128
-425,817	-200,000	-0,015	-0,054
-424,803	-139,018	0,141	0,011
-423,788	-87,107	0,033	-0,007
-422,773	224,238	-0,018	0,021
-421,759	191,964	0,069	0,076
-420,744	800,000	0,035	-0,074
-419,730	159,478	-0,031	-0,031
-418,715	51,501	-0,067	0,046
-417,701	800,000	0,018	0,052
-416,686	-40,778	-0,035	0,013
-415,671	457,696	0,068	0,111
-414,657	-146,367	0,070	-0,004
-413,642	800,000	0,013	0,030
-412,628	-25,135	-0,070	0,030
-411,613	354,135	-0,053	-0,076
-410,598	-200,000	-0,013	0,176
-409,584	-200,000	0,034	-0,120
-408,569	800,000	0,004	-0,010
-407,555	-200,000	0,003	0,167
-406,540	-200,000	-0,025	0,179
-405,525	-104,423	-0,107	0,018
-404,511	387,183	-0,065	-0,098
-403,496	800,000	-0,045	-0,114
-402,482	-116,285	0,119	-0,016
-401,467	122,585	-0,026	-0,024
-400,452	125,554	0,129	0,119
-399,438	313,282	0,020	0,028
-398,423	215,207	0,052	0,060
-397,409	536,539	-0,010	-0,017
-396,394	-89,669	0,080	-0,017
-395,379	83,657	0,046	0,037
-394,365	800,000	0,051	-0,153
-393,350	-124,881	-0,070	0,008
-392,336	-22,881	-0,015	0,007
-391,321	129,502	-0,079	-0,074
-390,306	123,819	-0,074	-0,068
-389,292	-58,642	0,179	-0,056
-388,277	410,468	-0,045	-0,070
-387,263	-169,043	0,039	-0,001
-386,248	-39,013	0,096	0,037
-385,233	526,986	0,083	0,142
-384,219	234,120	0,038	0,046
-383,204	52,936	-0,079	0,055
-382,190	-200,000	0,008	-0,050
-381,175	-200,000	0,004	-0,094
-380,160	100,915	-0,072	0,061
-379,146	783,192	-0,024	-0,048
-378,131	800,000	-0,024	-0,076
-377,117	637,911	-0,071	0,132
-376,102	-200,000	-0,021	0,073
-375,088	-58,184	0,052	0,016
-374,073	800,000	0,077	-0,208
-373,058	-200,000	0,001	0,060
-372,044	616,229	0,054	0,100
-371,029	-177,334	0,057	0,001
-370,015	32,652	-0,108	0,067
-369,000	190,049	-0,022	-0,024
-367,985	-86,980	0,045	0,010
-366,971	54,980	-0,072	-0,050
-365,956	800,000	0,068	-0,156
-364,942	800,000	0,025	-0,060
-363,927	-105,373	0,154	0,025
-362,912	-23,489	-0,125	-0,054
-361,898	259,286	0,035	0,044
-360,883	33,576	-0,063	0,040
-359,869	800,000	-0,009	0,028
-358,854	800,000	-0,042	0,087
-357,839	210,377	0,041	0,047
-356,825	800,000	-0,023	0,060
-355,810	-200,000	0,024	-0,085
-354,796	192,201	-0,071	-0,078
-353,781	800,000	0,050	-0,117
-352,766	-200,000	0,039	-0,162
-351,752	-167,336	-0,093	0,003
-350,737	-84,400	0,089	-0,020
-349,723	228,400	0,070	0,082
-348,708	-200,000	0,003	-0,022
-347,693	-123,931	-0,092	-0,010
-346,679	-200,000	0,008	-0,139
-345,664	394,865	-0,074	0,112
-344,650	800,000	0,026	-0,054
-343,635	210,455	0,025	-0,029
-342,620	-200,000	-0,001	0,005
-341,606	-200,000	0,021	-0,078
-340,591	-107,049	-0,063	0,010
-339,577	-78,765	-0,092	-0,023
-338,562	800,000	-0,020	0,052
-337,548	321,063	0,075	-0,103
-336,533	12,223	0,032	0,018
-335,518	-168,290	0,215	0,006
-334,504	-200,000	-0,005	-0,071
-333,489	800,000	0,036	0,078
-332,475	-10,316	0,107	-0,051
-331,460	800,000	0,010	0,023
-330,445	53,609	-0,090	0,063
-329,431	73,506	0,023	0,018
-328,416	-200,000	0,011	0,102
-327,402	332,525	0,082	0,115
-326,387	-1,512	-0,070	-0,036
-325,372	-157,988	0,117	-0,005
-324,358	-149,364	-0,114	-0,006
-323,343	190,297	0,044	-0,048
-322,329	-9,444	0,160	-0,077
-321,314	101,867	0,114	-0,096
-320,299	152,585	0,034	0,034
-319,285	276,343	-0,056	0,072
-318,270	-200,000	-0,013	-0,155
-317,256	-200,000	0,023	-0,140
-316,241	800,000	-0,048	-0,131
-315,226	-10,979	-0,155	-0,074
-314,212	800,000	0,034	-0,107
-313,197	219,096	0,067	0,078
-312,183	221,582	-0,052	0,061
-311,168	-19,894	0,026	0,012
-310,153	34,604	0,079	-0,050
-309,139	-81,832	-0,037	0,009
-308,124	645,283	-0,044	0,081
-307,110	113,897	-0,022	0,019
-306,095	-200,000	0,039	0,149
-305,080	-200,000	0,000	-0,070
-304,066	3,344	-0,136	-0,072
-303,051	59,675	0,097	-0,069
-302,037	304,746	0,005	0,007
-301,022	-87,158	0,136	-0,030
-300,008	25,583	-0,087	0,052
-298,993	-20,862	0,054	-0,024
-297,978	-200,000	-0,009	0,102
-296,964	800,000	0,003	-0,009
-295,949	58,206	-0,104	0,074
-294,935	176,055	0,053	-0,056
-293,920	54,198	0,086	-0,060
-292,905	160,035	-0,024	0,024
-291,891	-200,000	0,022	0,086
-290,876	-1,212	-0,150	0,077
-289,862	466,249	0,027	-0,043
-288,847	-116,415	-0,083	-0,011
-287,832	727,766	0,036	-0,070
-286,818	93,656	-0,072	0,059
-285,803	49,021	0,041	-0,028
-284,789	81,490	-0,053	-0,042
-283,774	-84,701	0,056	-0,013
-282,759	292,682	-0,047	0,062
-281,745	50,940	-0,150	-0,103
-280,730	-35,251	-0,075	-0,030
-279,716	487,972	0,059	0,097
-278,701	248,104	-0,085	0,105
-277,686	-80,353	0,047	-0,011
-276,672	233,103	-0,085	0,101
-275,657	-36,074	-0,044	-0,017
-274,643	62,449	-0,062	-0,045
-273,628	800,000	0,050	0,120
-272,613	800,000	0,008	-0,023
-271,599	13,561	0,106	0,060
-270,584	-100,557	0,079	0,014
-269,570	235,874	0,043	-0,051
-268,555	224,153	0,143	-0,168
-267,540	-87,074	0,073	-0,016
-266,526	-49,150	0,046	-0,016
-265,511	800,000	0,007	-0,019
-264,497	-10,941	-0,032	0,015
-263,482	157,244	0,086	0,086
-262,467	-131,006	0,040	0,004
-261,453	-84,162	-0,033	-0,007
-260,438	41,528	-0,231	-0,151
-259,424	73,094	0,060	0,045
-258,409	-200,000	0,008	0,126
-257,395	-200,000	0,014	0,109
-256,380	800,000	0,073	0,148
-255,365	63,934	-0,083	0,060
-254,351	800,000	-0,032	0,071
-253,336	-68,243	-0,082	-0,023
-252,322	172,049	-0,083	-0,086
-251,307	45,451	0,040	0,027
-250,292	-24,985	0,080	0,034
-249,278	62,837	0,070	0,051
-248,263	-128,516	0,102	-0,010
-247,249	-84,410	0,145	-0,033
-246,234	800,000	0,025	-0,055
-245,219	153,760	0,068	-0,067
-244,205	114,446	-0,099	0,087
-243,190	116,780	0,105	-0,093
-242,176	81,153	0,005	-0,004
-241,161	-200,000	-0,023	0,092
-240,146	136,582	-0,053	0,050
-239,132	371,523	0,034	-0,050
-238,117	-123,407	-0,287	-0,033
-237,103	129,474	-0,063	0,058
-236,088	-54,349	0,041	-0,013
-235,073	293,556	0,112	0,149
-234,059	-200,000	-0,002	0,063
-233,044	166,198	-0,071	-0,073
-232,030	70,645	0,130	-0,097
-231,015	133,293	-0,048	0,045
-230,000	-37,499	0,084	-0,032
-228,986	22,413	0,146	0,086
-227,971	-200,000	-0,008	0,129
-226,957	-149,366	-0,108	-0,006
-225,942	-12,742	-0,073	0,034
-224,927	-122,290	0,152	-0,018
-223,913	-173,405	0,023	0,000
-222,898	118,205	0,020	-0,018
-221,884	6,944	0,107	0,058
-220,869	49,138	-0,035	-0,023
-219,855	72,666	-0,091	0,068
-218,840	685,591	-0,026	0,049
-217,825	174,917	-0,098	0,103
-216,811	-60,084	0,100	0,031
-215,796	-75,784	0,051	0,013
-214,782	-155,871	-0,092	0,004
-213,767	50,575	0,117	-0,080
-212,752	-200,000	0,006	0,114
-211,738	156,248	0,042	-0,041
-210,723	193,539	0,012	0,013
-209,709	-75,125	-0,100	0,026
-208,694	459,014	0,043	0,069
-207,679	-200,000	-0,001	-0,096
-206,665	800,000	-0,017	0,037
-205,650	-59,204	-0,059	0,018
-204,636	-53,969	0,093	-0,031
-203,621	800,000	-0,049	-0,140
-202,606	534,346	-0,053	-0,090
-201,592	7,779	-0,025	0,013
-200,577	-49,964	-0,037	-0,013
-199,563	613,268	0,032	0,059
-198,548	-200,000	0,006	0,034
-197,533	800,000	0,047	-0,097
-196,519	-200,000	0,005	0,051
-195,504	-39,492	0,166	0,062
-194,490	23,537	0,028	-0,016
-193,475	-55,224	-0,113	0,036
-192,460	85,082	0,081	-0,064
-191,446	-200,000	0,026	0,096
-190,431	-200,000	-0,000	-0,018
-189,417	800,000	-0,006	0,016
-188,402	371,824	0,096	0,141
-187,387	669,965	-0,036	-0,067
-186,373	59,510	-0,086	-0,061
-185,358	30,875	-0,025	-0,015
-184,344	-14,893	0,058	-0,027
-183,329	181,074	-0,022	0,023
-182,315	800,000	0,044	0,108
-181,300	253,852	-0,105	0,129
-180,285	22,228	-0,067	-0,039
-179,271	92,618	-0,066	-0,054
-178,256	-200,000	0,011	0,082
-177,242	57,428	-0,008	-0,006
-176,227	800,000	-0,036	-0,099
-175,212	281,372	0,041	0,053
-174,198	-106,786	0,087	0,014
-173,183	58,924	-0,034	-0,024
-172,169	-33,370	-0,056	-0,022
-171,154	-200,000	-0,003	-0,057
-170,139	107,481	0,071	0,061
-169,125	32,537	-0,103	0,064
-168,110	789,758	-0,010	-0,020
-167,096	57,590	-0,081	0,057
-166,081	-75,919	-0,079	0,020
-165,066	326,466	0,020	-0,027
-164,052	229,782	-0,071	-0,084
-163,037	338,249	0,075	-0,105
-162,023	-35,972	0,045	0,018
-161,008	-84,362	0,182	-0,041
-159,993	-200,000	0,001	0,080
-158,979	800,000	0,024	0,058
-157,964	736,265	0,051	-0,100
-156,950	-51,959	-0,209	-0,070
-155,935	-200,000	-0,001	-0,039
-154,920	-127,838	-0,086	-0,009
-153,906	-65,750	-0,066	0,019
-152,891	-91,806	0,097	-0,020
-151,877	21,913	-0,124	0,073
-150,862	-200,000	0,010	0,113
-149,847	-138,131	-0,157	-0,012
-148,833	-5,255	0,096	-0,047
-147,818	35,669	0,062	0,039
-146,804	-200,000	0,041	-0,153
-145,789	61,277	-0,142	0,102
-144,775	104,142	-0,086	0,073
-143,760	12,733	-0,005	0,003
-142,745	-71,466	-0,156	-0,042
-141,731	679,215	0,069	-0,130
-140,716	670,765	-0,022	-0,042
-139,702	-121,249	0,181	-0,022
-138,687	800,000	-0,070	0,150
-137,672	-14,513	-0,063	-0,029
-136,658	-200,000	-0,064	-0,215
-135,643	67,668	0,128	-0,094
-134,629	-200,000	0,003	0,097
-133,614	-84,002	0,128	0,029
-132,599	183,155	-0,095	0,101
-131,585	-200,000	-0,016	0,108
-130,570	327,040	-0,052	0,071
-129,556	-23,398	-0,129	-0,055
-128,541	321,050	-0,065	0,089
-127,526	88,077	0,069	-0,055
-126,512	-152,747	-0,094	0,005
-125,497	-200,000	-0,045	0,148
-124,483	-185,948	0,035	-0,000
-123,468	16,073	0,066	0,037
-122,453	-200,000	0,017	0,079
-121,439	-200,000	-0,028	-0,119
-120,424	207,278	-0,052	-0,058
-119,410	800,000	0,010	-0,028
-118,395	110,679	0,090	0,078
