DTS Sentinel unit serial number:	SN410029Multiplexer serial number:	ORYXHardware model number:	OX2-SRSoftware version number:	ORYX F/W v4,00 Oryx Data Collector v3.7.2.0data status	okinstallation	B5 Nyhavnadifferential loss correction	single-endedforward channel	channel 2reverse channel	N/Adate	2023/12/12time	11:22:13forward acquisition time	300,00reverse acquisition time	0,00gamma	499,1914k internal	0,3158k external	0,3158temperature offset calibration	1,0000default loss term (dB/km)	0,3820temperature slope calibration	1,0000multiplexer offset coefficient	1,0000multiplexer slope coefficient	1,0000fibre end	0,00T internal ref (°C)	15,06T ext. ref 1 (°C)	-1,13T ext. ref 2 (°C)	-1,35length (m)	temperature (°C)	Stokes	anti-Stokes-744,400	-36,823	0,109	-0,043
-743,385	-105,793	-0,409	0,067
-742,371	800,000	0,062	0,190
-741,356	343,591	-0,081	0,117
-740,342	-16,303	0,101	-0,047
-739,327	16,249	-0,202	0,117
-738,312	-200,000	0,007	0,109
-737,298	-97,253	-0,424	-0,081
-736,283	-200,000	0,001	0,046
-735,269	-167,801	-0,279	-0,008
-734,254	-165,617	0,066	-0,002
-733,239	-87,518	-0,467	-0,103
-732,225	-124,450	0,177	-0,020
-731,210	275,617	0,019	0,024
-730,196	-96,817	0,030	-0,006
-729,181	40,069	0,056	-0,037
-728,167	109,114	-0,097	-0,085
-727,152	44,103	-0,102	-0,069
-726,137	62,187	0,075	-0,055
-725,123	52,282	0,036	-0,025
-724,108	-117,525	-0,109	-0,014
-723,094	-106,365	0,072	-0,012
-722,079	-44,541	-0,179	-0,066
-721,064	-200,000	-0,054	-0,221
-720,050	-89,652	0,007	-0,002
-719,035	37,681	-0,092	-0,060
-718,021	-200,000	0,015	-0,153
-717,006	-103,740	-0,074	-0,013
-715,991	800,000	-0,017	-0,037
-714,977	-47,222	-0,088	-0,031
-713,962	7,490	0,077	0,042
-712,948	737,430	0,033	-0,065
-711,933	800,000	0,047	0,121
-710,918	-148,922	-0,020	0,001
-709,904	-69,723	-0,146	0,041
-708,889	130,641	-0,090	-0,085
-707,875	117,835	0,061	-0,055
-706,860	800,000	-0,035	0,103
-705,845	-200,000	-0,009	0,101
-704,831	302,597	0,057	-0,077
-703,816	800,000	-0,016	-0,047
-702,802	800,000	-0,015	0,047
-701,787	-58,114	-0,096	0,031
-700,772	-200,000	0,002	0,172
-699,758	-60,062	-0,050	0,016
-698,743	-200,000	-0,018	0,083
-697,729	647,384	-0,059	-0,111
-696,714	800,000	-0,046	0,109
-695,699	10,399	0,033	0,019
-694,685	649,337	0,040	-0,075
-693,670	-200,000	-0,030	-0,134
-692,656	111,665	0,047	-0,042
-691,641	19,941	-0,091	-0,054
-690,627	-200,000	0,003	-0,048
-689,612	160,518	-0,070	0,072
-688,597	213,163	-0,006	0,008
-687,583	210,734	0,022	-0,025
-686,568	358,463	-0,087	0,129
-685,554	189,691	-0,068	0,075
-684,539	92,186	-0,108	0,090
-683,524	-200,000	-0,014	0,128
-682,510	376,032	-0,072	-0,108
-681,495	-106,682	-0,154	-0,025
-680,481	146,490	-0,085	-0,084
-679,466	-200,000	0,012	-0,091
-678,451	-115,023	-0,124	-0,017
-677,437	-2,841	0,136	-0,070
-676,422	-200,000	0,009	0,055
-675,408	1,412	0,087	0,046
-674,393	-98,743	-0,081	-0,015
-673,378	273,422	0,018	-0,023
-672,364	800,000	-0,059	-0,122
-671,349	551,072	0,042	0,074
-670,335	-200,000	0,014	-0,111
-669,320	50,700	0,010	0,007
-668,305	-144,515	-0,090	0,006
-667,291	10,500	-0,076	0,043
-666,276	-200,000	0,012	-0,039
-665,262	150,344	-0,082	-0,082
-664,247	30,251	-0,138	-0,087
-663,232	-200,000	-0,002	-0,056
-662,218	-200,000	0,016	0,052
-661,203	-129,579	-0,093	-0,009
-660,189	-40,016	0,050	-0,019
-659,174	-200,000	-0,012	0,068
-658,159	1,784	-0,072	-0,038
-657,145	-62,928	-0,049	-0,015
-656,130	104,423	-0,063	-0,054
-655,116	-200,000	0,000	-0,007
-654,101	-190,771	0,094	0,001
-653,086	-125,709	0,056	-0,006
-652,072	800,000	-0,008	-0,019
-651,057	110,689	-0,087	-0,077
-650,043	-200,000	0,007	-0,054
-649,028	0,263	-0,226	0,118
-648,014	-160,336	0,063	0,002
-646,999	-61,854	-0,126	0,038
-645,984	-200,000	0,003	0,053
-644,970	-67,815	-0,028	0,008
-643,955	-164,169	-0,060	0,002
-642,941	-33,827	-0,143	-0,058
-641,926	-80,747	0,172	-0,042
-640,911	-124,689	-0,101	0,011
-639,897	93,403	0,028	0,024
-638,882	-8,850	0,075	-0,037
-637,868	800,000	-0,040	0,119
-636,853	-200,000	-0,012	-0,126
-635,838	-56,920	-0,043	-0,014
-634,824	800,000	-0,049	-0,147
-633,809	93,854	-0,047	0,039
-632,795	-34,611	0,077	-0,031
-631,780	161,517	0,020	-0,021
-630,765	510,607	-0,009	-0,015
-629,751	-137,451	-0,084	0,007
-628,736	-140,434	-0,119	-0,009
-627,722	-82,568	0,047	-0,011
-626,707	-133,680	-0,109	-0,010
-625,692	-8,990	-0,122	0,060
-624,678	406,272	0,075	-0,116
-623,663	800,000	0,058	-0,183
-622,649	85,856	-0,103	-0,083
-621,634	800,000	0,068	-0,183
-620,619	-200,000	-0,037	-0,137
-619,605	730,035	0,034	0,068
-618,590	-200,000	-0,007	0,210
-617,576	43,896	0,017	-0,011
-616,561	59,528	0,076	-0,055
-615,546	49,893	0,135	-0,093
-614,532	-61,442	-0,109	0,033
-613,517	-86,982	-0,080	0,018
-612,503	-8,095	0,096	-0,047
-611,488	-200,000	-0,016	-0,094
-610,474	-3,556	0,108	-0,055
-609,459	-200,000	0,004	-0,128
-608,444	244,081	0,130	-0,161
-607,430	31,031	0,045	0,028
-606,415	-123,963	-0,096	0,011
-605,401	726,562	0,036	0,071
-604,386	-14,954	0,119	0,056
-603,371	374,043	0,073	0,109
-602,357	-200,000	-0,008	-0,131
-601,342	800,000	-0,041	-0,107
-600,328	45,170	0,026	0,017
-599,313	257,980	0,045	-0,056
-598,298	-200,000	-0,003	0,022
-597,284	17,881	0,102	0,059
-596,269	800,000	0,031	0,072
-595,255	283,240	0,044	0,058
-594,240	203,041	0,024	0,027
-593,225	-115,988	-0,100	0,014
-592,211	349,661	-0,077	-0,112
-591,196	506,496	-0,060	0,103
-590,182	-200,000	-0,010	-0,032
-589,167	-200,000	-0,008	-0,175
-588,152	89,503	-0,123	-0,100
-587,138	-70,425	0,091	0,025
-586,123	37,556	-0,059	-0,039
-585,109	-200,000	-0,003	-0,083
-584,094	-200,000	-0,005	0,046
-583,079	89,354	0,269	0,220
-582,065	-33,575	-0,072	-0,029
-581,050	131,472	-0,030	-0,029
-580,036	-200,000	-0,021	0,102
-579,021	710,453	-0,008	-0,016
-578,006	-12,370	0,041	-0,019
-576,992	-44,457	-0,145	-0,053
-575,977	-89,096	0,120	-0,026
-574,963	-145,710	-0,019	0,001
-573,948	75,338	0,072	0,055
-572,934	-73,622	0,034	-0,009
-571,919	-184,612	-0,131	0,002
-570,904	-120,896	-0,056	-0,007
-569,890	-200,000	0,025	-0,087
-568,875	-146,561	0,039	0,002
-567,861	204,093	0,117	-0,132
-566,846	-83,736	0,107	-0,025
-565,831	32,892	0,051	-0,032
-564,817	800,000	0,024	-0,058
-563,802	140,895	-0,109	-0,105
-562,788	309,041	0,131	-0,180
-561,773	97,822	-0,050	-0,042
-560,758	-58,339	0,026	0,008
-559,744	-41,427	0,078	0,029
-558,729	49,008	0,060	0,041
-557,715	117,412	-0,081	0,073
-556,700	73,585	-0,095	-0,073
-555,685	290,057	-0,090	-0,120
-554,671	800,000	0,014	-0,045
-553,656	800,000	0,038	-0,090
-552,642	-200,000	-0,008	-0,040
-551,627	215,974	-0,085	0,098
-550,612	-117,269	0,069	0,009
-549,598	-94,317	-0,105	-0,021
-548,583	207,450	-0,105	0,120
-547,569	-200,000	-0,016	0,053
-546,554	332,763	0,046	0,066
-545,539	99,726	-0,019	0,016
-544,525	223,332	-0,018	-0,022
-543,510	276,882	0,009	0,012
-542,496	-91,637	0,080	0,016
-541,481	46,088	-0,063	-0,043
-540,466	-200,000	0,011	0,080
-539,452	-200,000	-0,032	0,126
-538,437	155,691	0,057	-0,057
-537,423	324,242	0,011	-0,015
-536,408	-0,063	-0,032	0,017
-535,393	38,231	-0,054	-0,035
-534,379	-200,000	0,001	-0,022
-533,364	-200,000	-0,016	-0,080
-532,350	-64,880	-0,078	-0,023
-531,335	-200,000	0,009	-0,073
-530,321	-115,576	0,095	-0,013
-529,306	800,000	0,019	-0,045
-528,291	-200,000	0,021	-0,117
-527,277	40,188	-0,101	0,066
-526,262	-115,549	-0,062	0,008
-525,248	800,000	-0,050	-0,125
-524,233	-57,316	0,115	0,037
-523,218	80,565	-0,031	0,024
-522,204	-200,000	0,001	0,024
-521,189	-200,000	0,010	0,053
-520,175	400,661	-0,072	-0,110
-519,160	-136,378	0,098	0,008
-518,145	800,000	-0,023	0,066
-517,131	319,106	-0,043	-0,059
-516,116	228,705	0,044	0,053
-515,102	-200,000	-0,003	0,069
-514,087	-200,000	-0,004	-0,015
-513,072	793,201	0,009	0,019
-512,058	-200,000	-0,002	-0,176
-511,043	-200,000	-0,034	-0,158
-510,029	800,000	-0,040	-0,088
-509,014	291,163	0,089	0,118
-507,999	-94,136	-0,126	-0,025
-506,985	385,595	-0,100	-0,151
-505,970	-143,630	0,006	0,000
-504,956	195,227	0,143	-0,159
-503,941	71,135	-0,093	0,070
-502,926	148,589	0,056	0,055
-501,912	800,000	-0,038	0,098
-500,897	270,753	-0,043	0,055
-499,883	-118,076	0,046	-0,006
-498,868	-86,768	-0,077	-0,017
-497,853	-115,889	0,083	0,011
-496,839	42,909	-0,070	-0,047
-495,824	364,831	-0,084	-0,123
-494,810	800,000	-0,035	0,086
-493,795	-88,329	-0,028	0,006
-492,781	-200,000	0,012	0,084
-491,766	200,426	-0,084	-0,094
-490,751	-200,000	-0,005	-0,018
-489,737	750,425	0,035	0,069
-488,722	-60,558	0,095	-0,029
-487,708	-53,028	0,137	-0,046
-486,693	-200,000	-0,006	0,000
-485,678	271,466	0,030	0,038
-484,664	-46,080	-0,045	0,016
-483,649	230,361	-0,107	0,128
-482,635	800,000	0,080	-0,243
-481,620	247,512	0,058	-0,072
-480,605	226,577	0,065	0,077
-479,591	30,100	0,080	-0,050
-478,576	266,859	-0,064	-0,082
-477,562	-200,000	0,005	0,055
-476,547	800,000	0,042	-0,108
-475,532	-6,247	0,105	-0,052
-474,518	800,000	-0,019	0,057
-473,503	28,813	0,058	-0,036
-472,489	138,939	-0,061	-0,059
-471,474	-7,346	0,050	0,024
-470,459	613,191	-0,026	-0,047
-469,445	-48,192	-0,118	0,041
-468,430	350,549	0,031	-0,045
-467,416	436,832	-0,068	0,109
-466,401	330,524	-0,138	0,194
-465,386	-200,000	0,007	0,052
-464,372	373,648	0,018	0,026
-463,357	-183,496	-0,092	-0,001
-462,343	168,440	-0,073	-0,076
-461,328	-200,000	0,006	0,032
-460,313	800,000	0,018	0,056
-459,299	800,000	0,055	0,132
-458,284	279,827	0,043	0,056
-457,270	-200,000	0,025	0,171
-456,255	160,376	0,114	-0,116
-455,241	63,337	-0,148	-0,108
-454,226	-200,000	0,025	0,107
-453,211	94,806	0,048	-0,040
-452,197	17,919	0,075	0,044
-451,182	-21,320	0,077	0,034
-450,168	-200,000	0,018	0,138
-449,153	-200,000	-0,011	0,085
-448,138	-200,000	0,019	0,152
-447,124	-25,402	-0,241	0,104
-446,109	-200,000	-0,000	-0,009
-445,095	157,270	-0,108	-0,109
-444,080	800,000	-0,040	-0,089
-443,065	-200,000	-0,005	0,081
-442,051	126,760	0,054	-0,050
-441,036	633,910	-0,045	-0,083
-440,022	121,343	-0,053	0,048
-439,007	93,228	-0,064	-0,053
-437,992	-75,348	0,070	0,018
-436,978	800,000	-0,061	-0,150
-435,963	-62,625	0,029	0,009
-434,949	-80,167	-0,110	0,027
-433,934	603,685	0,049	-0,090
-432,919	-200,000	0,009	-0,112
-431,905	-200,000	-0,013	-0,091
-430,890	-55,581	-0,055	0,018
-429,876	-194,836	0,119	-0,001
-428,861	-200,000	-0,007	0,116
-427,846	18,536	0,111	0,065
-426,832	-0,086	0,052	0,027
-425,817	35,661	0,105	0,067
-424,803	74,313	-0,029	-0,023
-423,788	56,114	0,048	0,034
-422,773	-92,548	0,208	-0,042
-421,759	364,472	-0,023	-0,033
-420,744	-200,000	0,015	-0,063
-419,730	-157,757	0,018	0,001
-418,715	800,000	0,046	-0,096
-417,701	800,000	0,038	-0,117
-416,686	557,501	-0,067	-0,118
-415,671	-200,000	-0,007	0,108
-414,657	427,934	-0,047	0,074
-413,642	-200,000	-0,020	-0,114
-412,628	383,197	0,041	-0,062
-411,613	-135,458	-0,121	-0,010
-410,598	-200,000	-0,017	-0,062
-409,584	-200,000	0,011	0,178
-408,569	-94,675	0,165	-0,032
-407,555	-78,275	-0,162	0,040
-406,540	-200,000	0,012	0,071
-405,525	103,032	-0,077	0,066
-404,511	-200,000	0,006	0,032
-403,496	-99,999	0,117	0,021
-402,482	451,128	-0,035	0,057
-401,467	103,642	0,094	0,080
-400,452	-146,478	0,145	0,009
-399,438	22,209	-0,091	-0,054
-398,423	-200,000	-0,019	0,076
-397,409	174,979	-0,061	0,064
-396,394	79,635	0,019	-0,015
-395,379	-174,055	0,031	0,001
-394,365	800,000	0,031	0,090
-393,350	-145,820	0,044	0,003
-392,336	75,059	-0,060	-0,046
-391,321	11,212	-0,221	-0,122
-390,306	432,597	-0,039	0,061
-389,292	53,921	-0,092	-0,064
-388,277	44,257	0,055	-0,037
-387,263	248,389	0,089	0,110
-386,248	800,000	-0,055	0,140
-385,233	449,349	0,036	0,059
-384,219	-28,516	0,091	0,038
-383,204	800,000	-0,028	-0,064
-382,190	444,041	-0,018	-0,029
-381,175	-9,620	0,067	-0,032
-380,160	-200,000	-0,009	-0,048
-379,146	-36,408	0,100	0,039
-378,131	33,131	-0,057	0,036
-377,117	-200,000	0,027	0,161
-376,102	195,659	-0,086	0,095
-375,088	-122,276	0,056	0,007
-374,073	-200,000	0,015	-0,104
-373,058	306,023	0,034	0,046
-372,044	800,000	-0,027	0,075
-371,029	74,195	0,058	0,044
-370,015	47,727	-0,096	0,065
-369,000	43,074	0,050	-0,033
-367,985	276,030	-0,038	-0,049
-366,971	-67,340	-0,103	0,029
-365,956	-200,000	-0,023	0,138
-364,942	127,502	0,027	0,025
-363,927	442,582	0,029	0,046
-362,912	-23,696	0,106	-0,046
-361,898	31,215	-0,063	-0,039
-360,883	-51,984	-0,045	-0,015
-359,869	-146,774	0,011	-0,001
-358,854	103,197	0,055	0,047
-357,839	800,000	0,052	0,153
-356,825	800,000	0,061	-0,130
-355,810	-3,797	0,061	-0,030
-354,796	-142,492	0,143	-0,010
-353,781	-200,000	-0,007	0,037
-352,766	5,421	0,066	-0,035
-351,752	448,988	-0,066	-0,106
-350,737	134,199	0,087	-0,082
-349,723	-32,718	0,108	0,043
-348,708	800,000	-0,067	0,151
-347,693	214,725	0,102	-0,117
-346,679	-107,066	0,093	-0,015
-345,664	-200,000	-0,039	-0,138
-344,650	660,948	-0,074	-0,139
-343,635	-10,905	0,168	0,080
-342,620	111,606	0,035	-0,031
-341,606	-3,854	-0,088	-0,044
-340,591	-200,000	-0,004	0,021
-339,577	155,345	-0,033	0,033
-338,562	-48,847	-0,113	-0,039
-337,548	800,000	-0,065	0,146
-336,533	136,307	0,132	-0,125
-335,518	-153,143	0,116	0,006
-334,504	-182,952	0,059	0,001
-333,489	179,924	-0,038	0,041
-332,475	114,828	0,054	-0,048
-331,460	-200,000	-0,023	-0,193
-330,445	7,420	-0,078	-0,042
-329,431	144,658	0,088	-0,085
-328,416	121,731	0,057	-0,052
-327,402	-43,613	-0,073	-0,026
-326,387	31,690	0,061	-0,038
-325,372	24,813	-0,066	0,040
-324,358	-117,381	-0,081	0,010
-323,343	-38,677	-0,063	0,024
-322,329	-186,140	0,062	0,001
-321,314	800,000	-0,049	0,113
-320,299	228,454	-0,050	0,059
-319,285	800,000	0,055	0,127
-318,270	34,030	-0,154	0,097
-317,256	-200,000	0,025	-0,097
-316,241	60,659	0,125	-0,090
-315,226	9,584	0,063	-0,035
-314,212	253,095	0,095	0,118
-313,197	-200,000	-0,031	0,123
-312,183	359,522	0,017	0,025
-311,168	800,000	0,045	-0,126
-310,153	-85,499	-0,060	0,013
-309,139	-55,026	0,100	0,032
-308,124	800,000	-0,019	0,039
-307,110	-72,468	0,151	0,040
-306,095	-154,189	0,014	-0,001
-305,080	171,138	-0,010	-0,010
-304,066	-200,000	0,006	0,065
-303,051	800,000	-0,019	0,039
-302,037	-41,849	-0,106	0,039
-301,022	769,657	-0,042	0,083
-300,008	487,063	-0,055	0,091
-298,993	57,216	-0,022	-0,015
-297,978	-49,459	0,105	0,036
-296,964	-109,947	-0,157	-0,024
-295,949	700,349	-0,035	-0,068
-294,935	-146,184	-0,132	-0,008
-293,920	-30,212	0,078	-0,032
-292,905	513,978	-0,019	-0,032
-291,891	-167,880	0,101	0,003
-290,876	-200,000	-0,003	-0,108
-289,862	30,059	-0,143	0,088
-288,847	-200,000	0,006	-0,058
-287,832	586,160	0,036	-0,064
-286,818	471,056	-0,118	0,193
-285,803	-200,000	0,014	-0,100
-284,789	-200,000	-0,006	0,166
-283,774	-200,000	0,029	0,124
-282,759	197,447	0,095	-0,106
-281,745	-200,000	-0,003	0,038
-280,730	80,119	-0,045	0,035
-279,716	-200,000	-0,040	0,130
-278,701	-108,049	0,032	0,005
-277,686	133,000	-0,017	0,016
-276,672	800,000	0,033	-0,094
-275,657	-200,000	-0,013	-0,056
-274,643	-200,000	-0,039	-0,171
-273,628	-200,000	-0,001	0,041
-272,613	652,737	-0,045	-0,084
-271,599	264,619	0,074	-0,094
-270,584	-1,650	0,046	0,023
-269,570	62,034	-0,042	0,030
-268,555	-200,000	0,029	-0,109
-267,540	-111,932	0,056	-0,008
-266,526	-200,000	-0,013	-0,085
-265,511	800,000	0,019	0,050
-264,497	50,309	0,082	-0,056
-263,482	637,648	-0,065	0,119
-262,467	493,447	-0,102	-0,169
-261,453	-169,643	-0,084	-0,002
-260,438	800,000	-0,031	-0,073
-259,424	168,293	0,047	0,048
-258,409	-120,801	-0,141	-0,017
-257,395	-112,066	0,010	-0,001
-256,380	606,702	0,055	0,100
-255,365	85,763	-0,097	-0,077
-254,351	-140,929	0,138	0,010
-253,336	-39,647	-0,188	-0,071
-252,322	800,000	0,010	-0,025
-251,307	-39,103	0,101	-0,038
-250,292	800,000	0,054	-0,153
-249,278	-34,843	0,100	0,039
-248,263	142,051	0,084	0,080
-247,249	-200,000	-0,013	0,063
-246,234	266,385	-0,070	-0,088
-245,219	-109,045	0,123	-0,019
-244,205	34,592	-0,119	-0,075
-243,190	800,000	0,029	0,065
-242,176	-200,000	0,018	0,113
-241,161	10,333	-0,077	0,042
-240,146	643,466	0,055	0,102
-239,132	-200,000	0,008	-0,083
-238,117	23,046	-0,139	0,082
-237,103	-120,246	-0,166	-0,020
-236,088	-86,183	0,081	-0,018
-235,073	460,500	0,014	0,022
-234,059	109,291	0,061	0,053
-233,044	64,349	-0,085	-0,062
-232,030	800,000	-0,067	-0,144
-231,015	424,203	-0,093	-0,145
-230,000	-200,000	0,008	-0,027
-228,986	-136,680	-0,057	-0,005
-227,971	800,000	-0,031	0,084
-226,957	-200,000	0,004	-0,069
-225,942	-200,000	0,014	0,163
-224,927	-200,000	0,022	0,119
-223,913	-46,725	-0,079	-0,028
-222,898	-98,647	0,089	0,016
-221,884	-72,090	-0,128	0,034
-220,869	-200,000	0,035	0,139
-219,855	166,753	0,022	-0,023
-218,840	-136,587	-0,109	0,009
-217,825	49,565	0,042	0,029
-216,811	800,000	0,009	-0,027
-215,796	78,501	-0,087	-0,067
-214,782	-200,000	0,003	-0,036
-213,767	-80,749	0,159	-0,038
-212,752	-116,540	0,088	-0,012
-211,738	-142,267	-0,102	-0,007
-210,723	117,254	0,068	0,060
-209,709	198,880	0,093	-0,103
-208,694	-91,321	-0,075	0,015
-207,679	800,000	-0,039	0,093
-206,665	-45,661	0,071	0,025
-205,650	-200,000	0,008	0,073
-204,636	-200,000	-0,033	0,143
-203,621	382,605	-0,071	0,105
-202,606	-200,000	-0,004	0,068
-201,592	136,896	-0,094	-0,088
-200,577	387,167	0,024	-0,036
-199,563	84,221	0,129	0,102
-198,548	-200,000	0,055	0,200
-197,533	-200,000	-0,002	0,018
-196,519	-135,268	0,068	0,006
-195,504	-123,826	-0,070	0,008
-194,490	-167,502	0,058	-0,002
-193,475	93,398	0,057	0,046
-192,460	393,654	-0,098	-0,147
-191,446	-114,255	0,077	-0,011
-190,431	-113,861	0,107	0,015
-189,417	412,368	0,051	0,079
-188,402	297,793	-0,025	-0,033
-187,387	89,768	0,097	-0,078
-186,373	558,692	-0,051	0,090
-185,358	360,728	-0,027	-0,039
-184,344	800,000	0,033	0,095
-183,329	15,754	0,067	0,038
-182,315	101,804	-0,087	0,073
-181,300	54,192	-0,068	-0,047
-180,285	-200,000	-0,001	-0,029
-179,271	-200,000	-0,013	0,065
-178,256	-3,037	-0,062	-0,031
-177,242	800,000	-0,034	0,079
-176,227	800,000	0,028	0,073
-175,212	-170,638	-0,148	0,004
-174,198	-45,220	-0,097	-0,035
-173,183	-200,000	0,006	-0,027
-172,169	-200,000	0,017	0,071
-171,154	-77,867	0,035	0,009
-170,139	-10,923	0,108	0,051
-169,125	-147,755	-0,039	-0,002
-168,110	17,158	0,134	0,077
-167,096	800,000	-0,023	0,053
-166,081	513,377	-0,052	0,088
-165,066	-137,533	0,018	0,001
-164,052	189,633	0,077	-0,083
-163,037	800,000	0,038	0,089
-162,023	-200,000	-0,024	-0,080
-161,008	-91,459	-0,134	0,027
-159,993	223,977	0,108	0,126
-158,979	128,956	-0,034	-0,031
-157,964	126,255	0,051	0,046
-156,950	576,953	-0,013	0,023
-155,935	-147,973	0,055	-0,003
-154,920	-70,477	-0,108	0,029
-153,906	63,067	-0,071	0,051
-152,891	24,569	0,181	0,108
-151,877	800,000	-0,017	-0,039
-150,862	-68,177	-0,044	-0,012
-149,847	-200,000	-0,023	-0,126
-148,833	-1,308	0,086	0,044
-147,818	318,122	-0,049	0,067
-146,804	671,916	-0,021	0,039
-145,789	135,805	-0,151	0,141
-144,775	800,000	0,034	-0,103
-143,760	16,165	0,059	-0,033
-142,745	-190,354	0,063	-0,000
-141,731	-182,848	0,128	0,002
-140,716	769,201	-0,067	-0,132
-139,702	23,700	0,018	0,011
-138,687	208,297	-0,071	-0,080
-137,672	-194,965	0,061	-0,000
-136,658	174,661	-0,127	0,132
-135,643	-37,510	0,135	0,052
-134,629	221,034	-0,035	0,040
-133,614	727,719	0,128	0,247
-132,599	-29,808	0,103	-0,042
-131,585	-200,000	-0,006	0,073
-130,570	-200,000	0,007	-0,071
-129,556	159,637	-0,069	-0,070
-128,541	-7,118	-0,048	-0,023
-127,526	-82,831	0,139	0,032
-126,512	438,379	-0,010	-0,015
-125,497	46,862	-0,041	0,028
-124,483	-200,000	0,010	-0,170
-123,468	-200,000	-0,022	-0,089
-122,453	201,652	-0,097	0,108
-121,439	-2,397	0,052	-0,026
-120,424	-63,455	-0,161	0,047
-119,410	-137,599	-0,123	0,010
