DTS Sentinel unit serial number:	SN410029Multiplexer serial number:	ORYXHardware model number:	OX2-SRSoftware version number:	ORYX F/W v4,00 Oryx Data Collector v3.7.2.0data status	okinstallation	B5 Nyhavnadifferential loss correction	single-endedforward channel	channel 2reverse channel	N/Adate	2023/12/12time	20:12:13forward acquisition time	300,00reverse acquisition time	0,00gamma	499,1914k internal	0,3157k external	0,3157temperature offset calibration	1,0000default loss term (dB/km)	0,3820temperature slope calibration	1,0000multiplexer offset coefficient	1,0000multiplexer slope coefficient	1,0000fibre end	0,00T internal ref (°C)	15,31T ext. ref 1 (°C)	-1,38T ext. ref 2 (°C)	-1,71length (m)	temperature (°C)	Stokes	anti-Stokes-744,400	800,000	-0,018	-0,058
-743,385	-68,782	-0,286	-0,081
-742,371	240,542	0,074	-0,091
-741,356	-46,200	-0,261	0,094
-740,342	800,000	0,101	0,281
-739,327	-128,805	-0,299	-0,031
-738,312	35,028	0,092	0,059
-737,298	-131,017	-0,281	-0,027
-736,283	800,000	0,024	0,075
-735,269	-105,299	-0,224	-0,037
-734,254	13,218	-0,034	0,019
-733,239	-92,974	-0,384	-0,078
-732,225	55,835	0,158	0,113
-731,210	-41,418	-0,032	0,012
-730,196	116,289	0,116	0,104
-729,181	386,809	0,055	-0,084
-728,167	800,000	-0,023	0,073
-727,152	378,877	0,036	-0,054
-726,137	800,000	0,012	0,036
-725,123	-200,000	0,005	0,020
-724,108	800,000	-0,043	-0,102
-723,094	-83,024	-0,182	-0,043
-722,079	84,420	-0,057	-0,046
-721,064	-120,014	-0,017	-0,002
-720,050	-200,000	-0,022	-0,090
-719,035	-200,000	0,006	-0,103
-718,021	-121,601	-0,065	-0,008
-717,006	-95,692	0,026	-0,005
-715,991	800,000	-0,035	-0,078
-714,977	-65,672	-0,102	0,030
-713,962	800,000	0,036	-0,101
-712,948	-74,878	0,076	0,020
-711,933	-47,387	0,020	-0,007
-710,918	18,686	-0,069	-0,041
-709,904	-66,650	-0,097	-0,028
-708,889	800,000	-0,044	-0,108
-707,875	188,403	-0,101	-0,111
-706,860	-200,000	0,005	-0,130
-705,845	-200,000	-0,002	-0,009
-704,831	-4,588	-0,189	-0,096
-703,816	-200,000	0,005	0,039
-702,802	-200,000	-0,009	0,084
-701,787	-170,213	-0,059	-0,001
-700,772	800,000	-0,053	-0,116
-699,758	60,997	0,118	0,086
-698,743	66,695	0,091	-0,068
-697,729	119,244	0,032	0,029
-696,714	800,000	-0,040	0,101
-695,699	1,815	0,092	0,049
-694,685	42,661	-0,051	0,034
-693,670	2,392	-0,025	0,013
-692,656	-200,000	-0,002	0,042
-691,641	591,716	0,034	-0,062
-690,627	-200,000	-0,025	-0,230
-689,612	-108,493	-0,093	-0,015
-688,597	-200,000	0,009	-0,133
-687,583	198,943	-0,038	-0,043
-686,568	800,000	-0,050	-0,160
-685,554	-200,000	0,003	-0,085
-684,539	17,583	0,161	0,094
-683,524	290,050	0,034	0,045
-682,510	-129,038	0,115	-0,012
-681,495	-109,994	-0,049	-0,008
-680,481	37,226	0,119	-0,078
-679,466	-83,061	-0,076	0,018
-678,451	-85,260	-0,156	0,036
-677,437	222,244	0,030	-0,036
-676,422	-169,239	0,107	0,003
-675,408	-98,866	0,025	0,005
-674,393	52,972	0,111	-0,078
-673,378	-200,000	-0,013	-0,103
-672,364	-24,268	-0,165	-0,072
-671,349	190,071	-0,065	0,072
-670,335	-72,583	0,134	-0,036
-669,320	800,000	0,071	-0,146
-668,305	77,538	0,031	0,024
-667,291	100,857	0,070	0,060
-666,276	-200,000	0,004	-0,124
-665,262	76,277	-0,144	0,112
-664,247	395,272	0,024	-0,036
-663,232	-82,606	0,140	-0,033
-662,218	-99,497	0,030	-0,006
-661,203	800,000	0,060	0,185
-660,189	112,678	0,037	-0,033
-659,174	148,629	0,035	-0,035
-658,159	-200,000	0,025	-0,180
-657,145	22,837	0,111	-0,067
-656,130	-87,057	0,121	0,027
-655,116	800,000	0,031	-0,079
-654,101	-109,715	0,089	0,014
-653,086	151,833	0,089	-0,089
-652,072	-113,665	0,084	-0,012
-651,057	-151,993	-0,150	0,008
-650,043	-135,676	-0,115	-0,010
-649,028	355,535	0,072	-0,106
-648,014	183,872	0,063	-0,068
-646,999	-200,000	-0,026	-0,087
-645,984	-107,406	0,114	0,018
-644,970	3,030	-0,105	-0,056
-643,955	-7,583	0,091	-0,045
-642,941	46,337	-0,132	0,090
-641,926	-8,776	-0,063	0,031
-640,911	13,324	-0,051	-0,029
-639,897	-4,149	-0,051	-0,026
-638,882	-51,216	-0,018	0,006
-637,868	94,306	-0,093	0,077
-636,853	-200,000	-0,030	-0,185
-635,838	-81,827	-0,073	0,017
-634,824	800,000	-0,039	-0,096
-633,809	506,039	0,078	-0,133
-632,795	-200,000	-0,004	-0,043
-631,780	-200,000	0,019	-0,133
-630,765	-200,000	0,036	0,159
-629,751	-169,360	-0,121	-0,003
-628,736	-156,852	-0,041	-0,002
-627,722	504,834	-0,062	-0,105
-626,707	-200,000	0,003	0,077
-625,692	107,716	-0,016	0,014
-624,678	142,836	-0,050	0,048
-623,663	800,000	-0,013	-0,029
-622,649	89,932	-0,071	-0,059
-621,634	234,530	0,034	-0,041
-620,619	-63,058	-0,125	-0,038
-619,605	-54,635	0,033	0,011
-618,590	754,714	0,077	0,154
-617,576	-40,491	-0,119	0,045
-616,561	255,302	-0,106	-0,134
-615,546	144,533	-0,189	-0,185
-614,532	-200,000	-0,012	-0,059
-613,517	-73,547	-0,137	-0,036
-612,503	-6,427	0,195	0,097
-611,488	800,000	-0,027	0,057
-610,474	-48,439	0,144	-0,050
-609,459	159,712	0,044	-0,045
-608,444	-200,000	-0,010	0,097
-607,430	702,577	0,028	-0,055
-606,415	-93,004	0,088	-0,018
-605,401	-200,000	0,009	0,062
-604,386	132,644	0,024	-0,023
-603,371	-170,536	-0,046	-0,001
-602,357	-200,000	-0,009	-0,100
-601,342	-200,000	-0,028	-0,154
-600,328	800,000	0,057	-0,142
-599,313	360,662	0,040	-0,060
-598,298	-75,214	-0,156	0,041
-597,284	203,965	0,102	0,115
-596,269	27,996	0,111	0,068
-595,255	470,348	-0,044	-0,072
-594,240	-200,000	0,007	-0,228
-593,225	-94,960	0,045	0,009
-592,211	-24,116	-0,126	-0,055
-591,196	55,954	0,042	0,030
-590,182	-9,829	0,072	0,035
-589,167	0,798	0,122	0,064
-588,152	-125,560	-0,091	-0,010
-587,138	-118,673	0,058	0,007
-586,123	-200,000	-0,016	-0,145
-585,109	-200,000	0,017	-0,072
-584,094	114,483	-0,054	-0,048
-583,079	-200,000	0,012	0,105
-582,065	118,510	0,046	0,042
-581,050	-117,955	0,083	-0,011
-580,036	-21,655	0,058	0,026
-579,021	63,582	-0,029	-0,021
-578,006	172,920	-0,137	-0,145
-576,992	800,000	-0,013	0,033
-575,977	-23,633	0,108	0,047
-574,963	800,000	-0,029	-0,073
-573,948	44,233	0,106	0,071
-572,934	90,202	-0,088	0,072
-571,919	-190,135	-0,085	0,001
-570,904	188,188	-0,081	-0,089
-569,890	-200,000	-0,016	-0,065
-568,875	36,966	0,036	-0,023
-567,861	120,411	0,100	-0,091
-566,846	-73,724	0,185	0,049
-565,831	80,244	-0,176	0,139
-564,817	-200,000	-0,000	0,015
-563,802	800,000	0,026	-0,059
-562,788	307,009	-0,032	0,043
-561,773	197,638	-0,064	-0,071
-560,758	-22,069	0,097	0,043
-559,744	800,000	0,044	0,133
-558,729	230,755	-0,104	0,125
-557,715	102,965	0,051	-0,044
-556,700	-200,000	-0,023	0,128
-555,685	148,023	-0,072	0,071
-554,671	-24,877	0,086	-0,037
-553,656	800,000	-0,008	-0,022
-552,642	407,970	0,038	0,059
-551,627	200,902	-0,034	0,038
-550,612	-66,846	0,020	0,006
-549,598	-200,000	0,021	-0,077
-548,583	800,000	-0,020	-0,060
-547,569	207,819	0,014	0,017
-546,554	5,148	0,086	0,046
-545,539	-128,008	0,103	0,011
-544,525	-107,440	-0,134	0,021
-543,510	-39,852	-0,044	-0,017
-542,496	-98,278	-0,108	-0,020
-541,481	-28,935	0,107	0,045
-540,466	-200,000	-0,013	0,138
-539,452	-61,651	-0,045	0,014
-538,437	100,088	0,135	0,114
-537,423	800,000	-0,021	0,062
-536,408	-70,882	-0,216	-0,059
-535,393	100,444	0,097	0,082
-534,379	38,777	0,090	-0,059
-533,364	-31,834	0,111	-0,045
-532,350	450,503	0,028	-0,046
-531,335	19,097	-0,068	-0,040
-530,321	-200,000	0,009	-0,065
-529,306	-200,000	-0,034	-0,142
-528,291	67,153	0,120	0,089
-527,277	379,504	-0,045	-0,067
-526,262	358,330	-0,069	-0,101
-525,248	-132,938	0,112	-0,010
-524,233	684,739	0,063	0,121
-523,218	-192,508	0,046	-0,000
-522,204	-200,000	0,002	0,099
-521,189	-200,000	-0,013	-0,160
-520,175	-200,000	-0,001	-0,067
-519,160	125,501	-0,051	-0,047
-518,145	65,162	-0,058	0,043
-517,131	800,000	0,052	-0,149
-516,116	-200,000	0,011	0,094
-515,102	-200,000	0,008	-0,042
-514,087	-200,000	-0,011	0,037
-513,072	800,000	-0,009	0,029
-512,058	-200,000	0,008	-0,202
-511,043	31,573	0,115	0,072
-510,029	-18,168	-0,014	-0,006
-509,014	800,000	-0,047	0,108
-507,999	-162,486	-0,090	0,003
-506,985	-46,350	-0,166	0,059
-505,970	-38,831	-0,051	-0,019
-504,956	-200,000	0,011	0,047
-503,941	-115,554	-0,108	0,015
-502,926	-55,052	-0,027	-0,009
-501,912	800,000	-0,035	0,095
-500,897	-20,489	0,116	-0,052
-499,883	-86,000	0,049	0,011
-498,868	-114,081	-0,038	-0,005
-497,853	177,542	-0,061	0,065
-496,839	65,764	-0,052	0,039
-495,824	-84,111	0,078	0,018
-494,810	800,000	0,065	0,134
-493,795	149,826	-0,070	0,070
-492,781	-58,974	0,082	0,026
-491,766	-20,544	-0,058	-0,026
-490,751	800,000	0,065	-0,147
-489,737	-10,470	0,061	-0,029
-488,722	-69,689	-0,045	0,013
-487,708	-83,953	0,025	-0,006
-486,693	361,333	-0,040	-0,059
-485,678	224,716	0,026	-0,031
-484,664	-200,000	-0,007	-0,098
-483,649	-200,000	0,019	-0,112
-482,635	-157,364	-0,052	-0,002
-481,620	19,989	-0,086	0,050
-480,605	-43,901	0,086	0,031
-479,591	-168,164	-0,052	0,001
-478,576	-35,260	0,121	0,048
-477,562	2,160	0,054	0,028
-476,547	-200,000	0,015	-0,079
-475,532	800,000	-0,055	-0,148
-474,518	-49,477	0,034	0,012
-473,503	-119,749	-0,071	-0,009
-472,489	161,431	-0,089	-0,091
-471,474	-131,063	0,113	-0,011
-470,459	-123,390	0,050	0,006
-469,445	-3,840	-0,107	0,054
-468,430	99,568	-0,039	0,033
-467,416	-45,805	0,105	-0,038
-466,401	-200,000	0,020	-0,071
-465,386	-23,450	0,023	-0,010
-464,372	39,391	-0,128	-0,083
-463,357	140,737	0,060	-0,058
-462,343	175,816	-0,056	0,060
-461,328	-163,164	-0,083	-0,003
-460,313	488,950	-0,029	0,049
-459,299	-83,388	0,069	-0,016
-458,284	622,902	-0,054	0,099
-457,270	-200,000	0,036	-0,192
-456,255	-14,526	0,063	-0,029
-455,241	16,810	-0,128	-0,074
-454,226	800,000	-0,019	0,049
-453,211	800,000	0,046	-0,097
-452,197	19,973	0,037	0,022
-451,182	-200,000	0,002	-0,030
-450,168	-200,000	0,047	0,213
-449,153	469,362	-0,027	0,044
-448,138	-200,000	-0,045	-0,190
-447,124	-200,000	0,002	0,058
-446,109	72,627	0,082	-0,063
-445,095	292,464	0,022	-0,029
-444,080	478,593	0,024	-0,041
-443,065	173,665	0,073	0,077
-442,051	25,933	0,042	0,026
-441,036	-82,313	0,032	0,008
-440,022	384,315	-0,075	-0,113
-439,007	409,135	0,070	0,109
-437,992	-200,000	0,004	-0,063
-436,978	800,000	-0,034	0,096
-435,963	-93,167	0,126	0,025
-434,949	42,148	0,056	0,037
-433,934	-200,000	-0,008	-0,083
-432,919	-33,901	-0,085	0,034
-431,905	-72,407	-0,075	0,020
-430,890	-41,650	-0,036	-0,013
-429,876	15,512	0,038	0,022
-428,861	-200,000	0,002	0,008
-427,846	-200,000	-0,163	0,000
-426,832	-57,212	-0,050	0,016
-425,817	800,000	0,017	-0,044
-424,803	-111,130	0,069	-0,010
-423,788	-89,209	0,105	0,022
-422,773	800,000	-0,054	0,133
-421,759	-200,000	-0,011	0,067
-420,744	-44,453	-0,177	0,064
-419,730	-47,438	-0,056	-0,020
-418,715	84,848	-0,094	0,075
-417,701	-200,000	0,000	-0,024
-416,686	-116,886	0,062	-0,008
-415,671	-56,897	0,108	0,035
-414,657	341,434	0,048	-0,069
-413,642	313,197	0,022	0,030
-412,628	-33,759	-0,112	0,045
-411,613	143,887	-0,128	-0,124
-410,598	-200,000	-0,005	0,090
-409,584	-200,000	0,006	0,026
-408,569	102,157	0,023	-0,019
-407,555	-5,356	0,105	0,052
-406,540	497,466	-0,029	-0,049
-405,525	800,000	0,028	0,072
-404,511	394,245	0,038	-0,058
-403,496	-118,065	0,155	-0,020
-402,482	559,873	0,060	0,106
-401,467	800,000	-0,034	0,078
-400,452	63,896	0,038	-0,027
-399,438	-200,000	-0,006	0,115
-398,423	-126,994	0,049	0,005
-397,409	352,516	-0,049	-0,071
-396,394	-77,666	0,065	-0,016
-395,379	800,000	0,036	0,078
-394,365	-47,606	0,044	0,015
-393,350	440,532	0,045	-0,072
-392,336	-200,000	0,009	-0,072
-391,321	-67,550	0,084	-0,024
-390,306	287,223	-0,053	0,069
-389,292	3,388	0,084	0,044
-388,277	800,000	0,001	0,004
-387,263	-153,512	0,042	0,002
-386,248	800,000	0,011	-0,029
-385,233	241,845	0,029	-0,035
-384,219	800,000	-0,043	-0,108
-383,204	15,658	0,146	0,083
-382,190	146,778	0,097	-0,095
-381,175	-200,000	-0,018	0,224
-380,160	-35,555	-0,087	-0,034
-379,146	-32,002	0,199	0,080
-378,131	-13,096	0,121	-0,057
-377,117	800,000	-0,019	0,053
-376,102	-200,000	-0,004	-0,019
-375,088	-62,738	-0,082	-0,025
-374,073	-7,686	0,063	-0,031
-373,058	-200,000	0,012	-0,109
-372,044	586,188	-0,008	0,014
-371,029	448,160	-0,013	0,021
-370,015	116,316	-0,025	-0,022
-369,000	-200,000	-0,024	0,084
-367,985	-140,385	0,057	-0,004
-366,971	-200,000	-0,044	-0,241
-365,956	-200,000	-0,017	0,078
-364,942	-200,000	0,016	0,050
-363,927	-148,934	0,098	0,006
-362,912	283,752	0,025	-0,033
-361,898	-78,553	-0,092	-0,023
-360,883	162,132	-0,135	-0,138
-359,869	-125,881	-0,019	-0,002
-358,854	58,507	-0,070	0,050
-357,839	272,467	0,029	0,038
-356,825	106,289	0,121	-0,104
-355,810	-200,000	-0,029	-0,178
-354,796	125,653	-0,033	-0,030
-353,781	-200,000	-0,004	-0,052
-352,766	-143,235	-0,158	-0,011
-351,752	18,469	0,093	0,054
-350,737	239,933	0,031	-0,037
-349,723	566,846	-0,066	0,116
-348,708	-154,509	0,120	0,006
-347,693	53,270	-0,135	-0,094
-346,679	228,413	0,071	-0,084
-345,664	-200,000	-0,001	-0,033
-344,650	773,320	-0,042	0,084
-343,635	-137,629	-0,127	-0,010
-342,620	97,269	-0,025	0,021
-341,606	-87,914	0,126	-0,027
-340,591	94,427	-0,138	0,113
-339,577	-200,000	-0,012	-0,072
-338,562	-111,702	-0,036	0,005
-337,548	800,000	0,028	-0,061
-336,533	-156,452	0,013	0,001
-335,518	158,695	-0,111	0,112
-334,504	585,865	-0,039	-0,070
-333,489	-83,866	-0,255	-0,058
-332,475	-200,000	0,020	-0,134
-331,460	-100,493	0,015	0,003
-330,445	556,971	0,026	0,046
-329,431	-82,197	0,067	-0,016
-328,416	101,802	-0,058	0,049
-327,402	-200,000	0,002	0,167
-326,387	69,941	-0,066	0,049
-325,372	800,000	-0,031	-0,097
-324,358	1,103	-0,007	-0,004
-323,343	99,775	0,055	-0,046
-322,329	-200,000	0,021	0,129
-321,314	-200,000	0,031	0,207
-320,299	-82,362	-0,072	-0,017
-319,285	-200,000	0,003	0,054
-318,270	-42,583	-0,127	-0,047
-317,256	186,810	0,034	-0,037
-316,241	-93,525	-0,040	0,008
-315,226	-200,000	-0,003	0,040
-314,212	-104,206	0,049	0,008
-313,197	-26,859	0,101	0,043
-312,183	-75,859	-0,058	0,015
-311,168	-149,024	0,035	0,002
-310,153	800,000	-0,022	-0,071
-309,139	207,720	-0,071	-0,081
-308,124	222,100	0,025	0,029
-307,110	170,035	0,106	0,110
-306,095	681,552	0,074	0,141
-305,080	-200,000	0,041	0,160
-304,066	377,789	0,073	0,108
-303,051	-200,000	-0,012	-0,105
-302,037	110,261	-0,097	0,084
-301,022	800,000	0,044	0,090
-300,008	17,383	0,129	0,074
-298,993	-200,000	0,025	-0,114
-297,978	1,144	-0,060	-0,031
-296,964	-177,825	-0,047	0,001
-295,949	-200,000	0,001	0,081
-294,935	-200,000	-0,027	-0,132
-293,920	-200,000	-0,018	0,075
-292,905	210,776	0,060	-0,069
-291,891	15,621	0,074	0,042
-290,876	-64,914	-0,058	-0,017
-289,862	800,000	-0,031	-0,073
-288,847	55,260	-0,035	0,025
-287,832	-200,000	0,011	-0,047
-286,818	800,000	-0,057	0,115
-285,803	35,960	0,085	0,054
-284,789	68,213	0,131	0,097
-283,774	235,508	-0,060	0,072
-282,759	-13,567	-0,018	0,008
-281,745	129,497	-0,029	0,027
-280,730	-200,000	-0,035	-0,161
-279,716	565,197	-0,058	0,103
-278,701	-200,000	-0,016	0,055
-277,686	-200,000	-0,018	0,134
-276,672	34,082	0,029	-0,019
-275,657	16,651	-0,124	0,071
-274,643	343,003	-0,057	0,080
-273,628	-143,226	-0,079	0,005
-272,613	-48,630	-0,042	0,015
-271,599	-80,988	-0,065	-0,015
-270,584	184,588	0,069	0,074
-269,570	-65,102	-0,116	-0,034
-268,555	-200,000	0,012	-0,119
-267,540	77,471	-0,104	0,080
-266,526	-200,000	0,058	-0,237
-265,511	474,294	-0,018	0,030
-264,497	800,000	-0,058	-0,157
-263,482	-16,373	-0,117	0,054
-262,467	107,132	0,110	0,095
-261,453	13,854	0,071	0,040
-260,438	309,144	-0,075	-0,101
-259,424	-200,000	0,008	0,026
-258,409	72,879	0,103	-0,077
-257,395	800,000	0,007	-0,014
-256,380	-200,000	0,009	0,038
-255,365	-69,560	0,051	0,014
-254,351	37,921	0,018	-0,011
-253,336	115,828	-0,035	-0,031
-252,322	14,659	-0,097	-0,055
-251,307	393,233	0,026	0,039
-250,292	-200,000	-0,001	0,056
-249,278	-88,454	0,057	0,012
-248,263	-200,000	0,006	0,031
-247,249	540,167	0,048	-0,082
-246,234	800,000	-0,024	0,061
-245,219	207,196	-0,141	-0,159
-244,205	16,713	0,012	0,007
-243,190	-200,000	0,033	-0,159
-242,176	-17,917	-0,063	0,029
-241,161	7,702	0,189	0,102
-240,146	-0,939	0,087	0,045
-239,132	54,521	0,051	-0,036
-238,117	-100,415	-0,092	0,016
-237,103	-69,159	-0,048	-0,013
-236,088	-52,963	0,112	0,037
-235,073	618,002	0,043	-0,078
-234,059	-68,592	0,105	0,029
-233,044	140,209	0,038	-0,036
-232,030	341,451	-0,011	0,015
-231,015	505,690	-0,052	0,087
-230,000	138,663	0,058	0,055
-228,986	-123,721	0,164	0,018
-227,971	-90,745	0,125	0,026
-226,957	591,933	0,042	0,075
-225,942	-200,000	-0,028	0,222
-224,927	-91,768	-0,109	-0,022
-223,913	800,000	-0,060	-0,126
-222,898	-56,763	0,099	0,032
-221,884	145,150	-0,063	-0,061
-220,869	320,916	0,067	-0,092
-219,855	165,598	0,043	0,044
-218,840	210,874	0,068	0,077
-217,825	800,000	-0,030	-0,065
-216,811	382,639	-0,037	-0,054
-215,796	-200,000	-0,003	0,044
-214,782	186,295	0,094	-0,101
-213,767	58,090	0,018	0,013
-212,752	-200,000	-0,010	0,166
-211,738	574,623	0,102	0,180
-210,723	3,121	-0,042	0,022
-209,709	-200,000	-0,014	-0,142
-208,694	210,820	-0,069	-0,079
-207,679	-200,000	-0,000	0,084
-206,665	143,082	0,085	0,082
-205,650	800,000	0,042	0,089
-204,636	-178,998	-0,094	-0,001
-203,621	51,675	-0,112	0,077
-202,606	1,589	0,043	0,022
-201,592	689,266	-0,032	-0,061
-200,577	76,737	-0,068	-0,052
-199,563	-200,000	-0,012	-0,056
-198,548	63,898	0,059	-0,043
-197,533	85,700	0,054	0,043
-196,519	40,706	-0,137	0,089
-195,504	491,873	0,064	-0,106
-194,490	-83,178	-0,122	0,028
-193,475	-19,858	0,024	-0,011
-192,460	-37,527	-0,111	0,043
-191,446	690,120	0,069	0,131
-190,431	21,519	0,091	0,053
-189,417	185,925	0,042	0,045
-188,402	588,801	-0,039	-0,070
-187,387	712,272	0,060	-0,115
-186,373	355,186	0,092	0,132
-185,358	40,457	0,064	-0,041
-184,344	800,000	0,027	0,079
-183,329	800,000	-0,009	-0,018
-182,315	-83,114	-0,167	0,038
-181,300	70,839	-0,057	0,043
-180,285	800,000	-0,017	0,047
-179,271	120,781	-0,083	-0,074
-178,256	800,000	0,043	-0,112
-177,242	-157,332	0,105	-0,004
-176,227	249,643	-0,037	-0,046
-175,212	-100,601	-0,020	0,004
-174,198	800,000	0,015	0,045
-173,183	405,216	-0,003	-0,005
-172,169	-101,501	0,094	-0,016
-171,154	-152,432	-0,145	0,007
-170,139	19,038	0,131	-0,076
-169,125	9,222	-0,031	-0,017
-168,110	110,824	0,063	0,054
-167,096	-18,655	-0,036	-0,016
-166,081	66,102	-0,086	-0,063
-165,066	-172,680	-0,041	0,001
-164,052	-200,000	-0,016	0,218
-163,037	185,995	0,047	0,051
-162,023	-200,000	-0,015	-0,091
-161,008	167,667	0,152	0,156
-159,993	-200,000	-0,053	0,000
-158,979	-100,779	-0,135	-0,024
-157,964	352,527	0,049	-0,070
-156,950	-50,893	-0,033	-0,011
-155,935	-29,119	0,046	-0,019
-154,920	-143,027	-0,046	-0,003
-153,906	-200,000	0,015	0,071
-152,891	33,328	0,042	0,026
-151,877	10,251	-0,080	0,044
-150,862	282,229	-0,090	-0,116
-149,847	800,000	0,031	0,088
-148,833	-196,660	0,059	-0,000
-147,818	106,177	0,077	0,066
-146,804	-76,332	-0,094	0,024
-145,789	16,502	-0,077	-0,044
-144,775	-114,030	-0,208	-0,029
-143,760	-200,000	0,017	-0,096
-142,745	-92,168	-0,121	-0,024
-141,731	-52,695	0,114	0,038
-140,716	-101,847	0,080	0,014
-139,702	-90,090	-0,107	0,022
-138,687	7,963	-0,111	0,060
-137,672	-51,784	-0,075	-0,025
-136,658	197,166	-0,068	-0,075
-135,643	-122,286	-0,066	-0,008
-134,629	-41,473	0,097	-0,036
-133,614	-200,000	-0,008	0,093
-132,599	-31,363	0,187	-0,075
-131,585	-83,290	0,080	0,018
-130,570	-200,000	-0,011	0,149
-129,556	319,680	-0,091	-0,125
-128,541	800,000	0,059	-0,134
-127,526	73,560	-0,070	0,052
-126,512	-21,069	-0,040	0,018
-125,497	216,297	0,049	0,056
-124,483	-200,000	0,023	0,112
-123,468	-66,326	-0,020	-0,006
-122,453	-200,000	-0,018	0,186
-121,439	7,133	-0,143	-0,076
-120,424	-29,711	-0,112	-0,046
-119,410	-200,000	0,008	0,130
-118,395	-200,000	0,030	0,103
