DTS Sentinel unit serial number:	SN410029Multiplexer serial number:	ORYXHardware model number:	OX2-SRSoftware version number:	ORYX F/W v4,00 Oryx Data Collector v3.7.2.0data status	okinstallation	B5 Nyhavnadifferential loss correction	single-endedforward channel	channel 2reverse channel	N/Adate	2023/12/13time	17:22:14forward acquisition time	300,00reverse acquisition time	0,00gamma	499,1914k internal	0,3159k external	0,3159temperature offset calibration	1,0000default loss term (dB/km)	0,3820temperature slope calibration	1,0000multiplexer offset coefficient	1,0000multiplexer slope coefficient	1,0000fibre end	0,00T internal ref (°C)	13,90T ext. ref 1 (°C)	-3,50T ext. ref 2 (°C)	-3,61length (m)	temperature (°C)	Stokes	anti-Stokes-744,400	11,751	0,086	0,049
-743,385	-127,700	-0,311	-0,033
-742,371	-114,457	0,077	0,011
-741,356	-115,139	-0,240	0,033
-740,342	-70,398	0,205	0,057
-739,327	-77,497	-0,276	-0,070
-738,312	52,799	0,075	0,053
-737,298	-162,466	-0,397	0,014
-736,283	-133,230	0,234	0,021
-735,269	-27,245	-0,267	0,114
-734,254	64,847	0,091	0,067
-733,239	-61,255	-0,539	-0,166
-732,225	16,622	0,111	0,065
-731,210	77,724	-0,067	-0,052
-730,196	71,397	0,007	-0,006
-729,181	-113,295	-0,091	0,013
-728,167	-200,000	-0,013	-0,088
-727,152	9,176	-0,135	-0,075
-726,137	800,000	-0,034	0,087
-725,123	269,743	-0,065	-0,084
-724,108	268,729	-0,085	-0,110
-723,094	-3,541	-0,072	-0,037
-722,079	-25,415	-0,075	0,032
-721,064	6,918	-0,084	0,046
-720,050	83,333	0,108	-0,087
-719,035	139,319	-0,085	0,083
-718,021	274,817	-0,074	0,097
-717,006	168,625	-0,117	-0,123
-715,991	413,950	-0,070	-0,110
-714,977	-116,093	-0,055	-0,007
-713,962	559,124	-0,030	-0,053
-712,948	-83,125	-0,040	-0,009
-711,933	354,440	0,023	0,033
-710,918	95,100	-0,093	-0,078
-709,904	-152,781	-0,099	-0,005
-708,889	-200,000	-0,016	-0,091
-707,875	-200,000	-0,017	-0,164
-706,860	22,878	0,029	-0,018
-705,845	800,000	-0,022	0,050
-704,831	-130,043	-0,037	-0,004
-703,816	-139,692	0,079	-0,006
-702,802	-200,000	0,017	-0,121
-701,787	-200,000	-0,008	-0,161
-700,772	29,882	0,136	-0,085
-699,758	18,231	0,059	-0,035
-698,743	8,634	-0,074	0,041
-697,729	-151,120	0,109	0,006
-696,714	-200,000	-0,018	0,068
-695,699	-24,383	0,124	-0,054
-694,685	-78,275	-0,134	0,034
-693,670	-65,768	-0,120	-0,035
-692,656	-106,617	0,109	-0,018
-691,641	-42,102	0,010	0,004
-690,627	-117,197	0,127	0,017
-689,612	-18,233	0,040	-0,018
-688,597	-135,902	-0,050	0,004
-687,583	-200,000	0,009	-0,112
-686,568	-67,623	-0,044	0,012
-685,554	509,025	-0,030	0,052
-684,539	-179,822	-0,108	-0,002
-683,524	-37,841	0,080	0,031
-682,510	26,299	0,029	0,018
-681,495	27,390	0,056	-0,034
-680,481	-200,000	-0,017	0,063
-679,466	11,286	-0,055	0,031
-678,451	561,549	0,033	-0,058
-677,437	455,360	-0,030	0,048
-676,422	198,943	0,053	0,060
-675,408	800,000	0,034	-0,083
-674,393	-144,554	-0,114	-0,008
-673,378	-200,000	0,025	-0,091
-672,364	-136,343	-0,125	-0,011
-671,349	-200,000	-0,007	0,025
-670,335	634,321	0,086	0,161
-669,320	-200,000	-0,000	0,015
-668,305	428,980	0,085	-0,135
-667,291	800,000	0,013	-0,036
-666,276	-200,000	0,005	-0,041
-665,262	-197,208	0,074	-0,000
-664,247	-200,000	0,016	-0,207
-663,232	704,045	0,025	-0,048
-662,218	105,974	-0,044	0,038
-661,203	-200,000	0,005	-0,061
-660,189	138,702	0,090	-0,086
-659,174	200,773	0,047	-0,053
-658,159	-200,000	-0,005	0,019
-657,145	-200,000	-0,038	-0,139
-656,130	370,629	-0,036	0,054
-655,116	569,980	0,078	-0,140
-654,101	123,830	0,020	0,019
-653,086	-200,000	-0,016	-0,073
-652,072	800,000	0,034	-0,094
-651,057	-110,817	0,057	-0,009
-650,043	800,000	-0,054	0,160
-649,028	-8,157	-0,046	0,022
-648,014	381,477	-0,090	0,136
-646,999	-135,928	-0,082	0,007
-645,984	-200,000	-0,022	0,090
-644,970	800,000	0,069	0,213
-643,955	133,402	-0,093	-0,088
-642,941	-181,980	0,128	-0,002
-641,926	800,000	0,013	0,035
-640,911	800,000	0,027	-0,079
-639,897	44,643	-0,049	-0,033
-638,882	800,000	-0,019	-0,044
-637,868	800,000	-0,035	0,078
-636,853	-16,941	-0,108	0,050
-635,838	-200,000	-0,016	-0,134
-634,824	-78,215	0,119	0,030
-633,809	-86,500	0,106	-0,024
-632,795	94,468	0,136	-0,113
-631,780	55,778	-0,066	-0,047
-630,765	-24,022	0,064	0,028
-629,751	78,954	0,080	0,063
-628,736	-200,000	-0,006	0,091
-627,722	-66,612	-0,144	0,042
-626,707	68,039	-0,078	-0,058
-625,692	-200,000	-0,005	-0,039
-624,678	-200,000	-0,011	-0,035
-623,663	-200,000	-0,006	0,031
-622,649	63,412	-0,127	-0,094
-621,634	800,000	-0,014	0,039
-620,619	-200,000	0,001	-0,024
-619,605	-26,457	-0,014	0,006
-618,590	-200,000	-0,047	0,158
-617,576	147,013	0,114	0,112
-616,561	355,045	-0,042	0,061
-615,546	-104,637	-0,039	0,007
-614,532	-63,075	0,138	0,041
-613,517	228,896	-0,105	0,125
-612,503	800,000	-0,037	-0,114
-611,488	0,941	-0,055	0,029
-610,474	70,802	0,135	0,102
-609,459	800,000	-0,015	-0,034
-608,444	127,808	0,112	0,104
-607,430	206,107	-0,102	-0,117
-606,415	-200,000	-0,052	-0,176
-605,401	143,644	-0,030	-0,029
-604,386	444,494	0,043	-0,070
-603,371	-88,652	0,136	0,029
-602,357	-4,034	-0,110	0,056
-601,342	-200,000	-0,007	0,075
-600,328	-95,734	-0,115	0,022
-599,313	-112,633	-0,106	-0,015
-598,298	2,931	-0,132	0,070
-597,284	-59,164	-0,145	0,046
-596,269	-9,546	0,168	0,082
-595,255	157,135	-0,119	-0,121
-594,240	-200,000	0,001	-0,082
-593,225	800,000	-0,016	-0,050
-592,211	276,195	0,045	-0,058
-591,196	-200,000	-0,025	0,169
-590,182	-83,379	0,043	-0,010
-589,167	-200,000	0,032	0,118
-588,152	-200,000	0,009	0,185
-587,138	16,111	-0,124	0,071
-586,123	-70,981	-0,086	0,024
-585,109	104,008	0,077	-0,066
-584,094	800,000	-0,061	0,141
-583,079	546,064	-0,043	-0,075
-582,065	-200,000	-0,002	-0,040
-581,050	-200,000	-0,001	0,107
-580,036	356,366	0,031	-0,046
-579,021	57,023	-0,081	-0,057
-578,006	-122,681	-0,169	0,020
-576,992	-200,000	-0,045	-0,000
-575,977	97,152	-0,058	-0,048
-574,963	61,178	0,112	0,082
-573,948	800,000	0,036	0,106
-572,934	187,707	0,044	-0,048
-571,919	800,000	0,005	-0,012
-570,904	-1,350	0,071	0,037
-569,890	123,439	0,045	-0,041
-568,875	416,689	0,017	0,027
-567,861	-200,000	0,034	-0,146
-566,846	31,890	-0,060	0,038
-565,831	252,712	-0,124	0,156
-564,817	-200,000	-0,021	-0,117
-563,802	355,424	-0,039	-0,056
-562,788	387,132	-0,080	-0,121
-561,773	800,000	-0,011	-0,030
-560,758	-200,000	0,004	0,019
-559,744	629,987	-0,059	-0,110
-558,729	800,000	-0,041	0,092
-557,715	48,163	-0,020	0,013
-556,700	800,000	-0,040	-0,116
-555,685	36,171	0,065	-0,042
-554,671	-42,557	0,064	0,024
-553,656	92,328	0,042	-0,035
-552,642	6,432	0,109	0,059
-551,627	-200,000	0,022	-0,138
-550,612	-44,446	-0,071	-0,026
-549,598	-43,439	-0,244	-0,090
-548,583	-37,357	-0,090	0,035
-547,569	-200,000	-0,012	-0,091
-546,554	76,143	0,071	-0,055
-545,539	800,000	-0,059	0,191
-544,525	-57,925	0,158	0,050
-543,510	117,239	-0,053	0,048
-542,496	-200,000	0,000	0,057
-541,481	438,516	0,057	0,091
-540,466	64,797	-0,040	0,029
-539,452	178,461	0,073	-0,079
-538,437	800,000	-0,037	0,089
-537,423	800,000	0,084	0,211
-536,408	215,934	-0,112	0,131
-535,393	95,322	-0,124	-0,104
-534,379	-183,319	-0,118	0,001
-533,364	52,704	-0,024	-0,017
-532,350	524,670	0,100	0,172
-531,335	-45,271	0,067	0,024
-530,321	-67,626	0,103	0,029
-529,306	248,151	-0,051	-0,064
-528,291	-172,563	0,064	-0,001
-527,277	-200,000	0,009	-0,040
-526,262	302,682	-0,081	-0,110
-525,248	-200,000	-0,003	0,018
-524,233	-200,000	-0,003	-0,047
-523,218	271,796	0,031	0,040
-522,204	-200,000	-0,009	-0,051
-521,189	800,000	-0,032	-0,087
-520,175	-200,000	-0,038	-0,132
-519,160	-2,187	-0,070	-0,036
-518,145	448,217	-0,028	-0,044
-517,131	-102,774	-0,047	0,008
-516,116	-200,000	-0,024	0,123
-515,102	41,987	-0,050	0,033
-514,087	-99,522	-0,049	0,009
-513,072	-200,000	0,021	-0,145
-512,058	-45,920	-0,024	-0,008
-511,043	-57,553	0,091	-0,029
-510,029	53,640	0,112	-0,079
-509,014	-200,000	0,006	0,077
-507,999	110,454	-0,148	0,130
-506,985	-200,000	-0,008	0,117
-505,970	301,178	0,064	0,086
-504,956	-200,000	0,012	-0,080
-503,941	-200,000	0,026	0,119
-502,926	-129,094	0,200	0,020
-501,912	27,822	-0,123	0,075
-500,897	-108,899	-0,048	-0,007
-499,883	39,833	0,097	0,063
-498,868	-117,163	-0,132	-0,017
-497,853	69,969	0,068	-0,051
-496,839	160,623	0,009	0,009
-495,824	800,000	-0,017	0,051
-494,810	16,692	0,152	-0,087
-493,795	800,000	-0,043	-0,130
-492,781	-26,464	0,041	-0,017
-491,766	-200,000	-0,004	-0,023
-490,751	-65,766	0,035	-0,010
-489,737	800,000	-0,030	-0,071
-488,722	56,180	0,050	-0,035
-487,708	246,215	-0,078	-0,096
-486,693	101,849	0,031	0,026
-485,678	75,919	-0,071	-0,055
-484,664	-200,000	0,006	0,040
-483,649	2,790	-0,114	0,060
-482,635	-200,000	0,015	-0,199
-481,620	-33,592	-0,085	-0,034
-480,605	-200,000	0,000	0,128
-479,591	-200,000	-0,002	0,071
-478,576	450,203	-0,021	-0,035
-477,562	-17,769	-0,072	0,033
-476,547	-104,713	-0,112	0,019
-475,532	800,000	0,030	-0,065
-474,518	39,113	0,063	-0,041
-473,503	-200,000	0,038	0,129
-472,489	-200,000	0,006	0,065
-471,474	-114,980	0,030	0,004
-470,459	7,627	-0,012	-0,006
-469,445	712,447	0,029	-0,056
-468,430	-200,000	-0,001	0,027
-467,416	-200,000	0,009	-0,190
-466,401	-200,000	0,026	0,137
-465,386	800,000	0,049	-0,128
-464,372	-200,000	-0,002	0,089
-463,357	71,515	-0,108	-0,082
-462,343	102,635	-0,074	0,063
-461,328	800,000	0,008	0,020
-460,313	748,081	0,048	0,095
-459,299	432,225	0,044	0,070
-458,284	-200,000	0,039	-0,134
-457,270	-200,000	-0,004	-0,037
-456,255	800,000	-0,015	-0,037
-455,241	-200,000	-0,012	0,114
-454,226	-1,515	-0,053	0,027
-453,211	364,935	0,087	-0,128
-452,197	369,472	-0,043	-0,063
-451,182	-186,905	0,171	0,002
-450,168	65,701	-0,075	-0,055
-449,153	-73,519	0,116	0,031
-448,138	38,052	-0,028	-0,018
-447,124	176,727	-0,037	-0,039
-446,109	668,576	-0,043	0,082
-445,095	336,127	0,042	-0,060
-444,080	-200,000	-0,015	-0,050
-443,065	-200,000	0,019	0,120
-442,051	29,785	0,128	0,079
-441,036	174,455	-0,039	0,041
-440,022	-54,563	-0,125	-0,041
-439,007	206,265	-0,045	0,051
-437,992	575,021	0,079	0,141
-436,978	761,051	0,013	0,025
-435,963	-193,637	0,070	0,000
-434,949	370,810	0,068	-0,100
-433,934	800,000	-0,058	-0,150
-432,919	-200,000	0,001	0,042
-431,905	-169,980	-0,029	0,001
-430,890	-46,957	-0,116	0,041
-429,876	75,586	0,120	-0,092
-428,861	-43,308	-0,097	-0,035
-427,846	66,032	0,102	-0,075
-426,832	334,263	0,037	0,052
-425,817	156,883	-0,148	-0,149
-424,803	196,444	-0,039	-0,043
-423,788	-200,000	-0,041	-0,149
-422,773	444,079	0,051	-0,082
-421,759	-200,000	0,022	0,187
-420,744	105,385	0,134	-0,115
-419,730	-117,570	0,150	0,019
-418,715	437,865	-0,083	0,133
-417,701	-18,782	-0,036	0,016
-416,686	500,653	-0,082	-0,139
-415,671	-79,677	0,085	-0,021
-414,657	35,596	0,076	-0,049
-413,642	133,791	0,025	0,023
-412,628	-200,000	0,022	-0,148
-411,613	99,575	0,100	-0,084
-410,598	-105,764	0,059	0,010
-409,584	-119,242	-0,050	0,006
-408,569	-11,067	-0,034	0,016
-407,555	-75,742	-0,033	-0,009
-406,540	-171,255	-0,047	-0,001
-405,525	-36,769	0,070	-0,027
-404,511	-82,449	-0,051	0,012
-403,496	81,956	0,084	0,067
-402,482	-200,000	-0,004	0,047
-401,467	106,053	0,136	0,117
-400,452	189,886	0,083	0,091
-399,438	94,060	-0,073	0,060
-398,423	-200,000	0,019	-0,172
-397,409	287,846	-0,073	-0,097
-396,394	-200,000	-0,004	-0,121
-395,379	800,000	-0,016	-0,048
-394,365	84,211	0,070	0,055
-393,350	-59,686	0,145	0,045
-392,336	800,000	-0,027	0,075
-391,321	98,015	-0,014	0,012
-390,306	432,523	0,082	-0,129
-389,292	708,551	-0,024	-0,046
-388,277	13,336	0,096	-0,054
-387,263	419,143	0,039	-0,061
-386,248	68,188	0,070	-0,052
-385,233	-200,000	0,009	0,084
-384,219	-27,212	-0,010	-0,004
-383,204	180,152	0,110	-0,117
-382,190	800,000	0,054	-0,148
-381,175	-110,180	0,125	-0,019
-380,160	121,696	0,103	-0,094
-379,146	-200,000	0,016	0,109
-378,131	428,590	0,053	0,083
-377,117	113,272	-0,130	-0,115
-376,102	-200,000	0,002	0,155
-375,088	168,885	-0,094	0,097
-374,073	244,339	-0,014	0,018
-373,058	18,747	-0,043	0,025
-372,044	-100,430	0,122	-0,022
-371,029	-85,110	0,143	-0,032
-370,015	-200,000	-0,014	-0,206
-369,000	-77,615	-0,195	-0,049
-367,985	-60,247	0,054	0,016
-366,971	253,003	0,025	-0,031
-365,956	-200,000	0,017	0,080
-364,942	-24,122	0,068	-0,029
-363,927	-200,000	0,010	0,110
-362,912	-200,000	-0,004	0,071
-361,898	-52,351	0,117	-0,039
-360,883	-45,029	-0,086	-0,031
-359,869	800,000	0,008	-0,020
-358,854	800,000	0,064	0,166
-357,839	504,913	0,019	-0,033
-356,825	137,530	-0,078	0,075
-355,810	607,327	0,084	-0,153
-354,796	-107,990	0,042	-0,006
-353,781	18,448	-0,135	-0,078
-352,766	800,000	0,010	-0,033
-351,752	-118,551	0,165	0,021
-350,737	-47,266	-0,135	-0,048
-349,723	66,108	0,089	-0,065
-348,708	-200,000	0,001	-0,178
-347,693	46,093	-0,091	-0,061
-346,679	-200,000	0,006	-0,043
-345,664	25,386	-0,051	0,031
-344,650	24,796	0,028	0,017
-343,635	800,000	0,044	0,096
-342,620	90,063	-0,027	0,022
-341,606	800,000	-0,045	0,134
-340,591	-25,528	-0,132	0,056
-339,577	-39,795	-0,136	-0,051
-338,562	-90,142	0,014	0,003
-337,548	-56,626	0,139	-0,044
-336,533	-35,445	0,055	0,022
-335,518	800,000	0,041	0,084
-334,504	-13,528	0,019	-0,009
-333,489	18,631	0,042	0,025
-332,475	171,742	0,062	0,065
-331,460	-20,906	-0,143	0,063
-330,445	-83,775	-0,105	-0,024
-329,431	800,000	0,021	0,053
-328,416	-115,570	0,074	0,010
-327,402	-114,497	-0,059	0,008
-326,387	717,459	-0,062	0,120
-325,372	-171,155	-0,051	-0,001
-324,358	4,787	0,078	-0,041
-323,343	800,000	0,003	-0,007
-322,329	155,943	-0,072	0,072
-321,314	394,661	0,079	-0,120
-320,299	-131,761	0,163	-0,015
-319,285	574,205	0,027	-0,049
-318,270	11,126	0,032	-0,018
-317,256	337,400	0,079	-0,112
-316,241	2,889	-0,056	-0,029
-315,226	-107,161	0,088	0,014
-314,212	548,124	0,113	-0,198
-313,197	800,000	-0,030	0,073
-312,183	-200,000	-0,005	0,084
-311,168	800,000	0,023	0,061
-310,153	45,938	-0,129	-0,086
-309,139	-38,119	0,114	0,044
-308,124	-200,000	-0,014	-0,083
-307,110	128,507	0,059	0,054
-306,095	103,672	0,100	-0,085
-305,080	-200,000	0,004	0,017
-304,066	-100,228	-0,106	-0,019
-303,051	800,000	0,030	-0,085
-302,037	523,684	0,095	-0,162
-301,022	-94,687	0,015	0,003
-300,008	-200,000	0,015	0,124
-298,993	651,874	-0,054	0,101
-297,978	800,000	0,027	-0,070
-296,964	773,995	-0,016	-0,032
-295,949	-200,000	0,018	-0,073
-294,935	270,467	0,074	-0,094
-293,920	-200,000	-0,006	0,021
-292,905	-200,000	-0,009	0,094
-291,891	271,994	-0,056	0,072
-290,876	5,735	0,012	-0,007
-289,862	800,000	0,046	-0,098
-288,847	171,082	-0,049	0,051
-287,832	536,059	-0,076	-0,131
-286,818	-200,000	0,025	-0,223
-285,803	311,126	-0,089	0,121
-284,789	46,044	0,124	0,083
-283,774	53,954	-0,047	-0,033
-282,759	800,000	-0,055	-0,153
-281,745	-125,421	0,072	-0,008
-280,730	800,000	-0,034	0,080
-279,716	-161,278	-0,064	0,002
-278,701	-200,000	-0,005	0,047
-277,686	-136,795	0,167	-0,014
-276,672	800,000	0,014	-0,029
-275,657	8,970	-0,051	-0,028
-274,643	-108,551	-0,159	-0,024
-273,628	457,753	0,043	0,070
-272,613	-122,656	-0,096	-0,011
-271,599	153,711	0,084	-0,083
-270,584	-4,504	0,133	-0,066
-269,570	-42,744	0,166	0,061
-268,555	800,000	-0,047	-0,099
-267,540	557,298	-0,021	-0,038
-266,526	121,604	0,027	0,024
-265,511	495,582	0,025	-0,041
-264,497	494,004	0,026	0,042
-263,482	-200,000	-0,017	0,095
-262,467	225,431	-0,016	-0,019
-261,453	-85,042	-0,175	-0,039
-260,438	3,312	0,168	-0,088
-259,424	526,046	-0,057	0,098
-258,409	800,000	-0,030	0,067
-257,395	7,406	-0,044	0,024
-256,380	-63,499	0,121	0,036
-255,365	-200,000	-0,016	0,139
-254,351	-200,000	-0,008	-0,124
-253,336	800,000	-0,010	-0,023
-252,322	-200,000	-0,000	-0,091
-251,307	47,379	-0,110	0,074
-250,292	-76,884	-0,089	-0,022
-249,278	661,924	-0,024	-0,045
-248,263	-114,661	0,031	-0,004
-247,249	-81,064	0,050	0,012
-246,234	157,221	-0,108	-0,108
-245,219	205,423	-0,098	0,110
-244,205	-119,117	0,080	0,010
-243,190	-188,371	0,072	0,001
-242,176	175,051	-0,020	0,021
-241,161	-200,000	0,011	-0,097
-240,146	-48,214	0,134	-0,046
-239,132	-8,819	0,120	0,058
-238,117	800,000	-0,037	-0,092
-237,103	-200,000	0,032	-0,155
-236,088	205,247	-0,050	0,057
-235,073	379,626	0,032	0,047
-234,059	-74,137	-0,159	-0,041
-233,044	23,702	0,071	-0,042
-232,030	-123,951	-0,116	0,013
-231,015	800,000	0,049	0,127
-230,000	800,000	0,045	0,104
-228,986	-80,124	-0,097	0,023
-227,971	-200,000	0,016	0,067
-226,957	-54,806	0,090	-0,029
-225,942	85,316	-0,068	0,054
-224,927	-58,075	-0,184	-0,058
-223,913	-9,097	-0,125	0,060
-222,898	394,074	-0,044	0,067
-221,884	544,645	0,057	0,098
-220,869	800,000	0,043	0,089
-219,855	-104,200	-0,172	0,029
-218,840	541,860	0,076	0,131
-217,825	-200,000	0,013	0,057
-216,811	445,367	0,036	-0,057
-215,796	-200,000	-0,030	-0,179
-214,782	-117,313	0,021	0,003
-213,767	-200,000	-0,008	0,224
-212,752	-113,531	0,059	0,008
-211,738	-159,635	0,114	-0,004
-210,723	800,000	0,006	-0,016
-209,709	-200,000	-0,009	-0,053
-208,694	-200,000	-0,007	-0,036
-207,679	-102,389	-0,042	-0,007
-206,665	-136,409	-0,089	-0,007
-205,650	800,000	-0,019	0,042
-204,636	-113,759	-0,093	-0,013
-203,621	-143,439	0,077	0,005
-202,606	800,000	0,041	-0,125
-201,592	93,806	-0,100	-0,082
-200,577	397,512	-0,062	0,093
-199,563	256,733	0,122	0,152
-198,548	314,551	0,118	0,161
-197,533	204,205	0,067	0,075
-196,519	514,162	0,109	0,184
-195,504	-115,675	-0,122	-0,016
-194,490	106,345	-0,053	-0,045
-193,475	-57,041	0,108	0,034
-192,460	42,463	-0,064	0,042
-191,446	83,229	-0,057	0,045
-190,431	245,928	-0,053	0,065
-189,417	54,865	-0,030	-0,021
-188,402	165,987	-0,010	0,011
-187,387	-200,000	0,004	-0,081
-186,373	-200,000	-0,002	0,023
-185,358	-63,149	0,037	-0,011
-184,344	224,481	-0,108	0,126
-183,329	800,000	0,029	0,076
-182,315	673,602	0,039	-0,073
-181,300	800,000	-0,021	-0,053
-180,285	-200,000	-0,004	-0,049
-179,271	-132,274	-0,073	0,007
-178,256	64,537	-0,080	0,058
-177,242	194,972	0,086	0,094
-176,227	800,000	-0,035	-0,071
-175,212	4,071	-0,027	-0,014
-174,198	-200,000	0,023	-0,087
-173,183	121,087	-0,036	0,032
-172,169	-200,000	-0,002	-0,009
-171,154	298,442	0,033	0,043
-170,139	-2,837	0,069	0,035
-169,125	463,683	-0,043	-0,069
-168,110	-200,000	-0,003	0,083
-167,096	581,575	0,011	0,019
-166,081	-200,000	-0,018	-0,130
-165,066	306,837	0,085	-0,115
-164,052	-200,000	0,000	-0,124
-163,037	-200,000	0,007	-0,060
-162,023	-200,000	0,019	-0,087
-161,008	131,968	0,100	0,092
-159,993	799,773	0,023	0,046
-158,979	589,283	0,029	-0,051
-157,964	-145,506	-0,039	-0,002
-156,950	174,156	-0,105	0,109
-155,935	-100,442	-0,129	-0,023
-154,920	-200,000	0,024	0,098
-153,906	800,000	0,059	0,138
-152,891	-120,841	0,088	-0,011
-151,877	263,638	-0,101	0,127
-150,862	-200,000	0,008	-0,034
-149,847	-65,020	-0,161	-0,046
-148,833	128,675	0,065	0,060
-147,818	-161,464	0,060	-0,002
-146,804	90,666	-0,084	-0,068
-145,789	-200,000	-0,001	-0,018
-144,775	-10,854	0,075	0,035
-143,760	-97,387	-0,130	-0,024
-142,745	-28,326	-0,106	0,044
-141,731	144,075	0,106	0,101
-140,716	5,954	0,104	-0,055
-139,702	225,062	0,009	-0,010
-138,687	-83,403	-0,150	-0,034
-137,672	-97,113	0,062	0,012
-136,658	50,821	-0,034	0,023
-135,643	-23,601	-0,113	0,049
-134,629	-54,365	-0,041	0,013
-133,614	-96,636	0,151	0,028
-132,599	71,371	-0,022	0,016
-131,585	-196,825	-0,167	-0,001
-130,570	501,982	-0,068	0,113
-129,556	-200,000	0,000	-0,104
-128,541	243,667	-0,058	0,070
-127,526	800,000	0,031	-0,089
-126,512	-71,981	0,066	0,017
-125,497	119,562	0,122	0,109
-124,483	-44,521	-0,249	0,089
-123,468	-200,000	-0,010	-0,150
-122,453	100,276	0,062	-0,052
-121,439	-87,165	0,023	0,005
-120,424	-50,026	-0,132	0,045
-119,410	-76,074	-0,104	-0,026
