DTS Sentinel unit serial number:	SN410029Multiplexer serial number:	ORYXHardware model number:	OX2-SRSoftware version number:	ORYX F/W v4,00 Oryx Data Collector v3.7.2.0data status	okinstallation	B5 Nyhavnadifferential loss correction	single-endedforward channel	channel 2reverse channel	N/Adate	2023/12/13time	22:52:14forward acquisition time	300,00reverse acquisition time	0,00gamma	499,1914k internal	0,3154k external	0,3154temperature offset calibration	1,0000default loss term (dB/km)	0,3820temperature slope calibration	1,0000multiplexer offset coefficient	1,0000multiplexer slope coefficient	1,0000fibre end	0,00T internal ref (°C)	9,15T ext. ref 1 (°C)	-7,50T ext. ref 2 (°C)	-7,51length (m)	temperature (°C)	Stokes	anti-Stokes-744,400	150,791	0,042	0,042
-743,385	-62,825	-0,224	0,068
-742,371	-122,044	0,223	0,027
-741,356	-26,759	-0,305	-0,131
-740,342	226,982	0,143	0,172
-739,327	-21,867	-0,385	-0,172
-738,312	-142,110	0,142	0,010
-737,298	-174,899	-0,329	-0,007
-736,283	86,261	0,072	0,058
-735,269	-81,787	-0,190	0,045
-734,254	56,757	0,031	0,022
-733,239	-34,010	-0,499	-0,202
-732,225	120,114	0,230	0,211
-731,210	-200,000	0,017	0,105
-730,196	79,567	-0,084	-0,066
-729,181	-200,000	-0,012	0,047
-728,167	-200,000	-0,002	-0,011
-727,152	-69,632	-0,108	-0,030
-726,137	800,000	-0,060	-0,190
-725,123	-200,000	-0,030	-0,104
-724,108	-116,552	-0,057	-0,008
-723,094	-50,475	-0,132	-0,046
-722,079	307,620	-0,123	-0,169
-721,064	210,704	-0,085	-0,099
-720,050	-21,867	0,059	-0,026
-719,035	16,390	-0,106	-0,061
-718,021	111,084	-0,068	0,061
-717,006	-127,211	0,041	-0,004
-715,991	60,288	-0,160	-0,116
-714,977	-102,908	0,121	-0,021
-713,962	-200,000	-0,025	-0,111
-712,948	800,000	0,023	-0,056
-711,933	800,000	0,027	-0,080
-710,918	7,737	-0,022	-0,012
-709,904	-71,781	-0,097	0,026
-708,889	-66,809	-0,169	-0,049
-707,875	365,923	-0,130	-0,193
-706,860	-114,411	0,131	-0,018
-705,845	-139,454	0,088	-0,007
-704,831	800,000	-0,028	-0,071
-703,816	-200,000	0,042	-0,140
-702,802	-200,000	-0,013	0,049
-701,787	800,000	0,054	-0,150
-700,772	740,336	-0,099	-0,197
-699,758	367,352	-0,040	-0,060
-698,743	159,959	-0,017	0,018
-697,729	215,785	0,062	0,073
-696,714	634,938	0,055	0,104
-695,699	256,914	-0,056	-0,071
-694,685	-129,131	-0,178	0,018
-693,670	230,055	-0,063	-0,075
-692,656	800,000	-0,074	-0,199
-691,641	-125,795	0,038	0,004
-690,627	-62,514	0,037	0,011
-689,612	-200,000	0,023	-0,097
-688,597	-200,000	-0,031	0,125
-687,583	-76,052	-0,145	0,037
-686,568	592,004	0,028	-0,051
-685,554	125,329	0,067	-0,062
-684,539	-200,000	0,024	0,116
-683,524	163,030	-0,072	-0,075
-682,510	182,809	-0,108	-0,118
-681,495	44,167	-0,134	-0,091
-680,481	-70,044	-0,005	-0,001
-679,466	49,748	-0,098	-0,068
-678,451	-72,528	0,064	-0,017
-677,437	38,810	0,120	-0,079
-676,422	-32,176	0,109	0,045
-675,408	-200,000	-0,006	-0,085
-674,393	-14,234	-0,097	-0,046
-673,378	99,668	-0,048	0,041
-672,364	-46,459	-0,094	0,034
-671,349	-125,718	0,020	0,002
-670,335	38,487	0,076	-0,050
-669,320	-53,339	0,074	0,025
-668,305	63,580	-0,117	-0,086
-667,291	240,585	-0,099	-0,122
-666,276	148,834	-0,016	0,016
-665,262	-67,225	-0,069	-0,020
-664,247	4,658	0,052	-0,028
-663,232	-96,444	-0,123	0,024
-662,218	-161,170	0,113	0,004
-661,203	774,502	-0,059	0,120
-660,189	-28,385	0,067	-0,028
-659,174	55,845	-0,118	-0,084
-658,159	400,573	-0,066	-0,102
-657,145	490,870	-0,126	-0,213
-656,130	51,234	-0,054	0,038
-655,116	26,004	-0,023	0,014
-654,101	-185,948	0,038	-0,000
-653,086	-116,754	0,044	0,006
-652,072	43,527	0,066	0,044
-651,057	10,564	-0,086	-0,048
-650,043	85,864	-0,069	0,055
-649,028	-108,072	-0,116	0,018
-648,014	-131,420	-0,121	-0,012
-646,999	-66,201	0,152	-0,044
-645,984	347,451	-0,022	0,032
-644,970	-28,758	-0,036	-0,015
-643,955	776,996	-0,078	-0,157
-642,941	670,624	-0,072	-0,138
-641,926	98,781	0,043	-0,036
-640,911	93,174	0,081	-0,067
-639,897	800,000	0,061	0,165
-638,882	38,174	0,042	0,028
-637,868	3,165	0,091	-0,048
-636,853	-32,288	0,093	-0,038
-635,838	-16,266	-0,073	-0,034
-634,824	-146,481	-0,088	-0,006
-633,809	668,729	-0,019	0,036
-632,795	-102,782	0,071	-0,012
-631,780	-22,114	0,196	0,087
-630,765	-61,737	-0,099	-0,030
-629,751	-64,020	0,024	0,007
-628,736	-39,325	-0,139	-0,053
-627,722	-152,952	-0,108	-0,005
-626,707	-6,153	0,131	0,066
-625,692	-200,000	0,009	0,093
-624,678	-200,000	0,024	-0,142
-623,663	499,820	0,096	0,164
-622,649	-127,342	-0,127	0,013
-621,634	159,881	0,010	0,010
-620,619	-64,236	-0,074	-0,022
-619,605	-200,000	-0,001	-0,086
-618,590	-135,814	0,080	-0,007
-617,576	260,828	0,058	-0,073
-616,561	62,787	-0,043	0,032
-615,546	32,338	0,027	-0,017
-614,532	-101,543	-0,087	0,015
-613,517	-200,000	0,007	-0,110
-612,503	6,958	0,021	0,011
-611,488	-21,623	-0,059	0,026
-610,474	-46,864	0,085	0,030
-609,459	455,988	-0,040	0,066
-608,444	773,960	-0,024	-0,048
-607,430	-200,000	-0,002	-0,047
-606,415	-200,000	-0,003	0,016
-605,401	593,161	0,030	-0,055
-604,386	-200,000	0,024	-0,086
-603,371	-200,000	-0,027	0,112
-602,357	800,000	-0,053	0,142
-601,342	384,873	-0,018	0,027
-600,328	9,139	-0,103	-0,057
-599,313	231,084	-0,103	-0,124
-598,298	208,067	-0,045	0,052
-597,284	250,277	0,061	-0,076
-596,269	-162,099	-0,147	-0,005
-595,255	-200,000	0,005	0,039
-594,240	-87,704	-0,142	0,031
-593,225	198,230	-0,054	-0,061
-592,211	-200,000	-0,021	-0,098
-591,196	800,000	-0,022	0,051
-590,182	800,000	-0,037	-0,098
-589,167	-200,000	-0,019	0,167
-588,152	74,283	0,060	0,046
-587,138	-137,410	-0,054	-0,004
-586,123	429,719	-0,102	-0,162
-585,109	-24,282	0,074	0,032
-584,094	-200,000	0,018	-0,128
-583,079	-3,276	0,106	0,054
-582,065	85,417	-0,081	-0,065
-581,050	277,960	-0,073	-0,095
-580,036	-141,779	-0,014	-0,001
-579,021	301,693	-0,073	-0,100
-578,006	161,403	-0,022	-0,023
-576,992	525,951	-0,051	-0,089
-575,977	502,677	0,053	0,090
-574,963	40,511	-0,020	0,013
-573,948	71,097	-0,048	-0,037
-572,934	215,847	0,116	0,136
-571,919	800,000	-0,045	-0,109
-570,904	-200,000	0,013	-0,230
-569,890	341,785	-0,043	0,062
-568,875	-108,294	0,052	0,008
-567,861	49,540	0,088	0,061
-566,846	458,802	0,070	0,114
-565,831	-200,000	0,010	0,109
-564,817	155,331	-0,027	0,027
-563,802	-200,000	0,011	-0,155
-562,788	-77,508	-0,060	0,015
-561,773	-120,705	0,108	0,013
-560,758	74,717	0,111	-0,085
-559,744	131,268	-0,055	0,052
-558,729	800,000	-0,050	-0,121
-557,715	-76,879	-0,076	-0,019
-556,700	-200,000	-0,027	0,130
-555,685	-196,832	-0,143	-0,001
-554,671	461,790	0,071	-0,116
-553,656	189,307	-0,120	-0,132
-552,642	737,568	0,078	0,155
-551,627	33,885	0,055	0,035
-550,612	-72,101	-0,023	0,006
-549,598	130,164	-0,090	-0,084
-548,583	-55,707	-0,045	-0,015
-547,569	-200,000	-0,018	0,085
-546,554	186,962	0,054	-0,059
-545,539	-42,728	0,176	0,065
-544,525	800,000	0,032	0,091
-543,510	247,792	0,068	-0,085
-542,496	29,848	0,061	-0,038
-541,481	800,000	0,006	-0,018
-540,466	694,113	-0,028	0,055
-539,452	-200,000	-0,023	-0,074
-538,437	12,462	0,155	0,087
-537,423	313,384	0,035	0,048
-536,408	-106,059	-0,093	-0,015
-535,393	-200,000	-0,007	0,030
-534,379	-83,801	-0,084	-0,020
-533,364	493,487	-0,073	0,123
-532,350	800,000	0,025	-0,063
-531,335	-200,000	-0,001	-0,036
-530,321	152,008	0,085	0,085
-529,306	77,443	0,089	-0,069
-528,291	471,315	-0,016	-0,026
-527,277	-49,346	-0,049	-0,017
-526,262	-200,000	-0,010	-0,175
-525,248	42,186	-0,102	0,067
-524,233	101,291	0,136	0,116
-523,218	-128,601	-0,085	0,009
-522,204	62,078	0,124	-0,090
-521,189	10,288	-0,026	-0,014
-520,175	5,715	-0,086	-0,046
-519,160	-101,884	0,186	-0,033
-518,145	-64,378	0,081	-0,024
-517,131	800,000	-0,049	0,151
-516,116	-200,000	0,029	0,129
-515,102	-200,000	0,007	0,035
-514,087	-200,000	0,008	0,093
-513,072	-200,000	0,012	-0,056
-512,058	-128,634	-0,121	0,012
-511,043	327,261	0,028	0,040
-510,029	800,000	-0,019	-0,052
-509,014	324,110	-0,007	-0,010
-507,999	-200,000	0,002	-0,089
-506,985	-200,000	-0,004	0,141
-505,970	6,835	0,023	-0,013
-504,956	-37,596	-0,057	0,022
-503,941	353,703	0,049	0,071
-502,926	642,685	-0,038	0,070
-501,912	494,693	-0,045	0,077
-500,897	90,045	0,086	0,070
-499,883	316,504	0,058	-0,080
-498,868	423,893	-0,098	-0,155
-497,853	308,709	-0,010	-0,014
-496,839	800,000	-0,019	0,047
-495,824	-140,229	-0,069	0,005
-494,810	-200,000	-0,007	0,060
-493,795	684,364	-0,032	-0,062
-492,781	-15,307	0,016	-0,007
-491,766	-29,497	-0,057	0,024
-490,751	-200,000	0,004	-0,021
-489,737	566,949	-0,060	0,108
-488,722	273,044	0,107	-0,138
-487,708	161,586	-0,029	0,030
-486,693	134,320	0,068	-0,065
-485,678	-139,599	-0,065	0,005
-484,664	-200,000	0,028	-0,255
-483,649	-133,575	-0,093	-0,008
-482,635	135,016	-0,070	0,067
-481,620	-142,730	0,164	-0,012
-480,605	80,545	0,037	0,029
-479,591	-16,075	0,099	0,046
-478,576	-200,000	-0,017	-0,104
-477,562	429,159	-0,101	-0,160
-476,547	800,000	-0,064	0,149
-475,532	-200,000	-0,012	-0,055
-474,518	211,255	-0,081	-0,093
-473,503	800,000	0,073	-0,221
-472,489	-32,365	0,168	-0,068
-471,474	-124,756	-0,084	0,009
-470,459	-200,000	-0,017	-0,078
-469,445	-160,963	-0,084	0,003
-468,430	532,165	0,037	-0,064
-467,416	444,607	-0,068	-0,110
-466,401	-54,681	0,102	0,033
-465,386	-200,000	-0,011	0,117
-464,372	-4,501	-0,053	-0,026
-463,357	-124,034	-0,097	-0,011
-462,343	174,097	-0,053	0,055
-461,328	151,970	-0,101	0,101
-460,313	88,935	0,053	0,043
-459,299	41,377	-0,031	-0,020
-458,284	252,204	0,049	0,062
-457,270	-200,000	0,002	0,035
-456,255	-52,863	-0,116	-0,039
-455,241	-59,768	0,109	-0,034
-454,226	157,463	0,029	-0,029
-453,211	-103,782	0,039	0,007
-452,197	16,969	0,087	-0,050
-451,182	-51,506	-0,117	0,040
-450,168	533,860	0,066	-0,114
-449,153	161,338	-0,043	0,043
-448,138	301,689	0,052	-0,070
-447,124	-200,000	-0,012	-0,040
-446,109	-22,741	0,150	0,066
-445,095	800,000	0,023	0,054
-444,080	800,000	0,016	0,037
-443,065	-55,187	-0,125	0,041
-442,051	-200,000	0,012	-0,042
-441,036	358,227	-0,039	0,057
-440,022	353,371	-0,049	-0,071
-439,007	-94,296	0,098	0,019
-437,992	91,898	0,062	0,051
-436,978	28,382	-0,085	-0,052
-435,963	-200,000	-0,003	0,053
-434,949	47,714	-0,030	-0,020
-433,934	-200,000	0,011	0,039
-432,919	800,000	0,047	0,128
-431,905	-61,631	0,095	-0,029
-430,890	12,035	0,078	0,044
-429,876	201,875	0,082	0,093
-428,861	-71,319	0,071	-0,019
-427,846	141,847	-0,019	0,018
-426,832	800,000	0,044	-0,101
-425,817	-154,330	-0,031	0,001
-424,803	-76,563	0,120	0,030
-423,788	-117,554	0,082	-0,011
-422,773	411,803	0,112	0,174
-421,759	-200,000	-0,032	0,219
-420,744	495,461	-0,100	0,168
-419,730	-200,000	0,007	0,051
-418,715	-150,821	-0,175	0,010
-417,701	83,852	-0,029	-0,023
-416,686	-130,855	-0,118	0,011
-415,671	-67,813	0,091	-0,026
-414,657	228,590	-0,048	0,057
-413,642	121,911	-0,055	-0,050
-412,628	178,419	-0,041	-0,044
-411,613	800,000	0,034	-0,092
-410,598	662,548	0,026	-0,049
-409,584	292,468	0,051	0,068
-408,569	800,000	0,029	0,087
-407,555	-200,000	0,002	0,049
-406,540	97,719	-0,058	-0,049
-405,525	129,044	-0,041	0,038
-404,511	800,000	-0,027	0,054
-403,496	-200,000	-0,015	-0,091
-402,482	66,230	0,063	-0,046
-401,467	110,849	0,066	0,058
-400,452	-148,415	0,035	0,002
-399,438	100,690	0,079	-0,066
-398,423	21,158	-0,078	0,046
-397,409	-200,000	0,008	-0,158
-396,394	-200,000	-0,014	-0,101
-395,379	-11,297	0,050	0,024
-394,365	189,765	0,052	-0,056
-393,350	-101,623	-0,082	0,014
-392,336	106,517	0,095	0,082
-391,321	269,657	-0,038	0,048
-390,306	233,421	-0,104	0,125
-389,292	573,700	-0,056	0,100
-388,277	3,339	0,054	0,029
-387,263	-66,992	0,125	0,036
-386,248	134,401	-0,044	0,041
-385,233	-80,482	0,086	0,021
-384,219	-200,000	-0,037	-0,136
-383,204	800,000	-0,054	-0,162
-382,190	800,000	-0,037	0,116
-381,175	100,452	0,110	0,093
-380,160	-136,161	-0,086	-0,007
-379,146	792,893	0,068	0,138
-378,131	-52,599	-0,084	0,028
-377,117	-23,714	-0,081	0,035
-376,102	109,970	-0,177	-0,154
-375,088	800,000	0,034	-0,091
-374,073	57,841	-0,154	-0,109
-373,058	-200,000	0,000	-0,019
-372,044	110,295	0,071	0,062
-371,029	-101,593	-0,070	0,012
-370,015	800,000	-0,026	-0,069
-369,000	-136,077	-0,136	-0,011
-367,985	90,826	0,039	-0,032
-366,971	545,300	0,036	0,063
-365,956	-200,000	-0,007	0,097
-364,942	800,000	0,034	0,104
-363,927	-200,000	0,053	0,182
-362,912	-159,312	0,105	0,004
-361,898	30,168	0,125	0,077
-360,883	-104,566	-0,060	-0,010
-359,869	178,405	0,132	-0,140
-358,854	-200,000	-0,013	0,132
-357,839	-33,117	0,074	0,030
-356,825	-2,447	-0,070	0,035
-355,810	23,078	-0,025	0,015
-354,796	-64,326	-0,093	-0,027
-353,781	-110,715	0,203	-0,030
-352,766	800,000	-0,042	0,106
-351,752	23,354	0,119	0,071
-350,737	-200,000	0,037	0,186
-349,723	71,565	-0,067	0,050
-348,708	-200,000	0,001	0,026
-347,693	-66,785	-0,058	-0,016
-346,679	125,185	-0,072	-0,066
-345,664	-200,000	-0,005	-0,046
-344,650	-43,412	-0,013	0,005
-343,635	-51,133	0,098	0,033
-342,620	-113,463	-0,067	0,009
-341,606	163,815	-0,002	0,002
-340,591	-200,000	-0,006	0,102
-339,577	800,000	0,061	-0,184
-338,562	2,662	-0,109	-0,057
-337,548	20,180	0,029	0,017
-336,533	-200,000	0,016	0,196
-335,518	-94,965	0,098	0,019
-334,504	800,000	-0,035	0,081
-333,489	9,507	0,076	0,042
-332,475	-122,701	-0,040	-0,005
-331,460	-157,583	-0,074	0,003
-330,445	-169,912	0,136	-0,003
-329,431	132,217	-0,057	-0,054
-328,416	800,000	-0,023	0,060
-327,402	-192,478	0,078	-0,001
-326,387	-115,394	-0,127	0,017
-325,372	-56,097	0,084	-0,027
-324,358	248,053	-0,103	-0,127
-323,343	-88,138	0,104	0,022
-322,329	60,456	0,040	0,029
-321,314	-125,929	0,077	-0,008
-320,299	94,194	-0,043	-0,036
-319,285	83,521	0,073	0,057
-318,270	-200,000	0,014	-0,081
-317,256	-37,676	0,050	-0,019
-316,241	245,703	-0,142	-0,173
-315,226	-200,000	0,007	-0,026
-314,212	194,665	-0,122	-0,134
-313,197	-63,390	0,101	-0,030
-312,183	-148,310	0,142	-0,008
-311,168	-124,010	-0,148	-0,017
-310,153	161,293	0,076	-0,077
-309,139	96,778	-0,054	-0,045
-308,124	210,936	0,052	0,059
-307,110	-200,000	-0,018	-0,091
-306,095	-108,948	0,070	-0,011
-305,080	800,000	0,061	0,134
-304,066	4,264	-0,147	0,078
-303,051	-200,000	-0,047	-0,183
-302,037	800,000	0,029	-0,072
-301,022	721,490	-0,030	-0,058
-300,008	-100,527	0,264	0,047
-298,993	164,961	0,109	0,112
-297,978	148,152	-0,005	0,005
-296,964	-79,285	-0,026	-0,006
-295,949	-172,826	-0,074	-0,002
-294,935	51,991	-0,051	0,035
-293,920	-200,000	0,005	-0,043
-292,905	800,000	0,016	-0,039
-291,891	-82,220	-0,061	0,014
-290,876	77,465	0,052	0,040
-289,862	-200,000	0,004	-0,024
-288,847	102,525	-0,091	0,077
-287,832	334,739	-0,034	-0,048
-286,818	69,499	0,117	0,087
-285,803	-200,000	0,008	0,093
-284,789	83,187	0,080	0,063
-283,774	5,278	0,141	-0,075
-282,759	-52,381	-0,196	-0,065
-281,745	-135,033	-0,041	0,004
-280,730	800,000	-0,039	-0,112
-279,716	109,730	0,091	-0,079
-278,701	-111,882	-0,037	0,005
-277,686	12,125	-0,059	0,033
-276,672	-200,000	-0,015	0,160
-275,657	45,681	0,056	-0,038
-274,643	-117,091	-0,129	-0,017
-273,628	-200,000	0,004	0,029
-272,613	-66,486	0,089	0,025
-271,599	119,229	0,122	0,110
-270,584	-200,000	0,008	-0,065
-269,570	-200,000	-0,015	-0,097
-268,555	-146,240	-0,084	-0,005
-267,540	-200,000	0,039	-0,162
-266,526	-70,704	0,026	-0,007
-265,511	-38,438	-0,136	-0,052
-264,497	-200,000	-0,029	-0,159
-263,482	54,351	-0,058	0,040
-262,467	-44,015	-0,110	-0,040
-261,453	-200,000	-0,003	-0,017
-260,438	-200,000	0,019	-0,075
-259,424	355,371	-0,063	-0,091
-258,409	132,759	-0,055	-0,051
-257,395	646,465	-0,028	0,052
-256,380	800,000	-0,036	0,095
-255,365	800,000	0,041	-0,108
-254,351	576,574	0,017	0,031
-253,336	262,293	-0,063	0,079
-252,322	-200,000	0,005	0,037
-251,307	-200,000	-0,001	-0,041
-250,292	193,282	-0,020	-0,022
-249,278	41,349	-0,047	0,031
-248,263	-200,000	0,004	0,055
-247,249	462,133	0,072	-0,116
-246,234	-112,778	-0,055	-0,008
-245,219	150,176	-0,018	0,018
-244,205	-4,583	-0,099	0,049
-243,190	471,830	-0,029	0,047
-242,176	583,998	-0,033	-0,059
-241,161	-200,000	-0,009	0,086
-240,146	-79,714	-0,053	-0,013
-239,132	57,622	-0,113	0,080
-238,117	529,845	-0,036	-0,061
-237,103	-148,496	-0,128	-0,007
-236,088	800,000	-0,055	-0,119
-235,073	-121,780	0,107	0,013
-234,059	226,672	0,072	-0,085
-233,044	332,403	0,057	0,080
-232,030	800,000	0,041	-0,099
-231,015	-123,310	-0,145	0,017
-230,000	2,986	-0,035	-0,019
-228,986	328,165	-0,023	-0,032
-227,971	-200,000	0,010	-0,037
-226,957	-200,000	-0,004	0,035
-225,942	-70,333	0,192	0,052
-224,927	800,000	0,021	-0,054
-223,913	107,260	0,066	-0,057
-222,898	-200,000	-0,078	-0,000
-221,884	119,641	-0,049	0,044
-220,869	-200,000	-0,008	-0,052
-219,855	407,600	0,078	0,119
-218,840	-200,000	0,002	0,013
-217,825	-153,527	-0,009	0,000
-216,811	131,234	-0,007	-0,006
-215,796	149,565	0,050	-0,049
-214,782	26,755	0,057	-0,034
-213,767	-200,000	0,011	-0,116
-212,752	277,173	0,165	0,213
-211,738	548,437	0,018	0,032
-210,723	446,633	-0,026	-0,041
-209,709	511,854	-0,034	-0,058
-208,694	-37,347	0,079	0,030
-207,679	-200,000	-0,046	-0,153
-206,665	-44,032	-0,067	-0,024
-205,650	-28,797	0,030	0,012
-204,636	-200,000	0,015	0,128
-203,621	179,416	0,047	-0,050
-202,606	-141,347	-0,044	-0,003
-201,592	-200,000	0,004	-0,020
-200,577	21,298	0,054	-0,031
-199,563	200,960	-0,072	0,080
-198,548	-200,000	-0,001	-0,011
-197,533	-200,000	0,041	-0,161
-196,519	355,109	-0,045	-0,064
-195,504	317,337	-0,048	0,065
-194,490	-122,314	0,094	-0,011
-193,475	-84,638	-0,024	-0,005
-192,460	-200,000	0,006	0,081
-191,446	722,076	-0,075	0,144
-190,431	313,956	0,035	0,047
-189,417	-24,934	-0,088	0,038
-188,402	-8,515	0,018	0,009
-187,387	208,578	-0,020	-0,022
-186,373	800,000	-0,038	-0,078
-185,358	39,615	0,050	0,033
-184,344	1,341	0,088	0,046
-183,329	800,000	0,015	0,046
-182,315	-200,000	0,006	0,068
-181,300	14,467	-0,049	-0,028
-180,285	35,421	0,122	-0,077
-179,271	-112,313	-0,122	0,018
-178,256	421,221	0,014	0,022
-177,242	-120,840	0,020	-0,002
-176,227	54,138	0,078	-0,054
-175,212	800,000	0,024	0,059
-174,198	271,709	0,031	-0,039
-173,183	289,338	0,010	-0,013
-172,169	295,009	0,084	-0,111
-171,154	-6,110	-0,091	0,045
-170,139	386,188	-0,044	0,066
-169,125	800,000	0,057	0,138
-168,110	-200,000	0,030	0,147
-167,096	304,158	0,076	0,103
-166,081	259,322	0,060	0,074
-165,066	-101,402	0,034	0,006
-164,052	-189,635	0,091	0,001
-163,037	-0,907	0,185	-0,094
-162,023	-200,000	0,009	0,078
-161,008	151,338	0,043	0,042
-159,993	28,845	-0,129	0,078
-158,979	-200,000	0,005	-0,081
-157,964	-60,041	0,140	0,043
-156,950	154,924	-0,002	-0,002
-155,935	-68,895	-0,055	0,015
-154,920	18,781	-0,060	-0,035
-153,906	-200,000	0,021	0,073
-152,891	-200,000	-0,001	0,039
-151,877	196,893	0,084	-0,093
-150,862	800,000	0,023	-0,071
-149,847	36,540	-0,094	0,060
-148,833	-200,000	0,018	0,140
-147,818	33,354	0,032	0,020
-146,804	472,266	0,034	0,055
-145,789	800,000	0,024	-0,049
-144,775	-159,178	-0,147	0,006
-143,760	800,000	-0,051	0,148
-142,745	-33,667	0,069	0,027
-141,731	-107,523	0,106	0,017
-140,716	-54,281	0,051	0,017
-139,702	-122,622	0,132	0,015
-138,687	-76,954	0,058	0,015
-137,672	798,940	-0,059	-0,118
-136,658	-135,308	-0,136	0,012
-135,643	-200,000	-0,019	-0,094
-134,629	42,075	-0,093	0,061
-133,614	-17,572	0,127	0,057
-132,599	-107,458	0,029	-0,005
-131,585	437,956	0,060	-0,095
-130,570	-168,917	-0,048	-0,001
-129,556	82,057	0,067	0,052
-128,541	683,768	-0,092	-0,173
-127,526	-49,559	-0,086	-0,029
-126,512	-183,238	-0,024	-0,000
-125,497	-110,380	-0,135	0,020
-124,483	-200,000	-0,025	0,128
-123,468	-39,850	-0,115	-0,043
-122,453	-55,516	-0,059	-0,019
-121,439	-20,186	0,073	-0,032
-120,424	800,000	-0,028	-0,071
-119,410	100,274	0,083	0,069
