DTS Sentinel unit serial number:	SN410029Multiplexer serial number:	ORYXHardware model number:	OX2-SRSoftware version number:	ORYX F/W v4,00 Oryx Data Collector v3.7.2.0data status	okinstallation	B5 Nyhavnadifferential loss correction	single-endedforward channel	channel 2reverse channel	N/Adate	2023/12/11time	18:32:13forward acquisition time	300,00reverse acquisition time	0,00gamma	499,1914k internal	0,3161k external	0,3161temperature offset calibration	1,0000default loss term (dB/km)	0,3820temperature slope calibration	1,0000multiplexer offset coefficient	1,0000multiplexer slope coefficient	1,0000fibre end	0,00T internal ref (°C)	15,23T ext. ref 1 (°C)	-0,35T ext. ref 2 (°C)	-0,61length (m)	temperature (°C)	Stokes	anti-Stokes-744,400	-109,649	-0,135	-0,021
-743,385	-124,855	-0,274	-0,031
-742,371	-200,000	0,008	0,070
-741,356	95,342	-0,179	0,150
-740,342	355,288	0,059	0,086
-739,327	-104,806	-0,393	0,066
-738,312	-74,652	0,021	-0,005
-737,298	-110,839	-0,219	-0,033
-736,283	58,863	0,058	0,042
-735,269	82,639	-0,292	0,234
-734,254	-139,495	0,210	0,016
-733,239	-68,934	-0,478	-0,135
-732,225	-58,327	0,159	-0,051
-731,210	370,323	0,004	0,006
-730,196	-200,000	-0,012	0,071
-729,181	127,989	-0,094	-0,088
-728,167	-200,000	-0,006	0,065
-727,152	-30,193	0,065	-0,027
-726,137	-148,958	-0,037	0,002
-725,123	81,292	-0,075	-0,059
-724,108	38,449	-0,062	-0,041
-723,094	-200,000	0,003	-0,105
-722,079	336,273	-0,069	-0,099
-721,064	-59,324	-0,017	-0,005
-720,050	800,000	-0,024	0,072
-719,035	402,454	-0,103	0,160
-718,021	94,944	-0,052	0,044
-717,006	550,396	-0,069	-0,122
-715,991	30,101	-0,076	-0,048
-714,977	-200,000	-0,022	-0,158
-713,962	-200,000	-0,006	-0,022
-712,948	603,502	-0,024	-0,043
-711,933	134,449	-0,070	0,067
-710,918	-37,151	-0,191	-0,075
-709,904	-78,225	0,034	0,008
-708,889	800,000	-0,072	-0,184
-707,875	-200,000	0,001	0,004
-706,860	-112,993	0,085	0,012
-705,845	800,000	-0,015	-0,037
-704,831	-200,000	-0,001	-0,005
-703,816	-200,000	-0,010	-0,052
-702,802	800,000	-0,034	-0,074
-701,787	84,540	-0,067	-0,054
-700,772	800,000	0,013	0,038
-699,758	-76,918	0,161	-0,041
-698,743	381,311	0,034	0,051
-697,729	457,162	-0,010	-0,016
-696,714	-12,885	0,129	0,061
-695,699	45,316	0,031	0,021
-694,685	800,000	0,039	0,086
-693,670	-200,000	0,004	0,079
-692,656	-200,000	-0,021	-0,086
-691,641	183,502	0,138	0,150
-690,627	582,921	0,048	0,087
-689,612	-200,000	-0,003	0,040
-688,597	-91,701	-0,166	-0,034
-687,583	800,000	0,051	-0,163
-686,568	518,984	0,041	-0,071
-685,554	297,096	-0,094	-0,126
-684,539	-179,820	-0,072	0,001
-683,524	409,971	0,086	0,134
-682,510	-200,000	0,001	0,107
-681,495	170,690	0,027	0,028
-680,481	-5,933	-0,143	-0,071
-679,466	-7,098	-0,059	-0,029
-678,451	100,599	-0,065	-0,055
-677,437	-200,000	-0,019	0,079
-676,422	-86,486	0,009	0,002
-675,408	3,821	-0,083	-0,044
-674,393	181,239	0,088	-0,095
-673,378	81,181	-0,029	0,023
-672,364	-200,000	-0,029	-0,107
-671,349	800,000	-0,082	-0,182
-670,335	-37,156	-0,050	-0,020
-669,320	594,778	-0,054	0,098
-668,305	185,801	-0,044	0,048
-667,291	-200,000	0,039	-0,186
-666,276	321,856	-0,033	0,047
-665,262	-110,495	-0,127	-0,019
-664,247	131,524	-0,064	-0,061
-663,232	11,701	-0,123	0,069
-662,218	165,976	-0,049	0,051
-661,203	800,000	0,041	0,092
-660,189	517,875	-0,060	-0,104
-659,174	41,290	-0,068	-0,045
-658,159	95,872	-0,099	0,083
-657,145	-200,000	0,008	-0,092
-656,130	-30,029	-0,182	-0,076
-655,116	-200,000	-0,001	-0,007
-654,101	42,308	-0,127	-0,085
-653,086	52,338	-0,096	0,067
-652,072	-95,623	-0,095	0,018
-651,057	261,100	0,055	-0,069
-650,043	65,792	0,069	-0,051
-649,028	800,000	-0,032	-0,092
-648,014	131,454	0,079	0,075
-646,999	220,060	-0,031	0,037
-645,984	92,129	0,092	0,076
-644,970	-98,055	0,064	0,012
-643,955	-68,627	-0,040	-0,011
-642,941	800,000	0,047	-0,112
-641,926	-173,541	-0,048	-0,001
-640,911	54,315	-0,045	0,031
-639,897	-100,287	0,087	-0,016
-638,882	24,164	0,066	-0,040
-637,868	-200,000	0,022	0,132
-636,853	713,165	-0,068	-0,133
-635,838	569,191	0,054	-0,097
-634,824	236,295	-0,025	-0,030
-633,809	510,321	-0,047	-0,080
-632,795	473,450	0,051	-0,084
-631,780	-200,000	0,034	-0,129
-630,765	67,541	-0,013	-0,010
-629,751	102,385	0,056	-0,048
-628,736	-161,950	0,019	0,001
-627,722	186,150	-0,024	-0,027
-626,707	-129,171	0,006	0,001
-625,692	111,778	0,030	0,026
-624,678	-200,000	0,002	0,051
-623,663	-200,000	0,035	0,235
-622,649	785,121	0,049	-0,099
-621,634	-200,000	0,023	-0,146
-620,619	150,612	-0,067	-0,067
-619,605	9,655	0,093	-0,051
-618,590	-62,216	0,011	-0,003
-617,576	-200,000	-0,004	-0,043
-616,561	-200,000	-0,012	-0,058
-615,546	-200,000	-0,017	-0,121
-614,532	73,774	0,082	-0,063
-613,517	800,000	-0,079	-0,189
-612,503	48,331	0,034	-0,024
-611,488	800,000	-0,027	0,059
-610,474	-67,783	-0,146	-0,042
-609,459	-45,360	-0,093	0,034
-608,444	-120,376	0,046	-0,006
-607,430	-200,000	-0,027	-0,157
-606,415	484,464	-0,057	0,095
-605,401	800,000	-0,009	-0,024
-604,386	800,000	-0,025	-0,078
-603,371	386,646	-0,045	0,068
-602,357	-95,485	-0,009	-0,002
-601,342	110,950	-0,030	0,026
-600,328	353,165	-0,032	0,047
-599,313	143,116	0,091	-0,088
-598,298	46,862	0,088	-0,060
-597,284	-200,000	0,014	-0,124
-596,269	314,013	0,049	0,068
-595,255	112,335	0,042	0,037
-594,240	-200,000	-0,010	0,070
-593,225	-130,113	0,041	-0,004
-592,211	423,601	-0,025	-0,039
-591,196	800,000	-0,038	0,117
-590,182	46,416	0,075	-0,051
-589,167	415,073	0,043	-0,067
-588,152	90,711	-0,057	0,047
-587,138	311,408	0,023	-0,031
-586,123	-200,000	0,015	-0,193
-585,109	335,220	-0,107	0,152
-584,094	-72,976	-0,096	-0,026
-583,079	-64,488	0,062	-0,018
-582,065	-200,000	0,039	-0,150
-581,050	-200,000	0,016	-0,086
-580,036	800,000	0,040	0,104
-579,021	18,608	-0,139	-0,081
-578,006	-153,074	0,038	-0,002
-576,992	-123,062	0,101	-0,012
-575,977	800,000	0,028	-0,066
-574,963	-116,060	0,149	-0,020
-573,948	120,178	0,099	-0,090
-572,934	214,633	0,027	-0,032
-571,919	179,151	-0,050	0,054
-570,904	330,544	-0,019	-0,027
-569,890	800,000	-0,061	-0,192
-568,875	800,000	-0,075	-0,183
-567,861	-152,609	-0,032	0,002
-566,846	87,106	0,057	0,046
-565,831	800,000	-0,044	0,129
-564,817	-200,000	-0,011	-0,078
-563,802	242,231	-0,072	0,089
-562,788	-200,000	-0,002	-0,062
-561,773	800,000	0,050	-0,108
-560,758	-200,000	0,001	-0,005
-559,744	-200,000	-0,009	-0,057
-558,729	214,324	0,124	-0,143
-557,715	-200,000	0,025	-0,082
-556,700	22,445	-0,040	-0,024
-555,685	-59,440	0,052	-0,016
-554,671	719,746	0,041	-0,081
-553,656	19,797	0,142	0,083
-552,642	-89,429	0,077	-0,016
-551,627	-200,000	-0,005	0,085
-550,612	-65,067	0,052	-0,015
-549,598	-200,000	-0,010	-0,033
-548,583	-68,208	-0,025	-0,007
-547,569	-6,580	-0,034	0,017
-546,554	-200,000	0,008	-0,033
-545,539	69,210	-0,141	0,106
-544,525	27,324	0,117	0,072
-543,510	800,000	-0,058	0,129
-542,496	-200,000	-0,018	-0,135
-541,481	-99,736	0,121	-0,022
-540,466	301,966	0,029	0,040
-539,452	53,898	-0,066	-0,046
-538,437	-58,729	0,036	0,011
-537,423	800,000	-0,044	0,099
-536,408	17,606	-0,068	0,040
-535,393	-200,000	0,031	-0,100
-534,379	-200,000	-0,126	-0,000
-533,364	-200,000	-0,003	0,119
-532,350	800,000	-0,048	0,104
-531,335	48,178	-0,098	0,067
-530,321	-52,593	0,088	-0,030
-529,306	-200,000	0,010	-0,052
-528,291	205,521	0,082	-0,093
-527,277	54,262	-0,054	0,038
-526,262	246,268	-0,076	-0,094
-525,248	14,203	0,132	-0,075
-524,233	782,465	0,028	0,056
-523,218	800,000	0,036	-0,087
-522,204	-111,850	-0,028	-0,004
-521,189	559,479	-0,016	0,029
-520,175	412,691	0,115	0,179
-519,160	395,637	-0,024	-0,037
-518,145	608,339	0,046	-0,085
-517,131	788,379	0,072	0,145
-516,116	-200,000	0,017	0,069
-515,102	-133,020	-0,089	0,008
-514,087	40,278	0,054	-0,036
-513,072	-138,156	-0,198	-0,016
-512,058	800,000	-0,021	-0,059
-511,043	198,008	-0,055	-0,062
-510,029	39,032	-0,114	0,074
-509,014	-200,000	0,009	0,205
-507,999	-200,000	0,002	-0,018
-506,985	-109,865	-0,040	-0,006
-505,970	230,998	0,064	0,076
-504,956	-152,480	-0,093	0,005
-503,941	800,000	-0,048	0,134
-502,926	25,606	0,160	0,097
-501,912	-200,000	0,020	0,117
-500,897	253,224	-0,047	0,059
-499,883	91,023	-0,050	-0,041
-498,868	35,623	0,054	-0,035
-497,853	134,833	-0,108	-0,102
-496,839	800,000	0,044	-0,115
-495,824	265,755	0,040	-0,051
-494,810	-200,000	0,050	0,200
-493,795	147,912	0,058	0,057
-492,781	800,000	-0,065	-0,160
-491,766	-200,000	0,002	-0,027
-490,751	800,000	-0,046	-0,098
-489,737	-68,149	-0,076	-0,022
-488,722	-100,355	0,106	0,019
-487,708	800,000	0,044	0,115
-486,693	-200,000	-0,021	0,089
-485,678	111,604	-0,036	-0,032
-484,664	-200,000	0,025	-0,110
-483,649	800,000	-0,064	-0,181
-482,635	-200,000	-0,032	0,142
-481,620	-200,000	-0,010	0,084
-480,605	-11,971	0,109	0,052
-479,591	390,651	0,062	0,094
-478,576	-197,742	-0,082	0,000
-477,562	800,000	0,046	-0,129
-476,547	445,735	0,041	0,066
-475,532	214,286	0,032	0,037
-474,518	-200,000	-0,003	0,020
-473,503	-150,413	-0,146	-0,008
-472,489	800,000	0,028	0,087
-471,474	53,970	-0,066	-0,046
-470,459	800,000	-0,039	-0,090
-469,445	-200,000	0,003	-0,062
-468,430	-86,972	0,033	-0,007
-467,416	-33,273	0,070	0,028
-466,401	-200,000	-0,004	-0,074
-465,386	-55,744	-0,034	0,011
-464,372	-200,000	0,012	0,106
-463,357	800,000	-0,040	0,092
-462,343	120,318	-0,016	-0,015
-461,328	283,354	0,059	0,077
-460,313	175,103	0,063	-0,067
-459,299	248,935	0,086	0,106
-458,284	800,000	0,030	0,088
-457,270	800,000	0,036	0,113
-456,255	800,000	0,013	0,030
-455,241	129,020	-0,045	-0,042
-454,226	-200,000	-0,028	-0,097
-453,211	701,556	-0,094	-0,182
-452,197	549,070	-0,060	-0,105
-451,182	-200,000	0,014	-0,084
-450,168	800,000	0,036	0,088
-449,153	150,721	0,007	0,007
-448,138	800,000	0,007	-0,023
-447,124	40,131	-0,059	-0,039
-446,109	-200,000	0,024	0,212
-445,095	752,460	0,064	0,127
-444,080	-56,148	-0,036	0,012
-443,065	16,101	-0,079	-0,045
-442,051	81,138	-0,031	0,024
-441,036	116,951	0,089	-0,079
-440,022	-115,429	-0,071	0,010
-439,007	-200,000	-0,010	-0,112
-437,992	-200,000	-0,009	-0,054
-436,978	800,000	0,032	0,065
-435,963	-68,866	-0,094	-0,026
-434,949	54,083	-0,049	-0,034
-433,934	342,725	0,019	0,027
-432,919	-9,927	0,035	-0,017
-431,905	-195,746	-0,090	0,000
-430,890	792,620	0,057	-0,114
-429,876	254,440	0,072	0,090
-428,861	-200,000	0,009	0,029
-427,846	380,440	0,083	-0,124
-426,832	519,704	-0,032	-0,055
-425,817	-64,749	-0,082	-0,024
-424,803	-200,000	0,014	-0,090
-423,788	11,314	-0,147	0,082
-422,773	222,430	0,095	0,112
-421,759	40,301	0,200	0,131
-420,744	215,714	-0,050	0,058
-419,730	795,282	-0,046	0,093
-418,715	-200,000	0,033	-0,137
-417,701	800,000	-0,034	-0,090
-416,686	32,225	0,073	0,045
-415,671	-65,971	0,110	0,032
-414,657	-7,749	0,044	-0,022
-413,642	-82,481	-0,073	-0,017
-412,628	501,016	-0,087	-0,147
-411,613	-29,724	-0,223	-0,092
-410,598	-81,076	-0,103	-0,025
-409,584	800,000	-0,042	0,090
-408,569	54,020	0,074	0,052
-407,555	260,002	0,108	-0,136
-406,540	303,768	0,027	0,036
-405,525	-200,000	-0,003	-0,076
-404,511	760,073	-0,077	0,152
-403,496	269,872	-0,056	0,072
-402,482	-200,000	0,015	-0,076
-401,467	212,944	0,108	0,124
-400,452	711,152	-0,049	0,094
-399,438	551,947	-0,071	-0,124
-398,423	-200,000	0,009	0,047
-397,409	71,669	-0,140	0,106
-396,394	800,000	-0,059	-0,179
-395,379	116,300	0,049	-0,044
-394,365	-124,860	-0,091	0,010
-393,350	381,508	0,036	0,054
-392,336	-200,000	-0,025	-0,093
-391,321	433,311	0,038	0,061
-390,306	244,651	-0,075	-0,092
-389,292	-91,375	-0,055	-0,011
-388,277	372,613	0,059	-0,088
-387,263	-162,047	0,071	-0,003
-386,248	-200,000	-0,005	0,087
-385,233	-69,660	0,131	-0,036
-384,219	-118,729	0,069	0,009
-383,204	742,549	-0,073	-0,144
-382,190	800,000	0,048	-0,143
-381,175	-75,373	0,066	-0,017
-380,160	800,000	-0,053	0,149
-379,146	-121,135	0,114	0,014
-378,131	800,000	-0,062	0,155
-377,117	-200,000	-0,003	0,137
-376,102	-200,000	-0,012	0,079
-375,088	447,494	-0,051	-0,082
-374,073	-20,074	-0,110	-0,049
-373,058	-108,907	-0,062	-0,009
-372,044	80,434	0,089	-0,070
-371,029	-152,537	0,084	-0,004
-370,015	-200,000	-0,007	0,088
-369,000	789,105	0,009	0,018
-367,985	414,853	-0,069	0,108
-366,971	-133,517	0,092	-0,008
-365,956	-200,000	-0,004	0,124
-364,942	-55,575	0,029	0,009
-363,927	352,483	-0,033	0,048
-362,912	660,755	-0,082	0,153
-361,898	800,000	0,024	0,057
-360,883	-119,163	0,056	-0,007
-359,869	-144,822	-0,055	-0,004
-358,854	19,469	-0,104	-0,061
-357,839	-37,006	0,017	0,007
-356,825	122,095	0,066	0,060
-355,810	-12,798	0,161	0,076
-354,796	800,000	0,092	-0,196
-353,781	57,833	0,037	-0,026
-352,766	-24,688	0,118	0,051
-351,752	-10,230	0,089	-0,043
-350,737	-91,520	-0,147	0,030
-349,723	24,363	-0,019	-0,011
-348,708	-200,000	-0,002	-0,037
-347,693	-97,888	0,107	-0,020
-346,679	-181,135	-0,086	0,001
-345,664	-122,738	-0,103	-0,012
-344,650	359,122	0,055	0,080
-343,635	800,000	0,066	0,149
-342,620	165,537	-0,022	0,022
-341,606	94,452	-0,041	-0,034
-340,591	-200,000	0,024	0,107
-339,577	800,000	0,060	0,161
-338,562	-49,373	-0,069	-0,024
-337,548	218,603	0,046	0,054
-336,533	-20,585	-0,015	-0,007
-335,518	-200,000	-0,002	0,094
-334,504	-8,243	-0,084	0,041
-333,489	107,442	0,058	0,050
-332,475	141,012	-0,070	0,067
-331,460	-80,140	-0,087	-0,021
-330,445	800,000	-0,011	0,026
-329,431	145,325	0,123	0,120
-328,416	542,682	-0,005	-0,009
-327,402	739,570	0,036	-0,070
-326,387	-30,118	0,033	-0,014
-325,372	29,420	0,076	0,047
-324,358	176,832	-0,118	-0,124
-323,343	-84,426	0,130	0,030
-322,329	160,919	-0,112	0,114
-321,314	-108,440	0,068	-0,010
-320,299	281,478	0,060	0,078
-319,285	-200,000	-0,015	-0,179
-318,270	-23,120	-0,061	0,027
-317,256	83,730	0,053	-0,042
-316,241	146,593	0,148	-0,144
-315,226	-51,611	-0,083	-0,028
-314,212	15,594	0,114	-0,065
-313,197	-200,000	-0,023	0,155
-312,183	-159,948	0,056	0,002
-311,168	-142,147	-0,133	0,009
-310,153	9,593	0,065	-0,035
-309,139	30,835	-0,086	-0,054
-308,124	53,838	-0,029	-0,020
-307,110	-200,000	-0,002	-0,020
-306,095	-32,044	-0,049	0,020
-305,080	110,540	-0,117	0,102
-304,066	-200,000	0,001	0,163
-303,051	800,000	0,064	-0,146
-302,037	98,231	-0,157	0,131
-301,022	-200,000	0,001	0,024
-300,008	-78,537	0,084	0,021
-298,993	-17,208	0,157	0,071
-297,978	-36,209	-0,039	-0,015
-296,964	-169,746	-0,189	-0,005
-295,949	-13,636	0,115	0,053
-294,935	-148,184	-0,143	-0,008
-293,920	380,590	0,027	-0,040
-292,905	261,595	0,012	-0,015
-291,891	-200,000	0,000	-0,052
-290,876	409,179	0,072	0,111
-289,862	-7,025	0,152	0,074
-288,847	684,396	0,016	-0,030
-287,832	-200,000	0,049	0,236
-286,818	-200,000	0,000	-0,056
-285,803	28,219	-0,031	-0,019
-284,789	-50,594	0,273	0,093
-283,774	-200,000	0,008	-0,093
-282,759	6,882	-0,060	-0,032
-281,745	-113,397	-0,124	0,017
-280,730	-124,978	-0,142	-0,016
-279,716	-75,357	-0,041	-0,010
-278,701	-144,696	0,064	-0,004
-277,686	-21,193	0,067	-0,030
-276,672	772,587	0,083	0,164
-275,657	800,000	-0,024	0,062
-274,643	122,121	-0,049	-0,045
-273,628	115,498	0,029	0,026
-272,613	117,181	-0,043	-0,038
-271,599	-104,663	-0,090	-0,015
-270,584	73,259	0,017	0,013
-269,570	34,567	0,118	0,074
-268,555	512,079	-0,136	0,230
-267,540	485,571	-0,022	0,036
-266,526	69,853	-0,059	0,044
-265,511	800,000	0,021	0,054
-264,497	32,558	-0,042	-0,026
-263,482	-200,000	0,009	0,045
-262,467	-200,000	-0,031	0,118
-261,453	22,120	-0,060	-0,035
-260,438	-37,184	-0,046	-0,018
-259,424	303,299	-0,075	-0,100
-258,409	152,271	0,077	-0,076
-257,395	321,528	-0,039	0,054
-256,380	619,592	0,057	-0,103
-255,365	-115,326	0,133	0,018
-254,351	-93,145	-0,078	-0,016
-253,336	-77,556	0,037	0,009
-252,322	748,629	-0,016	-0,031
-251,307	349,760	0,059	-0,085
-250,292	-200,000	0,036	-0,122
-249,278	800,000	-0,033	-0,100
-248,263	-200,000	-0,012	-0,042
-247,249	-3,803	-0,124	-0,062
-246,234	800,000	-0,017	-0,035
-245,219	-4,075	-0,022	0,011
-244,205	23,724	-0,057	0,034
-243,190	210,815	-0,022	-0,025
-242,176	-94,929	0,016	-0,003
-241,161	800,000	0,020	0,056
-240,146	177,174	-0,065	0,068
-239,132	-200,000	0,035	-0,125
-238,117	-200,000	0,008	0,131
-237,103	26,826	0,049	0,029
-236,088	132,178	0,132	-0,123
-235,073	-200,000	0,002	-0,067
-234,059	21,085	0,112	-0,066
-233,044	46,102	0,064	-0,043
-232,030	-102,134	0,013	0,002
-231,015	800,000	-0,017	0,038
-230,000	-200,000	-0,003	0,087
-228,986	71,286	-0,028	-0,021
-227,971	-200,000	0,003	-0,108
-226,957	-187,474	0,101	-0,001
-225,942	-13,785	0,064	0,030
-224,927	549,803	-0,019	-0,033
-223,913	-162,132	-0,053	0,002
-222,898	115,582	-0,025	0,022
-221,884	-28,700	-0,099	0,041
-220,869	177,879	0,023	0,024
-219,855	-200,000	0,015	0,132
-218,840	-104,500	0,052	-0,009
-217,825	-200,000	0,008	-0,040
-216,811	448,672	0,035	0,056
-215,796	-200,000	0,002	0,074
-214,782	31,939	0,025	-0,016
-213,767	286,707	0,063	0,082
-212,752	800,000	-0,035	0,105
-211,738	-78,804	-0,035	0,009
-210,723	-12,559	-0,056	0,026
-209,709	4,512	-0,076	0,040
-208,694	289,800	0,074	-0,097
-207,679	-181,036	-0,082	-0,001
-206,665	-48,364	0,054	-0,019
-205,650	146,955	-0,050	0,048
-204,636	-200,000	-0,008	0,069
-203,621	-0,092	-0,003	0,002
-202,606	-91,576	-0,019	0,004
-201,592	-165,902	-0,081	-0,002
-200,577	-200,000	-0,020	-0,092
-199,563	-200,000	0,011	-0,078
-198,548	-131,220	0,175	0,017
-197,533	712,522	0,093	0,179
-196,519	681,992	0,051	0,095
-195,504	52,819	-0,169	-0,116
-194,490	-200,000	0,002	-0,124
-193,475	685,092	-0,033	-0,062
-192,460	43,130	0,120	-0,079
-191,446	800,000	-0,045	0,118
-190,431	-200,000	0,007	0,045
-189,417	-94,028	0,133	0,026
-188,402	57,933	0,071	0,050
-187,387	800,000	-0,068	0,136
-186,373	332,520	0,048	-0,067
-185,358	-200,000	-0,024	-0,109
-184,344	-136,371	0,103	-0,009
-183,329	-60,688	-0,059	0,018
-182,315	97,845	-0,160	0,133
-181,300	-200,000	0,011	-0,086
-180,285	404,195	-0,096	-0,146
-179,271	-41,009	-0,066	-0,024
-178,256	-200,000	-0,005	-0,089
-177,242	-200,000	0,016	0,174
-176,227	308,165	-0,058	0,078
-175,212	-200,000	-0,016	0,098
-174,198	-152,612	-0,123	-0,006
-173,183	173,986	0,007	-0,007
-172,169	40,805	-0,131	0,085
-171,154	5,518	0,016	0,008
-170,139	312,653	-0,017	0,023
-169,125	597,536	0,053	-0,095
-168,110	295,112	0,098	0,129
-167,096	-161,035	-0,180	-0,007
-166,081	-200,000	-0,010	-0,128
-165,066	252,807	0,035	-0,043
-164,052	-200,000	0,016	-0,099
-163,037	-200,000	0,004	-0,073
-162,023	-69,127	-0,177	-0,049
-161,008	-200,000	-0,021	0,088
-159,993	-52,795	-0,018	-0,006
-158,979	152,077	-0,033	-0,032
-157,964	-6,630	-0,095	0,046
-156,950	-200,000	0,009	-0,067
-155,935	505,714	0,074	-0,124
-154,920	6,638	-0,044	0,024
-153,906	-104,465	0,090	-0,015
-152,891	-200,000	-0,014	0,052
-151,877	-200,000	-0,004	0,043
-150,862	800,000	0,020	-0,041
-149,847	-51,275	-0,064	0,021
-148,833	-110,391	0,099	0,015
-147,818	800,000	-0,012	0,028
-146,804	800,000	-0,025	-0,075
-145,789	-9,185	0,090	0,043
-144,775	800,000	-0,020	0,052
-143,760	-200,000	-0,026	-0,100
-142,745	-200,000	0,001	-0,127
-141,731	342,224	0,048	-0,067
-140,716	-93,089	0,069	-0,014
-139,702	-200,000	-0,008	0,099
-138,687	570,186	-0,005	0,008
-137,672	-200,000	-0,006	-0,037
-136,658	17,534	0,087	-0,050
-135,643	-73,030	-0,107	0,028
-134,629	225,194	0,027	0,031
-133,614	-89,132	0,067	0,014
-132,599	-200,000	-0,001	0,181
-131,585	-165,724	0,118	0,004
-130,570	29,338	-0,072	0,044
-129,556	152,484	-0,042	0,041
-128,541	-200,000	0,018	-0,061
-127,526	3,976	-0,035	0,018
-126,512	27,964	-0,038	0,023
-125,497	-2,450	0,040	0,020
-124,483	800,000	-0,017	-0,042
-123,468	707,956	0,033	0,062
-122,453	-200,000	-0,025	-0,107
-121,439	96,026	0,118	0,097
-120,424	-200,000	-0,025	0,177
-119,410	-200,000	0,001	0,154
