DTS Sentinel unit serial number:	SN410029Multiplexer serial number:	ORYXHardware model number:	OX2-SRSoftware version number:	ORYX F/W v4,00 Oryx Data Collector v3.7.2.0data status	okinstallation	B5 Nyhavnadifferential loss correction	single-endedforward channel	channel 2reverse channel	N/Adate	2023/12/12time	19:32:13forward acquisition time	300,00reverse acquisition time	0,00gamma	499,1914k internal	0,3156k external	0,3156temperature offset calibration	1,0000default loss term (dB/km)	0,3820temperature slope calibration	1,0000multiplexer offset coefficient	1,0000multiplexer slope coefficient	1,0000fibre end	0,00T internal ref (°C)	15,45T ext. ref 1 (°C)	-1,18T ext. ref 2 (°C)	-1,49length (m)	temperature (°C)	Stokes	anti-Stokes-744,400	-200,000	-0,009	-0,076
-743,385	-36,660	-0,382	-0,151
-742,371	-84,754	0,142	-0,033
-741,356	-126,400	-0,217	0,024
-740,342	513,114	0,085	0,146
-739,327	-194,841	-0,304	-0,002
-738,312	-1,520	0,060	-0,031
-737,298	-53,965	-0,301	0,100
-736,283	800,000	0,020	0,050
-735,269	-44,470	-0,285	-0,105
-734,254	30,297	0,111	0,070
-733,239	-119,918	-0,558	-0,070
-732,225	-13,823	0,242	-0,115
-731,210	672,317	-0,043	-0,082
-730,196	-200,000	-0,037	-0,139
-729,181	3,389	-0,036	-0,019
-728,167	800,000	0,058	0,144
-727,152	284,291	0,061	0,081
-726,137	113,267	-0,078	-0,070
-725,123	266,229	0,041	-0,053
-724,108	-200,000	-0,037	-0,170
-723,094	-27,539	-0,136	-0,058
-722,079	-122,828	-0,057	0,007
-721,064	74,483	-0,100	-0,078
-720,050	-200,000	0,000	-0,044
-719,035	145,983	0,084	-0,083
-718,021	120,183	-0,076	-0,070
-717,006	74,395	-0,151	-0,117
-715,991	-200,000	-0,031	-0,106
-714,977	-200,000	0,026	-0,108
-713,962	-47,752	-0,075	0,027
-712,948	379,821	-0,087	-0,131
-711,933	100,225	0,023	-0,020
-710,918	133,918	0,075	-0,071
-709,904	-47,844	-0,125	-0,044
-708,889	-163,110	-0,234	0,008
-707,875	-88,108	-0,041	0,009
-706,860	113,331	0,038	0,034
-705,845	85,604	0,024	-0,019
-704,831	800,000	0,025	-0,055
-703,816	-105,202	-0,110	-0,018
-702,802	0,038	-0,081	-0,042
-701,787	70,912	-0,112	-0,085
-700,772	-200,000	0,006	0,159
-699,758	-200,000	0,008	-0,110
-698,743	-200,000	0,001	0,014
-697,729	-121,105	0,095	-0,012
-696,714	-78,182	0,072	0,018
-695,699	51,492	-0,101	0,070
-694,685	-42,417	-0,066	-0,025
-693,670	-200,000	-0,001	-0,164
-692,656	150,326	-0,117	-0,117
-691,641	-200,000	0,007	0,096
-690,627	-200,000	0,006	0,067
-689,612	45,990	-0,038	0,026
-688,597	119,021	-0,064	-0,058
-687,583	257,381	-0,013	-0,017
-686,568	264,351	-0,100	-0,128
-685,554	-17,621	-0,136	0,063
-684,539	-105,048	-0,102	0,017
-683,524	726,684	0,016	-0,031
-682,510	563,147	-0,089	-0,160
-681,495	-164,522	0,059	0,002
-680,481	471,153	-0,071	-0,117
-679,466	-94,886	0,048	-0,009
-678,451	527,764	-0,038	-0,065
-677,437	-200,000	0,013	-0,079
-676,422	8,317	-0,048	-0,026
-675,408	195,525	0,045	-0,050
-674,393	-200,000	0,002	0,008
-673,378	-41,781	-0,048	0,018
-672,364	458,216	-0,056	-0,092
-671,349	237,309	-0,039	0,047
-670,335	276,763	0,089	-0,116
-669,320	-200,000	-0,003	0,119
-668,305	128,580	-0,040	0,038
-667,291	283,151	-0,077	-0,102
-666,276	442,502	-0,100	-0,161
-665,262	-200,000	-0,025	-0,125
-664,247	-133,584	-0,073	-0,007
-663,232	-117,144	0,082	-0,011
-662,218	-72,987	-0,074	0,020
-661,203	-200,000	0,006	0,114
-660,189	-200,000	-0,011	-0,063
-659,174	145,348	0,060	-0,060
-658,159	-17,089	-0,220	-0,101
-657,145	-200,000	0,006	-0,152
-656,130	80,142	0,122	0,096
-655,116	157,957	-0,058	0,060
-654,101	103,266	0,072	-0,062
-653,086	-200,000	0,005	-0,045
-652,072	-200,000	-0,024	0,093
-651,057	55,125	-0,083	-0,059
-650,043	-200,000	-0,018	0,105
-649,028	-45,418	0,090	0,033
-648,014	116,119	-0,040	-0,036
-646,999	79,566	0,090	0,071
-645,984	297,492	0,056	0,075
-644,970	5,860	0,019	-0,010
-643,955	-17,932	0,066	-0,030
-642,941	46,414	-0,149	-0,101
-641,926	185,522	-0,108	0,118
-640,911	-131,613	-0,050	0,005
-639,897	-66,133	-0,048	0,014
-638,882	142,825	0,035	0,034
-637,868	-33,585	-0,051	-0,021
-636,853	254,592	-0,123	0,155
-635,838	272,697	-0,032	0,041
-634,824	-200,000	0,005	0,034
-633,809	-85,861	0,060	0,013
-632,795	-120,197	0,036	0,004
-631,780	-200,000	0,009	0,094
-630,765	-200,000	0,011	0,048
-629,751	-1,198	-0,063	0,033
-628,736	800,000	-0,044	-0,120
-627,722	139,593	-0,030	-0,029
-626,707	305,968	0,028	0,038
-625,692	40,527	0,031	-0,021
-624,678	800,000	0,032	0,091
-623,663	10,933	-0,048	0,027
-622,649	-200,000	-0,019	-0,086
-621,634	800,000	-0,056	-0,164
-620,619	-200,000	-0,013	-0,152
-619,605	110,677	0,113	0,100
-618,590	-54,605	0,073	0,024
-617,576	519,942	-0,020	-0,035
-616,561	380,807	-0,112	0,170
-615,546	800,000	0,016	-0,038
-614,532	-20,429	0,054	-0,024
-613,517	11,373	-0,070	-0,039
-612,503	-79,938	0,108	0,026
-611,488	191,972	0,004	-0,005
-610,474	265,990	0,084	-0,108
-609,459	-79,627	0,079	-0,019
-608,444	-117,952	-0,131	-0,017
-607,430	1,859	-0,032	0,017
-606,415	35,979	0,015	0,010
-605,401	-11,939	-0,175	-0,084
-604,386	5,206	0,066	0,035
-603,371	-170,940	0,232	-0,006
-602,357	45,231	-0,043	-0,029
-601,342	-200,000	-0,005	0,020
-600,328	-78,103	-0,135	-0,034
-599,313	800,000	0,028	-0,081
-598,298	-40,787	0,011	0,004
-597,284	543,560	0,020	-0,036
-596,269	-78,497	0,183	0,046
-595,255	800,000	0,030	-0,082
-594,240	-200,000	-0,035	-0,145
-593,225	-51,621	-0,125	0,042
-592,211	-55,971	0,037	-0,012
-591,196	800,000	-0,013	-0,027
-590,182	-200,000	-0,005	0,066
-589,167	133,944	-0,063	0,060
-588,152	422,272	-0,092	-0,145
-587,138	163,545	0,054	0,056
-586,123	146,575	-0,062	-0,061
-585,109	-200,000	-0,026	-0,180
-584,094	-1,274	-0,110	-0,057
-583,079	111,435	0,023	0,020
-582,065	1,542	0,099	-0,052
-581,050	-200,000	0,002	-0,011
-580,036	-105,400	-0,194	0,032
-579,021	-55,183	-0,129	0,042
-578,006	800,000	0,022	-0,069
-576,992	-44,349	-0,081	-0,029
-575,977	-200,000	0,008	-0,162
-574,963	-200,000	0,008	0,085
-573,948	213,411	0,077	0,089
-572,934	201,129	0,098	-0,111
-571,919	-200,000	-0,003	0,036
-570,904	-200,000	0,026	0,105
-569,890	-51,473	-0,029	-0,010
-568,875	-200,000	0,034	-0,129
-567,861	-50,836	0,085	0,029
-566,846	-79,969	-0,037	-0,009
-565,831	-200,000	-0,038	-0,124
-564,817	800,000	-0,024	-0,051
-563,802	-169,337	-0,016	0,000
-562,788	-89,903	-0,113	-0,024
-561,773	800,000	0,027	0,076
-560,758	-118,829	-0,049	0,006
-559,744	67,088	0,083	0,062
-558,729	-12,330	-0,042	0,020
-557,715	800,000	0,062	0,185
-556,700	-200,000	-0,008	0,085
-555,685	63,231	-0,113	-0,083
-554,671	55,540	0,053	-0,038
-553,656	-200,000	0,023	0,086
-552,642	-200,000	0,043	0,230
-551,627	-49,636	-0,087	0,030
-550,612	-200,000	-0,012	-0,090
-549,598	-67,594	-0,121	-0,034
-548,583	-200,000	0,009	0,045
-547,569	-165,732	0,031	-0,001
-546,554	-200,000	0,050	0,184
-545,539	-200,000	-0,013	0,068
-544,525	-186,070	-0,120	-0,001
-543,510	102,107	-0,092	-0,079
-542,496	-200,000	0,015	-0,183
-541,481	433,139	-0,032	-0,051
-540,466	-2,265	-0,058	-0,030
-539,452	800,000	0,014	0,041
-538,437	-200,000	-0,009	-0,157
-537,423	197,409	0,064	-0,072
-536,408	-200,000	-0,006	-0,033
-535,393	345,686	-0,039	-0,057
-534,379	-200,000	0,019	0,082
-533,364	-27,666	0,097	-0,041
-532,350	45,371	0,087	-0,059
-531,335	-200,000	-0,021	-0,202
-530,321	-29,583	-0,143	0,059
-529,306	800,000	0,023	-0,052
-528,291	-26,791	-0,053	-0,022
-527,277	-200,000	0,016	-0,078
-526,262	710,678	0,013	-0,026
-525,248	248,599	-0,056	-0,070
-524,233	-200,000	0,002	0,058
-523,218	-143,847	-0,030	0,002
-522,204	-200,000	-0,001	0,083
-521,189	-200,000	-0,003	-0,105
-520,175	-57,359	-0,142	-0,045
-519,160	8,644	-0,056	-0,031
-518,145	596,152	0,043	0,078
-517,131	179,849	-0,093	0,100
-516,116	-200,000	0,022	0,132
-515,102	23,935	-0,073	0,044
-514,087	23,595	0,030	-0,018
-513,072	-200,000	-0,005	-0,073
-512,058	59,177	0,137	0,098
-511,043	-200,000	-0,008	0,071
-510,029	-65,005	0,176	0,052
-509,014	214,876	0,129	-0,150
-507,999	105,172	-0,042	0,036
-506,985	237,616	-0,046	-0,056
-505,970	-200,000	-0,034	-0,152
-504,956	-200,000	0,006	-0,113
-503,941	-200,000	-0,018	0,078
-502,926	-126,040	-0,046	-0,005
-501,912	-200,000	0,015	0,080
-500,897	-45,491	-0,082	0,029
-499,883	-144,993	-0,057	-0,004
-498,868	-200,000	-0,000	-0,123
-497,853	-200,000	-0,024	0,146
-496,839	-200,000	0,016	-0,058
-495,824	-200,000	0,001	-0,004
-494,810	-159,315	-0,011	0,000
-493,795	143,242	-0,056	0,055
-492,781	283,457	0,056	0,074
-491,766	108,227	0,082	-0,071
-490,751	-115,005	-0,101	-0,014
-489,737	-97,360	-0,099	0,019
-488,722	580,028	-0,061	-0,109
-487,708	521,522	-0,087	0,149
-486,693	66,037	0,218	0,162
-485,678	13,809	0,179	-0,101
-484,664	-200,000	-0,003	-0,017
-483,649	-200,000	-0,007	-0,108
-482,635	-200,000	0,002	-0,054
-481,620	-70,759	-0,107	-0,029
-480,605	-73,726	-0,103	0,027
-479,591	65,756	0,096	-0,071
-478,576	-200,000	-0,029	0,100
-477,562	-66,619	0,126	0,036
-476,547	-115,970	-0,083	-0,011
-475,532	-200,000	0,009	-0,205
-474,518	-200,000	-0,019	0,067
-473,503	-61,284	0,063	0,019
-472,489	-61,441	0,096	0,029
-471,474	-200,000	-0,004	0,033
-470,459	-124,433	-0,107	0,012
-469,445	637,400	-0,047	0,088
-468,430	-200,000	0,042	0,146
-467,416	508,876	0,037	-0,062
-466,401	-13,586	-0,080	-0,038
-465,386	29,343	0,113	0,070
-464,372	196,663	0,019	-0,022
-463,357	55,588	-0,042	0,030
-462,343	-125,628	0,087	-0,010
-461,328	-64,828	-0,030	-0,009
-460,313	-200,000	-0,034	0,156
-459,299	-80,974	0,145	-0,035
-458,284	659,035	-0,034	-0,064
-457,270	82,084	0,100	0,079
-456,255	-200,000	0,004	-0,084
-455,241	-200,000	0,018	-0,096
-454,226	26,404	0,061	0,037
-453,211	29,482	0,065	-0,040
-452,197	540,381	0,019	-0,034
-451,182	-200,000	-0,014	-0,093
-450,168	-88,219	0,192	0,041
-449,153	-77,398	-0,157	-0,039
-448,138	99,320	-0,097	-0,082
-447,124	56,858	0,095	-0,067
-446,109	597,900	0,079	-0,143
-445,095	618,454	-0,047	0,086
-444,080	-200,000	-0,019	0,069
-443,065	121,041	-0,082	0,074
-442,051	733,103	0,062	0,122
-441,036	37,889	-0,083	-0,054
-440,022	800,000	0,039	-0,106
-439,007	-134,612	-0,029	0,003
-437,992	8,308	0,148	0,081
-436,978	-69,595	0,021	0,006
-435,963	242,043	0,023	0,028
-434,949	800,000	0,030	-0,065
-433,934	321,437	0,025	-0,034
-432,919	5,016	-0,104	0,056
-431,905	-95,145	-0,089	-0,017
-430,890	11,831	0,081	-0,045
-429,876	-200,000	-0,019	0,072
-428,861	133,575	0,036	0,034
-427,846	-200,000	0,001	0,048
-426,832	131,577	-0,048	-0,045
-425,817	-200,000	-0,012	-0,147
-424,803	-200,000	0,013	-0,109
-423,788	-200,000	0,002	0,020
-422,773	16,215	0,077	0,044
-421,759	86,233	0,094	-0,075
-420,744	-161,040	-0,033	0,001
-419,730	44,068	0,047	0,032
-418,715	308,686	0,067	0,091
-417,701	459,777	0,054	-0,087
-416,686	-200,000	-0,008	0,057
-415,671	63,697	-0,032	0,024
-414,657	800,000	0,030	0,061
-413,642	800,000	-0,016	-0,039
-412,628	-200,000	-0,002	0,013
-411,613	207,279	-0,021	0,024
-410,598	694,629	-0,037	-0,071
-409,584	-17,444	0,056	0,026
-408,569	0,342	0,063	-0,032
-407,555	-200,000	-0,014	-0,062
-406,540	-200,000	0,011	-0,059
-405,525	-136,236	0,125	0,010
-404,511	24,385	-0,141	-0,085
-403,496	-103,367	0,031	0,005
-402,482	31,067	0,094	-0,059
-401,467	73,534	-0,042	0,032
-400,452	800,000	0,052	-0,106
-399,438	-50,384	-0,054	-0,018
-398,423	800,000	-0,007	0,020
-397,409	-122,174	0,064	-0,008
-396,394	-33,189	-0,112	0,045
-395,379	98,221	-0,086	-0,072
-394,365	-71,243	-0,043	-0,012
-393,350	39,291	0,078	0,051
-392,336	-200,000	-0,024	0,085
-391,321	-200,000	0,005	-0,114
-390,306	227,600	-0,048	0,056
-389,292	4,283	0,099	-0,053
-388,277	348,617	0,084	-0,120
-387,263	-200,000	0,014	0,067
-386,248	-73,417	0,122	0,032
-385,233	800,000	-0,051	0,123
-384,219	800,000	0,022	-0,058
-383,204	800,000	0,048	-0,152
-382,190	-200,000	-0,015	-0,121
-381,175	-200,000	-0,016	0,151
-380,160	405,626	0,023	0,036
-379,146	131,844	0,127	0,119
-378,131	-21,030	-0,043	-0,019
-377,117	33,310	0,107	-0,067
-376,102	44,694	-0,063	-0,042
-375,088	-200,000	0,046	-0,180
-374,073	200,702	-0,037	-0,041
-373,058	64,609	-0,079	0,058
-372,044	800,000	0,041	0,090
-371,029	800,000	0,020	0,063
-370,015	10,083	0,111	0,061
-369,000	-15,156	0,110	-0,051
-367,985	522,811	-0,072	-0,124
-366,971	487,596	-0,024	-0,040
-365,956	-8,624	-0,072	-0,035
-364,942	-120,505	0,055	-0,007
-363,927	-200,000	0,023	-0,105
-362,912	-149,412	0,046	0,003
-361,898	-200,000	0,024	0,080
-360,883	800,000	-0,025	0,051
-359,869	700,371	0,048	0,093
-358,854	-117,831	0,059	0,008
-357,839	149,856	-0,008	-0,008
-356,825	800,000	0,046	-0,116
-355,810	85,528	-0,052	0,042
-354,796	800,000	-0,027	0,056
-353,781	195,329	-0,102	0,113
-352,766	-200,000	-0,013	-0,044
-351,752	-109,496	0,090	0,014
-350,737	125,927	0,105	0,096
-349,723	54,467	0,078	-0,054
-348,708	-76,764	0,105	0,026
-347,693	77,104	0,070	-0,054
-346,679	-166,169	-0,086	0,003
-345,664	158,173	-0,051	0,051
-344,650	242,856	-0,059	0,071
-343,635	-122,437	0,078	0,009
-342,620	1,235	0,230	0,120
-341,606	-200,000	-0,029	0,149
-340,591	-110,871	0,136	0,020
-339,577	372,811	0,050	-0,075
-338,562	311,572	-0,078	-0,106
-337,548	37,536	0,167	0,107
-336,533	-67,521	0,055	0,015
-335,518	8,039	-0,041	0,023
-334,504	-200,000	-0,009	-0,069
-333,489	-67,068	-0,075	0,021
-332,475	714,952	-0,099	-0,192
-331,460	-200,000	-0,003	0,103
-330,445	374,090	-0,066	-0,098
-329,431	205,100	-0,060	-0,067
-328,416	800,000	-0,051	0,149
-327,402	-39,272	-0,082	0,031
-326,387	-157,225	-0,057	-0,002
-325,372	213,631	-0,035	0,041
-324,358	-22,129	-0,066	-0,029
-323,343	17,256	0,089	-0,051
-322,329	800,000	0,027	-0,055
-321,314	-98,981	0,146	0,027
-320,299	-200,000	-0,012	0,040
-319,285	-54,554	-0,088	-0,029
-318,270	57,472	-0,110	0,078
-317,256	274,629	-0,036	0,046
-316,241	-11,070	-0,171	-0,081
-315,226	227,037	-0,040	-0,047
-314,212	117,712	0,165	0,147
-313,197	298,433	0,064	-0,086
-312,183	387,275	0,091	0,137
-311,168	-53,171	-0,013	-0,004
-310,153	165,984	-0,057	0,059
-309,139	-200,000	-0,011	0,117
-308,124	88,563	0,087	0,070
-307,110	94,002	0,073	0,060
-306,095	-91,968	0,093	-0,019
-305,080	1,754	0,072	-0,038
-304,066	-200,000	-0,019	0,100
-303,051	-72,844	-0,182	-0,048
-302,037	-21,510	0,044	-0,019
-301,022	255,810	0,006	0,007
-300,008	2,327	0,011	0,006
-298,993	800,000	-0,035	0,102
-297,978	-200,000	0,006	0,207
-296,964	-57,958	0,018	-0,006
-295,949	-200,000	-0,017	-0,058
-294,935	367,771	-0,044	-0,065
-293,920	79,985	-0,130	0,101
-292,905	-200,000	-0,000	0,126
-291,891	175,497	0,030	-0,032
-290,876	-8,855	0,062	0,030
-289,862	96,344	-0,129	-0,107
-288,847	-138,467	-0,067	-0,005
-287,832	-200,000	-0,026	-0,106
-286,818	-8,416	-0,050	-0,024
-285,803	800,000	-0,030	0,085
-284,789	-68,318	0,038	-0,011
-283,774	-171,344	-0,046	-0,001
-282,759	800,000	0,014	0,040
-281,745	-200,000	-0,006	0,031
-280,730	-95,260	-0,105	-0,020
-279,716	112,612	-0,106	-0,093
-278,701	-54,023	0,072	0,023
-277,686	129,995	-0,048	-0,044
-276,672	153,339	0,080	0,079
-275,657	441,345	-0,077	0,122
-274,643	4,521	-0,064	0,034
-273,628	800,000	-0,036	-0,094
-272,613	-40,844	-0,208	-0,077
-271,599	744,078	0,056	0,109
-270,584	388,193	-0,021	-0,031
-269,570	-17,711	-0,073	0,033
-268,555	-200,000	-0,009	-0,051
-267,540	323,833	0,050	0,069
-266,526	-101,128	0,104	-0,018
-265,511	708,842	-0,075	-0,144
-264,497	-200,000	-0,012	-0,076
-263,482	482,535	-0,039	-0,065
-262,467	-33,923	0,043	0,017
-261,453	106,806	0,088	0,075
-260,438	288,024	0,016	-0,021
-259,424	800,000	-0,036	0,114
-258,409	169,590	0,041	-0,043
-257,395	-113,711	-0,119	0,017
-256,380	304,655	0,062	0,083
-255,365	-111,192	-0,049	0,007
-254,351	607,173	0,095	0,172
-253,336	-200,000	-0,002	-0,037
-252,322	-200,000	0,006	-0,023
-251,307	-47,997	0,095	-0,033
-250,292	216,587	-0,083	-0,095
-249,278	-200,000	0,021	0,092
-248,263	-200,000	0,008	-0,074
-247,249	-200,000	-0,026	0,121
-246,234	170,127	0,136	0,141
-245,219	-168,471	-0,056	-0,002
-244,205	800,000	0,042	-0,102
-243,190	157,338	0,031	0,031
-242,176	134,425	0,110	0,103
-241,161	-200,000	-0,010	-0,040
-240,146	-109,046	-0,091	-0,014
-239,132	-106,873	-0,075	0,012
-238,117	800,000	0,068	-0,208
-237,103	-68,906	-0,191	-0,053
-236,088	800,000	-0,057	-0,137
-235,073	181,937	0,032	0,034
-234,059	-200,000	0,004	-0,025
-233,044	800,000	-0,037	-0,113
-232,030	-200,000	0,040	0,220
-231,015	781,265	-0,044	-0,088
-230,000	-200,000	0,014	-0,104
-228,986	-200,000	0,019	-0,107
-227,971	-77,305	0,092	0,023
-226,957	54,160	-0,031	0,022
-225,942	210,333	0,058	-0,066
-224,927	-104,857	-0,104	-0,017
-223,913	58,521	-0,045	0,032
-222,898	624,342	0,050	-0,091
-221,884	-22,194	-0,028	0,012
-220,869	-200,000	-0,011	-0,114
-219,855	171,070	-0,038	-0,039
-218,840	83,475	0,086	0,068
-217,825	726,593	0,046	0,089
-216,811	121,675	0,042	0,038
-215,796	63,931	-0,076	0,055
-214,782	49,164	0,032	-0,021
-213,767	114,166	0,116	-0,102
-212,752	-87,887	0,167	-0,036
-211,738	361,827	-0,051	0,074
-210,723	-2,831	0,058	0,029
-209,709	-135,601	-0,130	-0,011
-208,694	-200,000	-0,181	0,000
-207,679	-80,999	0,149	-0,035
-206,665	-152,556	0,130	0,007
-205,650	-13,901	-0,080	0,037
-204,636	-111,169	0,123	0,018
-203,621	-200,000	-0,010	-0,034
-202,606	-184,520	-0,028	0,000
-201,592	-188,647	-0,092	0,001
-200,577	-200,000	-0,011	0,037
-199,563	-200,000	-0,002	0,173
-198,548	68,879	0,034	-0,025
-197,533	404,517	-0,014	0,021
-196,519	-200,000	-0,002	0,149
-195,504	105,973	0,062	-0,053
-194,490	-55,669	-0,095	0,031
-193,475	-200,000	0,041	-0,163
-192,460	38,900	-0,145	-0,094
-191,446	800,000	0,058	0,145
-190,431	361,531	-0,128	0,186
-189,417	-82,918	0,037	-0,008
-188,402	76,389	-0,044	0,033
-187,387	397,063	-0,048	0,073
-186,373	800,000	0,056	-0,162
-185,358	64,539	-0,140	-0,102
-184,344	190,523	0,064	0,069
-183,329	-200,000	-0,007	0,088
-182,315	-44,327	0,061	-0,022
-181,300	205,376	0,066	-0,075
-180,285	-200,000	0,026	0,140
-179,271	11,051	-0,190	-0,104
-178,256	101,818	0,054	-0,046
-177,242	485,691	0,041	0,068
-176,227	69,900	0,100	0,074
-175,212	-0,335	-0,078	0,040
-174,198	134,541	-0,100	0,094
-173,183	303,583	0,082	-0,110
-172,169	-148,119	-0,055	0,003
-171,154	-200,000	0,001	0,042
-170,139	-25,127	0,034	-0,014
-169,125	292,375	-0,020	-0,026
-168,110	635,622	-0,051	0,093
-167,096	800,000	-0,059	0,169
-166,081	-148,872	0,132	0,008
-165,066	172,071	0,064	-0,067
-164,052	13,880	-0,048	0,027
-163,037	-158,686	0,123	0,005
-162,023	273,717	0,060	0,077
-161,008	-200,000	-0,006	-0,046
-159,993	-200,000	-0,019	-0,078
-158,979	-200,000	-0,009	-0,106
-157,964	234,502	0,038	0,045
-156,950	-10,858	-0,105	-0,050
-155,935	-200,000	-0,024	0,103
-154,920	85,449	-0,142	0,113
-153,906	-24,712	0,039	0,017
-152,891	-109,122	0,134	-0,020
-151,877	121,352	-0,087	-0,078
-150,862	295,505	0,058	-0,077
-149,847	-108,893	-0,149	0,023
-148,833	466,160	-0,066	-0,108
-147,818	-125,967	0,138	-0,015
-146,804	-166,643	0,069	-0,002
-145,789	800,000	0,043	-0,130
-144,775	13,413	-0,134	-0,075
-143,760	800,000	-0,018	-0,051
-142,745	-83,427	0,032	-0,007
-141,731	-18,339	0,050	0,022
-140,716	-200,000	-0,001	0,013
-139,702	800,000	0,047	-0,098
-138,687	144,089	-0,054	0,052
-137,672	345,024	0,030	0,042
-136,658	52,556	0,011	-0,008
-135,643	-200,000	-0,002	-0,090
-134,629	-117,161	-0,156	-0,020
-133,614	-138,335	0,003	-0,000
-132,599	-200,000	0,005	0,155
-131,585	-124,876	0,065	0,007
-130,570	359,462	0,025	0,037
-129,556	-200,000	-0,006	-0,071
-128,541	-127,427	-0,122	-0,013
-127,526	174,913	0,093	0,097
-126,512	792,700	-0,044	0,088
-125,497	126,233	0,081	0,073
-124,483	-200,000	-0,016	0,059
-123,468	553,118	0,069	-0,121
-122,453	-33,262	-0,147	-0,058
-121,439	154,671	-0,067	0,066
-120,424	5,290	0,051	0,027
