DTS Sentinel unit serial number:	SN410029Multiplexer serial number:	ORYXHardware model number:	OX2-SRSoftware version number:	ORYX F/W v4,00 Oryx Data Collector v3.7.2.0data status	okinstallation	B5 Nyhavnadifferential loss correction	single-endedforward channel	channel 2reverse channel	N/Adate	2023/12/12time	23:02:13forward acquisition time	300,00reverse acquisition time	0,00gamma	499,1914k internal	0,3158k external	0,3158temperature offset calibration	1,0000default loss term (dB/km)	0,3820temperature slope calibration	1,0000multiplexer offset coefficient	1,0000multiplexer slope coefficient	1,0000fibre end	0,00T internal ref (°C)	14,53T ext. ref 1 (°C)	-2,02T ext. ref 2 (°C)	-2,36length (m)	temperature (°C)	Stokes	anti-Stokes-744,400	77,170	0,050	-0,040
-743,385	-182,898	-0,217	-0,003
-742,371	115,154	0,100	0,090
-741,356	-110,269	-0,335	0,051
-740,342	-15,578	0,068	-0,032
-739,327	-119,386	-0,339	0,043
-738,312	85,694	-0,056	0,046
-737,298	-102,050	-0,170	0,030
-736,283	-114,559	0,174	-0,024
-735,269	-101,700	-0,201	-0,036
-734,254	-92,301	-0,059	-0,012
-733,239	-157,640	-0,330	-0,014
-732,225	88,318	0,091	0,075
-731,210	98,407	-0,067	0,056
-730,196	-52,174	-0,040	-0,014
-729,181	-200,000	0,007	0,037
-728,167	221,521	0,117	-0,138
-727,152	533,879	-0,075	-0,131
-726,137	202,406	0,099	0,113
-725,123	800,000	-0,009	0,029
-724,108	-25,894	0,089	-0,039
-723,094	-133,900	-0,053	0,005
-722,079	-200,000	0,026	-0,164
-721,064	-200,000	-0,003	-0,134
-720,050	-200,000	0,006	-0,068
-719,035	800,000	-0,037	-0,092
-718,021	-200,000	-0,001	-0,019
-717,006	800,000	-0,042	-0,123
-715,991	70,056	-0,135	-0,102
-714,977	-200,000	0,009	-0,122
-713,962	315,089	-0,100	0,139
-712,948	-9,397	0,060	0,030
-711,933	800,000	0,055	0,125
-710,918	800,000	-0,030	0,089
-709,904	82,174	-0,072	0,058
-708,889	305,255	0,049	-0,067
-707,875	119,491	-0,108	-0,099
-706,860	451,941	0,064	0,104
-705,845	-53,255	-0,079	-0,027
-704,831	-200,000	-0,023	0,143
-703,816	-79,937	-0,042	0,010
-702,802	69,527	-0,184	-0,139
-701,787	310,322	-0,108	-0,149
-700,772	-55,974	0,138	-0,045
-699,758	207,095	0,032	0,037
-698,743	-84,794	0,123	-0,028
-697,729	519,845	-0,073	0,126
-696,714	121,012	0,033	0,030
-695,699	120,172	-0,075	-0,069
-694,685	-200,000	0,011	-0,093
-693,670	-63,447	-0,143	-0,043
-692,656	67,022	0,036	-0,027
-691,641	116,683	-0,101	0,092
-690,627	380,143	0,077	0,117
-689,612	459,207	-0,072	0,118
-688,597	800,000	-0,028	0,064
-687,583	-200,000	0,013	-0,070
-686,568	664,338	0,055	-0,105
-685,554	73,332	0,089	0,068
-684,539	-119,373	0,050	-0,006
-683,524	-2,605	0,024	0,012
-682,510	185,492	-0,093	-0,102
-681,495	800,000	0,017	-0,049
-680,481	-43,094	0,245	-0,091
-679,466	-200,000	-0,040	-0,135
-678,451	102,369	-0,032	0,027
-677,437	68,207	0,025	0,019
-676,422	-200,000	0,013	0,075
-675,408	-65,164	0,098	0,029
-674,393	356,705	0,016	0,023
-673,378	268,359	-0,115	-0,149
-672,364	-200,000	-0,016	-0,074
-671,349	57,261	-0,079	-0,056
-670,335	-200,000	0,022	-0,072
-669,320	27,984	-0,052	0,032
-668,305	6,189	0,071	-0,039
-667,291	-200,000	-0,002	0,013
-666,276	-200,000	-0,008	-0,078
-665,262	-88,385	-0,171	-0,037
-664,247	-200,000	-0,033	-0,153
-663,232	-200,000	0,014	-0,144
-662,218	682,205	0,043	-0,083
-661,203	54,895	-0,061	0,043
-660,189	54,741	-0,092	0,065
-659,174	800,000	-0,028	0,070
-658,159	17,886	-0,118	-0,069
-657,145	-134,820	-0,028	0,002
-656,130	-200,000	-0,003	-0,033
-655,116	-78,416	-0,061	0,015
-654,101	2,411	0,048	0,025
-653,086	533,425	0,054	0,094
-652,072	74,159	0,049	-0,038
-651,057	-127,005	-0,183	0,020
-650,043	-162,614	-0,092	0,003
-649,028	800,000	-0,020	0,057
-648,014	129,938	-0,068	0,064
-646,999	148,242	-0,034	-0,034
-645,984	-200,000	0,004	-0,038
-644,970	-48,657	-0,092	0,032
-643,955	-200,000	-0,000	-0,158
-642,941	53,928	-0,013	0,009
-641,926	-177,655	0,113	0,002
-640,911	-84,393	-0,144	0,033
-639,897	137,552	0,083	0,079
-638,882	-87,382	-0,021	-0,005
-637,868	746,540	-0,052	0,103
-636,853	721,196	-0,026	0,050
-635,838	-68,495	-0,178	-0,050
-634,824	-154,542	-0,036	0,002
-633,809	359,448	0,071	0,105
-632,795	-111,855	-0,063	0,009
-631,780	-27,840	-0,112	0,048
-630,765	127,854	0,049	0,046
-629,751	-100,587	0,048	-0,009
-628,736	800,000	-0,012	0,039
-627,722	-174,118	0,061	-0,001
-626,707	800,000	-0,052	0,113
-625,692	-145,790	-0,069	-0,004
-624,678	15,131	-0,119	0,068
-623,663	-36,808	0,176	-0,069
-622,649	800,000	0,045	0,095
-621,634	-200,000	0,010	-0,154
-620,619	-29,764	-0,136	-0,057
-619,605	-200,000	-0,005	0,077
-618,590	-93,077	0,042	0,009
-617,576	-50,678	0,084	0,029
-616,561	-200,000	-0,008	0,118
-615,546	5,379	-0,122	-0,066
-614,532	32,777	-0,016	-0,010
-613,517	96,266	-0,080	0,067
-612,503	-200,000	0,003	0,048
-611,488	74,727	0,083	0,064
-610,474	-108,646	0,080	-0,013
-609,459	-35,497	-0,083	-0,033
-608,444	-4,109	-0,174	-0,088
-607,430	-200,000	-0,022	-0,098
-606,415	128,714	-0,105	-0,098
-605,401	150,638	-0,015	-0,015
-604,386	-200,000	0,003	-0,034
-603,371	434,700	0,019	0,030
-602,357	-200,000	-0,013	-0,076
-601,342	-1,838	-0,008	0,004
-600,328	-44,205	-0,069	0,025
-599,313	-39,543	-0,099	0,038
-598,298	110,488	0,122	0,107
-597,284	180,109	-0,061	0,066
-596,269	-106,574	0,193	0,031
-595,255	295,574	0,047	0,064
-594,240	-200,000	-0,002	0,114
-593,225	289,261	-0,017	-0,022
-592,211	142,089	-0,049	0,048
-591,196	-200,000	-0,008	-0,143
-590,182	-200,000	-0,036	-0,157
-589,167	-200,000	0,011	-0,042
-588,152	344,329	-0,030	0,043
-587,138	800,000	-0,064	-0,165
-586,123	307,028	0,068	0,094
-585,109	97,277	0,134	-0,113
-584,094	128,897	-0,095	0,089
-583,079	127,073	0,025	0,023
-582,065	-200,000	-0,003	0,020
-581,050	-102,941	0,047	-0,008
-580,036	-172,563	0,100	-0,002
-579,021	65,525	-0,125	0,092
-578,006	-200,000	0,001	-0,072
-576,992	-200,000	-0,003	-0,144
-575,977	55,711	0,141	-0,100
-574,963	153,899	-0,037	-0,037
-573,948	-54,929	0,170	0,056
-572,934	-200,000	0,007	0,025
-571,919	800,000	-0,050	-0,117
-570,904	62,486	-0,069	-0,050
-569,890	-91,565	-0,107	0,022
-568,875	-155,304	0,166	-0,008
-567,861	72,460	-0,056	-0,043
-566,846	-200,000	0,004	0,105
-565,831	800,000	0,032	0,099
-564,817	9,506	-0,101	0,056
-563,802	-200,000	0,013	0,061
-562,788	-14,246	0,052	-0,024
-561,773	-62,144	-0,095	-0,029
-560,758	-156,570	0,216	0,010
-559,744	-183,739	-0,070	-0,001
-558,729	800,000	-0,030	0,092
-557,715	336,921	-0,068	0,097
-556,700	-108,817	0,043	0,007
-555,685	-200,000	-0,022	-0,090
-554,671	163,041	0,111	0,114
-553,656	669,537	-0,031	0,059
-552,642	13,036	0,133	0,075
-551,627	7,356	-0,074	0,040
-550,612	-67,546	0,091	-0,026
-549,598	-26,803	-0,122	-0,052
-548,583	-140,845	0,012	0,001
-547,569	5,035	0,099	0,053
-546,554	6,277	-0,037	-0,020
-545,539	-200,000	-0,014	-0,076
-544,525	-132,488	-0,116	0,011
-543,510	11,173	-0,023	-0,013
-542,496	289,243	-0,051	0,068
-541,481	-200,000	0,017	-0,115
-540,466	-50,621	-0,090	-0,031
-539,452	800,000	0,037	-0,093
-538,437	157,483	0,104	0,105
-537,423	-200,000	0,006	0,030
-536,408	-105,356	0,114	0,019
-535,393	-66,538	-0,195	-0,056
-534,379	189,855	0,052	0,057
-533,364	21,438	0,094	-0,056
-532,350	13,324	0,095	0,054
-531,335	-200,000	-0,012	0,152
-530,321	154,098	-0,050	-0,050
-529,306	800,000	0,021	-0,052
-528,291	299,576	-0,055	0,074
-527,277	311,456	-0,024	-0,033
-526,262	-5,822	0,100	0,050
-525,248	800,000	0,064	0,140
-524,233	-200,000	0,006	0,033
-523,218	85,163	-0,100	-0,080
-522,204	800,000	-0,045	0,106
-521,189	-115,828	-0,032	0,004
-520,175	41,065	-0,065	0,043
-519,160	-200,000	0,029	-0,147
-518,145	800,000	-0,016	-0,043
-517,131	-87,699	0,107	0,023
-516,116	-200,000	0,012	0,072
-515,102	146,105	0,069	0,068
-514,087	337,715	0,083	-0,118
-513,072	234,231	-0,103	-0,125
-512,058	800,000	-0,026	-0,077
-511,043	-195,951	-0,020	-0,000
-510,029	-48,259	0,071	0,025
-509,014	27,734	0,145	-0,089
-507,999	-62,124	0,010	-0,003
-506,985	-5,458	-0,057	0,028
-505,970	800,000	0,031	-0,069
-504,956	-200,000	0,003	-0,045
-503,941	10,552	0,119	-0,066
-502,926	-64,385	0,098	0,029
-501,912	-200,000	-0,005	0,038
-500,897	800,000	0,059	-0,168
-499,883	-200,000	0,006	-0,030
-498,868	-144,584	-0,065	0,004
-497,853	-35,035	-0,030	-0,012
-496,839	29,408	0,133	-0,082
-495,824	-200,000	0,026	0,098
-494,810	42,135	-0,072	0,048
-493,795	800,000	-0,032	0,089
-492,781	38,958	0,035	-0,023
-491,766	-200,000	-0,004	-0,044
-490,751	-200,000	-0,000	0,015
-489,737	18,779	0,022	0,013
-488,722	106,537	0,020	-0,018
-487,708	800,000	0,015	-0,030
-486,693	774,058	0,014	-0,028
-485,678	-200,000	-0,021	0,121
-484,664	79,383	-0,135	-0,106
-483,649	-200,000	-0,007	-0,055
-482,635	-200,000	0,014	-0,071
-481,620	92,740	0,057	0,047
-480,605	-71,746	0,077	-0,021
-479,591	-86,069	-0,045	0,010
-478,576	-200,000	0,015	-0,056
-477,562	241,646	-0,060	0,074
-476,547	406,984	-0,087	0,135
-475,532	129,966	0,068	0,063
-474,518	-101,472	0,137	-0,024
-473,503	-200,000	0,021	0,098
-472,489	66,643	-0,064	-0,047
-471,474	-200,000	0,003	0,066
-470,459	-53,484	0,016	-0,005
-469,445	800,000	0,021	-0,047
-468,430	800,000	0,017	0,045
-467,416	141,535	-0,067	0,065
-466,401	-200,000	-0,015	0,062
-465,386	-52,544	0,126	-0,042
-464,372	314,938	-0,027	-0,038
-463,357	-40,325	-0,038	0,014
-462,343	97,314	0,150	-0,125
-461,328	-186,953	-0,089	0,001
-460,313	-200,000	0,002	-0,198
-459,299	125,828	0,081	0,075
-458,284	338,876	0,022	0,031
-457,270	-200,000	-0,021	0,117
-456,255	215,523	-0,069	-0,080
-455,241	-200,000	0,000	0,030
-454,226	-71,986	0,063	0,017
-453,211	-155,495	0,014	-0,001
-452,197	-200,000	-0,019	-0,203
-451,182	173,565	0,031	-0,033
-450,168	-200,000	-0,019	-0,089
-449,153	380,741	-0,025	-0,037
-448,138	-154,106	-0,140	0,007
-447,124	-200,000	-0,007	-0,038
-446,109	-127,280	0,035	0,004
-445,095	-58,096	0,060	0,019
-444,080	-162,828	0,065	0,002
-443,065	136,019	0,050	0,048
-442,051	-200,000	0,011	0,137
-441,036	-200,000	-0,034	-0,115
-440,022	557,152	-0,089	-0,157
-439,007	218,193	0,038	-0,044
-437,992	-200,000	0,031	-0,106
-436,978	-200,000	-0,001	0,049
-435,963	-200,000	-0,025	-0,089
-434,949	39,648	0,088	0,057
-433,934	-100,242	0,075	-0,013
-432,919	800,000	-0,044	0,103
-431,905	-44,251	0,031	-0,011
-430,890	-122,113	0,095	0,011
-429,876	-200,000	0,020	0,068
-428,861	172,275	0,050	0,053
-427,846	800,000	-0,016	-0,039
-426,832	476,404	-0,034	0,056
-425,817	-36,455	0,080	0,031
-424,803	-200,000	-0,019	0,145
-423,788	-154,261	0,121	0,006
-422,773	-69,854	0,102	-0,028
-421,759	-127,886	0,045	0,005
-420,744	50,255	-0,147	-0,101
-419,730	-74,467	0,111	-0,029
-418,715	-200,000	0,022	-0,185
-417,701	118,673	-0,086	0,077
-416,686	80,151	0,021	-0,017
-415,671	270,970	-0,086	-0,111
-414,657	-15,799	0,122	0,056
-413,642	-36,963	0,051	-0,020
-412,628	-46,746	-0,084	0,030
-411,613	800,000	-0,070	-0,198
-410,598	124,837	-0,099	-0,091
-409,584	732,953	-0,022	0,043
-408,569	787,242	0,048	0,097
-407,555	800,000	0,020	0,063
-406,540	-200,000	-0,004	0,060
-405,525	-92,620	0,021	-0,004
-404,511	257,463	0,089	-0,111
-403,496	-21,276	0,054	-0,024
-402,482	208,169	-0,064	0,073
-401,467	-200,000	0,003	0,042
-400,452	44,571	-0,155	0,104
-399,438	-24,490	-0,128	0,055
-398,423	800,000	0,010	-0,029
-397,409	-119,486	0,120	0,015
-396,394	-148,500	-0,105	0,006
-395,379	38,580	0,090	-0,058
-394,365	-85,789	-0,036	-0,008
-393,350	52,260	0,139	0,096
-392,336	-200,000	0,036	0,171
-391,321	76,909	-0,122	0,094
-390,306	451,591	-0,043	-0,069
-389,292	210,765	-0,071	0,081
-388,277	206,516	-0,109	-0,123
-387,263	-200,000	0,025	0,136
-386,248	165,936	0,020	0,020
-385,233	170,599	0,019	-0,020
-384,219	-69,823	0,160	0,044
-383,204	800,000	-0,042	0,112
-382,190	-95,089	-0,133	-0,026
-381,175	4,116	0,015	-0,008
-380,160	136,670	0,076	-0,072
-379,146	800,000	0,041	0,128
-378,131	800,000	0,029	0,062
-377,117	-163,875	-0,142	-0,005
-376,102	800,000	-0,021	-0,049
-375,088	800,000	0,029	0,069
-374,073	-200,000	0,008	-0,076
-373,058	800,000	0,037	0,079
-372,044	-125,144	0,152	-0,017
-371,029	-200,000	-0,046	0,152
-370,015	-147,045	-0,019	-0,001
-369,000	-19,283	0,077	-0,034
-367,985	-200,000	0,013	-0,070
-366,971	800,000	0,071	-0,148
-365,956	749,066	-0,032	0,063
-364,942	462,668	0,060	0,098
-363,927	-29,101	0,086	0,036
-362,912	-25,125	-0,046	0,020
-361,898	605,635	0,025	0,045
-360,883	-77,555	-0,123	-0,031
-359,869	-135,240	0,133	0,011
-358,854	-200,000	0,018	-0,062
-357,839	-156,064	0,110	0,005
-356,825	-200,000	0,007	0,055
-355,810	-200,000	-0,009	-0,053
-354,796	-200,000	0,033	0,130
-353,781	89,113	-0,057	-0,046
-352,766	-75,428	-0,092	0,024
-351,752	622,199	0,074	0,135
-350,737	800,000	-0,074	-0,166
-349,723	15,158	-0,080	-0,046
-348,708	777,267	0,026	0,052
-347,693	-200,000	0,028	0,121
-346,679	-32,101	-0,089	-0,036
-345,664	324,211	0,061	0,085
-344,650	100,522	-0,088	-0,074
-343,635	-200,000	0,005	0,024
-342,620	93,307	-0,034	-0,028
-341,606	117,884	0,042	-0,037
-340,591	-49,618	-0,119	-0,041
-339,577	3,136	-0,047	-0,024
-338,562	-200,000	-0,042	0,000
-337,548	-59,660	0,070	0,022
-336,533	185,276	0,019	0,020
-335,518	-80,523	0,118	0,028
-334,504	-86,648	0,149	0,033
-333,489	425,919	0,023	-0,036
-332,475	-200,000	-0,017	-0,058
-331,460	12,466	-0,112	0,063
-330,445	-101,370	0,172	-0,030
-329,431	-200,000	0,007	-0,053
-328,416	245,389	0,056	0,068
-327,402	71,634	-0,016	0,012
-326,387	108,472	0,060	0,052
-325,372	-128,629	-0,064	-0,006
-324,358	-93,402	-0,078	-0,016
-323,343	153,523	0,009	0,009
-322,329	-200,000	0,024	-0,111
-321,314	61,089	0,071	0,051
-320,299	-200,000	-0,023	-0,106
-319,285	105,936	-0,047	-0,041
-318,270	-200,000	-0,013	-0,100
-317,256	-200,000	0,014	-0,064
-316,241	-200,000	-0,011	-0,170
-315,226	68,574	-0,039	-0,029
-314,212	-55,780	-0,095	-0,030
-313,197	154,329	0,037	0,037
-312,183	327,686	0,051	-0,071
-311,168	21,489	-0,159	-0,094
-310,153	800,000	0,014	0,031
-309,139	158,942	-0,145	-0,146
-308,124	615,755	0,062	0,113
-307,110	800,000	-0,027	-0,060
-306,095	169,035	0,064	0,067
-305,080	283,811	-0,028	-0,037
-304,066	486,570	0,043	0,072
-303,051	-32,475	-0,119	0,048
-302,037	225,286	-0,042	-0,050
-301,022	-200,000	-0,003	0,112
-300,008	-96,684	0,108	0,020
-298,993	-200,000	0,002	-0,050
-297,978	725,417	-0,045	0,088
-296,964	-56,787	0,008	0,002
-295,949	387,429	-0,054	-0,082
-294,935	-200,000	-0,004	-0,031
-293,920	57,207	-0,056	0,040
-292,905	341,232	0,010	-0,014
-291,891	800,000	-0,021	0,065
-290,876	-200,000	-0,018	0,087
-289,862	-24,977	-0,083	-0,035
-288,847	293,779	0,051	-0,068
-287,832	800,000	0,034	-0,093
-286,818	-2,864	-0,094	-0,047
-285,803	800,000	0,024	0,075
-284,789	-200,000	-0,012	0,228
-283,774	289,912	-0,067	0,089
-282,759	97,537	-0,023	-0,019
-281,745	-4,911	-0,101	0,050
-280,730	180,086	0,018	-0,019
-279,716	-200,000	-0,005	0,046
-278,701	-31,840	0,118	-0,048
-277,686	265,451	0,061	-0,077
-276,672	195,772	-0,025	0,028
-275,657	-200,000	-0,027	0,100
-274,643	62,628	-0,073	-0,053
-273,628	91,839	0,032	0,026
-272,613	800,000	0,044	-0,109
-271,599	-114,700	0,141	-0,019
-270,584	-120,805	-0,102	0,012
-269,570	50,701	0,117	0,080
-268,555	633,874	0,038	-0,070
-267,540	800,000	0,023	0,064
-266,526	393,359	0,024	-0,036
-265,511	-13,310	0,071	0,033
-264,497	-21,086	-0,158	-0,070
-263,482	54,167	0,073	-0,051
-262,467	-110,641	-0,122	0,018
-261,453	800,000	-0,032	-0,089
-260,438	-200,000	-0,011	-0,130
-259,424	-134,415	-0,043	-0,004
-258,409	-94,828	-0,030	-0,006
-257,395	-200,000	0,021	-0,133
-256,380	20,286	0,021	-0,012
-255,365	-200,000	0,013	0,149
-254,351	-77,472	0,149	-0,037
-253,336	-200,000	0,017	-0,083
-252,322	800,000	-0,030	-0,064
-251,307	-133,918	-0,073	0,006
-250,292	48,066	-0,053	-0,036
-249,278	-200,000	-0,026	-0,090
-248,263	116,468	0,088	-0,078
-247,249	-200,000	0,022	0,077
-246,234	200,245	-0,160	-0,177
-245,219	-200,000	-0,013	-0,127
-244,205	-200,000	0,018	-0,108
-243,190	-73,159	-0,099	0,026
-242,176	256,788	-0,028	0,035
-241,161	-26,028	0,079	0,033
-240,146	800,000	-0,032	0,072
-239,132	-200,000	0,001	-0,020
-238,117	-18,389	-0,114	0,051
-237,103	-200,000	0,042	0,147
-236,088	95,102	-0,051	-0,042
-235,073	-135,963	-0,095	-0,008
-234,059	14,404	0,025	0,014
-233,044	-71,863	-0,124	-0,033
-232,030	-200,000	0,010	-0,085
-231,015	-200,000	0,014	0,173
-230,000	-19,516	-0,069	0,031
-228,986	389,339	-0,053	0,079
-227,971	74,210	-0,067	0,051
-226,957	-22,428	0,115	-0,050
-225,942	325,442	-0,067	0,092
-224,927	-0,675	0,034	0,017
-223,913	32,612	-0,172	-0,107
-222,898	-147,670	0,090	-0,005
-221,884	26,477	-0,083	-0,050
-220,869	-200,000	0,030	0,098
-219,855	-112,099	-0,049	0,007
-218,840	669,709	-0,066	-0,125
-217,825	-200,000	0,026	-0,146
-216,811	-40,096	-0,049	-0,018
-215,796	-200,000	0,012	-0,092
-214,782	-194,065	-0,076	0,000
-213,767	71,219	0,095	-0,071
-212,752	-200,000	-0,005	0,094
-211,738	-55,423	0,139	-0,045
-210,723	676,720	0,042	-0,079
-209,709	-19,402	-0,095	0,042
-208,694	-200,000	0,012	-0,049
-207,679	785,232	-0,024	0,047
-206,665	-200,000	-0,004	0,014
-205,650	-200,000	0,004	0,194
-204,636	-17,837	-0,126	0,057
-203,621	-200,000	0,008	-0,038
-202,606	-200,000	0,009	0,136
-201,592	800,000	-0,046	0,119
-200,577	91,327	0,047	-0,038
-199,563	-200,000	0,010	0,057
-198,548	192,118	-0,055	0,060
-197,533	-76,635	-0,092	-0,023
-196,519	800,000	0,034	-0,075
-195,504	327,273	-0,025	-0,035
-194,490	107,529	0,061	0,052
-193,475	-72,691	-0,050	-0,013
-192,460	399,892	0,056	0,085
-191,446	800,000	0,059	-0,165
-190,431	-200,000	-0,001	0,029
-189,417	153,075	0,030	0,030
-188,402	36,683	0,131	-0,083
-187,387	-200,000	0,005	0,053
-186,373	-56,067	0,069	-0,022
-185,358	140,075	0,070	0,067
-184,344	-37,796	0,119	-0,045
-183,329	-200,000	-0,005	0,027
-182,315	376,094	0,017	-0,025
-181,300	-134,720	0,016	-0,001
-180,285	-80,703	-0,035	-0,008
-179,271	-46,805	-0,064	-0,023
-178,256	800,000	0,020	0,049
-177,242	800,000	-0,018	0,046
-176,227	-134,401	0,100	-0,009
-175,212	-121,643	0,056	-0,007
-174,198	-200,000	0,018	-0,121
-173,183	25,171	0,113	-0,067
-172,169	-200,000	0,006	0,063
-171,154	-200,000	-0,031	-0,135
-170,139	589,478	0,046	-0,081
-169,125	-49,629	0,069	-0,024
-168,110	-86,463	0,085	0,019
-167,096	-79,872	-0,082	-0,020
-166,081	-19,142	-0,139	0,062
-165,066	800,000	-0,063	-0,134
-164,052	-123,440	0,070	0,008
-163,037	34,747	-0,140	0,088
-162,023	800,000	-0,033	0,082
-161,008	-123,764	0,133	-0,015
-159,993	-200,000	0,004	0,090
-158,979	201,125	0,075	0,083
-157,964	-49,866	-0,081	-0,028
-156,950	800,000	-0,009	0,028
-155,935	363,693	-0,027	-0,039
-154,920	74,076	0,134	0,101
-153,906	-200,000	-0,026	0,101
-152,891	650,271	-0,060	-0,111
-151,877	-150,566	0,102	0,006
-150,862	181,686	0,062	-0,066
-149,847	-40,222	-0,074	0,028
-148,833	35,441	0,060	0,038
-147,818	641,239	0,059	0,109
-146,804	-50,561	-0,019	-0,006
-145,789	-128,762	0,068	0,007
-144,775	-200,000	-0,003	0,023
-143,760	800,000	-0,046	0,108
-142,745	-127,147	0,010	-0,001
-141,731	232,373	0,017	0,020
-140,716	800,000	-0,068	0,187
-139,702	-93,701	-0,091	0,018
-138,687	75,189	-0,011	-0,009
-137,672	17,091	0,078	0,044
-136,658	698,868	-0,023	-0,043
-135,643	-58,001	-0,112	-0,035
-134,629	-200,000	0,004	-0,019
-133,614	-148,012	0,128	-0,008
-132,599	70,789	-0,122	0,091
-131,585	349,851	-0,031	0,044
-130,570	800,000	-0,043	-0,135
-129,556	-200,000	-0,026	-0,085
-128,541	-96,792	-0,079	-0,015
-127,526	-142,528	-0,044	0,003
-126,512	205,265	-0,078	-0,087
-125,497	-200,000	0,001	-0,063
-124,483	149,883	-0,025	-0,024
-123,468	105,635	-0,064	0,054
-122,453	-101,119	0,091	-0,016
-121,439	96,681	-0,017	0,014
-120,424	800,000	0,040	0,099
-119,410	574,750	0,056	-0,099
