DTS Sentinel unit serial number:	SN410029Multiplexer serial number:	ORYXHardware model number:	OX2-SRSoftware version number:	ORYX F/W v4,00 Oryx Data Collector v3.7.2.0data status	okinstallation	B5 Nyhavnadifferential loss correction	single-endedforward channel	channel 2reverse channel	N/Adate	2023/12/12time	19:27:13forward acquisition time	300,00reverse acquisition time	0,00gamma	499,1914k internal	0,3157k external	0,3157temperature offset calibration	1,0000default loss term (dB/km)	0,3820temperature slope calibration	1,0000multiplexer offset coefficient	1,0000multiplexer slope coefficient	1,0000fibre end	0,00T internal ref (°C)	15,47T ext. ref 1 (°C)	-1,17T ext. ref 2 (°C)	-1,47length (m)	temperature (°C)	Stokes	anti-Stokes-744,400	-200,000	-0,001	-0,017
-743,385	-160,440	-0,320	-0,012
-742,371	-89,813	0,076	-0,016
-741,356	-84,414	-0,176	0,041
-740,342	-34,439	0,103	0,041
-739,327	-85,322	-0,339	-0,077
-738,312	62,315	-0,061	0,045
-737,298	-146,117	-0,282	-0,018
-736,283	-113,688	0,107	-0,015
-735,269	7,593	-0,310	0,171
-734,254	45,528	0,140	0,095
-733,239	-33,482	-0,393	-0,159
-732,225	-115,646	0,306	-0,042
-731,210	-97,946	-0,082	0,015
-730,196	-132,520	0,116	0,011
-729,181	800,000	0,022	-0,046
-728,167	16,311	0,040	-0,023
-727,152	90,439	-0,067	-0,055
-726,137	290,884	-0,102	-0,138
-725,123	-54,492	0,099	0,033
-724,108	-7,313	-0,062	-0,031
-723,094	800,000	-0,045	-0,110
-722,079	218,898	-0,043	-0,051
-721,064	800,000	-0,045	-0,134
-720,050	-200,000	-0,003	0,054
-719,035	381,038	-0,087	0,131
-718,021	221,815	0,095	-0,113
-717,006	-200,000	-0,016	-0,151
-715,991	500,253	-0,102	-0,174
-714,977	-102,905	-0,180	-0,031
-713,962	215,131	-0,117	-0,137
-712,948	157,698	-0,025	-0,025
-711,933	143,171	-0,135	0,133
-710,918	120,350	0,076	0,069
-709,904	493,421	-0,089	-0,151
-708,889	-200,000	0,012	-0,059
-707,875	-200,000	-0,021	-0,135
-706,860	129,756	0,038	-0,036
-705,845	-76,310	-0,091	-0,023
-704,831	-99,896	0,067	0,012
-703,816	-113,212	-0,048	-0,007
-702,802	800,000	-0,059	-0,165
-701,787	800,000	-0,073	-0,170
-700,772	800,000	0,044	-0,096
-699,758	-16,792	-0,078	0,036
-698,743	-200,000	-0,004	0,019
-697,729	-27,589	0,193	-0,082
-696,714	-33,046	0,061	-0,025
-695,699	-185,015	0,126	0,001
-694,685	-31,238	-0,144	-0,059
-693,670	-25,922	-0,106	0,046
-692,656	800,000	0,016	-0,050
-691,641	-53,168	0,039	0,013
-690,627	-200,000	-0,009	-0,033
-689,612	-157,056	0,039	-0,002
-688,597	800,000	0,044	-0,094
-687,583	-20,609	-0,052	0,024
-686,568	-17,235	-0,149	-0,069
-685,554	800,000	0,006	0,018
-684,539	-152,133	-0,144	-0,008
-683,524	-48,744	-0,100	0,035
-682,510	-200,000	0,035	0,123
-681,495	-4,756	-0,106	-0,053
-680,481	288,329	-0,029	0,039
-679,466	-146,715	-0,162	-0,010
-678,451	-6,888	-0,091	-0,045
-677,437	-200,000	-0,016	-0,057
-676,422	768,775	-0,090	-0,181
-675,408	-6,867	0,111	-0,055
-674,393	16,991	-0,126	0,073
-673,378	33,930	-0,066	0,042
-672,364	237,845	-0,116	-0,142
-671,349	292,012	0,019	-0,026
-670,335	96,077	0,143	0,120
-669,320	-95,113	-0,150	-0,030
-668,305	800,000	0,034	0,100
-667,291	458,637	-0,070	-0,114
-666,276	800,000	-0,118	-0,279
-665,262	263,512	-0,063	-0,081
-664,247	-32,911	-0,114	0,046
-663,232	800,000	-0,026	-0,081
-662,218	219,333	-0,039	-0,046
-661,203	-25,348	-0,119	0,052
-660,189	224,835	0,036	-0,043
-659,174	-200,000	-0,014	-0,089
-658,159	87,702	-0,131	-0,107
-657,145	60,367	-0,092	0,067
-656,130	308,704	0,038	-0,053
-655,116	-156,487	0,038	-0,002
-654,101	800,000	-0,065	0,157
-653,086	-200,000	0,001	-0,029
-652,072	-95,526	-0,099	-0,019
-651,057	-200,000	-0,012	-0,080
-650,043	54,041	0,034	0,024
-649,028	758,197	-0,047	-0,094
-648,014	366,164	-0,012	0,018
-646,999	79,222	-0,047	-0,037
-645,984	174,690	-0,052	0,055
-644,970	-3,547	0,113	-0,058
-643,955	-200,000	-0,013	-0,103
-642,941	-200,000	-0,009	0,118
-641,926	-200,000	-0,002	-0,040
-640,911	196,156	-0,049	-0,055
-639,897	800,000	-0,029	0,061
-638,882	-200,000	0,025	0,084
-637,868	77,361	0,085	0,066
-636,853	116,599	0,084	-0,076
-635,838	-200,000	-0,009	-0,096
-634,824	161,015	-0,010	0,010
-633,809	-200,000	-0,005	0,062
-632,795	127,206	0,033	-0,030
-631,780	800,000	0,020	-0,045
-630,765	139,664	0,035	-0,034
-629,751	129,113	0,047	-0,045
-628,736	170,421	-0,163	-0,171
-627,722	-49,871	-0,114	-0,040
-626,707	800,000	-0,027	-0,080
-625,692	-81,422	0,075	-0,018
-624,678	104,582	-0,040	-0,034
-623,663	-200,000	0,001	-0,013
-622,649	188,116	-0,019	-0,021
-621,634	177,910	-0,128	-0,137
-620,619	309,924	0,057	0,078
-619,605	-149,495	0,100	-0,006
-618,590	-200,000	0,025	-0,082
-617,576	-200,000	-0,002	-0,033
-616,561	800,000	-0,077	0,175
-615,546	-200,000	0,023	-0,150
-614,532	48,379	-0,089	-0,061
-613,517	295,564	-0,043	-0,058
-612,503	152,448	-0,065	0,065
-611,488	-200,000	0,003	0,058
-610,474	779,480	-0,032	-0,065
-609,459	119,285	0,051	0,047
-608,444	-121,490	0,065	0,008
-607,430	350,021	-0,032	-0,047
-606,415	16,442	-0,154	0,089
-605,401	-57,778	0,084	-0,027
-604,386	167,620	0,078	-0,081
-603,371	-200,000	-0,002	0,124
-602,357	800,000	-0,028	-0,079
-601,342	122,416	0,078	0,071
-600,328	156,527	-0,086	0,087
-599,313	148,116	0,128	0,127
-598,298	-200,000	-0,016	-0,089
-597,284	-200,000	0,010	-0,047
-596,269	-200,000	-0,027	0,120
-595,255	110,662	0,098	0,086
-594,240	438,412	-0,055	0,088
-593,225	800,000	-0,057	-0,134
-592,211	-200,000	-0,050	-0,175
-591,196	302,810	0,069	-0,094
-590,182	800,000	-0,031	-0,068
-589,167	329,114	0,087	0,123
-588,152	-127,450	-0,168	0,018
-587,138	800,000	-0,072	0,151
-586,123	-200,000	0,010	-0,095
-585,109	-84,303	-0,196	-0,045
-584,094	-200,000	0,017	0,122
-583,079	-200,000	-0,000	0,070
-582,065	-4,753	-0,024	0,012
-581,050	800,000	-0,032	0,074
-580,036	-53,090	0,095	0,032
-579,021	-172,711	-0,203	-0,005
-578,006	-49,908	0,046	0,016
-576,992	-55,239	-0,186	-0,061
-575,977	396,203	-0,073	0,111
-574,963	800,000	0,083	0,182
-573,948	-156,595	-0,188	-0,008
-572,934	-50,528	-0,124	0,043
-571,919	118,837	0,087	-0,079
-570,904	-200,000	0,011	-0,069
-569,890	800,000	-0,032	0,075
-568,875	-200,000	0,033	0,108
-567,861	197,022	-0,033	-0,037
-566,846	174,879	-0,061	0,065
-565,831	-11,436	-0,065	-0,031
-564,817	317,567	-0,060	0,083
-563,802	11,021	-0,088	0,049
-562,788	441,980	-0,071	0,115
-561,773	89,198	0,097	-0,079
-560,758	-84,382	-0,072	-0,016
-559,744	-145,327	-0,091	0,006
-558,729	-53,683	0,087	0,029
-557,715	51,394	-0,105	-0,073
-556,700	583,151	0,053	-0,095
-555,685	217,949	0,025	-0,029
-554,671	123,467	0,078	0,071
-553,656	38,090	0,016	-0,010
-552,642	800,000	0,041	0,112
-551,627	65,490	0,095	0,070
-550,612	800,000	0,053	0,118
-549,598	800,000	-0,060	0,130
-548,583	545,487	0,084	0,148
-547,569	-44,560	0,074	-0,027
-546,554	-200,000	0,001	-0,069
-545,539	-200,000	0,010	-0,139
-544,525	-30,945	0,033	-0,013
-543,510	474,564	-0,040	0,066
-542,496	-79,117	0,113	-0,028
-541,481	525,075	-0,031	-0,053
-540,466	-15,117	-0,092	0,043
-539,452	-104,252	0,109	-0,018
-538,437	61,049	0,144	-0,105
-537,423	462,607	0,031	0,051
-536,408	81,722	0,077	-0,061
-535,393	134,990	0,047	-0,045
-534,379	800,000	0,055	-0,162
-533,364	800,000	-0,044	-0,107
-532,350	-87,640	0,013	0,003
-531,335	-200,000	-0,004	0,014
-530,321	-62,182	0,082	-0,025
-529,306	149,599	0,032	-0,032
-528,291	800,000	0,043	0,122
-527,277	-200,000	-0,023	0,125
-526,262	-200,000	0,014	-0,105
-525,248	134,111	0,046	0,044
-524,233	-200,000	0,025	0,092
-523,218	155,848	-0,071	0,072
-522,204	-13,324	-0,068	0,032
-521,189	220,188	0,085	0,100
-520,175	-120,341	-0,199	0,025
-519,160	211,981	-0,021	-0,025
-518,145	-189,529	0,129	0,001
-517,131	339,007	0,004	-0,006
-516,116	79,118	0,064	0,050
-515,102	-173,388	-0,044	-0,001
-514,087	27,673	-0,100	0,061
-513,072	30,176	-0,092	-0,057
-512,058	-200,000	0,012	0,163
-511,043	800,000	-0,029	0,068
-510,029	144,805	0,080	0,078
-509,014	-61,783	0,057	0,017
-507,999	-200,000	0,040	0,148
-506,985	126,926	0,045	0,041
-505,970	-200,000	0,022	0,116
-504,956	60,402	-0,068	-0,049
-503,941	311,513	0,027	-0,037
-502,926	-200,000	-0,039	0,245
-501,912	365,494	0,024	0,035
-500,897	800,000	0,061	0,191
-499,883	800,000	-0,062	-0,144
-498,868	-200,000	0,012	0,096
-497,853	-166,227	-0,111	-0,003
-496,839	3,310	-0,035	0,019
-495,824	-87,754	0,153	-0,033
-494,810	800,000	-0,008	-0,021
-493,795	566,876	0,053	0,094
-492,781	-17,059	-0,037	0,017
-491,766	90,307	0,107	-0,087
-490,751	573,511	0,055	-0,098
-489,737	209,987	-0,065	0,074
-488,722	-200,000	0,003	-0,050
-487,708	268,761	0,053	0,068
-486,693	-200,000	0,025	-0,141
-485,678	-36,372	-0,099	-0,039
-484,664	-149,329	-0,078	0,004
-483,649	-200,000	-0,034	-0,147
-482,635	528,892	-0,016	-0,028
-481,620	83,523	0,135	-0,107
-480,605	-55,902	-0,022	-0,007
-479,591	800,000	-0,047	0,137
-478,576	47,426	0,079	0,054
-477,562	-200,000	-0,009	-0,060
-476,547	-200,000	0,005	-0,026
-475,532	51,621	-0,062	-0,043
-474,518	72,335	-0,078	-0,059
-473,503	-200,000	0,025	-0,087
-472,489	800,000	-0,012	0,029
-471,474	-150,613	-0,077	0,004
-470,459	349,588	-0,039	-0,057
-469,445	394,369	0,051	0,078
-468,430	33,162	-0,106	0,067
-467,416	527,321	-0,017	-0,029
-466,401	235,915	0,010	0,012
-465,386	-51,958	-0,059	0,020
-464,372	145,731	-0,073	-0,071
-463,357	-200,000	-0,012	-0,072
-462,343	132,192	0,058	0,055
-461,328	-200,000	-0,008	0,087
-460,313	-99,966	-0,046	0,008
-459,299	318,285	-0,063	0,087
-458,284	800,000	-0,017	-0,038
-457,270	-9,432	0,041	-0,020
-456,255	60,475	0,077	-0,055
-455,241	131,289	-0,056	0,052
-454,226	47,588	-0,123	0,083
-453,211	-92,567	0,111	-0,023
-452,197	800,000	0,036	-0,076
-451,182	160,747	0,163	-0,166
-450,168	572,195	-0,062	0,111
-449,153	105,652	0,019	0,017
-448,138	94,162	-0,074	0,061
-447,124	414,278	-0,078	-0,121
-446,109	-42,144	0,105	0,039
-445,095	-77,279	0,078	0,020
-444,080	-200,000	0,003	0,149
-443,065	800,000	0,031	0,068
-442,051	-89,499	-0,106	0,023
-441,036	-200,000	0,010	-0,142
-440,022	-200,000	0,006	0,081
-439,007	-200,000	0,003	0,020
-437,992	21,328	0,046	0,027
-436,978	-64,733	0,091	0,027
-435,963	-96,326	-0,135	-0,026
-434,949	-135,721	-0,077	0,007
-433,934	800,000	-0,034	-0,074
-432,919	128,206	-0,110	-0,102
-431,905	303,066	0,093	-0,126
-430,890	346,784	0,031	-0,045
-429,876	-200,000	0,015	0,100
-428,861	-200,000	0,016	0,120
-427,846	-200,000	-0,011	0,119
-426,832	-178,941	-0,154	0,002
-425,817	-15,892	-0,059	0,027
-424,803	-200,000	-0,052	-0,239
-423,788	-132,578	-0,053	-0,005
-422,773	707,799	0,072	0,139
-421,759	221,113	-0,046	0,054
-420,744	-113,597	0,043	-0,006
-419,730	171,384	-0,058	0,060
-418,715	-200,000	-0,002	0,100
-417,701	-96,449	-0,014	-0,003
-416,686	-88,381	0,118	-0,025
-415,671	22,081	-0,074	0,044
-414,657	101,259	0,037	-0,032
-413,642	-140,836	0,091	0,007
-412,628	127,281	-0,093	0,086
-411,613	-91,787	0,083	0,017
-410,598	-12,631	-0,079	0,037
-409,584	772,057	-0,068	0,135
-408,569	284,290	0,089	-0,117
-407,555	46,055	0,115	0,078
-406,540	2,365	-0,059	0,031
-405,525	800,000	-0,042	-0,096
-404,511	-200,000	-0,011	-0,066
-403,496	-200,000	-0,026	-0,118
-402,482	-200,000	-0,010	-0,210
-401,467	-118,832	0,070	-0,009
-400,452	475,825	-0,064	0,105
-399,438	231,703	0,037	0,044
-398,423	735,000	-0,082	0,160
-397,409	-200,000	0,014	0,064
-396,394	-8,319	0,082	-0,040
-395,379	-200,000	0,008	0,072
-394,365	4,289	-0,143	-0,076
-393,350	263,846	0,013	-0,016
-392,336	14,866	0,148	0,084
-391,321	-138,458	0,134	-0,011
-390,306	-200,000	0,016	-0,073
-389,292	-90,196	0,095	0,020
-388,277	800,000	-0,048	0,097
-387,263	209,137	0,086	-0,098
-386,248	49,706	0,085	0,058
-385,233	-200,000	-0,010	0,088
-384,219	79,252	-0,092	0,072
-383,204	800,000	0,053	-0,116
-382,190	-68,118	-0,104	-0,029
-381,175	-200,000	0,008	0,114
-380,160	464,712	0,053	0,086
-379,146	800,000	-0,043	0,106
-378,131	-200,000	0,013	-0,049
-377,117	-109,493	-0,060	-0,009
-376,102	-200,000	0,018	-0,083
-375,088	779,054	0,038	-0,077
-374,073	-200,000	0,013	-0,073
-373,058	69,374	0,107	-0,080
-372,044	14,476	-0,091	0,051
-371,029	347,822	0,058	0,083
-370,015	800,000	-0,061	0,190
-369,000	-200,000	0,003	-0,081
-367,985	-132,695	-0,067	-0,006
-366,971	-50,825	-0,149	0,051
-365,956	-200,000	-0,021	-0,098
-364,942	32,998	0,085	0,053
-363,927	533,571	0,042	0,073
-362,912	-157,638	-0,086	0,004
-361,898	14,673	0,128	-0,073
-360,883	-200,000	0,026	-0,115
-359,869	-63,402	0,163	-0,049
-358,854	-148,512	0,055	-0,003
-357,839	800,000	-0,029	-0,070
-356,825	-117,643	-0,057	-0,007
-355,810	-68,249	0,065	-0,018
-354,796	181,886	0,080	-0,086
-353,781	-106,325	-0,047	0,008
-352,766	-24,460	0,107	-0,046
-351,752	-15,982	0,134	-0,062
-350,737	77,665	-0,065	-0,050
-349,723	26,459	-0,085	0,052
-348,708	793,672	-0,050	-0,100
-347,693	-200,000	-0,011	0,038
-346,679	-145,772	-0,056	-0,004
-345,664	203,678	-0,084	0,095
-344,650	800,000	-0,062	0,135
-343,635	-78,006	0,099	0,025
-342,620	-89,098	0,068	0,014
-341,606	235,363	-0,079	-0,095
-340,591	-175,413	0,088	-0,002
-339,577	-158,225	-0,047	-0,002
-338,562	-200,000	-0,004	0,120
-337,548	800,000	0,011	-0,033
-336,533	-200,000	0,017	-0,061
-335,518	-33,500	0,281	-0,112
-334,504	800,000	0,044	0,112
-333,489	107,257	-0,050	-0,044
-332,475	133,973	0,046	-0,043
-331,460	800,000	-0,018	0,036
-330,445	-80,662	-0,047	0,011
-329,431	93,056	0,138	0,113
-328,416	-84,717	-0,122	-0,028
-327,402	800,000	0,070	-0,154
-326,387	-21,601	-0,165	-0,072
-325,372	162,472	-0,057	-0,059
-324,358	301,090	-0,050	-0,067
-323,343	-200,000	-0,007	-0,062
-322,329	25,754	0,134	0,081
-321,314	-109,579	-0,140	-0,021
-320,299	800,000	0,038	0,077
-319,285	-200,000	-0,022	-0,091
-318,270	-200,000	-0,025	-0,106
-317,256	-200,000	-0,000	-0,098
-316,241	-200,000	0,005	0,059
-315,226	-200,000	-0,001	0,011
-314,212	150,386	0,054	0,053
-313,197	-175,591	0,005	0,000
-312,183	428,395	-0,061	-0,096
-311,168	800,000	0,042	-0,109
-310,153	800,000	0,024	-0,069
-309,139	447,521	0,028	-0,044
-308,124	9,756	0,043	0,024
-307,110	530,238	0,044	0,076
-306,095	75,329	-0,057	-0,044
-305,080	800,000	-0,088	-0,235
-304,066	-94,450	-0,043	0,008
-303,051	800,000	-0,067	-0,190
-302,037	194,375	-0,027	-0,030
-301,022	56,060	0,056	-0,039
-300,008	-130,044	0,114	0,011
-298,993	104,362	0,066	0,056
-297,978	-200,000	-0,009	-0,071
-296,964	73,054	-0,103	0,078
-295,949	88,078	-0,064	-0,051
-294,935	-110,381	0,046	0,007
-293,920	1,834	0,040	-0,021
-292,905	-74,205	0,153	0,040
-291,891	-18,701	-0,227	0,102
-290,876	441,335	0,092	0,146
-289,862	800,000	0,013	-0,034
-288,847	72,017	-0,098	-0,074
-287,832	-58,257	-0,080	0,025
-286,818	239,162	-0,080	0,096
-285,803	-88,245	0,023	-0,005
-284,789	51,985	0,206	0,142
-283,774	-200,000	0,020	0,192
-282,759	174,402	-0,030	0,032
-281,745	-141,735	0,181	0,013
-280,730	-200,000	-0,003	0,029
-279,716	134,591	0,055	-0,052
-278,701	-74,642	0,093	0,024
-277,686	87,913	-0,130	-0,104
-276,672	-200,000	-0,024	0,076
-275,657	333,291	0,054	0,076
-274,643	-200,000	-0,007	-0,056
-273,628	-200,000	0,029	-0,163
-272,613	-200,000	0,020	-0,145
-271,599	-145,246	0,184	0,012
-270,584	-200,000	-0,009	0,039
-269,570	456,287	-0,037	0,059
-268,555	114,586	0,021	0,018
-267,540	-200,000	-0,003	-0,151
-266,526	122,936	-0,037	-0,034
-265,511	42,202	-0,059	0,038
-264,497	800,000	-0,053	-0,131
-263,482	800,000	0,036	-0,095
-262,467	-200,000	0,015	-0,109
-261,453	-48,976	0,105	-0,036
-260,438	-35,238	-0,145	-0,057
-259,424	4,337	-0,120	0,063
-258,409	6,213	-0,128	-0,068
-257,395	800,000	0,027	0,081
-256,380	656,155	-0,074	0,138
-255,365	-200,000	-0,016	-0,088
-254,351	4,002	-0,047	-0,025
-253,336	205,907	-0,023	-0,026
-252,322	8,726	-0,059	-0,032
-251,307	345,099	0,032	-0,045
-250,292	-121,687	-0,023	0,003
-249,278	-200,000	-0,001	0,068
-248,263	72,028	0,044	-0,033
-247,249	800,000	-0,012	-0,035
-246,234	-88,010	0,174	-0,037
-245,219	479,683	-0,085	-0,140
-244,205	-200,000	0,008	0,069
-243,190	16,454	0,080	0,045
-242,176	643,092	-0,045	0,083
-241,161	304,248	-0,048	-0,064
-240,146	-200,000	-0,004	0,063
-239,132	-200,000	0,024	0,124
-238,117	-200,000	-0,008	0,098
-237,103	-65,550	0,119	0,034
-236,088	-76,865	0,106	-0,027
-235,073	109,921	0,047	0,041
-234,059	367,068	-0,051	-0,075
-233,044	-200,000	-0,001	0,064
-232,030	311,166	-0,057	0,077
-231,015	-200,000	-0,012	-0,066
-230,000	-170,796	-0,190	0,005
-228,986	-60,512	-0,054	0,016
-227,971	800,000	-0,022	0,062
-226,957	132,621	0,060	0,056
-225,942	800,000	-0,016	0,037
-224,927	-200,000	-0,023	-0,073
-223,913	800,000	-0,027	-0,068
-222,898	98,051	0,027	-0,023
-221,884	-200,000	-0,002	0,070
-220,869	64,928	0,042	-0,030
-219,855	215,398	0,071	0,082
-218,840	315,370	0,121	0,165
-217,825	-200,000	0,006	0,030
-216,811	-178,016	0,064	-0,001
-215,796	130,692	0,069	0,064
-214,782	-200,000	-0,050	-0,220
-213,767	-200,000	0,010	0,037
-212,752	-80,501	-0,020	0,005
-211,738	208,962	0,056	0,063
-210,723	310,432	0,016	-0,022
-209,709	-33,207	-0,097	-0,038
-208,694	205,548	-0,054	0,061
-207,679	800,000	0,004	0,013
-206,665	-200,000	0,009	0,069
-205,650	-200,000	0,020	-0,152
-204,636	204,508	0,026	0,029
-203,621	105,581	-0,067	0,057
-202,606	-118,641	0,046	0,006
-201,592	-1,330	-0,023	0,012
-200,577	800,000	0,064	-0,141
-199,563	82,363	0,081	-0,063
-198,548	28,291	0,018	0,011
-197,533	461,422	-0,032	-0,052
-196,519	-200,000	-0,019	-0,080
-195,504	-200,000	0,008	-0,112
-194,490	64,541	-0,033	-0,024
-193,475	-35,572	-0,034	-0,013
-192,460	-200,000	-0,007	-0,089
-191,446	800,000	0,030	0,066
-190,431	-2,663	0,094	0,048
-189,417	599,664	-0,063	0,113
-188,402	226,505	0,077	-0,090
-187,387	135,494	0,097	0,091
-186,373	-200,000	-0,013	-0,049
-185,358	-200,000	-0,010	-0,045
-184,344	-200,000	-0,002	-0,059
-183,329	-194,233	-0,097	-0,001
-182,315	800,000	-0,013	0,042
-181,300	-127,426	-0,055	0,006
-180,285	-200,000	0,012	-0,057
-179,271	148,889	-0,091	-0,089
-178,256	-200,000	0,009	0,039
-177,242	-29,467	0,094	-0,039
-176,227	-200,000	0,010	0,142
-175,212	-200,000	-0,030	0,119
-174,198	175,370	-0,057	-0,059
-173,183	-200,000	-0,023	-0,073
-172,169	-200,000	-0,004	-0,044
-171,154	-39,939	-0,046	-0,017
-170,139	654,747	0,004	-0,007
-169,125	800,000	-0,010	-0,027
-168,110	-78,603	0,015	-0,004
-167,096	800,000	-0,053	-0,137
-166,081	51,296	0,141	-0,096
-165,066	-168,845	-0,126	-0,003
-164,052	-112,909	0,144	-0,020
-163,037	206,553	-0,082	-0,093
-162,023	14,828	0,119	0,067
-161,008	309,906	0,011	0,015
-159,993	495,988	0,082	0,136
-158,979	28,535	-0,027	0,017
-157,964	-200,000	0,006	0,033
-156,950	-69,145	-0,082	0,023
-155,935	-40,344	0,069	-0,026
-154,920	-70,790	0,190	0,051
-153,906	-200,000	0,002	0,010
-152,891	-200,000	-0,004	-0,082
-151,877	-157,747	0,077	0,003
-150,862	-45,378	-0,189	0,067
-149,847	-33,764	0,100	-0,040
-148,833	-10,105	0,023	0,011
-147,818	-78,706	-0,019	0,005
-146,804	800,000	-0,021	-0,065
-145,789	135,055	0,113	0,106
-144,775	-20,877	-0,082	0,036
-143,760	-49,374	-0,077	-0,026
-142,745	800,000	0,033	-0,091
-141,731	496,885	0,058	-0,097
-140,716	249,257	-0,022	0,027
-139,702	-200,000	-0,002	-0,062
-138,687	224,687	-0,068	0,079
-137,672	19,245	0,100	-0,058
-136,658	800,000	-0,036	0,108
-135,643	-48,297	0,034	-0,012
-134,629	710,379	-0,045	0,086
-133,614	1,483	-0,048	0,025
-132,599	-62,164	0,199	0,059
-131,585	6,165	0,160	0,085
-130,570	-193,490	-0,177	0,001
-129,556	-200,000	-0,026	-0,136
-128,541	317,712	-0,039	0,054
-127,526	23,819	-0,088	-0,052
-126,512	188,808	-0,068	0,073
-125,497	-48,022	0,031	0,011
-124,483	-97,946	0,112	-0,021
-123,468	-95,290	0,110	0,021
-122,453	800,000	-0,014	0,037
-121,439	35,473	0,033	0,021
-120,424	800,000	-0,016	-0,040
