DTS Sentinel unit serial number:	SN410029Multiplexer serial number:	ORYXHardware model number:	OX2-SRSoftware version number:	ORYX F/W v4,00 Oryx Data Collector v3.7.2.0data status	okinstallation	B5 Nyhavnadifferential loss correction	single-endedforward channel	channel 2reverse channel	N/Adate	2023/12/13time	18:17:13forward acquisition time	300,00reverse acquisition time	0,00gamma	499,1914k internal	0,3159k external	0,3159temperature offset calibration	1,0000default loss term (dB/km)	0,3820temperature slope calibration	1,0000multiplexer offset coefficient	1,0000multiplexer slope coefficient	1,0000fibre end	0,00T internal ref (°C)	12,92T ext. ref 1 (°C)	-4,32T ext. ref 2 (°C)	-4,40length (m)	temperature (°C)	Stokes	anti-Stokes-744,400	800,000	0,047	0,104
-743,385	-99,008	-0,429	0,079
-742,371	-97,331	0,154	0,029
-741,356	13,727	-0,204	0,116
-740,342	-117,803	0,153	-0,020
-739,327	-126,523	-0,226	-0,024
-738,312	353,306	0,018	0,026
-737,298	-168,086	-0,329	0,009
-736,283	206,041	0,078	0,090
-735,269	-42,966	-0,220	-0,082
-734,254	549,781	0,061	0,108
-733,239	-36,815	-0,452	-0,178
-732,225	-57,526	0,176	0,057
-731,210	-96,041	-0,156	0,030
-730,196	339,108	-0,077	-0,111
-729,181	71,346	-0,126	-0,096
-728,167	377,096	0,024	0,036
-727,152	-44,814	-0,132	0,048
-726,137	192,728	0,054	0,061
-725,123	-200,000	0,040	-0,171
-724,108	82,216	-0,077	-0,062
-723,094	800,000	0,021	-0,060
-722,079	102,867	-0,121	-0,104
-721,064	-110,144	0,137	0,021
-720,050	-160,645	0,070	0,003
-719,035	65,552	-0,014	0,011
-718,021	459,836	-0,034	0,056
-717,006	-200,000	-0,006	-0,064
-715,991	-99,552	-0,158	-0,029
-714,977	-200,000	0,015	-0,143
-713,962	-61,978	0,006	0,002
-712,948	108,546	0,109	0,095
-711,933	-200,000	0,016	-0,116
-710,918	-200,000	-0,031	0,113
-709,904	670,809	-0,037	0,072
-708,889	-100,390	-0,111	-0,020
-707,875	583,585	-0,044	-0,080
-706,860	356,192	0,037	0,054
-705,845	-82,339	-0,164	-0,039
-704,831	-5,210	-0,093	-0,047
-703,816	-200,000	-0,002	0,095
-702,802	-200,000	-0,004	-0,105
-701,787	-200,000	-0,037	-0,191
-700,772	-200,000	-0,002	-0,081
-699,758	-151,668	0,014	0,001
-698,743	800,000	0,031	0,088
-697,729	107,411	-0,138	0,121
-696,714	42,402	-0,062	0,042
-695,699	800,000	0,008	0,022
-694,685	-95,338	-0,046	0,009
-693,670	800,000	-0,055	-0,150
-692,656	75,393	-0,148	-0,115
-691,641	677,030	0,083	-0,159
-690,627	-200,000	-0,024	0,119
-689,612	-109,148	-0,054	0,008
-688,597	-200,000	-0,000	-0,023
-687,583	-190,042	0,108	0,001
-686,568	73,493	0,052	-0,040
-685,554	800,000	-0,040	0,116
-684,539	-200,000	-0,002	0,058
-683,524	-29,568	0,099	-0,042
-682,510	447,691	-0,027	-0,044
-681,495	-36,401	-0,064	0,025
-680,481	-200,000	-0,007	-0,103
-679,466	-40,368	-0,044	-0,017
-678,451	20,862	0,073	-0,044
-677,437	184,186	-0,123	0,134
-676,422	210,172	0,064	-0,074
-675,408	-200,000	-0,008	0,141
-674,393	216,796	-0,093	0,109
-673,378	75,147	-0,131	-0,101
-672,364	158,336	-0,042	-0,043
-671,349	-200,000	0,009	-0,086
-670,335	-200,000	-0,018	-0,107
-669,320	-200,000	-0,006	-0,040
-668,305	119,730	0,087	0,079
-667,291	77,200	-0,027	-0,021
-666,276	-200,000	-0,018	-0,062
-665,262	-115,051	-0,118	-0,016
-664,247	800,000	0,033	0,067
-663,232	-116,415	-0,147	-0,020
-662,218	194,778	-0,054	-0,060
-661,203	11,864	-0,018	0,010
-660,189	-37,360	-0,068	-0,027
-659,174	160,355	-0,110	0,113
-658,159	-143,086	0,058	0,004
-657,145	-81,293	0,002	-0,001
-656,130	441,515	-0,046	-0,074
-655,116	2,306	0,026	0,014
-654,101	-200,000	0,011	0,061
-653,086	-200,000	-0,004	0,033
-652,072	736,814	-0,036	-0,071
-651,057	135,313	-0,010	-0,010
-650,043	-117,489	-0,068	-0,009
-649,028	182,074	-0,124	-0,134
-648,014	-12,469	0,054	0,026
-646,999	304,041	0,024	-0,033
-645,984	38,040	0,038	-0,025
-644,970	123,872	0,018	-0,016
-643,955	170,658	-0,066	-0,069
-642,941	321,140	0,069	0,097
-641,926	-90,670	-0,160	0,034
-640,911	-76,311	0,095	-0,024
-639,897	-125,018	0,159	-0,018
-638,882	490,085	-0,059	0,099
-637,868	-200,000	-0,016	-0,125
-636,853	3,809	-0,030	0,016
-635,838	-200,000	-0,001	-0,045
-634,824	-200,000	-0,009	0,082
-633,809	-200,000	0,000	-0,033
-632,795	206,828	0,011	0,013
-631,780	-200,000	-0,011	0,078
-630,765	43,850	-0,109	-0,073
-629,751	-101,838	-0,079	-0,014
-628,736	-24,509	0,052	-0,023
-627,722	672,889	-0,028	-0,054
-626,707	-81,540	0,073	-0,017
-625,692	-89,331	-0,154	0,033
-624,678	285,466	0,117	0,155
-623,663	160,895	-0,081	-0,083
-622,649	-200,000	0,022	-0,085
-621,634	-200,000	0,035	-0,204
-620,619	-67,041	-0,096	-0,028
-619,605	-200,000	-0,034	0,130
-618,590	-149,018	-0,112	-0,006
-617,576	800,000	0,059	0,177
-616,561	21,742	-0,024	0,014
-615,546	-200,000	-0,015	-0,116
-614,532	-200,000	-0,014	-0,119
-613,517	-200,000	-0,008	0,038
-612,503	138,899	-0,058	-0,056
-611,488	245,789	0,077	0,096
-610,474	163,647	0,011	-0,011
-609,459	800,000	0,037	0,086
-608,444	-130,485	-0,147	-0,014
-607,430	430,250	-0,099	-0,157
-606,415	76,137	-0,017	0,013
-605,401	800,000	-0,047	-0,140
-604,386	-200,000	0,004	0,149
-603,371	-164,303	0,086	-0,003
-602,357	-75,937	0,038	0,010
-601,342	-200,000	0,013	-0,098
-600,328	307,103	-0,052	0,071
-599,313	-141,001	0,071	0,005
-598,298	347,015	-0,075	-0,108
-597,284	412,751	0,076	-0,118
-596,269	154,703	0,049	0,050
-595,255	-200,000	-0,013	0,061
-594,240	41,778	0,118	-0,078
-593,225	-64,069	-0,128	0,038
-592,211	-103,596	0,052	0,009
-591,196	800,000	-0,042	0,106
-590,182	-55,426	0,047	-0,015
-589,167	-75,858	-0,042	-0,011
-588,152	-6,810	0,097	0,048
-587,138	24,093	0,076	0,046
-586,123	576,584	-0,087	-0,155
-585,109	-61,373	-0,101	0,031
-584,094	-200,000	0,001	-0,074
-583,079	-0,087	-0,083	-0,043
-582,065	-52,537	0,060	-0,020
-581,050	383,322	0,059	-0,089
-580,036	-29,553	-0,096	-0,040
-579,021	800,000	-0,023	0,056
-578,006	39,122	0,130	0,085
-576,992	-113,301	-0,076	-0,011
-575,977	63,349	0,087	-0,064
-574,963	-38,261	-0,141	-0,054
-573,948	313,494	0,071	-0,098
-572,934	-98,711	0,137	-0,025
-571,919	-200,000	-0,044	-0,151
-570,904	-200,000	-0,011	-0,062
-569,890	-6,260	-0,059	-0,030
-568,875	800,000	-0,043	0,092
-567,861	509,724	0,121	0,207
-566,846	-105,679	0,049	-0,008
-565,831	322,198	-0,086	0,121
-564,817	-78,810	-0,071	0,018
-563,802	10,491	-0,120	-0,067
-562,788	-51,117	-0,141	-0,048
-561,773	201,642	-0,110	-0,124
-560,758	-24,116	0,058	0,025
-559,744	-47,062	0,048	-0,017
-558,729	-200,000	-0,006	0,080
-557,715	379,307	-0,021	0,032
-556,700	800,000	0,049	-0,127
-555,685	80,659	0,051	-0,040
-554,671	-89,863	0,022	0,005
-553,656	800,000	-0,038	0,116
-552,642	-52,038	-0,129	0,044
-551,627	-200,000	0,003	0,024
-550,612	50,651	0,120	-0,083
-549,598	-126,786	0,025	0,003
-548,583	227,668	-0,085	-0,101
-547,569	-112,331	0,057	0,008
-546,554	327,488	0,075	0,106
-545,539	-200,000	-0,007	-0,111
-544,525	-118,869	0,096	-0,012
-543,510	800,000	0,051	0,131
-542,496	284,541	-0,071	-0,094
-541,481	59,617	-0,048	-0,035
-540,466	8,970	0,152	0,083
-539,452	800,000	0,033	0,093
-538,437	-107,797	0,119	-0,019
-537,423	-200,000	0,007	0,043
-536,408	-200,000	0,011	-0,071
-535,393	-141,317	-0,075	0,006
-534,379	207,467	-0,040	-0,046
-533,364	800,000	-0,017	-0,044
-532,350	-200,000	-0,003	-0,044
-531,335	800,000	0,074	0,158
-530,321	-34,206	0,060	0,024
-529,306	-200,000	-0,003	0,052
-528,291	-200,000	0,010	-0,128
-527,277	-200,000	0,012	-0,084
-526,262	492,938	0,053	0,089
-525,248	114,351	-0,014	0,012
-524,233	97,235	0,143	0,120
-523,218	-91,718	0,144	0,030
-522,204	263,839	0,015	0,019
-521,189	689,748	-0,077	-0,148
-520,175	34,106	-0,097	-0,062
-519,160	-200,000	0,004	0,058
-518,145	12,991	0,088	0,050
-517,131	302,964	-0,062	0,084
-516,116	52,122	-0,047	-0,033
-515,102	-200,000	0,020	0,077
-514,087	-200,000	-0,001	-0,065
-513,072	800,000	-0,039	0,090
-512,058	138,955	0,134	-0,129
-511,043	356,011	0,067	-0,098
-510,029	-147,735	-0,040	-0,002
-509,014	64,528	0,087	0,064
-507,999	540,562	-0,068	-0,119
-506,985	800,000	0,026	0,069
-505,970	-132,227	-0,132	-0,012
-504,956	-41,791	0,067	0,025
-503,941	-151,609	0,052	0,003
-502,926	-91,456	0,041	0,008
-501,912	-8,030	0,069	-0,034
-500,897	-74,295	0,094	0,025
-499,883	800,000	-0,040	-0,081
-498,868	-200,000	0,001	-0,007
-497,853	-136,923	-0,176	0,015
-496,839	-22,981	-0,073	-0,032
-495,824	12,382	0,040	-0,022
-494,810	162,101	0,075	0,077
-493,795	-133,739	-0,017	0,001
-492,781	800,000	-0,015	0,044
-491,766	-21,676	-0,097	-0,043
-490,751	-17,922	-0,150	-0,068
-489,737	-200,000	0,026	0,103
-488,722	-115,535	0,181	-0,025
-487,708	800,000	-0,014	0,030
-486,693	-200,000	-0,025	-0,107
-485,678	800,000	-0,026	0,060
-484,664	760,320	-0,013	0,026
-483,649	-200,000	0,069	-0,268
-482,635	69,076	0,081	-0,061
-481,620	-200,000	0,008	0,060
-480,605	-200,000	-0,006	0,106
-479,591	75,225	0,069	0,053
-478,576	800,000	-0,052	-0,119
-477,562	38,192	0,063	-0,041
-476,547	-31,440	-0,127	-0,052
-475,532	165,038	-0,053	-0,054
-474,518	-200,000	0,006	-0,099
-473,503	-200,000	0,051	0,235
-472,489	-5,804	-0,094	0,047
-471,474	800,000	-0,027	0,068
-470,459	279,274	-0,051	-0,066
-469,445	-78,033	0,093	0,023
-468,430	415,184	0,073	0,113
-467,416	-8,325	-0,056	0,028
-466,401	-159,863	-0,146	-0,006
-465,386	800,000	0,042	0,117
-464,372	-12,769	0,150	-0,071
-463,357	-200,000	-0,017	0,175
-462,343	502,922	-0,088	-0,149
-461,328	-34,218	-0,031	-0,012
-460,313	284,275	-0,098	-0,129
-459,299	-54,270	0,057	-0,019
-458,284	-90,525	-0,039	-0,008
-457,270	-200,000	0,060	-0,199
-456,255	-29,651	0,106	-0,044
-455,241	-200,000	-0,021	0,072
-454,226	50,374	-0,018	-0,012
-453,211	82,917	-0,035	0,028
-452,197	800,000	0,050	0,112
-451,182	-81,643	0,144	0,034
-450,168	-200,000	-0,008	0,111
-449,153	-141,228	0,091	0,007
-448,138	-200,000	-0,030	-0,102
-447,124	324,861	0,066	0,092
-446,109	71,940	0,124	0,094
-445,095	-63,808	0,008	-0,002
-444,080	800,000	-0,042	-0,112
-443,065	-76,782	0,108	-0,027
-442,051	251,202	-0,092	0,114
-441,036	-200,000	0,004	-0,046
-440,022	-110,669	-0,081	0,012
-439,007	540,849	-0,025	-0,044
-437,992	-200,000	0,000	-0,109
-436,978	32,100	0,111	-0,069
-435,963	-141,181	-0,050	-0,004
-434,949	-200,000	0,028	0,126
-433,934	-200,000	-0,002	-0,042
-432,919	-59,926	0,049	-0,015
-431,905	800,000	0,023	0,071
-430,890	-200,000	-0,021	0,105
-429,876	176,290	0,019	0,020
-428,861	249,821	0,058	0,072
-427,846	-200,000	0,016	-0,061
-426,832	2,357	0,006	0,003
-425,817	-6,461	0,045	0,022
-424,803	49,265	0,108	-0,073
-423,788	560,552	-0,053	-0,094
-422,773	800,000	0,042	0,113
-421,759	-78,796	-0,023	0,006
-420,744	474,415	0,066	-0,109
-419,730	-200,000	0,001	-0,092
-418,715	-25,008	-0,051	-0,022
-417,701	800,000	-0,023	-0,055
-416,686	562,724	-0,102	-0,181
-415,671	-181,961	-0,016	0,000
-414,657	19,744	0,102	0,059
-413,642	-200,000	-0,007	0,082
-412,628	35,911	0,059	-0,037
-411,613	257,408	-0,034	-0,043
-410,598	105,980	-0,068	-0,058
-409,584	25,949	0,076	0,046
-408,569	-140,697	-0,090	0,007
-407,555	800,000	-0,025	-0,066
-406,540	456,557	-0,027	0,044
-405,525	-200,000	-0,017	-0,125
-404,511	-120,634	-0,094	0,011
-403,496	-178,010	0,083	0,001
-402,482	7,893	-0,114	-0,062
-401,467	-60,907	0,092	0,028
-400,452	800,000	0,073	0,164
-399,438	29,582	-0,039	-0,024
-398,423	-200,000	-0,004	0,120
-397,409	-19,065	0,035	0,016
-396,394	82,146	0,103	-0,081
-395,379	-29,963	-0,069	0,028
-394,365	106,580	0,143	0,123
-393,350	192,973	-0,004	0,004
-392,336	-162,920	-0,085	-0,003
-391,321	-36,082	-0,153	-0,060
-390,306	800,000	-0,048	-0,099
-389,292	123,848	-0,076	-0,069
-388,277	134,632	-0,122	-0,115
-387,263	208,946	0,072	-0,082
-386,248	92,443	0,083	0,068
-385,233	-200,000	-0,022	0,222
-384,219	496,319	-0,045	0,075
-383,204	-200,000	-0,003	-0,017
-382,190	-132,927	-0,123	0,011
-381,175	-73,740	0,055	-0,014
-380,160	101,914	0,086	-0,073
-379,146	6,012	-0,023	-0,012
-378,131	522,584	-0,108	0,185
-377,117	-200,000	0,004	-0,039
-376,102	-64,613	-0,177	0,052
-375,088	-200,000	0,002	-0,050
-374,073	-200,000	0,015	-0,047
-373,058	-104,775	0,134	0,022
-372,044	32,069	-0,035	0,022
-371,029	800,000	0,023	0,062
-370,015	-200,000	0,011	0,036
-369,000	800,000	0,034	-0,075
-367,985	-9,454	-0,053	0,026
-366,971	52,894	0,101	-0,070
-365,956	-53,767	0,050	0,016
-364,942	296,254	0,060	0,079
-363,927	95,514	-0,076	0,063
-362,912	-200,000	-0,018	0,096
-361,898	-130,517	-0,060	0,006
-360,883	139,800	-0,046	-0,044
-359,869	-200,000	0,001	-0,040
-358,854	-127,975	0,096	-0,010
-357,839	274,007	0,094	0,122
-356,825	-200,000	-0,034	-0,111
-355,810	-115,782	-0,110	-0,015
-354,796	-200,000	0,035	0,119
-353,781	-200,000	-0,001	-0,114
-352,766	305,785	-0,027	-0,037
-351,752	471,780	-0,053	-0,086
-350,737	-200,000	0,005	-0,047
-349,723	-11,529	0,066	-0,031
-348,708	-17,129	-0,035	0,016
-347,693	760,624	-0,009	0,017
-346,679	203,837	-0,114	-0,128
-345,664	162,091	-0,031	-0,031
-344,650	-200,000	0,013	0,070
-343,635	382,458	0,060	-0,090
-342,620	-196,510	-0,068	-0,000
-341,606	243,963	0,039	0,047
-340,591	-200,000	-0,006	0,110
-339,577	-200,000	-0,047	-0,169
-338,562	98,164	0,078	0,065
-337,548	-151,315	-0,051	-0,003
-336,533	-200,000	-0,031	-0,154
-335,518	-200,000	0,005	-0,124
-334,504	-14,083	0,071	0,033
-333,489	-200,000	-0,004	0,021
-332,475	-66,295	-0,138	-0,040
-331,460	140,022	0,036	-0,034
-330,445	-32,210	0,032	0,013
-329,431	-200,000	-0,004	-0,089
-328,416	95,943	0,142	0,117
-327,402	420,183	0,079	0,124
-326,387	-96,718	-0,119	-0,022
-325,372	-57,743	-0,178	0,056
-324,358	240,009	0,045	-0,054
-323,343	118,159	0,013	0,012
-322,329	248,052	0,081	-0,100
-321,314	451,651	0,043	0,068
-320,299	667,157	0,050	0,094
-319,285	139,159	-0,113	0,108
-318,270	-80,802	-0,051	0,012
-317,256	68,673	0,061	-0,045
-316,241	332,079	-0,007	-0,009
-315,226	-19,073	0,092	-0,041
-314,212	-200,000	-0,001	0,087
-313,197	-200,000	-0,002	0,073
-312,183	-11,791	-0,085	-0,040
-311,168	199,407	-0,084	0,093
-310,153	800,000	0,015	-0,043
-309,139	800,000	0,055	-0,127
-308,124	313,145	-0,083	-0,114
-307,110	-27,405	0,182	0,076
-306,095	800,000	-0,030	0,073
-305,080	18,185	0,064	-0,037
-304,066	-59,891	-0,067	0,021
-303,051	-132,245	-0,178	-0,016
-302,037	14,962	0,112	0,064
-301,022	-200,000	-0,135	-0,000
-300,008	800,000	-0,061	-0,124
-298,993	645,709	0,041	0,077
-297,978	30,040	-0,077	0,048
-296,964	157,385	-0,132	0,132
-295,949	377,630	-0,052	0,078
-294,935	800,000	0,041	-0,105
-293,920	-74,882	-0,054	-0,014
-292,905	800,000	0,035	0,110
-291,891	-200,000	-0,001	0,080
-290,876	-200,000	-0,022	0,128
-289,862	43,004	-0,059	0,039
-288,847	7,201	0,047	-0,025
-287,832	-14,907	0,035	0,016
-286,818	452,816	-0,045	0,073
-285,803	-49,263	0,135	-0,047
-284,789	800,000	0,024	-0,055
-283,774	-84,789	-0,111	0,025
-282,759	-8,760	0,103	-0,050
-281,745	178,748	-0,053	0,056
-280,730	-200,000	-0,018	-0,092
-279,716	19,562	0,063	0,037
-278,701	234,594	-0,065	0,078
-277,686	-200,000	0,028	0,110
-276,672	-200,000	-0,005	0,152
-275,657	1,008	-0,053	0,027
-274,643	742,532	0,029	-0,056
-273,628	-200,000	0,023	0,106
-272,613	-200,000	0,019	0,116
-271,599	-200,000	0,017	-0,065
-270,584	-200,000	-0,012	0,051
-269,570	-200,000	-0,015	0,061
-268,555	-160,652	-0,034	0,001
-267,540	-200,000	-0,011	-0,071
-266,526	569,252	0,062	-0,110
-265,511	-200,000	-0,011	-0,047
-264,497	800,000	0,026	0,076
-263,482	78,110	0,104	0,081
-262,467	516,130	-0,085	0,143
-261,453	800,000	-0,047	-0,110
-260,438	800,000	0,014	0,028
-259,424	184,215	0,061	-0,065
-258,409	-71,794	-0,041	0,011
-257,395	77,869	-0,073	-0,056
-256,380	159,453	0,049	0,049
-255,365	-128,073	0,017	0,002
-254,351	-117,934	0,081	-0,010
-253,336	800,000	-0,079	-0,160
-252,322	-200,000	-0,003	0,053
-251,307	120,369	0,043	-0,039
-250,292	-200,000	0,012	-0,052
-249,278	800,000	0,033	0,097
-248,263	-64,180	-0,170	0,050
-247,249	698,547	-0,030	0,058
-246,234	800,000	-0,024	-0,050
-245,219	-200,000	-0,016	0,062
-244,205	-114,098	-0,149	0,021
-243,190	568,148	-0,036	-0,063
-242,176	47,735	0,167	0,112
-241,161	383,456	0,026	0,039
-240,146	-86,518	0,083	-0,018
-239,132	-140,074	-0,037	0,003
-238,117	583,803	0,039	-0,069
-237,103	64,111	-0,091	-0,066
-236,088	-200,000	-0,008	-0,066
-235,073	-200,000	-0,023	-0,105
-234,059	800,000	0,022	-0,054
-233,044	800,000	-0,076	0,204
-232,030	103,364	0,092	0,078
-231,015	-42,926	0,058	0,021
-230,000	-57,700	-0,138	0,043
-228,986	22,365	-0,182	0,107
-227,971	-58,878	0,063	0,020
-226,957	-127,236	0,157	-0,016
-225,942	-200,000	-0,018	0,092
-224,927	203,350	0,047	0,052
-223,913	-134,877	-0,124	0,011
-222,898	523,259	-0,068	0,116
-221,884	-103,054	0,208	-0,035
-220,869	104,411	-0,073	-0,062
-219,855	80,602	0,057	0,044
-218,840	-61,578	0,135	0,041
-217,825	18,688	0,149	-0,086
-216,811	-62,221	-0,063	-0,019
-215,796	77,129	-0,074	-0,057
-214,782	630,025	0,050	-0,091
-213,767	-123,913	-0,043	0,005
-212,752	198,121	0,111	0,123
-211,738	-99,145	-0,105	-0,019
-210,723	-167,621	-0,150	-0,004
-209,709	800,000	0,009	-0,024
-208,694	558,403	-0,071	0,124
-207,679	794,579	0,062	-0,123
-206,665	18,833	0,066	0,038
-205,650	-121,803	0,085	-0,010
-204,636	205,740	-0,052	0,059
-203,621	800,000	-0,031	-0,091
-202,606	141,174	0,069	-0,066
-201,592	-132,501	-0,030	0,003
-200,577	38,443	-0,066	0,042
-199,563	-200,000	-0,002	0,026
-198,548	-200,000	0,005	-0,120
-197,533	800,000	-0,076	0,165
-196,519	-200,000	-0,014	0,093
-195,504	-200,000	-0,017	-0,167
-194,490	574,191	0,060	0,106
-193,475	-112,457	-0,184	0,026
-192,460	476,094	0,059	0,097
-191,446	800,000	0,038	0,098
-190,431	43,294	-0,049	0,032
-189,417	800,000	-0,004	0,010
-188,402	22,497	0,088	-0,051
-187,387	-200,000	-0,019	-0,102
-186,373	-200,000	-0,007	-0,103
-185,358	326,705	0,031	-0,043
-184,344	-200,000	-0,024	0,088
-183,329	746,849	0,037	0,072
-182,315	800,000	0,011	-0,028
-181,300	-87,759	0,062	0,013
-180,285	-109,975	-0,061	-0,009
-179,271	-183,810	-0,052	0,001
-178,256	266,887	0,043	-0,055
-177,242	800,000	0,025	0,053
-176,227	-127,278	0,049	0,005
-175,212	-97,211	0,143	0,027
-174,198	-133,310	0,136	-0,012
-173,183	-132,722	-0,068	-0,006
-172,169	-200,000	0,008	0,033
-171,154	-200,000	0,029	-0,140
-170,139	-200,000	-0,005	0,082
-169,125	-200,000	-0,013	-0,067
-168,110	136,883	-0,043	-0,041
-167,096	66,975	-0,064	0,047
-166,081	417,228	0,058	-0,090
-165,066	-200,000	0,004	-0,119
-164,052	-58,996	0,113	-0,035
-163,037	-32,259	0,071	0,028
-162,023	48,457	0,071	0,048
-161,008	709,935	0,114	0,218
-159,993	-9,590	0,075	-0,036
-158,979	-200,000	0,008	-0,085
-157,964	107,495	-0,041	-0,035
-156,950	-156,768	-0,221	-0,010
-155,935	-146,976	0,163	0,010
-154,920	3,608	0,102	0,054
-153,906	-117,263	-0,185	0,024
-152,891	601,882	-0,049	-0,087
-151,877	155,479	0,104	0,103
-150,862	30,882	-0,032	0,020
-149,847	-200,000	0,007	0,048
-148,833	54,414	0,072	0,050
-147,818	-66,517	0,078	-0,022
-146,804	43,941	-0,093	0,062
-145,789	-30,469	-0,107	-0,043
-144,775	-200,000	-0,025	-0,109
-143,760	185,093	-0,028	-0,029
-142,745	-14,736	0,110	-0,050
-141,731	45,753	0,079	0,052
-140,716	-200,000	0,001	0,033
-139,702	-200,000	0,023	-0,145
-138,687	615,534	-0,087	0,158
-137,672	-44,346	-0,171	-0,061
-136,658	-200,000	0,006	-0,159
-135,643	-80,751	0,025	0,006
-134,629	-200,000	-0,012	-0,042
-133,614	-200,000	0,004	0,071
-132,599	-21,685	0,052	0,023
-131,585	-4,008	0,031	0,015
-130,570	102,592	0,056	0,047
-129,556	-94,993	-0,135	0,026
-128,541	800,000	-0,039	-0,079
-127,526	-30,446	0,031	0,013
-126,512	-34,509	-0,155	-0,061
-125,497	539,118	0,039	0,067
-124,483	-48,569	0,081	-0,028
-123,468	128,224	-0,115	0,106
-122,453	800,000	-0,043	-0,121
-121,439	415,026	-0,133	-0,205
-120,424	452,281	0,038	0,061
