DTS Sentinel unit serial number:	SN410029Multiplexer serial number:	ORYXHardware model number:	OX2-SRSoftware version number:	ORYX F/W v4,00 Oryx Data Collector v3.7.2.0data status	okinstallation	B5 Nyhavnadifferential loss correction	single-endedforward channel	channel 2reverse channel	N/Adate	2023/12/13time	15:12:13forward acquisition time	300,00reverse acquisition time	0,00gamma	499,1914k internal	0,3160k external	0,3160temperature offset calibration	1,0000default loss term (dB/km)	0,3820temperature slope calibration	1,0000multiplexer offset coefficient	1,0000multiplexer slope coefficient	1,0000fibre end	0,00T internal ref (°C)	14,99T ext. ref 1 (°C)	-1,34T ext. ref 2 (°C)	-1,63length (m)	temperature (°C)	Stokes	anti-Stokes-744,400	-200,000	0,020	-0,148
-743,385	-148,362	-0,398	0,024
-742,371	-11,528	0,115	0,056
-741,356	47,759	-0,243	0,167
-740,342	134,575	0,205	0,196
-739,327	-62,894	-0,116	0,035
-738,312	187,695	0,037	-0,041
-737,298	105,208	-0,176	-0,153
-736,283	-7,763	0,228	0,113
-735,269	-160,581	-0,253	-0,010
-734,254	84,711	0,060	-0,048
-733,239	10,186	-0,460	-0,257
-732,225	-172,592	0,154	0,003
-731,210	800,000	-0,032	-0,069
-730,196	176,200	-0,041	-0,043
-729,181	153,017	-0,063	-0,064
-728,167	-39,150	0,024	-0,009
-727,152	169,139	-0,037	-0,039
-726,137	800,000	-0,035	-0,073
-725,123	171,938	-0,056	-0,059
-724,108	-200,000	0,008	-0,078
-723,094	-80,576	-0,205	-0,050
-722,079	-200,000	-0,002	0,088
-721,064	162,217	0,032	-0,033
-720,050	-157,217	0,051	-0,002
-719,035	-187,208	-0,017	-0,000
-718,021	67,267	0,058	-0,043
-717,006	-84,643	-0,113	-0,026
-715,991	478,742	0,106	-0,177
-714,977	800,000	0,027	-0,073
-713,962	800,000	0,022	0,051
-712,948	21,189	-0,062	0,037
-711,933	108,565	-0,025	0,022
-710,918	-200,000	0,008	-0,095
-709,904	-200,000	-0,001	0,048
-708,889	-95,648	-0,055	-0,011
-707,875	93,156	0,076	0,063
-706,860	784,057	0,032	0,065
-705,845	-56,489	-0,272	0,088
-704,831	800,000	0,037	0,104
-703,816	-46,945	0,057	0,020
-702,802	-200,000	-0,036	-0,156
-701,787	-200,000	-0,012	-0,044
-700,772	-158,563	-0,126	0,005
-699,758	-7,425	0,095	-0,047
-698,743	-200,000	-0,010	0,098
-697,729	18,831	0,118	0,070
-696,714	-99,444	0,058	0,011
-695,699	5,591	0,025	-0,014
-694,685	-68,742	0,033	-0,009
-693,670	800,000	-0,047	-0,142
-692,656	176,718	0,085	-0,091
-691,641	113,191	0,098	-0,087
-690,627	79,548	0,049	0,038
-689,612	800,000	-0,011	-0,033
-688,597	116,797	0,038	0,034
-687,583	113,285	-0,107	-0,096
-686,568	-200,000	-0,002	-0,142
-685,554	534,178	-0,052	-0,091
-684,539	-200,000	-0,004	0,098
-683,524	9,841	0,063	-0,035
-682,510	-4,254	0,047	0,024
-681,495	-200,000	0,003	-0,021
-680,481	40,564	-0,153	-0,101
-679,466	-200,000	-0,000	-0,109
-678,451	-23,878	0,054	-0,024
-677,437	224,546	0,031	-0,037
-676,422	800,000	-0,046	0,120
-675,408	-200,000	0,002	0,042
-674,393	-77,258	-0,051	-0,013
-673,378	-175,188	-0,111	0,002
-672,364	-200,000	-0,020	0,089
-671,349	163,258	-0,060	-0,062
-670,335	289,250	-0,063	0,084
-669,320	39,713	0,067	0,044
-668,305	216,651	0,054	-0,063
-667,291	66,364	-0,106	-0,079
-666,276	250,684	-0,034	0,042
-665,262	-79,173	0,094	0,023
-664,247	-118,452	-0,089	-0,011
-663,232	-200,000	0,006	0,140
-662,218	-151,732	0,068	-0,004
-661,203	800,000	-0,043	-0,092
-660,189	-29,995	-0,079	0,033
-659,174	800,000	-0,057	-0,125
-658,159	-200,000	-0,026	-0,120
-657,145	-14,113	-0,040	-0,019
-656,130	237,819	-0,084	-0,103
-655,116	142,013	0,105	-0,102
-654,101	800,000	-0,031	-0,090
-653,086	-123,656	0,117	-0,013
-652,072	142,222	-0,070	-0,068
-651,057	36,421	-0,045	-0,029
-650,043	-128,889	-0,007	-0,001
-649,028	800,000	0,006	-0,019
-648,014	-40,458	0,063	0,024
-646,999	539,889	-0,084	-0,147
-645,984	800,000	-0,029	0,074
-644,970	-200,000	-0,033	-0,196
-643,955	800,000	-0,110	-0,227
-642,941	333,908	0,133	-0,190
-641,926	-200,000	-0,008	0,135
-640,911	61,882	0,025	-0,018
-639,897	-200,000	-0,047	0,170
-638,882	-200,000	0,015	0,127
-637,868	-77,468	0,110	0,028
-636,853	37,387	-0,087	-0,056
-635,838	-8,720	0,034	0,017
-634,824	-200,000	0,018	-0,104
-633,809	60,059	0,089	0,065
-632,795	199,293	-0,029	-0,032
-631,780	-57,789	0,051	0,016
-630,765	-200,000	-0,015	0,150
-629,751	-91,751	0,064	-0,013
-628,736	198,042	-0,111	-0,125
-627,722	701,937	0,019	-0,037
-626,707	-34,339	0,127	0,051
-625,692	205,887	-0,061	0,070
-624,678	800,000	-0,036	0,101
-623,663	-7,490	-0,098	-0,049
-622,649	-109,139	-0,164	0,025
-621,634	-90,955	-0,106	-0,022
-620,619	75,316	-0,067	0,052
-619,605	185,438	0,152	-0,166
-618,590	649,695	-0,090	-0,170
-617,576	84,051	0,093	-0,075
-616,561	-157,132	-0,045	0,002
-615,546	268,039	-0,047	-0,060
-614,532	105,710	-0,083	0,072
-613,517	320,267	-0,091	0,126
-612,503	470,371	0,070	0,116
-611,488	-200,000	0,019	0,102
-610,474	-200,000	-0,002	0,043
-609,459	237,071	-0,079	0,096
-608,444	-83,770	0,081	0,019
-607,430	161,745	-0,063	-0,064
-606,415	-96,219	0,122	-0,024
-605,401	768,847	0,046	-0,092
-604,386	-197,953	0,066	-0,000
-603,371	251,449	-0,038	-0,048
-602,357	-103,902	-0,094	0,016
-601,342	-138,939	-0,083	0,007
-600,328	800,000	-0,027	-0,064
-599,313	245,905	-0,133	0,165
-598,298	-51,141	0,064	0,022
-597,284	-69,914	0,149	0,041
-596,269	-200,000	0,008	-0,109
-595,255	-200,000	0,004	-0,149
-594,240	109,171	0,079	0,069
-593,225	-81,311	-0,123	0,030
-592,211	303,091	0,033	-0,045
-591,196	-200,000	-0,026	-0,096
-590,182	800,000	-0,019	-0,051
-589,167	751,538	-0,060	-0,120
-588,152	51,313	0,095	0,066
-587,138	201,109	-0,058	-0,065
-586,123	17,421	-0,032	-0,018
-585,109	79,206	-0,163	0,128
-584,094	89,655	0,047	0,039
-583,079	-77,475	0,089	0,022
-582,065	-7,838	-0,038	0,019
-581,050	47,278	-0,068	-0,046
-580,036	-200,000	-0,024	-0,155
-579,021	350,094	0,065	-0,094
-578,006	-53,751	-0,099	-0,033
-576,992	455,883	0,021	-0,033
-575,977	800,000	-0,023	-0,047
-574,963	469,753	0,033	-0,055
-573,948	-1,484	-0,071	-0,037
-572,934	93,012	0,010	-0,008
-571,919	-200,000	-0,007	-0,075
-570,904	426,044	-0,095	-0,150
-569,890	-2,539	0,095	0,049
-568,875	339,330	-0,074	0,106
-567,861	800,000	-0,023	0,055
-566,846	70,237	0,093	0,070
-565,831	30,789	0,084	0,052
-564,817	-22,297	-0,106	-0,047
-563,802	-200,000	-0,007	0,044
-562,788	-200,000	-0,020	0,180
-561,773	-97,699	0,141	0,026
-560,758	-200,000	0,023	0,102
-559,744	-39,117	-0,045	-0,017
-558,729	-95,393	0,096	-0,019
-557,715	223,367	-0,041	0,048
-556,700	344,014	-0,101	-0,146
-555,685	-200,000	0,010	-0,126
-554,671	77,395	-0,081	0,063
-553,656	800,000	0,017	-0,042
-552,642	-2,864	-0,082	-0,042
-551,627	-200,000	0,018	-0,083
-550,612	-152,565	-0,066	-0,003
-549,598	-200,000	-0,008	-0,051
-548,583	-200,000	0,017	-0,130
-547,569	-200,000	0,002	0,019
-546,554	800,000	0,023	0,068
-545,539	-200,000	-0,031	0,135
-544,525	525,003	0,067	0,116
-543,510	-71,270	-0,160	-0,044
-542,496	166,193	-0,064	-0,067
-541,481	-6,217	-0,140	-0,070
-540,466	-44,312	0,053	0,019
-539,452	215,294	0,029	-0,034
-538,437	-149,765	0,131	0,007
-537,423	23,011	-0,159	-0,095
-536,408	79,754	-0,086	0,067
-535,393	800,000	-0,030	0,082
-534,379	637,469	-0,018	-0,034
-533,364	385,702	0,037	-0,056
-532,350	10,988	0,069	-0,038
-531,335	242,126	0,103	0,126
-530,321	800,000	-0,037	0,075
-529,306	800,000	0,006	-0,016
-528,291	-186,970	-0,049	0,000
-527,277	-200,000	0,007	-0,046
-526,262	-200,000	0,014	-0,184
-525,248	498,807	0,067	-0,113
-524,233	-152,484	0,131	0,007
-523,218	75,934	-0,022	-0,017
-522,204	-200,000	-0,001	-0,034
-521,189	-200,000	-0,005	0,107
-520,175	148,659	-0,142	-0,140
-519,160	7,131	-0,083	0,045
-518,145	-166,218	0,070	-0,002
-517,131	-200,000	-0,000	0,006
-516,116	800,000	0,054	0,136
-515,102	-101,862	-0,093	0,016
-514,087	502,269	-0,004	-0,008
-513,072	-200,000	-0,025	-0,098
-512,058	77,032	-0,040	-0,031
-511,043	-169,037	0,120	-0,003
-510,029	-200,000	0,005	0,060
-509,014	502,946	0,046	-0,078
-507,999	-200,000	-0,005	0,027
-506,985	800,000	0,040	-0,116
-505,970	-33,749	0,148	-0,059
-504,956	-63,445	-0,123	0,037
-503,941	324,349	-0,069	0,097
-502,926	-37,249	0,153	0,059
-501,912	-6,159	0,199	-0,099
-500,897	800,000	0,066	-0,163
-499,883	-200,000	-0,012	0,040
-498,868	-200,000	-0,041	-0,206
-497,853	-162,804	0,122	-0,004
-496,839	-200,000	0,026	-0,096
-495,824	800,000	-0,041	0,092
-494,810	19,653	-0,053	-0,031
-493,795	58,826	-0,114	-0,082
-492,781	432,167	0,016	0,025
-491,766	800,000	0,006	-0,015
-490,751	72,419	0,159	-0,121
-489,737	-60,563	-0,182	-0,056
-488,722	251,404	-0,058	-0,073
-487,708	192,061	0,087	0,096
-486,693	10,270	-0,042	0,023
-485,678	-18,707	0,133	0,060
-484,664	235,587	-0,032	0,039
-483,649	-29,818	0,093	-0,038
-482,635	671,348	0,044	0,083
-481,620	-71,269	0,057	0,016
-480,605	800,000	-0,019	-0,055
-479,591	-200,000	0,015	-0,142
-478,576	111,633	-0,076	0,067
-477,562	23,769	-0,106	0,063
-476,547	-129,319	-0,098	-0,010
-475,532	-200,000	-0,022	-0,088
-474,518	-78,633	0,113	-0,028
-473,503	40,492	-0,021	0,014
-472,489	767,927	0,047	-0,093
-471,474	-200,000	0,023	0,075
-470,459	531,529	-0,084	-0,145
-469,445	800,000	-0,051	-0,110
-468,430	253,699	-0,068	0,084
-467,416	800,000	-0,034	0,105
-466,401	-200,000	0,036	0,152
-465,386	70,707	-0,115	0,087
-464,372	-200,000	0,018	0,099
-463,357	-62,486	0,029	-0,009
-462,343	-180,722	-0,079	-0,001
-461,328	800,000	0,021	-0,043
-460,313	22,695	0,205	0,122
-459,299	3,178	0,042	0,022
-458,284	74,411	0,115	0,088
-457,270	-122,020	0,002	0,000
-456,255	292,915	0,039	-0,052
-455,241	-200,000	0,014	-0,057
-454,226	261,052	0,065	0,082
-453,211	535,610	0,047	-0,082
-452,197	-53,895	-0,086	0,028
-451,182	-200,000	-0,011	0,039
-450,168	-70,886	-0,152	0,041
-449,153	42,751	-0,053	-0,035
-448,138	-125,796	-0,076	-0,008
-447,124	-69,693	0,158	0,044
-446,109	-200,000	0,004	-0,032
-445,095	5,018	-0,031	-0,017
-444,080	-200,000	0,024	0,151
-443,065	-54,638	-0,099	-0,032
-442,051	3,323	-0,108	-0,057
-441,036	420,110	0,031	-0,049
-440,022	-114,561	-0,062	0,009
-439,007	800,000	0,041	0,105
-437,992	174,786	0,031	0,032
-436,978	101,364	0,115	0,098
-435,963	-27,218	-0,068	-0,029
-434,949	-112,111	0,148	-0,021
-433,934	112,257	0,040	0,035
-432,919	800,000	0,009	-0,018
-431,905	-200,000	-0,005	0,148
-430,890	-5,446	-0,076	-0,038
-429,876	82,227	-0,098	-0,077
-428,861	800,000	0,005	-0,014
-427,846	32,844	-0,083	-0,052
-426,832	-54,583	-0,063	-0,021
-425,817	-200,000	-0,053	-0,178
-424,803	-191,439	-0,037	0,000
-423,788	-98,834	-0,083	-0,015
-422,773	591,538	0,071	-0,127
-421,759	800,000	-0,025	-0,068
-420,744	800,000	0,032	-0,092
-419,730	-58,744	-0,075	-0,024
-418,715	-95,946	-0,107	-0,020
-417,701	745,723	0,051	-0,100
-416,686	84,665	-0,118	0,094
-415,671	108,752	-0,089	0,077
-414,657	800,000	0,033	0,097
-413,642	-60,773	-0,063	0,019
-412,628	66,228	0,057	0,042
-411,613	241,581	0,091	-0,111
-410,598	63,094	-0,130	-0,094
-409,584	280,221	0,067	0,088
-408,569	530,134	-0,068	0,118
-407,555	86,308	0,047	0,038
-406,540	16,345	-0,007	-0,004
-405,525	164,498	0,032	-0,033
-404,511	800,000	0,026	0,053
-403,496	-200,000	0,014	-0,057
-402,482	-37,143	-0,130	-0,050
-401,467	-200,000	0,034	0,118
-400,452	210,117	0,116	0,132
-399,438	-41,360	-0,008	-0,003
-398,423	106,661	0,049	-0,042
-397,409	-187,598	0,166	0,002
-396,394	-200,000	-0,016	0,076
-395,379	-200,000	-0,006	0,056
-394,365	-69,704	0,101	0,028
-393,350	-80,368	-0,094	-0,023
-392,336	-200,000	-0,021	0,112
-391,321	-200,000	-0,006	-0,065
-390,306	155,976	-0,154	-0,154
-389,292	-43,808	-0,134	-0,049
-388,277	145,913	0,040	0,039
-387,263	800,000	-0,042	0,118
-386,248	-200,000	0,008	0,033
-385,233	-56,926	0,117	-0,037
-384,219	193,506	0,040	-0,044
-383,204	512,808	0,063	0,108
-382,190	-95,513	0,048	0,009
-381,175	-200,000	0,003	-0,057
-380,160	-160,073	0,079	0,003
-379,146	758,647	-0,045	-0,088
-378,131	-95,080	0,166	0,032
-377,117	327,087	0,049	-0,068
-376,102	-200,000	-0,013	-0,240
-375,088	-200,000	-0,012	-0,093
-374,073	-99,807	-0,064	0,012
-373,058	-43,507	0,045	0,016
-372,044	-200,000	-0,001	0,058
-371,029	141,874	0,126	-0,121
-370,015	-136,047	0,138	-0,012
-369,000	-200,000	0,016	-0,110
-367,985	38,039	-0,058	0,037
-366,971	27,710	0,044	0,027
-365,956	-128,884	-0,056	0,006
-364,942	-70,435	-0,105	-0,029
-363,927	-200,000	0,023	0,085
-362,912	-51,236	-0,037	-0,012
-361,898	-200,000	-0,025	-0,127
-360,883	-200,000	-0,006	-0,049
-359,869	184,730	0,064	-0,069
-358,854	-200,000	0,007	-0,049
-357,839	206,738	0,073	0,083
-356,825	234,592	0,057	0,068
-355,810	-51,499	-0,123	0,041
-354,796	800,000	0,030	0,075
-353,781	-200,000	-0,014	-0,057
-352,766	800,000	-0,031	0,079
-351,752	534,500	0,050	0,087
-350,737	-200,000	0,001	0,067
-349,723	-200,000	0,010	0,043
-348,708	114,783	-0,067	-0,059
-347,693	67,805	-0,094	0,070
-346,679	-200,000	0,007	0,041
-345,664	-182,842	0,174	-0,002
-344,650	-200,000	0,025	0,086
-343,635	-87,676	0,155	0,034
-342,620	-28,766	-0,056	0,023
-341,606	-164,413	0,158	-0,005
-340,591	800,000	-0,044	0,120
-339,577	-107,660	-0,084	0,013
-338,562	-200,000	-0,000	0,120
-337,548	-200,000	0,019	0,107
-336,533	118,471	0,139	0,125
-335,518	61,109	0,049	-0,035
-334,504	800,000	0,019	0,051
-333,489	-200,000	0,012	0,044
-332,475	-146,433	-0,048	-0,003
-331,460	800,000	-0,045	-0,119
-330,445	81,266	0,073	0,057
-329,431	-149,867	-0,032	-0,002
-328,416	185,237	0,027	0,029
-327,402	203,589	-0,039	-0,044
-326,387	-100,656	0,169	0,030
-325,372	-200,000	-0,007	-0,075
-324,358	800,000	-0,033	-0,093
-323,343	800,000	0,007	0,022
-322,329	-111,044	0,158	0,023
-321,314	57,755	-0,119	0,084
-320,299	20,847	0,099	-0,058
-319,285	-200,000	0,011	0,035
-318,270	-200,000	-0,021	0,067
-317,256	263,228	-0,064	-0,081
-316,241	542,798	0,032	-0,056
-315,226	-200,000	-0,030	0,114
-314,212	262,657	0,071	0,089
-313,197	-66,309	0,073	-0,021
-312,183	-200,000	-0,015	0,057
-311,168	270,495	-0,062	-0,079
-310,153	553,077	0,022	0,038
-309,139	800,000	0,034	-0,107
-308,124	-200,000	0,006	-0,080
-307,110	-101,035	0,110	-0,019
-306,095	800,000	0,030	0,090
-305,080	-34,611	0,091	0,036
-304,066	-200,000	-0,005	0,096
-303,051	-162,680	-0,011	-0,000
-302,037	102,208	-0,086	-0,073
-301,022	277,656	-0,057	0,073
-300,008	341,982	0,075	-0,107
-298,993	55,931	-0,163	-0,114
-297,978	190,275	0,148	0,161
-296,964	-200,000	-0,005	-0,062
-295,949	800,000	-0,022	-0,065
-294,935	77,790	0,064	-0,050
-293,920	289,978	0,029	-0,038
-292,905	-200,000	-0,014	-0,076
-291,891	173,115	0,055	0,057
-290,876	142,462	-0,052	-0,050
-289,862	-200,000	0,012	0,066
-288,847	-133,758	-0,098	-0,009
-287,832	248,421	0,088	-0,108
-286,818	174,307	0,091	-0,095
-285,803	-45,859	0,146	0,052
-284,789	140,403	0,013	-0,013
-283,774	-200,000	-0,017	0,094
-282,759	553,249	0,019	0,034
-281,745	-200,000	-0,001	0,035
-280,730	800,000	0,046	-0,113
-279,716	534,450	-0,018	0,031
-278,701	-123,208	0,104	-0,012
-277,686	-200,000	-0,031	0,107
-276,672	159,214	0,057	-0,058
-275,657	-118,448	-0,029	-0,004
-274,643	-65,288	-0,054	-0,016
-273,628	62,401	-0,068	0,049
-272,613	215,517	-0,018	-0,021
-271,599	-200,000	-0,008	0,032
-270,584	-37,011	-0,042	0,016
-269,570	-200,000	0,006	0,054
-268,555	-34,514	0,121	0,048
-267,540	603,723	0,037	0,067
-266,526	-90,060	-0,146	-0,031
-265,511	-109,947	-0,108	-0,016
-264,497	800,000	-0,009	-0,026
-263,482	36,251	0,021	0,013
-262,467	-26,926	0,102	-0,043
-261,453	106,534	-0,064	0,055
-260,438	-72,686	0,065	0,017
-259,424	-56,636	-0,060	-0,019
-258,409	38,081	-0,037	0,024
-257,395	80,441	0,096	0,075
-256,380	800,000	0,037	-0,099
-255,365	185,498	0,050	0,054
-254,351	-200,000	-0,026	0,102
-253,336	356,947	0,037	-0,053
-252,322	-200,000	0,004	-0,099
-251,307	-200,000	-0,004	-0,111
-250,292	-60,604	0,082	0,025
-249,278	800,000	0,016	-0,032
-248,263	-66,765	0,058	-0,016
-247,249	-200,000	-0,012	-0,133
-246,234	-97,274	0,103	0,019
-245,219	333,430	0,069	-0,097
-244,205	800,000	0,030	0,061
-243,190	6,151	0,178	-0,095
-242,176	-42,811	0,056	-0,020
-241,161	-200,000	0,004	0,095
-240,146	-10,517	0,067	-0,032
-239,132	-200,000	-0,034	-0,154
-238,117	-62,816	-0,147	-0,044
-237,103	-92,422	0,047	0,010
-236,088	-200,000	0,005	-0,056
-235,073	716,985	-0,058	0,112
-234,059	800,000	0,046	0,122
-233,044	800,000	-0,040	0,113
-232,030	800,000	-0,043	0,087
-231,015	38,982	-0,081	-0,052
-230,000	44,859	0,082	-0,054
-228,986	-200,000	-0,012	0,073
-227,971	112,806	-0,037	-0,032
-226,957	-200,000	-0,010	-0,096
-225,942	800,000	-0,032	-0,066
-224,927	-70,151	0,135	-0,037
-223,913	378,183	-0,052	-0,077
-222,898	-120,176	-0,063	-0,008
-221,884	800,000	0,044	0,098
-220,869	15,726	0,079	-0,045
-219,855	800,000	0,084	0,198
-218,840	375,971	0,044	0,065
-217,825	102,788	-0,039	0,033
-216,811	-55,051	-0,105	0,034
-215,796	-140,742	0,190	0,014
-214,782	79,012	-0,087	-0,067
-213,767	170,439	0,037	0,038
-212,752	16,591	-0,052	0,029
-211,738	22,438	-0,032	0,019
-210,723	-138,038	-0,107	0,008
-209,709	39,044	-0,031	-0,020
-208,694	-173,438	-0,094	-0,002
-207,679	201,217	0,035	0,039
-206,665	800,000	-0,064	0,142
-205,650	-33,025	-0,020	-0,008
-204,636	-200,000	0,009	-0,051
-203,621	23,861	0,049	0,029
-202,606	-200,000	-0,008	-0,086
-201,592	-39,013	-0,170	0,064
-200,577	-161,670	0,059	-0,002
-199,563	88,343	-0,067	0,054
-198,548	-200,000	0,005	-0,064
-197,533	209,471	-0,104	0,117
-196,519	-200,000	-0,007	0,072
-195,504	-32,464	-0,081	-0,032
-194,490	111,815	0,029	-0,025
-193,475	-200,000	-0,022	0,074
-192,460	314,461	0,068	0,092
-191,446	800,000	-0,019	-0,049
-190,431	-63,728	-0,051	0,015
-189,417	55,321	-0,021	-0,015
-188,402	556,402	0,068	0,119
-187,387	138,017	-0,141	0,133
-186,373	-200,000	-0,003	0,090
-185,358	800,000	0,006	0,012
-184,344	152,028	0,076	0,075
-183,329	429,886	0,013	0,021
-182,315	25,165	-0,082	-0,049
-181,300	800,000	-0,048	0,149
-180,285	234,375	-0,115	-0,137
-179,271	316,665	-0,114	-0,156
-178,256	-32,269	-0,113	0,045
-177,242	-32,663	0,142	0,057
-176,227	26,761	-0,065	0,039
-175,212	-60,489	0,020	0,006
-174,198	211,001	-0,033	0,038
-173,183	778,165	0,078	-0,153
-172,169	212,246	-0,013	-0,015
-171,154	96,728	-0,148	-0,122
-170,139	-200,000	0,005	0,068
-169,125	167,763	0,062	0,064
-168,110	256,946	-0,069	0,085
-167,096	-95,311	-0,045	0,009
-166,081	-72,810	-0,091	-0,024
-165,066	-200,000	-0,007	-0,046
-164,052	-43,836	0,059	0,021
-163,037	255,215	0,007	-0,009
-162,023	800,000	-0,020	0,043
-161,008	-200,000	-0,004	0,120
-159,993	-194,027	0,105	-0,001
-158,979	255,234	-0,078	0,096
-157,964	256,009	0,026	0,032
-156,950	-110,337	0,039	0,006
-155,935	-130,399	0,081	0,008
-154,920	226,893	-0,048	0,056
-153,906	81,008	-0,038	-0,029
-152,891	800,000	-0,020	-0,059
-151,877	-200,000	0,033	0,125
-150,862	398,681	0,028	0,042
-149,847	-156,234	0,072	-0,003
-148,833	710,566	-0,016	-0,030
-147,818	-200,000	0,019	0,067
-146,804	558,197	-0,041	0,072
-145,789	-151,852	0,134	0,007
-144,775	-200,000	-0,016	0,112
-143,760	-18,465	-0,009	0,004
-142,745	671,885	0,053	-0,100
-141,731	56,157	-0,123	0,086
-140,716	-137,867	-0,073	0,006
-139,702	-80,072	0,160	-0,038
-138,687	233,179	0,034	0,040
-137,672	28,195	0,079	-0,048
-136,658	74,271	-0,080	0,060
-135,643	78,960	-0,034	0,026
-134,629	-200,000	0,002	-0,059
-133,614	-20,991	0,094	-0,041
-132,599	338,793	0,027	-0,038
-131,585	-76,500	0,022	0,006
-130,570	43,989	0,031	0,020
-129,556	65,383	0,057	-0,042
-128,541	800,000	-0,025	-0,072
-127,526	125,228	0,017	0,015
-126,512	-200,000	0,013	0,106
-125,497	216,016	-0,045	-0,052
-124,483	-178,030	0,113	0,002
-123,468	97,308	-0,090	0,074
-122,453	-126,936	0,085	-0,009
-121,439	-86,759	-0,094	-0,021
-120,424	800,000	0,035	0,105
-119,410	7,053	0,030	0,016
