DTS Sentinel unit serial number:	SN410029Multiplexer serial number:	ORYXHardware model number:	OX2-SRSoftware version number:	ORYX F/W v4,00 Oryx Data Collector v3.7.2.0data status	okinstallation	B5 Nyhavnadifferential loss correction	single-endedforward channel	channel 2reverse channel	N/Adate	2023/12/13time	16:37:13forward acquisition time	300,00reverse acquisition time	0,00gamma	499,1914k internal	0,3159k external	0,3159temperature offset calibration	1,0000default loss term (dB/km)	0,3820temperature slope calibration	1,0000multiplexer offset coefficient	1,0000multiplexer slope coefficient	1,0000fibre end	0,00T internal ref (°C)	14,64T ext. ref 1 (°C)	-2,44T ext. ref 2 (°C)	-2,52length (m)	temperature (°C)	Stokes	anti-Stokes-744,400	66,922	0,099	0,074
-743,385	-33,893	-0,271	-0,109
-742,371	-86,401	0,086	0,019
-741,356	34,835	-0,258	-0,166
-740,342	-69,377	0,202	0,057
-739,327	-81,863	-0,228	0,055
-738,312	-200,000	0,012	-0,127
-737,298	-73,004	-0,323	0,087
-736,283	-4,231	0,057	-0,029
-735,269	-144,219	-0,207	-0,014
-734,254	598,025	0,044	0,081
-733,239	-54,429	-0,480	-0,159
-732,225	95,291	0,129	0,108
-731,210	114,604	-0,079	-0,071
-730,196	438,679	-0,061	0,099
-729,181	88,746	-0,067	-0,055
-728,167	-19,666	0,059	0,027
-727,152	63,983	-0,187	0,138
-726,137	690,844	0,008	0,016
-725,123	122,403	-0,076	0,070
-724,108	-90,996	-0,087	-0,018
-723,094	-200,000	0,005	-0,098
-722,079	98,866	0,088	-0,075
-721,064	-127,396	-0,132	-0,014
-720,050	-139,473	0,014	0,001
-719,035	-200,000	-0,013	0,136
-718,021	202,202	-0,050	-0,057
-717,006	295,954	-0,074	0,100
-715,991	800,000	-0,038	-0,114
-714,977	-196,295	-0,108	-0,001
-713,962	800,000	-0,021	0,050
-712,948	9,996	0,078	0,044
-711,933	-82,399	0,058	0,014
-710,918	-200,000	-0,007	0,069
-709,904	-116,913	0,082	-0,011
-708,889	800,000	-0,056	-0,117
-707,875	800,000	-0,036	-0,075
-706,860	-126,418	0,153	-0,017
-705,845	-200,000	-0,044	-0,146
-704,831	-200,000	-0,015	0,075
-703,816	120,333	-0,053	0,048
-702,802	-200,000	0,011	-0,121
-701,787	362,138	-0,091	-0,135
-700,772	-200,000	-0,010	0,054
-699,758	18,101	0,063	-0,037
-698,743	-47,003	-0,043	0,015
-697,729	-134,623	0,129	-0,011
-696,714	-22,436	0,109	0,048
-695,699	693,194	-0,096	0,185
-694,685	170,180	-0,018	0,019
-693,670	181,964	0,029	0,032
-692,656	348,477	-0,005	0,007
-691,641	107,960	0,033	0,029
-690,627	45,010	-0,063	-0,043
-689,612	-146,077	0,036	0,002
-688,597	800,000	-0,025	-0,062
-687,583	-81,399	-0,089	0,021
-686,568	322,619	-0,055	-0,078
-685,554	-147,442	0,091	-0,006
-684,539	-200,000	0,011	-0,080
-683,524	-71,087	-0,056	0,015
-682,510	9,728	0,143	0,080
-681,495	-52,852	-0,048	-0,016
-680,481	38,673	-0,133	-0,087
-679,466	154,853	-0,058	0,059
-678,451	-29,614	-0,094	-0,039
-677,437	-200,000	-0,032	0,107
-676,422	-200,000	-0,030	0,213
-675,408	4,135	0,077	-0,041
-674,393	-0,651	-0,044	-0,023
-673,378	86,408	-0,053	-0,043
-672,364	142,083	0,035	-0,034
-671,349	-143,220	-0,091	-0,006
-670,335	51,378	0,182	0,127
-669,320	10,651	-0,093	-0,052
-668,305	800,000	0,024	-0,067
-667,291	800,000	-0,080	-0,211
-666,276	-89,920	-0,087	0,019
-665,262	-66,230	-0,119	0,035
-664,247	42,646	-0,025	-0,017
-663,232	-200,000	0,011	0,049
-662,218	-24,375	-0,050	-0,022
-661,203	-94,647	-0,088	0,017
-660,189	-6,810	-0,029	-0,014
-659,174	95,376	-0,054	-0,045
-658,159	-34,060	-0,240	-0,096
-657,145	-87,854	-0,057	-0,012
-656,130	-200,000	-0,006	0,045
-655,116	-63,427	0,071	0,021
-654,101	-53,584	-0,108	0,036
-653,086	116,235	0,037	0,033
-652,072	26,524	-0,147	-0,090
-651,057	572,576	0,050	-0,089
-650,043	29,994	0,064	-0,040
-649,028	417,266	0,042	0,066
-648,014	-140,863	0,157	0,012
-646,999	-182,598	-0,030	-0,000
-645,984	245,702	0,094	0,117
-644,970	-200,000	0,015	-0,074
-643,955	524,671	-0,039	-0,067
-642,941	-44,053	-0,188	-0,069
-641,926	800,000	0,018	0,055
-640,911	800,000	0,057	-0,142
-639,897	316,461	-0,141	0,196
-638,882	49,223	0,057	0,039
-637,868	-64,221	0,105	-0,031
-636,853	480,449	0,049	0,082
-635,838	566,103	-0,039	-0,069
-634,824	239,903	-0,095	-0,116
-633,809	33,322	-0,143	0,091
-632,795	8,839	0,161	0,089
-631,780	800,000	0,038	-0,079
-630,765	-200,000	0,019	-0,066
-629,751	-86,080	0,049	-0,011
-628,736	-54,047	0,137	-0,046
-627,722	687,896	-0,040	-0,077
-626,707	800,000	-0,002	-0,006
-625,692	800,000	-0,035	-0,110
-624,678	-148,207	0,122	0,007
-623,663	250,372	0,059	-0,073
-622,649	-200,000	0,005	-0,084
-621,634	422,046	-0,080	-0,126
-620,619	780,150	-0,026	-0,052
-619,605	248,861	0,083	-0,103
-618,590	427,550	-0,092	-0,146
-617,576	170,390	-0,009	0,009
-616,561	454,849	-0,049	-0,081
-615,546	-183,446	-0,051	-0,001
-614,532	-165,286	-0,090	0,003
-613,517	183,541	0,068	-0,074
-612,503	766,765	-0,065	-0,131
-611,488	-200,000	-0,026	0,095
-610,474	260,304	-0,129	0,164
-609,459	-114,742	0,111	0,015
-608,444	60,259	-0,065	-0,047
-607,430	-48,776	-0,077	0,027
-606,415	391,046	0,091	0,138
-605,401	-8,081	-0,081	0,040
-604,386	-199,426	-0,018	0,000
-603,371	800,000	-0,056	0,157
-602,357	223,946	0,098	0,116
-601,342	14,880	-0,109	0,062
-600,328	-76,862	-0,174	-0,044
-599,313	-117,039	-0,034	0,004
-598,298	800,000	-0,025	-0,062
-597,284	-200,000	0,019	0,080
-596,269	-200,000	0,012	0,160
-595,255	184,004	0,050	-0,055
-594,240	-134,498	-0,110	-0,010
-593,225	-79,086	-0,129	-0,032
-592,211	-59,861	-0,083	0,026
-591,196	-200,000	-0,023	-0,095
-590,182	95,089	0,095	-0,079
-589,167	30,675	0,037	-0,023
-588,152	150,713	-0,075	-0,075
-587,138	-98,379	-0,137	-0,025
-586,123	194,229	0,072	-0,080
-585,109	-79,893	-0,228	-0,056
-584,094	800,000	0,018	-0,046
-583,079	389,927	0,048	0,073
-582,065	-200,000	0,002	-0,013
-581,050	-200,000	0,027	-0,105
-580,036	-200,000	-0,003	0,024
-579,021	800,000	0,033	0,102
-578,006	-200,000	-0,112	0,000
-576,992	88,864	-0,077	-0,063
-575,977	-173,156	0,038	-0,001
-574,963	-76,103	0,006	0,002
-573,948	800,000	0,031	0,092
-572,934	47,912	0,032	0,022
-571,919	261,516	-0,031	0,039
-570,904	-200,000	0,041	-0,161
-569,890	62,206	-0,068	-0,049
-568,875	-98,082	0,169	0,032
-567,861	-200,000	0,015	-0,087
-566,846	-2,968	0,159	0,081
-565,831	800,000	-0,021	-0,062
-564,817	-200,000	0,006	-0,021
-563,802	181,948	0,013	0,015
-562,788	15,121	-0,075	0,043
-561,773	-200,000	0,010	-0,055
-560,758	800,000	0,029	0,062
-559,744	62,389	0,015	0,011
-558,729	-32,964	0,070	0,028
-557,715	207,991	-0,055	-0,063
-556,700	-200,000	-0,003	0,017
-555,685	-200,000	0,009	-0,069
-554,671	800,000	0,086	-0,204
-553,656	281,180	0,093	-0,122
-552,642	148,224	-0,062	-0,062
-551,627	-200,000	0,013	0,133
-550,612	-200,000	-0,000	0,057
-549,598	575,451	-0,083	-0,149
-548,583	202,414	-0,095	-0,108
-547,569	-54,738	0,098	0,032
-546,554	-193,662	0,145	0,001
-545,539	-86,049	0,104	-0,023
-544,525	392,105	-0,036	0,055
-543,510	-200,000	-0,034	-0,172
-542,496	522,305	-0,067	0,115
-541,481	-22,475	0,097	0,043
-540,466	-200,000	-0,042	0,143
-539,452	563,633	-0,057	-0,102
-538,437	8,735	0,150	0,083
-537,423	14,393	-0,126	0,072
-536,408	-79,110	-0,041	0,010
-535,393	43,466	0,098	-0,065
-534,379	-116,265	-0,157	-0,021
-533,364	387,804	0,050	0,076
-532,350	-200,000	-0,004	0,078
-531,335	-157,198	0,179	0,008
-530,321	78,317	-0,019	0,014
-529,306	336,552	0,019	-0,027
-528,291	-200,000	-0,009	-0,073
-527,277	-200,000	0,014	0,055
-526,262	526,212	-0,026	0,045
-525,248	-200,000	0,009	0,123
-524,233	12,035	0,053	0,030
-523,218	-7,999	0,043	-0,021
-522,204	21,850	0,075	0,045
-521,189	115,508	0,070	-0,063
-520,175	-157,179	-0,129	-0,006
-519,160	800,000	-0,028	0,082
-518,145	800,000	-0,028	0,063
-517,131	80,894	-0,063	0,050
-516,116	-200,000	0,057	-0,235
-515,102	315,336	-0,048	0,067
-514,087	-183,390	-0,166	0,002
-513,072	-200,000	0,016	-0,100
-512,058	800,000	-0,064	-0,176
-511,043	-192,087	0,038	0,000
-510,029	-33,027	-0,057	0,023
-509,014	20,956	0,077	0,045
-507,999	-56,193	-0,075	0,024
-506,985	-200,000	-0,021	-0,131
-505,970	-109,036	0,062	-0,009
-504,956	743,630	0,019	0,037
-503,941	77,980	0,095	0,074
-502,926	40,762	0,090	0,059
-501,912	-8,830	0,027	-0,013
-500,897	148,435	0,054	-0,054
-499,883	572,735	-0,038	0,068
-498,868	-200,000	-0,006	-0,023
-497,853	800,000	-0,019	0,054
-496,839	401,234	0,050	0,076
-495,824	-15,222	0,170	0,079
-494,810	-192,581	-0,055	0,000
-493,795	219,274	0,109	0,128
-492,781	-200,000	0,018	-0,057
-491,766	-200,000	-0,004	-0,031
-490,751	-200,000	0,005	-0,151
-489,737	14,511	-0,088	0,050
-488,722	-56,209	-0,088	0,029
-487,708	485,144	0,050	0,083
-486,693	100,037	-0,121	0,102
-485,678	281,538	0,060	0,079
-484,664	-200,000	0,029	-0,099
-483,649	-200,000	-0,017	0,062
-482,635	-200,000	0,004	-0,017
-481,620	38,735	0,048	0,031
-480,605	84,709	0,178	0,142
-479,591	-133,486	0,050	-0,005
-478,576	-200,000	0,035	-0,118
-477,562	92,648	-0,088	0,072
-476,547	569,043	-0,018	0,033
-475,532	6,584	0,056	-0,030
-474,518	-200,000	-0,008	-0,052
-473,503	-200,000	0,002	-0,050
-472,489	102,068	0,101	0,086
-471,474	-200,000	-0,004	-0,025
-470,459	103,416	0,050	0,043
-469,445	311,013	-0,099	-0,136
-468,430	324,200	-0,063	-0,088
-467,416	-130,220	-0,099	-0,010
-466,401	644,513	0,075	0,140
-465,386	-133,391	-0,091	-0,008
-464,372	800,000	-0,008	-0,018
-463,357	277,300	-0,023	-0,029
-462,343	34,070	-0,078	0,050
-461,328	-56,998	0,048	-0,015
-460,313	80,347	-0,127	-0,099
-459,299	800,000	-0,069	-0,148
-458,284	98,767	0,011	0,009
-457,270	-176,419	0,106	0,002
-456,255	-88,430	-0,049	0,011
-455,241	468,782	0,013	-0,022
-454,226	-200,000	0,037	-0,171
-453,211	-89,744	0,029	0,006
-452,197	-200,000	0,011	0,059
-451,182	257,643	0,048	0,060
-450,168	-200,000	0,008	-0,121
-449,153	-112,885	0,036	0,005
-448,138	80,958	0,079	0,062
-447,124	-200,000	-0,012	-0,127
-446,109	230,469	-0,069	0,083
-445,095	348,071	0,038	0,055
-444,080	248,906	-0,070	0,087
-443,065	-200,000	0,049	0,188
-442,051	-77,859	-0,110	-0,027
-441,036	-200,000	-0,032	-0,115
-440,022	-7,283	-0,110	0,054
-439,007	-200,000	0,005	-0,062
-437,992	-200,000	-0,021	0,086
-436,978	-200,000	0,032	0,146
-435,963	800,000	0,013	0,032
-434,949	-200,000	-0,002	0,012
-433,934	-132,728	0,066	0,006
-432,919	-200,000	-0,022	-0,098
-431,905	800,000	-0,033	-0,102
-430,890	800,000	-0,027	0,084
-429,876	-200,000	-0,005	-0,115
-428,861	-11,965	0,135	0,064
-427,846	-200,000	-0,005	0,045
-426,832	206,289	-0,071	-0,081
-425,817	-200,000	0,015	-0,185
-424,803	95,166	-0,074	-0,062
-423,788	-149,612	0,134	0,008
-422,773	-23,709	-0,148	0,064
-421,759	74,245	0,036	-0,027
-420,744	363,824	-0,047	-0,068
-419,730	800,000	-0,007	0,022
-418,715	-71,519	-0,085	-0,023
-417,701	426,719	0,031	0,048
-416,686	-135,750	0,152	-0,013
-415,671	51,796	-0,104	-0,072
-414,657	306,943	-0,043	0,059
-413,642	515,119	-0,036	-0,062
-412,628	-81,135	0,075	0,018
-411,613	153,659	0,074	-0,073
-410,598	66,695	-0,014	-0,010
-409,584	114,518	0,026	0,023
-408,569	342,950	-0,052	0,074
-407,555	328,294	-0,087	0,122
-406,540	-91,928	-0,022	-0,005
-405,525	-200,000	0,017	-0,109
-404,511	687,315	-0,070	-0,134
-403,496	191,660	0,050	0,055
-402,482	474,469	0,045	-0,074
-401,467	-200,000	-0,012	0,052
-400,452	709,150	-0,063	0,121
-399,438	-200,000	-0,002	0,019
-398,423	478,805	0,078	-0,128
-397,409	-23,892	0,132	0,057
-396,394	46,336	-0,016	-0,010
-395,379	-1,707	-0,094	-0,048
-394,365	48,136	-0,083	-0,056
-393,350	-161,179	0,159	-0,006
-392,336	-30,882	0,077	-0,032
-391,321	26,992	0,112	-0,068
-390,306	-91,449	-0,127	-0,026
-389,292	176,163	0,061	-0,065
-388,277	454,986	-0,032	-0,051
-387,263	117,990	-0,029	0,026
-386,248	-157,321	0,095	0,004
-385,233	800,000	0,058	0,122
-384,219	346,528	-0,113	-0,162
-383,204	-147,853	0,095	-0,006
-382,190	-109,213	-0,124	-0,019
-381,175	-200,000	0,010	-0,040
-380,160	-135,013	0,143	0,012
-379,146	-200,000	0,013	0,098
-378,131	697,066	-0,069	0,132
-377,117	-104,174	0,117	-0,020
-376,102	-101,355	0,051	0,009
-375,088	442,972	-0,026	-0,042
-374,073	-200,000	-0,009	-0,131
-373,058	800,000	0,010	-0,028
-372,044	-2,822	0,117	-0,059
-371,029	800,000	-0,073	-0,152
-370,015	-70,593	0,174	-0,047
-369,000	23,732	-0,146	0,087
-367,985	-200,000	0,011	-0,075
-366,971	-15,484	-0,075	-0,035
-365,956	-200,000	-0,010	0,113
-364,942	49,723	-0,093	0,063
-363,927	156,753	-0,054	-0,055
-362,912	-200,000	-0,007	-0,042
-361,898	-119,066	-0,122	-0,015
-360,883	-200,000	-0,020	0,097
-359,869	645,451	-0,015	-0,028
-358,854	-200,000	-0,018	-0,155
-357,839	62,345	0,139	0,101
-356,825	-166,497	-0,010	-0,000
-355,810	137,514	0,039	-0,037
-354,796	-99,594	-0,131	0,024
-353,781	49,576	-0,044	0,030
-352,766	-54,818	0,083	-0,027
-351,752	-53,210	0,070	-0,023
-350,737	74,183	-0,051	-0,039
-349,723	-90,685	0,183	0,038
-348,708	281,795	-0,048	0,063
-347,693	800,000	-0,035	-0,100
-346,679	-131,330	-0,084	-0,008
-345,664	-146,023	-0,067	-0,004
-344,650	231,611	0,096	-0,115
-343,635	11,872	-0,090	-0,050
-342,620	389,319	0,071	0,108
-341,606	57,486	-0,135	-0,095
-340,591	-38,471	0,051	0,019
-339,577	0,829	-0,043	0,022
-338,562	-72,282	-0,101	0,027
-337,548	-23,135	0,141	-0,061
-336,533	-4,746	-0,064	0,032
-335,518	-200,000	-0,011	0,048
-334,504	22,026	-0,091	0,053
-333,489	703,235	-0,014	-0,026
-332,475	-116,083	-0,081	-0,011
-331,460	271,250	-0,088	-0,112
-330,445	-11,420	-0,044	-0,021
-329,431	448,558	0,098	-0,158
-328,416	159,408	0,055	0,055
-327,402	800,000	0,052	-0,114
-326,387	800,000	0,042	0,095
-325,372	292,554	-0,014	-0,018
-324,358	-157,243	0,041	0,002
-323,343	-200,000	0,010	0,060
-322,329	111,838	-0,091	0,080
-321,314	800,000	-0,017	0,043
-320,299	253,443	-0,068	-0,084
-319,285	-200,000	-0,005	-0,080
-318,270	13,468	-0,150	-0,084
-317,256	58,837	0,122	0,087
-316,241	-82,653	0,013	0,003
-315,226	71,204	0,162	-0,122
-314,212	518,303	-0,065	0,110
-313,197	465,096	-0,032	0,053
-312,183	12,536	0,147	0,082
-311,168	302,653	-0,012	-0,016
-310,153	-86,312	-0,035	-0,008
-309,139	-200,000	0,009	-0,105
-308,124	9,678	-0,021	0,011
-307,110	290,445	0,075	0,099
-306,095	634,180	-0,053	0,098
-305,080	311,146	0,049	-0,067
-304,066	-39,199	-0,047	-0,018
-303,051	379,617	-0,100	-0,149
-302,037	800,000	0,051	-0,120
-301,022	91,941	0,102	0,083
-300,008	800,000	0,014	-0,030
-298,993	-66,645	0,078	0,022
-297,978	800,000	-0,028	0,084
-296,964	-200,000	0,017	0,090
-295,949	250,444	-0,074	-0,091
-294,935	134,023	0,063	-0,059
-293,920	343,877	-0,042	0,060
-292,905	-88,310	-0,123	-0,026
-291,891	-200,000	0,012	-0,088
-290,876	-98,296	0,130	-0,024
-289,862	800,000	0,007	-0,023
-288,847	-56,521	-0,031	-0,010
-287,832	137,377	-0,078	-0,073
-286,818	265,967	-0,081	0,103
-285,803	235,647	0,084	0,100
-284,789	800,000	0,038	0,106
-283,774	800,000	0,010	0,021
-282,759	775,316	0,013	0,027
-281,745	-200,000	0,020	-0,067
-280,730	-200,000	-0,018	-0,070
-279,716	-200,000	0,019	-0,065
-278,701	800,000	-0,016	-0,049
-277,686	166,961	0,077	0,080
-276,672	-110,742	0,070	-0,010
-275,657	-19,502	0,038	0,017
-274,643	800,000	-0,043	0,107
-273,628	-200,000	0,008	0,098
-272,613	21,053	0,049	0,029
-271,599	211,022	0,045	0,051
-270,584	-200,000	-0,001	0,047
-269,570	-200,000	-0,015	0,053
-268,555	-89,090	0,067	-0,014
-267,540	191,749	0,062	0,068
-266,526	-200,000	-0,017	0,076
-265,511	800,000	-0,067	0,134
-264,497	800,000	-0,035	0,085
-263,482	-48,362	-0,015	-0,005
-262,467	-150,390	0,123	0,007
-261,453	800,000	0,044	0,140
-260,438	-35,223	-0,028	-0,011
-259,424	462,490	-0,002	-0,003
-258,409	-40,722	0,076	-0,028
-257,395	181,876	0,035	-0,037
-256,380	-200,000	0,011	0,078
-255,365	-200,000	-0,024	0,000
-254,351	-200,000	-0,009	0,052
-253,336	-200,000	0,003	-0,148
-252,322	800,000	0,036	0,073
-251,307	230,721	-0,105	0,124
-250,292	-200,000	0,031	0,132
-249,278	800,000	-0,060	0,138
-248,263	-200,000	-0,028	0,092
-247,249	-200,000	0,025	0,164
-246,234	800,000	0,042	0,106
-245,219	-178,729	-0,130	0,002
-244,205	-200,000	-0,006	-0,089
-243,190	650,911	0,010	-0,019
-242,176	97,637	0,043	-0,035
-241,161	-200,000	-0,002	-0,021
-240,146	257,022	0,057	-0,071
-239,132	-98,030	-0,126	0,023
-238,117	402,227	-0,060	-0,091
-237,103	681,974	-0,055	-0,104
-236,088	-1,381	-0,078	-0,040
-235,073	7,672	0,095	0,051
-234,059	-200,000	-0,003	0,161
-233,044	-12,198	0,028	-0,013
-232,030	213,030	-0,068	-0,078
-231,015	251,164	-0,040	0,049
-230,000	800,000	-0,044	0,126
-228,986	800,000	-0,034	-0,101
-227,971	-74,714	0,058	0,015
-226,957	-200,000	0,022	0,080
-225,942	-112,073	0,038	-0,005
-224,927	-40,680	-0,027	0,010
-223,913	110,198	0,047	0,041
-222,898	-200,000	-0,003	-0,014
-221,884	18,468	-0,108	0,062
-220,869	-94,166	0,077	-0,015
-219,855	-200,000	-0,007	0,113
-218,840	124,635	-0,062	0,056
-217,825	413,297	0,035	0,054
-216,811	221,303	-0,114	0,132
-215,796	766,637	0,058	-0,114
-214,782	-200,000	0,021	-0,068
-213,767	65,180	0,093	-0,068
-212,752	151,792	0,091	0,090
-211,738	-181,560	0,125	-0,002
-210,723	214,408	0,073	0,084
-209,709	-23,361	-0,097	0,042
-208,694	800,000	-0,036	0,092
-207,679	-200,000	0,007	-0,051
-206,665	133,747	-0,080	0,075
-205,650	-200,000	-0,007	0,042
-204,636	800,000	-0,017	0,038
-203,621	563,362	0,004	-0,008
-202,606	486,366	-0,072	-0,118
-201,592	219,454	-0,155	-0,179
-200,577	238,890	0,021	0,026
-199,563	-76,386	0,020	0,005
-198,548	118,479	0,042	0,038
-197,533	89,405	-0,078	-0,062
-196,519	756,497	0,032	-0,063
-195,504	-27,761	0,026	0,011
-194,490	-106,523	0,102	0,016
-193,475	800,000	-0,018	0,042
-192,460	-45,847	-0,153	0,054
-191,446	-117,768	0,034	0,004
-190,431	-200,000	-0,001	0,012
-189,417	232,049	-0,042	-0,050
-188,402	241,597	0,093	-0,113
-187,387	-110,600	-0,187	0,028
-186,373	800,000	0,007	0,017
-185,358	611,071	0,072	-0,131
-184,344	245,823	0,016	0,020
-183,329	412,971	-0,038	-0,059
-182,315	0,762	0,175	-0,090
-181,300	-155,728	-0,069	0,003
-180,285	42,496	0,057	-0,037
-179,271	-200,000	0,028	0,165
-178,256	-42,996	0,065	-0,024
-177,242	800,000	0,038	0,082
-176,227	-130,866	0,115	-0,011
-175,212	167,192	-0,022	-0,022
-174,198	-52,323	0,113	-0,037
-173,183	255,625	0,041	-0,051
-172,169	794,652	-0,087	-0,174
-171,154	-132,130	0,043	0,004
-170,139	107,804	0,021	0,018
-169,125	10,860	-0,119	0,065
-168,110	185,306	0,107	0,114
-167,096	-88,366	-0,023	0,005
-166,081	268,103	-0,063	-0,080
-165,066	-35,948	0,078	-0,030
-164,052	65,967	0,006	-0,004
-163,037	-200,000	-0,006	0,090
-162,023	-200,000	0,021	0,075
-161,008	736,295	-0,062	0,121
-159,993	133,319	-0,030	0,028
-158,979	-92,209	0,037	0,007
-157,964	298,352	-0,087	-0,115
-156,950	433,495	-0,039	0,060
-155,935	-200,000	0,038	0,182
-154,920	532,186	0,019	-0,033
-153,906	-200,000	0,013	0,101
-152,891	164,059	-0,087	0,089
-151,877	-200,000	0,009	0,063
-150,862	800,000	-0,078	-0,161
-149,847	-200,000	-0,034	-0,172
-148,833	-200,000	-0,001	-0,018
-147,818	800,000	0,062	0,130
-146,804	-73,879	0,063	0,016
-145,789	-200,000	0,025	0,084
-144,775	-18,596	-0,200	-0,089
-143,760	-93,858	-0,108	-0,021
-142,745	-196,812	-0,073	0,000
-141,731	-200,000	-0,026	0,141
-140,716	-200,000	-0,010	0,053
-139,702	626,758	-0,076	0,139
-138,687	-200,000	-0,018	0,105
-137,672	403,397	0,030	-0,045
-136,658	298,254	0,049	0,065
-135,643	-152,654	-0,157	0,008
-134,629	-200,000	0,003	0,135
-133,614	-43,345	-0,079	-0,028
-132,599	-200,000	-0,002	0,055
-131,585	-36,383	0,083	-0,032
-130,570	365,957	0,007	-0,011
-129,556	-65,508	-0,095	0,027
-128,541	-200,000	0,000	0,047
-127,526	-200,000	0,006	0,049
-126,512	-200,000	0,013	0,072
-125,497	-200,000	0,013	0,074
-124,483	-200,000	-0,024	0,109
-123,468	503,358	0,028	0,047
-122,453	-23,860	0,033	-0,014
-121,439	-76,243	-0,067	-0,017
-120,424	376,732	-0,081	0,120
-119,410	-90,731	0,032	-0,007
