DTS Sentinel unit serial number:	SN410029Multiplexer serial number:	ORYXHardware model number:	OX2-SRSoftware version number:	ORYX F/W v4,00 Oryx Data Collector v3.7.2.0data status	okinstallation	B5 Nyhavnadifferential loss correction	single-endedforward channel	channel 2reverse channel	N/Adate	2023/12/14time	18:57:13forward acquisition time	300,00reverse acquisition time	0,00gamma	499,1914k internal	0,3156k external	0,3156temperature offset calibration	1,0000default loss term (dB/km)	0,3820temperature slope calibration	1,0000multiplexer offset coefficient	1,0000multiplexer slope coefficient	1,0000fibre end	0,00T internal ref (°C)	8,68T ext. ref 1 (°C)	-6,17T ext. ref 2 (°C)	-6,24length (m)	temperature (°C)	Stokes	anti-Stokes-744,400	800,000	0,043	0,124
-743,385	-64,449	-0,423	-0,126
-742,371	0,518	0,191	0,100
-741,356	-142,436	-0,357	-0,025
-740,342	92,289	0,150	0,124
-739,327	-96,332	-0,324	-0,063
-738,312	-147,917	0,283	-0,017
-737,298	-101,788	-0,500	-0,088
-736,283	-31,953	0,273	0,112
-735,269	-137,944	-0,399	-0,032
-734,254	800,000	0,041	0,127
-733,239	-38,210	-0,473	-0,184
-732,225	12,285	0,182	0,103
-731,210	800,000	-0,017	0,053
-730,196	800,000	-0,012	-0,029
-729,181	800,000	-0,002	0,007
-728,167	-200,000	-0,016	0,064
-727,152	9,469	0,023	-0,013
-726,137	3,972	0,109	-0,058
-725,123	-186,177	-0,124	-0,001
-724,108	398,660	-0,099	-0,153
-723,094	277,646	-0,098	-0,129
-722,079	-200,000	-0,013	-0,077
-721,064	-89,138	-0,108	0,023
-720,050	800,000	0,041	0,098
-719,035	-200,000	0,008	-0,051
-718,021	46,897	0,029	-0,020
-717,006	-67,552	-0,167	-0,048
-715,991	-200,000	0,018	-0,060
-714,977	-200,000	-0,024	-0,120
-713,962	-124,696	-0,101	-0,011
-712,948	532,653	0,093	0,162
-711,933	1,665	-0,121	-0,064
-710,918	-39,436	-0,160	0,062
-709,904	-56,276	-0,084	0,027
-708,889	-86,946	0,106	0,024
-707,875	-70,459	-0,085	0,024
-706,860	22,840	0,035	0,021
-705,845	90,621	-0,054	-0,045
-704,831	-42,830	-0,105	-0,039
-703,816	254,523	0,079	-0,100
-702,802	200,254	-0,033	-0,038
-701,787	-163,456	-0,050	0,002
-700,772	-200,000	0,013	-0,108
-699,758	155,062	-0,110	-0,111
-698,743	-49,626	0,122	0,042
-697,729	-200,000	-0,008	0,187
-696,714	249,401	-0,071	0,089
-695,699	722,815	-0,042	-0,083
-694,685	-116,315	0,066	-0,009
-693,670	-67,419	-0,118	0,034
-692,656	-200,000	-0,017	0,056
-691,641	-200,000	-0,010	0,066
-690,627	-20,968	0,118	-0,053
-689,612	-200,000	0,021	-0,078
-688,597	-14,230	0,059	0,028
-687,583	341,590	-0,082	-0,119
-686,568	3,016	-0,022	0,012
-685,554	-200,000	-0,004	-0,051
-684,539	-66,889	0,092	-0,027
-683,524	-200,000	0,004	0,036
-682,510	-154,949	-0,066	-0,003
-681,495	630,324	-0,050	-0,093
-680,481	-154,241	-0,133	0,006
-679,466	745,109	-0,074	-0,146
-678,451	-200,000	0,024	-0,089
-677,437	301,701	0,062	-0,084
-676,422	-111,242	-0,076	0,011
-675,408	225,666	-0,045	-0,054
-674,393	-200,000	-0,012	0,054
-673,378	49,094	-0,016	0,011
-672,364	-87,892	-0,182	-0,040
-671,349	22,138	0,086	0,051
-670,335	-200,000	0,014	0,053
-669,320	-200,000	0,014	0,078
-668,305	215,391	-0,058	0,068
-667,291	39,425	0,048	-0,031
-666,276	-200,000	-0,006	-0,045
-665,262	-77,080	-0,187	0,048
-664,247	-26,894	-0,035	0,015
-663,232	138,857	-0,076	-0,073
-662,218	-200,000	0,079	0,000
-661,203	633,106	0,045	-0,084
-660,189	800,000	-0,016	-0,040
-659,174	-83,608	-0,092	-0,022
-658,159	84,614	-0,078	-0,063
-657,145	-167,263	-0,185	0,005
-656,130	-200,000	-0,006	-0,190
-655,116	800,000	0,072	0,149
-654,101	180,667	-0,026	0,029
-653,086	160,507	0,018	0,018
-652,072	-200,000	-0,011	0,071
-651,057	38,853	0,035	-0,023
-650,043	772,327	-0,055	-0,110
-649,028	-200,000	-0,001	0,008
-648,014	434,503	0,007	0,011
-646,999	173,453	0,036	0,038
-645,984	150,532	0,058	-0,058
-644,970	-164,524	0,142	-0,005
-643,955	-43,733	-0,162	0,059
-642,941	550,975	0,044	-0,079
-641,926	800,000	-0,030	-0,083
-640,911	-82,066	0,090	0,021
-639,897	-137,600	0,183	0,015
-638,882	-200,000	0,005	-0,054
-637,868	-200,000	-0,012	-0,086
-636,853	-93,889	-0,041	-0,008
-635,838	166,376	0,045	-0,047
-634,824	34,176	0,073	-0,047
-633,809	16,533	0,051	-0,029
-632,795	-4,165	0,181	0,092
-631,780	105,841	-0,090	0,078
-630,765	5,184	-0,096	-0,052
-629,751	800,000	0,039	-0,111
-628,736	539,429	-0,037	-0,065
-627,722	-200,000	-0,022	0,116
-626,707	-46,750	0,029	-0,010
-625,692	-168,089	-0,065	0,002
-624,678	-67,403	0,099	-0,028
-623,663	-133,739	-0,251	-0,023
-622,649	165,269	0,024	0,025
-621,634	-200,000	0,012	-0,103
-620,619	-44,264	-0,086	-0,031
-619,605	241,775	0,092	-0,113
-618,590	100,909	-0,044	-0,038
-617,576	-163,927	-0,183	0,006
-616,561	-200,000	-0,032	0,121
-615,546	69,227	-0,189	-0,143
-614,532	-88,047	-0,096	-0,021
-613,517	800,000	0,025	0,058
-612,503	-64,459	0,051	0,015
-611,488	-145,157	-0,039	0,003
-610,474	-88,468	0,137	-0,030
-609,459	193,008	-0,058	0,065
-608,444	602,662	-0,081	-0,148
-607,430	-200,000	-0,010	-0,082
-606,415	-200,000	-0,007	-0,077
-605,401	-79,094	0,060	0,015
-604,386	-200,000	0,007	-0,076
-603,371	800,000	-0,039	-0,088
-602,357	-200,000	-0,016	0,206
-601,342	-200,000	0,019	0,161
-600,328	375,989	-0,087	-0,130
-599,313	82,015	-0,077	-0,061
-598,298	323,438	0,029	-0,040
-597,284	-200,000	0,019	-0,079
-596,269	-143,064	0,086	0,006
-595,255	-13,056	0,101	0,048
-594,240	-200,000	0,007	0,076
-593,225	7,212	0,038	0,021
-592,211	-23,603	0,068	-0,030
-591,196	528,200	0,051	0,088
-590,182	800,000	0,019	0,041
-589,167	207,293	-0,048	0,055
-588,152	-200,000	0,008	0,095
-587,138	-200,000	0,011	0,107
-586,123	3,664	0,065	-0,035
-585,109	28,350	-0,143	0,089
-584,094	14,754	0,107	0,061
-583,079	350,911	0,023	0,033
-582,065	800,000	0,053	0,132
-581,050	47,344	0,118	0,081
-580,036	84,310	-0,067	0,053
-579,021	156,767	-0,080	-0,081
-578,006	-71,167	0,059	0,016
-576,992	-30,457	-0,048	0,020
-575,977	-80,979	0,090	0,022
-574,963	-51,174	-0,061	0,021
-573,948	85,876	0,053	-0,043
-572,934	-62,342	-0,117	0,035
-571,919	-200,000	0,010	-0,036
-570,904	-46,945	0,115	-0,041
-569,890	-200,000	-0,012	-0,053
-568,875	800,000	-0,026	-0,083
-567,861	-200,000	0,018	0,099
-566,846	102,745	0,069	-0,059
-565,831	171,636	-0,047	0,050
-564,817	155,809	0,077	0,078
-563,802	178,502	-0,031	0,033
-562,788	-40,341	-0,054	-0,021
-561,773	800,000	-0,045	-0,118
-560,758	-200,000	0,003	0,036
-559,744	-119,190	-0,087	0,011
-558,729	6,781	0,090	0,049
-557,715	62,703	0,047	-0,034
-556,700	-52,359	-0,076	-0,026
-555,685	800,000	-0,035	-0,101
-554,671	542,806	0,076	0,133
-553,656	105,801	0,087	0,075
-552,642	-200,000	-0,003	-0,052
-551,627	-113,621	-0,034	0,005
-550,612	-200,000	0,003	-0,017
-549,598	-200,000	0,017	0,115
-548,583	800,000	0,048	-0,129
-547,569	184,606	0,029	-0,031
-546,554	147,656	-0,117	-0,115
-545,539	800,000	-0,028	-0,062
-544,525	157,085	0,045	-0,045
-543,510	800,000	0,052	0,124
-542,496	342,045	-0,027	0,039
-541,481	-10,910	0,053	-0,025
-540,466	-126,682	0,150	0,016
-539,452	111,834	0,089	0,078
-538,437	800,000	0,032	0,075
-537,423	19,767	0,043	0,025
-536,408	800,000	0,026	0,061
-535,393	800,000	0,033	-0,084
-534,379	-44,008	0,132	-0,048
-533,364	-35,786	-0,047	0,019
-532,350	328,192	-0,086	0,122
-531,335	-200,000	0,004	0,182
-530,321	242,210	0,070	-0,086
-529,306	-200,000	0,042	-0,157
-528,291	-140,761	0,010	-0,001
-527,277	-200,000	-0,002	-0,144
-526,262	82,220	0,075	-0,059
-525,248	173,560	-0,082	-0,086
-524,233	-67,552	0,067	0,019
-523,218	800,000	0,026	0,060
-522,204	169,195	-0,009	-0,010
-521,189	238,833	-0,021	0,025
-520,175	766,265	-0,059	0,119
-519,160	109,357	0,003	-0,002
-518,145	-50,613	0,068	-0,023
-517,131	-55,916	0,071	-0,023
-516,116	-14,565	0,013	0,006
-515,102	87,105	-0,092	-0,074
-514,087	89,214	-0,072	-0,058
-513,072	-200,000	0,037	-0,132
-512,058	-8,593	-0,129	-0,063
-511,043	501,190	-0,035	-0,060
-510,029	-102,402	0,057	-0,010
-509,014	767,816	-0,022	0,043
-507,999	-200,000	0,007	0,038
-506,985	133,239	-0,034	-0,032
-505,970	-51,029	0,181	-0,062
-504,956	-3,808	-0,094	-0,048
-503,941	690,772	0,059	-0,113
-502,926	800,000	-0,018	0,041
-501,912	800,000	-0,023	0,058
-500,897	-200,000	0,041	-0,152
-499,883	800,000	0,039	0,120
-498,868	406,843	0,044	0,068
-497,853	200,012	-0,028	-0,031
-496,839	21,675	0,052	0,031
-495,824	-163,574	0,089	0,003
-494,810	-200,000	-0,016	0,071
-493,795	-200,000	-0,000	-0,013
-492,781	167,796	0,122	-0,127
-491,766	361,264	-0,086	-0,126
-490,751	18,956	-0,040	-0,023
-489,737	-1,415	-0,075	-0,038
-488,722	454,980	0,019	0,031
-487,708	-59,601	0,067	0,021
-486,693	-78,043	-0,103	0,026
-485,678	59,768	-0,048	-0,034
-484,664	800,000	0,048	-0,105
-483,649	144,637	-0,091	-0,089
-482,635	-125,296	0,005	0,001
-481,620	-14,278	0,122	0,057
-480,605	-73,871	0,089	0,023
-479,591	21,879	0,126	0,075
-478,576	320,643	-0,017	0,024
-477,562	-112,190	0,040	-0,006
-476,547	-43,078	-0,070	-0,026
-475,532	595,092	-0,093	0,169
-474,518	-200,000	0,005	0,088
-473,503	800,000	0,024	0,051
-472,489	306,424	0,120	0,163
-471,474	326,757	0,031	-0,043
-470,459	280,755	-0,064	0,083
-469,445	256,182	-0,011	-0,014
-468,430	517,647	-0,063	0,108
-467,416	-72,921	0,100	-0,027
-466,401	800,000	0,028	0,076
-465,386	24,933	0,057	0,034
-464,372	601,134	0,037	0,068
-463,357	39,652	-0,129	0,084
-462,343	262,191	-0,095	-0,121
-461,328	396,478	-0,117	-0,178
-460,313	180,342	-0,010	-0,011
-459,299	35,426	-0,055	-0,035
-458,284	-200,000	0,040	-0,162
-457,270	-56,784	-0,031	-0,010
-456,255	-200,000	0,004	-0,014
-455,241	-200,000	-0,044	0,143
-454,226	39,110	-0,114	-0,074
-453,211	544,887	-0,051	-0,090
-452,197	-122,868	0,086	0,010
-451,182	-200,000	-0,000	0,106
-450,168	288,926	-0,028	-0,037
-449,153	-200,000	0,019	-0,070
-448,138	-193,124	-0,193	-0,001
-447,124	-60,419	0,008	0,003
-446,109	-200,000	0,017	-0,100
-445,095	-167,173	-0,019	-0,001
-444,080	77,449	0,096	0,074
-443,065	229,137	-0,075	0,089
-442,051	-138,010	0,050	0,004
-441,036	-200,000	0,018	-0,104
-440,022	800,000	0,046	-0,147
-439,007	-144,597	-0,113	-0,007
-437,992	143,823	0,047	-0,046
-436,978	-200,000	0,000	0,116
-435,963	12,282	-0,105	0,059
-434,949	57,686	0,133	0,095
-433,934	335,915	-0,073	-0,104
-432,919	-54,890	0,085	-0,028
-431,905	-36,384	-0,112	0,044
-430,890	800,000	0,019	0,052
-429,876	-200,000	0,025	0,092
-428,861	-196,056	-0,045	-0,000
-427,846	147,618	0,025	-0,025
-426,832	-62,822	0,058	0,017
-425,817	216,774	-0,110	-0,128
-424,803	443,101	-0,064	-0,103
-423,788	-39,485	0,065	0,025
-422,773	-98,282	0,103	-0,019
-421,759	172,460	-0,198	0,208
-420,744	-200,000	0,022	-0,109
-419,730	-158,525	-0,053	-0,002
-418,715	-72,299	-0,063	0,017
-417,701	101,617	-0,055	-0,047
-416,686	100,697	0,099	0,083
-415,671	-25,584	0,172	0,074
-414,657	135,067	0,080	0,076
-413,642	-62,639	-0,073	0,022
-412,628	-200,000	0,055	0,188
-411,613	43,486	-0,128	0,085
-410,598	95,579	0,077	-0,064
-409,584	-39,034	0,122	-0,047
-408,569	-111,904	0,094	-0,014
-407,555	-110,934	0,083	-0,012
-406,540	114,321	-0,048	-0,042
-405,525	93,108	0,046	-0,038
-404,511	26,098	0,027	0,016
-403,496	-1,685	0,045	0,023
-402,482	22,370	-0,026	0,016
-401,467	715,245	-0,036	0,070
-400,452	152,590	0,100	0,099
-399,438	-15,500	-0,146	-0,068
-398,423	-35,058	0,092	-0,036
-397,409	-200,000	0,003	-0,098
-396,394	800,000	0,015	-0,041
-395,379	-200,000	-0,001	-0,078
-394,365	201,781	0,101	0,114
-393,350	-200,000	-0,006	0,103
-392,336	-200,000	0,009	-0,139
-391,321	-186,378	-0,135	0,001
-390,306	87,094	0,020	-0,016
-389,292	-96,800	-0,062	-0,012
-388,277	-3,976	-0,092	0,046
-387,263	-200,000	0,015	-0,102
-386,248	70,890	0,010	-0,007
-385,233	749,643	-0,011	-0,022
-384,219	800,000	-0,046	0,113
-383,204	61,779	-0,102	-0,074
-382,190	692,987	0,012	0,023
-381,175	800,000	0,021	-0,059
-380,160	-133,372	0,050	-0,005
-379,146	-24,106	0,013	0,005
-378,131	-3,650	0,047	0,023
-377,117	25,214	-0,046	-0,028
-376,102	-200,000	-0,024	-0,118
-375,088	-200,000	-0,015	0,113
-374,073	-200,000	-0,039	0,156
-373,058	-200,000	0,015	0,117
-372,044	800,000	0,053	0,123
-371,029	366,903	0,043	0,063
-370,015	-150,604	-0,105	-0,006
-369,000	-179,445	-0,071	-0,001
-367,985	-129,611	-0,057	-0,006
-366,971	-200,000	0,027	-0,122
-365,956	44,225	0,024	0,016
-364,942	-200,000	-0,004	-0,028
-363,927	-88,503	0,077	0,017
-362,912	-51,265	-0,108	0,036
-361,898	166,606	0,053	-0,055
-360,883	136,049	0,069	0,065
-359,869	-59,537	-0,084	0,026
-358,854	-200,000	-0,011	0,082
-357,839	800,000	-0,011	0,033
-356,825	323,166	-0,057	0,079
-355,810	-50,727	-0,026	-0,009
-354,796	162,130	-0,041	0,042
-353,781	45,659	0,059	-0,040
-352,766	-94,648	0,133	0,026
-351,752	-200,000	-0,007	-0,073
-350,737	800,000	0,023	0,052
-349,723	-200,000	-0,006	0,075
-348,708	-200,000	0,002	-0,051
-347,693	116,956	0,022	-0,019
-346,679	-3,618	-0,083	-0,042
-345,664	-200,000	0,012	-0,091
-344,650	271,455	0,051	0,066
-343,635	192,950	0,030	0,033
-342,620	-200,000	0,005	0,016
-341,606	331,672	0,034	-0,048
-340,591	-200,000	-0,008	0,035
-339,577	-43,755	-0,167	-0,061
-338,562	-200,000	0,011	0,074
-337,548	-200,000	-0,016	0,052
-336,533	-200,000	0,028	0,150
-335,518	-6,651	0,140	-0,069
-334,504	-64,487	-0,073	0,021
-333,489	87,823	-0,081	0,065
-332,475	186,636	-0,018	-0,019
-331,460	-52,505	0,054	-0,018
-330,445	6,143	0,049	-0,026
-329,431	223,814	0,085	0,099
-328,416	378,349	0,069	-0,102
-327,402	189,258	-0,062	-0,067
-326,387	-102,476	-0,040	-0,007
-325,372	284,072	-0,027	0,036
-324,358	321,815	0,052	-0,072
-323,343	-200,000	0,018	-0,095
-322,329	800,000	-0,030	-0,061
-321,314	89,422	0,058	0,047
-320,299	211,573	0,059	-0,068
-319,285	30,493	-0,116	-0,072
-318,270	-200,000	0,003	0,039
-317,256	-52,539	-0,111	-0,037
-316,241	187,456	-0,014	0,016
-315,226	-149,464	-0,137	-0,008
-314,212	137,430	0,016	0,015
-313,197	105,200	-0,105	0,090
-312,183	-144,621	-0,072	0,005
-311,168	183,919	-0,019	-0,020
-310,153	-2,232	-0,097	0,049
-309,139	-148,380	-0,094	-0,006
-308,124	486,377	-0,019	0,031
-307,110	179,288	-0,114	-0,121
-306,095	-200,000	-0,000	-0,108
-305,080	241,995	0,098	-0,119
-304,066	555,695	0,042	0,073
-303,051	-200,000	-0,006	-0,074
-302,037	-19,666	-0,141	-0,063
-301,022	297,822	-0,071	0,095
-300,008	97,789	0,099	0,082
-298,993	-200,000	-0,034	0,224
-297,978	-11,994	0,058	0,028
-296,964	-51,222	-0,222	-0,075
-295,949	-200,000	0,009	0,104
-294,935	105,894	-0,007	0,006
-293,920	-46,211	-0,223	-0,079
-292,905	-200,000	0,020	0,085
-291,891	800,000	0,033	0,070
-290,876	800,000	-0,035	0,073
-289,862	-200,000	-0,020	0,104
-288,847	8,214	-0,053	-0,029
-287,832	475,483	-0,059	0,096
-286,818	800,000	-0,047	-0,119
-285,803	53,932	-0,070	0,049
-284,789	-15,334	0,077	0,035
-283,774	-133,669	-0,061	-0,005
-282,759	56,852	-0,087	-0,061
-281,745	-94,352	0,036	0,007
-280,730	800,000	0,067	-0,159
-279,716	-66,142	-0,114	0,033
-278,701	433,251	0,120	0,189
-277,686	-145,993	-0,103	-0,007
-276,672	93,840	0,069	0,057
-275,657	-200,000	-0,007	0,075
-274,643	-15,039	0,048	-0,022
-273,628	-165,479	-0,140	-0,004
-272,613	-200,000	-0,001	0,050
-271,599	800,000	-0,018	-0,055
-270,584	517,612	0,036	0,062
-269,570	-200,000	-0,016	-0,134
-268,555	-146,499	-0,056	-0,003
-267,540	-200,000	-0,034	-0,193
-266,526	-200,000	-0,032	-0,165
-265,511	-200,000	0,023	-0,076
-264,497	0,421	0,098	0,051
-263,482	-200,000	0,009	0,050
-262,467	-154,276	0,155	0,007
-261,453	89,723	0,018	0,015
-260,438	-200,000	-0,031	-0,140
-259,424	800,000	0,131	-0,266
-258,409	179,403	-0,135	0,143
-257,395	-200,000	0,001	0,012
-256,380	-126,256	0,090	0,010
-255,365	-91,429	-0,059	0,012
-254,351	-32,635	0,097	0,039
-253,336	-117,142	-0,025	0,003
-252,322	58,658	-0,090	-0,064
-251,307	800,000	-0,047	0,119
-250,292	187,815	-0,063	-0,068
-249,278	-200,000	0,007	0,072
-248,263	-100,983	0,114	0,020
-247,249	631,661	-0,070	0,129
-246,234	444,959	0,081	0,129
-245,219	589,568	-0,075	-0,135
-244,205	73,327	-0,040	0,030
-243,190	246,466	0,103	0,126
-242,176	311,766	0,031	-0,042
-241,161	7,859	-0,103	-0,055
-240,146	-122,331	-0,064	0,007
-239,132	800,000	-0,021	-0,049
-238,117	800,000	0,042	0,084
-237,103	-10,072	-0,137	0,066
-236,088	800,000	-0,040	-0,093
-235,073	-200,000	0,076	0,000
-234,059	-200,000	0,001	0,053
-233,044	119,257	0,059	-0,052
-232,030	-68,086	-0,134	-0,037
-231,015	488,692	0,083	0,137
-230,000	-200,000	0,010	-0,077
-228,986	273,859	0,018	0,023
-227,971	-200,000	-0,016	0,095
-226,957	-77,771	0,110	0,027
-225,942	-200,000	0,017	-0,093
-224,927	-200,000	0,019	0,000
-223,913	370,919	-0,073	-0,108
-222,898	545,379	0,003	-0,005
-221,884	800,000	0,045	-0,098
-220,869	-98,760	0,146	0,027
-219,855	13,248	-0,129	-0,072
-218,840	-200,000	-0,049	0,156
-217,825	-19,757	0,066	0,029
-216,811	-32,978	-0,087	0,035
-215,796	57,641	-0,041	-0,029
-214,782	-110,769	0,137	0,020
-213,767	-200,000	-0,028	0,106
-212,752	-200,000	-0,007	-0,029
-211,738	344,399	0,087	0,123
-210,723	199,790	-0,035	0,038
-209,709	-120,867	0,052	-0,006
-208,694	-200,000	-0,030	-0,112
-207,679	-78,754	0,048	-0,012
-206,665	131,501	-0,080	0,074
-205,650	453,127	-0,027	0,044
-204,636	-200,000	-0,052	0,173
-203,621	374,713	-0,026	0,039
-202,606	109,211	0,097	-0,084
-201,592	800,000	-0,058	-0,119
-200,577	503,385	-0,061	-0,103
-199,563	297,143	-0,077	0,102
-198,548	800,000	0,021	-0,045
-197,533	-94,891	0,191	0,037
-196,519	-125,972	0,082	0,009
-195,504	305,034	-0,089	-0,119
-194,490	800,000	-0,031	-0,097
-193,475	-200,000	-0,018	0,068
-192,460	-200,000	0,024	-0,145
-191,446	-119,415	0,195	-0,024
-190,431	66,391	-0,052	0,038
-189,417	-40,676	0,077	-0,029
-188,402	60,214	-0,116	-0,083
-187,387	-142,087	0,061	-0,004
-186,373	33,030	0,062	-0,039
-185,358	44,416	-0,083	0,055
-184,344	-23,240	0,138	0,060
-183,329	-200,000	0,007	0,040
-182,315	-152,136	0,116	-0,006
-181,300	-200,000	0,020	-0,071
-180,285	171,503	0,079	-0,082
-179,271	-94,449	0,060	0,012
-178,256	303,833	0,055	0,074
-177,242	69,629	-0,054	0,040
-176,227	3,031	0,122	0,064
-175,212	334,742	0,037	-0,052
-174,198	588,229	-0,065	-0,115
-173,183	800,000	0,012	-0,028
-172,169	153,631	-0,037	0,036
-171,154	800,000	-0,039	-0,117
-170,139	-200,000	0,013	0,129
-169,125	391,075	-0,091	0,136
-168,110	192,318	0,088	-0,096
-167,096	-122,017	-0,061	0,007
-166,081	678,446	0,090	-0,170
-165,066	-91,782	0,088	-0,018
-164,052	-200,000	0,034	-0,126
-163,037	117,971	0,094	-0,083
-162,023	342,377	-0,039	0,055
-161,008	-87,926	-0,093	0,020
-159,993	800,000	-0,005	0,011
-158,979	505,594	-0,003	-0,005
-157,964	-200,000	-0,006	0,042
-156,950	800,000	-0,040	-0,111
-155,935	-200,000	0,010	0,051
-154,920	-200,000	0,005	0,040
-153,906	-200,000	0,023	0,084
-152,891	88,489	-0,050	0,040
-151,877	307,776	0,109	-0,147
-150,862	-167,931	0,117	0,003
-149,847	800,000	-0,015	-0,037
-148,833	-100,902	0,104	-0,018
-147,818	257,936	-0,080	0,100
-146,804	-117,022	0,158	0,021
-145,789	76,303	-0,135	0,103
-144,775	55,516	-0,049	0,034
-143,760	-53,963	-0,067	0,022
-142,745	-103,643	-0,146	0,025
-141,731	133,260	-0,127	0,118
-140,716	261,848	0,127	-0,159
-139,702	-41,616	0,059	-0,022
-138,687	-200,000	-0,017	-0,191
-137,672	651,378	-0,032	-0,059
-136,658	-200,000	-0,005	-0,078
-135,643	106,403	0,030	-0,025
-134,629	-200,000	-0,022	-0,090
-133,614	-200,000	-0,004	0,051
-132,599	-104,224	0,117	0,019
-131,585	-146,615	0,027	-0,002
-130,570	618,213	-0,060	-0,109
-129,556	-200,000	-0,020	-0,160
-128,541	-200,000	-0,013	-0,114
-127,526	-140,394	-0,076	-0,006
-126,512	-27,198	0,088	-0,037
-125,497	314,313	-0,053	-0,073
-124,483	-200,000	0,007	0,040
-123,468	40,795	0,051	0,033
-122,453	98,601	-0,067	0,055
-121,439	-200,000	0,011	0,141
-120,424	46,738	-0,069	-0,046
-119,410	-200,000	0,003	0,070
