DTS Sentinel unit serial number:	SN410029Multiplexer serial number:	ORYXHardware model number:	OX2-SRSoftware version number:	ORYX F/W v4,00 Oryx Data Collector v3.7.2.0data status	okinstallation	B5 Nyhavnadifferential loss correction	single-endedforward channel	channel 2reverse channel	N/Adate	2023/12/14time	16:27:13forward acquisition time	300,00reverse acquisition time	0,00gamma	499,1914k internal	0,3158k external	0,3158temperature offset calibration	1,0000default loss term (dB/km)	0,3820temperature slope calibration	1,0000multiplexer offset coefficient	1,0000multiplexer slope coefficient	1,0000fibre end	0,00T internal ref (°C)	8,00T ext. ref 1 (°C)	-7,52T ext. ref 2 (°C)	-7,56length (m)	temperature (°C)	Stokes	anti-Stokes-744,400	284,026	0,084	0,112
-743,385	-160,434	-0,475	-0,018
-742,371	800,000	0,087	0,218
-741,356	-124,873	-0,294	-0,033
-740,342	-139,554	0,265	0,021
-739,327	-73,113	-0,418	-0,112
-738,312	10,230	0,132	0,074
-737,298	-6,592	-0,297	-0,148
-736,283	-200,000	0,042	0,173
-735,269	-95,341	-0,341	-0,067
-734,254	46,025	0,203	0,138
-733,239	9,784	-0,519	-0,289
-732,225	141,278	0,295	0,288
-731,210	-200,000	-0,010	0,058
-730,196	-200,000	-0,009	-0,052
-729,181	41,593	-0,048	0,032
-728,167	-110,830	-0,107	-0,016
-727,152	-32,145	-0,048	-0,020
-726,137	800,000	-0,022	-0,068
-725,123	63,837	-0,094	-0,070
-724,108	-200,000	-0,022	-0,143
-723,094	-23,974	-0,097	-0,042
-722,079	-133,799	-0,101	0,009
-721,064	80,688	-0,085	0,067
-720,050	-113,574	-0,104	0,015
-719,035	800,000	-0,022	0,073
-718,021	184,284	-0,058	-0,064
-717,006	-165,498	-0,030	-0,001
-715,991	-149,767	-0,181	0,010
-714,977	-200,000	-0,020	-0,097
-713,962	144,363	0,064	0,063
-712,948	-60,599	0,140	-0,043
-711,933	-86,334	0,075	-0,017
-710,918	287,003	-0,064	-0,086
-709,904	-130,426	-0,071	-0,007
-708,889	-95,518	-0,095	0,019
-707,875	187,899	-0,069	0,076
-706,860	-84,385	0,029	-0,007
-705,845	531,929	0,006	0,011
-704,831	-200,000	0,001	-0,082
-703,816	4,622	0,110	0,059
-702,802	-200,000	0,010	-0,058
-701,787	-165,633	-0,160	-0,005
-700,772	-200,000	-0,003	0,022
-699,758	724,512	-0,030	-0,058
-698,743	460,336	-0,034	0,057
-697,729	71,071	-0,023	-0,018
-696,714	-200,000	0,015	0,102
-695,699	-200,000	-0,014	0,162
-694,685	-64,260	-0,060	0,018
-693,670	116,561	-0,049	-0,044
-692,656	-162,734	0,066	-0,002
-691,641	800,000	-0,044	-0,093
-690,627	371,404	-0,067	0,100
-689,612	-39,943	-0,087	0,033
-688,597	-200,000	-0,013	0,073
-687,583	-51,157	-0,117	0,040
-686,568	-151,675	0,162	-0,009
-685,554	-200,000	0,017	-0,127
-684,539	-12,513	-0,094	0,045
-683,524	-67,435	0,138	0,039
-682,510	-47,157	0,084	-0,030
-681,495	321,349	0,056	0,078
-680,481	-43,755	-0,061	-0,023
-679,466	-103,609	0,106	0,018
-678,451	-90,022	0,036	-0,008
-677,437	-169,397	0,010	-0,000
-676,422	465,390	0,003	0,005
-675,408	-83,776	-0,047	-0,011
-674,393	369,759	-0,110	-0,164
-673,378	-3,583	-0,091	-0,046
-672,364	-15,944	0,118	0,055
-671,349	800,000	-0,040	-0,099
-670,335	-59,552	-0,114	0,036
-669,320	34,460	0,064	0,041
-668,305	800,000	0,031	0,069
-667,291	96,788	0,133	-0,112
-666,276	-1,582	-0,119	0,062
-665,262	-200,000	-0,038	0,183
-664,247	-24,413	-0,109	-0,047
-663,232	-120,828	0,057	-0,007
-662,218	-49,992	-0,101	-0,035
-661,203	392,974	0,062	0,094
-660,189	-47,148	-0,156	-0,056
-659,174	134,102	0,036	0,034
-658,159	133,060	0,055	0,052
-657,145	-200,000	-0,008	-0,028
-656,130	-200,000	0,009	-0,072
-655,116	-47,474	0,083	-0,029
-654,101	-64,604	0,109	0,032
-653,086	-19,543	-0,135	0,061
-652,072	-200,000	0,003	-0,060
-651,057	96,820	-0,037	-0,031
-650,043	-200,000	-0,015	-0,090
-649,028	214,883	0,075	-0,087
-648,014	800,000	0,017	0,051
-646,999	-54,530	-0,054	0,018
-645,984	-200,000	0,008	0,033
-644,970	-200,000	0,001	-0,061
-643,955	43,781	0,045	-0,030
-642,941	24,570	-0,075	-0,045
-641,926	234,598	-0,072	-0,087
-640,911	34,221	-0,182	0,116
-639,897	-177,723	0,048	-0,001
-638,882	53,296	-0,058	-0,041
-637,868	800,000	0,004	-0,010
-636,853	-93,654	0,095	-0,019
-635,838	-54,545	-0,134	-0,044
-634,824	36,659	-0,113	-0,073
-633,809	-200,000	0,011	-0,046
-632,795	18,432	0,066	-0,038
-631,780	-28,120	-0,080	0,034
-630,765	613,771	-0,078	-0,144
-629,751	54,564	-0,113	-0,080
-628,736	-52,893	-0,061	-0,020
-627,722	125,975	0,045	-0,042
-626,707	-143,642	0,164	0,011
-625,692	-200,000	0,014	0,202
-624,678	317,939	-0,028	0,039
-623,663	-200,000	0,010	0,109
-622,649	305,911	-0,064	0,087
-621,634	800,000	-0,008	-0,024
-620,619	-136,494	-0,121	-0,010
-619,605	42,524	0,107	0,072
-618,590	101,775	-0,005	-0,005
-617,576	381,102	-0,015	-0,023
-616,561	800,000	0,051	0,109
-615,546	-200,000	-0,017	0,096
-614,532	718,803	-0,052	0,101
-613,517	-200,000	0,016	-0,063
-612,503	-200,000	0,033	-0,154
-611,488	800,000	0,025	0,059
-610,474	-200,000	0,008	0,051
-609,459	-200,000	0,022	0,120
-608,444	166,378	-0,066	-0,069
-607,430	723,396	-0,102	-0,200
-606,415	19,220	-0,073	-0,043
-605,401	-143,695	-0,041	-0,003
-604,386	22,896	0,062	0,037
-603,371	524,716	-0,038	0,066
-602,357	-172,617	0,150	-0,003
-601,342	309,432	-0,060	0,082
-600,328	58,057	0,032	-0,023
-599,313	-200,000	-0,030	0,138
-598,298	142,802	-0,134	-0,131
-597,284	171,340	-0,077	-0,081
-596,269	-200,000	0,013	0,050
-595,255	-80,251	0,108	-0,026
-594,240	649,921	-0,058	-0,109
-593,225	-6,177	-0,129	-0,065
-592,211	-93,775	-0,051	-0,010
-591,196	-122,883	-0,095	0,011
-590,182	-17,101	0,026	0,012
-589,167	-200,000	0,005	-0,141
-588,152	410,549	0,013	0,021
-587,138	-116,512	-0,148	-0,020
-586,123	-200,000	0,010	-0,096
-585,109	139,571	0,034	-0,033
-584,094	63,418	0,047	0,034
-583,079	-105,115	0,073	0,012
-582,065	-200,000	-0,028	0,122
-581,050	349,965	-0,047	-0,069
-580,036	150,036	0,032	0,031
-579,021	-38,185	-0,102	-0,039
-578,006	-11,278	-0,086	0,041
-576,992	-200,000	-0,015	-0,194
-575,977	150,804	0,019	0,019
-574,963	-7,096	-0,066	0,033
-573,948	-94,121	-0,012	-0,002
-572,934	146,370	0,010	0,010
-571,919	30,814	-0,092	0,058
-570,904	476,842	0,084	0,140
-569,890	-83,879	0,025	0,006
-568,875	11,178	-0,003	-0,002
-567,861	-200,000	0,008	0,137
-566,846	-129,185	0,096	0,010
-565,831	25,289	0,070	-0,042
-564,817	365,277	-0,054	-0,081
-563,802	3,798	0,191	0,102
-562,788	-126,615	0,057	0,006
-561,773	-200,000	-0,010	0,136
-560,758	207,880	0,044	-0,050
-559,744	-82,993	0,092	0,021
-558,729	-21,366	-0,059	-0,026
-557,715	262,038	-0,014	0,018
-556,700	-200,000	0,032	-0,108
-555,685	135,816	-0,061	-0,058
-554,671	-23,486	0,081	-0,035
-553,656	-54,503	0,046	-0,015
-552,642	-15,130	-0,053	-0,025
-551,627	320,425	0,092	0,128
-550,612	-39,196	0,107	-0,041
-549,598	246,062	-0,096	0,119
-548,583	-88,854	-0,152	-0,033
-547,569	-64,104	0,067	0,020
-546,554	24,816	-0,073	0,044
-545,539	227,868	-0,016	-0,019
-544,525	82,598	-0,043	-0,034
-543,510	199,928	-0,034	-0,039
-542,496	-200,000	-0,032	-0,135
-541,481	188,252	0,080	-0,088
-540,466	25,221	-0,128	-0,078
-539,452	90,741	0,089	-0,073
-538,437	31,386	-0,041	0,025
-537,423	686,971	-0,020	-0,039
-536,408	-200,000	0,017	-0,062
-535,393	800,000	0,014	0,031
-534,379	-200,000	-0,006	-0,108
-533,364	222,432	0,104	-0,122
-532,350	204,589	-0,045	0,051
-531,335	-93,053	0,100	-0,020
-530,321	415,615	-0,030	0,047
-529,306	36,835	0,029	-0,018
-528,291	298,776	-0,067	-0,090
-527,277	463,716	-0,040	-0,066
-526,262	-200,000	0,009	0,032
-525,248	167,321	-0,076	-0,079
-524,233	800,000	-0,020	-0,044
-523,218	800,000	-0,035	0,097
-522,204	-86,561	0,044	-0,010
-521,189	800,000	0,049	-0,105
-520,175	-41,846	-0,135	-0,050
-519,160	800,000	-0,050	0,130
-518,145	-115,938	0,048	0,007
-517,131	-200,000	0,019	0,144
-516,116	7,377	0,029	0,016
-515,102	221,541	0,025	-0,029
-514,087	83,777	0,019	0,015
-513,072	-200,000	0,017	-0,132
-512,058	184,385	-0,071	-0,076
-511,043	40,886	-0,018	-0,012
-510,029	104,688	0,143	0,123
-509,014	10,423	0,078	-0,043
-507,999	284,648	-0,093	-0,123
-506,985	-200,000	-0,002	-0,063
-505,970	114,914	-0,090	-0,080
-504,956	434,549	0,101	0,161
-503,941	800,000	0,031	-0,096
-502,926	-200,000	-0,005	-0,101
-501,912	-144,551	0,126	-0,008
-500,897	-103,905	-0,089	-0,015
-499,883	209,514	-0,022	0,025
-498,868	-99,555	-0,139	0,025
-497,853	-80,850	-0,128	0,031
-496,839	4,035	-0,175	0,093
-495,824	-200,000	0,009	0,031
-494,810	50,743	0,040	0,028
-493,795	25,676	-0,084	0,051
-492,781	129,034	0,061	-0,057
-491,766	494,499	-0,022	0,037
-490,751	-23,600	-0,096	-0,042
-489,737	235,294	0,128	0,154
-488,722	542,654	0,109	0,190
-487,708	800,000	0,027	-0,079
-486,693	800,000	-0,033	-0,073
-485,678	38,838	-0,051	0,033
-484,664	-92,329	-0,136	0,028
-483,649	-30,899	0,046	-0,019
-482,635	-35,438	-0,101	-0,040
-481,620	-200,000	0,157	0,000
-480,605	-200,000	0,044	0,180
-479,591	320,208	-0,046	0,064
-478,576	293,922	-0,022	0,030
-477,562	225,230	-0,026	0,031
-476,547	-176,242	-0,009	0,000
-475,532	219,634	-0,052	0,060
-474,518	-200,000	0,029	-0,128
-473,503	-28,228	-0,076	0,032
-472,489	-200,000	0,034	0,124
-471,474	-50,441	0,058	-0,020
-470,459	121,443	0,034	-0,031
-469,445	800,000	0,032	0,088
-468,430	645,041	-0,013	-0,025
-467,416	-200,000	-0,001	-0,059
-466,401	-67,399	-0,103	0,029
-465,386	-116,110	0,134	-0,018
-464,372	27,622	-0,053	0,032
-463,357	800,000	-0,034	-0,074
-462,343	296,459	-0,083	-0,112
-461,328	197,038	-0,087	0,097
-460,313	416,651	0,045	-0,070
-459,299	-200,000	-0,008	-0,087
-458,284	-51,402	0,020	-0,007
-457,270	176,863	0,072	-0,076
-456,255	65,121	-0,171	0,126
-455,241	321,547	0,014	0,020
-454,226	-105,855	0,008	-0,001
-453,211	800,000	-0,046	0,124
-452,197	-76,523	-0,101	0,026
-451,182	256,329	-0,044	-0,055
-450,168	92,755	0,076	0,062
-449,153	800,000	-0,027	0,084
-448,138	-200,000	-0,013	-0,094
-447,124	105,023	-0,063	-0,055
-446,109	-200,000	0,003	0,151
-445,095	25,134	0,173	-0,104
-444,080	295,474	-0,077	0,103
-443,065	520,292	0,095	0,163
-442,051	800,000	-0,039	-0,109
-441,036	-52,446	-0,051	0,017
-440,022	70,679	-0,029	-0,022
-439,007	398,755	-0,018	-0,027
-437,992	409,200	-0,038	-0,059
-436,978	119,386	0,161	0,145
-435,963	-200,000	0,015	0,115
-434,949	-155,833	0,051	-0,002
-433,934	11,577	-0,096	0,053
-432,919	-92,886	-0,154	0,031
-431,905	-18,129	0,155	-0,070
-430,890	188,444	0,041	0,045
-429,876	279,605	-0,057	0,074
-428,861	40,923	0,071	0,047
-427,846	40,501	0,137	0,090
-426,832	245,553	0,069	-0,085
-425,817	-200,000	-0,002	-0,117
-424,803	-40,615	-0,098	0,037
-423,788	-102,036	0,083	0,014
-422,773	220,127	-0,095	0,111
-421,759	442,186	0,065	-0,104
-420,744	347,241	-0,046	-0,066
-419,730	-120,853	-0,094	-0,011
-418,715	119,137	-0,121	0,109
-417,701	-200,000	0,000	-0,095
-416,686	-118,902	0,102	0,013
-415,671	399,721	0,032	-0,049
-414,657	800,000	-0,055	0,116
-413,642	-200,000	-0,010	0,097
-412,628	800,000	-0,039	0,102
-411,613	613,701	0,053	0,096
-410,598	-200,000	0,003	0,040
-409,584	800,000	-0,011	-0,026
-408,569	19,229	0,125	-0,073
-407,555	-37,905	0,050	-0,019
-406,540	-98,977	-0,048	0,009
-405,525	20,145	0,143	-0,084
-404,511	354,453	-0,022	0,032
-403,496	800,000	-0,048	-0,110
-402,482	800,000	0,022	-0,069
-401,467	155,412	-0,040	0,041
-400,452	61,719	-0,018	0,013
-399,438	85,850	-0,065	0,052
-398,423	144,994	0,105	-0,103
-397,409	171,196	-0,097	-0,101
-396,394	-103,478	0,071	-0,012
-395,379	-200,000	-0,001	0,095
-394,365	299,791	0,076	0,102
-393,350	491,825	0,017	0,029
-392,336	800,000	0,017	-0,036
-391,321	63,761	0,057	-0,042
-390,306	20,944	-0,085	-0,050
-389,292	-131,938	0,113	0,011
-388,277	164,868	0,135	-0,139
-387,263	800,000	0,006	-0,015
-386,248	800,000	0,045	-0,122
-385,233	-200,000	0,009	-0,137
-384,219	509,065	0,009	-0,016
-383,204	1,751	-0,127	0,066
-382,190	88,298	-0,075	-0,061
-381,175	52,373	0,151	0,104
-380,160	285,656	0,073	-0,095
-379,146	-166,625	0,096	-0,003
-378,131	800,000	0,056	0,150
-377,117	179,400	-0,086	0,092
-376,102	14,974	-0,072	-0,041
-375,088	800,000	0,088	-0,212
-374,073	112,927	0,098	-0,086
-373,058	-200,000	-0,013	-0,086
-372,044	-80,566	-0,059	0,014
-371,029	6,984	0,022	-0,012
-370,015	-200,000	-0,012	-0,053
-369,000	-20,702	-0,070	-0,031
-367,985	26,591	-0,088	-0,054
-366,971	800,000	0,017	0,045
-365,956	-118,882	0,110	-0,014
-364,942	-79,044	-0,071	-0,017
-363,927	-57,327	0,034	0,011
-362,912	-200,000	-0,119	-0,000
-361,898	583,597	-0,061	0,109
-360,883	-200,000	0,010	-0,080
-359,869	1,647	0,113	-0,059
-358,854	-200,000	-0,010	-0,072
-357,839	21,136	-0,102	-0,060
-356,825	-200,000	-0,054	0,000
-355,810	675,418	-0,019	0,035
-354,796	-200,000	0,004	-0,026
-353,781	-65,229	-0,034	-0,010
-352,766	783,893	0,003	-0,006
-351,752	800,000	-0,014	0,029
-350,737	-59,385	0,122	-0,038
-349,723	15,360	-0,124	0,070
-348,708	-200,000	-0,014	-0,081
-347,693	97,692	0,073	0,061
-346,679	12,697	0,014	0,008
-345,664	366,149	-0,047	-0,070
-344,650	-200,000	0,001	0,013
-343,635	-68,196	0,105	-0,030
-342,620	-200,000	-0,047	0,176
-341,606	-12,278	0,120	0,057
-340,591	-200,000	0,003	0,093
-339,577	485,482	0,038	-0,063
-338,562	539,931	-0,059	-0,102
-337,548	-200,000	0,002	0,106
-336,533	-55,509	0,057	-0,018
-335,518	472,693	-0,048	-0,079
-334,504	-27,042	0,012	0,005
-333,489	800,000	0,053	-0,120
-332,475	154,144	-0,059	0,059
-331,460	-125,062	-0,024	0,003
-330,445	-200,000	0,001	0,034
-329,431	-7,453	0,118	-0,058
-328,416	-200,000	0,015	0,194
-327,402	-178,273	0,070	-0,001
-326,387	712,871	0,034	-0,066
-325,372	-154,991	0,079	0,004
-324,358	181,526	0,032	-0,034
-323,343	114,559	-0,057	-0,050
-322,329	-118,377	-0,094	0,012
-321,314	0,107	0,112	0,058
-320,299	800,000	-0,044	0,095
-319,285	340,204	-0,034	0,048
-318,270	301,229	-0,126	-0,169
-317,256	-6,359	0,078	0,039
-316,241	-200,000	0,031	-0,116
-315,226	-130,099	-0,041	0,004
-314,212	-6,211	-0,040	-0,020
-313,197	800,000	0,028	-0,067
-312,183	242,887	-0,046	0,056
-311,168	-36,869	0,028	-0,011
-310,153	131,848	-0,075	0,070
-309,139	-161,984	-0,219	-0,008
-308,124	-45,021	0,040	0,014
-307,110	64,614	0,145	0,106
-306,095	-144,893	-0,090	-0,006
-305,080	-200,000	0,004	0,025
-304,066	-200,000	0,025	-0,101
-303,051	-200,000	0,006	0,022
-302,037	-200,000	0,016	-0,069
-301,022	36,831	-0,118	0,075
-300,008	10,512	0,089	0,049
-298,993	800,000	-0,038	-0,093
-297,978	800,000	-0,008	0,020
-296,964	-200,000	-0,001	0,060
-295,949	-3,405	-0,027	0,014
-294,935	-18,524	0,050	-0,023
-293,920	132,165	0,110	0,102
-292,905	800,000	0,035	-0,075
-291,891	-200,000	-0,003	-0,202
-290,876	-24,808	-0,052	-0,022
-289,862	-125,576	0,053	0,006
-288,847	-131,623	-0,043	0,004
-287,832	-72,117	0,090	-0,024
-286,818	-200,000	0,012	-0,091
-285,803	-34,521	-0,018	-0,007
-284,789	438,556	0,072	0,114
-283,774	-124,530	-0,046	0,005
-282,759	373,766	-0,025	0,037
-281,745	-200,000	-0,002	-0,071
-280,730	142,436	0,133	-0,128
-279,716	644,214	0,032	0,059
-278,701	-148,396	0,067	0,004
-277,686	142,179	0,063	0,060
-276,672	800,000	0,088	0,210
-275,657	-121,915	0,131	0,015
-274,643	800,000	-0,066	0,158
-273,628	-70,553	0,037	-0,010
-272,613	23,842	0,072	0,043
-271,599	-125,057	0,048	0,005
-270,584	664,118	0,026	0,050
-269,570	26,253	-0,031	0,018
-268,555	-122,470	0,115	-0,013
-267,540	95,639	-0,109	-0,090
-266,526	-200,000	0,002	-0,110
-265,511	-200,000	-0,016	-0,183
-264,497	800,000	-0,059	0,170
-263,482	-19,206	0,117	0,052
-262,467	-200,000	0,009	0,107
-261,453	58,810	-0,044	0,031
-260,438	-200,000	-0,004	0,013
-259,424	225,273	-0,060	0,070
-258,409	-155,556	0,044	-0,002
-257,395	-200,000	-0,013	0,141
-256,380	14,202	0,036	-0,020
-255,365	-15,366	0,118	-0,054
-254,351	-200,000	-0,003	0,027
-253,336	-200,000	0,022	0,156
-252,322	-1,547	0,024	0,012
-251,307	-42,652	0,090	0,033
-250,292	800,000	0,038	0,078
-249,278	-0,835	-0,104	0,053
-248,263	-157,454	0,055	-0,002
-247,249	-132,637	-0,095	0,009
-246,234	-63,870	-0,100	0,029
-245,219	-66,089	-0,028	0,008
-244,205	800,000	-0,035	0,080
-243,190	40,165	0,091	-0,059
-242,176	197,141	-0,091	-0,100
-241,161	21,951	0,090	0,053
-240,146	-200,000	0,014	0,117
-239,132	183,877	-0,070	0,075
-238,117	-200,000	-0,006	-0,177
-237,103	-106,019	-0,124	-0,020
-236,088	399,110	0,078	-0,119
-235,073	450,836	-0,040	0,064
-234,059	-200,000	0,003	-0,017
-233,044	-71,678	-0,083	-0,022
-232,030	158,028	0,126	-0,127
-231,015	-57,269	-0,115	-0,036
-230,000	-72,165	-0,066	0,018
-228,986	-200,000	-0,000	0,014
-227,971	101,384	-0,039	-0,033
-226,957	-76,897	0,098	-0,025
-225,942	-200,000	-0,011	-0,091
-224,927	-86,843	0,123	-0,027
-223,913	800,000	-0,031	-0,063
-222,898	-141,771	0,058	0,004
-221,884	800,000	0,059	0,148
-220,869	-120,765	0,020	0,002
-219,855	19,073	0,114	0,066
-218,840	800,000	0,035	0,108
-217,825	-146,652	-0,144	0,009
-216,811	-200,000	-0,026	0,082
-215,796	800,000	-0,041	0,105
-214,782	144,244	0,054	-0,052
-213,767	15,146	0,039	-0,022
-212,752	-200,000	0,031	0,146
-211,738	15,110	-0,099	0,056
-210,723	-200,000	-0,010	-0,067
-209,709	-106,145	0,018	-0,003
-208,694	-152,286	0,058	-0,003
-207,679	-79,228	0,091	-0,022
-206,665	123,163	-0,093	-0,084
-205,650	-200,000	-0,011	0,100
-204,636	-71,842	-0,118	0,032
-203,621	800,000	0,035	-0,070
-202,606	164,116	0,056	-0,057
-201,592	128,521	-0,031	0,028
-200,577	800,000	-0,023	-0,053
-199,563	114,570	0,114	0,100
-198,548	203,232	0,082	-0,092
-197,533	-27,515	0,022	-0,009
-196,519	419,129	-0,013	0,020
-195,504	255,771	-0,057	0,070
-194,490	-166,051	-0,041	0,001
-193,475	-14,159	-0,118	0,055
-192,460	-108,477	0,111	-0,017
-191,446	92,511	-0,053	-0,043
-190,431	-200,000	0,019	0,085
-189,417	-200,000	-0,017	0,120
-188,402	753,127	-0,102	-0,199
-187,387	475,677	0,102	-0,167
-186,373	249,572	-0,026	-0,031
-185,358	-200,000	-0,058	0,241
-184,344	89,822	0,057	-0,046
-183,329	342,406	0,037	-0,052
-182,315	27,003	-0,086	0,052
-181,300	-200,000	-0,003	0,043
-180,285	-2,119	-0,158	-0,080
-179,271	392,721	0,096	-0,144
-178,256	-55,537	0,059	-0,019
-177,242	800,000	0,032	-0,089
-176,227	-6,559	0,206	0,101
-175,212	325,682	0,025	0,034
-174,198	157,691	-0,036	0,036
-173,183	10,826	-0,178	-0,098
-172,169	-53,362	0,059	-0,019
-171,154	227,091	-0,108	-0,127
-170,139	800,000	0,022	-0,057
-169,125	90,118	-0,084	0,068
-168,110	170,414	0,050	-0,052
-167,096	-105,125	0,098	-0,016
-166,081	-200,000	-0,007	0,064
-165,066	-200,000	-0,015	-0,105
-164,052	-200,000	-0,016	-0,053
-163,037	38,482	-0,062	0,040
-162,023	-78,203	0,052	0,013
-161,008	-66,178	-0,126	0,036
-159,993	416,834	0,089	0,137
-158,979	-34,148	0,025	-0,010
-157,964	-91,396	0,035	0,007
-156,950	-12,138	0,002	0,001
-155,935	471,012	-0,021	0,034
-154,920	-139,687	0,150	-0,011
-153,906	-98,326	0,096	0,018
-152,891	800,000	0,052	0,127
-151,877	-53,634	-0,134	-0,044
-150,862	-93,883	0,151	-0,030
-149,847	5,208	0,110	-0,058
-148,833	455,165	-0,026	-0,041
-147,818	-160,703	0,048	0,002
-146,804	54,891	-0,118	-0,082
-145,789	-93,895	0,112	-0,022
-144,775	69,176	0,043	-0,032
-143,760	47,392	-0,117	-0,078
-142,745	676,061	-0,018	-0,035
-141,731	-27,533	0,106	-0,044
-140,716	-200,000	-0,026	0,091
-139,702	-4,943	0,144	0,071
-138,687	508,660	-0,031	0,053
-137,672	800,000	-0,024	-0,060
-136,658	-200,000	0,015	-0,070
-135,643	301,888	-0,045	-0,061
-134,629	800,000	-0,024	-0,054
-133,614	-200,000	-0,019	-0,076
-132,599	-200,000	0,007	-0,033
-131,585	800,000	0,011	-0,025
-130,570	281,344	-0,049	-0,063
-129,556	-36,082	0,005	-0,002
-128,541	-23,828	0,108	-0,046
-127,526	800,000	0,067	-0,201
-126,512	114,261	-0,085	0,075
-125,497	513,746	-0,023	0,039
-124,483	123,748	-0,080	-0,072
-123,468	575,831	-0,084	0,147
-122,453	-200,000	0,006	0,056
-121,439	262,614	0,092	-0,116
-120,424	800,000	-0,068	0,188
-119,410	-70,939	0,127	0,034
