DTS Sentinel unit serial number:	SN410029Multiplexer serial number:	ORYXHardware model number:	OX2-SRSoftware version number:	ORYX F/W v4,00 Oryx Data Collector v3.7.2.0data status	okinstallation	B5 Nyhavnadifferential loss correction	single-endedforward channel	channel 2reverse channel	N/Adate	2023/12/13time	13:07:13forward acquisition time	300,00reverse acquisition time	0,00gamma	499,1914k internal	0,3161k external	0,3161temperature offset calibration	1,0000default loss term (dB/km)	0,3820temperature slope calibration	1,0000multiplexer offset coefficient	1,0000multiplexer slope coefficient	1,0000fibre end	0,00T internal ref (°C)	14,41T ext. ref 1 (°C)	-1,38T ext. ref 2 (°C)	-1,65length (m)	temperature (°C)	Stokes	anti-Stokes-744,400	800,000	0,041	0,085
-743,385	13,428	-0,302	0,172
-742,371	15,503	0,116	-0,067
-741,356	50,844	-0,170	0,118
-740,342	-144,938	-0,011	-0,001
-739,327	-67,279	-0,306	0,088
-738,312	-52,175	0,183	0,062
-737,298	-169,224	-0,380	-0,010
-736,283	377,299	0,033	-0,050
-735,269	-82,026	-0,286	0,068
-734,254	-98,411	0,206	0,038
-733,239	-75,166	-0,436	-0,114
-732,225	-86,955	0,288	0,064
-731,210	800,000	-0,060	0,156
-730,196	-66,508	0,113	-0,033
-729,181	297,250	0,052	0,070
-728,167	-17,455	0,005	-0,002
-727,152	-32,884	-0,072	0,029
-726,137	246,578	0,106	-0,132
-725,123	-200,000	0,040	-0,178
-724,108	-158,503	-0,158	-0,007
-723,094	800,000	-0,048	0,118
-722,079	800,000	-0,027	-0,084
-721,064	155,414	-0,073	0,074
-720,050	79,551	0,048	0,038
-719,035	-200,000	0,012	0,064
-718,021	-24,324	-0,094	-0,041
-717,006	510,053	-0,026	-0,045
-715,991	527,565	-0,127	-0,222
-714,977	39,141	-0,092	0,061
-713,962	-200,000	0,024	-0,099
-712,948	800,000	-0,009	0,024
-711,933	-200,000	0,022	-0,172
-710,918	233,360	0,076	0,092
-709,904	16,763	-0,065	-0,038
-708,889	-200,000	-0,012	-0,039
-707,875	-200,000	0,027	-0,152
-706,860	478,465	-0,038	-0,063
-705,845	800,000	-0,055	-0,136
-704,831	-200,000	-0,009	-0,032
-703,816	-70,594	-0,138	0,038
-702,802	-200,000	0,006	-0,107
-701,787	-54,582	-0,199	0,066
-700,772	54,229	0,038	-0,027
-699,758	35,985	0,129	-0,083
-698,743	81,564	-0,045	0,036
-697,729	109,588	0,027	-0,024
-696,714	58,916	0,058	-0,042
-695,699	-57,767	0,009	0,003
-694,685	749,366	-0,026	0,053
-693,670	-200,000	0,015	-0,153
-692,656	-200,000	0,002	0,030
-691,641	-69,578	0,042	-0,012
-690,627	-200,000	-0,011	0,151
-689,612	-100,293	-0,087	0,016
-688,597	382,154	-0,012	-0,018
-687,583	800,000	-0,023	-0,070
-686,568	34,621	0,026	-0,016
-685,554	-200,000	0,001	0,044
-684,539	-153,677	0,063	0,003
-683,524	-200,000	-0,003	-0,034
-682,510	-200,000	-0,002	-0,011
-681,495	175,806	-0,057	-0,061
-680,481	800,000	-0,042	0,088
-679,466	-174,670	-0,169	0,003
-678,451	-20,596	-0,068	-0,030
-677,437	35,080	-0,082	0,053
-676,422	800,000	-0,022	0,057
-675,408	270,366	-0,067	-0,087
-674,393	800,000	0,038	-0,106
-673,378	-105,545	-0,100	0,016
-672,364	800,000	-0,012	-0,035
-671,349	-47,735	-0,103	0,037
-670,335	-200,000	0,012	-0,112
-669,320	-200,000	0,008	0,070
-668,305	800,000	0,046	-0,134
-667,291	6,561	-0,065	0,036
-666,276	800,000	-0,034	-0,078
-665,262	-118,143	-0,078	0,010
-664,247	193,443	-0,111	-0,123
-663,232	-200,000	0,020	-0,087
-662,218	53,125	-0,043	0,030
-661,203	800,000	-0,095	0,214
-660,189	-61,278	-0,060	0,018
-659,174	-200,000	0,007	-0,028
-658,159	-200,000	-0,020	-0,068
-657,145	-78,040	-0,107	-0,027
-656,130	-200,000	-0,006	-0,057
-655,116	-79,901	0,229	-0,056
-654,101	-35,268	0,120	0,048
-653,086	-200,000	0,000	-0,056
-652,072	-200,000	0,053	-0,191
-651,057	-111,249	-0,107	-0,016
-650,043	800,000	0,038	-0,086
-649,028	800,000	0,038	-0,087
-648,014	-14,588	-0,078	-0,037
-646,999	17,448	-0,046	0,026
-645,984	118,757	0,103	-0,093
-644,970	-200,000	0,010	-0,043
-643,955	10,017	-0,102	0,057
-642,941	20,914	-0,136	-0,081
-641,926	66,621	-0,052	-0,039
-640,911	-200,000	0,026	-0,086
-639,897	-200,000	0,013	0,147
-638,882	19,685	0,061	0,036
-637,868	-97,956	-0,079	-0,015
-636,853	800,000	-0,035	-0,096
-635,838	-3,106	0,103	-0,052
-634,824	-200,000	-0,030	-0,105
-633,809	61,315	0,084	0,061
-632,795	-113,380	-0,017	-0,002
-631,780	28,547	-0,074	0,046
-630,765	-29,673	-0,056	0,023
-629,751	-10,653	-0,144	-0,070
-628,736	215,190	0,092	-0,107
-627,722	785,069	-0,047	-0,096
-626,707	50,002	-0,063	0,044
-625,692	90,618	-0,022	-0,018
-624,678	800,000	0,038	0,084
-623,663	-134,207	-0,035	0,003
-622,649	-103,065	-0,251	-0,043
-621,634	-200,000	-0,021	-0,136
-620,619	-18,838	0,075	-0,034
-619,605	-200,000	-0,012	-0,201
-618,590	182,057	-0,125	0,135
-617,576	380,097	-0,017	-0,026
-616,561	40,763	-0,086	0,057
-615,546	97,226	0,028	0,023
-614,532	-200,000	0,049	-0,175
-613,517	-200,000	-0,014	-0,059
-612,503	-200,000	0,006	0,075
-611,488	46,445	0,140	-0,095
-610,474	239,607	0,046	-0,057
-609,459	85,632	0,132	0,106
-608,444	-19,145	-0,052	0,024
-607,430	170,018	-0,033	-0,034
-606,415	800,000	-0,028	-0,075
-605,401	-83,333	-0,062	-0,015
-604,386	455,159	0,014	0,023
-603,371	-200,000	-0,007	0,042
-602,357	-113,051	-0,106	-0,015
-601,342	187,077	-0,058	0,064
-600,328	-59,614	-0,110	-0,034
-599,313	94,725	0,048	-0,040
-598,298	335,408	0,048	0,069
-597,284	-99,352	-0,012	-0,002
-596,269	-131,948	-0,022	-0,002
-595,255	115,755	-0,056	0,050
-594,240	-200,000	0,016	-0,135
-593,225	94,354	-0,108	-0,089
-592,211	327,538	-0,067	-0,094
-591,196	-58,737	0,075	0,024
-590,182	-200,000	-0,001	0,134
-589,167	800,000	0,054	0,124
-588,152	398,890	0,029	-0,045
-587,138	-116,379	0,098	0,013
-586,123	-200,000	-0,001	0,006
-585,109	269,280	-0,051	0,065
-584,094	31,831	-0,037	-0,023
-583,079	-117,144	0,042	0,006
-582,065	-200,000	0,016	-0,090
-581,050	-200,000	0,012	0,076
-580,036	117,260	0,053	-0,048
-579,021	33,153	-0,047	0,030
-578,006	-85,882	0,077	-0,017
-576,992	297,409	-0,065	0,088
-575,977	-126,141	-0,154	0,017
-574,963	800,000	0,029	0,071
-573,948	243,929	-0,024	-0,029
-572,934	29,000	-0,075	-0,046
-571,919	93,882	-0,066	0,055
-570,904	298,715	0,034	-0,046
-569,890	-200,000	0,014	0,047
-568,875	-41,952	-0,084	-0,031
-567,861	-200,000	0,019	-0,063
-566,846	360,866	0,028	-0,042
-565,831	175,730	0,051	-0,055
-564,817	198,534	-0,042	-0,047
-563,802	39,077	-0,077	-0,050
-562,788	-120,144	-0,130	0,016
-561,773	-200,000	0,010	0,083
-560,758	79,592	-0,059	-0,046
-559,744	-200,000	-0,018	0,134
-558,729	-200,000	-0,007	0,029
-557,715	-152,260	-0,089	-0,005
-556,700	-200,000	-0,019	-0,070
-555,685	726,787	0,026	0,052
-554,671	23,154	0,057	0,034
-553,656	-153,343	0,037	-0,002
-552,642	85,253	-0,131	-0,105
-551,627	-200,000	-0,000	0,088
-550,612	206,128	0,055	0,062
-549,598	-87,282	-0,074	0,016
-548,583	292,578	0,063	0,084
-547,569	3,010	-0,123	0,065
-546,554	-52,063	-0,147	0,050
-545,539	-200,000	0,013	-0,056
-544,525	139,447	0,092	-0,088
-543,510	57,654	0,076	-0,054
-542,496	-200,000	-0,003	-0,025
-541,481	124,719	0,010	0,009
-540,466	-142,133	-0,026	0,002
-539,452	773,056	-0,069	0,138
-538,437	130,055	0,144	0,135
-537,423	745,314	0,027	-0,053
-536,408	9,732	0,064	-0,035
-535,393	-158,947	-0,050	0,002
-534,379	7,926	0,058	-0,032
-533,364	106,569	-0,016	0,014
-532,350	-200,000	0,004	-0,017
-531,335	-14,229	0,130	0,061
-530,321	800,000	-0,008	-0,023
-529,306	-200,000	-0,022	-0,085
-528,291	-200,000	-0,031	0,118
-527,277	800,000	0,027	-0,061
-526,262	-3,811	-0,025	-0,013
-525,248	-135,127	0,187	-0,016
-524,233	103,365	0,224	0,192
-523,218	547,857	0,047	0,082
-522,204	-37,167	-0,092	-0,036
-521,189	354,551	0,046	-0,067
-520,175	-153,199	0,039	0,002
-519,160	209,171	-0,067	-0,077
-518,145	800,000	-0,025	-0,058
-517,131	231,660	0,020	-0,024
-516,116	-200,000	-0,016	0,158
-515,102	800,000	0,023	-0,059
-514,087	-200,000	0,000	-0,084
-513,072	218,542	-0,014	0,016
-512,058	800,000	-0,005	0,011
-511,043	-12,103	-0,145	0,069
-510,029	256,442	0,028	0,036
-509,014	64,965	0,092	-0,068
-507,999	718,581	0,064	-0,124
-506,985	800,000	0,012	-0,039
-505,970	68,367	-0,081	0,060
-504,956	184,395	0,048	-0,052
-503,941	-200,000	0,004	-0,023
-502,926	38,893	-0,033	0,022
-501,912	576,097	0,085	-0,151
-500,897	-107,430	0,214	0,034
-499,883	800,000	0,014	0,030
-498,868	-44,588	-0,093	-0,034
-497,853	-90,835	0,076	0,016
-496,839	-38,847	0,164	0,063
-495,824	350,579	-0,027	0,039
-494,810	-96,505	0,071	0,014
-493,795	-93,761	-0,136	0,027
-492,781	419,467	-0,070	-0,109
-491,766	155,121	0,057	-0,057
-490,751	198,506	0,023	-0,026
-489,737	-21,379	0,097	0,043
-488,722	2,411	-0,040	-0,021
-487,708	-6,688	0,062	0,031
-486,693	-81,880	-0,147	0,035
-485,678	-200,000	0,002	0,057
-484,664	73,180	-0,071	-0,054
-483,649	185,827	-0,017	-0,019
-482,635	237,056	0,037	-0,045
-481,620	-15,159	0,096	-0,044
-480,605	-165,740	-0,091	-0,003
-479,591	17,465	0,007	-0,004
-478,576	665,163	0,066	-0,125
-477,562	322,738	0,031	0,043
-476,547	745,890	-0,076	-0,149
-475,532	295,892	0,124	-0,166
-474,518	377,283	0,029	-0,043
-473,503	737,826	-0,007	-0,014
-472,489	-7,536	-0,070	0,035
-471,474	346,173	0,043	-0,061
-470,459	74,935	-0,025	0,019
-469,445	71,977	-0,110	-0,084
-468,430	-50,208	-0,090	0,031
-467,416	692,011	-0,023	-0,044
-466,401	179,353	0,107	0,114
-465,386	-200,000	-0,006	0,056
-464,372	-130,754	-0,100	-0,010
-463,357	-74,464	-0,086	-0,022
-462,343	800,000	0,058	0,155
-461,328	800,000	0,042	-0,134
-460,313	4,961	0,107	0,057
-459,299	337,633	-0,028	0,040
-458,284	260,509	-0,031	0,039
-457,270	105,953	-0,115	0,099
-456,255	-13,099	0,065	-0,031
-455,241	228,014	-0,042	0,050
-454,226	-2,191	-0,158	-0,081
-453,211	-200,000	-0,003	-0,098
-452,197	-70,471	-0,078	0,021
-451,182	87,676	-0,032	0,026
-450,168	-90,520	0,013	0,003
-449,153	421,375	0,041	-0,064
-448,138	-23,088	-0,191	-0,083
-447,124	184,572	-0,089	0,096
-446,109	369,027	0,051	-0,075
-445,095	800,000	0,017	-0,049
-444,080	-133,155	-0,075	0,007
-443,065	-45,195	0,059	-0,021
-442,051	-200,000	0,008	0,110
-441,036	800,000	-0,029	-0,085
-440,022	333,637	-0,016	-0,023
-439,007	-88,674	-0,084	0,018
-437,992	800,000	0,044	0,139
-436,978	241,518	0,069	0,083
-435,963	85,002	0,030	0,024
-434,949	105,638	-0,047	-0,041
-433,934	137,693	-0,086	0,082
-432,919	-200,000	-0,004	-0,036
-431,905	-123,038	-0,048	-0,006
-430,890	241,988	0,067	0,081
-429,876	415,837	0,054	0,084
-428,861	405,846	-0,098	0,151
-427,846	-73,319	0,093	0,025
-426,832	-9,371	-0,090	0,043
-425,817	191,217	0,095	0,104
-424,803	-200,000	-0,015	0,167
-423,788	314,888	-0,017	0,023
-422,773	109,682	-0,024	0,021
-421,759	-27,435	-0,093	0,039
-420,744	58,127	0,103	0,073
-419,730	74,716	0,042	-0,032
-418,715	182,884	-0,100	-0,107
-417,701	34,984	0,039	0,025
-416,686	-84,467	-0,012	0,003
-415,671	438,680	0,008	0,013
-414,657	160,807	0,083	0,085
-413,642	189,350	-0,092	0,101
-412,628	-200,000	0,016	-0,121
-411,613	-200,000	0,004	-0,096
-410,598	-200,000	-0,014	-0,080
-409,584	96,979	-0,092	-0,077
-408,569	-119,528	0,082	0,010
-407,555	-67,055	0,064	-0,018
-406,540	-131,771	0,060	0,006
-405,525	118,112	-0,079	-0,071
-404,511	7,585	-0,076	-0,041
-403,496	-200,000	0,021	-0,089
-402,482	-155,793	-0,066	-0,003
-401,467	800,000	0,035	0,077
-400,452	800,000	0,017	-0,035
-399,438	359,513	-0,044	0,063
-398,423	800,000	-0,036	-0,075
-397,409	-200,000	-0,007	0,038
-396,394	-200,000	0,026	-0,101
-395,379	-200,000	0,006	-0,082
-394,365	10,792	0,068	0,038
-393,350	-71,827	0,079	0,021
-392,336	-34,506	-0,050	-0,020
-391,321	503,087	-0,009	0,014
-390,306	800,000	0,078	-0,198
-389,292	112,611	-0,060	-0,053
-388,277	-200,000	0,004	0,056
-387,263	-48,492	0,054	-0,019
-386,248	-200,000	-0,006	0,052
-385,233	800,000	-0,028	0,077
-384,219	800,000	0,077	-0,222
-383,204	-27,450	0,068	0,029
-382,190	-200,000	-0,002	0,044
-381,175	113,105	0,067	-0,059
-380,160	-82,396	0,056	0,013
-379,146	-0,151	0,103	0,053
-378,131	-200,000	0,019	0,083
-377,117	546,202	0,050	0,088
-376,102	-200,000	0,029	-0,101
-375,088	172,564	-0,006	-0,006
-374,073	-164,927	-0,133	0,004
-373,058	-200,000	-0,001	-0,146
-372,044	-200,000	0,009	0,068
-371,029	-200,000	-0,015	-0,071
-370,015	433,163	-0,074	0,117
-369,000	-200,000	-0,003	0,063
-367,985	800,000	0,033	-0,078
-366,971	-79,747	0,149	0,036
-365,956	800,000	0,062	0,177
-364,942	-14,494	-0,036	0,017
-363,927	-127,840	0,223	-0,023
-362,912	800,000	0,037	-0,086
-361,898	76,015	-0,035	-0,027
-360,883	-200,000	-0,045	-0,161
-359,869	-200,000	0,039	0,146
-358,854	70,656	-0,063	0,047
-357,839	611,825	0,037	0,067
-356,825	169,136	-0,098	0,101
-355,810	-200,000	0,001	0,032
-354,796	129,952	0,014	-0,013
-353,781	-200,000	0,018	-0,104
-352,766	-104,565	-0,048	0,008
-351,752	150,254	-0,088	-0,087
-350,737	-200,000	-0,001	-0,033
-349,723	-140,601	0,267	0,020
-348,708	499,125	0,042	-0,070
-347,693	-45,117	0,119	-0,043
-346,679	-200,000	0,019	-0,073
-345,664	16,661	-0,044	0,025
-344,650	302,634	-0,037	0,049
-343,635	43,581	0,056	-0,037
-342,620	78,605	0,093	-0,072
-341,606	800,000	0,058	0,130
-340,591	-102,071	0,039	0,007
-339,577	79,311	-0,071	-0,055
-338,562	-62,691	0,095	0,028
-337,548	-21,587	-0,054	-0,024
-336,533	-80,858	0,181	0,043
-335,518	800,000	0,030	-0,074
-334,504	-144,653	0,108	-0,007
-333,489	800,000	-0,012	-0,032
-332,475	-139,485	-0,199	0,015
-331,460	800,000	0,038	0,087
-330,445	-37,297	0,110	0,043
-329,431	27,550	-0,094	0,057
-328,416	353,643	0,097	0,140
-327,402	800,000	0,013	-0,032
-326,387	-200,000	-0,010	-0,126
-325,372	-123,263	-0,151	0,017
-324,358	-81,158	0,166	-0,039
-323,343	48,055	-0,055	0,037
-322,329	-12,023	-0,011	-0,005
-321,314	79,353	0,096	-0,074
-320,299	-63,462	-0,083	0,025
-319,285	-200,000	-0,017	-0,087
-318,270	-54,724	0,061	-0,020
-317,256	610,816	-0,036	-0,065
-316,241	-112,193	-0,166	0,024
-315,226	-27,680	0,093	-0,039
-314,212	25,924	0,077	0,047
-313,197	116,770	0,056	0,050
-312,183	-33,721	-0,193	0,077
-311,168	-200,000	0,004	0,089
-310,153	-200,000	-0,029	-0,118
-309,139	84,286	0,037	-0,029
-308,124	-200,000	0,018	-0,097
-307,110	800,000	0,053	0,132
-306,095	-80,014	0,095	0,023
-305,080	25,029	-0,065	-0,039
-304,066	-128,883	-0,060	-0,006
-303,051	-200,000	-0,007	0,109
-302,037	-3,534	0,048	0,024
-301,022	84,845	-0,052	0,042
-300,008	-200,000	-0,001	-0,079
-298,993	378,916	-0,046	0,069
-297,978	-200,000	-0,026	0,099
-296,964	-122,373	-0,048	-0,006
-295,949	-140,901	-0,096	-0,007
-294,935	-200,000	-0,015	-0,068
-293,920	-200,000	0,004	-0,146
-292,905	639,787	0,036	-0,066
-291,891	56,922	0,077	0,054
-290,876	314,042	-0,084	0,115
-289,862	62,304	0,032	0,023
-288,847	-173,774	-0,124	0,003
-287,832	-54,120	-0,082	0,027
-286,818	-76,698	0,234	0,059
-285,803	-23,704	0,117	0,050
-284,789	800,000	0,026	0,055
-283,774	-117,294	0,145	-0,019
-282,759	-200,000	0,008	0,098
-281,745	-17,129	-0,038	-0,017
-280,730	-117,612	-0,054	0,007
-279,716	800,000	-0,029	-0,067
-278,701	240,727	-0,048	-0,058
-277,686	800,000	-0,076	0,218
-276,672	261,283	-0,037	0,047
-275,657	-172,381	-0,024	0,001
-274,643	43,046	-0,039	-0,025
-273,628	800,000	0,041	-0,084
-272,613	-200,000	-0,029	-0,103
-271,599	11,966	-0,127	0,070
-270,584	-47,127	-0,057	-0,020
-269,570	-62,434	0,115	0,034
-268,555	-102,156	-0,046	0,008
-267,540	141,484	0,016	0,016
-266,526	-200,000	-0,023	-0,104
-265,511	-200,000	0,014	-0,093
-264,497	-200,000	0,036	0,115
-263,482	65,998	0,097	0,071
-262,467	-25,084	0,061	0,026
-261,453	116,783	0,056	-0,050
-260,438	800,000	-0,017	0,046
-259,424	-200,000	-0,007	0,128
-258,409	244,345	-0,052	-0,063
-257,395	-63,680	0,100	-0,029
-256,380	258,116	0,051	0,063
-255,365	158,851	0,110	0,110
-254,351	800,000	0,032	0,097
-253,336	-200,000	0,020	-0,068
-252,322	-200,000	-0,014	0,056
-251,307	222,590	-0,042	-0,049
-250,292	800,000	-0,032	0,064
-249,278	-200,000	-0,036	0,127
-248,263	-48,785	0,047	0,016
-247,249	800,000	-0,025	0,051
-246,234	-120,857	0,088	0,011
-245,219	-200,000	-0,046	-0,169
-244,205	420,190	-0,047	-0,073
-243,190	-66,277	-0,063	0,018
-242,176	800,000	0,032	-0,076
-241,161	73,858	-0,048	-0,036
-240,146	-161,592	-0,074	-0,003
-239,132	-67,144	0,151	0,043
-238,117	-31,322	-0,060	-0,024
-237,103	238,236	-0,160	-0,193
-236,088	264,284	0,031	0,040
-235,073	-36,020	0,209	0,081
-234,059	800,000	0,010	-0,030
-233,044	-55,044	0,041	-0,013
-232,030	-4,035	0,135	0,068
-231,015	518,600	-0,056	-0,095
-230,000	82,596	0,017	0,014
-228,986	659,937	-0,107	0,200
-227,971	134,511	-0,088	0,083
-226,957	454,757	-0,080	0,128
-225,942	5,795	0,097	-0,051
-224,927	-200,000	0,004	0,093
-223,913	111,119	-0,071	0,062
-222,898	625,908	0,035	-0,064
-221,884	159,959	0,059	0,060
-220,869	-98,032	0,100	-0,018
-219,855	800,000	-0,040	-0,094
-218,840	619,103	0,004	-0,007
-217,825	-97,083	0,068	-0,013
-216,811	22,194	-0,060	-0,035
-215,796	-33,733	0,062	-0,025
-214,782	-39,593	-0,069	0,026
-213,767	-89,432	-0,010	0,002
-212,752	-38,303	0,117	-0,045
-211,738	-200,000	-0,014	0,066
-210,723	-200,000	-0,026	0,086
-209,709	-66,088	-0,082	-0,024
-208,694	115,554	0,072	0,063
-207,679	33,168	0,100	-0,062
-206,665	-68,585	0,047	-0,013
-205,650	-36,690	-0,056	0,021
-204,636	23,983	0,192	0,114
-203,621	-67,450	0,072	-0,020
-202,606	39,221	-0,055	0,036
-201,592	-131,294	-0,122	-0,012
-200,577	74,928	-0,027	-0,020
-199,563	372,710	-0,030	0,044
-198,548	-200,000	0,018	0,069
-197,533	-53,109	0,108	0,035
-196,519	800,000	-0,011	0,029
-195,504	-200,000	0,028	-0,148
-194,490	-60,164	-0,140	0,043
-193,475	-24,019	-0,135	0,058
-192,460	-200,000	0,038	-0,146
-191,446	-200,000	-0,040	-0,159
-190,431	250,425	0,039	-0,048
-189,417	312,027	-0,014	-0,019
-188,402	-26,844	-0,105	0,044
-187,387	-200,000	0,006	-0,066
-186,373	493,542	0,063	-0,105
-185,358	89,639	0,064	-0,051
-184,344	110,626	0,050	-0,044
-183,329	-21,122	-0,061	-0,027
-182,315	248,992	-0,066	0,080
-181,300	-86,363	0,066	-0,014
-180,285	377,218	0,044	-0,065
-179,271	165,947	-0,046	-0,047
-178,256	370,562	0,077	0,112
-177,242	439,627	0,071	0,111
-176,227	235,785	0,049	0,058
-175,212	24,620	-0,079	0,047
-174,198	-200,000	0,022	-0,071
-173,183	-46,145	-0,064	0,023
-172,169	-22,530	0,013	0,006
-171,154	53,301	-0,102	-0,070
-170,139	199,204	0,025	0,028
-169,125	148,759	0,077	0,075
-168,110	143,696	-0,061	-0,058
-167,096	385,612	0,108	0,161
-166,081	800,000	-0,040	0,116
-165,066	-173,527	-0,195	0,004
-164,052	-200,000	-0,012	0,064
-163,037	-127,119	-0,071	0,007
-162,023	-55,732	0,018	-0,006
-161,008	800,000	0,023	-0,053
-159,993	93,028	0,088	0,072
-158,979	579,231	-0,044	-0,077
-157,964	-49,188	-0,068	-0,023
-156,950	-15,556	0,133	-0,061
-155,935	800,000	0,018	-0,047
-154,920	-200,000	-0,006	0,019
-153,906	-33,351	-0,109	0,043
-152,891	359,460	0,032	0,045
-151,877	-200,000	0,012	0,136
-150,862	-148,467	-0,074	-0,004
-149,847	-54,513	-0,063	-0,020
-148,833	72,566	-0,118	0,089
-147,818	-200,000	-0,011	0,052
-146,804	-200,000	0,020	-0,094
-145,789	800,000	0,017	0,035
-144,775	13,232	-0,087	-0,048
-143,760	-200,000	-0,020	-0,107
-142,745	-96,561	-0,215	-0,040
-141,731	-138,964	0,114	-0,009
-140,716	-113,398	0,057	0,008
-139,702	-139,551	0,086	-0,006
-138,687	800,000	-0,059	0,175
-137,672	-165,758	-0,124	-0,004
-136,658	295,734	-0,133	-0,175
-135,643	-104,489	-0,099	-0,016
-134,629	-33,449	0,018	0,007
-133,614	800,000	0,050	0,111
-132,599	-200,000	0,032	0,132
-131,585	337,330	-0,091	0,127
-130,570	-72,054	-0,035	0,009
-129,556	-128,013	0,074	0,008
-128,541	592,971	-0,076	-0,135
-127,526	-61,893	-0,140	-0,042
-126,512	8,926	0,098	-0,053
-125,497	9,728	0,112	0,061
-124,483	-62,925	-0,102	0,030
-123,468	-3,825	0,128	-0,063
-122,453	-200,000	-0,027	0,100
-121,439	-200,000	-0,017	-0,067
-120,424	514,257	0,024	-0,040
-119,410	638,650	0,024	0,044
