DTS Sentinel unit serial number:	SN410029Multiplexer serial number:	ORYXHardware model number:	OX2-SRSoftware version number:	ORYX F/W v4,00 Oryx Data Collector v3.7.2.0data status	okinstallation	B5 Nyhavnadifferential loss correction	single-endedforward channel	channel 2reverse channel	N/Adate	2023/12/13time	00:17:14forward acquisition time	300,00reverse acquisition time	0,00gamma	499,1914k internal	0,3159k external	0,3159temperature offset calibration	1,0000default loss term (dB/km)	0,3820temperature slope calibration	1,0000multiplexer offset coefficient	1,0000multiplexer slope coefficient	1,0000fibre end	0,00T internal ref (°C)	14,31T ext. ref 1 (°C)	-2,23T ext. ref 2 (°C)	-2,54length (m)	temperature (°C)	Stokes	anti-Stokes-744,400	289,575	0,043	0,058
-743,385	-165,458	-0,364	-0,011
-742,371	-68,687	0,043	0,012
-741,356	-74,186	-0,319	-0,084
-740,342	121,177	0,147	0,135
-739,327	-179,646	-0,247	0,004
-738,312	313,122	0,043	0,060
-737,298	-66,012	-0,247	-0,072
-736,283	323,758	0,076	-0,107
-735,269	-42,910	-0,172	-0,064
-734,254	-139,744	0,117	-0,009
-733,239	-90,606	-0,548	-0,116
-732,225	455,876	0,063	-0,103
-731,210	304,955	-0,066	0,090
-730,196	-146,110	-0,134	-0,009
-729,181	436,778	0,063	-0,101
-728,167	-133,342	-0,071	-0,007
-727,152	-200,000	0,018	0,141
-726,137	800,000	0,020	0,048
-725,123	-170,628	-0,232	0,006
-724,108	-44,030	-0,182	0,067
-723,094	-74,642	0,098	-0,026
-722,079	428,606	-0,082	-0,131
-721,064	-200,000	0,002	-0,069
-720,050	-14,603	0,105	-0,049
-719,035	-21,426	-0,028	0,013
-718,021	185,355	-0,075	-0,082
-717,006	-200,000	-0,002	-0,087
-715,991	179,215	-0,201	-0,217
-714,977	-67,171	0,018	-0,005
-713,962	-200,000	0,006	0,117
-712,948	144,065	0,064	0,062
-711,933	-40,268	-0,060	-0,023
-710,918	-30,958	-0,072	-0,030
-709,904	-98,902	-0,066	-0,012
-708,889	18,890	0,111	-0,065
-707,875	225,952	-0,079	-0,094
-706,860	800,000	0,031	-0,065
-705,845	800,000	-0,035	-0,098
-704,831	-126,304	0,090	0,010
-703,816	-89,998	0,028	-0,006
-702,802	634,278	0,022	0,041
-701,787	-34,386	-0,033	-0,013
-700,772	-200,000	-0,022	-0,080
-699,758	800,000	0,006	0,015
-698,743	-87,112	0,033	-0,007
-697,729	800,000	0,038	-0,089
-696,714	-54,558	0,031	0,010
-695,699	-200,000	-0,000	0,003
-694,685	113,992	-0,079	-0,071
-693,670	-80,611	-0,086	0,021
-692,656	-200,000	-0,019	-0,110
-691,641	287,503	0,063	-0,084
-690,627	-200,000	-0,033	-0,176
-689,612	-200,000	-0,006	0,020
-688,597	800,000	0,015	0,047
-687,583	-15,404	-0,113	-0,053
-686,568	-200,000	-0,014	0,088
-685,554	-84,139	-0,096	-0,022
-684,539	-200,000	0,000	-0,043
-683,524	222,243	0,104	0,123
-682,510	166,527	-0,063	0,065
-681,495	-200,000	-0,006	0,024
-680,481	166,120	-0,032	-0,034
-679,466	385,030	-0,081	-0,123
-678,451	800,000	0,018	0,054
-677,437	-93,545	0,099	-0,020
-676,422	-27,807	0,119	0,050
-675,408	-111,324	-0,082	-0,012
-674,393	-53,823	0,100	-0,033
-673,378	-200,000	-0,011	-0,098
-672,364	800,000	-0,007	-0,022
-671,349	25,690	-0,071	-0,043
-670,335	-20,769	-0,181	0,081
-669,320	29,701	0,061	0,038
-668,305	18,444	0,057	0,033
-667,291	192,062	-0,057	0,063
-666,276	-69,398	-0,071	0,020
-665,262	-200,000	0,002	0,032
-664,247	661,536	-0,028	-0,053
-663,232	-200,000	-0,011	0,053
-662,218	800,000	-0,031	0,076
-661,203	-41,605	0,178	-0,067
-660,189	794,686	-0,029	-0,059
-659,174	297,863	-0,022	-0,030
-658,159	-12,000	-0,082	-0,039
-657,145	342,854	-0,084	-0,122
-656,130	-200,000	-0,035	-0,238
-655,116	-97,826	0,169	-0,032
-654,101	88,502	-0,172	0,140
-653,086	-70,570	-0,071	0,020
-652,072	-200,000	-0,002	0,101
-651,057	-80,378	-0,070	0,017
-650,043	-200,000	-0,047	0,170
-649,028	638,632	-0,012	-0,023
-648,014	113,831	-0,085	0,076
-646,999	-17,142	0,112	-0,052
-645,984	194,427	-0,018	-0,020
-644,970	-61,561	0,103	0,031
-643,955	299,209	-0,063	0,085
-642,941	-200,000	0,000	-0,096
-641,926	-72,912	-0,107	0,029
-640,911	-200,000	0,016	-0,059
-639,897	30,844	-0,086	0,054
-638,882	-200,000	-0,001	-0,096
-637,868	113,974	0,032	-0,029
-636,853	49,259	-0,148	0,102
-635,838	-22,933	-0,067	0,029
-634,824	177,840	0,038	-0,041
-633,809	-76,861	0,073	0,019
-632,795	-158,851	0,072	-0,003
-631,780	558,937	0,049	0,087
-630,765	227,909	0,080	-0,096
-629,751	-15,592	-0,074	0,035
-628,736	421,651	-0,094	-0,149
-627,722	154,679	0,078	-0,079
-626,707	800,000	0,045	-0,142
-625,692	87,930	0,042	-0,034
-624,678	-200,000	0,005	-0,157
-623,663	7,923	-0,114	-0,062
-622,649	-148,419	-0,063	-0,004
-621,634	-16,797	-0,022	0,010
-620,619	327,211	-0,127	-0,180
-619,605	-109,635	0,084	-0,013
-618,590	800,000	-0,049	0,123
-617,576	800,000	0,010	0,023
-616,561	800,000	0,037	-0,113
-615,546	-200,000	0,006	-0,063
-614,532	45,651	-0,118	-0,080
-613,517	-74,571	0,186	-0,049
-612,503	-200,000	0,013	-0,138
-611,488	-186,282	0,076	-0,001
-610,474	538,913	-0,115	-0,201
-609,459	-200,000	-0,005	0,109
-608,444	-109,668	-0,134	-0,020
-607,430	-29,306	-0,166	-0,069
-606,415	-71,941	-0,043	0,012
-605,401	193,079	-0,027	0,029
-604,386	127,920	-0,046	0,043
-603,371	-200,000	-0,009	0,102
-602,357	800,000	0,041	0,126
-601,342	79,468	0,061	0,048
-600,328	-200,000	0,010	0,089
-599,313	391,829	-0,030	-0,045
-598,298	150,837	-0,080	-0,080
-597,284	516,114	-0,079	0,135
-596,269	341,375	0,014	-0,020
-595,255	-200,000	0,005	-0,122
-594,240	256,655	-0,034	-0,043
-593,225	-98,628	-0,111	0,021
-592,211	44,828	-0,064	0,043
-591,196	0,045	-0,098	-0,051
-590,182	-38,581	0,129	0,050
-589,167	-200,000	-0,048	0,167
-588,152	-156,721	0,091	-0,004
-587,138	-84,057	-0,087	-0,020
-586,123	-71,454	-0,075	-0,020
-585,109	800,000	0,054	0,143
-584,094	1,626	-0,057	-0,030
-583,079	800,000	-0,019	-0,056
-582,065	442,745	0,023	0,037
-581,050	800,000	0,012	-0,040
-580,036	-200,000	0,009	-0,050
-579,021	-200,000	-0,037	-0,142
-578,006	-200,000	0,039	-0,148
-576,992	-12,648	-0,150	0,071
-575,977	-200,000	0,010	0,123
-574,963	206,744	-0,045	0,052
-573,948	-111,151	-0,107	-0,016
-572,934	199,722	0,063	0,071
-571,919	396,776	-0,069	-0,105
-570,904	-43,889	-0,099	-0,036
-569,890	158,411	-0,017	-0,017
-568,875	117,402	-0,020	-0,018
-567,861	87,889	0,058	-0,047
-566,846	-39,181	-0,071	0,027
-565,831	-200,000	0,002	0,030
-564,817	769,362	0,027	0,054
-563,802	54,892	-0,027	0,019
-562,788	240,977	-0,038	-0,046
-561,773	-89,028	-0,062	0,013
-560,758	-119,451	0,115	0,014
-559,744	44,065	-0,104	-0,070
-558,729	62,618	-0,111	-0,081
-557,715	72,010	-0,044	0,033
-556,700	302,893	0,046	-0,062
-555,685	800,000	-0,024	-0,057
-554,671	-200,000	-0,009	0,041
-553,656	-80,524	-0,038	0,009
-552,642	84,411	-0,041	-0,033
-551,627	-200,000	-0,009	0,029
-550,612	129,328	0,075	-0,070
-549,598	244,686	0,008	-0,010
-548,583	287,208	0,080	-0,106
-547,569	800,000	-0,061	-0,145
-546,554	-200,000	0,014	0,152
-545,539	-200,000	0,000	0,137
-544,525	-63,514	0,030	0,009
-543,510	-200,000	0,018	0,226
-542,496	-200,000	0,006	-0,098
-541,481	800,000	0,024	0,068
-540,466	-2,471	-0,049	0,025
-539,452	143,237	-0,037	0,036
-538,437	-32,336	-0,084	-0,034
-537,423	-33,939	-0,103	-0,041
-536,408	-17,279	0,059	0,027
-535,393	185,538	-0,090	0,098
-534,379	-200,000	0,014	0,062
-533,364	-123,141	0,186	-0,022
-532,350	-6,303	0,211	0,105
-531,335	340,478	-0,020	0,028
-530,321	-200,000	-0,009	-0,055
-529,306	135,869	-0,024	-0,022
-528,291	800,000	0,018	-0,050
-527,277	231,434	-0,101	0,121
-526,262	395,162	-0,025	-0,038
-525,248	-122,485	-0,167	0,020
-524,233	-124,267	0,100	-0,011
-523,218	800,000	0,043	0,099
-522,204	800,000	-0,044	-0,096
-521,189	16,548	-0,048	-0,027
-520,175	800,000	0,049	-0,099
-519,160	-61,196	-0,173	-0,053
-518,145	-80,246	0,119	-0,029
-517,131	-127,329	-0,023	-0,002
-516,116	113,179	-0,024	-0,021
-515,102	-102,219	0,085	-0,015
-514,087	-200,000	0,011	-0,113
-513,072	-200,000	0,006	0,064
-512,058	39,633	-0,091	-0,059
-511,043	-200,000	0,022	0,173
-510,029	-199,369	0,253	0,001
-509,014	62,100	0,057	0,042
-507,999	-99,484	0,091	0,016
-506,985	-82,993	0,008	0,002
-505,970	475,567	0,045	0,074
-504,956	-71,899	0,124	0,034
-503,941	-200,000	-0,001	0,030
-502,926	-200,000	-0,031	0,150
-501,912	330,368	0,092	0,130
-500,897	800,000	0,035	0,088
-499,883	-186,134	0,117	-0,001
-498,868	226,772	-0,110	0,131
-497,853	-200,000	0,021	-0,187
-496,839	335,978	-0,049	-0,070
-495,824	-200,000	-0,005	0,237
-494,810	-200,000	-0,029	0,121
-493,795	-4,997	0,098	-0,049
-492,781	800,000	0,048	0,151
-491,766	-86,973	-0,085	0,019
-490,751	-200,000	0,001	-0,011
-489,737	63,031	0,043	-0,031
-488,722	-200,000	0,009	-0,055
-487,708	-154,494	0,043	-0,002
-486,693	-159,676	0,039	-0,002
-485,678	-116,269	-0,040	0,005
-484,664	-62,217	-0,053	-0,016
-483,649	169,531	0,046	-0,048
-482,635	-51,291	0,064	-0,022
-481,620	653,033	-0,064	-0,121
-480,605	800,000	0,012	0,035
-479,591	-42,814	-0,051	0,019
-478,576	444,780	0,038	0,061
-477,562	800,000	0,031	-0,078
-476,547	-200,000	-0,027	0,096
-475,532	121,249	0,037	0,034
-474,518	141,630	0,034	0,033
-473,503	10,738	0,145	0,081
-472,489	-200,000	0,001	-0,013
-471,474	57,381	-0,020	-0,014
-470,459	109,443	-0,055	0,048
-469,445	-130,189	0,033	0,003
-468,430	-175,576	-0,220	-0,004
-467,416	-87,577	-0,074	-0,016
-466,401	-200,000	0,010	0,052
-465,386	302,334	-0,062	0,083
-464,372	800,000	-0,030	0,079
-463,357	-200,000	-0,002	-0,136
-462,343	-179,319	-0,059	0,001
-461,328	529,838	-0,039	0,067
-460,313	390,260	0,057	-0,086
-459,299	-75,854	0,102	0,026
-458,284	242,103	0,041	0,050
-457,270	-131,623	0,018	0,002
-456,255	135,828	-0,114	-0,108
-455,241	800,000	-0,045	-0,128
-454,226	188,707	-0,061	0,067
-453,211	-200,000	-0,022	-0,098
-452,197	499,204	0,046	0,077
-451,182	50,798	0,111	0,077
-450,168	-82,509	0,120	-0,028
-449,153	-130,077	-0,048	-0,005
-448,138	800,000	0,016	-0,051
-447,124	-19,420	0,128	-0,058
-446,109	-200,000	-0,015	0,070
-445,095	95,104	0,027	0,023
-444,080	800,000	0,069	-0,199
-443,065	-118,605	-0,097	0,012
-442,051	-200,000	0,026	0,091
-441,036	800,000	-0,067	-0,140
-440,022	-200,000	-0,007	-0,091
-439,007	693,034	-0,029	-0,057
-437,992	-175,112	-0,014	0,000
-436,978	-75,757	0,134	0,034
-435,963	393,975	-0,088	-0,133
-434,949	627,751	-0,038	-0,071
-433,934	177,900	0,071	-0,075
-432,919	-136,458	-0,123	0,010
-431,905	-137,605	-0,117	-0,009
-430,890	331,418	0,061	0,086
-429,876	-200,000	-0,045	0,166
-428,861	104,512	-0,120	-0,103
-427,846	-35,964	0,087	-0,034
-426,832	-200,000	-0,006	0,100
-425,817	800,000	-0,017	-0,045
-424,803	562,186	-0,094	0,166
-423,788	800,000	0,072	-0,163
-422,773	-200,000	0,005	0,031
-421,759	-158,708	0,112	0,005
-420,744	-71,609	0,065	0,017
-419,730	4,562	0,091	-0,048
-418,715	800,000	-0,065	-0,204
-417,701	185,053	0,044	-0,048
-416,686	195,413	0,044	0,049
-415,671	800,000	0,036	0,115
-414,657	46,616	-0,015	-0,010
-413,642	-200,000	0,013	-0,054
-412,628	-77,086	0,056	0,014
-411,613	639,126	-0,061	-0,114
-410,598	694,863	-0,038	0,073
-409,584	-127,805	0,061	0,006
-408,569	800,000	-0,032	-0,068
-407,555	-61,199	-0,058	0,018
-406,540	285,394	0,034	0,045
-405,525	800,000	0,022	-0,062
-404,511	-200,000	-0,019	0,079
-403,496	15,414	0,129	-0,073
-402,482	293,740	-0,019	0,025
-401,467	3,706	0,150	-0,079
-400,452	-200,000	-0,001	-0,086
-399,438	94,966	-0,084	-0,069
-398,423	321,177	-0,025	0,035
-397,409	-65,558	-0,100	0,029
-396,394	194,049	-0,084	0,093
-395,379	-200,000	-0,026	-0,091
-394,365	768,966	0,072	-0,143
-393,350	-59,408	-0,069	0,022
-392,336	537,100	0,027	-0,047
-391,321	-33,897	0,108	0,043
-390,306	-122,127	-0,105	-0,012
-389,292	324,572	-0,013	-0,018
-388,277	326,157	-0,076	0,106
-387,263	-200,000	-0,001	0,148
-386,248	-200,000	-0,035	0,141
-385,233	-87,571	0,027	0,006
-384,219	-57,565	0,134	0,043
-383,204	-200,000	-0,010	0,123
-382,190	87,278	-0,079	0,063
-381,175	178,747	0,107	-0,114
-380,160	117,714	0,038	-0,034
-379,146	-116,083	0,078	-0,010
-378,131	-156,227	0,049	-0,002
-377,117	110,235	-0,098	-0,086
-376,102	495,681	-0,039	-0,065
-375,088	-166,515	-0,169	0,005
-374,073	800,000	-0,011	-0,028
-373,058	4,042	-0,103	0,054
-372,044	800,000	0,026	-0,058
-371,029	-200,000	-0,007	0,044
-370,015	-200,000	0,017	-0,122
-369,000	800,000	0,062	-0,142
-367,985	40,416	-0,051	-0,033
-366,971	46,076	-0,105	0,071
-365,956	-200,000	0,012	0,182
-364,942	219,495	0,042	0,049
-363,927	800,000	0,090	0,215
-362,912	73,095	0,062	0,047
-361,898	-150,548	-0,044	-0,002
-360,883	646,697	-0,030	-0,056
-359,869	-55,450	0,097	-0,031
-358,854	-21,625	0,131	-0,058
-357,839	618,239	0,071	0,129
-356,825	800,000	0,049	0,135
-355,810	358,022	0,046	0,067
-354,796	798,866	0,046	-0,093
-353,781	161,527	0,034	-0,035
-352,766	800,000	-0,020	-0,052
-351,752	-78,762	-0,080	-0,020
-350,737	-200,000	0,011	0,105
-349,723	-200,000	0,007	0,068
-348,708	-66,291	0,082	0,024
-347,693	16,386	-0,053	-0,030
-346,679	-200,000	-0,005	0,073
-345,664	800,000	-0,062	-0,144
-344,650	34,690	0,044	0,028
-343,635	-200,000	0,002	0,020
-342,620	-175,887	-0,059	-0,001
-341,606	-200,000	0,000	0,016
-340,591	-200,000	0,021	-0,071
-339,577	-115,687	-0,105	0,014
-338,562	800,000	-0,010	0,027
-337,548	-160,832	0,159	-0,006
-336,533	79,061	0,078	0,061
-335,518	-57,216	0,097	-0,031
-334,504	-200,000	0,008	0,045
-333,489	-17,008	0,055	-0,025
-332,475	538,743	0,034	0,060
-331,460	800,000	-0,066	-0,197
-330,445	66,949	0,044	0,033
-329,431	800,000	0,030	0,093
-328,416	165,768	-0,023	-0,023
-327,402	-109,139	0,049	-0,007
-326,387	313,662	0,058	-0,079
-325,372	-22,074	0,045	-0,020
-324,358	800,000	-0,018	-0,045
-323,343	800,000	-0,009	-0,025
-322,329	166,660	0,039	0,040
-321,314	-35,112	0,130	0,051
-320,299	-22,257	0,038	-0,016
-319,285	110,391	0,107	0,093
-318,270	111,791	-0,080	0,070
-317,256	213,136	-0,063	-0,072
-316,241	-200,000	-0,005	-0,181
-315,226	-200,000	-0,003	-0,065
-314,212	110,935	-0,047	-0,041
-313,197	-200,000	-0,002	0,060
-312,183	-200,000	-0,002	-0,076
-311,168	-7,167	-0,038	-0,019
-310,153	-200,000	-0,035	-0,155
-309,139	-42,275	-0,081	-0,030
-308,124	-146,928	-0,066	-0,004
-307,110	-43,783	-0,107	-0,039
-306,095	110,152	0,036	-0,032
-305,080	-200,000	-0,001	0,067
-304,066	-111,848	0,048	0,007
-303,051	277,271	0,055	-0,070
-302,037	800,000	-0,045	-0,124
-301,022	-200,000	-0,001	0,059
-300,008	-38,991	0,089	0,034
-298,993	369,675	0,056	0,082
-297,978	-130,984	0,083	0,008
-296,964	-130,468	0,056	0,005
-295,949	-64,506	0,021	0,006
-294,935	13,308	-0,082	0,046
-293,920	800,000	0,083	-0,197
-292,905	-200,000	-0,048	-0,167
-291,891	800,000	0,022	0,048
-290,876	788,396	0,024	0,049
-289,862	-200,000	-0,011	0,066
-288,847	157,412	-0,060	-0,060
-287,832	693,136	-0,067	-0,128
-286,818	-200,000	0,021	0,069
-285,803	-200,000	0,041	-0,170
-284,789	246,914	-0,032	-0,039
-283,774	-17,492	0,083	-0,038
-282,759	51,721	0,102	0,070
-281,745	-141,235	-0,048	-0,003
-280,730	121,097	-0,119	0,107
-279,716	-56,189	0,098	-0,031
-278,701	-58,944	0,096	-0,030
-277,686	-200,000	-0,022	0,123
-276,672	800,000	-0,055	0,130
-275,657	327,498	-0,066	-0,091
-274,643	63,843	0,033	0,024
-273,628	146,869	0,018	0,018
-272,613	800,000	0,035	-0,100
-271,599	-85,073	0,068	0,015
-270,584	800,000	-0,024	0,076
-269,570	-200,000	-0,014	0,143
-268,555	92,056	-0,031	0,025
-267,540	318,319	-0,076	-0,104
-266,526	75,888	-0,062	0,047
-265,511	149,557	0,037	-0,037
-264,497	800,000	-0,018	0,041
-263,482	800,000	-0,034	0,074
-262,467	800,000	0,053	0,120
-261,453	53,659	-0,019	0,013
-260,438	800,000	0,034	0,083
-259,424	205,539	0,061	0,068
-258,409	37,259	-0,127	-0,081
-257,395	-19,143	-0,168	-0,075
-256,380	-17,874	0,134	0,060
-255,365	-200,000	0,014	-0,114
-254,351	-200,000	0,000	-0,014
-253,336	336,263	-0,013	-0,019
-252,322	176,259	0,056	0,059
-251,307	-116,016	-0,037	-0,005
-250,292	800,000	0,048	0,105
-249,278	-176,458	0,221	-0,004
-248,263	-200,000	0,017	-0,064
-247,249	-200,000	0,019	0,149
-246,234	576,369	0,010	0,018
-245,219	800,000	0,074	-0,157
-244,205	79,315	-0,063	-0,049
-243,190	800,000	-0,042	0,121
-242,176	117,805	0,029	-0,026
-241,161	-18,722	0,097	0,044
-240,146	-50,519	-0,078	-0,026
-239,132	162,871	-0,076	0,078
-238,117	-200,000	-0,039	-0,183
-237,103	-200,000	-0,032	0,127
-236,088	241,821	0,069	0,083
-235,073	800,000	-0,048	-0,096
-234,059	51,226	0,110	-0,075
-233,044	-108,399	-0,108	-0,017
-232,030	-200,000	0,030	-0,130
-231,015	24,015	-0,142	-0,085
-230,000	12,779	-0,124	-0,069
-228,986	-94,966	0,079	-0,015
-227,971	64,490	0,034	-0,025
-226,957	424,150	0,045	0,070
-225,942	224,482	0,032	-0,037
-224,927	-34,032	-0,076	0,030
-223,913	800,000	-0,021	-0,060
-222,898	-200,000	0,031	0,156
-221,884	-174,873	-0,100	-0,002
-220,869	-200,000	-0,072	0,268
-219,855	-200,000	0,005	0,061
-218,840	-29,122	0,202	0,083
-217,825	800,000	-0,089	-0,197
-216,811	-73,477	-0,036	-0,010
-215,796	141,016	-0,053	0,051
-214,782	800,000	0,014	-0,043
-213,767	-37,545	0,054	0,021
-212,752	127,014	-0,084	0,077
-211,738	-125,052	0,066	0,007
-210,723	-157,194	-0,084	-0,004
-209,709	-200,000	-0,017	-0,165
-208,694	-25,444	0,099	-0,042
-207,679	800,000	-0,021	-0,063
-206,665	-171,387	-0,157	-0,004
-205,650	800,000	-0,021	-0,056
-204,636	506,508	0,070	0,118
-203,621	-72,519	0,088	0,023
-202,606	-200,000	-0,005	-0,188
-201,592	86,047	-0,108	-0,086
-200,577	800,000	0,062	0,180
-199,563	-149,518	-0,057	0,003
-198,548	-200,000	0,002	0,122
-197,533	132,840	-0,084	0,078
-196,519	223,257	-0,077	0,090
-195,504	-2,979	-0,044	0,022
-194,490	360,599	0,025	-0,036
-193,475	102,199	0,078	0,065
-192,460	85,675	0,165	0,131
-191,446	-114,508	0,099	-0,014
-190,431	24,900	0,040	0,024
-189,417	772,737	-0,062	0,122
-188,402	25,824	0,068	0,041
-187,387	315,648	-0,053	-0,072
-186,373	-200,000	0,003	0,034
-185,358	159,229	-0,059	0,059
-184,344	-159,063	0,101	-0,004
-183,329	-200,000	-0,001	-0,126
-182,315	207,005	0,066	-0,074
-181,300	-200,000	0,012	0,043
-180,285	491,187	-0,014	-0,023
-179,271	800,000	-0,051	-0,103
-178,256	-74,263	-0,065	0,017
-177,242	82,132	0,050	-0,039
-176,227	251,481	0,100	0,123
-175,212	107,345	0,068	0,058
-174,198	-139,668	0,158	0,012
-173,183	8,214	-0,042	0,022
-172,169	222,821	-0,021	-0,024
-171,154	770,950	-0,027	0,054
-170,139	170,462	0,024	-0,025
-169,125	800,000	0,065	0,147
-168,110	800,000	-0,018	0,055
-167,096	-59,873	-0,134	0,041
-166,081	-50,556	-0,100	-0,034
-165,066	-3,709	-0,148	-0,074
-164,052	-91,055	-0,072	-0,015
-163,037	-55,712	0,094	-0,030
-162,023	226,892	0,075	0,088
-161,008	-15,103	-0,072	-0,033
-159,993	121,522	0,137	0,123
-158,979	162,693	0,094	-0,095
-157,964	46,756	-0,128	-0,085
-156,950	-200,000	-0,013	0,111
-155,935	-200,000	0,018	-0,073
-154,920	-22,157	-0,029	-0,013
-153,906	-141,542	0,080	-0,006
-152,891	213,812	0,084	0,096
-151,877	-43,263	0,106	-0,038
-150,862	6,485	-0,129	-0,069
-149,847	142,457	0,086	-0,083
-148,833	-200,000	-0,046	-0,202
-147,818	104,071	0,083	-0,071
-146,804	-101,567	0,017	0,003
-145,789	419,211	0,035	0,054
-144,775	79,718	-0,014	-0,011
-143,760	490,504	0,047	-0,078
-142,745	-200,000	-0,029	0,115
-141,731	10,727	0,069	-0,038
-140,716	-200,000	-0,010	-0,042
-139,702	60,016	-0,013	-0,009
-138,687	328,817	-0,046	0,063
-137,672	9,665	0,122	0,066
-136,658	-65,784	-0,046	0,013
-135,643	148,699	0,127	-0,124
-134,629	-200,000	0,003	-0,110
-133,614	800,000	0,034	-0,094
-132,599	35,641	0,079	0,050
-131,585	209,026	-0,029	0,033
-130,570	39,749	-0,029	-0,018
-129,556	800,000	-0,065	-0,172
-128,541	-124,591	-0,048	-0,005
-127,526	-183,357	-0,085	0,001
-126,512	-200,000	-0,001	0,105
-125,497	262,365	-0,037	0,046
-124,483	108,385	0,054	0,047
-123,468	432,695	-0,049	0,077
-122,453	-134,520	0,106	0,009
-121,439	-100,522	-0,130	-0,023
-120,424	800,000	-0,047	0,122
