DTS Sentinel unit serial number:	SN410029Multiplexer serial number:	ORYXHardware model number:	OX2-SRSoftware version number:	ORYX F/W v4,00 Oryx Data Collector v3.7.2.0data status	okinstallation	B5 Nyhavnadifferential loss correction	single-endedforward channel	channel 2reverse channel	N/Adate	2023/12/12time	16:37:13forward acquisition time	300,00reverse acquisition time	0,00gamma	499,1914k internal	0,3156k external	0,3156temperature offset calibration	1,0000default loss term (dB/km)	0,3820temperature slope calibration	1,0000multiplexer offset coefficient	1,0000multiplexer slope coefficient	1,0000fibre end	0,00T internal ref (°C)	15,82T ext. ref 1 (°C)	-0,68T ext. ref 2 (°C)	-0,99length (m)	temperature (°C)	Stokes	anti-Stokes-744,400	-135,942	-0,068	0,006
-743,385	-177,866	-0,273	-0,005
-742,371	-144,250	0,058	-0,004
-741,356	-96,657	-0,085	0,016
-740,342	107,884	0,038	-0,033
-739,327	-180,670	-0,419	0,006
-738,312	-200,000	-0,016	0,056
-737,298	-200,000	-0,386	-0,001
-736,283	-200,000	0,009	0,052
-735,269	-126,623	-0,182	0,020
-734,254	-98,088	-0,034	0,006
-733,239	-84,709	-0,459	-0,106
-732,225	66,590	0,080	0,060
-731,210	-200,000	0,040	0,165
-730,196	-51,828	0,048	-0,016
-729,181	-200,000	0,009	-0,082
-728,167	355,378	0,009	0,013
-727,152	72,483	0,121	0,093
-726,137	-44,247	0,019	-0,007
-725,123	264,991	-0,112	-0,145
-724,108	-142,797	0,012	0,001
-723,094	800,000	0,027	0,080
-722,079	72,228	-0,135	-0,103
-721,064	-188,226	-0,110	0,001
-720,050	800,000	0,009	0,021
-719,035	-200,000	-0,039	-0,201
-718,021	-51,801	-0,110	-0,038
-717,006	-200,000	-0,025	-0,083
-715,991	85,874	-0,059	-0,048
-714,977	652,651	-0,083	-0,158
-713,962	0,815	-0,126	-0,067
-712,948	-71,045	-0,046	0,013
-711,933	39,923	-0,024	-0,016
-710,918	-25,433	0,123	0,053
-709,904	-57,508	-0,134	-0,043
-708,889	-200,000	-0,020	-0,147
-707,875	117,317	0,052	-0,047
-706,860	48,823	-0,104	-0,072
-705,845	-200,000	-0,019	0,088
-704,831	71,674	-0,051	0,039
-703,816	-54,899	-0,076	0,025
-702,802	800,000	0,041	0,098
-701,787	-77,378	-0,104	-0,026
-700,772	-37,899	-0,031	0,012
-699,758	800,000	-0,050	-0,111
-698,743	262,155	0,036	0,046
-697,729	800,000	-0,043	-0,121
-696,714	82,678	-0,163	-0,130
-695,699	-17,085	0,080	0,037
-694,685	-200,000	0,021	0,188
-693,670	4,162	-0,049	0,026
-692,656	-14,110	0,074	0,035
-691,641	-94,377	-0,046	-0,009
-690,627	800,000	-0,015	-0,035
-689,612	33,133	-0,044	-0,028
-688,597	-111,314	-0,066	0,010
-687,583	153,714	-0,057	-0,057
-686,568	-200,000	-0,030	-0,179
-685,554	-200,000	-0,001	-0,089
-684,539	437,439	0,052	0,084
-683,524	138,755	-0,087	0,084
-682,510	10,764	0,043	0,024
-681,495	-200,000	0,011	-0,103
-680,481	-54,098	0,060	-0,020
-679,466	-3,119	-0,280	-0,143
-678,451	509,930	-0,029	-0,050
-677,437	-4,087	-0,046	-0,024
-676,422	157,676	-0,063	0,064
-675,408	-132,026	0,047	0,004
-674,393	504,848	-0,014	-0,025
-673,378	-108,517	-0,039	-0,006
-672,364	90,593	-0,116	0,096
-671,349	-19,090	0,028	-0,013
-670,335	-75,691	-0,016	0,004
-669,320	-50,576	-0,025	-0,009
-668,305	-33,636	-0,112	0,045
-667,291	-78,752	0,186	-0,046
-666,276	-85,578	-0,099	-0,022
-665,262	-200,000	-0,032	-0,187
-664,247	-200,000	0,029	-0,137
-663,232	0,557	-0,049	-0,026
-662,218	-47,338	0,074	0,026
-661,203	181,847	0,065	0,070
-660,189	-200,000	-0,031	-0,116
-659,174	800,000	0,047	-0,110
-658,159	208,041	-0,123	-0,141
-657,145	-77,855	-0,142	-0,036
-656,130	-127,196	0,123	-0,013
-655,116	15,857	-0,087	0,050
-654,101	800,000	0,027	0,076
-653,086	-136,171	0,074	-0,006
-652,072	57,375	-0,044	0,032
-651,057	-145,754	-0,065	-0,004
-650,043	-145,322	-0,086	0,006
-649,028	800,000	-0,021	0,067
-648,014	-124,560	-0,050	-0,006
-646,999	-195,529	0,064	-0,000
-645,984	255,680	0,032	0,041
-644,970	800,000	-0,016	0,038
-643,955	120,098	0,078	-0,071
-642,941	800,000	0,027	-0,056
-641,926	15,016	0,040	-0,023
-640,911	13,746	0,088	-0,050
-639,897	196,416	-0,071	-0,079
-638,882	-200,000	0,028	-0,123
-637,868	-189,176	-0,149	-0,001
-636,853	-99,118	0,104	0,019
-635,838	725,358	-0,036	-0,070
-634,824	96,265	-0,047	-0,039
-633,809	14,181	-0,051	0,029
-632,795	136,454	0,083	0,080
-631,780	232,690	-0,051	0,062
-630,765	-200,000	-0,027	-0,116
-629,751	558,953	-0,013	0,024
-628,736	264,279	-0,090	-0,115
-627,722	-73,483	0,013	0,003
-626,707	-3,099	-0,029	0,015
-625,692	50,507	0,135	-0,094
-624,678	-200,000	0,012	0,085
-623,663	-18,036	-0,017	-0,008
-622,649	32,729	-0,181	-0,115
-621,634	-200,000	0,020	0,128
-620,619	-200,000	-0,010	-0,040
-619,605	344,729	0,028	0,040
-618,590	-141,713	-0,065	0,005
-617,576	800,000	-0,033	-0,078
-616,561	158,562	-0,009	0,009
-615,546	-200,000	0,018	0,063
-614,532	-74,332	-0,060	0,016
-613,517	800,000	-0,054	-0,134
-612,503	800,000	-0,025	0,063
-611,488	-197,512	-0,055	0,000
-610,474	-200,000	0,021	0,132
-609,459	542,956	-0,070	-0,123
-608,444	800,000	0,023	-0,059
-607,430	57,269	-0,094	-0,067
-606,415	800,000	-0,054	-0,127
-605,401	-6,068	-0,070	-0,035
-604,386	-59,912	0,181	-0,056
-603,371	-200,000	-0,007	-0,074
-602,357	491,314	-0,068	-0,114
-601,342	-68,924	0,185	-0,052
-600,328	757,650	-0,083	-0,166
-599,313	800,000	0,035	-0,097
-598,298	-143,070	0,156	-0,011
-597,284	600,191	-0,071	0,130
-596,269	-200,000	0,022	0,089
-595,255	754,077	0,023	-0,047
-594,240	-94,268	-0,065	0,013
-593,225	131,868	0,056	0,053
-592,211	-200,000	0,022	0,118
-591,196	-200,000	0,009	-0,065
-590,182	5,087	0,015	-0,008
-589,167	-49,799	0,101	0,035
-588,152	425,411	0,029	-0,045
-587,138	-65,435	-0,175	-0,051
-586,123	30,867	0,062	-0,039
-585,109	-51,802	-0,172	0,058
-584,094	-200,000	0,005	-0,029
-583,079	-121,438	-0,057	-0,007
-582,065	-200,000	0,000	0,094
-581,050	6,345	0,038	0,021
-580,036	-153,748	0,028	0,001
-579,021	42,224	-0,042	-0,028
-578,006	-200,000	0,004	-0,136
-576,992	-200,000	0,005	-0,090
-575,977	236,859	0,146	0,178
-574,963	800,000	0,015	-0,034
-573,948	394,782	0,084	0,129
-572,934	163,759	0,131	0,135
-571,919	254,428	-0,078	-0,097
-570,904	738,626	-0,014	0,028
-569,890	719,462	0,004	-0,007
-568,875	-12,643	0,117	0,056
-567,861	43,392	-0,094	0,063
-566,846	800,000	-0,027	0,085
-565,831	355,563	-0,061	0,089
-564,817	76,857	-0,143	-0,111
-563,802	108,997	0,033	-0,029
-562,788	311,767	-0,029	-0,039
-561,773	-200,000	0,022	0,196
-560,758	90,256	0,064	-0,052
-559,744	-200,000	-0,007	-0,055
-558,729	-200,000	-0,003	-0,013
-557,715	-42,407	-0,110	0,041
-556,700	36,507	-0,067	-0,043
-555,685	-94,659	-0,037	-0,007
-554,671	-200,000	-0,012	0,152
-553,656	-32,326	0,089	0,036
-552,642	-114,047	0,078	-0,011
-551,627	47,910	-0,041	0,028
-550,612	246,528	-0,016	-0,020
-549,598	-200,000	-0,037	-0,129
-548,583	-90,513	0,044	-0,009
-547,569	-200,000	0,100	0,000
-546,554	14,536	0,043	-0,024
-545,539	-200,000	0,033	0,114
-544,525	-200,000	0,021	0,087
-543,510	-174,113	0,072	0,002
-542,496	116,744	-0,062	0,056
-541,481	-200,000	0,018	-0,154
-540,466	519,558	-0,084	-0,144
-539,452	-158,746	0,149	0,006
-538,437	740,814	-0,016	-0,032
-537,423	-64,453	0,142	0,042
-536,408	-200,000	-0,002	0,040
-535,393	-200,000	0,000	-0,034
-534,379	800,000	-0,028	-0,088
-533,364	469,298	-0,041	-0,067
-532,350	401,663	0,057	-0,087
-531,335	-200,000	0,015	-0,097
-530,321	152,556	-0,026	-0,026
-529,306	-200,000	-0,033	-0,211
-528,291	72,667	-0,034	-0,026
-527,277	800,000	0,040	-0,121
-526,262	15,188	-0,108	0,062
-525,248	-55,578	-0,102	-0,033
-524,233	44,776	-0,009	0,006
-523,218	-78,728	-0,082	-0,020
-522,204	29,630	-0,042	0,026
-521,189	5,801	-0,256	-0,138
-520,175	228,994	0,017	0,021
-519,160	-39,170	0,080	-0,030
-518,145	-200,000	-0,018	-0,118
-517,131	-106,608	0,129	0,021
-516,116	-200,000	-0,008	-0,067
-515,102	-200,000	0,004	-0,020
-514,087	-200,000	0,028	0,151
-513,072	334,300	-0,078	-0,110
-512,058	267,323	-0,026	-0,033
-511,043	88,897	-0,024	-0,020
-510,029	24,546	0,082	-0,049
-509,014	800,000	0,012	-0,038
-507,999	161,974	-0,052	-0,054
-506,985	207,295	-0,058	-0,066
-505,970	-107,250	-0,097	0,015
-504,956	-127,520	-0,136	-0,014
-503,941	-141,425	0,043	0,003
-502,926	-22,752	0,085	0,037
-501,912	800,000	0,027	0,080
-500,897	-200,000	-0,016	0,087
-499,883	-143,505	-0,063	0,004
-498,868	800,000	-0,031	-0,079
-497,853	-200,000	0,030	-0,129
-496,839	351,566	-0,043	-0,063
-495,824	-48,812	-0,033	0,012
-494,810	-56,357	-0,025	0,008
-493,795	289,697	-0,071	0,095
-492,781	-129,652	-0,089	0,009
-491,766	282,627	-0,086	-0,113
-490,751	104,603	-0,036	-0,031
-489,737	73,092	0,129	-0,099
-488,722	-62,208	0,101	-0,031
-487,708	59,927	0,010	-0,007
-486,693	593,124	0,033	0,059
-485,678	-33,061	-0,067	0,027
-484,664	216,978	0,033	0,038
-483,649	-138,259	-0,242	-0,019
-482,635	-200,000	-0,000	-0,066
-481,620	377,466	0,037	0,056
-480,605	-200,000	0,004	0,018
-479,591	-200,000	-0,019	0,078
-478,576	-39,356	0,061	-0,023
-477,562	-200,000	-0,024	0,113
-476,547	-80,105	-0,232	-0,056
-475,532	-183,542	-0,094	-0,001
-474,518	-200,000	0,005	0,133
-473,503	235,261	0,076	0,092
-472,489	265,379	-0,047	-0,060
-471,474	98,410	-0,090	0,076
-470,459	-34,652	-0,065	-0,026
-469,445	631,062	-0,083	-0,153
-468,430	-200,000	-0,015	0,064
-467,416	-200,000	-0,004	0,085
-466,401	-138,894	-0,131	0,010
-465,386	261,805	-0,046	0,058
-464,372	-94,143	0,120	0,024
-463,357	196,198	-0,068	-0,076
-462,343	-200,000	-0,020	0,115
-461,328	1,510	0,068	-0,035
-460,313	-56,248	0,073	0,024
-459,299	-79,941	0,064	0,016
-458,284	-82,109	0,079	-0,019
-457,270	-28,081	-0,018	-0,008
-456,255	-81,580	-0,079	-0,019
-455,241	-200,000	-0,003	-0,050
-454,226	79,694	-0,094	-0,074
-453,211	-108,936	0,075	0,012
-452,197	-200,000	0,048	0,186
-451,182	62,876	0,059	0,043
-450,168	-200,000	-0,005	0,052
-449,153	68,912	-0,036	-0,027
-448,138	-200,000	0,006	-0,119
-447,124	309,982	-0,063	-0,086
-446,109	-200,000	0,020	-0,115
-445,095	-200,000	-0,007	-0,082
-444,080	-131,368	-0,061	-0,006
-443,065	84,344	0,149	0,118
-442,051	-44,387	-0,036	0,013
-441,036	-200,000	-0,010	-0,111
-440,022	482,258	-0,003	0,005
-439,007	-200,000	-0,110	0,000
-437,992	363,496	0,025	-0,037
-436,978	-51,107	-0,033	0,011
-435,963	-200,000	0,030	0,137
-434,949	-121,569	0,055	-0,007
-433,934	-200,000	-0,022	-0,081
-432,919	800,000	-0,023	-0,071
-431,905	577,961	-0,035	-0,063
-430,890	29,673	-0,046	-0,029
-429,876	-200,000	0,005	0,144
-428,861	81,969	-0,060	0,047
-427,846	-105,580	0,107	0,017
-426,832	186,585	-0,122	0,133
-425,817	-200,000	0,005	0,027
-424,803	-200,000	0,011	-0,064
-423,788	110,096	0,111	-0,097
-422,773	266,480	0,087	0,111
-421,759	43,389	0,096	0,064
-420,744	-121,134	0,137	0,017
-419,730	-139,152	-0,035	0,003
-418,715	800,000	-0,042	-0,129
-417,701	-200,000	-0,030	-0,146
-416,686	-139,682	-0,034	-0,003
-415,671	800,000	-0,053	0,139
-414,657	800,000	-0,024	0,066
-413,642	-185,204	-0,109	-0,001
-412,628	-110,168	-0,073	-0,011
-411,613	13,056	0,058	-0,033
-410,598	-26,498	-0,009	-0,004
-409,584	800,000	0,034	-0,070
-408,569	174,101	0,068	-0,072
-407,555	800,000	0,029	-0,085
-406,540	148,653	0,041	0,041
-405,525	280,904	-0,033	-0,043
-404,511	2,317	-0,086	-0,045
-403,496	800,000	0,013	-0,032
-402,482	56,244	0,096	-0,068
-401,467	266,111	-0,026	-0,033
-400,452	199,742	0,095	0,106
-399,438	259,330	-0,021	0,026
-398,423	-43,462	-0,019	-0,007
-397,409	-113,214	-0,135	0,019
-396,394	800,000	0,074	-0,153
-395,379	-115,411	0,040	0,005
-394,365	75,491	0,119	0,092
-393,350	27,748	-0,037	-0,023
-392,336	85,801	0,102	0,081
-391,321	800,000	0,043	0,116
-390,306	94,899	-0,063	0,052
-389,292	62,336	-0,100	-0,073
-388,277	-127,951	0,115	-0,012
-387,263	247,942	-0,094	0,116
-386,248	-48,107	0,051	-0,018
-385,233	-200,000	-0,015	0,052
-384,219	800,000	-0,017	-0,036
-383,204	-200,000	0,025	-0,125
-382,190	708,328	-0,007	0,013
-381,175	33,125	-0,070	0,044
-380,160	-200,000	0,033	0,122
-379,146	-200,000	0,030	0,138
-378,131	800,000	0,084	0,174
-377,117	360,199	-0,091	0,133
-376,102	-27,337	-0,056	-0,024
-375,088	248,950	-0,005	-0,006
-374,073	674,811	0,051	-0,096
-373,058	-35,186	-0,072	-0,028
-372,044	-110,955	0,089	-0,013
-371,029	-200,000	-0,025	0,089
-370,015	29,587	0,189	0,116
-369,000	412,876	-0,040	0,062
-367,985	-12,098	0,081	-0,039
-366,971	800,000	0,031	-0,096
-365,956	448,880	-0,078	0,125
-364,942	84,267	0,035	-0,028
-363,927	800,000	-0,018	0,051
-362,912	-40,004	-0,020	-0,007
-361,898	394,504	0,072	-0,109
-360,883	-200,000	-0,019	-0,086
-359,869	-20,648	0,077	0,034
-358,854	191,435	-0,067	0,074
-357,839	71,148	0,083	-0,062
-356,825	-200,000	-0,007	-0,102
-355,810	211,348	-0,052	-0,060
-354,796	-10,113	-0,034	-0,016
-353,781	-164,860	-0,053	-0,002
-352,766	-200,000	0,025	0,171
-351,752	-37,594	-0,019	0,007
-350,737	81,011	-0,034	-0,027
-349,723	-200,000	-0,021	0,173
-348,708	84,994	0,024	0,019
-347,693	467,297	-0,022	0,036
-346,679	-200,000	0,024	-0,108
-345,664	-137,912	-0,262	0,021
-344,650	800,000	0,053	0,141
-343,635	24,630	0,112	-0,067
-342,620	85,007	0,117	-0,093
-341,606	-200,000	-0,016	-0,146
-340,591	-200,000	-0,002	-0,033
-339,577	781,215	-0,062	-0,124
-338,562	284,634	-0,066	-0,086
-337,548	391,901	0,076	0,115
-336,533	669,579	-0,073	0,137
-335,518	-200,000	0,015	-0,182
-334,504	19,665	0,086	-0,050
-333,489	800,000	-0,033	-0,079
-332,475	369,758	-0,036	0,053
-331,460	403,685	-0,066	0,101
-330,445	-5,973	0,123	0,061
-329,431	-110,040	0,191	-0,029
-328,416	800,000	-0,023	0,070
-327,402	-121,104	0,062	0,007
-326,387	143,364	-0,072	0,070
-325,372	16,186	-0,072	0,041
-324,358	-70,074	-0,092	0,025
-323,343	-128,068	-0,075	-0,008
-322,329	32,533	0,062	-0,039
-321,314	102,908	0,086	0,073
-320,299	800,000	-0,069	0,166
-319,285	-200,000	0,002	0,207
-318,270	-200,000	-0,020	0,075
-317,256	-200,000	-0,007	-0,143
-316,241	151,393	-0,066	-0,065
-315,226	-200,000	-0,002	0,139
-314,212	-14,389	0,193	0,090
-313,197	-200,000	-0,004	0,073
-312,183	63,165	0,139	-0,101
-311,168	-200,000	-0,012	-0,093
-310,153	-200,000	0,004	-0,066
-309,139	217,055	-0,062	0,072
-308,124	264,861	-0,063	0,079
-307,110	-94,891	0,149	0,029
-306,095	-200,000	-0,031	0,179
-305,080	201,180	0,084	-0,094
-304,066	109,457	-0,015	0,013
-303,051	-200,000	0,013	-0,082
-302,037	100,634	-0,053	-0,044
-301,022	-200,000	-0,023	-0,105
-300,008	-12,053	0,134	-0,063
-298,993	-200,000	0,012	0,070
-297,978	-152,245	0,113	0,006
-296,964	-20,185	-0,038	0,017
-295,949	292,487	0,094	-0,125
-294,935	800,000	0,069	-0,176
-293,920	-91,097	0,110	0,023
-292,905	-15,590	0,093	0,043
-291,891	1,399	0,117	0,061
-290,876	30,639	0,195	-0,120
-289,862	-200,000	0,018	-0,061
-288,847	32,910	-0,106	-0,067
-287,832	218,849	0,083	-0,097
-286,818	251,737	-0,062	0,076
-285,803	-138,525	-0,008	0,001
-284,789	30,929	0,114	0,071
-283,774	50,258	0,099	0,068
-282,759	266,968	0,068	0,086
-281,745	70,442	0,102	0,076
-280,730	126,015	-0,066	-0,060
-279,716	-38,540	-0,076	0,029
-278,701	106,121	0,048	-0,041
-277,686	-200,000	0,001	-0,048
-276,672	-200,000	0,010	-0,121
-275,657	-34,671	-0,132	0,052
-274,643	800,000	0,001	-0,003
-273,628	47,598	-0,092	-0,062
-272,613	-113,465	-0,047	-0,007
-271,599	-43,837	0,058	0,021
-270,584	-106,467	0,127	-0,020
-269,570	-200,000	-0,010	0,076
-268,555	-200,000	-0,016	0,070
-267,540	259,907	0,086	-0,108
-266,526	3,114	-0,193	-0,101
-265,511	-20,835	0,035	0,016
-264,497	444,873	-0,077	0,123
-263,482	219,154	0,112	0,130
-262,467	-14,703	-0,009	0,004
-261,453	381,527	-0,060	0,089
-260,438	800,000	0,058	-0,161
-259,424	-35,202	-0,138	-0,054
-258,409	254,324	-0,019	0,024
-257,395	-200,000	0,004	-0,078
-256,380	-200,000	0,037	0,207
-255,365	192,119	0,115	0,126
-254,351	-200,000	0,009	-0,089
-253,336	-200,000	-0,001	0,015
-252,322	-83,639	-0,046	-0,010
-251,307	-151,809	-0,097	0,005
-250,292	181,107	0,064	0,068
-249,278	-72,336	0,028	-0,007
-248,263	-78,580	0,026	-0,006
-247,249	-200,000	-0,046	0,162
-246,234	42,518	-0,078	0,051
-245,219	577,736	-0,095	-0,169
-244,205	800,000	0,035	0,077
-243,190	55,116	0,093	0,065
-242,176	-162,424	0,167	0,006
-241,161	800,000	0,076	-0,173
-240,146	800,000	0,021	-0,066
-239,132	-85,045	-0,022	0,005
-238,117	713,979	0,028	0,054
-237,103	-200,000	0,024	-0,102
-236,088	-200,000	0,016	0,111
-235,073	-117,684	-0,094	0,012
-234,059	-200,000	0,031	0,136
-233,044	-154,685	0,075	0,004
-232,030	227,445	0,037	-0,043
-231,015	-74,481	-0,062	-0,016
-230,000	171,856	-0,039	0,041
-228,986	86,522	0,071	0,057
-227,971	508,683	0,028	0,046
-226,957	-110,640	-0,090	-0,013
-225,942	41,553	-0,086	0,056
-224,927	-27,208	0,017	0,007
-223,913	686,044	0,069	-0,130
-222,898	800,000	-0,044	-0,105
-221,884	225,729	0,095	0,111
-220,869	-29,799	-0,082	0,034
-219,855	108,115	-0,094	0,081
-218,840	800,000	-0,084	0,229
-217,825	-88,274	0,097	-0,021
-216,811	509,224	0,064	0,108
-215,796	210,271	-0,123	0,140
-214,782	41,132	-0,068	-0,044
-213,767	800,000	-0,043	-0,090
-212,752	91,647	0,044	-0,036
-211,738	-13,795	0,040	-0,019
-210,723	-104,726	0,145	-0,024
-209,709	-200,000	-0,015	-0,106
-208,694	-200,000	0,005	0,049
-207,679	-61,063	0,087	-0,026
-206,665	-101,207	-0,169	-0,029
-205,650	10,036	0,094	-0,051
-204,636	61,454	-0,072	-0,052
-203,621	800,000	0,037	-0,092
-202,606	-19,049	-0,093	-0,042
-201,592	-92,111	0,123	-0,025
-200,577	-200,000	-0,034	0,132
-199,563	800,000	-0,023	-0,057
-198,548	155,629	-0,077	0,076
-197,533	159,984	0,077	0,078
-196,519	-9,224	0,045	0,022
-195,504	29,636	-0,147	0,090
-194,490	556,317	0,038	-0,067
-193,475	-200,000	-0,010	-0,042
-192,460	800,000	-0,048	-0,112
-191,446	36,783	0,113	-0,072
-190,431	-181,705	0,160	-0,002
-189,417	-81,865	-0,057	0,013
-188,402	31,808	-0,131	0,081
-187,387	7,975	-0,115	-0,062
-186,373	-60,612	-0,056	-0,017
-185,358	-20,957	-0,050	-0,022
-184,344	19,162	0,060	0,035
-183,329	-200,000	0,013	-0,060
-182,315	800,000	-0,012	0,025
-181,300	-23,315	-0,075	-0,032
-180,285	39,763	0,050	-0,032
-179,271	-200,000	-0,041	0,157
-178,256	-200,000	0,015	0,111
-177,242	-200,000	0,016	0,204
-176,227	-93,428	0,095	-0,019
-175,212	-200,000	-0,028	0,097
-174,198	-200,000	-0,009	0,038
-173,183	-32,937	-0,080	-0,032
-172,169	274,148	-0,054	-0,070
-171,154	-30,298	-0,028	-0,012
-170,139	-87,114	0,117	-0,025
-169,125	-93,340	-0,096	0,019
-168,110	-32,945	-0,121	-0,048
-167,096	578,450	0,059	0,105
-166,081	581,295	0,008	-0,015
-165,066	24,824	-0,102	-0,061
-164,052	-111,623	0,117	-0,017
-163,037	-22,121	0,051	0,022
-162,023	-141,879	0,080	0,006
-161,008	39,224	0,095	0,061
-159,993	-200,000	0,005	0,061
-158,979	-122,794	-0,099	-0,011
-157,964	-82,935	0,040	-0,009
-156,950	-164,122	-0,105	-0,003
-155,935	-106,994	0,027	-0,004
-154,920	800,000	0,070	0,142
-153,906	800,000	0,081	0,164
-152,891	-10,057	0,075	-0,036
-151,877	6,656	-0,034	-0,018
-150,862	202,896	0,021	-0,024
-149,847	180,548	0,048	-0,051
-148,833	112,327	0,023	-0,020
-147,818	-57,947	0,051	0,016
-146,804	-200,000	-0,051	0,201
-145,789	103,499	0,063	-0,054
-144,775	-200,000	-0,016	0,112
-143,760	126,720	-0,060	-0,055
-142,745	60,732	0,034	-0,025
-141,731	454,050	-0,044	-0,070
-140,716	-200,000	0,032	-0,118
-139,702	-56,510	-0,063	0,020
-138,687	-200,000	-0,006	0,112
-137,672	145,513	0,065	0,063
-136,658	-200,000	0,020	-0,150
-135,643	42,756	0,101	0,066
-134,629	-120,515	-0,044	0,005
-133,614	-200,000	-0,004	0,155
-132,599	-200,000	0,001	0,042
-131,585	105,565	0,047	0,040
-130,570	-8,391	-0,140	-0,068
-129,556	-158,118	0,125	-0,005
-128,541	-45,783	-0,179	0,063
-127,526	-200,000	0,017	-0,073
-126,512	-95,341	0,117	0,022
-125,497	-120,330	-0,102	-0,012
-124,483	-200,000	-0,019	-0,082
-123,468	145,698	-0,082	0,079
-122,453	-20,714	-0,080	0,035
-121,439	268,797	0,031	0,039
-120,424	-177,173	0,008	0,000
