DTS Sentinel unit serial number:	SN410029Multiplexer serial number:	ORYXHardware model number:	OX2-SRSoftware version number:	ORYX F/W v4,00 Oryx Data Collector v3.7.2.0data status	okinstallation	B5 Nyhavnadifferential loss correction	single-endedforward channel	channel 2reverse channel	N/Adate	2023/12/11time	19:07:13forward acquisition time	300,00reverse acquisition time	0,00gamma	499,1914k internal	0,3160k external	0,3160temperature offset calibration	1,0000default loss term (dB/km)	0,3820temperature slope calibration	1,0000multiplexer offset coefficient	1,0000multiplexer slope coefficient	1,0000fibre end	0,00T internal ref (°C)	15,50T ext. ref 1 (°C)	-0,24T ext. ref 2 (°C)	-0,44length (m)	temperature (°C)	Stokes	anti-Stokes-744,400	-108,726	0,046	0,007
-743,385	-63,628	-0,347	0,104
-742,371	26,755	0,093	-0,057
-741,356	-100,347	-0,250	0,045
-740,342	-200,000	0,030	0,116
-739,327	-57,769	-0,297	0,095
-738,312	-200,000	-0,025	-0,122
-737,298	-132,562	-0,237	0,022
-736,283	34,062	0,131	0,084
-735,269	-152,211	-0,227	-0,012
-734,254	18,806	0,174	0,102
-733,239	-110,410	-0,477	-0,072
-732,225	100,197	0,131	0,112
-731,210	800,000	-0,040	0,090
-730,196	-200,000	-0,005	0,072
-729,181	87,565	0,040	0,032
-728,167	-118,305	-0,141	-0,018
-727,152	132,855	-0,043	-0,041
-726,137	-200,000	0,003	0,085
-725,123	-200,000	-0,007	-0,033
-724,108	-200,000	0,000	0,129
-723,094	14,833	-0,163	-0,094
-722,079	4,969	0,063	-0,034
-721,064	800,000	0,010	0,032
-720,050	104,536	-0,066	0,057
-719,035	-158,395	-0,058	-0,002
-718,021	-200,000	0,004	-0,027
-717,006	3,565	-0,136	0,073
-715,991	800,000	-0,041	-0,123
-714,977	481,396	-0,033	-0,055
-713,962	800,000	0,018	-0,052
-712,948	-200,000	-0,009	-0,062
-711,933	440,529	-0,039	-0,064
-710,918	800,000	0,024	0,058
-709,904	-200,000	-0,022	-0,133
-708,889	-43,027	-0,133	-0,049
-707,875	800,000	-0,030	-0,071
-706,860	-200,000	0,166	0,000
-705,845	-200,000	-0,005	0,105
-704,831	-125,811	0,089	0,010
-703,816	391,218	-0,014	0,021
-702,802	-200,000	0,009	-0,039
-701,787	-86,237	-0,095	0,021
-700,772	198,053	-0,039	-0,044
-699,758	-200,000	-0,008	-0,077
-698,743	-180,457	-0,017	-0,000
-697,729	-174,793	0,179	-0,004
-696,714	227,706	-0,068	0,081
-695,699	-200,000	0,030	-0,169
-694,685	126,607	0,038	0,036
-693,670	-4,128	-0,081	-0,041
-692,656	-144,920	0,074	-0,005
-691,641	-90,183	0,092	-0,019
-690,627	292,342	-0,057	0,076
-689,612	179,093	0,091	0,098
-688,597	-82,487	-0,152	0,036
-687,583	800,000	-0,028	0,078
-686,568	399,021	-0,067	0,104
-685,554	800,000	-0,041	-0,098
-684,539	387,724	0,022	0,034
-683,524	-200,000	-0,013	0,155
-682,510	-94,681	0,061	0,012
-681,495	139,466	-0,037	0,036
-680,481	-112,087	-0,198	-0,029
-679,466	275,125	-0,049	-0,064
-678,451	-200,000	0,002	0,043
-677,437	-61,798	-0,044	-0,014
-676,422	-51,200	0,113	0,039
-675,408	-0,088	-0,064	0,033
-674,393	87,510	-0,066	0,054
-673,378	223,223	-0,051	-0,061
-672,364	202,076	-0,028	0,031
-671,349	-200,000	-0,005	0,039
-670,335	800,000	-0,019	-0,042
-669,320	-200,000	0,014	0,089
-668,305	-15,636	0,013	0,006
-667,291	15,322	-0,051	0,029
-666,276	-35,637	0,024	0,009
-665,262	23,402	0,069	-0,042
-664,247	-71,444	-0,147	-0,040
-663,232	170,899	-0,018	-0,019
-662,218	28,310	-0,113	0,070
-661,203	16,869	0,039	-0,023
-660,189	-120,945	-0,196	0,024
-659,174	-99,799	0,096	-0,017
-658,159	335,955	-0,048	-0,069
-657,145	421,109	0,071	0,112
-656,130	800,000	0,071	-0,161
-655,116	268,255	0,024	-0,031
-654,101	202,097	-0,083	-0,094
-653,086	-200,000	-0,015	0,065
-652,072	534,450	-0,072	-0,126
-651,057	38,016	-0,166	-0,108
-650,043	446,379	0,046	0,074
-649,028	167,023	-0,066	-0,069
-648,014	257,302	-0,047	0,060
-646,999	23,058	0,103	-0,062
-645,984	68,109	0,029	0,022
-644,970	-160,283	-0,085	-0,003
-643,955	-200,000	-0,011	-0,114
-642,941	-71,436	-0,058	-0,016
-641,926	-46,379	0,121	0,043
-640,911	-200,000	-0,023	0,086
-639,897	298,028	-0,035	0,047
-638,882	431,865	-0,027	-0,042
-637,868	-47,537	-0,067	-0,024
-636,853	-26,349	-0,045	-0,019
-635,838	-200,000	0,003	-0,042
-634,824	-7,876	0,036	0,018
-633,809	-200,000	0,000	-0,102
-632,795	-111,909	-0,065	-0,009
-631,780	-71,427	0,048	0,013
-630,765	694,949	0,046	-0,089
-629,751	800,000	0,007	0,016
-628,736	-102,693	-0,100	0,017
-627,722	-87,049	-0,088	-0,020
-626,707	20,109	0,068	0,040
-625,692	28,601	0,053	0,033
-624,678	-200,000	-0,023	-0,107
-623,663	-200,000	0,017	0,136
-622,649	33,668	-0,023	0,015
-621,634	55,380	-0,022	-0,015
-620,619	363,986	-0,093	-0,138
-619,605	-200,000	-0,022	-0,125
-618,590	26,250	-0,115	0,070
-617,576	-200,000	0,023	0,173
-616,561	74,651	-0,045	0,034
-615,546	122,675	0,081	-0,075
-614,532	-61,806	-0,062	-0,019
-613,517	197,692	0,059	-0,066
-612,503	-200,000	-0,001	-0,080
-611,488	-113,196	-0,043	-0,006
-610,474	-134,210	0,028	0,003
-609,459	-200,000	0,004	0,083
-608,444	-24,095	-0,083	-0,036
-607,430	800,000	-0,053	0,114
-606,415	-15,998	0,082	-0,038
-605,401	-200,000	-0,017	0,148
-604,386	-200,000	0,012	-0,109
-603,371	800,000	0,061	0,131
-602,357	48,979	0,048	0,033
-601,342	-200,000	0,010	-0,168
-600,328	-200,000	0,037	-0,273
-599,313	-93,151	-0,086	-0,017
-598,298	188,726	-0,078	0,086
-597,284	141,391	0,045	-0,044
-596,269	-180,853	0,018	0,000
-595,255	599,055	-0,026	-0,048
-594,240	151,303	-0,048	-0,048
-593,225	800,000	0,052	-0,151
-592,211	257,944	-0,096	-0,122
-591,196	636,458	0,009	-0,016
-590,182	800,000	0,019	-0,047
-589,167	527,417	-0,063	0,110
-588,152	91,130	0,066	-0,054
-587,138	-62,259	-0,132	0,040
-586,123	-14,662	0,121	-0,057
-585,109	800,000	-0,042	0,100
-584,094	465,575	0,069	0,114
-583,079	56,167	0,148	-0,105
-582,065	524,481	0,086	-0,149
-581,050	121,207	0,053	0,048
-580,036	342,806	0,054	-0,078
-579,021	651,107	-0,026	-0,050
-578,006	769,860	-0,013	-0,026
-576,992	-200,000	-0,010	-0,064
-575,977	106,352	0,076	0,066
-574,963	-50,297	-0,115	-0,040
-573,948	-117,064	0,206	-0,027
-572,934	-177,226	-0,040	0,001
-571,919	-70,173	-0,135	-0,037
-570,904	90,237	-0,055	0,045
-569,890	-200,000	0,007	0,087
-568,875	-80,923	-0,063	0,015
-567,861	236,915	0,029	0,036
-566,846	9,011	0,183	-0,101
-565,831	528,252	-0,041	-0,070
-564,817	-94,380	-0,125	-0,025
-563,802	302,901	-0,066	-0,090
-562,788	-132,739	-0,083	0,008
-561,773	39,484	-0,086	0,056
-560,758	43,562	0,094	0,063
-559,744	187,688	-0,059	0,064
-558,729	465,448	-0,075	-0,123
-557,715	-66,938	-0,071	-0,020
-556,700	36,320	0,071	-0,046
-555,685	-200,000	-0,001	-0,016
-554,671	106,938	0,100	0,087
-553,656	6,939	0,081	-0,044
-552,642	-148,983	-0,096	-0,006
-551,627	-58,267	0,084	0,027
-550,612	14,738	0,058	-0,033
-549,598	-66,166	0,060	0,017
-548,583	-25,370	-0,145	0,062
-547,569	32,909	0,025	-0,016
-546,554	29,291	0,183	0,114
-545,539	42,925	0,035	0,023
-544,525	-200,000	-0,007	0,023
-543,510	733,235	-0,043	-0,084
-542,496	-200,000	-0,011	0,052
-541,481	800,000	0,038	-0,120
-540,466	22,081	-0,064	-0,038
-539,452	273,580	0,048	-0,062
-538,437	-200,000	0,005	0,024
-537,423	113,004	-0,050	-0,044
-536,408	792,894	-0,034	-0,069
-535,393	-72,435	-0,101	-0,027
-534,379	232,734	-0,040	0,048
-533,364	-200,000	0,023	-0,156
-532,350	39,840	-0,032	-0,021
-531,335	-200,000	-0,017	0,069
-530,321	-182,442	0,161	0,002
-529,306	-145,734	-0,058	-0,004
-528,291	24,012	0,090	0,054
-527,277	246,732	0,023	0,028
-526,262	562,937	-0,036	-0,064
-525,248	39,284	-0,048	-0,031
-524,233	-136,154	0,088	-0,007
-523,218	-95,914	-0,077	0,015
-522,204	800,000	-0,021	-0,053
-521,189	45,079	-0,052	-0,035
-520,175	-200,000	-0,015	-0,050
-519,160	-200,000	-0,005	-0,027
-518,145	199,769	0,072	0,081
-517,131	-109,678	-0,010	-0,002
-516,116	-148,768	0,082	-0,005
-515,102	800,000	-0,010	-0,027
-514,087	-21,053	-0,114	0,051
-513,072	136,483	0,137	-0,131
-512,058	800,000	0,056	-0,162
-511,043	5,157	-0,041	-0,022
-510,029	800,000	-0,039	0,107
-509,014	-160,916	-0,042	-0,002
-507,999	-84,771	0,104	0,024
-506,985	-200,000	-0,001	-0,016
-505,970	-97,214	-0,077	0,015
-504,956	800,000	0,042	-0,098
-503,941	181,939	0,110	0,119
-502,926	-200,000	0,014	0,050
-501,912	-200,000	0,037	0,123
-500,897	800,000	0,011	-0,026
-499,883	-200,000	-0,015	-0,109
-498,868	-135,019	-0,155	-0,013
-497,853	800,000	0,025	-0,078
-496,839	-112,910	-0,046	-0,007
-495,824	-89,513	-0,158	0,034
-494,810	37,791	-0,032	0,021
-493,795	-110,093	0,074	0,011
-492,781	800,000	0,043	-0,109
-491,766	50,858	0,018	0,013
-490,751	21,894	-0,013	-0,008
-489,737	-200,000	-0,023	0,109
-488,722	-6,548	0,127	0,063
-487,708	-200,000	0,010	0,050
-486,693	210,611	-0,075	0,086
-485,678	-125,967	-0,037	0,004
-484,664	27,935	0,091	-0,056
-483,649	-158,367	0,033	0,001
-482,635	-200,000	-0,006	-0,065
-481,620	-200,000	-0,008	-0,056
-480,605	-200,000	0,011	0,126
-479,591	-96,236	0,049	-0,009
-478,576	-200,000	-0,007	0,049
-477,562	5,919	-0,146	0,079
-476,547	128,054	-0,082	0,076
-475,532	-200,000	0,039	0,146
-474,518	-88,601	0,117	-0,025
-473,503	371,960	0,038	0,056
-472,489	-122,384	0,053	0,006
-471,474	95,209	0,068	-0,056
-470,459	-86,638	-0,078	0,017
-469,445	132,550	-0,124	-0,116
-468,430	-71,422	0,061	0,017
-467,416	164,879	0,098	0,100
-466,401	-112,612	0,137	-0,020
-465,386	83,374	0,074	-0,059
-464,372	461,364	0,057	0,094
-463,357	-200,000	-0,005	-0,099
-462,343	242,322	0,020	-0,024
-461,328	800,000	0,058	-0,118
-460,313	-99,041	0,118	-0,022
-459,299	-200,000	0,013	-0,134
-458,284	-120,790	0,106	0,013
-457,270	-150,507	0,111	-0,006
-456,255	-200,000	0,007	-0,125
-455,241	-102,706	-0,084	0,014
-454,226	349,971	0,022	0,032
-453,211	11,809	0,066	0,037
-452,197	41,651	0,069	0,045
-451,182	-66,656	0,158	-0,045
-450,168	7,923	-0,151	0,082
-449,153	192,689	0,057	0,063
-448,138	608,098	-0,035	-0,064
-447,124	-200,000	0,025	-0,115
-446,109	-200,000	-0,008	-0,081
-445,095	99,339	-0,092	0,077
-444,080	374,827	0,037	0,055
-443,065	-200,000	0,006	-0,038
-442,051	-169,416	-0,085	0,002
-441,036	-200,000	-0,010	-0,068
-440,022	800,000	-0,065	0,135
-439,007	30,291	0,091	-0,057
-437,992	85,888	0,065	0,052
-436,978	410,863	-0,057	0,089
-435,963	-200,000	0,017	-0,145
-434,949	333,894	-0,046	-0,065
-433,934	-124,022	-0,140	0,016
-432,919	98,389	0,034	0,029
-431,905	-88,813	-0,065	0,014
-430,890	269,931	0,021	0,027
-429,876	-13,137	0,033	0,015
-428,861	11,903	-0,101	-0,056
-427,846	-105,864	0,048	-0,008
-426,832	-134,371	0,073	0,006
-425,817	158,464	-0,121	0,122
-424,803	800,000	-0,004	0,012
-423,788	708,349	0,056	0,108
-422,773	568,337	-0,060	0,107
-421,759	-200,000	0,010	-0,037
-420,744	800,000	-0,012	-0,024
-419,730	-200,000	0,021	0,101
-418,715	-200,000	-0,034	-0,132
-417,701	-200,000	0,002	0,037
-416,686	10,662	-0,022	-0,012
-415,671	-200,000	0,000	0,019
-414,657	800,000	0,034	0,097
-413,642	156,059	0,094	0,094
-412,628	-34,203	0,043	0,017
-411,613	169,447	-0,137	-0,142
-410,598	253,703	-0,044	-0,055
-409,584	-135,531	-0,196	-0,017
-408,569	28,170	0,045	0,028
-407,555	-200,000	0,004	0,048
-406,540	-53,494	-0,087	0,029
-405,525	800,000	0,046	0,109
-404,511	-42,985	-0,040	-0,015
-403,496	-28,675	0,116	-0,048
-402,482	21,435	0,097	-0,057
-401,467	-200,000	0,004	0,062
-400,452	-101,656	0,109	0,019
-399,438	-3,382	-0,114	0,058
-398,423	-200,000	-0,022	-0,113
-397,409	800,000	0,009	0,019
-396,394	87,455	-0,011	0,009
-395,379	3,897	-0,050	0,027
-394,365	-200,000	0,012	0,048
-393,350	-200,000	-0,006	0,033
-392,336	148,642	-0,039	0,039
-391,321	800,000	-0,015	-0,030
-390,306	370,202	-0,063	-0,093
-389,292	54,274	0,141	0,099
-388,277	-193,070	0,127	-0,001
-387,263	83,305	0,076	-0,060
-386,248	-200,000	-0,008	-0,100
-385,233	-200,000	-0,001	0,038
-384,219	-83,321	-0,054	-0,012
-383,204	391,172	-0,043	-0,065
-382,190	217,901	-0,059	-0,069
-381,175	-200,000	-0,001	0,030
-380,160	-200,000	-0,034	0,139
-379,146	228,125	0,129	0,153
-378,131	-148,551	-0,099	-0,006
-377,117	-200,000	0,001	0,009
-376,102	6,085	-0,069	-0,037
-375,088	-200,000	-0,005	-0,158
-374,073	800,000	-0,039	-0,125
-373,058	550,241	-0,027	0,047
-372,044	800,000	0,036	-0,073
-371,029	-151,293	0,094	0,005
-370,015	-200,000	0,013	0,079
-369,000	-143,279	-0,050	-0,003
-367,985	-200,000	-0,001	0,071
-366,971	98,869	-0,087	-0,073
-365,956	-99,888	0,133	-0,024
-364,942	93,089	0,034	0,028
-363,927	-200,000	-0,008	0,027
-362,912	214,370	-0,051	0,059
-361,898	-59,693	-0,104	0,032
-360,883	-200,000	-0,050	-0,248
-359,869	-200,000	-0,006	-0,079
-358,854	-99,395	0,082	-0,015
-357,839	-58,459	-0,024	0,007
-356,825	-50,380	0,096	0,033
-355,810	-8,769	-0,149	0,072
-354,796	-200,000	-0,019	0,091
-353,781	-200,000	-0,006	0,067
-352,766	-200,000	0,011	-0,101
-351,752	89,914	0,072	0,058
-350,737	-140,371	-0,056	-0,004
-349,723	-78,980	0,055	-0,014
-348,708	-130,852	0,101	-0,010
-347,693	225,669	0,067	-0,078
-346,679	66,175	0,115	-0,085
-345,664	249,201	0,045	0,055
-344,650	283,481	0,093	0,121
-343,635	38,900	0,045	0,029
-342,620	-153,130	-0,111	-0,006
-341,606	14,951	-0,087	0,049
-340,591	127,718	-0,050	-0,046
-339,577	-87,949	-0,092	0,020
-338,562	370,590	-0,092	-0,136
-337,548	742,664	0,030	-0,059
-336,533	-26,939	0,094	-0,040
-335,518	-200,000	0,024	-0,172
-334,504	-159,181	0,061	-0,002
-333,489	-200,000	-0,032	-0,109
-332,475	-200,000	0,036	-0,136
-331,460	-17,105	-0,104	0,047
-330,445	-200,000	0,000	0,057
-329,431	800,000	-0,085	0,185
-328,416	233,337	0,054	0,064
-327,402	-21,798	-0,138	0,061
-326,387	-89,706	-0,038	0,008
-325,372	-200,000	-0,002	-0,086
-324,358	-3,344	-0,041	0,020
-323,343	137,064	-0,038	-0,036
-322,329	-200,000	-0,039	0,183
-321,314	26,703	-0,099	0,060
-320,299	60,353	0,094	0,068
-319,285	-135,030	-0,157	-0,014
-318,270	-200,000	-0,013	-0,090
-317,256	-200,000	-0,014	0,156
-316,241	800,000	-0,029	0,073
-315,226	88,966	0,107	-0,086
-314,212	-200,000	-0,006	0,041
-313,197	418,833	0,071	0,111
-312,183	-200,000	0,007	-0,064
-311,168	143,252	-0,099	-0,095
-310,153	-128,445	-0,166	0,017
-309,139	-141,602	0,025	-0,002
-308,124	-78,697	0,134	0,033
-307,110	150,728	0,124	0,122
-306,095	184,766	0,055	0,059
-305,080	33,982	0,068	-0,043
-304,066	-200,000	0,008	0,120
-303,051	-200,000	0,049	-0,157
-302,037	-200,000	0,005	0,023
-301,022	160,191	0,070	0,070
-300,008	-9,740	0,145	0,070
-298,993	800,000	0,041	0,091
-297,978	-200,000	-0,006	-0,098
-296,964	147,103	0,075	-0,073
-295,949	506,465	-0,041	-0,069
-294,935	-4,109	-0,064	-0,032
-293,920	698,541	-0,013	-0,025
-292,905	-63,881	0,173	-0,051
-291,891	800,000	0,015	0,045
-290,876	-200,000	-0,032	0,117
-289,862	349,662	0,029	0,041
-288,847	345,419	-0,045	-0,065
-287,832	401,236	-0,069	0,106
-286,818	800,000	0,045	-0,097
-285,803	800,000	0,037	0,087
-284,789	-200,000	-0,020	0,067
-283,774	1,534	0,053	-0,028
-282,759	200,725	-0,094	0,105
-281,745	46,165	-0,077	0,052
-280,730	-200,000	-0,023	-0,123
-279,716	-88,367	-0,063	0,013
-278,701	-33,569	0,072	0,028
-277,686	142,418	0,049	0,047
-276,672	-27,900	0,031	-0,013
-275,657	-111,217	0,142	-0,021
-274,643	-179,722	-0,040	0,001
-273,628	-200,000	-0,049	-0,159
-272,613	-129,820	-0,227	0,022
-271,599	615,379	-0,026	0,047
-270,584	800,000	0,040	-0,092
-269,570	-53,858	0,175	0,057
-268,555	-40,007	-0,069	-0,026
-267,540	-200,000	0,033	-0,123
-266,526	800,000	0,045	-0,111
-265,511	28,620	-0,089	0,054
-264,497	800,000	-0,025	-0,059
-263,482	-200,000	0,025	-0,152
-262,467	76,890	0,147	-0,112
-261,453	800,000	0,016	-0,042
-260,438	450,594	-0,030	-0,048
-259,424	138,999	-0,125	-0,119
-258,409	-54,588	0,062	0,020
-257,395	349,115	-0,055	0,078
-256,380	-200,000	0,006	0,163
-255,365	681,080	0,100	0,188
-254,351	-200,000	0,013	-0,097
-253,336	800,000	0,015	-0,035
-252,322	-200,000	0,022	-0,083
-251,307	57,562	-0,116	0,082
-250,292	178,181	0,090	0,096
-249,278	770,059	-0,032	0,063
-248,263	50,901	0,051	0,035
-247,249	0,826	-0,107	0,055
-246,234	-123,240	-0,154	0,018
-245,219	800,000	-0,031	0,092
-244,205	-62,888	0,088	0,026
-243,190	110,900	0,041	0,036
-242,176	-200,000	-0,022	-0,085
-241,161	-200,000	0,003	-0,181
-240,146	-56,452	0,021	-0,007
-239,132	63,549	0,043	0,031
-238,117	30,046	-0,187	-0,115
-237,103	-84,996	-0,019	-0,004
-236,088	118,020	0,070	0,062
-235,073	-186,107	0,068	0,001
-234,059	800,000	0,033	-0,105
-233,044	-16,602	-0,088	0,040
-232,030	-42,026	-0,030	0,011
-231,015	129,043	0,082	0,076
-230,000	-56,500	-0,229	-0,073
-228,986	416,924	0,056	0,086
-227,971	42,879	-0,115	0,075
-226,957	6,304	-0,028	-0,015
-225,942	-200,000	-0,024	-0,086
-224,927	608,499	0,064	0,116
-223,913	-26,385	-0,195	0,082
-222,898	104,119	-0,039	0,033
-221,884	362,389	0,044	0,065
-220,869	800,000	0,049	0,135
-219,855	-200,000	0,041	0,149
-218,840	-200,000	-0,006	0,051
-217,825	-68,413	0,039	0,011
-216,811	614,852	-0,084	-0,153
-215,796	-200,000	0,002	-0,106
-214,782	458,537	0,059	-0,095
-213,767	195,169	0,071	0,077
-212,752	-200,000	-0,044	0,191
-211,738	-200,000	0,014	0,075
-210,723	126,354	0,047	-0,043
-209,709	-36,912	0,062	0,024
-208,694	-200,000	-0,002	0,032
-207,679	-161,594	-0,108	-0,004
-206,665	107,098	0,042	-0,036
-205,650	-108,303	0,084	-0,013
-204,636	79,296	0,064	0,050
-203,621	25,261	0,059	0,035
-202,606	-105,587	-0,098	0,016
-201,592	-17,552	-0,051	-0,023
-200,577	800,000	-0,051	-0,160
-199,563	509,739	0,051	-0,086
-198,548	105,072	0,035	-0,029
-197,533	-17,081	-0,028	-0,013
-196,519	-200,000	-0,007	0,042
-195,504	-200,000	0,011	-0,039
-194,490	-144,976	-0,086	-0,006
-193,475	-36,664	-0,048	0,019
-192,460	-119,348	-0,055	-0,007
-191,446	238,696	0,070	0,085
-190,431	34,265	-0,071	-0,045
-189,417	584,499	0,048	-0,085
-188,402	-200,000	-0,017	0,059
-187,387	-200,000	-0,050	0,195
-186,373	-58,188	-0,044	0,014
-185,358	800,000	0,048	0,097
-184,344	20,186	-0,035	-0,020
-183,329	-96,489	0,121	0,023
-182,315	45,812	0,063	0,042
-181,300	181,525	0,073	0,078
-180,285	-88,080	-0,092	0,020
-179,271	-200,000	-0,001	-0,140
-178,256	-200,000	-0,011	-0,080
-177,242	-67,046	0,131	0,037
-176,227	-200,000	0,019	0,076
-175,212	-95,933	-0,106	0,020
-174,198	800,000	-0,034	0,075
-173,183	800,000	-0,013	0,037
-172,169	415,295	0,020	-0,031
-171,154	35,242	0,041	0,026
-170,139	-200,000	-0,014	-0,094
-169,125	-82,616	0,172	-0,040
-168,110	495,641	-0,060	0,099
-167,096	-121,707	-0,088	0,010
-166,081	-74,505	0,087	-0,023
-165,066	-1,952	-0,129	0,065
-164,052	563,192	0,058	0,102
-163,037	480,884	0,025	-0,042
-162,023	-13,061	-0,075	-0,035
-161,008	-101,306	0,059	-0,010
-159,993	92,797	-0,053	0,043
-158,979	112,278	-0,065	0,057
-157,964	86,486	0,066	0,052
-156,950	34,582	-0,078	0,049
-155,935	131,741	0,110	0,102
-154,920	-200,000	-0,010	0,059
-153,906	385,873	-0,033	0,049
-152,891	-200,000	-0,014	-0,104
-151,877	399,015	-0,062	-0,094
-150,862	27,124	-0,100	-0,060
-149,847	644,330	0,038	-0,069
-148,833	-163,176	0,101	0,003
-147,818	800,000	-0,026	-0,071
-146,804	7,024	0,050	0,027
-145,789	800,000	0,033	0,077
-144,775	-102,180	-0,147	0,025
-143,760	109,762	-0,058	-0,050
-142,745	275,977	-0,052	0,066
-141,731	115,534	0,086	-0,076
-140,716	115,840	0,048	-0,043
-139,702	-76,515	0,076	0,019
-138,687	490,660	0,109	0,180
-137,672	-17,360	-0,024	0,011
-136,658	11,374	-0,056	-0,031
-135,643	6,936	-0,095	-0,051
-134,629	-75,086	0,196	-0,050
-133,614	-94,349	0,092	-0,018
-132,599	800,000	-0,047	0,127
-131,585	146,208	0,101	0,097
-130,570	-94,579	0,047	0,009
-129,556	52,228	-0,146	-0,100
-128,541	-115,845	-0,139	0,019
-127,526	800,000	0,007	-0,019
-126,512	-200,000	-0,020	-0,079
-125,497	231,281	0,005	0,006
-124,483	-200,000	0,028	-0,134
-123,468	-42,532	-0,114	0,042
-122,453	800,000	-0,036	-0,089
-121,439	69,098	0,087	-0,065
-120,424	200,567	0,028	0,031
-119,410	3,089	0,112	0,058
-118,395	-5,385	0,076	-0,037
