DTS Sentinel unit serial number:	SN410029Multiplexer serial number:	ORYXHardware model number:	OX2-SRSoftware version number:	ORYX F/W v4,00 Oryx Data Collector v3.7.2.0data status	okinstallation	B5 Nyhavnadifferential loss correction	single-endedforward channel	channel 2reverse channel	N/Adate	2023/12/12time	16:52:13forward acquisition time	300,00reverse acquisition time	0,00gamma	499,1914k internal	0,3156k external	0,3156temperature offset calibration	1,0000default loss term (dB/km)	0,3820temperature slope calibration	1,0000multiplexer offset coefficient	1,0000multiplexer slope coefficient	1,0000fibre end	0,00T internal ref (°C)	15,79T ext. ref 1 (°C)	-0,75T ext. ref 2 (°C)	-1,04length (m)	temperature (°C)	Stokes	anti-Stokes-744,400	-86,795	0,054	0,012
-743,385	15,526	-0,361	-0,209
-742,371	800,000	0,032	0,097
-741,356	-119,865	-0,284	0,036
-740,342	-30,616	0,144	-0,060
-739,327	-63,027	-0,334	0,101
-738,312	1,550	0,048	0,025
-737,298	-193,218	-0,309	0,002
-736,283	800,000	0,081	0,167
-735,269	-7,780	-0,221	0,110
-734,254	800,000	0,059	0,128
-733,239	1,404	-0,405	-0,214
-732,225	-128,576	0,162	0,017
-731,210	-70,996	0,041	0,011
-730,196	-77,015	-0,160	0,041
-729,181	28,464	-0,069	-0,043
-728,167	-11,717	-0,057	-0,027
-727,152	590,747	0,053	-0,098
-726,137	276,061	-0,107	-0,140
-725,123	-88,071	-0,068	0,015
-724,108	9,225	-0,135	-0,075
-723,094	602,697	-0,049	-0,090
-722,079	-200,000	0,060	-0,211
-721,064	-71,841	-0,099	-0,027
-720,050	-200,000	0,043	0,153
-719,035	800,000	-0,066	-0,141
-718,021	761,287	-0,040	-0,080
-717,006	-34,102	0,026	-0,010
-715,991	-60,506	-0,038	0,012
-714,977	800,000	0,092	-0,255
-713,962	-74,548	-0,122	-0,032
-712,948	169,275	-0,085	-0,089
-711,933	348,868	-0,043	-0,063
-710,918	800,000	-0,015	0,045
-709,904	800,000	-0,027	-0,086
-708,889	800,000	-0,064	-0,182
-707,875	273,139	0,123	-0,160
-706,860	-148,778	-0,011	0,001
-705,845	177,464	-0,086	-0,093
-704,831	90,672	0,009	0,008
-703,816	-115,819	-0,089	-0,012
-702,802	-200,000	0,028	-0,111
-701,787	76,305	-0,056	0,044
-700,772	-120,261	-0,070	-0,009
-699,758	-90,612	0,067	-0,014
-698,743	-127,587	0,049	0,005
-697,729	-200,000	0,000	0,024
-696,714	800,000	0,026	0,067
-695,699	-39,810	0,024	0,009
-694,685	-200,000	0,033	-0,166
-693,670	-98,593	-0,142	-0,026
-692,656	-99,022	0,061	0,011
-691,641	432,549	0,013	-0,020
-690,627	800,000	-0,018	0,037
-689,612	-49,384	-0,023	0,008
-688,597	-58,475	-0,179	-0,057
-687,583	88,948	-0,065	0,053
-686,568	-166,964	0,106	-0,003
-685,554	7,042	0,039	-0,021
-684,539	65,837	-0,084	-0,062
-683,524	800,000	0,085	-0,185
-682,510	463,149	-0,105	0,173
-681,495	126,711	-0,043	-0,040
-680,481	-120,659	-0,075	0,009
-679,466	800,000	-0,047	-0,119
-678,451	800,000	0,031	-0,090
-677,437	289,818	-0,070	0,094
-676,422	-200,000	0,002	0,080
-675,408	533,896	0,021	-0,036
-674,393	-158,099	-0,128	0,005
-673,378	-200,000	-0,014	-0,088
-672,364	-68,420	-0,148	-0,042
-671,349	328,511	0,039	0,055
-670,335	800,000	0,066	0,137
-669,320	800,000	-0,021	0,049
-668,305	-110,075	-0,028	0,004
-667,291	-200,000	-0,002	-0,026
-666,276	800,000	-0,058	-0,120
-665,262	800,000	0,027	-0,061
-664,247	285,807	-0,035	0,046
-663,232	381,070	-0,016	0,025
-662,218	-98,418	0,011	-0,002
-661,203	-200,000	0,047	0,194
-660,189	-124,635	-0,065	0,007
-659,174	1,592	-0,126	0,067
-658,159	800,000	-0,025	-0,058
-657,145	-200,000	-0,028	0,181
-656,130	-29,473	-0,037	0,015
-655,116	-200,000	-0,007	0,038
-654,101	114,852	-0,016	0,014
-653,086	30,430	-0,063	-0,039
-652,072	269,957	-0,020	0,026
-651,057	-200,000	-0,006	-0,065
-650,043	173,880	-0,063	0,067
-649,028	-72,219	-0,062	-0,017
-648,014	191,556	0,058	-0,065
-646,999	-29,694	-0,071	0,030
-645,984	-111,971	-0,046	0,007
-644,970	-95,727	-0,130	0,025
-643,955	800,000	0,050	-0,125
-642,941	-79,160	-0,108	-0,027
-641,926	-110,235	-0,123	-0,019
-640,911	-158,500	0,067	0,003
-639,897	336,118	0,052	-0,075
-638,882	197,447	-0,008	-0,009
-637,868	800,000	-0,038	0,097
-636,853	760,435	-0,064	0,127
-635,838	114,767	0,031	-0,027
-634,824	1,142	-0,079	-0,042
-633,809	-20,190	-0,071	-0,032
-632,795	159,865	0,063	0,064
-631,780	84,158	-0,080	0,064
-630,765	-200,000	-0,016	-0,106
-629,751	-1,514	0,045	-0,023
-628,736	65,073	-0,079	0,059
-627,722	-121,387	0,098	-0,012
-626,707	-200,000	0,003	-0,024
-625,692	800,000	0,029	0,078
-624,678	800,000	0,062	0,171
-623,663	-200,000	-0,029	0,146
-622,649	139,182	-0,047	-0,046
-621,634	-128,322	-0,021	0,002
-620,619	233,779	0,180	-0,218
-619,605	167,590	-0,020	-0,021
-618,590	-119,999	0,205	-0,026
-617,576	78,931	0,065	-0,051
-616,561	-34,777	-0,155	-0,062
-615,546	325,319	-0,013	0,018
-614,532	800,000	0,025	0,053
-613,517	44,119	-0,158	-0,106
-612,503	-114,141	-0,108	0,015
-611,488	-58,545	0,117	-0,037
-610,474	-200,000	-0,031	0,145
-609,459	414,463	-0,027	0,042
-608,444	-160,254	-0,088	0,003
-607,430	117,350	-0,109	-0,098
-606,415	93,909	-0,124	-0,103
-605,401	-200,000	-0,001	-0,083
-604,386	-200,000	-0,013	0,080
-603,371	34,808	0,140	0,090
-602,357	343,155	-0,095	-0,137
-601,342	800,000	0,044	-0,131
-600,328	271,334	-0,053	0,069
-599,313	-135,165	-0,211	0,018
-598,298	-200,000	0,046	-0,172
-597,284	751,235	0,057	0,114
-596,269	293,410	0,086	0,116
-595,255	-200,000	0,020	0,209
-594,240	261,606	0,008	0,010
-593,225	209,182	0,064	-0,073
-592,211	-200,000	-0,003	-0,319
-591,196	126,074	0,063	-0,058
-590,182	340,952	0,023	-0,033
-589,167	-200,000	0,006	-0,023
-588,152	-156,164	0,127	-0,006
-587,138	-36,921	-0,171	0,067
-586,123	614,879	-0,047	-0,086
-585,109	-55,959	-0,153	0,050
-584,094	175,877	-0,082	-0,087
-583,079	-200,000	0,014	-0,051
-582,065	-200,000	0,036	0,155
-581,050	150,338	0,057	0,057
-580,036	-113,143	-0,053	0,008
-579,021	-104,240	-0,190	-0,032
-578,006	273,661	-0,051	-0,066
-576,992	-200,000	-0,001	-0,117
-575,977	800,000	0,023	0,072
-574,963	38,186	0,021	-0,014
-573,948	-121,329	0,229	-0,028
-572,934	10,378	-0,034	0,019
-571,919	-54,503	-0,118	-0,039
-570,904	167,230	0,048	-0,050
-569,890	-139,633	0,074	0,006
-568,875	-171,665	0,101	0,002
-567,861	-200,000	-0,040	0,193
-566,846	638,683	-0,071	-0,133
-565,831	-110,735	-0,069	0,010
-564,817	-200,000	0,011	-0,108
-563,802	56,495	-0,041	-0,030
-562,788	-200,000	0,042	0,155
-561,773	165,751	-0,031	0,032
-560,758	-19,344	-0,090	0,041
-559,744	185,441	0,026	-0,028
-558,729	800,000	0,027	-0,073
-557,715	800,000	0,052	-0,121
-556,700	-158,719	-0,126	-0,005
-555,685	111,396	0,054	-0,048
-554,671	-93,762	0,071	0,014
-553,656	194,067	-0,073	0,081
-552,642	-34,895	0,157	0,062
-551,627	-149,540	0,072	0,004
-550,612	800,000	-0,011	-0,025
-549,598	86,491	-0,103	-0,083
-548,583	66,814	-0,086	-0,064
-547,569	-92,519	0,132	-0,027
-546,554	-200,000	0,011	-0,055
-545,539	168,158	0,038	0,039
-544,525	-40,968	0,039	-0,015
-543,510	723,276	-0,018	-0,035
-542,496	-200,000	0,000	-0,064
-541,481	657,976	0,021	-0,040
-540,466	-142,644	0,063	-0,004
-539,452	233,443	-0,032	0,039
-538,437	324,605	0,076	0,107
-537,423	213,052	0,063	-0,073
-536,408	13,018	-0,064	0,036
-535,393	158,931	0,040	-0,040
-534,379	800,000	-0,025	0,075
-533,364	-33,051	0,067	0,027
-532,350	-118,807	-0,013	0,002
-531,335	800,000	0,037	0,089
-530,321	13,596	0,129	-0,073
-529,306	-161,052	0,032	-0,001
-528,291	152,863	-0,070	-0,070
-527,277	73,895	0,085	0,065
-526,262	-200,000	-0,013	0,106
-525,248	-80,581	-0,059	-0,014
-524,233	583,538	-0,009	0,016
-523,218	215,265	0,006	-0,007
-522,204	-200,000	0,001	0,034
-521,189	1,881	0,067	0,035
-520,175	69,132	-0,114	-0,086
-519,160	-37,814	-0,156	0,060
-518,145	800,000	0,068	0,162
-517,131	-164,205	0,069	-0,002
-516,116	-178,472	-0,144	0,002
-515,102	-200,000	-0,001	0,115
-514,087	785,768	0,023	-0,046
-513,072	-41,569	-0,041	-0,015
-512,058	10,905	-0,108	-0,060
-511,043	-200,000	-0,004	-0,208
-510,029	-200,000	-0,025	0,098
-509,014	800,000	-0,005	0,010
-507,999	-10,263	-0,022	-0,010
-506,985	22,310	-0,071	-0,042
-505,970	800,000	0,065	-0,151
-504,956	-119,332	0,083	0,010
-503,941	-200,000	-0,038	0,164
-502,926	-24,318	-0,072	0,031
-501,912	-200,000	-0,003	0,070
-500,897	31,374	0,052	0,033
-499,883	-200,000	-0,029	-0,103
-498,868	565,129	-0,049	-0,087
-497,853	12,071	0,084	-0,047
-496,839	-182,715	0,132	0,002
-495,824	36,447	0,165	0,106
-494,810	-1,869	-0,166	-0,085
-493,795	146,072	0,080	-0,078
-492,781	-61,121	0,081	-0,025
-491,766	51,723	-0,075	-0,052
-490,751	29,816	0,112	-0,070
-489,737	-102,414	-0,117	0,020
-488,722	-161,662	0,082	0,003
-487,708	326,436	0,033	-0,047
-486,693	134,633	-0,117	0,111
-485,678	-59,496	0,168	0,052
-484,664	800,000	0,031	-0,086
-483,649	-200,000	-0,019	-0,067
-482,635	-200,000	0,007	0,083
-481,620	-200,000	0,003	-0,057
-480,605	-54,291	0,180	0,059
-479,591	800,000	0,068	0,178
-478,576	120,109	0,056	0,051
-477,562	-200,000	0,021	-0,107
-476,547	45,570	-0,125	0,084
-475,532	84,597	-0,064	-0,051
-474,518	800,000	-0,040	-0,101
-473,503	-200,000	-0,004	-0,026
-472,489	-10,971	-0,064	0,031
-471,474	-200,000	0,005	-0,047
-470,459	-200,000	0,016	-0,129
-469,445	308,413	-0,089	0,122
-468,430	91,176	0,102	-0,084
-467,416	-200,000	0,002	-0,038
-466,401	-200,000	0,011	0,108
-465,386	-38,953	-0,052	0,020
-464,372	800,000	0,038	-0,120
-463,357	772,668	-0,081	0,162
-462,343	46,235	-0,037	-0,025
-461,328	23,938	-0,138	-0,083
-460,313	-14,347	-0,092	0,043
-459,299	-45,359	0,174	-0,063
-458,284	575,122	0,038	0,067
-457,270	618,170	0,047	0,086
-456,255	-200,000	0,009	-0,129
-455,241	183,276	-0,075	-0,080
-454,226	8,644	0,046	-0,025
-453,211	570,904	-0,051	0,091
-452,197	-99,946	-0,052	-0,009
-451,182	-15,360	0,073	0,034
-450,168	-200,000	-0,012	0,041
-449,153	63,999	0,015	-0,011
-448,138	53,799	-0,056	-0,039
-447,124	-30,158	-0,077	0,032
-446,109	148,811	-0,073	0,072
-445,095	591,600	-0,061	-0,111
-444,080	85,912	0,106	0,085
-443,065	164,591	0,036	0,037
-442,051	387,246	-0,043	-0,065
-441,036	179,578	0,083	-0,088
-440,022	40,160	0,073	0,048
-439,007	-13,496	0,026	0,012
-437,992	800,000	0,048	0,139
-436,978	59,976	0,027	-0,019
-435,963	37,431	-0,139	0,090
-434,949	-101,396	-0,126	-0,022
-433,934	-26,308	0,112	-0,048
-432,919	-80,538	-0,191	-0,046
-431,905	5,961	-0,016	0,009
-430,890	-166,915	0,092	0,003
-429,876	1,984	0,075	0,039
-428,861	-200,000	0,021	0,087
-427,846	-200,000	0,024	0,113
-426,832	-200,000	0,007	-0,059
-425,817	462,770	-0,038	-0,061
-424,803	123,089	0,092	0,084
-423,788	341,835	-0,056	0,081
-422,773	-200,000	0,011	-0,073
-421,759	-41,645	-0,047	-0,017
-420,744	72,448	-0,068	0,052
-419,730	-181,751	-0,014	0,000
-418,715	-152,475	-0,046	-0,002
-417,701	-200,000	0,024	0,105
-416,686	800,000	-0,014	-0,045
-415,671	-128,408	-0,120	-0,012
-414,657	-200,000	-0,014	0,101
-413,642	183,607	-0,011	0,011
-412,628	-98,118	0,066	-0,012
-411,613	315,866	-0,048	0,066
-410,598	800,000	0,023	0,050
-409,584	88,444	0,088	-0,071
-408,569	-109,608	-0,106	-0,016
-407,555	109,205	-0,049	-0,042
-406,540	-200,000	-0,006	-0,030
-405,525	-154,064	-0,132	-0,006
-404,511	89,239	-0,017	-0,014
-403,496	18,201	-0,068	0,040
-402,482	-51,077	-0,081	0,027
-401,467	-173,133	0,093	0,002
-400,452	533,180	0,031	0,053
-399,438	-153,486	-0,137	0,007
-398,423	389,637	0,053	-0,079
-397,409	213,501	0,051	-0,058
-396,394	800,000	0,036	0,096
-395,379	-40,610	-0,044	-0,017
-394,365	214,738	-0,114	0,132
-393,350	-189,384	-0,172	-0,001
-392,336	800,000	0,015	-0,048
-391,321	143,548	-0,145	-0,140
-390,306	-29,627	-0,130	0,054
-389,292	15,801	-0,076	0,043
-388,277	-86,178	0,126	-0,028
-387,263	-200,000	0,004	-0,027
-386,248	432,717	0,052	-0,082
-385,233	-93,302	0,068	-0,014
-384,219	-200,000	0,001	0,019
-383,204	139,664	0,095	-0,091
-382,190	74,405	0,108	-0,083
-381,175	-34,981	0,060	-0,024
-380,160	-106,478	0,224	0,036
-379,146	-200,000	-0,006	0,063
-378,131	-200,000	-0,037	0,122
-377,117	142,528	-0,058	0,056
-376,102	101,928	-0,050	0,043
-375,088	207,872	-0,053	0,061
-374,073	272,307	0,019	-0,025
-373,058	47,579	-0,028	0,019
-372,044	21,358	0,157	0,093
-371,029	-51,271	-0,062	-0,021
-370,015	48,657	0,012	0,008
-369,000	256,902	0,087	-0,109
-367,985	111,753	0,037	-0,033
-366,971	80,966	0,109	-0,086
-365,956	125,534	0,016	0,015
-364,942	-63,223	0,091	-0,027
-363,927	-200,000	0,006	-0,045
-362,912	232,573	-0,085	0,102
-361,898	-200,000	0,041	-0,160
-360,883	70,940	-0,049	0,037
-359,869	76,744	0,060	-0,047
-358,854	774,561	-0,041	-0,083
-357,839	-110,905	0,101	-0,015
-356,825	-200,000	-0,029	-0,099
-355,810	468,235	-0,058	0,095
-354,796	529,583	-0,033	-0,057
-353,781	85,994	-0,116	-0,093
-352,766	-53,670	-0,025	-0,008
-351,752	-5,058	-0,054	-0,027
-350,737	67,892	-0,109	0,081
-349,723	721,312	0,049	0,095
-348,708	-180,535	-0,105	-0,002
-347,693	-200,000	-0,003	-0,012
-346,679	-52,927	0,079	-0,026
-345,664	-200,000	0,023	-0,124
-344,650	419,332	0,060	0,094
-343,635	-148,734	0,054	0,003
-342,620	54,663	0,021	0,014
-341,606	-123,031	-0,128	-0,015
-340,591	800,000	0,037	0,108
-339,577	-74,953	-0,172	0,045
-338,562	-131,953	-0,166	-0,015
-337,548	-200,000	0,004	0,086
-336,533	259,061	0,056	-0,070
-335,518	-200,000	0,031	-0,124
-334,504	-200,000	-0,010	-0,081
-333,489	-185,349	-0,059	-0,001
-332,475	300,123	-0,053	-0,071
-331,460	219,683	0,066	-0,076
-330,445	800,000	-0,051	-0,133
-329,431	-200,000	-0,014	-0,080
-328,416	-200,000	0,029	0,135
-327,402	394,475	0,098	0,149
-326,387	248,472	-0,114	0,140
-325,372	174,417	-0,050	-0,053
-324,358	-69,915	0,043	0,012
-323,343	-38,672	-0,085	-0,032
-322,329	800,000	0,079	0,166
-321,314	800,000	0,073	0,165
-320,299	106,711	-0,050	0,043
-319,285	800,000	0,024	-0,058
-318,270	-24,531	0,154	-0,066
-317,256	-140,324	-0,111	-0,008
-316,241	434,387	0,018	0,028
-315,226	244,786	-0,030	0,037
-314,212	800,000	0,017	-0,042
-313,197	619,576	0,035	0,064
-312,183	278,226	0,059	0,077
-311,168	582,080	0,035	-0,062
-310,153	261,616	0,038	0,048
-309,139	-68,013	-0,034	0,010
-308,124	800,000	0,028	-0,074
-307,110	514,167	-0,037	0,063
-306,095	-200,000	0,011	0,087
-305,080	135,415	0,108	-0,102
-304,066	-200,000	0,017	0,065
-303,051	43,548	-0,133	0,088
-302,037	-200,000	-0,005	0,017
-301,022	435,562	0,034	-0,054
-300,008	17,046	0,031	-0,018
-298,993	388,169	0,066	-0,100
-297,978	-153,782	0,017	0,001
-296,964	22,251	-0,131	0,078
-295,949	206,649	-0,117	-0,132
-294,935	-200,000	0,058	-0,193
-293,920	4,116	-0,085	0,045
-292,905	-150,790	0,046	-0,002
-291,891	800,000	0,021	-0,045
-290,876	303,332	0,086	-0,116
-289,862	137,901	0,041	0,039
-288,847	800,000	-0,032	0,081
-287,832	800,000	-0,015	0,046
-286,818	-68,063	0,060	-0,017
-285,803	-55,943	0,148	0,048
-284,789	-93,925	0,049	-0,010
-283,774	-137,407	0,124	0,010
-282,759	540,883	0,029	-0,051
-281,745	-48,944	-0,069	-0,024
-280,730	-200,000	-0,021	-0,158
-279,716	48,394	-0,148	0,100
-278,701	660,359	0,031	0,059
-277,686	-200,000	0,004	-0,088
-276,672	-18,641	-0,068	0,031
-275,657	138,565	-0,096	0,091
-274,643	659,691	0,026	-0,049
-273,628	-200,000	-0,030	-0,122
-272,613	86,323	-0,082	0,066
-271,599	-39,980	0,205	0,077
-270,584	-137,248	0,124	-0,010
-269,570	-19,184	0,035	-0,015
-268,555	800,000	0,018	-0,052
-267,540	287,137	0,067	-0,088
-266,526	89,102	-0,079	0,064
-265,511	-31,752	0,039	-0,016
-264,497	351,850	-0,043	-0,063
-263,482	-200,000	0,033	0,119
-262,467	165,877	-0,028	0,029
-261,453	-200,000	-0,000	-0,013
-260,438	541,121	0,079	0,137
-259,424	-108,752	-0,059	-0,009
-258,409	352,297	-0,043	-0,062
-257,395	-31,211	-0,013	0,005
-256,380	682,316	-0,101	0,191
-255,365	-200,000	0,009	0,175
-254,351	800,000	0,017	-0,050
-253,336	242,684	-0,086	-0,105
-252,322	-77,638	-0,078	-0,019
-251,307	800,000	-0,042	-0,094
-250,292	65,118	-0,050	0,036
-249,278	-97,936	-0,039	-0,007
-248,263	211,589	0,005	0,006
-247,249	-41,521	-0,091	-0,034
-246,234	164,908	-0,046	-0,047
-245,219	800,000	-0,043	-0,105
-244,205	23,960	-0,090	0,054
-243,190	107,628	0,139	-0,120
-242,176	-200,000	-0,003	0,081
-241,161	612,826	0,098	0,179
-240,146	140,143	0,083	0,080
-239,132	-141,089	0,047	0,003
-238,117	-14,331	-0,108	-0,050
-237,103	-6,263	0,082	0,040
-236,088	145,331	-0,023	-0,022
-235,073	148,259	-0,059	-0,058
-234,059	-200,000	0,035	0,116
-233,044	-200,000	-0,003	0,029
-232,030	800,000	0,029	0,085
-231,015	268,319	0,022	0,027
-230,000	-25,280	0,154	0,066
-228,986	-200,000	0,021	0,132
-227,971	542,418	-0,030	-0,052
-226,957	15,416	0,111	0,063
-225,942	219,206	-0,022	0,025
-224,927	-200,000	0,013	0,101
-223,913	-200,000	0,006	-0,072
-222,898	-44,353	0,017	0,006
-221,884	22,766	-0,083	-0,049
-220,869	-120,858	0,181	0,022
-219,855	223,809	0,054	-0,063
-218,840	10,400	-0,119	0,065
-217,825	-11,492	0,031	0,015
-216,811	-200,000	-0,037	-0,160
-215,796	589,464	-0,063	0,113
-214,782	116,757	-0,109	-0,096
-213,767	-97,578	0,015	0,003
-212,752	-200,000	0,130	0,000
-211,738	124,221	0,130	0,118
-210,723	351,362	-0,039	0,056
-209,709	-200,000	-0,004	-0,086
-208,694	-136,234	-0,081	0,007
-207,679	416,398	0,038	-0,059
-206,665	126,900	0,101	0,093
-205,650	-200,000	-0,005	0,162
-204,636	314,838	-0,010	-0,013
-203,621	641,661	-0,029	0,054
-202,606	-153,411	-0,154	-0,008
-201,592	-55,360	0,033	0,011
-200,577	-200,000	-0,006	-0,104
-199,563	238,924	0,024	-0,029
-198,548	800,000	-0,065	-0,167
-197,533	128,147	0,087	0,080
-196,519	168,336	0,035	-0,036
-195,504	800,000	0,063	-0,166
-194,490	-200,000	0,014	-0,049
-193,475	-200,000	-0,044	-0,192
-192,460	800,000	0,060	-0,157
-191,446	-105,417	0,138	0,022
-190,431	-163,109	0,032	-0,001
-189,417	-200,000	0,007	-0,095
-188,402	278,612	0,026	0,034
-187,387	-3,108	0,012	-0,006
-186,373	165,238	0,028	-0,029
-185,358	313,719	0,036	0,049
-184,344	800,000	0,042	0,094
-183,329	-113,834	0,137	0,019
-182,315	59,485	0,083	0,059
-181,300	-200,000	-0,018	-0,137
-180,285	800,000	0,050	0,147
-179,271	-11,235	-0,127	-0,060
-178,256	187,353	-0,053	-0,057
-177,242	492,455	0,034	0,057
-176,227	-96,056	0,085	0,016
-175,212	-200,000	0,010	0,127
-174,198	590,437	0,037	0,067
-173,183	-22,442	0,047	0,021
-172,169	76,662	-0,035	0,027
-171,154	-200,000	-0,016	-0,076
-170,139	-200,000	0,014	0,089
-169,125	-7,261	0,091	-0,044
-168,110	800,000	0,016	0,032
-167,096	-108,802	-0,088	0,013
-166,081	77,980	-0,066	-0,050
-165,066	136,833	-0,093	-0,087
-164,052	800,000	0,086	-0,192
-163,037	-200,000	-0,015	0,132
-162,023	-81,782	-0,056	0,013
-161,008	-61,368	0,179	-0,054
-159,993	-136,399	0,029	-0,002
-158,979	-177,478	0,118	-0,002
-157,964	-42,429	0,056	-0,021
-156,950	259,565	-0,146	0,182
-155,935	-107,113	0,172	0,027
-154,920	491,827	-0,097	0,161
-153,906	800,000	-0,055	0,122
-152,891	195,151	0,050	0,055
-151,877	800,000	-0,049	-0,103
-150,862	228,152	0,054	-0,063
-149,847	-90,092	-0,074	-0,015
-148,833	161,245	-0,033	0,033
-147,818	800,000	0,033	-0,090
-146,804	58,828	0,052	0,037
-145,789	317,231	0,051	-0,070
-144,775	800,000	-0,049	0,118
-143,760	-118,684	0,070	0,009
-142,745	-200,000	-0,020	-0,079
-141,731	102,302	0,065	-0,055
-140,716	69,254	-0,047	-0,035
-139,702	-200,000	-0,013	0,195
-138,687	-125,946	-0,023	0,002
-137,672	122,607	0,129	0,116
-136,658	-200,000	0,007	-0,026
-135,643	-200,000	-0,008	0,100
-134,629	12,318	-0,031	-0,017
-133,614	1,241	0,037	-0,019
-132,599	18,828	-0,141	0,081
-131,585	800,000	-0,045	0,114
-130,570	55,946	-0,058	-0,040
-129,556	-200,000	0,019	0,062
-128,541	800,000	0,012	-0,027
-127,526	-161,199	-0,140	0,005
-126,512	-200,000	-0,010	0,112
-125,497	-117,974	0,074	0,009
-124,483	-39,782	-0,083	0,031
-123,468	-200,000	-0,002	0,117
-122,453	58,099	-0,101	0,071
-121,439	-200,000	0,023	-0,172
-120,424	-200,000	-0,039	-0,150
-119,410	-35,941	0,096	-0,037
