DTS Sentinel unit serial number:	SN410029Multiplexer serial number:	ORYXHardware model number:	OX2-SRSoftware version number:	ORYX F/W v4,00 Oryx Data Collector v3.7.2.0data status	okinstallation	B5 Nyhavnadifferential loss correction	single-endedforward channel	channel 2reverse channel	N/Adate	2023/12/12time	02:27:13forward acquisition time	300,00reverse acquisition time	0,00gamma	499,1914k internal	0,3156k external	0,3156temperature offset calibration	1,0000default loss term (dB/km)	0,3820temperature slope calibration	1,0000multiplexer offset coefficient	1,0000multiplexer slope coefficient	1,0000fibre end	0,00T internal ref (°C)	15,76T ext. ref 1 (°C)	-0,62T ext. ref 2 (°C)	-0,94length (m)	temperature (°C)	Stokes	anti-Stokes-744,400	252,673	0,040	0,050
-743,385	-153,178	-0,330	-0,017
-742,371	-158,344	0,114	0,005
-741,356	-68,831	-0,294	0,083
-740,342	-70,879	0,171	-0,047
-739,327	-140,141	-0,329	0,025
-738,312	-83,747	0,153	0,036
-737,298	-108,682	-0,319	-0,050
-736,283	-98,378	0,242	-0,045
-735,269	-64,477	-0,248	-0,074
-734,254	66,575	0,093	0,070
-733,239	7,883	-0,478	-0,264
-732,225	25,198	0,165	0,101
-731,210	800,000	-0,071	0,157
-730,196	800,000	0,048	0,108
-729,181	-60,716	-0,124	-0,039
-728,167	-98,397	0,146	-0,027
-727,152	251,636	-0,074	0,093
-726,137	-157,227	-0,058	-0,003
-725,123	-127,253	-0,173	0,018
-724,108	-200,000	-0,045	-0,185
-723,094	301,042	-0,035	0,048
-722,079	-200,000	0,010	-0,059
-721,064	-200,000	0,019	-0,072
-720,050	69,210	-0,058	-0,044
-719,035	-102,651	-0,150	-0,026
-718,021	-20,969	-0,138	-0,062
-717,006	800,000	-0,037	0,106
-715,991	-26,217	-0,099	-0,042
-714,977	800,000	-0,030	-0,087
-713,962	-86,951	0,077	-0,017
-712,948	-200,000	-0,021	0,165
-711,933	-200,000	0,031	-0,150
-710,918	-200,000	-0,008	0,048
-709,904	-39,189	-0,077	-0,030
-708,889	151,080	-0,138	-0,139
-707,875	347,884	0,038	0,055
-706,860	-200,000	-0,022	-0,081
-705,845	-102,247	0,067	0,012
-704,831	-31,010	-0,045	-0,019
-703,816	-1,134	-0,064	0,033
-702,802	70,400	-0,064	-0,049
-701,787	-200,000	-0,048	-0,155
-700,772	800,000	-0,052	-0,126
-699,758	256,435	-0,059	-0,074
-698,743	93,249	0,091	-0,076
-697,729	800,000	-0,023	0,060
-696,714	31,273	-0,109	-0,069
-695,699	-31,108	0,082	-0,034
-694,685	-200,000	0,000	-0,186
-693,670	-200,000	0,033	-0,117
-692,656	-200,000	-0,011	-0,064
-691,641	-106,047	-0,038	-0,006
-690,627	-126,416	-0,098	0,011
-689,612	-33,183	0,119	-0,048
-688,597	800,000	0,015	-0,041
-687,583	104,878	0,078	-0,067
-686,568	800,000	0,059	-0,126
-685,554	-40,572	-0,068	-0,026
-684,539	17,380	0,071	0,041
-683,524	-15,610	0,011	0,005
-682,510	-86,284	-0,064	-0,014
-681,495	130,946	0,072	-0,068
-680,481	-68,215	-0,051	-0,014
-679,466	365,089	-0,070	-0,103
-678,451	58,963	-0,074	-0,054
-677,437	-200,000	-0,015	-0,086
-676,422	-89,616	0,141	0,030
-675,408	173,246	0,140	0,148
-674,393	-168,344	-0,116	0,003
-673,378	38,105	-0,118	-0,077
-672,364	800,000	-0,060	-0,183
-671,349	-70,787	-0,124	-0,034
-670,335	-106,843	0,014	0,002
-669,320	800,000	-0,037	0,095
-668,305	-99,482	-0,139	0,025
-667,291	800,000	-0,047	-0,113
-666,276	-97,502	0,026	-0,005
-665,262	98,149	0,035	0,029
-664,247	800,000	-0,032	-0,077
-663,232	800,000	0,004	0,009
-662,218	684,770	-0,050	-0,096
-661,203	800,000	0,048	0,112
-660,189	-48,308	-0,040	0,014
-659,174	73,645	0,076	-0,059
-658,159	-93,237	-0,085	-0,017
-657,145	207,048	-0,053	-0,061
-656,130	-200,000	0,001	-0,055
-655,116	-200,000	0,018	0,065
-654,101	223,945	0,078	-0,093
-653,086	800,000	-0,011	0,022
-652,072	79,446	-0,058	0,045
-651,057	-200,000	0,005	0,037
-650,043	800,000	-0,047	-0,138
-649,028	-121,977	0,048	-0,006
-648,014	-149,845	0,231	-0,013
-646,999	179,089	-0,029	-0,031
-645,984	-61,546	-0,094	0,029
-644,970	800,000	-0,012	-0,028
-643,955	613,869	0,031	-0,057
-642,941	-48,669	0,053	-0,019
-641,926	19,126	0,101	0,059
-640,911	117,984	-0,148	0,134
-639,897	19,733	0,121	0,072
-638,882	-186,027	-0,025	0,000
-637,868	-200,000	0,007	-0,123
-636,853	27,005	0,036	-0,022
-635,838	-200,000	-0,009	-0,182
-634,824	29,986	0,065	-0,041
-633,809	206,169	0,062	0,070
-632,795	71,606	0,071	-0,054
-631,780	800,000	0,009	0,021
-630,765	-200,000	-0,034	-0,197
-629,751	-148,133	-0,105	-0,006
-628,736	-146,972	-0,045	-0,003
-627,722	800,000	-0,058	-0,134
-626,707	-107,508	0,095	-0,015
-625,692	525,937	0,015	0,026
-624,678	-27,750	-0,108	0,046
-623,663	139,849	0,050	-0,049
-622,649	389,204	0,033	0,051
-621,634	432,520	-0,085	0,136
-620,619	72,682	0,066	-0,050
-619,605	70,314	0,137	0,104
-618,590	-40,502	-0,106	-0,040
-617,576	77,649	-0,023	-0,018
-616,561	160,115	0,026	0,027
-615,546	218,154	-0,032	-0,037
-614,532	463,943	-0,056	0,092
-613,517	-180,010	-0,165	-0,003
-612,503	425,820	0,045	-0,072
-611,488	446,872	0,044	-0,071
-610,474	52,150	-0,124	0,087
-609,459	-200,000	0,016	0,076
-608,444	-200,000	-0,004	-0,069
-607,430	-200,000	0,023	-0,106
-606,415	-122,207	0,023	-0,003
-605,401	-133,325	0,171	-0,016
-604,386	-25,527	-0,112	-0,048
-603,371	-200,000	-0,032	0,121
-602,357	171,429	0,070	0,073
-601,342	-64,674	-0,181	-0,054
-600,328	-200,000	0,012	-0,072
-599,313	-200,000	-0,002	-0,080
-598,298	-200,000	0,012	-0,135
-597,284	-34,459	0,041	-0,017
-596,269	59,129	-0,113	0,081
-595,255	800,000	0,005	0,012
-594,240	-151,031	-0,072	0,004
-593,225	-200,000	-0,004	-0,109
-592,211	95,308	-0,079	-0,066
-591,196	-96,820	0,160	-0,031
-590,182	-166,075	-0,051	0,002
-589,167	-200,000	0,014	-0,098
-588,152	-200,000	-0,001	-0,016
-587,138	-59,769	-0,102	0,032
-586,123	-200,000	0,009	0,034
-585,109	-200,000	-0,007	-0,023
-584,094	-154,743	0,121	-0,006
-583,079	55,120	0,142	-0,100
-582,065	800,000	0,023	-0,049
-581,050	500,372	0,017	-0,029
-580,036	-5,314	0,072	-0,036
-579,021	-2,434	-0,140	-0,072
-578,006	800,000	-0,023	-0,074
-576,992	-200,000	-0,025	0,169
-575,977	200,479	-0,069	-0,078
-574,963	800,000	-0,006	0,016
-573,948	-178,342	-0,054	0,001
-572,934	800,000	-0,051	-0,106
-571,919	-200,000	0,022	-0,076
-570,904	-63,069	-0,131	-0,039
-569,890	-200,000	-0,007	-0,107
-568,875	56,690	0,102	-0,073
-567,861	800,000	-0,022	-0,044
-566,846	228,137	0,132	0,157
-565,831	464,882	-0,053	0,087
-564,817	84,508	-0,032	0,026
-563,802	31,520	-0,144	0,091
-562,788	307,788	-0,024	0,033
-561,773	800,000	0,034	0,073
-560,758	-21,549	-0,083	-0,037
-559,744	201,864	-0,119	0,135
-558,729	-97,590	0,165	-0,031
-557,715	89,410	0,061	-0,050
-556,700	800,000	-0,011	0,032
-555,685	-200,000	-0,015	-0,123
-554,671	4,289	-0,130	0,069
-553,656	224,284	0,107	0,127
-552,642	-34,375	-0,054	0,022
-551,627	195,295	0,050	-0,056
-550,612	-200,000	-0,009	-0,201
-549,598	-200,000	0,016	-0,071
-548,583	60,883	-0,067	-0,048
-547,569	305,438	-0,072	-0,098
-546,554	92,055	0,014	-0,012
-545,539	-200,000	-0,040	0,139
-544,525	607,779	0,025	0,045
-543,510	584,648	-0,069	-0,125
-542,496	-200,000	-0,003	0,021
-541,481	-200,000	0,032	-0,117
-540,466	800,000	0,021	0,065
-539,452	-200,000	-0,009	0,056
-538,437	-7,158	0,117	-0,058
-537,423	160,745	0,028	-0,029
-536,408	101,695	-0,009	-0,008
-535,393	-8,109	-0,137	-0,067
-534,379	-200,000	-0,005	-0,044
-533,364	-84,023	-0,032	-0,007
-532,350	211,680	-0,021	-0,025
-531,335	252,434	-0,073	-0,092
-530,321	3,949	-0,117	0,062
-529,306	-107,713	-0,121	0,019
-528,291	15,777	0,102	-0,058
-527,277	-200,000	0,007	0,047
-526,262	800,000	-0,024	0,053
-525,248	-200,000	-0,001	0,004
-524,233	186,141	0,129	-0,140
-523,218	577,563	0,039	0,070
-522,204	-28,927	0,080	-0,033
-521,189	-184,571	-0,062	-0,001
-520,175	-200,000	-0,012	0,039
-519,160	-100,245	0,093	0,017
-518,145	5,930	0,187	-0,101
-517,131	-57,266	0,099	0,032
-516,116	350,258	-0,047	0,068
-515,102	-200,000	-0,005	0,036
-514,087	800,000	-0,059	0,173
-513,072	-17,895	-0,050	-0,023
-512,058	-200,000	-0,002	-0,066
-511,043	-65,263	0,139	0,041
-510,029	228,247	-0,061	-0,073
-509,014	142,858	0,036	0,035
-507,999	-91,656	0,098	0,020
-506,985	-110,719	0,144	-0,022
-505,970	-61,698	-0,089	0,027
-504,956	-200,000	0,004	-0,080
-503,941	-102,039	-0,023	-0,004
-502,926	-195,316	0,094	-0,000
-501,912	-142,920	-0,161	-0,011
-500,897	-133,769	0,073	-0,007
-499,883	-200,000	0,007	-0,107
-498,868	-17,982	-0,044	0,020
-497,853	315,533	-0,048	0,066
-496,839	-200,000	0,004	0,067
-495,824	474,525	0,097	0,161
-494,810	81,661	0,044	-0,035
-493,795	-80,302	-0,095	0,023
-492,781	-200,000	-0,007	-0,141
-491,766	-62,332	-0,100	-0,030
-490,751	155,892	-0,073	0,074
-489,737	-73,317	0,103	-0,027
-488,722	117,721	0,009	0,008
-487,708	103,565	0,059	0,050
-486,693	-10,047	-0,106	-0,051
-485,678	-200,000	0,035	-0,165
-484,664	307,418	-0,033	-0,045
-483,649	-98,423	-0,059	0,011
-482,635	602,016	0,044	-0,081
-481,620	211,890	-0,027	-0,032
-480,605	800,000	0,030	-0,094
-479,591	42,624	0,170	0,113
-478,576	-200,000	-0,013	-0,051
-477,562	-200,000	-0,036	-0,159
-476,547	-200,000	0,044	-0,168
-475,532	121,333	0,070	0,063
-474,518	-19,065	0,014	-0,006
-473,503	800,000	0,037	-0,086
-472,489	-79,375	0,063	-0,015
-471,474	800,000	-0,012	0,031
-470,459	668,924	0,071	0,135
-469,445	180,515	-0,114	-0,123
-468,430	480,636	0,032	-0,053
-467,416	800,000	-0,042	0,123
-466,401	-200,000	0,005	0,086
-465,386	114,573	0,086	0,077
-464,372	-30,919	0,050	-0,020
-463,357	-44,849	0,025	-0,009
-462,343	-200,000	-0,003	-0,115
-461,328	800,000	0,027	0,063
-460,313	79,224	-0,099	0,077
-459,299	423,765	0,099	0,155
-458,284	634,865	0,014	0,027
-457,270	-185,799	-0,044	-0,000
-456,255	-38,617	0,152	-0,058
-455,241	-112,517	-0,127	0,018
-454,226	42,991	-0,079	-0,053
-453,211	-200,000	-0,030	-0,157
-452,197	296,634	-0,045	-0,060
-451,182	3,242	0,052	0,028
-450,168	74,418	-0,045	-0,035
-449,153	406,689	-0,034	-0,053
-448,138	-200,000	0,032	0,126
-447,124	-26,159	-0,025	-0,011
-446,109	800,000	-0,010	-0,029
-445,095	462,232	-0,023	-0,038
-444,080	325,844	-0,028	0,039
-443,065	-46,483	0,095	-0,034
-442,051	16,443	-0,108	0,062
-441,036	-6,716	-0,106	-0,052
-440,022	97,065	-0,028	-0,023
-439,007	166,148	-0,054	-0,056
-437,992	32,249	-0,065	-0,041
-436,978	9,019	-0,045	-0,025
-435,963	698,755	0,004	0,008
-434,949	-29,646	0,111	0,046
-433,934	22,638	-0,080	-0,048
-432,919	-108,519	-0,061	-0,009
-431,905	800,000	0,023	0,051
-430,890	-200,000	-0,007	0,134
-429,876	-48,318	0,079	-0,028
-428,861	-20,173	-0,115	0,051
-427,846	-91,217	0,226	0,047
-426,832	-200,000	0,005	-0,037
-425,817	-200,000	0,043	-0,144
-424,803	63,302	0,110	-0,080
-423,788	-74,420	-0,068	0,018
-422,773	588,391	0,038	-0,068
-421,759	155,251	-0,039	0,039
-420,744	-200,000	-0,008	-0,090
-419,730	-18,921	-0,126	-0,057
-418,715	800,000	-0,037	-0,099
-417,701	-32,111	0,035	0,014
-416,686	419,290	-0,059	0,093
-415,671	-101,563	0,010	0,002
-414,657	580,913	-0,059	0,106
-413,642	125,047	0,075	0,069
-412,628	226,998	-0,064	0,075
-411,613	800,000	0,032	-0,085
-410,598	-154,254	0,035	0,002
-409,584	699,623	0,054	0,104
-408,569	-50,464	0,077	0,026
-407,555	-81,333	0,171	0,041
-406,540	800,000	0,038	0,090
-405,525	-200,000	-0,014	-0,095
-404,511	-23,598	-0,058	0,025
-403,496	473,947	-0,037	0,061
-402,482	-16,618	0,111	0,051
-401,467	2,686	0,009	-0,005
-400,452	303,265	0,059	0,080
-399,438	800,000	0,053	0,145
-398,423	360,948	-0,007	0,010
-397,409	-129,040	-0,192	-0,019
-396,394	-200,000	-0,009	-0,129
-395,379	-200,000	-0,031	-0,102
-394,365	184,217	0,067	0,072
-393,350	-200,000	0,001	-0,014
-392,336	-100,433	0,085	0,015
-391,321	442,884	0,027	-0,043
-390,306	192,684	-0,086	-0,094
-389,292	-200,000	-0,026	-0,190
-388,277	169,206	-0,022	0,023
-387,263	216,648	0,134	-0,156
-386,248	800,000	0,029	0,091
-385,233	76,575	0,066	0,051
-384,219	416,848	-0,085	-0,133
-383,204	186,876	-0,089	0,097
-382,190	-111,071	-0,124	0,018
-381,175	-52,279	0,107	-0,036
-380,160	800,000	0,017	-0,044
-379,146	36,351	0,123	0,079
-378,131	-146,048	0,125	-0,008
-377,117	800,000	0,042	0,102
-376,102	675,945	-0,063	-0,120
-375,088	-103,373	0,041	0,007
-374,073	-67,111	-0,141	0,040
-373,058	769,370	0,056	0,112
-372,044	-200,000	0,027	-0,107
-371,029	-200,000	-0,035	0,144
-370,015	488,508	0,067	0,112
-369,000	76,718	-0,081	0,062
-367,985	800,000	-0,023	0,057
-366,971	-18,310	-0,071	0,032
-365,956	-56,195	0,152	0,049
-364,942	-155,010	0,116	0,005
-363,927	-14,888	0,013	0,006
-362,912	-174,317	-0,082	-0,002
-361,898	488,886	0,086	0,143
-360,883	51,788	0,090	-0,062
-359,869	-200,000	-0,046	-0,178
-358,854	154,756	0,030	0,030
-357,839	-200,000	-0,020	-0,101
-356,825	-200,000	0,019	0,064
-355,810	795,029	-0,054	0,109
-354,796	-150,571	0,041	-0,002
-353,781	171,765	0,117	-0,122
-352,766	-200,000	-0,008	-0,052
-351,752	492,317	-0,046	0,076
-350,737	-88,487	0,044	-0,009
-349,723	-158,629	-0,032	-0,001
-348,708	309,100	0,021	-0,029
-347,693	800,000	0,055	-0,115
-346,679	664,965	0,022	-0,041
-345,664	-118,136	-0,051	-0,007
-344,650	-48,577	-0,121	0,042
-343,635	-200,000	-0,003	0,160
-342,620	-6,089	-0,065	0,032
-341,606	-35,743	0,072	0,028
-340,591	-169,399	0,035	0,001
-339,577	-92,863	0,025	0,005
-338,562	-200,000	0,014	0,047
-337,548	318,835	0,060	-0,083
-336,533	-200,000	-0,012	0,163
-335,518	-88,753	-0,066	0,014
-334,504	-200,000	-0,004	0,063
-333,489	-200,000	-0,004	-0,034
-332,475	-200,000	0,005	0,042
-331,460	281,383	0,042	-0,055
-330,445	-74,878	0,134	0,035
-329,431	-200,000	0,007	0,040
-328,416	-125,167	0,084	0,009
-327,402	-200,000	0,017	0,131
-326,387	577,268	0,050	-0,090
-325,372	-69,617	-0,058	-0,016
-324,358	43,704	-0,009	-0,006
-323,343	-34,932	-0,103	-0,040
-322,329	800,000	-0,029	0,076
-321,314	-200,000	-0,039	0,210
-320,299	136,287	0,105	0,100
-319,285	-170,093	-0,048	-0,001
-318,270	800,000	0,021	-0,061
-317,256	-16,501	-0,055	-0,025
-316,241	275,234	-0,047	0,061
-315,226	97,791	0,055	-0,045
-314,212	517,811	0,065	0,110
-313,197	-28,927	0,051	0,021
-312,183	293,889	0,006	-0,007
-311,168	-40,594	-0,097	-0,036
-310,153	-63,502	-0,096	-0,028
-309,139	-200,000	-0,005	0,063
-308,124	-200,000	0,016	-0,165
-307,110	-150,892	0,051	0,003
-306,095	463,455	-0,114	0,185
-305,080	800,000	-0,033	0,088
-304,066	800,000	0,032	-0,069
-303,051	-200,000	0,000	0,058
-302,037	-13,718	0,064	-0,030
-301,022	65,066	-0,085	0,062
-300,008	800,000	0,022	0,068
-298,993	301,044	-0,046	-0,062
-297,978	800,000	-0,063	0,144
-296,964	31,188	0,030	0,019
-295,949	-19,526	-0,098	-0,044
-294,935	-200,000	-0,019	0,080
-293,920	102,281	0,052	0,044
-292,905	-136,886	0,090	-0,007
-291,891	-160,481	-0,041	0,002
-290,876	235,805	-0,019	0,023
-289,862	-200,000	-0,004	-0,096
-288,847	-200,000	-0,032	-0,133
-287,832	118,128	-0,047	-0,042
-286,818	261,007	-0,039	-0,048
-285,803	-14,046	0,141	0,066
-284,789	-102,890	0,092	-0,016
-283,774	-24,077	0,133	0,057
-282,759	-200,000	0,023	0,148
-281,745	96,850	-0,117	-0,097
-280,730	-134,203	0,123	-0,011
-279,716	18,817	-0,085	-0,049
-278,701	-85,158	-0,094	0,021
-277,686	99,189	0,052	0,044
-276,672	-169,853	-0,069	-0,002
-275,657	-200,000	-0,024	0,096
-274,643	-130,051	-0,036	0,004
-273,628	-5,215	-0,075	-0,037
-272,613	-126,920	0,106	0,011
-271,599	-97,801	0,074	-0,014
-270,584	-48,001	0,116	0,040
-269,570	68,623	-0,052	0,039
-268,555	758,358	0,039	0,078
-267,540	800,000	-0,028	-0,085
-266,526	423,274	0,033	-0,052
-265,511	332,295	-0,049	0,069
-264,497	25,062	0,042	-0,025
-263,482	-200,000	0,007	0,067
-262,467	-63,126	0,106	-0,031
-261,453	573,774	-0,046	-0,082
-260,438	143,509	-0,059	-0,057
-259,424	800,000	-0,064	-0,141
-258,409	230,184	-0,059	-0,070
-257,395	800,000	0,069	0,139
-256,380	222,970	0,034	-0,040
-255,365	-200,000	-0,027	0,091
-254,351	-200,000	0,012	0,087
-253,336	-138,874	0,132	-0,010
-252,322	50,714	-0,074	0,050
-251,307	-200,000	0,025	-0,110
-250,292	-111,014	0,178	0,026
-249,278	21,833	-0,159	-0,093
-248,263	3,804	0,063	0,033
-247,249	-200,000	-0,011	0,109
-246,234	-92,756	-0,052	-0,011
-245,219	800,000	0,022	-0,057
-244,205	-56,400	-0,015	-0,005
-243,190	94,232	0,160	-0,131
-242,176	202,856	0,097	0,108
-241,161	-200,000	0,051	0,222
-240,146	70,032	-0,050	-0,037
-239,132	-200,000	0,008	0,075
-238,117	-106,928	0,087	-0,014
-237,103	800,000	0,041	-0,132
-236,088	800,000	-0,014	0,037
-235,073	256,122	0,054	0,068
-234,059	59,623	0,081	0,058
-233,044	18,176	0,056	-0,032
-232,030	800,000	0,047	0,131
-231,015	-31,888	-0,185	0,075
-230,000	375,067	-0,063	-0,093
-228,986	-45,028	-0,111	-0,040
-227,971	205,914	-0,036	-0,041
-226,957	-200,000	0,046	0,197
-225,942	48,992	-0,040	-0,027
-224,927	-200,000	-0,011	-0,045
-223,913	-110,906	-0,048	-0,007
-222,898	20,241	-0,034	-0,020
-221,884	800,000	0,048	0,146
-220,869	-133,541	0,107	0,010
-219,855	-4,487	0,062	-0,031
-218,840	-200,000	-0,006	-0,084
-217,825	-200,000	0,015	-0,049
-216,811	800,000	-0,007	-0,020
-215,796	179,159	-0,088	-0,093
-214,782	-174,551	-0,067	-0,001
-213,767	-135,618	0,009	-0,001
-212,752	37,892	0,099	0,064
-211,738	-34,661	-0,145	0,057
-210,723	139,042	-0,110	0,105
-209,709	-108,762	-0,059	0,009
-208,694	800,000	0,028	0,067
-207,679	-87,989	-0,108	-0,023
-206,665	-200,000	-0,005	0,094
-205,650	800,000	-0,033	-0,090
-204,636	340,554	0,032	0,045
-203,621	-200,000	-0,002	-0,099
-202,606	800,000	-0,072	-0,213
-201,592	-17,271	-0,085	0,038
-200,577	191,818	-0,125	0,136
-199,563	-200,000	-0,024	-0,080
-198,548	250,241	0,066	-0,081
-197,533	317,504	0,033	0,045
-196,519	-200,000	-0,019	0,068
-195,504	20,527	0,078	0,045
-194,490	-7,204	-0,085	-0,042
-193,475	-83,439	-0,085	-0,019
-192,460	587,529	-0,007	0,013
-191,446	214,568	0,050	0,057
-190,431	-200,000	-0,021	-0,110
-189,417	172,721	0,095	0,099
-188,402	-200,000	-0,021	-0,069
-187,387	-200,000	-0,016	0,137
-186,373	17,326	-0,151	0,087
-185,358	-200,000	0,005	-0,116
-184,344	68,000	0,035	0,026
-183,329	-151,234	0,050	0,003
-182,315	800,000	0,071	0,150
-181,300	574,634	0,014	-0,025
-180,285	-47,130	-0,067	0,023
-179,271	157,241	-0,044	-0,044
-178,256	-200,000	0,000	0,030
-177,242	7,618	-0,128	0,069
-176,227	-200,000	-0,000	0,094
-175,212	379,059	0,027	-0,040
-174,198	-34,525	0,039	0,015
-173,183	0,913	-0,130	-0,067
-172,169	126,390	-0,049	-0,045
-171,154	-25,767	-0,066	0,028
-170,139	-33,794	-0,089	-0,035
-169,125	-156,872	0,090	-0,004
-168,110	800,000	0,029	0,066
-167,096	211,776	-0,049	0,056
-166,081	-200,000	-0,005	-0,047
-165,066	-85,573	-0,098	0,022
-164,052	800,000	0,051	-0,106
-163,037	252,487	0,044	-0,055
-162,023	-200,000	0,008	0,039
-161,008	800,000	-0,045	0,102
-159,993	-200,000	-0,003	0,161
-158,979	-200,000	-0,010	0,076
-157,964	800,000	-0,048	-0,153
-156,950	800,000	-0,016	0,046
-155,935	30,809	0,058	-0,036
-154,920	-200,000	-0,001	0,117
-153,906	-200,000	0,082	-0,000
-152,891	800,000	-0,065	-0,169
-151,877	-102,688	-0,031	0,005
-150,862	-74,626	-0,045	-0,012
-149,847	295,483	-0,082	0,108
-148,833	5,308	0,011	0,006
-147,818	69,843	0,111	0,082
-146,804	103,636	-0,034	0,028
-145,789	800,000	-0,003	0,008
-144,775	73,360	-0,080	-0,060
-143,760	-200,000	-0,033	-0,104
-142,745	296,385	-0,075	-0,100
-141,731	800,000	-0,035	-0,103
-140,716	-78,076	-0,119	0,029
-139,702	-200,000	0,172	0,000
-138,687	-81,755	0,019	-0,004
-137,672	176,604	0,022	-0,023
-136,658	-77,958	-0,120	-0,030
-135,643	78,766	-0,098	-0,075
-134,629	800,000	-0,035	-0,094
-133,614	-42,516	0,138	0,050
-132,599	14,355	0,037	-0,021
-131,585	285,503	0,051	0,066
-130,570	-14,458	0,036	0,017
-129,556	-200,000	-0,010	-0,106
-128,541	-200,000	-0,004	0,060
-127,526	68,384	-0,049	0,036
-126,512	-2,944	0,107	-0,054
-125,497	800,000	0,048	0,142
-124,483	-196,506	-0,108	0,001
-123,468	-200,000	-0,006	-0,125
-122,453	-200,000	0,030	-0,095
-121,439	800,000	-0,013	0,034
-120,424	62,116	0,031	0,022
