DTS Sentinel unit serial number:	SN410029Multiplexer serial number:	ORYXHardware model number:	OX2-SRSoftware version number:	ORYX F/W v4,00 Oryx Data Collector v3.7.2.0data status	okinstallation	B5 Nyhavnadifferential loss correction	single-endedforward channel	channel 2reverse channel	N/Adate	2023/12/12time	01:07:13forward acquisition time	300,00reverse acquisition time	0,00gamma	499,1914k internal	0,3156k external	0,3156temperature offset calibration	1,0000default loss term (dB/km)	0,3820temperature slope calibration	1,0000multiplexer offset coefficient	1,0000multiplexer slope coefficient	1,0000fibre end	0,00T internal ref (°C)	16,00T ext. ref 1 (°C)	-0,45T ext. ref 2 (°C)	-0,73length (m)	temperature (°C)	Stokes	anti-Stokes-744,400	37,770	0,131	-0,086
-743,385	-151,810	-0,359	0,019
-742,371	-200,000	0,009	-0,042
-741,356	9,997	-0,163	0,091
-740,342	72,544	0,129	0,099
-739,327	-56,526	-0,221	-0,072
-738,312	800,000	0,094	-0,230
-737,298	-121,690	-0,218	-0,026
-736,283	29,249	0,122	0,076
-735,269	-6,448	-0,252	0,126
-734,254	-200,000	-0,016	0,055
-733,239	-81,385	-0,479	-0,115
-732,225	-34,702	0,110	0,044
-731,210	51,866	-0,125	0,088
-730,196	43,909	-0,137	-0,092
-729,181	-200,000	-0,003	0,046
-728,167	-200,000	0,031	0,131
-727,152	-32,384	-0,020	0,008
-726,137	203,024	-0,089	0,102
-725,123	-53,080	-0,072	-0,024
-724,108	-200,000	0,026	-0,129
-723,094	-120,771	-0,238	0,029
-722,079	-96,132	0,046	0,009
-721,064	800,000	-0,039	0,092
-720,050	-139,824	-0,073	0,006
-719,035	-110,137	0,057	0,009
-718,021	24,358	-0,043	0,026
-717,006	-200,000	0,005	-0,099
-715,991	-200,000	-0,029	-0,109
-714,977	-62,226	-0,093	0,028
-713,962	304,623	-0,014	-0,020
-712,948	-21,621	0,127	-0,057
-711,933	201,095	-0,104	0,118
-710,918	-47,630	-0,056	-0,020
-709,904	-179,560	0,023	0,000
-708,889	800,000	-0,049	-0,142
-707,875	-97,027	-0,081	0,015
-706,860	114,477	0,115	0,104
-705,845	128,114	-0,121	-0,114
-704,831	549,035	-0,048	-0,086
-703,816	0,842	0,058	0,031
-702,802	94,519	-0,017	-0,014
-701,787	185,518	-0,062	-0,068
-700,772	228,401	0,057	-0,068
-699,758	800,000	0,028	-0,061
-698,743	800,000	-0,051	-0,119
-697,729	-78,492	0,118	-0,029
-696,714	-200,000	-0,016	0,134
-695,699	699,608	0,014	0,028
-694,685	-96,381	0,056	-0,011
-693,670	-4,886	0,015	-0,007
-692,656	-200,000	0,005	0,061
-691,641	-107,338	0,082	-0,013
-690,627	800,000	-0,026	0,054
-689,612	33,983	-0,152	-0,097
-688,597	-200,000	0,079	-0,000
-687,583	-200,000	0,023	0,081
-686,568	-200,000	0,003	-0,092
-685,554	135,466	-0,038	0,036
-684,539	-76,116	0,052	0,013
-683,524	-148,606	-0,087	-0,005
-682,510	800,000	-0,043	-0,093
-681,495	-79,233	-0,130	-0,032
-680,481	325,035	-0,063	0,089
-679,466	-50,717	-0,012	-0,004
-678,451	16,615	0,029	0,017
-677,437	-143,988	0,155	-0,011
-676,422	12,080	0,082	-0,046
-675,408	62,727	-0,122	-0,090
-674,393	-50,549	0,032	0,011
-673,378	-51,202	-0,038	0,013
-672,364	558,850	-0,090	-0,161
-671,349	565,184	-0,051	-0,091
-670,335	39,831	-0,059	0,039
-669,320	-20,060	0,074	0,033
-668,305	39,171	0,018	0,012
-667,291	-199,455	0,106	-0,000
-666,276	207,290	0,053	0,061
-665,262	629,108	0,074	-0,138
-664,247	433,478	-0,083	-0,133
-663,232	-79,684	0,107	-0,026
-662,218	181,484	-0,025	0,027
-661,203	182,747	0,140	-0,153
-660,189	-200,000	-0,007	0,077
-659,174	76,956	-0,025	0,019
-658,159	-114,634	-0,065	-0,009
-657,145	-71,896	-0,140	0,038
-656,130	497,424	0,028	0,047
-655,116	-200,000	-0,005	0,193
-654,101	430,790	0,062	0,100
-653,086	-111,036	-0,027	-0,004
-652,072	-14,225	-0,152	-0,072
-651,057	189,220	-0,102	-0,112
-650,043	-66,673	-0,042	0,012
-649,028	-2,969	0,097	-0,050
-648,014	3,757	0,065	0,035
-646,999	800,000	-0,058	0,123
-645,984	-200,000	-0,010	0,062
-644,970	361,647	-0,066	-0,098
-643,955	-35,550	-0,112	-0,044
-642,941	37,609	-0,022	-0,014
-641,926	-108,059	0,101	-0,016
-640,911	-200,000	-0,006	-0,136
-639,897	-27,739	-0,090	0,038
-638,882	117,702	0,036	-0,033
-637,868	786,071	-0,036	-0,072
-636,853	667,323	0,024	-0,047
-635,838	-106,693	-0,095	0,015
-634,824	800,000	0,025	-0,062
-633,809	-52,352	0,112	-0,038
-632,795	227,320	0,095	0,113
-631,780	144,203	0,083	0,081
-630,765	-200,000	-0,000	-0,083
-629,751	-84,476	-0,098	-0,022
-628,736	7,615	-0,106	-0,058
-627,722	234,387	-0,071	0,086
-626,707	-119,420	0,159	-0,020
-625,692	162,905	-0,041	-0,042
-624,678	21,978	0,130	0,078
-623,663	67,105	-0,054	-0,040
-622,649	72,217	-0,105	0,080
-621,634	-133,411	0,049	0,004
-620,619	193,746	-0,048	0,053
-619,605	244,336	-0,041	0,051
-618,590	-76,326	0,106	-0,027
-617,576	-25,732	-0,017	0,007
-616,561	-200,000	-0,037	-0,122
-615,546	-78,092	-0,147	-0,037
-614,532	800,000	-0,077	-0,162
-613,517	-200,000	-0,028	-0,156
-612,503	-200,000	-0,017	0,069
-611,488	69,775	0,082	0,062
-610,474	-200,000	-0,006	0,057
-609,459	-15,403	-0,080	-0,038
-608,444	800,000	-0,002	0,007
-607,430	98,033	-0,021	-0,018
-606,415	-200,000	0,000	0,046
-605,401	-114,157	0,027	0,004
-604,386	-96,274	-0,061	-0,012
-603,371	-200,000	-0,001	-0,104
-602,357	511,289	-0,052	0,089
-601,342	-52,929	-0,059	-0,020
-600,328	-200,000	-0,006	0,093
-599,313	-162,794	-0,193	-0,007
-598,298	800,000	-0,037	-0,088
-597,284	522,741	-0,021	0,037
-596,269	14,425	0,135	-0,077
-595,255	787,595	0,057	-0,116
-594,240	393,706	0,017	-0,026
-593,225	-200,000	0,007	-0,089
-592,211	-200,000	-0,005	-0,194
-591,196	800,000	-0,054	-0,126
-590,182	-200,000	0,002	0,093
-589,167	-66,481	0,082	0,024
-588,152	-200,000	0,000	0,087
-587,138	-23,493	-0,020	-0,009
-586,123	-134,911	0,030	-0,003
-585,109	51,475	0,117	-0,082
-584,094	115,017	-0,072	0,065
-583,079	45,211	-0,110	0,074
-582,065	18,059	0,059	0,034
-581,050	-24,887	0,028	-0,012
-580,036	-85,334	-0,043	-0,010
-579,021	24,452	0,147	-0,089
-578,006	218,623	-0,066	-0,077
-576,992	-200,000	-0,013	-0,089
-575,977	330,775	0,042	0,059
-574,963	-106,626	0,088	0,014
-573,948	800,000	0,024	-0,072
-572,934	187,883	-0,063	-0,069
-571,919	216,743	-0,080	-0,093
-570,904	681,829	0,032	-0,061
-569,890	-200,000	-0,012	0,047
-568,875	800,000	0,036	-0,115
-567,861	800,000	0,059	0,122
-566,846	-200,000	-0,020	0,133
-565,831	184,762	-0,141	0,154
-564,817	-103,695	0,096	-0,016
-563,802	-200,000	-0,005	-0,053
-562,788	486,990	0,020	-0,033
-561,773	-102,697	0,029	-0,005
-560,758	87,157	0,032	-0,026
-559,744	194,251	0,093	-0,103
-558,729	137,730	-0,093	-0,089
-557,715	2,639	-0,036	0,019
-556,700	800,000	-0,018	0,054
-555,685	226,696	-0,090	-0,107
-554,671	96,368	0,034	-0,028
-553,656	105,960	-0,111	-0,096
-552,642	188,817	-0,055	0,060
-551,627	-77,931	-0,100	0,025
-550,612	264,109	-0,030	-0,038
-549,598	800,000	-0,024	-0,072
-548,583	18,101	-0,028	-0,016
-547,569	-59,963	0,155	-0,048
-546,554	206,488	0,060	-0,068
-545,539	-70,778	-0,048	-0,013
-544,525	180,767	0,052	-0,056
-543,510	-111,802	0,020	0,003
-542,496	126,980	0,071	-0,066
-541,481	186,767	0,115	-0,125
-540,466	-79,003	-0,056	-0,014
-539,452	-200,000	0,047	0,152
-538,437	245,976	0,079	0,098
-537,423	-64,074	0,137	0,041
-536,408	800,000	-0,047	0,115
-535,393	800,000	-0,029	-0,081
-534,379	-37,775	0,078	-0,030
-533,364	-200,000	0,026	-0,094
-532,350	-200,000	0,002	0,122
-531,335	-200,000	0,011	0,086
-530,321	-21,475	-0,053	-0,024
-529,306	31,471	-0,121	-0,076
-528,291	19,695	-0,029	-0,017
-527,277	22,967	0,041	-0,024
-526,262	-192,840	-0,049	-0,000
-525,248	-55,983	-0,063	0,021
-524,233	-200,000	-0,020	-0,132
-523,218	274,613	-0,042	0,055
-522,204	758,088	0,022	-0,045
-521,189	555,072	-0,021	-0,037
-520,175	313,482	-0,065	-0,090
-519,160	26,719	-0,125	0,076
-518,145	-96,985	0,135	0,026
-517,131	186,478	0,089	0,097
-516,116	65,333	0,099	0,073
-515,102	-121,095	-0,069	-0,008
-514,087	-89,332	-0,071	0,015
-513,072	33,894	-0,018	-0,011
-512,058	17,097	0,107	-0,062
-511,043	-200,000	-0,027	0,112
-510,029	260,093	0,103	0,131
-509,014	-84,934	0,143	0,033
-507,999	95,302	0,059	0,049
-506,985	-28,302	-0,075	0,031
-505,970	800,000	-0,035	-0,106
-504,956	177,354	-0,111	-0,119
-503,941	175,291	-0,006	0,006
-502,926	9,506	0,082	0,046
-501,912	79,112	0,074	0,058
-500,897	-168,595	0,033	0,001
-499,883	-84,408	0,115	0,026
-498,868	-43,605	0,066	0,024
-497,853	213,653	-0,076	-0,088
-496,839	-200,000	0,005	-0,057
-495,824	32,150	0,110	-0,069
-494,810	-157,135	0,091	-0,004
-493,795	87,952	-0,029	0,023
-492,781	800,000	0,008	0,017
-491,766	800,000	0,018	0,039
-490,751	-8,177	0,128	-0,063
-489,737	800,000	0,054	-0,116
-488,722	183,946	0,072	-0,078
-487,708	167,602	-0,092	0,096
-486,693	-133,620	-0,085	-0,008
-485,678	800,000	-0,033	-0,091
-484,664	-119,079	-0,118	-0,015
-483,649	800,000	-0,015	0,032
-482,635	315,612	-0,042	-0,058
-481,620	-96,877	0,114	0,022
-480,605	-42,159	0,074	-0,028
-479,591	62,451	0,039	-0,028
-478,576	473,791	0,046	0,076
-477,562	-17,474	-0,113	0,052
-476,547	78,319	0,066	-0,051
-475,532	-87,512	0,058	-0,013
-474,518	-85,830	0,059	-0,013
-473,503	-200,000	0,004	-0,021
-472,489	654,221	-0,051	0,096
-471,474	-59,529	-0,190	0,059
-470,459	-93,967	-0,134	-0,027
-469,445	10,478	-0,059	0,033
-468,430	-200,000	0,009	-0,037
-467,416	-129,042	-0,034	0,003
-466,401	-156,080	-0,137	-0,006
-465,386	-161,611	0,097	-0,004
-464,372	-7,936	-0,118	-0,058
-463,357	1,296	-0,135	0,071
-462,343	-158,479	-0,053	0,002
-461,328	-200,000	-0,003	-0,109
-460,313	198,863	-0,027	0,031
-459,299	487,033	0,010	0,017
-458,284	-141,073	0,155	0,011
-457,270	128,851	-0,071	-0,066
-456,255	-94,570	-0,086	-0,017
-455,241	-200,000	0,117	-0,000
-454,226	-27,620	0,044	-0,018
-453,211	-51,822	-0,071	0,024
-452,197	148,837	-0,110	0,109
-451,182	70,421	0,046	0,035
-450,168	279,956	0,051	0,066
-449,153	675,615	0,037	-0,070
-448,138	40,768	-0,037	-0,024
-447,124	800,000	0,021	-0,064
-446,109	-200,000	0,016	-0,051
-445,095	130,002	0,091	-0,085
-444,080	245,038	0,057	0,069
-443,065	-59,418	-0,054	0,017
-442,051	-85,732	0,129	0,029
-441,036	-95,601	-0,061	0,012
-440,022	-200,000	-0,011	-0,172
-439,007	-40,378	0,024	0,009
-437,992	-31,226	0,057	0,023
-436,978	800,000	-0,014	-0,037
-435,963	101,737	0,126	0,107
-434,949	31,651	-0,068	-0,043
-433,934	109,263	-0,077	-0,067
-432,919	800,000	-0,023	0,062
-431,905	-133,417	-0,056	-0,005
-430,890	-100,018	0,149	-0,027
-429,876	273,226	-0,040	-0,052
-428,861	-183,901	-0,028	0,000
-427,846	363,007	-0,052	-0,077
-426,832	202,045	0,094	-0,106
-425,817	214,207	-0,042	-0,049
-424,803	-77,369	0,061	-0,015
-423,788	318,204	0,053	0,074
-422,773	678,783	0,053	-0,101
-421,759	800,000	0,029	-0,060
-420,744	220,122	-0,103	0,120
-419,730	134,812	0,091	0,086
-418,715	31,097	0,084	-0,052
-417,701	-41,081	-0,039	-0,015
-416,686	2,164	0,182	-0,096
-415,671	800,000	0,019	-0,041
-414,657	800,000	-0,069	0,165
-413,642	800,000	-0,031	0,073
-412,628	-163,459	-0,042	0,001
-411,613	-200,000	-0,003	-0,010
-410,598	-113,467	-0,099	-0,014
-409,584	-200,000	-0,012	-0,041
-408,569	-74,178	0,148	0,039
-407,555	-169,870	0,044	0,001
-406,540	418,324	-0,029	0,046
-405,525	39,244	-0,036	0,023
-404,511	41,604	0,039	-0,025
-403,496	-112,289	-0,131	0,019
-402,482	-102,271	0,060	-0,010
-401,467	-126,809	-0,017	0,002
-400,452	-19,542	0,089	0,040
-399,438	-200,000	0,023	0,114
-398,423	800,000	0,030	0,068
-397,409	-80,652	-0,154	-0,037
-396,394	-200,000	0,003	-0,096
-395,379	-6,372	0,054	-0,027
-394,365	-200,000	0,002	0,026
-393,350	378,725	-0,029	-0,043
-392,336	-200,000	-0,004	0,020
-391,321	30,827	0,045	0,028
-390,306	-200,000	-0,010	-0,182
-389,292	-107,795	-0,095	-0,015
-388,277	-30,888	0,032	-0,013
-387,263	144,826	0,053	0,052
-386,248	49,354	-0,048	-0,033
-385,233	800,000	-0,052	0,157
-384,219	233,540	0,032	-0,038
-383,204	800,000	0,022	-0,061
-382,190	-200,000	-0,017	0,130
-381,175	-200,000	-0,010	0,089
-380,160	95,498	-0,074	-0,061
-379,146	-200,000	-0,007	0,055
-378,131	-24,525	-0,175	0,075
-377,117	-200,000	0,023	0,212
-376,102	89,635	-0,103	0,083
-375,088	306,485	0,031	-0,041
-374,073	-200,000	-0,001	0,108
-373,058	126,895	0,043	0,040
-372,044	-200,000	0,003	-0,059
-371,029	-200,000	-0,004	-0,045
-370,015	800,000	-0,011	0,024
-369,000	192,148	-0,065	-0,071
-367,985	-200,000	-0,018	-0,097
-366,971	-171,731	-0,160	-0,004
-365,956	800,000	-0,029	0,074
-364,942	683,661	-0,055	0,106
-363,927	800,000	-0,071	0,207
-362,912	-7,346	0,140	-0,069
-361,898	44,828	0,045	0,030
-360,883	-116,552	-0,054	0,007
-359,869	-174,936	0,060	0,001
-358,854	-112,646	0,133	0,019
-357,839	107,349	-0,098	-0,085
-356,825	191,650	0,045	-0,049
-355,810	155,135	-0,045	-0,045
-354,796	-33,514	0,031	0,012
-353,781	548,906	0,039	-0,067
-352,766	-105,047	-0,053	0,009
-351,752	-145,202	0,148	-0,010
-350,737	-93,867	0,135	0,027
-349,723	331,678	0,094	0,132
-348,708	-200,000	0,008	0,152
-347,693	-137,243	0,035	0,003
-346,679	-112,799	-0,195	-0,028
-345,664	-102,643	-0,045	0,008
-344,650	319,545	-0,071	-0,098
-343,635	159,761	-0,018	-0,018
-342,620	800,000	0,034	-0,088
-341,606	-164,609	0,014	0,000
-340,591	-200,000	-0,033	-0,113
-339,577	-120,008	-0,131	0,016
-338,562	-107,648	-0,029	-0,004
-337,548	253,320	0,012	-0,014
-336,533	800,000	-0,026	0,063
-335,518	-200,000	0,004	-0,033
-334,504	-200,000	-0,009	0,098
-333,489	-200,000	-0,008	0,112
-332,475	-68,995	-0,029	-0,008
-331,460	-19,494	-0,089	0,040
-330,445	755,277	0,024	0,047
-329,431	74,557	-0,100	0,077
-328,416	53,100	-0,102	0,071
-327,402	47,717	0,103	0,070
-326,387	248,038	0,081	0,099
-325,372	-200,000	-0,006	0,055
-324,358	-86,167	0,030	-0,007
-323,343	-200,000	-0,046	-0,188
-322,329	-200,000	-0,002	0,043
-321,314	723,557	-0,075	0,146
-320,299	147,679	-0,028	-0,027
-319,285	-200,000	0,010	0,103
-318,270	-200,000	-0,008	-0,099
-317,256	-173,027	0,093	-0,002
-316,241	-178,282	0,074	0,001
-315,226	696,492	0,051	0,098
-314,212	418,794	-0,089	0,138
-313,197	-200,000	0,013	0,059
-312,183	222,154	0,012	-0,014
-311,168	-200,000	-0,020	0,095
-310,153	-91,111	-0,058	-0,012
-309,139	-45,580	0,106	0,038
-308,124	395,524	-0,019	0,028
-307,110	369,272	0,029	0,042
-306,095	-173,148	-0,032	0,001
-305,080	-85,196	-0,113	0,025
-304,066	616,925	-0,064	-0,116
-303,051	-200,000	-0,012	-0,095
-302,037	3,513	-0,117	-0,062
-301,022	249,946	0,043	0,053
-300,008	-77,466	0,094	-0,023
-298,993	-135,372	0,188	-0,016
-297,978	-63,214	-0,079	-0,024
-296,964	-79,917	-0,043	-0,010
-295,949	-200,000	0,002	0,068
-294,935	800,000	0,003	-0,009
-293,920	132,881	0,103	0,097
-292,905	22,377	0,099	0,059
-291,891	-168,121	0,068	0,002
-290,876	-54,394	-0,070	-0,023
-289,862	493,185	0,032	-0,053
-288,847	180,663	-0,092	0,098
-287,832	-200,000	-0,001	-0,060
-286,818	800,000	-0,016	0,048
-285,803	67,044	0,072	-0,053
-284,789	-200,000	-0,002	0,058
-283,774	-109,797	0,071	0,011
-282,759	-200,000	-0,007	-0,023
-281,745	800,000	-0,024	-0,049
-280,730	106,843	-0,046	-0,040
-279,716	-146,996	0,055	0,003
-278,701	-39,555	0,161	-0,061
-277,686	421,118	0,014	-0,022
-276,672	-200,000	-0,017	-0,064
-275,657	417,337	0,029	-0,045
-274,643	656,336	0,020	-0,037
-273,628	517,746	0,041	-0,070
-272,613	76,063	-0,093	0,071
-271,599	-32,418	0,069	0,028
-270,584	800,000	0,018	0,045
-269,570	800,000	-0,024	0,062
-268,555	-62,439	0,078	0,023
-267,540	-200,000	0,009	-0,051
-266,526	-200,000	-0,010	-0,055
-265,511	56,881	-0,050	-0,035
-264,497	166,411	-0,057	0,059
-263,482	-183,168	0,092	-0,001
-262,467	158,059	-0,157	0,157
-261,453	800,000	0,016	0,041
-260,438	301,295	0,048	0,064
-259,424	-200,000	-0,027	-0,136
-258,409	800,000	-0,032	-0,084
-257,395	-126,740	0,074	-0,008
-256,380	-47,743	-0,044	-0,015
-255,365	-200,000	0,008	0,091
-254,351	800,000	0,019	0,056
-253,336	-200,000	-0,003	-0,052
-252,322	59,975	-0,120	-0,086
-251,307	420,777	0,032	-0,050
-250,292	350,218	0,061	0,087
-249,278	-140,164	-0,083	-0,006
-248,263	-78,579	-0,016	0,004
-247,249	-86,380	0,166	-0,037
-246,234	227,311	-0,086	-0,102
-245,219	-76,767	-0,065	-0,016
-244,205	426,465	0,016	-0,025
-243,190	684,165	-0,023	-0,043
-242,176	800,000	0,042	0,091
-241,161	-79,809	-0,037	-0,009
-240,146	-45,323	0,057	0,020
-239,132	-200,000	0,004	-0,068
-238,117	85,479	0,136	-0,108
-237,103	-200,000	0,003	0,090
-236,088	-200,000	0,015	0,056
-235,073	-82,665	0,105	-0,024
-234,059	-200,000	-0,007	0,084
-233,044	-34,941	-0,075	0,030
-232,030	-200,000	0,003	0,104
-231,015	800,000	-0,074	-0,158
-230,000	-125,643	-0,068	0,007
-228,986	46,212	0,065	0,043
-227,971	213,838	-0,077	-0,088
-226,957	-171,532	0,052	0,001
-225,942	-200,000	0,007	-0,039
-224,927	800,000	0,043	0,123
-223,913	800,000	-0,018	0,043
-222,898	475,211	0,030	0,048
-221,884	-117,349	0,108	-0,014
-220,869	-200,000	0,014	0,212
-219,855	427,329	0,051	-0,080
-218,840	800,000	-0,041	0,096
-217,825	136,585	-0,030	0,029
-216,811	-58,358	-0,113	0,035
-215,796	58,478	-0,058	0,041
-214,782	161,255	0,078	-0,079
-213,767	-1,742	-0,116	-0,059
-212,752	-200,000	-0,009	0,108
-211,738	-63,570	0,071	0,021
-210,723	-176,369	0,102	0,002
-209,709	101,547	-0,039	-0,033
-208,694	-49,872	-0,061	0,021
-207,679	-113,151	-0,079	-0,011
-206,665	-115,894	0,033	-0,004
-205,650	39,514	-0,045	0,029
-204,636	-96,874	0,113	0,021
-203,621	800,000	0,016	-0,046
-202,606	472,093	-0,038	-0,063
-201,592	-84,275	-0,048	-0,011
-200,577	258,186	-0,051	-0,063
-199,563	399,731	-0,086	-0,131
-198,548	-130,655	0,078	0,007
-197,533	100,171	-0,046	0,039
-196,519	-200,000	-0,037	-0,117
-195,504	800,000	0,013	-0,029
-194,490	-129,975	-0,082	0,008
-193,475	800,000	-0,015	0,037
-192,460	93,265	0,033	0,027
-191,446	-50,217	0,128	0,044
-190,431	-42,637	-0,027	0,010
-189,417	-200,000	-0,001	-0,041
-188,402	518,915	-0,071	0,120
-187,387	129,547	0,060	-0,055
-186,373	-168,472	0,122	-0,003
-185,358	419,160	0,042	-0,066
-184,344	-118,390	0,020	-0,003
-183,329	24,759	0,124	0,074
-182,315	-200,000	0,029	-0,129
-181,300	800,000	0,036	0,083
-180,285	-156,784	0,085	0,004
-179,271	388,184	0,064	0,096
-178,256	275,554	0,012	0,015
-177,242	800,000	0,055	0,159
-176,227	51,595	-0,083	0,057
-175,212	228,271	-0,128	-0,151
-174,198	535,061	0,083	0,142
-173,183	-192,878	-0,084	-0,001
-172,169	-200,000	0,001	-0,092
-171,154	-54,016	-0,073	-0,024
-170,139	-200,000	-0,009	-0,049
-169,125	800,000	0,014	0,036
-168,110	41,656	-0,078	0,051
-167,096	219,655	0,091	0,106
-166,081	-200,000	-0,007	0,108
-165,066	-159,138	-0,043	-0,002
-164,052	386,795	-0,013	-0,019
-163,037	102,157	-0,038	-0,032
-162,023	-22,524	0,064	0,028
-161,008	51,476	0,098	0,067
-159,993	-68,882	-0,132	0,037
-158,979	137,944	0,087	-0,082
-157,964	-200,000	-0,010	0,061
-156,950	308,560	-0,057	0,077
-155,935	-98,244	-0,099	0,018
-154,920	184,367	-0,066	-0,070
-153,906	82,321	0,141	-0,110
-152,891	-4,778	-0,021	0,010
-151,877	-200,000	-0,010	0,137
-150,862	-156,249	-0,148	-0,007
-149,847	-36,960	0,136	-0,052
-148,833	-6,633	-0,030	-0,014
-147,818	-200,000	-0,014	0,056
-146,804	84,935	0,136	0,107
-145,789	-200,000	-0,008	0,075
-144,775	-163,778	0,114	-0,004
-143,760	-58,102	-0,079	0,025
-142,745	360,998	0,025	-0,036
-141,731	-78,793	-0,165	0,040
-140,716	-109,021	0,069	-0,010
-139,702	62,523	0,164	0,118
-138,687	97,814	0,044	0,036
-137,672	495,945	-0,074	0,124
-136,658	-200,000	-0,016	0,077
-135,643	-200,000	-0,011	0,078
-134,629	661,118	-0,066	0,124
-133,614	-200,000	-0,020	0,094
-132,599	-17,641	-0,036	0,016
-131,585	800,000	-0,052	-0,115
-130,570	-86,277	-0,069	0,015
-129,556	259,662	0,035	0,044
-128,541	21,751	0,102	-0,059
-127,526	383,951	-0,021	0,031
-126,512	204,822	0,064	0,071
-125,497	800,000	-0,029	0,067
-124,483	-46,716	0,109	0,038
-123,468	-128,459	-0,063	-0,006
-122,453	800,000	-0,048	0,111
-121,439	800,000	-0,010	-0,025
-120,424	462,791	-0,091	-0,147
-119,410	76,674	0,044	0,034
