DTS Sentinel unit serial number:	SN410029Multiplexer serial number:	ORYXHardware model number:	OX2-SRSoftware version number:	ORYX F/W v4,00 Oryx Data Collector v3.7.2.0data status	okinstallation	B5 Nyhavnadifferential loss correction	single-endedforward channel	channel 2reverse channel	N/Adate	2023/12/13time	15:57:13forward acquisition time	300,00reverse acquisition time	0,00gamma	499,1914k internal	0,3160k external	0,3160temperature offset calibration	1,0000default loss term (dB/km)	0,3820temperature slope calibration	1,0000multiplexer offset coefficient	1,0000multiplexer slope coefficient	1,0000fibre end	0,00T internal ref (°C)	14,93T ext. ref 1 (°C)	-1,51T ext. ref 2 (°C)	-1,81length (m)	temperature (°C)	Stokes	anti-Stokes-744,400	617,101	0,071	-0,132
-743,385	43,429	-0,211	0,142
-742,371	51,802	0,242	0,170
-741,356	82,065	-0,192	-0,153
-740,342	-147,175	0,140	-0,009
-739,327	-114,820	-0,327	0,045
-738,312	1,047	0,080	0,042
-737,298	-124,591	-0,279	-0,031
-736,283	97,367	0,032	0,027
-735,269	2,763	-0,263	0,140
-734,254	-73,522	0,227	0,061
-733,239	-50,095	-0,508	-0,176
-732,225	-4,518	0,131	-0,067
-731,210	-200,000	-0,007	0,041
-730,196	49,191	0,084	0,058
-729,181	-93,753	-0,034	-0,007
-728,167	27,039	-0,115	-0,071
-727,152	-9,052	-0,078	-0,038
-726,137	13,069	-0,063	0,036
-725,123	263,895	-0,086	-0,110
-724,108	477,733	-0,058	-0,098
-723,094	9,020	-0,143	0,079
-722,079	-200,000	0,032	-0,145
-721,064	-200,000	-0,001	-0,016
-720,050	150,330	-0,059	0,059
-719,035	96,995	-0,037	0,031
-718,021	5,666	-0,097	0,053
-717,006	-200,000	-0,013	-0,101
-715,991	800,000	-0,038	0,106
-714,977	-105,687	-0,089	0,015
-713,962	198,049	-0,007	-0,007
-712,948	800,000	-0,045	-0,130
-711,933	-123,453	-0,059	-0,007
-710,918	-136,272	-0,073	-0,006
-709,904	-32,037	-0,056	0,023
-708,889	800,000	0,018	-0,039
-707,875	-200,000	-0,008	-0,076
-706,860	221,944	0,052	-0,062
-705,845	-200,000	0,003	0,099
-704,831	128,000	0,041	0,038
-703,816	6,775	-0,094	0,051
-702,802	-200,000	0,002	0,012
-701,787	-34,880	0,047	0,019
-700,772	222,434	0,099	-0,117
-699,758	228,731	-0,024	0,029
-698,743	67,666	0,115	-0,086
-697,729	296,895	0,029	-0,040
-696,714	457,222	-0,058	-0,095
-695,699	-200,000	-0,034	-0,125
-694,685	-64,621	0,100	-0,030
-693,670	-51,706	0,136	-0,046
-692,656	-46,916	0,069	-0,025
-691,641	-200,000	0,003	-0,014
-690,627	-200,000	0,034	0,124
-689,612	-79,908	0,057	0,014
-688,597	-200,000	0,002	-0,019
-687,583	800,000	-0,027	-0,074
-686,568	255,630	-0,048	0,060
-685,554	140,213	0,071	0,068
-684,539	-27,092	-0,013	-0,005
-683,524	800,000	0,025	0,061
-682,510	132,998	-0,021	-0,020
-681,495	-161,854	-0,050	-0,002
-680,481	-200,000	-0,000	-0,043
-679,466	-200,000	-0,002	0,033
-678,451	299,659	0,042	-0,057
-677,437	-200,000	0,041	0,136
-676,422	-200,000	0,001	-0,050
-675,408	119,258	-0,099	0,090
-674,393	21,387	0,036	-0,021
-673,378	-200,000	-0,014	-0,116
-672,364	401,933	-0,013	0,021
-671,349	499,555	0,043	0,073
-670,335	623,891	0,090	-0,168
-669,320	199,132	0,050	0,056
-668,305	-78,310	0,100	-0,025
-667,291	115,600	-0,072	-0,065
-666,276	238,824	0,031	0,038
-665,262	800,000	-0,056	-0,130
-664,247	-200,000	-0,013	-0,061
-663,232	165,203	0,046	0,048
-662,218	-200,000	0,020	0,161
-661,203	-3,478	-0,070	0,036
-660,189	-200,000	0,022	0,136
-659,174	-45,383	-0,101	0,037
-658,159	97,898	-0,071	-0,060
-657,145	-200,000	-0,010	-0,096
-656,130	46,179	-0,022	0,015
-655,116	221,110	-0,024	0,029
-654,101	40,789	0,004	-0,003
-653,086	800,000	-0,017	-0,049
-652,072	-200,000	0,004	-0,074
-651,057	800,000	-0,039	-0,111
-650,043	800,000	0,043	-0,095
-649,028	323,675	-0,083	-0,117
-648,014	395,031	0,035	0,053
-646,999	-82,191	0,071	0,017
-645,984	275,414	-0,032	-0,042
-644,970	374,912	-0,011	-0,017
-643,955	-128,059	-0,084	0,009
-642,941	-200,000	0,009	-0,136
-641,926	-24,402	0,045	-0,020
-640,911	208,102	-0,081	0,093
-639,897	253,178	0,094	-0,119
-638,882	-123,019	-0,117	-0,014
-637,868	40,007	-0,050	0,033
-636,853	1,231	-0,163	0,086
-635,838	800,000	0,039	0,084
-634,824	171,657	-0,109	0,115
-633,809	-136,129	0,101	0,009
-632,795	800,000	-0,032	0,075
-631,780	200,733	-0,070	-0,079
-630,765	-200,000	-0,005	-0,123
-629,751	352,239	-0,094	0,137
-628,736	-16,517	-0,023	-0,010
-627,722	25,595	0,050	0,030
-626,707	-141,006	0,041	0,003
-625,692	-67,535	0,064	-0,018
-624,678	204,027	0,111	0,126
-623,663	132,725	-0,138	-0,131
-622,649	800,000	-0,056	-0,124
-621,634	-200,000	-0,023	-0,099
-620,619	269,255	-0,063	-0,081
-619,605	420,906	0,010	0,016
-618,590	332,853	0,043	-0,061
-617,576	-200,000	-0,007	-0,150
-616,561	-69,152	0,076	0,021
-615,546	-200,000	-0,005	0,076
-614,532	-149,904	-0,119	0,007
-613,517	1,491	-0,109	0,057
-612,503	141,213	0,078	0,076
-611,488	-200,000	-0,015	0,069
-610,474	145,878	-0,009	-0,009
-609,459	81,327	0,130	0,103
-608,444	697,177	-0,036	-0,069
-607,430	-136,620	-0,041	-0,003
-606,415	-200,000	0,013	0,128
-605,401	-200,000	-0,023	-0,126
-604,386	-200,000	-0,005	0,065
-603,371	-200,000	0,004	0,075
-602,357	-57,165	0,089	-0,028
-601,342	185,136	-0,096	-0,104
-600,328	-54,053	-0,066	-0,022
-599,313	185,849	0,043	0,047
-598,298	194,196	0,102	-0,113
-597,284	-164,886	0,055	0,002
-596,269	138,374	0,038	0,037
-595,255	-72,266	-0,061	0,017
-594,240	-126,851	-0,214	0,023
-593,225	800,000	-0,019	-0,049
-592,211	-56,621	0,159	-0,051
-591,196	-75,452	0,054	0,014
-590,182	800,000	-0,006	-0,017
-589,167	800,000	0,036	-0,085
-588,152	800,000	-0,012	-0,026
-587,138	-53,205	-0,136	0,045
-586,123	-200,000	0,001	-0,122
-585,109	100,482	0,064	0,055
-584,094	-200,000	-0,003	-0,012
-583,079	800,000	0,020	0,048
-582,065	-51,953	-0,044	0,015
-581,050	-90,551	0,037	0,008
-580,036	-96,292	-0,026	0,005
-579,021	202,902	-0,102	-0,116
-578,006	800,000	0,013	-0,033
-576,992	24,407	0,087	-0,052
-575,977	800,000	-0,021	-0,059
-574,963	2,819	0,026	0,014
-573,948	452,701	-0,028	0,045
-572,934	-97,779	-0,068	0,013
-571,919	-200,000	-0,027	-0,102
-570,904	-200,000	0,003	-0,101
-569,890	-200,000	-0,014	-0,144
-568,875	-89,238	0,051	0,011
-567,861	107,384	0,044	0,038
-566,846	-200,000	-0,034	0,118
-565,831	232,067	-0,041	-0,049
-564,817	3,214	0,026	-0,014
-563,802	-12,055	-0,056	-0,027
-562,788	-200,000	-0,006	0,097
-561,773	135,848	-0,111	0,105
-560,758	27,415	0,174	-0,107
-559,744	-84,348	0,044	0,010
-558,729	101,368	-0,060	0,051
-557,715	135,937	0,073	-0,070
-556,700	204,165	0,080	-0,091
-555,685	137,056	0,016	0,016
-554,671	85,713	-0,078	-0,062
-553,656	195,595	0,068	0,076
-552,642	105,930	-0,091	0,079
-551,627	-200,000	0,015	-0,057
-550,612	-125,397	0,187	0,021
-549,598	-200,000	-0,020	-0,103
-548,583	516,311	0,059	-0,101
-547,569	-98,150	0,140	0,026
-546,554	-36,258	0,149	-0,058
-545,539	568,460	0,064	0,114
-544,525	-141,975	-0,109	-0,008
-543,510	414,909	0,034	0,053
-542,496	279,932	-0,065	0,086
-541,481	175,205	-0,032	0,034
-540,466	-200,000	0,001	-0,045
-539,452	71,584	-0,067	-0,051
-538,437	-200,000	-0,002	0,143
-537,423	-41,456	-0,121	0,045
-536,408	-84,337	0,084	-0,019
-535,393	-200,000	0,016	-0,095
-534,379	-63,700	-0,133	0,040
-533,364	96,148	0,144	0,120
-532,350	-13,791	-0,091	0,043
-531,335	141,059	-0,046	-0,045
-530,321	-12,980	0,127	-0,060
-529,306	65,922	-0,025	0,018
-528,291	185,549	-0,023	0,025
-527,277	-77,718	-0,044	-0,011
-526,262	-15,176	0,009	-0,004
-525,248	-185,892	0,063	0,001
-524,233	800,000	-0,012	0,028
-523,218	256,098	0,062	-0,078
-522,204	234,303	0,006	0,007
-521,189	-53,160	-0,060	0,020
-520,175	-140,506	-0,076	0,006
-519,160	160,352	-0,031	-0,032
-518,145	-200,000	0,005	-0,095
-517,131	800,000	0,018	0,048
-516,116	701,537	-0,024	0,046
-515,102	101,108	0,064	0,055
-514,087	-159,990	-0,134	-0,005
-513,072	24,200	0,076	-0,045
-512,058	-200,000	0,013	-0,133
-511,043	-52,708	-0,099	0,033
-510,029	688,761	-0,091	0,175
-509,014	267,193	-0,013	-0,017
-507,999	315,273	0,016	-0,022
-506,985	-11,075	-0,095	-0,045
-505,970	-2,739	-0,124	-0,063
-504,956	800,000	0,010	-0,022
-503,941	-128,380	0,106	-0,011
-502,926	-26,513	0,051	0,022
-501,912	122,440	-0,057	-0,052
-500,897	103,354	0,026	0,022
-499,883	-102,609	0,020	0,003
-498,868	23,628	-0,112	0,067
-497,853	37,644	0,085	-0,055
-496,839	80,932	-0,029	-0,022
-495,824	70,698	0,085	0,064
-494,810	-81,128	-0,060	0,014
-493,795	63,485	0,071	-0,052
-492,781	-145,576	0,056	0,004
-491,766	184,017	-0,081	-0,087
-490,751	286,391	-0,043	-0,057
-489,737	24,589	-0,040	0,024
-488,722	-58,891	0,049	0,015
-487,708	-142,219	0,059	-0,004
-486,693	142,351	0,060	0,058
-485,678	54,502	-0,101	-0,071
-484,664	5,210	-0,076	-0,041
-483,649	318,143	-0,042	-0,058
-482,635	-200,000	0,040	0,157
-481,620	-45,801	-0,105	0,038
-480,605	-200,000	-0,000	0,082
-479,591	-119,377	-0,124	-0,016
-478,576	-200,000	0,011	0,080
-477,562	800,000	-0,042	-0,116
-476,547	-200,000	0,009	-0,152
-475,532	-106,634	0,089	-0,014
-474,518	-200,000	0,026	0,099
-473,503	109,457	0,101	0,089
-472,489	737,556	0,040	0,078
-471,474	776,903	0,024	-0,048
-470,459	-200,000	-0,022	-0,140
-469,445	-116,146	0,031	0,004
-468,430	-200,000	-0,048	-0,216
-467,416	-123,175	0,198	0,023
-466,401	-103,727	-0,042	0,007
-465,386	-200,000	-0,005	0,018
-464,372	-48,326	-0,102	0,036
-463,357	800,000	0,045	0,095
-462,343	69,780	-0,054	-0,041
-461,328	502,886	0,039	-0,066
-460,313	-200,000	0,005	-0,044
-459,299	-200,000	-0,008	0,030
-458,284	-200,000	0,014	0,048
-457,270	-134,302	0,117	-0,010
-456,255	-9,314	-0,141	-0,068
-455,241	800,000	-0,048	0,097
-454,226	-42,317	0,118	0,044
-453,211	-124,034	-0,081	0,009
-452,197	262,553	0,033	0,041
-451,182	-101,069	0,115	0,020
-450,168	-89,346	-0,138	-0,029
-449,153	-123,321	-0,125	-0,014
-448,138	800,000	-0,006	-0,014
-447,124	-43,157	-0,092	-0,034
-446,109	-27,539	-0,048	0,020
-445,095	-70,629	0,124	-0,034
-444,080	-4,883	0,017	-0,009
-443,065	161,660	-0,039	0,040
-442,051	800,000	-0,043	-0,124
-441,036	-42,359	0,021	-0,008
-440,022	800,000	-0,039	-0,089
-439,007	-133,943	-0,019	-0,002
-437,992	-200,000	0,012	0,154
-436,978	-111,645	-0,050	0,007
-435,963	-132,993	0,078	0,007
-434,949	-88,149	-0,138	0,030
-433,934	-98,054	-0,127	-0,024
-432,919	-28,636	0,053	0,022
-431,905	-200,000	0,002	0,225
-430,890	-120,374	0,119	0,015
-429,876	-132,076	-0,042	-0,004
-428,861	-200,000	-0,018	0,151
-427,846	-76,719	-0,135	0,034
-426,832	800,000	0,060	-0,128
-425,817	138,870	-0,036	-0,034
-424,803	-200,000	-0,023	-0,103
-423,788	800,000	0,045	-0,126
-422,773	-150,260	0,130	-0,007
-421,759	-200,000	-0,009	-0,058
-420,744	-34,451	-0,116	-0,046
-419,730	484,362	-0,048	-0,079
-418,715	-47,959	-0,162	0,057
-417,701	-135,781	0,047	-0,004
-416,686	50,966	0,054	-0,037
-415,671	800,000	0,023	-0,049
-414,657	185,357	0,127	-0,137
-413,642	800,000	-0,009	-0,019
-412,628	44,578	0,044	0,029
-411,613	597,508	0,026	-0,048
-410,598	562,707	-0,056	-0,098
-409,584	-127,540	0,092	0,010
-408,569	-200,000	-0,025	-0,105
-407,555	105,021	-0,022	-0,018
-406,540	-146,263	-0,034	-0,002
-405,525	77,903	-0,045	-0,035
-404,511	529,065	-0,014	0,024
-403,496	-38,251	-0,017	0,006
-402,482	-81,947	0,069	0,016
-401,467	-200,000	0,022	0,077
-400,452	51,954	0,040	-0,028
-399,438	800,000	0,042	0,089
-398,423	466,456	-0,025	0,042
-397,409	-39,719	-0,053	0,020
-396,394	-88,886	-0,247	-0,053
-395,379	-166,763	0,084	-0,002
-394,365	117,764	-0,070	-0,063
-393,350	-200,000	0,034	-0,141
-392,336	199,420	-0,075	-0,084
-391,321	52,068	0,085	0,059
-390,306	-103,429	-0,042	-0,007
-389,292	-200,000	-0,048	-0,172
-388,277	-105,870	0,067	0,011
-387,263	451,548	0,016	0,025
-386,248	800,000	-0,014	0,035
-385,233	800,000	0,029	-0,075
-384,219	-200,000	0,024	0,088
-383,204	800,000	0,003	-0,009
-382,190	-118,214	-0,031	-0,004
-381,175	-200,000	0,009	-0,098
-380,160	800,000	0,045	-0,142
-379,146	-200,000	-0,027	0,129
-378,131	69,035	0,100	0,075
-377,117	117,434	-0,033	-0,029
-376,102	142,790	-0,137	0,133
-375,088	-200,000	0,020	-0,091
-374,073	331,792	-0,038	-0,054
-373,058	-200,000	-0,009	-0,083
-372,044	-121,203	0,123	0,015
-371,029	800,000	0,014	-0,028
-370,015	101,717	0,037	0,031
-369,000	670,796	-0,073	0,138
-367,985	-123,054	-0,045	-0,005
-366,971	47,823	0,104	0,070
-365,956	30,826	-0,130	0,081
-364,942	-200,000	0,002	-0,056
-363,927	-25,353	0,199	0,085
-362,912	-200,000	-0,022	0,098
-361,898	-200,000	0,020	0,111
-360,883	203,743	-0,071	-0,080
-359,869	800,000	-0,015	-0,035
-358,854	-62,051	0,104	-0,031
-357,839	800,000	0,027	-0,075
-356,825	-8,147	-0,061	-0,029
-355,810	-2,148	0,139	0,071
-354,796	800,000	0,069	-0,181
-353,781	-48,855	-0,137	0,047
-352,766	79,393	0,031	0,024
-351,752	34,832	0,114	0,072
-350,737	702,799	0,060	0,116
-349,723	800,000	-0,059	0,120
-348,708	-30,701	0,040	0,017
-347,693	132,292	-0,016	-0,015
-346,679	271,672	-0,031	-0,039
-345,664	89,473	-0,083	-0,067
-344,650	88,584	0,072	0,058
-343,635	242,275	0,038	0,046
-342,620	-200,000	-0,015	0,115
-341,606	-200,000	-0,012	0,054
-340,591	-10,506	0,154	-0,074
-339,577	67,390	0,054	0,040
-338,562	-64,254	-0,175	-0,051
-337,548	-107,808	0,144	0,023
-336,533	181,299	-0,075	-0,080
-335,518	-52,038	0,171	-0,057
-334,504	17,461	0,046	-0,027
-333,489	20,852	-0,053	-0,031
-332,475	218,032	-0,106	-0,123
-331,460	800,000	-0,045	-0,101
-330,445	800,000	-0,013	-0,030
-329,431	-2,097	-0,011	0,006
-328,416	225,064	-0,034	0,041
-327,402	-200,000	0,024	-0,084
-326,387	-126,486	-0,184	0,020
-325,372	-200,000	0,007	-0,149
-324,358	392,314	-0,062	-0,094
-323,343	517,255	-0,052	0,088
-322,329	165,233	0,055	0,056
-321,314	-179,297	0,196	0,003
-320,299	183,802	0,103	0,110
-319,285	-200,000	0,001	0,036
-318,270	-91,945	0,072	-0,015
-317,256	-161,268	-0,130	-0,005
-316,241	-78,101	-0,061	0,015
-315,226	321,546	0,026	0,036
-314,212	37,620	0,078	0,050
-313,197	-31,628	-0,127	0,051
-312,183	290,526	-0,034	-0,045
-311,168	-40,614	-0,170	-0,063
-310,153	-200,000	-0,007	-0,063
-309,139	-193,321	-0,060	0,000
-308,124	-110,812	-0,022	-0,003
-307,110	433,644	0,032	0,051
-306,095	292,163	0,002	0,002
-305,080	800,000	0,053	0,145
-304,066	800,000	0,030	0,063
-303,051	-200,000	-0,038	-0,122
-302,037	95,733	-0,029	0,024
-301,022	458,015	0,017	0,028
-300,008	800,000	-0,033	0,087
-298,993	-200,000	0,008	0,074
-297,978	-200,000	0,010	0,124
-296,964	-200,000	-0,028	0,132
-295,949	331,073	0,017	-0,024
-294,935	-63,402	0,068	0,020
-293,920	-22,435	0,025	0,011
-292,905	58,054	0,073	0,052
-291,891	99,060	0,074	0,062
-290,876	-200,000	-0,012	0,045
-289,862	66,479	0,062	0,045
-288,847	141,086	0,046	-0,044
-287,832	-46,507	0,083	-0,029
-286,818	-62,788	-0,153	-0,046
-285,803	-200,000	0,006	-0,041
-284,789	71,593	0,129	-0,097
-283,774	-7,740	0,181	0,088
-282,759	-59,646	-0,067	-0,021
-281,745	-76,221	-0,145	-0,037
-280,730	316,966	-0,097	-0,133
-279,716	800,000	-0,023	-0,067
-278,701	394,522	-0,064	-0,096
-277,686	-68,020	-0,007	0,002
-276,672	800,000	-0,046	0,120
-275,657	-103,769	0,066	-0,011
-274,643	-32,881	-0,102	-0,041
-273,628	-152,246	-0,092	-0,005
-272,613	-88,376	0,160	-0,034
-271,599	-39,722	0,031	0,012
-270,584	-200,000	-0,008	0,029
-269,570	800,000	0,048	0,153
-268,555	37,060	0,060	0,038
-267,540	14,957	0,049	0,028
-266,526	-200,000	-0,021	-0,090
-265,511	210,637	-0,053	0,061
-264,497	112,501	0,008	0,007
-263,482	16,612	-0,067	0,038
-262,467	792,684	0,067	0,135
-261,453	790,122	-0,044	-0,087
-260,438	271,645	-0,048	-0,061
-259,424	135,480	-0,042	0,040
-258,409	447,345	-0,040	-0,063
-257,395	-200,000	-0,020	0,190
-256,380	800,000	0,012	-0,024
-255,365	89,652	0,031	0,025
-254,351	800,000	0,049	-0,105
-253,336	-200,000	0,029	-0,129
-252,322	-200,000	-0,016	-0,090
-251,307	3,713	0,063	-0,033
-250,292	-200,000	0,011	0,052
-249,278	800,000	-0,039	0,104
-248,263	-38,777	0,019	0,007
-247,249	222,441	0,066	-0,076
-246,234	-200,000	0,007	-0,124
-245,219	-150,294	0,025	-0,001
-244,205	546,757	0,079	0,137
-243,190	327,667	0,076	0,105
-242,176	101,785	0,037	0,031
-241,161	101,533	0,044	0,037
-240,146	-27,560	-0,029	0,012
-239,132	450,323	0,011	0,018
-238,117	669,334	0,055	-0,103
-237,103	360,083	0,070	-0,102
-236,088	-200,000	0,043	0,149
-235,073	28,700	0,117	0,071
-234,059	-200,000	0,010	0,038
-233,044	-200,000	-0,010	0,092
-232,030	-200,000	-0,041	0,132
-231,015	256,890	-0,097	0,120
-230,000	-200,000	-0,001	-0,010
-228,986	309,148	0,039	-0,052
-227,971	123,267	-0,057	-0,052
-226,957	800,000	0,037	0,110
-225,942	-20,262	0,060	-0,027
-224,927	174,779	0,097	-0,102
-223,913	76,671	-0,044	-0,034
-222,898	77,210	-0,064	0,049
-221,884	76,986	0,087	-0,066
-220,869	38,848	-0,026	-0,017
-219,855	-200,000	0,035	0,149
-218,840	-70,055	0,053	-0,014
-217,825	-96,947	0,093	-0,017
-216,811	800,000	-0,063	-0,144
-215,796	500,686	0,038	-0,064
-214,782	800,000	-0,019	-0,044
-213,767	-200,000	0,005	0,049
-212,752	800,000	-0,038	0,110
-211,738	48,109	0,056	0,038
-210,723	147,434	0,072	0,070
-209,709	-177,992	0,120	-0,002
-208,694	800,000	-0,042	-0,084
-207,679	800,000	0,021	0,060
-206,665	-200,000	-0,009	-0,109
-205,650	482,511	-0,037	0,061
-204,636	53,420	-0,042	0,029
-203,621	800,000	0,028	-0,067
-202,606	800,000	0,030	0,094
-201,592	-13,375	-0,057	-0,027
-200,577	127,019	0,095	-0,087
-199,563	800,000	-0,032	0,097
-198,548	92,875	0,156	0,127
-197,533	-200,000	0,000	0,025
-196,519	408,251	0,028	-0,042
-195,504	-61,793	-0,044	0,013
-194,490	364,412	0,037	0,054
-193,475	120,471	0,026	-0,023
-192,460	-200,000	0,013	0,164
-191,446	800,000	0,031	-0,087
-190,431	-23,551	0,097	-0,042
-189,417	-110,432	0,021	0,003
-188,402	-109,833	0,160	-0,024
-187,387	259,891	-0,063	0,078
-186,373	-57,432	-0,034	0,011
-185,358	313,480	0,024	-0,032
-184,344	-108,186	-0,148	0,023
-183,329	59,289	-0,084	0,060
-182,315	-200,000	-0,009	0,178
-181,300	-200,000	-0,004	0,111
-180,285	-101,467	-0,108	0,019
-179,271	-49,697	-0,105	-0,036
-178,256	87,485	0,098	-0,078
-177,242	-15,719	0,145	0,066
-176,227	88,242	-0,080	-0,064
-175,212	-76,991	-0,056	0,014
-174,198	44,458	-0,067	0,044
-173,183	317,995	-0,051	-0,070
-172,169	-74,314	-0,127	-0,033
-171,154	-62,405	0,109	-0,032
-170,139	371,939	-0,029	0,042
-169,125	25,079	0,049	0,029
-168,110	-200,000	0,016	0,085
-167,096	800,000	-0,073	0,176
-166,081	800,000	-0,064	0,138
-165,066	-13,997	-0,035	-0,016
-164,052	42,213	0,161	-0,105
-163,037	287,573	0,045	-0,059
-162,023	167,923	0,078	-0,080
-161,008	-133,136	-0,147	-0,013
-159,993	-142,450	0,131	-0,009
-158,979	-31,422	0,032	-0,013
-157,964	-101,218	-0,047	-0,008
-156,950	800,000	-0,050	-0,105
-155,935	-182,188	0,017	0,000
-154,920	152,557	-0,093	0,092
-153,906	-200,000	0,004	-0,041
-152,891	639,922	0,009	0,016
-151,877	-123,872	0,039	0,004
-150,862	-200,000	0,033	-0,117
-149,847	-200,000	0,005	-0,088
-148,833	256,903	0,088	-0,108
-147,818	45,120	0,102	-0,067
-146,804	-47,220	0,097	0,034
-145,789	510,505	0,093	0,157
-144,775	561,941	-0,038	-0,066
-143,760	59,537	0,047	-0,034
-142,745	207,793	-0,092	-0,103
-141,731	-200,000	0,012	0,097
-140,716	-11,444	0,108	-0,051
-139,702	309,511	0,044	-0,059
-138,687	-176,626	0,117	-0,002
-137,672	-51,010	0,145	0,049
-136,658	-200,000	-0,011	-0,070
-135,643	-200,000	0,020	0,193
-134,629	151,968	0,078	0,077
-133,614	-200,000	-0,010	0,084
-132,599	613,207	0,016	0,030
-131,585	800,000	-0,049	-0,105
-130,570	-200,000	0,032	0,103
-129,556	514,077	-0,048	-0,080
-128,541	-200,000	-0,053	-0,182
-127,526	135,277	-0,089	0,083
-126,512	-200,000	0,040	0,250
-125,497	-200,000	0,029	0,111
-124,483	352,634	0,055	0,079
-123,468	306,575	0,040	0,053
-122,453	-71,553	-0,109	0,029
-121,439	-200,000	-0,003	-0,171
-120,424	430,501	-0,057	-0,088
-119,410	16,177	0,091	0,052
