DTS Sentinel unit serial number:	SN410029Multiplexer serial number:	ORYXHardware model number:	OX2-SRSoftware version number:	ORYX F/W v4,00 Oryx Data Collector v3.7.2.0data status	okinstallation	B5 Nyhavnadifferential loss correction	single-endedforward channel	channel 2reverse channel	N/Adate	2023/12/12time	21:32:13forward acquisition time	300,00reverse acquisition time	0,00gamma	499,1914k internal	0,3158k external	0,3158temperature offset calibration	1,0000default loss term (dB/km)	0,3820temperature slope calibration	1,0000multiplexer offset coefficient	1,0000multiplexer slope coefficient	1,0000fibre end	0,00T internal ref (°C)	14,88T ext. ref 1 (°C)	-1,77T ext. ref 2 (°C)	-2,06length (m)	temperature (°C)	Stokes	anti-Stokes-744,400	258,503	0,048	0,061
-743,385	30,794	-0,127	-0,080
-742,371	-79,573	0,126	-0,031
-741,356	-112,512	-0,281	0,041
-740,342	-113,053	0,275	-0,040
-739,327	-47,427	-0,205	-0,073
-738,312	159,730	-0,037	-0,038
-737,298	-160,521	-0,391	0,015
-736,283	205,436	0,128	0,147
-735,269	-146,264	-0,207	-0,013
-734,254	-137,830	0,137	-0,011
-733,239	-81,311	-0,564	-0,136
-732,225	-76,181	0,207	-0,053
-731,210	-53,830	0,144	0,048
-730,196	-0,924	-0,072	-0,037
-729,181	77,437	-0,075	-0,059
-728,167	-200,000	0,013	0,140
-727,152	-183,688	0,113	-0,001
-726,137	-79,980	-0,047	0,012
-725,123	54,097	0,013	-0,009
-724,108	-13,035	-0,094	-0,045
-723,094	277,906	-0,075	-0,098
-722,079	182,686	-0,067	-0,072
-721,064	-200,000	-0,007	0,170
-720,050	15,785	0,090	0,052
-719,035	40,817	0,070	-0,046
-718,021	370,467	0,034	0,051
-717,006	-200,000	0,018	-0,186
-715,991	-200,000	-0,083	-0,280
-714,977	504,334	0,046	-0,079
-713,962	27,604	0,076	-0,047
-712,948	800,000	0,054	0,118
-711,933	-200,000	0,022	0,134
-710,918	-41,456	-0,058	-0,022
-709,904	364,620	0,129	-0,191
-708,889	-191,845	-0,060	-0,000
-707,875	91,616	-0,105	-0,087
-706,860	93,864	-0,069	0,057
-705,845	-45,736	0,074	-0,027
-704,831	800,000	0,048	0,141
-703,816	425,035	-0,038	-0,060
-702,802	-91,944	-0,091	-0,019
-701,787	400,623	-0,069	-0,106
-700,772	43,182	-0,080	-0,054
-699,758	-200,000	0,010	0,049
-698,743	-103,228	0,174	0,030
-697,729	165,257	-0,094	-0,098
-696,714	108,057	-0,088	-0,077
-695,699	-122,223	-0,147	-0,018
-694,685	-18,225	-0,116	-0,053
-693,670	-156,881	0,097	0,004
-692,656	800,000	-0,036	0,095
-691,641	298,432	-0,056	-0,076
-690,627	-129,487	0,068	0,007
-689,612	-200,000	0,022	-0,097
-688,597	87,171	0,114	-0,093
-687,583	-31,044	-0,106	0,044
-686,568	380,900	0,036	-0,054
-685,554	800,000	-0,057	0,149
-684,539	391,293	-0,076	-0,116
-683,524	121,270	-0,051	-0,047
-682,510	800,000	-0,043	-0,105
-681,495	-200,000	0,008	-0,170
-680,481	12,361	-0,079	-0,045
-679,466	650,115	-0,029	-0,056
-678,451	-200,000	-0,007	-0,047
-677,437	-200,000	-0,028	-0,158
-676,422	36,249	-0,069	-0,044
-675,408	-83,646	0,189	0,044
-674,393	540,043	-0,040	-0,070
-673,378	-135,279	-0,096	-0,008
-672,364	-137,802	-0,085	-0,007
-671,349	800,000	0,052	0,116
-670,335	-69,812	0,174	-0,049
-669,320	-200,000	-0,011	0,039
-668,305	119,681	0,070	0,064
-667,291	321,379	-0,046	-0,065
-666,276	-7,190	-0,051	-0,025
-665,262	-97,870	-0,110	-0,021
-664,247	-120,594	-0,067	-0,008
-663,232	-200,000	-0,042	0,160
-662,218	210,805	0,085	0,098
-661,203	-109,756	-0,104	0,016
-660,189	-200,000	0,001	-0,030
-659,174	-55,044	0,135	-0,045
-658,159	401,016	-0,008	-0,013
-657,145	298,655	-0,044	-0,060
-656,130	-14,769	-0,102	0,048
-655,116	-109,604	0,030	-0,005
-654,101	599,745	0,043	-0,079
-653,086	-69,249	0,176	-0,049
-652,072	800,000	-0,047	0,130
-651,057	628,657	-0,045	0,084
-650,043	-24,252	-0,070	0,031
-649,028	800,000	0,031	-0,074
-648,014	290,024	-0,053	0,071
-646,999	800,000	0,016	-0,051
-645,984	-106,712	0,161	0,026
-644,970	162,228	-0,115	-0,118
-643,955	106,870	-0,071	-0,062
-642,941	77,662	-0,067	-0,052
-641,926	143,894	0,022	-0,022
-640,911	4,563	0,089	0,048
-639,897	-8,960	0,054	0,026
-638,882	55,262	-0,137	0,097
-637,868	-1,251	-0,205	0,106
-636,853	-103,193	0,133	-0,023
-635,838	-122,314	-0,105	0,012
-634,824	-200,000	0,004	0,083
-633,809	-44,759	-0,024	0,009
-632,795	169,178	-0,035	0,037
-631,780	-200,000	0,024	0,197
-630,765	-12,202	-0,082	-0,039
-629,751	-79,332	-0,075	-0,018
-628,736	112,516	-0,024	-0,021
-627,722	800,000	-0,032	0,080
-626,707	-19,616	-0,047	0,021
-625,692	475,827	-0,052	0,087
-624,678	-200,000	-0,014	0,066
-623,663	-113,196	-0,075	-0,011
-622,649	800,000	-0,026	0,058
-621,634	371,025	0,049	-0,074
-620,619	-200,000	0,002	-0,034
-619,605	-200,000	-0,016	0,159
-618,590	12,605	-0,032	-0,018
-617,576	800,000	-0,032	0,088
-616,561	800,000	0,026	-0,070
-615,546	187,379	-0,083	0,091
-614,532	-200,000	0,006	0,065
-613,517	-200,000	0,002	-0,062
-612,503	340,779	0,100	-0,143
-611,488	147,837	0,093	0,092
-610,474	1,245	-0,141	0,074
-609,459	-187,510	0,137	0,001
-608,444	-116,749	-0,128	-0,017
-607,430	143,301	-0,087	-0,085
-606,415	-200,000	0,003	0,031
-605,401	667,857	0,033	-0,064
-604,386	-128,486	0,066	0,007
-603,371	800,000	-0,015	-0,043
-602,357	688,344	0,032	-0,062
-601,342	-200,000	0,014	0,063
-600,328	-48,064	-0,073	-0,026
-599,313	-200,000	0,033	-0,206
-598,298	800,000	0,007	0,016
-597,284	-33,489	0,062	-0,025
-596,269	538,918	0,043	0,075
-595,255	-73,693	0,147	0,039
-594,240	800,000	-0,052	-0,115
-593,225	236,077	0,077	0,093
-592,211	151,849	-0,100	0,100
-591,196	-122,274	0,078	0,009
-590,182	-124,065	-0,060	0,007
-589,167	-23,936	-0,040	-0,017
-588,152	753,718	-0,055	0,109
-587,138	-152,619	-0,128	0,007
-586,123	-200,000	0,006	0,080
-585,109	221,352	0,072	-0,085
-584,094	26,399	0,143	0,087
-583,079	-153,629	0,176	-0,009
-582,065	139,198	-0,122	-0,118
-581,050	-167,859	-0,096	0,003
-580,036	-84,350	-0,133	0,031
-579,021	31,752	0,061	0,039
-578,006	-200,000	0,003	-0,022
-576,992	800,000	0,025	0,057
-575,977	-33,054	0,153	-0,062
-574,963	-38,535	-0,072	0,028
-573,948	39,433	-0,020	0,013
-572,934	-130,198	0,077	-0,008
-571,919	140,521	-0,004	0,004
-570,904	408,923	-0,047	0,074
-569,890	51,341	0,060	0,042
-568,875	66,406	0,136	-0,101
-567,861	155,632	0,049	-0,049
-566,846	-62,789	0,013	-0,004
-565,831	-200,000	-0,025	0,140
-564,817	-200,000	-0,057	0,186
-563,802	-200,000	0,022	-0,088
-562,788	-67,520	-0,134	0,038
-561,773	42,456	0,115	-0,076
-560,758	-50,579	0,126	0,043
-559,744	-36,165	0,038	-0,015
-558,729	-200,000	0,015	0,210
-557,715	-42,707	-0,173	-0,064
-556,700	-125,427	-0,057	-0,006
-555,685	-95,050	-0,068	-0,013
-554,671	-200,000	-0,002	-0,097
-553,656	800,000	0,018	0,042
-552,642	-127,712	0,161	0,017
-551,627	1,974	0,040	0,021
-550,612	-21,379	-0,021	-0,009
-549,598	784,977	-0,023	-0,047
-548,583	58,102	-0,031	-0,022
-547,569	800,000	0,037	0,096
-546,554	101,027	-0,048	0,040
-545,539	-200,000	-0,010	-0,110
-544,525	800,000	-0,042	0,109
-543,510	538,152	-0,042	-0,073
-542,496	-51,364	-0,034	0,012
-541,481	21,724	-0,070	-0,041
-540,466	224,712	0,054	0,064
-539,452	-200,000	0,001	-0,088
-538,437	469,379	0,051	0,084
-537,423	-200,000	0,003	0,102
-536,408	88,757	-0,075	0,061
-535,393	-18,425	0,007	-0,003
-534,379	-106,809	0,174	0,028
-533,364	800,000	-0,017	0,050
-532,350	56,219	-0,069	0,049
-531,335	205,986	-0,032	0,037
-530,321	19,183	-0,046	-0,027
-529,306	2,956	-0,087	0,046
-528,291	397,316	0,004	0,007
-527,277	-154,573	-0,050	-0,002
-526,262	800,000	-0,014	-0,038
-525,248	800,000	-0,026	0,076
-524,233	-200,000	0,025	0,104
-523,218	426,384	0,037	-0,058
-522,204	-73,068	-0,104	0,028
-521,189	56,254	-0,066	0,047
-520,175	-200,000	-0,022	-0,086
-519,160	-200,000	-0,017	-0,100
-518,145	613,079	-0,058	0,107
-517,131	-200,000	-0,047	0,206
-516,116	1,455	0,119	-0,062
-515,102	211,318	0,047	-0,054
-514,087	-200,000	-0,004	0,035
-513,072	307,264	-0,118	-0,161
-512,058	-82,879	-0,105	-0,025
-511,043	-16,186	-0,013	0,006
-510,029	-36,201	0,062	0,024
-509,014	33,112	0,097	-0,061
-507,999	-111,592	0,154	-0,023
-506,985	229,143	-0,021	0,024
-505,970	-93,509	-0,111	-0,022
-504,956	12,886	-0,051	0,029
-503,941	800,000	0,044	0,117
-502,926	-200,000	-0,013	-0,131
-501,912	-80,800	-0,082	-0,020
-500,897	-101,460	0,071	-0,013
-499,883	-112,365	0,037	-0,005
-498,868	-200,000	0,045	-0,165
-497,853	800,000	-0,041	0,087
-496,839	-161,467	0,049	0,002
-495,824	384,750	0,021	0,032
-494,810	19,087	0,093	-0,054
-493,795	184,489	0,087	-0,094
-492,781	259,271	-0,031	-0,040
-491,766	-200,000	-0,035	-0,143
-490,751	-200,000	0,022	-0,203
-489,737	50,636	0,105	-0,072
-488,722	102,160	0,132	-0,112
-487,708	583,375	0,036	0,065
-486,693	60,879	-0,038	0,027
-485,678	149,422	-0,076	0,075
-484,664	31,452	0,077	0,048
-483,649	6,230	-0,102	-0,055
-482,635	23,009	0,047	-0,028
-481,620	-200,000	0,008	0,179
-480,605	800,000	0,026	0,068
-479,591	-56,492	0,091	-0,029
-478,576	-47,173	-0,133	0,047
-477,562	300,381	-0,053	-0,071
-476,547	-200,000	-0,011	-0,144
-475,532	-159,703	-0,060	0,002
-474,518	220,130	-0,025	-0,029
-473,503	800,000	0,024	-0,051
-472,489	63,477	-0,080	0,058
-471,474	-200,000	-0,014	0,105
-470,459	-195,929	-0,146	0,001
-469,445	800,000	0,112	-0,283
-468,430	-200,000	-0,031	0,144
-467,416	33,001	-0,097	0,061
-466,401	-200,000	0,003	-0,031
-465,386	800,000	0,047	0,124
-464,372	99,757	0,092	0,078
-463,357	-156,440	-0,123	-0,005
-462,343	89,279	-0,109	-0,089
-461,328	189,664	0,025	-0,027
-460,313	10,843	-0,102	-0,057
-459,299	-200,000	0,004	-0,087
-458,284	300,927	0,024	-0,032
-457,270	-134,189	-0,038	0,003
-456,255	-12,246	-0,053	0,025
-455,241	-200,000	-0,013	-0,192
-454,226	-114,797	-0,119	0,016
-453,211	246,673	0,029	-0,035
-452,197	8,512	0,087	-0,047
-451,182	77,174	-0,039	0,030
-450,168	800,000	0,061	0,175
-449,153	-144,252	-0,070	0,005
-448,138	800,000	-0,006	0,016
-447,124	-59,786	0,093	0,029
-446,109	-200,000	0,012	0,043
-445,095	18,976	0,081	-0,047
-444,080	-200,000	-0,015	0,133
-443,065	-134,714	0,064	0,006
-442,051	482,486	-0,088	-0,146
-441,036	800,000	0,048	-0,098
-440,022	-89,533	-0,108	0,023
-439,007	-37,235	-0,023	-0,009
-437,992	121,195	0,088	-0,080
-436,978	-153,334	0,147	-0,007
-435,963	235,549	0,029	0,035
-434,949	800,000	-0,018	0,050
-433,934	514,833	0,032	-0,054
-432,919	346,129	-0,038	0,055
-431,905	-79,524	0,129	0,032
-430,890	800,000	-0,023	0,065
-429,876	-125,991	-0,143	0,015
-428,861	-29,298	-0,008	-0,003
-427,846	-200,000	-0,001	-0,076
-426,832	104,258	-0,138	-0,118
-425,817	-200,000	0,003	-0,081
-424,803	-99,098	-0,027	-0,005
-423,788	544,943	0,026	0,046
-422,773	800,000	-0,057	0,131
-421,759	247,536	-0,050	-0,062
-420,744	656,135	-0,042	0,079
-419,730	253,198	-0,064	0,080
-418,715	-200,000	-0,005	-0,112
-417,701	-118,361	0,102	0,013
-416,686	186,904	-0,034	-0,037
-415,671	800,000	0,027	-0,058
-414,657	-22,506	-0,116	0,051
-413,642	13,200	0,144	0,081
-412,628	531,297	-0,021	0,037
-411,613	800,000	-0,008	-0,019
-410,598	-171,885	0,037	-0,001
-409,584	-10,267	-0,101	0,049
-408,569	293,961	0,087	0,116
-407,555	-48,715	0,055	-0,019
-406,540	800,000	-0,022	-0,062
-405,525	7,648	-0,063	-0,034
-404,511	-47,842	-0,098	0,034
-403,496	-78,764	-0,051	0,012
-402,482	-200,000	-0,007	0,075
-401,467	-200,000	0,008	0,137
-400,452	-200,000	0,015	0,061
-399,438	-14,940	-0,076	-0,035
-398,423	-32,098	0,093	0,038
-397,409	-200,000	-0,002	-0,071
-396,394	-200,000	-0,000	0,079
-395,379	324,626	0,043	0,060
-394,365	-200,000	-0,015	-0,064
-393,350	-200,000	0,023	0,102
-392,336	68,098	-0,105	-0,078
-391,321	170,524	-0,116	-0,121
-390,306	421,918	-0,037	-0,058
-389,292	-200,000	-0,032	-0,162
-388,277	444,304	0,049	0,079
-387,263	85,354	-0,120	0,095
-386,248	-5,247	0,027	0,013
-385,233	34,824	0,029	-0,018
-384,219	-43,697	-0,066	-0,024
-383,204	800,000	0,040	-0,097
-382,190	299,543	-0,025	-0,033
-381,175	25,860	-0,058	0,035
-380,160	32,743	-0,077	-0,049
-379,146	-18,611	-0,117	-0,053
-378,131	-200,000	-0,008	0,086
-377,117	-4,065	-0,070	0,035
-376,102	580,520	-0,078	-0,140
-375,088	134,488	-0,085	-0,080
-374,073	273,863	0,057	0,073
-373,058	-182,273	0,121	0,002
-372,044	137,455	0,078	0,074
-371,029	-29,143	-0,078	0,032
-370,015	-200,000	-0,026	-0,158
-369,000	-6,751	0,077	-0,038
-367,985	-200,000	0,008	-0,079
-366,971	294,451	0,043	-0,058
-365,956	-60,503	-0,111	-0,034
-364,942	-151,328	-0,066	0,004
-363,927	-80,288	0,074	0,018
-362,912	229,031	0,005	-0,006
-361,898	89,831	0,050	-0,041
-360,883	416,746	-0,022	0,034
-359,869	-200,000	0,017	0,078
-358,854	-200,000	0,007	0,100
-357,839	34,116	0,096	-0,061
-356,825	-200,000	0,005	0,094
-355,810	718,868	0,051	0,099
-354,796	800,000	-0,026	-0,079
-353,781	-46,621	-0,111	0,039
-352,766	246,508	-0,081	-0,099
-351,752	192,122	0,066	0,072
-350,737	-32,173	0,078	-0,031
-349,723	155,993	0,061	0,061
-348,708	-200,000	-0,002	0,079
-347,693	800,000	-0,028	-0,058
-346,679	135,977	0,082	-0,077
-345,664	-200,000	-0,013	-0,164
-344,650	800,000	0,018	-0,041
-343,635	-51,834	0,147	-0,049
-342,620	800,000	-0,060	0,169
-341,606	150,384	0,109	0,107
-340,591	367,428	0,028	0,041
-339,577	-200,000	0,023	-0,132
-338,562	-2,528	-0,145	-0,073
-337,548	20,986	0,066	0,039
-336,533	279,187	0,029	0,038
-335,518	-200,000	0,030	-0,101
-334,504	-200,000	0,000	-0,032
-333,489	800,000	-0,052	0,111
-332,475	-200,000	-0,002	0,050
-331,460	-200,000	0,007	-0,202
-330,445	800,000	0,056	-0,176
-329,431	-142,837	0,042	-0,003
-328,416	-200,000	0,010	0,178
-327,402	-104,173	0,166	0,028
-326,387	523,396	0,074	-0,127
-325,372	-33,140	-0,121	0,048
-324,358	138,982	0,029	0,027
-323,343	-200,000	0,063	-0,204
-322,329	-84,494	0,019	0,004
-321,314	120,946	0,071	0,064
-320,299	87,323	0,138	0,111
-319,285	-154,002	-0,036	0,002
-318,270	195,883	-0,065	-0,072
-317,256	4,675	-0,102	0,054
-316,241	-200,000	0,020	0,068
-315,226	296,814	0,071	-0,094
-314,212	-200,000	-0,017	0,129
-313,197	300,386	0,010	-0,014
-312,183	82,609	0,138	0,109
-311,168	69,728	0,023	0,017
-310,153	26,962	-0,071	-0,043
-309,139	800,000	0,025	-0,060
-308,124	-51,868	-0,104	-0,035
-307,110	-130,604	0,058	0,006
-306,095	258,616	0,078	0,098
-305,080	-166,221	-0,075	-0,002
-304,066	82,920	-0,040	0,031
-303,051	-200,000	0,001	-0,054
-302,037	800,000	0,043	-0,121
-301,022	-5,610	0,060	-0,030
-300,008	782,044	-0,060	-0,119
-298,993	68,340	-0,087	-0,064
-297,978	155,076	0,125	0,125
-296,964	-197,611	0,052	0,000
-295,949	314,460	0,055	-0,075
-294,935	221,149	-0,125	-0,146
-293,920	229,416	0,069	-0,082
-292,905	-59,575	0,112	0,035
-291,891	126,598	0,195	0,179
-290,876	-200,000	0,038	0,144
-289,862	-168,784	0,037	-0,001
-288,847	584,891	0,012	0,021
-287,832	-59,705	0,066	-0,020
-286,818	-65,716	-0,111	0,032
-285,803	-200,000	-0,001	0,005
-284,789	632,502	-0,053	0,098
-283,774	277,906	0,079	0,102
-282,759	-104,738	0,211	0,035
-281,745	229,767	-0,059	-0,070
-280,730	-39,340	-0,075	-0,028
-279,716	360,462	-0,010	0,014
-278,701	-200,000	-0,002	0,095
-277,686	-170,843	0,099	-0,002
-276,672	51,943	-0,101	0,069
-275,657	-140,711	0,126	0,009
-274,643	-4,164	0,052	-0,026
-273,628	727,504	-0,065	-0,126
-272,613	14,276	0,055	0,031
-271,599	278,524	-0,055	0,071
-270,584	-200,000	-0,027	0,123
-269,570	-200,000	0,003	0,153
-268,555	-200,000	-0,052	-0,234
-267,540	800,000	-0,028	-0,072
-266,526	-200,000	0,009	-0,067
-265,511	81,842	0,061	-0,048
-264,497	4,337	0,074	0,039
-263,482	-24,299	0,082	-0,035
-262,467	92,115	0,036	0,029
-261,453	-37,499	0,050	-0,019
-260,438	20,028	-0,113	0,066
-259,424	800,000	0,038	-0,113
-258,409	664,076	-0,046	-0,086
-257,395	226,749	0,112	0,131
-256,380	-200,000	0,006	-0,126
-255,365	48,424	-0,061	0,042
-254,351	800,000	0,030	0,082
-253,336	159,643	0,094	0,094
-252,322	288,939	-0,047	-0,062
-251,307	12,203	0,164	-0,091
-250,292	-119,826	-0,075	-0,009
-249,278	-107,336	-0,099	-0,016
-248,263	-20,763	-0,083	0,037
-247,249	-200,000	0,003	-0,036
-246,234	20,523	0,064	0,037
-245,219	31,172	0,037	0,023
-244,205	-200,000	-0,011	-0,153
-243,190	181,903	0,079	-0,084
-242,176	-200,000	-0,022	-0,104
-241,161	-200,000	0,041	0,159
-240,146	631,561	0,082	-0,151
-239,132	-94,039	-0,116	0,023
-238,117	365,887	-0,035	0,052
-237,103	800,000	-0,014	-0,044
-236,088	39,330	-0,060	0,039
-235,073	272,825	-0,030	0,039
-234,059	56,762	-0,082	0,058
-233,044	475,567	0,045	-0,074
-232,030	-200,000	-0,019	-0,099
-231,015	288,511	-0,071	0,093
-230,000	172,591	-0,045	-0,047
-228,986	-200,000	-0,008	-0,026
-227,971	73,661	-0,153	-0,116
-226,957	-128,934	-0,037	-0,004
-225,942	-200,000	0,046	0,173
-224,927	800,000	0,054	-0,148
-223,913	-200,000	0,035	-0,148
-222,898	800,000	0,050	-0,120
-221,884	-200,000	0,006	-0,049
-220,869	647,982	-0,048	-0,089
-219,855	-200,000	-0,001	-0,058
-218,840	-61,452	0,116	0,035
-217,825	800,000	0,064	-0,201
-216,811	791,085	0,029	0,059
-215,796	800,000	-0,037	-0,092
-214,782	-41,480	0,105	-0,039
-213,767	580,595	-0,063	0,111
-212,752	287,827	0,094	0,123
-211,738	167,545	0,024	0,024
-210,723	800,000	-0,083	0,171
-209,709	-103,686	0,068	0,011
-208,694	800,000	-0,038	-0,111
-207,679	679,303	0,079	-0,149
-206,665	89,583	-0,069	0,056
-205,650	800,000	-0,009	-0,019
-204,636	800,000	0,021	-0,047
-203,621	71,341	-0,080	-0,060
-202,606	93,492	0,057	0,047
-201,592	101,053	-0,038	-0,032
-200,577	800,000	0,019	0,049
-199,563	-200,000	-0,000	-0,029
-198,548	8,642	0,076	0,041
-197,533	25,993	0,072	-0,043
-196,519	-200,000	-0,012	-0,091
-195,504	-48,814	-0,077	0,027
-194,490	39,618	-0,105	0,068
-193,475	5,079	-0,082	0,044
-192,460	800,000	0,027	0,078
-191,446	-180,716	0,097	-0,001
-190,431	-200,000	0,007	-0,055
-189,417	-200,000	-0,006	0,047
-188,402	557,273	-0,068	0,118
-187,387	-200,000	-0,003	-0,048
-186,373	442,899	-0,039	0,061
-185,358	-200,000	0,005	-0,022
-184,344	464,150	-0,053	-0,085
-183,329	241,436	0,143	0,172
-182,315	-78,935	0,060	0,015
-181,300	384,575	-0,049	0,073
-180,285	11,682	-0,072	0,040
-179,271	-200,000	-0,015	-0,064
-178,256	-104,144	-0,068	0,011
-177,242	-109,216	0,068	0,010
-176,227	800,000	0,032	0,099
-175,212	800,000	0,035	-0,076
-174,198	336,573	0,075	-0,105
-173,183	-91,458	-0,073	0,015
-172,169	-12,554	0,058	0,027
-171,154	261,955	-0,027	-0,034
-170,139	800,000	0,034	-0,077
-169,125	-22,998	-0,135	0,059
-168,110	-200,000	0,006	0,104
-167,096	-200,000	0,020	-0,073
-166,081	-23,772	0,005	-0,002
-165,066	-200,000	0,003	0,033
-164,052	-108,304	0,125	0,019
-163,037	-200,000	-0,025	0,117
-162,023	800,000	-0,062	0,126
-161,008	506,005	0,082	-0,138
-159,993	68,490	0,021	-0,015
-158,979	-45,628	-0,158	0,056
-157,964	-62,629	0,036	-0,011
-156,950	-72,086	0,142	-0,038
-155,935	-200,000	-0,005	-0,023
-154,920	-200,000	-0,002	0,065
-153,906	-200,000	-0,010	0,087
-152,891	-200,000	-0,002	0,049
-151,877	-200,000	0,023	-0,138
-150,862	-63,574	-0,188	-0,055
-149,847	20,224	0,089	-0,052
-148,833	165,104	0,064	-0,065
-147,818	49,696	-0,059	-0,040
-146,804	-118,091	0,167	0,021
-145,789	-188,387	-0,113	-0,001
-144,775	-200,000	0,002	0,008
-143,760	-88,315	-0,064	0,014
-142,745	460,645	-0,020	-0,032
-141,731	9,775	-0,050	0,027
-140,716	-200,000	0,000	0,011
-139,702	10,271	-0,033	0,018
-138,687	-126,448	0,141	0,015
-137,672	7,658	-0,102	0,055
-136,658	380,953	-0,020	-0,030
-135,643	191,695	-0,057	-0,062
-134,629	-200,000	-0,006	0,108
-133,614	-200,000	0,012	0,143
-132,599	37,112	0,028	0,018
-131,585	488,019	0,053	0,087
-130,570	800,000	0,010	-0,022
-129,556	800,000	0,033	0,087
-128,541	184,396	-0,099	-0,106
-127,526	61,154	-0,040	-0,028
-126,512	17,137	0,048	0,028
-125,497	-100,507	0,107	0,019
-124,483	800,000	-0,012	0,031
-123,468	-67,904	-0,085	0,024
-122,453	-22,643	0,089	0,038
-121,439	-120,862	0,023	0,003
-120,424	-23,898	-0,139	-0,060
-119,410	232,361	-0,028	-0,033
