DTS Sentinel unit serial number:	SN410029Multiplexer serial number:	ORYXHardware model number:	OX2-SRSoftware version number:	ORYX F/W v4,00 Oryx Data Collector v3.7.2.0data status	okinstallation	B5 Nyhavnadifferential loss correction	single-endedforward channel	channel 2reverse channel	N/Adate	2023/12/14time	01:57:13forward acquisition time	300,00reverse acquisition time	0,00gamma	499,1914k internal	0,3154k external	0,3154temperature offset calibration	1,0000default loss term (dB/km)	0,3820temperature slope calibration	1,0000multiplexer offset coefficient	1,0000multiplexer slope coefficient	1,0000fibre end	0,00T internal ref (°C)	8,65T ext. ref 1 (°C)	-7,51T ext. ref 2 (°C)	-7,54length (m)	temperature (°C)	Stokes	anti-Stokes-744,400	-2,493	0,166	0,085
-743,385	-52,524	-0,247	-0,084
-742,371	-126,889	0,078	0,008
-741,356	-94,904	-0,408	0,081
-740,342	87,520	0,193	0,158
-739,327	-159,186	-0,290	0,012
-738,312	-108,890	0,109	0,017
-737,298	-75,124	-0,389	-0,102
-736,283	-171,670	0,092	0,002
-735,269	-128,278	-0,410	-0,043
-734,254	257,924	0,070	0,090
-733,239	83,091	-0,539	-0,432
-732,225	-13,588	0,246	0,117
-731,210	-200,000	-0,018	0,097
-730,196	205,677	0,016	-0,018
-729,181	44,268	-0,030	0,020
-728,167	-200,000	0,003	-0,085
-727,152	-148,100	-0,082	0,005
-726,137	800,000	-0,060	-0,154
-725,123	752,185	-0,052	0,105
-724,108	231,746	0,101	-0,122
-723,094	-74,549	-0,102	-0,027
-722,079	-95,560	-0,096	0,019
-721,064	222,162	0,054	0,065
-720,050	-54,443	-0,044	-0,015
-719,035	-18,425	-0,080	0,037
-718,021	-200,000	0,012	-0,118
-717,006	-200,000	0,006	0,042
-715,991	-125,805	0,036	0,004
-714,977	800,000	-0,027	-0,067
-713,962	-200,000	0,001	0,076
-712,948	52,036	-0,078	0,054
-711,933	-200,000	-0,008	0,086
-710,918	-200,000	0,035	0,125
-709,904	-200,000	-0,001	-0,050
-708,889	-200,000	0,029	0,110
-707,875	-48,713	0,020	0,007
-706,860	800,000	0,027	-0,074
-705,845	-151,383	0,087	-0,005
-704,831	-16,807	0,100	0,047
-703,816	-112,544	-0,074	-0,011
-702,802	180,239	0,054	-0,058
-701,787	747,454	-0,020	-0,040
-700,772	-200,000	0,027	-0,122
-699,758	29,049	-0,054	0,034
-698,743	-200,000	0,035	0,138
-697,729	-200,000	-0,002	0,093
-696,714	-112,764	0,041	-0,006
-695,699	800,000	-0,027	-0,082
-694,685	-104,808	-0,085	-0,014
-693,670	-200,000	-0,035	-0,149
-692,656	-200,000	0,014	-0,117
-691,641	-125,453	-0,119	-0,013
-690,627	519,225	-0,050	0,086
-689,612	800,000	0,029	0,061
-688,597	106,449	-0,082	0,071
-687,583	304,899	-0,025	0,034
-686,568	580,284	-0,016	-0,029
-685,554	547,079	-0,035	-0,061
-684,539	-200,000	-0,010	-0,038
-683,524	26,002	-0,039	-0,024
-682,510	-9,850	-0,085	-0,041
-681,495	-37,853	-0,045	-0,017
-680,481	-200,000	-0,020	-0,125
-679,466	235,758	-0,085	-0,104
-678,451	800,000	-0,032	0,068
-677,437	-24,753	-0,125	-0,054
-676,422	116,643	0,065	0,058
-675,408	31,576	0,044	-0,028
-674,393	90,983	-0,059	-0,049
-673,378	292,550	-0,072	-0,097
-672,364	30,583	0,005	-0,003
-671,349	92,488	-0,052	-0,043
-670,335	4,324	-0,096	-0,051
-669,320	-200,000	-0,016	0,067
-668,305	800,000	-0,018	-0,059
-667,291	-39,288	-0,039	-0,015
-666,276	669,731	-0,055	-0,106
-665,262	-200,000	-0,001	0,048
-664,247	129,266	-0,043	-0,040
-663,232	188,429	-0,083	-0,092
-662,218	-200,000	-0,018	0,115
-661,203	50,050	0,029	0,020
-660,189	800,000	0,046	0,106
-659,174	61,656	-0,024	-0,017
-658,159	-140,927	-0,121	-0,009
-657,145	-102,129	-0,069	-0,012
-656,130	-8,286	-0,035	-0,017
-655,116	-51,337	-0,053	0,018
-654,101	546,912	-0,069	0,122
-653,086	-13,980	-0,108	0,051
-652,072	182,831	-0,135	-0,146
-651,057	-200,000	0,023	-0,156
-650,043	1,977	0,094	-0,050
-649,028	-149,330	0,113	0,007
-648,014	378,446	-0,022	0,033
-646,999	130,983	0,008	0,008
-645,984	278,006	-0,066	0,086
-644,970	-200,000	-0,008	-0,090
-643,955	540,510	0,089	-0,156
-642,941	-200,000	0,000	0,069
-641,926	48,626	0,033	0,022
-640,911	-45,500	-0,036	0,013
-639,897	-76,493	0,087	-0,022
-638,882	8,524	-0,144	-0,080
-637,868	85,093	-0,034	-0,028
-636,853	79,460	-0,021	-0,017
-635,838	652,171	-0,061	-0,116
-634,824	-132,157	-0,033	-0,003
-633,809	159,254	0,099	0,101
-632,795	800,000	-0,032	0,068
-631,780	-200,000	-0,008	-0,105
-630,765	36,537	-0,112	0,073
-629,751	800,000	0,049	0,112
-628,736	190,724	-0,078	-0,086
-627,722	-200,000	0,004	-0,211
-626,707	15,847	-0,119	-0,069
-625,692	197,517	0,091	0,102
-624,678	-43,977	-0,119	0,044
-623,663	-23,283	-0,051	-0,022
-622,649	-200,000	-0,013	-0,142
-621,634	-156,612	-0,033	0,001
-620,619	-200,000	0,014	0,055
-619,605	116,241	0,042	0,038
-618,590	-110,155	0,122	-0,019
-617,576	-26,022	-0,030	0,013
-616,561	399,735	0,018	0,027
-615,546	102,057	0,033	-0,029
-614,532	-76,420	-0,119	0,031
-613,517	-200,000	0,008	0,035
-612,503	-32,621	0,080	-0,033
-611,488	-101,539	0,019	-0,003
-610,474	-200,000	-0,028	0,123
-609,459	127,004	0,060	-0,056
-608,444	-200,000	-0,021	-0,137
-607,430	-200,000	-0,020	-0,085
-606,415	800,000	-0,006	0,015
-605,401	7,319	0,047	0,026
-604,386	-81,229	0,049	-0,012
-603,371	-200,000	-0,000	-0,050
-602,357	800,000	-0,043	-0,116
-601,342	256,568	-0,077	0,097
-600,328	270,697	0,038	0,050
-599,313	701,201	-0,052	-0,101
-598,298	-200,000	0,001	0,101
-597,284	-200,000	0,011	0,116
-596,269	-169,264	0,031	-0,001
-595,255	60,435	0,035	0,025
-594,240	-200,000	-0,019	-0,079
-593,225	73,924	-0,040	-0,031
-592,211	-200,000	-0,008	-0,080
-591,196	14,403	-0,093	0,053
-590,182	52,416	-0,020	-0,014
-589,167	-96,182	-0,125	0,024
-588,152	46,232	-0,106	-0,072
-587,138	-38,069	-0,093	-0,036
-586,123	-152,368	-0,084	0,004
-585,109	-3,500	-0,104	-0,053
-584,094	800,000	0,013	0,035
-583,079	-109,329	-0,033	-0,005
-582,065	800,000	0,015	0,041
-581,050	800,000	-0,008	0,024
-580,036	-68,147	-0,126	0,036
-579,021	-114,585	0,068	-0,009
-578,006	-200,000	-0,015	0,057
-576,992	-49,600	-0,126	-0,044
-575,977	20,235	-0,098	-0,058
-574,963	-107,128	0,131	0,021
-573,948	-105,897	-0,157	0,026
-572,934	-140,807	0,069	0,005
-571,919	-200,000	-0,020	-0,086
-570,904	57,917	-0,016	-0,012
-569,890	43,551	-0,078	0,052
-568,875	-84,202	0,081	0,019
-567,861	-19,469	0,128	0,058
-566,846	-37,121	0,065	0,025
-565,831	-140,011	-0,055	-0,004
-564,817	299,336	0,053	-0,072
-563,802	-127,558	0,079	0,008
-562,788	39,910	-0,057	0,037
-561,773	800,000	0,028	0,062
-560,758	-1,596	-0,061	-0,031
-559,744	-200,000	0,005	-0,132
-558,729	-125,296	-0,134	0,015
-557,715	-46,715	0,037	0,013
-556,700	48,960	-0,123	-0,084
-555,685	800,000	-0,012	-0,028
-554,671	406,193	0,072	0,111
-553,656	-161,151	-0,117	-0,004
-552,642	-200,000	0,018	0,085
-551,627	-200,000	0,018	-0,080
-550,612	194,229	0,050	-0,056
-549,598	141,819	-0,059	-0,057
-548,583	323,002	-0,078	-0,109
-547,569	-56,296	0,028	0,009
-546,554	184,393	-0,069	-0,075
-545,539	-174,404	0,035	-0,001
-544,525	-46,601	0,059	-0,021
-543,510	800,000	0,014	0,031
-542,496	-200,000	0,001	-0,060
-541,481	-200,000	-0,095	-0,000
-540,466	90,405	0,049	0,040
-539,452	-200,000	0,035	0,141
-538,437	800,000	-0,076	0,183
-537,423	-200,000	-0,014	0,076
-536,408	-130,779	-0,116	-0,011
-535,393	-114,443	-0,086	0,012
-534,379	327,030	0,039	-0,054
-533,364	257,790	-0,053	0,067
-532,350	800,000	0,042	0,129
-531,335	-116,869	0,078	0,010
-530,321	800,000	0,008	0,019
-529,306	-59,118	-0,173	-0,054
-528,291	373,037	-0,052	-0,078
-527,277	800,000	0,017	0,036
-526,262	-200,000	0,036	-0,126
-525,248	-200,000	-0,016	0,051
-524,233	-200,000	-0,017	-0,146
-523,218	55,940	0,080	-0,057
-522,204	701,556	0,055	0,107
-521,189	153,723	-0,036	0,036
-520,175	459,505	0,024	-0,039
-519,160	581,280	-0,034	-0,062
-518,145	421,556	0,031	-0,048
-517,131	-200,000	0,001	0,041
-516,116	-200,000	-0,003	0,048
-515,102	193,556	-0,086	-0,095
-514,087	97,762	-0,051	-0,043
-513,072	209,049	0,086	0,098
-512,058	569,736	-0,010	-0,017
-511,043	104,639	0,064	-0,055
-510,029	800,000	0,069	0,195
-509,014	489,955	-0,034	-0,058
-507,999	-200,000	0,012	0,096
-506,985	-155,891	0,024	0,001
-505,970	-200,000	0,001	-0,138
-504,956	-200,000	0,038	-0,226
-503,941	290,313	0,013	-0,017
-502,926	104,241	0,028	0,024
-501,912	16,082	-0,009	-0,005
-500,897	37,886	0,116	-0,075
-499,883	-200,000	-0,008	0,052
-498,868	-200,000	0,001	-0,042
-497,853	315,682	-0,017	-0,023
-496,839	-200,000	-0,011	0,127
-495,824	800,000	0,033	-0,071
-494,810	-46,546	-0,072	-0,026
-493,795	800,000	0,041	-0,097
-492,781	-46,638	0,096	-0,034
-491,766	91,805	-0,030	-0,024
-490,751	-163,440	0,049	0,002
-489,737	502,147	0,060	-0,101
-488,722	-9,097	-0,063	-0,031
-487,708	-200,000	-0,016	0,069
-486,693	-200,000	-0,009	0,042
-485,678	30,781	0,051	-0,032
-484,664	132,013	-0,025	-0,024
-483,649	240,034	0,013	0,016
-482,635	46,711	-0,095	-0,064
-481,620	-1,173	0,075	-0,039
-480,605	-200,000	0,002	0,064
-479,591	800,000	-0,023	-0,070
-478,576	37,527	0,100	0,065
-477,562	-73,290	-0,203	0,054
-476,547	252,657	-0,134	-0,167
-475,532	-74,881	0,111	0,029
-474,518	-200,000	0,019	-0,132
-473,503	-39,948	-0,045	-0,017
-472,489	528,596	0,083	0,144
-471,474	476,245	0,043	0,072
-470,459	196,131	0,119	-0,132
-469,445	800,000	0,010	-0,026
-468,430	-130,445	-0,184	-0,018
-467,416	-73,149	0,224	0,060
-466,401	318,517	0,016	0,023
-465,386	441,058	0,077	0,123
-464,372	-200,000	0,024	0,125
-463,357	-200,000	0,009	0,055
-462,343	800,000	0,032	-0,102
-461,328	-200,000	-0,006	-0,042
-460,313	-7,607	0,040	0,019
-459,299	11,539	0,209	0,117
-458,284	620,178	0,048	-0,089
-457,270	44,656	-0,107	-0,071
-456,255	-72,389	-0,202	0,054
-455,241	332,300	-0,048	0,068
-454,226	-200,000	0,006	-0,081
-453,211	-52,749	0,113	0,038
-452,197	-200,000	0,010	0,084
-451,182	673,912	-0,010	0,020
-450,168	144,541	-0,021	0,021
-449,153	-3,837	0,062	0,031
-448,138	627,179	-0,037	-0,068
-447,124	254,211	0,028	0,036
-446,109	-99,898	-0,204	-0,037
-445,095	507,741	0,031	0,053
-444,080	161,295	-0,157	-0,161
-443,065	-200,000	-0,011	0,147
-442,051	-200,000	0,012	-0,133
-441,036	-135,750	-0,049	-0,004
-440,022	800,000	-0,090	-0,239
-439,007	-43,364	0,093	0,034
-437,992	327,154	-0,080	-0,112
-436,978	757,690	-0,023	0,045
-435,963	-120,233	-0,030	0,004
-434,949	-7,671	-0,064	0,031
-433,934	-1,308	0,106	0,055
-432,919	187,920	-0,047	-0,051
-431,905	-161,766	-0,073	-0,003
-430,890	-107,435	-0,048	-0,008
-429,876	-200,000	-0,008	-0,055
-428,861	373,422	-0,052	-0,078
-427,846	-200,000	0,013	0,110
-426,832	113,539	-0,077	-0,068
-425,817	-200,000	0,005	0,037
-424,803	800,000	-0,026	0,067
-423,788	-165,291	-0,167	-0,005
-422,773	337,963	0,065	-0,092
-421,759	70,984	0,124	0,093
-420,744	-200,000	-0,009	0,074
-419,730	326,279	-0,051	-0,072
-418,715	483,144	-0,035	-0,058
-417,701	-51,623	0,143	0,048
-416,686	419,175	-0,053	-0,084
-415,671	-200,000	0,030	0,106
-414,657	361,132	-0,022	-0,032
-413,642	5,856	0,127	-0,068
-412,628	47,405	-0,067	-0,045
-411,613	-119,593	-0,150	-0,019
-410,598	482,366	0,037	0,061
-409,584	-50,271	0,052	0,018
-408,569	-34,970	0,114	0,045
-407,555	62,318	0,057	0,041
-406,540	800,000	0,037	0,078
-405,525	-200,000	0,023	-0,089
-404,511	-169,432	0,076	0,002
-403,496	156,925	0,013	-0,013
-402,482	51,537	0,039	-0,027
-401,467	-120,918	0,172	-0,021
-400,452	800,000	-0,041	-0,096
-399,438	800,000	0,030	-0,076
-398,423	25,262	0,127	-0,077
-397,409	800,000	-0,042	-0,090
-396,394	800,000	0,041	0,124
-395,379	-2,671	0,147	0,075
-394,365	51,867	0,092	-0,063
-393,350	-200,000	-0,024	0,175
-392,336	-44,680	0,052	0,019
-391,321	800,000	0,055	-0,113
-390,306	-161,700	-0,218	0,008
-389,292	351,229	0,028	0,040
-388,277	800,000	-0,024	-0,074
-387,263	-51,705	-0,051	-0,017
-386,248	-200,000	0,002	0,075
-385,233	800,000	-0,024	0,067
-384,219	151,427	-0,038	0,038
-383,204	202,582	0,032	0,036
-382,190	156,277	-0,046	0,047
-381,175	-200,000	0,008	-0,114
-380,160	-200,000	0,042	0,163
-379,146	98,712	0,005	0,004
-378,131	-122,376	-0,016	-0,002
-377,117	-200,000	-0,021	0,139
-376,102	800,000	-0,025	-0,069
-375,088	28,221	-0,057	0,035
-374,073	-22,831	0,069	-0,030
-373,058	-125,313	-0,074	-0,008
-372,044	800,000	0,023	-0,071
-371,029	-200,000	-0,022	0,092
-370,015	-87,190	0,159	0,035
-369,000	-200,000	0,007	-0,054
-367,985	99,750	-0,027	0,022
-366,971	65,512	0,058	-0,043
-365,956	-200,000	-0,016	-0,054
-364,942	-200,000	-0,007	0,112
-363,927	-200,000	-0,002	-0,073
-362,912	-200,000	0,019	0,073
-361,898	-200,000	0,000	-0,020
-360,883	800,000	-0,002	-0,005
-359,869	152,421	-0,048	-0,047
-358,854	-70,424	0,055	0,015
-357,839	-200,000	0,010	-0,045
-356,825	23,513	0,098	0,059
-355,810	600,196	-0,129	-0,234
-354,796	89,237	0,089	0,072
-353,781	294,417	-0,105	0,140
-352,766	150,515	0,030	0,030
-351,752	-200,000	-0,007	-0,127
-350,737	-78,243	0,088	-0,022
-349,723	-103,797	0,165	-0,028
-348,708	-200,000	-0,014	0,078
-347,693	-21,518	0,092	-0,040
-346,679	422,055	0,071	0,111
-345,664	800,000	-0,080	-0,181
-344,650	515,704	0,058	0,100
-343,635	61,111	0,102	0,073
-342,620	45,432	0,123	0,082
-341,606	800,000	-0,010	-0,029
-340,591	134,423	-0,158	0,149
-339,577	-200,000	-0,021	-0,098
-338,562	-200,000	-0,017	-0,154
-337,548	800,000	-0,034	-0,085
-336,533	-38,427	-0,051	0,020
-335,518	800,000	-0,028	0,080
-334,504	800,000	-0,030	0,082
-333,489	242,350	-0,019	0,024
-332,475	377,777	0,045	-0,068
-331,460	258,124	-0,112	-0,140
-330,445	800,000	0,040	0,089
-329,431	-200,000	0,021	0,085
-328,416	-130,680	0,171	0,016
-327,402	-64,196	-0,134	0,039
-326,387	-200,000	-0,001	-0,007
-325,372	389,328	-0,070	-0,106
-324,358	-200,000	-0,002	-0,064
-323,343	-200,000	-0,029	-0,129
-322,329	401,479	0,039	0,060
-321,314	-200,000	0,001	0,057
-320,299	144,521	0,059	0,057
-319,285	-200,000	0,017	0,141
-318,270	800,000	0,011	0,032
-317,256	506,735	0,070	-0,117
-316,241	-200,000	-0,040	-0,175
-315,226	800,000	-0,042	0,087
-314,212	800,000	0,056	-0,143
-313,197	16,167	0,105	0,060
-312,183	-13,817	0,147	-0,069
-311,168	-102,660	-0,119	0,020
-310,153	413,988	-0,015	0,023
-309,139	-200,000	0,025	-0,125
-308,124	456,732	0,072	0,117
-307,110	-200,000	0,004	0,048
-306,095	-200,000	-0,041	-0,148
-305,080	-200,000	0,004	0,100
-304,066	93,741	0,061	0,050
-303,051	-200,000	0,024	-0,082
-302,037	-22,579	0,053	-0,023
-301,022	-200,000	0,008	0,037
-300,008	-200,000	0,024	-0,089
-298,993	787,695	0,066	0,133
-297,978	386,539	0,032	0,048
-296,964	-55,603	-0,208	0,067
-295,949	29,599	0,120	-0,074
-294,935	134,419	-0,077	-0,072
-293,920	-200,000	-0,018	-0,094
-292,905	460,031	0,075	0,121
-291,891	300,822	0,039	-0,052
-290,876	-200,000	0,021	0,098
-289,862	581,540	-0,032	0,057
-288,847	500,939	-0,028	-0,048
-287,832	220,415	-0,029	0,034
-286,818	800,000	-0,032	0,067
-285,803	-200,000	-0,005	-0,086
-284,789	-14,808	0,109	-0,050
-283,774	31,308	0,135	0,084
-282,759	204,001	-0,070	-0,079
-281,745	-20,605	-0,061	-0,027
-280,730	-118,421	0,127	-0,016
-279,716	-164,508	0,086	-0,003
-278,701	728,333	-0,103	0,200
-277,686	-200,000	0,015	0,051
-276,672	572,586	-0,050	0,088
-275,657	78,498	-0,088	0,068
-274,643	769,538	0,035	0,069
-273,628	-87,713	0,074	-0,016
-272,613	59,404	0,045	0,032
-271,599	100,297	0,057	0,048
-270,584	7,933	0,091	0,049
-269,570	532,145	-0,007	-0,012
-268,555	-114,487	0,026	-0,004
-267,540	683,079	-0,035	-0,066
-266,526	800,000	0,068	-0,184
-265,511	98,158	0,023	0,019
-264,497	-52,986	0,124	-0,041
-263,482	800,000	0,029	-0,067
-262,467	111,995	-0,040	0,035
-261,453	666,826	-0,040	0,075
-260,438	-200,000	0,020	-0,069
-259,424	-151,811	-0,080	-0,004
-258,409	-200,000	-0,065	-0,215
-257,395	25,073	-0,102	0,061
-256,380	800,000	0,021	-0,053
-255,365	-121,175	-0,045	0,005
-254,351	-21,146	0,108	-0,047
-253,336	50,480	-0,143	-0,097
-252,322	-123,565	-0,062	0,007
-251,307	-200,000	-0,027	-0,088
-250,292	14,684	-0,095	0,054
-249,278	80,253	0,118	0,092
-248,263	25,734	0,078	0,047
-247,249	800,000	0,035	-0,084
-246,234	231,698	0,022	0,026
-245,219	-172,174	-0,069	-0,002
-244,205	344,574	-0,057	-0,082
-243,190	-200,000	0,037	0,159
-242,176	48,012	0,060	-0,040
-241,161	-200,000	-0,007	0,101
-240,146	-200,000	0,028	0,189
-239,132	800,000	0,044	0,096
-238,117	393,329	-0,024	-0,036
-237,103	800,000	0,031	0,091
-236,088	-200,000	-0,008	-0,054
-235,073	475,612	0,078	0,128
-234,059	-14,867	-0,045	0,021
-233,044	-147,852	-0,061	0,004
-232,030	70,261	-0,017	-0,013
-231,015	800,000	-0,052	-0,110
-230,000	800,000	-0,024	-0,056
-228,986	161,014	0,065	-0,066
-227,971	-200,000	0,016	0,166
-226,957	228,446	-0,020	0,023
-225,942	628,802	0,055	0,101
-224,927	-200,000	-0,004	0,174
-223,913	-148,650	0,066	0,004
-222,898	19,763	0,089	-0,052
-221,884	41,682	-0,004	-0,002
-220,869	170,332	0,051	-0,053
-219,855	-135,933	-0,088	0,007
-218,840	-185,561	0,085	0,001
-217,825	800,000	-0,018	0,045
-216,811	-191,426	-0,127	0,001
-215,796	-92,577	-0,079	-0,016
-214,782	-22,521	-0,057	0,025
-213,767	-154,749	0,152	0,007
-212,752	413,493	0,052	0,081
-211,738	508,944	-0,018	-0,030
-210,723	800,000	0,068	0,177
-209,709	800,000	-0,018	-0,046
-208,694	266,770	-0,054	-0,069
-207,679	-200,000	-0,009	-0,058
-206,665	315,553	0,036	-0,049
-205,650	-48,087	-0,055	-0,019
-204,636	596,824	0,021	-0,038
-203,621	136,739	-0,027	-0,025
-202,606	134,043	0,018	0,016
-201,592	-110,750	-0,102	0,015
-200,577	-103,526	-0,042	-0,007
-199,563	-87,708	0,067	0,014
-198,548	-200,000	0,019	0,099
-197,533	-200,000	-0,001	0,177
-196,519	92,321	-0,049	0,040
-195,504	-200,000	0,001	-0,035
-194,490	-200,000	0,023	-0,076
-193,475	-23,442	-0,086	-0,037
-192,460	51,612	-0,122	0,084
-191,446	409,747	0,106	0,162
-190,431	800,000	-0,023	-0,056
-189,417	-200,000	0,010	-0,092
-188,402	-200,000	-0,028	-0,145
-187,387	112,728	-0,117	-0,102
-186,373	376,396	0,037	-0,055
-185,358	-87,005	0,056	-0,012
-184,344	101,378	0,056	-0,047
-183,329	24,894	-0,068	-0,041
-182,315	-160,658	0,104	0,004
-181,300	800,000	0,034	0,091
-180,285	800,000	-0,033	0,081
-179,271	-200,000	-0,001	-0,047
-178,256	-58,333	0,104	0,033
-177,242	-200,000	-0,002	0,119
-176,227	800,000	0,044	-0,110
-175,212	-200,000	-0,011	-0,116
-174,198	800,000	-0,015	-0,034
-173,183	-120,160	-0,073	-0,009
-172,169	-94,364	-0,074	-0,015
-171,154	227,617	0,031	0,036
-170,139	-82,172	0,043	0,010
-169,125	112,579	0,071	-0,062
-168,110	-70,855	-0,053	0,014
-167,096	800,000	-0,026	-0,059
-166,081	180,845	-0,048	-0,051
-165,066	85,257	-0,068	0,054
-164,052	185,140	0,033	-0,035
-163,037	223,464	-0,069	0,081
-162,023	254,184	0,123	0,152
-161,008	800,000	0,061	0,142
-159,993	561,313	0,033	-0,058
-158,979	615,011	-0,039	0,072
-157,964	-133,830	-0,144	0,013
-156,950	20,131	-0,072	-0,042
-155,935	414,244	0,033	0,050
-154,920	-200,000	0,032	0,118
-153,906	-200,000	0,052	0,217
-152,891	-200,000	-0,004	0,062
-151,877	-71,787	-0,099	0,026
-150,862	276,640	0,063	0,081
-149,847	-200,000	-0,027	-0,123
-148,833	-200,000	-0,003	-0,101
-147,818	385,709	0,006	-0,009
-146,804	800,000	-0,030	0,079
-145,789	-200,000	-0,015	-0,048
-144,775	219,941	-0,088	-0,102
-143,760	-110,058	-0,072	0,011
-142,745	800,000	-0,066	-0,197
-141,731	53,093	0,030	-0,020
-140,716	-145,181	-0,164	0,011
-139,702	139,764	0,044	0,042
-138,687	-200,000	0,009	0,056
-137,672	32,064	-0,042	-0,026
-136,658	-200,000	-0,018	-0,084
-135,643	444,801	-0,004	0,007
-134,629	86,003	0,026	0,021
-133,614	197,690	0,113	0,124
-132,599	-43,456	-0,066	0,024
-131,585	143,009	-0,105	0,100
-130,570	-200,000	-0,109	0,000
-129,556	-75,469	0,103	0,026
-128,541	4,199	-0,153	0,081
-127,526	-200,000	-0,021	-0,139
-126,512	-200,000	-0,002	0,064
-125,497	305,763	0,049	0,066
-124,483	-200,000	0,008	0,046
-123,468	-60,821	-0,144	-0,044
-122,453	63,785	-0,155	0,112
-121,439	-200,000	0,032	-0,287
-120,424	519,707	0,031	-0,052
