DTS Sentinel unit serial number:	SN410029Multiplexer serial number:	ORYXHardware model number:	OX2-SRSoftware version number:	ORYX F/W v4,00 Oryx Data Collector v3.7.2.0data status	okinstallation	B5 Nyhavnadifferential loss correction	single-endedforward channel	channel 2reverse channel	N/Adate	2023/12/13time	14:22:13forward acquisition time	300,00reverse acquisition time	0,00gamma	499,1914k internal	0,3160k external	0,3160temperature offset calibration	1,0000default loss term (dB/km)	0,3820temperature slope calibration	1,0000multiplexer offset coefficient	1,0000multiplexer slope coefficient	1,0000fibre end	0,00T internal ref (°C)	14,94T ext. ref 1 (°C)	-1,17T ext. ref 2 (°C)	-1,46length (m)	temperature (°C)	Stokes	anti-Stokes-744,400	800,000	-0,051	0,121
-743,385	-28,383	-0,350	0,148
-742,371	-71,535	0,113	0,031
-741,356	-87,920	-0,241	0,053
-740,342	-128,438	0,144	0,015
-739,327	-135,685	-0,371	0,032
-738,312	493,538	0,089	0,151
-737,298	0,377	-0,131	0,069
-736,283	-23,592	0,032	-0,014
-735,269	-175,897	-0,315	0,006
-734,254	-105,849	0,105	0,017
-733,239	21,061	-0,414	-0,247
-732,225	-51,440	0,179	0,061
-731,210	800,000	-0,069	0,148
-730,196	-115,514	-0,019	0,003
-729,181	684,902	-0,048	-0,093
-728,167	428,791	0,013	-0,022
-727,152	-82,744	-0,072	0,017
-726,137	81,400	-0,045	-0,036
-725,123	-200,000	0,004	-0,042
-724,108	800,000	-0,051	-0,130
-723,094	5,376	-0,080	-0,043
-722,079	800,000	-0,050	-0,121
-721,064	655,729	-0,034	-0,065
-720,050	379,737	0,057	0,086
-719,035	800,000	0,015	-0,039
-718,021	267,587	-0,038	0,049
-717,006	-200,000	0,002	0,022
-715,991	41,864	-0,026	0,018
-714,977	800,000	-0,010	0,030
-713,962	29,466	-0,031	-0,019
-712,948	-200,000	-0,001	-0,088
-711,933	-53,741	0,089	-0,030
-710,918	800,000	0,021	0,048
-709,904	800,000	-0,057	-0,128
-708,889	342,339	-0,047	-0,068
-707,875	135,774	0,006	-0,006
-706,860	-200,000	0,019	-0,084
-705,845	-200,000	0,015	-0,101
-704,831	688,512	0,091	0,176
-703,816	-50,495	-0,124	-0,043
-702,802	136,227	-0,066	-0,064
-701,787	5,054	0,141	0,076
-700,772	-200,000	0,000	-0,046
-699,758	606,871	-0,056	-0,104
-698,743	-171,165	0,058	-0,001
-697,729	379,829	-0,036	-0,054
-696,714	-200,000	0,018	-0,169
-695,699	157,554	-0,077	-0,079
-694,685	-97,613	-0,013	-0,002
-693,670	800,000	-0,044	-0,099
-692,656	800,000	-0,020	0,059
-691,641	-89,134	0,044	-0,009
-690,627	-200,000	-0,002	0,081
-689,612	-158,666	0,079	-0,003
-688,597	273,775	0,045	0,059
-687,583	-65,898	-0,140	-0,041
-686,568	318,170	-0,014	0,020
-685,554	35,657	0,090	-0,058
-684,539	563,883	0,032	-0,057
-683,524	206,980	0,065	-0,074
-682,510	-77,668	-0,071	-0,018
-681,495	409,740	0,033	0,052
-680,481	703,397	0,073	-0,143
-679,466	17,368	0,068	-0,039
-678,451	-48,546	0,070	-0,025
-677,437	417,634	-0,055	-0,086
-676,422	-12,657	0,050	0,024
-675,408	90,108	-0,041	-0,034
-674,393	-200,000	-0,009	0,047
-673,378	-132,115	-0,096	-0,009
-672,364	800,000	0,013	-0,033
-671,349	20,638	-0,229	-0,136
-670,335	295,025	0,076	0,102
-669,320	800,000	0,060	0,149
-668,305	800,000	-0,030	0,069
-667,291	68,611	-0,057	-0,043
-666,276	-0,514	-0,141	-0,073
-665,262	-200,000	0,015	-0,053
-664,247	793,924	0,007	0,014
-663,232	-129,432	-0,052	0,005
-662,218	-200,000	0,015	0,054
-661,203	245,705	-0,058	0,071
-660,189	800,000	0,063	-0,133
-659,174	-200,000	-0,002	-0,130
-658,159	-200,000	-0,005	-0,089
-657,145	-200,000	-0,004	-0,042
-656,130	-103,662	0,023	-0,004
-655,116	-200,000	-0,000	0,003
-654,101	-200,000	0,045	0,195
-653,086	-32,595	0,130	-0,053
-652,072	467,150	0,057	-0,093
-651,057	50,437	0,044	-0,031
-650,043	-135,776	-0,153	0,013
-649,028	-200,000	-0,021	-0,150
-648,014	27,843	0,040	0,025
-646,999	-119,045	-0,138	-0,018
-645,984	-54,183	-0,048	0,016
-644,970	2,436	-0,145	0,077
-643,955	800,000	-0,035	-0,094
-642,941	-112,224	-0,038	0,006
-641,926	-200,000	0,009	-0,046
-640,911	189,119	-0,068	-0,075
-639,897	101,023	0,065	-0,056
-638,882	700,602	0,017	0,032
-637,868	-60,465	-0,044	0,013
-636,853	-33,641	-0,133	-0,053
-635,838	18,489	0,086	-0,050
-634,824	102,189	0,072	-0,062
-633,809	-200,000	0,010	0,053
-632,795	-200,000	-0,008	-0,042
-631,780	-200,000	-0,008	-0,033
-630,765	-200,000	0,034	-0,116
-629,751	-200,000	-0,005	-0,081
-628,736	-200,000	0,019	-0,088
-627,722	-42,056	0,105	-0,039
-626,707	-200,000	-0,011	0,100
-625,692	-200,000	0,001	0,102
-624,678	-140,459	0,037	0,003
-623,663	-58,039	0,076	-0,024
-622,649	346,766	-0,015	-0,021
-621,634	-200,000	0,007	-0,056
-620,619	5,445	-0,068	-0,037
-619,605	800,000	-0,022	-0,047
-618,590	-200,000	0,023	0,121
-617,576	619,410	-0,054	0,100
-616,561	130,479	0,003	-0,003
-615,546	309,744	-0,020	0,027
-614,532	-200,000	0,016	-0,161
-613,517	30,256	-0,100	-0,063
-612,503	83,916	-0,050	-0,040
-611,488	-200,000	-0,008	0,071
-610,474	-23,315	-0,123	-0,054
-609,459	-42,669	-0,041	0,015
-608,444	-200,000	0,009	0,145
-607,430	-28,903	0,052	-0,022
-606,415	327,105	0,051	-0,071
-605,401	171,256	-0,068	0,072
-604,386	-200,000	-0,019	-0,102
-603,371	50,104	0,105	0,073
-602,357	-200,000	0,020	0,131
-601,342	-37,775	-0,119	-0,046
-600,328	-78,665	-0,095	0,023
-599,313	8,904	-0,114	-0,063
-598,298	800,000	0,054	0,122
-597,284	220,757	0,062	0,073
-596,269	337,622	0,111	0,158
-595,255	800,000	-0,017	-0,040
-594,240	-200,000	0,006	-0,135
-593,225	18,020	-0,065	0,038
-592,211	-200,000	0,001	-0,080
-591,196	-200,000	-0,009	-0,044
-590,182	-76,584	0,031	-0,008
-589,167	386,849	0,019	0,028
-588,152	-200,000	-0,003	0,056
-587,138	-200,000	0,024	0,088
-586,123	800,000	-0,043	-0,107
-585,109	-4,193	-0,028	0,014
-584,094	663,143	-0,031	-0,059
-583,079	5,736	0,056	-0,030
-582,065	-143,234	0,040	-0,003
-581,050	-167,330	0,086	0,002
-580,036	-200,000	0,004	-0,127
-579,021	-200,000	-0,015	-0,086
-578,006	518,843	-0,077	-0,132
-576,992	228,155	0,049	0,059
-575,977	-29,314	0,161	0,067
-574,963	-153,277	0,065	-0,003
-573,948	800,000	-0,043	0,135
-572,934	-200,000	-0,003	-0,076
-571,919	-102,684	-0,140	-0,024
-570,904	150,226	-0,139	0,138
-569,890	31,248	0,055	0,035
-568,875	-88,915	0,118	0,025
-567,861	800,000	0,080	0,197
-566,846	439,881	0,084	0,135
-565,831	-88,715	-0,129	0,028
-564,817	135,384	0,022	-0,021
-563,802	-50,761	-0,067	0,023
-562,788	-200,000	-0,034	-0,123
-561,773	488,515	0,045	-0,075
-560,758	-77,643	0,114	-0,029
-559,744	91,602	0,045	-0,037
-558,729	800,000	0,043	0,090
-557,715	-83,881	-0,115	0,027
-556,700	-200,000	-0,008	-0,120
-555,685	-200,000	0,017	-0,153
-554,671	-50,208	-0,052	-0,018
-553,656	-169,380	0,138	0,004
-552,642	-3,226	0,091	-0,046
-551,627	737,718	0,027	-0,053
-550,612	800,000	0,040	0,111
-549,598	800,000	0,037	0,086
-548,583	-10,997	-0,081	-0,039
-547,569	-98,772	-0,080	-0,015
-546,554	347,205	0,036	0,052
-545,539	-200,000	-0,008	-0,104
-544,525	-135,265	-0,127	0,011
-543,510	404,449	-0,101	0,156
-542,496	108,227	-0,059	-0,051
-541,481	-200,000	0,048	-0,228
-540,466	338,433	-0,060	-0,086
-539,452	-200,000	0,022	-0,102
-538,437	-13,820	-0,024	-0,011
-537,423	363,249	0,043	-0,063
-536,408	-200,000	-0,012	0,075
-535,393	-200,000	-0,003	-0,086
-534,379	800,000	-0,017	-0,051
-533,364	-200,000	-0,028	-0,179
-532,350	33,066	-0,031	0,019
-531,335	-139,648	0,150	-0,011
-530,321	222,673	-0,022	0,026
-529,306	800,000	0,057	-0,123
-528,291	-200,000	0,008	-0,119
-527,277	-200,000	0,011	-0,085
-526,262	-133,406	0,082	-0,007
-525,248	-200,000	0,028	-0,168
-524,233	800,000	0,049	0,132
-523,218	25,017	-0,129	0,078
-522,204	552,784	-0,057	0,100
-521,189	-200,000	-0,012	-0,088
-520,175	156,611	0,108	-0,109
-519,160	800,000	0,021	-0,057
-518,145	325,630	-0,028	0,039
-517,131	800,000	0,009	0,020
-516,116	367,564	-0,014	0,021
-515,102	168,028	0,018	0,019
-514,087	185,089	-0,108	0,118
-513,072	558,431	-0,033	0,059
-512,058	800,000	-0,007	-0,022
-511,043	-60,560	0,059	-0,018
-510,029	800,000	0,046	0,109
-509,014	-200,000	0,007	0,083
-507,999	-200,000	0,012	-0,053
-506,985	800,000	-0,025	-0,076
-505,970	206,281	-0,067	-0,076
-504,956	595,020	0,065	-0,118
-503,941	-200,000	0,004	-0,026
-502,926	125,890	0,037	0,034
-501,912	-200,000	0,017	-0,159
-500,897	222,018	-0,042	0,050
-499,883	-36,098	-0,074	0,029
-498,868	61,379	-0,065	-0,047
-497,853	784,381	0,062	-0,124
-496,839	800,000	-0,060	-0,184
-495,824	-120,748	-0,113	0,014
-494,810	-200,000	-0,004	0,150
-493,795	100,342	-0,033	0,028
-492,781	800,000	0,043	0,110
-491,766	-47,580	-0,094	-0,033
-490,751	-200,000	-0,020	-0,095
-489,737	-200,000	-0,013	-0,069
-488,722	-200,000	0,011	0,065
-487,708	-200,000	-0,008	-0,066
-486,693	3,046	-0,023	0,012
-485,678	384,446	0,076	0,114
-484,664	747,028	-0,028	-0,055
-483,649	800,000	0,052	-0,124
-482,635	29,703	0,048	-0,030
-481,620	398,037	0,054	0,082
-480,605	181,662	0,090	0,096
-479,591	4,495	-0,044	-0,024
-478,576	712,448	-0,008	-0,016
-477,562	359,142	0,027	-0,040
-476,547	267,583	0,029	-0,037
-475,532	-96,477	-0,018	0,003
-474,518	-200,000	0,010	0,037
-473,503	314,705	-0,081	-0,111
-472,489	484,258	-0,041	-0,067
-471,474	-49,599	0,187	0,065
-470,459	171,816	-0,077	-0,081
-469,445	110,019	-0,097	-0,085
-468,430	-200,000	-0,014	0,052
-467,416	-200,000	0,016	0,148
-466,401	800,000	0,041	-0,098
-465,386	-77,864	0,034	-0,008
-464,372	-60,479	0,090	0,028
-463,357	490,344	0,021	-0,036
-462,343	800,000	0,014	-0,034
-461,328	-200,000	0,000	0,066
-460,313	800,000	-0,019	0,046
-459,299	418,091	0,056	-0,087
-458,284	800,000	-0,007	0,017
-457,270	800,000	-0,025	-0,054
-456,255	52,125	-0,037	0,026
-455,241	-91,046	0,022	-0,005
-454,226	-200,000	0,016	-0,068
-453,211	-123,076	-0,027	-0,003
-452,197	-83,212	0,063	-0,015
-451,182	-200,000	-0,002	-0,053
-450,168	354,640	-0,017	0,024
-449,153	275,055	-0,016	-0,021
-448,138	800,000	-0,026	-0,081
-447,124	257,264	0,121	-0,152
-446,109	126,557	-0,036	-0,033
-445,095	112,572	0,083	-0,074
-444,080	202,914	-0,125	0,141
-443,065	-200,000	-0,013	0,183
-442,051	-64,751	-0,066	-0,019
-441,036	55,656	-0,078	-0,055
-440,022	800,000	0,035	0,073
-439,007	373,258	-0,037	0,055
-437,992	121,694	0,094	0,085
-436,978	203,168	-0,113	0,127
-435,963	-79,611	-0,155	-0,038
-434,949	331,677	-0,086	0,121
-433,934	-200,000	0,024	0,000
-432,919	-33,932	-0,077	-0,031
-431,905	-200,000	-0,030	-0,112
-430,890	800,000	-0,027	0,082
-429,876	226,537	0,039	0,047
-428,861	0,813	-0,062	-0,032
-427,846	800,000	0,022	0,064
-426,832	-17,669	-0,096	-0,044
-425,817	-86,986	0,052	-0,011
-424,803	-126,188	0,205	-0,022
-423,788	51,778	-0,066	0,045
-422,773	-105,783	-0,095	0,015
-421,759	-112,777	0,127	-0,018
-420,744	89,242	-0,106	-0,086
-419,730	-200,000	0,031	-0,123
-418,715	-181,384	0,100	0,001
-417,701	-147,425	0,081	-0,005
-416,686	141,884	-0,039	-0,038
-415,671	-40,242	0,076	0,029
-414,657	663,305	-0,054	-0,102
-413,642	-57,297	-0,075	0,024
-412,628	800,000	0,026	0,070
-411,613	-148,963	-0,053	-0,003
-410,598	319,875	0,022	-0,030
-409,584	193,515	0,080	-0,088
-408,569	800,000	-0,025	0,054
-407,555	-200,000	0,007	0,156
-406,540	-130,800	-0,126	0,012
-405,525	-200,000	-0,003	-0,080
-404,511	672,785	-0,054	-0,102
-403,496	-200,000	-0,007	-0,023
-402,482	-91,095	-0,046	-0,010
-401,467	440,806	-0,049	-0,078
-400,452	-200,000	0,016	0,069
-399,438	144,307	0,108	0,105
-398,423	41,893	-0,065	-0,043
-397,409	610,649	-0,016	-0,029
-396,394	-200,000	-0,008	0,064
-395,379	119,994	0,016	-0,014
-394,365	152,124	0,135	0,134
-393,350	428,562	-0,089	0,140
-392,336	-119,903	-0,010	-0,001
-391,321	88,757	-0,051	-0,041
-390,306	-200,000	-0,003	-0,029
-389,292	253,161	0,062	0,077
-388,277	800,000	0,029	-0,083
-387,263	-48,720	0,102	-0,035
-386,248	243,721	-0,029	0,035
-385,233	334,524	-0,009	0,013
-384,219	-200,000	0,020	-0,098
-383,204	221,951	-0,058	0,068
-382,190	-86,470	-0,105	-0,023
-381,175	-89,340	-0,155	0,033
-380,160	-200,000	0,033	0,138
-379,146	-99,123	-0,134	-0,024
-378,131	186,878	0,072	-0,078
-377,117	800,000	0,057	0,124
-376,102	52,896	-0,034	-0,023
-375,088	92,579	-0,027	0,022
-374,073	-200,000	-0,003	0,047
-373,058	-64,343	-0,077	-0,023
-372,044	-171,875	-0,066	-0,002
-371,029	-15,913	0,036	-0,016
-370,015	-21,650	-0,117	0,052
-369,000	58,395	-0,109	-0,078
-367,985	80,237	0,043	-0,034
-366,971	390,957	0,049	0,074
-365,956	-122,143	0,153	0,018
-364,942	665,120	-0,043	0,081
-363,927	483,286	-0,115	0,190
-362,912	65,095	0,109	0,080
-361,898	44,023	-0,025	-0,016
-360,883	-200,000	-0,009	-0,113
-359,869	-138,567	-0,103	-0,008
-358,854	19,741	0,073	0,042
-357,839	800,000	0,033	-0,078
-356,825	359,770	-0,078	0,114
-355,810	260,532	0,063	-0,080
-354,796	-147,414	-0,299	0,018
-353,781	298,963	-0,057	0,076
-352,766	-200,000	-0,002	-0,129
-351,752	-200,000	-0,006	0,058
-350,737	-75,019	-0,101	0,026
-349,723	-200,000	0,009	-0,090
-348,708	-200,000	0,021	-0,113
-347,693	10,741	-0,089	-0,049
-346,679	-200,000	-0,032	-0,103
-345,664	-153,308	0,046	-0,002
-344,650	14,637	0,072	0,041
-343,635	-45,289	0,179	0,064
-342,620	493,749	-0,037	0,062
-341,606	800,000	0,073	0,195
-340,591	729,376	-0,043	-0,084
-339,577	800,000	0,024	-0,069
-338,562	15,728	0,099	-0,056
-337,548	-200,000	-0,008	0,078
-336,533	169,850	0,126	0,131
-335,518	-200,000	0,037	0,265
-334,504	-200,000	-0,048	0,160
-333,489	-200,000	0,007	0,120
-332,475	-155,227	0,043	-0,002
-331,460	-61,088	-0,131	0,040
-330,445	800,000	-0,043	-0,087
-329,431	-81,860	-0,038	-0,009
-328,416	-43,712	0,128	0,047
-327,402	111,336	-0,033	-0,029
-326,387	-113,247	0,042	0,006
-325,372	800,000	0,022	-0,051
-324,358	-124,371	0,113	0,013
-323,343	536,754	0,068	-0,118
-322,329	800,000	-0,042	-0,117
-321,314	-12,470	0,077	-0,036
-320,299	-200,000	0,005	0,046
-319,285	800,000	-0,027	0,083
-318,270	-200,000	-0,015	-0,049
-317,256	-200,000	-0,000	0,077
-316,241	800,000	-0,030	-0,061
-315,226	476,793	0,021	-0,034
-314,212	489,494	0,078	0,130
-313,197	146,282	0,060	0,058
-312,183	143,850	0,141	0,136
-311,168	109,542	0,041	-0,036
-310,153	-102,454	-0,119	0,020
-309,139	-200,000	0,048	-0,156
-308,124	-200,000	-0,009	-0,033
-307,110	46,664	-0,064	-0,043
-306,095	658,550	0,015	0,029
-305,080	-97,540	0,185	0,035
-304,066	-93,482	0,045	-0,009
-303,051	-1,245	-0,045	-0,023
-302,037	-200,000	0,013	0,062
-301,022	800,000	0,040	0,099
-300,008	401,722	0,018	0,027
-298,993	-25,725	-0,075	0,032
-297,978	0,666	0,110	0,057
-296,964	169,976	-0,057	-0,059
-295,949	800,000	-0,024	0,048
-294,935	-63,369	-0,106	-0,031
-293,920	-36,933	0,105	0,040
-292,905	170,230	-0,056	0,058
-291,891	-115,665	0,145	-0,019
-290,876	-39,237	0,065	0,025
-289,862	34,204	-0,015	0,009
-288,847	800,000	0,021	-0,051
-287,832	1,965	-0,023	-0,012
-286,818	-73,572	-0,114	0,030
-285,803	800,000	0,015	0,035
-284,789	347,846	-0,127	-0,182
-283,774	-107,888	-0,057	-0,009
-282,759	800,000	-0,045	-0,101
-281,745	22,360	0,035	-0,021
-280,730	14,052	0,111	-0,062
-279,716	-200,000	-0,004	0,016
-278,701	168,807	0,101	-0,104
-277,686	133,143	-0,013	-0,012
-276,672	-156,627	0,008	-0,000
-275,657	34,448	-0,105	0,066
-274,643	-104,156	-0,035	-0,006
-273,628	8,585	-0,107	-0,058
-272,613	-200,000	0,157	-0,000
-271,599	-42,859	-0,112	-0,041
-270,584	-1,659	0,173	0,088
-269,570	40,303	0,071	0,046
-268,555	-19,296	-0,045	-0,020
-267,540	180,003	0,088	0,093
-266,526	-75,807	-0,027	0,007
-265,511	361,457	-0,065	0,095
-264,497	-134,132	-0,016	-0,001
-263,482	197,252	0,125	0,138
-262,467	-42,796	0,136	0,050
-261,453	141,723	-0,030	0,028
-260,438	274,583	-0,021	-0,027
-259,424	428,864	0,047	-0,073
-258,409	-200,000	0,015	0,090
-257,395	52,911	0,038	0,026
-256,380	800,000	0,037	-0,097
-255,365	800,000	0,061	0,150
-254,351	-38,006	0,177	0,068
-253,336	252,554	-0,110	0,136
-252,322	-14,404	-0,049	-0,022
-251,307	469,283	0,063	-0,103
-250,292	-200,000	-0,037	0,150
-249,278	800,000	0,057	0,137
-248,263	800,000	0,029	0,085
-247,249	800,000	0,022	0,062
-246,234	525,540	0,049	-0,084
-245,219	800,000	0,054	-0,111
-244,205	-200,000	-0,010	0,036
-243,190	-127,270	0,134	-0,014
-242,176	-61,343	0,067	0,020
-241,161	152,888	-0,115	-0,114
-240,146	0,549	0,071	-0,037
-239,132	81,653	-0,056	0,044
-238,117	-200,000	0,003	-0,036
-237,103	186,435	-0,084	0,091
-236,088	-86,181	0,051	0,011
-235,073	14,119	0,079	-0,044
-234,059	-51,657	0,043	0,014
-233,044	800,000	0,024	0,056
-232,030	241,655	-0,080	-0,097
-231,015	-200,000	-0,017	0,083
-230,000	-61,259	-0,090	0,027
-228,986	-200,000	-0,007	0,051
-227,971	63,879	-0,017	-0,012
-226,957	800,000	0,021	-0,051
-225,942	40,577	-0,065	0,042
-224,927	175,924	0,115	0,120
-223,913	-162,403	-0,065	-0,002
-222,898	13,923	-0,127	0,071
-221,884	-200,000	-0,004	0,052
-220,869	-144,514	0,060	-0,004
-219,855	-63,653	0,100	-0,029
-218,840	800,000	-0,020	0,045
-217,825	-28,366	-0,021	-0,009
-216,811	-151,415	-0,128	-0,007
-215,796	297,640	-0,044	0,059
-214,782	800,000	-0,086	-0,216
-213,767	-34,960	0,066	-0,026
-212,752	441,997	-0,050	0,079
-211,738	253,953	-0,045	0,055
-210,723	-200,000	0,002	-0,077
-209,709	-107,139	0,143	-0,023
-208,694	-72,644	-0,089	-0,023
-207,679	530,381	-0,076	-0,130
-206,665	-200,000	0,005	0,128
-205,650	-132,207	0,102	0,009
-204,636	720,042	0,012	0,023
-203,621	54,359	-0,012	-0,009
-202,606	-112,238	0,061	0,009
-201,592	126,888	-0,125	-0,114
-200,577	-0,888	-0,067	0,034
-199,563	397,952	-0,043	0,065
-198,548	725,839	0,064	0,123
-197,533	66,349	0,031	0,023
-196,519	-77,829	0,050	-0,012
-195,504	-62,522	-0,145	0,043
-194,490	-46,719	-0,044	0,015
-193,475	331,021	-0,096	-0,134
-192,460	367,897	0,022	0,032
-191,446	-200,000	0,029	0,110
-190,431	-26,212	-0,058	0,024
-189,417	800,000	-0,043	0,132
-188,402	-61,867	0,112	0,033
-187,387	800,000	-0,028	-0,087
-186,373	-200,000	0,001	0,045
-185,358	-135,055	0,098	-0,008
-184,344	-200,000	0,008	-0,033
-183,329	-200,000	0,001	0,009
-182,315	222,830	0,063	-0,074
-181,300	-200,000	-0,172	-0,000
-180,285	755,538	0,058	-0,114
-179,271	-200,000	-0,011	0,094
-178,256	159,906	0,106	-0,106
-177,242	-47,581	0,120	-0,042
-176,227	161,227	-0,114	0,115
-175,212	-200,000	0,035	0,120
-174,198	609,716	-0,022	0,040
-173,183	291,682	-0,068	-0,089
-172,169	122,039	0,050	-0,045
-171,154	-23,926	0,145	0,062
-170,139	217,388	-0,010	-0,012
-169,125	-11,137	0,146	-0,069
-168,110	-4,767	0,107	0,053
-167,096	-200,000	-0,017	0,056
-166,081	-24,316	-0,057	0,025
-165,066	-150,111	-0,155	0,009
-164,052	-64,621	0,069	-0,020
-163,037	-48,087	0,067	0,023
-162,023	-5,951	0,093	0,046
-161,008	-200,000	0,011	0,063
-159,993	800,000	-0,091	-0,197
-158,979	-200,000	0,060	-0,199
-157,964	671,161	-0,043	0,081
-156,950	-82,888	0,094	0,022
-155,935	630,743	0,044	0,080
-154,920	103,712	-0,080	0,068
-153,906	756,139	-0,037	-0,072
-152,891	800,000	-0,005	-0,015
-151,877	-86,383	0,182	0,040
-150,862	-200,000	0,006	-0,110
-149,847	171,837	-0,057	-0,059
-148,833	800,000	-0,034	-0,092
-147,818	-200,000	-0,001	0,042
-146,804	-74,443	0,073	-0,019
-145,789	-200,000	0,015	0,084
-144,775	613,900	-0,041	-0,075
-143,760	233,249	0,068	-0,080
-142,745	-56,098	-0,172	-0,055
-141,731	238,220	-0,111	-0,133
-140,716	-5,344	-0,046	0,023
-139,702	-116,347	0,036	-0,005
-138,687	205,797	0,082	0,092
-137,672	-115,743	-0,125	-0,017
-136,658	307,319	0,007	0,009
-135,643	800,000	-0,025	0,057
-134,629	-164,865	-0,085	0,003
-133,614	190,067	0,019	-0,021
-132,599	-56,943	0,113	-0,036
-131,585	-200,000	0,014	-0,072
-130,570	-200,000	-0,001	0,068
-129,556	170,660	-0,067	-0,069
-128,541	-63,220	-0,029	-0,009
-127,526	800,000	0,060	0,125
-126,512	-200,000	0,012	0,082
-125,497	318,176	0,010	0,014
-124,483	-200,000	-0,003	-0,129
-123,468	-102,838	-0,084	-0,014
-122,453	-200,000	0,001	-0,016
-121,439	322,316	0,050	0,069
-120,424	-200,000	-0,012	0,102
