DTS Sentinel unit serial number:	SN410029Multiplexer serial number:	ORYXHardware model number:	OX2-SRSoftware version number:	ORYX F/W v4,00 Oryx Data Collector v3.7.2.0data status	okinstallation	B6 Nyhavnadifferential loss correction	single-endedforward channel	channel 2reverse channel	N/Adate	2023/12/09time	14:15:08forward acquisition time	300,00reverse acquisition time	0,00gamma	499,1914k internal	0,3134k external	0,3134temperature offset calibration	1,0000default loss term (dB/km)	0,3820temperature slope calibration	1,0000multiplexer offset coefficient	1,0000multiplexer slope coefficient	1,0000fibre end	0,00T internal ref (°C)	20,49T ext. ref 1 (°C)	4,30T ext. ref 2 (°C)	4,32length (m)	temperature (°C)	Stokes	anti-Stokes-744,400	-200,000	-0,002	-0,020
-743,385	-4,738	-0,250	0,128
-742,371	-64,924	0,222	0,066
-741,356	-40,085	-0,184	0,071
-740,342	-35,453	0,166	-0,067
-739,327	-136,647	-0,304	0,026
-738,312	-41,027	0,130	-0,050
-737,298	-126,234	-0,343	0,038
-736,283	-200,000	0,017	-0,119
-735,269	-70,609	-0,192	0,054
-734,254	5,462	0,057	0,031
-733,239	-67,952	-0,429	-0,124
-732,225	-168,242	0,166	0,005
-731,210	752,955	0,099	0,199
-730,196	-62,733	0,032	-0,010
-729,181	31,723	0,084	-0,054
-728,167	-137,072	-0,022	0,002
-727,152	-117,431	0,067	0,009
-726,137	-58,376	0,070	0,022
-725,123	-200,000	-0,022	-0,100
-724,108	-200,000	-0,013	0,069
-723,094	214,674	-0,130	-0,153
-722,079	212,253	-0,091	-0,107
-721,064	-200,000	-0,005	-0,240
-720,050	-200,000	0,015	-0,104
-719,035	-200,000	-0,009	-0,098
-718,021	57,918	-0,192	-0,139
-717,006	468,189	-0,047	-0,078
-715,991	12,139	-0,030	0,017
-714,977	800,000	-0,049	-0,105
-713,962	-184,685	0,078	0,001
-712,948	-42,402	0,068	0,026
-711,933	-6,422	-0,061	-0,031
-710,918	177,257	0,056	-0,061
-709,904	456,462	-0,085	-0,141
-708,889	800,000	-0,054	-0,158
-707,875	-145,741	-0,084	-0,005
-706,860	800,000	-0,090	-0,195
-705,845	73,586	-0,050	-0,039
-704,831	800,000	-0,080	0,188
-703,816	218,670	-0,123	0,147
-702,802	428,471	-0,045	-0,072
-701,787	-39,491	0,026	0,010
-700,772	-200,000	0,011	-0,166
-699,758	328,620	0,097	-0,138
-698,743	-200,000	0,015	0,056
-697,729	266,864	0,044	-0,057
-696,714	-200,000	-0,017	0,082
-695,699	21,545	-0,062	0,037
-694,685	800,000	-0,006	-0,015
-693,670	-10,370	-0,129	-0,063
-692,656	-155,813	0,022	-0,001
-691,641	131,377	0,052	-0,050
-690,627	-13,734	-0,043	-0,021
-689,612	278,974	0,031	-0,041
-688,597	362,462	-0,055	-0,083
-687,583	485,738	-0,081	-0,138
-686,568	800,000	0,009	-0,026
-685,554	-159,716	0,103	0,004
-684,539	744,471	0,073	-0,147
-683,524	-200,000	0,006	-0,085
-682,510	-118,181	-0,101	-0,013
-681,495	101,769	0,076	0,066
-680,481	-121,690	-0,057	-0,007
-679,466	497,266	-0,014	-0,023
-678,451	136,725	-0,086	-0,083
-677,437	800,000	-0,005	-0,015
-676,422	293,110	-0,024	0,032
-675,408	433,174	0,044	-0,070
-674,393	-200,000	0,006	-0,109
-673,378	-200,000	0,016	-0,140
-672,364	-66,890	-0,180	0,052
-671,349	-200,000	-0,031	-0,108
-670,335	425,070	0,126	-0,202
-669,320	800,000	0,063	-0,137
-668,305	-200,000	-0,020	0,068
-667,291	338,237	0,079	-0,115
-666,276	-200,000	0,027	-0,099
-665,262	-43,815	-0,094	-0,035
-664,247	-83,030	-0,135	-0,032
-663,232	-35,581	-0,103	0,041
-662,218	-158,365	0,101	0,004
-661,203	-200,000	-0,004	-0,071
-660,189	800,000	-0,026	-0,056
-659,174	-3,091	0,090	-0,046
-658,159	-80,774	-0,116	-0,028
-657,145	319,451	-0,130	-0,183
-656,130	-200,000	0,048	-0,165
-655,116	-32,189	-0,121	-0,050
-654,101	-200,000	-0,028	0,139
-653,086	-200,000	-0,010	0,045
-652,072	544,386	-0,064	-0,114
-651,057	-107,240	0,028	0,004
-650,043	-32,047	-0,090	-0,037
-649,028	723,526	0,029	-0,058
-648,014	-165,495	0,124	0,004
-646,999	533,736	-0,072	0,127
-645,984	-90,221	0,157	0,033
-644,970	319,563	0,015	-0,021
-643,955	24,255	-0,098	-0,060
-642,941	87,213	-0,106	-0,087
-641,926	-200,000	0,002	0,085
-640,911	800,000	-0,076	0,187
-639,897	-146,294	0,040	-0,003
-638,882	-200,000	0,003	0,023
-637,868	42,867	-0,122	-0,082
-636,853	-142,149	0,092	-0,007
-635,838	-200,000	-0,004	-0,065
-634,824	296,577	0,058	-0,079
-633,809	-76,648	0,077	-0,020
-632,795	192,706	-0,017	0,019
-631,780	800,000	-0,044	0,138
-630,765	-200,000	-0,001	0,034
-629,751	-200,000	0,005	-0,075
-628,736	87,291	-0,044	-0,036
-627,722	-200,000	0,005	-0,062
-626,707	2,528	-0,056	0,030
-625,692	70,877	0,038	-0,029
-624,678	800,000	0,051	0,107
-623,663	-200,000	0,004	-0,048
-622,649	-199,140	-0,102	-0,000
-621,634	-200,000	-0,002	-0,019
-620,619	106,709	-0,044	-0,039
-619,605	128,715	-0,099	0,093
-618,590	87,653	0,153	0,126
-617,576	-55,020	-0,029	0,010
-616,561	43,935	-0,003	-0,002
-615,546	-44,722	-0,128	-0,047
-614,532	594,431	-0,026	-0,048
-613,517	-65,580	-0,072	-0,021
-612,503	311,686	-0,083	-0,115
-611,488	-8,901	0,085	0,042
-610,474	-200,000	-0,022	0,116
-609,459	602,947	0,068	0,126
-608,444	-56,454	-0,066	0,021
-607,430	67,839	0,042	-0,032
-606,415	-200,000	-0,025	-0,095
-605,401	-200,000	-0,011	-0,036
-604,386	-113,429	0,181	-0,026
-603,371	789,330	-0,059	-0,121
-602,357	800,000	-0,029	-0,065
-601,342	-117,633	0,093	-0,012
-600,328	145,469	-0,085	-0,084
-599,313	-62,925	0,050	-0,015
-598,298	-9,023	0,117	0,058
-597,284	512,880	0,098	0,169
-596,269	-154,301	0,113	0,006
-595,255	86,259	0,039	0,032
-594,240	153,780	-0,059	-0,060
-593,225	501,076	-0,067	-0,114
-592,211	-23,846	-0,104	0,046
-591,196	106,844	-0,059	0,052
-590,182	-200,000	-0,017	0,070
-589,167	-44,054	0,125	-0,046
-588,152	-200,000	0,018	0,070
-587,138	-3,601	0,031	0,016
-586,123	161,932	0,105	-0,109
-585,109	-5,237	0,136	0,069
-584,094	197,679	0,079	-0,089
-583,079	-105,901	0,089	-0,015
-582,065	-200,000	-0,002	0,011
-581,050	144,859	0,143	0,141
-580,036	91,319	-0,079	-0,065
-579,021	-200,000	-0,008	-0,098
-578,006	282,572	-0,050	-0,067
-576,992	125,650	-0,056	-0,052
-575,977	-200,000	0,029	0,137
-574,963	176,329	0,073	-0,078
-573,948	194,682	0,004	0,004
-572,934	-200,000	-0,057	0,194
-571,919	-83,808	-0,044	-0,010
-570,904	135,063	-0,054	-0,052
-569,890	-200,000	0,022	-0,167
-568,875	-200,000	0,007	-0,034
-567,861	372,917	-0,037	0,056
-566,846	-200,000	0,018	0,076
-565,831	304,159	-0,037	-0,051
-564,817	800,000	-0,048	-0,126
-563,802	395,823	-0,057	0,088
-562,788	42,853	-0,115	0,077
-561,773	-52,567	0,127	-0,043
-560,758	-74,327	0,077	0,020
-559,744	181,226	0,043	0,046
-558,729	800,000	-0,034	0,096
-557,715	800,000	-0,021	-0,045
-556,700	-200,000	0,013	0,103
-555,685	-200,000	0,001	-0,152
-554,671	-20,061	0,128	-0,058
-553,656	-49,892	-0,018	0,006
-552,642	-74,345	0,020	0,005
-551,627	152,877	0,077	-0,077
-550,612	800,000	-0,019	0,045
-549,598	744,093	0,019	-0,038
-548,583	271,174	0,027	0,035
-547,569	772,151	-0,035	0,071
-546,554	-200,000	0,013	0,103
-545,539	-98,652	0,146	0,027
-544,525	-63,791	-0,034	0,010
-543,510	-113,891	-0,077	0,011
-542,496	368,699	-0,089	-0,133
-541,481	-200,000	0,014	-0,207
-540,466	800,000	0,040	0,097
-539,452	-77,374	-0,150	-0,038
-538,437	-200,000	0,002	-0,029
-537,423	-115,795	0,111	-0,015
-536,408	19,761	-0,046	0,027
-535,393	-7,999	-0,081	-0,040
-534,379	17,483	-0,074	-0,043
-533,364	369,458	-0,055	0,083
-532,350	-200,000	-0,037	-0,131
-531,335	-200,000	-0,001	-0,069
-530,321	437,765	-0,040	-0,065
-529,306	592,413	0,032	0,058
-528,291	-200,000	0,000	-0,159
-527,277	800,000	-0,022	0,048
-526,262	-200,000	-0,000	-0,005
-525,248	-200,000	-0,008	0,153
-524,233	-200,000	-0,006	0,057
-523,218	800,000	0,014	-0,036
-522,204	172,660	-0,064	0,068
-521,189	270,081	-0,056	-0,073
-520,175	484,942	0,057	0,096
-519,160	6,419	0,101	-0,055
-518,145	-82,280	0,021	0,005
-517,131	687,051	0,087	0,167
-516,116	-66,020	-0,067	-0,020
-515,102	-25,968	-0,041	-0,018
-514,087	800,000	0,010	0,024
-513,072	56,117	0,055	-0,039
-512,058	0,462	0,055	0,029
-511,043	113,539	0,026	0,023
-510,029	-47,677	0,147	0,052
-509,014	240,413	0,058	-0,071
-507,999	-200,000	0,002	-0,037
-506,985	-14,585	0,071	0,034
-505,970	173,642	0,043	0,046
-504,956	186,249	0,057	-0,063
-503,941	-200,000	-0,019	-0,069
-502,926	3,164	0,106	-0,056
-501,912	102,369	0,122	-0,105
-500,897	800,000	0,005	0,010
-499,883	800,000	0,021	0,068
-498,868	-64,798	-0,062	-0,018
-497,853	-200,000	-0,007	-0,121
-496,839	-200,000	0,008	0,029
-495,824	20,946	0,066	0,039
-494,810	-122,540	0,042	-0,005
-493,795	421,729	-0,059	0,093
-492,781	90,428	0,035	-0,029
-491,766	3,631	0,079	-0,042
-490,751	197,198	-0,090	-0,101
-489,737	800,000	0,041	-0,093
-488,722	-200,000	-0,010	-0,054
-487,708	-200,000	0,001	0,007
-486,693	-85,125	0,098	-0,022
-485,678	-99,902	-0,137	0,025
-484,664	365,640	0,012	-0,018
-483,649	-161,182	-0,188	-0,007
-482,635	-14,568	-0,063	0,030
-481,620	800,000	-0,033	-0,085
-480,605	24,937	0,075	-0,045
-479,591	-112,968	-0,070	0,010
-478,576	21,741	-0,029	-0,017
-477,562	-200,000	-0,028	-0,127
-476,547	-115,007	0,053	-0,007
-475,532	-65,524	0,052	-0,015
-474,518	-130,958	0,007	-0,001
-473,503	-200,000	0,015	0,158
-472,489	33,014	0,108	0,068
-471,474	-106,566	-0,106	0,017
-470,459	-80,923	-0,234	-0,057
-469,445	86,767	-0,012	0,010
-468,430	800,000	-0,094	0,251
-467,416	-65,904	0,027	0,008
-466,401	-48,389	-0,105	0,037
-465,386	-200,000	-0,015	0,130
-464,372	-150,507	0,036	-0,002
-463,357	6,593	-0,068	-0,037
-462,343	800,000	-0,027	-0,058
-461,328	-45,689	-0,114	0,041
-460,313	-27,790	0,107	0,045
-459,299	-80,895	-0,074	-0,018
-458,284	800,000	-0,039	-0,094
-457,270	800,000	0,067	0,140
-456,255	800,000	0,043	0,123
-455,241	720,736	-0,036	-0,071
-454,226	-129,837	-0,032	-0,003
-453,211	220,142	0,037	0,044
-452,197	-121,293	0,040	-0,005
-451,182	267,303	-0,091	0,118
-450,168	-200,000	0,013	-0,111
-449,153	292,471	0,052	-0,069
-448,138	24,304	-0,042	-0,025
-447,124	-200,000	0,008	-0,123
-446,109	-71,084	-0,114	0,031
-445,095	168,184	-0,065	-0,068
-444,080	800,000	0,024	-0,074
-443,065	197,111	0,111	0,125
-442,051	-200,000	-0,003	-0,126
-441,036	-200,000	0,004	0,023
-440,022	-50,478	0,050	-0,017
-439,007	-142,121	0,036	-0,003
-437,992	-113,642	0,084	-0,012
-436,978	22,139	0,056	-0,034
-435,963	-26,238	-0,120	0,051
-434,949	43,557	-0,072	-0,048
-433,934	-92,937	0,097	-0,020
-432,919	461,428	-0,101	0,166
-431,905	67,927	-0,034	-0,025
-430,890	800,000	0,045	0,124
-429,876	-84,439	-0,088	0,020
-428,861	-124,019	0,032	-0,004
-427,846	-200,000	-0,008	0,101
-426,832	-200,000	0,004	0,100
-425,817	123,583	0,007	-0,006
-424,803	-50,498	-0,069	-0,024
-423,788	763,107	-0,023	0,047
-422,773	-200,000	0,033	0,203
-421,759	223,016	0,050	-0,060
-420,744	-36,076	0,097	0,038
-419,730	-46,404	-0,099	0,035
-418,715	-8,121	0,056	-0,027
-417,701	-43,529	-0,060	0,022
-416,686	-200,000	-0,013	-0,105
-415,671	-61,003	0,112	0,035
-414,657	495,607	0,040	0,068
-413,642	25,754	-0,110	-0,067
-412,628	65,595	0,101	-0,075
-411,613	50,700	-0,113	0,078
-410,598	11,548	-0,115	-0,064
-409,584	287,980	0,074	0,098
-408,569	800,000	0,026	-0,063
-407,555	261,429	0,005	0,007
-406,540	-164,271	-0,119	0,004
-405,525	800,000	-0,089	-0,204
-404,511	800,000	-0,029	-0,079
-403,496	-200,000	0,025	-0,176
-402,482	-200,000	-0,019	-0,107
-401,467	-77,519	0,047	0,012
-400,452	418,388	0,053	0,084
-399,438	586,322	-0,059	0,106
-398,423	147,152	-0,030	0,029
-397,409	108,605	0,044	0,039
-396,394	109,255	-0,037	-0,033
-395,379	96,742	-0,102	0,085
-394,365	-200,000	0,027	0,103
-393,350	-111,509	0,183	-0,027
-392,336	2,912	0,029	-0,015
-391,321	326,561	0,043	0,060
-390,306	256,623	-0,147	-0,186
-389,292	54,587	0,048	0,034
-388,277	147,193	0,083	-0,082
-387,263	800,000	0,036	0,092
-386,248	291,697	0,074	-0,099
-385,233	-103,615	0,140	0,024
-384,219	77,792	0,092	0,071
-383,204	-200,000	0,008	-0,042
-382,190	-172,677	0,026	0,001
-381,175	-200,000	-0,011	-0,129
-380,160	-200,000	0,012	0,041
-379,146	-200,000	0,008	0,123
-378,131	-200,000	0,003	-0,031
-377,117	-200,000	0,007	0,073
-376,102	-106,677	0,067	-0,011
-375,088	37,423	0,052	-0,034
-374,073	-71,034	-0,038	0,011
-373,058	-70,129	-0,011	0,003
-372,044	-200,000	0,006	0,053
-371,029	-75,178	0,042	0,011
-370,015	-200,000	0,012	0,061
-369,000	800,000	-0,036	-0,089
-367,985	176,789	-0,058	-0,062
-366,971	-115,624	0,058	-0,008
-365,956	-200,000	0,027	0,151
-364,942	-200,000	0,007	0,026
-363,927	-121,291	-0,086	-0,010
-362,912	-73,183	0,057	0,015
-361,898	-33,990	-0,050	0,020
-360,883	-200,000	0,008	-0,107
-359,869	800,000	-0,064	-0,142
-358,854	-23,580	-0,169	0,074
-357,839	-150,091	-0,109	0,006
-356,825	-65,667	0,067	0,020
-355,810	337,820	0,049	0,070
-354,796	132,156	-0,036	0,034
-353,781	-200,000	-0,014	-0,096
-352,766	43,049	0,084	-0,056
-351,752	800,000	-0,032	-0,078
-350,737	-200,000	0,053	0,188
-349,723	800,000	0,027	-0,076
-348,708	64,242	-0,109	0,080
-347,693	7,330	0,164	0,089
-346,679	-141,886	-0,234	0,017
-345,664	-200,000	-0,006	0,059
-344,650	175,136	-0,075	0,079
-343,635	497,984	-0,005	0,008
-342,620	551,015	0,065	0,115
-341,606	800,000	-0,053	0,128
-340,591	25,543	-0,114	-0,069
-339,577	-200,000	-0,009	0,046
-338,562	240,635	-0,025	-0,031
-337,548	-173,653	0,078	0,002
-336,533	800,000	-0,020	0,043
-335,518	456,050	0,066	0,108
-334,504	179,101	0,046	0,049
-333,489	-41,464	-0,096	-0,036
-332,475	-55,599	-0,057	-0,019
-331,460	-200,000	0,019	-0,076
-330,445	-200,000	-0,007	-0,107
-329,431	184,595	-0,040	0,043
-328,416	-12,719	-0,062	-0,030
-327,402	160,962	0,144	0,148
-326,387	-144,751	-0,041	0,003
-325,372	800,000	-0,037	-0,088
-324,358	504,310	-0,043	0,073
-323,343	-200,000	0,012	-0,069
-322,329	800,000	-0,049	0,100
-321,314	220,509	0,097	0,114
-320,299	-99,403	-0,051	0,009
-319,285	41,189	0,058	-0,039
-318,270	-31,121	-0,097	0,040
-317,256	468,585	-0,038	-0,063
-316,241	139,334	-0,124	-0,119
-315,226	-121,230	0,146	-0,018
-314,212	176,499	0,046	0,049
-313,197	122,046	-0,063	0,058
-312,183	800,000	0,006	0,013
-311,168	-200,000	-0,025	-0,227
-310,153	-200,000	-0,013	-0,074
-309,139	-200,000	0,016	0,083
-308,124	-200,000	0,004	0,115
-307,110	153,708	0,106	0,106
-306,095	-200,000	-0,031	0,189
-305,080	23,875	0,042	-0,025
-304,066	-200,000	0,001	-0,005
-303,051	273,300	-0,078	-0,101
-302,037	143,775	0,016	-0,015
-301,022	166,545	-0,044	-0,046
-300,008	488,985	0,062	-0,104
-298,993	373,426	-0,053	0,079
-297,978	172,323	-0,059	-0,062
-296,964	732,706	-0,059	-0,115
-295,949	45,630	-0,043	0,029
-294,935	117,345	0,031	-0,028
-293,920	800,000	0,035	-0,082
-292,905	-162,070	0,019	0,001
-291,891	31,521	-0,097	0,061
-290,876	698,925	-0,011	-0,021
-289,862	-197,296	-0,136	-0,001
-288,847	8,677	-0,154	-0,084
-287,832	128,559	0,034	-0,031
-286,818	279,659	0,084	0,110
-285,803	-148,311	0,151	-0,009
-284,789	610,602	-0,032	-0,058
-283,774	-71,205	-0,090	-0,024
-282,759	453,393	0,071	-0,115
-281,745	64,034	0,051	0,037
-280,730	317,701	0,024	-0,033
-279,716	28,740	-0,014	-0,008
-278,701	63,795	-0,064	-0,047
-277,686	-4,315	-0,103	-0,052
-276,672	223,438	0,041	-0,049
-275,657	-200,000	0,003	0,133
-274,643	-200,000	0,006	-0,157
-273,628	13,717	-0,130	0,074
-272,613	384,567	0,034	0,051
-271,599	246,688	0,056	0,069
-270,584	-38,204	0,082	0,032
-269,570	558,524	0,030	-0,053
-268,555	-92,932	-0,050	-0,010
-267,540	202,893	0,030	-0,033
-266,526	-200,000	-0,004	0,045
-265,511	-200,000	0,003	-0,195
-264,497	208,583	0,078	0,089
-263,482	-200,000	-0,014	0,150
-262,467	52,360	0,129	-0,089
-261,453	379,282	0,085	0,127
-260,438	37,573	-0,056	0,036
-259,424	14,682	-0,037	0,021
-258,409	332,836	-0,032	0,045
-257,395	-18,260	0,063	0,029
-256,380	800,000	0,050	0,148
-255,365	29,179	-0,069	0,042
-254,351	-200,000	-0,011	-0,062
-253,336	198,594	-0,082	0,092
-252,322	141,452	-0,070	0,068
-251,307	-125,254	0,043	-0,005
-250,292	82,729	0,075	0,059
-249,278	-200,000	-0,013	-0,078
-248,263	188,539	0,090	0,099
-247,249	42,791	0,070	0,046
-246,234	800,000	-0,018	-0,053
-245,219	-200,000	0,063	-0,209
-244,205	735,379	-0,054	-0,105
-243,190	366,299	0,018	0,026
-242,176	273,902	0,052	0,068
-241,161	34,908	-0,077	-0,049
-240,146	-110,245	-0,122	0,018
-239,132	440,204	-0,020	-0,031
-238,117	53,307	0,057	-0,040
-237,103	83,777	0,061	-0,049
-236,088	800,000	-0,057	-0,165
-235,073	-129,744	0,085	-0,008
-234,059	207,947	0,036	0,041
-233,044	800,000	-0,029	-0,068
-232,030	149,591	0,089	0,088
-231,015	-200,000	0,000	-0,044
-230,000	-176,164	-0,217	-0,004
-228,986	300,729	0,153	0,206
-227,971	-3,711	0,089	0,045
-226,957	-200,000	0,019	0,067
-225,942	80,247	0,161	0,126
-224,927	159,755	0,016	-0,016
-223,913	800,000	-0,019	0,046
-222,898	68,652	0,040	0,030
-221,884	38,772	-0,046	-0,030
-220,869	-200,000	-0,002	-0,011
-219,855	78,817	0,113	0,088
-218,840	-140,550	0,082	-0,006
-217,825	136,927	0,019	0,018
-216,811	71,703	-0,008	0,006
-215,796	-171,590	-0,171	0,004
-214,782	-2,630	0,176	-0,090
-213,767	68,566	0,100	0,075
-212,752	-200,000	-0,014	0,052
-211,738	-200,000	0,018	0,076
-210,723	-15,788	-0,026	-0,012
-209,709	-200,000	0,035	-0,138
-208,694	-200,000	-0,002	0,013
-207,679	-83,157	-0,147	-0,034
-206,665	418,736	0,074	-0,116
-205,650	184,108	0,064	0,069
-204,636	-77,111	0,065	-0,016
-203,621	-200,000	0,008	-0,038
-202,606	4,219	-0,059	-0,031
-201,592	-200,000	0,020	-0,147
-200,577	800,000	-0,034	-0,071
-199,563	559,910	-0,074	0,130
-198,548	-118,422	0,165	0,021
-197,533	-44,959	0,086	0,031
-196,519	-21,630	-0,101	0,045
-195,504	-30,216	-0,097	0,040
-194,490	-200,000	-0,021	0,090
-193,475	-71,320	-0,161	-0,044
-192,460	-200,000	0,007	0,100
-191,446	-99,490	-0,080	-0,015
-190,431	800,000	-0,037	0,075
-189,417	72,661	-0,043	0,033
-188,402	145,703	0,064	0,063
-187,387	66,869	0,052	0,038
-186,373	-93,795	0,116	-0,023
-185,358	800,000	-0,018	0,048
-184,344	-38,211	0,188	-0,072
-183,329	-200,000	0,006	-0,034
-182,315	631,033	0,100	0,185
-181,300	800,000	0,097	-0,244
-180,285	-200,000	0,027	-0,170
-179,271	-49,118	-0,082	0,028
-178,256	66,468	-0,129	-0,095
-177,242	532,405	-0,051	-0,088
-176,227	800,000	0,029	0,064
-175,212	577,290	-0,007	0,012
-174,198	365,131	0,017	-0,024
-173,183	259,067	-0,064	0,081
-172,169	606,752	-0,023	-0,042
-171,154	-99,538	-0,130	-0,023
-170,139	-6,150	-0,107	0,053
-169,125	6,378	-0,068	-0,036
-168,110	199,631	0,073	-0,081
-167,096	8,185	-0,171	-0,093
-166,081	-200,000	-0,006	0,042
-165,066	-126,637	-0,107	-0,011
-164,052	800,000	-0,054	-0,162
-163,037	21,880	0,021	0,012
-162,023	-200,000	0,018	-0,096
-161,008	-180,092	0,219	0,003
-159,993	800,000	-0,013	-0,032
-158,979	681,706	-0,045	-0,086
-157,964	237,503	-0,048	-0,058
-156,950	800,000	-0,036	-0,108
-155,935	305,150	-0,066	0,090
-154,920	-18,136	0,048	-0,022
-153,906	405,721	-0,033	0,050
-152,891	800,000	-0,027	0,055
-151,877	109,363	0,023	-0,020
-150,862	52,719	-0,084	-0,058
-149,847	122,106	0,020	0,018
-148,833	-200,000	0,008	-0,084
-147,818	-51,479	-0,060	-0,020
-146,804	800,000	0,032	-0,099
-145,789	8,308	0,053	0,029
-144,775	-179,563	-0,123	-0,002
-143,760	800,000	0,022	-0,068
-142,745	-191,160	-0,095	0,001
-141,731	760,316	-0,082	0,162
-140,716	368,555	0,121	0,178
-139,702	-200,000	0,013	0,120
-138,687	130,412	0,049	0,045
-137,672	-49,154	0,063	-0,022
-136,658	-26,134	-0,183	-0,078
-135,643	201,012	0,067	-0,075
-134,629	230,918	-0,044	-0,053
-133,614	-200,000	0,034	0,111
-132,599	340,205	-0,067	0,095
-131,585	-84,466	0,064	-0,015
-130,570	203,485	-0,155	0,174
-129,556	39,337	-0,045	0,029
-128,541	238,700	0,040	-0,049
-127,526	800,000	0,020	0,057
-126,512	-42,544	-0,038	0,014
-125,497	586,918	0,079	0,141
-124,483	-31,656	0,070	0,028
-123,468	-60,775	-0,066	-0,020
-122,453	100,413	-0,158	-0,133
-121,439	-12,446	0,066	0,031
-120,424	-40,880	0,045	-0,017
-119,410	-200,000	0,020	0,122
