DTS Sentinel unit serial number:	SN410029Multiplexer serial number:	ORYXHardware model number:	OX2-SRSoftware version number:	ORYX F/W v4,00 Oryx Data Collector v3.7.2.0data status	okinstallation	B6 Nyhavnadifferential loss correction	single-endedforward channel	channel 2reverse channel	N/Adate	2023/12/08time	13:15:08forward acquisition time	300,00reverse acquisition time	0,00gamma	499,1914k internal	0,3159k external	0,3159temperature offset calibration	1,0000default loss term (dB/km)	0,3820temperature slope calibration	1,0000multiplexer offset coefficient	1,0000multiplexer slope coefficient	1,0000fibre end	0,00T internal ref (°C)	15,06T ext. ref 1 (°C)	-1,52T ext. ref 2 (°C)	-1,54length (m)	temperature (°C)	Stokes	anti-Stokes-744,400	105,533	-0,079	-0,069
-743,385	-127,249	-0,309	0,033
-742,371	-88,774	0,204	-0,044
-741,356	-93,058	-0,409	0,083
-740,342	33,069	0,076	0,048
-739,327	-185,732	-0,320	0,003
-738,312	429,194	0,039	-0,062
-737,298	-102,669	-0,258	-0,045
-736,283	3,903	0,141	0,076
-735,269	-27,784	-0,313	0,133
-734,254	-46,173	0,113	0,041
-733,239	-61,111	-0,483	-0,149
-732,225	50,993	0,245	0,171
-731,210	-200,000	-0,009	0,058
-730,196	-173,301	-0,100	-0,002
-729,181	-84,123	0,045	0,010
-728,167	54,203	-0,053	-0,037
-727,152	-200,000	-0,027	-0,138
-726,137	-12,357	-0,103	0,049
-725,123	127,021	-0,043	0,040
-724,108	-182,152	-0,150	0,002
-723,094	-200,000	0,001	-0,007
-722,079	119,477	-0,068	-0,062
-721,064	-200,000	-0,047	-0,171
-720,050	80,276	0,112	-0,088
-719,035	75,503	-0,057	0,044
-718,021	736,879	-0,016	0,031
-717,006	47,957	-0,148	0,101
-715,991	363,296	-0,057	-0,085
-714,977	133,593	0,045	-0,043
-713,962	-130,642	-0,080	0,008
-712,948	267,623	0,052	-0,068
-711,933	-39,759	-0,124	-0,048
-710,918	-60,301	-0,099	0,031
-709,904	-105,913	0,095	0,016
-708,889	123,230	-0,063	0,058
-707,875	-131,346	-0,134	0,013
-706,860	800,000	-0,012	0,032
-705,845	-168,120	0,128	-0,004
-704,831	-200,000	0,021	0,076
-703,816	-134,441	0,062	-0,006
-702,802	101,315	0,086	0,074
-701,787	800,000	-0,023	-0,052
-700,772	-6,751	0,091	0,045
-699,758	284,007	0,079	-0,104
-698,743	-200,000	0,018	0,184
-697,729	-200,000	-0,034	-0,137
-696,714	401,795	0,024	-0,037
-695,699	-117,212	-0,129	-0,017
-694,685	-91,676	0,025	0,005
-693,670	-136,213	-0,158	0,013
-692,656	744,447	-0,050	0,099
-691,641	778,238	-0,038	-0,077
-690,627	433,147	-0,047	0,075
-689,612	497,727	-0,130	0,222
-688,597	326,572	-0,060	-0,085
-687,583	-200,000	-0,032	-0,106
-686,568	595,935	-0,030	-0,054
-685,554	-6,568	0,112	0,056
-684,539	701,956	-0,094	0,183
-683,524	-92,575	-0,120	0,024
-682,510	-63,978	-0,088	0,026
-681,495	-200,000	-0,022	-0,139
-680,481	-131,677	-0,162	-0,015
-679,466	284,308	-0,134	-0,178
-678,451	42,681	-0,146	-0,098
-677,437	-200,000	0,015	0,086
-676,422	800,000	0,054	0,135
-675,408	203,095	0,011	-0,012
-674,393	695,923	-0,122	-0,236
-673,378	-146,206	-0,054	0,003
-672,364	-117,425	0,045	-0,006
-671,349	-162,786	0,031	-0,001
-670,335	-200,000	-0,010	0,099
-669,320	-200,000	0,001	-0,085
-668,305	-200,000	0,002	0,039
-667,291	-5,390	-0,091	-0,046
-666,276	800,000	0,017	-0,038
-665,262	-200,000	0,030	-0,103
-664,247	336,722	-0,008	0,012
-663,232	325,483	-0,065	-0,091
-662,218	-200,000	-0,013	0,052
-661,203	59,508	0,066	0,048
-660,189	12,558	0,071	-0,040
-659,174	204,658	-0,067	0,076
-658,159	-59,746	-0,037	0,012
-657,145	119,113	-0,104	-0,095
-656,130	-200,000	-0,003	0,030
-655,116	55,894	-0,086	0,061
-654,101	800,000	-0,033	0,084
-653,086	128,936	-0,113	0,106
-652,072	-200,000	0,006	-0,046
-651,057	-59,984	0,097	0,030
-650,043	800,000	0,005	0,014
-649,028	224,212	0,052	-0,062
-648,014	-200,000	0,022	0,083
-646,999	-200,000	-0,027	-0,098
-645,984	233,556	0,040	0,048
-644,970	-54,186	0,120	-0,040
-643,955	16,369	-0,149	-0,086
-642,941	-131,342	0,124	0,012
-641,926	201,137	-0,041	0,046
-640,911	-200,000	-0,004	0,066
-639,897	-200,000	-0,012	0,123
-638,882	-25,149	-0,111	-0,048
-637,868	100,427	-0,066	0,057
-636,853	-200,000	0,027	-0,106
-635,838	-200,000	0,022	-0,189
-634,824	342,402	0,038	-0,055
-633,809	39,001	-0,078	-0,051
-632,795	800,000	0,035	0,101
-631,780	158,232	-0,104	0,106
-630,765	214,537	-0,086	0,100
-629,751	407,511	0,024	0,038
-628,736	-4,815	0,066	-0,033
-627,722	-20,073	-0,079	0,036
-626,707	-200,000	0,021	0,179
-625,692	800,000	0,045	0,099
-624,678	153,038	0,065	0,065
-623,663	800,000	-0,032	0,081
-622,649	79,134	-0,076	-0,060
-621,634	78,358	0,077	-0,061
-620,619	-123,175	-0,107	-0,012
-619,605	65,033	0,063	-0,047
-618,590	64,315	-0,081	-0,060
-617,576	14,440	-0,062	-0,035
-616,561	125,894	-0,062	-0,058
-615,546	-200,000	0,004	-0,035
-614,532	399,191	0,085	-0,131
-613,517	-200,000	0,000	-0,080
-612,503	-32,044	-0,015	-0,006
-611,488	-117,442	0,054	-0,007
-610,474	-5,233	-0,046	0,023
-609,459	-102,911	0,043	-0,007
-608,444	520,974	-0,040	-0,069
-607,430	-200,000	0,020	-0,110
-606,415	-76,774	-0,060	0,015
-605,401	800,000	-0,007	-0,016
-604,386	-28,039	-0,099	0,042
-603,371	-195,885	-0,083	0,000
-602,357	304,341	0,052	-0,070
-601,342	-49,427	-0,039	-0,013
-600,328	-200,000	0,011	-0,136
-599,313	-19,163	-0,069	0,031
-598,298	-14,569	-0,069	-0,032
-597,284	800,000	0,008	-0,020
-596,269	158,459	-0,053	-0,054
-595,255	-200,000	0,010	-0,125
-594,240	455,629	-0,054	-0,087
-593,225	137,886	-0,074	-0,071
-592,211	-200,000	-0,001	-0,111
-591,196	-200,000	-0,051	0,176
-590,182	125,211	-0,086	-0,079
-589,167	-200,000	-0,001	0,085
-588,152	-125,085	0,121	0,013
-587,138	300,982	0,024	-0,032
-586,123	-200,000	-0,027	-0,087
-585,109	800,000	0,014	-0,032
-584,094	-2,088	0,043	-0,022
-583,079	-164,979	-0,061	-0,002
-582,065	-200,000	0,021	0,142
-581,050	260,747	-0,078	-0,099
-580,036	-32,339	0,259	-0,105
-579,021	332,223	-0,050	-0,071
-578,006	294,481	0,042	0,056
-576,992	-121,100	0,064	0,008
-575,977	487,758	0,022	-0,037
-574,963	-96,032	0,146	0,028
-573,948	428,225	0,068	0,107
-572,934	590,466	0,014	-0,025
-571,919	-146,187	0,030	0,002
-570,904	-200,000	0,014	-0,099
-569,890	171,178	-0,025	-0,026
-568,875	-9,976	0,042	-0,020
-567,861	-200,000	-0,016	-0,104
-566,846	-143,662	0,122	-0,008
-565,831	93,087	-0,079	0,065
-564,817	241,475	-0,096	-0,118
-563,802	282,458	0,168	-0,220
-562,788	-200,000	-0,017	-0,074
-561,773	-200,000	0,001	-0,039
-560,758	793,393	-0,050	0,101
-559,744	592,169	-0,028	-0,051
-558,729	5,506	0,061	-0,033
-557,715	-200,000	0,002	0,097
-556,700	170,677	0,009	-0,010
-555,685	-14,821	-0,076	-0,035
-554,671	14,414	0,042	-0,024
-553,656	-200,000	-0,022	0,110
-552,642	216,191	0,047	-0,054
-551,627	43,143	0,063	0,042
-550,612	245,292	-0,083	-0,102
-549,598	113,422	-0,063	0,056
-548,583	-200,000	-0,016	0,124
-547,569	-62,450	-0,033	-0,010
-546,554	-200,000	-0,024	0,081
-545,539	429,708	0,088	0,139
-544,525	65,896	0,017	0,013
-543,510	800,000	-0,021	-0,052
-542,496	-200,000	-0,001	0,012
-541,481	-200,000	0,041	0,133
-540,466	800,000	0,007	-0,020
-539,452	-91,343	0,094	0,019
-538,437	155,231	0,115	0,116
-537,423	-67,749	-0,091	-0,026
-536,408	300,471	-0,081	-0,109
-535,393	114,127	-0,028	0,025
-534,379	-66,127	-0,140	-0,041
-533,364	199,151	-0,104	-0,117
-532,350	-200,000	-0,006	0,037
-531,335	800,000	-0,047	-0,116
-530,321	-186,851	0,108	0,001
-529,306	-200,000	-0,001	-0,023
-528,291	102,651	-0,046	-0,039
-527,277	800,000	-0,030	0,066
-526,262	-146,845	0,174	-0,011
-525,248	114,222	-0,036	-0,032
-524,233	-126,836	-0,079	0,008
-523,218	220,064	-0,038	0,045
-522,204	800,000	-0,048	0,103
-521,189	-45,650	-0,052	0,019
-520,175	298,688	-0,042	0,056
-519,160	-200,000	-0,006	-0,031
-518,145	-30,170	-0,094	-0,039
-517,131	800,000	-0,007	-0,015
-516,116	56,127	0,058	-0,041
-515,102	92,362	-0,090	0,074
-514,087	-200,000	0,016	-0,157
-513,072	100,414	-0,063	0,053
-512,058	54,378	0,040	-0,028
-511,043	-127,958	0,066	-0,007
-510,029	-200,000	0,012	0,069
-509,014	-104,746	0,108	0,018
-507,999	92,830	-0,200	0,165
-506,985	-79,020	0,139	-0,034
-505,970	-200,000	-0,041	-0,134
-504,956	72,727	-0,125	0,095
-503,941	65,784	0,065	0,048
-502,926	800,000	0,044	0,107
-501,912	-6,274	-0,052	0,026
-500,897	76,841	-0,112	-0,086
-499,883	378,875	0,124	-0,187
-498,868	-200,000	-0,037	-0,173
-497,853	-200,000	-0,007	0,067
-496,839	189,643	-0,026	0,029
-495,824	344,085	-0,055	0,079
-494,810	-200,000	0,020	0,176
-493,795	-109,823	0,090	0,014
-492,781	-200,000	0,010	0,048
-491,766	49,410	-0,088	-0,060
-490,751	-200,000	0,029	-0,111
-489,737	-200,000	-0,006	-0,102
-488,722	-200,000	-0,004	0,161
-487,708	-133,303	0,110	-0,010
-486,693	34,552	0,041	0,026
-485,678	574,483	-0,020	0,036
-484,664	800,000	0,026	-0,074
-483,649	-200,000	-0,003	0,036
-482,635	-139,047	-0,030	0,002
-481,620	-200,000	0,027	0,114
-480,605	800,000	-0,045	0,130
-479,591	-200,000	-0,023	0,100
-478,576	-157,636	-0,049	-0,002
-477,562	-44,289	-0,082	-0,030
-476,547	96,158	-0,119	-0,100
-475,532	-148,920	0,108	0,006
-474,518	114,667	0,081	0,072
-473,503	-105,613	-0,169	0,028
-472,489	800,000	-0,010	-0,026
-471,474	-92,465	0,045	0,009
-470,459	-28,193	-0,048	0,020
-469,445	800,000	0,027	-0,056
-468,430	-89,752	-0,075	-0,016
-467,416	-19,298	-0,011	0,005
-466,401	-200,000	-0,012	-0,099
-465,386	41,340	0,106	0,070
-464,372	-62,616	0,040	-0,012
-463,357	-82,722	0,016	0,004
-462,343	-60,070	0,143	-0,044
-461,328	-11,656	-0,042	-0,020
-460,313	-102,692	-0,155	-0,027
-459,299	23,847	0,125	-0,075
-458,284	53,620	-0,031	0,021
-457,270	-200,000	0,019	0,127
-456,255	-188,826	-0,135	0,001
-455,241	13,763	-0,066	0,037
-454,226	75,337	-0,127	0,098
-453,211	-200,000	0,022	0,089
-452,197	-85,833	0,136	-0,030
-451,182	-200,000	-0,002	0,099
-450,168	-89,372	0,026	0,006
-449,153	-153,734	0,134	0,007
-448,138	-34,471	-0,064	-0,025
-447,124	98,723	0,053	-0,044
-446,109	9,287	0,029	0,016
-445,095	-151,792	0,113	0,006
-444,080	339,116	0,027	0,039
-443,065	800,000	0,014	0,046
-442,051	138,151	0,009	0,008
-441,036	-200,000	-0,012	-0,063
-440,022	-8,947	-0,140	0,068
-439,007	45,431	0,095	-0,064
-437,992	162,550	-0,063	0,065
-436,978	-200,000	-0,016	0,151
-435,963	605,745	0,044	0,080
-434,949	-54,918	-0,096	0,031
-433,934	-67,336	-0,084	-0,024
-432,919	15,124	0,125	-0,071
-431,905	800,000	0,045	0,119
-430,890	96,115	-0,048	0,040
-429,876	7,460	-0,031	-0,017
-428,861	-60,780	0,051	-0,016
-427,846	267,755	-0,047	-0,060
-426,832	387,865	-0,041	-0,062
-425,817	518,121	0,020	0,034
-424,803	158,230	0,074	0,074
-423,788	-80,231	0,098	0,024
-422,773	126,549	0,128	0,118
-421,759	-146,843	0,130	-0,008
-420,744	-107,411	-0,047	-0,007
-419,730	800,000	0,035	-0,100
-418,715	178,537	-0,049	0,052
-417,701	21,812	-0,052	-0,031
-416,686	335,081	0,039	-0,055
-415,671	169,581	0,058	-0,061
-414,657	149,641	0,055	0,055
-413,642	-200,000	0,003	0,020
-412,628	270,931	0,047	-0,060
-411,613	-78,494	-0,151	-0,037
-410,598	-43,716	0,065	-0,024
-409,584	-150,027	0,058	0,003
-408,569	800,000	0,044	0,137
-407,555	4,492	-0,130	0,069
-406,540	768,215	-0,020	-0,039
-405,525	-165,090	-0,085	0,003
-404,511	503,802	0,053	-0,090
-403,496	354,115	-0,050	-0,072
-402,482	30,352	-0,152	-0,094
-401,467	-46,281	-0,111	-0,040
-400,452	800,000	-0,019	-0,054
-399,438	-139,494	0,042	0,003
-398,423	178,009	-0,101	-0,108
-397,409	800,000	0,014	0,036
-396,394	-45,942	0,090	0,032
-395,379	800,000	-0,017	0,049
-394,365	286,696	0,021	-0,028
-393,350	0,796	0,055	0,028
-392,336	-25,426	-0,122	-0,052
-391,321	-0,607	0,081	0,042
-390,306	800,000	-0,026	0,073
-389,292	-200,000	-0,004	-0,048
-388,277	483,759	-0,079	0,131
-387,263	800,000	0,045	0,112
-386,248	186,444	0,077	0,083
-385,233	-18,263	0,044	0,020
-384,219	-32,969	0,068	-0,027
-383,204	148,900	-0,050	0,049
-382,190	800,000	-0,015	0,041
-381,175	-200,000	0,022	-0,129
-380,160	395,474	-0,073	-0,111
-379,146	91,655	0,099	0,081
-378,131	100,560	-0,002	0,001
-377,117	83,918	-0,091	-0,072
-376,102	800,000	0,067	-0,139
-375,088	-26,172	-0,099	-0,042
-374,073	661,049	0,051	-0,096
-373,058	-200,000	0,003	-0,062
-372,044	-73,411	0,052	0,014
-371,029	-121,419	-0,082	-0,010
-370,015	3,458	0,107	0,057
-369,000	5,843	-0,152	0,082
-367,985	464,607	-0,083	-0,135
-366,971	800,000	0,029	-0,079
-365,956	-200,000	-0,007	-0,035
-364,942	-41,738	0,109	0,041
-363,927	-200,000	0,001	0,046
-362,912	800,000	-0,030	0,066
-361,898	-200,000	-0,014	-0,079
-360,883	22,091	-0,087	0,051
-359,869	800,000	0,038	-0,082
-358,854	565,926	0,038	0,067
-357,839	-145,503	-0,098	-0,006
-356,825	-42,473	0,154	-0,057
-355,810	38,675	0,029	0,019
-354,796	298,283	0,069	0,092
-353,781	29,652	-0,064	-0,039
-352,766	-174,070	0,103	0,002
-351,752	-51,264	0,095	0,032
-350,737	150,359	0,066	0,065
-349,723	-15,536	0,124	0,057
-348,708	-134,621	-0,067	-0,006
-347,693	-131,604	0,033	-0,003
-346,679	-200,000	0,016	-0,054
-345,664	-51,579	-0,093	0,031
-344,650	406,837	-0,034	0,053
-343,635	800,000	0,039	0,091
-342,620	-200,000	0,015	0,065
-341,606	-190,035	-0,067	0,001
-340,591	-200,000	0,035	0,119
-339,577	-200,000	0,034	0,117
-338,562	25,829	-0,099	-0,060
-337,548	-30,035	0,053	0,022
-336,533	-200,000	0,014	0,140
-335,518	-74,213	0,056	-0,014
-334,504	800,000	0,031	-0,075
-333,489	163,668	0,037	-0,037
-332,475	666,661	-0,027	0,051
-331,460	-32,544	0,028	0,011
-330,445	800,000	0,060	0,149
-329,431	-200,000	-0,014	0,164
-328,416	-8,221	0,063	0,031
-327,402	-200,000	-0,013	0,151
-326,387	-200,000	0,010	-0,079
-325,372	800,000	0,014	0,044
-324,358	586,122	-0,046	-0,083
-323,343	398,890	-0,015	0,023
-322,329	75,133	-0,143	-0,109
-321,314	-55,034	0,046	0,015
-320,299	36,445	0,078	0,050
-319,285	3,953	0,029	-0,015
-318,270	114,577	0,038	-0,034
-317,256	728,973	0,054	-0,105
-316,241	800,000	-0,037	-0,110
-315,226	-22,895	0,131	0,057
-314,212	380,801	0,092	0,138
-313,197	66,707	0,082	0,061
-312,183	800,000	-0,020	0,053
-311,168	-8,215	-0,118	0,057
-310,153	39,051	-0,077	0,050
-309,139	-44,482	-0,068	-0,024
-308,124	205,068	-0,014	-0,016
-307,110	155,105	0,038	0,038
-306,095	77,695	0,093	-0,072
-305,080	172,649	0,106	0,110
-304,066	586,497	-0,012	0,021
-303,051	-106,264	-0,067	-0,011
-302,037	-99,044	-0,096	-0,017
-301,022	-200,000	-0,022	-0,079
-300,008	-113,918	0,157	0,022
-298,993	316,020	-0,059	-0,081
-297,978	129,836	-0,071	-0,066
-296,964	800,000	0,043	-0,116
-295,949	-69,593	-0,022	0,006
-294,935	-81,404	-0,096	0,023
-293,920	-32,809	0,150	-0,060
-292,905	-79,314	0,129	-0,031
-291,891	-127,176	0,097	0,010
-290,876	-200,000	-0,007	0,091
-289,862	271,509	0,057	-0,073
-288,847	800,000	-0,041	-0,085
-287,832	-200,000	0,005	-0,047
-286,818	-200,000	-0,031	0,103
-285,803	-75,445	-0,016	0,004
-284,789	-154,122	0,027	-0,001
-283,774	-200,000	0,006	0,135
-282,759	-97,044	-0,091	0,017
-281,745	209,810	0,070	-0,080
-280,730	147,373	-0,091	-0,089
-279,716	-200,000	-0,013	0,052
-278,701	3,569	0,183	-0,096
-277,686	-200,000	-0,004	-0,017
-276,672	-200,000	0,041	0,224
-275,657	-11,772	-0,179	0,085
-274,643	9,400	0,187	-0,102
-273,628	109,445	0,041	-0,036
-272,613	-135,785	-0,093	0,008
-271,599	745,442	-0,054	0,105
-270,584	-6,908	0,166	0,081
-269,570	485,976	0,069	0,115
-268,555	126,544	-0,048	-0,044
-267,540	487,290	-0,069	-0,115
-266,526	454,014	-0,079	-0,127
-265,511	611,342	0,023	-0,042
-264,497	-200,000	-0,004	0,143
-263,482	800,000	0,041	0,104
-262,467	-13,444	0,047	-0,022
-261,453	104,879	0,077	-0,066
-260,438	-176,029	-0,087	-0,002
-259,424	-200,000	0,004	-0,145
-258,409	290,333	0,092	0,121
-257,395	153,001	0,017	0,017
-256,380	-63,192	-0,083	-0,025
-255,365	274,978	-0,115	0,147
-254,351	66,726	-0,029	-0,021
-253,336	-75,905	0,096	-0,024
-252,322	374,820	-0,050	-0,075
-251,307	64,126	-0,004	0,003
-250,292	-200,000	-0,027	-0,101
-249,278	-71,575	0,032	0,009
-248,263	142,793	-0,064	0,062
-247,249	482,039	-0,028	0,046
-246,234	29,689	-0,117	0,072
-245,219	-200,000	0,001	0,012
-244,205	29,708	-0,059	-0,036
-243,190	-40,179	0,145	-0,054
-242,176	158,779	-0,023	-0,024
-241,161	-200,000	0,003	-0,028
-240,146	-200,000	-0,017	0,061
-239,132	-185,744	-0,156	-0,002
-238,117	426,142	-0,023	-0,036
-237,103	22,357	0,022	-0,013
-236,088	800,000	-0,063	-0,149
-235,073	-200,000	0,004	0,048
-234,059	800,000	-0,005	-0,011
-233,044	91,688	0,127	0,103
-232,030	-67,807	0,028	0,008
-231,015	371,840	-0,043	0,063
-230,000	44,097	0,023	-0,015
-228,986	-200,000	-0,000	-0,047
-227,971	52,091	-0,108	0,074
-226,957	-200,000	0,002	-0,014
-225,942	303,353	-0,071	-0,095
-224,927	201,325	-0,040	0,045
-223,913	-200,000	-0,017	0,078
-222,898	800,000	-0,021	-0,049
-221,884	147,474	-0,024	-0,023
-220,869	-99,686	-0,051	-0,009
-219,855	-51,486	0,177	0,059
-218,840	-70,447	-0,074	0,020
-217,825	-200,000	0,022	0,086
-216,811	374,765	0,038	0,057
-215,796	-87,448	0,055	-0,012
-214,782	-200,000	-0,000	-0,092
-213,767	31,685	0,111	0,069
-212,752	180,202	-0,086	-0,091
-211,738	800,000	0,009	-0,027
-210,723	800,000	-0,056	0,148
-209,709	-152,622	0,042	0,002
-208,694	-200,000	0,020	-0,105
-207,679	-40,405	-0,075	-0,028
-206,665	800,000	0,007	0,013
-205,650	526,853	0,046	0,079
-204,636	-200,000	0,041	0,141
-203,621	267,779	0,052	0,066
-202,606	-60,156	0,097	0,030
-201,592	-126,281	-0,082	0,009
-200,577	248,837	0,106	-0,130
-199,563	-200,000	0,000	0,023
-198,548	727,997	0,065	0,125
-197,533	-200,000	0,038	0,134
-196,519	-0,495	-0,097	0,050
-195,504	-200,000	-0,007	0,039
-194,490	298,806	0,038	-0,051
-193,475	261,201	-0,061	-0,076
-192,460	401,120	0,064	-0,097
-191,446	43,872	-0,069	-0,046
-190,431	-66,474	-0,060	0,017
-189,417	-15,144	-0,084	0,039
-188,402	-157,007	-0,119	0,005
-187,387	30,463	0,046	-0,028
-186,373	-200,000	-0,021	-0,071
-185,358	763,609	-0,092	-0,181
-184,344	-76,846	0,122	-0,031
-183,329	110,532	-0,047	-0,041
-182,315	-59,404	0,081	0,025
-181,300	-135,621	-0,071	0,006
-180,285	413,189	-0,021	-0,032
-179,271	-107,673	-0,064	0,010
-178,256	-21,263	-0,102	-0,045
-177,242	306,414	-0,074	-0,099
-176,227	800,000	-0,016	-0,041
-175,212	800,000	-0,038	-0,117
-174,198	-200,000	0,001	-0,062
-173,183	-200,000	0,093	0,000
-172,169	-51,454	0,119	0,040
-171,154	-95,798	0,010	0,002
-170,139	-78,676	0,171	0,042
-169,125	-200,000	-0,013	-0,113
-168,110	117,161	-0,024	-0,021
-167,096	-200,000	0,001	-0,022
-166,081	-200,000	-0,006	-0,040
-165,066	-200,000	-0,007	-0,165
-164,052	800,000	0,013	0,039
-163,037	179,596	0,043	-0,045
-162,023	-134,314	-0,104	0,009
-161,008	-84,978	0,099	0,022
-159,993	114,319	-0,041	0,036
-158,979	-200,000	0,006	0,151
-157,964	-200,000	-0,009	-0,058
-156,950	382,998	-0,033	0,049
-155,935	-12,773	0,156	-0,073
-154,920	793,662	-0,040	-0,080
-153,906	-9,524	0,091	-0,044
-152,891	250,203	-0,117	0,143
-151,877	800,000	-0,009	-0,023
-150,862	-200,000	0,049	-0,181
-149,847	-200,000	-0,009	0,066
-148,833	669,587	0,039	0,073
-147,818	-40,300	0,034	0,013
-146,804	-200,000	-0,030	0,129
-145,789	-49,168	0,029	-0,010
-144,775	-34,169	-0,097	0,038
-143,760	227,818	-0,057	0,067
-142,745	60,768	-0,033	0,024
-141,731	-200,000	0,002	-0,060
-140,716	524,696	0,069	0,118
-139,702	301,626	0,032	-0,043
-138,687	-200,000	-0,005	0,020
-137,672	-78,814	-0,124	-0,030
-136,658	188,394	-0,029	-0,032
-135,643	-200,000	-0,044	-0,158
-134,629	-200,000	-0,001	-0,052
-133,614	-91,772	-0,075	0,015
-132,599	3,649	0,127	0,066
-131,585	800,000	-0,018	0,038
-130,570	-106,315	0,023	-0,004
-129,556	800,000	0,050	-0,126
-128,541	208,017	-0,026	0,029
-127,526	58,302	-0,020	-0,014
-126,512	-200,000	0,016	0,064
-125,497	-19,076	0,077	0,034
-124,483	-200,000	-0,018	0,171
-123,468	14,536	0,134	-0,075
-122,453	-117,162	-0,075	-0,010
-121,439	800,000	-0,070	0,154
-120,424	311,631	-0,043	-0,058
-119,410	-200,000	-0,004	0,045
