DTS Sentinel unit serial number:	SN410029Multiplexer serial number:	ORYXHardware model number:	OX2-SRSoftware version number:	ORYX F/W v4,00 Oryx Data Collector v3.7.2.0data status	okinstallation	B6 Nyhavnadifferential loss correction	single-endedforward channel	channel 2reverse channel	N/Adate	2023/12/08time	06:35:08forward acquisition time	300,00reverse acquisition time	0,00gamma	499,1914k internal	0,3165k external	0,3165temperature offset calibration	1,0000default loss term (dB/km)	0,3820temperature slope calibration	1,0000multiplexer offset coefficient	1,0000multiplexer slope coefficient	1,0000fibre end	0,00T internal ref (°C)	13,01T ext. ref 1 (°C)	-3,65T ext. ref 2 (°C)	-3,67length (m)	temperature (°C)	Stokes	anti-Stokes-744,400	-10,905	0,059	0,028
-743,385	-15,525	-0,345	-0,161
-742,371	113,356	0,090	-0,081
-741,356	-152,120	-0,265	0,014
-740,342	-91,726	0,179	-0,037
-739,327	-80,979	-0,342	0,083
-738,312	0,909	-0,021	0,011
-737,298	-52,374	-0,327	-0,111
-736,283	473,286	0,024	0,039
-735,269	-52,717	-0,143	-0,048
-734,254	52,808	0,094	-0,066
-733,239	-31,824	-0,468	-0,192
-732,225	-121,899	0,267	-0,032
-731,210	800,000	0,040	0,103
-730,196	-200,000	0,001	0,102
-729,181	800,000	0,004	-0,008
-728,167	-31,757	0,038	-0,016
-727,152	800,000	-0,022	-0,050
-726,137	-43,291	0,014	0,005
-725,123	-159,724	-0,095	0,004
-724,108	181,080	-0,134	-0,145
-723,094	800,000	-0,048	-0,102
-722,079	123,495	-0,089	-0,082
-721,064	-200,000	-0,023	-0,132
-720,050	202,006	-0,143	0,162
-719,035	206,777	-0,013	0,015
-718,021	23,148	-0,096	-0,058
-717,006	107,919	-0,065	0,057
-715,991	-36,971	-0,110	-0,043
-714,977	800,000	0,045	0,143
-713,962	23,770	0,062	0,037
-712,948	-200,000	-0,021	-0,114
-711,933	268,541	-0,035	-0,045
-710,918	-200,000	0,015	-0,071
-709,904	-200,000	-0,035	-0,151
-708,889	-182,821	-0,082	0,001
-707,875	20,249	-0,057	-0,034
-706,860	-200,000	-0,021	0,122
-705,845	532,015	-0,032	0,055
-704,831	592,255	-0,029	-0,053
-703,816	144,563	0,076	-0,075
-702,802	-21,462	0,077	0,034
-701,787	24,000	-0,089	0,054
-700,772	277,845	0,085	-0,111
-699,758	-121,674	0,025	0,003
-698,743	225,296	0,062	-0,074
-697,729	206,190	0,011	0,013
-696,714	519,093	-0,028	0,048
-695,699	-146,406	-0,046	0,003
-694,685	230,392	0,010	0,013
-693,670	56,257	-0,128	-0,091
-692,656	-45,558	0,071	0,026
-691,641	59,644	-0,024	0,017
-690,627	27,927	0,026	-0,016
-689,612	-200,000	-0,062	-0,264
-688,597	373,251	-0,061	-0,091
-687,583	482,396	-0,048	0,080
-686,568	-87,617	-0,030	0,007
-685,554	365,140	0,043	-0,064
-684,539	-134,568	0,167	0,015
-683,524	-97,316	0,073	0,014
-682,510	-200,000	0,008	0,089
-681,495	230,989	-0,074	-0,090
-680,481	210,437	-0,133	-0,154
-679,466	653,821	-0,031	-0,059
-678,451	19,934	-0,100	-0,059
-677,437	619,692	-0,019	-0,035
-676,422	-129,878	0,013	-0,001
-675,408	-200,000	-0,010	-0,073
-674,393	63,831	0,142	-0,104
-673,378	800,000	0,010	0,030
-672,364	-49,311	-0,030	-0,011
-671,349	142,791	-0,108	-0,105
-670,335	597,676	-0,021	0,038
-669,320	800,000	0,028	-0,075
-668,305	54,338	0,032	-0,022
-667,291	-2,192	-0,130	-0,067
-666,276	-25,604	0,054	-0,023
-665,262	-200,000	0,014	-0,088
-664,247	800,000	0,029	-0,061
-663,232	800,000	-0,013	-0,040
-662,218	476,345	-0,017	0,028
-661,203	609,368	-0,014	-0,027
-660,189	65,729	-0,051	0,038
-659,174	228,592	-0,080	-0,096
-658,159	-14,499	-0,043	0,020
-657,145	-123,691	0,003	-0,000
-656,130	-200,000	-0,025	-0,090
-655,116	-157,451	0,137	0,006
-654,101	53,115	0,174	0,122
-653,086	800,000	-0,032	-0,099
-652,072	-157,829	-0,179	0,008
-651,057	51,225	-0,069	0,048
-650,043	39,877	-0,183	-0,120
-649,028	255,405	0,019	0,024
-648,014	-51,017	-0,045	0,015
-646,999	52,921	-0,016	0,011
-645,984	314,913	0,022	0,030
-644,970	800,000	-0,052	-0,145
-643,955	137,029	-0,143	-0,137
-642,941	-200,000	0,008	0,106
-641,926	-4,048	0,112	0,056
-640,911	192,711	0,064	0,071
-639,897	-200,000	0,037	-0,000
-638,882	800,000	-0,040	-0,100
-637,868	122,985	-0,044	0,041
-636,853	-24,701	-0,068	0,030
-635,838	-138,418	-0,050	-0,004
-634,824	-200,000	-0,003	-0,090
-633,809	28,962	-0,038	0,024
-632,795	-65,591	-0,029	0,008
-631,780	-79,294	0,054	-0,013
-630,765	-53,040	-0,097	0,032
-629,751	-150,906	-0,057	0,003
-628,736	-40,884	-0,068	0,025
-627,722	-69,101	-0,134	-0,037
-626,707	-200,000	0,012	-0,090
-625,692	-140,688	-0,065	-0,005
-624,678	36,490	-0,128	0,083
-623,663	89,582	-0,106	-0,087
-622,649	800,000	0,018	0,045
-621,634	-200,000	0,022	-0,074
-620,619	-200,000	-0,033	-0,152
-619,605	-54,082	0,073	-0,024
-618,590	800,000	0,064	0,145
-617,576	181,958	-0,056	-0,061
-616,561	-155,345	0,174	-0,008
-615,546	800,000	0,026	0,075
-614,532	-200,000	-0,003	0,017
-613,517	-63,967	0,186	-0,055
-612,503	-76,388	-0,100	0,026
-611,488	-136,071	-0,059	-0,005
-610,474	-98,100	0,221	-0,041
-609,459	724,989	-0,036	-0,070
-608,444	390,760	-0,044	-0,066
-607,430	79,689	-0,053	-0,041
-606,415	-200,000	0,014	0,067
-605,401	335,869	0,033	0,047
-604,386	-92,066	0,154	-0,032
-603,371	103,695	0,038	0,032
-602,357	-193,106	-0,066	0,000
-601,342	-200,000	-0,004	0,040
-600,328	140,796	0,072	-0,070
-599,313	-128,825	-0,132	0,013
-598,298	-200,000	-0,016	-0,121
-597,284	800,000	-0,019	-0,043
-596,269	-106,486	0,052	0,008
-595,255	-34,551	0,029	0,012
-594,240	-200,000	0,010	-0,126
-593,225	-126,798	-0,106	0,011
-592,211	-156,203	-0,027	-0,001
-591,196	-39,199	-0,078	-0,030
-590,182	-8,780	0,077	0,038
-589,167	-119,067	-0,102	0,013
-588,152	800,000	-0,032	0,076
-587,138	97,066	-0,052	0,044
-586,123	136,978	0,037	0,036
-585,109	-200,000	-0,001	0,097
-584,094	-200,000	-0,011	0,068
-583,079	88,550	0,114	0,093
-582,065	-103,274	0,069	0,012
-581,050	-11,141	0,046	-0,022
-580,036	230,499	-0,091	0,109
-579,021	64,373	-0,072	0,053
-578,006	4,038	-0,066	-0,035
-576,992	-54,762	0,142	0,047
-575,977	-101,585	-0,005	0,001
-574,963	599,026	0,057	0,104
-573,948	-200,000	0,000	-0,043
-572,934	-9,777	-0,149	0,072
-571,919	-200,000	0,003	0,021
-570,904	-34,865	0,106	-0,042
-569,890	-41,327	0,041	-0,015
-568,875	597,093	0,009	-0,016
-567,861	150,793	0,034	-0,034
-566,846	-42,661	-0,077	-0,028
-565,831	800,000	0,035	0,107
-564,817	27,718	0,027	-0,017
-563,802	-200,000	-0,008	0,080
-562,788	-200,000	0,037	-0,215
-561,773	653,281	-0,047	-0,088
-560,758	-105,151	0,163	-0,027
-559,744	195,288	-0,064	0,071
-558,729	-110,125	0,154	0,023
-557,715	364,407	-0,057	0,084
-556,700	-6,371	0,036	0,018
-555,685	116,282	-0,073	-0,065
-554,671	800,000	0,027	-0,069
-553,656	88,954	-0,062	-0,051
-552,642	-200,000	-0,007	0,042
-551,627	-200,000	-0,001	0,014
-550,612	209,587	0,067	-0,076
-549,598	-200,000	-0,012	-0,100
-548,583	-200,000	-0,013	0,054
-547,569	-129,148	-0,125	-0,013
-546,554	183,184	0,073	0,079
-545,539	-37,361	0,057	-0,022
-544,525	-152,997	0,134	0,007
-543,510	-128,387	-0,084	-0,009
-542,496	56,700	-0,099	-0,070
-541,481	1,834	-0,208	-0,109
-540,466	137,624	-0,033	-0,032
-539,452	-200,000	-0,007	-0,024
-538,437	454,839	0,084	0,136
-537,423	684,909	-0,035	0,066
-536,408	800,000	0,069	-0,146
-535,393	-13,729	-0,137	-0,065
-534,379	-200,000	-0,017	-0,138
-533,364	-200,000	-0,001	-0,077
-532,350	-200,000	-0,011	0,075
-531,335	56,511	-0,051	0,036
-530,321	800,000	0,046	0,132
-529,306	-200,000	-0,003	-0,107
-528,291	-200,000	-0,011	-0,155
-527,277	253,709	-0,090	-0,113
-526,262	-164,510	0,019	0,001
-525,248	-200,000	0,027	0,117
-524,233	-200,000	0,007	0,040
-523,218	430,973	0,030	-0,048
-522,204	800,000	-0,009	-0,024
-521,189	-125,850	0,156	-0,017
-520,175	732,812	0,063	-0,123
-519,160	76,577	0,085	-0,066
-518,145	-200,000	-0,003	0,046
-517,131	110,799	-0,063	0,055
-516,116	-151,091	-0,052	0,003
-515,102	-17,653	0,068	-0,031
-514,087	-143,450	-0,121	0,008
-513,072	-132,493	-0,044	-0,004
-512,058	800,000	0,049	0,157
-511,043	-36,511	0,080	0,031
-510,029	710,762	-0,062	-0,119
-509,014	209,138	-0,029	0,033
-507,999	800,000	0,058	0,132
-506,985	-34,719	-0,077	0,030
-505,970	-200,000	-0,029	-0,102
-504,956	330,671	0,067	-0,094
-503,941	201,990	-0,036	-0,040
-502,926	276,925	0,088	0,115
-501,912	-148,401	0,153	-0,009
-500,897	320,898	0,055	-0,076
-499,883	-200,000	-0,004	-0,041
-498,868	-200,000	-0,006	-0,028
-497,853	800,000	-0,010	0,028
-496,839	62,478	-0,104	-0,075
-495,824	83,140	-0,052	-0,041
-494,810	258,655	0,036	0,046
-493,795	-200,000	0,014	-0,048
-492,781	-122,595	-0,106	0,012
-491,766	40,832	-0,058	-0,038
-490,751	320,527	-0,031	0,043
-489,737	800,000	0,045	0,093
-488,722	-95,793	0,120	0,023
-487,708	800,000	0,038	-0,114
-486,693	-200,000	0,003	0,029
-485,678	91,524	0,100	-0,082
-484,664	534,873	-0,067	-0,116
-483,649	619,176	0,023	-0,042
-482,635	-2,887	0,144	0,073
-481,620	-180,517	0,045	-0,001
-480,605	-200,000	-0,003	0,053
-479,591	149,760	-0,085	0,084
-478,576	-200,000	0,003	0,015
-477,562	-178,765	-0,159	0,003
-476,547	800,000	-0,031	-0,093
-475,532	125,183	-0,016	0,014
-474,518	-105,176	-0,099	0,016
-473,503	-118,843	-0,019	0,002
-472,489	-200,000	0,023	0,119
-471,474	146,512	-0,088	0,086
-470,459	74,800	-0,028	-0,021
-469,445	-161,329	-0,009	-0,000
-468,430	465,921	-0,025	-0,041
-467,416	350,471	0,160	0,230
-466,401	51,492	0,063	0,043
-465,386	-200,000	0,002	0,028
-464,372	-113,764	-0,135	0,019
-463,357	172,453	0,036	-0,038
-462,343	-91,135	-0,131	-0,027
-461,328	424,322	0,021	-0,034
-460,313	-200,000	0,009	-0,028
-459,299	475,505	0,008	0,014
-458,284	6,437	-0,023	-0,012
-457,270	76,236	0,115	0,088
-456,255	369,421	-0,103	-0,152
-455,241	-17,623	-0,130	-0,059
-454,226	-9,591	0,033	0,016
-453,211	179,750	-0,067	0,071
-452,197	-52,924	0,103	0,034
-451,182	-200,000	-0,009	0,080
-450,168	-60,594	-0,079	-0,024
-449,153	-200,000	-0,041	-0,158
-448,138	53,504	0,049	0,034
-447,124	344,099	-0,133	-0,190
-446,109	-200,000	0,026	0,132
-445,095	-200,000	-0,028	-0,094
-444,080	177,822	0,079	0,084
-443,065	800,000	-0,025	0,070
-442,051	-57,029	0,097	0,031
-441,036	800,000	-0,038	0,080
-440,022	-200,000	0,016	-0,136
-439,007	100,565	-0,083	-0,070
-437,992	473,432	0,041	0,067
-436,978	-200,000	0,013	0,095
-435,963	-200,000	0,030	0,183
-434,949	289,591	-0,055	-0,072
-433,934	64,054	-0,116	-0,084
-432,919	-200,000	-0,010	-0,096
-431,905	-200,000	-0,012	0,083
-430,890	244,727	0,079	0,097
-429,876	418,728	0,075	-0,118
-428,861	23,062	0,140	0,084
-427,846	-200,000	-0,025	0,144
-426,832	-146,334	-0,115	0,007
-425,817	800,000	0,035	0,077
-424,803	31,603	-0,028	0,018
-423,788	225,082	-0,065	-0,077
-422,773	-114,627	0,027	-0,004
-421,759	800,000	0,020	-0,049
-420,744	-77,843	-0,057	-0,014
-419,730	-200,000	-0,024	-0,083
-418,715	-200,000	-0,021	-0,103
-417,701	800,000	-0,029	0,062
-416,686	383,542	0,057	0,085
-415,671	800,000	0,037	0,080
-414,657	800,000	-0,012	0,032
-413,642	54,293	-0,127	0,089
-412,628	-90,677	-0,082	-0,017
-411,613	18,263	0,160	-0,093
-410,598	339,629	0,057	0,081
-409,584	77,114	-0,100	0,077
-408,569	199,133	0,031	0,035
-407,555	-134,065	-0,058	0,005
-406,540	347,828	0,047	-0,068
-405,525	-200,000	0,011	-0,056
-404,511	-200,000	-0,017	0,073
-403,496	-200,000	-0,025	-0,188
-402,482	-200,000	0,023	-0,185
-401,467	444,423	0,056	-0,090
-400,452	-26,316	0,149	0,063
-399,438	-200,000	0,008	-0,041
-398,423	800,000	-0,030	-0,087
-397,409	157,862	-0,104	0,105
-396,394	51,897	-0,064	0,044
-395,379	-200,000	-0,004	0,026
-394,365	335,194	0,097	-0,137
-393,350	411,875	0,098	0,152
-392,336	800,000	-0,021	0,056
-391,321	-200,000	-0,020	-0,135
-390,306	-110,173	-0,227	-0,034
-389,292	800,000	-0,072	-0,176
-388,277	-200,000	0,011	0,065
-387,263	384,208	-0,075	0,113
-386,248	800,000	0,028	0,074
-385,233	-200,000	-0,039	-0,169
-384,219	-200,000	-0,003	-0,038
-383,204	108,305	0,062	0,054
-382,190	-200,000	0,005	-0,029
-381,175	222,168	-0,046	0,054
-380,160	611,916	-0,048	0,087
-379,146	-200,000	-0,018	0,079
-378,131	477,773	-0,068	0,113
-377,117	140,874	0,094	-0,090
-376,102	10,537	-0,154	-0,085
-375,088	38,777	-0,054	0,035
-374,073	-200,000	0,004	-0,120
-373,058	800,000	-0,041	-0,126
-372,044	-177,913	-0,005	0,000
-371,029	-200,000	0,005	0,035
-370,015	800,000	-0,018	-0,041
-369,000	2,951	-0,062	-0,032
-367,985	-49,387	-0,057	-0,020
-366,971	800,000	-0,046	0,139
-365,956	303,897	0,023	-0,031
-364,942	-200,000	0,029	0,183
-363,927	1,693	0,061	-0,032
-362,912	-75,724	-0,024	0,006
-361,898	125,971	-0,055	0,051
-360,883	2,325	-0,133	-0,069
-359,869	133,172	0,080	-0,075
-358,854	139,063	-0,037	0,035
-357,839	110,121	0,036	-0,031
-356,825	24,798	-0,080	-0,048
-355,810	-64,198	0,074	-0,022
-354,796	537,525	-0,015	-0,026
-353,781	158,339	-0,024	-0,024
-352,766	-200,000	0,020	0,075
-351,752	113,320	-0,073	-0,064
-350,737	293,423	0,080	-0,106
-349,723	288,456	0,093	0,123
-348,708	-57,867	-0,072	0,023
-347,693	-46,783	0,063	-0,022
-346,679	800,000	0,049	-0,134
-345,664	800,000	0,026	-0,080
-344,650	800,000	0,049	0,126
-343,635	-200,000	0,007	0,098
-342,620	-109,348	0,157	-0,024
-341,606	800,000	-0,020	-0,051
-340,591	-200,000	0,017	-0,056
-339,577	-140,691	-0,056	-0,004
-338,562	100,911	0,042	0,036
-337,548	-73,164	-0,096	0,025
-336,533	-200,000	0,010	0,042
-335,518	85,722	-0,127	-0,101
-334,504	-91,016	-0,040	0,008
-333,489	-200,000	0,000	-0,071
-332,475	-94,821	-0,072	0,014
-331,460	-167,967	0,027	0,001
-330,445	-200,000	-0,004	-0,065
-329,431	-116,609	0,042	0,005
-328,416	-200,000	-0,003	0,102
-327,402	-200,000	-0,020	0,096
-326,387	-140,965	0,064	-0,005
-325,372	800,000	0,006	-0,018
-324,358	608,229	0,036	-0,065
-323,343	800,000	0,013	0,035
-322,329	-101,942	0,134	-0,023
-321,314	123,751	0,023	0,021
-320,299	28,719	0,065	0,040
-319,285	69,400	0,135	-0,101
-318,270	-170,237	-0,103	0,003
-317,256	-200,000	-0,013	-0,179
-316,241	-200,000	-0,019	-0,087
-315,226	-71,657	-0,156	-0,042
-314,212	-47,217	0,079	0,028
-313,197	-200,000	0,024	0,136
-312,183	800,000	0,049	0,100
-311,168	-200,000	-0,019	-0,063
-310,153	-50,770	0,066	-0,022
-309,139	800,000	0,051	0,105
-308,124	-72,900	0,045	-0,012
-307,110	317,206	-0,070	0,095
-306,095	18,629	-0,097	0,056
-305,080	-81,721	-0,090	-0,021
-304,066	502,249	-0,019	0,032
-303,051	317,961	0,046	-0,064
-302,037	65,473	0,082	-0,060
-301,022	-200,000	0,000	0,004
-300,008	-25,542	0,065	-0,028
-298,993	317,678	0,069	0,095
-297,978	-200,000	-0,006	0,055
-296,964	46,086	-0,143	0,095
-295,949	800,000	-0,018	0,037
-294,935	-83,163	-0,016	0,004
-293,920	48,860	0,094	0,064
-292,905	388,247	0,099	0,149
-291,891	-200,000	-0,002	-0,121
-290,876	485,135	0,018	0,029
-289,862	187,879	0,071	0,076
-288,847	-200,000	0,002	0,081
-287,832	-200,000	-0,001	0,155
-286,818	-200,000	-0,002	0,025
-285,803	-73,812	0,086	-0,022
-284,789	800,000	-0,028	0,081
-283,774	-70,346	-0,037	-0,010
-282,759	-200,000	0,008	-0,086
-281,745	-200,000	-0,008	-0,056
-280,730	-14,728	-0,145	-0,067
-279,716	113,524	0,066	0,058
-278,701	19,453	0,136	0,078
-277,686	142,983	0,025	-0,024
-276,672	506,992	-0,013	0,022
-275,657	36,606	0,179	0,114
-274,643	800,000	-0,016	0,051
-273,628	-200,000	-0,034	-0,124
-272,613	104,266	-0,032	0,027
-271,599	609,976	0,071	0,128
-270,584	156,088	0,031	-0,031
-269,570	-71,349	0,096	0,026
-268,555	163,849	0,042	0,043
-267,540	800,000	-0,022	0,060
-266,526	-200,000	-0,026	0,095
-265,511	-184,162	0,082	0,001
-264,497	-200,000	-0,009	-0,068
-263,482	-200,000	-0,002	0,021
-262,467	153,460	0,082	0,081
-261,453	800,000	0,026	-0,080
-260,438	-13,068	0,076	-0,036
-259,424	-59,013	-0,042	-0,013
-258,409	800,000	-0,010	0,029
-257,395	194,548	0,116	0,127
-256,380	-81,727	-0,068	-0,016
-255,365	800,000	0,046	0,139
-254,351	800,000	0,028	0,087
-253,336	-57,367	-0,055	-0,017
-252,322	-200,000	-0,005	-0,047
-251,307	-25,252	-0,050	-0,021
-250,292	-36,565	0,064	0,025
-249,278	359,352	0,050	0,073
-248,263	-200,000	-0,005	0,047
-247,249	-200,000	-0,041	-0,179
-246,234	-48,493	0,059	0,020
-245,219	73,283	0,035	-0,026
-244,205	-123,132	-0,079	0,009
-243,190	-103,834	-0,049	-0,008
-242,176	-200,000	-0,011	0,052
-241,161	-200,000	0,003	0,164
-240,146	242,936	0,077	0,094
-239,132	372,491	-0,043	-0,064
-238,117	800,000	-0,006	-0,016
-237,103	-24,393	-0,119	0,051
-236,088	151,024	0,019	0,019
-235,073	153,669	-0,085	0,084
-234,059	-153,593	0,035	0,002
-233,044	1,365	0,023	-0,012
-232,030	-57,025	-0,074	-0,023
-231,015	-28,955	0,080	0,033
-230,000	-200,000	0,007	-0,038
-228,986	-200,000	-0,025	-0,110
-227,971	19,332	0,049	-0,028
-226,957	458,986	0,096	0,155
-225,942	-200,000	0,005	-0,057
-224,927	-114,825	-0,101	-0,014
-223,913	111,537	-0,052	-0,045
-222,898	578,212	0,042	0,074
-221,884	-200,000	-0,017	-0,063
-220,869	-158,381	-0,040	-0,002
-219,855	-200,000	0,016	0,077
-218,840	-200,000	0,007	-0,137
-217,825	-22,998	0,077	-0,033
-216,811	80,897	-0,140	-0,109
-215,796	245,478	0,034	-0,041
-214,782	140,025	0,029	0,027
-213,767	446,779	-0,036	0,057
-212,752	-115,708	0,090	-0,012
-211,738	68,500	0,134	0,099
-210,723	128,447	-0,075	0,069
-209,709	57,573	-0,059	0,042
-208,694	-121,631	-0,092	-0,011
-207,679	-62,720	-0,132	-0,039
-206,665	-113,443	0,005	0,001
-205,650	-152,686	0,082	-0,004
-204,636	7,983	-0,094	-0,051
-203,621	-62,232	0,109	-0,033
-202,606	-16,356	0,008	-0,004
-201,592	-200,000	-0,031	-0,158
-200,577	-200,000	0,036	-0,166
-199,563	-200,000	-0,006	-0,148
-198,548	5,851	0,087	-0,046
-197,533	-200,000	0,055	0,195
-196,519	800,000	0,037	0,080
-195,504	-88,008	-0,075	-0,016
-194,490	-200,000	-0,010	0,074
-193,475	-200,000	0,002	0,053
-192,460	-155,863	0,108	0,005
-191,446	-33,584	-0,049	-0,019
-190,431	27,906	0,076	0,046
-189,417	-200,000	0,004	0,020
-188,402	-95,135	0,105	0,020
-187,387	270,742	0,054	0,069
-186,373	431,508	0,078	-0,122
-185,358	-200,000	0,019	0,141
-184,344	-41,616	0,064	-0,023
-183,329	-155,538	-0,045	0,002
-182,315	372,085	0,085	-0,125
-181,300	-200,000	0,030	-0,102
-180,285	2,906	-0,172	-0,090
-179,271	-200,000	0,040	-0,168
-178,256	239,525	-0,061	0,073
-177,242	800,000	0,038	0,098
-176,227	-150,802	-0,106	0,006
-175,212	-170,047	0,125	-0,003
-174,198	0,032	-0,074	0,038
-173,183	-200,000	-0,001	-0,057
-172,169	-58,428	0,105	0,033
-171,154	-133,038	-0,062	0,006
-170,139	800,000	0,053	-0,116
-169,125	14,549	0,156	0,087
-168,110	800,000	-0,033	0,083
-167,096	-129,312	-0,065	-0,006
-166,081	106,641	-0,070	0,059
-165,066	-200,000	-0,006	-0,180
-164,052	270,585	-0,029	0,037
-163,037	-200,000	0,023	-0,093
-162,023	800,000	-0,011	-0,032
-161,008	-200,000	-0,003	0,072
-159,993	214,419	0,060	0,068
-158,979	221,671	-0,053	-0,061
-157,964	76,972	-0,111	-0,085
-156,950	-200,000	-0,010	0,038
-155,935	-200,000	0,019	-0,073
-154,920	67,058	0,043	0,031
-153,906	45,430	0,082	-0,054
-152,891	-200,000	0,009	0,055
-151,877	281,750	0,023	-0,030
-150,862	-200,000	-0,014	-0,098
-149,847	32,893	-0,028	0,017
-148,833	-144,650	0,055	-0,004
-147,818	-65,368	-0,038	0,011
-146,804	-57,699	0,083	0,026
-145,789	-79,976	0,065	-0,016
-144,775	52,428	0,084	-0,057
-143,760	501,359	-0,014	0,024
-142,745	12,300	-0,180	0,099
-141,731	-59,721	0,093	-0,028
-140,716	594,646	0,042	0,075
-139,702	-200,000	0,003	0,012
-138,687	141,342	0,153	-0,145
-137,672	-200,000	0,017	0,110
-136,658	-27,405	-0,046	-0,019
-135,643	800,000	0,028	-0,079
-134,629	-200,000	0,004	-0,097
-133,614	247,764	0,070	0,085
-132,599	5,041	0,087	0,046
-131,585	265,970	0,065	0,081
-130,570	302,797	0,002	0,003
-129,556	800,000	-0,025	-0,064
-128,541	-151,992	0,028	-0,001
-127,526	800,000	0,015	-0,043
-126,512	-200,000	-0,016	0,103
-125,497	-180,105	0,145	0,002
-124,483	-31,996	0,084	0,034
-123,468	345,053	-0,015	-0,021
-122,453	-200,000	-0,051	-0,184
-121,439	-94,352	-0,103	-0,020
-120,424	-200,000	0,005	-0,036
