DTS Sentinel unit serial number:	SN410029Multiplexer serial number:	ORYXHardware model number:	OX2-SRSoftware version number:	ORYX F/W v4,00 Oryx Data Collector v3.7.2.0data status	okinstallation	B6 Nyhavnadifferential loss correction	single-endedforward channel	channel 2reverse channel	N/Adate	2023/12/08time	12:30:08forward acquisition time	300,00reverse acquisition time	0,00gamma	499,1914k internal	0,3159k external	0,3159temperature offset calibration	1,0000default loss term (dB/km)	0,3820temperature slope calibration	1,0000multiplexer offset coefficient	1,0000multiplexer slope coefficient	1,0000fibre end	0,00T internal ref (°C)	15,06T ext. ref 1 (°C)	-1,49T ext. ref 2 (°C)	-1,49length (m)	temperature (°C)	Stokes	anti-Stokes-744,400	-59,097	0,216	0,068
-743,385	-16,592	-0,309	0,144
-742,371	800,000	0,016	-0,034
-741,356	-104,104	-0,386	-0,066
-740,342	800,000	-0,035	-0,110
-739,327	46,161	-0,212	-0,145
-738,312	3,490	0,138	-0,074
-737,298	-25,046	-0,271	-0,118
-736,283	184,394	0,090	-0,098
-735,269	-60,382	-0,228	0,071
-734,254	-119,144	0,144	-0,018
-733,239	-100,851	-0,643	-0,115
-732,225	-163,292	0,188	-0,007
-731,210	324,121	-0,132	0,186
-730,196	290,325	0,057	-0,076
-729,181	-112,863	-0,160	0,023
-728,167	73,364	-0,047	0,036
-727,152	-174,631	-0,013	-0,000
-726,137	-54,664	-0,073	-0,024
-725,123	800,000	-0,067	-0,153
-724,108	800,000	-0,052	-0,109
-723,094	-156,949	-0,150	0,007
-722,079	468,602	-0,079	-0,131
-721,064	-200,000	-0,026	0,095
-720,050	338,271	0,023	0,032
-719,035	140,640	0,093	0,091
-718,021	-115,352	0,059	-0,008
-717,006	800,000	-0,055	-0,169
-715,991	800,000	0,011	-0,029
-714,977	26,702	0,073	0,045
-713,962	58,855	-0,092	-0,067
-712,948	547,030	-0,012	-0,022
-711,933	-200,000	0,028	0,120
-710,918	-116,340	-0,009	-0,001
-709,904	-200,000	-0,008	0,037
-708,889	-118,061	0,066	0,009
-707,875	191,680	-0,029	-0,032
-706,860	-200,000	-0,015	-0,065
-705,845	47,255	-0,094	0,064
-704,831	-1,951	-0,042	0,022
-703,816	145,934	-0,034	0,034
-702,802	142,474	0,060	-0,059
-701,787	-122,586	-0,065	-0,008
-700,772	50,940	-0,121	0,084
-699,758	596,165	0,076	-0,139
-698,743	356,990	0,015	0,022
-697,729	-200,000	0,013	0,215
-696,714	86,127	0,056	0,046
-695,699	227,061	-0,105	-0,126
-694,685	800,000	0,029	-0,080
-693,670	264,139	0,051	-0,065
-692,656	-200,000	-0,017	-0,067
-691,641	-9,362	0,104	-0,051
-690,627	-51,066	0,129	0,044
-689,612	-200,000	0,022	-0,110
-688,597	310,856	-0,081	0,111
-687,583	-200,000	-0,031	0,108
-686,568	761,116	-0,018	-0,036
-685,554	118,707	0,077	-0,070
-684,539	-132,833	0,037	0,003
-683,524	281,432	-0,128	0,169
-682,510	800,000	-0,059	-0,140
-681,495	194,776	-0,070	-0,078
-680,481	142,977	-0,095	-0,093
-679,466	-200,000	-0,021	-0,079
-678,451	800,000	0,020	0,066
-677,437	-200,000	-0,001	0,030
-676,422	176,912	-0,058	0,062
-675,408	800,000	-0,005	-0,015
-674,393	-200,000	-0,016	-0,075
-673,378	-200,000	-0,019	0,077
-672,364	123,447	-0,035	-0,032
-671,349	-142,779	-0,100	-0,007
-670,335	206,449	-0,094	-0,107
-669,320	-156,569	-0,165	-0,007
-668,305	275,530	-0,111	0,145
-667,291	-133,119	-0,044	-0,004
-666,276	-147,045	-0,105	-0,007
-665,262	800,000	-0,070	-0,148
-664,247	110,741	-0,051	0,045
-663,232	-200,000	0,021	0,097
-662,218	-200,000	0,004	0,071
-661,203	-151,678	-0,072	0,004
-660,189	798,778	-0,050	-0,102
-659,174	-200,000	0,031	-0,151
-658,159	602,495	0,033	-0,060
-657,145	104,947	-0,104	-0,090
-656,130	141,268	-0,091	-0,089
-655,116	140,858	-0,061	-0,059
-654,101	-200,000	0,001	0,073
-653,086	73,297	-0,099	0,076
-652,072	-86,010	-0,097	-0,022
-651,057	38,143	0,101	-0,066
-650,043	161,294	0,108	-0,111
-649,028	-200,000	-0,005	-0,078
-648,014	89,192	-0,081	-0,066
-646,999	-126,128	0,085	-0,009
-645,984	-200,000	-0,008	0,049
-644,970	-94,175	-0,086	-0,017
-643,955	800,000	-0,023	-0,058
-642,941	-200,000	0,009	-0,068
-641,926	-161,951	0,058	-0,002
-640,911	-7,519	0,016	-0,008
-639,897	800,000	-0,012	-0,025
-638,882	179,900	0,089	0,096
-637,868	-200,000	-0,005	-0,048
-636,853	-49,674	-0,124	-0,043
-635,838	-200,000	-0,018	0,170
-634,824	-200,000	0,012	-0,115
-633,809	800,000	-0,048	0,152
-632,795	230,021	0,124	-0,149
-631,780	691,734	-0,010	-0,019
-630,765	-200,000	0,004	0,015
-629,751	17,694	-0,044	0,025
-628,736	486,926	0,030	-0,050
-627,722	-200,000	-0,048	-0,231
-626,707	-191,803	-0,021	-0,000
-625,692	-40,303	0,066	-0,025
-624,678	-200,000	0,006	0,029
-623,663	-121,787	0,032	-0,004
-622,649	-73,488	-0,095	-0,025
-621,634	25,686	-0,101	-0,061
-620,619	-119,276	0,073	0,009
-619,605	-200,000	0,005	-0,143
-618,590	-200,000	-0,017	-0,071
-617,576	-200,000	-0,025	-0,128
-616,561	-200,000	0,004	-0,118
-615,546	76,996	0,014	-0,011
-614,532	-113,217	-0,063	-0,009
-613,517	800,000	-0,012	0,033
-612,503	18,525	-0,098	-0,057
-611,488	-132,051	-0,095	-0,009
-610,474	-200,000	0,005	0,028
-609,459	-200,000	0,000	0,050
-608,444	46,531	-0,080	-0,054
-607,430	40,757	0,076	0,050
-606,415	-132,618	-0,117	-0,011
-605,401	5,336	-0,151	0,082
-604,386	616,864	-0,070	0,130
-603,371	-25,953	0,112	-0,048
-602,357	299,161	0,110	-0,149
-601,342	66,151	0,046	0,035
-600,328	140,350	-0,025	-0,024
-599,313	10,059	-0,114	-0,064
-598,298	190,347	-0,073	-0,080
-597,284	-4,009	-0,165	0,084
-596,269	218,717	0,065	0,077
-595,255	36,661	0,061	0,039
-594,240	235,159	-0,058	-0,071
-593,225	-200,000	-0,013	-0,081
-592,211	-200,000	-0,011	-0,080
-591,196	83,356	-0,087	-0,069
-590,182	86,659	0,129	-0,104
-589,167	161,245	-0,055	0,056
-588,152	-200,000	0,003	0,036
-587,138	-16,691	0,134	0,062
-586,123	-40,371	0,052	0,020
-585,109	800,000	-0,054	-0,148
-584,094	-49,143	0,072	0,025
-583,079	800,000	0,007	-0,015
-582,065	-200,000	-0,010	0,085
-581,050	-60,928	-0,076	0,023
-580,036	-200,000	-0,015	-0,132
-579,021	-200,000	0,013	-0,057
-578,006	800,000	-0,010	-0,021
-576,992	206,661	-0,069	-0,079
-575,977	-152,356	-0,140	-0,007
-574,963	-200,000	-0,012	-0,095
-573,948	745,950	-0,051	-0,100
-572,934	144,489	-0,021	0,021
-571,919	-26,257	-0,115	-0,049
-570,904	-174,860	-0,153	-0,003
-569,890	800,000	-0,008	-0,024
-568,875	-200,000	0,017	-0,131
-567,861	-162,944	0,048	-0,002
-566,846	800,000	0,062	0,152
-565,831	-71,871	0,138	0,037
-564,817	-50,267	-0,157	0,054
-563,802	528,913	-0,031	0,054
-562,788	-185,571	0,046	0,000
-561,773	-200,000	0,006	-0,035
-560,758	-200,000	-0,005	-0,036
-559,744	-31,498	0,110	0,045
-558,729	-95,939	-0,252	0,049
-557,715	761,949	-0,016	0,031
-556,700	290,707	-0,052	0,069
-555,685	-94,099	0,134	-0,027
-554,671	-200,000	-0,016	-0,088
-553,656	583,434	-0,013	-0,024
-552,642	-200,000	0,041	0,143
-551,627	34,300	0,062	0,039
-550,612	-200,000	0,007	-0,107
-549,598	-200,000	-0,017	0,055
-548,583	-137,365	0,022	-0,002
-547,569	367,072	-0,039	0,057
-546,554	6,952	0,156	0,085
-545,539	-135,401	-0,094	-0,008
-544,525	-200,000	-0,004	0,012
-543,510	552,459	0,015	-0,027
-542,496	0,412	0,055	0,029
-541,481	16,340	-0,183	-0,105
-540,466	-108,979	0,058	0,009
-539,452	-89,229	0,048	0,010
-538,437	52,417	-0,016	-0,011
-537,423	-88,574	0,024	-0,005
-536,408	-137,340	-0,138	0,011
-535,393	-200,000	-0,007	0,079
-534,379	-200,000	0,000	0,002
-533,364	163,786	0,049	0,050
-532,350	-0,492	0,097	0,050
-531,335	-200,000	0,011	0,091
-530,321	-124,897	0,070	0,008
-529,306	-75,455	-0,052	0,013
-528,291	374,197	-0,061	-0,092
-527,277	720,251	0,048	-0,093
-526,262	-200,000	-0,043	0,154
-525,248	210,304	-0,049	0,056
-524,233	-200,000	-0,021	0,092
-523,218	597,574	0,038	0,069
-522,204	295,641	-0,056	0,075
-521,189	-31,432	-0,012	0,005
-520,175	-22,152	-0,086	0,038
-519,160	-200,000	0,018	-0,112
-518,145	-71,901	-0,087	0,023
-517,131	105,546	0,151	0,130
-516,116	299,911	0,036	0,049
-515,102	-73,068	-0,129	0,034
-514,087	-200,000	0,003	-0,152
-513,072	-10,861	-0,051	-0,024
-512,058	-65,422	-0,063	0,018
-511,043	-96,198	0,093	-0,018
-510,029	303,359	-0,059	-0,080
-509,014	-200,000	-0,015	-0,110
-507,999	-200,000	-0,010	0,098
-506,985	98,800	-0,106	-0,090
-505,970	-200,000	0,018	-0,064
-504,956	-56,936	-0,069	-0,022
-503,941	-200,000	0,017	0,096
-502,926	-200,000	-0,003	-0,074
-501,912	-200,000	0,047	0,156
-500,897	237,670	-0,078	0,095
-499,883	281,942	0,046	-0,060
-498,868	399,288	-0,091	-0,140
-497,853	43,409	0,077	-0,051
-496,839	203,483	-0,075	0,085
-495,824	-75,894	0,202	-0,052
-494,810	-200,000	0,010	0,142
-493,795	159,618	0,074	0,076
-492,781	147,642	-0,087	0,086
-491,766	298,968	-0,028	0,037
-490,751	85,824	-0,063	-0,051
-489,737	800,000	0,028	-0,073
-488,722	-200,000	0,003	0,098
-487,708	-200,000	0,008	0,148
-486,693	-141,657	0,111	0,008
-485,678	71,967	-0,016	-0,012
-484,664	570,110	0,008	0,015
-483,649	800,000	-0,023	-0,060
-482,635	-200,000	0,018	-0,114
-481,620	-200,000	-0,002	0,018
-480,605	522,302	-0,011	0,019
-479,591	122,036	-0,027	0,025
-478,576	22,225	-0,072	-0,043
-477,562	699,002	-0,004	-0,007
-476,547	82,437	-0,066	0,052
-475,532	-200,000	-0,009	-0,069
-474,518	358,634	-0,105	0,154
-473,503	54,975	0,088	0,062
-472,489	-50,886	-0,050	0,017
-471,474	355,134	0,084	0,123
-470,459	17,710	-0,092	0,053
-469,445	800,000	-0,049	-0,130
-468,430	326,210	-0,024	-0,034
-467,416	-113,321	-0,076	-0,011
-466,401	322,438	0,037	0,051
-465,386	-34,995	0,101	0,040
-464,372	-200,000	0,004	0,088
-463,357	47,996	0,049	-0,033
-462,343	578,413	-0,039	-0,070
-461,328	800,000	0,049	-0,144
-460,313	-148,100	-0,112	0,007
-459,299	203,195	0,118	0,133
-458,284	-119,260	0,165	-0,021
-457,270	5,075	-0,082	-0,044
-456,255	110,473	-0,113	0,099
-455,241	800,000	0,026	-0,067
-454,226	67,860	0,057	0,042
-453,211	21,011	-0,048	-0,028
-452,197	800,000	0,010	-0,022
-451,182	-54,072	0,218	0,072
-450,168	-200,000	0,006	-0,049
-449,153	800,000	-0,004	-0,009
-448,138	-200,000	0,000	0,038
-447,124	668,813	-0,071	-0,135
-446,109	-59,845	-0,138	0,043
-445,095	10,305	-0,002	0,001
-444,080	-123,626	0,114	0,013
-443,065	-200,000	0,015	0,174
-442,051	-98,856	0,073	0,013
-441,036	367,830	0,040	0,059
-440,022	148,759	-0,039	-0,038
-439,007	134,876	0,039	0,037
-437,992	29,866	0,105	-0,065
-436,978	-200,000	0,013	-0,062
-435,963	82,170	-0,129	-0,101
-434,949	339,248	-0,032	-0,046
-433,934	-200,000	0,031	0,107
-432,919	335,980	-0,031	0,044
-431,905	-4,887	-0,073	-0,036
-430,890	371,607	0,069	0,102
-429,876	392,444	0,050	-0,076
-428,861	-129,235	0,099	-0,010
-427,846	800,000	-0,019	-0,055
-426,832	222,420	-0,029	-0,034
-425,817	-200,000	0,020	0,082
-424,803	-96,130	-0,099	-0,019
-423,788	53,326	0,105	-0,073
-422,773	-200,000	0,004	-0,098
-421,759	-200,000	0,008	-0,033
-420,744	184,937	0,050	-0,054
-419,730	4,442	-0,020	-0,011
-418,715	800,000	0,001	0,003
-417,701	800,000	0,018	-0,055
-416,686	-65,195	-0,023	-0,007
-415,671	80,979	0,153	0,120
-414,657	252,371	0,092	0,115
-413,642	-160,118	0,121	-0,005
-412,628	-10,503	0,095	-0,046
-411,613	-8,421	-0,094	-0,046
-410,598	426,536	-0,102	0,161
-409,584	800,000	-0,021	0,051
-408,569	-68,004	0,047	-0,013
-407,555	124,098	0,055	-0,050
-406,540	79,928	-0,107	-0,084
-405,525	131,831	-0,088	0,082
-404,511	-59,139	0,086	-0,027
-403,496	37,120	0,051	-0,033
-402,482	-156,084	-0,118	-0,005
-401,467	-200,000	-0,024	-0,147
-400,452	102,439	0,018	-0,015
-399,438	-200,000	-0,012	0,122
-398,423	-200,000	-0,025	0,000
-397,409	165,261	-0,010	-0,010
-396,394	-200,000	-0,041	-0,172
-395,379	-3,594	-0,052	0,026
-394,365	-126,009	0,195	0,021
-393,350	163,432	0,030	0,031
-392,336	85,323	-0,023	0,018
-391,321	-29,744	-0,073	-0,030
-390,306	-100,877	-0,085	0,015
-389,292	-200,000	-0,006	0,190
-388,277	-122,475	-0,057	-0,007
-387,263	115,970	0,034	0,030
-386,248	-82,454	0,171	0,040
-385,233	387,141	-0,101	0,153
-384,219	-200,000	0,001	-0,043
-383,204	431,715	0,030	-0,047
-382,190	-7,190	0,018	0,009
-381,175	800,000	0,029	0,080
-380,160	-90,621	0,060	0,012
-379,146	96,623	0,164	0,137
-378,131	61,136	-0,108	-0,078
-377,117	188,498	-0,054	-0,058
-376,102	800,000	0,063	-0,172
-375,088	-159,339	-0,075	0,003
-374,073	16,822	0,061	-0,035
-373,058	-200,000	-0,017	0,207
-372,044	-28,277	0,104	0,043
-371,029	-200,000	0,021	-0,073
-370,015	391,125	-0,041	0,062
-369,000	205,123	-0,022	0,024
-367,985	174,079	0,050	-0,053
-366,971	78,279	-0,023	-0,018
-365,956	187,539	-0,022	0,024
-364,942	-2,847	-0,043	0,022
-363,927	800,000	0,020	-0,039
-362,912	31,541	0,025	0,016
-361,898	800,000	-0,060	0,129
-360,883	-123,754	-0,022	0,002
-359,869	-15,490	-0,069	-0,032
-358,854	-119,664	0,219	-0,027
-357,839	800,000	0,049	-0,104
-356,825	-88,385	0,140	-0,030
-355,810	-200,000	0,019	-0,076
-354,796	800,000	0,033	0,096
-353,781	6,729	-0,087	0,047
-352,766	800,000	-0,048	-0,128
-351,752	397,862	0,071	0,108
-350,737	147,328	0,099	0,096
-349,723	-200,000	-0,004	-0,072
-348,708	-200,000	-0,014	0,053
-347,693	800,000	0,037	0,094
-346,679	-2,225	-0,108	-0,055
-345,664	-200,000	-0,001	-0,029
-344,650	-200,000	0,000	-0,004
-343,635	84,661	-0,024	0,019
-342,620	-61,993	-0,039	0,012
-341,606	170,782	0,082	0,085
-340,591	-37,770	0,031	-0,012
-339,577	-200,000	-0,011	-0,065
-338,562	-40,913	-0,137	0,051
-337,548	383,133	0,022	-0,033
-336,533	-200,000	0,000	0,074
-335,518	88,015	0,093	0,075
-334,504	302,790	0,040	0,054
-333,489	301,815	0,066	0,089
-332,475	-200,000	0,016	-0,087
-331,460	800,000	-0,049	-0,111
-330,445	-67,371	0,091	0,026
-329,431	-200,000	0,021	-0,069
-328,416	503,530	0,075	0,126
-327,402	68,388	-0,169	0,125
-326,387	1,065	0,071	0,037
-325,372	-200,000	-0,010	-0,034
-324,358	25,604	-0,088	0,053
-323,343	41,563	0,053	-0,035
-322,329	-160,713	0,025	0,001
-321,314	800,000	0,044	-0,104
-320,299	-146,525	-0,155	-0,010
-319,285	-8,516	-0,142	0,069
-318,270	800,000	0,015	-0,032
-317,256	800,000	0,046	-0,139
-316,241	261,823	0,035	-0,044
-315,226	-20,028	-0,122	-0,054
-314,212	-11,200	0,112	0,053
-313,197	800,000	0,019	-0,057
-312,183	800,000	0,013	0,032
-311,168	40,719	0,059	-0,038
-310,153	-200,000	0,038	-0,122
-309,139	-74,209	-0,057	0,015
-308,124	-200,000	0,020	0,141
-307,110	800,000	0,049	0,104
-306,095	-200,000	-0,013	0,105
-305,080	323,889	0,137	0,189
-304,066	154,138	0,074	-0,074
-303,051	-200,000	-0,004	-0,027
-302,037	-200,000	0,013	-0,101
-301,022	-200,000	-0,001	0,037
-300,008	101,902	0,093	-0,079
-298,993	-144,212	0,061	0,004
-297,978	98,816	-0,027	-0,023
-296,964	214,981	-0,063	-0,072
-295,949	-1,955	0,076	-0,039
-294,935	-200,000	-0,010	0,070
-293,920	-117,646	0,064	0,008
-292,905	181,853	-0,091	0,097
-291,891	800,000	-0,050	0,106
-290,876	-200,000	-0,022	0,078
-289,862	-200,000	0,012	-0,059
-288,847	272,861	-0,078	-0,100
-287,832	-200,000	0,029	-0,190
-286,818	800,000	0,050	0,126
-285,803	-90,465	0,075	-0,016
-284,789	521,798	0,012	0,021
-283,774	-153,566	0,086	-0,004
-282,759	-8,053	0,098	-0,048
-281,745	32,462	-0,064	-0,040
-280,730	800,000	-0,032	-0,094
-279,716	-67,625	-0,012	-0,003
-278,701	-58,380	0,078	-0,024
-277,686	-40,813	0,102	0,038
-276,672	12,460	-0,033	-0,019
-275,657	-200,000	0,031	0,126
-274,643	800,000	0,022	0,063
-273,628	-200,000	0,028	-0,153
-272,613	68,974	-0,014	-0,011
-271,599	800,000	0,012	0,032
-270,584	196,784	0,116	0,128
-269,570	800,000	0,029	0,058
-268,555	-55,924	0,039	0,012
-267,540	-132,007	-0,103	0,010
-266,526	64,926	0,032	-0,023
-265,511	800,000	-0,050	-0,117
-264,497	-5,770	0,085	0,042
-263,482	12,512	0,114	-0,063
-262,467	52,978	0,128	-0,088
-261,453	-129,996	0,050	-0,005
-260,438	1,962	0,083	0,043
-259,424	-200,000	-0,043	-0,210
-258,409	800,000	0,021	0,043
-257,395	-200,000	-0,001	0,096
-256,380	307,693	0,083	-0,112
-255,365	23,004	0,091	0,054
-254,351	619,689	-0,063	-0,115
-253,336	226,365	-0,052	-0,061
-252,322	61,089	-0,033	-0,024
-251,307	-35,300	-0,072	-0,028
-250,292	241,610	-0,065	0,078
-249,278	-69,743	0,074	0,020
-248,263	-200,000	-0,012	0,075
-247,249	232,425	-0,036	-0,043
-246,234	453,481	-0,056	-0,090
-245,219	-200,000	0,003	0,046
-244,205	83,946	-0,115	-0,091
-243,190	-120,373	-0,158	-0,019
-242,176	-133,119	-0,107	0,010
-241,161	-49,233	0,119	-0,041
-240,146	800,000	-0,038	0,110
-239,132	-96,960	0,034	-0,006
-238,117	-31,571	-0,070	0,028
-237,103	158,913	0,049	-0,049
-236,088	427,336	-0,107	-0,168
-235,073	490,552	-0,022	-0,037
-234,059	59,867	-0,029	-0,020
-233,044	386,562	0,017	-0,025
-232,030	29,599	-0,101	-0,062
-231,015	-61,281	0,084	-0,025
-230,000	-200,000	0,006	-0,129
-228,986	-200,000	-0,001	0,138
-227,971	316,345	-0,069	0,094
-226,957	-200,000	0,015	-0,111
-225,942	1,797	0,194	0,101
-224,927	62,179	0,036	-0,026
-223,913	-148,351	0,143	-0,008
-222,898	-200,000	0,007	-0,067
-221,884	-6,865	-0,005	-0,003
-220,869	-47,816	-0,043	0,015
-219,855	800,000	-0,059	-0,134
-218,840	52,307	0,056	0,038
-217,825	-200,000	0,019	-0,108
-216,811	-46,733	-0,020	-0,007
-215,796	203,112	-0,122	-0,136
-214,782	-18,210	-0,040	0,018
-213,767	172,884	0,038	0,040
-212,752	-200,000	0,001	0,142
-211,738	298,885	-0,079	0,105
-210,723	-200,000	-0,005	0,079
-209,709	-200,000	-0,004	-0,056
-208,694	28,080	-0,120	0,073
-207,679	127,871	-0,035	0,032
-206,665	759,555	0,033	0,065
-205,650	-200,000	0,003	-0,083
-204,636	-91,421	0,081	0,016
-203,621	165,575	0,033	0,034
-202,606	30,210	-0,081	-0,050
-201,592	-4,347	-0,097	0,048
-200,577	32,037	-0,062	0,039
-199,563	277,558	-0,078	-0,101
-198,548	-116,814	0,192	-0,025
-197,533	-200,000	-0,012	0,115
-196,519	375,400	-0,024	0,035
-195,504	-21,981	0,066	-0,029
-194,490	93,531	-0,052	0,043
-193,475	-200,000	-0,021	-0,085
-192,460	62,562	-0,122	-0,087
-191,446	-146,188	0,113	-0,007
-190,431	-72,887	0,058	0,015
-189,417	-6,994	0,036	0,017
-188,402	-200,000	-0,014	0,065
-187,387	124,540	0,020	0,019
-186,373	247,718	-0,065	-0,080
-185,358	26,449	-0,006	-0,004
-184,344	-52,090	-0,116	0,039
-183,329	-153,403	-0,091	0,004
-182,315	-200,000	-0,003	0,048
-181,300	-200,000	0,041	0,180
-180,285	602,890	-0,052	0,094
-179,271	-200,000	-0,000	0,069
-178,256	186,854	-0,076	-0,081
-177,242	181,471	0,020	0,021
-176,227	-69,340	-0,074	-0,020
-175,212	-135,294	-0,074	0,006
-174,198	113,070	0,016	0,014
-173,183	-177,814	0,124	-0,002
-172,169	-200,000	0,009	-0,045
-171,154	-200,000	-0,007	0,094
-170,139	-173,497	0,068	-0,001
-169,125	56,369	0,070	-0,049
-168,110	28,923	0,090	-0,055
-167,096	800,000	-0,016	0,047
-166,081	-200,000	-0,009	0,034
-165,066	75,140	0,070	-0,053
-164,052	158,580	0,051	0,051
-163,037	33,111	0,059	0,037
-162,023	695,405	0,060	-0,115
-161,008	684,475	0,051	0,096
-159,993	-200,000	-0,025	0,102
-158,979	-200,000	-0,021	0,075
-157,964	30,603	-0,033	-0,020
-156,950	13,314	-0,058	0,032
-155,935	302,173	-0,056	0,075
-154,920	100,055	-0,029	-0,024
-153,906	-169,163	0,040	0,001
-152,891	-200,000	0,005	0,048
-151,877	-200,000	0,007	0,115
-150,862	523,245	-0,010	-0,017
-149,847	-66,927	0,053	-0,015
-148,833	334,162	0,035	-0,049
-147,818	-200,000	0,006	0,034
-146,804	-200,000	-0,009	-0,111
-145,789	-200,000	-0,005	0,139
-144,775	-98,125	-0,038	0,007
-143,760	185,674	-0,066	0,070
-142,745	-200,000	-0,000	0,054
-141,731	800,000	-0,020	-0,053
-140,716	2,502	0,102	-0,053
-139,702	0,782	0,063	0,033
-138,687	800,000	-0,039	-0,088
-137,672	-73,953	0,022	0,006
-136,658	159,038	0,052	0,052
-135,643	800,000	-0,062	-0,149
-134,629	-200,000	0,013	-0,073
-133,614	294,306	0,088	0,116
-132,599	423,475	0,100	0,156
-131,585	800,000	-0,009	0,025
-130,570	-114,776	-0,119	0,016
-129,556	-200,000	-0,007	0,125
-128,541	800,000	0,036	-0,094
-127,526	-200,000	0,004	-0,180
-126,512	-40,612	-0,114	0,042
-125,497	446,876	0,050	-0,079
-124,483	86,684	-0,069	0,055
-123,468	73,783	-0,045	0,034
-122,453	-93,862	0,153	0,030
-121,439	-200,000	-0,030	-0,110
-120,424	-54,561	0,079	0,026
-119,410	-69,111	0,024	0,007
