DTS Sentinel unit serial number:	SN410029Multiplexer serial number:	ORYXHardware model number:	OX2-SRSoftware version number:	ORYX F/W v4,00 Oryx Data Collector v3.7.2.0data status	okinstallation	B6 Nyhavnadifferential loss correction	single-endedforward channel	channel 2reverse channel	N/Adate	2023/12/08time	07:35:08forward acquisition time	300,00reverse acquisition time	0,00gamma	499,1914k internal	0,3166k external	0,3166temperature offset calibration	1,0000default loss term (dB/km)	0,3820temperature slope calibration	1,0000multiplexer offset coefficient	1,0000multiplexer slope coefficient	1,0000fibre end	0,00T internal ref (°C)	13,23T ext. ref 1 (°C)	-3,11T ext. ref 2 (°C)	-3,14length (m)	temperature (°C)	Stokes	anti-Stokes-744,400	-58,625	0,083	0,026
-743,385	-150,028	-0,320	0,018
-742,371	-98,704	0,091	0,017
-741,356	-37,375	-0,224	0,088
-740,342	184,782	0,128	0,140
-739,327	-189,662	-0,234	0,002
-738,312	-200,000	0,006	-0,115
-737,298	-52,859	-0,313	-0,105
-736,283	-130,529	0,033	0,003
-735,269	-52,204	-0,310	-0,105
-734,254	620,813	-0,020	-0,037
-733,239	-134,563	-0,560	-0,050
-732,225	-45,157	0,110	0,040
-731,210	119,766	0,130	0,118
-730,196	352,779	-0,068	0,099
-729,181	214,060	0,040	0,046
-728,167	-200,000	-0,011	-0,097
-727,152	48,465	0,056	0,039
-726,137	311,519	0,027	0,037
-725,123	82,603	-0,034	0,027
-724,108	598,072	-0,055	-0,101
-723,094	0,170	0,097	-0,051
-722,079	-200,000	-0,016	-0,146
-721,064	220,411	0,070	-0,082
-720,050	-46,501	-0,024	-0,009
-719,035	-97,578	-0,112	0,021
-718,021	-200,000	0,041	-0,218
-717,006	-79,249	0,092	0,023
-715,991	261,636	-0,040	-0,050
-714,977	115,189	-0,074	-0,066
-713,962	-169,177	0,033	-0,001
-712,948	-200,000	0,016	-0,094
-711,933	-200,000	0,019	-0,097
-710,918	-110,756	-0,179	0,027
-709,904	-124,706	-0,215	0,024
-708,889	-40,573	0,086	-0,033
-707,875	-70,548	-0,160	-0,044
-706,860	-200,000	-0,004	0,044
-705,845	176,934	0,046	0,049
-704,831	-200,000	0,029	0,148
-703,816	440,536	0,043	0,070
-702,802	171,319	0,107	-0,113
-701,787	800,000	-0,040	-0,091
-700,772	800,000	-0,029	0,065
-699,758	-107,859	-0,026	0,004
-698,743	800,000	0,042	0,110
-697,729	-130,950	0,028	0,003
-696,714	174,409	0,071	-0,076
-695,699	-80,688	-0,038	0,009
-694,685	800,000	0,029	0,080
-693,670	800,000	-0,067	-0,139
-692,656	-194,756	-0,178	-0,001
-691,641	58,109	0,080	-0,058
-690,627	138,619	-0,032	-0,031
-689,612	-200,000	-0,001	0,035
-688,597	800,000	-0,036	-0,084
-687,583	-200,000	-0,013	-0,062
-686,568	379,178	0,029	-0,043
-685,554	-134,190	-0,057	0,005
-684,539	65,218	-0,059	0,044
-683,524	-200,000	-0,007	0,075
-682,510	-200,000	-0,004	0,138
-681,495	28,907	0,055	-0,034
-680,481	-200,000	-0,030	-0,098
-679,466	800,000	-0,013	-0,037
-678,451	83,057	0,108	-0,086
-677,437	107,484	-0,189	-0,165
-676,422	800,000	-0,071	-0,175
-675,408	-78,001	-0,103	0,026
-674,393	85,251	0,036	-0,029
-673,378	-200,000	0,018	-0,252
-672,364	98,256	-0,033	-0,028
-671,349	-200,000	-0,018	0,095
-670,335	-9,378	-0,089	0,044
-669,320	800,000	0,020	-0,043
-668,305	-65,703	-0,057	0,017
-667,291	131,039	-0,078	-0,073
-666,276	-161,445	-0,119	0,004
-665,262	-111,912	-0,160	0,023
-664,247	-46,340	-0,101	0,036
-663,232	-88,159	-0,063	0,014
-662,218	800,000	-0,058	0,141
-661,203	100,848	0,066	-0,056
-660,189	-63,504	0,050	-0,015
-659,174	12,640	-0,062	-0,035
-658,159	-157,155	-0,059	0,003
-657,145	800,000	0,028	0,075
-656,130	401,796	0,028	0,043
-655,116	-200,000	0,007	0,110
-654,101	-200,000	0,002	0,029
-653,086	-2,778	-0,079	0,040
-652,072	-62,251	-0,088	0,027
-651,057	800,000	0,051	-0,116
-650,043	-108,641	-0,068	0,011
-649,028	14,854	-0,084	-0,048
-648,014	-200,000	-0,034	-0,146
-646,999	137,884	-0,064	0,061
-645,984	-58,957	-0,050	-0,016
-644,970	800,000	0,047	0,097
-643,955	130,998	-0,052	-0,049
-642,941	111,618	0,081	-0,072
-641,926	772,982	0,045	-0,091
-640,911	-200,000	0,007	0,092
-639,897	-93,656	0,115	0,023
-638,882	476,555	-0,083	-0,138
-637,868	172,370	-0,066	-0,070
-636,853	-82,617	0,076	0,018
-635,838	-200,000	-0,007	-0,114
-634,824	111,656	0,112	-0,099
-633,809	-200,000	-0,009	-0,128
-632,795	-159,454	0,048	0,002
-631,780	58,410	0,083	0,060
-630,765	208,194	-0,049	0,056
-629,751	-96,448	-0,083	-0,016
-628,736	800,000	0,036	-0,100
-627,722	-200,000	-0,002	-0,015
-626,707	-200,000	0,000	0,145
-625,692	-200,000	0,022	-0,088
-624,678	28,989	-0,093	0,058
-623,663	-95,272	-0,054	-0,011
-622,649	67,863	-0,092	-0,068
-621,634	-2,758	-0,073	-0,037
-620,619	800,000	0,034	0,082
-619,605	-200,000	0,014	-0,100
-618,590	-200,000	-0,020	-0,094
-617,576	-200,000	-0,016	0,071
-616,561	123,782	-0,004	-0,004
-615,546	-200,000	-0,003	0,070
-614,532	24,293	0,070	-0,042
-613,517	58,521	0,060	0,043
-612,503	-200,000	0,010	0,083
-611,488	177,730	-0,028	-0,030
-610,474	800,000	0,031	0,069
-609,459	-200,000	-0,040	0,137
-608,444	-18,263	-0,152	-0,069
-607,430	235,067	0,034	-0,041
-606,415	-200,000	-0,007	0,062
-605,401	98,725	0,117	0,099
-604,386	-200,000	0,023	-0,097
-603,371	-34,801	0,111	0,044
-602,357	657,337	0,062	0,117
-601,342	121,707	0,123	0,112
-600,328	-107,805	-0,117	-0,018
-599,313	141,418	-0,084	-0,081
-598,298	116,124	-0,053	0,048
-597,284	-3,416	0,181	-0,092
-596,269	48,205	0,135	0,092
-595,255	-0,998	-0,134	-0,069
-594,240	58,629	0,113	-0,081
-593,225	-33,853	0,078	0,031
-592,211	-9,505	-0,038	-0,019
-591,196	-112,549	0,209	-0,030
-590,182	800,000	0,004	0,012
-589,167	-168,792	0,043	0,001
-588,152	49,322	0,056	0,038
-587,138	-23,729	-0,216	-0,094
-586,123	96,977	-0,023	0,019
-585,109	76,712	-0,037	0,029
-584,094	391,137	-0,040	-0,061
-583,079	33,771	-0,032	-0,021
-582,065	-200,000	0,007	0,160
-581,050	-32,494	0,044	0,018
-580,036	-93,562	-0,043	-0,009
-579,021	430,457	-0,067	-0,107
-578,006	-80,274	0,115	0,028
-576,992	-200,000	-0,017	-0,067
-575,977	-71,111	0,099	-0,027
-574,963	64,866	-0,045	-0,033
-573,948	360,274	0,108	0,159
-572,934	52,382	-0,053	0,037
-571,919	21,618	-0,038	-0,022
-570,904	3,184	0,125	0,066
-569,890	-200,000	-0,016	-0,195
-568,875	29,134	0,070	0,043
-567,861	-200,000	0,010	-0,144
-566,846	88,275	-0,091	-0,074
-565,831	158,722	0,067	0,068
-564,817	800,000	-0,064	-0,155
-563,802	-37,324	-0,122	0,047
-562,788	354,278	-0,059	0,086
-561,773	-36,327	0,124	0,049
-560,758	613,775	-0,064	0,117
-559,744	47,354	0,082	-0,056
-558,729	95,276	-0,018	-0,015
-557,715	800,000	-0,036	-0,100
-556,700	390,662	0,072	-0,109
-555,685	-200,000	-0,013	-0,051
-554,671	389,409	-0,076	-0,115
-553,656	-17,439	0,055	-0,025
-552,642	800,000	0,033	0,104
-551,627	-200,000	0,012	-0,132
-550,612	3,948	-0,051	0,027
-549,598	127,581	-0,039	0,036
-548,583	800,000	-0,053	0,169
-547,569	250,929	0,014	0,018
-546,554	-200,000	-0,007	-0,045
-545,539	38,789	0,179	0,116
-544,525	-200,000	0,012	-0,085
-543,510	-176,115	-0,087	-0,002
-542,496	95,706	-0,064	0,053
-541,481	-200,000	-0,014	0,076
-540,466	-21,126	-0,095	0,042
-539,452	-104,762	0,128	-0,021
-538,437	-127,051	0,072	0,008
-537,423	288,633	-0,012	-0,016
-536,408	149,685	0,082	0,081
-535,393	125,226	-0,026	-0,024
-534,379	-200,000	-0,003	-0,079
-533,364	-65,230	0,128	0,037
-532,350	662,660	0,056	0,105
-531,335	-200,000	0,009	-0,095
-530,321	-200,000	0,029	0,095
-529,306	-200,000	0,017	-0,093
-528,291	-129,696	-0,100	0,010
-527,277	412,999	-0,078	-0,121
-526,262	-200,000	-0,020	-0,128
-525,248	717,557	0,057	-0,111
-524,233	37,910	0,137	0,089
-523,218	395,400	-0,028	-0,043
-522,204	356,245	0,066	-0,095
-521,189	-143,253	-0,114	0,008
-520,175	280,138	-0,063	0,082
-519,160	30,204	-0,040	-0,025
-518,145	-4,319	0,046	-0,023
-517,131	-200,000	-0,016	-0,074
-516,116	32,906	-0,056	0,035
-515,102	-137,426	0,080	-0,006
-514,087	-99,684	0,089	0,016
-513,072	283,643	-0,104	0,136
-512,058	798,828	0,060	-0,120
-511,043	-200,000	0,023	0,118
-510,029	-102,094	0,080	-0,014
-509,014	274,028	-0,082	0,106
-507,999	-157,305	0,028	-0,001
-506,985	621,561	0,078	-0,144
-505,970	512,056	-0,055	-0,093
-504,956	190,293	-0,120	-0,131
-503,941	-13,306	-0,030	0,014
-502,926	-114,628	-0,073	0,010
-501,912	800,000	-0,061	0,132
-500,897	-44,179	-0,099	-0,036
-499,883	800,000	-0,020	0,058
-498,868	800,000	0,013	-0,027
-497,853	-200,000	-0,001	-0,118
-496,839	-39,773	0,104	-0,039
-495,824	616,174	0,087	0,159
-494,810	800,000	0,008	-0,023
-493,795	547,499	0,020	0,035
-492,781	291,941	0,057	0,076
-491,766	800,000	-0,034	-0,108
-490,751	800,000	-0,007	0,015
-489,737	245,618	0,063	-0,077
-488,722	-66,614	-0,036	0,010
-487,708	150,411	0,053	0,052
-486,693	125,271	-0,113	0,104
-485,678	107,165	0,018	-0,015
-484,664	1,983	-0,094	0,049
-483,649	800,000	-0,041	-0,087
-482,635	94,586	-0,083	-0,069
-481,620	-130,769	0,106	0,010
-480,605	-129,941	0,062	0,006
-479,591	123,627	-0,141	-0,129
-478,576	-61,692	-0,043	0,013
-477,562	800,000	0,021	0,054
-476,547	-115,745	-0,056	0,008
-475,532	-200,000	-0,003	0,103
-474,518	-200,000	-0,004	0,181
-473,503	-41,211	0,124	-0,046
-472,489	25,127	-0,036	0,022
-471,474	167,032	-0,192	-0,198
-470,459	-200,000	0,019	-0,080
-469,445	-200,000	-0,034	-0,227
-468,430	239,623	0,022	0,027
-467,416	89,155	-0,056	0,045
-466,401	800,000	-0,089	0,181
-465,386	30,924	0,010	0,006
-464,372	-39,213	-0,031	0,012
-463,357	-4,909	-0,098	0,049
-462,343	-47,560	-0,115	-0,040
-461,328	269,749	0,050	-0,064
-460,313	46,669	-0,028	0,019
-459,299	-200,000	0,038	0,155
-458,284	-73,545	0,042	0,011
-457,270	-62,547	0,047	-0,014
-456,255	-89,410	-0,126	0,027
-455,241	800,000	-0,023	-0,071
-454,226	331,191	-0,022	-0,030
-453,211	229,730	0,099	0,118
-452,197	337,706	0,037	-0,053
-451,182	-200,000	0,005	0,049
-450,168	25,887	0,058	0,035
-449,153	-35,282	-0,088	0,035
-448,138	-200,000	-0,029	0,187
-447,124	-112,790	0,038	0,005
-446,109	5,984	-0,061	0,033
-445,095	781,853	0,032	-0,064
-444,080	197,160	-0,068	0,076
-443,065	657,113	-0,123	0,230
-442,051	-200,000	-0,002	-0,013
-441,036	-185,594	-0,113	-0,001
-440,022	581,300	0,089	-0,160
-439,007	166,894	-0,046	-0,047
-437,992	800,000	0,018	0,055
-436,978	-26,741	-0,031	-0,013
-435,963	-122,611	0,139	-0,016
-434,949	-136,388	-0,074	-0,006
-433,934	91,684	-0,048	-0,039
-432,919	-28,074	-0,022	0,009
-431,905	-80,735	-0,181	0,043
-430,890	504,950	0,089	0,150
-429,876	-200,000	-0,009	-0,038
-428,861	325,991	-0,026	0,036
-427,846	123,907	-0,030	-0,027
-426,832	800,000	-0,017	-0,048
-425,817	76,497	0,079	-0,061
-424,803	800,000	-0,044	-0,113
-423,788	-60,886	0,053	-0,016
-422,773	30,605	0,041	-0,025
-421,759	405,250	-0,049	0,075
-420,744	-200,000	0,004	0,097
-419,730	800,000	-0,056	-0,162
-418,715	96,224	0,021	0,017
-417,701	-200,000	0,007	-0,104
-416,686	197,629	0,064	0,071
-415,671	-66,525	-0,009	0,003
-414,657	800,000	0,004	0,011
-413,642	-200,000	-0,005	-0,120
-412,628	-72,539	-0,158	0,042
-411,613	-135,240	-0,180	-0,015
-410,598	143,818	0,081	-0,078
-409,584	-200,000	0,006	0,094
-408,569	-10,920	0,053	-0,025
-407,555	-77,037	-0,046	-0,011
-406,540	196,272	0,105	-0,116
-405,525	228,186	-0,048	-0,057
-404,511	-200,000	0,000	-0,023
-403,496	800,000	0,017	-0,041
-402,482	-108,914	0,114	-0,017
-401,467	-200,000	0,001	0,122
-400,452	242,440	-0,029	0,036
-399,438	800,000	0,061	0,130
-398,423	278,043	-0,100	-0,129
-397,409	-53,626	0,059	-0,020
-396,394	-177,748	0,106	0,002
-395,379	302,952	0,055	-0,074
-394,365	-157,930	0,077	-0,003
-393,350	-92,357	0,160	-0,032
-392,336	468,931	-0,072	-0,118
-391,321	125,675	0,026	-0,024
-390,306	49,031	-0,073	-0,049
-389,292	-156,361	0,080	-0,004
-388,277	-194,825	-0,194	0,001
-387,263	800,000	-0,044	0,127
-386,248	800,000	-0,015	-0,037
-385,233	767,116	-0,045	0,089
-384,219	33,210	-0,029	-0,018
-383,204	-77,511	0,062	-0,015
-382,190	800,000	-0,042	-0,097
-381,175	800,000	-0,009	0,019
-380,160	-200,000	0,004	-0,044
-379,146	-200,000	-0,009	-0,044
-378,131	-3,997	0,153	0,077
-377,117	208,658	0,055	-0,063
-376,102	800,000	0,022	-0,057
-375,088	-101,246	-0,044	-0,008
-374,073	800,000	0,036	0,095
-373,058	481,306	0,087	-0,144
-372,044	-132,573	-0,033	-0,003
-371,029	800,000	0,037	-0,118
-370,015	800,000	-0,036	-0,073
-369,000	-30,670	-0,128	-0,052
-367,985	19,740	-0,059	0,034
-366,971	118,671	-0,063	0,056
-365,956	-104,173	-0,069	-0,011
-364,942	-200,000	0,023	0,126
-363,927	800,000	0,021	0,059
-362,912	800,000	-0,032	0,070
-361,898	313,664	-0,056	-0,077
-360,883	-200,000	-0,035	-0,142
-359,869	77,448	0,110	-0,085
-358,854	-10,334	0,035	0,017
-357,839	104,026	0,131	-0,112
-356,825	-100,219	0,064	0,011
-355,810	458,089	-0,057	-0,093
-354,796	113,763	-0,059	-0,052
-353,781	-200,000	-0,044	-0,152
-352,766	-200,000	0,008	-0,042
-351,752	-77,990	0,111	-0,027
-350,737	405,908	-0,054	0,082
-349,723	53,727	-0,056	0,039
-348,708	178,140	-0,095	0,100
-347,693	-200,000	0,024	-0,110
-346,679	44,181	-0,070	-0,047
-345,664	800,000	-0,057	0,142
-344,650	475,936	0,105	0,172
-343,635	-135,809	0,069	0,006
-342,620	-170,122	0,223	0,006
-341,606	211,529	-0,059	-0,067
-340,591	217,068	0,008	0,009
-339,577	11,824	-0,124	-0,069
-338,562	48,974	-0,070	-0,047
-337,548	-46,780	0,123	0,043
-336,533	196,722	-0,076	-0,084
-335,518	-65,516	0,050	0,014
-334,504	-49,605	-0,028	0,010
-333,489	62,642	0,083	0,060
-332,475	192,497	-0,012	-0,014
-331,460	800,000	0,022	0,069
-330,445	148,780	0,073	-0,071
-329,431	-14,190	-0,126	0,058
-328,416	-200,000	-0,007	0,062
-327,402	-200,000	0,009	-0,052
-326,387	11,807	-0,050	-0,028
-325,372	165,733	-0,042	-0,043
-324,358	-56,446	0,111	-0,036
-323,343	-151,664	-0,019	-0,001
-322,329	201,644	-0,068	0,075
-321,314	83,038	0,073	0,058
-320,299	-64,833	-0,068	0,020
-319,285	-137,633	-0,133	-0,011
-318,270	-200,000	0,013	0,082
-317,256	-130,799	0,158	0,015
-316,241	115,231	0,019	0,017
-315,226	82,088	0,029	0,023
-314,212	-2,768	0,079	-0,040
-313,197	800,000	0,049	0,126
-312,183	-128,934	0,052	0,005
-311,168	193,309	0,041	0,044
-310,153	-200,000	0,023	-0,132
-309,139	245,618	-0,100	0,122
-308,124	154,722	-0,026	0,026
-307,110	606,302	0,064	0,116
-306,095	800,000	0,023	0,068
-305,080	-113,091	-0,217	0,031
-304,066	-111,244	0,015	0,002
-303,051	38,044	-0,072	-0,046
-302,037	117,529	-0,080	0,071
-301,022	-129,835	0,099	-0,010
-300,008	134,839	0,179	-0,168
-298,993	21,601	-0,037	0,022
-297,978	-200,000	0,006	-0,018
-296,964	141,353	-0,079	-0,076
-295,949	116,628	-0,099	0,088
-294,935	-146,497	0,093	-0,006
-293,920	-200,000	-0,010	0,078
-292,905	800,000	0,034	0,105
-291,891	411,376	-0,072	0,110
-290,876	-12,907	0,129	0,061
-289,862	-45,800	-0,082	-0,029
-288,847	-200,000	-0,006	-0,069
-287,832	-200,000	0,012	0,086
-286,818	160,581	0,024	-0,024
-285,803	-200,000	0,006	-0,033
-284,789	-76,641	0,156	0,039
-283,774	781,370	0,050	0,099
-282,759	173,638	-0,028	-0,030
-281,745	-136,871	-0,059	0,005
-280,730	-120,672	-0,095	0,011
-279,716	18,106	-0,051	-0,029
-278,701	80,695	-0,004	0,003
-277,686	-79,840	-0,164	-0,040
-276,672	-7,618	0,071	-0,035
-275,657	757,960	0,058	-0,114
-274,643	-112,586	-0,083	0,012
-273,628	46,845	0,048	-0,032
-272,613	472,363	-0,054	-0,088
-271,599	268,176	0,038	0,048
-270,584	-93,917	0,211	-0,042
-269,570	676,358	0,026	0,050
-268,555	-200,000	0,018	0,107
-267,540	-200,000	-0,011	0,119
-266,526	102,905	-0,036	-0,030
-265,511	154,153	-0,049	-0,048
-264,497	163,987	0,055	0,056
-263,482	573,437	0,035	0,063
-262,467	-192,290	0,241	0,002
-261,453	-200,000	-0,006	0,019
-260,438	-61,803	-0,017	-0,005
-259,424	200,113	-0,077	0,085
-258,409	-200,000	0,017	0,067
-257,395	800,000	0,045	-0,094
-256,380	-1,737	0,073	0,037
-255,365	431,233	0,089	0,139
-254,351	63,650	-0,113	0,082
-253,336	-76,628	0,137	0,034
-252,322	-95,571	-0,149	0,029
-251,307	64,499	0,078	0,057
-250,292	800,000	-0,048	0,138
-249,278	146,959	0,098	0,095
-248,263	-200,000	-0,006	0,073
-247,249	-116,557	0,037	-0,005
-246,234	-143,104	0,028	0,002
-245,219	114,380	-0,079	-0,069
-244,205	-200,000	0,010	-0,083
-243,190	-200,000	0,016	0,090
-242,176	6,843	-0,162	0,087
-241,161	88,281	-0,038	0,030
-240,146	-200,000	0,040	0,149
-239,132	-129,722	0,071	0,007
-238,117	-200,000	0,009	-0,074
-237,103	800,000	-0,030	-0,078
-236,088	-142,118	0,100	-0,007
-235,073	-11,766	0,119	0,056
-234,059	26,476	-0,102	0,061
-233,044	19,241	0,071	0,041
-232,030	800,000	-0,087	-0,183
-231,015	800,000	-0,030	-0,078
-230,000	182,107	-0,076	0,080
-228,986	209,159	-0,058	0,066
-227,971	-2,928	-0,052	-0,026
-226,957	738,506	0,023	-0,044
-225,942	131,070	-0,020	0,019
-224,927	66,151	0,043	-0,032
-223,913	-138,646	-0,093	-0,007
-222,898	-200,000	0,051	-0,169
-221,884	488,401	-0,129	-0,213
-220,869	800,000	0,009	-0,020
-219,855	25,620	-0,052	0,031
-218,840	407,604	0,051	-0,079
-217,825	146,625	-0,044	0,043
-216,811	-159,135	-0,073	-0,003
-215,796	211,779	0,114	0,130
-214,782	146,126	-0,141	-0,136
-213,767	-200,000	-0,023	-0,101
-212,752	-200,000	0,029	0,156
-211,738	351,393	0,107	0,153
-210,723	129,948	-0,150	-0,139
-209,709	-17,412	0,058	-0,026
-208,694	800,000	-0,051	0,135
-207,679	-33,668	0,092	-0,036
-206,665	-75,437	0,088	0,022
-205,650	144,797	0,030	0,029
-204,636	121,195	0,060	0,054
-203,621	800,000	-0,035	0,091
-202,606	-28,666	0,074	0,031
-201,592	200,596	-0,073	0,081
-200,577	-85,425	0,089	-0,020
-199,563	15,278	-0,123	0,069
-198,548	561,687	0,070	0,123
-197,533	261,328	0,063	0,079
-196,519	-200,000	-0,019	0,090
-195,504	152,271	0,032	-0,031
-194,490	334,162	-0,109	-0,152
-193,475	-200,000	-0,002	-0,073
-192,460	-126,601	0,139	-0,015
-191,446	144,974	0,065	0,063
-190,431	-83,474	0,200	-0,046
-189,417	-59,066	0,188	-0,058
-188,402	351,609	-0,032	0,046
-187,387	-163,817	-0,022	0,001
-186,373	-90,593	-0,022	-0,005
-185,358	33,244	0,090	-0,056
-184,344	-200,000	-0,055	-0,175
-183,329	-200,000	-0,000	-0,030
-182,315	-200,000	-0,016	0,057
-181,300	-46,846	-0,093	0,033
-180,285	-112,418	-0,084	-0,012
-179,271	-200,000	-0,021	-0,127
-178,256	800,000	-0,015	0,035
-177,242	-200,000	0,031	0,163
-176,227	52,958	0,066	-0,045
-175,212	5,296	0,088	0,046
-174,198	12,630	-0,006	0,004
-173,183	-200,000	-0,016	0,053
-172,169	-200,000	0,007	0,094
-171,154	-160,701	-0,089	0,003
-170,139	114,166	0,053	0,047
-169,125	51,191	0,132	0,090
-168,110	-118,468	-0,190	-0,024
-167,096	-116,400	-0,067	-0,009
-166,081	6,539	0,036	0,019
-165,066	-88,517	-0,042	0,009
-164,052	97,393	-0,115	-0,095
-163,037	93,426	-0,059	0,048
-162,023	44,737	0,107	-0,071
-161,008	800,000	0,022	0,043
-159,993	800,000	-0,070	-0,159
-158,979	27,556	-0,063	-0,038
-157,964	744,046	0,051	-0,099
-156,950	-101,732	0,006	0,001
-155,935	-78,681	-0,058	0,014
-154,920	800,000	0,034	0,078
-153,906	-130,756	-0,077	0,007
-152,891	121,764	-0,013	0,012
-151,877	-200,000	-0,010	0,037
-150,862	-200,000	0,014	0,066
-149,847	-152,697	-0,123	-0,006
-148,833	79,638	-0,021	-0,017
-147,818	-13,119	0,045	0,021
-146,804	-72,889	-0,056	0,015
-145,789	-58,816	0,159	-0,049
-144,775	-200,000	-0,005	-0,070
-143,760	132,002	0,045	-0,042
-142,745	51,035	0,087	0,059
-141,731	-87,661	-0,043	0,009
-140,716	319,989	0,095	0,129
-139,702	-95,458	0,147	-0,028
-138,687	-44,238	-0,065	-0,023
-137,672	800,000	0,054	0,122
-136,658	-200,000	-0,013	-0,067
-135,643	800,000	-0,069	-0,151
-134,629	441,507	-0,041	-0,064
-133,614	-21,528	0,061	0,026
-132,599	-200,000	0,028	0,090
-131,585	-200,000	0,019	0,231
-130,570	308,175	-0,076	-0,103
-129,556	-91,899	-0,090	-0,018
-128,541	800,000	0,053	0,113
-127,526	-200,000	-0,003	0,104
-126,512	709,496	-0,065	0,123
-125,497	-200,000	0,019	0,093
-124,483	131,338	-0,043	0,040
-123,468	-68,846	-0,079	0,022
-122,453	62,624	-0,059	-0,042
-121,439	72,276	0,047	0,035
-120,424	-152,445	-0,104	0,005
-119,410	201,039	0,068	-0,075
