DTS Sentinel unit serial number:	SN410029Multiplexer serial number:	ORYXHardware model number:	OX2-SRSoftware version number:	ORYX F/W v4,00 Oryx Data Collector v3.7.2.0data status	okinstallation	B6 Nyhavnadifferential loss correction	single-endedforward channel	channel 2reverse channel	N/Adate	2023/12/10time	21:40:08forward acquisition time	300,00reverse acquisition time	0,00gamma	499,1914k internal	0,3123k external	0,3123temperature offset calibration	1,0000default loss term (dB/km)	0,3820temperature slope calibration	1,0000multiplexer offset coefficient	1,0000multiplexer slope coefficient	1,0000fibre end	0,00T internal ref (°C)	22,30T ext. ref 1 (°C)	6,06T ext. ref 2 (°C)	6,06length (m)	temperature (°C)	Stokes	anti-Stokes-744,400	27,052	0,080	-0,050
-743,385	23,106	-0,180	0,110
-742,371	-60,988	-0,066	0,021
-741,356	-21,797	-0,200	0,090
-740,342	534,665	-0,046	0,082
-739,327	-80,732	-0,265	0,065
-738,312	-200,000	-0,010	-0,075
-737,298	-22,433	-0,210	0,094
-736,283	360,140	0,069	0,104
-735,269	-84,953	-0,238	0,055
-734,254	-80,468	-0,119	-0,029
-733,239	-41,473	-0,303	-0,115
-732,225	230,281	0,105	-0,128
-731,210	-200,000	0,012	0,065
-730,196	-42,017	-0,088	0,033
-729,181	-63,006	-0,114	-0,035
-728,167	-11,172	0,101	0,049
-727,152	-51,470	0,105	0,036
-726,137	800,000	-0,034	-0,090
-725,123	-33,447	-0,108	-0,044
-724,108	-200,000	-0,015	-0,121
-723,094	54,594	0,023	-0,016
-722,079	800,000	-0,060	-0,144
-721,064	-93,884	-0,057	0,012
-720,050	800,000	-0,040	-0,100
-719,035	800,000	-0,049	-0,160
-718,021	-200,000	0,048	-0,187
-717,006	763,029	-0,072	-0,146
-715,991	8,083	0,072	-0,040
-714,977	19,629	-0,052	-0,031
-713,962	-40,172	-0,145	-0,056
-712,948	339,184	-0,018	0,027
-711,933	-200,000	-0,005	-0,039
-710,918	-38,454	-0,106	0,041
-709,904	97,314	0,039	0,034
-708,889	64,386	-0,136	-0,102
-707,875	557,710	-0,039	-0,070
-706,860	-35,694	0,076	0,030
-705,845	-22,540	0,047	0,021
-704,831	-48,093	-0,007	-0,002
-703,816	-42,881	-0,066	-0,025
-702,802	-25,267	-0,112	0,049
-701,787	149,810	-0,116	-0,117
-700,772	800,000	0,029	0,070
-699,758	800,000	0,014	0,029
-698,743	-48,747	0,145	0,052
-697,729	-16,714	-0,073	-0,034
-696,714	165,997	-0,043	-0,046
-695,699	619,141	-0,075	0,140
-694,685	-74,486	-0,097	-0,026
-693,670	800,000	-0,007	-0,018
-692,656	92,769	-0,057	-0,048
-691,641	330,466	-0,066	0,095
-690,627	23,492	0,166	0,101
-689,612	62,514	-0,041	-0,030
-688,597	-200,000	-0,003	-0,118
-687,583	-200,000	-0,013	0,050
-686,568	68,287	0,018	0,014
-685,554	72,730	0,032	-0,025
-684,539	-200,000	-0,006	-0,025
-683,524	-35,513	-0,099	-0,040
-682,510	-116,021	0,064	-0,009
-681,495	174,822	-0,073	-0,078
-680,481	414,733	-0,045	0,072
-679,466	15,407	-0,043	-0,025
-678,451	19,394	-0,133	-0,079
-677,437	217,307	-0,048	-0,057
-676,422	37,325	-0,136	0,089
-675,408	29,181	-0,072	0,045
-674,393	41,324	0,016	-0,011
-673,378	463,306	-0,114	-0,191
-672,364	-200,000	-0,008	-0,028
-671,349	7,761	-0,063	-0,035
-670,335	-36,362	0,103	0,041
-669,320	264,660	0,100	0,130
-668,305	589,851	0,043	-0,079
-667,291	168,426	0,091	-0,096
-666,276	-107,336	-0,031	-0,005
-665,262	-106,919	-0,006	-0,001
-664,247	-127,807	-0,146	-0,015
-663,232	-200,000	0,024	-0,080
-662,218	-200,000	0,002	0,103
-661,203	148,558	-0,095	0,095
-660,189	-39,987	0,044	0,017
-659,174	-200,000	0,003	-0,011
-658,159	536,830	-0,068	-0,121
-657,145	113,281	-0,071	0,064
-656,130	-75,112	0,070	-0,019
-655,116	-27,417	-0,142	0,061
-654,101	-200,000	0,000	0,090
-653,086	-33,954	0,114	0,046
-652,072	-200,000	0,005	-0,053
-651,057	75,605	0,072	0,056
-650,043	-105,216	-0,054	-0,009
-649,028	800,000	0,036	0,086
-648,014	800,000	0,054	-0,114
-646,999	-200,000	-0,005	-0,036
-645,984	-16,971	0,069	0,032
-644,970	-200,000	-0,033	-0,131
-643,955	23,684	-0,062	0,038
-642,941	800,000	-0,008	-0,023
-641,926	-41,435	-0,034	0,013
-640,911	-132,950	0,151	0,014
-639,897	-38,399	0,073	0,028
-638,882	-200,000	0,011	-0,038
-637,868	-186,734	0,031	-0,000
-636,853	-167,419	-0,190	0,006
-635,838	47,997	0,074	0,051
-634,824	167,360	0,035	0,037
-633,809	-89,691	0,074	-0,016
-632,795	-119,759	0,088	-0,011
-631,780	-111,059	-0,149	-0,022
-630,765	-98,440	-0,056	0,011
-629,751	800,000	-0,056	0,121
-628,736	-162,012	0,099	-0,004
-627,722	-136,244	-0,063	-0,005
-626,707	-87,395	0,057	0,013
-625,692	800,000	0,067	0,159
-624,678	-109,614	0,036	0,006
-623,663	-200,000	0,005	0,035
-622,649	38,841	-0,068	0,045
-621,634	27,832	0,088	-0,055
-620,619	144,048	-0,106	-0,105
-619,605	281,241	0,029	-0,038
-618,590	800,000	0,023	0,060
-617,576	-200,000	-0,000	-0,113
-616,561	800,000	-0,041	0,104
-615,546	800,000	-0,028	0,083
-614,532	173,566	-0,053	-0,057
-613,517	-5,206	-0,109	-0,056
-612,503	1,137	-0,019	-0,010
-611,488	166,634	0,070	0,074
-610,474	800,000	-0,030	-0,077
-609,459	-200,000	-0,030	0,121
-608,444	236,992	-0,087	-0,107
-607,430	-200,000	0,036	-0,208
-606,415	754,350	-0,060	-0,120
-605,401	-11,449	0,019	-0,009
-604,386	800,000	0,009	-0,019
-603,371	320,874	0,053	0,075
-602,357	-200,000	0,023	-0,097
-601,342	61,980	-0,169	-0,124
-600,328	-54,335	-0,125	0,042
-599,313	-200,000	0,002	-0,006
-598,298	240,956	0,080	-0,099
-597,284	-3,181	-0,050	0,026
-596,269	-200,000	0,004	0,216
-595,255	-83,802	0,017	0,004
-594,240	-125,121	-0,127	0,014
-593,225	800,000	0,036	-0,084
-592,211	749,945	0,068	-0,137
-591,196	122,094	-0,083	-0,077
-590,182	140,246	-0,089	0,087
-589,167	-200,000	-0,001	0,058
-588,152	-67,648	-0,023	-0,007
-587,138	-75,681	0,074	0,019
-586,123	-20,949	0,127	-0,058
-585,109	-32,625	0,033	-0,013
-584,094	5,472	0,090	0,049
-583,079	91,945	0,042	-0,035
-582,065	23,284	-0,169	0,103
-581,050	-147,401	0,070	0,004
-580,036	-102,778	-0,107	0,019
-579,021	-21,413	-0,111	0,050
-578,006	-43,354	0,127	-0,047
-576,992	-44,064	-0,046	-0,017
-575,977	-45,362	0,034	0,012
-574,963	-200,000	0,026	0,088
-573,948	800,000	-0,073	0,157
-572,934	-113,472	0,113	0,016
-571,919	-131,849	-0,091	-0,009
-570,904	138,919	-0,045	0,044
-569,890	-69,505	-0,059	-0,017
-568,875	-200,000	-0,046	0,191
-567,861	-68,072	0,133	-0,038
-566,846	266,743	0,043	-0,056
-565,831	-82,656	-0,140	0,033
-564,817	800,000	-0,059	-0,140
-563,802	65,944	-0,189	-0,142
-562,788	-145,390	-0,125	-0,008
-561,773	-100,836	-0,070	-0,013
-560,758	800,000	0,031	0,092
-559,744	-200,000	0,027	0,175
-558,729	578,613	-0,050	0,091
-557,715	-97,165	-0,054	-0,010
-556,700	-200,000	-0,004	-0,123
-555,685	148,123	-0,087	-0,087
-554,671	338,422	0,035	-0,050
-553,656	35,304	0,057	0,037
-552,642	-200,000	-0,008	-0,081
-551,627	45,062	0,036	-0,025
-550,612	-34,356	-0,064	-0,026
-549,598	-9,478	-0,054	-0,027
-548,583	4,489	-0,074	0,040
-547,569	163,083	-0,067	0,070
-546,554	675,133	-0,055	0,107
-545,539	800,000	0,024	0,067
-544,525	35,013	0,057	-0,037
-543,510	-68,742	-0,131	-0,037
-542,496	-194,903	0,155	-0,001
-541,481	-200,000	0,001	-0,168
-540,466	132,094	0,054	0,052
-539,452	39,679	0,088	0,058
-538,437	172,864	0,047	-0,051
-537,423	27,212	0,109	-0,067
-536,408	502,715	0,020	0,035
-535,393	-200,000	-0,007	-0,042
-534,379	-109,361	-0,148	-0,023
-533,364	31,062	-0,076	0,048
-532,350	-200,000	0,014	0,086
-531,335	9,352	0,130	0,073
-530,321	-144,291	-0,105	0,007
-529,306	68,749	-0,050	0,038
-528,291	198,754	-0,028	0,032
-527,277	-58,485	-0,124	0,040
-526,262	57,219	0,093	-0,067
-525,248	-74,058	-0,049	0,013
-524,233	226,859	0,038	-0,046
-523,218	-200,000	0,009	0,113
-522,204	800,000	0,030	0,067
-521,189	800,000	0,049	-0,118
-520,175	-200,000	-0,000	0,099
-519,160	800,000	-0,015	0,034
-518,145	-16,941	0,055	0,026
-517,131	-200,000	-0,005	0,025
-516,116	-200,000	0,028	-0,095
-515,102	135,840	0,080	-0,077
-514,087	9,272	-0,072	-0,040
-513,072	100,010	-0,056	-0,048
-512,058	-195,155	0,101	0,001
-511,043	-200,000	0,011	-0,153
-510,029	130,140	-0,058	-0,055
-509,014	-200,000	0,017	-0,081
-507,999	-78,852	0,019	-0,005
-506,985	184,567	-0,058	0,064
-505,970	210,118	0,085	-0,098
-504,956	177,110	0,018	0,019
-503,941	-200,000	-0,030	0,101
-502,926	-143,055	0,061	-0,004
-501,912	800,000	0,045	0,094
-500,897	-200,000	0,006	-0,067
-499,883	-200,000	0,012	-0,107
-498,868	17,640	-0,045	-0,027
-497,853	8,263	0,039	0,021
-496,839	20,048	0,066	-0,039
-495,824	97,879	0,058	-0,049
-494,810	100,922	-0,104	0,090
-493,795	800,000	0,022	0,063
-492,781	-200,000	-0,014	-0,108
-491,766	355,129	-0,068	-0,100
-490,751	692,957	0,046	0,089
-489,737	688,015	0,061	0,119
-488,722	147,119	-0,064	-0,063
-487,708	15,420	0,111	0,064
-486,693	342,192	-0,036	0,052
-485,678	800,000	-0,009	0,021
-484,664	800,000	0,032	0,070
-483,649	-140,959	-0,120	-0,009
-482,635	-200,000	-0,004	-0,033
-481,620	482,270	-0,140	0,235
-480,605	181,849	-0,041	0,044
-479,591	800,000	-0,023	-0,055
-478,576	-72,363	-0,085	-0,023
-477,562	-200,000	0,003	-0,032
-476,547	-125,248	0,047	0,005
-475,532	-200,000	-0,069	0,228
-474,518	5,341	-0,017	0,009
-473,503	535,081	0,035	0,062
-472,489	800,000	0,067	0,144
-471,474	800,000	-0,035	-0,101
-470,459	74,898	-0,068	-0,053
-469,445	-52,510	-0,087	-0,030
-468,430	497,385	0,072	-0,123
-467,416	-200,000	-0,004	-0,098
-466,401	-200,000	0,004	0,189
-465,386	243,476	-0,013	0,016
-464,372	-82,431	-0,067	-0,016
-463,357	78,468	-0,076	0,060
-462,343	22,391	0,117	0,071
-461,328	-200,000	0,013	-0,113
-460,313	128,311	-0,039	0,037
-459,299	-101,034	0,131	0,024
-458,284	-200,000	0,040	0,175
-457,270	417,499	-0,075	-0,118
-456,255	-200,000	0,016	-0,090
-455,241	195,570	0,033	-0,037
-454,226	-132,072	-0,196	0,018
-453,211	-200,000	0,016	0,182
-452,197	41,502	0,009	0,006
-451,182	-36,526	0,111	0,044
-450,168	388,005	0,046	0,070
-449,153	220,215	0,109	-0,128
-448,138	-200,000	-0,005	-0,137
-447,124	-200,000	-0,001	-0,151
-446,109	-90,154	-0,097	-0,021
-445,095	-69,883	0,148	0,041
-444,080	-46,871	0,113	-0,041
-443,065	385,394	-0,041	-0,062
-442,051	-88,057	0,046	0,010
-441,036	714,757	0,005	0,010
-440,022	11,978	0,126	0,071
-439,007	-200,000	0,001	0,119
-437,992	589,525	-0,031	0,056
-436,978	-200,000	0,005	0,026
-435,963	-114,662	0,033	0,005
-434,949	-27,336	0,087	-0,037
-433,934	178,027	-0,024	0,026
-432,919	145,315	-0,040	0,040
-431,905	-100,641	-0,141	-0,025
-430,890	302,798	0,095	0,129
-429,876	-200,000	-0,030	0,147
-428,861	-112,749	0,063	0,009
-427,846	800,000	-0,016	0,044
-426,832	-16,315	0,068	0,032
-425,817	-31,905	-0,024	0,010
-424,803	-200,000	-0,006	0,078
-423,788	7,212	-0,068	0,037
-422,773	346,783	-0,014	0,020
-421,759	-67,466	0,060	0,017
-420,744	-141,188	-0,057	0,004
-419,730	-33,881	-0,090	-0,036
-418,715	386,191	-0,053	0,080
-417,701	-132,318	-0,110	-0,010
-416,686	-124,494	-0,044	-0,005
-415,671	173,304	0,111	-0,118
-414,657	-200,000	-0,000	0,070
-413,642	56,874	0,151	0,108
-412,628	-200,000	0,035	-0,341
-411,613	2,959	0,172	-0,092
-410,598	-35,704	0,087	0,035
-409,584	-41,108	0,123	0,046
-408,569	11,162	0,027	-0,015
-407,555	372,275	-0,051	-0,076
-406,540	-200,000	0,004	-0,050
-405,525	-88,895	0,134	-0,029
-404,511	-24,476	0,059	0,026
-403,496	-64,521	0,054	-0,016
-402,482	-68,729	-0,115	-0,032
-401,467	81,854	-0,082	0,065
-400,452	17,348	-0,198	-0,115
-399,438	-69,668	0,090	-0,025
-398,423	362,258	-0,072	0,106
-397,409	7,558	0,153	-0,084
-396,394	2,904	-0,056	-0,030
-395,379	508,070	0,020	0,034
-394,365	-154,267	0,026	-0,001
-393,350	627,530	0,035	-0,065
-392,336	-121,505	-0,043	0,005
-391,321	222,639	-0,052	0,061
-390,306	-200,000	-0,039	-0,172
-389,292	386,347	-0,036	-0,054
-388,277	3,849	0,055	-0,029
-387,263	-200,000	-0,008	0,035
-386,248	-200,000	0,011	0,209
-385,233	131,218	0,090	0,085
-384,219	-200,000	0,026	-0,113
-383,204	-200,000	-0,008	-0,138
-382,190	-200,000	0,010	-0,053
-381,175	-149,151	0,042	-0,002
-380,160	707,857	0,061	0,119
-379,146	-112,659	0,065	0,009
-378,131	528,715	-0,034	-0,059
-377,117	-50,849	-0,094	0,032
-376,102	-200,000	-0,020	-0,098
-375,088	62,335	0,114	-0,083
-374,073	-55,323	0,052	0,017
-373,058	-125,335	0,086	-0,010
-372,044	430,336	0,036	-0,057
-371,029	-42,520	0,106	0,040
-370,015	-200,000	-0,016	0,176
-369,000	134,217	0,118	-0,112
-367,985	495,818	0,052	-0,088
-366,971	126,919	0,067	-0,063
-365,956	-200,000	-0,007	-0,067
-364,942	-33,799	-0,072	0,029
-363,927	179,813	0,064	-0,069
-362,912	61,660	-0,082	0,060
-361,898	-200,000	0,021	-0,119
-360,883	-45,036	0,059	0,021
-359,869	19,234	-0,038	0,022
-358,854	33,311	-0,041	-0,026
-357,839	800,000	0,012	0,025
-356,825	-111,911	0,092	0,014
-355,810	216,800	0,079	0,092
-354,796	60,384	0,085	0,062
-353,781	-39,708	-0,066	-0,025
-352,766	-84,653	0,067	-0,015
-351,752	-126,137	-0,042	0,005
-350,737	111,050	-0,016	-0,014
-349,723	68,061	0,036	0,027
-348,708	120,717	0,084	0,077
-347,693	-105,918	-0,103	-0,017
-346,679	-116,133	0,092	0,012
-345,664	800,000	0,066	0,172
-344,650	-37,285	-0,023	0,009
-343,635	800,000	0,017	-0,043
-342,620	-61,738	-0,081	0,025
-341,606	800,000	0,019	0,056
-340,591	100,054	0,036	-0,031
-339,577	55,690	-0,054	-0,039
-338,562	-200,000	-0,010	-0,172
-337,548	800,000	0,010	-0,023
-336,533	459,281	-0,075	0,123
-335,518	-80,128	-0,075	0,018
-334,504	156,048	0,088	-0,089
-333,489	-200,000	-0,014	-0,102
-332,475	800,000	-0,037	-0,083
-331,460	159,289	0,011	0,011
-330,445	31,409	-0,134	-0,084
-329,431	-88,766	0,123	-0,027
-328,416	-200,000	0,016	0,094
-327,402	-200,000	0,018	0,180
-326,387	-200,000	0,010	0,165
-325,372	29,583	-0,138	0,086
-324,358	-200,000	0,011	-0,056
-323,343	-200,000	0,010	0,074
-322,329	-200,000	-0,009	0,071
-321,314	124,613	0,136	0,125
-320,299	-26,231	-0,078	0,033
-319,285	-12,107	0,126	0,060
-318,270	204,712	0,025	0,028
-317,256	-127,003	-0,128	-0,014
-316,241	283,946	-0,029	0,039
-315,226	173,646	-0,027	0,029
-314,212	-39,550	0,150	0,057
-313,197	-195,422	0,040	-0,000
-312,183	800,000	0,019	-0,046
-311,168	-200,000	-0,006	-0,063
-310,153	-200,000	0,005	0,059
-309,139	-2,899	-0,041	-0,021
-308,124	80,150	-0,018	0,014
-307,110	-200,000	-0,022	-0,133
-306,095	-79,924	0,063	0,015
-305,080	-200,000	0,020	0,115
-304,066	-200,000	0,003	0,079
-303,051	27,920	0,067	0,041
-302,037	-159,844	-0,132	0,005
-301,022	255,993	-0,046	-0,058
-300,008	-136,907	0,030	-0,002
-298,993	370,762	-0,033	0,050
-297,978	411,656	-0,056	-0,088
-296,964	-17,926	-0,074	0,034
-295,949	-200,000	-0,023	-0,151
-294,935	-200,000	-0,011	-0,082
-293,920	-84,409	0,057	0,013
-292,905	-42,836	0,144	0,053
-291,891	-96,029	0,100	0,019
-290,876	-73,979	0,041	-0,011
-289,862	23,902	0,117	0,071
-288,847	725,833	0,011	-0,021
-287,832	-200,000	0,017	0,076
-286,818	-24,138	0,055	0,024
-285,803	-46,887	0,043	0,015
-284,789	35,502	0,110	0,070
-283,774	-48,446	0,034	-0,012
-282,759	-24,687	0,084	-0,036
-281,745	258,104	-0,058	-0,074
-280,730	-200,000	-0,001	0,052
-279,716	-200,000	-0,011	0,156
-278,701	246,565	-0,076	-0,095
-277,686	800,000	0,017	-0,037
-276,672	-200,000	-0,014	0,209
-275,657	-200,000	0,021	0,127
-274,643	254,320	-0,035	0,044
-273,628	-15,524	-0,121	-0,056
-272,613	-200,000	0,020	0,076
-271,599	-46,547	-0,144	0,051
-270,584	796,505	0,026	0,053
-269,570	97,328	0,037	-0,031
-268,555	23,122	-0,103	-0,062
-267,540	176,496	-0,067	-0,072
-266,526	-200,000	0,008	-0,051
-265,511	689,433	-0,037	0,072
-264,497	155,355	0,057	-0,057
-263,482	139,330	0,077	0,074
-262,467	-175,110	0,131	0,003
-261,453	800,000	0,075	-0,153
-260,438	-139,776	-0,020	-0,002
-259,424	800,000	-0,035	-0,073
-258,409	5,177	-0,013	-0,007
-257,395	800,000	-0,015	-0,048
-256,380	-95,272	-0,064	-0,013
-255,365	-84,547	0,052	-0,012
-254,351	-16,030	-0,133	0,061
-253,336	-200,000	-0,000	-0,032
-252,322	294,202	-0,066	-0,089
-251,307	125,320	-0,136	-0,126
-250,292	121,162	0,054	0,049
-249,278	-200,000	-0,028	0,137
-248,263	-41,928	-0,029	-0,011
-247,249	-200,000	0,008	0,055
-246,234	375,183	-0,046	-0,069
-245,219	-58,207	0,116	0,037
-244,205	800,000	-0,039	-0,118
-243,190	-73,016	0,054	0,014
-242,176	95,738	0,109	-0,091
-241,161	208,123	-0,104	-0,119
-240,146	-24,734	0,060	0,026
-239,132	-50,643	0,029	0,010
-238,117	291,299	0,095	-0,127
-237,103	-48,233	-0,205	-0,072
-236,088	-107,925	-0,143	-0,022
-235,073	800,000	0,051	-0,115
-234,059	549,551	0,022	0,038
-233,044	98,099	0,088	-0,074
-232,030	-122,780	-0,087	-0,010
-231,015	-37,140	-0,160	0,062
-230,000	103,648	0,069	-0,059
-228,986	-200,000	0,008	-0,060
-227,971	124,673	-0,011	-0,010
-226,957	-124,891	0,045	-0,005
-225,942	-200,000	0,024	-0,115
-224,927	800,000	-0,005	0,013
-223,913	-38,354	-0,099	0,038
-222,898	800,000	-0,030	-0,069
-221,884	-200,000	-0,005	-0,088
-220,869	73,742	0,123	0,094
-219,855	-154,526	-0,063	0,003
-218,840	-113,903	-0,089	-0,012
-217,825	84,106	0,082	0,065
-216,811	800,000	0,031	-0,075
-215,796	-200,000	-0,027	0,102
-214,782	460,075	-0,084	0,136
-213,767	50,298	0,140	0,097
-212,752	-72,435	-0,048	-0,013
-211,738	-200,000	-0,005	0,044
-210,723	800,000	0,013	0,028
-209,709	-200,000	-0,008	-0,106
-208,694	800,000	-0,020	-0,044
-207,679	13,975	-0,098	-0,055
-206,665	-92,997	0,168	-0,034
-205,650	237,138	0,045	-0,054
-204,636	-17,852	0,150	0,068
-203,621	-89,714	0,100	-0,021
-202,606	-200,000	0,018	-0,131
-201,592	164,552	-0,118	-0,121
-200,577	385,941	-0,055	-0,082
-199,563	-90,725	-0,112	-0,023
-198,548	-200,000	-0,005	0,034
-197,533	-200,000	0,016	-0,098
-196,519	-200,000	0,025	0,102
-195,504	147,082	-0,098	-0,096
-194,490	-200,000	-0,020	0,167
-193,475	-200,000	-0,033	-0,112
-192,460	-200,000	0,022	0,086
-191,446	631,479	0,067	-0,124
-190,431	-142,761	0,100	-0,007
-189,417	800,000	-0,063	0,185
-188,402	-200,000	-0,012	0,135
-187,387	512,350	-0,055	-0,094
-186,373	-200,000	0,053	-0,231
-185,358	-59,051	0,032	-0,010
-184,344	298,041	0,033	0,045
-183,329	32,641	-0,015	-0,009
-182,315	-32,154	0,117	-0,047
-181,300	350,363	-0,088	0,127
-180,285	549,405	0,080	-0,141
-179,271	-200,000	-0,019	-0,063
-178,256	800,000	0,046	0,119
-177,242	71,229	0,076	0,058
-176,227	800,000	-0,030	-0,086
-175,212	157,793	0,051	-0,051
-174,198	-39,684	-0,107	0,041
-173,183	800,000	0,022	-0,065
-172,169	-115,372	-0,078	-0,011
-171,154	-200,000	-0,005	-0,030
-170,139	97,973	-0,118	0,099
-169,125	-66,294	-0,084	0,024
-168,110	-137,110	-0,032	0,003
-167,096	-128,585	-0,206	-0,021
-166,081	-96,164	-0,123	-0,024
-165,066	454,701	-0,010	-0,016
-164,052	2,000	0,019	-0,010
-163,037	-200,000	0,014	0,107
-162,023	-200,000	0,021	-0,090
-161,008	800,000	-0,026	0,081
-159,993	120,988	0,025	0,022
-158,979	-119,511	0,124	0,015
-157,964	-15,895	-0,114	0,053
-156,950	800,000	-0,023	-0,057
-155,935	394,840	-0,030	0,046
-154,920	628,867	-0,037	0,068
-153,906	-21,990	-0,018	-0,008
-152,891	-200,000	-0,004	0,026
-151,877	10,580	-0,141	-0,078
-150,862	269,624	-0,028	-0,036
-149,847	205,351	0,080	-0,090
-148,833	-75,629	-0,152	-0,039
-147,818	503,677	-0,036	-0,062
-146,804	-75,688	0,054	0,014
-145,789	89,955	0,078	0,063
-144,775	56,507	-0,062	0,044
-143,760	303,247	-0,050	0,067
-142,745	-1,659	0,115	-0,059
-141,731	228,137	-0,062	-0,073
-140,716	199,511	0,114	0,128
-139,702	800,000	-0,014	0,032
-138,687	-99,054	-0,084	-0,015
-137,672	495,472	0,033	-0,055
-136,658	800,000	0,025	-0,079
-135,643	-160,481	-0,103	-0,004
-134,629	352,846	-0,069	-0,100
-133,614	122,449	0,033	0,030
-132,599	-47,593	0,090	0,032
-131,585	-200,000	0,014	0,098
-130,570	275,012	-0,016	0,021
-129,556	-200,000	-0,002	-0,065
-128,541	-200,000	-0,006	-0,095
-127,526	-174,515	0,055	0,001
-126,512	462,266	0,040	0,065
-125,497	-200,000	0,012	-0,143
-124,483	17,006	-0,021	-0,012
-123,468	-56,403	-0,092	-0,030
-122,453	-200,000	0,002	-0,069
-121,439	22,507	-0,068	0,040
-120,424	-153,890	-0,130	-0,006
-119,410	286,892	-0,026	0,035
