DTS Sentinel unit serial number:	SN410029Multiplexer serial number:	ORYXHardware model number:	OX2-SRSoftware version number:	ORYX F/W v4,00 Oryx Data Collector v3.7.2.0data status	okinstallation	B6 Nyhavnadifferential loss correction	single-endedforward channel	channel 2reverse channel	N/Adate	2023/12/11time	08:20:08forward acquisition time	300,00reverse acquisition time	0,00gamma	499,1914k internal	0,3129k external	0,3129temperature offset calibration	1,0000default loss term (dB/km)	0,3820temperature slope calibration	1,0000multiplexer offset coefficient	1,0000multiplexer slope coefficient	1,0000fibre end	0,00T internal ref (°C)	18,01T ext. ref 1 (°C)	0,27T ext. ref 2 (°C)	0,27length (m)	temperature (°C)	Stokes	anti-Stokes-744,400	-200,000	-0,005	-0,127
-743,385	-76,971	-0,298	0,077
-742,371	192,344	0,099	-0,111
-741,356	-85,407	-0,234	-0,054
-740,342	-54,748	0,090	0,030
-739,327	379,983	-0,091	0,139
-738,312	45,459	-0,048	0,033
-737,298	-7,514	-0,273	0,137
-736,283	-92,596	0,181	0,037
-735,269	-130,200	-0,262	0,026
-734,254	19,266	0,048	-0,029
-733,239	-103,775	-0,351	-0,060
-732,225	73,161	0,073	0,057
-731,210	22,305	0,110	0,067
-730,196	-200,000	-0,015	0,088
-729,181	-32,523	-0,204	0,084
-728,167	-200,000	-0,006	-0,115
-727,152	-105,299	0,112	-0,019
-726,137	-200,000	-0,009	-0,074
-725,123	800,000	0,012	0,033
-724,108	-64,204	-0,157	-0,047
-723,094	-136,531	0,123	0,010
-722,079	-200,000	-0,010	-0,094
-721,064	-120,685	0,089	0,011
-720,050	39,484	-0,056	0,037
-719,035	-47,946	-0,118	-0,042
-718,021	315,836	-0,082	0,115
-717,006	146,137	-0,159	-0,158
-715,991	-200,000	0,003	-0,150
-714,977	800,000	0,030	-0,075
-713,962	-34,060	-0,118	0,048
-712,948	-122,812	0,022	-0,003
-711,933	-200,000	-0,020	0,133
-710,918	26,628	-0,143	0,089
-709,904	-200,000	-0,021	-0,085
-708,889	2,508	-0,208	-0,111
-707,875	800,000	0,019	-0,058
-706,860	800,000	-0,030	0,086
-705,845	800,000	-0,019	0,046
-704,831	800,000	0,058	0,126
-703,816	-104,400	-0,154	0,026
-702,802	-200,000	0,022	-0,127
-701,787	-200,000	0,003	0,039
-700,772	92,578	-0,139	-0,117
-699,758	800,000	0,031	-0,087
-698,743	-132,063	0,207	0,020
-697,729	800,000	0,043	-0,094
-696,714	800,000	0,002	-0,006
-695,699	155,725	0,098	-0,100
-694,685	85,297	-0,143	-0,117
-693,670	-89,185	0,148	-0,032
-692,656	-125,908	-0,110	0,012
-691,641	-24,448	0,041	0,018
-690,627	99,334	0,062	-0,053
-689,612	-200,000	0,015	0,068
-688,597	57,686	-0,086	-0,062
-687,583	186,855	-0,141	-0,156
-686,568	800,000	-0,054	-0,145
-685,554	588,636	0,040	0,074
-684,539	-200,000	0,002	-0,115
-683,524	65,349	0,030	0,023
-682,510	800,000	-0,035	0,076
-681,495	186,730	-0,084	0,093
-680,481	-49,599	-0,305	-0,107
-679,466	-200,000	0,013	-0,105
-678,451	800,000	0,005	-0,014
-677,437	-99,652	-0,088	0,016
-676,422	-200,000	-0,025	0,115
-675,408	-26,233	-0,027	0,012
-674,393	800,000	0,031	0,091
-673,378	800,000	-0,022	0,046
-672,364	-8,819	-0,140	0,069
-671,349	51,633	0,041	0,029
-670,335	-184,656	0,145	0,002
-669,320	599,742	0,037	-0,069
-668,305	-46,885	0,060	0,022
-667,291	-200,000	0,026	0,091
-666,276	59,087	-0,039	-0,029
-665,262	-140,243	-0,135	-0,010
-664,247	288,660	-0,068	-0,092
-663,232	-200,000	-0,008	-0,041
-662,218	800,000	-0,076	0,235
-661,203	-200,000	-0,000	0,117
-660,189	522,375	-0,033	-0,058
-659,174	12,743	0,162	-0,092
-658,159	-179,496	-0,084	-0,001
-657,145	40,372	0,088	0,059
-656,130	738,712	-0,064	0,128
-655,116	25,204	-0,089	0,054
-654,101	795,048	0,052	0,108
-653,086	800,000	0,047	-0,104
-652,072	-200,000	0,016	-0,147
-651,057	30,542	-0,089	-0,057
-650,043	287,270	-0,157	-0,211
-649,028	800,000	0,024	-0,059
-648,014	-81,118	-0,040	0,010
-646,999	-92,795	0,084	-0,017
-645,984	-31,346	-0,047	0,019
-644,970	-149,837	-0,033	0,002
-643,955	-94,838	-0,079	0,016
-642,941	360,132	0,038	-0,057
-641,926	175,262	-0,030	-0,032
-640,911	203,347	-0,085	-0,098
-639,897	800,000	-0,018	-0,056
-638,882	800,000	-0,039	0,105
-637,868	-129,411	0,015	-0,002
-636,853	16,167	-0,113	-0,066
-635,838	270,798	-0,057	-0,075
-634,824	-200,000	0,012	-0,090
-633,809	-5,347	0,090	0,046
-632,795	-68,958	0,033	-0,009
-631,780	800,000	-0,031	0,073
-630,765	-200,000	-0,007	0,065
-629,751	17,340	0,073	-0,043
-628,736	253,263	-0,059	-0,075
-627,722	119,572	-0,108	-0,099
-626,707	-30,322	-0,076	0,032
-625,692	-200,000	0,006	-0,050
-624,678	-42,049	0,126	0,047
-623,663	-110,142	0,020	-0,003
-622,649	55,650	-0,086	0,062
-621,634	-200,000	0,013	-0,093
-620,619	92,648	-0,064	-0,054
-619,605	-93,993	0,069	0,014
-618,590	13,444	-0,029	0,016
-617,576	-173,026	-0,060	-0,001
-616,561	-200,000	-0,000	-0,050
-615,546	-200,000	0,001	-0,078
-614,532	-114,857	-0,055	0,008
-613,517	1,000	0,059	0,031
-612,503	800,000	0,038	0,112
-611,488	547,633	-0,036	0,065
-610,474	82,595	0,114	0,092
-609,459	280,114	-0,068	-0,090
-608,444	-134,785	-0,049	0,004
-607,430	306,816	-0,038	-0,052
-606,415	325,459	-0,110	-0,157
-605,401	-200,000	-0,014	0,057
-604,386	-72,352	0,164	0,045
-603,371	-30,334	0,075	0,031
-602,357	-93,468	-0,196	-0,040
-601,342	310,842	0,057	-0,080
-600,328	-45,957	-0,078	0,028
-599,313	-200,000	0,025	0,090
-598,298	488,725	0,021	-0,036
-597,284	-92,713	0,076	0,016
-596,269	41,514	-0,083	0,056
-595,255	469,870	-0,043	-0,072
-594,240	-101,342	-0,052	0,009
-593,225	-9,435	-0,040	-0,020
-592,211	800,000	0,036	0,091
-591,196	19,615	0,021	-0,012
-590,182	104,719	0,067	0,058
-589,167	-53,546	-0,089	0,030
-588,152	384,816	-0,054	0,082
-587,138	-139,451	-0,066	-0,005
-586,123	-200,000	-0,021	-0,085
-585,109	-13,744	-0,085	-0,041
-584,094	800,000	0,014	-0,034
-583,079	68,047	0,127	-0,096
-582,065	788,411	-0,007	0,014
-581,050	-200,000	-0,004	-0,015
-580,036	-200,000	-0,004	0,018
-579,021	-8,822	-0,061	-0,030
-578,006	-90,070	-0,147	0,031
-576,992	-200,000	-0,012	-0,046
-575,977	-37,540	-0,101	-0,040
-574,963	-153,865	0,194	-0,010
-573,948	-72,573	-0,022	-0,006
-572,934	-200,000	0,003	0,073
-571,919	-149,007	-0,125	-0,007
-570,904	-56,402	0,067	0,022
-569,890	800,000	0,040	-0,124
-568,875	-200,000	-0,015	-0,116
-567,861	-200,000	-0,005	-0,072
-566,846	86,816	0,093	-0,076
-565,831	576,108	0,075	-0,136
-564,817	800,000	-0,065	-0,153
-563,802	-95,799	-0,064	-0,012
-562,788	446,599	0,001	-0,001
-561,773	-0,104	-0,080	0,042
-560,758	-200,000	0,013	0,089
-559,744	-61,938	0,125	-0,038
-558,729	-200,000	0,037	0,128
-557,715	105,264	-0,065	0,057
-556,700	-200,000	-0,009	0,067
-555,685	-113,286	0,037	-0,005
-554,671	-200,000	-0,004	-0,098
-553,656	297,259	0,072	0,098
-552,642	42,807	-0,150	-0,101
-551,627	324,421	0,034	0,048
-550,612	654,729	-0,012	0,023
-549,598	-182,749	-0,113	-0,001
-548,583	117,622	0,086	0,078
-547,569	-200,000	0,021	-0,121
-546,554	251,550	-0,055	0,070
-545,539	-87,880	-0,088	0,019
-544,525	-200,000	0,034	0,113
-543,510	-200,000	-0,020	-0,076
-542,496	-66,976	-0,100	0,029
-541,481	-200,000	0,041	-0,210
-540,466	-200,000	0,006	-0,125
-539,452	188,419	0,054	-0,060
-538,437	4,078	-0,114	0,061
-537,423	-117,191	0,137	0,018
-536,408	113,753	-0,094	-0,085
-535,393	-116,451	-0,040	0,005
-534,379	503,158	-0,036	-0,061
-533,364	-144,625	0,133	-0,009
-532,350	508,044	-0,049	0,084
-531,335	-118,496	0,067	-0,009
-530,321	-44,918	-0,091	-0,033
-529,306	72,471	-0,036	0,027
-528,291	-106,629	-0,146	-0,024
-527,277	-159,798	0,043	-0,002
-526,262	-15,748	-0,124	0,058
-525,248	-28,545	0,061	-0,026
-524,233	-200,000	-0,023	-0,131
-523,218	63,410	0,074	0,054
-522,204	351,820	0,027	0,040
-521,189	197,567	-0,107	-0,121
-520,175	-126,916	-0,021	0,002
-519,160	-14,970	-0,060	0,028
-518,145	800,000	0,053	-0,116
-517,131	-142,972	0,089	-0,006
-516,116	-200,000	-0,018	0,158
-515,102	-200,000	0,005	0,142
-514,087	800,000	-0,051	-0,106
-513,072	707,048	0,012	0,023
-512,058	-200,000	0,007	-0,049
-511,043	222,370	0,050	-0,059
-510,029	-200,000	0,003	0,110
-509,014	31,819	0,111	-0,071
-507,999	-39,367	-0,129	0,050
-506,985	-57,066	0,056	-0,018
-505,970	209,615	0,079	0,092
-504,956	-122,335	-0,049	0,006
-503,941	190,948	-0,113	-0,125
-502,926	-32,240	0,189	0,077
-501,912	82,836	0,083	-0,066
-500,897	-81,847	-0,015	0,003
-499,883	-92,325	0,052	0,011
-498,868	149,255	-0,120	-0,120
-497,853	470,020	0,052	-0,086
-496,839	-200,000	-0,003	0,052
-495,824	-90,421	0,019	-0,004
-494,810	46,296	-0,022	0,015
-493,795	-200,000	0,022	-0,094
-492,781	225,853	0,074	-0,089
-491,766	-200,000	-0,024	-0,092
-490,751	-65,760	-0,102	-0,030
-489,737	199,880	0,016	-0,019
-488,722	800,000	0,006	-0,015
-487,708	-200,000	-0,021	0,129
-486,693	97,376	-0,089	-0,075
-485,678	-200,000	-0,013	0,116
-484,664	-200,000	0,018	-0,083
-483,649	-131,391	-0,064	-0,006
-482,635	-98,200	-0,151	0,028
-481,620	255,915	0,044	-0,056
-480,605	-200,000	-0,002	0,123
-479,591	-200,000	-0,003	0,150
-478,576	-200,000	-0,009	-0,083
-477,562	-58,125	0,099	-0,031
-476,547	-200,000	0,018	-0,061
-475,532	-200,000	-0,001	0,099
-474,518	800,000	-0,053	0,151
-473,503	-164,208	0,047	-0,002
-472,489	597,520	0,076	-0,139
-471,474	800,000	0,004	-0,009
-470,459	61,121	-0,105	-0,077
-469,445	-172,014	0,015	-0,000
-468,430	26,767	-0,058	0,036
-467,416	155,701	-0,037	0,037
-466,401	800,000	0,018	-0,050
-465,386	800,000	0,050	0,148
-464,372	-200,000	-0,004	0,109
-463,357	-95,985	-0,167	0,032
-462,343	-3,526	-0,068	0,034
-461,328	212,474	0,035	0,040
-460,313	-200,000	-0,019	0,235
-459,299	-55,157	0,193	-0,064
-458,284	800,000	-0,020	-0,060
-457,270	800,000	-0,007	0,017
-456,255	800,000	0,049	0,104
-455,241	-200,000	-0,001	0,066
-454,226	0,742	0,098	-0,052
-453,211	-200,000	-0,001	-0,169
-452,197	-200,000	0,001	-0,028
-451,182	574,084	0,028	0,050
-450,168	-35,373	-0,076	-0,030
-449,153	-13,926	0,156	0,074
-448,138	-35,715	-0,158	-0,063
-447,124	94,257	-0,072	0,060
-446,109	157,314	-0,094	-0,095
-445,095	48,632	0,044	0,030
-444,080	-200,000	0,009	0,185
-443,065	-64,648	0,102	-0,030
-442,051	-200,000	-0,004	-0,037
-441,036	-200,000	-0,014	0,063
-440,022	800,000	0,021	-0,057
-439,007	800,000	-0,018	-0,056
-437,992	-200,000	0,018	0,070
-436,978	-200,000	0,013	0,255
-435,963	-70,833	-0,010	0,003
-434,949	16,936	-0,106	-0,062
-433,934	42,660	-0,108	0,072
-432,919	800,000	-0,035	-0,104
-431,905	463,898	-0,045	0,074
-430,890	-0,899	0,082	-0,042
-429,876	-200,000	0,010	-0,050
-428,861	-200,000	0,043	0,175
-427,846	-87,120	-0,083	-0,018
-426,832	-90,837	-0,063	-0,013
-425,817	-200,000	0,034	-0,131
-424,803	282,727	-0,094	-0,124
-423,788	60,568	0,032	0,023
-422,773	-119,246	-0,005	0,001
-421,759	163,736	0,042	-0,044
-420,744	-144,311	0,193	0,013
-419,730	-200,000	-0,008	-0,026
-418,715	35,827	-0,169	0,109
-417,701	-200,000	0,016	-0,068
-416,686	-51,425	0,097	0,033
-415,671	178,465	0,098	-0,105
-414,657	-200,000	-0,014	0,070
-413,642	745,487	0,052	-0,103
-412,628	-64,226	0,127	-0,038
-411,613	-200,000	-0,004	-0,026
-410,598	-140,859	-0,100	0,007
-409,584	-58,219	0,070	-0,022
-408,569	-47,277	0,103	-0,037
-407,555	800,000	0,030	0,086
-406,540	-200,000	-0,018	0,120
-405,525	-140,196	-0,031	-0,002
-404,511	-200,000	-0,029	0,158
-403,496	800,000	0,034	-0,100
-402,482	-129,496	0,035	0,004
-401,467	-76,696	0,146	0,037
-400,452	-200,000	-0,018	-0,069
-399,438	43,999	-0,082	-0,055
-398,423	-200,000	0,011	-0,069
-397,409	128,873	-0,059	0,055
-396,394	-200,000	0,017	-0,078
-395,379	328,722	-0,020	-0,029
-394,365	-200,000	0,011	0,042
-393,350	-68,008	-0,032	-0,009
-392,336	129,738	0,105	0,098
-391,321	4,297	-0,082	0,044
-390,306	767,525	-0,047	0,094
-389,292	800,000	0,025	0,079
-388,277	123,699	-0,073	-0,067
-387,263	-113,361	0,156	0,022
-386,248	-68,975	0,105	-0,029
-385,233	645,308	0,050	0,094
-384,219	432,998	0,037	0,060
-383,204	-20,479	-0,065	-0,029
-382,190	75,802	0,070	-0,055
-381,175	229,630	-0,039	0,046
-380,160	-75,443	0,120	0,031
-379,146	800,000	0,030	0,065
-378,131	314,668	-0,070	0,097
-377,117	800,000	-0,022	-0,055
-376,102	-200,000	0,004	0,068
-375,088	-19,837	0,135	0,061
-374,073	350,167	-0,033	0,048
-373,058	235,970	-0,049	0,060
-372,044	453,076	0,106	0,173
-371,029	-98,954	0,121	0,022
-370,015	-100,738	-0,189	0,034
-369,000	621,806	-0,020	-0,037
-367,985	-107,991	-0,132	-0,021
-366,971	-182,479	0,085	0,001
-365,956	-9,830	0,042	-0,020
-364,942	800,000	-0,045	0,123
-363,927	2,687	0,124	-0,066
-362,912	-200,000	0,003	0,045
-361,898	-85,025	-0,061	0,014
-360,883	800,000	-0,048	0,099
-359,869	800,000	0,025	0,059
-358,854	116,967	0,058	0,052
-357,839	17,597	-0,028	0,016
-356,825	-200,000	0,025	0,091
-355,810	800,000	0,029	0,064
-354,796	-75,855	0,090	-0,023
-353,781	-114,284	-0,040	-0,006
-352,766	138,055	0,042	-0,041
-351,752	215,691	0,075	-0,088
-350,737	30,948	0,144	-0,090
-349,723	659,170	0,043	0,081
-348,708	-200,000	0,020	0,201
-347,693	-200,000	0,020	-0,076
-346,679	67,415	-0,072	0,054
-345,664	-67,304	-0,010	0,003
-344,650	-90,914	0,044	-0,009
-343,635	-116,965	-0,087	-0,011
-342,620	57,043	-0,035	-0,025
-341,606	-100,852	-0,114	-0,020
-340,591	172,165	-0,051	0,053
-339,577	-154,253	0,065	-0,003
-338,562	-188,223	-0,075	0,001
-337,548	511,993	-0,057	-0,098
-336,533	-200,000	0,043	0,183
-335,518	-200,000	0,016	-0,095
-334,504	659,836	-0,044	0,083
-333,489	188,781	-0,065	-0,072
-332,475	-55,157	0,042	-0,014
-331,460	225,908	0,056	0,066
-330,445	-103,104	-0,124	-0,021
-329,431	439,390	-0,024	-0,038
-328,416	-200,000	-0,013	0,049
-327,402	242,825	0,096	-0,118
-326,387	121,318	0,120	-0,110
-325,372	-191,359	-0,055	0,000
-324,358	-200,000	0,029	-0,128
-323,343	800,000	-0,028	0,067
-322,329	-115,789	-0,027	0,004
-321,314	-200,000	0,016	0,090
-320,299	-200,000	0,028	0,186
-319,285	-84,617	-0,085	0,020
-318,270	309,967	-0,138	-0,190
-317,256	145,160	0,093	0,091
-316,241	313,442	-0,115	0,159
-315,226	201,386	0,099	-0,112
-314,212	389,097	0,031	0,046
-313,197	800,000	0,040	0,085
-312,183	195,235	0,093	-0,103
-311,168	-200,000	-0,005	-0,043
-310,153	303,780	-0,027	-0,036
-309,139	-142,268	-0,032	-0,002
-308,124	-123,840	0,192	-0,022
-307,110	179,767	0,043	-0,046
-306,095	269,281	0,103	0,132
-305,080	-200,000	0,015	-0,050
-304,066	-14,751	-0,133	-0,062
-303,051	367,178	-0,051	-0,076
-302,037	-0,725	0,046	-0,024
-301,022	105,859	0,058	0,050
-300,008	800,000	0,025	-0,060
-298,993	-200,000	0,001	-0,044
-297,978	112,837	-0,057	-0,050
-296,964	-200,000	-0,005	0,182
-295,949	-49,019	-0,115	0,040
-294,935	-200,000	0,007	-0,072
-293,920	344,084	0,052	0,074
-292,905	214,396	-0,048	0,056
-291,891	-200,000	-0,001	-0,033
-290,876	367,507	0,061	0,090
-289,862	68,910	0,010	0,007
-288,847	-200,000	-0,046	-0,200
-287,832	-200,000	0,025	-0,093
-286,818	-200,000	0,007	-0,079
-285,803	-121,617	-0,047	-0,006
-284,789	800,000	0,032	0,082
-283,774	121,242	0,041	0,037
-282,759	12,319	-0,105	-0,059
-281,745	158,830	-0,060	-0,061
-280,730	-147,232	-0,049	0,003
-279,716	383,050	0,060	0,091
-278,701	-151,093	0,113	-0,006
-277,686	192,733	-0,063	0,070
-276,672	800,000	-0,039	0,082
-275,657	-125,463	-0,098	-0,011
-274,643	126,449	0,076	-0,070
-273,628	-20,704	0,030	-0,013
-272,613	-115,824	-0,156	0,021
-271,599	798,155	0,025	-0,051
-270,584	127,668	0,029	-0,026
-269,570	770,897	-0,017	-0,033
-268,555	-45,666	-0,136	0,049
-267,540	-50,000	-0,109	-0,038
-266,526	33,496	-0,010	0,006
-265,511	488,832	-0,015	0,025
-264,497	800,000	-0,059	0,135
-263,482	-57,613	0,085	0,027
-262,467	139,073	0,048	0,046
-261,453	497,013	-0,055	-0,093
-260,438	-200,000	0,009	-0,084
-259,424	19,286	-0,194	0,114
-258,409	-177,832	0,021	-0,000
-257,395	468,660	0,017	0,028
-256,380	643,302	0,019	0,036
-255,365	800,000	-0,066	-0,148
-254,351	-121,273	-0,115	-0,014
-253,336	-200,000	0,002	0,128
-252,322	-72,339	-0,055	0,015
-251,307	254,204	-0,011	-0,014
-250,292	306,054	-0,050	0,068
-249,278	-59,511	0,035	0,011
-248,263	1,508	-0,053	-0,028
-247,249	130,663	0,010	0,009
-246,234	158,438	-0,097	0,098
-245,219	41,699	-0,085	0,056
-244,205	256,698	0,136	-0,171
-243,190	7,188	-0,042	0,023
-242,176	-46,016	0,088	0,031
-241,161	-70,579	0,092	0,025
-240,146	-200,000	0,002	0,159
-239,132	305,087	-0,035	0,047
-238,117	800,000	-0,012	-0,030
-237,103	800,000	0,041	-0,111
-236,088	-41,770	0,128	-0,048
-235,073	-150,336	-0,031	-0,002
-234,059	-78,259	-0,101	-0,025
-233,044	493,784	-0,035	0,058
-232,030	290,157	-0,075	-0,100
-231,015	-200,000	-0,008	0,042
-230,000	-64,178	0,062	-0,018
-228,986	129,895	0,013	0,012
-227,971	800,000	0,042	-0,109
-226,957	-200,000	0,020	-0,086
-225,942	800,000	0,052	-0,110
-224,927	475,989	0,009	0,015
-223,913	148,642	0,060	-0,059
-222,898	800,000	0,044	-0,134
-221,884	295,440	0,046	-0,062
-220,869	-114,906	-0,130	-0,018
-219,855	-103,204	0,214	0,036
-218,840	-67,298	0,099	-0,028
-217,825	300,324	0,052	0,070
-216,811	-92,071	0,107	0,022
-215,796	-74,891	-0,099	-0,026
-214,782	-40,647	0,093	-0,035
-213,767	588,418	0,026	0,047
-212,752	-200,000	-0,003	0,054
-211,738	228,151	-0,101	0,120
-210,723	-50,918	0,132	0,045
-209,709	-177,255	-0,120	0,002
-208,694	11,818	0,096	-0,054
-207,679	-38,015	-0,078	-0,030
-206,665	6,150	0,071	0,038
-205,650	-200,000	-0,004	0,060
-204,636	-82,367	-0,056	-0,013
-203,621	-99,656	-0,077	0,014
-202,606	-200,000	-0,030	0,099
-201,592	800,000	-0,018	-0,043
-200,577	-73,661	0,095	0,025
-199,563	59,137	0,103	-0,073
-198,548	344,699	0,092	-0,132
-197,533	91,148	0,081	0,066
-196,519	41,224	-0,040	-0,027
-195,504	800,000	-0,052	-0,155
-194,490	-13,433	0,015	0,007
-193,475	-34,921	0,036	0,014
-192,460	-200,000	-0,010	0,057
-191,446	-200,000	0,049	0,245
-190,431	16,466	-0,069	0,039
-189,417	-200,000	-0,024	-0,087
-188,402	-200,000	0,007	0,114
-187,387	-200,000	0,017	-0,145
-186,373	800,000	-0,019	0,046
-185,358	-66,987	0,107	0,031
-184,344	498,157	0,058	0,098
-183,329	-101,596	-0,041	0,007
-182,315	19,713	-0,082	-0,048
-181,300	-200,000	0,008	0,042
-180,285	13,357	0,193	-0,109
-179,271	129,072	-0,152	-0,141
-178,256	187,023	0,023	0,025
-177,242	-133,692	0,125	-0,011
-176,227	-197,102	0,017	0,000
-175,212	-200,000	0,157	0,000
-174,198	113,764	-0,074	-0,065
-173,183	252,514	0,050	-0,062
-172,169	-128,444	-0,027	-0,003
-171,154	217,367	0,042	-0,049
-170,139	-200,000	0,011	0,048
-169,125	114,984	0,063	0,056
-168,110	243,586	0,037	-0,045
-167,096	796,333	-0,057	0,116
-166,081	23,279	0,072	-0,043
-165,066	-78,434	-0,061	0,015
-164,052	800,000	-0,027	-0,056
-163,037	601,563	-0,020	0,036
-162,023	447,956	0,040	0,064
-161,008	800,000	-0,067	0,167
-159,993	-14,777	0,041	0,019
-158,979	-200,000	0,017	-0,094
-157,964	85,820	0,047	0,037
-156,950	187,089	-0,052	-0,056
-155,935	-44,767	0,031	0,011
-154,920	138,614	0,084	-0,080
-153,906	800,000	-0,016	-0,039
-152,891	180,162	0,064	-0,069
-151,877	207,100	-0,039	-0,044
-150,862	-200,000	-0,001	0,060
-149,847	-45,318	0,016	-0,006
-148,833	24,352	-0,198	0,118
-147,818	-200,000	0,013	-0,082
-146,804	81,048	0,142	0,111
-145,789	-9,511	0,049	0,024
-144,775	301,547	-0,068	0,092
-143,760	-200,000	-0,042	0,152
-142,745	-98,022	-0,073	-0,014
-141,731	800,000	0,021	-0,044
-140,716	349,327	-0,028	-0,041
-139,702	234,616	-0,060	-0,072
-138,687	800,000	0,060	0,170
-137,672	121,625	-0,055	0,049
-136,658	147,660	-0,070	-0,069
-135,643	-200,000	0,011	-0,072
-134,629	291,360	-0,053	-0,070
-133,614	-200,000	0,011	0,090
-132,599	-124,297	-0,112	-0,013
-131,585	22,031	-0,015	0,009
-130,570	-200,000	0,004	-0,028
-129,556	-119,494	0,041	-0,005
-128,541	53,078	-0,079	0,055
-127,526	-200,000	0,010	0,089
-126,512	-200,000	0,008	-0,045
-125,497	-170,958	0,132	-0,003
-124,483	800,000	0,040	0,098
-123,468	-91,138	0,038	-0,008
-122,453	695,138	-0,031	0,060
-121,439	800,000	0,049	-0,130
-120,424	800,000	0,050	-0,156
-119,410	-133,319	0,072	0,007
