DTS Sentinel unit serial number:	SN410029Multiplexer serial number:	ORYXHardware model number:	OX2-SRSoftware version number:	ORYX F/W v4,00 Oryx Data Collector v3.7.2.0data status	okinstallation	B6 Nyhavnadifferential loss correction	single-endedforward channel	channel 2reverse channel	N/Adate	2023/12/10time	13:50:08forward acquisition time	300,00reverse acquisition time	0,00gamma	499,1914k internal	0,3122k external	0,3122temperature offset calibration	1,0000default loss term (dB/km)	0,3820temperature slope calibration	1,0000multiplexer offset coefficient	1,0000multiplexer slope coefficient	1,0000fibre end	0,00T internal ref (°C)	22,74T ext. ref 1 (°C)	6,26T ext. ref 2 (°C)	6,27length (m)	temperature (°C)	Stokes	anti-Stokes-744,400	347,386	0,027	-0,040
-743,385	-92,512	-0,327	0,068
-742,371	93,054	0,029	0,025
-741,356	-50,144	-0,198	0,069
-740,342	-200,000	-0,002	-0,075
-739,327	-69,020	-0,253	0,072
-738,312	-27,013	0,070	0,030
-737,298	-24,826	-0,208	0,092
-736,283	-200,000	0,013	-0,127
-735,269	-29,141	-0,282	0,120
-734,254	311,928	-0,062	-0,087
-733,239	6,113	-0,339	-0,187
-732,225	119,891	0,077	0,071
-731,210	48,583	-0,077	0,054
-730,196	362,080	0,098	-0,147
-729,181	-200,000	-0,022	-0,123
-728,167	800,000	0,040	-0,118
-727,152	90,735	-0,069	-0,057
-726,137	45,573	0,110	-0,076
-725,123	4,442	-0,044	-0,024
-724,108	53,450	-0,125	0,089
-723,094	800,000	-0,039	0,122
-722,079	800,000	0,045	0,096
-721,064	800,000	0,028	0,084
-720,050	-121,497	0,074	0,009
-719,035	93,641	-0,037	-0,031
-718,021	-89,807	0,071	-0,015
-717,006	27,584	-0,097	-0,061
-715,991	800,000	-0,054	-0,161
-714,977	-73,169	-0,083	-0,022
-713,962	19,761	-0,066	0,040
-712,948	-48,743	-0,117	-0,041
-711,933	-200,000	0,004	0,099
-710,918	641,561	0,046	0,087
-709,904	-92,272	-0,028	0,006
-708,889	41,403	-0,102	0,069
-707,875	-200,000	-0,009	0,031
-706,860	96,451	0,123	0,105
-705,845	-35,202	0,098	-0,040
-704,831	51,047	0,068	0,048
-703,816	453,484	0,050	0,083
-702,802	-200,000	0,009	-0,041
-701,787	-2,882	-0,070	0,036
-700,772	800,000	0,020	-0,058
-699,758	-31,844	-0,059	-0,024
-698,743	28,997	0,078	-0,049
-697,729	104,118	0,110	-0,096
-696,714	-27,737	-0,056	-0,024
-695,699	-200,000	-0,001	-0,015
-694,685	61,948	-0,029	-0,021
-693,670	22,969	-0,043	0,026
-692,656	121,992	0,058	-0,054
-691,641	-51,159	0,155	0,054
-690,627	-150,303	-0,103	0,006
-689,612	-176,241	-0,131	-0,002
-688,597	800,000	-0,040	-0,109
-687,583	-200,000	-0,003	-0,087
-686,568	-51,919	-0,034	-0,012
-685,554	-200,000	0,003	0,018
-684,539	99,785	0,066	0,057
-683,524	512,138	-0,063	0,109
-682,510	-98,282	0,165	0,031
-681,495	-162,276	-0,143	-0,005
-680,481	358,598	-0,076	0,113
-679,466	-134,098	-0,039	-0,004
-678,451	42,390	0,200	0,135
-677,437	341,611	0,055	0,080
-676,422	-200,000	-0,009	0,105
-675,408	24,308	-0,059	0,036
-674,393	-200,000	0,027	-0,118
-673,378	800,000	-0,042	-0,104
-672,364	194,863	-0,049	-0,055
-671,349	291,551	-0,026	0,035
-670,335	800,000	-0,041	-0,089
-669,320	-66,211	0,088	0,026
-668,305	800,000	0,027	0,065
-667,291	418,206	0,036	-0,058
-666,276	-200,000	0,026	-0,106
-665,262	-168,302	-0,158	-0,004
-664,247	93,518	0,056	-0,047
-663,232	139,173	-0,040	0,039
-662,218	29,108	-0,097	-0,061
-661,203	-87,923	-0,017	0,004
-660,189	35,026	-0,095	0,062
-659,174	-65,544	-0,095	-0,028
-658,159	157,041	-0,036	0,037
-657,145	744,216	-0,037	-0,075
-656,130	74,422	0,013	-0,010
-655,116	9,603	0,048	0,027
-654,101	-5,056	-0,112	0,057
-653,086	485,267	-0,051	0,087
-652,072	800,000	0,027	0,078
-651,057	-45,570	-0,119	0,044
-650,043	301,166	0,043	0,059
-649,028	-200,000	0,031	-0,149
-648,014	-22,360	0,031	0,014
-646,999	-111,975	0,095	-0,014
-645,984	-200,000	-0,009	0,105
-644,970	800,000	0,054	0,156
-643,955	-171,739	-0,114	-0,003
-642,941	352,672	-0,108	-0,159
-641,926	-136,341	0,177	-0,015
-640,911	-200,000	0,013	0,053
-639,897	800,000	0,030	-0,065
-638,882	91,437	0,060	0,050
-637,868	-200,000	0,004	0,036
-636,853	698,323	0,055	-0,108
-635,838	159,331	-0,091	0,094
-634,824	61,580	-0,068	-0,050
-633,809	-92,710	0,138	-0,029
-632,795	-200,000	0,013	0,101
-631,780	-59,419	0,029	-0,009
-630,765	-200,000	0,019	0,068
-629,751	-200,000	-0,025	0,167
-628,736	800,000	-0,037	-0,084
-627,722	70,563	-0,025	0,019
-626,707	138,940	0,059	0,057
-625,692	-146,780	-0,081	-0,005
-624,678	97,385	0,063	0,053
-623,663	77,429	0,042	-0,033
-622,649	800,000	-0,056	-0,131
-621,634	470,823	0,017	-0,028
-620,619	-200,000	0,034	-0,117
-619,605	-16,440	0,026	0,012
-618,590	297,738	-0,097	0,133
-617,576	643,815	0,011	0,021
-616,561	800,000	-0,004	-0,009
-615,546	-200,000	-0,001	0,005
-614,532	328,080	-0,048	0,069
-613,517	-82,024	0,031	0,008
-612,503	-129,151	-0,109	-0,011
-611,488	525,307	-0,009	0,016
-610,474	505,224	-0,040	0,069
-609,459	323,155	-0,026	-0,037
-608,444	-59,019	-0,059	-0,019
-607,430	-200,000	-0,007	-0,069
-606,415	800,000	-0,038	-0,102
-605,401	-200,000	-0,011	-0,124
-604,386	433,493	-0,057	-0,092
-603,371	166,019	0,035	0,037
-602,357	-189,663	-0,014	-0,000
-601,342	800,000	-0,022	0,065
-600,328	-115,219	0,160	-0,022
-599,313	217,856	-0,039	-0,046
-598,298	-200,000	-0,029	-0,139
-597,284	103,723	0,032	0,028
-596,269	6,413	0,114	-0,063
-595,255	-188,581	-0,135	-0,001
-594,240	800,000	0,095	-0,220
-593,225	-200,000	-0,027	-0,098
-592,211	-56,575	-0,147	-0,048
-591,196	-84,037	-0,127	-0,030
-590,182	-200,000	-0,019	-0,067
-589,167	38,161	0,002	0,001
-588,152	-58,165	0,143	0,046
-587,138	-114,831	-0,017	-0,002
-586,123	508,377	0,035	0,060
-585,109	-200,000	-0,006	-0,142
-584,094	-30,958	-0,134	-0,056
-583,079	-200,000	-0,004	0,170
-582,065	29,485	0,056	-0,035
-581,050	-200,000	-0,022	0,116
-580,036	-48,233	-0,121	-0,043
-579,021	680,942	0,031	-0,061
-578,006	327,965	-0,073	-0,105
-576,992	88,452	-0,108	-0,089
-575,977	-200,000	-0,042	-0,139
-574,963	154,965	-0,100	-0,102
-573,948	-200,000	-0,006	-0,032
-572,934	-71,811	-0,185	0,051
-571,919	-146,566	-0,142	-0,009
-570,904	-68,895	0,103	0,029
-569,890	438,888	0,036	-0,058
-568,875	-200,000	-0,006	0,156
-567,861	-200,000	-0,014	-0,150
-566,846	-200,000	0,001	-0,130
-565,831	-124,018	-0,055	-0,006
-564,817	-89,409	-0,038	-0,008
-563,802	508,199	0,059	-0,102
-562,788	-200,000	-0,002	-0,055
-561,773	-57,605	-0,118	0,038
-560,758	7,811	-0,038	-0,021
-559,744	52,848	0,159	-0,112
-558,729	-200,000	-0,013	0,076
-557,715	-146,710	-0,080	0,005
-556,700	183,724	-0,011	0,012
-555,685	-102,190	0,140	0,025
-554,671	800,000	0,048	0,101
-553,656	233,317	-0,073	0,089
-552,642	-200,000	0,022	-0,087
-551,627	-186,796	0,031	0,000
-550,612	-200,000	0,010	-0,034
-549,598	-65,045	-0,192	-0,057
-548,583	272,295	0,018	-0,024
-547,569	-110,768	0,139	0,021
-546,554	490,457	0,066	0,113
-545,539	21,829	-0,038	0,023
-544,525	800,000	-0,022	-0,066
-543,510	-200,000	-0,007	-0,041
-542,496	-200,000	0,003	0,080
-541,481	-24,998	-0,082	-0,036
-540,466	-63,430	-0,035	-0,010
-539,452	396,669	-0,067	0,103
-538,437	38,157	0,043	-0,028
-537,423	-163,401	-0,068	0,002
-536,408	6,319	-0,063	-0,034
-535,393	-64,282	-0,115	-0,034
-534,379	-200,000	-0,008	-0,079
-533,364	800,000	0,026	0,073
-532,350	-75,370	-0,010	-0,003
-531,335	31,593	0,059	-0,037
-530,321	147,000	-0,074	-0,073
-529,306	389,930	-0,060	0,092
-528,291	800,000	-0,015	-0,034
-527,277	-200,000	-0,024	-0,100
-526,262	690,901	0,021	-0,041
-525,248	-200,000	0,002	0,053
-524,233	-97,443	-0,047	-0,009
-523,218	-200,000	0,064	-0,000
-522,204	174,695	-0,034	0,037
-521,189	409,125	-0,051	0,079
-520,175	42,302	-0,051	0,034
-519,160	7,304	-0,033	-0,018
-518,145	49,969	0,048	0,034
-517,131	8,772	0,071	0,039
-516,116	-200,000	-0,049	0,201
-515,102	-137,080	-0,006	0,001
-514,087	504,044	0,035	-0,059
-513,072	800,000	-0,052	0,138
-512,058	-200,000	-0,032	-0,158
-511,043	-109,439	0,162	-0,025
-510,029	800,000	-0,062	0,199
-509,014	39,428	-0,100	-0,066
-507,999	-133,299	-0,072	-0,007
-506,985	800,000	0,011	-0,036
-505,970	509,221	0,081	-0,139
-504,956	-200,000	0,019	0,085
-503,941	-100,472	-0,051	0,009
-502,926	800,000	0,056	0,116
-501,912	-4,548	-0,069	-0,035
-500,897	195,887	-0,066	0,075
-499,883	461,310	-0,041	0,067
-498,868	499,796	-0,051	0,087
-497,853	626,189	-0,084	-0,157
-496,839	-87,148	0,070	-0,016
-495,824	36,644	0,092	0,060
-494,810	-148,497	-0,036	0,002
-493,795	384,087	-0,026	0,040
-492,781	800,000	-0,037	0,106
-491,766	35,658	0,038	-0,025
-490,751	800,000	0,042	-0,108
-489,737	596,311	-0,069	-0,127
-488,722	-176,190	0,143	-0,003
-487,708	-10,710	0,157	-0,076
-486,693	202,275	-0,033	0,038
-485,678	-55,818	0,033	-0,011
-484,664	800,000	0,092	-0,210
-483,649	-93,567	0,119	-0,024
-482,635	800,000	0,026	-0,062
-481,620	579,059	-0,014	-0,026
-480,605	199,628	0,009	0,010
-479,591	51,316	-0,075	-0,052
-478,576	-40,325	-0,048	0,018
-477,562	296,581	0,035	-0,047
-476,547	-113,794	-0,028	-0,004
-475,532	-200,000	0,010	0,061
-474,518	-200,000	0,004	0,037
-473,503	-200,000	-0,026	-0,107
-472,489	-91,940	-0,159	0,033
-471,474	0,402	0,110	0,058
-470,459	117,870	0,089	-0,080
-469,445	-61,879	0,139	-0,043
-468,430	-118,462	0,073	-0,009
-467,416	-200,000	0,029	0,168
-466,401	369,544	0,051	0,076
-465,386	94,962	0,076	0,064
-464,372	-200,000	-0,029	0,142
-463,357	144,469	-0,032	-0,032
-462,343	-78,148	-0,067	-0,017
-461,328	24,404	-0,048	-0,029
-460,313	-94,076	-0,119	0,024
-459,299	-98,489	0,080	-0,015
-458,284	698,188	-0,035	0,069
-457,270	4,045	0,027	-0,014
-456,255	549,253	-0,046	-0,081
-455,241	-24,158	0,029	0,013
-454,226	304,596	-0,064	-0,088
-453,211	664,979	0,056	-0,107
-452,197	180,191	0,062	0,067
-451,182	155,628	-0,097	0,098
-450,168	-73,318	-0,072	-0,019
-449,153	31,015	-0,089	-0,056
-448,138	86,336	0,075	0,061
-447,124	-137,284	-0,063	0,005
-446,109	83,820	-0,055	0,044
-445,095	800,000	0,059	0,142
-444,080	-79,974	0,016	-0,004
-443,065	8,914	-0,038	0,021
-442,051	800,000	-0,027	-0,079
-441,036	442,282	-0,059	-0,096
-440,022	793,723	-0,063	-0,129
-439,007	121,703	0,196	-0,180
-437,992	-200,000	-0,002	-0,110
-436,978	434,229	0,063	0,101
-435,963	183,201	0,116	0,126
-434,949	547,173	-0,088	-0,156
-433,934	-200,000	0,001	-0,040
-432,919	-179,190	0,140	0,002
-431,905	-200,000	0,008	-0,040
-430,890	-200,000	-0,019	0,073
-429,876	-27,223	0,094	0,040
-428,861	-186,421	-0,093	0,001
-427,846	-200,000	-0,031	0,167
-426,832	314,279	-0,024	0,034
-425,817	-66,262	-0,167	-0,049
-424,803	800,000	-0,035	-0,079
-423,788	-123,527	-0,116	-0,013
-422,773	12,860	0,061	0,035
-421,759	-200,000	0,002	0,009
-420,744	-200,000	-0,012	-0,040
-419,730	-144,025	-0,129	-0,009
-418,715	145,256	0,026	-0,025
-417,701	77,379	0,013	-0,010
-416,686	123,955	-0,088	0,082
-415,671	116,816	0,042	-0,038
-414,657	107,196	0,021	-0,018
-413,642	800,000	0,007	0,015
-412,628	171,316	0,046	0,049
-411,613	161,645	0,049	0,050
-410,598	-62,965	-0,076	0,023
-409,584	-128,757	-0,009	0,001
-408,569	-200,000	0,002	0,051
-407,555	-200,000	0,011	0,051
-406,540	-81,112	0,091	-0,022
-405,525	-155,219	-0,085	0,004
-404,511	236,370	0,052	-0,064
-403,496	-56,737	-0,087	-0,028
-402,482	230,028	0,097	-0,117
-401,467	-21,304	-0,108	0,048
-400,452	250,888	0,034	0,043
-399,438	-139,501	0,070	-0,005
-398,423	-200,000	-0,027	-0,112
-397,409	776,820	0,052	-0,105
-396,394	325,586	-0,068	-0,096
-395,379	-9,099	0,072	-0,035
-394,365	536,680	0,064	0,113
-393,350	184,696	0,058	0,063
-392,336	-43,063	0,092	0,034
-391,321	-200,000	0,044	-0,269
-390,306	-200,000	-0,010	0,120
-389,292	282,761	0,111	-0,147
-388,277	180,698	0,093	0,100
-387,263	-200,000	0,015	0,060
-386,248	504,624	0,020	-0,033
-385,233	-200,000	0,013	0,070
-384,219	174,562	0,066	-0,071
-383,204	-86,783	0,087	-0,019
-382,190	800,000	-0,047	0,139
-381,175	308,813	0,032	0,043
-380,160	587,642	0,064	0,116
-379,146	-79,846	0,181	0,044
-378,131	-115,766	0,067	0,009
-377,117	-72,849	-0,086	0,023
-376,102	-3,144	-0,093	-0,048
-375,088	545,624	0,037	0,065
-374,073	83,864	-0,044	0,035
-373,058	-112,845	-0,076	0,011
-372,044	-200,000	0,004	0,064
-371,029	85,109	0,130	0,105
-370,015	-200,000	-0,006	0,064
-369,000	-36,580	-0,172	0,068
-367,985	30,148	-0,028	0,018
-366,971	-200,000	0,003	0,019
-365,956	-73,986	0,102	-0,027
-364,942	-44,309	0,066	-0,024
-363,927	-49,304	0,082	0,028
-362,912	800,000	-0,075	0,154
-361,898	-131,305	-0,162	-0,016
-360,883	123,155	-0,053	0,049
-359,869	800,000	0,040	0,082
-358,854	-12,597	-0,090	-0,043
-357,839	-166,303	0,068	-0,002
-356,825	21,285	0,059	0,035
-355,810	-200,000	0,016	-0,074
-354,796	-139,550	-0,046	-0,004
-353,781	318,254	0,039	-0,055
-352,766	8,619	-0,083	0,046
-351,752	-137,877	0,059	-0,005
-350,737	-83,398	-0,154	0,036
-349,723	800,000	0,062	-0,199
-348,708	510,445	-0,023	-0,039
-347,693	280,299	-0,017	-0,022
-346,679	800,000	-0,069	-0,158
-345,664	725,725	0,045	-0,088
-344,650	-84,227	0,036	0,008
-343,635	330,333	0,048	-0,068
-342,620	-34,170	0,091	0,037
-341,606	-129,136	0,105	0,011
-340,591	333,281	0,059	0,085
-339,577	-122,613	-0,135	0,016
-338,562	-200,000	-0,002	-0,050
-337,548	-78,839	0,106	-0,026
-336,533	-200,000	0,004	0,025
-335,518	292,570	0,075	-0,101
-334,504	145,413	0,018	-0,018
-333,489	800,000	-0,034	-0,086
-332,475	-200,000	0,008	-0,098
-331,460	-107,253	0,083	-0,013
-330,445	-99,998	-0,079	-0,014
-329,431	387,336	0,088	-0,134
-328,416	24,626	-0,027	0,017
-327,402	-64,742	0,061	0,018
-326,387	77,029	0,098	0,076
-325,372	103,162	-0,129	-0,111
-324,358	800,000	-0,045	0,105
-323,343	-175,619	-0,099	0,002
-322,329	-200,000	0,015	0,129
-321,314	800,000	-0,035	0,097
-320,299	-38,327	0,074	0,028
-319,285	132,033	0,093	0,088
-318,270	230,494	-0,029	0,035
-317,256	214,402	0,091	0,106
-316,241	-73,477	0,083	-0,022
-315,226	-200,000	-0,002	-0,006
-314,212	473,552	-0,059	0,097
-313,197	-200,000	-0,018	-0,145
-312,183	129,420	-0,056	-0,053
-311,168	83,139	0,072	0,058
-310,153	-154,096	-0,196	0,010
-309,139	5,583	-0,032	-0,017
-308,124	615,238	-0,009	0,017
-307,110	-200,000	-0,026	0,163
-306,095	70,110	-0,024	-0,018
-305,080	-200,000	-0,021	0,118
-304,066	-49,792	0,062	-0,021
-303,051	14,108	0,042	-0,024
-302,037	0,280	-0,119	-0,062
-301,022	9,336	0,102	0,056
-300,008	-96,416	0,052	0,010
-298,993	-68,414	0,057	-0,016
-297,978	-42,102	0,126	0,047
-296,964	36,537	-0,121	0,078
-295,949	-200,000	-0,032	0,127
-294,935	-97,810	-0,074	0,014
-293,920	47,866	0,084	-0,057
-292,905	-25,680	-0,057	0,025
-291,891	-200,000	-0,014	0,137
-290,876	-42,040	0,128	0,048
-289,862	20,183	0,085	0,050
-288,847	315,819	-0,125	-0,173
-287,832	30,207	-0,101	-0,063
-286,818	-14,055	-0,059	0,028
-285,803	-94,547	0,096	-0,019
-284,789	38,355	-0,122	-0,080
-283,774	800,000	0,035	0,075
-282,759	-93,997	0,199	0,040
-281,745	-76,486	-0,116	-0,030
-280,730	122,154	-0,064	0,059
-279,716	-200,000	-0,011	-0,194
-278,701	468,679	-0,021	-0,034
-277,686	66,931	-0,076	0,057
-276,672	-51,773	0,057	0,019
-275,657	99,191	0,038	-0,033
-274,643	274,602	-0,099	0,129
-273,628	26,343	0,070	-0,042
-272,613	421,794	0,015	-0,024
-271,599	-200,000	-0,004	0,032
-270,584	-97,502	-0,036	0,007
-269,570	-52,048	0,052	0,018
-268,555	-200,000	-0,023	0,121
-267,540	339,277	-0,021	-0,030
-266,526	-200,000	-0,002	0,079
-265,511	-120,303	0,093	0,011
-264,497	56,316	-0,057	-0,040
-263,482	476,996	0,044	0,072
-262,467	800,000	-0,088	0,179
-261,453	800,000	-0,028	0,068
-260,438	-63,454	-0,111	0,033
-259,424	40,539	-0,026	0,017
-258,409	-103,252	-0,039	0,007
-257,395	800,000	0,031	0,096
-256,380	67,537	-0,050	0,038
-255,365	44,888	-0,037	0,025
-254,351	66,408	0,054	-0,040
-253,336	460,509	-0,031	0,050
-252,322	192,254	-0,124	0,137
-251,307	-200,000	0,053	0,173
-250,292	-200,000	-0,005	0,075
-249,278	-111,811	0,211	-0,031
-248,263	-5,770	-0,053	0,026
-247,249	376,803	-0,025	-0,037
-246,234	800,000	0,046	-0,125
-245,219	-56,228	-0,127	0,041
-244,205	-200,000	-0,029	-0,163
-243,190	-153,507	0,249	0,012
-242,176	-58,897	0,116	-0,037
-241,161	-114,126	0,116	0,016
-240,146	16,245	-0,046	-0,026
-239,132	-48,229	-0,017	-0,006
-238,117	-200,000	-0,034	-0,115
-237,103	130,121	0,054	0,051
-236,088	437,052	0,060	-0,097
-235,073	308,995	-0,094	0,129
-234,059	-116,287	-0,099	0,013
-233,044	-200,000	-0,002	0,116
-232,030	177,810	0,020	-0,022
-231,015	-200,000	0,006	-0,046
-230,000	139,867	0,037	-0,035
-228,986	-44,413	-0,080	0,029
-227,971	3,183	0,014	-0,007
-226,957	-35,561	0,066	0,026
-225,942	-200,000	-0,014	-0,097
-224,927	800,000	-0,042	-0,098
-223,913	392,915	-0,059	-0,090
-222,898	-200,000	-0,025	-0,081
-221,884	383,599	-0,072	0,109
-220,869	43,234	0,052	0,035
-219,855	176,038	0,096	-0,102
-218,840	363,652	-0,046	0,068
-217,825	-200,000	-0,002	0,214
-216,811	-89,045	0,054	0,012
-215,796	800,000	-0,063	0,169
-214,782	-200,000	-0,015	-0,076
-213,767	800,000	-0,037	0,101
-212,752	800,000	0,008	0,018
-211,738	340,087	-0,004	0,005
-210,723	-24,964	0,117	-0,051
-209,709	80,959	-0,064	-0,050
-208,694	800,000	-0,062	-0,135
-207,679	-95,075	-0,069	-0,014
-206,665	55,027	0,061	-0,043
-205,650	89,748	0,064	0,052
-204,636	165,783	0,032	-0,033
-203,621	188,507	-0,046	-0,050
-202,606	800,000	0,021	-0,044
-201,592	-200,000	-0,020	0,122
-200,577	800,000	0,021	0,052
-199,563	-200,000	0,016	-0,175
-198,548	-123,979	0,090	-0,010
-197,533	-200,000	0,009	0,044
-196,519	-200,000	0,001	-0,043
-195,504	-24,660	0,073	0,032
-194,490	-76,772	-0,049	0,013
-193,475	120,804	-0,044	-0,040
-192,460	146,015	0,119	-0,117
-191,446	800,000	-0,027	-0,067
-190,431	-134,741	0,048	-0,004
-189,417	-39,581	-0,159	-0,060
-188,402	139,091	0,120	-0,116
-187,387	215,264	0,108	-0,125
-186,373	-151,525	0,051	-0,003
-185,358	191,867	-0,034	-0,037
-184,344	-80,855	0,089	0,021
-183,329	-136,876	0,106	0,009
-182,315	-132,663	-0,045	-0,004
-181,300	800,000	0,007	0,021
-180,285	-25,199	0,058	-0,025
-179,271	-15,842	-0,117	0,054
-178,256	190,869	0,062	0,068
-177,242	178,869	0,047	0,050
-176,227	110,954	-0,068	-0,060
-175,212	-124,686	0,183	0,020
-174,198	348,209	-0,042	0,061
-173,183	125,659	-0,085	-0,078
-172,169	40,576	-0,031	0,020
-171,154	800,000	-0,030	0,094
-170,139	10,313	0,100	-0,055
-169,125	103,889	0,024	-0,020
-168,110	358,618	-0,065	0,095
-167,096	190,663	0,061	0,067
-166,081	572,273	-0,059	0,106
-165,066	34,737	-0,061	-0,039
-164,052	-59,449	0,075	-0,023
-163,037	-29,968	0,027	-0,011
-162,023	715,608	0,075	0,146
-161,008	624,554	0,111	0,205
-159,993	800,000	-0,022	-0,067
-158,979	33,906	-0,019	0,012
-157,964	700,335	-0,031	0,060
-156,950	800,000	-0,048	-0,101
-155,935	44,142	-0,086	-0,057
-154,920	308,050	0,087	0,119
-153,906	-6,949	-0,063	-0,031
-152,891	48,127	0,004	-0,003
-151,877	-16,272	0,081	-0,037
-150,862	-200,000	0,007	-0,137
-149,847	-200,000	0,015	0,053
-148,833	800,000	-0,003	0,011
-147,818	469,990	0,097	0,160
-146,804	-87,299	-0,034	-0,007
-145,789	300,268	-0,072	0,097
-144,775	-200,000	0,022	-0,091
-143,760	-104,516	-0,156	-0,026
-142,745	265,887	0,040	0,050
-141,731	170,201	0,073	0,076
-140,716	-166,162	-0,029	-0,001
-139,702	-67,427	-0,016	0,004
-138,687	238,029	-0,027	-0,033
-137,672	800,000	-0,036	-0,072
-136,658	518,866	0,092	-0,158
-135,643	402,278	-0,069	-0,106
-134,629	22,709	-0,098	-0,059
-133,614	8,624	-0,047	0,026
-132,599	-26,880	0,109	-0,046
-131,585	330,818	0,056	0,079
-130,570	-200,000	-0,005	0,028
-129,556	86,222	0,093	-0,075
-128,541	87,999	-0,041	-0,033
-127,526	63,911	0,083	0,061
-126,512	-200,000	0,024	0,231
-125,497	83,642	-0,046	-0,037
-124,483	800,000	0,023	-0,067
-123,468	-200,000	0,018	0,083
-122,453	231,788	-0,038	0,045
-121,439	-53,053	-0,087	-0,029
-120,424	-200,000	0,005	-0,116
-119,410	-136,569	0,075	0,006
-118,395	-90,915	0,141	0,029
