DTS Sentinel unit serial number:	SN410029Multiplexer serial number:	ORYXHardware model number:	OX2-SRSoftware version number:	ORYX F/W v4,00 Oryx Data Collector v3.7.2.0data status	okinstallation	B6 Nyhavnadifferential loss correction	single-endedforward channel	channel 2reverse channel	N/Adate	2023/12/10time	15:10:08forward acquisition time	300,00reverse acquisition time	0,00gamma	499,1914k internal	0,3122k external	0,3122temperature offset calibration	1,0000default loss term (dB/km)	0,3820temperature slope calibration	1,0000multiplexer offset coefficient	1,0000multiplexer slope coefficient	1,0000fibre end	0,00T internal ref (°C)	22,50T ext. ref 1 (°C)	5,94T ext. ref 2 (°C)	5,95length (m)	temperature (°C)	Stokes	anti-Stokes-744,400	800,000	-0,010	-0,029
-743,385	18,894	-0,122	0,072
-742,371	79,827	0,059	-0,047
-741,356	-26,188	-0,236	0,103
-740,342	241,112	0,037	0,046
-739,327	-74,683	-0,212	0,056
-738,312	-34,688	-0,068	-0,028
-737,298	-22,339	-0,307	0,138
-736,283	130,406	0,015	0,014
-735,269	72,445	-0,067	0,052
-734,254	-200,000	0,024	-0,122
-733,239	-147,328	-0,343	0,021
-732,225	-23,344	0,214	-0,095
-731,210	-90,648	0,033	0,007
-730,196	110,958	-0,048	-0,043
-729,181	362,548	-0,058	-0,087
-728,167	-200,000	0,005	-0,180
-727,152	283,294	-0,026	-0,035
-726,137	395,120	0,034	-0,052
-725,123	800,000	0,025	0,058
-724,108	-23,864	0,055	0,024
-723,094	17,500	-0,104	-0,062
-722,079	-200,000	0,003	-0,017
-721,064	527,867	0,065	0,114
-720,050	5,841	-0,046	-0,025
-719,035	-108,822	-0,110	-0,017
-718,021	-146,909	-0,015	-0,001
-717,006	26,622	-0,085	0,053
-715,991	-200,000	0,009	0,069
-714,977	-158,980	-0,080	0,003
-713,962	-200,000	-0,009	-0,047
-712,948	-39,249	-0,149	-0,058
-711,933	532,508	-0,053	-0,094
-710,918	175,800	-0,064	-0,070
-709,904	800,000	-0,056	-0,126
-708,889	10,467	-0,184	-0,104
-707,875	-200,000	0,024	-0,108
-706,860	463,909	0,080	-0,134
-705,845	800,000	-0,031	0,084
-704,831	-45,088	-0,153	-0,057
-703,816	800,000	-0,035	-0,112
-702,802	800,000	-0,015	0,031
-701,787	800,000	0,067	-0,142
-700,772	416,686	0,045	0,071
-699,758	795,736	0,067	-0,139
-698,743	192,964	-0,041	0,046
-697,729	-200,000	-0,013	0,061
-696,714	-17,295	-0,105	0,049
-695,699	212,437	-0,081	0,095
-694,685	-200,000	-0,018	-0,075
-693,670	279,455	-0,074	-0,099
-692,656	151,767	0,087	-0,088
-691,641	-156,269	-0,077	-0,004
-690,627	125,781	0,075	0,070
-689,612	-106,918	-0,079	-0,013
-688,597	86,216	-0,132	-0,108
-687,583	-35,839	0,128	-0,051
-686,568	-139,472	-0,164	-0,013
-685,554	166,896	0,092	-0,097
-684,539	-35,454	-0,169	-0,068
-683,524	69,094	0,082	0,063
-682,510	-200,000	0,005	-0,026
-681,495	501,970	0,045	-0,078
-680,481	-107,156	-0,100	0,016
-679,466	-42,659	-0,181	-0,068
-678,451	800,000	-0,037	-0,098
-677,437	81,608	-0,121	-0,097
-676,422	84,952	0,083	-0,068
-675,408	-200,000	-0,001	0,049
-674,393	-132,659	-0,087	0,008
-673,378	243,901	0,088	-0,110
-672,364	-135,341	-0,114	-0,010
-671,349	-49,416	0,044	0,016
-670,335	-99,043	-0,080	-0,015
-669,320	56,758	0,092	0,066
-668,305	121,120	-0,096	-0,089
-667,291	-18,880	0,049	0,023
-666,276	-52,951	-0,104	0,035
-665,262	384,735	-0,084	-0,128
-664,247	-82,690	0,070	0,017
-663,232	12,207	0,039	-0,022
-662,218	-200,000	0,012	0,042
-661,203	-102,790	0,059	0,010
-660,189	800,000	-0,015	0,039
-659,174	-200,000	0,010	-0,068
-658,159	201,099	0,046	0,052
-657,145	-93,669	-0,181	-0,037
-656,130	-56,681	0,059	-0,019
-655,116	298,046	0,102	-0,140
-654,101	144,161	0,113	0,112
-653,086	800,000	-0,041	0,131
-652,072	-144,026	-0,110	-0,008
-651,057	-200,000	-0,007	-0,083
-650,043	-45,034	0,088	-0,033
-649,028	20,082	0,103	0,061
-648,014	-134,808	0,065	-0,006
-646,999	128,667	-0,018	0,017
-645,984	-145,251	-0,058	-0,004
-644,970	-200,000	-0,007	0,034
-643,955	599,064	-0,099	-0,183
-642,941	295,349	-0,110	-0,150
-641,926	800,000	0,056	0,116
-640,911	68,799	-0,026	-0,020
-639,897	800,000	0,021	0,067
-638,882	-200,000	-0,040	-0,184
-637,868	800,000	-0,070	-0,204
-636,853	758,502	-0,071	-0,144
-635,838	-200,000	-0,003	-0,017
-634,824	152,228	-0,040	-0,041
-633,809	422,107	-0,025	-0,041
-632,795	-136,773	-0,062	-0,005
-631,780	28,428	0,087	0,054
-630,765	766,916	-0,072	-0,145
-629,751	54,414	0,135	-0,096
-628,736	-200,000	0,032	-0,287
-627,722	-200,000	-0,005	-0,036
-626,707	-200,000	0,014	0,129
-625,692	467,828	0,026	0,043
-624,678	-185,403	0,103	-0,001
-623,663	800,000	0,045	-0,121
-622,649	74,180	-0,093	-0,072
-621,634	458,054	-0,065	0,108
-620,619	-43,964	-0,083	0,031
-619,605	-60,103	-0,088	-0,028
-618,590	5,593	0,041	-0,023
-617,576	-200,000	-0,021	0,079
-616,561	800,000	0,033	-0,078
-615,546	180,024	-0,074	-0,080
-614,532	-200,000	0,003	-0,166
-613,517	423,968	-0,021	-0,034
-612,503	96,036	0,052	-0,044
-611,488	-130,812	-0,007	-0,001
-610,474	595,766	0,018	-0,034
-609,459	12,291	0,076	-0,043
-608,444	78,592	0,133	-0,105
-607,430	-39,008	-0,062	-0,024
-606,415	81,357	-0,098	-0,078
-605,401	268,394	-0,056	0,073
-604,386	542,858	-0,069	0,123
-603,371	-26,979	0,058	-0,025
-602,357	-200,000	0,020	0,088
-601,342	796,267	0,065	-0,133
-600,328	-200,000	0,017	-0,063
-599,313	-30,527	0,054	-0,023
-598,298	362,019	-0,085	-0,127
-597,284	-121,419	-0,048	0,006
-596,269	128,703	0,061	-0,058
-595,255	244,435	-0,063	-0,079
-594,240	-200,000	-0,028	-0,151
-593,225	800,000	-0,014	0,030
-592,211	585,499	-0,022	-0,041
-591,196	106,219	0,033	0,029
-590,182	-66,738	-0,114	-0,033
-589,167	-200,000	0,016	-0,089
-588,152	-200,000	0,012	0,182
-587,138	65,711	-0,064	-0,048
-586,123	-200,000	-0,045	-0,163
-585,109	-200,000	-0,005	0,030
-584,094	183,531	0,057	0,062
-583,079	-118,529	0,078	0,010
-582,065	-45,938	-0,019	-0,007
-581,050	111,532	-0,084	0,075
-580,036	-200,000	-0,037	0,188
-579,021	-26,908	-0,028	0,012
-578,006	81,829	-0,016	0,013
-576,992	-200,000	-0,008	-0,199
-575,977	-200,000	-0,031	-0,110
-574,963	424,141	-0,034	-0,054
-573,948	532,511	-0,061	0,107
-572,934	406,573	-0,039	-0,061
-571,919	376,486	0,146	-0,222
-570,904	-3,980	0,106	0,054
-569,890	-130,457	-0,044	0,004
-568,875	-200,000	-0,011	0,053
-567,861	-94,825	0,094	0,019
-566,846	800,000	0,007	0,022
-565,831	101,864	-0,108	-0,093
-564,817	-200,000	-0,001	0,158
-563,802	-118,667	0,086	-0,011
-562,788	199,098	-0,119	-0,135
-561,773	217,481	0,038	-0,045
-560,758	503,288	0,064	-0,110
-559,744	201,197	0,014	0,016
-558,729	-40,552	0,034	-0,013
-557,715	5,526	-0,119	-0,065
-556,700	-33,714	-0,061	-0,025
-555,685	-200,000	0,019	-0,082
-554,671	-200,000	0,003	-0,113
-553,656	-97,960	0,098	0,019
-552,642	39,792	0,084	-0,056
-551,627	-45,175	0,046	0,017
-550,612	800,000	0,045	0,127
-549,598	545,980	0,065	0,115
-548,583	-200,000	0,004	0,059
-547,569	-106,025	-0,097	0,016
-546,554	-69,098	0,115	-0,032
-545,539	-154,859	0,015	-0,001
-544,525	-200,000	0,009	0,177
-543,510	-200,000	-0,023	-0,234
-542,496	153,715	0,060	-0,061
-541,481	27,169	0,044	0,027
-540,466	-54,927	-0,100	-0,033
-539,452	-116,948	0,164	-0,022
-538,437	109,867	-0,033	0,030
-537,423	-200,000	-0,004	0,203
-536,408	714,125	0,014	0,027
-535,393	-1,223	-0,092	0,048
-534,379	252,177	-0,070	-0,089
-533,364	-85,700	0,018	-0,004
-532,350	800,000	0,019	-0,056
-531,335	-37,135	0,084	-0,033
-530,321	38,543	-0,036	-0,024
-529,306	-200,000	-0,002	0,086
-528,291	-200,000	-0,004	-0,053
-527,277	-9,305	-0,050	-0,025
-526,262	110,327	0,036	0,032
-525,248	173,510	0,059	0,063
-524,233	-25,172	0,062	-0,027
-523,218	274,571	0,103	-0,135
-522,204	-82,523	0,117	-0,028
-521,189	-200,000	-0,001	0,039
-520,175	232,405	-0,055	-0,067
-519,160	234,318	-0,052	-0,063
-518,145	46,840	0,093	-0,064
-517,131	-44,975	0,104	0,038
-516,116	48,139	0,092	0,064
-515,102	37,393	-0,131	0,086
-514,087	-0,307	-0,125	-0,066
-513,072	-200,000	-0,002	-0,087
-512,058	156,781	0,100	-0,102
-511,043	649,126	0,060	0,115
-510,029	37,826	-0,057	0,037
-509,014	503,306	-0,038	-0,065
-507,999	-74,726	0,035	-0,009
-506,985	-85,500	-0,036	-0,008
-505,970	122,441	-0,115	-0,106
-504,956	677,346	-0,043	-0,083
-503,941	-105,049	-0,121	-0,020
-502,926	348,824	-0,090	-0,132
-501,912	-200,000	-0,026	0,094
-500,897	800,000	0,009	0,023
-499,883	121,102	0,052	-0,048
-498,868	-120,104	-0,096	0,012
-497,853	-136,072	0,058	0,005
-496,839	-111,698	-0,082	-0,012
-495,824	21,598	0,131	-0,079
-494,810	-14,993	0,042	-0,020
-493,795	7,468	0,069	0,038
-492,781	-200,000	-0,035	-0,128
-491,766	107,777	-0,006	0,005
-490,751	-109,396	0,030	-0,005
-489,737	17,204	-0,070	-0,041
-488,722	-11,571	0,120	0,058
-487,708	-105,967	0,084	0,014
-486,693	56,804	0,077	0,056
-485,678	278,250	0,021	0,028
-484,664	-127,878	0,054	0,006
-483,649	800,000	-0,037	0,090
-482,635	800,000	-0,034	-0,072
-481,620	524,351	0,036	-0,062
-480,605	800,000	0,036	0,077
-479,591	-33,363	-0,131	0,053
-478,576	647,744	0,058	0,110
-477,562	800,000	-0,040	-0,121
-476,547	-200,000	0,004	-0,032
-475,532	330,064	-0,059	-0,084
-474,518	-4,765	0,096	-0,049
-473,503	237,481	-0,116	0,143
-472,489	-200,000	-0,018	0,084
-471,474	-200,000	0,004	0,055
-470,459	800,000	0,022	-0,063
-469,445	-59,659	-0,077	-0,024
-468,430	284,573	0,041	0,054
-467,416	51,183	0,065	-0,046
-466,401	-188,016	0,042	-0,000
-465,386	-16,510	-0,145	0,067
-464,372	-41,467	-0,031	0,012
-463,357	137,180	-0,128	0,124
-462,343	-127,338	-0,036	-0,004
-461,328	153,768	-0,106	0,107
-460,313	374,274	-0,068	0,103
-459,299	-200,000	-0,033	0,132
-458,284	35,572	0,162	0,105
-457,270	800,000	-0,052	0,115
-456,255	800,000	-0,025	-0,082
-455,241	323,582	0,083	0,116
-454,226	800,000	-0,036	-0,087
-453,211	-56,130	0,048	-0,016
-452,197	153,646	0,080	0,081
-451,182	800,000	0,077	0,233
-450,168	25,776	-0,168	-0,103
-449,153	130,673	0,038	-0,036
-448,138	197,361	-0,086	-0,097
-447,124	75,949	0,076	-0,059
-446,109	254,265	-0,066	0,083
-445,095	-200,000	0,007	0,141
-444,080	800,000	0,038	-0,123
-443,065	-107,427	0,064	-0,010
-442,051	-200,000	0,005	0,023
-441,036	-91,067	-0,043	-0,009
-440,022	-20,448	0,036	-0,016
-439,007	800,000	0,025	-0,072
-437,992	16,096	-0,058	0,034
-436,978	43,075	-0,087	-0,058
-435,963	-85,473	-0,060	0,014
-434,949	102,890	0,065	-0,056
-433,934	520,460	-0,028	-0,049
-432,919	-200,000	0,010	-0,168
-431,905	321,838	0,065	-0,091
-430,890	-31,881	0,080	-0,033
-429,876	328,585	-0,050	-0,071
-428,861	131,676	0,075	0,071
-427,846	37,836	0,070	-0,046
-426,832	-52,089	-0,057	0,020
-425,817	-200,000	0,015	-0,090
-424,803	-200,000	-0,000	0,002
-423,788	-6,599	0,058	-0,029
-422,773	800,000	-0,012	-0,036
-421,759	622,696	-0,039	-0,072
-420,744	-200,000	-0,014	-0,046
-419,730	-138,930	-0,138	0,011
-418,715	-129,231	-0,258	-0,026
-417,701	-200,000	-0,007	-0,024
-416,686	153,266	0,073	0,074
-415,671	-78,028	0,063	-0,016
-414,657	-200,000	0,106	0,000
-413,642	379,713	0,043	0,065
-412,628	533,368	-0,003	-0,005
-411,613	217,519	-0,043	-0,050
-410,598	95,140	0,056	0,047
-409,584	89,421	-0,069	0,057
-408,569	-174,318	-0,116	-0,002
-407,555	-63,813	0,119	-0,036
-406,540	-64,157	0,072	0,021
-405,525	-200,000	0,006	-0,052
-404,511	71,553	-0,010	-0,007
-403,496	82,658	-0,129	-0,103
-402,482	800,000	-0,023	0,068
-401,467	800,000	0,032	0,089
-400,452	-200,000	0,006	-0,039
-399,438	-55,935	0,110	-0,036
-398,423	-200,000	-0,001	0,063
-397,409	-127,029	-0,064	-0,007
-396,394	-200,000	-0,011	-0,072
-395,379	-82,573	0,107	0,025
-394,365	104,328	0,071	-0,062
-393,350	-200,000	0,001	0,014
-392,336	-200,000	-0,000	-0,013
-391,321	-66,435	-0,073	-0,021
-390,306	-54,219	0,043	-0,014
-389,292	-15,757	0,004	0,002
-388,277	800,000	0,049	0,106
-387,263	-200,000	0,029	0,094
-386,248	24,995	0,131	-0,080
-385,233	24,408	0,102	-0,062
-384,219	-200,000	-0,030	0,113
-383,204	28,614	0,044	-0,027
-382,190	459,812	-0,034	-0,056
-381,175	722,440	-0,029	-0,058
-380,160	141,997	0,046	0,045
-379,146	87,105	0,138	0,112
-378,131	-200,000	0,024	0,088
-377,117	-57,948	0,149	0,048
-376,102	253,409	-0,059	0,074
-375,088	800,000	-0,029	0,077
-374,073	294,818	-0,054	-0,072
-373,058	-82,779	-0,023	-0,005
-372,044	316,840	0,010	-0,014
-371,029	-200,000	0,014	-0,065
-370,015	-5,460	-0,160	0,080
-369,000	-200,000	-0,002	0,075
-367,985	800,000	0,024	-0,058
-366,971	-45,436	-0,025	0,009
-365,956	-200,000	0,014	0,112
-364,942	-38,548	-0,186	0,072
-363,927	-200,000	-0,001	0,059
-362,912	800,000	0,050	0,115
-361,898	14,270	-0,074	0,042
-360,883	-200,000	-0,004	-0,046
-359,869	-200,000	-0,001	0,078
-358,854	137,629	0,068	-0,065
-357,839	67,293	0,113	0,084
-356,825	434,509	0,093	0,148
-355,810	364,612	-0,020	0,030
-354,796	-200,000	-0,018	-0,062
-353,781	-70,931	-0,165	0,045
-352,766	-20,104	-0,042	-0,019
-351,752	-138,706	-0,068	0,005
-350,737	800,000	0,064	0,146
-349,723	800,000	0,021	0,044
-348,708	-10,449	-0,089	-0,043
-347,693	387,484	0,069	-0,104
-346,679	-200,000	0,051	-0,213
-345,664	-200,000	-0,014	-0,139
-344,650	-200,000	-0,059	0,202
-343,635	-148,148	0,126	0,008
-342,620	-200,000	-0,013	0,084
-341,606	-200,000	-0,040	0,136
-340,591	-200,000	-0,015	0,092
-339,577	123,605	-0,067	-0,062
-338,562	-200,000	0,015	0,051
-337,548	-67,382	0,095	-0,027
-336,533	-200,000	0,005	0,020
-335,518	124,797	0,079	0,073
-334,504	800,000	-0,022	0,051
-333,489	324,397	-0,023	-0,032
-332,475	-76,140	-0,050	0,013
-331,460	800,000	-0,022	-0,045
-330,445	243,850	-0,096	-0,118
-329,431	466,935	-0,058	-0,096
-328,416	15,455	-0,113	0,065
-327,402	259,743	0,057	0,072
-326,387	-106,385	0,026	0,004
-325,372	800,000	0,008	-0,021
-324,358	23,727	-0,021	-0,013
-323,343	57,068	-0,052	0,037
-322,329	-200,000	0,018	0,064
-321,314	-102,811	-0,114	0,020
-320,299	-200,000	0,015	0,111
-319,285	-200,000	-0,010	0,077
-318,270	-200,000	0,014	0,107
-317,256	380,031	0,047	-0,071
-316,241	-200,000	0,020	-0,148
-315,226	-28,615	0,133	0,056
-314,212	276,828	-0,108	0,141
-313,197	250,019	0,077	0,096
-312,183	-35,602	-0,077	0,030
-311,168	-108,053	-0,057	0,009
-310,153	-200,000	-0,007	-0,050
-309,139	-200,000	0,006	0,108
-308,124	-98,305	-0,027	0,005
-307,110	-200,000	-0,029	0,103
-306,095	-162,880	0,131	0,005
-305,080	-65,129	0,120	0,035
-304,066	96,952	0,024	0,020
-303,051	386,036	-0,048	-0,072
-302,037	-200,000	-0,004	0,052
-301,022	-200,000	-0,010	0,096
-300,008	-200,000	0,004	0,074
-298,993	10,374	0,068	-0,038
-297,978	-29,218	0,094	-0,039
-296,964	198,924	0,036	0,041
-295,949	-200,000	0,005	-0,142
-294,935	-200,000	0,003	-0,059
-293,920	-67,879	0,072	-0,020
-292,905	-200,000	0,034	0,154
-291,891	-200,000	-0,023	-0,122
-290,876	-200,000	-0,001	0,023
-289,862	-200,000	-0,007	0,186
-288,847	70,122	-0,094	-0,071
-287,832	270,721	0,049	-0,063
-286,818	-71,646	0,104	0,028
-285,803	337,521	-0,077	0,111
-284,789	366,751	-0,035	0,052
-283,774	149,787	-0,017	0,017
-282,759	371,922	-0,066	0,098
-281,745	-200,000	0,007	0,026
-280,730	800,000	-0,045	-0,130
-279,716	-10,784	0,111	-0,053
-278,701	-200,000	-0,016	0,091
-277,686	800,000	0,051	0,151
-276,672	800,000	0,026	0,065
-275,657	-200,000	0,002	0,102
-274,643	780,232	-0,025	-0,050
-273,628	682,558	0,049	0,094
-272,613	-200,000	-0,002	-0,039
-271,599	-63,674	0,100	0,030
-270,584	-86,888	0,059	-0,013
-269,570	-51,902	0,165	0,056
-268,555	356,957	0,053	0,078
-267,540	-131,173	0,121	-0,012
-266,526	-52,800	-0,045	0,015
-265,511	800,000	-0,088	0,185
-264,497	-55,372	0,100	0,033
-263,482	587,939	0,069	0,125
-262,467	-124,987	0,061	0,007
-261,453	-200,000	0,004	0,139
-260,438	-94,267	0,033	0,006
-259,424	800,000	-0,041	-0,113
-258,409	-200,000	0,027	-0,109
-257,395	328,116	0,062	0,087
-256,380	90,921	-0,051	-0,041
-255,365	45,147	0,107	0,072
-254,351	77,821	-0,071	-0,055
-253,336	-86,752	-0,075	0,017
-252,322	800,000	0,037	-0,112
-251,307	40,956	-0,165	-0,109
-250,292	-31,348	-0,045	0,018
-249,278	439,752	-0,072	0,115
-248,263	34,832	0,161	0,103
-247,249	-96,515	-0,189	0,036
-246,234	-181,213	0,074	0,001
-245,219	184,316	0,078	-0,085
-244,205	199,789	-0,058	-0,065
-243,190	5,170	-0,179	-0,096
-242,176	-200,000	0,019	0,096
-241,161	-72,257	0,058	-0,016
-240,146	127,717	0,038	-0,035
-239,132	-200,000	0,001	0,039
-238,117	800,000	-0,042	-0,090
-237,103	-53,021	-0,156	0,052
-236,088	762,147	-0,032	-0,064
-235,073	-112,990	0,191	0,027
-234,059	404,649	0,044	0,068
-233,044	800,000	0,063	0,193
-232,030	483,029	-0,027	0,044
-231,015	-200,000	-0,004	-0,194
-230,000	-51,298	-0,110	0,037
-228,986	-23,372	0,110	0,048
-227,971	800,000	0,015	-0,038
-226,957	-200,000	0,113	0,000
-225,942	-80,858	0,075	0,018
-224,927	254,652	-0,106	-0,132
-223,913	-4,313	-0,069	-0,035
-222,898	-46,249	0,113	-0,040
-221,884	10,173	-0,092	0,051
-220,869	-131,068	-0,068	0,007
-219,855	-176,876	-0,073	-0,001
-218,840	-2,633	-0,101	-0,051
-217,825	800,000	-0,042	0,088
-216,811	533,348	-0,060	0,104
-215,796	-119,840	-0,201	0,025
-214,782	-74,455	-0,215	0,056
-213,767	-200,000	-0,017	0,107
-212,752	496,871	0,073	0,123
-211,738	-200,000	-0,033	0,124
-210,723	-200,000	-0,005	0,118
-209,709	-77,833	0,073	-0,018
-208,694	-1,788	-0,127	-0,065
-207,679	-149,203	0,086	0,005
-206,665	-200,000	-0,021	-0,101
-205,650	800,000	0,041	-0,131
-204,636	357,341	-0,026	-0,038
-203,621	7,949	0,095	0,052
-202,606	800,000	-0,043	-0,107
-201,592	28,486	-0,077	0,047
-200,577	-200,000	-0,000	-0,167
-199,563	-45,918	-0,151	-0,054
-198,548	-81,341	0,084	0,020
-197,533	800,000	-0,031	0,089
-196,519	307,883	0,010	0,014
-195,504	-123,835	0,080	-0,009
-194,490	-111,019	0,064	0,009
-193,475	367,503	-0,108	-0,159
-192,460	10,338	-0,081	-0,045
-191,446	-134,412	0,172	-0,015
-190,431	-25,656	-0,081	0,035
-189,417	-108,606	-0,152	0,024
-188,402	304,330	-0,032	-0,043
-187,387	-11,582	0,072	-0,034
-186,373	800,000	0,040	0,093
-185,358	800,000	0,046	-0,110
-184,344	17,319	0,027	0,015
-183,329	27,786	0,095	-0,058
-182,315	-200,000	0,014	0,055
-181,300	-61,798	0,061	-0,018
-180,285	8,637	-0,074	-0,041
-179,271	50,886	-0,085	-0,059
-178,256	-161,630	0,111	-0,004
-177,242	-78,049	0,118	-0,029
-176,227	240,067	0,065	0,079
-175,212	-200,000	0,007	-0,060
-174,198	40,731	-0,073	-0,048
-173,183	700,438	-0,037	0,071
-172,169	171,457	0,129	0,135
-171,154	565,879	-0,023	-0,041
-170,139	-200,000	0,012	-0,042
-169,125	408,359	-0,005	0,008
-168,110	-45,918	0,058	0,021
-167,096	-200,000	0,012	-0,145
-166,081	-181,079	-0,117	0,002
-165,066	-200,000	-0,023	-0,074
-164,052	12,224	-0,121	0,068
-163,037	-59,166	0,079	-0,025
-162,023	-158,523	0,134	0,006
-161,008	800,000	-0,018	0,037
-159,993	800,000	-0,012	0,029
-158,979	101,769	-0,103	-0,088
-157,964	102,395	-0,042	0,035
-156,950	120,543	-0,109	-0,099
-155,935	433,593	0,037	0,059
-154,920	323,168	0,091	0,127
-153,906	-200,000	-0,048	0,190
-152,891	412,734	0,082	0,128
-151,877	83,302	0,034	-0,027
-150,862	23,180	-0,039	-0,023
-149,847	-21,968	-0,094	-0,042
-148,833	800,000	-0,033	0,105
-147,818	144,025	0,105	0,102
-146,804	-200,000	0,003	0,054
-145,789	-174,148	-0,092	-0,002
-144,775	800,000	0,063	0,142
-143,760	-165,033	-0,070	-0,002
-142,745	-200,000	0,012	-0,050
-141,731	83,566	0,092	0,073
-140,716	800,000	0,020	0,047
-139,702	800,000	0,011	0,034
-138,687	800,000	0,010	-0,020
-137,672	72,905	0,110	0,084
-136,658	32,853	-0,041	0,026
-135,643	14,518	-0,022	-0,013
-134,629	700,608	0,026	0,050
-133,614	-85,134	0,056	0,013
-132,599	800,000	-0,005	-0,011
-131,585	68,910	-0,122	-0,091
-130,570	-142,923	0,115	0,008
-129,556	-71,782	-0,106	-0,028
-128,541	-200,000	-0,002	0,022
-127,526	-80,606	-0,124	0,030
-126,512	-30,105	0,130	-0,054
-125,497	-69,976	-0,145	0,040
-124,483	-200,000	0,021	0,167
-123,468	44,945	-0,126	-0,084
-122,453	-200,000	0,012	0,131
-121,439	-200,000	-0,007	0,070
-120,424	101,060	0,115	-0,098
-119,410	318,643	-0,100	0,138
