DTS Sentinel unit serial number:	SN410029Multiplexer serial number:	ORYXHardware model number:	OX2-SRSoftware version number:	ORYX F/W v4,00 Oryx Data Collector v3.7.2.0data status	okinstallation	B6 Nyhavnadifferential loss correction	single-endedforward channel	channel 2reverse channel	N/Adate	2023/12/10time	04:20:08forward acquisition time	300,00reverse acquisition time	0,00gamma	499,1914k internal	0,3125k external	0,3125temperature offset calibration	1,0000default loss term (dB/km)	0,3820temperature slope calibration	1,0000multiplexer offset coefficient	1,0000multiplexer slope coefficient	1,0000fibre end	0,00T internal ref (°C)	22,16T ext. ref 1 (°C)	6,20T ext. ref 2 (°C)	6,17length (m)	temperature (°C)	Stokes	anti-Stokes-744,400	173,175	-0,072	0,078
-743,385	372,361	-0,120	0,183
-742,371	57,438	0,023	0,017
-741,356	43,600	-0,176	0,120
-740,342	82,264	0,148	-0,119
-739,327	-45,473	-0,281	0,103
-738,312	35,380	0,080	-0,052
-737,298	-161,055	-0,131	0,005
-736,283	-200,000	0,003	-0,088
-735,269	-112,641	-0,246	-0,036
-734,254	-200,000	0,016	0,127
-733,239	-75,035	-0,493	-0,130
-732,225	-12,552	0,098	-0,048
-731,210	-200,000	-0,012	0,055
-730,196	-121,200	0,081	0,010
-729,181	-200,000	-0,017	0,083
-728,167	437,484	0,035	0,057
-727,152	210,926	-0,051	0,059
-726,137	760,812	-0,073	-0,147
-725,123	800,000	-0,043	-0,095
-724,108	73,808	-0,093	-0,073
-723,094	232,989	-0,136	-0,166
-722,079	445,449	-0,041	-0,068
-721,064	100,747	0,068	-0,059
-720,050	211,420	-0,053	0,062
-719,035	282,071	0,141	0,188
-718,021	799,205	-0,048	-0,099
-717,006	-158,026	-0,172	0,007
-715,991	363,113	-0,056	-0,084
-714,977	-113,506	0,087	-0,013
-713,962	92,916	-0,008	0,007
-712,948	119,842	0,033	-0,031
-711,933	578,396	0,060	-0,109
-710,918	1,079	0,095	-0,051
-709,904	-3,046	-0,123	-0,064
-708,889	101,584	-0,140	0,121
-707,875	-200,000	0,001	-0,146
-706,860	800,000	-0,049	-0,150
-705,845	503,506	-0,029	0,050
-704,831	800,000	0,027	0,080
-703,816	29,686	0,080	0,051
-702,802	800,000	0,024	-0,066
-701,787	614,033	0,074	-0,138
-700,772	246,103	0,102	-0,128
-699,758	800,000	-0,049	-0,159
-698,743	-170,185	-0,086	-0,002
-697,729	15,540	0,016	0,009
-696,714	800,000	-0,069	0,183
-695,699	436,663	-0,027	-0,044
-694,685	-200,000	-0,009	-0,050
-693,670	-101,425	-0,101	-0,018
-692,656	800,000	0,054	0,162
-691,641	100,213	-0,059	-0,051
-690,627	800,000	-0,033	0,100
-689,612	-200,000	0,019	0,117
-688,597	561,617	0,109	0,197
-687,583	-200,000	0,001	0,024
-686,568	-121,040	0,086	0,011
-685,554	-72,729	0,072	-0,019
-684,539	577,892	0,035	-0,065
-683,524	-157,786	0,086	-0,004
-682,510	-200,000	0,009	0,030
-681,495	-200,000	0,008	0,048
-680,481	-50,826	-0,092	0,032
-679,466	5,877	0,024	0,013
-678,451	-13,279	-0,163	-0,078
-677,437	55,829	-0,053	0,038
-676,422	800,000	0,029	-0,093
-675,408	174,987	-0,097	0,105
-674,393	-75,661	0,031	-0,008
-673,378	79,618	-0,023	-0,019
-672,364	213,681	0,009	0,011
-671,349	-160,704	-0,068	0,003
-670,335	40,163	-0,066	-0,044
-669,320	-200,000	0,029	-0,104
-668,305	-179,926	0,094	0,001
-667,291	-73,413	-0,051	-0,014
-666,276	-142,928	0,062	-0,004
-665,262	170,962	-0,079	-0,085
-664,247	-129,885	0,132	0,013
-663,232	51,629	0,108	-0,076
-662,218	-159,163	-0,054	0,002
-661,203	302,429	-0,060	-0,083
-660,189	39,611	0,118	0,079
-659,174	-37,336	-0,086	-0,034
-658,159	-97,119	-0,054	0,010
-657,145	-20,257	-0,030	0,014
-656,130	-98,114	-0,017	-0,003
-655,116	455,963	0,088	-0,145
-654,101	800,000	-0,046	-0,103
-653,086	261,133	0,108	0,140
-652,072	-37,622	-0,017	-0,007
-651,057	100,228	-0,077	-0,066
-650,043	800,000	-0,062	-0,135
-649,028	800,000	-0,044	-0,139
-648,014	-73,554	0,090	-0,024
-646,999	-41,982	0,046	-0,017
-645,984	94,616	-0,019	-0,016
-644,970	-83,769	-0,020	-0,005
-643,955	-200,000	0,014	-0,072
-642,941	-24,349	-0,079	-0,035
-641,926	298,639	-0,093	0,127
-640,911	23,011	0,064	0,039
-639,897	800,000	0,024	0,074
-638,882	219,705	0,003	-0,003
-637,868	261,542	0,026	-0,033
-636,853	-97,224	-0,106	-0,020
-635,838	-200,000	-0,006	0,067
-634,824	412,084	-0,061	-0,096
-633,809	219,365	0,086	0,102
-632,795	511,954	-0,037	0,063
-631,780	47,658	-0,055	0,038
-630,765	-200,000	0,020	-0,111
-629,751	-144,083	-0,021	0,001
-628,736	-171,179	0,152	-0,004
-627,722	-81,533	-0,069	0,017
-626,707	-144,110	0,102	-0,007
-625,692	-200,000	-0,008	-0,104
-624,678	800,000	-0,032	0,086
-623,663	800,000	0,017	0,048
-622,649	-54,204	-0,076	-0,026
-621,634	-200,000	0,009	-0,090
-620,619	106,972	0,063	-0,056
-619,605	532,822	-0,052	-0,091
-618,590	-200,000	0,002	-0,122
-617,576	-28,455	0,052	0,022
-616,561	422,810	-0,028	-0,045
-615,546	-60,373	0,047	-0,015
-614,532	-98,397	0,046	0,009
-613,517	-81,064	-0,048	-0,012
-612,503	7,053	-0,018	-0,010
-611,488	-61,606	0,090	0,028
-610,474	-200,000	-0,046	0,175
-609,459	-71,684	0,078	0,021
-608,444	800,000	0,011	-0,027
-607,430	-33,917	-0,085	-0,035
-606,415	195,262	-0,066	-0,074
-605,401	-200,000	-0,001	0,028
-604,386	800,000	-0,043	0,127
-603,371	169,696	0,087	0,092
-602,357	-10,626	-0,090	0,044
-601,342	487,090	-0,024	-0,041
-600,328	246,533	-0,077	-0,097
-599,313	-78,832	0,038	0,009
-598,298	800,000	0,020	0,063
-597,284	-200,000	0,001	-0,054
-596,269	-5,132	0,057	0,029
-595,255	-200,000	-0,037	0,144
-594,240	-96,593	0,044	0,008
-593,225	-50,042	-0,123	-0,043
-592,211	191,266	-0,039	0,044
-591,196	-125,096	0,100	0,011
-590,182	512,544	0,023	-0,041
-589,167	-102,809	-0,102	0,018
-588,152	-116,269	0,121	-0,016
-587,138	-200,000	0,043	-0,193
-586,123	-200,000	0,018	-0,130
-585,109	0,368	0,067	-0,035
-584,094	4,827	-0,176	-0,095
-583,079	-200,000	-0,002	-0,049
-582,065	558,546	0,054	0,098
-581,050	54,978	0,071	0,051
-580,036	800,000	-0,020	0,048
-579,021	-200,000	0,022	-0,081
-578,006	280,077	-0,062	-0,083
-576,992	59,051	-0,126	0,091
-575,977	616,423	-0,060	-0,113
-574,963	117,566	0,183	0,167
-573,948	-200,000	0,002	0,065
-572,934	140,863	0,079	0,077
-571,919	-200,000	-0,032	-0,125
-570,904	100,308	-0,098	0,084
-569,890	19,046	-0,024	0,014
-568,875	-200,000	0,033	0,174
-567,861	44,871	0,093	-0,063
-566,846	-3,832	-0,139	0,071
-565,831	-83,008	-0,050	0,012
-564,817	-162,130	-0,111	0,004
-563,802	-168,444	0,076	0,002
-562,788	327,212	0,042	-0,060
-561,773	72,917	0,139	-0,107
-560,758	-200,000	0,006	0,069
-559,744	-200,000	0,017	0,069
-558,729	-200,000	-0,001	0,093
-557,715	-200,000	-0,023	-0,228
-556,700	-200,000	0,023	-0,190
-555,685	800,000	-0,032	-0,090
-554,671	-37,944	-0,088	0,034
-553,656	-60,411	0,147	0,046
-552,642	-200,000	0,003	-0,052
-551,627	-200,000	-0,001	-0,084
-550,612	-200,000	0,016	-0,150
-549,598	58,723	-0,038	-0,028
-548,583	-148,699	-0,198	0,012
-547,569	341,667	0,026	0,038
-546,554	-200,000	-0,011	0,052
-545,539	-152,095	0,058	0,003
-544,525	297,836	0,111	0,152
-543,510	-200,000	-0,007	-0,025
-542,496	-103,904	-0,051	-0,009
-541,481	-200,000	-0,006	-0,030
-540,466	425,591	0,070	0,112
-539,452	28,465	-0,100	0,062
-538,437	291,737	-0,001	-0,002
-537,423	-200,000	0,030	-0,114
-536,408	62,848	-0,101	0,074
-535,393	-200,000	0,005	-0,197
-534,379	-200,000	0,029	-0,106
-533,364	151,031	-0,044	-0,044
-532,350	356,539	-0,081	-0,119
-531,335	-73,567	0,065	-0,017
-530,321	-17,666	0,125	-0,058
-529,306	-200,000	0,008	-0,027
-528,291	-200,000	0,037	-0,165
-527,277	-15,571	-0,143	-0,067
-526,262	-56,058	-0,076	0,025
-525,248	192,469	-0,063	0,071
-524,233	-103,463	0,035	-0,006
-523,218	397,168	-0,063	0,097
-522,204	-200,000	-0,008	-0,064
-521,189	-93,779	-0,079	-0,016
-520,175	-200,000	0,001	0,048
-519,160	-139,733	0,031	-0,002
-518,145	229,341	-0,095	-0,114
-517,131	-92,617	0,141	-0,029
-516,116	26,901	-0,114	-0,071
-515,102	86,917	0,135	-0,110
-514,087	393,899	0,055	-0,084
-513,072	254,660	0,079	0,101
-512,058	760,940	-0,048	-0,096
-511,043	198,639	0,046	-0,052
-510,029	-200,000	0,013	0,118
-509,014	-200,000	0,011	0,088
-507,999	-37,741	-0,119	0,047
-506,985	77,284	0,023	0,018
-505,970	-31,040	-0,043	-0,018
-504,956	356,290	0,018	-0,026
-503,941	-86,675	0,081	-0,018
-502,926	800,000	0,013	0,029
-501,912	-200,000	-0,003	0,065
-500,897	-146,297	-0,055	-0,004
-499,883	-200,000	-0,022	-0,107
-498,868	-200,000	-0,017	0,112
-497,853	-121,070	-0,169	-0,021
-496,839	-12,162	0,076	0,037
-495,824	800,000	0,023	0,072
-494,810	164,358	-0,070	0,073
-493,795	-200,000	0,015	0,237
-492,781	-15,851	0,106	-0,050
-491,766	64,484	-0,119	0,088
-490,751	-86,266	-0,051	-0,011
-489,737	537,823	0,063	0,112
-488,722	-114,186	0,057	0,008
-487,708	800,000	-0,048	0,112
-486,693	-37,806	0,077	0,030
-485,678	79,829	-0,070	0,055
-484,664	73,731	-0,071	-0,055
-483,649	40,316	-0,149	-0,099
-482,635	100,058	0,026	-0,022
-481,620	100,710	0,043	-0,037
-480,605	86,111	-0,068	-0,055
-479,591	-166,484	0,209	-0,006
-478,576	-200,000	-0,023	0,091
-477,562	624,593	-0,037	-0,069
-476,547	-18,960	0,020	-0,009
-475,532	-200,000	-0,007	-0,039
-474,518	66,872	0,036	0,027
-473,503	-200,000	-0,008	-0,028
-472,489	-110,356	-0,057	-0,009
-471,474	757,601	-0,045	0,090
-470,459	625,230	0,052	-0,097
-469,445	800,000	0,016	-0,038
-468,430	-200,000	0,014	-0,105
-467,416	-200,000	0,002	-0,007
-466,401	800,000	0,032	0,095
-465,386	-3,556	-0,041	-0,021
-464,372	93,452	-0,045	-0,038
-463,357	-117,412	-0,027	-0,004
-462,343	57,420	0,012	-0,009
-461,328	103,007	0,031	-0,026
-460,313	-200,000	0,016	0,120
-459,299	-55,234	0,163	-0,054
-458,284	-120,805	0,041	0,005
-457,270	167,959	-0,094	-0,099
-456,255	602,774	-0,028	-0,051
-455,241	800,000	-0,061	-0,158
-454,226	10,298	-0,016	0,009
-453,211	-151,894	0,013	0,001
-452,197	240,695	0,035	-0,044
-451,182	145,987	0,109	0,107
-450,168	-134,425	0,089	-0,008
-449,153	116,470	-0,011	0,010
-448,138	-200,000	-0,025	-0,091
-447,124	800,000	-0,026	-0,074
-446,109	600,166	0,093	-0,171
-445,095	121,329	-0,069	-0,064
-444,080	276,179	0,029	-0,038
-443,065	69,573	0,051	0,038
-442,051	-200,000	0,001	-0,057
-441,036	18,577	0,044	0,026
-440,022	81,155	0,076	-0,061
-439,007	689,859	0,062	-0,120
-437,992	-187,149	-0,094	-0,001
-436,978	100,654	0,125	0,107
-435,963	11,986	0,154	0,087
-434,949	775,927	0,027	-0,055
-433,934	213,672	0,070	-0,082
-432,919	183,720	0,036	-0,040
-431,905	-151,715	-0,035	-0,002
-430,890	-100,112	0,056	0,010
-429,876	-38,885	0,067	-0,026
-428,861	124,196	0,053	0,049
-427,846	-83,427	0,063	-0,015
-426,832	51,542	-0,120	-0,084
-425,817	-85,893	-0,107	-0,024
-424,803	18,723	-0,044	-0,026
-423,788	297,508	-0,018	-0,024
-422,773	-200,000	-0,008	-0,031
-421,759	800,000	0,031	0,089
-420,744	41,301	-0,024	0,016
-419,730	175,668	-0,089	0,096
-418,715	83,174	-0,095	-0,076
-417,701	477,478	0,037	-0,062
-416,686	-87,630	0,122	0,027
-415,671	-146,697	0,056	0,004
-414,657	800,000	0,035	0,110
-413,642	356,877	-0,021	-0,031
-412,628	13,509	0,146	-0,083
-411,613	-200,000	0,004	0,018
-410,598	-200,000	-0,002	-0,011
-409,584	-200,000	0,008	0,084
-408,569	194,020	-0,042	-0,047
-407,555	-161,055	-0,110	0,004
-406,540	45,674	-0,038	0,026
-405,525	-121,743	-0,063	0,008
-404,511	53,568	0,035	0,025
-403,496	-200,000	0,018	-0,163
-402,482	-200,000	-0,007	0,085
-401,467	301,819	-0,051	0,069
-400,452	-102,426	0,044	0,008
-399,438	4,430	0,071	0,038
-398,423	520,355	-0,030	-0,051
-397,409	800,000	-0,017	-0,054
-396,394	-200,000	0,012	0,056
-395,379	223,380	0,074	-0,087
-394,365	288,294	0,023	-0,030
-393,350	-31,981	-0,103	-0,042
-392,336	-200,000	0,011	0,042
-391,321	-86,097	0,043	-0,010
-390,306	136,866	-0,025	-0,024
-389,292	800,000	0,043	0,102
-388,277	-32,696	-0,119	-0,049
-387,263	220,838	0,057	-0,067
-386,248	286,553	-0,058	0,077
-385,233	-5,882	0,119	0,059
-384,219	800,000	-0,031	-0,065
-383,204	-79,437	-0,125	0,031
-382,190	62,071	-0,027	-0,019
-381,175	-95,129	0,086	-0,017
-380,160	353,559	-0,024	-0,036
-379,146	253,842	0,065	0,082
-378,131	623,285	0,031	0,058
-377,117	89,643	0,077	0,063
-376,102	359,198	0,033	-0,049
-375,088	49,196	-0,016	0,011
-374,073	-78,833	-0,048	-0,012
-373,058	800,000	0,013	0,028
-372,044	-107,710	0,093	-0,015
-371,029	-82,620	0,086	0,020
-370,015	-133,285	-0,093	0,008
-369,000	-200,000	0,031	-0,103
-367,985	9,996	0,037	0,021
-366,971	800,000	-0,044	0,108
-365,956	347,878	0,018	-0,025
-364,942	-120,993	0,055	-0,007
-363,927	378,865	0,062	0,093
-362,912	211,211	0,054	-0,063
-361,898	79,558	-0,030	0,024
-360,883	-65,868	-0,066	-0,019
-359,869	800,000	-0,028	-0,073
-358,854	602,996	-0,046	0,084
-357,839	-64,428	-0,038	0,011
-356,825	291,390	0,167	0,224
-355,810	68,399	-0,106	-0,079
-354,796	524,205	-0,034	-0,059
-353,781	-200,000	0,011	0,051
-352,766	-200,000	-0,048	0,227
-351,752	-72,746	0,073	-0,020
-350,737	-200,000	0,004	0,176
-349,723	-200,000	-0,007	-0,069
-348,708	-200,000	0,033	0,159
-347,693	-47,719	-0,047	0,017
-346,679	107,830	-0,121	-0,106
-345,664	166,229	-0,040	-0,042
-344,650	-200,000	-0,009	0,093
-343,635	249,672	0,025	0,031
-342,620	629,227	-0,029	-0,054
-341,606	87,243	0,080	0,065
-340,591	335,596	-0,003	0,005
-339,577	175,617	-0,080	-0,085
-338,562	232,901	-0,072	-0,086
-337,548	-142,545	0,049	-0,004
-336,533	383,517	0,050	-0,075
-335,518	-200,000	-0,024	0,095
-334,504	195,185	0,012	0,013
-333,489	800,000	0,064	-0,202
-332,475	84,954	-0,142	0,114
-331,460	-166,390	0,038	0,001
-330,445	-200,000	-0,014	0,060
-329,431	800,000	0,012	0,028
-328,416	-85,821	0,172	0,039
-327,402	211,504	-0,098	0,113
-326,387	-57,279	-0,113	0,036
-325,372	-200,000	-0,020	0,122
-324,358	205,527	-0,059	-0,068
-323,343	-200,000	-0,003	-0,019
-322,329	800,000	-0,014	0,030
-321,314	-200,000	-0,006	0,154
-320,299	31,700	0,020	0,013
-319,285	567,644	0,047	0,084
-318,270	-200,000	0,029	-0,101
-317,256	-13,552	-0,141	-0,067
-316,241	75,680	0,073	-0,056
-315,226	47,852	0,079	-0,054
-314,212	144,537	-0,060	0,059
-313,197	800,000	0,047	0,126
-312,183	-200,000	-0,013	-0,082
-311,168	-42,383	-0,092	0,034
-310,153	800,000	-0,023	-0,061
-309,139	-200,000	-0,009	0,143
-308,124	-200,000	0,013	-0,065
-307,110	-106,868	0,121	-0,019
-306,095	800,000	0,069	0,183
-305,080	-78,805	0,163	0,040
-304,066	643,588	-0,014	-0,026
-303,051	-116,563	-0,084	-0,011
-302,037	41,543	-0,095	-0,063
-301,022	-200,000	-0,003	0,218
-300,008	-200,000	0,004	0,099
-298,993	399,322	0,027	0,041
-297,978	-200,000	-0,026	0,143
-296,964	800,000	-0,037	0,092
-295,949	105,835	0,067	0,058
-294,935	412,101	-0,023	-0,036
-293,920	-102,494	-0,048	0,008
-292,905	126,089	0,061	-0,056
-291,891	102,979	0,053	0,046
-290,876	-200,000	0,020	0,155
-289,862	-39,482	-0,093	-0,035
-288,847	800,000	0,035	-0,098
-287,832	800,000	0,013	-0,033
-286,818	-200,000	0,010	0,042
-285,803	-200,000	0,001	-0,046
-284,789	330,879	-0,029	0,042
-283,774	1,959	-0,100	-0,053
-282,759	800,000	0,033	-0,070
-281,745	-200,000	-0,030	-0,125
-280,730	-136,108	-0,100	-0,008
-279,716	24,659	0,081	-0,049
-278,701	119,828	-0,121	-0,110
-277,686	185,371	-0,041	0,045
-276,672	-200,000	-0,007	-0,046
-275,657	37,295	-0,194	-0,126
-274,643	800,000	0,047	-0,111
-273,628	140,217	-0,061	-0,059
-272,613	-14,174	0,038	0,018
-271,599	-200,000	0,007	-0,026
-270,584	-99,322	0,089	-0,016
-269,570	-144,402	0,035	0,002
-268,555	-200,000	-0,005	0,025
-267,540	-76,509	-0,074	-0,019
-266,526	-26,470	0,089	-0,038
-265,511	800,000	-0,007	-0,013
-264,497	800,000	0,029	-0,077
-263,482	23,724	0,066	0,039
-262,467	-119,773	0,178	-0,022
-261,453	-71,239	-0,124	-0,034
-260,438	800,000	-0,017	-0,050
-259,424	25,452	0,097	0,059
-258,409	800,000	-0,039	-0,082
-257,395	-200,000	0,044	0,171
-256,380	394,407	-0,070	0,107
-255,365	-54,892	0,027	0,009
-254,351	-62,160	-0,050	0,015
-253,336	-102,476	-0,085	0,015
-252,322	800,000	0,032	0,074
-251,307	366,540	-0,027	0,039
-250,292	500,199	0,040	0,068
-249,278	-125,230	-0,010	0,001
-248,263	223,192	0,094	0,111
-247,249	58,599	0,163	0,117
-246,234	37,130	-0,180	0,116
-245,219	-186,544	-0,133	-0,001
-244,205	-96,611	0,079	0,015
-243,190	-200,000	0,009	0,106
-242,176	-200,000	0,013	0,095
-241,161	-102,148	0,074	0,013
-240,146	-200,000	-0,002	-0,024
-239,132	-200,000	0,002	0,052
-238,117	800,000	-0,029	-0,092
-237,103	-117,572	-0,033	0,004
-236,088	618,577	0,035	-0,065
-235,073	-200,000	-0,010	0,100
-234,059	800,000	0,034	0,091
-233,044	23,271	-0,015	0,009
-232,030	800,000	-0,014	-0,028
-231,015	547,666	0,057	-0,100
-230,000	800,000	-0,057	-0,127
-228,986	-144,108	-0,026	0,002
-227,971	-200,000	0,015	-0,098
-226,957	349,244	-0,031	-0,045
-225,942	436,193	-0,042	-0,066
-224,927	-187,490	-0,108	-0,001
-223,913	7,566	-0,102	0,056
-222,898	-200,000	0,025	0,103
-221,884	108,705	-0,131	0,114
-220,869	-200,000	0,010	0,067
-219,855	48,159	0,109	0,074
-218,840	-150,526	0,042	-0,002
-217,825	-4,414	0,087	-0,044
-216,811	65,515	0,066	-0,048
-215,796	66,508	0,054	0,040
-214,782	243,758	0,040	-0,050
-213,767	-142,069	-0,123	-0,009
-212,752	-119,552	-0,185	0,023
-211,738	-200,000	0,008	0,054
-210,723	800,000	-0,015	-0,039
-209,709	-75,214	0,093	0,024
-208,694	800,000	-0,011	-0,027
-207,679	-200,000	-0,044	-0,145
-206,665	-200,000	0,032	-0,227
-205,650	-15,350	0,111	0,052
-204,636	-200,000	0,030	0,222
-203,621	331,708	-0,079	0,111
-202,606	-200,000	-0,009	0,077
-201,592	-63,513	-0,160	-0,048
-200,577	-200,000	0,012	0,092
-199,563	-200,000	-0,015	-0,109
-198,548	-20,604	0,076	-0,034
-197,533	800,000	-0,019	-0,042
-196,519	308,123	-0,048	-0,065
-195,504	800,000	-0,032	-0,097
-194,490	120,488	-0,034	0,031
-193,475	209,130	-0,067	-0,076
-192,460	-24,305	-0,090	0,039
-191,446	256,853	-0,046	0,058
-190,431	143,431	0,061	-0,059
-189,417	800,000	0,034	0,090
-188,402	119,337	-0,088	-0,079
-187,387	692,458	0,075	-0,144
-186,373	-200,000	-0,001	-0,048
-185,358	-200,000	-0,006	-0,085
-184,344	-50,920	0,065	0,022
-183,329	-13,008	0,096	0,045
-182,315	-24,957	-0,052	-0,022
-181,300	54,274	-0,031	0,022
-180,285	800,000	0,084	0,172
-179,271	204,733	-0,130	-0,147
-178,256	53,564	-0,140	0,098
-177,242	9,803	0,103	0,057
-176,227	-3,769	0,028	0,014
-175,212	4,623	0,068	0,036
-174,198	350,047	-0,075	0,108
-173,183	-66,610	-0,120	0,035
-172,169	-51,150	-0,119	0,040
-171,154	-40,138	0,113	0,043
-170,139	423,633	0,056	0,088
-169,125	70,579	0,110	-0,082
-168,110	-160,222	-0,077	0,003
-167,096	98,096	0,049	-0,041
-166,081	-200,000	0,003	0,105
-165,066	-10,318	0,035	0,017
-164,052	711,859	0,045	-0,087
-163,037	-78,068	-0,060	0,015
-162,023	370,267	0,101	0,149
-161,008	142,495	0,102	-0,099
-159,993	-29,987	0,088	-0,036
-158,979	102,655	0,087	-0,074
-157,964	800,000	-0,064	-0,151
-156,950	-54,887	-0,012	-0,004
-155,935	-200,000	0,009	0,064
-154,920	57,983	0,037	0,026
-153,906	625,995	-0,029	0,054
-152,891	-200,000	0,028	-0,094
-151,877	800,000	-0,058	-0,160
-150,862	386,919	0,038	0,058
-149,847	246,769	-0,003	-0,004
-148,833	-200,000	-0,027	-0,105
-147,818	43,331	-0,095	0,063
-146,804	800,000	0,028	0,085
-145,789	241,570	0,146	0,178
-144,775	800,000	-0,024	0,056
-143,760	-1,552	-0,133	-0,068
-142,745	-144,203	-0,091	0,006
-141,731	119,687	0,069	0,063
-140,716	214,091	-0,124	0,143
-139,702	-124,942	0,094	-0,010
-138,687	137,891	0,069	0,066
-137,672	8,742	-0,105	-0,057
-136,658	-81,819	0,082	-0,019
-135,643	323,506	-0,027	0,038
-134,629	298,268	-0,057	0,077
-133,614	-76,628	0,110	0,028
-132,599	143,456	-0,043	-0,041
-131,585	-159,288	-0,071	-0,003
-130,570	336,269	-0,045	0,064
-129,556	-165,009	-0,100	0,003
-128,541	407,948	-0,038	-0,058
-127,526	105,419	-0,053	-0,045
-126,512	115,697	0,086	0,076
-125,497	393,564	-0,050	-0,077
-124,483	800,000	0,019	-0,057
-123,468	-105,411	-0,087	-0,014
-122,453	254,132	-0,047	-0,058
-121,439	359,525	-0,023	-0,033
-120,424	314,623	-0,023	0,031
-119,410	-200,000	-0,006	0,036
