DTS Sentinel unit serial number:	SN410029Multiplexer serial number:	ORYXHardware model number:	OX2-SRSoftware version number:	ORYX F/W v4,00 Oryx Data Collector v3.7.2.0data status	okinstallation	B6 Nyhavnadifferential loss correction	single-endedforward channel	channel 2reverse channel	N/Adate	2023/12/09time	08:05:08forward acquisition time	300,00reverse acquisition time	0,00gamma	499,1914k internal	0,3139k external	0,3139temperature offset calibration	1,0000default loss term (dB/km)	0,3820temperature slope calibration	1,0000multiplexer offset coefficient	1,0000multiplexer slope coefficient	1,0000fibre end	0,00T internal ref (°C)	18,50T ext. ref 1 (°C)	1,92T ext. ref 2 (°C)	1,90length (m)	temperature (°C)	Stokes	anti-Stokes-744,400	800,000	-0,015	-0,035
-743,385	18,047	-0,250	0,147
-742,371	49,564	0,153	-0,107
-741,356	-111,314	-0,259	0,039
-740,342	-200,000	-0,017	0,062
-739,327	-62,345	-0,291	0,089
-738,312	-200,000	-0,003	-0,059
-737,298	-115,041	-0,273	-0,038
-736,283	-122,189	0,162	-0,019
-735,269	-33,419	-0,325	0,133
-734,254	-42,452	0,073	-0,027
-733,239	-54,875	-0,515	-0,171
-732,225	42,810	0,152	0,102
-731,210	64,750	-0,056	0,041
-730,196	30,043	0,073	-0,046
-729,181	-150,988	-0,162	0,009
-728,167	-142,497	-0,130	0,009
-727,152	47,268	0,027	-0,018
-726,137	-200,000	-0,048	-0,175
-725,123	148,194	-0,151	-0,151
-724,108	193,189	-0,097	-0,109
-723,094	-156,680	0,068	0,003
-722,079	-200,000	-0,004	-0,022
-721,064	-200,000	-0,010	0,036
-720,050	43,928	-0,066	-0,045
-719,035	-200,000	0,008	-0,099
-718,021	800,000	0,029	-0,066
-717,006	230,268	-0,100	-0,122
-715,991	-200,000	-0,028	-0,106
-714,977	-7,424	-0,058	-0,029
-713,962	-14,166	-0,107	0,051
-712,948	205,740	-0,101	0,116
-711,933	-200,000	0,018	0,088
-710,918	194,997	0,041	0,046
-709,904	161,766	-0,031	-0,033
-708,889	28,483	-0,072	-0,045
-707,875	321,388	-0,030	-0,042
-706,860	-200,000	-0,004	-0,017
-705,845	414,484	-0,065	-0,103
-704,831	-89,083	0,041	-0,009
-703,816	800,000	-0,003	-0,009
-702,802	-51,490	0,055	-0,019
-701,787	-42,056	-0,072	0,027
-700,772	730,053	-0,028	-0,056
-699,758	-168,580	0,049	-0,001
-698,743	163,116	-0,055	0,057
-697,729	144,033	-0,045	0,044
-696,714	-200,000	-0,012	0,080
-695,699	163,875	-0,055	-0,057
-694,685	-73,894	-0,090	-0,024
-693,670	373,175	-0,014	-0,021
-692,656	-56,121	-0,022	-0,007
-691,641	-108,356	0,122	0,019
-690,627	-49,890	0,028	-0,010
-689,612	-31,887	0,050	0,021
-688,597	42,417	-0,042	-0,028
-687,583	95,303	-0,111	-0,094
-686,568	-76,772	-0,030	0,008
-685,554	30,241	-0,043	-0,027
-684,539	124,374	-0,116	0,108
-683,524	-46,899	0,038	-0,014
-682,510	-200,000	-0,007	-0,028
-681,495	73,102	-0,074	-0,057
-680,481	-159,581	-0,160	-0,006
-679,466	-61,630	0,039	0,012
-678,451	-200,000	0,033	-0,131
-677,437	-200,000	-0,009	-0,053
-676,422	122,612	-0,105	-0,097
-675,408	42,323	-0,061	0,041
-674,393	-200,000	-0,002	-0,076
-673,378	305,413	-0,049	-0,068
-672,364	286,092	-0,093	-0,125
-671,349	253,931	-0,051	-0,065
-670,335	-4,574	0,078	0,040
-669,320	-200,000	0,005	-0,042
-668,305	277,711	0,053	-0,070
-667,291	-155,181	0,104	0,005
-666,276	-89,674	0,027	-0,006
-665,262	-147,113	-0,159	0,010
-664,247	-153,628	0,063	0,003
-663,232	-24,095	-0,131	0,057
-662,218	-200,000	-0,001	-0,090
-661,203	650,227	0,048	0,091
-660,189	247,120	-0,018	0,023
-659,174	-48,104	-0,058	-0,020
-658,159	-140,756	-0,101	0,008
-657,145	-200,000	0,018	-0,103
-656,130	-200,000	0,028	0,096
-655,116	575,609	-0,040	-0,073
-654,101	275,774	-0,064	0,084
-653,086	800,000	0,073	-0,153
-652,072	87,649	-0,163	-0,133
-651,057	-200,000	-0,001	-0,107
-650,043	-126,231	0,119	0,013
-649,028	323,620	-0,102	-0,144
-648,014	82,139	0,067	-0,053
-646,999	-200,000	-0,004	0,016
-645,984	-200,000	-0,010	0,133
-644,970	512,481	-0,047	-0,082
-643,955	297,819	-0,043	-0,059
-642,941	-145,940	-0,158	0,010
-641,926	90,599	-0,059	0,049
-640,911	-119,633	0,088	-0,011
-639,897	531,476	-0,005	-0,009
-638,882	618,843	0,039	-0,073
-637,868	-200,000	-0,006	-0,100
-636,853	-121,032	0,013	0,002
-635,838	-39,688	0,017	0,007
-634,824	-200,000	0,051	-0,232
-633,809	-200,000	-0,016	-0,062
-632,795	16,609	-0,074	-0,043
-631,780	51,815	-0,089	-0,063
-630,765	-200,000	-0,030	0,114
-629,751	200,617	-0,120	0,136
-628,736	433,371	0,083	-0,134
-627,722	109,624	0,173	-0,154
-626,707	26,843	0,105	-0,065
-625,692	102,577	-0,008	-0,007
-624,678	14,716	-0,126	0,073
-623,663	-113,655	0,100	-0,014
-622,649	47,861	0,088	-0,061
-621,634	-200,000	-0,013	-0,058
-620,619	-67,215	0,111	-0,032
-619,605	149,211	0,070	0,070
-618,590	101,309	-0,163	0,140
-617,576	190,469	0,081	0,090
-616,561	-120,479	-0,155	-0,019
-615,546	-60,687	0,062	0,019
-614,532	-200,000	-0,008	0,075
-613,517	800,000	0,046	-0,108
-612,503	-28,301	0,111	-0,047
-611,488	-200,000	-0,020	0,102
-610,474	800,000	0,004	0,010
-609,459	-99,105	0,081	-0,015
-608,444	49,413	-0,047	0,033
-607,430	-95,225	-0,116	-0,023
-606,415	-200,000	0,021	-0,145
-605,401	13,084	0,086	-0,049
-604,386	-200,000	0,024	0,107
-603,371	289,469	-0,119	-0,160
-602,357	-83,443	0,024	-0,006
-601,342	800,000	-0,034	0,080
-600,328	-200,000	0,034	0,112
-599,313	-27,275	-0,123	-0,053
-598,298	-200,000	0,004	-0,076
-597,284	-56,369	0,110	0,036
-596,269	205,691	-0,088	-0,100
-595,255	-113,490	0,056	-0,008
-594,240	201,989	0,049	-0,056
-593,225	-91,623	-0,091	0,019
-592,211	166,981	-0,014	0,015
-591,196	-23,017	0,010	-0,004
-590,182	-106,748	0,088	0,014
-589,167	800,000	0,035	-0,106
-588,152	-200,000	-0,004	-0,047
-587,138	-26,015	0,074	-0,032
-586,123	-104,867	-0,065	-0,011
-585,109	43,829	-0,130	-0,088
-584,094	800,000	0,018	-0,039
-583,079	-200,000	-0,036	0,189
-582,065	-137,525	0,110	-0,009
-581,050	-194,024	0,103	-0,001
-580,036	89,478	-0,079	0,065
-579,021	-200,000	-0,008	-0,135
-578,006	47,045	-0,074	-0,051
-576,992	-200,000	-0,123	0,000
-575,977	-76,630	0,100	-0,026
-574,963	-181,704	0,104	0,001
-573,948	33,082	0,114	0,073
-572,934	-200,000	0,004	0,164
-571,919	98,165	0,028	0,024
-570,904	-37,693	0,133	-0,052
-569,890	733,778	0,038	0,076
-568,875	144,776	-0,027	-0,027
-567,861	-173,612	0,068	0,001
-566,846	-55,333	0,061	-0,020
-565,831	800,000	0,029	0,068
-564,817	800,000	-0,007	0,022
-563,802	303,326	-0,026	-0,035
-562,788	-84,593	-0,073	0,017
-561,773	-36,528	0,053	-0,021
-560,758	-200,000	0,000	-0,072
-559,744	-200,000	-0,001	-0,013
-558,729	-200,000	-0,034	0,158
-557,715	800,000	0,009	-0,018
-556,700	536,281	-0,049	0,085
-555,685	84,921	-0,132	-0,107
-554,671	-200,000	0,010	0,056
-553,656	-83,967	-0,095	0,022
-552,642	712,614	0,058	0,113
-551,627	17,270	-0,038	-0,022
-550,612	140,855	0,042	0,041
-549,598	358,191	-0,099	-0,146
-548,583	-157,592	0,052	-0,002
-547,569	145,226	0,053	0,052
-546,554	-200,000	-0,002	0,037
-545,539	-81,517	-0,026	-0,006
-544,525	800,000	0,005	-0,010
-543,510	-200,000	0,003	0,019
-542,496	-153,181	-0,046	0,002
-541,481	-42,474	-0,134	-0,050
-540,466	-200,000	-0,014	0,049
-539,452	170,672	-0,026	0,027
-538,437	-79,195	-0,069	-0,017
-537,423	-174,202	0,137	0,003
-536,408	-200,000	0,026	0,088
-535,393	-56,236	-0,133	0,043
-534,379	127,359	-0,060	-0,056
-533,364	78,958	-0,103	-0,081
-532,350	-25,460	-0,030	0,013
-531,335	-200,000	-0,016	-0,076
-530,321	-200,000	-0,018	-0,063
-529,306	174,220	-0,062	-0,066
-528,291	329,090	-0,076	-0,108
-527,277	-200,000	-0,042	0,191
-526,262	-188,845	-0,066	0,001
-525,248	371,617	-0,027	-0,040
-524,233	-200,000	-0,009	-0,040
-523,218	-65,226	0,103	-0,030
-522,204	-116,982	-0,049	0,007
-521,189	-200,000	-0,021	-0,195
-520,175	55,117	0,090	-0,064
-519,160	301,516	0,042	-0,057
-518,145	159,081	-0,052	0,053
-517,131	-36,971	0,128	0,050
-516,116	-68,909	0,112	-0,032
-515,102	118,616	0,076	-0,069
-514,087	-72,040	-0,079	-0,021
-513,072	800,000	0,013	-0,040
-512,058	-123,456	-0,068	0,008
-511,043	-126,915	0,104	0,011
-510,029	10,601	0,079	0,044
-509,014	242,195	-0,110	0,136
-507,999	10,193	0,076	0,043
-506,985	223,039	-0,087	0,103
-505,970	289,907	0,024	-0,033
-504,956	545,156	-0,060	-0,106
-503,941	-146,945	-0,089	0,006
-502,926	-200,000	0,006	0,048
-501,912	800,000	-0,024	-0,054
-500,897	800,000	0,055	0,121
-499,883	50,359	0,009	0,006
-498,868	121,768	0,034	0,031
-497,853	-7,866	-0,074	-0,037
-496,839	446,249	0,023	-0,037
-495,824	24,865	-0,066	-0,040
-494,810	-74,148	0,124	-0,033
-493,795	800,000	0,042	0,090
-492,781	56,087	-0,027	-0,019
-491,766	459,120	-0,041	-0,067
-490,751	165,834	0,016	-0,017
-489,737	800,000	-0,074	-0,178
-488,722	-173,459	0,082	-0,002
-487,708	171,248	0,004	-0,004
-486,693	-200,000	0,004	0,124
-485,678	-200,000	0,001	-0,027
-484,664	-200,000	-0,042	-0,210
-483,649	167,122	0,060	-0,063
-482,635	-84,038	0,031	-0,007
-481,620	47,517	0,023	0,016
-480,605	-85,579	0,178	0,040
-479,591	-200,000	0,019	-0,077
-478,576	-200,000	-0,017	-0,060
-477,562	427,379	0,042	-0,067
-476,547	-3,453	0,114	-0,058
-475,532	591,500	-0,062	-0,112
-474,518	17,652	-0,048	-0,028
-473,503	-127,882	0,050	0,005
-472,489	-138,371	-0,025	-0,002
-471,474	467,011	-0,050	0,082
-470,459	-5,332	-0,055	-0,028
-469,445	-106,578	-0,091	-0,015
-468,430	-200,000	0,008	0,080
-467,416	-57,761	-0,120	0,038
-466,401	106,104	0,107	0,093
-465,386	54,709	0,058	-0,041
-464,372	430,549	0,093	-0,148
-463,357	-68,490	-0,017	0,005
-462,343	-200,000	0,011	-0,065
-461,328	-200,000	0,013	-0,082
-460,313	62,163	0,057	0,042
-459,299	3,322	0,098	0,052
-458,284	465,600	0,027	-0,045
-457,270	-88,347	-0,079	0,017
-456,255	127,622	0,078	-0,073
-455,241	113,686	-0,059	-0,053
-454,226	87,048	0,088	0,071
-453,211	14,148	0,083	0,047
-452,197	118,831	0,046	0,042
-451,182	-24,497	0,046	0,020
-450,168	287,845	0,048	0,064
-449,153	-200,000	-0,010	0,183
-448,138	197,839	-0,051	-0,058
-447,124	800,000	-0,029	-0,072
-446,109	23,881	-0,104	0,062
-445,095	-200,000	0,006	0,149
-444,080	800,000	0,033	0,081
-443,065	170,506	0,091	0,096
-442,051	-51,248	0,077	0,026
-441,036	-200,000	0,021	0,076
-440,022	-33,988	-0,084	-0,034
-439,007	-77,927	0,087	-0,022
-437,992	64,739	0,125	-0,092
-436,978	292,094	-0,003	-0,004
-435,963	19,288	0,120	0,070
-434,949	800,000	-0,039	-0,115
-433,934	-200,000	-0,021	-0,154
-432,919	-35,442	-0,103	0,041
-431,905	-200,000	0,010	-0,095
-430,890	408,417	-0,030	0,046
-429,876	46,812	-0,106	-0,072
-428,861	96,172	0,110	0,092
-427,846	13,445	0,075	0,042
-426,832	-200,000	0,004	-0,035
-425,817	501,052	0,027	0,045
-424,803	0,226	0,106	0,055
-423,788	800,000	0,025	-0,059
-422,773	494,254	-0,031	-0,052
-421,759	-166,212	0,147	-0,004
-420,744	782,716	-0,026	-0,053
-419,730	800,000	-0,027	-0,073
-418,715	-200,000	-0,007	0,028
-417,701	-59,936	-0,142	-0,044
-416,686	155,220	0,014	-0,014
-415,671	800,000	0,042	-0,111
-414,657	800,000	0,035	-0,073
-413,642	157,053	-0,041	-0,042
-412,628	-76,768	0,095	0,024
-411,613	-61,692	0,075	-0,023
-410,598	654,209	-0,054	-0,101
-409,584	-53,423	0,066	0,022
-408,569	-200,000	-0,057	0,200
-407,555	476,692	0,047	0,078
-406,540	-200,000	-0,004	-0,051
-405,525	-127,617	0,087	0,009
-404,511	-38,976	-0,115	0,044
-403,496	-200,000	0,027	0,137
-402,482	-200,000	-0,004	-0,039
-401,467	211,319	0,021	0,024
-400,452	-80,862	0,057	-0,014
-399,438	225,981	-0,061	0,072
-398,423	426,509	-0,070	-0,111
-397,409	-135,911	0,093	0,008
-396,394	45,632	-0,066	0,045
-395,379	-200,000	-0,011	0,054
-394,365	675,684	-0,042	-0,080
-393,350	-89,717	0,045	0,010
-392,336	1,229	-0,079	-0,042
-391,321	169,998	-0,083	0,086
-390,306	800,000	-0,047	0,105
-389,292	133,357	-0,038	0,036
-388,277	476,699	-0,100	0,167
-387,263	-36,970	0,115	0,045
-386,248	-94,141	0,022	-0,004
-385,233	800,000	-0,054	0,149
-384,219	279,113	0,011	-0,014
-383,204	159,352	-0,072	0,073
-382,190	800,000	-0,040	-0,090
-381,175	132,858	0,037	0,035
-380,160	516,254	0,061	-0,105
-379,146	-25,073	0,080	0,035
-378,131	-200,000	-0,012	-0,142
-377,117	210,187	-0,042	-0,048
-376,102	-200,000	0,021	-0,148
-375,088	167,468	-0,090	0,093
-374,073	-200,000	0,023	-0,089
-373,058	294,825	-0,040	0,053
-372,044	-200,000	0,017	0,067
-371,029	-121,141	0,050	-0,006
-370,015	48,649	0,094	0,064
-369,000	-200,000	-0,019	-0,127
-367,985	-200,000	-0,007	0,067
-366,971	200,115	-0,067	-0,075
-365,956	-100,151	0,126	0,023
-364,942	91,554	0,086	0,070
-363,927	-200,000	0,001	0,005
-362,912	413,897	-0,045	-0,071
-361,898	-200,000	-0,007	-0,028
-360,883	31,007	-0,072	-0,045
-359,869	-31,791	0,092	0,038
-358,854	800,000	0,016	0,038
-357,839	70,793	-0,026	-0,019
-356,825	139,496	-0,043	-0,041
-355,810	-200,000	0,040	-0,146
-354,796	322,877	-0,030	0,042
-353,781	-64,940	-0,123	0,036
-352,766	130,216	0,103	-0,096
-351,752	-35,845	0,053	-0,021
-350,737	96,505	0,152	0,127
-349,723	-200,000	0,039	0,155
-348,708	310,928	-0,041	-0,056
-347,693	-200,000	0,003	0,029
-346,679	129,762	0,056	-0,052
-345,664	-119,030	-0,109	0,014
-344,650	-24,028	-0,125	-0,054
-343,635	5,688	0,055	-0,029
-342,620	-1,650	0,184	0,094
-341,606	89,889	0,040	0,033
-340,591	-200,000	0,049	-0,168
-339,577	16,307	-0,091	-0,052
-338,562	800,000	-0,059	0,139
-337,548	160,906	-0,052	0,053
-336,533	-200,000	0,010	0,073
-335,518	201,681	0,135	-0,152
-334,504	-200,000	0,020	0,181
-333,489	-122,731	-0,051	0,006
-332,475	-100,096	0,058	0,011
-331,460	-200,000	0,025	0,110
-330,445	-137,688	0,100	0,008
-329,431	800,000	0,007	-0,018
-328,416	-200,000	-0,027	-0,100
-327,402	13,420	-0,082	0,046
-326,387	22,515	-0,027	0,016
-325,372	-100,681	0,043	0,008
-324,358	-200,000	0,006	0,094
-323,343	-92,253	-0,064	-0,013
-322,329	-16,444	0,155	-0,072
-321,314	76,929	0,042	0,033
-320,299	41,491	-0,054	0,036
-319,285	168,722	0,031	0,032
-318,270	800,000	-0,015	0,038
-317,256	-200,000	0,014	-0,125
-316,241	-200,000	-0,032	-0,115
-315,226	-0,501	-0,103	-0,053
-314,212	-200,000	0,013	0,085
-313,197	76,834	0,074	-0,058
-312,183	53,850	-0,162	-0,113
-311,168	180,274	0,091	0,097
-310,153	-29,649	-0,238	0,099
-309,139	416,059	-0,037	0,058
-308,124	800,000	-0,016	0,047
-307,110	-200,000	0,005	0,080
-306,095	-72,470	-0,154	0,041
-305,080	-104,155	0,096	-0,016
-304,066	259,603	0,010	0,013
-303,051	32,491	-0,136	-0,086
-302,037	-91,209	-0,031	0,006
-301,022	-93,705	0,140	-0,028
-300,008	-200,000	0,008	-0,084
-298,993	130,121	0,060	0,056
-297,978	-52,763	-0,042	-0,014
-296,964	-38,697	-0,080	-0,031
-295,949	469,408	-0,072	-0,118
-294,935	-96,572	-0,046	-0,009
-293,920	-56,557	0,021	-0,007
-292,905	-30,896	0,014	0,006
-291,891	360,211	0,073	0,106
-290,876	121,784	0,067	0,061
-289,862	51,786	0,030	-0,021
-288,847	276,743	0,101	0,131
-287,832	47,455	-0,021	0,014
-286,818	798,269	-0,043	0,087
-285,803	-69,375	-0,045	-0,013
-284,789	-47,346	0,116	-0,041
-283,774	-200,000	-0,030	0,100
-282,759	310,954	-0,022	0,030
-281,745	-47,264	-0,072	0,025
-280,730	-200,000	-0,006	0,072
-279,716	-138,548	0,116	-0,009
-278,701	-200,000	0,002	0,012
-277,686	-200,000	-0,000	0,095
-276,672	794,127	-0,021	-0,043
-275,657	-50,756	0,019	0,007
-274,643	-60,746	-0,063	-0,019
-273,628	-114,413	-0,025	-0,004
-272,613	183,406	-0,017	0,018
-271,599	-53,791	-0,036	-0,012
-270,584	-38,494	0,074	-0,028
-269,570	-200,000	0,003	0,049
-268,555	384,277	-0,018	0,027
-267,540	602,304	-0,101	-0,183
-266,526	72,904	0,024	0,018
-265,511	-188,025	-0,017	-0,000
-264,497	800,000	0,025	-0,054
-263,482	405,926	0,054	-0,084
-262,467	-80,414	0,140	0,034
-261,453	-200,000	0,008	-0,111
-260,438	41,200	-0,060	0,040
-259,424	313,727	-0,019	-0,026
-258,409	177,828	-0,018	-0,019
-257,395	-104,837	-0,101	0,017
-256,380	382,592	0,056	0,084
-255,365	-157,898	-0,040	0,002
-254,351	-55,662	-0,057	0,019
-253,336	68,602	-0,059	-0,044
-252,322	-200,000	0,023	0,088
-251,307	296,915	-0,034	0,046
-250,292	139,748	0,072	0,069
-249,278	135,116	-0,056	0,053
-248,263	136,515	-0,036	-0,034
-247,249	800,000	0,051	0,112
-246,234	-200,000	0,014	-0,081
-245,219	32,919	0,031	0,019
-244,205	-200,000	0,000	0,016
-243,190	-200,000	0,011	-0,106
-242,176	-67,409	-0,122	0,035
-241,161	800,000	-0,057	0,125
-240,146	800,000	0,032	0,070
-239,132	314,373	0,042	-0,058
-238,117	-200,000	-0,012	-0,167
-237,103	320,278	0,069	-0,096
-236,088	-200,000	-0,000	0,008
-235,073	574,515	0,091	0,163
-234,059	39,154	-0,160	0,104
-233,044	258,064	-0,011	0,014
-232,030	-125,648	-0,107	0,012
-231,015	417,977	-0,072	0,112
-230,000	-61,902	0,103	0,031
-228,986	-200,000	-0,002	-0,107
-227,971	-176,154	0,054	0,001
-226,957	-200,000	-0,012	0,268
-225,942	-200,000	-0,013	0,062
-224,927	-151,426	-0,153	-0,008
-223,913	-82,769	0,055	0,013
-222,898	-200,000	-0,038	-0,122
-221,884	-200,000	-0,029	-0,096
-220,869	-200,000	-0,000	0,096
-219,855	78,356	-0,066	0,051
-218,840	-62,388	0,099	0,030
-217,825	-200,000	0,015	0,059
-216,811	-82,726	-0,083	0,019
-215,796	405,789	-0,109	0,167
-214,782	9,178	-0,088	0,048
-213,767	-200,000	-0,019	-0,099
-212,752	-200,000	-0,021	0,117
-211,738	86,985	0,087	0,070
-210,723	402,080	-0,078	0,120
-209,709	768,842	-0,004	0,007
-208,694	148,152	0,062	-0,061
-207,679	800,000	-0,011	-0,032
-206,665	800,000	0,017	0,048
-205,650	-22,009	0,055	0,024
-204,636	420,385	0,063	0,098
-203,621	292,859	-0,046	0,062
-202,606	630,294	-0,018	0,034
-201,592	432,560	-0,095	-0,149
-200,577	92,566	-0,061	-0,050
-199,563	-111,799	0,050	-0,007
-198,548	292,731	0,060	0,080
-197,533	-51,917	0,065	-0,022
-196,519	-89,355	-0,050	-0,011
-195,504	-200,000	0,004	0,031
-194,490	203,909	-0,064	-0,073
-193,475	-200,000	0,018	-0,118
-192,460	169,632	-0,068	-0,071
-191,446	-15,650	0,169	-0,078
-190,431	431,418	0,018	0,028
-189,417	-162,455	-0,121	-0,004
-188,402	-200,000	-0,028	-0,110
-187,387	800,000	-0,056	-0,125
-186,373	630,386	0,036	-0,066
-185,358	-200,000	0,020	0,110
-184,344	334,206	-0,011	0,016
-183,329	-73,518	-0,013	-0,003
-182,315	800,000	-0,027	-0,063
-181,300	76,160	-0,049	-0,037
-180,285	-200,000	-0,022	-0,140
-179,271	63,688	-0,053	-0,039
-178,256	-116,118	-0,047	-0,006
-177,242	-200,000	-0,022	-0,100
-176,227	-11,115	-0,140	0,067
-175,212	151,814	-0,028	-0,028
-174,198	-200,000	-0,018	0,099
-173,183	412,358	-0,113	-0,175
-172,169	-156,367	-0,062	-0,003
-171,154	-108,584	0,208	-0,032
-170,139	507,693	0,105	0,178
-169,125	-18,123	0,073	0,033
-168,110	155,009	0,054	0,054
-167,096	-36,817	-0,111	0,043
-166,081	-168,387	0,065	0,002
-165,066	87,257	-0,092	0,074
-164,052	106,128	0,139	-0,119
-163,037	-200,000	-0,026	0,129
-162,023	30,394	0,092	0,057
-161,008	603,843	0,084	0,153
-159,993	800,000	0,062	0,166
-158,979	218,713	0,073	0,084
-157,964	-141,472	-0,111	0,008
-156,950	-200,000	0,005	-0,116
-155,935	800,000	-0,033	-0,084
-154,920	443,957	0,051	-0,082
-153,906	-80,559	-0,171	-0,041
-152,891	540,503	0,031	0,054
-151,877	264,250	0,056	-0,071
-150,862	89,406	-0,110	-0,089
-149,847	-200,000	-0,008	-0,065
-148,833	800,000	-0,024	0,055
-147,818	800,000	-0,026	-0,067
-146,804	-9,636	0,041	-0,020
-145,789	-86,495	0,121	0,027
-144,775	48,431	0,132	-0,090
-143,760	-200,000	0,018	-0,102
-142,745	800,000	0,010	0,029
-141,731	-48,213	0,020	-0,007
-140,716	263,366	-0,036	-0,046
-139,702	-147,079	-0,031	-0,002
-138,687	-132,716	-0,026	0,002
-137,672	-200,000	-0,004	0,072
-136,658	3,952	0,006	0,003
-135,643	63,949	-0,047	-0,034
-134,629	-200,000	0,011	-0,154
-133,614	220,904	0,149	0,173
-132,599	76,584	0,113	0,087
-131,585	72,364	0,049	-0,037
-130,570	46,556	-0,210	-0,141
-129,556	444,441	0,045	-0,072
-128,541	244,592	-0,083	-0,102
-127,526	-43,765	0,023	-0,008
-126,512	-121,974	-0,038	0,004
-125,497	306,071	0,058	0,078
-124,483	446,326	-0,044	0,070
-123,468	-50,402	0,201	-0,068
-122,453	415,721	-0,068	-0,105
-121,439	800,000	-0,030	0,094
-120,424	-200,000	-0,010	0,036
