DTS Sentinel unit serial number:	SN410029Multiplexer serial number:	ORYXHardware model number:	OX2-SRSoftware version number:	ORYX F/W v4,00 Oryx Data Collector v3.7.2.0data status	okinstallation	B6 Nyhavnadifferential loss correction	single-endedforward channel	channel 2reverse channel	N/Adate	2023/12/07time	10:25:08forward acquisition time	300,00reverse acquisition time	0,00gamma	499,1914k internal	0,3206k external	0,3206temperature offset calibration	1,0000default loss term (dB/km)	0,3820temperature slope calibration	1,0000multiplexer offset coefficient	1,0000multiplexer slope coefficient	1,0000fibre end	0,00T internal ref (°C)	6,95T ext. ref 1 (°C)	-7,10T ext. ref 2 (°C)	-7,14length (m)	temperature (°C)	Stokes	anti-Stokes-744,400	200,931	0,163	0,183
-743,385	-0,861	-0,446	-0,229
-742,371	559,015	0,158	0,278
-741,356	-33,125	-0,417	-0,167
-740,342	296,688	0,148	0,197
-739,327	-181,330	-0,399	0,006
-738,312	260,523	0,134	0,169
-737,298	-7,631	-0,414	-0,203
-736,283	28,365	0,146	0,090
-735,269	-18,213	-0,366	-0,165
-734,254	83,736	0,088	-0,069
-733,239	9,862	-0,693	-0,381
-732,225	157,291	0,257	0,258
-731,210	-6,769	0,055	0,027
-730,196	-200,000	-0,028	-0,128
-729,181	514,531	-0,088	-0,150
-728,167	800,000	-0,077	0,185
-727,152	-200,000	0,015	-0,109
-726,137	43,461	-0,131	-0,086
-725,123	-61,113	0,113	0,035
-724,108	-77,531	-0,148	-0,037
-723,094	-200,000	0,021	-0,130
-722,079	800,000	-0,016	-0,036
-721,064	323,910	-0,028	-0,039
-720,050	-16,310	-0,068	0,031
-719,035	-200,000	-0,021	-0,160
-718,021	189,971	0,070	-0,077
-717,006	-60,705	0,051	-0,015
-715,991	-140,236	-0,081	0,006
-714,977	-200,000	-0,005	0,018
-713,962	-53,425	0,015	0,005
-712,948	318,336	-0,058	-0,080
-711,933	-45,500	-0,179	-0,064
-710,918	79,868	-0,067	-0,052
-709,904	-35,839	-0,099	-0,039
-708,889	-200,000	0,003	-0,061
-707,875	-200,000	-0,032	-0,258
-706,860	-152,363	-0,024	0,001
-705,845	528,155	-0,052	0,089
-704,831	-26,855	0,030	0,013
-703,816	800,000	0,011	-0,031
-702,802	800,000	-0,040	-0,086
-701,787	-6,472	0,073	0,036
-700,772	35,641	0,041	-0,026
-699,758	-130,980	-0,087	-0,008
-698,743	-83,992	0,200	0,046
-697,729	14,026	-0,053	-0,030
-696,714	402,611	-0,068	0,104
-695,699	87,935	-0,084	0,068
-694,685	152,592	-0,023	0,023
-693,670	461,882	-0,111	-0,179
-692,656	-200,000	0,026	-0,184
-691,641	800,000	0,017	0,037
-690,627	38,514	-0,051	-0,033
-689,612	-169,589	-0,071	0,002
-688,597	-48,689	0,032	0,011
-687,583	13,693	0,074	-0,041
-686,568	-24,500	-0,058	-0,025
-685,554	189,826	-0,073	-0,079
-684,539	800,000	-0,034	-0,075
-683,524	800,000	-0,028	0,079
-682,510	227,800	-0,041	-0,049
-681,495	-28,793	-0,143	-0,059
-680,481	-200,000	-0,026	-0,113
-679,466	22,807	-0,033	-0,020
-678,451	-138,484	-0,087	-0,007
-677,437	-42,248	0,070	0,026
-676,422	32,991	0,073	-0,046
-675,408	3,077	0,015	0,008
-674,393	391,329	-0,064	-0,096
-673,378	111,161	-0,015	-0,013
-672,364	185,509	-0,083	-0,089
-671,349	-113,441	-0,061	0,009
-670,335	352,761	0,110	-0,159
-669,320	443,227	0,027	-0,043
-668,305	-200,000	0,004	0,076
-667,291	416,502	0,024	0,037
-666,276	145,519	0,047	-0,046
-665,262	76,834	-0,062	0,048
-664,247	-167,071	-0,036	0,001
-663,232	127,944	0,060	-0,055
-662,218	800,000	0,060	-0,141
-661,203	35,306	0,076	0,048
-660,189	26,889	-0,073	0,044
-659,174	-48,814	-0,073	0,025
-658,159	800,000	-0,057	0,174
-657,145	154,874	0,078	0,078
-656,130	-200,000	0,004	0,106
-655,116	-91,139	-0,057	0,012
-654,101	-73,653	0,130	-0,034
-653,086	150,607	0,068	-0,067
-652,072	565,906	0,063	0,111
-651,057	34,841	0,078	-0,049
-650,043	49,089	-0,101	0,069
-649,028	607,469	-0,015	0,028
-648,014	364,759	-0,057	-0,084
-646,999	398,744	-0,008	-0,012
-645,984	304,606	-0,064	-0,086
-644,970	389,756	-0,091	-0,136
-643,955	206,770	-0,064	0,072
-642,941	131,250	0,071	0,066
-641,926	122,007	0,031	0,028
-640,911	248,957	-0,092	0,113
-639,897	219,270	-0,029	0,033
-638,882	115,323	-0,147	0,130
-637,868	-200,000	0,008	-0,074
-636,853	-75,147	-0,169	0,043
-635,838	-165,611	0,048	0,001
-634,824	-35,571	-0,015	0,006
-633,809	49,765	0,064	-0,044
-632,795	307,568	-0,010	0,014
-631,780	-98,586	-0,058	0,011
-630,765	54,255	0,063	-0,044
-629,751	53,601	-0,119	-0,082
-628,736	-77,133	-0,138	0,035
-627,722	230,172	0,046	-0,054
-626,707	148,895	-0,023	-0,023
-625,692	181,933	-0,094	0,100
-624,678	-68,723	-0,060	-0,017
-623,663	-67,248	-0,097	0,027
-622,649	-15,917	-0,154	-0,070
-621,634	19,188	-0,103	-0,060
-620,619	-200,000	0,010	-0,036
-619,605	262,798	0,082	-0,103
-618,590	147,888	0,031	0,031
-617,576	26,489	0,071	-0,043
-616,561	441,402	0,056	0,089
-615,546	-200,000	-0,034	-0,112
-614,532	-200,000	0,011	-0,070
-613,517	-200,000	-0,016	-0,084
-612,503	488,255	-0,045	0,075
-611,488	-200,000	-0,001	0,086
-610,474	800,000	0,019	0,054
-609,459	-200,000	-0,005	0,062
-608,444	800,000	-0,027	0,081
-607,430	-30,177	-0,168	-0,069
-606,415	-104,157	0,100	-0,017
-605,401	-87,024	0,031	0,007
-604,386	800,000	-0,012	0,035
-603,371	-55,362	-0,059	-0,019
-602,357	154,139	0,078	-0,077
-601,342	-7,956	0,091	-0,044
-600,328	-200,000	0,030	-0,112
-599,313	-75,170	-0,167	-0,043
-598,298	374,292	-0,045	-0,066
-597,284	800,000	0,048	0,146
-596,269	800,000	-0,053	0,141
-595,255	-200,000	0,031	0,119
-594,240	-200,000	0,005	-0,106
-593,225	-200,000	0,002	-0,154
-592,211	-81,840	-0,148	-0,035
-591,196	-200,000	-0,013	0,113
-590,182	-44,583	0,094	0,034
-589,167	-57,779	0,095	0,030
-588,152	-200,000	-0,017	-0,113
-587,138	-82,139	0,106	-0,025
-586,123	66,418	-0,076	-0,056
-585,109	127,226	-0,071	-0,065
-584,094	800,000	0,034	-0,107
-583,079	129,845	0,052	0,048
-582,065	-174,281	0,106	0,002
-581,050	362,733	0,019	-0,027
-580,036	-107,686	0,017	0,003
-579,021	-200,000	0,015	-0,091
-578,006	-158,929	-0,185	0,007
-576,992	-56,332	-0,088	0,028
-575,977	-120,034	0,065	0,008
-574,963	-98,520	0,077	0,014
-573,948	58,854	0,109	0,077
-572,934	-106,661	-0,110	-0,018
-571,919	-90,448	-0,216	0,045
-570,904	-200,000	-0,002	-0,085
-569,890	119,737	0,112	-0,100
-568,875	213,630	-0,064	0,073
-567,861	-26,748	-0,087	-0,037
-566,846	-65,761	0,167	-0,048
-565,831	335,601	-0,028	0,040
-564,817	-59,486	-0,068	-0,021
-563,802	-41,587	-0,073	0,027
-562,788	-200,000	-0,006	-0,131
-561,773	-69,738	-0,135	-0,037
-560,758	-158,367	0,162	0,007
-559,744	-56,370	-0,121	-0,039
-558,729	-200,000	-0,007	0,085
-557,715	231,452	0,035	0,042
-556,700	-200,000	-0,037	-0,208
-555,685	93,965	-0,022	0,018
-554,671	-200,000	0,001	-0,177
-553,656	4,244	0,110	-0,058
-552,642	18,471	0,051	-0,029
-551,627	800,000	-0,058	0,173
-550,612	83,045	-0,109	-0,086
-549,598	-200,000	0,019	-0,106
-548,583	714,630	0,090	-0,174
-547,569	-175,253	0,045	-0,001
-546,554	-6,108	-0,060	0,030
-545,539	173,548	-0,025	-0,026
-544,525	96,527	0,023	0,019
-543,510	102,902	-0,203	0,171
-542,496	265,338	-0,053	0,067
-541,481	-200,000	0,018	-0,088
-540,466	-75,767	-0,090	-0,023
-539,452	55,559	-0,057	0,040
-538,437	22,386	0,054	0,031
-537,423	-39,780	-0,184	0,069
-536,408	224,363	-0,047	0,055
-535,393	-73,340	0,086	0,023
-534,379	-173,333	0,093	-0,002
-533,364	800,000	-0,024	0,073
-532,350	-200,000	0,011	0,042
-531,335	551,989	-0,044	0,076
-530,321	-200,000	-0,037	0,138
-529,306	-89,902	-0,101	-0,021
-528,291	800,000	0,037	0,115
-527,277	-38,367	-0,104	-0,040
-526,262	-159,429	0,138	-0,005
-525,248	-72,066	0,130	0,034
-524,233	-91,975	0,057	-0,012
-523,218	18,967	0,026	0,015
-522,204	29,189	0,026	-0,016
-521,189	-2,741	-0,071	-0,036
-520,175	278,593	-0,068	-0,087
-519,160	-200,000	0,017	0,140
-518,145	-200,000	0,030	0,118
-517,131	523,074	-0,005	-0,009
-516,116	172,144	0,058	0,060
-515,102	62,949	-0,086	-0,062
-514,087	-29,829	-0,076	0,031
-513,072	-12,309	0,032	-0,015
-512,058	115,457	-0,039	0,034
-511,043	800,000	0,028	-0,057
-510,029	-105,171	0,086	-0,014
-509,014	58,742	-0,025	0,018
-507,999	180,221	-0,056	0,059
-506,985	337,371	-0,018	-0,026
-505,970	-200,000	-0,007	-0,035
-504,956	-164,424	-0,127	0,004
-503,941	67,251	0,018	-0,013
-502,926	-200,000	-0,034	0,192
-501,912	-200,000	-0,007	0,064
-500,897	-108,365	0,069	-0,011
-499,883	56,502	0,086	-0,060
-498,868	203,041	-0,058	0,064
-497,853	58,628	-0,132	-0,093
-496,839	-62,690	0,223	0,066
-495,824	-200,000	0,011	-0,091
-494,810	471,658	0,037	0,060
-493,795	-92,619	-0,142	-0,028
-492,781	-26,461	0,140	-0,059
-491,766	332,363	0,081	-0,113
-490,751	-200,000	-0,004	0,061
-489,737	-200,000	-0,023	0,107
-488,722	15,225	0,094	-0,053
-487,708	752,452	-0,023	0,046
-486,693	56,505	-0,084	0,059
-485,678	-32,930	0,078	-0,031
-484,664	-36,319	-0,076	0,029
-483,649	88,294	0,086	0,068
-482,635	-95,160	0,110	0,021
-481,620	-200,000	0,013	0,072
-480,605	-97,218	0,117	0,022
-479,591	-7,466	-0,040	0,020
-478,576	-200,000	0,004	0,014
-477,562	-200,000	0,006	-0,133
-476,547	-156,840	-0,109	0,005
-475,532	800,000	-0,047	-0,099
-474,518	108,818	-0,017	-0,015
-473,503	514,721	0,043	-0,073
-472,489	800,000	0,016	0,041
-471,474	265,317	0,090	-0,113
-470,459	-25,941	-0,037	0,016
-469,445	-200,000	-0,016	0,056
-468,430	-50,088	0,069	0,023
-467,416	-200,000	-0,015	0,153
-466,401	-77,596	0,101	-0,025
-465,386	100,018	-0,081	0,068
-464,372	-169,986	0,073	-0,002
-463,357	-38,975	-0,039	-0,015
-462,343	641,889	-0,066	-0,122
-461,328	-179,976	0,148	-0,002
-460,313	-108,149	0,048	0,007
-459,299	-55,251	0,074	0,024
-458,284	716,997	0,071	-0,135
-457,270	98,605	-0,064	0,053
-456,255	185,591	0,093	-0,100
-455,241	-61,644	0,060	-0,018
-454,226	800,000	0,073	-0,147
-453,211	-126,329	-0,096	0,010
-452,197	408,241	-0,018	-0,027
-451,182	-103,393	0,070	-0,012
-450,168	-152,190	-0,030	0,002
-449,153	-200,000	0,015	0,098
-448,138	800,000	-0,038	-0,077
-447,124	-110,860	-0,015	-0,002
-446,109	15,808	0,177	0,099
-445,095	61,409	-0,184	0,131
-444,080	-97,768	-0,035	-0,006
-443,065	-200,000	-0,016	0,055
-442,051	-200,000	-0,019	-0,098
-441,036	-200,000	-0,004	-0,109
-440,022	-200,000	-0,004	-0,167
-439,007	298,803	-0,038	-0,050
-437,992	-84,907	0,045	-0,010
-436,978	-59,189	-0,079	-0,024
-435,963	-200,000	-0,001	-0,021
-434,949	-200,000	0,029	0,119
-433,934	211,859	-0,027	0,031
-432,919	-105,329	0,044	-0,007
-431,905	138,110	-0,074	-0,070
-430,890	-200,000	0,014	-0,089
-429,876	86,213	0,130	0,103
-428,861	-200,000	0,016	0,084
-427,846	-40,783	-0,015	0,006
-426,832	-9,119	-0,109	0,052
-425,817	-200,000	-0,046	-0,174
-424,803	69,219	-0,055	-0,041
-423,788	800,000	-0,030	-0,069
-422,773	38,628	0,035	-0,023
-421,759	-86,631	0,054	0,012
-420,744	-200,000	0,019	-0,131
-419,730	800,000	-0,024	-0,074
-418,715	-200,000	0,007	-0,124
-417,701	99,608	0,064	0,053
-416,686	189,645	-0,096	0,103
-415,671	-200,000	0,002	-0,012
-414,657	800,000	-0,009	-0,023
-413,642	660,707	0,045	-0,083
-412,628	800,000	-0,037	-0,088
-411,613	633,752	-0,063	-0,115
-410,598	800,000	0,034	-0,080
-409,584	-67,283	0,097	0,027
-408,569	-61,227	0,056	0,017
-407,555	-200,000	-0,018	-0,093
-406,540	-138,591	0,123	-0,010
-405,525	-35,065	0,078	-0,030
-404,511	800,000	0,002	0,006
-403,496	100,678	0,042	0,035
-402,482	219,031	-0,075	-0,086
-401,467	-200,000	-0,031	0,114
-400,452	-114,925	-0,077	0,010
-399,438	-94,622	-0,165	-0,032
-398,423	22,107	0,091	0,053
-397,409	-101,958	-0,087	-0,015
-396,394	239,732	-0,051	0,061
-395,379	209,624	0,092	0,104
-394,365	257,688	-0,010	-0,012
-393,350	457,717	0,109	0,175
-392,336	163,226	-0,043	0,044
-391,321	-200,000	0,001	-0,025
-390,306	123,757	-0,069	-0,062
-389,292	-200,000	-0,033	-0,106
-388,277	-18,198	0,135	0,060
-387,263	793,733	0,020	0,039
-386,248	501,689	-0,053	-0,088
-385,233	336,868	0,054	0,075
-384,219	-200,000	-0,014	0,052
-383,204	34,232	0,038	-0,024
-382,190	-200,000	-0,008	0,063
-381,175	17,223	-0,050	-0,028
-380,160	-200,000	0,037	0,156
-379,146	-200,000	-0,024	0,089
-378,131	-139,497	0,090	0,007
-377,117	651,100	-0,055	-0,101
-376,102	107,451	-0,060	0,051
-375,088	-101,492	0,079	-0,014
-374,073	-200,000	-0,031	-0,145
-373,058	-200,000	-0,005	0,061
-372,044	-24,797	0,131	0,056
-371,029	-77,037	-0,084	-0,021
-370,015	-76,698	-0,125	-0,031
-369,000	137,795	-0,045	-0,042
-367,985	56,100	-0,031	-0,021
-366,971	-200,000	-0,030	0,128
-365,956	-200,000	0,009	-0,055
-364,942	-200,000	-0,003	0,097
-363,927	-89,825	0,146	0,030
-362,912	-200,000	-0,014	0,071
-361,898	261,152	-0,069	-0,086
-360,883	-200,000	-0,029	0,108
-359,869	-50,135	0,103	-0,035
-358,854	800,000	0,007	-0,014
-357,839	673,309	0,054	0,101
-356,825	463,747	0,036	0,058
-355,810	372,372	-0,057	-0,083
-354,796	57,612	0,029	0,020
-353,781	-85,034	-0,218	0,049
-352,766	259,852	-0,041	-0,050
-351,752	800,000	0,012	0,032
-350,737	-200,000	0,018	0,150
-349,723	594,107	-0,046	-0,082
-348,708	108,435	-0,042	-0,036
-347,693	-200,000	0,002	-0,017
-346,679	616,376	-0,054	-0,098
-345,664	-84,333	0,079	0,018
-344,650	-200,000	0,013	0,069
-343,635	8,094	0,046	0,025
-342,620	800,000	-0,048	0,149
-341,606	-11,904	-0,081	0,038
-340,591	-200,000	0,024	0,108
-339,577	-87,576	0,136	0,029
-338,562	85,938	-0,141	-0,110
-337,548	-139,586	0,093	0,007
-336,533	281,858	-0,026	0,033
-335,518	-200,000	0,006	0,067
-334,504	29,328	0,061	-0,037
-333,489	71,201	0,126	0,093
-332,475	526,895	-0,069	0,116
-331,460	91,327	-0,049	0,039
-330,445	324,760	0,087	0,119
-329,431	-130,632	0,046	-0,004
-328,416	-62,332	0,094	0,028
-327,402	166,266	-0,092	0,094
-326,387	-200,000	-0,006	0,054
-325,372	605,614	-0,056	-0,100
-324,358	-200,000	0,001	-0,057
-323,343	-200,000	0,008	-0,089
-322,329	-200,000	0,002	-0,098
-321,314	249,672	-0,047	0,058
-320,299	339,776	-0,058	0,081
-319,285	-18,254	0,099	0,044
-318,270	-109,832	-0,043	-0,006
-317,256	-89,133	0,116	-0,024
-316,241	-200,000	0,000	-0,084
-315,226	-200,000	0,022	0,157
-314,212	37,749	0,089	0,056
-313,197	453,853	0,100	0,159
-312,183	106,027	0,117	-0,099
-311,168	-179,471	-0,046	0,001
-310,153	249,874	-0,081	-0,099
-309,139	67,759	0,134	0,098
-308,124	-81,957	-0,008	0,002
-307,110	-200,000	0,026	0,087
-306,095	-16,736	0,118	-0,053
-305,080	-56,462	0,036	0,011
-304,066	-200,000	0,029	-0,108
-303,051	-73,069	0,202	0,053
-302,037	-73,541	-0,157	-0,041
-301,022	-82,588	-0,055	-0,013
-300,008	-200,000	0,035	0,110
-298,993	-200,000	0,030	-0,152
-297,978	800,000	0,068	-0,199
-296,964	-81,583	-0,088	0,020
-295,949	28,816	0,056	-0,034
-294,935	68,453	-0,063	-0,046
-293,920	306,052	-0,063	-0,084
-292,905	138,378	0,018	0,017
-291,891	-200,000	-0,051	-0,165
-290,876	395,005	-0,124	-0,185
-289,862	800,000	0,031	0,080
-288,847	188,618	-0,165	-0,177
-287,832	-200,000	0,049	-0,166
-286,818	-87,107	0,086	-0,019
-285,803	-100,310	0,062	0,011
-284,789	609,217	-0,025	0,045
-283,774	800,000	-0,041	0,129
-282,759	577,295	-0,016	-0,028
-281,745	-200,000	-0,013	-0,131
-280,730	177,782	0,093	0,097
-279,716	457,680	0,029	0,047
-278,701	157,214	-0,077	-0,076
-277,686	-200,000	-0,004	-0,065
-276,672	-200,000	-0,016	0,153
-275,657	146,746	0,142	-0,136
-274,643	-34,287	0,020	-0,008
-273,628	66,001	0,119	0,086
-272,613	-200,000	-0,031	-0,098
-271,599	-118,817	-0,099	0,012
-270,584	471,774	0,039	-0,064
-269,570	-113,882	-0,015	-0,002
-268,555	800,000	0,055	-0,132
-267,540	92,595	0,073	-0,059
-266,526	-200,000	0,021	-0,117
-265,511	-200,000	-0,028	-0,093
-264,497	-124,900	0,100	-0,011
-263,482	438,298	0,118	0,184
-262,467	22,530	0,075	0,044
-261,453	-200,000	-0,021	0,124
-260,438	-178,994	0,106	-0,002
-259,424	37,468	0,135	-0,085
-258,409	628,124	0,047	0,085
-257,395	374,782	-0,070	0,102
-256,380	-200,000	-0,009	0,046
-255,365	-55,088	0,097	0,031
-254,351	-200,000	-0,012	0,204
-253,336	-24,168	-0,154	-0,065
-252,322	-200,000	-0,028	0,121
-251,307	514,711	-0,053	0,089
-250,292	38,607	-0,065	-0,041
-249,278	800,000	-0,002	-0,004
-248,263	207,317	0,034	0,038
-247,249	800,000	-0,053	0,133
-246,234	-38,228	-0,021	0,008
-245,219	278,438	0,051	-0,065
-244,205	800,000	0,022	-0,045
-243,190	139,343	-0,037	0,035
-242,176	-80,655	0,110	0,026
-241,161	-90,843	0,011	-0,002
-240,146	-200,000	-0,002	0,110
-239,132	800,000	-0,021	-0,046
-238,117	37,780	0,065	0,041
-237,103	800,000	0,007	-0,018
-236,088	-200,000	-0,009	-0,099
-235,073	800,000	0,024	-0,067
-234,059	-92,405	0,198	-0,039
-233,044	-200,000	-0,014	0,054
-232,030	800,000	0,028	0,058
-231,015	-57,542	-0,020	-0,006
-230,000	-190,804	-0,127	0,001
-228,986	800,000	0,037	-0,091
-227,971	-92,724	-0,040	-0,008
-226,957	800,000	0,085	-0,188
-225,942	729,966	0,038	0,072
-224,927	-60,180	-0,111	-0,034
-223,913	-121,146	0,021	-0,002
-222,898	-200,000	-0,014	-0,071
-221,884	800,000	-0,026	0,081
-220,869	800,000	-0,051	0,159
-219,855	136,928	0,072	0,067
-218,840	800,000	0,002	0,004
-217,825	105,993	-0,090	-0,075
-216,811	-200,000	0,007	-0,089
-215,796	602,551	0,011	-0,020
-214,782	45,444	0,111	0,073
-213,767	-4,590	0,049	-0,024
-212,752	757,851	0,033	0,063
-211,738	170,830	0,048	-0,049
-210,723	-127,584	-0,051	-0,005
-209,709	800,000	0,034	-0,068
-208,694	-41,824	-0,083	-0,030
-207,679	770,998	0,031	-0,060
-206,665	4,022	0,137	0,071
-205,650	689,724	0,058	0,108
-204,636	377,071	0,024	-0,034
-203,621	800,000	-0,045	-0,095
-202,606	33,122	0,122	0,075
-201,592	800,000	-0,009	-0,029
-200,577	-136,648	-0,161	-0,013
-199,563	384,388	-0,053	0,078
-198,548	15,259	0,082	-0,045
-197,533	-200,000	-0,016	0,137
-196,519	424,337	0,049	-0,076
-195,504	104,012	0,085	-0,071
-194,490	-132,343	-0,080	0,007
-193,475	-119,269	-0,100	-0,012
-192,460	188,957	0,051	0,054
-191,446	800,000	-0,029	-0,083
-190,431	22,753	-0,047	-0,027
-189,417	-175,483	0,071	-0,001
-188,402	239,150	-0,052	-0,061
-187,387	-200,000	0,038	0,156
-186,373	-29,327	-0,051	-0,021
-185,358	800,000	-0,028	-0,064
-184,344	529,704	0,021	0,036
-183,329	-200,000	-0,002	-0,009
-182,315	-66,517	-0,072	-0,020
-181,300	56,340	-0,025	-0,018
-180,285	800,000	0,031	-0,065
-179,271	-3,931	-0,101	-0,050
-178,256	225,498	-0,115	0,132
-177,242	-200,000	0,009	0,068
-176,227	42,539	0,103	0,066
-175,212	-200,000	0,013	0,127
-174,198	586,921	0,039	-0,068
-173,183	-56,069	-0,121	-0,038
-172,169	50,308	0,115	0,077
-171,154	800,000	-0,048	-0,126
-170,139	-91,734	0,186	-0,037
-169,125	185,974	0,040	0,042
-168,110	389,177	0,056	-0,083
-167,096	-150,571	-0,017	-0,001
-166,081	144,053	-0,016	0,015
-165,066	800,000	0,026	0,059
-164,052	-200,000	-0,015	0,120
-163,037	-128,328	-0,078	-0,008
-162,023	253,533	0,072	0,088
-161,008	320,288	-0,067	0,090
-159,993	-14,459	0,118	0,054
-158,979	-79,154	-0,176	0,042
-157,964	688,263	0,016	-0,029
-156,950	-45,572	0,041	0,014
-155,935	-27,622	-0,103	-0,042
-154,920	35,694	-0,032	0,020
-153,906	115,681	0,138	0,120
-152,891	-54,878	-0,123	0,039
-151,877	-149,946	0,036	0,002
-150,862	800,000	-0,025	-0,059
-149,847	82,035	0,034	0,026
-148,833	-200,000	0,003	-0,048
-147,818	-14,753	0,201	0,091
-146,804	-78,252	0,121	-0,029
-145,789	229,064	0,074	0,086
-144,775	-200,000	-0,010	0,067
-143,760	-200,000	-0,005	-0,069
-142,745	182,674	-0,072	-0,076
-141,731	-71,030	0,018	0,005
-140,716	-200,000	-0,011	-0,080
-139,702	-145,646	-0,080	0,005
-138,687	61,011	0,117	0,082
-137,672	142,596	-0,082	0,077
-136,658	640,269	0,037	-0,066
-135,643	-153,977	0,043	-0,002
-134,629	272,944	-0,041	-0,052
-133,614	800,000	-0,013	-0,028
-132,599	400,156	0,057	0,085
-131,585	774,544	0,040	0,077
-130,570	800,000	-0,043	0,093
-129,556	-10,394	-0,078	0,036
-128,541	-200,000	-0,005	-0,021
-127,526	140,991	0,085	0,080
-126,512	41,794	-0,088	-0,057
-125,497	-47,639	-0,046	0,016
-124,483	54,035	0,054	0,037
-123,468	-200,000	-0,004	-0,060
-122,453	800,000	-0,063	-0,129
-121,439	497,774	-0,067	-0,110
-120,424	800,000	-0,044	-0,103
-119,410	-200,000	-0,018	0,174
