DTS Sentinel unit serial number:	SN410029Multiplexer serial number:	ORYXHardware model number:	OX2-SRSoftware version number:	ORYX F/W v4,00 Oryx Data Collector v3.7.2.0data status	okinstallation	B6 Nyhavnadifferential loss correction	single-endedforward channel	channel 2reverse channel	N/Adate	2023/12/07time	12:55:08forward acquisition time	300,00reverse acquisition time	0,00gamma	499,1914k internal	0,3203k external	0,3203temperature offset calibration	1,0000default loss term (dB/km)	0,3820temperature slope calibration	1,0000multiplexer offset coefficient	1,0000multiplexer slope coefficient	1,0000fibre end	0,00T internal ref (°C)	10,91T ext. ref 1 (°C)	-2,70T ext. ref 2 (°C)	-2,69length (m)	temperature (°C)	Stokes	anti-Stokes-744,400	-155,540	0,101	-0,005
-743,385	-112,903	-0,468	-0,067
-742,371	-28,874	0,182	0,076
-741,356	-82,893	-0,388	-0,090
-740,342	-118,786	0,066	-0,008
-739,327	-42,734	-0,267	-0,098
-738,312	-38,693	0,122	0,047
-737,298	154,189	-0,283	-0,282
-736,283	48,081	0,071	0,048
-735,269	-130,204	-0,298	-0,029
-734,254	-45,478	0,177	-0,063
-733,239	-49,632	-0,455	-0,156
-732,225	-31,168	0,153	0,062
-731,210	-152,463	-0,076	-0,004
-730,196	6,227	-0,066	0,036
-729,181	-200,000	0,001	-0,041
-728,167	800,000	-0,022	0,067
-727,152	-200,000	-0,002	0,136
-726,137	-46,361	-0,155	0,055
-725,123	-153,485	0,033	-0,002
-724,108	-113,435	-0,159	-0,022
-723,094	-35,181	-0,160	-0,063
-722,079	474,547	-0,122	-0,201
-721,064	367,085	0,035	0,052
-720,050	-200,000	-0,015	0,072
-719,035	56,388	-0,032	0,023
-718,021	554,739	-0,053	0,093
-717,006	26,825	-0,042	-0,025
-715,991	800,000	-0,045	-0,121
-714,977	-29,534	-0,178	-0,073
-713,962	614,191	-0,048	-0,088
-712,948	800,000	0,038	-0,085
-711,933	504,058	0,070	-0,119
-710,918	-134,710	-0,105	-0,009
-709,904	274,526	-0,086	-0,110
-708,889	-4,797	0,021	0,010
-707,875	413,390	-0,044	-0,069
-706,860	-97,484	0,128	0,024
-705,845	146,724	0,114	-0,111
-704,831	800,000	-0,037	0,078
-703,816	192,201	-0,061	0,067
-702,802	5,899	-0,091	-0,048
-701,787	361,766	0,054	0,079
-700,772	8,316	-0,012	-0,006
-699,758	-118,551	-0,005	-0,001
-698,743	16,782	-0,064	0,037
-697,729	-185,474	0,021	0,000
-696,714	-159,716	-0,069	-0,003
-695,699	-92,721	-0,092	0,019
-694,685	186,748	-0,061	0,066
-693,670	49,290	-0,036	-0,025
-692,656	11,485	-0,080	0,044
-691,641	-160,631	0,106	0,004
-690,627	-63,954	-0,040	-0,012
-689,612	-141,015	-0,155	-0,011
-688,597	282,427	-0,067	-0,087
-687,583	654,545	-0,094	-0,175
-686,568	151,087	0,071	0,070
-685,554	-200,000	0,014	-0,136
-684,539	0,461	-0,143	0,074
-683,524	-74,332	0,098	-0,026
-682,510	346,788	-0,065	0,092
-681,495	-200,000	0,023	-0,115
-680,481	142,757	0,034	0,033
-679,466	-193,850	-0,072	-0,000
-678,451	621,625	-0,083	-0,152
-677,437	-200,000	0,021	-0,116
-676,422	-200,000	0,004	-0,082
-675,408	800,000	-0,052	-0,142
-674,393	583,039	-0,085	0,152
-673,378	104,664	0,095	-0,081
-672,364	77,820	-0,027	-0,021
-671,349	800,000	0,003	0,008
-670,335	-64,851	-0,058	0,017
-669,320	-188,376	-0,062	0,001
-668,305	41,960	0,086	-0,056
-667,291	800,000	-0,006	0,016
-666,276	-97,821	-0,031	0,006
-665,262	-172,648	0,063	0,001
-664,247	-114,475	0,031	-0,004
-663,232	-13,645	0,045	0,021
-662,218	-200,000	-0,008	-0,093
-661,203	-21,354	0,087	0,038
-660,189	16,837	-0,190	0,109
-659,174	303,143	-0,101	0,136
-658,159	-134,202	-0,110	-0,010
-657,145	800,000	-0,008	-0,023
-656,130	33,483	-0,083	0,052
-655,116	406,939	0,056	0,086
-654,101	548,574	-0,026	0,044
-653,086	77,403	-0,132	-0,102
-652,072	800,000	-0,048	0,116
-651,057	-200,000	0,015	-0,080
-650,043	-200,000	-0,013	-0,093
-649,028	800,000	0,037	-0,101
-648,014	230,223	-0,073	-0,087
-646,999	-69,753	0,005	-0,001
-645,984	-200,000	0,018	0,060
-644,970	-166,670	-0,114	0,003
-643,955	-200,000	-0,008	-0,030
-642,941	-156,866	-0,104	-0,005
-641,926	-68,061	0,126	-0,035
-640,911	230,437	0,045	0,053
-639,897	-13,925	0,004	0,002
-638,882	800,000	-0,019	0,057
-637,868	-200,000	-0,024	0,096
-636,853	192,919	-0,061	-0,066
-635,838	-200,000	-0,004	-0,040
-634,824	258,816	-0,046	0,057
-633,809	56,350	0,097	0,068
-632,795	346,298	0,024	0,034
-631,780	-95,433	0,103	-0,020
-630,765	-33,572	-0,145	-0,058
-629,751	2,049	-0,152	-0,079
-628,736	-92,653	-0,017	0,003
-627,722	-84,396	-0,157	-0,036
-626,707	113,142	-0,044	0,038
-625,692	-193,324	0,106	-0,001
-624,678	-30,394	-0,172	-0,070
-623,663	-90,208	0,057	-0,012
-622,649	-110,317	-0,135	-0,020
-621,634	-200,000	-0,001	-0,059
-620,619	188,846	0,033	-0,036
-619,605	-200,000	-0,023	0,244
-618,590	262,954	-0,042	0,053
-617,576	-200,000	0,019	0,111
-616,561	358,702	-0,073	0,105
-615,546	-40,760	0,143	-0,053
-614,532	-47,072	-0,076	-0,027
-613,517	-200,000	0,019	0,094
-612,503	-200,000	0,025	-0,080
-611,488	-62,950	0,077	0,023
-610,474	147,362	0,134	0,130
-609,459	219,220	-0,132	0,153
-608,444	133,993	-0,136	-0,127
-607,430	-52,046	0,191	-0,064
-606,415	-200,000	-0,006	-0,025
-605,401	800,000	-0,051	0,112
-604,386	800,000	0,035	0,103
-603,371	800,000	0,014	-0,039
-602,357	-41,712	0,031	0,011
-601,342	-200,000	-0,001	0,056
-600,328	-200,000	0,026	0,115
-599,313	800,000	-0,084	-0,169
-598,298	104,744	-0,077	0,065
-597,284	60,759	-0,084	-0,060
-596,269	-17,713	0,137	-0,062
-595,255	-200,000	0,003	0,012
-594,240	-80,187	-0,011	-0,003
-593,225	-200,000	-0,011	-0,072
-592,211	-156,118	-0,193	-0,009
-591,196	736,857	-0,022	0,043
-590,182	70,635	0,063	0,047
-589,167	-200,000	0,025	0,082
-588,152	103,877	-0,069	-0,059
-587,138	-54,331	0,174	0,057
-586,123	229,384	0,035	-0,041
-585,109	415,585	-0,029	-0,045
-584,094	-200,000	-0,025	0,127
-583,079	-200,000	-0,008	0,077
-582,065	334,530	0,026	0,037
-581,050	-109,208	-0,089	0,013
-580,036	-5,961	0,092	0,045
-579,021	-90,110	-0,052	0,011
-578,006	-167,540	-0,114	-0,003
-576,992	166,335	-0,106	0,109
-575,977	-200,000	-0,020	-0,094
-574,963	460,491	-0,075	0,122
-573,948	-200,000	-0,001	-0,071
-572,934	-86,266	-0,034	-0,008
-571,919	500,116	0,069	-0,115
-570,904	-83,208	-0,074	-0,017
-569,890	310,430	-0,017	-0,023
-568,875	603,940	-0,013	-0,023
-567,861	-200,000	-0,022	0,078
-566,846	-200,000	0,009	0,132
-565,831	800,000	0,032	0,100
-564,817	-22,584	-0,160	0,069
-563,802	800,000	0,041	-0,088
-562,788	186,990	-0,064	-0,069
-561,773	-200,000	-0,008	0,056
-560,758	-200,000	-0,022	0,153
-559,744	-200,000	0,000	-0,027
-558,729	-200,000	-0,012	0,150
-557,715	-100,722	-0,125	0,022
-556,700	1,137	-0,025	0,013
-555,685	121,618	-0,087	-0,078
-554,671	59,730	-0,083	0,059
-553,656	228,957	0,086	0,102
-552,642	800,000	0,013	0,037
-551,627	-30,632	0,124	0,050
-550,612	800,000	0,028	-0,085
-549,598	-8,814	-0,077	-0,037
-548,583	61,518	0,081	-0,058
-547,569	329,233	0,042	-0,059
-546,554	-17,510	-0,055	-0,025
-545,539	-200,000	-0,004	0,022
-544,525	-152,871	-0,052	-0,003
-543,510	-200,000	0,003	0,018
-542,496	208,427	0,084	0,095
-541,481	296,991	-0,091	-0,121
-540,466	68,104	0,079	0,058
-539,452	289,416	0,035	-0,045
-538,437	117,640	-0,017	-0,015
-537,423	467,202	-0,036	0,058
-536,408	-156,113	0,041	-0,002
-535,393	314,988	-0,069	-0,094
-534,379	156,054	-0,051	0,051
-533,364	480,841	0,016	-0,026
-532,350	800,000	0,007	-0,022
-531,335	458,393	0,025	-0,040
-530,321	250,770	-0,097	-0,119
-529,306	166,353	0,076	-0,078
-528,291	-1,243	-0,141	0,072
-527,277	-44,193	-0,107	-0,039
-526,262	111,213	-0,047	0,041
-525,248	435,714	0,011	-0,017
-524,233	800,000	0,016	0,046
-523,218	800,000	0,031	0,082
-522,204	-200,000	-0,023	0,117
-521,189	48,429	0,093	-0,063
-520,175	92,579	0,053	-0,043
-519,160	-200,000	-0,003	-0,080
-518,145	-200,000	-0,005	0,036
-517,131	800,000	-0,034	0,097
-516,116	800,000	-0,012	0,032
-515,102	-200,000	0,022	-0,161
-514,087	696,500	0,030	-0,058
-513,072	19,147	-0,108	-0,062
-512,058	800,000	-0,024	0,064
-511,043	-200,000	-0,017	-0,120
-510,029	-57,859	-0,062	-0,020
-509,014	-200,000	0,025	0,181
-507,999	-153,369	0,099	0,005
-506,985	607,524	-0,065	-0,117
-505,970	18,679	-0,095	-0,055
-504,956	178,256	-0,073	-0,077
-503,941	34,680	0,016	0,010
-502,926	109,070	-0,039	0,033
-501,912	800,000	0,018	-0,046
-500,897	-162,122	0,112	-0,004
-499,883	-13,355	0,068	-0,031
-498,868	151,982	-0,052	0,051
-497,853	-50,840	-0,143	-0,048
-496,839	800,000	0,038	0,091
-495,824	85,820	0,067	-0,053
-494,810	-14,820	0,072	0,033
-493,795	800,000	0,047	0,129
-492,781	800,000	0,020	0,056
-491,766	800,000	0,023	-0,059
-490,751	800,000	-0,058	-0,123
-489,737	18,791	0,077	-0,044
-488,722	-65,402	0,156	0,045
-487,708	310,561	-0,051	0,069
-486,693	238,627	0,036	0,044
-485,678	-10,477	0,162	-0,077
-484,664	201,838	-0,117	-0,129
-483,649	-200,000	0,011	-0,080
-482,635	28,494	-0,060	0,037
-481,620	-52,526	0,135	-0,045
-480,605	-123,954	0,060	-0,007
-479,591	-200,000	-0,010	-0,081
-478,576	-0,898	0,039	-0,020
-477,562	-200,000	0,033	-0,204
-476,547	800,000	0,048	-0,110
-475,532	-200,000	-0,025	-0,082
-474,518	71,321	0,091	-0,068
-473,503	-34,950	0,066	0,026
-472,489	-114,236	0,054	0,007
-471,474	-200,000	-0,033	0,160
-470,459	-145,276	-0,013	-0,001
-469,445	498,494	0,061	-0,101
-468,430	-200,000	0,006	0,055
-467,416	444,241	0,078	0,123
-466,401	-200,000	-0,005	-0,037
-465,386	-200,000	-0,005	0,049
-464,372	-32,545	0,096	-0,038
-463,357	800,000	0,027	0,078
-462,343	-29,308	-0,067	-0,028
-461,328	800,000	0,028	0,081
-460,313	-101,661	-0,029	0,005
-459,299	-15,958	0,036	-0,016
-458,284	800,000	-0,048	0,127
-457,270	-200,000	0,021	0,113
-456,255	364,475	-0,023	-0,033
-455,241	-30,726	-0,036	0,015
-454,226	-200,000	-0,008	-0,063
-453,211	317,886	-0,098	0,134
-452,197	800,000	-0,045	0,092
-451,182	-17,829	0,079	0,035
-450,168	299,052	-0,063	0,084
-449,153	-200,000	-0,015	-0,140
-448,138	-200,000	0,000	0,027
-447,124	294,303	0,076	-0,101
-446,109	-200,000	-0,010	0,060
-445,095	-200,000	0,011	0,144
-444,080	46,384	-0,103	0,069
-443,065	-200,000	-0,003	0,057
-442,051	800,000	-0,086	0,189
-441,036	-154,277	0,098	0,005
-440,022	113,604	-0,132	-0,115
-439,007	-200,000	0,013	-0,059
-437,992	67,685	-0,048	0,035
-436,978	223,612	-0,072	0,083
-435,963	46,332	-0,153	0,102
-434,949	584,114	-0,022	0,039
-433,934	709,408	0,056	-0,106
-432,919	137,088	-0,084	0,079
-431,905	800,000	-0,038	0,097
-430,890	-200,000	-0,004	-0,040
-429,876	217,669	-0,105	0,121
-428,861	-200,000	-0,021	-0,107
-427,846	-32,299	0,081	-0,032
-426,832	329,557	-0,061	0,084
-425,817	-132,100	0,076	-0,007
-424,803	-29,513	-0,144	0,059
-423,788	-200,000	0,025	0,120
-422,773	-200,000	0,015	0,105
-421,759	-200,000	-0,022	0,132
-420,744	-140,771	-0,068	-0,005
-419,730	20,205	-0,022	0,013
-418,715	-9,404	-0,151	-0,072
-417,701	232,570	-0,084	0,099
-416,686	-99,441	0,134	0,024
-415,671	51,846	0,182	-0,124
-414,657	-82,182	-0,131	-0,030
-413,642	-200,000	-0,011	-0,095
-412,628	21,324	-0,079	-0,046
-411,613	800,000	0,015	0,042
-410,598	-0,545	0,069	-0,035
-409,584	177,246	0,040	0,041
-408,569	-78,260	0,086	0,021
-407,555	-200,000	0,017	0,074
-406,540	-200,000	-0,034	0,118
-405,525	-60,553	-0,025	0,008
-404,511	-200,000	0,035	-0,114
-403,496	-87,906	0,089	-0,019
-402,482	-86,597	-0,068	-0,015
-401,467	22,729	0,100	0,059
-400,452	203,622	0,033	0,036
-399,438	296,804	0,014	-0,019
-398,423	712,166	0,058	0,111
-397,409	-200,000	-0,004	-0,046
-396,394	-200,000	0,017	-0,129
-395,379	48,806	-0,052	0,035
-394,365	-200,000	0,003	0,028
-393,350	800,000	-0,038	-0,088
-392,336	167,982	0,128	-0,130
-391,321	-71,132	0,069	-0,018
-390,306	23,583	-0,093	0,055
-389,292	122,365	0,120	0,108
-388,277	800,000	0,030	-0,064
-387,263	147,015	-0,100	-0,096
-386,248	-200,000	-0,006	-0,027
-385,233	7,050	0,091	-0,049
-384,219	570,750	-0,052	-0,091
-383,204	-24,391	0,097	0,041
-382,190	153,384	-0,050	-0,049
-381,175	800,000	0,038	0,100
-380,160	-130,317	0,055	-0,005
-379,146	-25,130	0,122	0,052
-378,131	-182,127	-0,082	0,001
-377,117	-17,567	-0,060	-0,027
-376,102	-200,000	-0,003	-0,028
-375,088	-105,711	-0,113	-0,018
-374,073	110,196	0,059	0,051
-373,058	-200,000	-0,005	-0,033
-372,044	-78,505	0,010	0,002
-371,029	163,392	0,090	-0,091
-370,015	800,000	-0,053	-0,109
-369,000	19,494	-0,107	0,062
-367,985	-200,000	-0,012	-0,174
-366,971	-200,000	-0,017	-0,116
-365,956	790,064	-0,043	0,084
-364,942	-87,788	0,068	0,015
-363,927	800,000	-0,049	-0,130
-362,912	-98,048	0,057	0,010
-361,898	132,422	-0,023	0,021
-360,883	-88,575	-0,084	0,018
-359,869	-118,304	-0,072	0,009
-358,854	491,266	0,026	0,043
-357,839	-200,000	0,002	0,049
-356,825	36,316	0,123	0,077
-355,810	1,434	-0,175	0,090
-354,796	82,812	-0,046	-0,036
-353,781	373,709	-0,060	-0,087
-352,766	-200,000	0,012	-0,173
-351,752	800,000	-0,038	0,080
-350,737	-124,214	0,086	-0,009
-349,723	-58,714	0,029	-0,009
-348,708	380,435	0,074	-0,109
-347,693	708,257	-0,056	-0,107
-346,679	284,301	0,074	-0,096
-345,664	-90,210	0,091	-0,019
-344,650	49,390	-0,033	0,022
-343,635	800,000	-0,015	0,045
-342,620	-200,000	0,018	-0,069
-341,606	-200,000	-0,012	0,043
-340,591	-200,000	-0,014	0,054
-339,577	800,000	-0,043	-0,126
-338,562	110,854	0,077	-0,066
-337,548	-200,000	0,006	-0,105
-336,533	-29,511	0,116	0,047
-335,518	34,444	0,089	-0,056
-334,504	664,821	0,027	-0,051
-333,489	76,257	0,075	0,057
-332,475	38,343	0,092	0,058
-331,460	800,000	0,036	-0,099
-330,445	295,677	-0,087	-0,114
-329,431	69,404	0,094	0,069
-328,416	-51,574	0,142	0,047
-327,402	351,574	0,116	0,165
-326,387	-32,994	0,112	0,044
-325,372	595,705	0,024	-0,042
-324,358	800,000	0,019	-0,039
-323,343	-200,000	0,004	-0,081
-322,329	800,000	-0,020	0,042
-321,314	747,573	-0,054	0,104
-320,299	679,260	0,025	0,047
-319,285	-161,493	0,069	-0,002
-318,270	-79,279	0,103	-0,025
-317,256	-177,139	-0,050	0,001
-316,241	488,933	0,015	0,025
-315,226	324,802	0,040	-0,055
-314,212	70,603	0,034	-0,025
-313,197	-125,000	0,101	0,011
-312,183	-84,022	-0,037	0,008
-311,168	109,440	-0,110	-0,094
-310,153	-200,000	-0,007	-0,090
-309,139	-123,703	-0,084	-0,009
-308,124	-111,498	0,016	-0,002
-307,110	-61,051	-0,033	0,010
-306,095	47,932	-0,111	0,074
-305,080	315,892	-0,010	-0,013
-304,066	366,104	0,042	-0,061
-303,051	-200,000	-0,014	-0,046
-302,037	-187,003	-0,046	0,000
-301,022	288,777	0,059	0,076
-300,008	496,629	0,059	-0,097
-298,993	-200,000	0,011	0,099
-297,978	-44,925	-0,080	0,028
-296,964	251,834	0,066	-0,080
-295,949	-200,000	-0,026	0,109
-294,935	141,890	-0,142	-0,134
-293,920	672,168	0,012	0,022
-292,905	-115,409	0,101	-0,013
-291,891	-3,790	0,121	0,060
-290,876	-63,619	-0,069	-0,020
-289,862	-80,473	0,032	0,007
-288,847	-163,382	-0,142	0,005
-287,832	256,922	-0,072	-0,088
-286,818	-200,000	-0,043	0,139
-285,803	-65,301	0,065	0,018
-284,789	-82,645	0,072	-0,017
-283,774	227,905	0,122	0,143
-282,759	-200,000	-0,039	0,137
-281,745	-8,099	-0,058	0,028
-280,730	800,000	-0,029	-0,083
-279,716	800,000	0,036	0,111
-278,701	800,000	-0,023	-0,059
-277,686	429,424	0,072	0,111
-276,672	-31,781	-0,103	0,041
-275,657	-200,000	0,002	0,095
-274,643	-200,000	-0,001	-0,102
-273,628	21,698	-0,084	-0,048
-272,613	605,053	0,043	0,077
-271,599	-155,816	0,092	0,004
-270,584	-62,613	0,084	0,025
-269,570	203,959	0,078	0,086
-268,555	230,484	-0,072	0,084
-267,540	24,333	-0,112	-0,066
-266,526	800,000	0,007	-0,021
-265,511	-121,556	-0,103	0,012
-264,497	144,880	0,057	-0,055
-263,482	60,115	0,149	0,105
-262,467	-200,000	0,044	0,185
-261,453	-200,000	-0,005	0,124
-260,438	-200,000	0,017	-0,134
-259,424	359,522	-0,071	-0,101
-258,409	43,710	0,061	0,040
-257,395	157,019	0,028	-0,027
-256,380	4,912	-0,074	-0,039
-255,365	87,454	0,100	0,079
-254,351	-2,438	-0,093	-0,046
-253,336	769,883	-0,029	-0,057
-252,322	473,773	0,102	-0,165
-251,307	-200,000	-0,001	-0,070
-250,292	-200,000	0,032	0,152
-249,278	96,871	0,028	0,023
-248,263	288,799	-0,042	0,054
-247,249	-44,729	0,116	0,041
-246,234	800,000	0,024	-0,062
-245,219	-158,158	-0,089	-0,004
-244,205	63,703	0,043	-0,030
-243,190	152,368	-0,051	0,050
-242,176	441,619	0,029	-0,045
-241,161	-126,569	0,109	0,011
-240,146	31,554	0,043	0,026
-239,132	-200,000	-0,024	-0,151
-238,117	424,114	-0,050	-0,076
-237,103	-200,000	0,015	-0,096
-236,088	495,360	-0,119	-0,196
-235,073	-200,000	-0,012	0,084
-234,059	-129,822	0,136	0,013
-233,044	728,990	-0,031	-0,059
-232,030	-200,000	0,009	-0,146
-231,015	286,887	-0,101	-0,131
-230,000	-158,975	-0,128	0,005
-228,986	452,745	-0,027	-0,042
-227,971	800,000	0,017	0,048
-226,957	-200,000	0,016	0,065
-225,942	-50,242	0,056	0,019
-224,927	-171,236	0,079	0,002
-223,913	-106,061	-0,030	0,005
-222,898	-84,335	-0,140	-0,031
-221,884	-200,000	0,001	-0,043
-220,869	-59,642	0,075	0,023
-219,855	-200,000	-0,042	0,199
-218,840	744,055	0,081	0,156
-217,825	726,217	-0,044	-0,085
-216,811	727,759	-0,060	-0,114
-215,796	-32,272	-0,056	0,022
-214,782	-38,001	-0,130	-0,049
-213,767	-200,000	0,002	-0,119
-212,752	235,962	0,044	0,052
-211,738	34,142	-0,066	-0,041
-210,723	800,000	0,056	0,116
-209,709	-200,000	-0,082	0,000
-208,694	-118,828	0,095	-0,012
-207,679	305,388	0,009	-0,012
-206,665	111,910	-0,011	-0,010
-205,650	680,992	0,085	0,159
-204,636	-200,000	-0,026	0,101
-203,621	31,504	-0,020	-0,012
-202,606	10,324	0,097	0,052
-201,592	-123,348	0,106	0,012
-200,577	-46,621	-0,059	-0,021
-199,563	-200,000	0,003	0,012
-198,548	800,000	-0,009	0,028
-197,533	185,914	0,137	-0,145
-196,519	4,248	0,087	-0,045
-195,504	-21,193	-0,008	-0,004
-194,490	-33,056	-0,073	-0,029
-193,475	800,000	0,035	-0,069
-192,460	213,877	-0,021	-0,023
-191,446	138,573	-0,012	0,012
-190,431	350,340	0,034	-0,048
-189,417	800,000	-0,026	-0,071
-188,402	-0,812	0,095	0,048
-187,387	160,332	0,021	-0,021
-186,373	-75,461	-0,104	-0,026
-185,358	725,232	0,068	0,129
-184,344	800,000	0,019	-0,053
-183,329	800,000	0,065	-0,175
-182,315	296,716	0,025	0,033
-181,300	171,859	0,065	-0,067
-180,285	691,301	0,041	-0,076
-179,271	14,567	0,134	-0,074
-178,256	-200,000	0,001	-0,073
-177,242	-200,000	-0,020	-0,079
-176,227	214,351	0,064	0,072
-175,212	-200,000	-0,021	0,084
-174,198	-200,000	0,031	0,133
-173,183	-200,000	-0,007	0,080
-172,169	87,876	-0,153	-0,120
-171,154	684,860	0,042	-0,078
-170,139	-11,631	0,043	-0,020
-169,125	-73,774	0,068	0,017
-168,110	312,283	-0,047	-0,063
-167,096	-121,398	0,086	-0,010
-166,081	353,386	-0,049	-0,069
-165,066	107,933	-0,033	-0,028
-164,052	-200,000	0,001	-0,107
-163,037	-145,778	0,104	-0,006
-162,023	-1,182	-0,074	0,037
-161,008	161,867	0,109	0,109
-159,993	56,650	-0,087	0,060
-158,979	-42,802	0,038	-0,014
-157,964	54,871	-0,095	-0,065
-156,950	104,379	0,019	0,016
-155,935	-200,000	-0,016	-0,174
-154,920	-69,971	-0,125	0,033
-153,906	-200,000	0,011	0,155
-152,891	675,655	-0,017	-0,031
-151,877	-200,000	0,009	0,065
-150,862	-92,291	0,019	-0,004
-149,847	-39,038	-0,084	-0,031
-148,833	-39,713	0,006	-0,002
-147,818	-31,395	-0,043	0,017
-146,804	-200,000	-0,035	-0,117
-145,789	800,000	-0,055	-0,130
-144,775	101,124	-0,088	-0,073
-143,760	-200,000	0,019	0,106
-142,745	222,551	-0,066	-0,075
-141,731	-200,000	0,001	-0,047
-140,716	-200,000	0,023	-0,086
-139,702	177,070	0,050	0,052
-138,687	800,000	-0,041	-0,086
-137,672	800,000	-0,053	-0,140
-136,658	58,668	-0,077	0,054
-135,643	100,214	0,140	0,116
-134,629	59,417	0,082	-0,057
-133,614	-113,700	0,180	0,025
-132,599	800,000	-0,032	-0,074
-131,585	18,257	0,073	0,041
-130,570	156,517	0,052	-0,051
-129,556	443,450	0,067	0,104
-128,541	-200,000	-0,023	0,116
-127,526	-22,554	-0,101	0,043
-126,512	100,115	-0,043	-0,036
-125,497	-1,541	0,078	0,039
-124,483	34,257	0,059	-0,036
-123,468	-70,434	0,056	0,015
-122,453	-200,000	0,012	-0,058
-121,439	-200,000	-0,011	-0,053
-120,424	-200,000	-0,055	-0,208
