DTS Sentinel unit serial number:	SN410029Multiplexer serial number:	ORYXHardware model number:	OX2-SRSoftware version number:	ORYX F/W v4,00 Oryx Data Collector v3.7.2.0data status	okinstallation	B6 Nyhavnadifferential loss correction	single-endedforward channel	channel 2reverse channel	N/Adate	2023/12/10time	23:35:08forward acquisition time	300,00reverse acquisition time	0,00gamma	499,1914k internal	0,3122k external	0,3122temperature offset calibration	1,0000default loss term (dB/km)	0,3820temperature slope calibration	1,0000multiplexer offset coefficient	1,0000multiplexer slope coefficient	1,0000fibre end	0,00T internal ref (°C)	22,39T ext. ref 1 (°C)	6,11T ext. ref 2 (°C)	6,12length (m)	temperature (°C)	Stokes	anti-Stokes-744,400	-66,058	0,139	0,041
-743,385	14,082	-0,180	0,104
-742,371	-35,241	0,039	0,016
-741,356	46,117	-0,199	0,137
-740,342	50,831	0,074	-0,052
-739,327	35,833	-0,294	0,192
-738,312	-200,000	0,014	-0,115
-737,298	33,883	-0,226	0,147
-736,283	-21,643	0,038	0,017
-735,269	-39,342	-0,118	0,046
-734,254	800,000	0,051	0,121
-733,239	-125,012	-0,338	-0,038
-732,225	-28,863	0,159	0,068
-731,210	800,000	-0,045	-0,114
-730,196	704,555	-0,083	-0,164
-729,181	-200,000	0,003	0,021
-728,167	800,000	-0,019	-0,051
-727,152	800,000	0,046	-0,111
-726,137	692,385	-0,055	-0,107
-725,123	587,689	0,032	-0,059
-724,108	-200,000	-0,001	0,037
-723,094	171,153	-0,066	-0,071
-722,079	-92,270	-0,197	-0,041
-721,064	80,811	0,047	-0,038
-720,050	-59,065	-0,155	0,050
-719,035	800,000	-0,023	-0,048
-718,021	-200,000	0,038	-0,164
-717,006	217,133	0,026	0,030
-715,991	-38,847	-0,126	-0,049
-714,977	518,621	0,030	-0,053
-713,962	419,187	0,025	0,040
-712,948	-12,209	-0,147	0,071
-711,933	-200,000	0,021	0,117
-710,918	449,368	-0,052	0,086
-709,904	-17,831	-0,039	0,018
-708,889	30,910	0,067	-0,043
-707,875	41,227	-0,057	0,038
-706,860	-200,000	-0,002	0,062
-705,845	686,970	-0,006	-0,011
-704,831	-40,103	-0,066	-0,025
-703,816	800,000	-0,056	0,138
-702,802	800,000	0,037	-0,087
-701,787	159,550	0,030	0,031
-700,772	337,644	0,102	-0,148
-699,758	281,207	-0,079	-0,105
-698,743	-119,063	0,150	-0,019
-697,729	-200,000	0,009	0,100
-696,714	39,803	0,066	-0,044
-695,699	-200,000	-0,057	-0,203
-694,685	-200,000	0,014	-0,229
-693,670	136,828	-0,134	-0,131
-692,656	-17,163	0,132	-0,062
-691,641	24,566	-0,127	-0,078
-690,627	-200,000	0,013	0,072
-689,612	-33,939	0,093	-0,038
-688,597	-68,979	0,054	-0,015
-687,583	50,770	-0,075	0,052
-686,568	800,000	-0,027	-0,071
-685,554	329,149	-0,096	0,138
-684,539	-200,000	-0,038	-0,199
-683,524	31,237	-0,056	0,036
-682,510	-200,000	0,018	-0,087
-681,495	-81,132	0,106	-0,026
-680,481	152,671	-0,073	-0,075
-679,466	264,410	-0,067	-0,087
-678,451	-29,398	0,119	-0,050
-677,437	74,490	-0,048	0,038
-676,422	55,115	-0,061	0,044
-675,408	171,023	-0,033	-0,035
-674,393	111,956	0,146	0,131
-673,378	-200,000	-0,008	0,057
-672,364	126,578	-0,099	-0,093
-671,349	800,000	-0,009	0,026
-670,335	318,030	0,109	0,154
-669,320	-200,000	0,019	0,064
-668,305	-56,586	0,065	0,021
-667,291	-200,000	-0,000	-0,119
-666,276	-200,000	0,001	0,005
-665,262	128,084	-0,077	-0,072
-664,247	800,000	0,052	-0,118
-663,232	-200,000	0,021	-0,085
-662,218	800,000	-0,038	-0,095
-661,203	432,663	-0,028	-0,045
-660,189	-85,575	-0,032	0,007
-659,174	-93,902	-0,236	-0,048
-658,159	331,276	0,039	-0,056
-657,145	-38,334	-0,043	0,017
-656,130	232,351	0,121	0,148
-655,116	-117,566	-0,106	-0,014
-654,101	-76,809	0,121	0,031
-653,086	-200,000	0,036	-0,146
-652,072	92,014	0,064	-0,054
-651,057	-117,009	-0,101	0,014
-650,043	800,000	-0,013	-0,040
-649,028	-119,296	-0,090	0,011
-648,014	-153,303	0,100	-0,005
-646,999	574,509	-0,050	0,090
-645,984	-38,688	0,104	-0,041
-644,970	800,000	0,051	-0,122
-643,955	-200,000	0,004	-0,071
-642,941	87,404	-0,171	-0,140
-641,926	-167,937	-0,099	-0,003
-640,911	800,000	-0,015	0,036
-639,897	-34,573	0,070	0,028
-638,882	-104,361	-0,057	-0,010
-637,868	-36,033	-0,111	0,044
-636,853	-160,125	-0,007	-0,000
-635,838	-200,000	-0,009	-0,105
-634,824	19,560	-0,089	-0,053
-633,809	800,000	0,026	-0,076
-632,795	-147,260	-0,083	-0,005
-631,780	-200,000	0,008	0,122
-630,765	467,159	-0,010	-0,016
-629,751	-65,399	-0,187	0,055
-628,736	800,000	0,027	-0,068
-627,722	547,643	-0,068	-0,121
-626,707	-11,498	0,106	-0,051
-625,692	131,812	0,088	-0,084
-624,678	-160,484	0,151	0,006
-623,663	800,000	-0,071	-0,149
-622,649	-200,000	-0,006	-0,070
-621,634	554,326	-0,016	0,029
-620,619	-200,000	0,033	0,124
-619,605	800,000	0,020	-0,054
-618,590	-94,034	0,082	0,016
-617,576	-200,000	0,007	0,044
-616,561	-94,175	0,064	-0,013
-615,546	58,093	-0,058	-0,042
-614,532	-83,776	-0,161	0,038
-613,517	-200,000	0,016	0,070
-612,503	-200,000	-0,017	0,138
-611,488	-182,335	-0,096	0,001
-610,474	170,716	0,018	0,019
-609,459	-94,894	-0,055	-0,011
-608,444	-119,408	-0,092	0,012
-607,430	-121,599	-0,052	-0,006
-606,415	-112,506	-0,064	0,009
-605,401	-200,000	-0,065	-0,000
-604,386	406,350	0,046	0,072
-603,371	-42,664	-0,090	-0,034
-602,357	-200,000	-0,026	0,134
-601,342	97,891	0,037	-0,032
-600,328	-1,274	-0,087	-0,045
-599,313	201,722	0,091	0,104
-598,298	400,087	-0,134	-0,210
-597,284	-116,489	0,114	-0,015
-596,269	130,333	-0,072	-0,068
-595,255	52,358	0,048	-0,034
-594,240	-200,000	-0,029	-0,177
-593,225	503,237	-0,101	0,174
-592,211	724,328	-0,064	-0,126
-591,196	-135,008	0,061	0,005
-590,182	-200,000	0,021	-0,111
-589,167	-23,224	0,125	0,055
-588,152	-200,000	0,017	-0,091
-587,138	370,625	0,019	0,029
-586,123	-118,422	-0,319	0,041
-585,109	-15,041	0,131	0,062
-584,094	-8,326	0,096	-0,048
-583,079	800,000	0,031	0,080
-582,065	800,000	-0,033	0,082
-581,050	108,681	0,005	-0,005
-580,036	-200,000	0,010	-0,077
-579,021	309,335	-0,036	-0,050
-578,006	284,167	0,029	-0,038
-576,992	-27,599	-0,043	0,019
-575,977	142,584	-0,044	-0,043
-574,963	72,606	0,181	0,140
-573,948	95,512	-0,089	0,075
-572,934	-200,000	-0,008	-0,028
-571,919	74,566	-0,106	-0,082
-570,904	107,297	-0,081	-0,071
-569,890	351,664	0,031	-0,046
-568,875	321,477	0,117	0,165
-567,861	112,626	0,189	0,170
-566,846	192,500	-0,118	0,132
-565,831	-200,000	-0,007	0,173
-564,817	-122,063	0,079	0,009
-563,802	208,516	0,061	0,071
-562,788	800,000	-0,030	-0,073
-561,773	-16,962	-0,061	-0,028
-560,758	379,215	0,035	-0,054
-559,744	-200,000	0,043	0,218
-558,729	-75,195	-0,171	0,045
-557,715	-41,248	-0,166	0,063
-556,700	800,000	-0,063	0,146
-555,685	-44,104	0,031	-0,011
-554,671	697,071	-0,051	-0,100
-553,656	-200,000	-0,018	0,091
-552,642	-151,035	-0,065	0,004
-551,627	-47,234	0,093	0,033
-550,612	-9,425	-0,039	0,019
-549,598	-182,606	-0,110	0,001
-548,583	-200,000	-0,003	0,093
-547,569	137,717	-0,037	-0,035
-546,554	499,946	-0,052	-0,089
-545,539	386,812	0,015	-0,023
-544,525	-37,798	0,120	0,047
-543,510	415,828	0,131	-0,207
-542,496	401,238	-0,085	-0,132
-541,481	330,094	-0,032	-0,046
-540,466	21,693	0,150	-0,090
-539,452	-56,320	0,044	-0,015
-538,437	-200,000	-0,001	0,057
-537,423	-200,000	-0,016	-0,063
-536,408	132,994	-0,057	0,054
-535,393	534,180	0,035	-0,061
-534,379	-143,316	-0,073	0,005
-533,364	584,528	0,040	-0,072
-532,350	29,785	0,015	-0,009
-531,335	-49,618	0,039	0,014
-530,321	800,000	0,036	0,097
-529,306	-200,000	0,015	0,052
-528,291	-200,000	0,042	-0,173
-527,277	-15,424	-0,155	-0,073
-526,262	47,227	0,147	0,101
-525,248	-61,016	-0,076	0,024
-524,233	-137,086	0,099	0,008
-523,218	242,588	0,025	0,031
-522,204	-200,000	-0,017	-0,082
-521,189	-200,000	-0,017	0,061
-520,175	112,550	-0,099	0,088
-519,160	800,000	0,017	-0,036
-518,145	-73,579	0,021	-0,006
-517,131	572,564	0,015	0,027
-516,116	800,000	-0,025	-0,068
-515,102	71,666	-0,035	-0,027
-514,087	-200,000	-0,015	0,089
-513,072	800,000	0,039	-0,091
-512,058	-200,000	-0,002	-0,066
-511,043	800,000	0,032	-0,075
-510,029	-158,093	0,048	0,002
-509,014	582,842	0,053	-0,097
-507,999	216,297	0,077	0,090
-506,985	-49,958	-0,078	-0,027
-505,970	84,527	0,069	-0,056
-504,956	-75,570	-0,125	0,033
-503,941	721,213	0,058	-0,115
-502,926	-200,000	0,003	-0,084
-501,912	800,000	-0,015	0,037
-500,897	65,580	0,150	0,112
-499,883	-42,001	-0,085	-0,032
-498,868	-188,068	-0,066	-0,001
-497,853	800,000	-0,089	-0,238
-496,839	800,000	0,030	0,070
-495,824	247,460	0,087	0,108
-494,810	-200,000	-0,015	0,084
-493,795	800,000	-0,053	0,114
-492,781	137,913	0,093	0,090
-491,766	-66,163	-0,063	0,018
-490,751	-143,080	-0,047	-0,003
-489,737	-55,456	-0,215	-0,071
-488,722	52,252	0,077	0,054
-487,708	208,895	0,088	-0,101
-486,693	-141,890	-0,218	-0,016
-485,678	-200,000	-0,023	0,128
-484,664	62,458	0,094	-0,069
-483,649	130,412	0,033	-0,031
-482,635	-200,000	0,013	0,086
-481,620	800,000	0,032	-0,075
-480,605	306,340	0,020	-0,027
-479,591	625,954	0,027	0,050
-478,576	-147,078	0,060	-0,004
-477,562	-78,145	0,023	-0,006
-476,547	383,293	-0,029	-0,044
-475,532	-114,292	-0,090	0,013
-474,518	6,324	0,122	-0,067
-473,503	598,027	-0,038	0,071
-472,489	350,344	-0,064	0,094
-471,474	800,000	0,064	-0,162
-470,459	-200,000	0,016	-0,070
-469,445	7,362	-0,089	0,049
-468,430	-89,063	-0,036	0,008
-467,416	211,803	0,020	0,023
-466,401	-130,894	0,072	-0,007
-465,386	384,554	-0,030	0,045
-464,372	-200,000	0,004	0,030
-463,357	-43,758	-0,098	0,036
-462,343	100,619	0,070	0,060
-461,328	800,000	-0,022	-0,071
-460,313	-95,702	-0,057	0,011
-459,299	800,000	0,036	0,100
-458,284	192,148	0,071	-0,079
-457,270	-200,000	0,013	0,049
-456,255	1,990	0,094	0,050
-455,241	280,211	-0,085	-0,113
-454,226	-110,801	-0,110	0,017
-453,211	800,000	-0,017	0,051
-452,197	0,508	0,073	-0,039
-451,182	-72,769	0,054	0,015
-450,168	-98,068	0,027	0,005
-449,153	-63,007	0,205	-0,062
-448,138	800,000	-0,029	-0,078
-447,124	-128,437	-0,055	0,006
-446,109	-200,000	-0,005	-0,017
-445,095	117,037	-0,045	0,041
-444,080	-49,282	-0,138	-0,048
-443,065	-100,870	-0,093	0,017
-442,051	240,048	-0,044	-0,054
-441,036	-200,000	-0,024	0,212
-440,022	532,026	-0,100	-0,175
-439,007	185,857	-0,036	0,040
-437,992	-48,211	0,114	0,040
-436,978	-12,939	0,107	-0,051
-435,963	298,619	0,070	0,095
-434,949	51,455	-0,063	0,044
-433,934	158,705	-0,029	0,030
-432,919	-200,000	-0,037	-0,127
-431,905	24,970	-0,029	0,018
-430,890	-200,000	0,028	0,150
-429,876	-136,396	0,118	-0,010
-428,861	96,683	0,126	0,107
-427,846	125,860	0,102	-0,095
-426,832	105,123	-0,080	0,069
-425,817	-69,465	-0,172	-0,048
-424,803	-105,817	0,020	-0,003
-423,788	11,653	0,100	-0,056
-422,773	140,097	0,070	-0,068
-421,759	256,038	0,069	-0,088
-420,744	428,071	0,058	-0,093
-419,730	-162,329	-0,112	0,004
-418,715	-200,000	-0,030	-0,150
-417,701	142,911	0,086	0,085
-416,686	27,091	-0,095	0,059
-415,671	-89,903	-0,025	-0,005
-414,657	327,702	0,054	0,077
-413,642	651,537	0,064	0,121
-412,628	-200,000	-0,037	-0,132
-411,613	800,000	-0,045	-0,115
-410,598	729,315	-0,030	-0,060
-409,584	6,830	0,050	-0,027
-408,569	-106,951	0,088	0,014
-407,555	-30,383	0,043	-0,018
-406,540	800,000	0,088	0,192
-405,525	132,591	0,052	0,050
-404,511	800,000	-0,016	0,039
-403,496	800,000	0,033	0,085
-402,482	-36,876	0,062	-0,024
-401,467	-40,273	0,197	0,075
-400,452	143,846	-0,032	0,031
-399,438	224,282	0,056	-0,066
-398,423	-109,378	-0,134	-0,021
-397,409	-19,536	-0,143	-0,065
-396,394	333,480	-0,040	-0,057
-395,379	-46,432	-0,066	0,024
-394,365	5,724	0,071	-0,039
-393,350	-200,000	0,001	0,013
-392,336	9,651	-0,035	-0,020
-391,321	155,643	0,184	0,187
-390,306	162,371	-0,039	-0,040
-389,292	-107,328	0,075	0,012
-388,277	-200,000	-0,008	-0,088
-387,263	-45,706	-0,079	-0,028
-386,248	800,000	0,024	-0,054
-385,233	-148,027	0,064	0,004
-384,219	800,000	0,055	0,115
-383,204	-200,000	-0,002	-0,122
-382,190	596,039	-0,037	-0,068
-381,175	800,000	-0,008	-0,025
-380,160	-200,000	-0,003	0,064
-379,146	441,686	0,078	0,126
-378,131	800,000	-0,033	-0,103
-377,117	730,584	-0,023	0,045
-376,102	10,723	-0,146	-0,081
-375,088	290,028	-0,113	-0,151
-374,073	77,227	0,108	-0,084
-373,058	-155,198	0,214	0,010
-372,044	306,581	0,038	0,052
-371,029	-47,051	0,080	0,029
-370,015	147,402	-0,081	0,081
-369,000	-84,594	0,044	-0,010
-367,985	102,906	0,077	-0,066
-366,971	335,716	-0,056	-0,080
-365,956	-200,000	-0,024	0,085
-364,942	-200,000	0,014	0,057
-363,927	236,309	0,017	0,021
-362,912	19,156	-0,029	0,017
-361,898	20,246	-0,082	0,049
-360,883	-200,000	-0,012	-0,056
-359,869	0,216	0,030	0,016
-358,854	-200,000	-0,000	0,136
-357,839	-121,544	-0,091	-0,011
-356,825	766,996	-0,026	-0,053
-355,810	86,807	0,024	-0,019
-354,796	160,896	-0,042	0,043
-353,781	66,720	0,048	-0,036
-352,766	1,733	-0,100	0,053
-351,752	297,922	-0,104	0,141
-350,737	298,639	0,050	0,068
-349,723	-89,122	0,109	0,023
-348,708	254,333	-0,093	-0,117
-347,693	-166,637	0,119	0,004
-346,679	91,169	-0,074	0,061
-345,664	53,540	-0,057	0,040
-344,650	567,016	0,024	0,044
-343,635	-15,510	0,126	-0,059
-342,620	255,578	0,071	0,090
-341,606	526,770	-0,036	-0,063
-340,591	151,790	0,039	0,039
-339,577	-200,000	-0,082	0,000
-338,562	-26,499	-0,133	0,057
-337,548	271,766	-0,018	0,023
-336,533	60,200	0,088	-0,064
-335,518	302,844	0,074	0,101
-334,504	-68,687	-0,104	0,029
-333,489	-146,315	0,104	-0,007
-332,475	-6,854	-0,068	-0,034
-331,460	70,534	-0,164	-0,124
-330,445	-45,348	-0,048	0,017
-329,431	-200,000	-0,005	-0,074
-328,416	350,120	0,054	-0,078
-327,402	71,564	0,148	0,113
-326,387	76,957	-0,034	0,026
-325,372	-200,000	0,031	0,128
-324,358	-200,000	0,008	0,043
-323,343	-82,917	-0,059	-0,014
-322,329	76,855	-0,062	0,048
-321,314	-200,000	0,006	-0,076
-320,299	-56,063	-0,063	0,020
-319,285	-124,353	0,032	0,004
-318,270	519,390	0,038	0,065
-317,256	-200,000	0,000	-0,109
-316,241	-68,213	0,025	-0,007
-315,226	-200,000	-0,012	0,076
-314,212	228,257	0,029	0,035
-313,197	-8,295	0,145	0,071
-312,183	10,404	0,081	-0,045
-311,168	-200,000	0,013	-0,145
-310,153	42,581	-0,115	-0,077
-309,139	-112,328	0,100	0,014
-308,124	622,496	0,037	0,069
-307,110	152,121	0,089	-0,089
-306,095	13,398	-0,055	0,031
-305,080	-200,000	-0,012	0,044
-304,066	800,000	0,024	-0,058
-303,051	-157,930	-0,107	0,005
-302,037	692,443	0,024	0,046
-301,022	15,981	0,032	0,019
-300,008	798,389	0,044	0,089
-298,993	-96,327	-0,021	0,004
-297,978	247,553	0,091	0,113
-296,964	-52,770	-0,079	-0,027
-295,949	800,000	0,012	-0,029
-294,935	-43,564	-0,043	-0,016
-293,920	800,000	0,032	0,077
-292,905	-200,000	-0,027	0,094
-291,891	-56,061	0,098	-0,032
-290,876	-200,000	0,044	-0,163
-289,862	-173,423	0,202	-0,004
-288,847	257,215	-0,091	-0,114
-287,832	-96,865	0,098	-0,019
-286,818	-139,326	0,088	-0,007
-285,803	-23,832	0,039	0,017
-284,789	346,475	0,047	0,069
-283,774	-44,588	0,029	0,011
-282,759	18,916	0,156	-0,091
-281,745	-200,000	0,006	0,050
-280,730	800,000	-0,061	-0,155
-279,716	-200,000	0,000	0,007
-278,701	89,483	-0,028	0,023
-277,686	-121,179	0,178	0,022
-276,672	-200,000	0,015	-0,067
-275,657	-200,000	-0,013	0,070
-274,643	-200,000	-0,154	0,000
-273,628	39,746	0,090	0,059
-272,613	-44,216	-0,091	-0,033
-271,599	-179,462	0,023	0,000
-270,584	-200,000	0,012	0,205
-269,570	-200,000	0,021	-0,070
-268,555	-62,573	0,055	-0,017
-267,540	-174,002	-0,100	0,002
-266,526	-141,521	-0,098	-0,007
-265,511	44,755	-0,021	0,014
-264,497	319,116	0,039	0,055
-263,482	111,332	0,079	0,070
-262,467	-9,277	0,078	-0,038
-261,453	29,278	0,039	-0,024
-260,438	2,313	-0,142	-0,075
-259,424	-0,306	-0,089	-0,046
-258,409	-89,185	-0,080	-0,017
-257,395	-30,488	0,060	0,025
-256,380	800,000	0,024	0,050
-255,365	9,234	-0,087	-0,048
-254,351	-200,000	0,021	-0,142
-253,336	-11,695	0,085	-0,041
-252,322	-200,000	-0,011	0,037
-251,307	1,789	-0,040	0,021
-250,292	-133,609	-0,108	-0,010
-249,278	791,925	-0,101	0,203
-248,263	-200,000	0,004	0,092
-247,249	7,264	-0,016	0,008
-246,234	800,000	0,016	-0,042
-245,219	57,319	-0,103	-0,073
-244,205	139,931	-0,098	-0,094
-243,190	55,434	0,063	0,045
-242,176	228,043	-0,043	0,051
-241,161	246,362	0,080	0,098
-240,146	-108,393	0,030	0,005
-239,132	358,691	-0,043	0,063
-238,117	-37,244	0,008	-0,003
-237,103	362,564	-0,067	-0,098
-236,088	-200,000	-0,023	-0,122
-235,073	130,010	0,016	-0,015
-234,059	51,443	0,016	-0,011
-233,044	150,140	0,065	0,064
-232,030	800,000	0,031	0,087
-231,015	-200,000	0,004	-0,099
-230,000	54,443	-0,070	-0,049
-228,986	203,212	-0,086	-0,097
-227,971	-200,000	-0,026	0,151
-226,957	-200,000	-0,035	0,144
-225,942	171,226	0,041	-0,043
-224,927	-75,193	0,135	0,035
-223,913	-166,962	0,077	0,002
-222,898	800,000	-0,046	-0,139
-221,884	-200,000	0,025	-0,083
-220,869	-53,645	-0,052	-0,017
-219,855	-45,029	0,175	0,063
-218,840	800,000	0,007	0,018
-217,825	143,295	0,081	-0,079
-216,811	56,674	-0,095	-0,067
-215,796	529,430	-0,088	-0,152
-214,782	298,519	-0,036	0,048
-213,767	15,915	0,037	0,021
-212,752	-91,379	0,062	0,013
-211,738	800,000	-0,028	0,069
-210,723	-200,000	-0,013	0,079
-209,709	740,879	0,044	0,087
-208,694	611,280	-0,070	0,129
-207,679	-60,229	0,184	-0,057
-206,665	249,162	-0,118	-0,147
-205,650	-70,616	-0,115	0,031
-204,636	-95,802	-0,060	0,012
-203,621	184,567	-0,083	-0,089
-202,606	800,000	0,013	-0,038
-201,592	347,202	-0,092	0,132
-200,577	800,000	0,033	-0,106
-199,563	25,046	0,068	0,041
-198,548	209,366	-0,037	0,042
-197,533	200,114	0,094	0,105
-196,519	-49,501	0,109	-0,038
-195,504	-200,000	0,010	0,081
-194,490	414,822	0,065	-0,102
-193,475	-105,631	0,062	-0,010
-192,460	-200,000	-0,002	-0,026
-191,446	8,730	0,181	0,099
-190,431	800,000	-0,020	0,049
-189,417	335,152	-0,032	-0,045
-188,402	-200,000	0,005	-0,060
-187,387	800,000	0,063	-0,141
-186,373	800,000	0,027	-0,068
-185,358	-200,000	0,021	0,108
-184,344	800,000	0,032	-0,095
-183,329	603,027	-0,049	0,088
-182,315	-200,000	-0,050	0,175
-181,300	392,467	0,039	-0,060
-180,285	10,929	-0,175	-0,097
-179,271	138,091	-0,038	-0,037
-178,256	-143,512	-0,124	-0,008
-177,242	49,206	-0,106	-0,072
-176,227	-89,405	0,076	0,016
-175,212	93,412	-0,072	0,059
-174,198	526,147	0,052	-0,089
-173,183	9,329	-0,104	0,057
-172,169	-8,467	-0,126	0,061
-171,154	-200,000	0,019	-0,081
-170,139	26,342	-0,036	-0,022
-169,125	314,520	0,045	0,062
-168,110	-200,000	-0,003	0,156
-167,096	800,000	0,031	0,084
-166,081	134,103	0,120	-0,113
-165,066	-21,528	-0,035	0,016
-164,052	800,000	-0,009	-0,022
-163,037	-200,000	-0,008	-0,040
-162,023	-30,075	0,096	-0,040
-161,008	224,977	0,077	-0,091
-159,993	224,372	-0,022	0,026
-158,979	80,672	-0,166	-0,130
-157,964	-8,912	0,073	0,035
-156,950	76,429	-0,038	0,029
-155,935	-149,569	0,022	0,001
-154,920	-19,541	0,108	0,049
-153,906	-200,000	-0,017	0,118
-152,891	102,030	0,078	0,066
-151,877	15,511	-0,066	0,038
-150,862	-71,219	-0,058	-0,016
-149,847	93,637	0,044	0,036
-148,833	-200,000	0,007	-0,084
-147,818	-42,338	0,040	0,015
-146,804	229,953	-0,060	0,072
-145,789	-160,671	0,093	-0,004
-144,775	-68,844	-0,026	-0,007
-143,760	45,993	-0,045	-0,030
-142,745	-146,302	0,122	-0,008
-141,731	-200,000	-0,029	-0,132
-140,716	-200,000	-0,003	-0,032
-139,702	99,810	-0,095	0,080
-138,687	115,667	-0,099	-0,088
-137,672	-200,000	-0,050	-0,189
-136,658	-87,089	0,077	-0,017
-135,643	141,728	0,048	-0,046
-134,629	-13,073	0,094	-0,044
-133,614	169,487	0,038	0,040
-132,599	-200,000	-0,004	0,096
-131,585	-6,722	-0,086	0,042
-130,570	-200,000	-0,051	0,165
-129,556	42,534	-0,103	0,068
-128,541	800,000	-0,041	-0,089
-127,526	-123,269	0,098	0,011
-126,512	-122,616	0,109	0,013
-125,497	464,246	0,049	0,080
-124,483	-200,000	0,001	0,009
-123,468	-200,000	-0,007	0,023
-122,453	-200,000	0,012	-0,054
-121,439	53,428	-0,092	-0,064
-120,424	211,034	-0,067	-0,077
-119,410	-127,506	-0,068	-0,007
-118,395	647,650	-0,116	0,217
