DTS Sentinel unit serial number:	SN410029Multiplexer serial number:	ORYXHardware model number:	OX2-SRSoftware version number:	ORYX F/W v4,00 Oryx Data Collector v3.7.2.0data status	okinstallation	B6 Nyhavnadifferential loss correction	single-endedforward channel	channel 2reverse channel	N/Adate	2023/12/08time	12:40:08forward acquisition time	300,00reverse acquisition time	0,00gamma	499,1914k internal	0,3159k external	0,3159temperature offset calibration	1,0000default loss term (dB/km)	0,3820temperature slope calibration	1,0000multiplexer offset coefficient	1,0000multiplexer slope coefficient	1,0000fibre end	0,00T internal ref (°C)	15,06T ext. ref 1 (°C)	-1,52T ext. ref 2 (°C)	-1,52length (m)	temperature (°C)	Stokes	anti-Stokes-744,400	-110,597	0,162	-0,024
-743,385	-92,615	-0,175	0,036
-742,371	131,895	0,135	-0,128
-741,356	-100,137	-0,251	-0,046
-740,342	-93,393	0,082	0,017
-739,327	-115,521	-0,415	-0,057
-738,312	-200,000	-0,022	-0,078
-737,298	-80,348	-0,293	-0,072
-736,283	630,416	0,062	-0,116
-735,269	-157,885	-0,314	-0,013
-734,254	621,461	-0,017	0,031
-733,239	-146,577	-0,471	-0,030
-732,225	57,175	0,145	0,104
-731,210	-200,000	-0,009	0,033
-730,196	-200,000	0,008	-0,026
-729,181	98,467	-0,073	0,062
-728,167	382,962	-0,036	-0,054
-727,152	-7,328	0,134	-0,067
-726,137	48,300	-0,114	0,079
-725,123	800,000	-0,056	-0,129
-724,108	-200,000	-0,001	0,010
-723,094	8,612	-0,060	-0,033
-722,079	710,685	0,032	-0,062
-721,064	-200,000	-0,032	-0,124
-720,050	-76,634	-0,013	-0,003
-719,035	256,102	-0,096	0,121
-718,021	-16,923	-0,211	0,098
-717,006	800,000	-0,013	-0,040
-715,991	97,017	-0,146	-0,123
-714,977	-122,268	-0,104	0,012
-713,962	294,906	-0,072	-0,098
-712,948	-107,185	0,021	0,003
-711,933	800,000	0,028	-0,073
-710,918	800,000	0,007	-0,019
-709,904	29,247	-0,119	0,074
-708,889	34,239	0,029	0,019
-707,875	-119,954	-0,069	0,009
-706,860	-3,217	0,135	-0,069
-705,845	367,533	-0,053	-0,079
-704,831	39,381	0,107	-0,070
-703,816	-200,000	-0,046	0,182
-702,802	60,244	-0,101	0,073
-701,787	202,897	-0,109	-0,124
-700,772	800,000	-0,047	-0,116
-699,758	-200,000	-0,003	-0,077
-698,743	-84,805	-0,072	-0,017
-697,729	284,750	-0,037	-0,049
-696,714	-200,000	-0,003	0,025
-695,699	11,050	0,105	0,059
-694,685	-200,000	0,027	-0,107
-693,670	-200,000	0,012	-0,139
-692,656	556,645	-0,081	-0,145
-691,641	800,000	0,003	-0,010
-690,627	-26,260	0,054	0,023
-689,612	167,806	0,009	0,009
-688,597	-72,943	-0,095	0,026
-687,583	100,488	-0,096	-0,082
-686,568	-25,600	0,055	0,024
-685,554	800,000	-0,026	-0,057
-684,539	20,331	0,047	-0,028
-683,524	-51,369	-0,079	0,027
-682,510	-24,923	0,024	-0,010
-681,495	-57,676	0,074	0,024
-680,481	-200,000	-0,022	-0,109
-679,466	57,575	-0,025	-0,018
-678,451	-116,945	-0,073	-0,010
-677,437	-200,000	0,008	0,025
-676,422	236,202	-0,029	-0,035
-675,408	-31,586	0,130	-0,053
-674,393	52,162	-0,054	-0,038
-673,378	20,098	-0,163	-0,096
-672,364	-200,000	-0,029	-0,178
-671,349	-14,839	-0,129	-0,061
-670,335	-200,000	0,008	-0,028
-669,320	800,000	-0,034	-0,090
-668,305	116,617	0,045	0,040
-667,291	-36,802	0,084	0,033
-666,276	7,151	0,063	-0,034
-665,262	180,948	0,056	-0,061
-664,247	519,080	0,047	-0,082
-663,232	800,000	-0,036	-0,112
-662,218	39,143	-0,012	-0,008
-661,203	104,790	-0,079	0,068
-660,189	-118,304	0,137	0,018
-659,174	-73,000	0,079	0,021
-658,159	-189,114	-0,072	-0,001
-657,145	39,104	0,089	-0,058
-656,130	-200,000	0,008	-0,098
-655,116	-95,808	-0,035	-0,007
-654,101	243,247	-0,011	-0,013
-653,086	326,184	-0,035	-0,050
-652,072	-56,699	-0,066	0,021
-651,057	268,763	-0,118	-0,152
-650,043	354,328	0,078	-0,114
-649,028	800,000	-0,023	0,063
-648,014	280,846	-0,018	-0,024
-646,999	-41,604	-0,125	-0,047
-645,984	-64,596	-0,083	-0,024
-644,970	800,000	0,025	-0,082
-643,955	800,000	0,016	-0,053
-642,941	513,835	-0,049	0,084
-641,926	-78,611	-0,043	0,011
-640,911	-81,040	0,179	0,043
-639,897	-89,158	0,138	0,030
-638,882	546,330	0,034	-0,060
-637,868	-200,000	-0,021	0,087
-636,853	12,328	-0,179	-0,101
-635,838	-200,000	-0,009	0,063
-634,824	800,000	-0,017	0,049
-633,809	22,549	-0,162	0,097
-632,795	-143,261	-0,077	0,005
-631,780	-60,259	-0,058	-0,018
-630,765	-63,055	0,068	-0,020
-629,751	-169,196	0,005	0,000
-628,736	184,494	-0,090	0,098
-627,722	65,119	-0,017	-0,012
-626,707	-200,000	0,004	0,021
-625,692	-21,661	0,071	-0,031
-624,678	-57,972	0,176	0,056
-623,663	-158,633	-0,108	0,004
-622,649	-200,000	0,011	-0,084
-621,634	60,860	0,037	0,027
-620,619	-121,628	-0,134	-0,016
-619,605	384,103	-0,018	0,028
-618,590	157,462	-0,056	-0,057
-617,576	37,177	0,104	0,067
-616,561	-200,000	-0,004	-0,019
-615,546	79,037	0,040	-0,031
-614,532	521,349	0,034	-0,058
-613,517	312,254	0,042	-0,058
-612,503	800,000	0,039	-0,098
-611,488	-45,013	-0,071	0,026
-610,474	95,939	-0,101	0,084
-609,459	-127,609	0,146	-0,015
-608,444	800,000	0,036	-0,093
-607,430	4,860	-0,098	0,053
-606,415	-2,162	-0,116	-0,059
-605,401	800,000	0,022	0,063
-604,386	800,000	0,057	0,148
-603,371	125,717	0,033	-0,030
-602,357	-137,379	-0,156	-0,013
-601,342	245,271	-0,048	0,059
-600,328	60,736	-0,094	0,068
-599,313	129,585	0,079	-0,074
-598,298	-200,000	0,006	-0,035
-597,284	265,681	0,040	-0,051
-596,269	-140,836	0,136	0,010
-595,255	-200,000	-0,010	-0,145
-594,240	-107,797	-0,054	-0,008
-593,225	-91,290	-0,106	-0,022
-592,211	-200,000	-0,014	0,072
-591,196	258,063	0,011	0,014
-590,182	222,799	-0,070	0,083
-589,167	-185,155	-0,162	-0,002
-588,152	2,609	-0,121	0,064
-587,138	-123,356	-0,105	0,012
-586,123	737,716	0,003	0,006
-585,109	6,953	-0,175	-0,095
-584,094	-200,000	0,019	-0,084
-583,079	-132,909	0,139	0,013
-582,065	-200,000	-0,005	0,045
-581,050	-25,412	-0,025	-0,011
-580,036	-69,192	-0,009	-0,003
-579,021	-66,658	0,051	-0,015
-578,006	-200,000	-0,001	-0,138
-576,992	-200,000	0,003	0,067
-575,977	-200,000	-0,003	-0,010
-574,963	28,091	0,114	-0,070
-573,948	127,284	-0,067	-0,062
-572,934	800,000	0,021	-0,042
-571,919	86,299	-0,080	-0,064
-570,904	800,000	-0,038	-0,088
-569,890	-17,859	-0,021	0,010
-568,875	9,653	0,054	0,030
-567,861	36,354	0,086	0,056
-566,846	-42,176	-0,077	0,029
-565,831	166,595	0,117	0,122
-564,817	486,809	0,054	-0,091
-563,802	671,941	-0,014	-0,027
-562,788	-200,000	0,024	-0,081
-561,773	186,857	-0,046	0,050
-560,758	368,788	0,101	0,150
-559,744	-13,666	-0,125	-0,059
-558,729	-200,000	-0,013	0,041
-557,715	427,157	-0,044	-0,070
-556,700	4,881	-0,055	0,029
-555,685	-200,000	0,006	0,033
-554,671	800,000	0,036	-0,087
-553,656	104,064	-0,050	0,043
-552,642	520,861	-0,061	0,105
-551,627	-121,458	-0,061	-0,007
-550,612	-27,243	0,090	-0,038
-549,598	800,000	-0,080	-0,180
-548,583	209,053	0,104	0,119
-547,569	800,000	0,012	-0,036
-546,554	250,428	-0,078	0,098
-545,539	-111,728	-0,109	0,016
-544,525	74,898	-0,114	-0,088
-543,510	-200,000	-0,001	-0,147
-542,496	-137,679	-0,062	-0,005
-541,481	-200,000	-0,018	-0,090
-540,466	201,164	0,062	-0,069
-539,452	10,423	-0,053	-0,029
-538,437	588,661	0,102	0,184
-537,423	-174,597	-0,044	0,001
-536,408	520,041	0,027	0,046
-535,393	-200,000	0,005	-0,095
-534,379	-200,000	-0,031	-0,148
-533,364	94,246	-0,041	0,034
-532,350	-108,128	0,158	-0,025
-531,335	-117,056	0,183	-0,024
-530,321	-179,393	-0,098	0,002
-529,306	800,000	0,009	0,026
-528,291	-126,480	-0,157	0,017
-527,277	-200,000	0,007	-0,079
-526,262	-128,129	-0,140	-0,014
-525,248	-27,562	0,048	-0,020
-524,233	33,441	0,096	0,061
-523,218	800,000	0,011	0,025
-522,204	-96,403	0,091	-0,017
-521,189	800,000	0,050	-0,113
-520,175	-41,561	-0,002	-0,001
-519,160	76,994	0,060	0,046
-518,145	161,457	-0,059	0,061
-517,131	-200,000	0,015	-0,094
-516,116	276,700	0,100	0,130
-515,102	-37,441	-0,039	0,015
-514,087	-200,000	0,013	0,043
-513,072	-59,040	-0,132	-0,041
-512,058	-200,000	-0,006	0,019
-511,043	172,281	0,019	0,019
-510,029	-70,334	0,013	0,004
-509,014	5,583	0,105	-0,057
-507,999	-87,187	-0,066	-0,015
-506,985	109,417	0,093	-0,081
-505,970	-76,582	-0,015	0,004
-504,956	-200,000	-0,011	-0,063
-503,941	800,000	-0,070	-0,155
-502,926	-200,000	0,019	0,102
-501,912	-200,000	-0,012	0,082
-500,897	-34,333	-0,103	-0,041
-499,883	715,705	-0,036	0,071
-498,868	51,042	0,056	-0,038
-497,853	368,735	0,051	-0,076
-496,839	184,205	-0,026	0,028
-495,824	427,151	0,037	0,059
-494,810	135,670	0,027	0,025
-493,795	-200,000	-0,028	0,097
-492,781	-26,718	0,057	0,024
-491,766	800,000	0,046	0,125
-490,751	-200,000	-0,016	0,056
-489,737	771,643	0,055	0,110
-488,722	-65,858	0,082	-0,024
-487,708	-200,000	0,010	0,035
-486,693	-53,403	-0,020	-0,007
-485,678	-200,000	-0,025	-0,139
-484,664	-75,004	0,055	0,014
-483,649	79,801	0,004	-0,003
-482,635	474,267	-0,084	0,139
-481,620	-7,458	0,085	0,042
-480,605	-200,000	0,011	0,118
-479,591	-25,709	-0,142	0,061
-478,576	-67,373	0,133	-0,038
-477,562	-152,295	-0,133	-0,007
-476,547	800,000	-0,019	-0,059
-475,532	-200,000	-0,031	0,111
-474,518	6,945	-0,149	0,081
-473,503	-200,000	0,030	0,118
-472,489	-200,000	-0,005	0,048
-471,474	43,679	0,021	-0,014
-470,459	726,589	-0,029	-0,056
-469,445	800,000	-0,019	-0,059
-468,430	-200,000	-0,004	-0,060
-467,416	-72,796	0,141	0,038
-466,401	444,414	0,054	-0,087
-465,386	-118,159	0,121	0,016
-464,372	306,888	-0,039	-0,053
-463,357	94,930	-0,040	0,033
-462,343	127,971	0,045	0,042
-461,328	-135,913	0,091	0,008
-460,313	800,000	-0,012	-0,028
-459,299	-67,253	0,068	-0,019
-458,284	671,925	0,047	0,089
-457,270	434,473	-0,058	0,092
-456,255	394,055	0,051	-0,078
-455,241	-5,203	-0,100	0,050
-454,226	-200,000	-0,014	-0,081
-453,211	30,401	0,099	0,061
-452,197	800,000	-0,068	0,142
-451,182	118,394	-0,161	-0,144
-450,168	406,884	-0,034	0,052
-449,153	-72,377	0,187	-0,050
-448,138	-39,907	-0,103	-0,039
-447,124	-98,783	-0,051	-0,009
-446,109	-200,000	0,019	0,079
-445,095	-170,945	-0,025	-0,001
-444,080	222,180	-0,046	-0,054
-443,065	332,745	-0,041	0,058
-442,051	-200,000	-0,017	0,145
-441,036	800,000	0,020	-0,047
-440,022	550,356	0,066	0,116
-439,007	46,754	0,015	-0,010
-437,992	-200,000	0,013	-0,069
-436,978	-200,000	0,005	-0,023
-435,963	545,973	-0,033	0,057
-434,949	390,263	0,059	0,089
-433,934	-123,537	-0,180	-0,021
-432,919	-42,634	-0,032	0,012
-431,905	175,426	0,065	0,068
-430,890	132,080	-0,002	-0,002
-429,876	-200,000	0,024	0,169
-428,861	-200,000	-0,034	0,222
-427,846	83,812	0,110	0,087
-426,832	-97,497	-0,095	0,018
-425,817	-200,000	0,002	-0,145
-424,803	78,269	0,045	-0,035
-423,788	-24,251	0,063	0,027
-422,773	800,000	-0,016	-0,045
-421,759	80,750	0,104	0,081
-420,744	-200,000	0,011	0,038
-419,730	-128,072	0,043	-0,004
-418,715	387,681	-0,033	-0,050
-417,701	-15,827	0,072	-0,033
-416,686	134,990	0,093	0,088
-415,671	-56,320	-0,079	0,025
-414,657	270,503	0,049	0,062
-413,642	-200,000	-0,023	-0,120
-412,628	116,526	-0,041	-0,037
-411,613	105,912	-0,078	0,067
-410,598	194,724	0,131	-0,145
-409,584	-200,000	0,001	0,127
-408,569	-200,000	-0,007	0,042
-407,555	-200,000	0,013	0,102
-406,540	136,744	-0,016	-0,015
-405,525	-200,000	-0,029	-0,096
-404,511	-200,000	-0,029	-0,164
-403,496	800,000	0,067	-0,199
-402,482	800,000	0,014	0,038
-401,467	-200,000	-0,010	0,048
-400,452	311,084	-0,018	-0,025
-399,438	800,000	-0,015	0,037
-398,423	192,865	-0,139	-0,153
-397,409	-200,000	-0,041	-0,148
-396,394	544,803	-0,022	-0,039
-395,379	64,323	0,057	-0,041
-394,365	-143,747	-0,014	-0,001
-393,350	-179,399	-0,030	0,000
-392,336	-148,692	0,064	-0,004
-391,321	357,539	0,025	-0,037
-390,306	-186,151	-0,097	0,001
-389,292	-116,073	0,149	-0,020
-388,277	-50,027	-0,141	0,048
-387,263	-41,862	0,080	0,030
-386,248	75,198	-0,027	0,021
-385,233	-57,592	-0,047	-0,015
-384,219	344,161	-0,063	0,090
-383,204	60,898	-0,105	0,076
-382,190	-200,000	-0,029	0,106
-381,175	800,000	-0,023	0,065
-380,160	-200,000	0,001	-0,094
-379,146	-200,000	-0,025	0,222
-378,131	557,321	-0,083	0,147
-377,117	62,123	-0,053	0,038
-376,102	-131,375	-0,074	0,007
-375,088	-113,755	0,064	0,009
-374,073	-200,000	0,005	-0,041
-373,058	139,406	0,124	0,119
-372,044	378,576	0,072	-0,108
-371,029	-67,220	-0,074	0,021
-370,015	800,000	0,032	0,086
-369,000	7,180	0,039	0,021
-367,985	142,886	0,182	-0,176
-366,971	147,079	-0,076	-0,074
-365,956	579,039	-0,075	0,135
-364,942	-200,000	-0,015	0,065
-363,927	0,039	0,115	0,059
-362,912	222,365	-0,025	-0,030
-361,898	800,000	0,013	0,030
-360,883	800,000	-0,061	-0,137
-359,869	18,702	0,055	0,032
-358,854	-200,000	-0,004	-0,044
-357,839	785,197	-0,034	-0,068
-356,825	154,418	0,037	-0,037
-355,810	132,610	-0,079	-0,074
-354,796	-106,726	-0,112	-0,018
-353,781	800,000	-0,069	-0,164
-352,766	800,000	-0,021	-0,057
-351,752	8,495	-0,155	-0,084
-350,737	-100,908	0,069	-0,012
-349,723	-200,000	0,022	-0,095
-348,708	505,935	0,048	-0,082
-347,693	-200,000	-0,033	-0,112
-346,679	508,835	-0,028	-0,047
-345,664	-78,022	0,026	0,006
-344,650	-200,000	0,015	0,055
-343,635	266,755	0,111	0,141
-342,620	-200,000	0,007	0,072
-341,606	435,386	0,053	0,084
-340,591	379,985	-0,023	0,034
-339,577	14,295	-0,056	-0,032
-338,562	-30,057	-0,133	0,055
-337,548	-200,000	0,004	0,131
-336,533	75,660	0,099	0,076
-335,518	283,929	-0,024	-0,031
-334,504	457,120	0,049	0,079
-333,489	453,391	0,068	-0,109
-332,475	169,541	-0,099	0,103
-331,460	-20,563	0,128	-0,057
-330,445	-7,975	0,050	0,025
-329,431	316,124	0,063	0,086
-328,416	-113,428	0,119	-0,017
-327,402	-74,972	0,067	-0,017
-326,387	800,000	-0,067	-0,194
-325,372	-200,000	0,029	-0,177
-324,358	19,641	0,130	-0,075
-323,343	800,000	0,044	-0,095
-322,329	-64,409	-0,029	-0,008
-321,314	-154,062	-0,074	0,004
-320,299	800,000	0,007	0,014
-319,285	-200,000	0,000	0,176
-318,270	340,478	-0,027	-0,038
-317,256	6,264	-0,055	-0,029
-316,241	800,000	-0,016	0,038
-315,226	-89,087	-0,076	0,016
-314,212	-49,639	0,044	0,015
-313,197	-200,000	0,031	0,185
-312,183	20,402	-0,119	0,070
-311,168	100,535	-0,013	0,011
-310,153	-104,975	-0,078	-0,013
-309,139	-31,539	0,067	0,027
-308,124	-145,103	0,039	0,003
-307,110	281,094	0,056	-0,073
-306,095	34,135	-0,187	0,118
-305,080	-200,000	-0,004	0,158
-304,066	-200,000	-0,013	0,123
-303,051	-200,000	-0,007	-0,182
-302,037	800,000	0,036	-0,083
-301,022	-118,428	0,031	0,004
-300,008	119,231	0,123	-0,110
-298,993	-134,401	-0,092	0,008
-297,978	-119,632	-0,093	0,011
-296,964	-35,710	0,058	-0,023
-295,949	228,059	0,085	-0,100
-294,935	57,421	-0,165	-0,116
-293,920	-103,337	0,150	-0,025
-292,905	-200,000	-0,020	-0,077
-291,891	-19,588	0,177	0,079
-290,876	39,633	0,076	0,049
-289,862	800,000	-0,039	-0,079
-288,847	102,464	-0,153	-0,129
-287,832	-200,000	0,005	-0,026
-286,818	-200,000	0,006	0,060
-285,803	38,557	0,094	0,060
-284,789	-200,000	-0,010	-0,057
-283,774	154,302	0,054	-0,054
-282,759	293,389	-0,060	-0,079
-281,745	54,284	0,105	0,073
-280,730	163,700	-0,070	0,071
-279,716	800,000	-0,022	-0,051
-278,701	800,000	-0,027	-0,057
-277,686	-108,820	0,153	-0,023
-276,672	-200,000	0,001	0,118
-275,657	125,335	0,066	0,060
-274,643	-200,000	-0,005	-0,071
-273,628	-200,000	-0,003	0,057
-272,613	117,848	-0,060	0,053
-271,599	-95,630	-0,057	-0,011
-270,584	-31,159	0,047	-0,019
-269,570	-51,128	0,123	-0,042
-268,555	140,409	-0,087	-0,083
-267,540	588,258	0,040	0,072
-266,526	-33,019	0,206	-0,082
-265,511	296,895	-0,146	-0,194
-264,497	-49,865	0,141	-0,048
-263,482	179,177	-0,047	0,050
-262,467	800,000	0,036	0,086
-261,453	17,814	0,056	0,032
-260,438	800,000	-0,032	-0,100
-259,424	-157,904	0,052	0,002
-258,409	-200,000	0,003	-0,062
-257,395	-72,504	0,056	-0,015
-256,380	153,858	0,020	-0,020
-255,365	800,000	-0,014	0,040
-254,351	-200,000	0,002	0,075
-253,336	-49,209	0,078	-0,027
-252,322	800,000	0,031	-0,069
-251,307	800,000	0,038	0,089
-250,292	258,860	0,087	0,109
-249,278	-153,000	-0,062	-0,003
-248,263	-54,156	0,049	-0,016
-247,249	114,897	-0,037	0,032
-246,234	265,252	0,058	0,074
-245,219	-200,000	-0,014	-0,156
-244,205	663,823	-0,079	-0,148
-243,190	-200,000	0,001	-0,036
-242,176	454,264	0,072	0,115
-241,161	-200,000	0,007	0,129
-240,146	-200,000	0,000	-0,010
-239,132	-200,000	-0,013	0,068
-238,117	111,730	-0,085	-0,074
-237,103	-200,000	-0,017	-0,155
-236,088	-92,448	0,116	0,023
-235,073	-5,648	-0,064	0,032
-234,059	234,711	0,097	0,115
-233,044	-57,196	0,120	0,038
-232,030	-200,000	-0,001	-0,088
-231,015	-155,112	-0,108	0,005
-230,000	775,266	-0,019	0,038
-228,986	-133,200	-0,089	-0,008
-227,971	-25,196	0,105	0,045
-226,957	130,272	0,097	0,090
-225,942	-96,350	-0,059	0,011
-224,927	-147,245	-0,015	-0,001
-223,913	466,168	-0,045	0,073
-222,898	-200,000	0,000	0,063
-221,884	69,187	-0,170	-0,126
-220,869	766,969	0,026	-0,051
-219,855	459,746	0,116	0,187
-218,840	169,449	-0,054	0,056
-217,825	-10,850	-0,060	-0,029
-216,811	148,367	-0,096	0,094
-215,796	-200,000	-0,022	-0,079
-214,782	800,000	0,062	-0,153
-213,767	-200,000	-0,006	0,138
-212,752	339,039	0,123	-0,174
-211,738	740,697	0,020	-0,039
-210,723	-200,000	0,013	0,156
-209,709	376,571	0,022	-0,033
-208,694	63,539	0,051	-0,037
-207,679	-0,155	-0,089	-0,045
-206,665	-126,941	-0,088	0,009
-205,650	43,522	-0,021	0,014
-204,636	-44,510	0,053	0,019
-203,621	-200,000	-0,040	-0,157
-202,606	-200,000	-0,019	-0,087
-201,592	21,246	-0,046	-0,027
-200,577	49,333	0,075	-0,051
-199,563	-32,501	0,098	-0,039
-198,548	560,434	0,073	-0,127
-197,533	633,092	-0,024	0,044
-196,519	-200,000	0,015	0,149
-195,504	-200,000	-0,006	-0,052
-194,490	-200,000	0,022	0,088
-193,475	800,000	-0,015	-0,042
-192,460	-9,234	0,050	-0,024
-191,446	98,709	-0,026	0,022
-190,431	224,045	0,059	0,069
-189,417	223,141	-0,025	-0,029
-188,402	-200,000	0,020	-0,108
-187,387	-200,000	0,013	-0,094
-186,373	222,950	0,117	-0,136
-185,358	-132,308	-0,014	-0,001
-184,344	11,473	0,047	0,026
-183,329	800,000	0,023	0,064
-182,315	428,229	-0,036	0,056
-181,300	-9,152	0,087	0,042
-180,285	800,000	-0,036	-0,092
-179,271	-200,000	0,009	-0,165
-178,256	800,000	-0,017	-0,050
-177,242	209,624	-0,116	-0,132
-176,227	78,036	0,076	0,058
-175,212	-200,000	0,042	0,160
-174,198	-200,000	-0,007	0,047
-173,183	800,000	0,020	0,052
-172,169	317,876	-0,042	-0,058
-171,154	-200,000	-0,001	-0,042
-170,139	-200,000	-0,016	0,097
-169,125	489,490	0,076	0,125
-168,110	141,148	0,033	0,031
-167,096	-200,000	-0,012	0,049
-166,081	-94,688	-0,110	0,021
-165,066	-71,772	-0,123	-0,033
-164,052	-100,929	0,044	-0,008
-163,037	142,245	0,151	0,144
-162,023	114,235	0,098	0,086
-161,008	800,000	0,021	-0,052
-159,993	-5,591	0,048	0,023
-158,979	-35,906	0,094	-0,037
-157,964	-121,788	-0,249	-0,029
-156,950	800,000	-0,028	-0,061
-155,935	49,299	-0,026	-0,018
-154,920	800,000	0,030	-0,081
-153,906	213,227	-0,087	0,100
-152,891	-25,337	-0,038	-0,016
-151,877	-200,000	0,018	0,070
-150,862	-200,000	0,049	0,158
-149,847	443,505	0,006	-0,010
-148,833	-63,023	0,089	-0,026
-147,818	81,316	-0,019	-0,015
-146,804	-126,967	-0,085	-0,009
-145,789	65,853	0,098	0,072
-144,775	339,632	-0,008	0,011
-143,760	-89,998	-0,083	0,017
-142,745	297,719	0,027	-0,035
-141,731	-200,000	0,016	0,084
-140,716	-200,000	0,034	0,220
-139,702	241,013	0,109	0,131
-138,687	-200,000	0,010	0,051
-137,672	-200,000	-0,013	0,115
-136,658	186,828	0,018	-0,020
-135,643	-200,000	-0,058	-0,232
-134,629	119,229	0,022	-0,020
-133,614	800,000	-0,025	0,062
-132,599	-142,872	0,121	0,008
-131,585	-200,000	0,005	-0,080
-130,570	-64,423	0,122	0,036
-129,556	587,003	0,021	-0,037
-128,541	-200,000	-0,008	-0,071
-127,526	-200,000	-0,020	-0,081
-126,512	205,957	-0,055	-0,062
-125,497	-155,873	0,068	0,003
-124,483	800,000	0,037	0,088
-123,468	195,837	-0,018	-0,020
-122,453	265,702	0,094	0,119
-121,439	-24,925	0,072	-0,031
-120,424	64,966	0,095	-0,069
