DTS Sentinel unit serial number:	SN410029Multiplexer serial number:	ORYXHardware model number:	OX2-SRSoftware version number:	ORYX F/W v4,00 Oryx Data Collector v3.7.2.0data status	okinstallation	B6 Nyhavnadifferential loss correction	single-endedforward channel	channel 2reverse channel	N/Adate	2023/12/09time	23:30:08forward acquisition time	300,00reverse acquisition time	0,00gamma	499,1914k internal	0,3126k external	0,3126temperature offset calibration	1,0000default loss term (dB/km)	0,3820temperature slope calibration	1,0000multiplexer offset coefficient	1,0000multiplexer slope coefficient	1,0000fibre end	0,00T internal ref (°C)	21,72T ext. ref 1 (°C)	5,54T ext. ref 2 (°C)	5,52length (m)	temperature (°C)	Stokes	anti-Stokes-744,400	-151,145	-0,045	-0,002
-743,385	-156,006	-0,303	0,014
-742,371	-111,127	0,094	-0,014
-741,356	-76,482	-0,278	0,072
-740,342	112,729	-0,027	0,025
-739,327	32,156	-0,243	0,156
-738,312	-200,000	-0,005	-0,190
-737,298	57,106	-0,206	0,149
-736,283	262,676	0,031	-0,040
-735,269	-179,497	-0,203	-0,003
-734,254	-174,400	-0,093	0,002
-733,239	-20,347	-0,361	-0,165
-732,225	-59,686	0,087	-0,028
-731,210	186,489	0,033	0,036
-730,196	114,594	0,047	-0,042
-729,181	-6,021	-0,024	0,012
-728,167	131,301	0,097	-0,093
-727,152	61,421	-0,095	-0,070
-726,137	118,458	-0,104	-0,096
-725,123	230,734	-0,052	0,063
-724,108	173,119	-0,062	-0,066
-723,094	-39,455	-0,106	0,041
-722,079	-102,260	0,089	0,016
-721,064	-106,729	0,036	0,006
-720,050	-139,810	-0,099	-0,008
-719,035	614,467	-0,043	0,080
-718,021	61,105	-0,095	0,070
-717,006	694,720	0,028	-0,055
-715,991	-200,000	0,004	-0,113
-714,977	129,690	-0,011	0,010
-713,962	223,199	0,036	0,043
-712,948	-200,000	-0,002	0,092
-711,933	296,362	-0,029	0,040
-710,918	800,000	0,009	0,026
-709,904	-139,496	-0,123	-0,010
-708,889	-183,179	-0,076	0,001
-707,875	-200,000	-0,033	-0,183
-706,860	199,972	-0,078	0,089
-705,845	201,070	-0,090	-0,104
-704,831	206,522	-0,033	0,039
-703,816	39,748	-0,022	0,014
-702,802	363,302	0,010	0,014
-701,787	130,905	-0,044	-0,042
-700,772	-111,954	-0,203	0,030
-699,758	-200,000	-0,004	0,034
-698,743	-200,000	-0,020	0,101
-697,729	800,000	0,026	0,076
-696,714	800,000	-0,049	-0,131
-695,699	-75,573	-0,127	-0,033
-694,685	265,759	-0,041	-0,053
-693,670	-200,000	-0,010	-0,084
-692,656	242,508	-0,106	-0,132
-691,641	-200,000	0,002	0,049
-690,627	-75,412	0,069	0,018
-689,612	-11,581	-0,136	0,066
-688,597	665,087	-0,037	0,071
-687,583	800,000	0,040	-0,103
-686,568	-123,181	-0,054	0,006
-685,554	-29,266	-0,052	-0,022
-684,539	-131,032	-0,099	-0,010
-683,524	81,532	-0,139	-0,112
-682,510	247,700	-0,098	-0,123
-681,495	713,008	-0,013	-0,025
-680,481	413,590	-0,085	-0,135
-679,466	-9,521	-0,196	-0,097
-678,451	-123,762	-0,081	0,009
-677,437	148,453	-0,034	-0,034
-676,422	102,105	-0,031	0,027
-675,408	75,585	-0,060	-0,047
-674,393	355,757	-0,061	0,090
-673,378	-200,000	-0,012	0,040
-672,364	33,720	-0,029	0,019
-671,349	99,932	0,079	-0,068
-670,335	-26,987	0,093	-0,040
-669,320	800,000	0,030	-0,070
-668,305	17,224	-0,072	-0,042
-667,291	-200,000	0,029	0,177
-666,276	81,092	0,060	0,048
-665,262	286,229	-0,041	0,055
-664,247	126,146	-0,079	-0,074
-663,232	-55,582	0,150	0,050
-662,218	20,961	0,098	-0,059
-661,203	-72,464	-0,124	-0,034
-660,189	582,051	-0,058	-0,105
-659,174	800,000	0,027	-0,067
-658,159	137,139	-0,103	0,100
-657,145	564,452	0,012	-0,021
-656,130	294,621	-0,066	-0,090
-655,116	-164,706	-0,122	-0,004
-654,101	72,587	0,122	-0,095
-653,086	90,517	-0,100	0,083
-652,072	-200,000	0,007	-0,093
-651,057	-128,915	-0,142	0,015
-650,043	562,641	0,039	-0,070
-649,028	-13,484	0,132	0,063
-648,014	-97,794	-0,072	0,014
-646,999	-200,000	-0,017	0,117
-645,984	-105,143	-0,094	-0,016
-644,970	-104,765	-0,055	-0,009
-643,955	124,860	-0,079	-0,074
-642,941	-147,696	0,116	0,007
-641,926	22,397	0,034	-0,021
-640,911	293,823	-0,047	0,064
-639,897	800,000	0,045	0,136
-638,882	-52,176	-0,088	0,030
-637,868	81,736	-0,107	-0,086
-636,853	-79,347	0,011	-0,003
-635,838	17,946	-0,090	-0,053
-634,824	188,112	0,136	-0,151
-633,809	-154,483	0,137	-0,007
-632,795	800,000	0,030	0,064
-631,780	-64,319	0,076	0,023
-630,765	562,097	-0,017	-0,030
-629,751	-24,658	-0,089	-0,039
-628,736	-70,498	-0,046	-0,013
-627,722	-92,572	-0,028	0,006
-626,707	-41,967	0,075	-0,028
-625,692	209,467	0,090	0,105
-624,678	264,419	-0,060	-0,078
-623,663	89,164	0,047	0,039
-622,649	-117,767	0,034	0,005
-621,634	-30,663	0,024	0,010
-620,619	529,842	-0,034	-0,060
-619,605	-200,000	-0,009	-0,083
-618,590	-93,274	0,069	-0,014
-617,576	195,540	-0,035	0,039
-616,561	77,684	-0,070	-0,055
-615,546	-92,590	0,138	-0,028
-614,532	800,000	-0,093	0,195
-613,517	347,876	-0,055	-0,081
-612,503	-200,000	0,008	0,032
-611,488	-200,000	-0,012	-0,054
-610,474	443,529	0,025	-0,042
-609,459	800,000	-0,071	0,180
-608,444	-200,000	-0,029	-0,171
-607,430	800,000	0,039	-0,093
-606,415	43,508	-0,067	-0,045
-605,401	-200,000	0,014	-0,136
-604,386	-149,052	-0,098	0,006
-603,371	7,424	0,112	0,062
-602,357	-7,115	-0,095	0,048
-601,342	49,237	0,096	-0,067
-600,328	18,079	-0,288	-0,169
-599,313	-200,000	0,001	0,007
-598,298	-8,525	0,041	-0,020
-597,284	-200,000	-0,011	0,108
-596,269	-10,321	0,227	0,111
-595,255	173,314	-0,028	-0,030
-594,240	66,305	-0,105	-0,079
-593,225	273,551	0,019	-0,025
-592,211	658,775	0,031	0,060
-591,196	-117,484	-0,104	0,014
-590,182	-143,253	0,114	0,008
-589,167	295,768	-0,033	-0,045
-588,152	-0,980	0,139	0,073
-587,138	-91,244	-0,073	0,015
-586,123	-61,511	-0,095	0,029
-585,109	164,160	-0,092	-0,096
-584,094	-200,000	0,010	-0,064
-583,079	38,261	0,133	0,087
-582,065	794,231	-0,026	-0,054
-581,050	-153,904	0,202	-0,010
-580,036	17,564	0,092	-0,054
-579,021	20,698	0,045	0,027
-578,006	800,000	-0,034	-0,073
-576,992	-37,868	-0,087	0,034
-575,977	5,221	-0,070	-0,038
-574,963	800,000	0,031	0,070
-573,948	117,648	-0,101	-0,092
-572,934	-200,000	0,003	0,109
-571,919	-45,491	-0,082	-0,030
-570,904	800,000	0,023	0,070
-569,890	-200,000	0,021	0,077
-568,875	136,214	0,064	0,062
-567,861	39,908	0,116	0,077
-566,846	149,486	-0,105	0,105
-565,831	23,316	-0,048	0,029
-564,817	160,775	-0,068	0,071
-563,802	-97,849	-0,127	-0,024
-562,788	-46,213	-0,020	-0,007
-561,773	654,331	-0,034	-0,065
-560,758	-200,000	0,004	-0,119
-559,744	-64,396	-0,110	0,033
-558,729	17,868	0,088	0,052
-557,715	-143,245	-0,107	0,007
-556,700	-146,138	0,130	-0,008
-555,685	1,699	0,023	0,012
-554,671	-52,409	-0,123	-0,042
-553,656	307,806	0,061	-0,084
-552,642	311,706	0,068	0,094
-551,627	18,982	-0,103	0,061
-550,612	144,464	-0,093	0,092
-549,598	800,000	0,003	0,006
-548,583	138,743	0,083	-0,080
-547,569	39,023	0,066	-0,044
-546,554	-134,797	0,166	0,015
-545,539	-68,017	0,072	-0,021
-544,525	387,972	-0,020	0,031
-543,510	65,114	0,056	-0,042
-542,496	101,219	-0,051	0,044
-541,481	-200,000	0,001	-0,059
-540,466	-127,764	0,086	0,009
-539,452	-75,243	0,084	-0,022
-538,437	52,736	-0,045	0,032
-537,423	-72,731	0,063	0,017
-536,408	-200,000	-0,019	-0,076
-535,393	-200,000	-0,080	-0,000
-534,379	-200,000	0,006	0,068
-533,364	25,344	0,017	0,010
-532,350	-140,300	0,071	0,005
-531,335	-200,000	0,014	0,086
-530,321	136,226	0,103	-0,099
-529,306	21,478	-0,225	0,135
-528,291	-200,000	-0,005	0,041
-527,277	-47,655	-0,033	-0,012
-526,262	800,000	0,045	-0,113
-525,248	-168,269	0,139	0,004
-524,233	208,858	0,026	0,030
-523,218	227,389	0,073	0,088
-522,204	-104,645	0,148	0,025
-521,189	9,130	-0,183	-0,102
-520,175	-65,236	0,076	-0,022
-519,160	-93,901	0,101	-0,020
-518,145	800,000	-0,025	0,071
-517,131	800,000	0,062	-0,147
-516,116	-6,787	-0,024	-0,012
-515,102	13,675	-0,026	-0,015
-514,087	439,542	0,006	-0,010
-513,072	-109,347	-0,097	0,015
-512,058	-27,571	0,053	0,023
-511,043	558,859	0,015	0,028
-510,029	-121,886	0,217	-0,026
-509,014	719,163	0,041	0,080
-507,999	-200,000	-0,037	0,132
-506,985	545,754	0,051	0,090
-505,970	-85,330	0,060	-0,014
-504,956	188,297	-0,027	0,030
-503,941	-200,000	0,015	0,131
-502,926	-9,015	0,103	0,051
-501,912	457,856	-0,038	0,062
-500,897	-1,189	0,043	-0,023
-499,883	-200,000	-0,021	-0,099
-498,868	-165,371	-0,065	-0,002
-497,853	800,000	0,092	-0,196
-496,839	-107,860	-0,161	0,026
-495,824	800,000	0,030	0,089
-494,810	32,066	0,126	-0,080
-493,795	-119,074	0,155	0,020
-492,781	-25,739	0,027	0,012
-491,766	105,580	-0,031	-0,027
-490,751	800,000	0,026	-0,060
-489,737	-82,734	0,136	-0,032
-488,722	283,943	0,013	0,017
-487,708	548,756	0,096	0,171
-486,693	293,739	0,019	0,025
-485,678	-169,785	-0,050	-0,001
-484,664	-111,418	0,081	0,012
-483,649	-200,000	-0,059	-0,197
-482,635	-87,060	0,171	0,038
-481,620	335,052	-0,034	-0,049
-480,605	-45,593	-0,022	0,008
-479,591	800,000	-0,021	-0,045
-478,576	-123,642	0,029	-0,003
-477,562	215,425	-0,062	0,072
-476,547	317,506	0,055	-0,077
-475,532	80,942	0,151	0,120
-474,518	-200,000	0,004	0,058
-473,503	767,460	0,054	0,108
-472,489	-200,000	0,024	0,129
-471,474	720,110	0,024	0,048
-470,459	439,842	-0,014	0,022
-469,445	330,007	0,086	0,122
-468,430	19,406	0,015	-0,009
-467,416	-200,000	-0,027	0,120
-466,401	-199,651	-0,060	0,000
-465,386	300,102	0,065	0,088
-464,372	40,781	-0,058	-0,038
-463,357	159,545	-0,009	0,009
-462,343	-17,760	-0,068	0,031
-461,328	19,362	0,027	0,016
-460,313	56,243	-0,040	0,029
-459,299	85,708	0,131	-0,106
-458,284	800,000	0,011	-0,035
-457,270	125,699	-0,060	-0,056
-456,255	-43,973	0,036	0,013
-455,241	-121,185	-0,070	-0,009
-454,226	-200,000	-0,035	0,138
-453,211	-29,254	-0,157	-0,066
-452,197	-98,181	0,150	0,028
-451,182	800,000	-0,033	0,086
-450,168	-9,689	-0,047	-0,023
-449,153	-200,000	0,009	0,093
-448,138	605,515	0,072	-0,133
-447,124	-135,845	-0,173	0,015
-446,109	-76,743	0,040	-0,010
-445,095	-1,425	-0,139	0,072
-444,080	-200,000	-0,008	-0,113
-443,065	145,025	0,022	-0,022
-442,051	800,000	-0,020	-0,042
-441,036	-200,000	0,039	-0,137
-440,022	24,613	-0,025	0,015
-439,007	-30,825	0,069	-0,028
-437,992	759,070	0,023	0,047
-436,978	-200,000	0,034	0,190
-435,963	-60,742	0,156	0,048
-434,949	-149,940	-0,113	-0,006
-433,934	82,217	0,078	-0,062
-432,919	113,759	-0,052	-0,046
-431,905	-200,000	0,010	-0,085
-430,890	665,706	0,038	-0,073
-429,876	-43,843	0,200	-0,074
-428,861	-170,670	0,065	-0,002
-427,846	-200,000	-0,091	0,000
-426,832	39,841	-0,051	-0,033
-425,817	-193,191	-0,051	-0,000
-424,803	-164,592	-0,102	-0,003
-423,788	-200,000	-0,002	-0,110
-422,773	33,880	0,087	0,055
-421,759	63,929	0,039	-0,029
-420,744	-174,121	0,087	0,002
-419,730	-72,947	-0,112	0,030
-418,715	-111,220	0,049	0,007
-417,701	93,778	-0,075	-0,062
-416,686	5,546	0,042	0,023
-415,671	53,652	0,063	0,045
-414,657	-61,597	-0,040	0,012
-413,642	12,766	0,101	0,057
-412,628	288,771	0,057	0,076
-411,613	-48,284	-0,094	-0,033
-410,598	345,296	-0,066	-0,095
-409,584	0,802	0,098	-0,051
-408,569	-98,471	0,068	-0,013
-407,555	314,356	-0,039	-0,054
-406,540	-119,178	-0,083	0,011
-405,525	-200,000	0,003	0,065
-404,511	-187,099	-0,110	-0,001
-403,496	-107,271	0,042	-0,007
-402,482	242,715	0,083	0,103
-401,467	334,364	-0,077	0,109
-400,452	-200,000	0,007	-0,100
-399,438	-200,000	-0,025	-0,084
-398,423	134,281	0,046	-0,044
-397,409	585,712	-0,083	-0,151
-396,394	-61,618	0,092	-0,028
-395,379	-82,954	0,011	-0,003
-394,365	699,291	0,043	-0,083
-393,350	316,145	0,084	0,116
-392,336	-135,610	-0,046	-0,004
-391,321	-30,313	-0,055	0,023
-390,306	232,756	-0,033	-0,040
-389,292	235,987	-0,108	0,132
-388,277	-63,476	0,088	0,026
-387,263	241,880	-0,016	-0,020
-386,248	-200,000	0,009	0,073
-385,233	800,000	0,043	-0,096
-384,219	294,622	0,048	0,065
-383,204	-200,000	0,020	-0,097
-382,190	-200,000	0,000	-0,130
-381,175	-200,000	0,006	-0,097
-380,160	-200,000	0,071	0,000
-379,146	-200,000	0,009	0,136
-378,131	100,763	0,137	0,116
-377,117	631,608	-0,030	0,057
-376,102	-86,558	-0,164	-0,037
-375,088	-200,000	0,049	-0,173
-374,073	-13,425	0,094	-0,045
-373,058	-146,873	-0,010	-0,001
-372,044	68,755	0,051	0,038
-371,029	-118,476	0,077	0,010
-370,015	105,317	-0,043	0,037
-369,000	-200,000	-0,026	0,152
-367,985	304,650	0,026	-0,036
-366,971	182,762	0,095	0,103
-365,956	-158,426	0,150	0,006
-364,942	23,699	-0,068	0,041
-363,927	800,000	0,064	-0,202
-362,912	800,000	0,006	-0,016
-361,898	800,000	-0,025	0,055
-360,883	54,836	-0,080	0,056
-359,869	800,000	-0,012	0,037
-358,854	-63,767	0,080	-0,024
-357,839	161,668	0,043	-0,044
-356,825	-200,000	0,016	-0,059
-355,810	-200,000	0,010	-0,046
-354,796	-3,863	-0,069	0,035
-353,781	800,000	-0,034	-0,101
-352,766	-121,301	0,053	0,006
-351,752	30,999	-0,105	0,066
-350,737	6,673	0,034	-0,019
-349,723	459,311	-0,023	0,037
-348,708	-31,203	-0,180	-0,074
-347,693	209,994	-0,094	-0,108
-346,679	179,309	0,058	-0,062
-345,664	800,000	0,021	0,061
-344,650	800,000	-0,044	0,136
-343,635	800,000	0,028	0,060
-342,620	-200,000	0,005	0,140
-341,606	-200,000	-0,002	0,098
-340,591	410,561	0,012	-0,019
-339,577	-23,610	0,165	-0,072
-338,562	141,106	-0,132	-0,128
-337,548	-58,971	0,139	0,044
-336,533	-32,189	0,223	0,091
-335,518	800,000	-0,031	0,090
-334,504	-1,764	0,109	-0,056
-333,489	199,590	-0,083	0,093
-332,475	467,518	-0,010	0,017
-331,460	120,270	0,053	-0,048
-330,445	281,686	0,030	-0,040
-329,431	-151,651	-0,140	-0,007
-328,416	-111,268	0,123	0,018
-327,402	-200,000	-0,024	0,112
-326,387	141,896	0,062	-0,060
-325,372	800,000	-0,022	-0,068
-324,358	411,329	-0,026	0,040
-323,343	434,413	0,031	-0,049
-322,329	-121,947	-0,152	0,018
-321,314	-200,000	-0,012	0,149
-320,299	36,293	0,041	0,026
-319,285	-73,089	-0,092	0,025
-318,270	-200,000	-0,024	0,145
-317,256	-200,000	0,045	-0,165
-316,241	376,965	0,064	-0,095
-315,226	-200,000	-0,014	-0,136
-314,212	-152,143	0,035	0,002
-313,197	800,000	-0,039	0,102
-312,183	-82,098	0,123	0,029
-311,168	-200,000	0,006	-0,020
-310,153	170,628	-0,050	-0,053
-309,139	-45,466	-0,123	-0,044
-308,124	105,442	-0,084	0,073
-307,110	800,000	0,043	0,121
-306,095	-200,000	-0,018	0,164
-305,080	601,629	-0,055	-0,101
-304,066	-200,000	0,026	0,109
-303,051	800,000	0,064	-0,152
-302,037	-88,420	0,113	0,024
-301,022	140,139	0,032	0,031
-300,008	-200,000	-0,028	-0,103
-298,993	124,677	0,063	-0,058
-297,978	243,906	0,081	0,100
-296,964	-122,134	-0,052	-0,006
-295,949	-200,000	-0,007	-0,070
-294,935	25,357	-0,157	-0,095
-293,920	-33,914	0,033	-0,013
-292,905	158,085	-0,086	-0,088
-291,891	-200,000	-0,022	0,144
-290,876	-43,798	-0,058	-0,021
-289,862	-200,000	-0,016	0,063
-288,847	423,132	-0,023	-0,036
-287,832	486,164	0,058	0,097
-286,818	108,269	0,031	-0,027
-285,803	-86,262	-0,041	-0,009
-284,789	-200,000	0,025	0,159
-283,774	800,000	-0,023	0,065
-282,759	-135,744	0,124	0,011
-281,745	73,771	-0,115	-0,088
-280,730	800,000	0,066	-0,191
-279,716	33,465	0,045	-0,029
-278,701	9,766	0,096	0,053
-277,686	41,467	0,068	-0,045
-276,672	69,047	-0,096	-0,072
-275,657	100,231	-0,032	-0,027
-274,643	545,245	-0,105	-0,185
-273,628	-200,000	0,040	-0,210
-272,613	84,441	0,091	-0,073
-271,599	141,955	-0,120	-0,117
-270,584	-102,138	0,104	-0,018
-269,570	-82,721	-0,105	-0,025
-268,555	282,156	0,101	0,132
-267,540	-106,694	-0,127	-0,020
-266,526	129,426	-0,078	0,073
-265,511	309,556	-0,097	0,133
-264,497	222,645	0,066	0,078
-263,482	-73,304	0,124	-0,033
-262,467	-49,144	-0,117	0,041
-261,453	775,166	-0,036	-0,071
-260,438	-200,000	0,002	0,025
-259,424	-33,626	-0,133	0,053
-258,409	287,272	-0,078	-0,103
-257,395	-153,931	-0,146	0,007
-256,380	-200,000	0,009	0,058
-255,365	-200,000	-0,000	-0,082
-254,351	57,557	-0,074	-0,053
-253,336	705,113	0,014	-0,028
-252,322	-157,184	-0,107	-0,005
-251,307	800,000	0,025	-0,059
-250,292	-200,000	-0,040	0,158
-249,278	253,605	0,061	0,076
-248,263	-200,000	-0,006	0,074
-247,249	-1,224	0,029	-0,015
-246,234	796,859	-0,045	0,090
-245,219	-166,818	-0,168	-0,005
-244,205	800,000	0,010	-0,032
-243,190	-98,297	-0,039	-0,007
-242,176	-29,682	-0,074	-0,031
-241,161	-66,288	0,060	-0,017
-240,146	-11,912	-0,093	-0,045
-239,132	-15,088	0,132	-0,061
-238,117	-200,000	-0,040	-0,184
-237,103	767,950	0,083	-0,166
-236,088	140,510	-0,102	0,099
-235,073	-174,719	0,107	0,002
-234,059	-30,329	-0,146	0,060
-233,044	-180,085	0,122	0,002
-232,030	-102,789	0,029	-0,005
-231,015	-175,320	-0,121	0,002
-230,000	87,548	0,013	-0,010
-228,986	122,612	-0,075	0,069
-227,971	-200,000	0,010	-0,059
-226,957	4,550	0,079	0,042
-225,942	377,731	-0,025	-0,037
-224,927	155,103	-0,029	-0,029
-223,913	2,044	-0,157	-0,082
-222,898	608,988	0,036	0,065
-221,884	-0,368	-0,074	-0,038
-220,869	27,210	0,022	0,014
-219,855	-166,760	0,143	0,004
-218,840	800,000	-0,030	0,081
-217,825	-61,427	-0,021	0,006
-216,811	-2,390	-0,063	0,032
-215,796	22,185	-0,061	-0,036
-214,782	-80,278	-0,111	0,027
-213,767	-20,538	0,103	-0,046
-212,752	-175,297	0,088	0,002
-211,738	-132,511	0,126	0,012
-210,723	800,000	-0,050	0,157
-209,709	800,000	0,016	-0,048
-208,694	-158,577	0,081	-0,003
-207,679	569,607	-0,055	0,099
-206,665	-200,000	0,039	0,134
-205,650	-200,000	-0,006	0,143
-204,636	-10,904	-0,037	-0,018
-203,621	172,938	-0,110	-0,115
-202,606	2,773	0,095	-0,050
-201,592	-200,000	0,008	-0,198
-200,577	37,077	-0,079	-0,051
-199,563	-200,000	-0,025	0,199
-198,548	-128,054	0,124	-0,013
-197,533	55,367	-0,084	-0,059
-196,519	-60,685	-0,049	0,015
-195,504	0,816	-0,069	-0,036
-194,490	-126,949	-0,040	0,004
-193,475	-200,000	-0,006	-0,053
-192,460	-200,000	0,013	-0,120
-191,446	-200,000	0,005	-0,047
-190,431	800,000	0,053	0,119
-189,417	-200,000	0,026	0,090
-188,402	-136,614	-0,052	-0,004
-187,387	-98,422	-0,176	0,032
-186,373	341,424	-0,008	-0,011
-185,358	800,000	0,009	0,018
-184,344	62,470	0,117	-0,085
-183,329	11,587	-0,042	0,023
-182,315	210,263	-0,076	0,087
-181,300	-200,000	-0,012	-0,106
-180,285	-101,220	-0,113	-0,020
-179,271	130,041	-0,139	0,129
-178,256	61,822	-0,088	-0,064
-177,242	-28,422	-0,044	0,018
-176,227	80,714	0,154	0,121
-175,212	717,050	0,042	-0,081
-174,198	13,527	-0,108	-0,061
-173,183	-200,000	-0,014	-0,050
-172,169	437,907	0,057	-0,092
-171,154	477,297	-0,046	-0,077
-170,139	84,429	-0,077	-0,061
-169,125	562,894	-0,028	0,049
-168,110	615,429	0,040	0,074
-167,096	-58,961	-0,078	0,024
-166,081	-200,000	-0,001	-0,038
-165,066	618,305	-0,060	-0,111
-164,052	20,791	0,026	0,015
-163,037	303,750	0,091	0,124
-162,023	-106,979	-0,075	0,012
-161,008	478,626	0,069	0,114
-159,993	-101,507	-0,158	0,028
-158,979	366,193	-0,055	-0,081
-157,964	190,281	-0,031	-0,034
-156,950	458,052	-0,024	-0,039
-155,935	-200,000	0,017	-0,057
-154,920	-56,220	0,032	-0,010
-153,906	-200,000	0,038	0,189
-152,891	216,645	-0,123	-0,142
-151,877	-200,000	0,011	-0,093
-150,862	18,005	-0,063	-0,036
-149,847	-120,702	0,049	-0,006
-148,833	800,000	-0,072	0,154
-147,818	80,599	0,117	0,092
-146,804	-10,949	0,086	-0,041
-145,789	-86,487	0,048	0,011
-144,775	297,222	-0,030	-0,041
-143,760	41,960	0,097	0,064
-142,745	800,000	-0,007	-0,016
-141,731	-200,000	-0,006	-0,114
-140,716	-126,886	0,162	0,017
-139,702	-33,566	-0,065	-0,026
-138,687	-16,688	-0,184	-0,085
-137,672	-81,908	0,157	-0,037
-136,658	-100,518	-0,061	-0,011
-135,643	-200,000	0,005	-0,065
-134,629	-200,000	-0,006	-0,149
-133,614	3,416	0,034	-0,018
-132,599	684,831	-0,039	0,074
-131,585	40,413	-0,074	0,048
-130,570	-200,000	0,006	0,024
-129,556	-0,897	-0,051	0,026
-128,541	83,000	-0,019	-0,015
-127,526	60,098	-0,082	-0,059
-126,512	219,555	-0,102	0,119
-125,497	141,198	-0,042	0,040
-124,483	163,947	0,035	0,036
-123,468	800,000	0,041	-0,088
-122,453	770,124	-0,045	-0,090
-121,439	-200,000	0,001	0,093
-120,424	-200,000	0,014	-0,095
-119,410	230,416	0,064	0,077
