DTS Sentinel unit serial number:	SN410029Multiplexer serial number:	ORYXHardware model number:	OX2-SRSoftware version number:	ORYX F/W v4,00 Oryx Data Collector v3.7.2.0data status	okinstallation	B6 Nyhavnadifferential loss correction	single-endedforward channel	channel 2reverse channel	N/Adate	2023/12/09time	15:55:08forward acquisition time	300,00reverse acquisition time	0,00gamma	499,1914k internal	0,3132k external	0,3132temperature offset calibration	1,0000default loss term (dB/km)	0,3820temperature slope calibration	1,0000multiplexer offset coefficient	1,0000multiplexer slope coefficient	1,0000fibre end	0,00T internal ref (°C)	20,75T ext. ref 1 (°C)	4,69T ext. ref 2 (°C)	4,67length (m)	temperature (°C)	Stokes	anti-Stokes-744,400	-59,887	0,046	0,014
-743,385	-21,387	-0,296	0,134
-742,371	327,333	-0,041	0,059
-741,356	-20,072	-0,201	0,092
-740,342	800,000	-0,020	0,048
-739,327	-107,262	-0,278	0,045
-738,312	387,499	0,011	0,018
-737,298	-129,434	-0,306	-0,031
-736,283	-35,503	0,124	0,050
-735,269	77,862	-0,251	0,198
-734,254	800,000	-0,026	0,072
-733,239	-119,846	-0,404	0,051
-732,225	103,208	0,083	-0,072
-731,210	24,865	-0,124	-0,076
-730,196	-200,000	-0,007	-0,033
-729,181	-119,499	-0,097	-0,012
-728,167	11,163	-0,033	-0,019
-727,152	-200,000	0,011	-0,077
-726,137	81,221	-0,022	0,018
-725,123	492,616	-0,107	-0,184
-724,108	669,047	-0,080	-0,155
-723,094	26,325	0,071	0,044
-722,079	-200,000	-0,016	-0,081
-721,064	800,000	0,012	0,028
-720,050	92,914	0,069	0,058
-719,035	-200,000	-0,040	-0,136
-718,021	167,502	0,043	0,045
-717,006	741,983	-0,034	0,068
-715,991	800,000	-0,047	-0,123
-714,977	-61,310	-0,089	0,028
-713,962	800,000	0,044	0,109
-712,948	-121,857	-0,128	-0,015
-711,933	1,778	0,078	0,041
-710,918	-57,026	-0,096	-0,031
-709,904	-24,657	-0,117	-0,052
-708,889	-44,099	-0,212	-0,079
-707,875	93,014	-0,072	0,061
-706,860	103,377	0,090	-0,079
-705,845	85,002	-0,140	0,113
-704,831	557,893	-0,100	0,179
-703,816	52,136	-0,121	0,085
-702,802	800,000	0,009	0,018
-701,787	27,971	-0,073	-0,046
-700,772	385,005	-0,070	-0,107
-699,758	-200,000	-0,042	-0,221
-698,743	169,409	-0,008	-0,008
-697,729	800,000	0,040	0,116
-696,714	-119,222	0,069	-0,009
-695,699	-200,000	-0,014	-0,046
-694,685	120,435	-0,071	0,065
-693,670	-52,900	-0,105	0,036
-692,656	-136,361	0,127	-0,011
-691,641	-200,000	0,001	0,010
-690,627	24,491	0,100	-0,061
-689,612	800,000	0,032	-0,104
-688,597	30,260	-0,086	0,054
-687,583	-67,631	-0,034	-0,010
-686,568	-200,000	0,021	-0,096
-685,554	-200,000	-0,018	-0,111
-684,539	-117,199	-0,072	-0,010
-683,524	-7,283	0,180	-0,090
-682,510	-200,000	0,005	-0,056
-681,495	-111,606	-0,181	0,027
-680,481	-106,003	-0,073	-0,012
-679,466	130,213	-0,078	-0,074
-678,451	400,870	-0,024	-0,037
-677,437	-200,000	-0,005	0,027
-676,422	494,036	0,076	0,129
-675,408	295,762	0,015	-0,021
-674,393	-161,678	-0,118	0,004
-673,378	166,278	0,105	-0,110
-672,364	-200,000	0,045	-0,234
-671,349	324,800	0,029	0,041
-670,335	141,168	-0,098	0,096
-669,320	-96,642	-0,219	0,042
-668,305	-200,000	0,017	0,059
-667,291	-200,000	-0,003	-0,035
-666,276	800,000	0,058	-0,146
-665,262	800,000	0,062	-0,160
-664,247	800,000	-0,036	-0,088
-663,232	-182,157	-0,150	0,002
-662,218	-200,000	-0,001	0,020
-661,203	60,874	-0,031	0,023
-660,189	-200,000	0,018	0,065
-659,174	-200,000	-0,008	0,154
-658,159	-200,000	0,007	0,149
-657,145	-31,797	-0,155	-0,064
-656,130	151,115	-0,106	-0,107
-655,116	-200,000	0,012	-0,080
-654,101	57,746	0,072	-0,052
-653,086	-200,000	-0,119	-0,000
-652,072	-94,017	0,047	0,010
-651,057	3,798	-0,028	0,015
-650,043	672,995	0,017	0,033
-649,028	-155,237	0,027	0,001
-648,014	154,878	-0,031	-0,031
-646,999	576,914	-0,080	0,145
-645,984	-33,127	0,070	-0,029
-644,970	-54,094	0,096	0,032
-643,955	-51,943	0,065	-0,022
-642,941	668,338	-0,087	-0,167
-641,926	295,721	-0,089	-0,121
-640,911	-200,000	-0,001	-0,057
-639,897	474,464	0,027	0,045
-638,882	-200,000	-0,031	-0,107
-637,868	30,339	-0,070	-0,044
-636,853	546,430	-0,033	-0,058
-635,838	-200,000	0,016	-0,070
-634,824	-52,084	-0,083	-0,028
-633,809	30,210	-0,048	0,030
-632,795	150,276	0,074	-0,074
-631,780	-80,381	-0,055	-0,013
-630,765	-200,000	-0,017	-0,076
-629,751	-40,892	0,021	-0,008
-628,736	13,301	0,112	-0,064
-627,722	68,015	-0,048	-0,036
-626,707	-200,000	-0,016	-0,060
-625,692	304,393	0,052	-0,072
-624,678	-103,877	0,066	-0,011
-623,663	800,000	-0,032	-0,082
-622,649	-39,701	-0,010	-0,004
-621,634	-200,000	-0,004	0,090
-620,619	79,385	0,116	-0,092
-619,605	-200,000	0,002	0,026
-618,590	-200,000	-0,005	-0,016
-617,576	-63,083	-0,101	-0,031
-616,561	58,217	0,040	-0,029
-615,546	748,000	-0,010	-0,019
-614,532	-167,760	-0,101	0,003
-613,517	-56,799	0,069	-0,022
-612,503	-159,047	-0,163	-0,007
-611,488	261,467	0,014	-0,018
-610,474	61,143	-0,100	0,074
-609,459	-52,050	-0,057	0,020
-608,444	-200,000	-0,022	-0,229
-607,430	800,000	0,020	0,042
-606,415	-121,527	-0,088	-0,011
-605,401	-200,000	0,048	0,196
-604,386	-119,308	-0,118	0,015
-603,371	-7,118	0,077	-0,039
-602,357	117,574	-0,062	-0,057
-601,342	606,509	0,047	-0,087
-600,328	-109,209	0,087	0,013
-599,313	315,328	-0,090	-0,126
-598,298	-13,854	0,081	0,038
-597,284	32,916	-0,061	-0,039
-596,269	-25,347	-0,048	0,021
-595,255	-200,000	0,005	0,077
-594,240	-75,726	-0,160	0,042
-593,225	-81,401	0,096	0,023
-592,211	-200,000	0,010	-0,044
-591,196	24,116	0,157	0,096
-590,182	-200,000	0,005	0,058
-589,167	25,830	0,099	0,061
-588,152	-137,749	0,060	-0,005
-587,138	124,346	-0,094	-0,087
-586,123	-11,344	-0,133	-0,064
-585,109	205,675	-0,047	0,054
-584,094	46,539	-0,085	-0,058
-583,079	66,041	0,080	0,060
-582,065	-40,597	0,097	-0,037
-581,050	-200,000	-0,033	0,117
-580,036	27,532	0,205	0,127
-579,021	-200,000	0,036	-0,165
-578,006	-76,354	0,017	-0,004
-576,992	40,719	-0,124	0,083
-575,977	142,630	-0,055	0,054
-574,963	7,292	-0,113	0,062
-573,948	-16,433	0,028	-0,013
-572,934	-200,000	0,010	0,052
-571,919	-0,733	-0,070	-0,036
-570,904	283,815	-0,037	-0,049
-569,890	-53,996	0,038	-0,013
-568,875	-200,000	-0,011	0,042
-567,861	120,025	0,117	-0,107
-566,846	-200,000	-0,008	-0,031
-565,831	-46,501	-0,075	0,027
-564,817	-93,355	-0,124	-0,025
-563,802	33,332	0,068	-0,044
-562,788	-74,618	0,065	0,017
-561,773	800,000	-0,001	-0,004
-560,758	83,839	0,153	0,123
-559,744	800,000	0,066	0,166
-558,729	629,338	0,038	0,071
-557,715	-56,471	-0,108	0,035
-556,700	518,538	-0,024	-0,041
-555,685	98,458	-0,103	0,087
-554,671	-200,000	0,002	-0,063
-553,656	735,499	0,047	-0,093
-552,642	136,222	-0,045	-0,043
-551,627	227,009	-0,062	-0,075
-550,612	157,192	-0,029	0,029
-549,598	128,480	-0,081	-0,076
-548,583	800,000	-0,017	-0,036
-547,569	-47,390	0,148	0,053
-546,554	200,022	0,047	-0,053
-545,539	-200,000	-0,013	0,153
-544,525	-200,000	0,007	-0,041
-543,510	57,589	-0,004	-0,003
-542,496	-200,000	-0,011	-0,169
-541,481	-53,933	-0,065	0,022
-540,466	-200,000	0,035	-0,144
-539,452	76,154	-0,065	-0,051
-538,437	305,057	0,060	-0,082
-537,423	28,239	0,198	0,123
-536,408	64,570	0,012	-0,009
-535,393	-176,772	-0,076	0,001
-534,379	584,660	0,040	0,072
-533,364	10,287	-0,057	0,032
-532,350	178,257	0,052	-0,056
-531,335	58,673	0,003	-0,002
-530,321	72,619	0,091	0,070
-529,306	-200,000	0,004	-0,115
-528,291	180,943	0,078	-0,084
-527,277	421,555	0,024	0,037
-526,262	-200,000	0,008	0,029
-525,248	132,375	-0,070	0,067
-524,233	-20,974	0,192	0,086
-523,218	74,640	0,132	0,102
-522,204	-200,000	0,020	0,145
-521,189	-200,000	-0,004	-0,039
-520,175	-200,000	-0,009	-0,168
-519,160	-45,836	-0,059	-0,022
-518,145	14,170	0,054	-0,031
-517,131	-200,000	0,036	-0,129
-516,116	-200,000	0,014	-0,110
-515,102	-144,583	-0,072	0,005
-514,087	-200,000	-0,010	-0,098
-513,072	-200,000	-0,039	-0,154
-512,058	-200,000	-0,034	-0,244
-511,043	24,189	-0,039	0,023
-510,029	-200,000	-0,012	0,107
-509,014	-200,000	-0,010	0,079
-507,999	-200,000	0,016	0,062
-506,985	-200,000	0,008	-0,087
-505,970	155,931	-0,057	-0,057
-504,956	-200,000	0,034	0,124
-503,941	-200,000	-0,007	0,199
-502,926	800,000	0,030	0,096
-501,912	363,804	0,073	0,108
-500,897	800,000	0,051	0,105
-499,883	800,000	0,011	-0,034
-498,868	-86,720	-0,090	0,020
-497,853	-61,249	0,044	0,014
-496,839	230,119	-0,056	0,067
-495,824	258,366	-0,040	0,050
-494,810	145,131	-0,099	0,098
-493,795	-10,850	-0,040	-0,019
-492,781	64,144	-0,010	0,007
-491,766	114,511	-0,076	0,068
-490,751	-37,932	0,032	0,013
-489,737	239,499	0,062	0,076
-488,722	-200,000	0,008	-0,084
-487,708	-200,000	0,016	0,074
-486,693	-200,000	0,032	0,115
-485,678	-80,817	-0,126	0,031
-484,664	-40,680	0,016	-0,006
-483,649	41,567	0,042	0,028
-482,635	-143,214	-0,141	0,010
-481,620	46,269	0,021	0,014
-480,605	49,441	0,043	-0,030
-479,591	106,114	-0,024	0,021
-478,576	-200,000	0,003	-0,010
-477,562	61,092	-0,071	-0,051
-476,547	16,037	-0,004	-0,002
-475,532	-103,514	-0,063	-0,011
-474,518	-11,269	0,100	0,048
-473,503	210,214	0,037	-0,043
-472,489	-171,740	0,074	-0,002
-471,474	-10,454	-0,014	0,007
-470,459	-200,000	-0,011	0,101
-469,445	-103,768	-0,038	0,006
-468,430	63,646	0,147	-0,108
-467,416	608,343	-0,039	0,071
-466,401	-17,301	0,133	-0,061
-465,386	-63,012	0,124	-0,038
-464,372	261,107	-0,077	0,098
-463,357	-108,723	-0,090	-0,014
-462,343	-200,000	0,019	-0,163
-461,328	-200,000	-0,008	0,075
-460,313	-16,405	0,099	-0,046
-459,299	-200,000	0,019	-0,071
-458,284	14,292	-0,071	0,041
-457,270	-126,938	0,077	-0,008
-456,255	-200,000	0,001	-0,049
-455,241	-92,385	-0,131	-0,027
-454,226	-126,116	-0,068	-0,007
-453,211	-37,223	0,031	0,012
-452,197	86,810	-0,020	0,016
-451,182	501,839	-0,100	-0,170
-450,168	800,000	0,076	-0,198
-449,153	-3,824	-0,030	-0,015
-448,138	-94,493	0,158	0,031
-447,124	19,020	-0,044	-0,026
-446,109	136,755	-0,044	0,043
-445,095	322,702	0,098	0,137
-444,080	-42,170	0,134	-0,050
-443,065	356,087	-0,032	-0,047
-442,051	-70,724	-0,119	-0,033
-441,036	-98,197	-0,113	-0,021
-440,022	-96,052	0,035	0,007
-439,007	-200,000	-0,001	-0,100
-437,992	-143,321	-0,097	-0,007
-436,978	-79,821	0,261	0,064
-435,963	-81,940	-0,107	-0,026
-434,949	205,949	-0,035	0,040
-433,934	-200,000	-0,004	0,063
-432,919	-25,999	-0,060	-0,026
-431,905	-200,000	-0,004	-0,021
-430,890	644,488	-0,041	0,078
-429,876	-132,744	0,060	0,006
-428,861	-78,531	-0,112	-0,028
-427,846	800,000	-0,026	0,061
-426,832	3,041	-0,035	-0,019
-425,817	-200,000	0,009	-0,163
-424,803	-111,376	-0,095	-0,014
-423,788	800,000	-0,007	0,023
-422,773	77,936	0,183	0,143
-421,759	246,268	0,030	-0,037
-420,744	482,386	-0,075	-0,126
-419,730	-62,817	-0,161	-0,049
-418,715	-200,000	0,014	-0,075
-417,701	494,357	-0,010	0,017
-416,686	-200,000	0,001	-0,095
-415,671	-8,645	0,070	0,035
-414,657	199,614	0,151	-0,170
-413,642	800,000	0,045	0,119
-412,628	-38,030	-0,070	0,027
-411,613	64,470	0,017	-0,013
-410,598	97,406	-0,067	-0,056
-409,584	24,808	0,166	-0,100
-408,569	800,000	0,003	0,008
-407,555	-200,000	0,005	-0,040
-406,540	800,000	0,023	-0,074
-405,525	574,780	-0,039	-0,070
-404,511	158,976	0,077	-0,079
-403,496	-53,029	-0,130	-0,044
-402,482	-27,422	0,045	-0,019
-401,467	-84,599	0,192	-0,044
-400,452	-44,164	-0,033	0,012
-399,438	-200,000	-0,011	-0,068
-398,423	35,647	0,050	0,032
-397,409	-166,628	-0,109	-0,003
-396,394	-109,049	-0,166	-0,026
-395,379	-31,913	-0,080	0,033
-394,365	-200,000	-0,007	0,122
-393,350	-153,880	0,068	-0,003
-392,336	-200,000	0,029	0,146
-391,321	800,000	0,020	0,062
-390,306	-90,184	-0,033	0,007
-389,292	-200,000	-0,003	0,033
-388,277	-115,668	0,079	0,011
-387,263	-200,000	0,017	0,140
-386,248	103,138	0,165	0,142
-385,233	-40,390	0,132	0,050
-384,219	122,074	0,082	-0,075
-383,204	-160,811	-0,069	-0,003
-382,190	-200,000	-0,042	-0,168
-381,175	-74,221	0,045	0,012
-380,160	-200,000	0,010	0,056
-379,146	-200,000	0,017	0,117
-378,131	-31,019	-0,031	-0,013
-377,117	187,435	0,106	-0,116
-376,102	77,512	-0,050	-0,039
-375,088	-13,209	-0,167	-0,079
-374,073	-200,000	-0,013	-0,054
-373,058	56,607	-0,062	0,044
-372,044	-86,742	-0,042	-0,009
-371,029	70,939	0,115	0,087
-370,015	-15,394	-0,070	0,033
-369,000	103,191	-0,071	0,061
-367,985	-159,398	-0,010	0,000
-366,971	-200,000	-0,002	0,049
-365,956	387,760	0,026	0,040
-364,942	-200,000	0,024	0,133
-363,927	-45,077	-0,015	0,005
-362,912	800,000	-0,043	-0,117
-361,898	-131,967	0,083	-0,008
-360,883	232,921	0,084	-0,101
-359,869	-126,200	-0,095	-0,010
-358,854	460,223	0,098	-0,161
-357,839	83,583	-0,036	0,029
-356,825	800,000	0,029	0,074
-355,810	282,124	-0,055	0,072
-354,796	8,794	-0,110	-0,060
-353,781	259,376	-0,062	0,078
-352,766	-200,000	-0,003	-0,025
-351,752	-200,000	-0,019	-0,078
-350,737	-103,529	-0,052	-0,009
-349,723	40,482	-0,070	-0,046
-348,708	-119,434	0,067	0,008
-347,693	-98,565	-0,092	-0,017
-346,679	48,744	0,035	-0,024
-345,664	125,230	-0,051	0,047
-344,650	-200,000	0,008	0,062
-343,635	-200,000	-0,003	-0,012
-342,620	25,670	0,151	-0,092
-341,606	-200,000	-0,005	0,167
-340,591	1,950	-0,062	0,033
-339,577	53,032	0,030	-0,021
-338,562	-44,631	-0,103	0,037
-337,548	-200,000	-0,020	0,084
-336,533	-145,565	0,137	-0,009
-335,518	598,119	0,047	0,085
-334,504	-74,780	-0,098	0,025
-333,489	55,186	-0,080	0,057
-332,475	-106,328	-0,083	0,013
-331,460	800,000	0,062	-0,172
-330,445	-79,817	0,053	0,013
-329,431	5,876	0,035	0,019
-328,416	387,689	0,055	-0,083
-327,402	150,499	-0,024	0,024
-326,387	27,792	0,081	-0,050
-325,372	800,000	0,072	-0,160
-324,358	67,584	0,065	0,048
-323,343	-44,810	0,124	-0,045
-322,329	-200,000	0,037	-0,167
-321,314	-200,000	0,017	-0,061
-320,299	-200,000	-0,005	0,090
-319,285	-192,549	0,044	0,000
-318,270	175,448	0,060	-0,063
-317,256	78,044	-0,063	0,049
-316,241	-200,000	0,009	0,193
-315,226	800,000	0,019	-0,058
-314,212	-200,000	0,005	0,071
-313,197	-200,000	0,004	0,143
-312,183	-63,773	0,130	-0,039
-311,168	800,000	-0,024	-0,055
-310,153	800,000	-0,031	-0,084
-309,139	65,590	-0,064	-0,047
-308,124	-200,000	0,001	-0,149
-307,110	-170,406	-0,016	0,000
-306,095	-129,105	0,061	0,006
-305,080	-8,007	0,073	-0,036
-304,066	157,864	0,018	0,018
-303,051	-200,000	-0,023	-0,107
-302,037	-52,541	-0,080	0,027
-301,022	76,720	0,037	-0,029
-300,008	800,000	-0,070	0,179
-298,993	-200,000	0,017	0,188
-297,978	-200,000	0,023	0,110
-296,964	-66,476	0,076	0,022
-295,949	463,479	-0,032	0,053
-294,935	288,043	0,025	0,033
-293,920	800,000	-0,033	0,083
-292,905	-170,575	-0,036	-0,001
-291,891	-200,000	0,013	0,056
-290,876	-161,667	0,070	0,003
-289,862	-70,238	0,140	0,039
-288,847	100,985	-0,037	0,032
-287,832	211,020	-0,077	-0,089
-286,818	-183,000	0,088	-0,001
-285,803	-111,141	-0,149	0,022
-284,789	98,890	0,080	0,068
-283,774	-200,000	0,027	0,111
-282,759	455,627	0,008	0,012
-281,745	-156,909	-0,169	0,007
-280,730	-200,000	0,034	-0,155
-279,716	129,391	0,059	0,055
-278,701	117,221	0,053	-0,048
-277,686	150,374	0,023	0,023
-276,672	-200,000	0,008	0,054
-275,657	800,000	-0,027	-0,073
-274,643	-200,000	-0,006	0,034
-273,628	-200,000	0,035	-0,171
-272,613	71,353	0,095	0,072
-271,599	-200,000	0,013	-0,042
-270,584	40,480	0,036	0,024
-269,570	718,968	-0,029	0,056
-268,555	-19,853	0,082	-0,037
-267,540	-200,000	-0,014	-0,051
-266,526	-200,000	0,005	-0,128
-265,511	668,953	-0,034	0,065
-264,497	379,895	0,087	0,130
-263,482	800,000	-0,018	0,045
-262,467	-200,000	0,001	-0,026
-261,453	78,711	0,101	0,079
-260,438	-200,000	0,011	0,100
-259,424	-84,071	-0,149	-0,034
-258,409	-200,000	-0,004	-0,095
-257,395	386,536	0,023	0,036
-256,380	-200,000	-0,011	-0,044
-255,365	-200,000	-0,014	0,137
-254,351	229,172	0,082	-0,098
-253,336	-15,322	-0,074	0,034
-252,322	347,547	-0,061	-0,088
-251,307	-200,000	0,011	-0,133
-250,292	-72,559	0,052	-0,014
-249,278	-89,571	0,066	-0,014
-248,263	-114,570	-0,022	-0,003
-247,249	-200,000	-0,017	-0,096
-246,234	-200,000	0,010	-0,051
-245,219	-200,000	0,027	-0,111
-244,205	73,059	-0,127	-0,097
-243,190	-116,373	0,112	0,015
-242,176	296,965	0,109	0,146
-241,161	-17,760	0,126	0,057
-240,146	121,078	-0,078	0,071
-239,132	398,470	0,031	-0,048
-238,117	-200,000	-0,018	-0,067
-237,103	-200,000	-0,009	0,067
-236,088	-200,000	0,001	0,084
-235,073	365,960	0,013	-0,020
-234,059	-97,862	0,049	0,009
-233,044	800,000	-0,056	-0,141
-232,030	34,418	-0,059	0,037
-231,015	58,805	0,104	-0,074
-230,000	-39,574	-0,084	0,032
-228,986	107,230	-0,058	0,051
-227,971	-77,263	0,099	0,025
-226,957	800,000	-0,029	0,063
-225,942	-200,000	-0,026	0,109
-224,927	-200,000	-0,010	-0,127
-223,913	341,012	0,062	-0,088
-222,898	39,307	0,058	0,038
-221,884	800,000	-0,064	-0,137
-220,869	-40,454	-0,017	0,006
-219,855	-128,813	0,212	0,021
-218,840	-200,000	0,054	0,226
-217,825	800,000	0,011	-0,022
-216,811	17,856	0,019	-0,011
-215,796	169,244	-0,071	-0,074
-214,782	-200,000	-0,001	-0,139
-213,767	350,246	-0,078	0,112
-212,752	-200,000	0,055	0,201
-211,738	-139,510	-0,135	0,010
-210,723	600,779	-0,058	-0,106
-209,709	-200,000	-0,007	0,048
-208,694	-200,000	-0,003	-0,148
-207,679	800,000	-0,038	0,080
-206,665	-200,000	0,014	0,056
-205,650	-7,492	0,031	-0,015
-204,636	398,506	0,061	0,093
-203,621	-200,000	0,002	0,119
-202,606	-49,599	-0,052	0,018
-201,592	151,426	-0,047	-0,047
-200,577	242,867	0,018	-0,022
-199,563	-200,000	0,019	0,109
-198,548	277,263	-0,067	0,087
-197,533	800,000	0,071	0,159
-196,519	-136,911	-0,056	0,005
-195,504	-78,839	0,045	-0,011
-194,490	800,000	-0,063	-0,127
-193,475	800,000	-0,044	0,103
-192,460	-200,000	0,007	0,059
-191,446	-200,000	-0,003	-0,102
-190,431	88,689	-0,039	0,031
-189,417	-102,288	-0,049	-0,008
-188,402	132,465	0,080	0,075
-187,387	588,308	-0,052	-0,093
-186,373	426,084	0,056	-0,088
-185,358	-200,000	-0,028	0,121
-184,344	-28,681	-0,168	0,070
-183,329	20,647	-0,045	0,026
-182,315	-17,819	-0,061	0,028
-181,300	800,000	0,053	-0,128
-180,285	48,713	-0,125	0,085
-179,271	65,456	-0,100	-0,074
-178,256	-125,038	-0,014	-0,002
-177,242	-200,000	0,011	0,048
-176,227	85,466	0,147	0,117
-175,212	-200,000	-0,037	0,123
-174,198	800,000	0,055	0,124
-173,183	-104,710	-0,112	-0,019
-172,169	-118,320	-0,220	-0,028
-171,154	-95,460	-0,059	-0,011
-170,139	-200,000	-0,026	-0,253
-169,125	-136,355	0,011	-0,001
-168,110	286,020	-0,086	0,113
-167,096	288,457	-0,140	0,185
-166,081	68,662	-0,040	0,030
-165,066	-119,134	-0,112	0,014
-164,052	800,000	-0,015	0,036
-163,037	523,908	-0,047	0,080
-162,023	531,689	0,085	0,147
-161,008	-88,370	0,107	0,023
-159,993	-86,091	0,009	-0,002
-158,979	-200,000	0,014	0,046
-157,964	-63,745	0,094	-0,028
-156,950	201,750	0,068	-0,076
-155,935	45,321	0,098	-0,066
-154,920	152,673	0,067	0,067
-153,906	-48,290	-0,024	0,009
-152,891	156,215	-0,093	-0,094
-151,877	-125,001	-0,059	0,006
-150,862	219,567	-0,069	-0,080
-149,847	107,589	0,026	0,023
-148,833	-32,207	-0,040	0,016
-147,818	201,317	0,025	0,028
-146,804	166,465	0,121	0,125
-145,789	-200,000	-0,016	0,110
-144,775	-34,773	-0,101	0,040
-143,760	212,983	0,103	0,118
-142,745	-200,000	-0,013	-0,190
-141,731	-200,000	0,007	-0,068
-140,716	746,958	0,008	-0,015
-139,702	-108,133	0,065	-0,010
-138,687	-27,724	-0,038	-0,016
-137,672	101,244	0,039	0,033
-136,658	466,080	-0,073	-0,120
-135,643	80,419	-0,042	0,033
-134,629	-200,000	-0,001	-0,022
-133,614	93,338	-0,047	0,038
-132,599	430,271	0,045	-0,070
-131,585	-200,000	-0,035	0,159
-130,570	64,356	-0,056	0,041
-129,556	779,735	-0,029	-0,057
-128,541	-200,000	-0,007	0,052
-127,526	-175,562	-0,072	0,001
-126,512	800,000	-0,040	0,124
-125,497	270,454	0,078	0,100
-124,483	283,657	-0,085	0,111
-123,468	800,000	0,050	-0,128
-122,453	145,005	-0,091	-0,088
-121,439	-200,000	-0,012	0,118
-120,424	-200,000	0,000	-0,030
