DTS Sentinel unit serial number:	SN410029Multiplexer serial number:	ORYXHardware model number:	OX2-SRSoftware version number:	ORYX F/W v4,00 Oryx Data Collector v3.7.2.0data status	okinstallation	B6 Nyhavnadifferential loss correction	single-endedforward channel	channel 2reverse channel	N/Adate	2023/12/08time	11:35:08forward acquisition time	300,00reverse acquisition time	0,00gamma	499,1914k internal	0,3160k external	0,3160temperature offset calibration	1,0000default loss term (dB/km)	0,3820temperature slope calibration	1,0000multiplexer offset coefficient	1,0000multiplexer slope coefficient	1,0000fibre end	0,00T internal ref (°C)	14,94T ext. ref 1 (°C)	-1,46T ext. ref 2 (°C)	-1,47length (m)	temperature (°C)	Stokes	anti-Stokes-744,400	329,478	0,092	-0,131
-743,385	13,514	-0,251	0,143
-742,371	196,695	0,148	0,167
-741,356	-151,360	-0,237	0,013
-740,342	138,544	0,104	0,100
-739,327	-30,898	-0,359	-0,149
-738,312	-173,252	0,126	-0,003
-737,298	-111,470	-0,298	-0,044
-736,283	-36,326	0,089	-0,035
-735,269	-107,740	-0,180	-0,029
-734,254	59,319	0,040	-0,029
-733,239	-85,542	-0,520	-0,118
-732,225	504,897	0,080	0,137
-731,210	-154,821	0,093	0,004
-730,196	426,105	-0,076	-0,121
-729,181	800,000	0,024	-0,066
-728,167	-101,333	0,094	-0,017
-727,152	103,910	-0,133	-0,115
-726,137	241,241	-0,063	-0,078
-725,123	-200,000	0,004	0,014
-724,108	-130,282	-0,113	-0,011
-723,094	-53,873	-0,154	-0,051
-722,079	-111,794	-0,089	-0,013
-721,064	-17,122	0,076	0,035
-720,050	574,829	0,020	-0,035
-719,035	-141,215	-0,192	0,014
-718,021	83,660	-0,055	-0,044
-717,006	-200,000	0,025	-0,094
-715,991	800,000	-0,063	-0,163
-714,977	25,040	-0,086	-0,053
-713,962	-38,673	-0,069	0,027
-712,948	-200,000	0,022	-0,079
-711,933	-53,843	0,036	-0,012
-710,918	-51,515	-0,131	-0,045
-709,904	-200,000	-0,001	0,037
-708,889	-41,363	0,033	0,012
-707,875	-200,000	0,001	0,011
-706,860	533,690	0,020	0,035
-705,845	-17,026	-0,051	0,024
-704,831	109,458	-0,036	0,032
-703,816	192,276	0,025	0,028
-702,802	-200,000	-0,011	-0,106
-701,787	-7,026	-0,096	-0,048
-700,772	-200,000	0,000	-0,097
-699,758	-62,996	0,011	0,003
-698,743	46,551	0,086	-0,058
-697,729	-22,917	-0,053	0,024
-696,714	111,891	0,157	-0,139
-695,699	-130,081	-0,093	0,009
-694,685	800,000	-0,029	-0,078
-693,670	395,111	-0,033	-0,050
-692,656	-74,987	0,144	-0,038
-691,641	-200,000	-0,053	0,000
-690,627	-46,639	-0,101	-0,036
-689,612	-133,357	-0,107	-0,010
-688,597	-200,000	0,003	0,072
-687,583	-200,000	0,008	-0,044
-686,568	-59,403	0,122	0,038
-685,554	-200,000	0,000	0,033
-684,539	169,231	-0,032	-0,033
-683,524	-151,864	0,048	0,003
-682,510	77,036	0,072	0,056
-681,495	441,430	-0,091	-0,146
-680,481	-94,290	-0,116	0,023
-679,466	-200,000	0,009	-0,072
-678,451	-49,916	-0,026	0,009
-677,437	597,203	0,016	0,030
-676,422	-200,000	0,005	0,024
-675,408	-200,000	0,020	0,081
-674,393	33,928	-0,077	-0,049
-673,378	-22,273	0,039	-0,017
-672,364	14,755	-0,035	-0,020
-671,349	298,443	-0,046	-0,063
-670,335	-140,372	-0,111	-0,008
-669,320	800,000	0,011	-0,035
-668,305	61,043	0,077	-0,056
-667,291	-200,000	-0,002	-0,078
-666,276	181,694	-0,040	-0,044
-665,262	-131,611	-0,168	0,016
-664,247	37,538	-0,051	0,033
-663,232	-200,000	-0,019	-0,115
-662,218	800,000	-0,007	-0,019
-661,203	-200,000	-0,014	-0,081
-660,189	166,126	0,077	0,081
-659,174	-74,477	-0,084	-0,022
-658,159	494,642	0,058	-0,098
-657,145	-12,385	-0,107	0,051
-656,130	800,000	0,055	0,115
-655,116	-200,000	-0,025	0,112
-654,101	800,000	-0,028	0,071
-653,086	139,703	-0,040	0,039
-652,072	268,308	0,060	-0,078
-651,057	-200,000	-0,026	0,101
-650,043	186,817	-0,026	-0,028
-649,028	178,938	0,031	-0,033
-648,014	95,252	-0,066	0,055
-646,999	-19,283	0,093	0,042
-645,984	215,703	0,009	-0,010
-644,970	172,917	-0,089	-0,095
-643,955	-31,568	-0,172	-0,071
-642,941	-200,000	-0,016	-0,068
-641,926	-92,354	-0,159	-0,033
-640,911	-50,749	0,173	-0,059
-639,897	19,032	0,033	0,019
-638,882	-116,792	0,096	-0,013
-637,868	-200,000	0,017	-0,066
-636,853	800,000	-0,025	0,056
-635,838	-112,954	-0,089	-0,013
-634,824	211,135	-0,069	0,079
-633,809	675,458	-0,013	0,026
-632,795	143,062	0,065	0,063
-631,780	-200,000	0,012	-0,045
-630,765	-151,467	0,082	-0,004
-629,751	-200,000	-0,024	-0,079
-628,736	-65,724	-0,173	0,050
-627,722	-153,725	-0,046	0,002
-626,707	653,366	0,079	-0,149
-625,692	-66,563	0,074	0,021
-624,678	-69,770	0,032	-0,009
-623,663	-118,967	-0,045	0,006
-622,649	49,966	-0,136	-0,094
-621,634	332,295	0,036	-0,051
-620,619	-26,109	0,013	-0,006
-619,605	-200,000	0,007	0,030
-618,590	394,384	0,041	-0,062
-617,576	800,000	0,028	-0,085
-616,561	800,000	0,014	-0,030
-615,546	486,226	-0,025	-0,042
-614,532	30,218	-0,069	-0,043
-613,517	-9,820	0,057	-0,028
-612,503	-33,038	-0,065	-0,026
-611,488	-200,000	-0,015	0,061
-610,474	172,800	0,074	0,078
-609,459	800,000	0,038	-0,088
-608,444	-134,016	-0,234	-0,021
-607,430	526,592	0,005	0,009
-606,415	7,687	-0,060	-0,033
-605,401	-12,867	0,152	-0,072
-604,386	118,192	0,041	0,037
-603,371	283,400	0,019	0,025
-602,357	-142,268	0,110	-0,008
-601,342	156,713	-0,061	0,062
-600,328	-35,349	0,112	0,044
-599,313	-9,518	-0,110	-0,053
-598,298	137,694	-0,029	-0,028
-597,284	-200,000	0,013	0,093
-596,269	618,371	0,053	-0,098
-595,255	221,506	0,071	0,083
-594,240	176,643	-0,045	-0,047
-593,225	355,479	-0,075	0,110
-592,211	-200,000	0,029	0,113
-591,196	-93,565	-0,120	-0,024
-590,182	305,537	0,018	0,025
-589,167	577,207	0,067	0,120
-588,152	-200,000	0,020	0,124
-587,138	-200,000	-0,014	-0,100
-586,123	472,364	-0,034	-0,057
-585,109	-111,653	-0,076	-0,011
-584,094	-73,666	-0,193	0,051
-583,079	2,560	0,057	0,030
-582,065	-105,584	-0,117	0,019
-581,050	-18,913	0,065	0,029
-580,036	-92,000	0,171	0,035
-579,021	-172,480	-0,068	0,002
-578,006	-200,000	0,022	-0,096
-576,992	-200,000	-0,021	-0,092
-575,977	135,183	0,130	0,124
-574,963	23,960	-0,043	0,026
-573,948	-82,221	0,040	0,010
-572,934	-200,000	-0,026	-0,179
-571,919	359,752	0,033	-0,049
-570,904	185,477	-0,029	-0,032
-569,890	800,000	0,061	-0,143
-568,875	-200,000	0,005	-0,105
-567,861	-200,000	-0,008	0,031
-566,846	800,000	0,032	0,081
-565,831	109,445	-0,079	0,069
-564,817	800,000	-0,024	0,063
-563,802	285,627	-0,072	0,095
-562,788	-200,000	-0,000	0,115
-561,773	-200,000	0,007	-0,095
-560,758	800,000	0,027	0,086
-559,744	-51,510	-0,090	0,030
-558,729	-200,000	0,021	0,105
-557,715	800,000	0,021	0,061
-556,700	800,000	0,043	0,115
-555,685	-17,604	-0,139	-0,063
-554,671	800,000	0,019	-0,041
-553,656	-57,584	-0,035	0,011
-552,642	55,578	0,083	-0,058
-551,627	800,000	-0,038	0,105
-550,612	114,422	0,059	0,053
-549,598	217,341	0,056	-0,066
-548,583	137,449	-0,021	-0,020
-547,569	-200,000	0,002	0,130
-546,554	-118,005	-0,107	0,014
-545,539	-15,244	-0,064	-0,030
-544,525	119,260	0,164	0,148
-543,510	-161,235	0,077	-0,003
-542,496	-173,528	-0,089	-0,002
-541,481	57,676	-0,018	-0,013
-540,466	-79,971	-0,075	-0,018
-539,452	65,099	-0,028	-0,021
-538,437	-116,224	0,031	-0,004
-537,423	428,551	-0,029	0,046
-536,408	-125,518	-0,088	-0,010
-535,393	428,033	-0,069	-0,109
-534,379	371,508	-0,045	0,067
-533,364	326,489	0,017	0,024
-532,350	508,496	0,055	0,094
-531,335	-95,079	-0,118	0,023
-530,321	-200,000	-0,000	0,062
-529,306	35,045	0,013	0,008
-528,291	84,755	0,086	-0,069
-527,277	-80,452	-0,010	-0,002
-526,262	56,302	-0,144	-0,102
-525,248	272,179	0,052	-0,067
-524,233	-74,307	0,040	0,011
-523,218	-200,000	0,008	0,123
-522,204	88,466	0,042	0,034
-521,189	256,187	-0,062	0,078
-520,175	458,612	-0,077	-0,125
-519,160	-80,578	0,141	0,034
-518,145	129,059	-0,077	-0,071
-517,131	-200,000	0,007	-0,047
-516,116	800,000	-0,041	0,094
-515,102	133,676	0,020	0,019
-514,087	139,070	0,058	-0,056
-513,072	673,708	-0,062	-0,119
-512,058	647,751	-0,085	0,160
-511,043	-2,280	0,109	0,056
-510,029	-99,928	0,204	-0,037
-509,014	-200,000	0,064	-0,000
-507,999	-97,086	0,024	0,004
-506,985	188,775	-0,007	-0,008
-505,970	284,205	-0,105	0,138
-504,956	-93,925	-0,204	0,041
-503,941	14,830	-0,081	-0,046
-502,926	411,267	0,083	-0,130
-501,912	57,272	0,138	0,098
-500,897	350,301	0,077	-0,111
-499,883	76,765	0,064	-0,049
-498,868	-13,313	0,106	-0,050
-497,853	-90,625	0,116	-0,024
-496,839	-105,211	-0,088	-0,014
-495,824	-200,000	0,006	-0,072
-494,810	472,555	-0,044	0,072
-493,795	-151,307	0,073	0,004
-492,781	676,785	0,015	0,028
-491,766	602,372	-0,039	-0,072
-490,751	800,000	-0,040	-0,089
-489,737	-8,623	-0,070	-0,034
-488,722	144,086	0,025	0,025
-487,708	191,589	-0,052	-0,057
-486,693	-200,000	-0,020	0,144
-485,678	-144,070	0,071	0,005
-484,664	800,000	0,009	-0,022
-483,649	-200,000	-0,006	-0,134
-482,635	444,499	-0,085	-0,137
-481,620	138,128	0,019	0,018
-480,605	199,046	0,073	0,082
-479,591	90,323	-0,090	0,074
-478,576	-49,785	0,036	-0,012
-477,562	800,000	-0,024	-0,052
-476,547	157,272	-0,026	-0,026
-475,532	132,657	-0,058	0,054
-474,518	-14,710	0,116	0,054
-473,503	-71,799	0,187	0,050
-472,489	-200,000	-0,022	0,118
-471,474	334,654	-0,103	-0,146
-470,459	-200,000	0,051	-0,181
-469,445	-200,000	-0,002	-0,048
-468,430	91,633	-0,099	0,081
-467,416	-87,238	0,030	0,007
-466,401	-200,000	-0,034	-0,210
-465,386	-187,627	0,095	0,001
-464,372	-200,000	-0,020	0,081
-463,357	241,205	0,066	0,080
-462,343	800,000	-0,026	0,067
-461,328	443,773	-0,069	0,110
-460,313	-156,600	-0,088	0,004
-459,299	-75,326	0,014	0,003
-458,284	26,590	-0,126	0,076
-457,270	-200,000	0,021	0,070
-456,255	430,644	-0,025	-0,039
-455,241	-116,464	-0,063	0,008
-454,226	800,000	0,016	-0,037
-453,211	-50,491	0,069	-0,024
-452,197	444,102	0,024	0,039
-451,182	202,037	0,108	0,122
-450,168	-200,000	-0,001	0,035
-449,153	18,710	-0,093	0,054
-448,138	45,650	0,096	-0,064
-447,124	-200,000	-0,032	-0,105
-446,109	-118,969	0,215	0,027
-445,095	-200,000	0,014	0,064
-444,080	636,222	0,022	0,040
-443,065	166,752	-0,081	0,084
-442,051	58,020	0,082	-0,058
-441,036	425,869	-0,086	-0,136
-440,022	-200,000	0,007	0,070
-439,007	800,000	-0,045	-0,109
-437,992	-92,131	0,063	-0,013
-436,978	-84,399	-0,108	-0,025
-435,963	-22,348	0,054	-0,024
-434,949	748,425	-0,027	-0,054
-433,934	-54,788	-0,138	0,045
-432,919	-200,000	-0,002	0,075
-431,905	800,000	-0,011	-0,034
-430,890	228,246	0,040	-0,048
-429,876	26,021	0,075	0,046
-428,861	559,644	0,050	0,088
-427,846	-28,878	0,040	-0,016
-426,832	-10,537	-0,116	-0,055
-425,817	800,000	0,035	0,073
-424,803	520,015	-0,028	0,049
-423,788	718,116	0,022	0,042
-422,773	800,000	0,054	0,168
-421,759	800,000	0,056	0,125
-420,744	-200,000	-0,014	-0,167
-419,730	1,089	-0,149	-0,077
-418,715	800,000	-0,041	-0,118
-417,701	-103,383	-0,061	-0,010
-416,686	3,665	0,021	0,011
-415,671	-106,308	0,073	0,012
-414,657	-63,826	0,061	0,018
-413,642	-200,000	0,019	0,111
-412,628	103,489	-0,016	0,014
-411,613	264,838	0,080	0,102
-410,598	-122,933	0,055	0,006
-409,584	-200,000	-0,011	-0,071
-408,569	44,585	0,168	0,112
-407,555	94,185	-0,097	0,080
-406,540	712,841	0,063	0,122
-405,525	258,107	-0,045	0,057
-404,511	800,000	0,045	-0,116
-403,496	-59,193	0,076	0,024
-402,482	365,695	0,035	0,051
-401,467	-149,440	-0,092	0,005
-400,452	24,994	0,137	0,082
-399,438	-112,733	0,024	0,003
-398,423	-99,180	-0,086	-0,016
-397,409	38,464	0,087	-0,056
-396,394	-17,751	0,099	0,045
-395,379	245,127	0,064	-0,078
-394,365	464,087	-0,038	-0,062
-393,350	571,381	0,039	-0,068
-392,336	-100,498	0,017	0,003
-391,321	-200,000	-0,003	0,129
-390,306	-94,835	-0,084	0,016
-389,292	37,901	-0,067	-0,043
-388,277	110,141	-0,023	0,020
-387,263	54,459	-0,010	0,007
-386,248	196,956	0,060	0,067
-385,233	800,000	-0,025	-0,053
-384,219	-50,025	-0,053	-0,018
-383,204	492,750	-0,083	0,139
-382,190	-17,153	-0,090	-0,041
-381,175	-18,830	-0,087	-0,039
-380,160	218,634	0,027	-0,032
-379,146	-54,845	-0,112	0,036
-378,131	102,408	0,071	0,060
-377,117	-200,000	-0,010	-0,091
-376,102	-200,000	-0,045	-0,150
-375,088	-200,000	-0,035	-0,128
-374,073	-96,367	0,128	0,024
-373,058	-126,460	0,068	0,007
-372,044	800,000	-0,026	0,064
-371,029	104,202	-0,057	0,049
-370,015	116,082	0,053	0,047
-369,000	207,217	-0,082	-0,092
-367,985	200,526	-0,035	0,039
-366,971	-200,000	0,014	-0,076
-365,956	120,467	0,026	-0,023
-364,942	-127,660	0,063	-0,007
-363,927	12,208	-0,053	-0,030
-362,912	-62,734	0,074	-0,022
-361,898	-200,000	-0,001	-0,052
-360,883	41,577	-0,085	-0,056
-359,869	183,741	-0,095	-0,102
-358,854	-128,693	-0,026	-0,003
-357,839	0,947	0,092	-0,047
-356,825	-51,107	0,095	-0,032
-355,810	-96,487	0,070	0,013
-354,796	-200,000	0,006	0,020
-353,781	-200,000	-0,027	-0,135
-352,766	172,915	0,035	-0,037
-351,752	383,847	0,021	0,031
-350,737	-138,358	0,068	0,005
-349,723	199,400	0,041	-0,046
-348,708	-79,847	-0,085	-0,021
-347,693	-200,000	0,014	-0,102
-346,679	86,621	0,046	0,037
-345,664	54,710	-0,135	-0,094
-344,650	-76,716	-0,073	-0,018
-343,635	-200,000	-0,045	0,151
-342,620	62,998	-0,012	-0,008
-341,606	124,961	-0,146	-0,133
-340,591	-37,690	-0,061	0,023
-339,577	199,241	0,041	-0,045
-338,562	76,665	-0,107	-0,082
-337,548	-200,000	0,010	0,041
-336,533	-94,571	0,091	-0,018
-335,518	262,221	-0,091	0,115
-334,504	113,553	0,019	0,017
-333,489	-200,000	-0,001	0,170
-332,475	800,000	0,027	-0,061
-331,460	203,128	-0,078	-0,088
-330,445	-200,000	0,012	0,090
-329,431	-200,000	-0,002	-0,008
-328,416	800,000	0,050	0,114
-327,402	-109,573	0,062	0,009
-326,387	-200,000	0,009	-0,090
-325,372	-27,490	0,122	0,051
-324,358	-36,545	0,089	0,035
-323,343	4,169	-0,066	-0,035
-322,329	-200,000	0,007	-0,111
-321,314	123,843	0,096	0,087
-320,299	-200,000	-0,021	-0,083
-319,285	-24,155	0,018	0,008
-318,270	-103,463	-0,128	-0,022
-317,256	21,456	-0,042	0,024
-316,241	-124,360	-0,089	-0,010
-315,226	9,524	-0,053	0,029
-314,212	800,000	0,019	0,044
-313,197	717,670	-0,024	-0,047
-312,183	800,000	0,059	0,164
-311,168	800,000	-0,043	-0,095
-310,153	-200,000	0,041	-0,148
-309,139	-11,570	0,024	-0,012
-308,124	120,003	-0,099	0,089
-307,110	152,078	-0,073	0,073
-306,095	-84,516	0,141	0,032
-305,080	-200,000	-0,017	0,096
-304,066	800,000	0,043	-0,115
-303,051	118,680	-0,144	-0,129
-302,037	-200,000	-0,009	-0,093
-301,022	-182,024	0,059	0,001
-300,008	34,650	0,027	0,017
-298,993	-200,000	-0,014	0,095
-297,978	491,317	-0,041	-0,067
-296,964	800,000	0,013	-0,027
-295,949	-170,629	-0,117	-0,003
-294,935	-76,372	0,140	-0,035
-293,920	-200,000	0,000	0,151
-292,905	-200,000	0,000	-0,055
-291,891	-70,751	0,130	0,035
-290,876	-89,545	0,061	0,013
-289,862	235,061	-0,035	-0,042
-288,847	0,095	-0,184	0,095
-287,832	-109,382	-0,145	0,022
-286,818	26,793	-0,028	0,017
-285,803	77,555	0,131	-0,101
-284,789	-200,000	0,004	0,061
-283,774	-153,133	-0,098	0,005
-282,759	-121,808	-0,097	-0,011
-281,745	149,104	-0,090	0,088
-280,730	-158,251	0,088	-0,004
-279,716	-200,000	0,016	-0,094
-278,701	-71,323	0,152	0,041
-277,686	282,532	0,086	0,111
-276,672	504,584	-0,026	-0,043
-275,657	123,225	0,038	0,035
-274,643	-173,991	-0,110	0,002
-273,628	800,000	-0,023	-0,064
-272,613	800,000	0,086	-0,172
-271,599	61,729	0,085	-0,061
-270,584	102,486	0,122	-0,103
-269,570	130,142	0,146	-0,135
-268,555	-200,000	0,019	0,075
-267,540	34,553	-0,102	0,064
-266,526	-163,508	-0,007	0,000
-265,511	800,000	0,032	-0,069
-264,497	-127,721	0,077	-0,008
-263,482	49,606	-0,079	-0,054
-262,467	64,510	0,048	-0,035
-261,453	456,179	0,028	0,045
-260,438	28,071	-0,035	-0,021
-259,424	50,193	0,090	-0,062
-258,409	443,309	-0,046	-0,074
-257,395	-200,000	-0,009	0,083
-256,380	-200,000	0,021	0,137
-255,365	13,942	-0,055	0,031
-254,351	-14,863	-0,028	0,013
-253,336	-41,433	-0,078	0,029
-252,322	42,254	0,087	-0,057
-251,307	800,000	-0,036	-0,097
-250,292	226,838	0,132	0,155
-249,278	-7,582	-0,011	0,005
-248,263	800,000	-0,031	0,074
-247,249	-200,000	-0,029	0,097
-246,234	293,577	0,029	-0,038
-245,219	-56,860	0,174	0,055
-244,205	134,028	-0,133	0,125
-243,190	189,877	-0,002	-0,002
-242,176	-200,000	0,009	-0,042
-241,161	-6,230	0,101	0,050
-240,146	-200,000	-0,019	-0,111
-239,132	-67,013	0,138	-0,039
-238,117	-200,000	-0,005	-0,118
-237,103	-120,501	0,133	-0,016
-236,088	-120,993	0,162	-0,019
-235,073	92,728	0,050	-0,041
-234,059	665,672	-0,017	-0,032
-233,044	486,072	-0,038	-0,062
-232,030	288,603	0,093	-0,121
-231,015	163,931	-0,167	-0,170
-230,000	-200,000	-0,016	-0,134
-228,986	297,348	0,069	0,092
-227,971	-120,444	-0,098	0,012
-226,957	-53,007	0,096	0,032
-225,942	800,000	-0,008	0,020
-224,927	-200,000	0,016	0,082
-223,913	-186,333	-0,098	0,001
-222,898	-30,234	-0,147	-0,060
-221,884	603,670	-0,040	-0,073
-220,869	-64,595	0,050	-0,015
-219,855	-168,628	0,085	0,002
-218,840	620,819	0,013	0,024
-217,825	200,603	0,003	0,003
-216,811	-64,637	0,034	-0,010
-215,796	-26,042	-0,023	-0,010
-214,782	-200,000	0,010	-0,057
-213,767	800,000	0,010	0,032
-212,752	800,000	-0,039	0,123
-211,738	-108,833	0,157	-0,024
-210,723	173,450	-0,034	0,035
-209,709	-200,000	-0,016	0,132
-208,694	691,214	-0,036	-0,069
-207,679	-200,000	0,005	0,023
-206,665	-87,135	0,067	-0,015
-205,650	187,397	0,056	0,060
-204,636	-122,638	0,008	-0,001
-203,621	-200,000	-0,013	0,087
-202,606	391,133	-0,050	-0,075
-201,592	48,619	-0,066	-0,044
-200,577	-200,000	-0,014	-0,098
-199,563	-191,008	0,063	0,000
-198,548	-200,000	0,006	0,076
-197,533	-200,000	-0,013	-0,058
-196,519	-131,569	-0,073	0,007
-195,504	-200,000	0,010	0,047
-194,490	-35,259	0,076	0,030
-193,475	-200,000	-0,008	0,029
-192,460	-200,000	0,032	0,112
-191,446	800,000	-0,014	0,035
-190,431	-32,027	-0,045	-0,018
-189,417	112,852	0,002	0,001
-188,402	-200,000	-0,094	0,000
-187,387	-77,169	-0,178	0,044
-186,373	98,388	-0,061	0,050
-185,358	-14,024	0,124	0,057
-184,344	-198,172	0,036	0,000
-183,329	-200,000	0,001	-0,012
-182,315	26,336	0,046	0,027
-181,300	-200,000	-0,019	-0,115
-180,285	-117,457	-0,130	0,017
-179,271	-28,862	-0,089	-0,037
-178,256	800,000	0,043	-0,111
-177,242	12,784	0,138	0,077
-176,227	-59,363	-0,089	-0,027
-175,212	-61,153	0,094	0,029
-174,198	363,409	0,024	0,035
-173,183	-200,000	0,006	-0,169
-172,169	-200,000	0,008	0,061
-171,154	-200,000	0,012	0,116
-170,139	-200,000	-0,031	0,134
-169,125	-104,103	-0,092	-0,015
-168,110	119,330	0,066	0,059
-167,096	-48,530	-0,041	0,014
-166,081	-105,659	-0,099	-0,016
-165,066	-200,000	0,005	-0,063
-164,052	250,428	-0,090	0,111
-163,037	207,520	0,057	-0,065
-162,023	-200,000	-0,007	0,085
-161,008	-6,953	-0,110	-0,054
-159,993	-176,530	0,111	-0,002
-158,979	-14,963	-0,064	0,029
-157,964	3,099	-0,135	-0,071
-156,950	-200,000	0,030	0,153
-155,935	180,278	0,075	0,079
-154,920	-130,866	0,086	0,008
-153,906	-79,480	0,070	-0,017
-152,891	696,803	0,019	-0,035
-151,877	-94,035	0,137	-0,027
-150,862	-28,760	-0,040	-0,017
-149,847	12,528	0,030	-0,016
-148,833	-200,000	-0,009	0,108
-147,818	800,000	0,012	-0,032
-146,804	800,000	0,033	-0,073
-145,789	-41,414	0,076	0,028
-144,775	-5,664	-0,080	0,039
-143,760	74,357	-0,119	0,090
-142,745	-74,361	-0,092	-0,024
-141,731	-56,210	0,047	-0,015
-140,716	261,026	0,055	-0,068
-139,702	145,785	0,106	0,102
-138,687	-200,000	-0,053	0,211
-137,672	-200,000	0,037	0,155
-136,658	-137,699	-0,131	-0,010
-135,643	22,879	-0,046	-0,027
-134,629	800,000	0,032	0,100
-133,614	800,000	-0,013	-0,038
-132,599	174,327	0,035	0,036
-131,585	-24,412	0,132	-0,057
-130,570	137,602	-0,108	0,101
-129,556	99,128	0,103	-0,085
-128,541	-200,000	-0,035	-0,127
-127,526	-200,000	-0,018	-0,144
-126,512	-200,000	-0,004	0,063
-125,497	-54,412	0,042	-0,014
-124,483	-200,000	-0,002	0,010
-123,468	-200,000	-0,002	-0,085
-122,453	705,665	0,015	0,028
-121,439	-39,995	-0,059	0,022
-120,424	316,834	0,073	0,100
-119,410	-200,000	-0,007	-0,121
