DTS Sentinel unit serial number:	SN410029Multiplexer serial number:	ORYXHardware model number:	OX2-SRSoftware version number:	ORYX F/W v4,00 Oryx Data Collector v3.7.2.0data status	okinstallation	B6 Nyhavnadifferential loss correction	single-endedforward channel	channel 2reverse channel	N/Adate	2023/12/07time	15:35:08forward acquisition time	300,00reverse acquisition time	0,00gamma	499,1914k internal	0,3165k external	0,3165temperature offset calibration	1,0000default loss term (dB/km)	0,3820temperature slope calibration	1,0000multiplexer offset coefficient	1,0000multiplexer slope coefficient	1,0000fibre end	0,00T internal ref (°C)	14,41T ext. ref 1 (°C)	-1,97T ext. ref 2 (°C)	-1,96length (m)	temperature (°C)	Stokes	anti-Stokes-744,400	-200,000	0,019	-0,183
-743,385	-120,907	-0,198	-0,024
-742,371	800,000	-0,040	0,088
-741,356	-200,000	-0,169	0,000
-740,342	800,000	0,048	0,147
-739,327	-160,952	-0,262	0,010
-738,312	-115,376	0,316	0,043
-737,298	-175,600	-0,204	-0,004
-736,283	196,751	0,075	-0,084
-735,269	-74,527	-0,212	0,056
-734,254	7,239	0,036	-0,020
-733,239	-72,903	-0,381	-0,102
-732,225	67,631	0,221	0,165
-731,210	161,004	0,031	0,032
-730,196	-112,293	0,127	-0,018
-729,181	148,820	-0,096	-0,096
-728,167	183,873	-0,056	0,061
-727,152	800,000	0,078	0,187
-726,137	272,938	-0,024	-0,031
-725,123	46,906	-0,060	0,041
-724,108	-83,710	-0,044	-0,010
-723,094	-200,000	-0,014	-0,122
-722,079	-200,000	0,000	-0,053
-721,064	-200,000	-0,025	-0,108
-720,050	154,414	-0,024	-0,025
-719,035	-200,000	-0,003	-0,098
-718,021	286,952	0,060	0,080
-717,006	-169,880	0,100	-0,003
-715,991	160,712	-0,127	-0,130
-714,977	130,584	0,080	0,075
-713,962	770,997	-0,072	-0,145
-712,948	597,896	0,055	-0,101
-711,933	231,936	-0,054	-0,065
-710,918	-158,412	0,057	0,002
-709,904	-200,000	-0,019	0,174
-708,889	800,000	-0,058	-0,122
-707,875	800,000	-0,047	-0,102
-706,860	-79,856	0,013	0,003
-705,845	497,314	-0,048	-0,082
-704,831	800,000	0,013	-0,033
-703,816	-133,036	0,061	-0,006
-702,802	104,716	0,034	0,029
-701,787	-200,000	0,018	-0,091
-700,772	147,701	-0,142	-0,141
-699,758	477,224	0,065	0,108
-698,743	198,674	0,049	0,055
-697,729	-14,400	0,113	0,053
-696,714	-77,725	-0,174	0,044
-695,699	800,000	0,015	0,035
-694,685	-200,000	-0,004	-0,038
-693,670	-200,000	0,036	-0,126
-692,656	53,123	0,012	0,008
-691,641	-119,280	0,084	-0,011
-690,627	-200,000	0,005	0,063
-689,612	-200,000	0,011	0,106
-688,597	-138,186	-0,150	0,012
-687,583	800,000	-0,032	-0,102
-686,568	-200,000	-0,017	-0,063
-685,554	-200,000	0,021	0,123
-684,539	54,470	0,031	-0,022
-683,524	800,000	0,033	0,071
-682,510	-135,762	0,095	0,008
-681,495	130,065	0,025	0,024
-680,481	-30,023	-0,152	-0,063
-679,466	-200,000	-0,024	-0,167
-678,451	-117,840	0,061	0,008
-677,437	26,858	0,068	-0,042
-676,422	53,302	0,194	0,136
-675,408	57,992	-0,083	0,059
-674,393	-200,000	-0,014	0,070
-673,378	103,991	-0,096	0,083
-672,364	800,000	-0,070	-0,145
-671,349	-200,000	0,003	0,024
-670,335	284,046	-0,047	0,063
-669,320	-97,252	0,144	-0,027
-668,305	-65,240	-0,154	-0,045
-667,291	-200,000	0,016	-0,062
-666,276	100,445	-0,057	-0,048
-665,262	-200,000	-0,003	0,012
-664,247	-200,000	0,016	0,055
-663,232	-0,612	0,038	0,020
-662,218	-49,448	-0,072	-0,025
-661,203	602,617	0,130	0,237
-660,189	800,000	0,041	0,095
-659,174	210,216	0,028	-0,033
-658,159	54,630	-0,046	0,032
-657,145	-200,000	-0,028	0,100
-656,130	-111,441	0,061	0,009
-655,116	394,245	0,059	0,090
-654,101	-17,390	0,057	0,026
-653,086	336,984	0,062	-0,088
-652,072	46,660	-0,076	-0,051
-651,057	-31,081	-0,226	0,093
-650,043	-200,000	0,011	-0,150
-649,028	174,499	0,030	0,032
-648,014	800,000	0,049	-0,105
-646,999	-114,953	0,162	-0,022
-645,984	469,543	0,071	-0,117
-644,970	-200,000	0,010	-0,045
-643,955	106,542	-0,085	-0,074
-642,941	-30,413	-0,097	0,040
-641,926	394,341	-0,022	0,034
-640,911	-200,000	-0,012	-0,093
-639,897	-200,000	-0,026	0,252
-638,882	800,000	-0,037	-0,092
-637,868	800,000	-0,034	0,075
-636,853	85,848	-0,067	0,054
-635,838	-200,000	0,022	-0,102
-634,824	431,042	-0,050	0,079
-633,809	-93,295	0,025	0,005
-632,795	13,104	-0,108	-0,061
-631,780	305,535	-0,049	-0,067
-630,765	-91,738	-0,072	-0,015
-629,751	-200,000	0,004	-0,141
-628,736	-132,750	-0,173	0,016
-627,722	-200,000	0,014	-0,093
-626,707	411,220	0,046	-0,072
-625,692	-200,000	0,030	-0,162
-624,678	83,744	-0,140	0,111
-623,663	800,000	0,020	0,042
-622,649	10,303	-0,044	-0,024
-621,634	124,193	0,059	-0,054
-620,619	-161,110	-0,104	0,004
-619,605	156,007	0,030	-0,030
-618,590	-72,657	-0,083	0,022
-617,576	-85,504	0,058	-0,013
-616,561	-54,342	-0,021	-0,007
-615,546	-200,000	-0,025	-0,100
-614,532	121,043	-0,070	-0,064
-613,517	-200,000	0,025	-0,119
-612,503	10,645	-0,051	-0,028
-611,488	-121,526	0,221	0,027
-610,474	-33,519	-0,039	-0,016
-609,459	800,000	-0,032	0,066
-608,444	-161,592	-0,062	-0,002
-607,430	6,479	-0,192	-0,104
-606,415	-29,588	0,126	-0,052
-605,401	581,908	-0,030	-0,055
-604,386	548,983	-0,045	0,079
-603,371	-140,381	0,111	0,008
-602,357	-48,644	-0,096	-0,033
-601,342	-200,000	-0,004	0,065
-600,328	-200,000	-0,002	-0,058
-599,313	-111,502	-0,056	-0,008
-598,298	264,634	0,006	-0,008
-597,284	590,840	0,072	0,131
-596,269	-200,000	-0,007	0,149
-595,255	539,867	-0,104	0,182
-594,240	-127,975	-0,090	0,009
-593,225	800,000	-0,022	-0,060
-592,211	21,243	-0,063	0,037
-591,196	-142,925	0,067	0,005
-590,182	133,418	-0,039	-0,037
-589,167	327,596	-0,056	-0,078
-588,152	60,170	0,054	-0,039
-587,138	26,282	0,017	0,011
-586,123	-149,622	0,063	-0,004
-585,109	-2,141	-0,097	-0,050
-584,094	438,434	-0,035	-0,056
-583,079	-152,068	-0,068	-0,004
-582,065	-122,399	0,036	-0,004
-581,050	-141,562	-0,023	0,002
-580,036	-200,000	-0,005	-0,069
-579,021	122,288	0,111	-0,101
-578,006	800,000	0,027	-0,060
-576,992	-200,000	-0,002	-0,054
-575,977	-108,023	-0,043	-0,007
-574,963	24,278	0,034	0,020
-573,948	-200,000	0,026	-0,108
-572,934	-200,000	0,008	-0,096
-571,919	268,821	0,085	-0,110
-570,904	515,266	0,045	0,077
-569,890	227,687	0,050	-0,060
-568,875	91,964	0,094	-0,077
-567,861	-85,595	0,081	-0,018
-566,846	-102,232	-0,030	-0,005
-565,831	139,868	0,152	0,146
-564,817	-83,497	-0,160	0,037
-563,802	-47,969	-0,132	-0,046
-562,788	181,018	0,016	-0,017
-561,773	800,000	0,018	0,056
-560,758	200,884	-0,044	0,050
-559,744	203,767	-0,083	0,094
-558,729	279,493	0,047	0,061
-557,715	28,980	-0,101	0,062
-556,700	-200,000	-0,019	-0,143
-555,685	-200,000	0,026	-0,103
-554,671	-99,119	-0,041	0,007
-553,656	-77,888	-0,032	-0,008
-552,642	-75,246	0,056	-0,015
-551,627	-200,000	0,020	0,171
-550,612	-58,576	-0,045	-0,014
-549,598	-13,549	-0,071	-0,033
-548,583	38,771	-0,091	-0,059
-547,569	334,730	0,015	-0,022
-546,554	-200,000	-0,029	0,133
-545,539	17,394	-0,044	0,025
-544,525	344,023	0,030	-0,043
-543,510	-128,282	-0,047	-0,005
-542,496	661,755	0,044	-0,083
-541,481	-162,316	0,142	0,005
-540,466	671,818	0,014	0,027
-539,452	-103,842	0,106	0,018
-538,437	-109,124	-0,047	0,007
-537,423	-200,000	-0,013	0,069
-536,408	37,957	0,052	0,033
-535,393	45,856	-0,137	0,092
-534,379	-59,556	0,095	0,030
-533,364	280,734	-0,033	-0,043
-532,350	782,843	0,052	-0,104
-531,335	-200,000	0,022	-0,136
-530,321	26,837	0,130	0,080
-529,306	798,967	0,008	-0,016
-528,291	412,364	0,016	-0,025
-527,277	203,402	-0,071	-0,080
-526,262	-66,418	0,047	-0,014
-525,248	271,669	0,090	-0,116
-524,233	291,218	-0,009	0,012
-523,218	-200,000	-0,005	-0,040
-522,204	66,459	-0,140	-0,104
-521,189	34,624	-0,099	-0,063
-520,175	481,736	-0,014	-0,023
-519,160	742,333	-0,016	0,032
-518,145	125,095	-0,065	-0,060
-517,131	800,000	0,026	0,055
-516,116	20,235	0,098	0,058
-515,102	-200,000	0,007	0,041
-514,087	589,618	-0,025	-0,045
-513,072	24,619	0,040	0,024
-512,058	244,425	0,102	-0,125
-511,043	158,026	-0,060	0,061
-510,029	-153,416	-0,055	0,003
-509,014	368,070	0,073	-0,107
-507,999	-68,257	-0,100	0,028
-506,985	-11,489	0,027	0,013
-505,970	-53,395	0,065	-0,022
-504,956	1,553	0,059	0,031
-503,941	800,000	-0,035	0,080
-502,926	-200,000	-0,019	0,098
-501,912	30,461	-0,038	0,023
-500,897	303,862	0,066	0,090
-499,883	-200,000	-0,028	-0,115
-498,868	438,913	-0,101	-0,162
-497,853	330,796	-0,043	0,061
-496,839	343,036	-0,074	-0,105
-495,824	67,557	0,093	-0,069
-494,810	-99,689	0,073	-0,013
-493,795	-200,000	0,037	0,125
-492,781	-3,416	-0,053	0,027
-491,766	165,834	0,092	-0,095
-490,751	4,798	-0,065	0,034
-489,737	378,562	-0,096	0,143
-488,722	800,000	0,031	-0,070
-487,708	323,535	0,041	0,057
-486,693	-200,000	0,009	-0,129
-485,678	10,014	-0,032	0,018
-484,664	58,427	-0,032	0,023
-483,649	800,000	-0,035	-0,089
-482,635	61,376	0,131	0,094
-481,620	-200,000	-0,039	0,162
-480,605	-200,000	-0,022	0,146
-479,591	-50,311	0,043	0,015
-478,576	-127,969	-0,075	0,008
-477,562	165,612	0,071	-0,073
-476,547	557,305	0,070	-0,124
-475,532	-175,769	-0,097	0,002
-474,518	-200,000	-0,013	0,074
-473,503	79,366	-0,039	0,030
-472,489	196,048	0,112	-0,124
-471,474	288,806	-0,053	-0,070
-470,459	191,193	-0,051	-0,055
-469,445	-200,000	0,014	-0,102
-468,430	800,000	-0,021	-0,069
-467,416	-200,000	0,001	-0,075
-466,401	-66,564	0,141	0,040
-465,386	73,084	-0,066	-0,050
-464,372	-200,000	0,039	-0,137
-463,357	800,000	-0,056	-0,133
-462,343	-200,000	0,007	-0,040
-461,328	232,530	-0,021	-0,026
-460,313	642,389	-0,075	0,139
-459,299	-151,734	-0,100	-0,005
-458,284	-144,890	0,124	-0,008
-457,270	800,000	0,029	0,085
-456,255	58,634	0,054	0,038
-455,241	-30,875	-0,024	0,010
-454,226	112,829	-0,049	0,043
-453,211	340,371	0,116	0,165
-452,197	800,000	0,058	0,123
-451,182	112,066	-0,152	0,133
-450,168	-200,000	0,000	-0,080
-449,153	800,000	0,053	-0,160
-448,138	-200,000	-0,007	-0,085
-447,124	-123,857	0,196	-0,022
-446,109	-80,835	-0,028	-0,007
-445,095	323,378	0,030	-0,041
-444,080	-147,910	0,138	0,008
-443,065	151,485	0,034	0,033
-442,051	-193,297	-0,122	-0,001
-441,036	-200,000	-0,026	-0,190
-440,022	641,792	-0,013	-0,024
-439,007	550,546	0,025	-0,044
-437,992	-200,000	-0,031	0,112
-436,978	-200,000	-0,025	0,188
-435,963	-58,455	0,155	-0,048
-434,949	800,000	0,053	0,109
-433,934	800,000	0,046	-0,105
-432,919	-27,592	-0,085	0,036
-431,905	-102,040	0,108	0,019
-430,890	104,484	-0,090	-0,077
-429,876	116,622	-0,095	0,085
-428,861	3,029	0,063	-0,033
-427,846	-200,000	0,010	0,148
-426,832	-200,000	0,006	0,025
-425,817	-192,565	0,017	0,000
-424,803	-200,000	-0,030	-0,158
-423,788	88,299	-0,047	0,038
-422,773	-119,838	0,092	-0,011
-421,759	-200,000	-0,013	0,102
-420,744	-109,460	-0,030	-0,005
-419,730	-200,000	0,013	-0,130
-418,715	667,722	-0,143	-0,270
-417,701	-170,022	0,111	0,003
-416,686	-200,000	-0,000	0,017
-415,671	-9,216	-0,065	0,032
-414,657	-11,606	-0,052	0,025
-413,642	-90,760	0,014	0,003
-412,628	149,991	-0,044	-0,044
-411,613	-200,000	-0,017	-0,092
-410,598	-52,789	-0,078	0,026
-409,584	455,658	-0,006	-0,009
-408,569	559,386	0,054	-0,095
-407,555	23,347	0,145	0,086
-406,540	-200,000	0,002	0,065
-405,525	800,000	0,035	-0,072
-404,511	800,000	-0,047	-0,120
-403,496	-200,000	0,018	0,089
-402,482	-27,380	0,027	-0,012
-401,467	248,188	0,022	-0,026
-400,452	11,369	0,151	0,084
-399,438	214,357	-0,102	-0,117
-398,423	79,197	-0,110	-0,085
-397,409	260,496	0,143	-0,179
-396,394	-200,000	-0,001	-0,067
-395,379	-73,605	-0,177	-0,046
-394,365	-74,037	0,005	-0,001
-393,350	295,549	0,117	0,155
-392,336	-1,287	-0,100	-0,051
-391,321	800,000	0,020	-0,045
-390,306	800,000	0,024	0,062
-389,292	-27,106	0,015	0,006
-388,277	320,976	-0,027	0,038
-387,263	4,414	0,016	0,008
-386,248	-97,729	0,172	-0,032
-385,233	-200,000	0,006	-0,170
-384,219	-103,474	0,198	0,033
-383,204	-111,331	-0,058	0,008
-382,190	-90,983	-0,059	-0,012
-381,175	-7,342	0,078	0,038
-380,160	-31,521	0,148	0,060
-379,146	174,253	0,083	-0,087
-378,131	-200,000	-0,001	0,072
-377,117	91,987	-0,154	-0,126
-376,102	-84,875	-0,115	0,026
-375,088	-63,858	0,027	0,008
-374,073	161,286	0,083	0,084
-373,058	-138,380	0,077	-0,006
-372,044	229,823	-0,045	0,053
-371,029	568,033	0,043	-0,076
-370,015	2,938	-0,069	-0,036
-369,000	-200,000	0,006	0,106
-367,985	233,542	0,028	0,034
-366,971	-200,000	0,015	-0,063
-365,956	-167,846	-0,119	-0,003
-364,942	9,299	0,072	0,039
-363,927	-200,000	0,003	0,031
-362,912	800,000	0,047	0,145
-361,898	631,349	0,039	-0,072
-360,883	-41,492	-0,157	0,058
-359,869	350,547	-0,027	0,038
-358,854	-140,786	-0,054	0,004
-357,839	25,846	0,129	0,078
-356,825	-200,000	-0,026	0,149
-355,810	800,000	-0,050	0,144
-354,796	676,823	-0,082	0,155
-353,781	-113,107	-0,017	0,002
-352,766	83,571	-0,049	-0,038
-351,752	57,453	0,156	-0,111
-350,737	4,011	0,102	-0,054
-349,723	433,033	-0,073	0,115
-348,708	-200,000	0,005	0,078
-347,693	787,655	-0,037	-0,075
-346,679	-200,000	-0,009	-0,039
-345,664	-184,628	-0,160	-0,002
-344,650	-200,000	-0,001	-0,061
-343,635	-200,000	0,004	-0,066
-342,620	386,907	0,036	-0,053
-341,606	-51,335	0,067	0,023
-340,591	800,000	0,018	-0,037
-339,577	367,344	0,079	-0,116
-338,562	-136,469	0,119	0,010
-337,548	-82,609	-0,130	0,030
-336,533	-125,157	0,058	-0,006
-335,518	18,409	0,077	0,044
-334,504	800,000	0,037	0,080
-333,489	49,401	0,025	0,017
-332,475	128,060	-0,091	-0,084
-331,460	-200,000	0,025	0,143
-330,445	-200,000	0,012	0,153
-329,431	-200,000	0,008	0,112
-328,416	-134,517	0,160	0,014
-327,402	800,000	0,035	0,078
-326,387	-200,000	0,018	0,067
-325,372	-147,831	-0,181	-0,011
-324,358	-146,484	-0,084	0,005
-323,343	-200,000	0,002	0,026
-322,329	-200,000	-0,003	-0,075
-321,314	24,507	0,129	0,077
-320,299	157,718	0,113	0,113
-319,285	-19,235	-0,086	-0,039
-318,270	-111,427	-0,094	-0,014
-317,256	800,000	-0,068	-0,154
-316,241	-200,000	-0,006	-0,101
-315,226	800,000	-0,042	-0,116
-314,212	129,761	0,065	-0,060
-313,197	240,898	-0,007	-0,008
-312,183	-69,788	0,024	0,007
-311,168	-37,779	-0,177	0,068
-310,153	-75,062	0,113	-0,029
-309,139	225,551	-0,050	-0,059
-308,124	46,901	-0,045	0,030
-307,110	-147,409	-0,116	-0,007
-306,095	218,131	-0,029	-0,034
-305,080	-200,000	-0,006	-0,095
-304,066	-200,000	-0,003	0,022
-303,051	313,991	-0,106	-0,144
-302,037	42,983	-0,082	0,054
-301,022	-139,842	0,050	0,004
-300,008	800,000	0,042	0,099
-298,993	92,787	0,084	0,069
-297,978	-100,125	-0,090	-0,016
-296,964	800,000	0,044	-0,093
-295,949	-28,231	-0,071	0,029
-294,935	-200,000	0,013	-0,096
-293,920	147,693	-0,063	-0,061
-292,905	607,648	-0,036	0,064
-291,891	121,982	-0,070	0,063
-290,876	-200,000	-0,020	0,066
-289,862	159,351	-0,095	0,095
-288,847	-57,483	-0,066	0,021
-287,832	99,373	-0,056	0,047
-286,818	800,000	-0,013	0,030
-285,803	-200,000	-0,010	0,063
-284,789	-200,000	-0,018	0,069
-283,774	121,740	0,067	-0,060
-282,759	-200,000	0,004	-0,058
-281,745	-20,543	-0,080	0,035
-280,730	287,715	-0,047	-0,062
-279,716	369,826	-0,021	-0,030
-278,701	-68,933	0,078	-0,022
-277,686	86,563	0,075	-0,060
-276,672	68,813	-0,119	0,088
-275,657	405,851	-0,088	-0,134
-274,643	306,070	-0,091	-0,123
-273,628	-133,594	-0,090	-0,008
-272,613	-200,000	0,045	0,200
-271,599	226,989	-0,048	0,057
-270,584	-200,000	0,030	0,114
-269,570	-200,000	0,014	0,264
-268,555	268,231	0,064	-0,081
-267,540	-38,600	-0,109	0,041
-266,526	324,844	0,071	0,098
-265,511	447,832	-0,040	0,063
-264,497	128,503	0,086	0,079
-263,482	24,559	0,181	0,108
-262,467	-111,281	-0,172	-0,025
-261,453	-200,000	-0,011	0,128
-260,438	-81,121	-0,062	0,015
-259,424	-200,000	-0,029	0,102
-258,409	-34,668	0,179	0,070
-257,395	80,730	-0,066	-0,052
-256,380	259,653	0,015	0,019
-255,365	44,083	0,112	0,074
-254,351	-19,142	0,136	0,061
-253,336	-200,000	-0,005	-0,159
-252,322	56,660	-0,072	-0,050
-251,307	-200,000	0,010	-0,082
-250,292	236,393	-0,039	0,046
-249,278	343,773	0,075	0,106
-248,263	-90,974	-0,039	-0,008
-247,249	304,114	0,073	-0,098
-246,234	39,655	0,061	0,040
-245,219	-90,065	-0,062	-0,013
-244,205	136,500	0,076	-0,072
-243,190	-105,613	0,068	-0,011
-242,176	286,754	-0,095	0,124
-241,161	256,510	-0,029	0,036
-240,146	-200,000	0,026	0,105
-239,132	210,017	-0,018	0,020
-238,117	403,693	-0,054	0,082
-237,103	-28,872	0,070	0,029
-236,088	-200,000	0,006	0,088
-235,073	0,295	0,108	0,055
-234,059	-163,870	-0,105	0,003
-233,044	-5,795	-0,040	-0,020
-232,030	-200,000	0,012	0,071
-231,015	-200,000	0,069	-0,000
-230,000	199,858	-0,093	-0,103
-228,986	-30,915	0,148	-0,060
-227,971	-58,598	0,076	-0,024
-226,957	-38,923	0,061	-0,023
-225,942	800,000	0,038	0,086
-224,927	-33,257	0,050	-0,020
-223,913	77,183	-0,024	-0,018
-222,898	587,806	-0,021	0,037
-221,884	-70,076	0,186	0,051
-220,869	-200,000	0,001	-0,016
-219,855	800,000	0,067	0,139
-218,840	-105,187	0,052	0,009
-217,825	-122,543	-0,094	0,011
-216,811	-200,000	0,001	-0,056
-215,796	486,404	0,014	-0,024
-214,782	-21,627	0,069	-0,030
-213,767	89,830	-0,104	0,084
-212,752	347,752	-0,043	0,061
-211,738	-2,782	0,146	0,073
-210,723	-200,000	-0,003	0,075
-209,709	135,895	0,039	0,036
-208,694	85,388	0,035	0,027
-207,679	-65,015	0,258	0,074
-206,665	800,000	0,048	0,150
-205,650	-162,748	0,041	0,001
-204,636	-200,000	0,005	0,060
-203,621	7,930	0,116	0,062
-202,606	-200,000	-0,018	-0,062
-201,592	-147,725	0,086	0,005
-200,577	23,621	0,133	-0,079
-199,563	-126,481	0,150	0,016
-198,548	106,809	0,045	0,039
-197,533	262,021	-0,085	0,107
-196,519	-16,259	-0,053	0,024
-195,504	124,711	0,044	-0,040
-194,490	-50,746	-0,021	-0,007
-193,475	-200,000	0,034	0,147
-192,460	800,000	-0,060	-0,125
-191,446	-200,000	-0,062	0,205
-190,431	47,619	0,057	0,038
-189,417	222,669	0,051	-0,060
-188,402	170,198	-0,068	0,070
-187,387	800,000	0,028	-0,083
-186,373	-99,935	-0,086	0,015
-185,358	150,244	-0,086	-0,084
-184,344	292,973	-0,077	-0,102
-183,329	-200,000	-0,021	0,179
-182,315	5,542	-0,053	0,028
-181,300	205,848	-0,028	0,031
-180,285	54,857	-0,111	-0,077
-179,271	-200,000	-0,011	-0,034
-178,256	-200,000	0,009	0,039
-177,242	800,000	0,061	-0,153
-176,227	-200,000	-0,003	0,035
-175,212	-72,248	-0,055	0,014
-174,198	-200,000	0,006	-0,064
-173,183	408,031	0,069	-0,105
-172,169	-4,450	-0,046	-0,023
-171,154	510,152	-0,015	0,025
-170,139	-135,493	0,055	0,005
-169,125	493,789	-0,068	0,113
-168,110	57,870	-0,021	0,015
-167,096	-200,000	0,003	-0,119
-166,081	800,000	0,055	0,123
-165,066	-170,020	-0,091	0,002
-164,052	-200,000	-0,004	-0,018
-163,037	-132,004	-0,053	0,005
-162,023	451,488	-0,017	-0,027
-161,008	167,098	0,010	0,011
-159,993	-48,550	0,034	0,012
-158,979	80,970	0,107	0,083
-157,964	-37,934	-0,086	-0,033
-156,950	314,697	-0,098	-0,133
-155,935	-158,790	0,088	-0,004
-154,920	-200,000	0,001	-0,070
-153,906	-200,000	0,032	-0,190
-152,891	463,285	-0,056	0,091
-151,877	1,012	0,169	0,087
-150,862	603,934	-0,021	0,039
-149,847	-200,000	-0,034	-0,146
-148,833	-81,023	0,012	0,003
-147,818	168,204	0,122	0,125
-146,804	-141,760	0,012	0,001
-145,789	-200,000	-0,027	0,266
-144,775	-118,919	0,028	0,003
-143,760	-200,000	0,001	-0,028
-142,745	527,352	-0,066	-0,111
-141,731	-86,028	-0,104	-0,023
-140,716	156,050	0,098	0,097
-139,702	788,806	0,050	0,100
-138,687	-200,000	0,018	0,106
-137,672	56,314	0,098	-0,068
-136,658	-12,026	-0,092	-0,043
-135,643	-200,000	-0,003	-0,107
-134,629	491,728	0,083	-0,137
-133,614	800,000	-0,048	0,133
-132,599	-15,893	0,082	-0,037
-131,585	-200,000	0,006	0,048
-130,570	367,909	0,017	-0,024
-129,556	-89,321	-0,067	0,014
-128,541	400,874	0,028	0,042
-127,526	191,361	0,067	-0,072
-126,512	648,944	-0,029	0,053
-125,497	116,729	0,104	0,091
-124,483	330,639	-0,047	0,066
-123,468	487,922	-0,073	0,120
-122,453	189,120	-0,030	-0,032
-121,439	56,810	-0,014	0,010
-120,424	393,401	-0,079	-0,119
-119,410	12,200	0,166	0,091
