DTS Sentinel unit serial number:	SN410029Multiplexer serial number:	ORYXHardware model number:	OX2-SRSoftware version number:	ORYX F/W v4,00 Oryx Data Collector v3.7.2.0data status	okinstallation	B6 Nyhavnadifferential loss correction	single-endedforward channel	channel 2reverse channel	N/Adate	2023/12/11time	06:35:08forward acquisition time	300,00reverse acquisition time	0,00gamma	499,1914k internal	0,3126k external	0,3126temperature offset calibration	1,0000default loss term (dB/km)	0,3820temperature slope calibration	1,0000multiplexer offset coefficient	1,0000multiplexer slope coefficient	1,0000fibre end	0,00T internal ref (°C)	19,48T ext. ref 1 (°C)	2,65T ext. ref 2 (°C)	2,68length (m)	temperature (°C)	Stokes	anti-Stokes-744,400	-22,965	0,189	-0,084
-743,385	-56,571	-0,327	0,107
-742,371	-148,151	0,129	-0,008
-741,356	-101,235	-0,305	0,055
-740,342	-22,741	0,094	-0,042
-739,327	4,912	-0,191	0,104
-738,312	336,632	0,048	-0,069
-737,298	-200,000	-0,323	-0,001
-736,283	38,699	0,094	-0,062
-735,269	-35,118	-0,160	0,065
-734,254	227,179	0,032	0,039
-733,239	-62,840	-0,464	-0,142
-732,225	631,716	-0,013	-0,024
-731,210	-200,000	0,007	0,069
-730,196	165,057	-0,059	-0,062
-729,181	800,000	-0,031	-0,065
-728,167	-200,000	0,011	-0,044
-727,152	55,448	-0,145	-0,104
-726,137	229,142	0,081	0,099
-725,123	800,000	-0,018	-0,046
-724,108	81,391	-0,130	-0,104
-723,094	-200,000	-0,044	-0,161
-722,079	591,684	-0,065	-0,120
-721,064	-34,418	-0,087	-0,035
-720,050	27,191	0,044	0,027
-719,035	-41,400	0,043	-0,016
-718,021	-200,000	-0,009	0,054
-717,006	664,309	-0,060	-0,115
-715,991	-200,000	0,033	-0,207
-714,977	222,047	-0,048	-0,058
-713,962	-103,443	0,112	-0,019
-712,948	38,096	0,041	0,027
-711,933	800,000	0,033	-0,078
-710,918	-142,492	0,061	0,004
-709,904	-200,000	-0,025	-0,162
-708,889	69,736	-0,100	-0,077
-707,875	-200,000	-0,006	-0,050
-706,860	800,000	-0,013	-0,034
-705,845	-200,000	-0,004	0,034
-704,831	-200,000	-0,004	0,042
-703,816	362,459	-0,080	-0,119
-702,802	-200,000	-0,016	0,081
-701,787	800,000	-0,056	-0,118
-700,772	-200,000	0,030	0,154
-699,758	-61,894	-0,099	0,031
-698,743	93,764	-0,042	0,035
-697,729	53,267	0,117	0,083
-696,714	-200,000	-0,017	0,093
-695,699	-61,307	-0,063	0,020
-694,685	-200,000	-0,016	-0,093
-693,670	-200,000	-0,014	0,109
-692,656	-200,000	0,000	-0,075
-691,641	800,000	0,032	-0,096
-690,627	-179,122	0,029	0,000
-689,612	194,136	-0,113	0,127
-688,597	-200,000	0,019	0,120
-687,583	236,446	-0,110	-0,136
-686,568	384,712	0,053	-0,082
-685,554	-141,410	0,057	0,004
-684,539	187,000	0,105	0,116
-683,524	470,498	-0,032	-0,054
-682,510	243,057	-0,043	0,054
-681,495	150,653	-0,037	-0,037
-680,481	800,000	0,042	-0,101
-679,466	-137,698	0,065	-0,005
-678,451	-101,155	-0,186	0,034
-677,437	-200,000	-0,003	-0,012
-676,422	-200,000	0,017	-0,070
-675,408	41,683	-0,062	0,042
-674,393	345,511	-0,057	-0,083
-673,378	-200,000	0,031	-0,135
-672,364	-200,000	0,005	0,020
-671,349	800,000	-0,058	-0,124
-670,335	-74,164	0,074	-0,020
-669,320	800,000	-0,033	0,069
-668,305	65,790	-0,191	0,144
-667,291	361,676	-0,086	-0,128
-666,276	-200,000	0,046	-0,175
-665,262	69,456	-0,125	0,095
-664,247	158,115	-0,086	-0,089
-663,232	224,200	0,069	-0,083
-662,218	800,000	-0,033	-0,094
-661,203	-97,766	0,143	0,027
-660,189	800,000	0,024	-0,067
-659,174	162,230	-0,094	0,098
-658,159	-200,000	-0,224	-0,001
-657,145	144,789	-0,023	-0,023
-656,130	-200,000	0,045	0,204
-655,116	372,528	-0,006	0,008
-654,101	666,395	-0,034	-0,066
-653,086	-63,048	-0,130	0,040
-652,072	47,523	-0,012	-0,008
-651,057	-200,000	0,002	-0,017
-650,043	-200,000	0,003	-0,026
-649,028	800,000	0,018	0,042
-648,014	35,534	-0,035	-0,023
-646,999	96,537	-0,043	-0,037
-645,984	-200,000	0,031	0,170
-644,970	-7,021	-0,109	-0,055
-643,955	-0,220	0,101	-0,053
-642,941	506,671	-0,091	-0,158
-641,926	694,319	-0,060	0,116
-640,911	-152,814	0,147	0,008
-639,897	-200,000	0,013	-0,095
-638,882	669,835	-0,038	0,073
-637,868	145,283	0,067	0,067
-636,853	-122,923	-0,142	-0,017
-635,838	800,000	-0,040	-0,113
-634,824	-51,772	-0,060	0,021
-633,809	-200,000	-0,023	0,123
-632,795	-200,000	0,013	-0,147
-631,780	-200,000	-0,020	0,118
-630,765	9,115	-0,104	0,058
-629,751	-21,182	-0,063	-0,028
-628,736	125,109	-0,145	-0,135
-627,722	24,061	-0,063	0,038
-626,707	741,339	-0,023	-0,046
-625,692	-84,897	0,072	0,017
-624,678	766,533	0,051	-0,103
-623,663	800,000	0,083	-0,189
-622,649	-84,242	0,058	-0,013
-621,634	-63,047	-0,130	-0,040
-620,619	17,705	0,032	-0,019
-619,605	-153,061	0,090	-0,005
-618,590	-118,487	0,074	0,010
-617,576	-200,000	0,004	0,104
-616,561	-35,547	0,080	0,032
-615,546	327,544	0,045	-0,064
-614,532	-90,179	-0,089	-0,019
-613,517	525,137	-0,037	-0,065
-612,503	58,138	0,143	-0,104
-611,488	-200,000	-0,019	-0,083
-610,474	83,703	-0,043	0,035
-609,459	-200,000	-0,030	0,143
-608,444	800,000	-0,062	-0,143
-607,430	-118,395	0,043	-0,006
-606,415	170,072	-0,092	-0,097
-605,401	-200,000	-0,037	-0,180
-604,386	91,541	0,072	0,060
-603,371	800,000	0,030	0,077
-602,357	113,912	0,045	0,041
-601,342	800,000	-0,043	-0,093
-600,328	-200,000	0,040	-0,136
-599,313	-57,729	0,044	0,014
-598,298	-149,777	-0,077	-0,004
-597,284	-168,600	-0,065	-0,002
-596,269	-200,000	0,014	-0,095
-595,255	146,044	-0,038	0,038
-594,240	344,147	0,055	-0,080
-593,225	-200,000	-0,023	-0,085
-592,211	81,582	0,034	0,027
-591,196	-134,106	-0,116	-0,010
-590,182	-200,000	0,019	-0,075
-589,167	800,000	0,029	0,081
-588,152	-48,317	-0,060	0,021
-587,138	-78,690	-0,086	0,022
-586,123	-138,329	-0,133	0,011
-585,109	-158,422	-0,055	0,002
-584,094	-200,000	-0,007	0,084
-583,079	379,181	-0,038	0,057
-582,065	-60,518	0,116	0,036
-581,050	748,068	0,009	0,018
-580,036	39,280	0,109	0,072
-579,021	-66,611	-0,098	-0,029
-578,006	412,079	-0,063	-0,099
-576,992	-200,000	-0,023	-0,085
-575,977	-200,000	0,009	0,136
-574,963	800,000	0,019	-0,047
-573,948	-35,129	-0,033	-0,013
-572,934	-85,117	0,039	0,009
-571,919	138,785	-0,069	0,067
-570,904	-110,261	0,087	0,013
-569,890	72,347	-0,040	0,031
-568,875	671,619	-0,047	0,091
-567,861	-200,000	-0,001	-0,009
-566,846	-43,402	-0,038	0,014
-565,831	-70,806	-0,090	0,025
-564,817	226,014	0,062	0,074
-563,802	157,112	-0,112	-0,115
-562,788	800,000	-0,058	-0,123
-561,773	-22,146	0,040	0,018
-560,758	800,000	-0,039	0,125
-559,744	-40,788	0,073	-0,028
-558,729	-200,000	0,008	0,102
-557,715	-200,000	0,000	-0,104
-556,700	98,071	-0,077	-0,065
-555,685	-200,000	0,024	0,080
-554,671	52,212	0,104	0,073
-553,656	-40,365	0,104	0,040
-552,642	-200,000	-0,008	-0,056
-551,627	272,304	-0,061	0,080
-550,612	-170,080	-0,070	-0,002
-549,598	174,832	-0,051	0,054
-548,583	-9,198	-0,134	0,066
-547,569	-103,148	0,071	0,012
-546,554	800,000	-0,059	-0,148
-545,539	127,334	0,123	0,116
-544,525	91,016	0,017	-0,014
-543,510	-129,377	-0,122	-0,012
-542,496	9,301	0,088	-0,049
-541,481	800,000	-0,060	-0,134
-540,466	-200,000	-0,002	0,117
-539,452	288,859	-0,064	0,085
-538,437	220,533	0,018	0,022
-537,423	-70,579	0,143	0,040
-536,408	-48,479	-0,084	-0,030
-535,393	-200,000	0,009	-0,069
-534,379	800,000	0,046	-0,126
-533,364	-200,000	0,016	-0,091
-532,350	14,832	0,095	-0,055
-531,335	800,000	-0,065	0,176
-530,321	389,625	-0,017	0,026
-529,306	-149,772	-0,116	0,007
-528,291	-102,870	0,149	-0,026
-527,277	148,722	-0,047	-0,047
-526,262	217,552	-0,069	0,082
-525,248	-153,517	0,063	0,003
-524,233	-24,735	0,098	0,043
-523,218	332,259	0,057	0,082
-522,204	-51,719	-0,059	0,020
-521,189	-32,214	-0,081	-0,033
-520,175	800,000	0,043	0,091
-519,160	180,312	-0,054	-0,059
-518,145	-115,458	-0,102	0,014
-517,131	31,077	-0,044	0,028
-516,116	-137,057	0,026	0,002
-515,102	262,537	-0,056	0,072
-514,087	-42,180	-0,095	-0,035
-513,072	-200,000	0,023	-0,114
-512,058	611,771	0,056	-0,105
-511,043	-77,336	0,044	-0,011
-510,029	-200,000	-0,012	-0,085
-509,014	-156,217	-0,141	-0,006
-507,999	511,650	-0,016	0,028
-506,985	221,887	-0,042	0,050
-505,970	482,232	-0,062	0,105
-504,956	34,345	0,054	-0,034
-503,941	97,693	0,024	0,021
-502,926	236,840	0,046	0,056
-501,912	-200,000	-0,000	0,021
-500,897	63,418	-0,017	0,013
-499,883	113,129	0,124	0,111
-498,868	-200,000	0,015	-0,080
-497,853	134,101	-0,110	-0,105
-496,839	67,959	0,106	-0,080
-495,824	800,000	0,037	0,085
-494,810	-145,224	0,103	-0,007
-493,795	596,908	0,020	0,037
-492,781	-104,956	-0,109	-0,018
-491,766	25,318	-0,105	-0,064
-490,751	-115,598	0,078	-0,011
-489,737	800,000	0,026	0,078
-488,722	800,000	0,019	0,052
-487,708	-60,829	-0,075	0,023
-486,693	-200,000	-0,018	0,061
-485,678	-125,607	0,214	0,024
-484,664	75,434	0,053	-0,041
-483,649	-200,000	-0,004	0,020
-482,635	-44,497	-0,093	-0,034
-481,620	800,000	0,033	0,094
-480,605	800,000	-0,043	0,109
-479,591	800,000	0,026	0,069
-478,576	-38,706	-0,113	0,044
-477,562	-98,622	0,011	-0,002
-476,547	800,000	-0,008	0,026
-475,532	-200,000	-0,037	-0,141
-474,518	-53,712	0,155	0,052
-473,503	483,138	-0,049	-0,082
-472,489	116,380	0,044	-0,040
-471,474	-35,075	-0,025	0,010
-470,459	-200,000	-0,009	0,066
-469,445	246,718	-0,107	-0,133
-468,430	505,142	0,037	-0,063
-467,416	629,436	-0,062	-0,117
-466,401	-200,000	0,029	-0,150
-465,386	-20,346	0,037	-0,017
-464,372	218,443	0,071	-0,083
-463,357	-109,580	-0,147	-0,023
-462,343	-200,000	0,001	0,147
-461,328	-2,788	-0,101	-0,052
-460,313	669,660	-0,042	0,080
-459,299	77,761	0,032	0,025
-458,284	178,613	0,078	-0,084
-457,270	-128,092	0,068	-0,007
-456,255	-200,000	-0,015	-0,050
-455,241	-13,641	-0,115	-0,055
-454,226	-70,367	-0,091	0,025
-453,211	-200,000	0,020	0,146
-452,197	68,956	0,062	0,047
-451,182	-119,083	0,194	0,025
-450,168	-164,564	0,117	0,004
-449,153	-200,000	-0,015	-0,096
-448,138	-200,000	0,008	-0,076
-447,124	-200,000	-0,002	-0,040
-446,109	-88,838	0,056	-0,012
-445,095	12,341	0,049	-0,028
-444,080	85,087	0,152	0,122
-443,065	800,000	-0,034	-0,104
-442,051	-200,000	0,016	-0,060
-441,036	36,996	0,084	-0,054
-440,022	-90,047	-0,069	-0,015
-439,007	800,000	-0,019	0,057
-437,992	-200,000	-0,016	0,064
-436,978	-24,618	-0,041	0,018
-435,963	206,664	0,021	0,024
-434,949	-200,000	0,004	-0,079
-433,934	800,000	-0,031	-0,073
-432,919	-84,801	-0,108	-0,025
-431,905	-19,964	0,143	-0,065
-430,890	163,562	0,058	-0,060
-429,876	3,417	0,018	-0,010
-428,861	-200,000	-0,001	0,070
-427,846	355,949	0,010	0,015
-426,832	800,000	0,038	-0,092
-425,817	800,000	0,057	-0,166
-424,803	-200,000	0,009	-0,065
-423,788	291,519	0,034	0,045
-422,773	-200,000	-0,001	0,003
-421,759	152,720	-0,099	0,099
-420,744	-101,878	0,072	-0,013
-419,730	-200,000	0,024	-0,099
-418,715	625,248	0,055	-0,102
-417,701	88,557	0,083	-0,068
-416,686	-121,997	0,078	-0,009
-415,671	-88,204	0,145	0,032
-414,657	6,184	-0,037	-0,020
-413,642	-200,000	0,008	-0,088
-412,628	-200,000	0,006	0,047
-411,613	148,668	-0,065	-0,064
-410,598	544,280	0,078	-0,137
-409,584	800,000	0,040	-0,092
-408,569	-200,000	0,017	-0,109
-407,555	-200,000	0,008	0,094
-406,540	-176,251	0,088	0,002
-405,525	-71,076	-0,034	0,009
-404,511	-114,226	-0,134	0,019
-403,496	398,317	-0,042	0,064
-402,482	-0,295	-0,086	0,045
-401,467	-70,956	0,058	-0,016
-400,452	236,327	0,038	0,046
-399,438	-75,940	0,062	0,016
-398,423	128,644	-0,041	0,039
-397,409	-120,800	-0,097	0,012
-396,394	29,465	0,066	-0,041
-395,379	115,894	-0,112	0,101
-394,365	-30,755	0,075	-0,031
-393,350	16,498	0,120	-0,069
-392,336	-200,000	0,007	-0,028
-391,321	-25,687	-0,079	-0,034
-390,306	188,395	-0,045	-0,049
-389,292	-200,000	-0,033	0,135
-388,277	46,611	-0,069	0,047
-387,263	-69,561	0,120	0,034
-386,248	6,564	0,113	-0,062
-385,233	232,143	0,058	0,069
-384,219	142,577	0,149	0,145
-383,204	434,554	-0,065	-0,104
-382,190	-120,015	0,181	0,022
-381,175	666,212	-0,055	-0,104
-380,160	43,732	0,101	0,068
-379,146	800,000	0,056	0,120
-378,131	-81,020	-0,061	-0,015
-377,117	-200,000	-0,001	0,039
-376,102	-200,000	0,026	-0,176
-375,088	254,249	0,055	0,069
-374,073	185,425	-0,118	0,129
-373,058	-200,000	-0,010	0,105
-372,044	93,106	0,075	0,063
-371,029	-126,443	-0,117	0,013
-370,015	323,537	-0,043	-0,060
-369,000	-21,239	0,053	-0,024
-367,985	23,970	-0,109	-0,066
-366,971	131,991	-0,104	0,098
-365,956	376,712	-0,014	-0,020
-364,942	800,000	0,060	0,147
-363,927	800,000	-0,037	0,104
-362,912	94,069	0,100	0,083
-361,898	-63,103	-0,074	-0,022
-360,883	-143,569	-0,051	-0,004
-359,869	800,000	0,005	-0,011
-358,854	-91,137	-0,115	0,024
-357,839	-157,511	0,117	-0,005
-356,825	-200,000	0,003	0,031
-355,810	800,000	-0,050	0,159
-354,796	254,830	-0,077	-0,096
-353,781	36,555	-0,044	0,028
-352,766	-200,000	0,008	0,067
-351,752	-118,411	0,081	-0,010
-350,737	227,223	0,093	0,111
-349,723	800,000	-0,059	0,179
-348,708	-84,189	-0,039	0,009
-347,693	584,202	0,007	-0,013
-346,679	-200,000	0,002	-0,137
-345,664	-200,000	-0,004	-0,119
-344,650	133,845	-0,027	-0,026
-343,635	-200,000	0,010	0,139
-342,620	-200,000	-0,008	0,091
-341,606	-200,000	0,026	0,165
-340,591	-130,337	-0,026	0,003
-339,577	-200,000	-0,008	-0,101
-338,562	-110,505	-0,089	0,013
-337,548	376,599	0,096	0,144
-336,533	207,721	-0,042	-0,048
-335,518	-46,476	0,032	-0,011
-334,504	-200,000	-0,004	0,172
-333,489	270,976	0,065	0,084
-332,475	128,087	-0,137	0,128
-331,460	136,984	0,069	-0,066
-330,445	-165,559	-0,081	0,003
-329,431	-32,051	0,025	-0,010
-328,416	-91,463	0,062	-0,013
-327,402	-63,314	0,047	0,014
-326,387	256,533	-0,112	0,142
-325,372	-73,553	0,058	-0,016
-324,358	-200,000	-0,060	-0,211
-323,343	-51,279	0,021	0,007
-322,329	204,521	-0,076	-0,087
-321,314	448,202	0,020	0,032
-320,299	168,780	0,035	-0,037
-319,285	800,000	-0,017	-0,040
-318,270	-94,576	-0,135	-0,027
-317,256	-4,114	0,030	0,015
-316,241	-200,000	0,008	0,056
-315,226	-200,000	-0,008	-0,043
-314,212	-200,000	-0,010	0,048
-313,197	-36,257	0,169	-0,066
-312,183	-200,000	0,000	-0,110
-311,168	729,593	-0,008	0,016
-310,153	-125,251	-0,064	-0,007
-309,139	-200,000	0,013	-0,112
-308,124	-200,000	-0,014	0,092
-307,110	-94,819	-0,074	-0,015
-306,095	800,000	0,020	0,046
-305,080	181,712	0,082	0,088
-304,066	-137,178	-0,062	0,005
-303,051	156,042	0,062	0,063
-302,037	385,671	-0,060	-0,091
-301,022	-200,000	-0,010	0,045
-300,008	199,643	-0,060	-0,068
-298,993	-200,000	-0,002	0,039
-297,978	-157,900	-0,063	-0,003
-296,964	800,000	-0,046	-0,111
-295,949	-72,829	-0,064	-0,017
-294,935	-200,000	-0,000	0,026
-293,920	800,000	-0,037	-0,086
-292,905	-200,000	-0,019	0,068
-291,891	800,000	0,010	0,028
-290,876	-86,581	-0,176	-0,039
-289,862	-15,271	0,063	-0,030
-288,847	-200,000	-0,038	-0,184
-287,832	82,779	0,074	-0,059
-286,818	131,128	-0,039	-0,037
-285,803	800,000	0,056	0,117
-284,789	251,502	0,052	0,065
-283,774	-200,000	0,030	-0,142
-282,759	110,146	-0,065	0,057
-281,745	-127,035	-0,082	0,009
-280,730	-200,000	-0,030	-0,199
-279,716	-87,274	-0,046	-0,010
-278,701	-200,000	0,010	0,095
-277,686	800,000	0,032	-0,071
-276,672	-200,000	0,017	-0,059
-275,657	-200,000	0,046	-0,164
-274,643	800,000	-0,031	-0,070
-273,628	-96,928	-0,139	0,026
-272,613	-200,000	-0,026	0,094
-271,599	-128,888	0,150	0,015
-270,584	175,696	-0,063	0,067
-269,570	800,000	0,045	0,093
-268,555	182,951	-0,052	0,056
-267,540	-73,715	-0,033	-0,009
-266,526	800,000	-0,020	-0,057
-265,511	-200,000	-0,008	-0,060
-264,497	-139,444	-0,066	0,005
-263,482	54,340	0,096	-0,067
-262,467	-73,921	-0,062	0,016
-261,453	-71,167	0,080	0,022
-260,438	800,000	0,039	-0,084
-259,424	-200,000	0,003	0,049
-258,409	-200,000	-0,014	0,054
-257,395	-200,000	-0,002	-0,021
-256,380	-50,308	0,027	-0,009
-255,365	-53,319	0,090	0,030
-254,351	800,000	-0,052	0,111
-253,336	-200,000	-0,024	0,118
-252,322	577,840	0,046	-0,083
-251,307	-88,919	-0,054	-0,012
-250,292	-200,000	0,016	0,105
-249,278	210,268	0,154	0,177
-248,263	501,738	-0,095	0,162
-247,249	-200,000	-0,014	0,153
-246,234	-200,000	0,002	0,042
-245,219	619,775	-0,083	-0,153
-244,205	-200,000	0,004	-0,075
-243,190	245,029	0,026	0,032
-242,176	-200,000	-0,004	-0,121
-241,161	134,283	-0,058	-0,055
-240,146	-56,712	-0,094	0,030
-239,132	-26,337	-0,057	-0,024
-238,117	-200,000	0,002	-0,054
-237,103	-134,084	-0,072	0,006
-236,088	-29,090	0,013	-0,005
-235,073	-200,000	-0,001	0,046
-234,059	-16,584	0,144	0,066
-233,044	-32,120	0,107	-0,043
-232,030	-200,000	-0,014	0,129
-231,015	800,000	-0,035	0,081
-230,000	-64,749	0,139	0,041
-228,986	-35,169	-0,125	0,050
-227,971	-132,568	0,144	0,013
-226,957	-200,000	0,043	0,238
-225,942	352,024	-0,052	-0,076
-224,927	384,831	0,034	-0,051
-223,913	800,000	-0,046	-0,109
-222,898	800,000	0,061	-0,179
-221,884	378,311	0,060	0,090
-220,869	115,857	0,050	-0,044
-219,855	-144,215	0,163	0,011
-218,840	-114,921	0,114	-0,016
-217,825	-63,843	-0,078	-0,023
-216,811	43,510	0,025	0,017
-215,796	-9,315	-0,154	0,075
-214,782	-115,977	0,076	0,010
-213,767	201,314	0,049	0,055
-212,752	370,462	0,069	0,103
-211,738	61,023	-0,073	-0,053
-210,723	-123,359	0,120	-0,014
-209,709	-135,778	0,126	-0,011
-208,694	800,000	-0,054	0,109
-207,679	168,337	0,041	0,042
-206,665	800,000	-0,006	0,016
-205,650	418,304	-0,035	0,055
-204,636	-45,938	0,068	0,024
-203,621	-200,000	0,009	0,079
-202,606	383,687	-0,040	0,061
-201,592	-200,000	-0,003	-0,016
-200,577	-134,463	0,055	-0,005
-199,563	800,000	0,022	0,053
-198,548	92,483	0,094	0,077
-197,533	-200,000	0,016	-0,198
-196,519	800,000	-0,033	0,106
-195,504	-55,991	-0,118	0,038
-194,490	-8,779	-0,044	0,021
-193,475	61,605	0,068	0,049
-192,460	776,500	-0,089	-0,179
-191,446	-200,000	-0,001	-0,058
-190,431	110,308	0,057	-0,050
-189,417	-68,380	0,126	0,035
-188,402	74,324	0,032	-0,025
-187,387	540,722	-0,022	-0,038
-186,373	522,746	-0,031	-0,053
-185,358	-101,011	-0,101	0,018
-184,344	-54,597	0,084	-0,027
-183,329	-200,000	0,024	0,139
-182,315	800,000	0,014	0,032
-181,300	800,000	-0,049	0,156
-180,285	-200,000	-0,003	-0,138
-179,271	-24,668	-0,102	-0,044
-178,256	-92,677	-0,107	0,022
-177,242	154,351	0,151	0,151
-176,227	-155,182	0,110	-0,005
-175,212	96,896	-0,075	-0,063
-174,198	-200,000	0,029	-0,099
-173,183	793,525	0,067	-0,134
-172,169	-200,000	0,004	-0,043
-171,154	414,113	-0,086	-0,133
-170,139	35,971	0,082	0,052
-169,125	316,148	0,050	0,068
-168,110	80,103	0,132	0,103
-167,096	318,158	0,067	-0,093
-166,081	-36,508	-0,124	-0,048
-165,066	419,704	-0,134	-0,209
-164,052	-200,000	0,000	-0,002
-163,037	-200,000	0,018	-0,077
-162,023	-82,355	-0,078	0,018
-161,008	306,298	0,046	0,063
-159,993	-200,000	-0,017	0,137
-158,979	159,190	-0,084	-0,085
-157,964	-200,000	-0,007	-0,099
-156,950	-43,215	-0,065	0,024
-155,935	32,447	0,097	0,061
-154,920	207,375	0,059	0,067
-153,906	800,000	0,006	-0,012
-152,891	800,000	-0,017	0,037
-151,877	-45,564	-0,103	-0,037
-150,862	95,609	0,050	-0,042
-149,847	-200,000	-0,008	-0,105
-148,833	-153,564	0,060	-0,003
-147,818	-133,253	-0,097	0,009
-146,804	335,175	-0,045	-0,064
-145,789	-200,000	0,011	-0,045
-144,775	71,175	-0,129	0,098
-143,760	4,581	0,203	0,108
-142,745	167,906	-0,106	-0,110
-141,731	245,441	-0,066	0,081
-140,716	800,000	0,051	0,122
-139,702	53,991	0,154	0,108
-138,687	-53,067	-0,096	0,032
-137,672	-96,205	0,076	0,015
-136,658	-142,546	0,135	-0,009
-135,643	-200,000	0,004	-0,063
-134,629	95,049	-0,027	0,022
-133,614	27,191	0,011	-0,006
-132,599	61,970	-0,155	0,112
-131,585	800,000	0,008	0,024
-130,570	498,361	-0,051	-0,086
-129,556	48,474	0,011	-0,008
-128,541	-127,013	-0,196	-0,021
-127,526	-166,429	0,205	-0,006
-126,512	-200,000	0,014	-0,062
-125,497	-88,210	0,143	0,031
-124,483	-140,384	0,118	-0,009
-123,468	101,820	-0,061	-0,051
-122,453	800,000	-0,064	-0,154
-121,439	778,196	-0,050	-0,100
-120,424	361,022	0,048	-0,071
