DTS Sentinel unit serial number:	SN410029Multiplexer serial number:	ORYXHardware model number:	OX2-SRSoftware version number:	ORYX F/W v4,00 Oryx Data Collector v3.7.2.0data status	okinstallation	B6 Nyhavnadifferential loss correction	single-endedforward channel	channel 2reverse channel	N/Adate	2023/12/09time	17:30:08forward acquisition time	300,00reverse acquisition time	0,00gamma	499,1914k internal	0,3130k external	0,3130temperature offset calibration	1,0000default loss term (dB/km)	0,3820temperature slope calibration	1,0000multiplexer offset coefficient	1,0000multiplexer slope coefficient	1,0000fibre end	0,00T internal ref (°C)	21,00T ext. ref 1 (°C)	4,73T ext. ref 2 (°C)	4,73length (m)	temperature (°C)	Stokes	anti-Stokes-744,400	-200,000	0,006	-0,029
-743,385	-200,000	-0,028	0,097
-742,371	530,014	0,044	0,077
-741,356	206,048	-0,151	0,175
-740,342	16,843	0,188	0,111
-739,327	-91,946	-0,388	0,081
-738,312	-15,365	0,122	-0,058
-737,298	-97,232	-0,258	-0,050
-736,283	9,513	-0,163	0,092
-735,269	106,966	-0,199	0,175
-734,254	-29,270	0,037	-0,016
-733,239	-16,701	-0,350	-0,164
-732,225	334,592	0,077	0,111
-731,210	-200,000	-0,025	0,152
-730,196	-151,757	-0,098	0,005
-729,181	-200,000	0,003	-0,107
-728,167	158,611	-0,072	-0,074
-727,152	-14,782	-0,043	0,021
-726,137	4,073	-0,226	-0,122
-725,123	-200,000	-0,025	0,111
-724,108	363,459	-0,062	0,093
-723,094	-64,197	-0,131	-0,040
-722,079	-200,000	-0,010	-0,123
-721,064	27,533	-0,057	-0,036
-720,050	51,601	-0,036	0,026
-719,035	-111,867	-0,078	0,012
-718,021	305,508	-0,061	-0,084
-717,006	83,420	-0,077	-0,062
-715,991	62,888	-0,053	-0,040
-714,977	431,599	0,055	0,089
-713,962	-47,042	0,074	0,027
-712,948	339,464	0,019	0,028
-711,933	-200,000	0,010	-0,123
-710,918	393,964	-0,005	0,008
-709,904	-200,000	-0,057	-0,207
-708,889	-200,000	0,003	0,034
-707,875	800,000	-0,046	-0,108
-706,860	800,000	0,015	0,043
-705,845	166,494	-0,066	-0,070
-704,831	-57,193	-0,039	0,013
-703,816	257,296	-0,081	0,103
-702,802	-31,284	0,032	0,013
-701,787	-200,000	0,011	-0,092
-700,772	-158,679	-0,145	-0,006
-699,758	-200,000	0,000	0,008
-698,743	329,927	-0,031	-0,045
-697,729	147,889	-0,146	0,147
-696,714	545,712	-0,066	0,118
-695,699	-200,000	-0,001	-0,042
-694,685	34,832	0,028	-0,018
-693,670	-200,000	-0,022	-0,106
-692,656	800,000	0,054	-0,130
-691,641	-200,000	-0,021	-0,102
-690,627	-200,000	-0,008	0,038
-689,612	-200,000	0,004	0,015
-688,597	168,116	0,071	-0,075
-687,583	616,024	0,021	-0,039
-686,568	-200,000	0,013	0,103
-685,554	-200,000	-0,016	-0,130
-684,539	-200,000	-0,029	0,121
-683,524	-5,538	-0,044	-0,022
-682,510	-102,828	0,098	-0,017
-681,495	-120,861	-0,108	0,013
-680,481	656,457	-0,052	-0,099
-679,466	168,141	-0,078	0,083
-678,451	-200,000	0,014	-0,052
-677,437	-67,382	0,136	0,039
-676,422	115,626	0,070	0,063
-675,408	772,631	0,044	0,089
-674,393	338,964	-0,066	-0,096
-673,378	-200,000	-0,011	-0,068
-672,364	800,000	0,017	-0,040
-671,349	800,000	-0,065	-0,148
-670,335	-200,000	0,000	0,073
-669,320	165,799	0,063	0,066
-668,305	186,200	0,025	-0,028
-667,291	-30,321	0,044	0,018
-666,276	-200,000	-0,045	-0,191
-665,262	517,044	0,081	-0,141
-664,247	800,000	-0,065	-0,142
-663,232	-200,000	-0,003	-0,071
-662,218	-53,257	0,061	-0,021
-661,203	-130,407	0,126	0,012
-660,189	-62,528	0,072	-0,022
-659,174	184,833	-0,136	-0,150
-658,159	364,334	-0,089	0,133
-657,145	-65,460	0,101	0,030
-656,130	232,464	-0,036	0,044
-655,116	-101,634	0,107	-0,019
-654,101	39,772	0,108	-0,072
-653,086	692,621	0,080	0,156
-652,072	32,229	-0,110	0,070
-651,057	488,321	0,087	-0,148
-650,043	800,000	-0,021	-0,068
-649,028	-200,000	-0,000	-0,002
-648,014	-152,241	0,051	0,003
-646,999	65,164	-0,037	-0,027
-645,984	-2,508	-0,148	0,077
-644,970	414,079	-0,072	-0,113
-643,955	57,354	-0,077	-0,056
-642,941	800,000	-0,039	-0,105
-641,926	-200,000	-0,006	-0,057
-640,911	-62,585	0,031	0,010
-639,897	87,115	-0,035	0,029
-638,882	-200,000	0,062	0,214
-637,868	49,559	-0,021	-0,015
-636,853	-94,684	-0,114	0,023
-635,838	56,797	-0,138	-0,099
-634,824	800,000	-0,035	-0,093
-633,809	22,943	0,075	0,046
-632,795	-200,000	0,001	0,073
-631,780	-200,000	-0,020	-0,103
-630,765	-200,000	0,005	0,115
-629,751	-103,579	-0,018	-0,003
-628,736	93,469	-0,090	-0,075
-627,722	211,827	0,074	0,086
-626,707	-103,140	-0,081	0,014
-625,692	-116,318	-0,036	0,005
-624,678	-17,516	0,042	0,019
-623,663	-168,757	-0,086	0,002
-622,649	722,796	0,008	-0,016
-621,634	800,000	-0,052	-0,169
-620,619	-200,000	-0,022	-0,111
-619,605	-200,000	-0,001	-0,020
-618,590	90,435	-0,039	0,032
-617,576	-200,000	0,039	0,221
-616,561	24,571	-0,076	0,047
-615,546	-96,468	-0,116	-0,022
-614,532	-118,816	-0,078	0,010
-613,517	-14,690	-0,113	-0,054
-612,503	-200,000	-0,012	0,079
-611,488	-200,000	-0,007	0,056
-610,474	42,497	-0,083	0,056
-609,459	800,000	0,029	0,096
-608,444	-200,000	-0,007	-0,036
-607,430	-200,000	-0,014	-0,122
-606,415	-114,662	-0,106	-0,015
-605,401	282,730	0,029	-0,038
-604,386	140,594	0,105	-0,102
-603,371	-200,000	-0,004	-0,059
-602,357	46,863	-0,056	-0,039
-601,342	800,000	0,063	-0,150
-600,328	192,751	-0,103	-0,115
-599,313	-200,000	0,061	-0,234
-598,298	800,000	-0,017	-0,052
-597,284	768,540	0,040	0,081
-596,269	363,646	-0,078	0,117
-595,255	590,970	0,067	0,122
-594,240	-200,000	0,005	-0,077
-593,225	-72,773	-0,138	0,037
-592,211	-20,244	-0,185	-0,084
-591,196	247,193	0,096	-0,120
-590,182	534,420	-0,059	-0,103
-589,167	85,905	-0,016	0,013
-588,152	48,158	-0,088	0,061
-587,138	427,071	-0,022	-0,035
-586,123	-95,016	0,019	0,004
-585,109	-66,484	0,092	-0,027
-584,094	-98,303	-0,059	-0,011
-583,079	98,089	0,066	-0,056
-582,065	800,000	0,032	0,066
-581,050	666,520	0,039	-0,074
-580,036	644,861	0,022	0,043
-579,021	222,762	0,051	-0,061
-578,006	-50,713	-0,101	-0,035
-576,992	-200,000	0,002	0,010
-575,977	-200,000	0,023	0,089
-574,963	50,777	-0,072	-0,050
-573,948	-180,730	0,230	-0,003
-572,934	-200,000	-0,017	0,056
-571,919	-200,000	0,001	-0,116
-570,904	274,094	0,045	-0,059
-569,890	800,000	0,039	0,081
-568,875	-200,000	0,017	-0,202
-567,861	45,357	0,050	-0,034
-566,846	243,842	0,092	0,114
-565,831	93,060	-0,130	0,109
-564,817	-200,000	0,016	-0,078
-563,802	800,000	-0,024	-0,074
-562,788	800,000	-0,086	-0,240
-561,773	-112,425	0,081	0,012
-560,758	198,378	-0,091	-0,103
-559,744	21,222	0,064	-0,039
-558,729	-129,179	-0,056	-0,006
-557,715	2,998	0,100	-0,053
-556,700	139,886	0,041	0,040
-555,685	261,163	0,035	-0,044
-554,671	-101,481	0,045	0,008
-553,656	172,110	-0,030	0,031
-552,642	-63,272	-0,084	-0,026
-551,627	-200,000	0,012	0,069
-550,612	-46,234	-0,052	0,019
-549,598	104,835	0,032	0,028
-548,583	-200,000	-0,025	-0,086
-547,569	465,778	-0,069	-0,114
-546,554	800,000	0,045	0,143
-545,539	-200,000	-0,020	-0,070
-544,525	-127,271	0,049	0,005
-543,510	-200,000	-0,018	-0,088
-542,496	54,688	-0,126	-0,090
-541,481	-181,141	-0,115	-0,002
-540,466	-159,844	0,061	-0,002
-539,452	-200,000	0,002	0,011
-538,437	164,981	-0,036	-0,037
-537,423	0,919	-0,172	-0,091
-536,408	144,698	-0,083	0,081
-535,393	-171,064	0,032	-0,001
-534,379	93,825	0,063	0,053
-533,364	16,837	-0,090	-0,052
-532,350	-200,000	-0,007	0,029
-531,335	598,230	0,042	0,078
-530,321	-200,000	-0,007	0,088
-529,306	-200,000	0,003	0,017
-528,291	356,761	-0,054	-0,080
-527,277	257,594	-0,011	0,014
-526,262	-85,049	0,145	0,033
-525,248	529,842	0,010	-0,017
-524,233	-200,000	-0,011	0,086
-523,218	-16,910	-0,120	-0,056
-522,204	152,658	-0,055	-0,056
-521,189	-17,346	0,040	-0,018
-520,175	299,329	-0,066	-0,090
-519,160	-200,000	0,008	0,069
-518,145	21,207	0,051	-0,030
-517,131	-200,000	0,003	0,033
-516,116	-200,000	-0,016	0,079
-515,102	800,000	0,030	-0,084
-514,087	800,000	0,040	-0,127
-513,072	-71,443	-0,131	0,036
-512,058	800,000	0,049	0,104
-511,043	-45,154	0,090	-0,033
-510,029	-200,000	-0,014	0,075
-509,014	-165,734	-0,091	-0,003
-507,999	56,564	0,038	0,027
-506,985	-98,460	-0,114	0,021
-505,970	166,119	-0,021	0,022
-504,956	345,643	-0,044	-0,064
-503,941	242,919	-0,100	-0,123
-502,926	683,272	0,071	0,137
-501,912	800,000	-0,063	0,129
-500,897	342,723	0,052	0,075
-499,883	-57,937	-0,125	0,040
-498,868	308,769	-0,024	-0,033
-497,853	-57,981	-0,068	0,022
-496,839	-17,194	0,140	0,065
-495,824	285,849	0,100	-0,132
-494,810	40,066	0,089	-0,059
-493,795	267,042	0,051	-0,065
-492,781	34,595	0,090	0,058
-491,766	56,068	-0,027	-0,019
-490,751	-200,000	-0,020	0,095
-489,737	-146,256	-0,030	0,002
-488,722	30,006	0,068	-0,043
-487,708	-200,000	-0,008	0,107
-486,693	-200,000	0,015	-0,084
-485,678	-147,824	0,097	-0,006
-484,664	-164,208	-0,102	-0,003
-483,649	800,000	0,015	-0,036
-482,635	-4,622	-0,032	0,016
-481,620	-44,268	0,139	-0,051
-480,605	-200,000	0,028	0,093
-479,591	-200,000	0,013	0,099
-478,576	-85,915	-0,052	0,012
-477,562	-1,638	0,053	0,027
-476,547	-200,000	0,010	-0,061
-475,532	162,282	-0,080	-0,083
-474,518	-77,508	0,128	-0,033
-473,503	-200,000	0,026	0,226
-472,489	461,449	-0,091	-0,149
-471,474	-200,000	-0,003	0,017
-470,459	375,675	0,036	-0,054
-469,445	-146,195	-0,117	-0,007
-468,430	131,130	-0,037	0,035
-467,416	246,885	0,105	-0,130
-466,401	20,369	0,054	0,032
-465,386	-200,000	0,001	0,083
-464,372	-200,000	0,022	-0,111
-463,357	162,500	-0,060	-0,062
-462,343	800,000	0,071	-0,167
-461,328	-66,465	0,082	-0,024
-460,313	-15,717	-0,076	0,035
-459,299	465,800	0,054	-0,088
-458,284	55,740	-0,013	0,009
-457,270	239,569	-0,031	0,038
-456,255	800,000	-0,043	0,089
-455,241	-108,723	0,124	-0,019
-454,226	-200,000	-0,051	-0,198
-453,211	-200,000	-0,020	-0,078
-452,197	-86,907	0,110	0,024
-451,182	-119,772	0,131	0,016
-450,168	197,349	0,048	-0,054
-449,153	63,925	-0,136	-0,100
-448,138	-84,173	-0,073	0,017
-447,124	97,583	-0,057	0,048
-446,109	565,239	-0,049	0,088
-445,095	40,974	0,046	0,031
-444,080	800,000	0,025	0,069
-443,065	-148,871	0,188	0,011
-442,051	-114,421	0,097	-0,014
-441,036	-200,000	-0,005	0,021
-440,022	17,967	-0,131	0,076
-439,007	-107,052	0,168	-0,027
-437,992	554,534	0,085	0,151
-436,978	133,052	-0,033	0,031
-435,963	76,314	0,079	-0,062
-434,949	-200,000	-0,001	0,014
-433,934	800,000	0,025	-0,052
-432,919	-129,168	-0,137	0,014
-431,905	-200,000	0,013	0,070
-430,890	134,029	-0,028	0,027
-429,876	-97,917	-0,085	0,016
-428,861	800,000	-0,026	-0,062
-427,846	-200,000	0,008	-0,087
-426,832	800,000	-0,052	0,128
-425,817	-200,000	0,004	0,049
-424,803	28,072	0,021	-0,013
-423,788	800,000	0,009	-0,025
-422,773	-161,985	0,034	-0,001
-421,759	-200,000	0,018	0,074
-420,744	800,000	-0,006	0,012
-419,730	116,707	-0,026	0,024
-418,715	-200,000	-0,025	-0,149
-417,701	-200,000	-0,001	-0,045
-416,686	-200,000	-0,022	-0,087
-415,671	-95,582	0,110	-0,022
-414,657	-200,000	-0,013	-0,055
-413,642	-200,000	-0,005	0,031
-412,628	404,678	-0,048	-0,074
-411,613	485,605	-0,042	0,070
-410,598	800,000	0,036	0,096
-409,584	-31,154	0,101	0,042
-408,569	800,000	-0,033	0,093
-407,555	90,604	0,056	0,046
-406,540	-30,133	-0,020	0,008
-405,525	170,086	-0,077	0,081
-404,511	236,345	0,059	0,072
-403,496	114,374	-0,035	-0,031
-402,482	-200,000	0,013	-0,131
-401,467	-200,000	0,015	0,118
-400,452	113,389	0,024	-0,022
-399,438	-200,000	0,016	-0,091
-398,423	65,368	0,108	-0,080
-397,409	46,534	0,091	-0,062
-396,394	-200,000	0,023	0,092
-395,379	69,562	0,140	-0,105
-394,365	344,397	-0,078	0,113
-393,350	-200,000	0,033	0,167
-392,336	-200,000	0,022	0,124
-391,321	800,000	-0,032	-0,097
-390,306	-151,645	-0,097	0,005
-389,292	-53,187	-0,064	0,021
-388,277	-155,246	0,049	-0,002
-387,263	406,317	0,035	-0,054
-386,248	-83,348	-0,052	-0,012
-385,233	-51,255	0,056	-0,019
-384,219	-200,000	0,007	-0,022
-383,204	252,223	0,059	-0,074
-382,190	-117,291	-0,078	-0,010
-381,175	-130,589	-0,076	-0,007
-380,160	205,282	0,015	0,017
-379,146	800,000	0,034	0,106
-378,131	-102,817	0,045	-0,008
-377,117	800,000	-0,017	0,051
-376,102	242,740	-0,071	-0,087
-375,088	800,000	0,029	0,058
-374,073	691,391	0,087	-0,168
-373,058	-200,000	0,016	-0,104
-372,044	-200,000	-0,028	0,129
-371,029	255,378	-0,028	0,035
-370,015	-108,500	0,084	0,013
-369,000	659,608	-0,030	0,057
-367,985	800,000	-0,086	0,254
-366,971	57,763	0,021	0,015
-365,956	800,000	-0,031	0,083
-364,942	-126,587	0,142	-0,015
-363,927	88,995	-0,089	0,073
-362,912	-77,599	-0,220	-0,055
-361,898	-200,000	0,013	-0,049
-360,883	-109,272	-0,085	-0,013
-359,869	-129,338	0,044	0,004
-358,854	59,275	0,114	0,082
-357,839	-140,840	0,092	0,007
-356,825	128,324	0,027	-0,026
-355,810	-200,000	0,001	-0,151
-354,796	-200,000	-0,012	0,079
-353,781	-140,913	0,175	-0,013
-352,766	-200,000	0,007	-0,048
-351,752	-66,597	0,058	0,017
-350,737	-200,000	0,005	0,122
-349,723	543,363	-0,017	-0,029
-348,708	-136,797	0,158	0,013
-347,693	-200,000	0,014	-0,124
-346,679	-30,340	0,036	-0,015
-345,664	156,930	-0,094	-0,095
-344,650	634,063	-0,033	-0,061
-343,635	-24,748	0,187	0,081
-342,620	83,420	-0,014	0,011
-341,606	210,079	-0,070	-0,080
-340,591	-2,228	-0,157	-0,080
-339,577	-200,000	0,006	0,059
-338,562	60,953	0,068	-0,049
-337,548	209,562	0,064	0,073
-336,533	-85,959	0,086	0,019
-335,518	800,000	-0,065	0,137
-334,504	-200,000	0,019	0,097
-333,489	766,374	0,035	-0,069
-332,475	-25,232	-0,044	-0,019
-331,460	-200,000	-0,021	0,082
-330,445	800,000	-0,033	-0,101
-329,431	-73,366	-0,048	0,013
-328,416	114,815	-0,102	-0,091
-327,402	168,663	-0,041	0,043
-326,387	-18,075	-0,089	0,041
-325,372	-22,904	-0,109	0,048
-324,358	-180,554	-0,090	-0,001
-323,343	-200,000	-0,031	-0,192
-322,329	433,940	-0,025	-0,040
-321,314	304,859	-0,055	0,075
-320,299	800,000	-0,026	-0,085
-319,285	-200,000	-0,001	-0,052
-318,270	220,467	-0,040	0,047
-317,256	800,000	-0,054	-0,111
-316,241	92,893	0,118	-0,098
-315,226	-200,000	0,013	-0,063
-314,212	800,000	-0,068	0,216
-313,197	578,292	0,041	0,073
-312,183	800,000	0,027	0,064
-311,168	800,000	0,039	-0,095
-310,153	-113,591	0,055	0,008
-309,139	324,356	-0,042	0,059
-308,124	117,991	0,051	-0,046
-307,110	-102,335	0,083	0,014
-306,095	473,449	0,071	0,117
-305,080	-99,704	-0,060	0,011
-304,066	172,033	0,007	0,007
-303,051	-77,183	0,131	0,033
-302,037	59,393	-0,138	-0,099
-301,022	80,532	0,081	-0,064
-300,008	-9,513	-0,038	-0,019
-298,993	54,087	0,064	0,045
-297,978	95,025	-0,068	-0,057
-296,964	134,194	0,086	0,082
-295,949	448,651	-0,025	0,041
-294,935	-200,000	-0,008	0,053
-293,920	-30,155	-0,126	-0,052
-292,905	-72,111	0,044	-0,012
-291,891	30,718	-0,040	-0,025
-290,876	-200,000	0,006	0,103
-289,862	-200,000	-0,005	-0,040
-288,847	181,428	-0,084	-0,091
-287,832	800,000	0,013	0,038
-286,818	-200,000	-0,003	0,099
-285,803	-74,091	0,118	0,031
-284,789	-200,000	0,029	0,102
-283,774	-101,562	0,118	0,021
-282,759	40,701	0,102	0,067
-281,745	706,368	0,034	0,067
-280,730	339,072	0,070	-0,100
-279,716	800,000	-0,012	-0,028
-278,701	44,525	0,006	0,004
-277,686	-102,987	0,173	0,030
-276,672	104,115	-0,130	-0,111
-275,657	-26,503	0,013	-0,006
-274,643	333,587	-0,054	-0,076
-273,628	800,000	0,030	-0,095
-272,613	800,000	-0,014	-0,031
-271,599	79,380	0,120	-0,094
-270,584	330,707	-0,038	0,054
-269,570	-112,929	-0,062	0,009
-268,555	-112,604	0,067	-0,010
-267,540	-200,000	0,045	-0,290
-266,526	579,948	0,039	-0,070
-265,511	31,069	0,055	-0,034
-264,497	381,754	-0,011	0,017
-263,482	84,479	-0,020	0,016
-262,467	800,000	-0,073	0,179
-261,453	800,000	0,041	-0,127
-260,438	298,268	0,057	-0,077
-259,424	309,620	0,027	-0,037
-258,409	71,022	-0,100	0,076
-257,395	-200,000	-0,022	-0,078
-256,380	353,566	-0,074	0,108
-255,365	705,836	0,051	0,099
-254,351	-19,309	0,134	0,061
-253,336	52,669	0,124	0,086
-252,322	-3,041	-0,105	-0,053
-251,307	-200,000	-0,026	-0,135
-250,292	-174,674	0,183	-0,004
-249,278	420,747	-0,032	0,050
-248,263	104,997	0,100	0,086
-247,249	553,549	0,026	0,045
-246,234	15,513	-0,087	-0,050
-245,219	-69,180	0,071	0,020
-244,205	-200,000	-0,006	0,023
-243,190	219,170	-0,066	-0,077
-242,176	-200,000	0,002	0,015
-241,161	-200,000	0,014	0,053
-240,146	46,119	-0,066	0,044
-239,132	-108,327	0,060	-0,009
-238,117	-108,951	0,099	0,015
-237,103	85,536	0,092	-0,074
-236,088	-115,772	0,146	0,020
-235,073	-100,238	-0,084	0,015
-234,059	800,000	0,033	0,082
-233,044	195,099	0,107	0,119
-232,030	0,676	0,045	0,023
-231,015	-136,312	0,057	-0,005
-230,000	800,000	-0,022	-0,064
-228,986	116,014	0,071	0,063
-227,971	746,289	0,017	-0,033
-226,957	167,410	0,046	0,047
-225,942	333,838	-0,088	-0,124
-224,927	48,943	-0,042	0,028
-223,913	800,000	-0,018	-0,056
-222,898	-200,000	0,004	-0,131
-221,884	800,000	0,019	0,046
-220,869	72,556	-0,065	0,049
-219,855	115,422	-0,101	0,090
-218,840	105,836	0,152	0,131
-217,825	70,975	-0,050	-0,038
-216,811	91,550	0,035	-0,029
-215,796	-200,000	-0,007	0,046
-214,782	-160,374	-0,100	0,004
-213,767	800,000	-0,057	-0,136
-212,752	533,644	0,036	0,063
-211,738	313,141	-0,065	0,090
-210,723	800,000	0,065	0,135
-209,709	-62,772	-0,074	0,022
-208,694	-200,000	-0,023	-0,105
-207,679	-17,061	0,167	-0,076
-206,665	231,038	0,047	0,057
-205,650	-36,926	-0,055	-0,021
-204,636	531,372	0,038	0,065
-203,621	782,238	-0,073	0,147
-202,606	-108,173	-0,102	0,016
-201,592	189,029	-0,081	-0,089
-200,577	-170,835	-0,078	0,002
-199,563	-200,000	-0,022	-0,071
-198,548	32,480	-0,023	0,015
-197,533	300,716	0,083	0,111
-196,519	100,186	-0,090	-0,076
-195,504	-151,332	-0,057	-0,003
-194,490	-132,355	0,024	0,002
-193,475	800,000	0,041	0,105
-192,460	-15,891	-0,071	0,033
-191,446	157,308	0,055	0,055
-190,431	-12,837	0,114	0,054
-189,417	58,109	-0,060	-0,043
-188,402	225,669	-0,042	-0,049
-187,387	-193,313	0,065	0,000
-186,373	303,716	0,048	-0,065
-185,358	800,000	0,073	0,163
-184,344	-200,000	-0,001	0,174
-183,329	800,000	-0,019	0,047
-182,315	726,599	-0,041	-0,079
-181,300	-37,330	-0,077	0,030
-180,285	87,687	0,036	-0,029
-179,271	800,000	-0,008	0,019
-178,256	139,614	0,062	-0,060
-177,242	-200,000	0,037	0,124
-176,227	-200,000	0,027	0,145
-175,212	9,942	0,092	0,051
-174,198	-200,000	0,015	0,083
-173,183	800,000	-0,006	-0,015
-172,169	-96,112	-0,081	-0,016
-171,154	120,883	-0,036	-0,033
-170,139	-200,000	0,022	0,088
-169,125	-200,000	0,009	0,079
-168,110	-200,000	-0,005	-0,023
-167,096	13,667	0,065	0,036
-166,081	-138,875	-0,032	-0,003
-165,066	-74,430	-0,256	-0,067
-164,052	-72,407	-0,067	0,018
-163,037	174,869	-0,031	0,033
-162,023	69,891	0,063	0,047
-161,008	286,349	-0,073	-0,096
-159,993	800,000	0,035	0,088
-158,979	-72,962	-0,011	-0,003
-157,964	-121,696	-0,026	0,003
-156,950	-200,000	0,026	0,088
-155,935	-200,000	-0,030	0,117
-154,920	36,533	0,096	0,061
-153,906	-23,074	0,060	-0,026
-152,891	-200,000	0,020	-0,077
-151,877	-42,552	-0,065	-0,024
-150,862	800,000	0,060	0,126
-149,847	783,257	-0,087	-0,174
-148,833	-174,214	-0,108	0,002
-147,818	37,797	0,124	0,080
-146,804	-200,000	-0,002	0,045
-145,789	179,732	0,090	0,096
-144,775	33,551	-0,045	-0,028
-143,760	494,777	0,076	0,127
-142,745	198,940	0,009	0,010
-141,731	800,000	-0,035	0,091
-140,716	154,337	0,096	0,095
-139,702	433,280	-0,114	0,181
-138,687	161,006	0,082	0,084
-137,672	794,265	0,006	-0,013
-136,658	-0,913	-0,054	-0,027
-135,643	84,519	-0,052	-0,041
-134,629	-200,000	0,011	0,084
-133,614	-200,000	-0,041	0,169
-132,599	-48,744	0,065	-0,023
-131,585	6,746	-0,039	-0,021
-130,570	-200,000	0,022	0,073
-129,556	97,656	-0,068	0,057
-128,541	-200,000	-0,010	-0,062
-127,526	-54,072	-0,113	-0,037
-126,512	284,249	-0,063	0,083
-125,497	16,728	0,157	0,090
-124,483	-200,000	0,009	0,106
-123,468	187,771	0,105	-0,114
-122,453	-107,426	0,087	0,014
-121,439	581,755	0,012	-0,021
-120,424	800,000	0,052	-0,111
-119,410	-49,190	0,191	-0,066
