DTS Sentinel unit serial number:	SN410029Multiplexer serial number:	ORYXHardware model number:	OX2-SRSoftware version number:	ORYX F/W v4,00 Oryx Data Collector v3.7.2.0data status	okinstallation	B6 Nyhavnadifferential loss correction	single-endedforward channel	channel 2reverse channel	N/Adate	2023/12/10time	04:15:08forward acquisition time	300,00reverse acquisition time	0,00gamma	499,1914k internal	0,3125k external	0,3125temperature offset calibration	1,0000default loss term (dB/km)	0,3820temperature slope calibration	1,0000multiplexer offset coefficient	1,0000multiplexer slope coefficient	1,0000fibre end	0,00T internal ref (°C)	22,14T ext. ref 1 (°C)	6,17T ext. ref 2 (°C)	6,14length (m)	temperature (°C)	Stokes	anti-Stokes-744,400	800,000	0,026	-0,070
-743,385	-135,530	-0,253	-0,022
-742,371	800,000	-0,023	-0,060
-741,356	18,206	-0,190	0,113
-740,342	122,135	0,143	0,133
-739,327	-16,056	-0,187	0,088
-738,312	800,000	0,055	-0,151
-737,298	-41,043	-0,270	0,103
-736,283	-106,382	-0,074	-0,012
-735,269	-23,180	-0,166	0,074
-734,254	-138,264	0,009	0,001
-733,239	-47,054	-0,517	-0,187
-732,225	-84,789	0,246	-0,057
-731,210	491,904	0,067	0,114
-730,196	-140,330	0,038	-0,003
-729,181	-69,159	-0,196	0,056
-728,167	202,452	0,065	0,075
-727,152	26,480	0,091	-0,057
-726,137	-37,900	-0,077	-0,030
-725,123	18,804	-0,105	-0,063
-724,108	-200,000	-0,008	-0,089
-723,094	-200,000	0,026	-0,089
-722,079	-45,307	-0,059	-0,022
-721,064	18,465	0,074	-0,044
-720,050	12,996	0,120	-0,069
-719,035	440,549	0,022	0,036
-718,021	-200,000	-0,018	-0,068
-717,006	-77,371	-0,142	0,037
-715,991	667,972	0,064	-0,123
-714,977	-200,000	-0,052	-0,210
-713,962	-150,878	0,031	0,002
-712,948	-37,297	0,038	-0,015
-711,933	422,545	-0,045	0,073
-710,918	800,000	-0,020	0,059
-709,904	-33,412	-0,197	-0,081
-708,889	-103,969	-0,155	0,027
-707,875	800,000	0,032	0,075
-706,860	-200,000	-0,006	-0,100
-705,845	-200,000	0,030	0,120
-704,831	-200,000	-0,005	0,019
-703,816	-200,000	-0,001	0,021
-702,802	78,202	-0,163	-0,129
-701,787	263,956	-0,133	-0,173
-700,772	-135,559	-0,128	0,011
-699,758	800,000	0,027	0,059
-698,743	-8,903	0,073	-0,036
-697,729	-115,496	-0,008	-0,001
-696,714	100,346	0,073	0,063
-695,699	453,794	0,020	-0,033
-694,685	-86,802	-0,041	-0,009
-693,670	98,380	0,127	-0,109
-692,656	-200,000	0,002	-0,054
-691,641	8,949	-0,109	0,061
-690,627	40,558	0,187	0,125
-689,612	-4,809	-0,041	-0,021
-688,597	276,974	-0,026	0,035
-687,583	124,486	0,063	-0,059
-686,568	800,000	-0,031	-0,095
-685,554	-200,000	-0,024	0,097
-684,539	-46,003	0,225	0,082
-683,524	-19,575	0,136	-0,062
-682,510	49,699	0,053	0,037
-681,495	-200,000	-0,024	0,101
-680,481	-8,048	-0,145	-0,072
-679,466	28,971	-0,053	0,033
-678,451	41,709	0,092	0,062
-677,437	-45,184	-0,078	-0,029
-676,422	-19,828	0,084	-0,039
-675,408	-170,194	-0,161	-0,004
-674,393	-200,000	-0,001	0,023
-673,378	228,047	0,041	0,049
-672,364	119,765	-0,070	0,065
-671,349	800,000	-0,020	-0,053
-670,335	138,074	0,059	0,058
-669,320	-200,000	-0,036	0,144
-668,305	-56,049	0,132	0,043
-667,291	-200,000	0,006	-0,158
-666,276	-16,070	-0,130	0,061
-665,262	800,000	0,034	0,073
-664,247	200,261	-0,047	-0,054
-663,232	-200,000	0,010	0,035
-662,218	553,532	0,025	0,045
-661,203	353,128	-0,037	0,055
-660,189	800,000	0,063	0,140
-659,174	-200,000	0,032	0,122
-658,159	-200,000	-0,014	0,062
-657,145	-200,000	0,009	-0,141
-656,130	-200,000	-0,005	-0,036
-655,116	-200,000	0,009	-0,088
-654,101	-64,675	-0,113	0,034
-653,086	93,547	-0,019	0,016
-652,072	800,000	0,024	0,077
-651,057	250,169	-0,081	-0,102
-650,043	175,837	-0,015	-0,017
-649,028	83,971	-0,058	0,047
-648,014	637,026	0,042	0,080
-646,999	-200,000	-0,009	0,030
-645,984	-200,000	-0,003	0,046
-644,970	-200,000	-0,018	-0,065
-643,955	283,339	-0,069	-0,093
-642,941	-200,000	-0,021	0,138
-641,926	-39,751	-0,079	-0,031
-640,911	460,752	-0,041	0,068
-639,897	483,479	0,037	-0,063
-638,882	-200,000	-0,014	0,133
-637,868	70,149	-0,103	0,079
-636,853	-200,000	0,000	0,068
-635,838	-105,548	0,101	0,017
-634,824	-76,438	0,022	-0,006
-633,809	73,185	-0,144	0,112
-632,795	-122,179	-0,049	-0,006
-631,780	-14,432	-0,087	-0,041
-630,765	8,417	0,048	-0,027
-629,751	800,000	-0,022	-0,054
-628,736	-48,813	-0,129	-0,046
-627,722	99,893	0,033	-0,028
-626,707	87,677	-0,074	-0,060
-625,692	115,944	0,105	0,096
-624,678	138,181	0,030	-0,029
-623,663	-200,000	0,022	-0,108
-622,649	499,191	-0,065	-0,111
-621,634	80,135	0,015	0,012
-620,619	196,164	-0,049	0,056
-619,605	800,000	0,012	-0,027
-618,590	-129,058	0,188	0,019
-617,576	-200,000	-0,025	0,155
-616,561	174,003	-0,123	-0,132
-615,546	131,836	-0,082	-0,079
-614,532	467,476	0,010	0,016
-613,517	-200,000	0,016	-0,110
-612,503	800,000	-0,009	0,025
-611,488	800,000	0,035	-0,078
-610,474	-15,167	0,052	-0,024
-609,459	32,333	0,028	0,018
-608,444	-200,000	0,023	0,109
-607,430	-164,533	-0,169	-0,006
-606,415	13,821	0,014	-0,008
-605,401	-64,953	0,055	-0,016
-604,386	85,851	-0,123	0,100
-603,371	-12,210	-0,023	0,011
-602,357	-200,000	0,004	0,023
-601,342	-35,815	-0,074	0,029
-600,328	245,740	-0,096	-0,120
-599,313	800,000	-0,036	-0,076
-598,298	553,696	-0,025	0,045
-597,284	99,840	-0,064	0,055
-596,269	-129,215	0,201	0,020
-595,255	-200,000	0,015	-0,060
-594,240	435,544	-0,072	-0,116
-593,225	-184,113	-0,146	0,002
-592,211	-200,000	-0,017	-0,117
-591,196	-3,093	-0,097	-0,050
-590,182	99,637	0,050	0,043
-589,167	-84,473	-0,076	0,018
-588,152	105,927	0,045	-0,039
-587,138	-200,000	0,037	-0,124
-586,123	-99,917	0,046	-0,008
-585,109	43,861	0,083	-0,056
-584,094	-200,000	0,005	-0,069
-583,079	-15,050	0,050	-0,024
-582,065	-179,557	-0,067	0,001
-581,050	246,787	0,082	0,103
-580,036	219,140	0,033	0,039
-579,021	-25,669	-0,104	-0,045
-578,006	366,507	-0,097	0,146
-576,992	87,321	0,095	0,077
-575,977	18,723	-0,082	-0,048
-574,963	-73,577	0,069	0,018
-573,948	224,536	0,058	0,069
-572,934	-154,857	-0,178	0,009
-571,919	-144,062	0,027	-0,002
-570,904	800,000	0,044	-0,100
-569,890	-200,000	0,010	0,100
-568,875	-114,164	-0,098	-0,014
-567,861	81,693	0,069	0,055
-566,846	-18,257	-0,101	0,047
-565,831	-36,472	0,061	-0,024
-564,817	-17,603	-0,021	0,010
-563,802	-93,772	-0,064	-0,013
-562,788	-200,000	-0,003	0,019
-561,773	-200,000	0,021	0,164
-560,758	179,774	0,018	-0,020
-559,744	-122,262	0,074	-0,009
-558,729	214,436	-0,086	0,101
-557,715	46,211	0,038	-0,026
-556,700	-76,762	-0,115	0,029
-555,685	109,118	-0,117	-0,104
-554,671	19,625	0,093	0,055
-553,656	345,457	0,024	0,034
-552,642	550,113	0,073	-0,129
-551,627	-200,000	0,005	-0,058
-550,612	39,558	-0,070	0,046
-549,598	800,000	-0,049	-0,141
-548,583	-200,000	0,010	0,115
-547,569	-42,833	0,108	0,040
-546,554	53,228	0,041	-0,029
-545,539	307,909	0,040	0,056
-544,525	800,000	-0,054	0,154
-543,510	-99,143	-0,092	-0,017
-542,496	56,807	-0,063	-0,046
-541,481	800,000	-0,024	-0,074
-540,466	120,590	-0,062	-0,057
-539,452	-108,901	-0,014	0,002
-538,437	-154,116	-0,042	0,002
-537,423	800,000	0,028	0,068
-536,408	49,309	0,094	0,065
-535,393	-10,387	-0,086	0,042
-534,379	800,000	0,067	-0,149
-533,364	-159,827	0,051	0,002
-532,350	503,418	-0,048	0,082
-531,335	800,000	0,019	0,049
-530,321	210,888	0,031	-0,036
-529,306	-200,000	-0,014	-0,084
-528,291	54,624	-0,083	-0,059
-527,277	-67,744	-0,029	0,008
-526,262	-200,000	0,007	0,097
-525,248	800,000	-0,050	0,148
-524,233	-200,000	-0,000	-0,030
-523,218	-200,000	0,017	0,160
-522,204	55,185	-0,075	0,054
-521,189	106,837	0,061	0,054
-520,175	800,000	-0,063	-0,169
-519,160	-200,000	0,010	-0,049
-518,145	-200,000	0,032	-0,151
-517,131	800,000	0,044	0,107
-516,116	-31,775	0,086	-0,035
-515,102	260,821	0,032	0,041
-514,087	-200,000	-0,032	-0,106
-513,072	-16,422	-0,126	-0,059
-512,058	-200,000	0,041	0,152
-511,043	81,363	0,022	-0,017
-510,029	-200,000	-0,028	-0,091
-509,014	-24,171	-0,027	0,012
-507,999	232,469	-0,022	0,027
-506,985	37,002	-0,132	-0,086
-505,970	15,321	-0,070	-0,041
-504,956	-200,000	0,003	-0,059
-503,941	2,408	-0,075	-0,040
-502,926	234,743	0,075	0,092
-501,912	-180,217	0,115	0,002
-500,897	199,941	-0,082	-0,093
-499,883	238,565	0,066	0,081
-498,868	800,000	0,036	-0,085
-497,853	-200,000	-0,007	-0,125
-496,839	-200,000	0,003	0,036
-495,824	14,360	0,137	-0,079
-494,810	266,169	-0,099	0,127
-493,795	-81,050	-0,247	-0,060
-492,781	-200,000	-0,003	0,027
-491,766	473,599	-0,065	-0,108
-490,751	218,220	-0,080	-0,094
-489,737	-0,386	-0,048	-0,025
-488,722	92,864	-0,074	-0,061
-487,708	186,319	-0,078	0,086
-486,693	364,716	0,058	0,086
-485,678	-200,000	0,006	0,067
-484,664	-200,000	-0,013	-0,099
-483,649	-200,000	-0,016	0,068
-482,635	148,351	-0,101	0,101
-481,620	-144,196	0,024	-0,002
-480,605	-200,000	0,022	-0,094
-479,591	129,549	0,107	0,101
-478,576	-200,000	0,016	-0,069
-477,562	-10,933	-0,059	0,029
-476,547	800,000	-0,038	-0,113
-475,532	-200,000	-0,017	-0,155
-474,518	18,786	-0,021	0,013
-473,503	-24,357	0,184	-0,081
-472,489	227,654	0,121	0,146
-471,474	33,633	-0,050	0,032
-470,459	214,741	-0,054	0,063
-469,445	516,301	-0,030	-0,051
-468,430	-200,000	-0,014	-0,068
-467,416	-74,129	-0,111	-0,029
-466,401	122,520	0,067	-0,061
-465,386	-65,062	-0,248	-0,073
-464,372	154,469	-0,107	0,109
-463,357	-200,000	-0,002	-0,051
-462,343	800,000	-0,045	-0,107
-461,328	-12,723	0,088	0,042
-460,313	-51,055	-0,041	0,014
-459,299	-200,000	0,006	0,026
-458,284	688,120	0,025	0,048
-457,270	-165,901	-0,077	0,002
-456,255	800,000	-0,050	-0,150
-455,241	270,160	0,062	0,081
-454,226	-200,000	-0,009	0,106
-453,211	800,000	0,028	0,063
-452,197	28,146	0,052	0,032
-451,182	-200,000	0,036	0,140
-450,168	76,361	-0,018	0,014
-449,153	650,010	-0,055	-0,105
-448,138	-200,000	-0,003	-0,115
-447,124	294,009	-0,075	0,101
-446,109	-166,000	0,122	0,004
-445,095	208,749	0,106	-0,123
-444,080	-140,747	-0,140	-0,011
-443,065	312,495	-0,077	-0,107
-442,051	-53,329	0,050	-0,017
-441,036	-118,100	-0,073	-0,009
-440,022	-126,564	-0,171	0,018
-439,007	120,583	-0,058	0,053
-437,992	212,383	0,066	0,077
-436,978	-44,104	-0,118	0,044
-435,963	-200,000	-0,005	0,136
-434,949	224,639	0,066	0,079
-433,934	-23,368	-0,144	0,063
-432,919	203,715	-0,048	-0,054
-431,905	-87,365	0,051	0,011
-430,890	-128,500	0,172	0,018
-429,876	-194,969	-0,073	0,000
-428,861	347,703	0,104	-0,151
-427,846	-52,652	-0,046	-0,015
-426,832	800,000	0,027	-0,060
-425,817	-66,401	0,076	-0,022
-424,803	-200,000	0,020	-0,157
-423,788	50,457	0,087	0,060
-422,773	18,548	0,119	0,070
-421,759	38,172	-0,046	-0,030
-420,744	-200,000	-0,006	0,143
-419,730	-104,016	-0,035	0,006
-418,715	800,000	-0,013	-0,035
-417,701	-200,000	0,008	0,101
-416,686	-192,113	-0,091	-0,001
-415,671	665,864	0,013	-0,025
-414,657	-200,000	0,007	0,119
-413,642	800,000	-0,038	0,102
-412,628	-106,041	0,052	-0,009
-411,613	800,000	-0,041	-0,097
-410,598	-1,223	0,037	-0,019
-409,584	-44,643	-0,074	0,027
-408,569	149,661	0,017	-0,017
-407,555	-142,134	-0,114	0,008
-406,540	-36,909	-0,038	0,015
-405,525	366,766	0,017	-0,025
-404,511	-34,003	-0,106	-0,043
-403,496	235,168	-0,066	0,080
-402,482	800,000	0,013	-0,039
-401,467	-100,434	0,063	-0,011
-400,452	800,000	0,062	0,155
-399,438	-72,034	0,014	-0,004
-398,423	-64,857	0,089	-0,026
-397,409	27,690	-0,050	-0,031
-396,394	372,837	0,041	-0,062
-395,379	-200,000	-0,041	0,138
-394,365	-144,077	0,107	0,007
-393,350	-122,166	0,098	0,012
-392,336	502,074	-0,040	0,069
-391,321	-71,530	0,069	0,019
-390,306	229,357	0,036	-0,043
-389,292	-136,176	-0,118	-0,010
-388,277	-153,339	0,122	-0,006
-387,263	2,042	0,052	-0,028
-386,248	-200,000	-0,001	0,135
-385,233	306,618	-0,057	0,078
-384,219	139,440	-0,051	0,050
-383,204	-7,066	-0,116	-0,057
-382,190	-89,387	-0,137	-0,029
-381,175	603,842	-0,005	0,009
-380,160	-200,000	0,004	0,046
-379,146	22,068	0,127	0,076
-378,131	800,000	-0,029	0,090
-377,117	778,198	0,033	0,067
-376,102	-75,043	0,057	-0,015
-375,088	-100,591	-0,126	-0,023
-374,073	276,867	0,070	0,091
-373,058	-116,319	0,140	0,019
-372,044	-200,000	-0,013	0,048
-371,029	1,951	-0,052	-0,028
-370,015	800,000	-0,033	-0,087
-369,000	55,500	0,075	-0,053
-367,985	-90,151	-0,032	-0,007
-366,971	-193,450	0,135	0,001
-365,956	800,000	0,052	-0,118
-364,942	-5,119	0,076	0,038
-363,927	29,996	-0,030	0,019
-362,912	242,935	0,016	0,020
-361,898	-2,252	-0,116	0,060
-360,883	18,494	-0,029	0,017
-359,869	-200,000	0,045	0,160
-358,854	-48,967	0,140	0,049
-357,839	-16,293	0,109	0,051
-356,825	112,428	-0,091	-0,081
-355,810	64,717	0,114	-0,084
-354,796	-200,000	-0,002	-0,081
-353,781	-200,000	0,011	-0,040
-352,766	-200,000	0,004	-0,165
-351,752	-176,068	0,045	-0,001
-350,737	-200,000	-0,029	0,136
-349,723	-200,000	0,011	0,089
-348,708	-69,682	0,070	-0,020
-347,693	-185,564	0,088	-0,001
-346,679	372,356	-0,032	-0,048
-345,664	-200,000	-0,003	-0,047
-344,650	-200,000	0,039	0,183
-343,635	191,494	0,068	0,075
-342,620	-200,000	0,021	0,100
-341,606	12,965	-0,117	0,066
-340,591	800,000	-0,089	-0,196
-339,577	-158,794	0,166	0,007
-338,562	103,253	-0,123	-0,106
-337,548	-57,571	0,036	0,011
-336,533	250,393	0,047	0,058
-335,518	800,000	-0,032	0,087
-334,504	-200,000	0,014	0,050
-333,489	-200,000	0,023	-0,114
-332,475	107,442	0,127	-0,111
-331,460	-72,801	-0,052	-0,014
-330,445	800,000	-0,045	-0,111
-329,431	800,000	0,052	0,122
-328,416	-12,101	0,201	-0,096
-327,402	-126,918	0,125	0,013
-326,387	-200,000	0,006	-0,053
-325,372	-13,884	0,149	-0,070
-324,358	-200,000	0,019	-0,087
-323,343	518,075	-0,032	-0,056
-322,329	800,000	0,027	-0,085
-321,314	-200,000	-0,009	0,059
-320,299	153,448	0,026	0,026
-319,285	-200,000	0,006	0,069
-318,270	-200,000	-0,004	-0,045
-317,256	547,548	-0,117	-0,206
-316,241	-116,820	0,081	-0,011
-315,226	-6,790	0,045	0,022
-314,212	128,814	0,074	0,069
-313,197	84,242	0,078	0,063
-312,183	-200,000	-0,013	-0,094
-311,168	-115,190	-0,072	0,010
-310,153	-65,114	-0,115	-0,034
-309,139	-200,000	0,000	-0,042
-308,124	55,615	-0,128	-0,091
-307,110	-200,000	-0,027	0,165
-306,095	-43,188	-0,039	-0,014
-305,080	-1,997	0,076	-0,039
-304,066	-88,149	0,077	-0,017
-303,051	59,143	-0,097	-0,070
-302,037	-93,736	-0,070	0,014
-301,022	-112,387	0,091	0,013
-300,008	-200,000	-0,012	-0,046
-298,993	204,836	0,100	-0,114
-297,978	28,956	0,101	0,062
-296,964	-200,000	-0,010	-0,065
-295,949	134,649	-0,064	0,061
-294,935	800,000	-0,034	-0,079
-293,920	394,250	0,028	-0,042
-292,905	96,474	0,039	0,032
-291,891	-74,712	0,179	0,047
-290,876	-146,754	0,063	0,004
-289,862	608,026	0,055	0,101
-288,847	800,000	0,030	0,074
-287,832	-107,518	0,029	-0,005
-286,818	-200,000	-0,021	0,083
-285,803	800,000	0,068	-0,149
-284,789	235,015	0,005	0,006
-283,774	-124,419	0,053	-0,006
-282,759	515,454	-0,024	-0,041
-281,745	181,568	0,070	-0,076
-280,730	86,348	-0,075	0,060
-279,716	236,670	0,079	0,096
-278,701	800,000	-0,007	0,019
-277,686	-200,000	0,029	0,098
-276,672	-32,662	-0,056	-0,023
-275,657	-200,000	0,021	-0,082
-274,643	287,051	-0,066	-0,087
-273,628	-200,000	-0,021	-0,132
-272,613	217,760	-0,044	-0,052
-271,599	36,958	-0,043	0,028
-270,584	-118,330	0,118	0,015
-269,570	11,221	0,013	-0,007
-268,555	415,450	-0,041	0,064
-267,540	-140,397	-0,092	-0,007
-266,526	78,127	0,102	-0,079
-265,511	88,002	0,011	-0,009
-264,497	53,911	0,020	-0,014
-263,482	589,212	-0,036	-0,066
-262,467	-200,000	-0,018	-0,092
-261,453	236,339	-0,016	-0,020
-260,438	-19,339	-0,156	-0,071
-259,424	-115,305	0,056	0,008
-258,409	-4,077	0,070	-0,036
-257,395	-156,008	0,011	0,001
-256,380	421,400	0,023	0,037
-255,365	697,539	0,044	0,085
-254,351	460,829	0,054	0,088
-253,336	-189,114	-0,182	-0,002
-252,322	692,299	0,037	-0,070
-251,307	423,951	0,025	-0,039
-250,292	181,260	0,073	0,078
-249,278	11,048	0,133	-0,074
-248,263	-200,000	-0,013	0,151
-247,249	800,000	0,023	0,066
-246,234	-161,703	-0,086	0,003
-245,219	114,140	-0,069	-0,061
-244,205	537,810	-0,072	0,125
-243,190	800,000	0,073	-0,148
-242,176	225,662	0,031	0,037
-241,161	-62,819	0,041	0,012
-240,146	-14,960	-0,081	0,038
-239,132	800,000	0,016	0,051
-238,117	195,304	-0,066	-0,074
-237,103	-42,558	0,086	-0,032
-236,088	-200,000	-0,016	0,058
-235,073	90,599	0,040	-0,033
-234,059	-200,000	-0,001	0,013
-233,044	-200,000	-0,017	0,105
-232,030	0,218	0,034	0,018
-231,015	121,254	-0,020	-0,018
-230,000	724,571	-0,037	-0,073
-228,986	-200,000	0,001	-0,072
-227,971	56,231	-0,048	-0,034
-226,957	326,297	0,095	-0,133
-225,942	105,890	0,151	0,131
-224,927	-102,160	0,177	0,031
-223,913	754,160	0,036	-0,071
-222,898	13,412	0,063	0,036
-221,884	800,000	0,040	-0,086
-220,869	167,663	-0,050	-0,052
-219,855	421,895	-0,055	0,087
-218,840	323,403	0,049	0,069
-217,825	-37,928	0,019	0,007
-216,811	113,513	-0,081	-0,071
-215,796	31,478	-0,104	-0,065
-214,782	605,335	0,024	-0,044
-213,767	-200,000	-0,005	-0,044
-212,752	-200,000	-0,040	0,153
-211,738	-200,000	0,022	0,079
-210,723	102,785	0,120	0,103
-209,709	-27,156	0,075	-0,032
-208,694	800,000	0,025	0,062
-207,679	-149,045	0,062	0,004
-206,665	800,000	0,016	0,048
-205,650	-200,000	0,001	0,093
-204,636	-182,996	0,062	-0,001
-203,621	800,000	-0,026	0,074
-202,606	-86,391	-0,073	-0,016
-201,592	-98,301	-0,079	0,015
-200,577	148,799	0,068	-0,067
-199,563	-15,374	-0,082	0,038
-198,548	269,916	0,030	0,039
-197,533	-133,062	0,129	-0,012
-196,519	476,587	0,067	0,111
-195,504	86,661	0,069	-0,055
-194,490	-60,457	0,047	-0,014
-193,475	582,204	-0,019	-0,035
-192,460	-200,000	-0,008	-0,028
-191,446	800,000	0,017	0,037
-190,431	800,000	0,015	0,032
-189,417	159,154	0,111	0,113
-188,402	136,420	-0,060	-0,057
-187,387	36,948	-0,148	-0,095
-186,373	800,000	0,009	0,022
-185,358	428,631	0,040	-0,063
-184,344	-200,000	0,003	-0,026
-183,329	800,000	0,024	0,061
-182,315	-200,000	0,027	0,089
-181,300	-200,000	-0,001	-0,020
-180,285	-200,000	0,011	-0,116
-179,271	-161,680	-0,060	0,002
-178,256	-200,000	-0,011	-0,044
-177,242	43,974	-0,026	-0,017
-176,227	-200,000	0,007	0,042
-175,212	-200,000	0,011	0,145
-174,198	-32,913	-0,166	0,067
-173,183	-200,000	-0,024	-0,135
-172,169	-33,164	-0,048	0,019
-171,154	115,527	0,004	0,004
-170,139	-93,418	-0,121	0,024
-169,125	-8,154	0,175	0,086
-168,110	-56,292	-0,089	-0,029
-167,096	-36,194	-0,109	-0,043
-166,081	-200,000	-0,037	-0,126
-165,066	-200,000	-0,009	-0,099
-164,052	-200,000	-0,010	-0,075
-163,037	382,091	0,028	0,042
-162,023	711,056	0,045	0,088
-161,008	11,020	0,109	0,060
-159,993	121,474	0,065	-0,059
-158,979	-138,785	0,165	-0,013
-157,964	395,711	0,012	0,018
-156,950	9,011	0,091	-0,050
-155,935	-200,000	-0,014	0,073
-154,920	181,750	0,030	0,032
-153,906	-159,551	-0,086	0,003
-152,891	-200,000	0,017	-0,062
-151,877	-200,000	-0,007	-0,024
-150,862	26,255	-0,103	-0,062
-149,847	206,533	0,065	-0,074
-148,833	367,982	0,056	0,082
-147,818	-58,579	0,097	-0,031
-146,804	74,528	-0,048	-0,037
-145,789	159,921	0,109	0,111
-144,775	237,061	-0,043	-0,051
-143,760	-200,000	0,013	-0,073
-142,745	800,000	0,036	0,104
-141,731	-0,388	0,140	0,072
-140,716	25,533	0,033	-0,020
-139,702	-200,000	0,031	-0,103
-138,687	-200,000	-0,010	0,100
-137,672	795,406	0,090	0,180
-136,658	-200,000	0,017	0,170
-135,643	-61,353	-0,135	-0,041
-134,629	386,191	0,054	0,082
-133,614	654,459	-0,030	-0,057
-132,599	16,674	0,121	0,069
-131,585	58,516	-0,109	0,077
-130,570	89,714	-0,087	-0,071
-129,556	-200,000	0,032	-0,118
-128,541	-7,693	-0,107	0,053
-127,526	-20,642	-0,063	-0,028
-126,512	201,710	-0,035	0,039
-125,497	17,719	0,078	0,045
-124,483	479,711	-0,033	0,054
-123,468	-200,000	-0,000	0,149
-122,453	-26,778	-0,122	0,052
-121,439	-119,019	0,053	-0,007
-120,424	-175,367	0,032	-0,001
-119,410	206,369	0,044	0,050
-118,395	82,656	-0,006	0,005
