DTS Sentinel unit serial number:	SN410029Multiplexer serial number:	ORYXHardware model number:	OX2-SRSoftware version number:	ORYX F/W v4,00 Oryx Data Collector v3.7.2.0data status	okinstallation	B6 Nyhavnadifferential loss correction	single-endedforward channel	channel 2reverse channel	N/Adate	2023/12/10time	02:05:08forward acquisition time	300,00reverse acquisition time	0,00gamma	499,1914k internal	0,3125k external	0,3125temperature offset calibration	1,0000default loss term (dB/km)	0,3820temperature slope calibration	1,0000multiplexer offset coefficient	1,0000multiplexer slope coefficient	1,0000fibre end	0,00T internal ref (°C)	21,94T ext. ref 1 (°C)	5,70T ext. ref 2 (°C)	5,67length (m)	temperature (°C)	Stokes	anti-Stokes-744,400	-200,000	-0,015	-0,153
-743,385	-49,950	-0,309	0,109
-742,371	-200,000	0,007	0,059
-741,356	-5,142	-0,311	0,159
-740,342	257,708	0,061	0,078
-739,327	-104,144	-0,249	-0,043
-738,312	385,313	-0,008	-0,012
-737,298	-10,869	-0,220	0,108
-736,283	-41,526	-0,081	0,031
-735,269	-31,602	-0,186	0,077
-734,254	-87,349	0,079	0,018
-733,239	-114,049	-0,432	-0,062
-732,225	-52,871	0,120	-0,041
-731,210	308,828	0,052	0,072
-730,196	-200,000	-0,008	-0,039
-729,181	-117,439	0,046	0,006
-728,167	-200,000	-0,008	-0,084
-727,152	-7,462	-0,073	-0,037
-726,137	-107,980	-0,096	-0,015
-725,123	446,848	-0,060	-0,098
-724,108	44,872	-0,092	-0,063
-723,094	800,000	0,055	-0,114
-722,079	0,879	-0,087	-0,046
-721,064	81,496	0,125	-0,101
-720,050	26,648	-0,005	-0,003
-719,035	8,847	-0,105	-0,059
-718,021	343,277	-0,109	-0,160
-717,006	62,333	-0,027	-0,020
-715,991	-200,000	0,001	-0,048
-714,977	160,929	-0,025	0,026
-713,962	60,098	-0,047	0,034
-712,948	-200,000	0,060	0,214
-711,933	494,295	-0,042	-0,072
-710,918	135,779	-0,125	0,121
-709,904	-66,680	-0,014	0,004
-708,889	-12,897	0,076	0,037
-707,875	584,240	-0,046	-0,085
-706,860	404,502	0,057	-0,090
-705,845	-200,000	-0,018	0,108
-704,831	-164,441	-0,095	-0,003
-703,816	572,195	-0,053	-0,097
-702,802	-141,296	-0,127	0,009
-701,787	-82,354	-0,117	-0,028
-700,772	477,235	-0,026	0,044
-699,758	-133,678	-0,030	0,003
-698,743	-200,000	-0,022	0,153
-697,729	-200,000	0,006	-0,025
-696,714	800,000	-0,030	0,063
-695,699	373,369	-0,038	-0,058
-694,685	-35,776	-0,080	-0,032
-693,670	81,157	-0,142	0,114
-692,656	19,563	-0,016	0,010
-691,641	-137,638	-0,030	-0,002
-690,627	-80,563	0,080	-0,020
-689,612	-77,733	-0,126	0,032
-688,597	-200,000	-0,013	-0,050
-687,583	455,927	-0,032	0,054
-686,568	-137,135	0,069	-0,006
-685,554	-90,798	-0,126	-0,027
-684,539	337,513	-0,054	0,078
-683,524	622,908	-0,105	-0,197
-682,510	-134,675	0,175	-0,016
-681,495	171,288	-0,136	-0,145
-680,481	30,369	-0,046	-0,029
-679,466	66,048	-0,176	-0,132
-678,451	117,596	-0,092	-0,085
-677,437	3,911	0,135	-0,073
-676,422	350,260	-0,020	-0,030
-675,408	1,672	0,083	-0,044
-674,393	800,000	-0,013	0,041
-673,378	-178,951	0,020	-0,000
-672,364	-200,000	0,004	-0,091
-671,349	431,972	0,037	0,060
-670,335	273,887	0,057	-0,074
-669,320	-200,000	0,018	0,100
-668,305	37,143	0,080	-0,053
-667,291	380,691	-0,046	0,070
-666,276	-95,488	-0,132	-0,026
-665,262	61,405	0,010	0,007
-664,247	-200,000	-0,004	0,056
-663,232	293,164	0,049	0,067
-662,218	-200,000	0,027	0,181
-661,203	23,883	-0,053	0,032
-660,189	-61,335	0,046	0,014
-659,174	561,813	0,019	0,035
-658,159	-200,000	-0,012	-0,148
-657,145	74,556	-0,072	-0,056
-656,130	112,882	0,178	-0,160
-655,116	-22,987	-0,126	0,056
-654,101	-170,073	-0,037	0,001
-653,086	21,131	-0,064	-0,038
-652,072	800,000	-0,013	-0,043
-651,057	-16,300	-0,111	0,052
-650,043	285,146	-0,017	0,022
-649,028	166,327	-0,084	-0,088
-648,014	-158,269	-0,020	0,001
-646,999	125,616	0,102	0,096
-645,984	-200,000	0,014	0,071
-644,970	-61,692	-0,076	0,024
-643,955	763,619	-0,039	0,078
-642,941	-17,539	-0,066	0,031
-641,926	-200,000	-0,002	0,033
-640,911	231,235	0,088	0,107
-639,897	-200,000	0,022	-0,080
-638,882	-200,000	0,014	0,096
-637,868	623,917	0,045	-0,084
-636,853	-200,000	-0,011	-0,098
-635,838	800,000	-0,040	-0,089
-634,824	-55,361	-0,113	-0,037
-633,809	206,208	-0,061	-0,071
-632,795	-166,009	-0,115	-0,004
-631,780	173,374	-0,071	-0,076
-630,765	94,244	-0,081	0,068
-629,751	-4,406	-0,059	0,030
-628,736	13,207	-0,014	-0,008
-627,722	514,980	-0,036	-0,062
-626,707	575,668	-0,033	-0,059
-625,692	-57,629	0,024	0,008
-624,678	800,000	0,029	-0,088
-623,663	200,033	-0,057	-0,065
-622,649	-200,000	-0,006	-0,063
-621,634	-200,000	0,006	-0,123
-620,619	-200,000	0,013	-0,095
-619,605	-200,000	-0,005	0,039
-618,590	81,421	-0,021	0,017
-617,576	800,000	0,045	-0,103
-616,561	800,000	-0,014	-0,033
-615,546	384,219	-0,087	-0,134
-614,532	800,000	-0,035	-0,102
-613,517	163,795	-0,050	0,052
-612,503	80,775	-0,075	0,060
-611,488	-52,524	-0,054	0,018
-610,474	-200,000	0,001	0,014
-609,459	241,381	0,070	0,087
-608,444	524,627	0,037	0,064
-607,430	800,000	0,019	-0,054
-606,415	-200,000	0,020	-0,073
-605,401	48,615	0,056	-0,039
-604,386	136,461	-0,070	0,067
-603,371	-32,749	-0,062	-0,025
-602,357	86,910	-0,062	-0,051
-601,342	-200,000	-0,000	-0,104
-600,328	-200,000	-0,012	-0,105
-599,313	-200,000	0,037	-0,191
-598,298	39,378	0,071	0,047
-597,284	287,695	-0,032	-0,043
-596,269	368,535	-0,078	0,117
-595,255	-29,471	0,078	0,033
-594,240	800,000	-0,033	0,086
-593,225	169,066	0,063	0,066
-592,211	800,000	0,004	0,009
-591,196	-50,822	0,078	0,027
-590,182	-112,559	-0,050	-0,007
-589,167	462,136	-0,072	0,120
-588,152	531,640	-0,076	0,134
-587,138	64,602	0,034	-0,025
-586,123	-36,061	-0,095	0,038
-585,109	148,254	0,095	-0,095
-584,094	-23,968	-0,040	-0,017
-583,079	-101,869	0,034	-0,006
-582,065	800,000	-0,012	-0,030
-581,050	238,140	0,060	-0,074
-580,036	-200,000	-0,006	0,038
-579,021	-200,000	-0,006	-0,041
-578,006	-200,000	-0,000	0,004
-576,992	-50,842	0,072	-0,025
-575,977	-73,881	0,125	-0,033
-574,963	-200,000	0,015	0,128
-573,948	375,404	0,046	0,070
-572,934	-103,778	0,059	-0,010
-571,919	444,194	-0,054	-0,089
-570,904	-178,520	-0,053	-0,001
-569,890	693,900	-0,059	-0,116
-568,875	570,779	-0,016	0,029
-567,861	51,413	-0,040	-0,028
-566,846	-200,000	-0,000	0,008
-565,831	155,813	0,072	0,074
-564,817	293,315	-0,072	-0,098
-563,802	-132,295	-0,142	0,013
-562,788	-96,256	0,088	0,017
-561,773	-69,428	0,150	0,042
-560,758	-58,754	0,172	0,055
-559,744	-120,952	-0,070	0,009
-558,729	-185,406	-0,100	-0,001
-557,715	-164,438	-0,075	0,002
-556,700	15,657	-0,120	0,070
-555,685	-24,182	-0,101	-0,045
-554,671	-200,000	0,024	0,094
-553,656	-79,741	0,101	-0,025
-552,642	-61,471	-0,094	0,029
-551,627	-26,184	0,061	0,026
-550,612	-65,148	0,068	0,020
-549,598	485,312	0,009	-0,015
-548,583	-200,000	-0,014	-0,113
-547,569	800,000	-0,049	-0,133
-546,554	-25,062	0,103	-0,045
-545,539	-116,899	0,119	0,016
-544,525	-200,000	-0,002	-0,036
-543,510	442,502	-0,053	-0,086
-542,496	30,254	-0,042	0,027
-541,481	321,653	-0,077	0,109
-540,466	338,922	-0,065	-0,094
-539,452	211,643	-0,063	0,074
-538,437	308,348	0,054	0,074
-537,423	-106,663	-0,107	-0,017
-536,408	-116,243	0,119	0,016
-535,393	-95,132	0,021	0,004
-534,379	34,843	0,051	0,033
-533,364	84,881	0,066	0,054
-532,350	-116,468	-0,033	-0,004
-531,335	-48,666	0,027	0,009
-530,321	-37,725	-0,080	-0,031
-529,306	196,399	0,029	-0,033
-528,291	-107,135	-0,092	0,015
-527,277	800,000	0,040	-0,096
-526,262	575,593	-0,021	0,039
-525,248	-135,039	0,010	-0,001
-524,233	-200,000	0,031	-0,140
-523,218	626,439	-0,049	-0,091
-522,204	-40,086	0,036	-0,014
-521,189	-19,298	-0,026	-0,012
-520,175	245,262	-0,066	-0,082
-519,160	394,367	0,019	-0,029
-518,145	692,096	0,090	0,175
-517,131	-200,000	-0,022	0,128
-516,116	66,682	0,049	-0,037
-515,102	11,349	-0,026	-0,015
-514,087	-31,429	-0,094	0,039
-513,072	800,000	-0,023	-0,054
-512,058	183,657	-0,029	-0,031
-511,043	-35,485	0,041	0,017
-510,029	-200,000	0,031	0,127
-509,014	496,821	0,021	-0,036
-507,999	40,056	-0,097	-0,064
-506,985	34,152	0,092	-0,059
-505,970	86,829	-0,107	-0,087
-504,956	537,392	0,131	-0,230
-503,941	-200,000	-0,008	0,039
-502,926	-78,455	0,069	-0,017
-501,912	148,415	0,057	0,057
-500,897	299,875	0,052	0,071
-499,883	800,000	-0,029	0,095
-498,868	-200,000	-0,009	-0,040
-497,853	800,000	-0,033	-0,086
-496,839	-55,588	-0,105	-0,035
-495,824	92,387	-0,070	0,058
-494,810	-48,517	0,184	0,065
-493,795	632,117	0,050	0,093
-492,781	-200,000	0,015	-0,103
-491,766	59,823	-0,081	-0,059
-490,751	-8,834	-0,047	-0,023
-489,737	11,290	0,104	-0,058
-488,722	-56,773	-0,037	-0,012
-487,708	-142,314	0,098	0,007
-486,693	196,233	-0,069	-0,078
-485,678	800,000	0,018	0,053
-484,664	-200,000	0,015	0,058
-483,649	284,690	0,038	-0,051
-482,635	-200,000	-0,015	0,105
-481,620	-200,000	0,029	0,119
-480,605	-200,000	-0,017	0,122
-479,591	-59,505	0,189	0,059
-478,576	40,067	-0,139	-0,092
-477,562	800,000	-0,034	-0,102
-476,547	243,328	-0,093	-0,115
-475,532	-200,000	0,001	-0,024
-474,518	-56,441	-0,090	-0,029
-473,503	-10,620	0,107	0,052
-472,489	190,857	0,076	0,085
-471,474	-62,904	-0,027	0,008
-470,459	130,477	-0,079	-0,075
-469,445	-144,083	-0,092	-0,006
-468,430	-200,000	-0,004	-0,044
-467,416	800,000	0,027	0,074
-466,401	2,414	-0,056	0,030
-465,386	800,000	-0,029	0,068
-464,372	-76,385	0,160	0,041
-463,357	794,570	-0,019	0,038
-462,343	153,439	-0,077	0,078
-461,328	125,674	0,027	-0,025
-460,313	13,064	0,081	0,046
-459,299	-16,550	0,032	0,015
-458,284	-116,337	0,074	-0,010
-457,270	-24,699	-0,117	0,051
-456,255	715,264	-0,054	0,106
-455,241	273,972	-0,086	-0,112
-454,226	-200,000	0,004	-0,065
-453,211	56,888	-0,054	0,038
-452,197	-200,000	0,013	0,079
-451,182	86,556	0,051	-0,041
-450,168	800,000	0,024	0,071
-449,153	-85,134	-0,061	0,014
-448,138	16,433	0,008	-0,004
-447,124	-200,000	0,000	0,087
-446,109	-128,754	0,118	-0,012
-445,095	800,000	0,024	0,062
-444,080	-34,801	-0,078	-0,031
-443,065	-200,000	-0,022	0,175
-442,051	-200,000	0,007	0,100
-441,036	133,405	0,077	-0,073
-440,022	800,000	0,045	-0,125
-439,007	800,000	-0,012	-0,035
-437,992	-200,000	-0,004	-0,078
-436,978	76,682	-0,041	-0,032
-435,963	-200,000	0,009	-0,072
-434,949	-13,654	0,079	-0,037
-433,934	-117,501	-0,123	-0,016
-432,919	-126,464	0,070	-0,008
-431,905	-129,101	-0,119	-0,012
-430,890	80,575	-0,051	-0,040
-429,876	-200,000	-0,016	0,103
-428,861	-200,000	-0,014	-0,105
-427,846	-109,237	0,062	-0,010
-426,832	110,727	0,032	-0,028
-425,817	-72,137	0,050	-0,014
-424,803	-8,692	-0,046	0,023
-423,788	351,907	0,025	-0,037
-422,773	511,403	0,038	0,065
-421,759	68,946	0,158	0,120
-420,744	-52,499	0,121	0,041
-419,730	57,893	0,036	-0,026
-418,715	-200,000	-0,028	-0,113
-417,701	23,794	-0,008	-0,005
-416,686	-155,341	-0,172	0,008
-415,671	-118,248	0,138	-0,018
-414,657	231,385	0,050	0,060
-413,642	177,447	-0,037	0,040
-412,628	-167,947	0,129	0,004
-411,613	-46,235	-0,073	-0,026
-410,598	20,475	-0,067	0,040
-409,584	800,000	0,041	0,109
-408,569	-200,000	0,011	0,066
-407,555	675,591	-0,022	-0,042
-406,540	-200,000	0,017	0,079
-405,525	-200,000	-0,038	-0,151
-404,511	800,000	0,035	-0,083
-403,496	-200,000	-0,007	-0,032
-402,482	800,000	-0,012	-0,037
-401,467	32,724	-0,032	-0,021
-400,452	-143,491	-0,092	0,006
-399,438	250,696	-0,051	0,063
-398,423	-76,501	0,046	0,012
-397,409	-200,000	-0,021	0,110
-396,394	15,571	-0,117	-0,068
-395,379	160,522	0,072	0,074
-394,365	-76,132	-0,037	-0,010
-393,350	456,422	-0,086	0,140
-392,336	-200,000	0,000	-0,002
-391,321	-200,000	0,007	-0,132
-390,306	-200,000	0,020	-0,227
-389,292	337,550	-0,021	-0,030
-388,277	357,152	-0,046	-0,068
-387,263	-56,612	0,083	-0,027
-386,248	494,440	-0,043	-0,072
-385,233	220,889	0,022	-0,026
-384,219	779,953	0,048	-0,097
-383,204	800,000	-0,030	-0,096
-382,190	114,832	-0,143	-0,128
-381,175	-181,269	-0,099	0,001
-380,160	-191,177	0,032	-0,000
-379,146	109,498	0,051	-0,045
-378,131	-200,000	-0,006	0,057
-377,117	44,545	0,065	-0,044
-376,102	-200,000	0,004	0,114
-375,088	564,455	-0,018	0,031
-374,073	346,825	0,069	-0,100
-373,058	268,486	0,105	-0,136
-372,044	-60,506	0,022	0,007
-371,029	-87,724	0,071	0,016
-370,015	210,728	0,074	0,085
-369,000	-200,000	-0,028	0,125
-367,985	-42,743	0,065	-0,024
-366,971	-49,747	-0,092	0,032
-365,956	800,000	-0,030	0,077
-364,942	351,576	0,087	0,127
-363,927	283,914	0,088	0,116
-362,912	-200,000	-0,009	-0,125
-361,898	254,354	-0,103	0,130
-360,883	137,507	-0,086	-0,083
-359,869	-200,000	0,024	-0,167
-358,854	5,183	0,048	0,026
-357,839	235,382	-0,063	0,077
-356,825	6,831	0,030	0,016
-355,810	-121,039	-0,045	-0,005
-354,796	800,000	-0,014	-0,029
-353,781	-139,177	0,054	-0,004
-352,766	-79,499	0,083	0,021
-351,752	-177,853	0,124	0,002
-350,737	800,000	0,045	0,135
-349,723	800,000	0,005	0,013
-348,708	557,978	0,115	-0,204
-347,693	-1,608	-0,031	-0,016
-346,679	-200,000	-0,016	0,083
-345,664	480,444	0,066	0,110
-344,650	171,507	0,075	-0,079
-343,635	-200,000	0,029	0,223
-342,620	131,649	0,064	0,060
-341,606	800,000	0,033	0,079
-340,591	-200,000	-0,023	0,078
-339,577	-173,734	-0,090	0,002
-338,562	684,519	-0,084	-0,162
-337,548	-1,009	0,044	-0,023
-336,533	43,682	0,082	0,055
-335,518	-38,296	0,101	0,039
-334,504	9,916	0,116	-0,065
-333,489	136,966	-0,071	-0,068
-332,475	689,623	0,031	-0,061
-331,460	-103,741	-0,201	-0,034
-330,445	566,364	0,065	0,116
-329,431	-200,000	-0,012	0,042
-328,416	373,289	0,136	0,203
-327,402	198,587	0,016	-0,018
-326,387	800,000	0,054	-0,133
-325,372	275,416	-0,062	-0,081
-324,358	-112,982	-0,093	0,013
-323,343	25,129	0,037	0,022
-322,329	-200,000	-0,004	-0,018
-321,314	1,566	0,095	0,050
-320,299	-200,000	0,001	-0,017
-319,285	-113,965	-0,108	0,015
-318,270	-19,369	0,045	0,020
-317,256	235,242	-0,077	-0,094
-316,241	33,592	-0,039	-0,025
-315,226	-78,279	0,110	-0,028
-314,212	-57,818	0,037	0,012
-313,197	56,133	-0,020	-0,014
-312,183	-38,381	0,154	0,060
-311,168	147,561	0,019	-0,018
-310,153	-200,000	0,002	-0,034
-309,139	800,000	-0,022	0,061
-308,124	-200,000	-0,020	0,181
-307,110	26,142	0,145	0,089
-306,095	-140,050	0,073	0,006
-305,080	8,266	-0,120	-0,066
-304,066	-128,184	0,065	0,007
-303,051	-15,723	-0,025	-0,012
-302,037	315,876	-0,049	-0,068
-301,022	-200,000	-0,033	0,148
-300,008	217,143	-0,047	0,055
-298,993	-128,682	-0,055	0,006
-297,978	-200,000	0,003	0,034
-296,964	358,112	-0,017	0,026
-295,949	-88,568	-0,145	0,031
-294,935	-200,000	0,012	-0,093
-293,920	800,000	0,023	-0,056
-292,905	-22,569	-0,049	0,022
-291,891	434,419	-0,031	-0,050
-290,876	275,770	0,035	0,046
-289,862	-200,000	-0,001	0,038
-288,847	-130,847	-0,106	-0,010
-287,832	172,994	0,118	-0,124
-286,818	90,926	0,116	-0,095
-285,803	312,343	-0,077	0,106
-284,789	-20,914	-0,033	-0,015
-283,774	476,327	-0,019	0,031
-282,759	-3,300	-0,048	0,024
-281,745	131,418	-0,039	-0,036
-280,730	-11,202	0,101	0,049
-279,716	102,543	-0,139	0,119
-278,701	488,094	0,072	0,121
-277,686	-200,000	0,003	0,041
-276,672	636,448	-0,066	0,123
-275,657	29,515	-0,084	0,052
-274,643	800,000	0,064	-0,148
-273,628	-67,666	-0,115	0,033
-272,613	459,728	0,039	0,064
-271,599	800,000	0,061	0,136
-270,584	-36,793	0,126	-0,049
-269,570	-147,448	0,071	-0,004
-268,555	800,000	0,025	-0,055
-267,540	40,707	-0,052	0,034
-266,526	42,507	0,085	0,056
-265,511	34,952	-0,051	-0,033
-264,497	156,093	-0,032	-0,032
-263,482	-6,783	0,103	-0,051
-262,467	173,124	0,017	0,017
-261,453	-90,606	0,049	0,010
-260,438	127,941	-0,107	0,100
-259,424	-131,831	-0,126	0,012
-258,409	-200,000	0,003	-0,088
-257,395	258,930	-0,047	0,060
-256,380	-76,226	0,006	-0,002
-255,365	10,781	-0,010	0,006
-254,351	124,605	0,034	-0,031
-253,336	28,180	-0,030	-0,019
-252,322	-46,223	-0,018	-0,006
-251,307	-200,000	-0,006	-0,090
-250,292	-200,000	0,076	-0,000
-249,278	620,329	-0,039	0,072
-248,263	64,024	-0,122	0,089
-247,249	-200,000	0,024	0,136
-246,234	-15,007	0,027	0,013
-245,219	581,085	-0,069	-0,125
-244,205	-137,507	0,198	-0,016
-243,190	-147,578	0,152	0,009
-242,176	239,455	0,089	0,108
-241,161	800,000	0,025	0,075
-240,146	-23,143	0,178	-0,078
-239,132	-139,657	0,034	-0,003
-238,117	-47,965	0,086	0,030
-237,103	-75,637	0,065	-0,017
-236,088	178,941	-0,117	-0,125
-235,073	-94,372	-0,130	-0,026
-234,059	800,000	-0,052	0,119
-233,044	125,559	0,070	-0,064
-232,030	-113,759	-0,107	-0,015
-231,015	-200,000	0,013	-0,122
-230,000	783,806	-0,018	0,036
-228,986	282,992	0,049	-0,064
-227,971	-200,000	-0,032	-0,158
-226,957	-72,290	0,114	-0,031
-225,942	111,842	0,035	0,031
-224,927	-12,536	-0,033	0,015
-223,913	562,492	-0,075	-0,133
-222,898	-58,828	-0,004	0,001
-221,884	26,658	0,029	-0,017
-220,869	12,267	-0,067	0,037
-219,855	-200,000	-0,006	0,126
-218,840	-200,000	-0,006	0,107
-217,825	-108,123	0,180	-0,028
-216,811	-124,977	0,074	0,008
-215,796	3,930	-0,054	-0,029
-214,782	-43,511	0,148	-0,054
-213,767	-200,000	0,013	-0,071
-212,752	-46,201	-0,031	0,011
-211,738	-35,000	0,133	-0,053
-210,723	-200,000	0,009	0,068
-209,709	-200,000	-0,033	-0,111
-208,694	154,658	-0,145	0,145
-207,679	-92,952	0,056	0,011
-206,665	93,524	-0,097	0,080
-205,650	-200,000	0,013	0,059
-204,636	7,280	0,081	-0,044
-203,621	-167,303	-0,143	-0,004
-202,606	-200,000	-0,028	-0,098
-201,592	-200,000	-0,072	0,000
-200,577	800,000	-0,032	0,071
-199,563	-200,000	0,010	0,118
-198,548	800,000	-0,026	0,082
-197,533	-200,000	-0,006	-0,080
-196,519	-97,655	-0,090	0,017
-195,504	-83,634	-0,101	-0,023
-194,490	43,362	0,109	-0,073
-193,475	800,000	-0,038	0,116
-192,460	581,702	-0,028	-0,051
-191,446	154,477	-0,153	0,154
-190,431	-124,093	-0,194	0,022
-189,417	-97,742	0,095	-0,018
-188,402	-200,000	-0,014	-0,095
-187,387	-2,321	-0,033	-0,017
-186,373	-9,579	-0,022	-0,011
-185,358	-159,128	-0,106	0,004
-184,344	172,047	0,088	0,092
-183,329	-94,139	-0,037	-0,007
-182,315	584,678	-0,152	-0,274
-181,300	24,464	-0,111	0,067
-180,285	800,000	-0,031	-0,097
-179,271	-119,250	0,105	-0,013
-178,256	48,411	-0,082	-0,056
-177,242	65,937	0,145	-0,107
-176,227	144,469	0,067	0,065
-175,212	-3,355	0,117	0,059
-174,198	800,000	-0,031	0,068
-173,183	-76,034	-0,088	-0,023
-172,169	-200,000	0,016	-0,105
-171,154	-97,412	-0,081	-0,015
-170,139	-130,265	0,124	-0,012
-169,125	51,680	0,077	0,053
-168,110	-47,879	0,036	0,013
-167,096	800,000	0,017	-0,046
-166,081	37,809	-0,065	-0,042
-165,066	-200,000	0,020	0,117
-164,052	31,755	0,039	0,025
-163,037	-38,827	-0,118	0,045
-162,023	-94,290	0,146	0,029
-161,008	-200,000	-0,023	0,075
-159,993	401,354	-0,061	0,094
-158,979	422,939	0,069	-0,108
-157,964	-25,915	0,062	-0,026
-156,950	52,164	-0,048	0,034
-155,935	-62,646	0,199	0,060
-154,920	-80,381	-0,091	-0,022
-153,906	163,214	0,056	0,058
-152,891	11,178	-0,073	0,041
-151,877	800,000	-0,021	-0,051
-150,862	-200,000	-0,002	-0,044
-149,847	-200,000	-0,006	-0,146
-148,833	-101,780	0,028	0,005
-147,818	-200,000	0,011	-0,083
-146,804	800,000	-0,004	0,011
-145,789	386,734	0,064	0,096
-144,775	800,000	0,026	0,068
-143,760	-95,489	0,018	0,003
-142,745	22,547	0,057	-0,034
-141,731	136,631	-0,055	0,052
-140,716	201,138	0,116	-0,130
-139,702	800,000	0,006	-0,013
-138,687	-12,890	-0,100	0,047
-137,672	45,599	0,086	0,058
-136,658	-200,000	-0,013	-0,145
-135,643	355,997	0,085	0,124
-134,629	-200,000	-0,018	-0,139
-133,614	739,019	-0,024	-0,048
-132,599	-200,000	-0,017	-0,064
-131,585	-81,967	0,146	0,034
-130,570	280,834	-0,066	0,086
-129,556	800,000	-0,027	-0,062
-128,541	-200,000	0,003	-0,012
-127,526	228,863	0,042	-0,050
-126,512	613,369	-0,018	-0,032
-125,497	-77,306	0,132	0,033
-124,483	-116,656	-0,214	-0,028
-123,468	448,782	-0,032	0,051
-122,453	216,652	-0,029	0,033
-121,439	337,071	0,043	-0,060
-120,424	317,805	0,056	-0,077
-119,410	118,960	-0,022	0,019
