DTS Sentinel unit serial number:	SN410029Multiplexer serial number:	ORYXHardware model number:	OX2-SRSoftware version number:	ORYX F/W v4,00 Oryx Data Collector v3.7.2.0data status	okinstallation	B6 Nyhavnadifferential loss correction	single-endedforward channel	channel 2reverse channel	N/Adate	2023/12/07time	14:40:08forward acquisition time	300,00reverse acquisition time	0,00gamma	499,1914k internal	0,3186k external	0,3186temperature offset calibration	1,0000default loss term (dB/km)	0,3820temperature slope calibration	1,0000multiplexer offset coefficient	1,0000multiplexer slope coefficient	1,0000fibre end	0,00T internal ref (°C)	13,90T ext. ref 1 (°C)	-1,75T ext. ref 2 (°C)	-1,74length (m)	temperature (°C)	Stokes	anti-Stokes-744,400	-200,000	-0,020	-0,152
-743,385	-112,380	-0,392	-0,057
-742,371	67,434	0,069	-0,051
-741,356	-139,203	-0,251	-0,019
-740,342	104,448	0,180	0,155
-739,327	-151,122	-0,480	0,026
-738,312	95,143	0,017	-0,014
-737,298	-74,761	-0,306	0,080
-736,283	551,188	0,042	0,075
-735,269	-133,679	-0,251	-0,023
-734,254	28,144	0,172	-0,106
-733,239	-20,220	-0,503	-0,225
-732,225	-45,217	0,126	-0,046
-731,210	203,421	-0,046	-0,052
-730,196	800,000	0,048	-0,113
-729,181	209,749	-0,015	-0,017
-728,167	800,000	0,016	0,042
-727,152	-200,000	-0,006	-0,066
-726,137	-68,967	-0,213	-0,059
-725,123	-37,620	-0,025	-0,010
-724,108	-133,430	-0,086	-0,008
-723,094	294,481	-0,075	-0,100
-722,079	148,568	-0,068	-0,067
-721,064	-200,000	-0,031	0,118
-720,050	660,963	0,042	0,079
-719,035	-200,000	-0,027	0,141
-718,021	93,729	-0,039	-0,033
-717,006	-79,887	0,063	0,015
-715,991	-200,000	-0,021	-0,086
-714,977	800,000	-0,041	0,100
-713,962	800,000	-0,061	-0,172
-712,948	-93,568	-0,081	0,016
-711,933	90,580	0,067	0,054
-710,918	-200,000	0,020	0,076
-709,904	78,989	-0,044	-0,034
-708,889	317,234	-0,049	-0,067
-707,875	77,954	-0,076	-0,059
-706,860	265,823	0,051	0,065
-705,845	-31,935	-0,095	-0,039
-704,831	69,862	-0,089	0,067
-703,816	-171,657	0,029	0,001
-702,802	-39,982	-0,056	0,021
-701,787	-200,000	-0,006	0,088
-700,772	348,430	-0,023	-0,033
-699,758	-11,929	0,052	-0,025
-698,743	550,347	-0,045	0,080
-697,729	-200,000	-0,025	-0,101
-696,714	-78,668	0,011	0,003
-695,699	-200,000	-0,003	-0,013
-694,685	-200,000	-0,011	-0,125
-693,670	-120,187	-0,145	0,018
-692,656	-7,090	-0,061	-0,030
-691,641	-131,358	0,048	-0,005
-690,627	-43,304	-0,085	0,031
-689,612	-200,000	-0,006	0,129
-688,597	-40,075	-0,053	0,020
-687,583	-200,000	-0,013	-0,145
-686,568	-200,000	0,014	-0,085
-685,554	25,966	-0,086	-0,052
-684,539	-200,000	0,004	-0,017
-683,524	-124,515	-0,054	0,006
-682,510	-16,753	-0,151	-0,069
-681,495	562,194	0,103	-0,182
-680,481	-200,000	-0,001	-0,140
-679,466	-1,523	-0,138	-0,071
-678,451	84,453	-0,052	-0,042
-677,437	7,905	0,067	0,036
-676,422	662,592	0,036	-0,067
-675,408	-142,248	-0,159	-0,011
-674,393	15,331	0,057	-0,032
-673,378	-200,000	-0,009	-0,103
-672,364	-120,824	0,026	-0,003
-671,349	228,051	-0,155	-0,184
-670,335	19,388	-0,075	0,044
-669,320	50,660	0,083	-0,057
-668,305	-200,000	0,006	0,047
-667,291	-132,381	-0,078	-0,007
-666,276	-57,557	-0,119	-0,038
-665,262	-200,000	0,027	0,094
-664,247	800,000	0,023	-0,066
-663,232	-59,843	-0,082	0,026
-662,218	-54,164	-0,123	0,040
-661,203	8,087	-0,022	-0,012
-660,189	224,254	0,092	-0,108
-659,174	113,980	-0,145	-0,128
-658,159	563,552	0,038	-0,068
-657,145	-200,000	-0,000	-0,055
-656,130	-116,028	-0,112	0,015
-655,116	-200,000	-0,017	0,067
-654,101	431,951	0,061	0,097
-653,086	-91,766	-0,113	0,023
-652,072	-200,000	0,024	0,087
-651,057	-200,000	-0,016	-0,075
-650,043	258,551	-0,064	0,080
-649,028	-27,147	-0,023	-0,010
-648,014	21,303	0,089	-0,053
-646,999	-200,000	-0,001	0,090
-645,984	-25,736	-0,047	-0,020
-644,970	-115,206	-0,038	-0,005
-643,955	214,840	-0,091	-0,105
-642,941	-179,652	-0,058	0,001
-641,926	140,385	-0,066	0,063
-640,911	73,592	0,054	-0,041
-639,897	-200,000	-0,001	-0,111
-638,882	126,957	-0,060	-0,056
-637,868	-200,000	-0,032	-0,136
-636,853	-200,000	-0,005	-0,027
-635,838	-20,009	-0,148	-0,066
-634,824	800,000	0,020	0,060
-633,809	-164,342	0,041	-0,001
-632,795	800,000	-0,026	0,057
-631,780	110,500	0,071	0,062
-630,765	226,056	0,083	-0,099
-629,751	-200,000	-0,047	-0,161
-628,736	348,284	-0,109	-0,157
-627,722	-200,000	0,007	0,042
-626,707	-200,000	0,003	0,106
-625,692	-133,804	0,133	0,012
-624,678	800,000	0,046	0,141
-623,663	191,856	0,062	0,068
-622,649	17,419	-0,133	-0,077
-621,634	-4,228	-0,103	-0,052
-620,619	-200,000	0,061	-0,203
-619,605	-95,656	0,097	-0,019
-618,590	-200,000	0,002	0,019
-617,576	800,000	0,001	-0,005
-616,561	-112,716	-0,039	0,006
-615,546	-134,445	-0,122	-0,011
-614,532	-52,383	-0,142	0,048
-613,517	800,000	-0,034	-0,085
-612,503	-77,602	-0,093	-0,023
-611,488	407,996	0,053	-0,082
-610,474	800,000	0,036	-0,084
-609,459	-97,711	-0,065	-0,012
-608,444	-44,205	0,081	-0,029
-607,430	730,217	0,047	-0,091
-606,415	-70,031	-0,092	-0,025
-605,401	-200,000	-0,006	-0,089
-604,386	183,023	0,066	0,071
-603,371	-78,232	-0,086	-0,021
-602,357	643,777	-0,031	-0,058
-601,342	800,000	-0,054	-0,136
-600,328	590,786	-0,023	-0,041
-599,313	11,726	0,113	-0,063
-598,298	54,313	0,140	-0,097
-597,284	386,278	0,058	0,087
-596,269	-200,000	0,003	-0,155
-595,255	73,863	0,100	0,076
-594,240	-200,000	-0,188	0,001
-593,225	79,656	-0,029	0,023
-592,211	523,982	-0,036	-0,062
-591,196	28,258	0,140	0,086
-590,182	90,819	0,088	0,072
-589,167	800,000	0,027	0,074
-588,152	471,865	0,056	0,091
-587,138	-79,697	0,035	0,008
-586,123	297,334	-0,047	-0,063
-585,109	-122,197	-0,084	0,010
-584,094	184,658	-0,050	-0,054
-583,079	-200,000	0,119	0,000
-582,065	800,000	0,026	0,080
-581,050	153,731	0,084	-0,084
-580,036	74,408	0,017	0,013
-579,021	140,651	-0,060	0,058
-578,006	-73,461	-0,101	0,027
-576,992	-29,615	-0,061	-0,025
-575,977	800,000	0,028	0,063
-574,963	181,469	0,021	-0,023
-573,948	40,569	-0,072	-0,047
-572,934	63,924	0,115	-0,084
-571,919	-29,489	-0,072	-0,030
-570,904	43,220	-0,075	0,050
-569,890	367,144	0,010	0,015
-568,875	-81,809	-0,091	0,022
-567,861	-54,740	0,073	-0,024
-566,846	77,061	0,055	0,042
-565,831	-200,000	0,004	0,129
-564,817	-25,613	-0,078	-0,033
-563,802	-96,545	0,014	-0,003
-562,788	392,656	-0,041	0,062
-561,773	-108,910	-0,031	-0,005
-560,758	94,406	0,031	-0,025
-559,744	100,346	-0,049	-0,041
-558,729	-200,000	-0,022	0,081
-557,715	138,692	-0,123	-0,117
-556,700	159,087	-0,062	0,063
-555,685	800,000	-0,038	-0,085
-554,671	800,000	0,060	-0,156
-553,656	230,672	0,058	-0,069
-552,642	105,028	-0,062	-0,053
-551,627	-114,615	-0,068	-0,009
-550,612	43,764	0,135	0,089
-549,598	106,808	-0,006	-0,005
-548,583	-152,806	-0,119	0,006
-547,569	-7,468	0,033	-0,016
-546,554	472,714	0,054	0,088
-545,539	-25,550	0,166	-0,071
-544,525	-70,802	-0,078	0,021
-543,510	103,421	0,060	-0,051
-542,496	617,537	-0,027	-0,050
-541,481	344,268	-0,020	-0,028
-540,466	181,586	-0,101	0,108
-539,452	480,817	-0,019	-0,032
-538,437	-117,416	0,135	0,017
-537,423	800,000	-0,010	-0,021
-536,408	254,730	-0,084	-0,104
-535,393	403,188	-0,082	-0,126
-534,379	-63,424	-0,118	0,035
-533,364	-25,218	0,076	0,033
-532,350	-200,000	0,004	0,055
-531,335	-200,000	0,001	-0,119
-530,321	706,157	0,021	-0,040
-529,306	-137,949	-0,042	-0,003
-528,291	-3,210	0,125	-0,063
-527,277	94,494	-0,077	-0,063
-526,262	-179,180	0,080	0,001
-525,248	-50,156	0,056	-0,019
-524,233	-200,000	-0,004	0,085
-523,218	-200,000	-0,080	0,000
-522,204	111,456	-0,032	-0,028
-521,189	-200,000	0,014	-0,123
-520,175	-200,000	-0,016	0,106
-519,160	-136,122	-0,044	0,004
-518,145	-35,689	0,121	-0,047
-517,131	468,638	0,022	-0,036
-516,116	305,138	-0,023	-0,030
-515,102	143,434	-0,093	-0,089
-514,087	-146,382	0,126	0,008
-513,072	512,039	-0,073	-0,123
-512,058	-43,678	-0,039	0,014
-511,043	-145,126	-0,081	0,005
-510,029	197,210	0,027	0,030
-509,014	-78,711	0,089	-0,022
-507,999	-200,000	0,006	0,051
-506,985	-8,478	-0,112	-0,055
-505,970	-17,330	-0,099	0,045
-504,956	403,129	-0,062	0,094
-503,941	-59,417	0,067	-0,021
-502,926	-200,000	0,026	0,086
-501,912	371,623	0,047	0,069
-500,897	788,874	0,083	0,167
-499,883	363,844	-0,047	-0,069
-498,868	182,593	-0,078	-0,084
-497,853	-56,115	0,057	-0,018
-496,839	-132,825	-0,169	0,015
-495,824	101,050	0,042	0,035
-494,810	739,006	-0,048	0,093
-493,795	-200,000	0,029	0,126
-492,781	72,984	-0,109	0,082
-491,766	506,198	-0,037	0,062
-490,751	-42,629	0,028	0,010
-489,737	-200,000	-0,047	-0,166
-488,722	-66,612	0,120	0,034
-487,708	138,591	0,102	0,097
-486,693	-128,689	-0,105	0,011
-485,678	-200,000	-0,022	-0,101
-484,664	-200,000	-0,025	-0,114
-483,649	138,474	-0,065	-0,061
-482,635	149,042	0,056	0,055
-481,620	-200,000	0,018	0,062
-480,605	-200,000	0,015	-0,059
-479,591	-200,000	0,014	-0,064
-478,576	-200,000	-0,009	0,060
-477,562	-200,000	-0,016	-0,130
-476,547	-200,000	-0,023	0,086
-475,532	-200,000	0,016	0,111
-474,518	-200,000	-0,007	0,125
-473,503	788,603	-0,006	-0,012
-472,489	800,000	0,040	-0,085
-471,474	472,746	-0,044	-0,071
-470,459	349,010	0,073	-0,104
-469,445	800,000	0,036	-0,087
-468,430	-200,000	-0,017	-0,123
-467,416	-70,263	0,087	-0,024
-466,401	28,795	0,049	-0,030
-465,386	-200,000	-0,007	-0,044
-464,372	-13,256	0,177	0,083
-463,357	-89,141	-0,057	0,012
-462,343	99,321	-0,074	-0,062
-461,328	574,852	0,050	-0,089
-460,313	100,821	-0,018	-0,015
-459,299	800,000	0,037	-0,099
-458,284	340,558	0,085	0,121
-457,270	-21,287	0,037	-0,016
-456,255	209,717	0,030	0,034
-455,241	78,087	0,047	-0,036
-454,226	-200,000	-0,036	-0,158
-453,211	-200,000	0,028	0,117
-452,197	121,664	-0,049	0,044
-451,182	800,000	0,047	0,114
-450,168	-92,041	0,053	0,011
-449,153	800,000	-0,047	0,095
-448,138	-131,964	0,118	0,011
-447,124	800,000	-0,046	0,097
-446,109	32,647	0,132	0,083
-445,095	99,339	-0,071	0,059
-444,080	766,221	-0,030	0,058
-443,065	138,056	-0,032	0,030
-442,051	438,250	0,044	0,070
-441,036	-45,258	0,079	-0,028
-440,022	-200,000	0,023	-0,127
-439,007	88,772	-0,096	0,077
-437,992	753,154	0,086	-0,168
-436,978	-90,069	0,103	-0,021
-435,963	-200,000	-0,006	0,133
-434,949	-200,000	-0,011	-0,048
-433,934	-160,057	-0,135	0,005
-432,919	-200,000	0,013	-0,186
-431,905	-196,386	-0,098	0,000
-430,890	160,396	0,055	0,055
-429,876	650,517	0,007	0,014
-428,861	130,186	-0,022	0,021
-427,846	-59,267	0,216	-0,067
-426,832	371,850	-0,044	0,065
-425,817	-200,000	0,013	-0,095
-424,803	-1,992	0,102	0,052
-423,788	45,442	-0,084	0,056
-422,773	-200,000	0,001	-0,076
-421,759	5,871	0,180	-0,096
-420,744	-200,000	0,039	0,152
-419,730	800,000	0,065	-0,175
-418,715	162,073	0,073	0,074
-417,701	-41,449	-0,122	0,045
-416,686	-42,026	0,106	-0,039
-415,671	37,131	-0,081	0,052
-414,657	-80,060	0,052	0,012
-413,642	181,527	0,077	-0,082
-412,628	-200,000	-0,002	-0,107
-411,613	-200,000	-0,023	0,092
-410,598	800,000	0,061	-0,187
-409,584	625,888	-0,003	0,005
-408,569	-26,098	0,074	-0,031
-407,555	-32,116	0,081	0,033
-406,540	800,000	-0,042	0,100
-405,525	-200,000	-0,003	0,148
-404,511	-86,900	0,019	-0,004
-403,496	800,000	0,047	-0,130
-402,482	124,100	0,050	0,045
-401,467	-200,000	0,002	0,033
-400,452	108,413	-0,110	0,094
-399,438	-24,913	0,039	0,017
-398,423	66,098	-0,050	-0,037
-397,409	800,000	0,035	-0,089
-396,394	800,000	0,039	-0,103
-395,379	278,942	0,061	-0,078
-394,365	-73,634	0,040	0,010
-393,350	-200,000	0,029	-0,093
-392,336	674,363	-0,018	0,034
-391,321	-36,369	-0,077	0,030
-390,306	-96,942	0,121	0,023
-389,292	500,679	-0,073	-0,122
-388,277	-200,000	0,001	0,034
-387,263	213,200	0,078	-0,089
-386,248	253,970	0,085	0,105
-385,233	-15,922	0,082	0,038
-384,219	-200,000	-0,029	0,095
-383,204	-81,973	-0,138	0,032
-382,190	232,707	0,060	-0,071
-381,175	55,032	0,071	0,049
-380,160	-54,368	-0,018	-0,006
-379,146	-135,499	-0,106	-0,009
-378,131	325,778	0,099	0,137
-377,117	-200,000	0,002	0,090
-376,102	-104,391	0,113	-0,019
-375,088	-55,381	0,033	-0,011
-374,073	-200,000	-0,009	-0,136
-373,058	800,000	-0,014	0,030
-372,044	-136,660	0,081	-0,007
-371,029	23,514	0,103	0,061
-370,015	137,312	-0,022	0,021
-369,000	-200,000	-0,010	-0,065
-367,985	-35,374	-0,057	0,022
-366,971	21,033	-0,019	0,011
-365,956	-179,987	0,089	-0,001
-364,942	-12,661	0,044	0,021
-363,927	-200,000	0,027	0,163
-362,912	409,364	-0,069	0,105
-361,898	502,965	-0,030	-0,051
-360,883	800,000	-0,039	0,109
-359,869	5,868	0,115	0,061
-358,854	-111,253	-0,147	-0,021
-357,839	-200,000	0,008	0,028
-356,825	385,214	0,121	0,180
-355,810	-64,645	-0,129	-0,037
-354,796	375,676	-0,063	0,092
-353,781	-99,512	-0,084	0,015
-352,766	-142,952	-0,067	0,005
-351,752	326,684	0,074	-0,103
-350,737	74,412	0,191	0,145
-349,723	35,424	-0,030	0,019
-348,708	30,058	-0,042	0,026
-347,693	150,915	-0,087	-0,085
-346,679	337,027	-0,028	0,039
-345,664	-86,358	0,053	-0,012
-344,650	614,744	0,069	0,125
-343,635	-32,030	-0,094	-0,038
-342,620	131,155	-0,036	0,034
-341,606	151,931	0,059	0,058
-340,591	-151,290	0,025	0,001
-339,577	63,247	0,097	-0,070
-338,562	-200,000	-0,011	0,080
-337,548	-200,000	-0,003	-0,095
-336,533	-20,460	-0,011	0,005
-335,518	-43,521	0,032	-0,011
-334,504	-72,627	-0,166	0,044
-333,489	-159,515	-0,050	-0,002
-332,475	-200,000	0,008	0,061
-331,460	637,838	-0,030	-0,055
-330,445	-200,000	0,022	-0,120
-329,431	800,000	-0,044	0,122
-328,416	800,000	0,072	0,168
-327,402	72,615	-0,093	0,070
-326,387	-52,350	0,062	-0,020
-325,372	-140,351	-0,087	0,006
-324,358	10,795	-0,048	-0,026
-323,343	800,000	-0,032	-0,073
-322,329	-183,296	0,100	0,001
-321,314	218,032	0,053	-0,061
-320,299	154,570	0,043	0,042
-319,285	-9,413	-0,043	-0,021
-318,270	356,783	-0,087	-0,125
-317,256	35,030	-0,057	-0,036
-316,241	-200,000	-0,016	0,069
-315,226	-105,922	-0,101	0,016
-314,212	-200,000	-0,014	0,096
-313,197	576,835	0,046	0,080
-312,183	-200,000	0,033	0,150
-311,168	31,084	-0,051	0,031
-310,153	639,468	0,041	0,075
-309,139	202,363	0,061	0,067
-308,124	750,429	0,061	-0,119
-307,110	-71,536	0,085	-0,023
-306,095	800,000	-0,039	-0,098
-305,080	-1,272	-0,098	-0,050
-304,066	65,291	-0,086	-0,063
-303,051	-93,546	-0,118	0,023
-302,037	-61,258	-0,040	0,012
-301,022	137,325	-0,102	0,096
-300,008	232,818	0,078	0,093
-298,993	-84,697	-0,100	0,023
-297,978	214,862	0,134	-0,153
-296,964	39,675	-0,102	0,066
-295,949	-56,710	-0,210	-0,066
-294,935	-71,355	0,092	-0,025
-293,920	-148,090	0,058	-0,003
-292,905	800,000	0,081	0,163
-291,891	-117,116	0,101	0,013
-290,876	-200,000	-0,002	0,044
-289,862	-90,774	-0,056	-0,011
-288,847	-30,398	-0,082	0,033
-287,832	800,000	0,043	-0,093
-286,818	99,921	-0,054	-0,045
-285,803	-200,000	0,226	0,000
-284,789	213,502	0,109	0,124
-283,774	265,399	0,020	-0,025
-282,759	-200,000	0,009	-0,074
-281,745	-200,000	0,011	-0,113
-280,730	26,445	-0,046	0,028
-279,716	800,000	0,002	0,006
-278,701	230,878	0,055	0,065
-277,686	80,071	0,023	0,018
-276,672	-200,000	0,014	0,094
-275,657	422,450	0,019	0,030
-274,643	162,424	0,025	-0,026
-273,628	-2,695	-0,117	-0,058
-272,613	74,502	0,092	-0,069
-271,599	48,348	0,074	-0,049
-270,584	-200,000	0,016	0,094
-269,570	-200,000	0,007	-0,073
-268,555	-116,423	-0,094	0,012
-267,540	333,449	0,027	-0,037
-266,526	-200,000	-0,010	-0,063
-265,511	-145,874	0,131	0,008
-264,497	-200,000	-0,022	-0,167
-263,482	-200,000	-0,002	0,030
-262,467	42,563	-0,063	0,041
-261,453	184,377	-0,050	0,053
-260,438	319,155	-0,060	0,082
-259,424	-200,000	0,000	-0,024
-258,409	7,165	-0,041	-0,022
-257,395	-41,475	-0,066	-0,024
-256,380	800,000	0,035	0,078
-255,365	408,410	-0,067	0,102
-254,351	303,811	-0,104	0,138
-253,336	-193,150	0,047	-0,000
-252,322	800,000	0,062	0,149
-251,307	460,492	0,019	-0,031
-250,292	631,387	0,063	0,115
-249,278	-200,000	-0,007	0,147
-248,263	90,600	-0,038	0,031
-247,249	192,955	-0,044	0,048
-246,234	349,894	-0,175	-0,249
-245,219	-200,000	-0,021	-0,119
-244,205	-87,692	-0,102	-0,022
-243,190	-26,585	0,037	-0,015
-242,176	800,000	0,044	-0,113
-241,161	800,000	0,008	0,022
-240,146	800,000	-0,018	0,058
-239,132	271,289	-0,063	-0,080
-238,117	-89,009	0,101	-0,021
-237,103	-200,000	-0,044	-0,215
-236,088	369,601	0,022	-0,032
-235,073	-60,169	-0,063	0,019
-234,059	274,223	0,045	0,057
-233,044	-36,287	-0,054	0,021
-232,030	-200,000	0,014	0,112
-231,015	255,834	-0,098	0,120
-230,000	-139,385	-0,034	0,003
-228,986	800,000	0,072	-0,158
-227,971	-200,000	0,020	0,162
-226,957	694,618	0,056	0,105
-225,942	-56,819	-0,110	0,035
-224,927	800,000	-0,052	0,115
-223,913	-82,381	0,073	-0,017
-222,898	137,938	-0,099	-0,093
-221,884	-200,000	-0,003	-0,120
-220,869	800,000	-0,052	0,110
-219,855	-32,228	-0,055	-0,022
-218,840	6,236	0,025	0,013
-217,825	800,000	0,018	-0,043
-216,811	-131,799	0,065	0,006
-215,796	654,897	-0,020	-0,037
-214,782	-200,000	0,007	-0,037
-213,767	-107,913	0,042	-0,007
-212,752	-200,000	-0,003	0,084
-211,738	46,415	-0,105	0,070
-210,723	469,087	0,031	0,050
-209,709	-200,000	0,030	-0,107
-208,694	-61,905	0,069	-0,021
-207,679	-135,196	0,045	0,004
-206,665	34,475	0,085	0,053
-205,650	800,000	-0,037	0,111
-204,636	427,108	0,078	0,120
-203,621	130,562	-0,053	0,049
-202,606	112,090	-0,027	0,023
-201,592	-200,000	-0,006	-0,029
-200,577	28,652	-0,087	0,053
-199,563	800,000	0,029	0,064
-198,548	272,461	-0,091	0,115
-197,533	37,546	0,059	0,037
-196,519	95,159	-0,092	0,075
-195,504	69,651	0,113	0,083
-194,490	-10,019	-0,255	0,121
-193,475	800,000	-0,035	-0,095
-192,460	752,690	0,037	0,071
-191,446	164,366	0,072	0,073
-190,431	800,000	0,028	0,086
-189,417	-87,063	-0,114	0,025
-188,402	72,413	0,116	0,087
-187,387	-200,000	-0,005	-0,080
-186,373	361,491	0,070	-0,101
-185,358	-83,657	-0,056	0,013
-184,344	-200,000	0,029	-0,092
-183,329	-200,000	0,023	0,109
-182,315	108,837	0,042	0,036
-181,300	-2,732	-0,032	0,016
-180,285	182,567	0,069	-0,073
-179,271	800,000	-0,093	-0,219
-178,256	720,574	0,062	-0,118
-177,242	800,000	0,035	0,074
-176,227	47,533	-0,048	-0,032
-175,212	-200,000	-0,004	-0,058
-174,198	-49,697	0,076	0,026
-173,183	457,457	0,029	-0,046
-172,169	-33,995	-0,098	0,038
-171,154	24,315	-0,155	-0,092
-170,139	118,552	0,068	0,060
-169,125	360,074	0,015	-0,022
-168,110	-140,334	0,084	0,006
-167,096	115,889	0,065	-0,057
-166,081	800,000	-0,013	0,032
-165,066	333,111	-0,029	-0,040
-164,052	800,000	0,066	0,164
-163,037	-118,235	-0,110	0,014
-162,023	-4,953	0,115	0,056
-161,008	449,671	-0,029	-0,046
-159,993	-200,000	-0,000	0,018
-158,979	-200,000	-0,007	-0,181
-157,964	-200,000	-0,014	-0,086
-156,950	-16,548	-0,039	0,018
-155,935	708,096	-0,034	0,064
-154,920	-200,000	-0,006	0,078
-153,906	84,275	0,012	-0,009
-152,891	-200,000	0,033	-0,115
-151,877	-32,133	-0,018	0,007
-150,862	-85,187	-0,152	0,034
-149,847	800,000	-0,032	-0,070
-148,833	207,084	-0,058	-0,065
-147,818	800,000	-0,051	0,137
-146,804	800,000	-0,079	0,172
-145,789	-24,457	0,135	-0,057
-144,775	328,171	-0,092	-0,126
-143,760	800,000	-0,034	-0,072
-142,745	98,879	0,063	-0,052
-141,731	661,874	0,056	-0,103
-140,716	152,471	-0,079	-0,077
-139,702	54,126	-0,006	0,004
-138,687	-116,642	-0,103	-0,013
-137,672	-64,438	0,080	0,023
-136,658	-73,159	-0,224	0,058
-135,643	148,542	-0,022	-0,021
-134,629	184,995	-0,065	-0,069
-133,614	104,464	0,071	0,060
-132,599	-50,428	-0,171	0,057
-131,585	-85,415	-0,070	-0,015
-130,570	-200,000	0,015	0,049
-129,556	661,205	0,018	-0,033
-128,541	-90,180	-0,151	-0,031
-127,526	330,456	0,033	0,045
-126,512	-13,101	0,069	0,032
-125,497	-167,279	0,079	-0,002
-124,483	799,761	-0,040	-0,079
-123,468	54,838	-0,066	-0,046
-122,453	312,236	-0,068	-0,091
-121,439	159,474	-0,067	-0,067
-120,424	-110,441	-0,040	0,006
-119,410	-200,000	0,051	0,185
