DTS Sentinel unit serial number:	SN410029Multiplexer serial number:	ORYXHardware model number:	OX2-SRSoftware version number:	ORYX F/W v4,00 Oryx Data Collector v3.7.2.0data status	okinstallation	B6 Nyhavnadifferential loss correction	single-endedforward channel	channel 2reverse channel	N/Adate	2023/12/08time	16:00:08forward acquisition time	300,00reverse acquisition time	0,00gamma	499,1914k internal	0,3160k external	0,3160temperature offset calibration	1,0000default loss term (dB/km)	0,3820temperature slope calibration	1,0000multiplexer offset coefficient	1,0000multiplexer slope coefficient	1,0000fibre end	0,00T internal ref (°C)	15,10T ext. ref 1 (°C)	-1,50T ext. ref 2 (°C)	-1,51length (m)	temperature (°C)	Stokes	anti-Stokes-744,400	89,057	0,060	-0,049
-743,385	25,524	-0,318	-0,194
-742,371	-38,762	0,188	0,073
-741,356	-71,067	-0,321	0,088
-740,342	156,785	0,111	-0,113
-739,327	-194,212	-0,318	-0,002
-738,312	-179,534	0,113	-0,002
-737,298	-90,114	-0,344	-0,073
-736,283	552,818	0,036	0,064
-735,269	-29,835	-0,313	0,131
-734,254	-200,000	0,016	0,097
-733,239	-76,803	-0,545	-0,139
-732,225	-134,773	0,046	0,004
-731,210	-200,000	0,018	0,105
-730,196	51,997	-0,021	-0,015
-729,181	391,066	0,051	-0,078
-728,167	10,480	-0,153	0,086
-727,152	267,345	0,005	-0,007
-726,137	-43,267	-0,197	-0,073
-725,123	-200,000	0,018	-0,176
-724,108	331,544	-0,059	0,084
-723,094	4,861	-0,189	-0,102
-722,079	-59,427	-0,191	-0,060
-721,064	71,064	-0,131	-0,100
-720,050	264,133	-0,037	0,048
-719,035	800,000	-0,014	-0,041
-718,021	-16,552	-0,056	0,026
-717,006	104,495	-0,076	0,066
-715,991	336,367	-0,059	-0,084
-714,977	-30,916	-0,056	-0,023
-713,962	-200,000	-0,001	-0,068
-712,948	-10,953	-0,132	0,064
-711,933	-105,103	0,076	0,013
-710,918	-200,000	0,007	0,116
-709,904	-200,000	-0,018	0,119
-708,889	-118,407	-0,107	0,014
-707,875	-200,000	-0,011	0,045
-706,860	-200,000	-0,001	0,029
-705,845	-64,152	0,228	0,068
-704,831	-200,000	0,007	-0,078
-703,816	-200,000	0,001	-0,002
-702,802	124,202	-0,078	-0,072
-701,787	-200,000	0,032	-0,121
-700,772	-200,000	0,016	-0,080
-699,758	800,000	-0,014	-0,039
-698,743	257,182	0,042	-0,054
-697,729	163,511	-0,079	0,082
-696,714	14,929	-0,070	0,040
-695,699	-200,000	-0,018	-0,100
-694,685	-118,633	-0,008	0,001
-693,670	90,894	-0,050	0,041
-692,656	800,000	-0,052	-0,161
-691,641	-200,000	0,150	-0,000
-690,627	23,413	-0,061	0,037
-689,612	-128,830	0,099	-0,010
-688,597	-46,297	0,088	0,032
-687,583	25,701	-0,185	-0,113
-686,568	0,324	-0,187	0,098
-685,554	-200,000	0,004	0,053
-684,539	428,498	0,063	-0,101
-683,524	104,203	0,052	-0,045
-682,510	172,669	-0,022	-0,023
-681,495	-104,338	-0,084	0,014
-680,481	526,071	-0,060	-0,103
-679,466	-200,000	0,005	-0,104
-678,451	-200,000	-0,007	-0,040
-677,437	-200,000	0,024	-0,126
-676,422	538,253	-0,042	-0,074
-675,408	377,671	0,033	-0,050
-674,393	223,343	-0,098	-0,116
-673,378	473,092	-0,032	-0,054
-672,364	21,381	-0,122	-0,073
-671,349	-31,051	-0,044	0,018
-670,335	-200,000	-0,002	0,032
-669,320	270,134	0,022	-0,028
-668,305	-200,000	-0,044	0,154
-667,291	800,000	-0,031	0,081
-666,276	-32,388	-0,192	-0,078
-665,262	800,000	0,066	-0,167
-664,247	-47,132	-0,050	0,018
-663,232	15,599	-0,163	0,094
-662,218	498,881	-0,058	-0,098
-661,203	254,208	0,047	0,059
-660,189	148,104	0,043	-0,043
-659,174	513,855	-0,057	0,098
-658,159	10,085	-0,017	0,010
-657,145	-48,678	0,062	0,022
-656,130	-34,627	0,054	-0,021
-655,116	38,561	0,102	0,067
-654,101	-58,810	-0,106	-0,033
-653,086	800,000	-0,036	-0,078
-652,072	256,038	0,046	-0,058
-651,057	800,000	-0,026	-0,063
-650,043	-200,000	-0,002	-0,021
-649,028	-200,000	0,005	-0,018
-648,014	49,064	0,128	-0,088
-646,999	-66,534	0,051	-0,015
-645,984	548,201	0,081	0,143
-644,970	-129,950	-0,011	-0,001
-643,955	-200,000	-0,015	-0,064
-642,941	-200,000	-0,016	-0,086
-641,926	-49,543	0,111	0,038
-640,911	-200,000	-0,014	0,191
-639,897	-200,000	0,004	0,074
-638,882	435,789	-0,052	0,084
-637,868	30,158	0,143	0,089
-636,853	101,236	-0,107	-0,092
-635,838	173,139	-0,182	-0,193
-634,824	-200,000	0,011	-0,060
-633,809	-200,000	0,043	-0,147
-632,795	-106,294	-0,083	-0,014
-631,780	-26,512	-0,100	-0,043
-630,765	20,769	0,101	-0,060
-629,751	699,806	0,039	-0,076
-628,736	48,379	-0,116	-0,079
-627,722	-2,361	0,089	-0,046
-626,707	800,000	0,022	-0,053
-625,692	-123,766	-0,112	-0,013
-624,678	-200,000	-0,007	0,027
-623,663	-135,807	0,087	-0,007
-622,649	-200,000	-0,001	0,016
-621,634	-119,840	0,067	-0,008
-620,619	-124,953	0,096	0,011
-619,605	-60,692	-0,062	0,019
-618,590	52,241	0,051	0,036
-617,576	75,871	0,112	0,086
-616,561	175,357	0,050	0,053
-615,546	-200,000	-0,004	-0,103
-614,532	51,362	-0,087	-0,061
-613,517	-126,089	-0,131	0,014
-612,503	-62,678	-0,095	0,029
-611,488	116,516	-0,106	-0,095
-610,474	800,000	0,009	-0,028
-609,459	530,535	0,021	-0,037
-608,444	341,710	-0,101	-0,146
-607,430	192,402	-0,040	-0,044
-606,415	119,934	0,083	-0,075
-605,401	123,498	0,073	0,067
-604,386	-97,586	-0,066	0,012
-603,371	800,000	-0,075	0,156
-602,357	650,744	-0,045	-0,085
-601,342	260,850	0,049	-0,062
-600,328	-200,000	-0,030	0,154
-599,313	51,305	-0,049	-0,034
-598,298	73,627	0,063	-0,048
-597,284	-132,601	-0,151	0,014
-596,269	414,764	0,025	0,039
-595,255	230,152	0,054	-0,065
-594,240	59,546	-0,197	-0,142
-593,225	-36,872	-0,016	-0,006
-592,211	-200,000	-0,000	-0,083
-591,196	127,610	0,069	-0,064
-590,182	231,436	0,034	-0,041
-589,167	46,763	-0,096	0,065
-588,152	-129,612	-0,125	-0,012
-587,138	-200,000	-0,008	0,088
-586,123	800,000	-0,023	-0,053
-585,109	709,933	0,036	-0,070
-584,094	33,118	-0,054	-0,034
-583,079	800,000	0,024	-0,050
-582,065	33,105	0,065	-0,041
-581,050	-67,185	0,069	-0,020
-580,036	-200,000	-0,018	0,062
-579,021	-200,000	0,000	-0,108
-578,006	-200,000	0,015	-0,077
-576,992	60,403	0,125	-0,091
-575,977	76,552	-0,059	0,046
-574,963	-200,000	0,021	0,081
-573,948	93,585	0,024	-0,020
-572,934	322,990	-0,087	-0,122
-571,919	6,754	0,059	0,032
-570,904	-200,000	-0,056	-0,255
-569,890	-119,134	-0,127	-0,016
-568,875	800,000	-0,007	-0,018
-567,861	140,072	0,052	0,050
-566,846	-174,465	0,069	-0,001
-565,831	39,927	-0,067	-0,044
-564,817	800,000	-0,057	0,119
-563,802	-200,000	0,038	-0,196
-562,788	-200,000	0,005	0,094
-561,773	-141,096	-0,086	0,006
-560,758	192,033	-0,069	0,076
-559,744	800,000	-0,033	0,090
-558,729	-39,407	-0,057	-0,022
-557,715	476,785	0,026	0,043
-556,700	800,000	-0,024	0,060
-555,685	204,025	-0,001	0,001
-554,671	-4,984	0,109	0,055
-553,656	72,306	0,139	-0,106
-552,642	106,691	0,073	-0,063
-551,627	74,725	-0,024	-0,018
-550,612	269,256	0,065	-0,084
-549,598	42,526	-0,057	-0,038
-548,583	-200,000	0,021	-0,088
-547,569	-200,000	0,020	-0,104
-546,554	-96,244	-0,129	-0,025
-545,539	-200,000	0,008	-0,062
-544,525	800,000	-0,020	0,052
-543,510	25,812	0,129	0,078
-542,496	800,000	0,045	-0,091
-541,481	-2,632	-0,138	0,070
-540,466	-200,000	-0,018	-0,071
-539,452	-33,419	0,169	-0,068
-538,437	-33,288	0,101	0,041
-537,423	-147,337	0,075	0,005
-536,408	-200,000	-0,013	-0,073
-535,393	-23,041	-0,084	-0,037
-534,379	-159,867	-0,212	-0,008
-533,364	421,590	-0,035	0,056
-532,350	89,074	0,085	0,070
-531,335	-115,427	0,122	-0,017
-530,321	-200,000	-0,012	-0,046
-529,306	-33,610	-0,118	-0,047
-528,291	-94,984	0,117	-0,023
-527,277	-86,982	-0,186	0,041
-526,262	-88,192	0,162	0,035
-525,248	41,326	0,116	-0,077
-524,233	800,000	-0,050	0,152
-523,218	-43,906	-0,118	-0,043
-522,204	737,985	-0,043	-0,085
-521,189	278,075	-0,031	-0,041
-520,175	74,873	-0,137	-0,105
-519,160	-12,309	-0,117	-0,056
-518,145	279,138	-0,091	-0,119
-517,131	-53,932	-0,116	0,038
-516,116	-111,623	0,085	0,013
-515,102	87,588	-0,095	0,077
-514,087	-200,000	-0,008	-0,065
-513,072	-200,000	-0,036	0,158
-512,058	800,000	0,016	0,035
-511,043	576,059	0,028	0,051
-510,029	430,751	-0,066	0,105
-509,014	-34,337	-0,077	0,031
-507,999	101,347	-0,121	0,103
-506,985	-146,916	0,106	0,007
-505,970	800,000	-0,042	-0,100
-504,956	-200,000	0,018	-0,072
-503,941	74,841	0,100	0,077
-502,926	-200,000	0,001	0,108
-501,912	-200,000	-0,005	-0,065
-500,897	-200,000	0,012	-0,098
-499,883	321,535	-0,091	-0,126
-498,868	-28,705	-0,045	-0,019
-497,853	284,505	-0,030	-0,039
-496,839	731,327	0,027	0,053
-495,824	-200,000	-0,027	-0,091
-494,810	-200,000	0,018	-0,127
-493,795	-200,000	0,027	0,090
-492,781	800,000	0,041	-0,088
-491,766	297,858	-0,108	0,145
-490,751	-134,417	0,085	0,008
-489,737	800,000	-0,069	-0,144
-488,722	-173,436	0,083	0,002
-487,708	158,345	0,022	-0,022
-486,693	338,752	-0,065	-0,092
-485,678	186,457	0,039	-0,043
-484,664	782,046	0,032	-0,064
-483,649	800,000	-0,044	-0,131
-482,635	-24,664	-0,088	-0,038
-481,620	308,066	-0,043	-0,059
-480,605	-200,000	0,020	0,067
-479,591	548,189	0,030	0,053
-478,576	-140,805	-0,085	0,006
-477,562	-64,845	0,140	-0,041
-476,547	-200,000	0,006	0,106
-475,532	-200,000	0,032	-0,124
-474,518	122,351	0,102	-0,093
-473,503	8,015	0,063	-0,034
-472,489	268,444	0,076	-0,098
-471,474	-112,894	0,159	0,023
-470,459	239,233	-0,099	-0,121
-469,445	-57,009	0,095	-0,030
-468,430	38,206	-0,044	-0,028
-467,416	-84,589	0,073	0,017
-466,401	10,881	0,070	-0,039
-465,386	-139,095	-0,131	-0,010
-464,372	-200,000	-0,016	0,108
-463,357	483,999	0,039	-0,065
-462,343	-41,906	-0,107	-0,040
-461,328	-200,000	-0,009	-0,082
-460,313	-121,782	-0,115	0,014
-459,299	-100,750	0,116	0,021
-458,284	94,494	0,094	0,078
-457,270	-133,046	0,039	0,004
-456,255	800,000	0,035	-0,073
-455,241	-74,465	-0,096	-0,025
-454,226	-200,000	0,007	-0,081
-453,211	-200,000	0,029	0,114
-452,197	683,244	0,037	0,070
-451,182	-103,158	-0,088	0,015
-450,168	54,738	0,083	0,058
-449,153	-10,571	0,075	0,036
-448,138	122,672	0,065	0,060
-447,124	800,000	-0,039	0,094
-446,109	-85,757	0,071	-0,016
-445,095	529,419	-0,088	-0,152
-444,080	-98,422	0,156	0,029
-443,065	-146,476	-0,111	-0,007
-442,051	78,694	-0,051	0,039
-441,036	-200,000	-0,012	-0,084
-440,022	51,017	-0,030	0,021
-439,007	-200,000	0,002	-0,038
-437,992	-84,886	-0,172	0,039
-436,978	-74,771	0,181	-0,047
-435,963	8,854	0,108	-0,059
-434,949	-200,000	0,025	0,110
-433,934	-200,000	0,007	-0,054
-432,919	435,887	-0,065	-0,103
-431,905	-8,548	0,077	0,038
-430,890	-200,000	0,039	0,197
-429,876	-200,000	0,039	0,169
-428,861	-152,449	0,063	-0,003
-427,846	91,265	-0,033	0,027
-426,832	-158,756	-0,169	-0,007
-425,817	356,040	0,007	-0,010
-424,803	187,078	0,053	-0,058
-423,788	61,692	-0,040	0,029
-422,773	-200,000	0,048	0,172
-421,759	-200,000	0,004	0,084
-420,744	800,000	-0,022	-0,066
-419,730	148,391	-0,097	-0,095
-418,715	-200,000	0,006	-0,139
-417,701	106,516	-0,089	0,077
-416,686	-89,819	-0,135	0,028
-415,671	133,203	0,151	-0,142
-414,657	-200,000	-0,003	0,061
-413,642	200,219	0,036	-0,040
-412,628	800,000	0,048	-0,115
-411,613	536,844	-0,059	-0,103
-410,598	17,414	0,075	0,043
-409,584	15,612	-0,070	0,040
-408,569	-85,827	-0,069	0,016
-407,555	800,000	0,019	0,044
-406,540	-200,000	0,022	0,088
-405,525	156,919	-0,014	-0,014
-404,511	38,766	-0,125	-0,081
-403,496	-94,821	0,088	-0,017
-402,482	687,337	-0,065	0,125
-401,467	-61,652	0,126	-0,038
-400,452	-133,038	0,097	0,009
-399,438	348,558	-0,086	0,124
-398,423	526,596	-0,087	0,150
-397,409	-200,000	0,010	-0,249
-396,394	265,412	0,018	-0,023
-395,379	800,000	0,010	-0,021
-394,365	800,000	0,028	0,078
-393,350	800,000	0,103	0,223
-392,336	179,035	0,080	0,085
-391,321	-47,655	-0,101	0,035
-390,306	76,292	0,061	-0,047
-389,292	80,266	-0,146	-0,114
-388,277	94,440	0,012	0,010
-387,263	800,000	-0,026	-0,066
-386,248	-51,479	0,146	0,049
-385,233	255,486	0,078	-0,097
-384,219	303,275	-0,009	0,012
-383,204	-88,878	-0,148	0,032
-382,190	-74,623	0,137	-0,035
-381,175	159,894	-0,023	-0,023
-380,160	800,000	0,046	-0,139
-379,146	-45,764	0,092	0,033
-378,131	-200,000	-0,004	0,106
-377,117	800,000	-0,035	0,072
-376,102	800,000	0,017	0,053
-375,088	-123,575	0,069	-0,008
-374,073	16,045	-0,103	0,059
-373,058	-200,000	0,033	0,145
-372,044	61,522	0,072	0,052
-371,029	-200,000	0,031	0,110
-370,015	197,333	-0,017	-0,018
-369,000	800,000	0,029	-0,071
-367,985	-67,146	-0,133	-0,038
-366,971	-200,000	-0,000	-0,009
-365,956	-200,000	0,001	-0,087
-364,942	-200,000	0,001	0,082
-363,927	-200,000	0,034	0,114
-362,912	-137,759	-0,049	0,004
-361,898	-200,000	0,031	-0,164
-360,883	800,000	-0,028	-0,079
-359,869	-200,000	-0,034	-0,139
-358,854	147,021	0,074	-0,072
-357,839	-200,000	-0,005	0,062
-356,825	190,232	0,078	0,086
-355,810	-14,657	-0,102	0,047
-354,796	234,793	-0,056	0,067
-353,781	32,794	-0,128	-0,080
-352,766	-200,000	-0,005	-0,057
-351,752	-200,000	0,010	-0,057
-350,737	-200,000	0,027	0,122
-349,723	-122,313	0,133	0,016
-348,708	-200,000	0,013	0,054
-347,693	-90,490	-0,048	-0,010
-346,679	-27,832	0,071	-0,030
-345,664	-200,000	-0,010	-0,082
-344,650	-200,000	0,004	-0,048
-343,635	374,718	-0,023	-0,035
-342,620	800,000	-0,055	-0,121
-341,606	-200,000	0,009	-0,134
-340,591	3,656	-0,142	0,075
-339,577	-200,000	-0,014	-0,102
-338,562	-200,000	0,000	-0,112
-337,548	-200,000	-0,019	0,177
-336,533	-147,209	0,113	0,007
-335,518	28,349	0,012	0,007
-334,504	188,219	0,042	-0,046
-333,489	-185,586	-0,143	-0,002
-332,475	800,000	-0,072	-0,153
-331,460	21,350	-0,069	-0,041
-330,445	160,748	0,059	-0,060
-329,431	-200,000	-0,013	0,157
-328,416	232,251	-0,060	0,072
-327,402	-200,000	0,023	-0,156
-326,387	-200,000	0,028	-0,124
-325,372	-53,314	-0,160	0,053
-324,358	-200,000	0,016	0,090
-323,343	496,300	0,061	0,101
-322,329	-102,160	0,122	0,021
-321,314	-100,214	0,091	-0,016
-320,299	800,000	0,025	0,066
-319,285	-82,905	-0,055	-0,013
-318,270	24,565	-0,034	0,020
-317,256	-200,000	-0,003	-0,055
-316,241	-123,419	0,062	0,007
-315,226	58,469	0,071	0,051
-314,212	22,060	0,203	0,119
-313,197	2,842	-0,112	0,059
-312,183	347,252	0,042	0,060
-311,168	373,791	-0,030	-0,044
-310,153	-200,000	-0,027	-0,103
-309,139	552,215	-0,016	-0,029
-308,124	36,714	0,019	-0,012
-307,110	-39,120	0,061	-0,023
-306,095	74,967	0,055	0,042
-305,080	-200,000	-0,003	0,161
-304,066	257,537	-0,012	-0,015
-303,051	127,748	0,034	0,031
-302,037	61,181	0,031	0,022
-301,022	-200,000	0,015	0,084
-300,008	-200,000	0,017	0,130
-298,993	51,475	-0,069	0,047
-297,978	33,719	0,158	0,100
-296,964	-200,000	-0,035	-0,234
-295,949	-83,923	0,066	-0,015
-294,935	-27,458	0,056	-0,024
-293,920	-70,912	0,106	-0,029
-292,905	66,631	0,023	-0,017
-291,891	800,000	0,039	0,080
-290,876	-99,459	0,105	-0,019
-289,862	1,989	-0,128	-0,067
-288,847	800,000	0,032	0,071
-287,832	-200,000	0,000	-0,018
-286,818	22,415	0,044	0,026
-285,803	339,789	-0,050	0,071
-284,789	-134,784	0,114	0,010
-283,774	240,683	-0,100	0,121
-282,759	128,215	-0,062	0,058
-281,745	-88,400	0,052	-0,011
-280,730	-200,000	0,028	0,093
-279,716	-200,000	0,003	-0,138
-278,701	-71,984	0,052	-0,014
-277,686	-48,638	-0,080	0,028
-276,672	-200,000	0,048	0,175
-275,657	800,000	0,071	0,173
-274,643	-200,000	0,026	0,242
-273,628	-173,097	0,003	0,000
-272,613	-200,000	0,014	0,110
-271,599	-59,837	0,131	0,040
-270,584	800,000	-0,016	0,043
-269,570	800,000	0,063	0,184
-268,555	232,497	-0,131	0,156
-267,540	303,354	0,066	-0,089
-266,526	338,961	0,025	0,035
-265,511	-200,000	-0,013	0,054
-264,497	785,852	0,082	0,164
-263,482	744,758	-0,039	-0,075
-262,467	800,000	0,041	-0,085
-261,453	-69,153	0,071	0,019
-260,438	40,608	-0,045	-0,029
-259,424	649,973	-0,060	-0,112
-258,409	10,019	-0,066	0,036
-257,395	249,051	0,088	-0,108
-256,380	-200,000	0,014	0,143
-255,365	546,867	-0,040	-0,070
-254,351	-200,000	0,008	-0,079
-253,336	-66,461	-0,057	-0,016
-252,322	335,900	-0,037	0,051
-251,307	40,254	0,045	-0,029
-250,292	-181,040	0,044	0,001
-249,278	-200,000	0,007	0,163
-248,263	-53,457	-0,024	0,008
-247,249	-28,638	-0,096	-0,040
-246,234	-119,121	-0,072	-0,009
-245,219	-112,565	-0,056	-0,008
-244,205	190,330	-0,045	0,049
-243,190	424,661	0,058	0,090
-242,176	-98,988	0,079	-0,014
-241,161	343,307	-0,040	-0,057
-240,146	-3,186	0,020	-0,010
-239,132	-200,000	0,010	0,156
-238,117	-200,000	-0,026	0,082
-237,103	-35,000	0,041	-0,016
-236,088	-200,000	-0,042	-0,144
-235,073	62,273	-0,013	-0,009
-234,059	-200,000	-0,018	-0,113
-233,044	-200,000	0,001	-0,072
-232,030	710,049	0,042	0,081
-231,015	-15,864	-0,098	-0,045
-230,000	221,227	-0,023	-0,027
-228,986	-92,420	-0,058	-0,012
-227,971	800,000	0,060	0,127
-226,957	800,000	0,021	0,047
-225,942	181,027	-0,011	0,012
-224,927	-200,000	-0,009	-0,063
-223,913	-105,159	-0,103	-0,017
-222,898	249,037	-0,038	0,047
-221,884	286,601	-0,015	-0,019
-220,869	-90,891	0,019	-0,004
-219,855	108,116	0,070	0,061
-218,840	-6,993	0,030	-0,014
-217,825	58,173	0,119	0,084
-216,811	-58,895	0,066	-0,021
-215,796	-200,000	-0,012	-0,113
-214,782	552,152	0,025	0,043
-213,767	145,460	0,081	0,079
-212,752	-105,212	0,061	0,010
-211,738	528,821	0,063	0,107
-210,723	56,724	0,091	0,064
-209,709	-53,236	-0,052	0,017
-208,694	-136,834	-0,129	0,011
-207,679	-115,351	-0,134	0,018
-206,665	157,362	0,097	0,097
-205,650	-200,000	-0,026	-0,210
-204,636	239,884	-0,050	0,060
-203,621	-107,344	-0,105	-0,017
-202,606	39,941	0,027	-0,018
-201,592	392,281	0,044	-0,067
-200,577	-106,649	-0,032	0,005
-199,563	-134,595	-0,058	0,005
-198,548	-134,852	0,087	-0,008
-197,533	247,708	-0,051	0,063
-196,519	29,047	0,016	0,010
-195,504	-118,222	0,129	0,016
-194,490	-200,000	-0,013	-0,046
-193,475	42,606	-0,035	-0,023
-192,460	-56,790	-0,207	0,066
-191,446	19,324	-0,029	-0,017
-190,431	800,000	0,053	0,121
-189,417	3,676	0,136	0,072
-188,402	545,276	-0,032	-0,056
-187,387	-59,533	-0,200	-0,061
-186,373	800,000	-0,055	-0,118
-185,358	800,000	0,051	-0,121
-184,344	-46,152	0,112	0,040
-183,329	460,342	0,058	0,093
-182,315	100,601	-0,045	-0,038
-181,300	-73,451	0,081	-0,021
-180,285	-147,177	0,072	-0,004
-179,271	-96,623	-0,026	0,005
-178,256	291,558	0,032	-0,042
-177,242	519,067	-0,060	0,102
-176,227	207,081	0,030	-0,033
-175,212	337,703	0,076	0,107
-174,198	301,025	0,120	0,161
-173,183	45,846	0,070	-0,047
-172,169	-76,880	-0,128	0,032
-171,154	139,380	-0,012	0,011
-170,139	493,831	0,048	-0,080
-169,125	158,019	0,085	-0,085
-168,110	8,503	-0,090	0,048
-167,096	562,216	0,047	0,083
-166,081	-143,109	-0,136	0,009
-165,066	800,000	-0,013	0,032
-164,052	800,000	-0,041	0,118
-163,037	-172,464	-0,072	0,002
-162,023	800,000	-0,033	0,074
-161,008	379,811	-0,076	0,113
-159,993	-159,621	-0,170	0,007
-158,979	-139,203	-0,126	-0,010
-157,964	-24,834	-0,073	0,031
-156,950	757,755	-0,053	0,103
-155,935	29,512	0,176	0,108
-154,920	-81,632	0,073	0,017
-153,906	33,260	0,079	0,049
-152,891	-36,575	-0,050	-0,019
-151,877	366,518	0,025	0,036
-150,862	395,804	-0,062	-0,093
-149,847	435,363	-0,072	-0,113
-148,833	-200,000	0,000	0,083
-147,818	29,912	-0,052	0,032
-146,804	800,000	0,024	-0,061
-145,789	-30,446	0,122	-0,050
-144,775	-200,000	-0,010	-0,084
-143,760	18,467	0,077	0,044
-142,745	800,000	0,030	0,064
-141,731	-77,995	-0,061	0,015
-140,716	82,900	0,111	0,087
-139,702	0,315	-0,060	0,031
-138,687	96,570	0,100	0,082
-137,672	769,046	-0,088	0,172
-136,658	-200,000	-0,019	-0,079
-135,643	-200,000	0,020	-0,110
-134,629	-200,000	-0,018	0,090
-133,614	-44,859	0,043	-0,015
-132,599	-4,218	-0,071	0,035
-131,585	223,088	0,024	0,028
-130,570	-47,138	0,090	-0,031
-129,556	153,201	-0,124	0,122
-128,541	-0,404	-0,092	-0,047
-127,526	176,080	-0,061	-0,064
-126,512	544,806	0,039	-0,066
-125,497	-9,801	0,107	-0,051
-124,483	-33,854	-0,067	0,027
-123,468	-200,000	0,019	-0,069
-122,453	-11,940	0,082	-0,039
-121,439	-200,000	0,030	-0,126
-120,424	-200,000	-0,013	-0,163
-119,410	-108,279	0,085	-0,013
