DTS Sentinel unit serial number:	SN410029Multiplexer serial number:	ORYXHardware model number:	OX2-SRSoftware version number:	ORYX F/W v4,00 Oryx Data Collector v3.7.2.0data status	okinstallation	B6 Nyhavnadifferential loss correction	single-endedforward channel	channel 2reverse channel	N/Adate	2023/12/11time	03:20:08forward acquisition time	300,00reverse acquisition time	0,00gamma	499,1914k internal	0,3124k external	0,3124temperature offset calibration	1,0000default loss term (dB/km)	0,3820temperature slope calibration	1,0000multiplexer offset coefficient	1,0000multiplexer slope coefficient	1,0000fibre end	0,00T internal ref (°C)	21,26T ext. ref 1 (°C)	4,05T ext. ref 2 (°C)	4,06length (m)	temperature (°C)	Stokes	anti-Stokes-744,400	800,000	0,016	-0,043
-743,385	-157,706	-0,152	-0,007
-742,371	-200,000	0,009	0,194
-741,356	800,000	-0,070	0,194
-740,342	125,583	-0,039	-0,037
-739,327	-20,521	-0,284	0,130
-738,312	-40,104	-0,103	-0,040
-737,298	-123,043	-0,318	-0,038
-736,283	-88,693	0,145	-0,032
-735,269	601,683	-0,085	0,159
-734,254	-103,849	-0,097	-0,017
-733,239	-58,043	-0,372	-0,120
-732,225	-104,280	0,162	0,028
-731,210	111,756	0,122	0,110
-730,196	800,000	0,053	-0,125
-729,181	800,000	0,053	-0,154
-728,167	106,149	-0,141	-0,125
-727,152	-3,599	0,116	0,060
-726,137	-125,377	-0,116	-0,013
-725,123	-79,516	-0,076	-0,019
-724,108	22,194	-0,071	-0,043
-723,094	-64,530	-0,183	-0,055
-722,079	-200,000	0,051	-0,180
-721,064	800,000	-0,049	0,117
-720,050	39,345	-0,098	-0,065
-719,035	296,907	-0,043	-0,059
-718,021	441,328	-0,082	0,135
-717,006	800,000	0,044	-0,132
-715,991	800,000	-0,050	-0,124
-714,977	-36,588	0,069	0,027
-713,962	49,428	-0,125	0,088
-712,948	-171,551	-0,106	0,003
-711,933	800,000	-0,039	0,111
-710,918	-83,982	0,034	0,008
-709,904	71,202	-0,039	0,030
-708,889	-52,803	0,039	0,013
-707,875	43,417	-0,131	-0,089
-706,860	800,000	-0,016	0,051
-705,845	83,909	-0,059	0,048
-704,831	141,430	0,059	0,058
-703,816	162,220	-0,039	-0,040
-702,802	-28,850	-0,079	0,034
-701,787	-200,000	0,001	-0,096
-700,772	311,681	-0,038	0,053
-699,758	-200,000	-0,023	-0,080
-698,743	-200,000	0,028	-0,109
-697,729	-63,393	0,032	-0,010
-696,714	10,882	-0,045	-0,025
-695,699	53,206	-0,066	-0,047
-694,685	293,213	-0,087	-0,118
-693,670	800,000	-0,023	-0,052
-692,656	-200,000	0,009	-0,055
-691,641	558,983	-0,031	0,055
-690,627	-71,502	0,095	-0,026
-689,612	144,958	-0,073	-0,073
-688,597	-53,323	0,068	-0,023
-687,583	-60,431	-0,050	-0,016
-686,568	800,000	-0,060	-0,132
-685,554	-23,840	-0,087	-0,038
-684,539	21,822	0,037	0,022
-683,524	246,480	0,047	-0,059
-682,510	800,000	-0,029	-0,085
-681,495	663,799	-0,059	-0,114
-680,481	-180,890	-0,165	-0,002
-679,466	7,383	-0,143	0,079
-678,451	20,376	-0,044	-0,026
-677,437	97,409	-0,020	0,017
-676,422	-200,000	-0,018	0,124
-675,408	-111,664	-0,084	-0,013
-674,393	300,710	0,053	0,073
-673,378	23,096	-0,048	-0,029
-672,364	-17,825	-0,045	0,021
-671,349	800,000	0,007	-0,020
-670,335	-200,000	0,009	0,079
-669,320	-200,000	0,001	0,005
-668,305	800,000	0,033	0,100
-667,291	-76,147	-0,116	0,030
-666,276	159,665	-0,058	-0,060
-665,262	68,785	-0,073	-0,056
-664,247	-200,000	0,014	-0,047
-663,232	237,352	-0,071	0,088
-662,218	100,291	0,046	-0,040
-661,203	109,891	0,102	-0,091
-660,189	180,670	-0,045	-0,049
-659,174	-56,175	-0,100	0,033
-658,159	-200,000	-0,034	-0,113
-657,145	-200,000	0,013	-0,153
-656,130	-112,064	-0,184	-0,027
-655,116	20,427	-0,070	0,042
-654,101	-200,000	-0,019	0,064
-653,086	140,863	-0,109	0,107
-652,072	800,000	-0,016	-0,043
-651,057	800,000	-0,026	0,062
-650,043	290,535	0,089	-0,121
-649,028	522,857	-0,029	-0,051
-648,014	63,954	-0,050	-0,037
-646,999	-33,156	0,065	-0,027
-645,984	181,118	0,015	-0,016
-644,970	142,737	0,023	-0,023
-643,955	-35,096	-0,066	0,027
-642,941	-116,144	-0,144	-0,020
-641,926	-137,003	0,024	-0,002
-640,911	-33,836	0,055	-0,022
-639,897	-148,775	0,099	-0,006
-638,882	-35,549	0,053	0,021
-637,868	-77,248	-0,170	0,043
-636,853	800,000	-0,015	0,047
-635,838	-200,000	0,029	-0,115
-634,824	99,594	0,060	-0,052
-633,809	407,921	-0,053	-0,084
-632,795	270,505	-0,031	-0,041
-631,780	-150,038	0,174	0,010
-630,765	-48,793	-0,093	0,033
-629,751	517,859	-0,069	-0,120
-628,736	800,000	-0,057	-0,138
-627,722	283,225	0,051	-0,068
-626,707	-53,600	0,133	-0,045
-625,692	27,912	0,049	0,031
-624,678	56,694	-0,109	-0,079
-623,663	800,000	-0,020	0,048
-622,649	-200,000	0,002	-0,017
-621,634	-107,856	-0,044	0,007
-620,619	800,000	-0,013	0,039
-619,605	-200,000	0,017	0,148
-618,590	-69,890	-0,038	0,011
-617,576	15,291	0,100	0,058
-616,561	86,467	-0,102	-0,084
-615,546	-84,507	0,044	-0,010
-614,532	0,983	-0,035	0,018
-613,517	-200,000	0,028	-0,203
-612,503	-76,790	0,084	-0,022
-611,488	164,540	0,105	0,110
-610,474	800,000	-0,015	0,047
-609,459	3,787	-0,074	0,040
-608,444	332,579	-0,110	-0,157
-607,430	-23,613	0,039	-0,017
-606,415	478,247	-0,046	-0,077
-605,401	-200,000	0,034	-0,158
-604,386	-200,000	0,034	0,134
-603,371	142,219	0,107	0,105
-602,357	365,769	-0,009	0,013
-601,342	-200,000	-0,048	-0,202
-600,328	800,000	-0,034	-0,102
-599,313	-162,672	-0,071	-0,003
-598,298	193,546	0,021	0,024
-597,284	-80,866	0,125	-0,030
-596,269	79,307	-0,054	0,042
-595,255	110,770	-0,069	-0,061
-594,240	147,650	0,079	-0,079
-593,225	800,000	-0,052	0,143
-592,211	85,959	-0,054	-0,044
-591,196	172,627	0,161	-0,172
-590,182	-117,250	-0,175	0,023
-589,167	446,423	-0,062	-0,101
-588,152	-200,000	-0,015	-0,086
-587,138	-200,000	-0,021	-0,069
-586,123	171,869	-0,059	0,063
-585,109	-69,848	-0,067	0,019
-584,094	-93,715	-0,083	-0,017
-583,079	-200,000	-0,005	0,037
-582,065	-146,062	0,029	-0,002
-581,050	-44,853	-0,112	0,041
-580,036	539,287	0,085	-0,151
-579,021	482,843	-0,054	0,092
-578,006	-146,963	0,041	0,003
-576,992	-200,000	-0,004	-0,076
-575,977	-200,000	-0,004	0,046
-574,963	-22,025	0,044	-0,020
-573,948	800,000	0,013	0,037
-572,934	-38,347	-0,104	-0,041
-571,919	230,068	0,076	-0,093
-570,904	-200,000	-0,014	-0,050
-569,890	128,878	0,040	-0,038
-568,875	-200,000	0,005	0,059
-567,861	-73,133	-0,031	-0,008
-566,846	-66,242	0,220	0,064
-565,831	-200,000	0,016	0,092
-564,817	32,709	-0,057	-0,036
-563,802	-200,000	-0,012	-0,190
-562,788	93,324	-0,030	-0,025
-561,773	22,036	-0,057	-0,034
-560,758	-36,630	0,063	0,025
-559,744	-82,081	0,075	0,018
-558,729	-184,217	-0,167	-0,002
-557,715	303,380	-0,064	-0,088
-556,700	-200,000	-0,016	-0,058
-555,685	3,015	0,167	-0,089
-554,671	-200,000	-0,003	-0,028
-553,656	16,415	0,061	0,035
-552,642	-200,000	0,018	0,087
-551,627	-67,043	-0,088	-0,026
-550,612	-200,000	-0,013	0,044
-549,598	50,590	0,062	0,043
-548,583	-200,000	-0,011	-0,072
-547,569	-153,237	-0,086	0,004
-546,554	241,015	-0,047	-0,058
-545,539	-200,000	0,025	0,105
-544,525	-200,000	0,009	0,153
-543,510	-101,513	-0,066	-0,012
-542,496	293,714	-0,056	-0,076
-541,481	-200,000	0,003	-0,065
-540,466	-44,562	-0,095	0,035
-539,452	485,224	-0,030	0,051
-538,437	472,491	-0,041	0,069
-537,423	241,087	-0,124	-0,154
-536,408	324,942	-0,017	-0,025
-535,393	-10,152	-0,048	0,024
-534,379	-200,000	-0,007	-0,079
-533,364	-113,818	-0,128	0,018
-532,350	-39,042	0,066	-0,026
-531,335	-200,000	0,014	0,046
-530,321	-200,000	-0,009	0,062
-529,306	42,898	-0,013	0,008
-528,291	20,606	0,059	0,035
-527,277	800,000	-0,024	0,059
-526,262	-92,107	0,014	0,003
-525,248	-15,287	0,032	-0,015
-524,233	48,876	0,074	-0,052
-523,218	307,700	-0,067	0,093
-522,204	-19,384	0,087	0,040
-521,189	69,908	0,041	-0,031
-520,175	-120,579	-0,115	0,014
-519,160	-200,000	-0,014	0,055
-518,145	-84,805	0,052	0,012
-517,131	-89,402	0,084	0,018
-516,116	800,000	-0,024	0,060
-515,102	-162,636	-0,041	-0,001
-514,087	4,144	0,059	-0,032
-513,072	-49,346	-0,049	-0,017
-512,058	46,274	0,128	-0,087
-511,043	95,985	-0,075	-0,063
-510,029	119,476	0,106	0,097
-509,014	70,254	-0,118	0,090
-507,999	-170,776	0,097	-0,002
-506,985	-136,961	0,023	-0,002
-505,970	-81,818	-0,154	0,037
-504,956	800,000	-0,032	-0,104
-503,941	-23,449	-0,090	0,040
-502,926	-150,660	0,032	-0,002
-501,912	-200,000	-0,023	0,102
-500,897	800,000	0,028	0,078
-499,883	-200,000	0,033	0,195
-498,868	-200,000	0,020	-0,067
-497,853	102,127	-0,127	-0,110
-496,839	791,545	0,050	-0,101
-495,824	-131,069	-0,046	0,004
-494,810	-200,000	0,000	0,037
-493,795	177,953	0,085	0,092
-492,781	-200,000	0,006	0,202
-491,766	113,339	-0,057	-0,051
-490,751	-157,394	0,083	0,004
-489,737	-200,000	-0,009	0,097
-488,722	-200,000	0,020	0,097
-487,708	-50,827	0,038	0,013
-486,693	-200,000	0,008	0,042
-485,678	-200,000	0,038	-0,198
-484,664	-200,000	-0,018	-0,163
-483,649	800,000	-0,036	-0,116
-482,635	-200,000	0,002	-0,043
-481,620	305,232	0,049	-0,067
-480,605	-26,996	0,040	0,017
-479,591	-119,590	-0,121	-0,015
-478,576	-73,470	-0,085	0,023
-477,562	800,000	0,047	-0,097
-476,547	-200,000	0,027	-0,099
-475,532	9,193	-0,057	-0,032
-474,518	-200,000	0,012	-0,042
-473,503	87,610	0,104	0,085
-472,489	-38,339	-0,141	0,055
-471,474	101,700	0,138	0,118
-470,459	8,205	-0,069	0,038
-469,445	800,000	-0,015	-0,037
-468,430	-200,000	-0,013	0,057
-467,416	43,450	-0,025	-0,017
-466,401	-8,851	0,086	0,042
-465,386	279,617	-0,046	-0,061
-464,372	-200,000	-0,017	0,067
-463,357	-200,000	0,004	-0,150
-462,343	-33,622	0,053	0,022
-461,328	473,709	-0,017	-0,028
-460,313	-150,450	0,084	0,005
-459,299	800,000	0,045	0,133
-458,284	124,815	0,085	0,079
-457,270	154,351	-0,078	-0,079
-456,255	-85,033	-0,167	0,038
-455,241	-56,876	0,119	-0,039
-454,226	-65,846	-0,057	0,017
-453,211	365,672	0,092	0,138
-452,197	800,000	-0,038	0,121
-451,182	-55,056	0,014	-0,004
-450,168	-200,000	-0,007	-0,058
-449,153	-44,565	0,071	-0,026
-448,138	800,000	-0,023	-0,065
-447,124	-165,316	-0,067	0,002
-446,109	-200,000	-0,007	0,050
-445,095	-104,924	0,053	-0,009
-444,080	156,916	0,031	0,031
-443,065	509,568	-0,029	0,049
-442,051	42,765	0,049	0,033
-441,036	-63,913	0,108	-0,032
-440,022	83,396	-0,042	0,033
-439,007	260,992	0,024	0,030
-437,992	-200,000	0,024	0,135
-436,978	189,225	0,017	-0,019
-435,963	332,734	-0,030	0,042
-434,949	-200,000	-0,005	-0,036
-433,934	-200,000	-0,004	-0,019
-432,919	87,546	-0,078	-0,064
-431,905	505,251	-0,037	0,064
-430,890	350,101	0,006	0,008
-429,876	-95,496	0,038	0,007
-428,861	-43,771	0,045	0,017
-427,846	545,678	0,062	-0,110
-426,832	-91,752	-0,133	-0,028
-425,817	17,649	-0,028	-0,017
-424,803	-147,133	-0,062	0,004
-423,788	179,206	0,025	0,027
-422,773	-28,329	-0,070	0,029
-421,759	-86,566	0,095	-0,021
-420,744	-128,930	-0,111	-0,011
-419,730	138,570	0,044	-0,043
-418,715	-189,584	-0,162	-0,001
-417,701	108,617	0,053	0,047
-416,686	-200,000	0,009	0,050
-415,671	-200,000	-0,005	-0,071
-414,657	-200,000	0,010	0,062
-413,642	800,000	0,022	-0,060
-412,628	-200,000	0,011	-0,074
-411,613	800,000	0,013	0,036
-410,598	57,642	0,111	-0,080
-409,584	108,335	-0,051	-0,045
-408,569	192,901	0,074	0,082
-407,555	233,873	-0,069	-0,083
-406,540	-99,610	0,064	-0,012
-405,525	100,014	0,036	0,031
-404,511	-91,679	-0,030	-0,006
-403,496	-200,000	-0,003	-0,093
-402,482	107,469	0,042	0,037
-401,467	-43,252	-0,101	-0,037
-400,452	133,084	-0,060	0,057
-399,438	154,713	-0,066	0,067
-398,423	800,000	0,019	-0,038
-397,409	-200,000	0,007	0,061
-396,394	669,435	0,029	0,055
-395,379	42,128	0,110	0,073
-394,365	156,141	-0,133	0,135
-393,350	14,763	0,087	-0,050
-392,336	-200,000	-0,015	0,092
-391,321	18,531	0,098	-0,057
-390,306	683,456	-0,021	-0,041
-389,292	12,662	0,094	-0,053
-388,277	-200,000	0,002	0,028
-387,263	533,020	-0,025	-0,044
-386,248	12,126	0,078	0,044
-385,233	-144,658	-0,249	0,017
-384,219	133,048	-0,045	-0,043
-383,204	429,393	0,097	-0,154
-382,190	26,153	-0,083	-0,051
-381,175	-200,000	0,021	-0,109
-380,160	-200,000	-0,007	0,200
-379,146	319,522	0,055	0,077
-378,131	25,453	-0,077	-0,047
-377,117	-43,382	0,107	0,040
-376,102	-49,070	-0,048	-0,017
-375,088	-127,583	-0,136	0,014
-374,073	39,023	-0,055	0,036
-373,058	-200,000	-0,016	-0,092
-372,044	800,000	-0,010	0,031
-371,029	319,272	0,031	-0,043
-370,015	-200,000	0,005	-0,042
-369,000	-200,000	0,005	-0,119
-367,985	98,696	-0,053	0,045
-366,971	34,314	0,050	0,032
-365,956	213,550	-0,032	-0,037
-364,942	5,742	0,158	0,085
-363,927	800,000	-0,050	0,138
-362,912	-200,000	-0,003	-0,038
-361,898	132,510	0,045	0,042
-360,883	42,091	0,022	0,015
-359,869	-74,373	-0,097	0,025
-358,854	-200,000	-0,001	0,116
-357,839	796,898	0,037	-0,076
-356,825	493,983	0,050	0,084
-355,810	-179,306	0,065	0,001
-354,796	-200,000	-0,049	-0,196
-353,781	168,685	-0,112	-0,117
-352,766	800,000	0,077	-0,188
-351,752	213,743	-0,052	-0,060
-350,737	126,261	-0,090	0,083
-349,723	800,000	-0,023	0,073
-348,708	380,106	0,031	-0,047
-347,693	25,281	-0,058	-0,036
-346,679	-95,953	-0,086	0,017
-345,664	-28,876	-0,069	0,029
-344,650	22,864	-0,063	-0,038
-343,635	800,000	-0,026	0,055
-342,620	571,565	0,044	0,079
-341,606	775,714	0,082	0,165
-340,591	-30,539	-0,133	0,055
-339,577	-200,000	0,005	-0,133
-338,562	-200,000	0,009	-0,045
-337,548	-200,000	-0,002	0,129
-336,533	-73,243	-0,150	0,040
-335,518	442,789	0,041	-0,066
-334,504	130,136	-0,031	0,029
-333,489	-104,471	0,031	0,005
-332,475	38,073	0,114	0,074
-331,460	-165,911	-0,107	0,003
-330,445	-114,543	0,109	0,015
-329,431	177,377	0,109	0,117
-328,416	-73,976	-0,107	-0,028
-327,402	-200,000	-0,004	-0,026
-326,387	344,430	0,046	0,066
-325,372	382,326	0,031	0,047
-324,358	1,264	0,099	-0,052
-323,343	-38,313	-0,041	-0,016
-322,329	-200,000	0,009	0,068
-321,314	18,442	0,068	-0,040
-320,299	113,807	-0,040	-0,036
-319,285	-141,221	-0,079	0,006
-318,270	-200,000	-0,025	-0,115
-317,256	-200,000	0,020	-0,099
-316,241	800,000	0,016	-0,038
-315,226	-52,064	-0,130	0,044
-314,212	664,748	0,070	-0,134
-313,197	-93,650	0,062	0,012
-312,183	60,543	0,019	-0,014
-311,168	-15,598	-0,112	-0,052
-310,153	-200,000	-0,007	0,076
-309,139	-52,358	-0,061	-0,020
-308,124	-200,000	-0,007	0,228
-307,110	202,855	0,107	0,121
-306,095	800,000	0,019	0,043
-305,080	-61,219	0,048	0,015
-304,066	19,401	-0,103	-0,060
-303,051	-104,039	-0,165	0,028
-302,037	-200,000	-0,002	0,229
-301,022	800,000	0,022	0,067
-300,008	-200,000	0,010	0,098
-298,993	-178,321	-0,081	0,001
-297,978	-98,885	-0,079	0,015
-296,964	332,396	-0,034	-0,048
-295,949	28,034	0,196	-0,121
-294,935	800,000	-0,042	-0,118
-293,920	-200,000	-0,007	-0,043
-292,905	-200,000	0,006	-0,100
-291,891	-12,051	0,078	0,037
-290,876	240,802	0,014	0,017
-289,862	-200,000	-0,017	0,081
-288,847	800,000	0,036	-0,085
-287,832	-200,000	0,006	0,051
-286,818	270,582	0,054	-0,069
-285,803	-200,000	-0,001	-0,017
-284,789	752,572	0,011	0,022
-283,774	217,854	0,042	-0,049
-282,759	-200,000	0,011	0,153
-281,745	258,886	0,053	-0,067
-280,730	-200,000	-0,009	-0,105
-279,716	800,000	0,073	-0,152
-278,701	-200,000	0,038	0,131
-277,686	689,802	0,045	0,087
-276,672	589,939	0,026	0,047
-275,657	800,000	0,004	-0,010
-274,643	-103,074	0,068	-0,012
-273,628	-200,000	-0,017	0,077
-272,613	587,607	-0,042	-0,076
-271,599	-82,634	0,067	0,016
-270,584	64,619	0,060	0,044
-269,570	-200,000	0,010	-0,104
-268,555	760,542	-0,009	-0,019
-267,540	800,000	-0,026	-0,059
-266,526	-49,257	0,037	0,013
-265,511	754,852	0,025	-0,050
-264,497	90,460	0,137	-0,112
-263,482	299,845	-0,030	-0,041
-262,467	15,742	0,029	0,017
-261,453	-30,557	0,079	-0,033
-260,438	-21,253	0,047	0,021
-259,424	-200,000	0,008	0,055
-258,409	-200,000	-0,007	-0,048
-257,395	36,814	0,051	0,033
-256,380	-37,175	0,151	0,059
-255,365	-119,937	0,041	-0,005
-254,351	800,000	0,014	-0,045
-253,336	-179,443	0,162	0,003
-252,322	246,120	0,033	-0,040
-251,307	-102,013	0,050	0,009
-250,292	90,399	-0,119	-0,097
-249,278	-200,000	-0,008	0,126
-248,263	92,367	-0,028	-0,023
-247,249	800,000	0,015	0,048
-246,234	-10,681	-0,078	0,038
-245,219	-53,353	-0,019	0,006
-244,205	51,669	-0,066	-0,046
-243,190	800,000	0,033	0,096
-242,176	-28,353	0,097	0,041
-241,161	-200,000	0,016	0,069
-240,146	160,187	0,012	0,012
-239,132	327,571	-0,032	0,045
-238,117	-113,626	0,065	0,009
-237,103	184,772	-0,083	0,090
-236,088	532,674	-0,111	0,192
-235,073	224,431	0,048	-0,057
-234,059	232,224	0,033	-0,039
-233,044	48,043	0,024	0,017
-232,030	-200,000	0,027	0,124
-231,015	365,320	-0,054	0,080
-230,000	422,680	0,026	-0,041
-228,986	-53,531	-0,132	0,044
-227,971	76,182	0,230	0,177
-226,957	554,242	0,030	-0,052
-225,942	-78,833	0,137	-0,034
-224,927	126,197	0,069	-0,064
-223,913	156,415	-0,051	0,051
-222,898	-15,682	0,038	-0,018
-221,884	-200,000	0,009	0,057
-220,869	800,000	0,045	0,091
-219,855	-36,903	-0,077	0,030
-218,840	102,147	0,105	0,090
-217,825	1,817	0,154	-0,081
-216,811	-136,861	0,025	-0,002
-215,796	35,287	-0,088	-0,056
-214,782	-200,000	-0,002	0,088
-213,767	-25,261	0,071	0,031
-212,752	-84,678	0,168	0,038
-211,738	800,000	-0,072	-0,169
-210,723	-200,000	0,017	-0,060
-209,709	-200,000	-0,022	-0,077
-208,694	270,640	-0,056	-0,072
-207,679	34,761	0,055	0,035
-206,665	-200,000	0,022	-0,072
-205,650	-4,071	0,117	0,059
-204,636	-93,385	-0,039	0,008
-203,621	-63,507	-0,063	-0,019
-202,606	153,843	-0,084	-0,084
-201,592	458,504	-0,046	-0,074
-200,577	-200,000	0,002	-0,010
-199,563	-161,242	-0,086	0,003
-198,548	71,882	0,096	0,073
-197,533	-29,273	0,189	-0,079
-196,519	-200,000	-0,012	0,083
-195,504	-29,808	-0,132	0,055
-194,490	800,000	-0,011	0,028
-193,475	-144,210	-0,046	0,003
-192,460	96,840	0,123	0,103
-191,446	-200,000	0,035	0,118
-190,431	800,000	0,028	0,090
-189,417	98,500	0,083	0,070
-188,402	-164,443	0,025	0,001
-187,387	520,026	-0,043	-0,073
-186,373	800,000	0,006	-0,015
-185,358	-200,000	-0,004	-0,067
-184,344	101,353	-0,051	0,043
-183,329	-200,000	0,003	0,050
-182,315	-200,000	0,028	0,122
-181,300	298,196	0,073	0,098
-180,285	600,840	-0,016	-0,028
-179,271	48,253	-0,163	-0,111
-178,256	-156,726	-0,075	0,003
-177,242	-93,650	0,101	0,020
-176,227	205,744	-0,036	0,041
-175,212	-123,046	0,097	0,011
-174,198	-74,240	-0,066	0,017
-173,183	800,000	-0,039	0,120
-172,169	510,715	0,030	-0,051
-171,154	800,000	-0,050	-0,105
-170,139	-151,134	0,015	0,001
-169,125	323,370	0,068	0,094
-168,110	-64,139	-0,135	0,040
-167,096	432,169	0,044	0,070
-166,081	28,033	-0,156	-0,096
-165,066	184,940	-0,063	-0,068
-164,052	464,680	0,017	-0,028
-163,037	65,004	0,134	0,098
-162,023	265,160	0,049	-0,062
-161,008	720,741	-0,090	-0,175
-159,993	800,000	-0,032	-0,078
-158,979	800,000	-0,020	-0,054
-157,964	625,535	-0,059	0,108
-156,950	748,933	-0,063	-0,125
-155,935	53,009	-0,092	-0,064
-154,920	-142,932	0,021	-0,001
-153,906	212,672	-0,041	0,048
-152,891	364,794	-0,057	0,084
-151,877	82,851	-0,079	0,063
-150,862	-200,000	-0,014	-0,133
-149,847	47,514	-0,022	-0,015
-148,833	800,000	0,014	-0,043
-147,818	-145,139	0,074	0,005
-146,804	602,403	-0,081	0,147
-145,789	4,168	-0,033	0,018
-144,775	-200,000	0,014	-0,090
-143,760	-32,302	-0,108	-0,044
-142,745	-85,430	-0,127	-0,029
-141,731	-50,485	0,015	0,005
-140,716	460,433	0,046	0,074
-139,702	-200,000	0,005	0,123
-138,687	-24,376	0,076	-0,033
-137,672	-111,758	-0,111	0,016
-136,658	443,356	0,041	-0,065
-135,643	21,731	0,050	-0,030
-134,629	69,376	-0,088	-0,066
-133,614	1,035	0,106	-0,055
-132,599	362,071	-0,068	0,100
-131,585	800,000	0,029	0,092
-130,570	-66,565	-0,166	-0,048
-129,556	102,893	0,113	-0,096
-128,541	800,000	0,099	-0,249
-127,526	40,762	-0,090	-0,059
-126,512	132,644	0,085	-0,080
-125,497	-132,931	-0,118	0,011
-124,483	800,000	-0,071	-0,156
-123,468	-150,908	-0,073	-0,004
-122,453	-73,716	0,158	-0,042
-121,439	-66,557	-0,060	-0,017
-120,424	85,099	-0,115	-0,091
-119,410	64,490	-0,021	0,016
