DTS Sentinel unit serial number:	SN410029Multiplexer serial number:	ORYXHardware model number:	OX2-SRSoftware version number:	ORYX F/W v4,00 Oryx Data Collector v3.7.2.0data status	okinstallation	B6 Nyhavnadifferential loss correction	single-endedforward channel	channel 2reverse channel	N/Adate	2023/12/11time	08:10:08forward acquisition time	300,00reverse acquisition time	0,00gamma	499,1914k internal	0,3128k external	0,3128temperature offset calibration	1,0000default loss term (dB/km)	0,3820temperature slope calibration	1,0000multiplexer offset coefficient	1,0000multiplexer slope coefficient	1,0000fibre end	0,00T internal ref (°C)	18,21T ext. ref 1 (°C)	0,46T ext. ref 2 (°C)	0,46length (m)	temperature (°C)	Stokes	anti-Stokes-744,400	-200,000	-0,020	0,127
-743,385	-13,353	-0,304	0,146
-742,371	-132,521	0,158	-0,015
-741,356	50,617	-0,245	0,172
-740,342	298,647	0,081	0,111
-739,327	-11,388	-0,290	0,142
-738,312	-73,513	0,047	-0,013
-737,298	-98,946	-0,297	-0,056
-736,283	-5,366	0,104	-0,053
-735,269	-53,673	-0,303	0,102
-734,254	-113,281	0,145	-0,021
-733,239	-69,797	-0,447	-0,126
-732,225	-13,733	0,177	0,085
-731,210	-24,120	0,077	0,034
-730,196	-200,000	-0,005	-0,132
-729,181	-131,776	0,007	-0,001
-728,167	131,550	0,050	0,048
-727,152	81,137	-0,087	-0,069
-726,137	-7,673	-0,137	0,069
-725,123	-21,333	0,044	-0,020
-724,108	-200,000	-0,030	-0,135
-723,094	-158,759	-0,098	0,004
-722,079	800,000	-0,076	-0,210
-721,064	-22,095	-0,164	-0,074
-720,050	-200,000	-0,008	0,065
-719,035	-200,000	-0,046	-0,175
-718,021	-200,000	-0,019	-0,118
-717,006	-66,668	-0,071	-0,021
-715,991	5,221	-0,106	-0,058
-714,977	623,970	0,015	0,028
-713,962	800,000	0,027	0,066
-712,948	435,695	0,080	-0,129
-711,933	800,000	-0,037	-0,082
-710,918	-35,107	-0,064	0,026
-709,904	-19,584	-0,152	-0,070
-708,889	-88,273	0,068	0,015
-707,875	292,926	-0,039	0,052
-706,860	227,352	-0,044	0,054
-705,845	488,565	-0,030	0,052
-704,831	150,284	0,043	-0,044
-703,816	-5,684	0,048	0,024
-702,802	-62,914	-0,103	-0,031
-701,787	188,291	0,062	-0,069
-700,772	-160,866	-0,137	0,005
-699,758	88,985	-0,086	0,071
-698,743	201,343	-0,080	0,092
-697,729	-200,000	-0,024	0,108
-696,714	-200,000	0,015	0,113
-695,699	-200,000	-0,012	0,069
-694,685	118,728	-0,032	-0,029
-693,670	440,773	-0,035	0,057
-692,656	154,800	-0,024	-0,024
-691,641	-35,437	0,086	0,034
-690,627	375,268	0,062	0,094
-689,612	-164,779	0,171	0,006
-688,597	372,010	-0,056	-0,085
-687,583	-148,478	-0,143	-0,009
-686,568	-68,462	-0,095	-0,027
-685,554	800,000	-0,004	-0,012
-684,539	108,633	0,089	-0,079
-683,524	-73,668	0,058	0,016
-682,510	-109,103	0,039	-0,006
-681,495	34,673	-0,088	0,057
-680,481	-200,000	-0,004	-0,067
-679,466	-200,000	0,002	-0,110
-678,451	-146,434	-0,215	-0,014
-677,437	-23,601	-0,104	0,046
-676,422	391,339	0,083	0,129
-675,408	89,990	-0,072	0,059
-674,393	-200,000	0,033	0,129
-673,378	582,958	0,020	-0,036
-672,364	-200,000	-0,005	-0,040
-671,349	-149,799	0,098	0,006
-670,335	177,940	-0,104	-0,113
-669,320	-200,000	0,007	0,035
-668,305	217,185	0,153	0,181
-667,291	320,337	0,021	-0,029
-666,276	-200,000	0,007	-0,074
-665,262	225,211	-0,091	-0,110
-664,247	-144,532	-0,124	0,008
-663,232	-119,086	-0,115	-0,015
-662,218	-62,810	0,130	-0,040
-661,203	-200,000	-0,012	-0,063
-660,189	195,162	0,037	0,041
-659,174	-60,620	0,027	0,008
-658,159	59,764	0,098	-0,072
-657,145	-18,952	-0,045	0,021
-656,130	468,928	0,050	-0,083
-655,116	-200,000	0,001	-0,069
-654,101	246,342	-0,092	0,115
-653,086	800,000	-0,059	0,127
-652,072	-148,423	-0,057	0,003
-651,057	298,812	-0,072	-0,099
-650,043	-200,000	-0,037	-0,162
-649,028	110,363	0,106	-0,094
-648,014	-200,000	-0,010	-0,088
-646,999	-18,610	-0,059	0,027
-645,984	243,650	0,011	-0,014
-644,970	230,687	-0,051	-0,062
-643,955	333,310	0,007	0,010
-642,941	148,023	-0,084	-0,084
-641,926	48,237	-0,110	-0,076
-640,911	467,806	0,050	0,084
-639,897	371,996	0,063	0,095
-638,882	64,610	-0,022	-0,017
-637,868	-13,905	-0,047	-0,023
-636,853	800,000	0,020	-0,044
-635,838	800,000	-0,049	-0,146
-634,824	13,911	-0,048	0,028
-633,809	365,417	0,055	0,082
-632,795	337,298	0,045	0,066
-631,780	5,510	0,073	0,040
-630,765	800,000	0,027	-0,067
-629,751	-200,000	-0,002	0,014
-628,736	-200,000	0,026	-0,167
-627,722	-200,000	-0,052	-0,170
-626,707	297,671	-0,055	-0,075
-625,692	472,767	0,084	-0,140
-624,678	-10,584	-0,046	0,023
-623,663	-55,202	-0,109	-0,036
-622,649	21,912	-0,167	-0,101
-621,634	50,337	-0,127	-0,089
-620,619	277,526	-0,063	-0,083
-619,605	15,652	0,127	-0,074
-618,590	-41,154	0,002	0,001
-617,576	201,525	0,062	0,070
-616,561	715,114	-0,033	-0,066
-615,546	-200,000	-0,003	0,031
-614,532	-200,000	0,007	0,061
-613,517	614,086	-0,034	-0,064
-612,503	196,423	-0,110	0,124
-611,488	-146,017	0,034	-0,002
-610,474	-200,000	0,007	-0,122
-609,459	-200,000	0,001	-0,047
-608,444	-107,005	-0,069	0,011
-607,430	93,521	-0,040	-0,034
-606,415	-20,756	0,130	-0,059
-605,401	518,733	0,094	0,163
-604,386	-200,000	0,007	0,037
-603,371	-200,000	0,023	0,116
-602,357	-115,110	-0,082	-0,011
-601,342	-81,301	0,020	-0,005
-600,328	-157,407	-0,052	0,002
-599,313	486,542	-0,053	-0,091
-598,298	31,672	-0,084	-0,053
-597,284	800,000	0,018	-0,045
-596,269	-102,035	0,155	-0,027
-595,255	25,881	0,078	-0,048
-594,240	-61,919	0,155	0,048
-593,225	144,592	-0,109	-0,108
-592,211	-200,000	-0,015	-0,114
-591,196	103,195	-0,035	0,031
-590,182	-43,334	0,118	0,044
-589,167	191,297	0,092	-0,102
-588,152	61,164	0,023	0,017
-587,138	-108,025	-0,027	0,004
-586,123	787,833	0,042	-0,085
-585,109	-153,751	0,093	0,005
-584,094	-51,090	-0,186	-0,064
-583,079	127,619	0,137	0,129
-582,065	-200,000	-0,033	0,143
-581,050	-200,000	-0,030	0,138
-580,036	39,144	-0,075	0,050
-579,021	-200,000	0,001	0,046
-578,006	-200,000	0,040	-0,149
-576,992	625,791	0,024	-0,044
-575,977	-73,031	0,087	-0,024
-574,963	-200,000	0,030	0,192
-573,948	27,037	-0,048	-0,030
-572,934	392,387	0,071	0,110
-571,919	-53,765	-0,126	0,042
-570,904	-200,000	-0,015	-0,192
-569,890	162,463	0,054	0,056
-568,875	800,000	-0,059	0,140
-567,861	800,000	-0,041	0,085
-566,846	31,996	0,115	-0,073
-565,831	-200,000	-0,009	-0,036
-564,817	66,011	-0,087	-0,065
-563,802	-150,828	0,114	-0,006
-562,788	-200,000	0,020	0,147
-561,773	-154,967	-0,217	-0,010
-560,758	-181,636	0,172	-0,002
-559,744	166,173	-0,010	-0,010
-558,729	479,582	-0,036	0,060
-557,715	800,000	0,051	-0,133
-556,700	-200,000	0,002	-0,043
-555,685	224,616	0,049	0,058
-554,671	-12,288	0,092	0,044
-553,656	-109,548	-0,024	-0,004
-552,642	-200,000	-0,020	-0,105
-551,627	-200,000	-0,005	0,109
-550,612	-200,000	0,013	0,079
-549,598	466,451	-0,083	-0,138
-548,583	-200,000	-0,034	-0,142
-547,569	800,000	0,014	-0,040
-546,554	-160,048	0,072	-0,003
-545,539	280,928	0,089	0,118
-544,525	492,938	0,050	0,084
-543,510	-92,878	-0,053	0,011
-542,496	68,010	0,037	-0,028
-541,481	800,000	-0,010	-0,031
-540,466	-200,000	0,012	0,119
-539,452	-200,000	-0,005	0,137
-538,437	-124,860	0,114	-0,013
-537,423	-200,000	0,002	0,072
-536,408	-200,000	-0,027	0,126
-535,393	651,422	-0,039	-0,074
-534,379	-74,860	-0,015	-0,004
-533,364	-26,096	-0,036	-0,016
-532,350	800,000	-0,015	0,042
-531,335	-71,294	-0,106	0,029
-530,321	65,610	-0,057	0,043
-529,306	-200,000	-0,009	-0,055
-528,291	370,825	0,009	0,013
-527,277	-200,000	0,013	-0,120
-526,262	-200,000	-0,005	-0,064
-525,248	-200,000	-0,025	0,091
-524,233	-200,000	0,014	0,105
-523,218	-96,826	0,099	0,019
-522,204	86,728	-0,120	0,097
-521,189	-200,000	0,015	-0,118
-520,175	-88,342	-0,145	-0,032
-519,160	-200,000	0,002	0,014
-518,145	-200,000	0,001	0,017
-517,131	-136,709	-0,134	0,011
-516,116	-86,935	0,104	-0,023
-515,102	-119,356	-0,088	-0,011
-514,087	-200,000	0,027	-0,136
-513,072	441,821	0,043	-0,070
-512,058	-200,000	-0,017	-0,182
-511,043	177,841	0,069	-0,074
-510,029	57,320	0,041	0,029
-509,014	146,970	0,060	0,060
-507,999	-40,532	0,056	0,021
-506,985	-160,338	0,091	0,004
-505,970	-147,549	0,090	0,005
-504,956	800,000	-0,035	-0,086
-503,941	25,519	-0,021	0,013
-502,926	-117,515	0,109	-0,014
-501,912	-138,178	-0,065	0,005
-500,897	-112,983	0,039	0,006
-499,883	-119,316	-0,082	-0,010
-498,868	-200,000	0,006	-0,021
-497,853	-94,603	-0,009	0,002
-496,839	286,321	0,061	-0,082
-495,824	-147,942	0,154	-0,009
-494,810	-200,000	-0,009	0,193
-493,795	116,781	-0,087	-0,079
-492,781	-200,000	-0,016	-0,155
-491,766	104,446	0,198	-0,172
-490,751	472,608	0,011	-0,019
-489,737	-98,772	0,141	-0,026
-488,722	800,000	-0,023	0,063
-487,708	222,191	0,084	0,100
-486,693	-1,369	-0,051	-0,027
-485,678	124,931	0,048	0,044
-484,664	-173,420	0,059	0,001
-483,649	-200,000	0,018	-0,075
-482,635	-106,074	0,144	-0,024
-481,620	182,853	-0,081	0,088
-480,605	78,466	0,079	0,063
-479,591	17,222	-0,052	0,030
-478,576	36,871	0,079	0,051
-477,562	800,000	-0,070	0,145
-476,547	459,564	-0,080	-0,131
-475,532	800,000	-0,055	0,135
-474,518	143,180	-0,020	-0,020
-473,503	582,892	-0,060	0,108
-472,489	-200,000	-0,013	0,168
-471,474	800,000	-0,025	0,074
-470,459	-200,000	-0,009	-0,061
-469,445	29,893	-0,094	-0,059
-468,430	-130,238	-0,021	0,002
-467,416	-200,000	0,019	0,103
-466,401	800,000	0,054	0,116
-465,386	800,000	0,056	0,158
-464,372	800,000	0,027	-0,077
-463,357	-95,242	-0,083	-0,016
-462,343	294,196	0,051	-0,069
-461,328	800,000	0,049	-0,124
-460,313	394,812	0,054	-0,083
-459,299	93,782	0,083	0,069
-458,284	503,639	0,030	0,052
-457,270	144,364	-0,053	-0,052
-456,255	131,463	0,041	0,039
-455,241	-200,000	0,045	-0,175
-454,226	-188,297	-0,131	0,001
-453,211	800,000	-0,011	-0,024
-452,197	-200,000	0,047	0,163
-451,182	-200,000	-0,018	0,137
-450,168	53,255	-0,061	-0,043
-449,153	-200,000	-0,011	0,113
-448,138	-66,373	-0,055	0,016
-447,124	-96,136	-0,126	-0,024
-446,109	-200,000	0,012	-0,155
-445,095	229,501	0,066	0,079
-444,080	-46,402	0,180	0,065
-443,065	332,572	-0,104	0,148
-442,051	-200,000	0,011	-0,041
-441,036	569,705	-0,050	0,090
-440,022	138,155	-0,164	-0,158
-439,007	-99,126	0,059	-0,011
-437,992	-200,000	-0,025	-0,087
-436,978	800,000	0,007	0,016
-435,963	265,747	0,032	-0,042
-434,949	116,264	-0,091	-0,082
-433,934	132,745	-0,014	-0,013
-432,919	-77,141	-0,052	-0,013
-431,905	-200,000	0,016	0,055
-430,890	-62,482	0,117	-0,036
-429,876	11,696	0,141	-0,079
-428,861	-200,000	0,011	0,039
-427,846	-200,000	0,014	-0,110
-426,832	-87,088	-0,040	-0,009
-425,817	800,000	-0,054	-0,158
-424,803	-56,094	0,086	-0,028
-423,788	-200,000	0,024	0,078
-422,773	-200,000	-0,006	0,102
-421,759	196,692	0,066	0,074
-420,744	-62,540	-0,102	0,031
-419,730	31,876	-0,054	0,034
-418,715	800,000	0,019	-0,049
-417,701	800,000	-0,041	-0,126
-416,686	6,920	-0,056	0,030
-415,671	-200,000	-0,009	0,045
-414,657	49,954	0,068	0,047
-413,642	-200,000	-0,013	-0,053
-412,628	-200,000	0,015	0,145
-411,613	800,000	0,048	0,116
-410,598	-120,986	-0,054	0,007
-409,584	332,887	-0,038	0,054
-408,569	-108,626	0,127	-0,020
-407,555	-200,000	-0,005	-0,090
-406,540	59,620	0,034	0,024
-405,525	-200,000	-0,007	0,074
-404,511	800,000	0,035	-0,079
-403,496	-18,346	-0,187	-0,086
-402,482	110,882	0,028	-0,025
-401,467	205,614	0,085	-0,097
-400,452	73,399	0,059	0,045
-399,438	42,223	0,073	0,049
-398,423	-49,477	0,101	-0,035
-397,409	800,000	0,024	-0,074
-396,394	-129,183	-0,139	-0,014
-395,379	800,000	-0,038	0,120
-394,365	-200,000	0,014	0,051
-393,350	800,000	-0,025	0,054
-392,336	61,695	-0,085	-0,062
-391,321	67,635	0,082	0,062
-390,306	-200,000	-0,004	0,046
-389,292	649,758	-0,043	-0,082
-388,277	800,000	-0,054	0,136
-387,263	11,682	0,156	0,088
-386,248	-200,000	0,018	0,069
-385,233	800,000	0,022	0,056
-384,219	800,000	0,044	-0,099
-383,204	263,437	0,028	-0,036
-382,190	-200,000	-0,022	-0,106
-381,175	800,000	0,026	0,064
-380,160	430,075	-0,088	-0,140
-379,146	-81,381	0,099	-0,024
-378,131	189,391	0,073	0,081
-377,117	800,000	-0,047	0,117
-376,102	-35,208	-0,093	0,037
-375,088	426,782	-0,035	-0,055
-374,073	-200,000	0,031	-0,105
-373,058	-190,165	0,083	-0,001
-372,044	-10,405	-0,070	-0,034
-371,029	379,307	-0,088	-0,133
-370,015	649,536	0,011	-0,021
-369,000	-74,844	-0,084	0,022
-367,985	-92,134	-0,022	0,005
-366,971	51,859	-0,012	0,009
-365,956	-67,446	-0,024	-0,007
-364,942	-7,328	0,143	-0,071
-363,927	-200,000	-0,032	0,140
-362,912	800,000	0,023	-0,062
-361,898	-3,113	-0,100	-0,051
-360,883	-200,000	0,016	0,054
-359,869	800,000	-0,018	0,048
-358,854	53,061	0,090	-0,063
-357,839	-75,960	0,104	0,027
-356,825	-156,948	-0,100	0,004
-355,810	189,809	-0,027	-0,030
-354,796	-131,257	-0,151	0,014
-353,781	-7,369	0,070	0,035
-352,766	-117,240	-0,083	0,011
-351,752	-78,117	0,074	0,018
-350,737	800,000	-0,005	0,015
-349,723	252,045	-0,064	0,080
-348,708	-147,537	-0,154	0,009
-347,693	-200,000	0,004	0,176
-346,679	-150,990	0,036	0,002
-345,664	-200,000	-0,005	0,070
-344,650	25,817	0,109	0,066
-343,635	-90,018	0,083	0,018
-342,620	-200,000	-0,027	0,124
-341,606	800,000	0,030	-0,089
-340,591	-172,869	-0,087	0,002
-339,577	87,897	-0,045	-0,036
-338,562	476,586	0,069	-0,115
-337,548	-140,678	0,062	-0,005
-336,533	-66,765	-0,043	0,013
-335,518	-150,594	0,107	0,006
-334,504	-179,524	-0,062	-0,001
-333,489	-183,238	0,105	-0,001
-332,475	-74,098	-0,043	-0,011
-331,460	-12,169	0,086	-0,041
-330,445	105,404	-0,043	0,037
-329,431	107,061	-0,078	0,068
-328,416	-20,493	0,134	0,060
-327,402	83,468	0,089	0,071
-326,387	-89,317	0,032	0,007
-325,372	-6,203	-0,063	-0,031
-324,358	-200,000	-0,013	-0,071
-323,343	-200,000	-0,008	-0,055
-322,329	195,681	-0,062	0,070
-321,314	-138,143	-0,042	0,003
-320,299	755,255	0,055	0,110
-319,285	59,082	0,103	0,074
-318,270	-39,313	0,020	-0,008
-317,256	119,368	-0,074	0,067
-316,241	31,165	0,157	0,098
-315,226	-78,112	0,097	0,024
-314,212	-200,000	0,005	0,046
-313,197	-200,000	0,000	0,080
-312,183	203,467	-0,035	0,040
-311,168	-200,000	-0,020	-0,155
-310,153	-200,000	0,010	-0,046
-309,139	800,000	0,018	-0,050
-308,124	-200,000	-0,033	-0,114
-307,110	-200,000	-0,006	0,082
-306,095	741,794	-0,023	-0,046
-305,080	179,796	0,069	0,074
-304,066	18,368	-0,072	0,042
-303,051	800,000	-0,043	-0,108
-302,037	519,372	0,086	-0,148
-301,022	-200,000	-0,002	0,021
-300,008	-31,346	0,064	-0,026
-298,993	800,000	0,010	0,022
-297,978	-83,019	0,012	0,003
-296,964	-109,182	-0,065	0,010
-295,949	800,000	0,045	-0,096
-294,935	-200,000	0,008	0,127
-293,920	103,113	0,066	0,056
-292,905	272,165	-0,057	-0,073
-291,891	387,019	0,045	0,069
-290,876	800,000	-0,015	0,049
-289,862	407,188	0,040	-0,063
-288,847	170,550	-0,022	-0,023
-287,832	-200,000	-0,012	-0,108
-286,818	-200,000	-0,003	-0,158
-285,803	45,072	0,048	-0,032
-284,789	40,156	-0,038	-0,025
-283,774	-32,309	0,061	0,025
-282,759	153,873	-0,071	-0,071
-281,745	629,947	-0,062	-0,115
-280,730	414,414	-0,086	-0,135
-279,716	-200,000	0,009	0,147
-278,701	-112,289	-0,168	0,024
-277,686	370,596	0,053	0,078
-276,672	-114,798	-0,072	-0,010
-275,657	-61,884	-0,062	-0,019
-274,643	695,264	0,061	-0,118
-273,628	80,204	-0,016	0,013
-272,613	800,000	-0,035	-0,109
-271,599	-26,120	0,111	0,047
-270,584	800,000	0,022	0,058
-269,570	-200,000	0,004	0,026
-268,555	-11,116	-0,014	-0,007
-267,540	623,232	-0,062	-0,115
-266,526	14,434	-0,080	-0,046
-265,511	800,000	-0,036	0,097
-264,497	800,000	-0,035	-0,078
-263,482	-200,000	-0,017	0,055
-262,467	800,000	-0,023	0,051
-261,453	800,000	0,059	0,170
-260,438	325,315	-0,065	-0,091
-259,424	800,000	-0,044	0,101
-258,409	-200,000	0,023	-0,120
-257,395	105,356	-0,077	0,067
-256,380	-200,000	-0,019	-0,115
-255,365	800,000	0,058	0,169
-254,351	-124,073	0,060	0,007
-253,336	-153,210	0,019	0,001
-252,322	-32,980	-0,112	-0,045
-251,307	-82,460	-0,196	-0,046
-250,292	154,291	0,164	-0,165
-249,278	40,892	-0,036	-0,024
-248,263	25,195	0,098	-0,060
-247,249	-200,000	0,006	0,026
-246,234	-140,314	0,052	-0,004
-245,219	-100,397	-0,158	-0,028
-244,205	800,000	0,008	0,016
-243,190	104,517	0,050	-0,043
-242,176	-70,374	0,064	0,018
-241,161	800,000	-0,012	0,033
-240,146	-200,000	-0,009	0,104
-239,132	-200,000	0,014	-0,091
-238,117	198,404	-0,112	-0,125
-237,103	-63,848	-0,089	-0,026
-236,088	290,259	-0,004	0,006
-235,073	-6,965	0,106	-0,052
-234,059	-57,475	0,062	-0,020
-233,044	329,408	0,098	0,137
-232,030	-173,734	0,077	-0,002
-231,015	709,224	-0,035	0,069
-230,000	-9,719	-0,174	-0,084
-228,986	217,734	-0,089	0,104
-227,971	63,925	0,138	-0,101
-226,957	118,123	0,113	-0,101
-225,942	-31,260	0,061	0,025
-224,927	-164,129	0,088	-0,003
-223,913	-89,890	-0,220	0,046
-222,898	53,475	-0,099	-0,069
-221,884	-200,000	-0,024	-0,129
-220,869	-200,000	-0,005	-0,042
-219,855	483,555	-0,030	-0,050
-218,840	-156,296	0,140	-0,006
-217,825	92,455	-0,132	-0,109
-216,811	-95,173	0,050	-0,010
-215,796	-101,545	-0,054	-0,010
-214,782	800,000	-0,012	-0,029
-213,767	92,046	0,130	0,106
-212,752	-0,772	0,122	0,063
-211,738	6,303	-0,080	0,043
-210,723	-200,000	0,020	0,145
-209,709	800,000	-0,062	0,166
-208,694	-145,608	-0,060	0,004
-207,679	-87,878	0,152	-0,033
-206,665	393,671	0,033	-0,050
-205,650	-200,000	-0,014	0,210
-204,636	26,166	-0,082	0,050
-203,621	-200,000	-0,000	0,009
-202,606	-18,000	-0,150	-0,068
-201,592	-200,000	0,017	-0,057
-200,577	-59,315	-0,061	0,019
-199,563	328,833	0,033	-0,046
-198,548	-200,000	-0,032	0,127
-197,533	125,718	0,087	0,080
-196,519	339,043	0,109	0,155
-195,504	-200,000	0,014	-0,065
-194,490	800,000	-0,036	-0,084
-193,475	2,151	0,033	-0,017
-192,460	14,307	-0,064	0,036
-191,446	-7,015	0,016	-0,008
-190,431	800,000	-0,018	0,047
-189,417	-174,513	0,121	0,002
-188,402	800,000	0,040	0,120
-187,387	-92,893	0,020	-0,004
-186,373	800,000	-0,045	0,099
-185,358	213,339	-0,080	0,093
-184,344	800,000	0,054	0,171
-183,329	786,524	0,035	-0,070
-182,315	113,675	-0,073	0,064
-181,300	-200,000	-0,007	0,163
-180,285	800,000	0,033	-0,083
-179,271	800,000	-0,078	-0,177
-178,256	-200,000	-0,006	0,029
-177,242	-200,000	-0,021	0,124
-176,227	478,970	0,050	0,083
-175,212	-113,668	-0,065	-0,009
-174,198	513,389	-0,026	-0,044
-173,183	800,000	-0,026	0,074
-172,169	348,059	-0,014	-0,020
-171,154	109,194	-0,077	0,067
-170,139	12,018	0,098	-0,054
-169,125	800,000	-0,042	0,111
-168,110	81,905	-0,081	-0,063
-167,096	293,699	0,029	-0,038
-166,081	-200,000	0,016	0,068
-165,066	-1,751	-0,113	-0,057
-164,052	13,744	-0,087	0,049
-163,037	-200,000	0,016	-0,134
-162,023	167,091	0,041	-0,043
-161,008	800,000	-0,030	-0,084
-159,993	179,539	0,044	0,046
-158,979	-200,000	-0,030	-0,152
-157,964	271,170	0,057	-0,073
-156,950	83,093	-0,078	-0,062
-155,935	35,385	0,012	0,007
-154,920	762,931	-0,027	0,054
-153,906	134,998	-0,092	0,087
-152,891	800,000	-0,024	0,071
-151,877	354,372	-0,041	-0,060
-150,862	-200,000	0,016	-0,123
-149,847	-200,000	-0,022	0,074
-148,833	-200,000	0,005	0,230
-147,818	4,251	-0,182	0,097
-146,804	-74,185	0,081	-0,021
-145,789	632,647	0,046	0,086
-144,775	-200,000	0,017	-0,085
-143,760	-51,436	-0,052	-0,018
-142,745	137,199	-0,093	-0,088
-141,731	270,506	-0,048	0,061
-140,716	66,663	-0,098	0,072
-139,702	299,290	0,089	0,120
-138,687	-199,082	-0,063	-0,000
-137,672	-104,365	0,014	-0,002
-136,658	800,000	-0,024	-0,056
-135,643	800,000	0,041	0,098
-134,629	-200,000	-0,015	-0,070
-133,614	524,004	0,052	-0,089
-132,599	49,315	-0,045	0,031
-131,585	392,620	0,066	0,100
-130,570	217,783	-0,043	0,049
-129,556	-149,369	0,120	0,007
-128,541	-22,276	-0,091	0,040
-127,526	-139,965	0,029	-0,002
-126,512	800,000	0,045	0,121
-125,497	116,327	-0,079	0,071
-124,483	800,000	0,009	-0,019
-123,468	-69,336	0,046	0,013
-122,453	-200,000	0,014	0,053
-121,439	73,571	0,012	-0,009
-120,424	800,000	-0,053	-0,153
