DTS Sentinel unit serial number:	SN410029Multiplexer serial number:	ORYXHardware model number:	OX2-SRSoftware version number:	ORYX F/W v4,00 Oryx Data Collector v3.7.2.0data status	okinstallation	B6 Nyhavnadifferential loss correction	single-endedforward channel	channel 2reverse channel	N/Adate	2023/12/09time	07:35:08forward acquisition time	300,00reverse acquisition time	0,00gamma	499,1914k internal	0,3139k external	0,3139temperature offset calibration	1,0000default loss term (dB/km)	0,3820temperature slope calibration	1,0000multiplexer offset coefficient	1,0000multiplexer slope coefficient	1,0000fibre end	0,00T internal ref (°C)	18,56T ext. ref 1 (°C)	1,96T ext. ref 2 (°C)	1,95length (m)	temperature (°C)	Stokes	anti-Stokes-744,400	155,247	0,104	0,106
-743,385	134,509	-0,179	0,172
-742,371	37,549	0,118	0,077
-741,356	134,523	-0,213	0,205
-740,342	172,716	-0,027	-0,029
-739,327	-42,033	-0,273	-0,103
-738,312	-55,779	0,008	-0,003
-737,298	-150,980	-0,344	0,019
-736,283	179,671	0,033	0,036
-735,269	28,681	-0,226	0,141
-734,254	800,000	-0,014	-0,030
-733,239	23,535	-0,389	-0,237
-732,225	126,698	0,131	0,123
-731,210	-77,324	-0,145	0,037
-730,196	800,000	0,058	-0,155
-729,181	-200,000	0,032	0,112
-728,167	159,344	-0,097	0,100
-727,152	152,260	0,044	-0,045
-726,137	-200,000	-0,022	-0,110
-725,123	237,827	0,045	0,055
-724,108	-90,240	-0,080	-0,017
-723,094	-171,623	-0,081	-0,002
-722,079	-17,979	-0,006	-0,003
-721,064	-63,686	-0,026	0,008
-720,050	41,666	0,053	-0,035
-719,035	263,881	0,053	0,069
-718,021	-200,000	-0,025	0,155
-717,006	-94,043	-0,048	-0,010
-715,991	329,679	-0,059	-0,085
-714,977	335,131	0,026	-0,037
-713,962	44,761	0,038	0,026
-712,948	-200,000	0,093	0,000
-711,933	42,192	0,015	-0,010
-710,918	104,927	-0,059	-0,052
-709,904	800,000	0,012	0,031
-708,889	800,000	-0,047	-0,096
-707,875	-74,039	-0,158	-0,042
-706,860	48,910	0,060	-0,042
-705,845	-136,789	0,083	-0,007
-704,831	-200,000	-0,028	-0,126
-703,816	-131,966	-0,071	0,007
-702,802	-112,267	-0,146	-0,021
-701,787	709,851	0,019	-0,038
-700,772	-146,593	-0,044	-0,003
-699,758	-200,000	0,003	-0,063
-698,743	19,373	-0,032	0,019
-697,729	800,000	0,049	0,147
-696,714	-22,309	0,110	-0,049
-695,699	125,148	-0,150	-0,140
-694,685	-200,000	-0,007	-0,038
-693,670	114,004	-0,101	-0,091
-692,656	571,029	0,043	-0,079
-691,641	-113,102	0,068	0,010
-690,627	272,032	0,025	-0,033
-689,612	303,658	-0,035	-0,048
-688,597	-63,078	0,077	0,023
-687,583	-200,000	0,017	0,146
-686,568	-200,000	-0,011	-0,058
-685,554	-150,063	-0,106	0,006
-684,539	437,501	0,053	0,086
-683,524	81,827	0,054	0,043
-682,510	198,163	-0,033	0,038
-681,495	-73,811	0,088	0,023
-680,481	71,755	-0,069	0,053
-679,466	800,000	0,037	-0,079
-678,451	-184,228	0,055	0,001
-677,437	122,654	-0,025	-0,023
-676,422	-28,128	-0,033	0,014
-675,408	-128,866	0,040	0,004
-674,393	279,690	0,110	-0,146
-673,378	-114,871	-0,058	-0,008
-672,364	-72,663	-0,181	-0,049
-671,349	-74,802	-0,077	-0,020
-670,335	227,497	-0,056	-0,068
-669,320	800,000	-0,066	0,166
-668,305	800,000	-0,081	0,168
-667,291	-200,000	0,004	-0,076
-666,276	110,238	-0,097	-0,086
-665,262	-200,000	-0,035	-0,150
-664,247	77,691	0,021	-0,017
-663,232	-150,579	-0,083	0,005
-662,218	-50,701	0,028	-0,010
-661,203	-200,000	-0,017	-0,073
-660,189	800,000	-0,027	0,062
-659,174	304,394	-0,049	-0,068
-658,159	14,105	-0,173	-0,099
-657,145	58,407	-0,022	-0,016
-656,130	-23,449	0,077	-0,034
-655,116	-200,000	0,025	0,174
-654,101	-46,732	-0,120	-0,043
-653,086	721,792	0,038	0,076
-652,072	-44,714	-0,069	-0,025
-651,057	544,425	0,098	-0,174
-650,043	664,533	0,086	-0,165
-649,028	-200,000	-0,027	-0,108
-648,014	-92,697	-0,060	0,012
-646,999	294,916	-0,021	-0,028
-645,984	798,104	-0,048	0,097
-644,970	246,372	-0,046	0,057
-643,955	-46,830	0,096	-0,035
-642,941	-51,760	-0,152	-0,052
-641,926	304,559	0,051	-0,070
-640,911	-32,723	0,040	-0,017
-639,897	64,202	0,044	-0,033
-638,882	-4,126	-0,244	0,125
-637,868	7,491	-0,105	-0,058
-636,853	292,571	-0,041	-0,056
-635,838	800,000	-0,032	-0,072
-634,824	91,698	0,117	-0,097
-633,809	133,586	0,124	0,118
-632,795	194,613	-0,071	0,079
-631,780	601,810	-0,035	0,065
-630,765	-200,000	0,009	-0,124
-629,751	334,556	-0,064	0,092
-628,736	-82,208	-0,034	-0,008
-627,722	33,605	0,065	-0,041
-626,707	800,000	0,011	0,030
-625,692	-34,717	-0,040	0,016
-624,678	46,582	0,062	-0,042
-623,663	36,554	0,060	-0,039
-622,649	-58,951	-0,027	0,008
-621,634	-101,947	0,012	0,002
-620,619	301,682	0,036	-0,049
-619,605	-65,053	-0,066	-0,020
-618,590	800,000	-0,009	-0,029
-617,576	244,031	0,077	0,096
-616,561	117,707	-0,078	0,071
-615,546	-160,074	0,003	0,000
-614,532	-200,000	-0,027	-0,127
-613,517	79,300	-0,079	-0,063
-612,503	-200,000	-0,008	0,030
-611,488	405,797	0,040	0,062
-610,474	273,443	0,082	-0,108
-609,459	-200,000	0,027	0,106
-608,444	-7,342	-0,087	-0,043
-607,430	428,921	0,069	-0,110
-606,415	206,990	-0,131	-0,151
-605,401	-200,000	0,007	-0,058
-604,386	24,481	-0,050	0,030
-603,371	-200,000	-0,048	0,158
-602,357	-120,259	-0,150	-0,019
-601,342	-200,000	0,000	-0,093
-600,328	139,415	0,077	-0,075
-599,313	314,381	0,007	-0,010
-598,298	-144,355	-0,074	0,005
-597,284	-200,000	0,012	0,148
-596,269	-200,000	0,015	0,075
-595,255	9,676	-0,121	-0,067
-594,240	4,341	0,053	-0,028
-593,225	62,289	-0,146	-0,108
-592,211	631,893	-0,047	-0,088
-591,196	-51,625	-0,059	0,020
-590,182	637,014	-0,019	-0,035
-589,167	-137,566	-0,190	0,016
-588,152	120,611	0,034	-0,031
-587,138	800,000	0,018	0,044
-586,123	-63,635	0,046	-0,014
-585,109	60,712	-0,080	0,058
-584,094	-105,875	-0,013	-0,002
-583,079	223,049	-0,068	0,081
-582,065	103,542	-0,051	-0,044
-581,050	-200,000	-0,005	0,061
-580,036	197,252	0,061	-0,069
-579,021	-200,000	0,008	-0,052
-578,006	-121,669	-0,153	0,018
-576,992	348,436	-0,019	-0,027
-575,977	-200,000	-0,035	0,117
-574,963	-109,156	0,143	-0,022
-573,948	103,658	-0,120	0,104
-572,934	-138,200	-0,182	-0,015
-571,919	-9,959	0,033	-0,016
-570,904	-71,390	0,074	0,020
-569,890	-172,734	-0,083	-0,002
-568,875	7,741	0,127	-0,070
-567,861	-2,452	-0,089	-0,046
-566,846	800,000	-0,033	0,086
-565,831	127,423	0,101	-0,095
-564,817	226,717	0,050	-0,059
-563,802	232,313	-0,041	-0,050
-562,788	179,472	-0,068	-0,073
-561,773	426,117	-0,041	-0,066
-560,758	128,036	0,051	-0,048
-559,744	25,663	-0,013	0,008
-558,729	-159,913	0,139	0,006
-557,715	800,000	-0,034	0,100
-556,700	176,748	-0,102	0,109
-555,685	174,207	-0,059	-0,063
-554,671	800,000	0,051	-0,115
-553,656	768,202	0,053	-0,107
-552,642	-59,992	0,068	0,021
-551,627	-200,000	-0,047	0,180
-550,612	730,508	-0,029	0,057
-549,598	126,097	-0,029	-0,027
-548,583	-50,369	-0,160	0,055
-547,569	521,229	0,100	-0,174
-546,554	-25,804	0,080	0,034
-545,539	-200,000	-0,030	0,110
-544,525	-200,000	-0,029	-0,109
-543,510	56,136	-0,074	0,053
-542,496	119,689	0,016	-0,014
-541,481	626,666	-0,024	0,044
-540,466	42,558	0,123	-0,082
-539,452	800,000	-0,060	0,148
-538,437	-90,377	0,090	0,019
-537,423	800,000	-0,046	0,110
-536,408	58,613	0,030	-0,022
-535,393	103,858	-0,104	0,090
-534,379	51,622	-0,055	-0,038
-533,364	-104,820	-0,114	-0,019
-532,350	-62,529	-0,068	0,021
-531,335	-90,180	-0,043	0,009
-530,321	-200,000	0,013	0,060
-529,306	93,695	0,033	0,028
-528,291	-170,922	0,118	-0,003
-527,277	-75,313	-0,023	-0,006
-526,262	35,579	-0,019	-0,012
-525,248	31,515	-0,055	-0,035
-524,233	-62,071	0,139	0,043
-523,218	-200,000	-0,014	0,070
-522,204	800,000	-0,045	0,111
-521,189	-200,000	-0,002	-0,015
-520,175	-190,789	-0,013	0,000
-519,160	-41,663	-0,093	0,035
-518,145	37,132	-0,115	-0,075
-517,131	50,815	-0,056	-0,039
-516,116	43,687	0,037	-0,025
-515,102	377,537	-0,076	-0,115
-514,087	312,702	0,034	0,047
-513,072	563,256	-0,027	0,048
-512,058	559,389	0,073	-0,129
-511,043	-22,099	0,098	0,043
-510,029	-134,028	0,132	-0,012
-509,014	120,586	0,060	0,055
-507,999	-200,000	0,020	0,081
-506,985	223,531	0,093	-0,111
-505,970	-155,250	-0,080	-0,004
-504,956	-200,000	0,013	-0,158
-503,941	-200,000	0,031	-0,128
-502,926	-81,777	0,148	0,035
-501,912	-63,887	-0,073	-0,022
-500,897	-20,934	0,101	0,045
-499,883	19,641	-0,100	-0,059
-498,868	-28,184	-0,163	-0,069
-497,853	-200,000	0,017	0,092
-496,839	327,098	0,037	-0,052
-495,824	-106,159	0,023	-0,004
-494,810	800,000	-0,024	0,051
-493,795	309,382	-0,039	-0,054
-492,781	800,000	-0,048	0,105
-491,766	477,979	-0,082	-0,138
-490,751	-23,088	-0,088	-0,039
-489,737	-200,000	-0,012	0,157
-488,722	-132,519	0,058	-0,005
-487,708	800,000	0,049	-0,152
-486,693	-78,200	-0,040	-0,010
-485,678	-73,419	0,079	0,021
-484,664	-200,000	0,027	-0,124
-483,649	-141,389	0,050	0,004
-482,635	232,735	-0,052	0,063
-481,620	81,958	0,062	-0,049
-480,605	-62,569	0,091	-0,027
-479,591	-154,342	0,069	-0,003
-478,576	-66,559	0,048	0,014
-477,562	568,750	-0,025	-0,044
-476,547	272,659	-0,045	-0,058
-475,532	152,155	-0,049	0,049
-474,518	800,000	0,057	0,121
-473,503	514,126	-0,027	0,046
-472,489	-159,957	0,061	-0,002
-471,474	172,441	0,040	-0,042
-470,459	800,000	-0,043	-0,126
-469,445	-200,000	-0,006	-0,054
-468,430	-158,667	0,142	0,006
-467,416	261,861	-0,126	0,160
-466,401	-200,000	0,028	0,107
-465,386	-200,000	0,014	0,173
-464,372	-200,000	-0,025	0,086
-463,357	-34,795	-0,076	-0,030
-462,343	90,588	-0,108	-0,088
-461,328	-200,000	0,019	0,073
-460,313	95,439	-0,073	-0,061
-459,299	304,431	0,071	0,097
-458,284	-142,124	0,103	0,007
-457,270	-44,013	0,082	0,030
-456,255	414,608	0,050	-0,078
-455,241	7,684	0,074	0,041
-454,226	-18,961	0,142	-0,065
-453,211	-14,244	0,040	0,019
-452,197	395,190	0,088	0,136
-451,182	204,344	0,092	0,105
-450,168	84,391	0,161	0,129
-449,153	121,862	0,028	-0,025
-448,138	186,555	-0,090	-0,098
-447,124	-24,031	-0,029	-0,013
-446,109	-173,662	0,038	0,001
-445,095	318,056	0,016	0,022
-444,080	800,000	0,045	0,123
-443,065	-145,990	0,083	-0,005
-442,051	196,791	0,059	0,066
-441,036	-34,155	0,074	0,030
-440,022	-200,000	-0,004	-0,174
-439,007	800,000	0,028	-0,060
-437,992	286,540	0,067	-0,089
-436,978	-200,000	-0,004	0,035
-435,963	127,995	0,058	-0,054
-434,949	141,578	0,044	-0,043
-433,934	349,518	0,017	-0,025
-432,919	642,533	-0,048	0,090
-431,905	-31,558	-0,069	0,028
-430,890	-29,296	0,088	0,037
-429,876	117,617	-0,072	0,065
-428,861	-35,517	0,053	0,021
-427,846	2,864	0,188	0,100
-426,832	233,287	-0,093	-0,112
-425,817	-200,000	-0,016	-0,145
-424,803	-136,394	-0,013	0,001
-423,788	-150,924	0,150	0,008
-422,773	-200,000	0,002	-0,014
-421,759	277,271	0,085	-0,111
-420,744	-200,000	0,013	0,120
-419,730	-48,095	-0,039	-0,014
-418,715	147,033	0,073	0,072
-417,701	131,996	-0,086	0,081
-416,686	-200,000	0,001	0,101
-415,671	162,792	0,129	0,133
-414,657	-200,000	-0,024	0,100
-413,642	464,537	-0,034	0,055
-412,628	96,948	0,058	0,048
-411,613	-200,000	0,031	0,124
-410,598	-200,000	-0,003	-0,132
-409,584	800,000	0,070	-0,156
-408,569	129,629	0,089	-0,084
-407,555	16,103	0,158	0,091
-406,540	113,013	0,102	-0,091
-405,525	-200,000	-0,011	-0,088
-404,511	109,193	-0,035	-0,031
-403,496	-161,176	-0,102	-0,004
-402,482	234,327	-0,128	-0,154
-401,467	-200,000	0,000	0,101
-400,452	800,000	-0,020	0,053
-399,438	-157,902	-0,016	-0,001
-398,423	-200,000	-0,055	-0,187
-397,409	-161,568	0,025	0,001
-396,394	800,000	0,051	-0,103
-395,379	118,172	0,078	-0,070
-394,365	800,000	0,031	0,075
-393,350	202,988	0,039	-0,044
-392,336	-181,912	-0,144	0,002
-391,321	-200,000	-0,051	-0,167
-390,306	-73,493	-0,099	-0,026
-389,292	752,214	-0,031	0,061
-388,277	213,726	0,034	-0,040
-387,263	-84,079	-0,144	0,033
-386,248	-200,000	-0,017	0,096
-385,233	203,759	0,049	-0,055
-384,219	800,000	0,005	-0,013
-383,204	-28,382	-0,038	0,016
-382,190	38,075	0,147	-0,096
-381,175	-17,732	-0,080	-0,037
-380,160	-60,204	0,253	-0,078
-379,146	56,247	-0,068	-0,048
-378,131	-200,000	-0,030	0,097
-377,117	800,000	0,034	-0,110
-376,102	-200,000	0,019	-0,125
-375,088	-171,711	0,185	-0,004
-374,073	130,408	-0,057	0,053
-373,058	-125,239	0,025	-0,003
-372,044	-200,000	-0,001	-0,015
-371,029	0,289	0,078	-0,040
-370,015	785,221	0,081	0,164
-369,000	-113,188	-0,063	0,009
-367,985	-200,000	0,016	-0,126
-366,971	55,952	-0,073	-0,052
-365,956	17,857	0,053	0,031
-364,942	-200,000	0,030	0,116
-363,927	-200,000	0,022	-0,183
-362,912	-200,000	0,009	0,118
-361,898	-115,700	0,040	0,005
-360,883	-200,000	-0,035	-0,118
-359,869	46,267	-0,127	0,086
-358,854	-77,636	0,057	0,014
-357,839	800,000	-0,019	-0,042
-356,825	603,192	-0,046	0,085
-355,810	244,560	-0,065	0,080
-354,796	-30,986	0,049	-0,020
-353,781	-200,000	-0,052	-0,207
-352,766	-105,661	0,071	-0,012
-351,752	205,432	0,058	0,066
-350,737	504,266	-0,042	0,071
-349,723	18,274	-0,032	-0,018
-348,708	-200,000	0,010	0,052
-347,693	-200,000	0,004	0,014
-346,679	55,510	-0,037	-0,026
-345,664	179,105	-0,034	-0,036
-344,650	800,000	-0,033	0,092
-343,635	-200,000	0,030	-0,101
-342,620	-72,780	-0,012	-0,003
-341,606	-200,000	0,004	-0,065
-340,591	-177,929	-0,123	-0,002
-339,577	27,153	-0,045	0,028
-338,562	365,343	-0,021	-0,032
-337,548	-81,284	-0,146	-0,035
-336,533	-124,008	-0,075	0,008
-335,518	800,000	0,052	0,113
-334,504	606,873	0,055	-0,100
-333,489	-112,618	0,047	0,007
-332,475	-77,120	-0,040	-0,010
-331,460	615,427	-0,013	0,023
-330,445	-200,000	0,014	0,092
-329,431	800,000	0,009	-0,025
-328,416	206,312	-0,039	0,044
-327,402	691,229	-0,046	0,089
-326,387	-200,000	-0,018	0,087
-325,372	-102,869	-0,089	-0,015
-324,358	-200,000	-0,011	-0,067
-323,343	-200,000	-0,026	-0,130
-322,329	-200,000	-0,007	0,110
-321,314	115,319	-0,025	0,022
-320,299	127,610	-0,098	0,091
-319,285	-158,513	-0,045	0,002
-318,270	-6,049	0,022	-0,011
-317,256	-200,000	0,009	0,029
-316,241	123,298	-0,089	0,081
-315,226	102,077	-0,039	-0,034
-314,212	495,191	0,061	0,102
-313,197	-200,000	0,008	0,133
-312,183	-111,589	-0,079	-0,012
-311,168	-46,687	-0,104	0,037
-310,153	8,988	-0,087	-0,048
-309,139	-154,951	-0,128	-0,006
-308,124	199,975	0,050	0,056
-307,110	800,000	0,039	0,088
-306,095	-200,000	0,003	0,019
-305,080	-200,000	-0,006	0,053
-304,066	186,459	-0,062	-0,067
-303,051	337,569	0,028	0,039
-302,037	779,781	-0,017	-0,034
-301,022	8,642	0,108	-0,059
-300,008	162,429	0,133	0,136
-298,993	800,000	-0,044	-0,121
-297,978	296,558	-0,049	0,066
-296,964	116,396	0,092	0,082
-295,949	800,000	-0,007	-0,014
-294,935	66,138	-0,007	0,006
-293,920	-200,000	-0,005	0,209
-292,905	78,686	-0,027	-0,021
-291,891	34,727	-0,116	-0,074
-290,876	-124,712	-0,075	-0,008
-289,862	46,859	0,033	0,022
-288,847	-200,000	0,004	-0,037
-287,832	0,126	0,042	-0,022
-286,818	378,067	-0,127	-0,190
-285,803	-64,480	0,077	-0,023
-284,789	800,000	-0,032	0,087
-283,774	-112,475	-0,105	0,015
-282,759	800,000	0,008	-0,018
-281,745	-200,000	-0,041	-0,211
-280,730	-21,337	-0,171	0,076
-279,716	-35,096	0,057	-0,022
-278,701	247,670	-0,052	-0,064
-277,686	800,000	0,022	0,058
-276,672	12,751	0,156	-0,087
-275,657	-200,000	0,032	-0,125
-274,643	46,696	-0,090	-0,061
-273,628	-194,489	-0,104	-0,001
-272,613	481,646	-0,010	-0,017
-271,599	5,282	-0,044	-0,024
-270,584	-200,000	0,001	0,033
-269,570	-200,000	-0,006	0,070
-268,555	-4,567	0,094	-0,047
-267,540	198,422	0,086	-0,096
-266,526	152,915	0,080	-0,079
-265,511	-54,534	-0,045	0,015
-264,497	176,312	0,063	0,067
-263,482	40,927	0,074	0,049
-262,467	26,221	-0,043	0,026
-261,453	-76,159	0,041	-0,011
-260,438	201,803	-0,064	0,072
-259,424	-93,182	0,067	0,013
-258,409	800,000	-0,025	0,071
-257,395	727,767	0,022	-0,042
-256,380	-45,741	0,139	0,050
-255,365	161,013	-0,040	-0,041
-254,351	-13,429	0,075	0,035
-253,336	800,000	0,021	0,045
-252,322	-47,177	0,047	0,017
-251,307	-42,039	0,081	-0,030
-250,292	-200,000	-0,005	-0,069
-249,278	-138,339	0,061	0,005
-248,263	-176,045	-0,029	0,001
-247,249	144,205	-0,032	-0,031
-246,234	577,941	-0,050	0,089
-245,219	109,834	0,059	0,051
-244,205	688,220	0,089	0,170
-243,190	-96,428	0,046	-0,009
-242,176	-38,040	0,125	0,048
-241,161	-84,379	-0,092	0,021
-240,146	-24,244	-0,052	0,023
-239,132	15,110	0,114	-0,065
-238,117	144,879	-0,111	0,108
-237,103	-29,037	0,068	-0,028
-236,088	800,000	0,027	0,073
-235,073	-200,000	-0,003	0,058
-234,059	243,499	-0,034	0,041
-233,044	-96,855	-0,113	0,021
-232,030	-61,341	0,102	-0,031
-231,015	-200,000	-0,010	0,041
-230,000	37,860	-0,054	-0,035
-228,986	153,416	0,145	0,144
-227,971	-90,688	-0,060	-0,012
-226,957	158,828	-0,109	0,110
-225,942	23,639	0,057	-0,034
-224,927	-118,362	0,082	0,010
-223,913	800,000	0,070	-0,146
-222,898	-66,978	-0,143	0,041
-221,884	570,810	-0,011	0,019
-220,869	800,000	0,015	0,036
-219,855	204,021	0,048	-0,055
-218,840	-200,000	-0,000	-0,025
-217,825	171,735	-0,126	0,131
-216,811	-140,419	0,114	0,008
-215,796	-200,000	-0,025	-0,104
-214,782	101,165	-0,109	0,092
-213,767	-141,306	0,086	-0,006
-212,752	-200,000	0,003	-0,103
-211,738	4,653	-0,056	0,030
-210,723	585,183	0,088	0,158
-209,709	-50,184	-0,057	-0,020
-208,694	800,000	-0,032	-0,072
-207,679	-76,479	-0,060	-0,015
-206,665	800,000	0,026	-0,062
-205,650	-200,000	0,031	0,111
-204,636	-81,257	0,072	-0,017
-203,621	-200,000	0,016	0,053
-202,606	-200,000	0,005	-0,033
-201,592	157,198	-0,079	-0,079
-200,577	544,270	-0,006	0,011
-199,563	257,681	-0,042	-0,052
-198,548	-93,872	0,097	-0,019
-197,533	111,273	0,028	0,025
-196,519	524,830	-0,026	0,045
-195,504	397,786	-0,051	0,077
-194,490	159,084	0,071	0,071
-193,475	-107,688	0,082	-0,013
-192,460	-21,945	0,110	-0,048
-191,446	37,343	0,089	-0,057
-190,431	15,633	0,038	0,022
-189,417	75,809	-0,083	0,064
-188,402	-140,945	0,145	-0,011
-187,387	-160,245	-0,025	-0,001
-186,373	74,309	-0,083	-0,063
-185,358	-200,000	0,012	-0,078
-184,344	-63,760	0,128	-0,038
-183,329	800,000	0,028	-0,058
-182,315	21,535	-0,096	-0,057
-181,300	601,081	-0,055	0,099
-180,285	214,070	-0,010	-0,011
-179,271	-200,000	-0,064	-0,274
-178,256	100,496	0,017	0,014
-177,242	11,225	-0,099	0,055
-176,227	-200,000	-0,026	0,142
-175,212	-104,783	-0,043	0,007
-174,198	-185,260	0,035	0,000
-173,183	-200,000	0,013	-0,131
-172,169	-200,000	-0,006	0,073
-171,154	88,171	0,065	-0,052
-170,139	-200,000	0,010	-0,057
-169,125	64,909	-0,052	0,038
-168,110	-12,683	-0,034	-0,016
-167,096	488,766	-0,048	-0,080
-166,081	146,936	0,109	0,106
-165,066	-196,148	-0,223	0,001
-164,052	800,000	-0,037	-0,089
-163,037	473,406	0,078	0,128
-162,023	27,339	0,027	-0,016
-161,008	92,922	0,033	0,027
-159,993	126,794	0,073	-0,067
-158,979	745,320	0,085	-0,166
-157,964	195,062	-0,060	0,066
-156,950	-191,272	-0,046	0,000
-155,935	-37,005	0,141	-0,054
-154,920	84,841	0,142	0,112
-153,906	800,000	0,050	0,101
-152,891	-200,000	0,015	0,106
-151,877	19,091	0,058	-0,034
-150,862	-100,270	-0,179	-0,032
-149,847	31,506	0,111	-0,069
-148,833	14,723	-0,078	0,044
-147,818	211,131	0,035	0,040
-146,804	-35,226	0,041	0,016
-145,789	-23,033	0,121	-0,053
-144,775	98,409	-0,034	-0,028
-143,760	-191,145	0,110	-0,001
-142,745	800,000	0,070	-0,150
-141,731	800,000	-0,049	-0,100
-140,716	15,714	-0,090	-0,051
-139,702	64,714	0,029	0,021
-138,687	95,178	0,169	0,140
-137,672	-22,238	-0,058	-0,025
-136,658	150,114	-0,047	-0,046
-135,643	-29,404	-0,140	0,058
-134,629	86,778	0,060	0,048
-133,614	-59,423	0,036	0,011
-132,599	70,032	-0,126	-0,094
-131,585	-200,000	-0,002	0,030
-130,570	42,052	0,051	-0,034
-129,556	619,442	0,045	-0,082
-128,541	167,794	-0,035	0,036
-127,526	-163,267	0,097	0,003
-126,512	-27,051	0,042	0,018
-125,497	-3,048	-0,104	-0,053
-124,483	800,000	0,035	-0,075
-123,468	800,000	-0,026	-0,067
-122,453	800,000	-0,025	0,076
-121,439	129,425	0,038	-0,035
-120,424	-138,747	-0,128	0,010
-119,410	442,511	0,037	0,059
