DTS Sentinel unit serial number:	SN410029Multiplexer serial number:	ORYXHardware model number:	OX2-SRSoftware version number:	ORYX F/W v4,00 Oryx Data Collector v3.7.2.0data status	okinstallation	B6 Nyhavnadifferential loss correction	single-endedforward channel	channel 2reverse channel	N/Adate	2023/12/10time	05:55:08forward acquisition time	300,00reverse acquisition time	0,00gamma	499,1914k internal	0,3124k external	0,3124temperature offset calibration	1,0000default loss term (dB/km)	0,3820temperature slope calibration	1,0000multiplexer offset coefficient	1,0000multiplexer slope coefficient	1,0000fibre end	0,00T internal ref (°C)	22,52T ext. ref 1 (°C)	6,47T ext. ref 2 (°C)	6,45length (m)	temperature (°C)	Stokes	anti-Stokes-744,400	-36,103	0,108	0,043
-743,385	25,423	-0,225	0,139
-742,371	-131,054	0,155	-0,015
-741,356	-13,169	-0,224	0,108
-740,342	95,599	0,066	0,056
-739,327	-110,850	-0,150	-0,023
-738,312	-29,847	0,087	0,037
-737,298	-22,761	-0,243	0,109
-736,283	-200,000	-0,008	-0,030
-735,269	221,814	-0,192	0,231
-734,254	16,316	-0,136	0,080
-733,239	-107,310	-0,355	-0,058
-732,225	-71,983	0,161	0,044
-731,210	800,000	-0,027	-0,061
-730,196	-155,310	0,030	0,001
-729,181	-102,569	-0,070	0,012
-728,167	124,622	-0,038	-0,036
-727,152	680,659	0,094	0,183
-726,137	-110,942	-0,091	-0,014
-725,123	-198,289	-0,196	-0,001
-724,108	258,193	-0,182	-0,234
-723,094	246,241	-0,156	0,196
-722,079	-200,000	0,007	-0,176
-721,064	126,727	0,105	-0,099
-720,050	-64,566	0,097	0,029
-719,035	800,000	0,078	0,179
-718,021	331,419	-0,111	-0,160
-717,006	32,639	-0,125	-0,080
-715,991	-76,275	-0,120	-0,031
-714,977	25,149	-0,015	0,009
-713,962	-82,304	-0,134	-0,032
-712,948	-200,000	-0,024	-0,096
-711,933	441,197	-0,069	-0,114
-710,918	-200,000	-0,001	0,007
-709,904	800,000	-0,059	-0,140
-708,889	-130,972	0,008	0,001
-707,875	-200,000	0,008	0,026
-706,860	30,189	-0,011	-0,007
-705,845	774,485	-0,014	-0,029
-704,831	-45,995	-0,110	0,040
-703,816	219,811	0,084	0,100
-702,802	-200,000	0,000	-0,071
-701,787	-4,359	-0,116	-0,060
-700,772	-43,844	-0,146	-0,054
-699,758	-200,000	-0,023	-0,136
-698,743	-163,301	0,147	0,005
-697,729	428,338	-0,044	-0,072
-696,714	166,839	0,005	0,006
-695,699	103,073	0,027	-0,023
-694,685	-147,738	0,092	0,006
-693,670	237,514	-0,083	-0,103
-692,656	-77,422	0,081	0,021
-691,641	-200,000	-0,037	0,138
-690,627	11,041	-0,042	0,024
-689,612	800,000	-0,004	0,009
-688,597	-200,000	0,024	-0,083
-687,583	-200,000	-0,058	-0,216
-686,568	-69,813	-0,112	-0,031
-685,554	-58,524	0,061	0,020
-684,539	246,836	0,084	-0,106
-683,524	-200,000	0,007	0,107
-682,510	-39,815	0,036	-0,014
-681,495	-60,676	0,024	0,007
-680,481	33,357	-0,105	-0,067
-679,466	-166,382	-0,128	0,004
-678,451	-200,000	-0,016	-0,215
-677,437	-50,723	0,098	-0,034
-676,422	-67,076	-0,112	-0,033
-675,408	-52,155	-0,122	-0,042
-674,393	-126,234	-0,072	-0,008
-673,378	-200,000	0,011	-0,073
-672,364	251,457	-0,049	0,063
-671,349	800,000	0,031	-0,071
-670,335	-200,000	0,019	-0,125
-669,320	800,000	0,058	0,144
-668,305	-200,000	0,006	-0,058
-667,291	800,000	-0,038	-0,100
-666,276	398,583	-0,114	-0,178
-665,262	800,000	0,011	0,027
-664,247	-23,913	-0,090	0,040
-663,232	646,425	0,075	-0,142
-662,218	51,060	0,057	-0,040
-661,203	295,551	0,095	0,130
-660,189	800,000	0,067	0,183
-659,174	-96,284	0,108	-0,021
-658,159	-50,433	-0,095	-0,033
-657,145	-45,020	-0,145	-0,053
-656,130	362,323	0,052	-0,078
-655,116	-200,000	-0,002	0,090
-654,101	-200,000	-0,044	0,154
-653,086	-200,000	-0,010	0,144
-652,072	360,222	-0,053	0,079
-651,057	502,240	-0,043	-0,073
-650,043	800,000	-0,031	-0,077
-649,028	242,429	-0,032	0,039
-648,014	-92,071	0,146	-0,030
-646,999	437,583	-0,009	0,015
-645,984	406,304	0,044	0,069
-644,970	800,000	0,032	0,068
-643,955	-42,654	-0,011	-0,004
-642,941	-200,000	-0,030	-0,108
-641,926	-200,000	0,005	-0,117
-640,911	144,041	0,076	-0,075
-639,897	619,746	-0,083	0,156
-638,882	404,726	0,044	0,069
-637,868	298,562	-0,096	-0,131
-636,853	-200,000	-0,007	-0,056
-635,838	58,741	0,054	-0,039
-634,824	800,000	-0,033	0,074
-633,809	-40,136	-0,026	-0,010
-632,795	5,762	-0,123	0,067
-631,780	800,000	0,051	0,141
-630,765	-114,202	0,108	0,015
-629,751	800,000	0,021	-0,062
-628,736	-104,185	0,057	0,010
-627,722	-157,148	0,018	0,001
-626,707	-112,418	-0,155	0,023
-625,692	277,541	-0,009	-0,012
-624,678	179,424	0,073	0,080
-623,663	-109,557	-0,255	-0,039
-622,649	-39,407	0,030	0,012
-621,634	138,864	0,035	-0,034
-620,619	768,881	-0,054	0,109
-619,605	83,307	-0,093	0,075
-618,590	99,899	0,136	0,116
-617,576	40,021	-0,074	0,049
-616,561	-200,000	-0,010	-0,037
-615,546	73,799	-0,073	-0,057
-614,532	-200,000	0,011	-0,066
-613,517	280,144	-0,065	-0,086
-612,503	139,461	-0,041	-0,040
-611,488	800,000	0,014	-0,029
-610,474	-200,000	0,006	-0,160
-609,459	-27,644	-0,138	-0,059
-608,444	158,681	-0,093	-0,096
-607,430	800,000	-0,029	-0,083
-606,415	800,000	-0,054	-0,116
-605,401	-200,000	-0,001	0,044
-604,386	-200,000	0,012	-0,054
-603,371	-78,505	0,098	-0,025
-602,357	800,000	-0,020	0,048
-601,342	-106,253	0,072	0,012
-600,328	39,068	-0,056	-0,037
-599,313	-167,482	0,054	0,002
-598,298	31,904	-0,069	0,044
-597,284	-200,000	-0,013	0,111
-596,269	247,200	-0,063	0,079
-595,255	-200,000	0,003	0,127
-594,240	189,346	0,055	0,061
-593,225	-63,266	-0,180	-0,055
-592,211	-200,000	-0,011	-0,117
-591,196	800,000	0,036	0,098
-590,182	13,443	-0,093	0,053
-589,167	236,604	0,152	0,187
-588,152	266,140	-0,052	0,067
-587,138	123,943	0,044	-0,041
-586,123	-200,000	-0,018	-0,065
-585,109	-91,252	-0,179	0,038
-584,094	-163,368	-0,154	0,005
-583,079	-15,513	0,074	-0,035
-582,065	112,705	0,048	-0,043
-581,050	34,265	0,048	-0,031
-580,036	24,619	-0,087	-0,053
-579,021	800,000	0,028	-0,066
-578,006	300,354	-0,070	-0,096
-576,992	-200,000	-0,030	-0,142
-575,977	159,495	-0,028	-0,029
-574,963	800,000	-0,016	-0,036
-573,948	554,664	0,044	0,079
-572,934	64,540	-0,129	0,096
-571,919	-200,000	-0,016	-0,083
-570,904	800,000	-0,022	-0,063
-569,890	-125,696	0,065	-0,007
-568,875	37,024	0,079	-0,052
-567,861	362,687	-0,065	-0,097
-566,846	259,871	0,110	0,141
-565,831	519,912	0,069	0,119
-564,817	-48,873	0,053	0,019
-563,802	48,657	-0,044	-0,030
-562,788	-200,000	0,006	-0,132
-561,773	-200,000	-0,011	-0,094
-560,758	181,410	-0,111	-0,121
-559,744	-200,000	0,002	0,095
-558,729	48,834	0,045	0,031
-557,715	717,175	-0,044	0,087
-556,700	37,578	0,151	0,099
-555,685	112,806	-0,073	0,065
-554,671	37,212	0,129	-0,084
-553,656	60,999	0,110	0,081
-552,642	800,000	0,036	0,115
-551,627	162,376	0,068	0,071
-550,612	-52,056	-0,013	0,004
-549,598	-167,033	-0,052	0,002
-548,583	-150,217	0,041	0,002
-547,569	327,788	0,028	0,039
-546,554	175,801	-0,034	-0,036
-545,539	-200,000	0,081	0,000
-544,525	-200,000	-0,013	0,201
-543,510	-200,000	0,025	-0,095
-542,496	800,000	-0,034	-0,087
-541,481	64,355	0,054	-0,040
-540,466	-200,000	-0,003	-0,019
-539,452	-124,105	0,084	-0,010
-538,437	-200,000	0,026	-0,147
-537,423	151,361	-0,087	0,088
-536,408	325,532	0,059	0,083
-535,393	-76,569	-0,124	0,032
-534,379	800,000	-0,004	0,010
-533,364	-27,679	-0,027	0,011
-532,350	327,882	0,012	0,017
-531,335	-72,064	-0,124	-0,034
-530,321	388,770	-0,076	0,116
-529,306	-200,000	0,008	-0,049
-528,291	-200,000	-0,004	-0,110
-527,277	-200,000	-0,009	0,050
-526,262	-200,000	0,001	0,015
-525,248	-39,147	-0,060	0,023
-524,233	-103,306	0,054	0,009
-523,218	-200,000	-0,001	0,050
-522,204	-200,000	0,012	-0,049
-521,189	28,307	-0,072	-0,045
-520,175	-184,500	0,022	0,000
-519,160	38,585	0,087	-0,057
-518,145	-200,000	0,012	0,051
-517,131	30,242	0,066	0,042
-516,116	-58,533	0,068	-0,022
-515,102	286,579	0,122	-0,163
-514,087	197,396	-0,055	0,063
-513,072	-200,000	0,020	-0,073
-512,058	-200,000	-0,001	-0,126
-511,043	1,419	0,129	-0,068
-510,029	800,000	-0,071	0,161
-509,014	53,660	-0,065	-0,046
-507,999	-4,196	-0,082	0,042
-506,985	259,793	0,029	0,037
-505,970	-46,030	0,071	0,026
-504,956	-78,215	0,045	0,011
-503,941	99,768	0,059	-0,050
-502,926	-102,937	0,114	-0,020
-501,912	-200,000	0,021	0,090
-500,897	-200,000	-0,014	0,108
-499,883	-200,000	-0,054	-0,000
-498,868	131,088	-0,164	-0,155
-497,853	-200,000	-0,004	-0,144
-496,839	285,767	0,029	0,038
-495,824	6,151	-0,087	0,048
-494,810	195,165	0,027	0,031
-493,795	-100,882	-0,129	0,023
-492,781	535,032	0,060	-0,105
-491,766	-200,000	-0,017	-0,085
-490,751	-42,315	-0,139	0,052
-489,737	370,304	0,047	0,071
-488,722	11,066	0,136	-0,077
-487,708	-98,268	-0,015	-0,003
-486,693	-200,000	0,001	-0,055
-485,678	550,592	0,030	-0,054
-484,664	-50,471	0,069	-0,024
-483,649	-200,000	0,001	-0,170
-482,635	-200,000	0,003	-0,102
-481,620	288,761	0,005	-0,007
-480,605	-200,000	0,023	0,109
-479,591	-200,000	0,011	-0,063
-478,576	-35,983	-0,158	-0,063
-477,562	330,959	-0,055	-0,078
-476,547	-200,000	-0,006	-0,073
-475,532	-200,000	-0,001	0,019
-474,518	-200,000	0,010	0,052
-473,503	800,000	0,063	0,181
-472,489	-179,470	-0,100	-0,002
-471,474	-25,251	-0,141	0,061
-470,459	273,714	0,003	-0,004
-469,445	94,885	-0,120	-0,101
-468,430	-200,000	-0,001	0,090
-467,416	-145,491	-0,064	0,004
-466,401	-200,000	-0,006	0,049
-465,386	-45,020	0,080	-0,029
-464,372	711,013	0,057	-0,111
-463,357	-63,587	-0,134	0,040
-462,343	-123,867	0,088	-0,010
-461,328	-200,000	-0,043	-0,200
-460,313	182,304	-0,029	0,032
-459,299	800,000	0,029	0,082
-458,284	-200,000	-0,007	0,172
-457,270	800,000	-0,018	0,057
-456,255	-200,000	-0,004	0,258
-455,241	357,231	-0,025	0,037
-454,226	87,122	0,080	0,065
-453,211	800,000	-0,053	-0,140
-452,197	99,277	-0,078	0,066
-451,182	307,472	0,028	-0,039
-450,168	-128,892	0,026	-0,003
-449,153	47,237	0,138	0,095
-448,138	53,427	0,018	0,013
-447,124	-200,000	-0,001	-0,007
-446,109	170,750	0,010	0,010
-445,095	265,617	-0,050	0,065
-444,080	-45,479	-0,062	0,023
-443,065	-87,784	0,074	-0,016
-442,051	-200,000	-0,009	-0,056
-441,036	745,415	-0,016	0,031
-440,022	88,694	-0,044	0,036
-439,007	-83,586	-0,026	0,006
-437,992	-15,978	0,063	0,029
-436,978	86,047	-0,073	-0,059
-435,963	-82,652	0,016	0,004
-434,949	451,045	0,049	-0,080
-433,934	-200,000	-0,005	-0,155
-432,919	388,519	0,030	-0,046
-431,905	-200,000	-0,014	-0,057
-430,890	-82,921	0,069	-0,016
-429,876	-200,000	0,035	0,191
-428,861	-200,000	0,001	0,016
-427,846	-168,983	0,071	-0,002
-426,832	800,000	0,010	-0,027
-425,817	-200,000	0,006	-0,137
-424,803	-11,992	-0,068	0,033
-423,788	539,582	-0,029	0,051
-422,773	162,703	-0,080	0,083
-421,759	-200,000	-0,012	0,065
-420,744	-200,000	0,038	-0,152
-419,730	638,117	-0,022	0,042
-418,715	-13,571	-0,012	0,006
-417,701	137,222	-0,027	0,026
-416,686	510,256	-0,050	-0,086
-415,671	315,754	0,062	0,086
-414,657	800,000	0,066	0,146
-413,642	68,890	-0,089	-0,067
-412,628	-200,000	-0,005	0,091
-411,613	800,000	-0,031	0,075
-410,598	15,152	-0,188	-0,108
-409,584	-200,000	0,031	0,122
-408,569	14,930	0,093	-0,053
-407,555	-125,648	0,145	0,016
-406,540	387,047	-0,049	-0,074
-405,525	800,000	-0,064	-0,176
-404,511	242,023	0,008	-0,010
-403,496	11,135	-0,047	-0,026
-402,482	298,582	0,036	0,048
-401,467	60,857	0,022	-0,016
-400,452	76,597	-0,057	-0,044
-399,438	800,000	0,026	-0,064
-398,423	800,000	0,037	-0,088
-397,409	-38,179	-0,167	0,065
-396,394	-200,000	0,027	-0,087
-395,379	800,000	0,052	-0,162
-394,365	356,392	0,049	0,072
-393,350	52,955	0,138	0,097
-392,336	-200,000	-0,008	0,166
-391,321	94,911	-0,090	-0,075
-390,306	-200,000	0,022	-0,174
-389,292	-80,752	0,073	-0,018
-388,277	-162,479	0,059	-0,002
-387,263	-200,000	-0,022	-0,247
-386,248	202,360	0,042	-0,048
-385,233	-151,462	0,206	0,011
-384,219	652,888	0,063	0,120
-383,204	-200,000	0,028	-0,149
-382,190	-200,000	-0,005	-0,179
-381,175	79,999	-0,146	0,115
-380,160	16,088	-0,002	-0,001
-379,146	-200,000	0,016	0,068
-378,131	-200,000	0,013	-0,090
-377,117	16,754	0,103	-0,060
-376,102	-68,935	0,034	-0,010
-375,088	800,000	0,022	-0,066
-374,073	78,312	0,104	-0,082
-373,058	800,000	0,022	-0,069
-372,044	65,880	0,050	0,037
-371,029	800,000	0,044	-0,125
-370,015	425,918	0,073	0,116
-369,000	117,082	-0,017	0,015
-367,985	195,658	0,069	-0,077
-366,971	-33,957	-0,039	-0,016
-365,956	800,000	0,023	0,056
-364,942	-44,411	0,155	0,057
-363,927	521,711	0,082	-0,142
-362,912	-200,000	0,012	-0,115
-361,898	-76,873	-0,045	-0,011
-360,883	532,485	0,052	-0,091
-359,869	614,885	-0,042	0,077
-358,854	1,222	-0,049	0,026
-357,839	800,000	0,050	0,143
-356,825	800,000	0,016	0,044
-355,810	-46,124	-0,040	-0,015
-354,796	-200,000	-0,004	-0,063
-353,781	-41,064	-0,091	0,034
-352,766	800,000	-0,014	0,032
-351,752	245,387	-0,007	-0,009
-350,737	709,687	-0,027	-0,053
-349,723	368,626	0,067	0,100
-348,708	-200,000	0,022	0,088
-347,693	800,000	-0,012	-0,033
-346,679	-162,869	-0,106	0,004
-345,664	800,000	-0,010	0,027
-344,650	-200,000	0,003	0,073
-343,635	-200,000	0,028	0,141
-342,620	-200,000	0,047	0,000
-341,606	-200,000	0,035	0,000
-340,591	9,927	-0,066	-0,037
-339,577	770,027	-0,015	-0,029
-338,562	800,000	-0,041	0,097
-337,548	442,734	0,035	0,057
-336,533	-200,000	-0,026	0,154
-335,518	-200,000	0,003	0,087
-334,504	12,014	-0,087	-0,049
-333,489	-200,000	0,035	0,164
-332,475	-200,000	-0,015	0,080
-331,460	-200,000	-0,017	0,096
-330,445	-77,046	0,036	-0,009
-329,431	-44,752	-0,118	0,043
-328,416	375,453	0,043	0,065
-327,402	477,071	0,090	0,150
-326,387	-200,000	-0,001	-0,108
-325,372	-49,614	-0,047	0,016
-324,358	515,956	0,046	-0,079
-323,343	800,000	0,016	0,038
-322,329	-200,000	0,034	0,145
-321,314	800,000	0,056	0,125
-320,299	-71,102	-0,079	0,022
-319,285	-31,359	-0,136	0,056
-318,270	-176,593	-0,125	0,002
-317,256	47,607	-0,026	0,018
-316,241	800,000	0,040	0,107
-315,226	28,592	0,094	-0,058
-314,212	15,564	-0,071	0,041
-313,197	64,972	0,068	0,051
-312,183	-162,494	0,105	-0,004
-311,168	577,603	0,091	-0,163
-310,153	409,775	0,031	0,048
-309,139	-21,160	-0,040	-0,018
-308,124	240,421	-0,044	0,054
-307,110	172,842	-0,033	-0,035
-306,095	7,303	0,036	-0,019
-305,080	800,000	-0,006	-0,015
-304,066	-200,000	-0,003	0,014
-303,051	64,868	0,115	-0,085
-302,037	-200,000	0,013	-0,044
-301,022	-3,562	-0,075	0,038
-300,008	-55,544	-0,058	-0,019
-298,993	-110,205	-0,063	0,010
-297,978	207,923	0,070	0,081
-296,964	170,513	0,026	0,027
-295,949	46,939	0,059	-0,040
-294,935	-200,000	-0,011	-0,132
-293,920	152,916	0,059	0,059
-292,905	-123,854	0,131	0,015
-291,891	-200,000	0,004	0,069
-290,876	274,923	-0,046	-0,060
-289,862	-200,000	-0,015	-0,086
-288,847	800,000	-0,020	-0,057
-287,832	-20,102	0,081	-0,037
-286,818	-121,852	-0,125	-0,015
-285,803	326,273	0,069	0,097
-284,789	181,741	0,019	0,020
-283,774	16,041	-0,034	-0,019
-282,759	-200,000	-0,006	0,117
-281,745	69,491	-0,036	-0,027
-280,730	800,000	-0,026	0,075
-279,716	-93,543	0,035	-0,007
-278,701	10,038	0,107	0,060
-277,686	-33,976	-0,066	0,027
-276,672	800,000	-0,037	-0,114
-275,657	-110,990	-0,094	0,014
-274,643	800,000	0,048	-0,118
-273,628	-200,000	0,004	-0,176
-272,613	-20,150	-0,056	-0,025
-271,599	350,850	-0,059	0,086
-270,584	-200,000	0,001	-0,031
-269,570	233,983	0,085	0,103
-268,555	75,833	-0,067	-0,052
-267,540	-200,000	-0,036	0,155
-266,526	-200,000	0,006	-0,183
-265,511	-40,890	-0,078	-0,029
-264,497	-200,000	0,011	-0,047
-263,482	-200,000	-0,013	-0,078
-262,467	-99,295	0,070	0,013
-261,453	800,000	0,040	-0,082
-260,438	-200,000	0,033	0,168
-259,424	-200,000	-0,034	0,139
-258,409	-200,000	-0,013	-0,086
-257,395	-200,000	-0,041	0,141
-256,380	295,619	-0,029	0,039
-255,365	-200,000	-0,010	0,101
-254,351	800,000	0,026	0,068
-253,336	381,871	-0,054	-0,081
-252,322	-200,000	0,008	-0,059
-251,307	-109,922	0,083	0,013
-250,292	394,356	-0,019	0,029
-249,278	-200,000	-0,009	0,052
-248,263	434,630	0,068	0,109
-247,249	-200,000	0,013	0,050
-246,234	-200,000	-0,024	-0,080
-245,219	609,540	-0,139	-0,254
-244,205	-200,000	0,034	-0,121
-243,190	264,647	0,062	0,080
-242,176	-200,000	0,005	-0,022
-241,161	-28,959	0,061	0,025
-240,146	-118,346	0,117	0,015
-239,132	-107,338	0,057	0,009
-238,117	-135,094	-0,018	0,002
-237,103	22,138	-0,090	0,054
-236,088	-200,000	0,017	0,146
-235,073	-122,582	0,057	-0,007
-234,059	165,426	-0,027	-0,028
-233,044	102,428	0,072	0,062
-232,030	800,000	0,031	-0,086
-231,015	-138,043	0,083	-0,007
-230,000	-200,000	0,018	0,133
-228,986	-200,000	-0,002	-0,083
-227,971	-200,000	0,005	-0,024
-226,957	-36,327	0,084	0,033
-225,942	564,656	0,067	0,119
-224,927	-200,000	0,006	-0,085
-223,913	-200,000	0,009	-0,227
-222,898	40,571	-0,044	-0,029
-221,884	180,201	-0,035	0,037
-220,869	-140,794	-0,085	-0,006
-219,855	-124,623	0,102	-0,011
-218,840	49,167	0,087	0,059
-217,825	-200,000	-0,022	-0,100
-216,811	-200,000	-0,010	-0,037
-215,796	-138,025	-0,140	-0,011
-214,782	-36,053	0,081	0,032
-213,767	14,826	-0,070	0,040
-212,752	-23,429	0,111	-0,048
-211,738	-120,859	0,043	-0,005
-210,723	90,935	-0,073	-0,060
-209,709	7,116	-0,112	0,061
-208,694	43,026	-0,071	0,047
-207,679	70,901	-0,060	-0,045
-206,665	431,456	0,023	-0,037
-205,650	-1,706	0,072	0,037
-204,636	-200,000	-0,033	0,151
-203,621	-200,000	-0,001	0,117
-202,606	-91,408	-0,085	0,018
-201,592	449,877	-0,058	-0,093
-200,577	107,239	-0,039	0,034
-199,563	253,900	0,069	0,086
-198,548	-200,000	0,012	-0,166
-197,533	-200,000	0,052	0,235
-196,519	-47,728	0,066	0,023
-195,504	134,291	-0,041	-0,039
-194,490	-174,973	-0,085	-0,002
-193,475	800,000	-0,012	0,025
-192,460	-181,772	0,100	-0,001
-191,446	-47,420	-0,097	-0,034
-190,431	51,360	0,096	-0,066
-189,417	151,507	0,040	0,039
-188,402	-107,636	-0,064	0,010
-187,387	14,176	-0,052	-0,029
-186,373	-200,000	0,002	-0,098
-185,358	-200,000	0,004	0,046
-184,344	800,000	0,022	0,067
-183,329	307,339	-0,035	0,048
-182,315	-200,000	0,016	0,079
-181,300	-52,002	-0,093	0,031
-180,285	34,931	-0,068	-0,043
-179,271	93,595	0,081	0,067
-178,256	-89,509	-0,095	-0,020
-177,242	274,510	-0,068	0,088
-176,227	-127,382	0,065	0,007
-175,212	-68,368	-0,110	-0,031
-174,198	12,097	0,113	0,063
-173,183	568,495	-0,037	-0,067
-172,169	146,080	0,112	-0,110
-171,154	237,485	0,022	-0,027
-170,139	47,437	0,077	0,052
-169,125	-200,000	-0,008	0,038
-168,110	467,379	-0,052	-0,085
-167,096	800,000	0,058	-0,154
-166,081	-69,536	-0,124	0,034
-165,066	615,282	-0,081	-0,149
-164,052	-138,939	-0,036	0,003
-163,037	227,213	0,110	0,131
-162,023	34,613	-0,037	-0,024
-161,008	494,984	-0,009	-0,015
-159,993	482,395	0,031	-0,051
-158,979	-84,000	0,004	0,001
-157,964	-48,237	-0,048	0,017
-156,950	407,580	-0,028	0,043
-155,935	800,000	0,034	-0,107
-154,920	109,960	0,086	-0,076
-153,906	629,108	-0,026	-0,048
-152,891	-86,305	0,086	0,019
-151,877	-200,000	-0,015	-0,071
-150,862	-7,850	-0,107	-0,052
-149,847	800,000	0,046	0,099
-148,833	-200,000	-0,060	0,000
-147,818	130,729	0,098	0,092
-146,804	-47,888	0,200	0,070
-145,789	42,546	0,045	0,030
-144,775	-200,000	0,008	-0,120
-143,760	800,000	0,030	0,064
-142,745	-107,151	-0,036	0,006
-141,731	-30,397	0,079	-0,032
-140,716	201,277	0,050	-0,056
-139,702	130,897	-0,110	0,103
-138,687	-200,000	-0,003	-0,023
-137,672	335,468	-0,026	0,037
-136,658	18,506	-0,059	-0,034
-135,643	-200,000	0,027	-0,128
-134,629	-200,000	-0,034	0,164
-133,614	-104,779	0,080	-0,013
-132,599	-70,322	0,070	-0,019
-131,585	-200,000	0,021	0,129
-130,570	-65,157	0,064	0,019
-129,556	11,926	-0,191	-0,106
-128,541	-25,186	-0,069	-0,029
-127,526	422,627	-0,048	-0,076
-126,512	800,000	-0,035	0,082
-125,497	-36,418	-0,115	0,045
-124,483	-123,122	0,171	0,020
-123,468	86,896	0,151	0,121
-122,453	-69,292	0,076	0,021
-121,439	357,250	-0,057	-0,083
-120,424	-200,000	-0,006	0,057
-119,410	21,156	0,144	0,085
