DTS Sentinel unit serial number:	SN410029Multiplexer serial number:	ORYXHardware model number:	OX2-SRSoftware version number:	ORYX F/W v4,00 Oryx Data Collector v3.7.2.0data status	okinstallation	B6 Nyhavnadifferential loss correction	single-endedforward channel	channel 2reverse channel	N/Adate	2023/12/08time	12:20:08forward acquisition time	300,00reverse acquisition time	0,00gamma	499,1914k internal	0,3159k external	0,3159temperature offset calibration	1,0000default loss term (dB/km)	0,3820temperature slope calibration	1,0000multiplexer offset coefficient	1,0000multiplexer slope coefficient	1,0000fibre end	0,00T internal ref (°C)	15,05T ext. ref 1 (°C)	-1,46T ext. ref 2 (°C)	-1,47length (m)	temperature (°C)	Stokes	anti-Stokes-744,400	-71,883	0,058	0,016
-743,385	-87,224	-0,221	-0,049
-742,371	-200,000	0,130	-0,000
-741,356	-102,854	-0,134	0,023
-740,342	-11,050	0,139	-0,067
-739,327	-68,444	-0,425	0,121
-738,312	79,210	0,057	0,045
-737,298	-74,032	-0,448	-0,119
-736,283	800,000	0,044	0,134
-735,269	40,721	-0,088	-0,058
-734,254	-111,803	0,150	0,022
-733,239	10,533	-0,427	-0,239
-732,225	-107,608	0,159	0,025
-731,210	797,582	-0,044	0,090
-730,196	-79,740	-0,093	0,023
-729,181	-162,614	-0,146	-0,005
-728,167	332,547	0,053	-0,075
-727,152	-121,740	-0,087	0,010
-726,137	800,000	0,026	-0,073
-725,123	490,704	0,060	-0,101
-724,108	314,317	0,018	-0,024
-723,094	502,339	0,023	-0,039
-722,079	726,372	0,016	-0,032
-721,064	-200,000	0,009	0,067
-720,050	-24,010	0,055	0,024
-719,035	-200,000	-0,006	-0,092
-718,021	14,351	-0,070	-0,040
-717,006	414,410	-0,017	-0,027
-715,991	163,642	-0,162	-0,168
-714,977	-200,000	-0,006	-0,128
-713,962	-84,516	-0,112	0,026
-712,948	19,273	0,050	0,029
-711,933	33,411	-0,007	-0,004
-710,918	151,503	0,081	-0,081
-709,904	-104,216	-0,098	-0,017
-708,889	43,772	0,042	0,028
-707,875	104,380	-0,066	-0,057
-706,860	222,379	0,030	0,036
-705,845	166,062	-0,118	0,123
-704,831	486,963	0,038	-0,064
-703,816	212,042	-0,079	-0,092
-702,802	-200,000	-0,024	-0,193
-701,787	800,000	-0,046	-0,115
-700,772	92,518	-0,148	-0,123
-699,758	110,909	0,035	-0,031
-698,743	800,000	-0,025	0,053
-697,729	219,640	0,109	-0,129
-696,714	-200,000	-0,003	0,085
-695,699	-2,991	-0,076	-0,039
-694,685	138,399	-0,054	0,052
-693,670	-10,963	0,080	-0,039
-692,656	800,000	0,049	-0,122
-691,641	164,445	-0,051	0,053
-690,627	-200,000	-0,009	0,063
-689,612	7,241	-0,095	-0,052
-688,597	-200,000	0,017	-0,094
-687,583	761,749	-0,056	-0,113
-686,568	651,563	0,081	-0,153
-685,554	587,136	-0,081	-0,148
-684,539	507,169	-0,089	-0,152
-683,524	60,222	-0,053	-0,038
-682,510	-103,414	-0,091	0,016
-681,495	-200,000	0,020	0,108
-680,481	-23,264	-0,056	-0,025
-679,466	11,722	-0,158	-0,089
-678,451	341,153	0,069	0,100
-677,437	-139,773	0,078	0,006
-676,422	-13,087	-0,073	0,035
-675,408	-2,341	-0,069	-0,036
-674,393	-81,256	-0,054	-0,013
-673,378	32,015	-0,127	-0,080
-672,364	-30,833	0,145	-0,060
-671,349	-200,000	-0,022	-0,210
-670,335	-200,000	-0,016	-0,077
-669,320	-49,785	-0,027	0,009
-668,305	668,608	0,039	0,075
-667,291	151,439	0,007	0,007
-666,276	-200,000	-0,021	-0,084
-665,262	-29,392	0,059	-0,025
-664,247	-62,089	-0,143	0,044
-663,232	-200,000	0,011	-0,089
-662,218	-200,000	0,043	0,171
-661,203	-200,000	0,010	0,195
-660,189	-33,069	0,042	0,017
-659,174	-200,000	0,015	0,091
-658,159	167,183	0,022	0,023
-657,145	186,680	0,048	0,052
-656,130	-200,000	0,015	0,117
-655,116	800,000	-0,017	-0,053
-654,101	-67,092	0,036	0,010
-653,086	-200,000	-0,013	-0,053
-652,072	-200,000	-0,023	-0,151
-651,057	800,000	-0,040	-0,094
-650,043	199,248	-0,013	-0,014
-649,028	800,000	-0,025	-0,058
-648,014	-200,000	0,030	-0,173
-646,999	-200,000	-0,014	0,069
-645,984	561,499	-0,015	-0,028
-644,970	96,665	0,125	-0,105
-643,955	33,352	0,052	0,033
-642,941	114,060	0,087	-0,078
-641,926	57,231	0,120	-0,086
-640,911	-116,797	0,090	-0,012
-639,897	-200,000	0,006	0,049
-638,882	388,658	-0,026	0,040
-637,868	-200,000	-0,009	-0,035
-636,853	399,063	-0,036	-0,056
-635,838	69,269	0,026	-0,020
-634,824	-54,252	-0,049	-0,016
-633,809	-200,000	-0,005	0,018
-632,795	-29,521	-0,066	0,028
-631,780	72,652	0,122	-0,093
-630,765	150,803	-0,069	0,069
-629,751	102,237	-0,058	0,049
-628,736	-12,406	-0,116	-0,056
-627,722	76,038	0,046	-0,035
-626,707	-52,575	-0,072	-0,024
-625,692	-93,909	0,165	0,033
-624,678	-200,000	0,031	-0,121
-623,663	-200,000	0,011	-0,110
-622,649	-71,291	-0,054	0,015
-621,634	124,768	0,053	-0,049
-620,619	304,875	-0,048	-0,066
-619,605	96,500	-0,129	-0,108
-618,590	-200,000	0,045	-0,249
-617,576	193,343	0,045	-0,050
-616,561	-163,070	0,039	-0,001
-615,546	231,466	-0,065	-0,078
-614,532	-200,000	-0,007	-0,055
-613,517	-54,552	-0,080	0,026
-612,503	-140,637	0,053	-0,004
-611,488	237,152	0,068	-0,083
-610,474	143,368	-0,029	0,028
-609,459	772,715	0,032	-0,064
-608,444	-200,000	-0,003	-0,056
-607,430	800,000	-0,005	0,010
-606,415	341,394	-0,058	-0,083
-605,401	-117,806	0,040	-0,005
-604,386	-200,000	0,000	-0,065
-603,371	-200,000	0,003	0,068
-602,357	156,439	0,018	0,018
-601,342	-178,103	-0,152	0,003
-600,328	20,332	-0,147	0,087
-599,313	800,000	-0,062	-0,141
-598,298	-100,079	0,135	0,024
-597,284	-4,121	-0,133	0,067
-596,269	145,569	0,102	0,100
-595,255	-200,000	0,001	0,030
-594,240	60,325	-0,076	0,055
-593,225	41,328	-0,061	-0,040
-592,211	-200,000	-0,009	0,051
-591,196	-200,000	-0,006	0,052
-590,182	84,204	-0,052	0,042
-589,167	145,698	0,107	-0,105
-588,152	-118,241	-0,067	-0,009
-587,138	102,276	0,071	0,061
-586,123	-103,459	-0,050	-0,008
-585,109	25,278	-0,095	-0,058
-584,094	80,770	0,074	-0,058
-583,079	-200,000	0,023	0,129
-582,065	800,000	0,047	0,131
-581,050	-85,591	0,152	-0,034
-580,036	-45,254	-0,060	-0,022
-579,021	-77,625	-0,102	0,026
-578,006	-200,000	-0,003	0,024
-576,992	-65,825	0,062	0,018
-575,977	129,795	0,053	0,049
-574,963	217,871	0,045	0,053
-573,948	35,681	-0,105	0,068
-572,934	-144,447	-0,081	-0,005
-571,919	800,000	0,029	-0,060
-570,904	-112,167	-0,082	-0,012
-569,890	-200,000	-0,001	-0,043
-568,875	-118,834	-0,049	-0,006
-567,861	-200,000	0,029	-0,102
-566,846	-200,000	-0,001	-0,059
-565,831	90,540	-0,024	0,020
-564,817	95,438	0,049	0,041
-563,802	37,861	0,100	-0,065
-562,788	286,076	-0,090	-0,119
-561,773	163,318	0,023	-0,024
-560,758	442,099	0,030	0,048
-559,744	-170,325	-0,050	-0,001
-558,729	-200,000	0,001	-0,041
-557,715	800,000	-0,054	-0,144
-556,700	-141,659	0,058	0,004
-555,685	-112,843	-0,146	0,021
-554,671	124,184	0,010	-0,010
-553,656	436,098	0,072	0,115
-552,642	-175,285	0,098	0,002
-551,627	1,794	-0,122	-0,064
-550,612	307,687	-0,089	-0,121
-549,598	724,323	0,036	-0,070
-548,583	72,262	0,036	-0,028
-547,569	-200,000	-0,021	0,112
-546,554	-200,000	0,013	0,213
-545,539	62,267	-0,028	0,020
-544,525	-200,000	-0,001	-0,004
-543,510	130,513	-0,087	0,081
-542,496	800,000	-0,030	0,079
-541,481	-130,573	0,117	0,011
-540,466	-107,383	0,039	0,006
-539,452	217,041	0,068	0,079
-538,437	104,298	-0,048	0,041
-537,423	-21,872	-0,084	-0,037
-536,408	-32,183	0,087	0,035
-535,393	-153,140	-0,078	-0,004
-534,379	-73,425	0,066	0,017
-533,364	-107,117	0,077	0,012
-532,350	-10,585	0,127	0,061
-531,335	167,873	-0,055	0,057
-530,321	-200,000	-0,021	0,113
-529,306	-66,314	-0,081	0,023
-528,291	72,038	0,033	0,025
-527,277	-200,000	-0,051	-0,178
-526,262	79,795	0,007	0,005
-525,248	69,467	0,028	-0,021
-524,233	-200,000	-0,011	-0,154
-523,218	800,000	-0,018	-0,048
-522,204	800,000	-0,047	-0,131
-521,189	-200,000	-0,004	-0,045
-520,175	-200,000	-0,015	0,108
-519,160	-2,576	0,047	0,024
-518,145	-200,000	-0,008	0,041
-517,131	-200,000	-0,002	-0,099
-516,116	76,828	0,054	0,042
-515,102	478,173	-0,051	0,085
-514,087	800,000	0,015	-0,041
-513,072	262,716	0,030	-0,039
-512,058	-200,000	0,013	0,075
-511,043	-132,184	-0,067	-0,006
-510,029	-111,298	0,102	0,015
-509,014	800,000	0,026	-0,071
-507,999	-47,036	-0,043	-0,015
-506,985	-200,000	0,034	-0,138
-505,970	73,468	0,051	0,039
-504,956	-43,286	-0,088	-0,032
-503,941	-200,000	-0,008	0,098
-502,926	-200,000	0,006	-0,085
-501,912	2,035	0,199	-0,104
-500,897	-200,000	-0,008	0,122
-499,883	-197,147	-0,044	0,000
-498,868	9,279	-0,062	-0,034
-497,853	321,549	0,069	-0,096
-496,839	-86,186	-0,139	0,031
-495,824	-76,182	0,163	0,042
-494,810	-139,092	-0,116	0,009
-493,795	37,624	0,161	0,104
-492,781	303,602	-0,042	-0,056
-491,766	-112,140	-0,048	0,007
-490,751	407,878	-0,037	0,057
-489,737	-200,000	-0,013	-0,153
-488,722	-178,522	0,011	-0,000
-487,708	-71,194	0,122	0,033
-486,693	-93,034	-0,047	-0,010
-485,678	331,857	-0,050	-0,071
-484,664	-200,000	0,025	-0,085
-483,649	-140,971	-0,095	-0,007
-482,635	-86,646	-0,128	-0,028
-481,620	-200,000	-0,010	-0,057
-480,605	277,638	-0,047	0,061
-479,591	800,000	-0,062	0,151
-478,576	-200,000	0,016	-0,123
-477,562	-188,065	-0,227	-0,002
-476,547	-200,000	-0,021	-0,110
-475,532	-100,217	-0,055	-0,010
-474,518	112,520	0,047	0,041
-473,503	800,000	0,063	0,146
-472,489	-200,000	-0,003	0,118
-471,474	-147,764	-0,043	0,003
-470,459	-200,000	0,007	-0,043
-469,445	-200,000	-0,017	-0,064
-468,430	-95,241	-0,055	0,011
-467,416	785,331	-0,036	-0,072
-466,401	800,000	-0,047	0,129
-465,386	206,573	0,070	-0,080
-464,372	-71,402	0,052	0,014
-463,357	159,183	-0,045	-0,046
-462,343	38,224	-0,101	-0,066
-461,328	800,000	0,034	-0,079
-460,313	-200,000	-0,017	0,062
-459,299	-188,978	0,153	-0,001
-458,284	6,479	0,029	0,016
-457,270	-73,870	-0,066	-0,017
-456,255	-200,000	-0,001	0,063
-455,241	-22,210	-0,074	0,033
-454,226	800,000	0,029	0,067
-453,211	-200,000	0,031	-0,154
-452,197	17,955	0,081	-0,047
-451,182	-80,567	0,033	-0,008
-450,168	91,067	-0,011	-0,009
-449,153	-28,956	-0,067	0,028
-448,138	-11,199	0,040	-0,019
-447,124	800,000	0,029	0,058
-446,109	187,956	-0,105	-0,114
-445,095	216,746	0,009	0,010
-444,080	11,515	0,121	0,067
-443,065	-89,495	-0,115	0,024
-442,051	-65,233	0,065	0,019
-441,036	734,883	-0,038	-0,074
-440,022	59,603	0,024	-0,017
-439,007	13,491	0,069	0,039
-437,992	-45,850	-0,161	0,057
-436,978	-51,214	-0,045	-0,015
-435,963	-76,259	0,093	0,024
-434,949	330,770	-0,106	0,149
-433,934	6,364	-0,097	-0,052
-432,919	48,880	-0,079	-0,054
-431,905	582,009	-0,081	0,146
-430,890	352,939	0,025	0,036
-429,876	-200,000	0,039	0,168
-428,861	-200,000	-0,003	-0,070
-427,846	-12,358	-0,064	0,030
-426,832	419,302	-0,061	-0,095
-425,817	-123,974	-0,058	-0,007
-424,803	141,269	-0,087	0,083
-423,788	-200,000	-0,029	-0,101
-422,773	-120,557	0,031	0,004
-421,759	-11,482	0,081	0,038
-420,744	131,900	0,043	0,040
-419,730	-200,000	-0,035	0,120
-418,715	-35,539	-0,267	-0,105
-417,701	-23,807	0,074	-0,032
-416,686	-29,401	-0,020	-0,008
-415,671	20,055	-0,065	-0,038
-414,657	-17,979	-0,056	0,025
-413,642	-200,000	0,118	0,000
-412,628	-94,516	0,141	0,028
-411,613	186,766	-0,056	-0,061
-410,598	800,000	0,028	-0,061
-409,584	-200,000	-0,019	0,106
-408,569	209,538	0,079	-0,091
-407,555	-200,000	0,039	0,209
-406,540	-75,655	0,095	0,024
-405,525	-5,387	0,132	0,066
-404,511	-155,899	0,064	0,003
-403,496	800,000	0,043	0,122
-402,482	69,500	-0,173	-0,129
-401,467	203,226	0,049	-0,055
-400,452	71,171	0,117	-0,088
-399,438	-3,824	-0,099	-0,050
-398,423	85,722	-0,023	0,018
-397,409	-59,977	0,107	-0,033
-396,394	12,136	0,132	-0,074
-395,379	-200,000	0,031	0,115
-394,365	-96,732	0,116	0,022
-393,350	-200,000	-0,001	-0,018
-392,336	79,404	-0,044	-0,034
-391,321	92,835	-0,048	0,039
-390,306	800,000	0,043	0,117
-389,292	-64,339	0,027	0,008
-388,277	367,011	-0,051	-0,075
-387,263	796,949	-0,034	0,069
-386,248	-200,000	0,030	0,136
-385,233	397,046	0,027	0,042
-384,219	186,395	0,053	-0,057
-383,204	134,085	-0,043	-0,040
-382,190	-89,066	0,036	-0,008
-381,175	35,652	0,065	-0,042
-380,160	-15,020	-0,058	-0,027
-379,146	601,679	0,045	0,082
-378,131	-200,000	0,027	-0,144
-377,117	65,623	0,181	0,133
-376,102	138,980	0,092	0,088
-375,088	-200,000	-0,041	-0,146
-374,073	-155,578	0,043	-0,002
-373,058	485,340	0,038	0,064
-372,044	-200,000	0,007	0,051
-371,029	107,812	0,039	0,034
-370,015	187,058	-0,049	-0,053
-369,000	-118,627	0,028	-0,004
-367,985	78,644	0,084	-0,065
-366,971	754,656	-0,062	-0,123
-365,956	268,487	-0,066	0,084
-364,942	-8,988	0,047	0,023
-363,927	77,023	0,052	0,040
-362,912	-200,000	0,004	0,087
-361,898	-200,000	-0,053	0,182
-360,883	-35,914	-0,084	0,033
-359,869	439,056	-0,032	-0,051
-358,854	-200,000	-0,014	-0,131
-357,839	253,434	0,030	-0,037
-356,825	-200,000	0,000	0,049
-355,810	-42,456	0,128	0,047
-354,796	202,426	-0,120	-0,135
-353,781	-12,255	-0,111	-0,053
-352,766	100,929	0,081	0,068
-351,752	170,185	-0,102	-0,106
-350,737	-80,496	-0,055	-0,013
-349,723	423,929	0,033	0,052
-348,708	-108,530	-0,079	0,012
-347,693	668,431	-0,073	0,138
-346,679	319,943	-0,027	0,037
-345,664	383,592	-0,060	-0,090
-344,650	76,713	0,096	-0,074
-343,635	-200,000	-0,013	0,125
-342,620	-200,000	-0,011	0,060
-341,606	653,818	-0,032	0,059
-340,591	331,965	-0,024	0,033
-339,577	141,547	-0,123	0,118
-338,562	-18,389	-0,107	-0,048
-337,548	-200,000	0,007	-0,037
-336,533	187,263	0,129	-0,140
-335,518	-84,041	0,174	-0,040
-334,504	800,000	0,031	-0,084
-333,489	36,646	0,096	0,061
-332,475	242,755	-0,041	-0,050
-331,460	-58,985	-0,213	-0,066
-330,445	123,012	-0,057	0,052
-329,431	-37,784	0,123	0,047
-328,416	473,877	-0,089	0,146
-327,402	185,455	0,043	0,046
-326,387	800,000	0,011	-0,036
-325,372	-200,000	0,003	0,023
-324,358	-200,000	-0,009	-0,104
-323,343	-140,989	0,093	-0,007
-322,329	-19,989	-0,062	0,028
-321,314	1,032	0,091	0,047
-320,299	160,587	0,011	-0,012
-319,285	-200,000	0,014	0,092
-318,270	186,053	0,098	0,106
-317,256	-90,690	-0,091	-0,019
-316,241	-200,000	-0,039	-0,163
-315,226	540,484	0,076	0,132
-314,212	-127,970	0,043	-0,004
-313,197	-200,000	-0,034	-0,181
-312,183	186,653	-0,023	-0,025
-311,168	-137,631	-0,023	-0,002
-310,153	131,191	0,071	-0,066
-309,139	32,298	0,017	-0,011
-308,124	-200,000	-0,001	0,061
-307,110	-43,185	0,090	0,033
-306,095	-136,589	0,067	-0,006
-305,080	60,849	0,037	0,026
-304,066	-132,645	0,049	-0,004
-303,051	49,739	-0,054	-0,037
-302,037	-180,014	0,105	-0,002
-301,022	800,000	-0,047	-0,131
-300,008	9,228	0,075	0,041
-298,993	-200,000	0,017	0,078
-297,978	800,000	0,004	0,011
-296,964	-122,638	-0,041	0,005
-295,949	250,966	0,036	0,045
-294,935	17,311	-0,086	0,049
-293,920	284,192	-0,033	0,043
-292,905	216,219	-0,062	-0,072
-291,891	37,580	0,058	-0,037
-290,876	800,000	0,052	0,142
-289,862	295,838	0,050	-0,066
-288,847	-200,000	0,011	-0,046
-287,832	114,026	-0,050	0,044
-286,818	-69,505	0,183	0,050
-285,803	733,583	0,073	0,143
-284,789	4,987	0,104	0,055
-283,774	-200,000	0,008	-0,086
-282,759	82,967	-0,052	-0,041
-281,745	318,683	-0,039	-0,054
-280,730	-200,000	-0,021	-0,104
-279,716	554,008	-0,014	0,025
-278,701	-22,043	0,096	-0,042
-277,686	0,942	-0,024	-0,012
-276,672	-200,000	0,035	0,142
-275,657	42,878	-0,127	-0,084
-274,643	101,243	-0,034	0,028
-273,628	800,000	-0,043	-0,122
-272,613	286,011	0,086	-0,112
-271,599	-200,000	0,007	0,091
-270,584	800,000	-0,036	0,110
-269,570	104,916	-0,013	0,011
-268,555	155,597	0,061	-0,060
-267,540	-21,850	0,104	-0,046
-266,526	49,738	-0,094	-0,064
-265,511	-200,000	-0,006	-0,032
-264,497	-121,153	-0,099	0,012
-263,482	-200,000	-0,027	-0,129
-262,467	-87,492	0,153	-0,033
-261,453	540,410	0,063	0,109
-260,438	-83,079	-0,053	-0,012
-259,424	-200,000	0,021	0,170
-258,409	-200,000	-0,025	0,090
-257,395	209,945	0,094	0,107
-256,380	444,604	0,013	0,021
-255,365	413,875	-0,057	0,087
-254,351	76,060	0,070	0,053
-253,336	-67,253	-0,093	-0,026
-252,322	74,811	-0,141	-0,108
-251,307	-104,733	0,071	-0,012
-250,292	-116,897	-0,201	-0,026
-249,278	434,338	0,065	0,102
-248,263	-200,000	-0,009	0,178
-247,249	-1,977	0,080	0,040
-246,234	140,378	-0,040	-0,038
-245,219	800,000	-0,058	-0,165
-244,205	-94,837	-0,038	-0,007
-243,190	-131,789	0,071	0,007
-242,176	375,287	0,060	0,088
-241,161	-94,503	0,130	0,025
-240,146	800,000	-0,040	0,128
-239,132	-200,000	0,010	-0,096
-238,117	-89,352	-0,191	0,040
-237,103	-200,000	0,005	-0,090
-236,088	118,915	0,050	0,045
-235,073	41,484	-0,039	0,026
-234,059	800,000	0,056	0,115
-233,044	-200,000	0,024	0,149
-232,030	71,992	0,093	-0,070
-231,015	-136,947	-0,071	-0,006
-230,000	115,287	-0,091	-0,080
-228,986	-200,000	0,015	-0,136
-227,971	-139,688	0,067	0,005
-226,957	-193,702	-0,025	0,000
-225,942	47,943	-0,048	0,032
-224,927	-192,823	0,108	0,001
-223,913	392,369	0,052	-0,078
-222,898	611,918	-0,025	-0,045
-221,884	-10,632	-0,031	-0,015
-220,869	204,538	0,189	0,212
-219,855	-200,000	-0,008	-0,026
-218,840	-29,108	0,018	0,007
-217,825	9,435	-0,055	0,030
-216,811	241,234	-0,109	-0,131
-215,796	50,632	0,055	-0,038
-214,782	278,452	-0,093	-0,120
-213,767	695,116	-0,056	0,107
-212,752	800,000	0,064	0,142
-211,738	-200,000	-0,007	0,091
-210,723	31,555	-0,059	0,037
-209,709	77,519	-0,108	0,083
-208,694	800,000	-0,034	0,076
-207,679	339,216	0,007	0,010
-206,665	800,000	0,066	-0,143
-205,650	-200,000	-0,033	0,113
-204,636	-200,000	0,002	-0,024
-203,621	288,468	0,043	0,056
-202,606	294,500	0,021	-0,027
-201,592	176,993	-0,081	-0,085
-200,577	-59,664	0,056	-0,017
-199,563	-6,099	-0,065	0,032
-198,548	-200,000	-0,014	0,104
-197,533	-200,000	-0,003	0,079
-196,519	-200,000	-0,031	0,118
-195,504	-57,211	-0,125	0,039
-194,490	505,099	0,012	-0,020
-193,475	-200,000	0,005	0,047
-192,460	-40,780	0,075	-0,028
-191,446	800,000	-0,060	-0,157
-190,431	542,138	0,089	-0,154
-189,417	198,989	-0,077	-0,086
-188,402	800,000	0,032	0,085
-187,387	-146,424	-0,063	-0,004
-186,373	141,050	-0,031	-0,029
-185,358	69,361	0,138	-0,103
-184,344	-161,607	-0,093	0,003
-183,329	-200,000	-0,055	0,223
-182,315	-200,000	-0,014	-0,047
-181,300	100,925	0,044	-0,037
-180,285	-200,000	-0,023	0,128
-179,271	221,150	-0,025	-0,029
-178,256	-136,733	-0,080	-0,007
-177,242	414,331	0,085	0,130
-176,227	-104,464	-0,026	0,004
-175,212	224,911	-0,028	0,033
-174,198	392,399	0,041	-0,061
-173,183	152,151	-0,069	0,068
-172,169	800,000	-0,032	0,098
-171,154	800,000	0,067	-0,146
-170,139	-200,000	0,017	0,063
-169,125	-200,000	-0,006	0,167
-168,110	-200,000	0,007	0,079
-167,096	27,640	0,047	-0,028
-166,081	800,000	0,017	-0,043
-165,066	255,089	-0,090	-0,111
-164,052	-200,000	-0,010	-0,070
-163,037	-178,142	-0,019	0,000
-162,023	-43,316	0,157	0,057
-161,008	-200,000	-0,028	-0,122
-159,993	-157,830	0,287	0,012
-158,979	-200,000	0,006	-0,050
-157,964	682,418	0,033	-0,063
-156,950	-89,887	-0,135	0,028
-155,935	-85,632	-0,090	0,020
-154,920	161,497	0,039	0,039
-153,906	114,087	0,037	0,033
-152,891	-200,000	0,025	-0,145
-151,877	-200,000	-0,013	-0,060
-150,862	800,000	0,065	-0,170
-149,847	-102,022	-0,145	0,025
-148,833	-200,000	0,024	0,105
-147,818	-122,237	0,097	-0,011
-146,804	47,598	0,170	-0,114
-145,789	1,096	0,036	-0,019
-144,775	-75,657	-0,074	-0,019
-143,760	800,000	0,084	-0,205
-142,745	-200,000	0,011	0,078
-141,731	124,570	0,047	-0,042
-140,716	-111,805	0,107	0,015
-139,702	-50,665	0,182	0,061
-138,687	-59,209	0,025	-0,008
-137,672	449,696	-0,053	0,085
-136,658	-60,161	0,055	0,017
-135,643	504,678	-0,078	-0,130
-134,629	243,959	-0,035	0,043
-133,614	80,769	0,046	-0,036
-132,599	16,052	0,083	0,047
-131,585	-200,000	0,003	0,137
-130,570	-200,000	-0,009	0,078
-129,556	55,460	-0,075	0,052
-128,541	-39,185	0,076	0,029
-127,526	774,903	-0,043	-0,084
-126,512	-126,607	0,094	-0,010
-125,497	205,219	-0,047	-0,053
-124,483	800,000	0,047	0,124
-123,468	800,000	-0,037	-0,108
-122,453	-108,655	-0,141	0,021
-121,439	-200,000	-0,015	-0,105
-120,424	69,399	0,067	-0,049
-119,410	0,258	0,091	0,047
