DTS Sentinel unit serial number:	SN410029Multiplexer serial number:	ORYXHardware model number:	OX2-SRSoftware version number:	ORYX F/W v4,00 Oryx Data Collector v3.7.2.0data status	okinstallation	B6 Nyhavnadifferential loss correction	single-endedforward channel	channel 2reverse channel	N/Adate	2023/12/08time	04:15:08forward acquisition time	300,00reverse acquisition time	0,00gamma	499,1914k internal	0,3165k external	0,3165temperature offset calibration	1,0000default loss term (dB/km)	0,3820temperature slope calibration	1,0000multiplexer offset coefficient	1,0000multiplexer slope coefficient	1,0000fibre end	0,00T internal ref (°C)	13,06T ext. ref 1 (°C)	-3,80T ext. ref 2 (°C)	-3,80length (m)	temperature (°C)	Stokes	anti-Stokes-744,400	683,996	0,030	0,058
-743,385	-101,598	-0,418	-0,074
-742,371	-114,473	0,302	0,042
-741,356	-92,301	-0,290	0,060
-740,342	-200,000	-0,011	0,083
-739,327	-112,846	-0,357	-0,051
-738,312	178,010	0,092	0,099
-737,298	-104,438	-0,420	-0,071
-736,283	-38,098	0,166	0,064
-735,269	-65,182	-0,265	0,078
-734,254	-83,708	0,024	0,006
-733,239	-49,199	-0,449	-0,157
-732,225	-37,587	0,205	0,080
-731,210	800,000	0,017	0,040
-730,196	-200,000	-0,010	0,088
-729,181	-200,000	-0,125	-0,000
-728,167	-200,000	-0,019	-0,079
-727,152	-200,000	0,047	-0,201
-726,137	-200,000	0,009	0,100
-725,123	-200,000	-0,025	-0,127
-724,108	372,687	0,058	-0,088
-723,094	-200,000	0,005	-0,073
-722,079	-55,215	0,080	-0,026
-721,064	5,850	0,074	0,040
-720,050	109,900	0,092	0,081
-719,035	-60,433	-0,133	0,041
-718,021	53,539	-0,090	0,063
-717,006	36,972	-0,048	0,031
-715,991	9,321	-0,197	-0,109
-714,977	447,973	-0,035	0,057
-713,962	410,584	-0,073	-0,114
-712,948	-200,000	-0,005	-0,032
-711,933	81,550	-0,017	-0,013
-710,918	800,000	-0,020	0,043
-709,904	169,373	-0,107	0,113
-708,889	-200,000	-0,028	0,140
-707,875	-200,000	-0,012	-0,064
-706,860	-113,333	-0,153	0,022
-705,845	343,759	-0,088	0,128
-704,831	-156,322	0,185	-0,008
-703,816	406,450	0,061	0,095
-702,802	196,662	-0,064	-0,072
-701,787	-148,360	0,153	0,009
-700,772	-200,000	0,024	-0,126
-699,758	-169,200	-0,111	0,003
-698,743	-200,000	0,049	0,166
-697,729	-200,000	0,011	-0,101
-696,714	427,073	0,065	0,104
-695,699	-200,000	-0,001	-0,103
-694,685	-200,000	-0,009	-0,079
-693,670	-4,348	-0,077	0,039
-692,656	800,000	0,004	0,012
-691,641	-200,000	0,019	0,065
-690,627	-124,217	0,079	-0,009
-689,612	757,044	0,002	0,003
-688,597	-11,251	-0,055	-0,027
-687,583	115,722	-0,117	0,105
-686,568	132,097	0,081	-0,076
-685,554	-200,000	-0,020	-0,065
-684,539	-62,202	0,221	-0,067
-683,524	31,760	0,026	0,017
-682,510	800,000	-0,013	0,031
-681,495	-130,462	-0,125	-0,012
-680,481	-73,881	-0,076	0,020
-679,466	-200,000	-0,013	-0,145
-678,451	-159,293	0,146	-0,006
-677,437	152,542	-0,056	0,057
-676,422	-200,000	-0,019	0,063
-675,408	136,943	-0,088	0,085
-674,393	-99,926	-0,105	-0,019
-673,378	-200,000	-0,026	-0,119
-672,364	-200,000	-0,003	0,044
-671,349	-165,846	-0,097	-0,003
-670,335	-200,000	0,002	-0,037
-669,320	418,667	0,106	0,167
-668,305	-99,461	0,052	0,009
-667,291	73,768	-0,032	-0,025
-666,276	-200,000	-0,004	0,035
-665,262	195,974	-0,044	-0,049
-664,247	105,714	0,043	-0,037
-663,232	-200,000	-0,002	0,195
-662,218	67,036	-0,061	0,046
-661,203	136,196	0,021	-0,020
-660,189	-160,921	0,147	0,006
-659,174	-200,000	-0,037	-0,124
-658,159	66,286	-0,023	0,017
-657,145	20,237	-0,064	0,038
-656,130	-119,354	-0,038	0,005
-655,116	412,076	0,024	0,038
-654,101	800,000	0,025	0,078
-653,086	445,934	0,050	0,081
-652,072	360,596	-0,057	0,083
-651,057	31,731	-0,153	-0,096
-650,043	528,935	-0,082	-0,143
-649,028	-200,000	0,003	-0,156
-648,014	800,000	-0,024	0,062
-646,999	87,591	-0,087	0,071
-645,984	65,832	0,184	0,137
-644,970	219,822	0,035	0,041
-643,955	55,216	-0,050	0,036
-642,941	506,283	-0,057	0,097
-641,926	228,572	0,059	-0,071
-640,911	-106,454	-0,088	0,014
-639,897	-7,750	0,058	0,028
-638,882	1,529	-0,074	-0,039
-637,868	513,332	0,093	0,160
-636,853	-200,000	-0,010	0,073
-635,838	15,797	-0,053	0,030
-634,824	-80,575	0,120	0,029
-633,809	12,726	0,059	0,033
-632,795	225,162	0,050	-0,060
-631,780	-29,754	-0,013	-0,005
-630,765	317,285	0,025	-0,034
-629,751	-68,020	-0,092	0,026
-628,736	115,223	-0,050	-0,045
-627,722	-173,714	-0,063	-0,001
-626,707	-52,031	0,105	-0,035
-625,692	800,000	0,050	0,110
-624,678	104,933	0,070	0,061
-623,663	419,435	-0,034	-0,054
-622,649	60,507	-0,048	0,035
-621,634	521,758	-0,021	0,036
-620,619	-200,000	0,018	0,074
-619,605	-200,000	-0,009	0,106
-618,590	-200,000	-0,029	0,096
-617,576	800,000	0,022	-0,062
-616,561	-200,000	-0,013	0,117
-615,546	70,623	0,002	-0,001
-614,532	-18,668	0,053	-0,024
-613,517	-200,000	-0,002	-0,101
-612,503	-196,594	-0,130	-0,001
-611,488	-200,000	-0,026	-0,124
-610,474	-89,761	-0,102	0,022
-609,459	200,829	0,044	0,049
-608,444	655,507	-0,051	0,097
-607,430	363,944	-0,056	-0,082
-606,415	-17,204	-0,056	-0,026
-605,401	414,853	0,077	-0,120
-604,386	-51,845	0,094	0,032
-603,371	-200,000	0,007	-0,150
-602,357	800,000	0,049	0,112
-601,342	800,000	0,050	-0,107
-600,328	800,000	0,020	0,061
-599,313	296,472	-0,084	-0,112
-598,298	-200,000	0,008	-0,130
-597,284	-67,977	0,171	0,048
-596,269	-141,053	0,031	0,002
-595,255	800,000	0,064	0,158
-594,240	-56,182	0,049	0,016
-593,225	-26,637	0,030	0,013
-592,211	223,749	-0,043	0,051
-591,196	32,085	0,082	-0,052
-590,182	-132,726	-0,136	0,013
-589,167	244,142	0,066	0,082
-588,152	-177,693	0,036	-0,001
-587,138	-200,000	0,017	-0,116
-586,123	569,080	0,020	-0,036
-585,109	-200,000	-0,005	0,051
-584,094	700,566	-0,006	-0,012
-583,079	500,899	0,052	0,089
-582,065	341,116	-0,055	-0,079
-581,050	10,374	-0,062	-0,035
-580,036	-200,000	-0,012	0,062
-579,021	800,000	-0,040	-0,099
-578,006	800,000	0,050	-0,103
-576,992	-108,560	0,066	-0,010
-575,977	-200,000	0,019	-0,097
-574,963	259,593	-0,025	0,032
-573,948	155,572	-0,029	-0,030
-572,934	277,945	-0,051	0,067
-571,919	302,190	-0,137	0,186
-570,904	-102,740	-0,107	0,019
-569,890	113,258	-0,087	-0,077
-568,875	-200,000	-0,021	0,093
-567,861	192,235	0,090	-0,100
-566,846	-43,449	0,040	-0,015
-565,831	608,662	-0,046	-0,084
-564,817	-77,883	0,075	0,019
-563,802	76,244	0,056	0,044
-562,788	-76,422	-0,076	0,019
-561,773	344,288	-0,013	-0,018
-560,758	166,374	0,089	-0,092
-559,744	41,262	-0,054	-0,036
-558,729	-158,536	0,051	-0,002
-557,715	38,480	-0,160	-0,104
-556,700	-168,034	-0,033	0,001
-555,685	-94,927	-0,092	0,018
-554,671	-78,480	0,146	-0,036
-553,656	-200,000	-0,012	-0,051
-552,642	-3,410	0,065	-0,033
-551,627	-112,112	-0,104	0,015
-550,612	57,894	0,010	-0,007
-549,598	132,420	-0,105	-0,099
-548,583	133,371	-0,151	-0,142
-547,569	-21,685	0,057	0,025
-546,554	89,730	0,077	0,063
-545,539	76,843	0,047	-0,036
-544,525	147,761	-0,050	0,049
-543,510	-189,993	0,071	0,001
-542,496	-200,000	-0,005	0,045
-541,481	9,466	-0,149	-0,082
-540,466	800,000	-0,087	-0,218
-539,452	-18,910	0,064	0,029
-538,437	142,355	0,086	0,084
-537,423	652,352	-0,081	0,153
-536,408	239,630	0,093	0,113
-535,393	-200,000	-0,001	0,062
-534,379	-200,000	-0,006	-0,084
-533,364	606,095	-0,056	0,102
-532,350	-53,116	-0,099	0,033
-531,335	-200,000	-0,002	-0,045
-530,321	348,736	0,004	0,005
-529,306	-200,000	-0,022	-0,174
-528,291	702,264	-0,045	-0,087
-527,277	138,791	-0,068	-0,065
-526,262	202,854	0,025	0,029
-525,248	-174,018	-0,032	0,001
-524,233	-200,000	0,011	0,158
-523,218	-33,576	0,094	-0,038
-522,204	-200,000	-0,016	0,097
-521,189	224,930	0,034	0,040
-520,175	-200,000	0,010	0,069
-519,160	446,802	-0,069	0,110
-518,145	69,805	0,029	0,022
-517,131	-77,385	0,096	-0,024
-516,116	-62,413	0,074	-0,022
-515,102	229,943	-0,038	0,046
-514,087	800,000	-0,002	-0,006
-513,072	-89,011	-0,112	0,024
-512,058	5,454	-0,081	-0,043
-511,043	312,254	0,066	0,090
-510,029	800,000	0,015	0,045
-509,014	-79,685	0,044	-0,011
-507,999	33,130	0,071	0,045
-506,985	-26,886	-0,136	0,058
-505,970	52,913	0,050	-0,035
-504,956	18,120	-0,126	-0,073
-503,941	800,000	0,027	0,072
-502,926	-107,821	0,067	-0,011
-501,912	26,945	0,135	-0,082
-500,897	-73,458	0,049	-0,013
-499,883	85,848	0,005	0,004
-498,868	800,000	-0,024	0,051
-497,853	-123,161	-0,041	0,005
-496,839	9,982	-0,064	0,036
-495,824	446,663	-0,081	0,130
-494,810	-25,607	0,109	-0,047
-493,795	-21,976	-0,169	-0,075
-492,781	574,240	-0,032	-0,056
-491,766	-200,000	0,003	-0,085
-490,751	246,480	-0,049	-0,060
-489,737	-200,000	0,015	-0,076
-488,722	-50,328	0,165	0,056
-487,708	-77,827	-0,112	-0,028
-486,693	-11,848	0,022	0,010
-485,678	800,000	-0,020	-0,042
-484,664	651,927	0,024	-0,044
-483,649	-43,245	0,110	-0,040
-482,635	325,547	0,063	-0,088
-481,620	97,789	0,032	0,027
-480,605	-200,000	0,007	0,065
-479,591	-200,000	0,016	0,177
-478,576	84,943	-0,079	-0,063
-477,562	-84,513	0,028	-0,006
-476,547	139,468	-0,074	0,071
-475,532	-27,224	0,048	-0,020
-474,518	-68,614	0,113	0,032
-473,503	318,673	-0,107	0,148
-472,489	-89,835	0,037	0,008
-471,474	282,006	0,055	-0,072
-470,459	723,237	0,034	-0,066
-469,445	663,378	-0,065	0,123
-468,430	800,000	-0,016	-0,041
-467,416	599,797	-0,099	-0,179
-466,401	86,023	0,112	0,090
-465,386	-134,411	-0,109	0,010
-464,372	-200,000	0,015	-0,124
-463,357	-58,557	0,071	0,022
-462,343	117,972	0,062	0,056
-461,328	648,673	0,066	-0,123
-460,313	348,277	-0,082	-0,119
-459,299	-200,000	0,016	0,090
-458,284	437,452	0,013	-0,021
-457,270	114,722	0,028	-0,025
-456,255	-6,625	-0,077	0,038
-455,241	-121,627	-0,076	0,009
-454,226	-92,512	-0,106	0,022
-453,211	-106,911	0,025	-0,004
-452,197	-200,000	-0,011	0,038
-451,182	448,338	0,044	0,071
-450,168	-200,000	-0,002	-0,023
-449,153	38,344	0,102	-0,066
-448,138	-76,329	-0,099	0,025
-447,124	401,329	-0,039	0,060
-446,109	136,621	-0,120	-0,114
-445,095	-133,841	-0,038	-0,003
-444,080	418,890	-0,034	0,053
-443,065	252,973	-0,077	-0,096
-442,051	-143,666	0,094	0,006
-441,036	-93,103	0,017	-0,003
-440,022	-49,721	0,028	-0,010
-439,007	800,000	-0,028	-0,071
-437,992	-200,000	0,020	0,110
-436,978	366,080	0,080	0,117
-435,963	800,000	-0,059	0,142
-434,949	-63,580	-0,092	-0,027
-433,934	-22,268	-0,073	-0,032
-432,919	-200,000	-0,002	-0,108
-431,905	163,429	0,110	0,113
-430,890	800,000	-0,028	0,058
-429,876	626,522	0,069	-0,127
-428,861	673,968	0,018	-0,035
-427,846	26,860	0,111	0,068
-426,832	-200,000	0,010	-0,056
-425,817	55,110	-0,070	0,049
-424,803	-127,912	0,172	-0,018
-423,788	-160,582	-0,025	-0,001
-422,773	-122,035	-0,126	-0,015
-421,759	-115,625	0,083	0,011
-420,744	89,667	-0,069	0,056
-419,730	-200,000	-0,006	-0,099
-418,715	603,043	0,028	-0,052
-417,701	531,759	0,014	-0,024
-416,686	-72,680	0,066	-0,018
-415,671	800,000	-0,007	-0,019
-414,657	80,694	0,148	-0,116
-413,642	800,000	0,032	-0,069
-412,628	-105,835	0,035	0,006
-411,613	153,465	-0,033	0,033
-410,598	197,267	0,078	-0,087
-409,584	-200,000	0,008	0,086
-408,569	-200,000	0,036	0,145
-407,555	800,000	0,073	0,180
-406,540	320,115	0,040	0,055
-405,525	-98,162	-0,110	-0,020
-404,511	-90,787	-0,072	-0,015
-403,496	42,609	0,123	0,081
-402,482	-200,000	0,009	0,031
-401,467	800,000	0,017	0,035
-400,452	800,000	-0,010	0,028
-399,438	-200,000	0,003	0,069
-398,423	129,365	-0,067	0,062
-397,409	505,807	-0,094	-0,159
-396,394	-200,000	-0,040	-0,133
-395,379	-94,409	0,096	0,019
-394,365	800,000	0,063	0,132
-393,350	-200,000	-0,001	-0,036
-392,336	323,609	0,061	0,085
-391,321	-200,000	-0,003	0,015
-390,306	-71,113	-0,064	-0,017
-389,292	378,182	-0,009	-0,014
-388,277	-200,000	-0,006	0,119
-387,263	42,877	0,105	0,069
-386,248	800,000	0,048	0,116
-385,233	319,504	0,025	-0,035
-384,219	-200,000	0,003	-0,183
-383,204	-200,000	-0,015	-0,139
-382,190	-200,000	0,036	-0,148
-381,175	-151,044	0,064	-0,003
-380,160	-36,225	-0,085	-0,033
-379,146	264,524	0,089	-0,113
-378,131	110,857	0,069	-0,060
-377,117	-68,371	-0,074	0,021
-376,102	-33,001	-0,104	-0,042
-375,088	-159,681	0,049	-0,002
-374,073	-117,024	-0,134	0,018
-373,058	-200,000	0,049	0,187
-372,044	800,000	-0,024	0,066
-371,029	800,000	0,017	0,037
-370,015	-200,000	-0,059	0,000
-369,000	34,069	0,113	-0,071
-367,985	-18,737	-0,147	-0,066
-366,971	800,000	-0,017	0,039
-365,956	800,000	-0,027	0,064
-364,942	136,942	0,132	-0,125
-363,927	367,424	0,067	0,098
-362,912	278,802	0,104	0,134
-361,898	-200,000	0,008	0,072
-360,883	151,793	-0,056	-0,056
-359,869	-128,196	0,055	0,006
-358,854	-77,628	-0,079	-0,020
-357,839	270,708	-0,086	0,110
-356,825	-200,000	-0,040	0,168
-355,810	-12,017	0,035	0,016
-354,796	162,264	0,057	-0,058
-353,781	-200,000	0,002	-0,139
-352,766	-200,000	-0,009	0,060
-351,752	171,695	0,155	0,161
-350,737	290,118	0,044	-0,058
-349,723	-72,378	-0,054	0,014
-348,708	602,955	0,049	-0,089
-347,693	-119,967	-0,253	-0,031
-346,679	524,647	-0,090	-0,154
-345,664	800,000	-0,066	-0,164
-344,650	-71,072	0,086	0,023
-343,635	800,000	-0,057	0,119
-342,620	3,979	-0,032	0,017
-341,606	-141,944	-0,131	-0,009
-340,591	93,177	-0,046	-0,038
-339,577	62,843	-0,092	-0,066
-338,562	-29,998	0,059	0,024
-337,548	-173,941	0,070	-0,001
-336,533	800,000	0,024	-0,057
-335,518	134,363	0,053	0,049
-334,504	178,071	-0,105	0,111
-333,489	-25,675	-0,132	0,056
-332,475	243,663	0,088	0,107
-331,460	-200,000	-0,002	-0,073
-330,445	60,820	-0,092	-0,066
-329,431	-37,149	-0,047	-0,018
-328,416	105,236	-0,047	-0,040
-327,402	562,560	-0,035	0,061
-326,387	-45,772	-0,132	0,047
-325,372	399,151	-0,071	-0,107
-324,358	-160,789	-0,097	-0,004
-323,343	787,697	-0,023	-0,045
-322,329	-63,930	0,101	0,030
-321,314	-22,215	0,058	0,025
-320,299	-200,000	-0,012	-0,041
-319,285	-78,172	-0,039	-0,010
-318,270	-200,000	0,006	-0,021
-317,256	291,788	-0,080	0,105
-316,241	391,496	-0,092	-0,138
-315,226	800,000	0,052	0,107
-314,212	-60,053	-0,088	0,027
-313,197	69,635	0,096	0,072
-312,183	689,454	-0,022	-0,041
-311,168	-42,019	-0,102	0,038
-310,153	-200,000	0,016	-0,119
-309,139	12,840	-0,116	0,065
-308,124	-92,926	0,028	0,006
-307,110	-176,594	-0,110	0,002
-306,095	-21,854	0,150	0,066
-305,080	-106,359	-0,105	-0,017
-304,066	-200,000	-0,034	-0,111
-303,051	-200,000	-0,026	-0,175
-302,037	-200,000	-0,033	-0,229
-301,022	79,776	0,080	-0,062
-300,008	800,000	-0,056	0,117
-298,993	487,995	-0,022	0,037
-297,978	-200,000	-0,011	0,075
-296,964	-96,310	0,140	0,027
-295,949	556,299	-0,044	-0,077
-294,935	-103,621	0,063	0,011
-293,920	-93,910	-0,054	0,011
-292,905	-164,307	0,065	0,002
-291,891	216,556	0,067	-0,078
-290,876	-58,908	-0,058	-0,018
-289,862	800,000	-0,024	0,075
-288,847	65,379	-0,085	-0,062
-287,832	122,356	0,048	0,043
-286,818	75,686	0,050	-0,038
-285,803	-200,000	-0,023	-0,099
-284,789	21,329	0,043	0,025
-283,774	154,378	-0,008	0,008
-282,759	-30,317	-0,101	0,041
-281,745	-35,536	-0,193	0,075
-280,730	-200,000	0,008	0,031
-279,716	221,745	-0,098	0,114
-278,701	299,839	0,041	0,054
-277,686	800,000	0,010	0,024
-276,672	336,540	0,050	0,070
-275,657	-200,000	-0,016	-0,062
-274,643	45,901	0,101	0,068
-273,628	55,983	-0,050	-0,035
-272,613	-200,000	0,005	-0,060
-271,599	-200,000	0,017	-0,071
-270,584	150,433	-0,121	-0,119
-269,570	420,568	0,041	0,064
-268,555	30,236	-0,024	0,015
-267,540	-50,309	-0,078	0,026
-266,526	109,310	0,017	0,014
-265,511	-200,000	-0,017	-0,092
-264,497	121,103	0,043	0,039
-263,482	-34,726	0,098	0,039
-262,467	-10,114	0,093	-0,044
-261,453	-200,000	-0,015	-0,058
-260,438	50,923	0,113	-0,077
-259,424	517,288	0,041	-0,069
-258,409	730,145	0,035	0,067
-257,395	800,000	0,024	-0,052
-256,380	-6,827	0,128	-0,062
-255,365	12,866	0,115	-0,064
-254,351	401,391	0,094	0,144
-253,336	-200,000	-0,010	0,085
-252,322	270,382	0,077	-0,098
-251,307	606,514	0,064	-0,116
-250,292	387,550	0,044	0,065
-249,278	-180,559	0,128	0,002
-248,263	-93,124	0,044	0,009
-247,249	238,893	0,061	0,073
-246,234	-200,000	0,027	0,136
-245,219	-200,000	-0,005	-0,090
-244,205	-141,908	0,122	0,009
-243,190	-200,000	-0,010	-0,042
-242,176	71,335	-0,039	0,030
-241,161	800,000	-0,012	-0,032
-240,146	-6,006	0,064	-0,032
-239,132	800,000	-0,041	0,126
-238,117	91,997	-0,088	-0,072
-237,103	104,130	0,091	-0,077
-236,088	63,921	-0,070	-0,050
-235,073	-200,000	-0,030	0,216
-234,059	-200,000	-0,021	-0,069
-233,044	35,898	0,109	0,069
-232,030	158,235	0,041	-0,041
-231,015	126,846	-0,068	-0,062
-230,000	97,090	-0,156	-0,129
-228,986	18,720	0,156	0,090
-227,971	-83,168	0,061	0,014
-226,957	2,890	0,168	-0,087
-225,942	275,679	-0,058	0,075
-224,927	212,614	-0,019	0,022
-223,913	-200,000	-0,025	-0,081
-222,898	177,325	0,024	0,025
-221,884	316,216	-0,058	-0,079
-220,869	-200,000	0,005	-0,078
-219,855	123,683	0,077	0,069
-218,840	-200,000	0,023	0,117
-217,825	10,719	-0,056	0,031
-216,811	-99,381	-0,069	-0,012
-215,796	-175,024	-0,079	0,002
-214,782	800,000	0,053	-0,138
-213,767	-200,000	0,025	-0,123
-212,752	-83,619	-0,067	0,015
-211,738	191,590	0,045	-0,049
-210,723	800,000	-0,016	0,050
-209,709	204,634	-0,103	-0,115
-208,694	80,085	0,100	-0,077
-207,679	45,862	-0,042	-0,028
-206,665	44,273	-0,029	-0,019
-205,650	-18,751	-0,054	0,024
-204,636	606,372	-0,022	0,039
-203,621	570,341	-0,053	0,094
-202,606	-101,937	-0,102	-0,018
-201,592	800,000	-0,028	-0,062
-200,577	-64,137	-0,008	0,002
-199,563	108,580	0,125	0,108
-198,548	50,726	0,058	0,039
-197,533	19,937	0,138	-0,080
-196,519	-200,000	-0,023	0,080
-195,504	287,473	-0,083	0,108
-194,490	125,790	0,084	-0,076
-193,475	-83,068	0,166	0,038
-192,460	-200,000	0,012	0,278
-191,446	-28,227	0,143	0,059
-190,431	-200,000	0,009	-0,033
-189,417	-123,140	-0,035	0,004
-188,402	-27,284	0,085	0,036
-187,387	800,000	-0,020	0,047
-186,373	-111,057	-0,006	-0,001
-185,358	35,753	-0,051	0,032
-184,344	-200,000	-0,009	0,070
-183,329	-132,581	0,071	-0,006
-182,315	54,284	-0,032	0,022
-181,300	-100,844	-0,032	-0,006
-180,285	52,444	0,064	-0,044
-179,271	19,438	-0,026	-0,015
-178,256	-130,933	-0,095	-0,009
-177,242	-129,803	0,103	0,010
-176,227	9,082	0,087	0,047
-175,212	3,223	0,036	0,019
-174,198	255,473	0,081	-0,100
-173,183	112,295	-0,014	0,012
-172,169	-200,000	-0,004	-0,040
-171,154	-91,545	-0,162	0,033
-170,139	-200,000	0,007	0,032
-169,125	151,658	-0,029	-0,028
-168,110	27,514	0,077	0,047
-167,096	-200,000	-0,030	-0,109
-166,081	-200,000	0,008	-0,027
-165,066	360,027	-0,057	-0,083
-164,052	68,377	-0,044	-0,032
-163,037	800,000	-0,062	0,146
-162,023	-200,000	-0,017	0,095
-161,008	175,407	0,086	-0,089
-159,993	-41,750	-0,064	0,023
-158,979	-75,760	-0,139	0,035
-157,964	800,000	0,018	0,044
-156,950	800,000	-0,070	-0,143
-155,935	800,000	0,047	-0,118
-154,920	-123,979	0,034	0,004
-153,906	-129,680	-0,041	0,004
-152,891	-200,000	0,014	-0,065
-151,877	153,775	-0,113	-0,112
-150,862	130,023	0,064	-0,059
-149,847	18,386	-0,059	0,033
-148,833	800,000	0,049	-0,103
-147,818	100,528	-0,047	0,039
-146,804	338,802	0,068	0,095
-145,789	589,067	0,026	0,046
-144,775	-200,000	-0,006	-0,109
-143,760	-48,801	-0,118	0,040
-142,745	0,212	0,049	-0,025
-141,731	-200,000	0,002	0,064
-140,716	-168,574	0,139	0,004
-139,702	-144,597	0,052	-0,003
-138,687	289,152	-0,088	-0,115
-137,672	-142,331	0,095	-0,007
-136,658	227,081	0,134	-0,157
-135,643	-110,900	-0,137	0,020
-134,629	493,039	-0,067	0,110
-133,614	93,041	0,084	-0,068
-132,599	-93,619	0,077	0,015
-131,585	-200,000	0,002	0,093
-130,570	-186,430	0,017	-0,000
-129,556	43,499	-0,089	0,058
-128,541	516,694	-0,025	0,042
-127,526	36,536	-0,074	0,047
-126,512	213,453	0,071	-0,080
-125,497	86,307	0,070	0,055
-124,483	-188,132	-0,091	-0,001
-123,468	-163,013	-0,078	-0,003
-122,453	-129,173	-0,190	0,019
-121,439	-200,000	-0,012	-0,066
-120,424	800,000	0,040	-0,118
-119,410	-8,506	0,035	-0,017
-118,395	-200,000	0,025	0,082
