DTS Sentinel unit serial number:	SN410029Multiplexer serial number:	ORYXHardware model number:	OX2-SRSoftware version number:	ORYX F/W v4,00 Oryx Data Collector v3.7.2.0data status	okinstallation	B6 Nyhavnadifferential loss correction	single-endedforward channel	channel 2reverse channel	N/Adate	2023/12/10time	02:25:08forward acquisition time	300,00reverse acquisition time	0,00gamma	499,1914k internal	0,3125k external	0,3125temperature offset calibration	1,0000default loss term (dB/km)	0,3820temperature slope calibration	1,0000multiplexer offset coefficient	1,0000multiplexer slope coefficient	1,0000fibre end	0,00T internal ref (°C)	21,94T ext. ref 1 (°C)	5,73T ext. ref 2 (°C)	5,72length (m)	temperature (°C)	Stokes	anti-Stokes-744,400	55,731	-0,110	-0,079
-743,385	129,596	-0,132	0,126
-742,371	-102,283	0,237	-0,042
-741,356	-65,247	-0,200	0,060
-740,342	800,000	0,011	0,028
-739,327	46,438	-0,195	0,134
-738,312	-139,460	0,041	0,003
-737,298	-64,521	-0,295	0,089
-736,283	-200,000	-0,007	-0,040
-735,269	186,837	-0,189	0,210
-734,254	74,859	-0,088	0,069
-733,239	-148,189	-0,475	0,029
-732,225	78,127	0,083	0,066
-731,210	437,009	-0,068	0,111
-730,196	-41,236	-0,155	-0,059
-729,181	115,627	0,056	-0,051
-728,167	-154,236	-0,160	0,008
-727,152	-200,000	-0,018	-0,067
-726,137	236,834	-0,110	-0,136
-725,123	-23,414	-0,072	-0,032
-724,108	-200,000	-0,001	-0,015
-723,094	-74,269	-0,127	-0,034
-722,079	-9,038	0,105	-0,052
-721,064	-102,105	-0,177	0,031
-720,050	-156,017	-0,114	0,005
-719,035	-96,573	0,063	-0,012
-718,021	-17,196	-0,128	-0,060
-717,006	-128,283	-0,027	0,003
-715,991	396,522	0,051	-0,079
-714,977	355,206	-0,040	-0,059
-713,962	306,483	-0,030	0,042
-712,948	-82,976	-0,022	0,005
-711,933	245,770	-0,065	-0,082
-710,918	800,000	-0,022	-0,071
-709,904	-200,000	0,015	-0,079
-708,889	-21,179	0,059	0,027
-707,875	97,801	0,030	-0,025
-706,860	98,938	-0,051	0,044
-705,845	-43,137	0,116	-0,044
-704,831	800,000	0,023	-0,068
-703,816	-200,000	0,004	0,103
-702,802	-146,535	-0,085	-0,005
-701,787	303,640	-0,074	-0,103
-700,772	272,143	-0,040	-0,053
-699,758	173,686	0,114	0,122
-698,743	586,468	0,023	0,042
-697,729	207,696	0,075	0,087
-696,714	141,122	0,036	0,036
-695,699	512,172	-0,019	0,033
-694,685	267,015	0,052	0,068
-693,670	-149,906	0,092	-0,005
-692,656	-97,041	0,063	-0,012
-691,641	386,873	0,059	-0,091
-690,627	112,879	-0,039	-0,035
-689,612	-200,000	-0,001	-0,065
-688,597	113,252	-0,028	-0,025
-687,583	-200,000	-0,039	-0,134
-686,568	86,308	-0,150	-0,123
-685,554	-18,794	0,079	-0,036
-684,539	43,176	-0,077	0,052
-683,524	686,609	-0,032	0,062
-682,510	-200,000	0,028	0,139
-681,495	465,125	0,089	-0,148
-680,481	431,721	-0,097	-0,158
-679,466	160,857	-0,119	-0,123
-678,451	-200,000	0,023	0,123
-677,437	106,462	0,030	0,026
-676,422	93,898	-0,065	-0,054
-675,408	138,812	-0,066	0,064
-674,393	-114,454	0,086	-0,012
-673,378	-133,949	-0,065	-0,006
-672,364	-136,648	-0,090	0,008
-671,349	-200,000	0,007	0,043
-670,335	7,476	-0,125	0,069
-669,320	-124,411	-0,118	-0,013
-668,305	-200,000	0,004	-0,049
-667,291	-200,000	0,004	-0,035
-666,276	-132,655	-0,156	0,015
-665,262	-200,000	0,005	0,046
-664,247	-109,372	-0,061	-0,010
-663,232	161,414	0,056	0,058
-662,218	-200,000	-0,011	0,042
-661,203	-120,698	-0,071	-0,009
-660,189	-80,180	-0,038	0,009
-659,174	-200,000	0,016	-0,132
-658,159	-85,973	-0,110	0,025
-657,145	800,000	-0,036	-0,086
-656,130	-18,631	0,064	0,029
-655,116	-200,000	0,022	0,184
-654,101	-200,000	-0,011	0,082
-653,086	158,687	-0,026	0,027
-652,072	-143,423	0,132	0,009
-651,057	97,016	-0,020	0,017
-650,043	-8,910	-0,155	0,077
-649,028	-40,319	0,065	-0,025
-648,014	-200,000	0,023	-0,107
-646,999	619,544	-0,041	0,076
-645,984	-150,350	-0,043	0,002
-644,970	135,246	-0,013	0,013
-643,955	282,476	0,049	-0,066
-642,941	800,000	0,023	-0,058
-641,926	60,820	0,069	-0,050
-640,911	-66,308	-0,065	-0,019
-639,897	-16,026	-0,085	-0,040
-638,882	367,149	-0,053	0,080
-637,868	-112,138	0,085	-0,013
-636,853	-36,313	0,020	-0,008
-635,838	714,002	-0,028	0,056
-634,824	217,128	0,063	-0,074
-633,809	800,000	0,006	0,017
-632,795	-200,000	-0,001	0,008
-631,780	-200,000	-0,007	0,072
-630,765	-200,000	0,000	-0,103
-629,751	637,168	-0,011	-0,020
-628,736	335,245	-0,042	0,061
-627,722	-53,370	0,065	-0,022
-626,707	-200,000	-0,019	0,069
-625,692	800,000	-0,030	0,091
-624,678	446,421	0,013	-0,021
-623,663	-94,062	-0,039	-0,008
-622,649	-200,000	0,016	0,057
-621,634	800,000	0,064	-0,134
-620,619	-128,767	-0,116	-0,012
-619,605	100,370	0,083	0,071
-618,590	-3,735	-0,055	-0,028
-617,576	583,726	-0,023	-0,042
-616,561	529,559	-0,027	-0,048
-615,546	26,513	-0,015	-0,009
-614,532	-200,000	-0,033	-0,117
-613,517	-12,444	0,051	0,025
-612,503	260,297	-0,081	-0,104
-611,488	657,546	0,067	0,128
-610,474	-123,536	-0,153	-0,018
-609,459	-200,000	0,008	-0,042
-608,444	-200,000	-0,022	-0,093
-607,430	690,058	-0,031	-0,060
-606,415	-140,420	0,078	0,006
-605,401	-58,288	-0,191	0,061
-604,386	703,247	-0,027	0,053
-603,371	4,393	-0,076	0,041
-602,357	-200,000	-0,010	0,214
-601,342	-138,508	-0,109	-0,009
-600,328	800,000	-0,038	-0,100
-599,313	-200,000	0,007	-0,052
-598,298	800,000	0,055	-0,143
-597,284	751,240	0,089	-0,178
-596,269	23,472	0,109	0,067
-595,255	-200,000	-0,012	-0,056
-594,240	13,851	0,056	-0,032
-593,225	800,000	-0,023	0,070
-592,211	-200,000	0,008	-0,092
-591,196	114,020	0,098	0,088
-590,182	-115,262	0,114	-0,016
-589,167	800,000	0,057	0,162
-588,152	-32,056	-0,028	-0,012
-587,138	56,684	0,045	-0,032
-586,123	758,668	-0,073	-0,147
-585,109	-200,000	-0,005	-0,102
-584,094	794,996	0,015	-0,030
-583,079	623,772	-0,030	-0,057
-582,065	-200,000	0,016	0,070
-581,050	-200,000	0,037	0,138
-580,036	-108,295	0,130	-0,021
-579,021	13,138	0,044	0,025
-578,006	46,022	0,040	-0,028
-576,992	177,657	0,009	0,010
-575,977	451,301	0,045	0,073
-574,963	161,989	0,030	-0,031
-573,948	-200,000	0,013	-0,066
-572,934	231,171	-0,024	-0,029
-571,919	-74,008	-0,094	-0,025
-570,904	-74,744	-0,121	0,032
-569,890	177,766	-0,044	0,048
-568,875	608,157	-0,073	0,135
-567,861	57,195	0,092	0,066
-566,846	314,967	-0,012	-0,017
-565,831	-200,000	0,007	0,141
-564,817	255,171	-0,062	0,079
-563,802	-200,000	-0,033	-0,141
-562,788	-200,000	-0,006	0,046
-561,773	-200,000	-0,004	-0,048
-560,758	800,000	-0,025	0,059
-559,744	-200,000	0,008	0,039
-558,729	-104,440	0,070	0,012
-557,715	-200,000	-0,024	-0,111
-556,700	-200,000	0,010	0,064
-555,685	-37,776	-0,069	-0,027
-554,671	77,090	0,027	0,021
-553,656	800,000	-0,022	0,053
-552,642	-26,649	0,191	-0,082
-551,627	-200,000	0,024	-0,108
-550,612	-42,567	0,108	-0,041
-549,598	37,647	-0,086	-0,056
-548,583	14,753	0,070	-0,040
-547,569	-59,326	0,053	0,017
-546,554	622,025	0,022	0,041
-545,539	37,901	0,015	-0,010
-544,525	800,000	-0,045	0,143
-543,510	-200,000	0,016	0,063
-542,496	245,520	-0,106	-0,132
-541,481	-79,063	-0,023	-0,006
-540,466	-90,637	-0,053	0,011
-539,452	48,404	0,158	-0,109
-538,437	-65,599	-0,037	0,011
-537,423	800,000	0,051	0,116
-536,408	-160,689	0,068	-0,003
-535,393	-41,650	-0,109	-0,041
-534,379	-30,364	-0,075	-0,031
-533,364	223,115	0,058	-0,070
-532,350	800,000	0,041	0,088
-531,335	-43,295	0,175	0,065
-530,321	-70,371	0,057	0,016
-529,306	-79,131	-0,050	0,013
-528,291	-200,000	0,032	-0,243
-527,277	-200,000	0,009	-0,097
-526,262	-167,565	-0,196	-0,006
-525,248	-126,278	-0,026	0,003
-524,233	81,241	0,007	0,006
-523,218	-131,347	0,082	-0,008
-522,204	53,184	-0,015	0,011
-521,189	106,121	0,099	0,087
-520,175	-0,178	-0,068	-0,035
-519,160	-200,000	0,012	-0,143
-518,145	411,173	0,022	-0,035
-517,131	800,000	0,028	0,062
-516,116	-189,621	-0,031	-0,000
-515,102	-64,938	-0,077	0,023
-514,087	794,853	0,034	-0,069
-513,072	284,772	-0,053	-0,071
-512,058	800,000	-0,051	0,107
-511,043	-200,000	0,001	-0,038
-510,029	-200,000	0,009	-0,048
-509,014	96,509	-0,029	-0,024
-507,999	523,660	0,025	0,043
-506,985	308,547	0,063	0,087
-505,970	800,000	-0,040	0,109
-504,956	-200,000	0,004	0,080
-503,941	120,056	0,174	0,160
-502,926	800,000	-0,089	0,227
-501,912	235,325	0,010	-0,013
-500,897	-200,000	-0,009	-0,137
-499,883	185,028	-0,033	-0,036
-498,868	120,105	0,021	0,019
-497,853	268,561	0,014	-0,019
-496,839	-200,000	0,008	-0,029
-495,824	-36,319	0,072	0,028
-494,810	471,934	-0,032	-0,054
-493,795	-108,051	0,064	0,010
-492,781	437,965	0,020	-0,032
-491,766	217,800	0,031	0,036
-490,751	-200,000	-0,047	-0,199
-489,737	-200,000	-0,029	-0,105
-488,722	-200,000	-0,007	0,025
-487,708	-102,356	-0,079	-0,014
-486,693	-200,000	-0,001	-0,016
-485,678	-200,000	0,012	-0,041
-484,664	800,000	-0,032	-0,067
-483,649	-200,000	-0,019	0,084
-482,635	-82,444	0,054	-0,013
-481,620	-86,587	0,058	0,013
-480,605	754,415	-0,054	0,108
-479,591	402,264	0,030	-0,047
-478,576	-43,664	0,123	-0,045
-477,562	-160,077	-0,050	-0,002
-476,547	41,666	-0,162	-0,108
-475,532	283,090	0,021	-0,027
-474,518	364,379	0,052	0,077
-473,503	143,251	0,084	0,082
-472,489	21,472	0,049	0,029
-471,474	143,212	-0,073	-0,072
-470,459	800,000	-0,039	-0,102
-469,445	-22,605	-0,064	0,028
-468,430	54,241	0,023	0,016
-467,416	-120,270	0,039	0,005
-466,401	-37,222	0,130	0,051
-465,386	-200,000	-0,031	0,188
-464,372	-50,790	0,081	0,028
-463,357	26,717	-0,172	0,106
-462,343	50,856	-0,112	0,078
-461,328	-134,192	-0,108	-0,010
-460,313	177,534	0,035	0,038
-459,299	800,000	0,018	-0,057
-458,284	-170,861	0,079	0,002
-457,270	9,242	-0,030	0,017
-456,255	-103,633	-0,057	-0,010
-455,241	-200,000	-0,008	-0,059
-454,226	-200,000	0,006	-0,024
-453,211	-90,944	0,030	-0,006
-452,197	-165,518	-0,110	-0,003
-451,182	-118,320	0,117	-0,015
-450,168	-31,826	-0,075	0,031
-449,153	-97,948	-0,066	-0,012
-448,138	669,488	0,023	0,044
-447,124	-94,330	-0,109	-0,022
-446,109	65,388	-0,054	0,040
-445,095	-200,000	-0,012	0,154
-444,080	-200,000	0,038	0,187
-443,065	-82,668	-0,131	0,031
-442,051	-63,187	-0,079	0,024
-441,036	247,439	0,104	-0,130
-440,022	-61,250	-0,172	0,053
-439,007	-200,000	-0,037	0,129
-437,992	-1,888	0,085	-0,044
-436,978	-200,000	0,024	0,111
-435,963	37,059	-0,052	-0,034
-434,949	368,022	-0,049	-0,072
-433,934	-63,842	-0,070	-0,021
-432,919	80,441	0,027	-0,021
-431,905	74,214	0,034	0,027
-430,890	-124,752	0,141	0,016
-429,876	-200,000	0,035	0,116
-428,861	-76,478	0,051	-0,013
-427,846	-193,665	-0,052	-0,000
-426,832	-98,992	-0,154	-0,029
-425,817	669,725	-0,024	0,047
-424,803	-6,176	-0,152	0,076
-423,788	-200,000	0,045	0,156
-422,773	25,832	0,063	-0,038
-421,759	-200,000	-0,011	0,111
-420,744	800,000	-0,006	-0,015
-419,730	90,854	-0,020	0,016
-418,715	-136,656	-0,070	-0,006
-417,701	-24,694	0,114	0,050
-416,686	-118,389	-0,064	-0,008
-415,671	-52,100	0,191	0,065
-414,657	-66,742	0,092	-0,027
-413,642	156,417	-0,059	-0,060
-412,628	25,744	-0,073	0,045
-411,613	-101,671	-0,160	0,028
-410,598	-67,482	0,046	-0,013
-409,584	-86,945	-0,199	0,044
-408,569	-79,718	0,114	0,028
-407,555	77,232	0,099	0,078
-406,540	-62,001	0,111	-0,034
-405,525	800,000	-0,012	0,030
-404,511	-200,000	-0,010	0,125
-403,496	23,685	0,129	0,078
-402,482	800,000	0,036	-0,107
-401,467	102,348	-0,120	0,103
-400,452	-200,000	0,030	0,097
-399,438	-189,448	0,128	-0,001
-398,423	658,067	0,060	-0,114
-397,409	800,000	0,013	0,027
-396,394	382,950	-0,063	0,096
-395,379	14,229	0,024	-0,013
-394,365	800,000	0,042	0,087
-393,350	139,421	0,009	0,008
-392,336	-200,000	-0,001	0,038
-391,321	34,389	-0,015	0,010
-390,306	118,426	-0,114	-0,103
-389,292	59,751	0,187	-0,135
-388,277	-92,121	0,085	-0,018
-387,263	-200,000	-0,008	-0,105
-386,248	-200,000	0,041	0,137
-385,233	-100,791	-0,083	-0,015
-384,219	-126,355	-0,100	0,011
-383,204	-24,976	0,062	0,027
-382,190	-89,287	-0,135	-0,029
-381,175	-200,000	0,001	0,048
-380,160	17,167	0,118	0,069
-379,146	800,000	-0,042	0,122
-378,131	185,070	0,021	0,023
-377,117	-98,842	0,126	0,023
-376,102	-80,168	-0,107	0,026
-375,088	264,813	0,052	-0,066
-374,073	-200,000	-0,040	-0,164
-373,058	626,348	0,036	0,067
-372,044	-96,025	0,057	-0,011
-371,029	-1,270	0,128	-0,066
-370,015	-3,741	-0,018	-0,009
-369,000	30,254	0,056	-0,035
-367,985	295,843	0,089	-0,119
-366,971	-4,892	-0,115	0,058
-365,956	31,087	-0,104	0,065
-364,942	285,537	0,054	0,071
-363,927	-200,000	-0,001	0,036
-362,912	107,733	0,018	-0,016
-361,898	200,370	-0,073	-0,082
-360,883	-55,138	-0,117	-0,038
-359,869	-200,000	0,005	-0,077
-358,854	277,280	-0,011	-0,014
-357,839	-200,000	0,112	-0,000
-356,825	340,346	-0,040	0,058
-355,810	79,201	-0,124	-0,097
-354,796	-18,721	-0,096	-0,044
-353,781	-141,331	-0,102	0,008
-352,766	55,936	0,051	0,036
-351,752	-146,506	0,047	0,003
-350,737	-174,357	0,109	-0,002
-349,723	70,752	0,074	-0,056
-348,708	800,000	0,039	0,105
-347,693	-100,465	-0,104	-0,019
-346,679	-60,486	0,129	-0,040
-345,664	-145,879	-0,053	0,003
-344,650	800,000	-0,063	-0,188
-343,635	110,899	0,090	-0,079
-342,620	-72,003	0,059	0,016
-341,606	-164,559	0,187	0,006
-340,591	800,000	0,034	-0,108
-339,577	-200,000	0,004	0,041
-338,562	76,256	0,071	-0,055
-337,548	-200,000	0,029	0,259
-336,533	251,542	-0,075	0,093
-335,518	-64,161	0,131	0,039
-334,504	39,410	-0,051	-0,033
-333,489	800,000	0,039	-0,080
-332,475	182,602	0,079	0,086
-331,460	-143,561	0,041	-0,003
-330,445	117,412	0,027	-0,024
-329,431	305,858	-0,086	-0,117
-328,416	388,706	0,046	0,070
-327,402	-200,000	-0,012	0,059
-326,387	-200,000	0,006	0,073
-325,372	-200,000	0,002	0,055
-324,358	309,420	-0,094	-0,130
-323,343	-118,085	0,062	-0,008
-322,329	134,530	0,134	0,127
-321,314	59,570	-0,071	0,051
-320,299	-200,000	0,004	-0,029
-319,285	-200,000	0,016	0,089
-318,270	-134,999	0,015	-0,001
-317,256	79,850	-0,135	-0,106
-316,241	136,065	0,048	-0,045
-315,226	-200,000	-0,023	0,085
-314,212	332,461	0,021	-0,029
-313,197	-90,946	0,124	0,026
-312,183	-147,626	-0,135	-0,008
-311,168	165,700	0,036	-0,038
-310,153	80,586	-0,081	-0,064
-309,139	249,253	-0,067	-0,083
-308,124	52,508	0,022	-0,015
-307,110	781,411	0,035	0,071
-306,095	-200,000	-0,026	0,153
-305,080	-200,000	-0,004	-0,059
-304,066	-87,941	0,097	0,021
-303,051	-200,000	-0,010	-0,173
-302,037	-158,632	0,094	-0,004
-301,022	383,442	-0,088	-0,133
-300,008	12,029	0,069	0,039
-298,993	-200,000	0,019	0,097
-297,978	-200,000	-0,013	0,076
-296,964	-200,000	-0,028	-0,117
-295,949	36,549	0,067	-0,043
-294,935	-92,389	-0,071	-0,015
-293,920	-200,000	-0,020	0,087
-292,905	-99,440	-0,100	0,018
-291,891	800,000	-0,019	-0,063
-290,876	340,649	-0,071	0,102
-289,862	-138,945	-0,074	-0,006
-288,847	-200,000	0,000	-0,009
-287,832	-200,000	-0,002	0,019
-286,818	-181,004	0,176	-0,003
-285,803	53,440	-0,106	0,075
-284,789	-102,846	0,085	0,015
-283,774	565,791	0,057	0,102
-282,759	-200,000	-0,003	-0,034
-281,745	-56,050	-0,068	-0,022
-280,730	199,198	-0,079	0,088
-279,716	185,702	-0,052	0,057
-278,701	-141,274	0,083	0,006
-277,686	207,069	-0,047	-0,053
-276,672	-200,000	-0,013	0,053
-275,657	-200,000	0,019	-0,088
-274,643	-200,000	-0,008	-0,115
-273,628	-200,000	-0,003	-0,028
-272,613	-74,075	0,100	0,026
-271,599	-200,000	0,140	0,000
-270,584	-200,000	0,012	-0,075
-269,570	-68,663	-0,121	0,034
-268,555	-200,000	-0,025	-0,089
-267,540	-95,835	-0,041	-0,008
-266,526	800,000	0,077	0,190
-265,511	-48,660	-0,064	-0,022
-264,497	114,637	0,031	-0,028
-263,482	-200,000	0,006	0,140
-262,467	-168,850	-0,082	-0,002
-261,453	41,682	0,080	0,053
-260,438	-63,266	-0,054	0,016
-259,424	-81,811	0,029	0,007
-258,409	196,250	-0,046	0,051
-257,395	-87,999	0,045	0,010
-256,380	-149,709	0,119	-0,007
-255,365	-200,000	0,014	-0,092
-254,351	2,981	0,007	-0,004
-253,336	-23,104	-0,091	-0,040
-252,322	-200,000	0,003	0,069
-251,307	-200,000	0,010	-0,040
-250,292	-76,624	-0,088	-0,022
-249,278	-200,000	0,001	0,082
-248,263	17,628	0,042	0,024
-247,249	800,000	-0,033	0,074
-246,234	-200,000	0,011	-0,089
-245,219	362,040	-0,024	-0,035
-244,205	-200,000	-0,027	-0,144
-243,190	800,000	0,053	0,108
-242,176	79,887	0,069	-0,054
-241,161	547,873	0,038	0,067
-240,146	-200,000	0,011	-0,086
-239,132	125,495	0,091	-0,084
-238,117	-69,002	0,069	-0,019
-237,103	23,497	0,083	-0,050
-236,088	-1,234	-0,027	0,014
-235,073	-200,000	-0,003	-0,043
-234,059	800,000	0,015	0,044
-233,044	-81,951	-0,111	0,026
-232,030	-200,000	-0,015	-0,123
-231,015	-95,840	-0,117	-0,023
-230,000	-200,000	0,008	-0,055
-228,986	800,000	0,048	-0,144
-227,971	-26,317	-0,066	-0,028
-226,957	35,856	-0,079	0,050
-225,942	112,714	0,053	-0,047
-224,927	-200,000	-0,023	-0,075
-223,913	-32,988	-0,059	-0,024
-222,898	27,148	0,143	-0,087
-221,884	403,976	0,077	-0,119
-220,869	595,681	-0,045	-0,082
-219,855	-86,958	0,164	0,036
-218,840	-73,599	0,036	-0,010
-217,825	-200,000	-0,008	0,130
-216,811	-131,960	-0,059	-0,005
-215,796	-60,450	-0,073	0,023
-214,782	800,000	-0,008	0,025
-213,767	800,000	0,012	-0,036
-212,752	-200,000	-0,001	-0,077
-211,738	22,295	0,073	-0,043
-210,723	624,528	-0,081	0,150
-209,709	-134,522	-0,057	0,005
-208,694	292,473	-0,084	-0,112
-207,679	68,514	0,093	-0,069
-206,665	13,217	-0,084	-0,047
-205,650	-71,985	0,108	-0,029
-204,636	627,749	0,062	-0,116
-203,621	-200,000	-0,026	0,088
-202,606	-200,000	0,002	-0,019
-201,592	201,174	-0,133	-0,150
-200,577	51,996	-0,128	-0,089
-199,563	-200,000	-0,010	-0,138
-198,548	-200,000	-0,005	0,022
-197,533	-200,000	-0,011	0,099
-196,519	199,578	0,093	0,104
-195,504	-109,074	-0,037	-0,006
-194,490	147,508	-0,040	-0,039
-193,475	35,308	0,096	-0,061
-192,460	800,000	0,006	-0,017
-191,446	-85,087	0,050	0,011
-190,431	135,583	0,080	0,076
-189,417	-200,000	-0,026	0,142
-188,402	63,124	0,120	0,088
-187,387	800,000	-0,040	0,086
-186,373	-114,855	-0,048	-0,007
-185,358	-30,141	-0,075	-0,031
-184,344	28,844	0,025	-0,015
-183,329	-56,374	0,065	-0,021
-182,315	423,445	-0,082	-0,129
-181,300	77,491	0,035	-0,027
-180,285	283,155	-0,039	-0,051
-179,271	682,253	-0,011	-0,022
-178,256	-200,000	0,033	-0,129
-177,242	676,789	0,059	-0,113
-176,227	-66,228	0,031	0,009
-175,212	800,000	0,024	0,073
-174,198	-200,000	-0,021	-0,100
-173,183	114,397	0,038	0,033
-172,169	237,460	-0,112	0,136
-171,154	-200,000	-0,040	-0,176
-170,139	49,866	-0,062	-0,043
-169,125	-200,000	-0,034	0,118
-168,110	337,365	0,038	0,053
-167,096	202,607	0,036	-0,041
-166,081	519,432	-0,027	-0,047
-165,066	-126,100	0,072	-0,008
-164,052	-200,000	0,001	-0,075
-163,037	-60,748	-0,092	0,028
-162,023	83,662	0,022	0,017
-161,008	-200,000	-0,017	0,099
-159,993	25,610	-0,035	-0,021
-158,979	102,653	-0,139	0,118
-157,964	-78,478	-0,032	0,008
-156,950	-95,883	-0,187	-0,036
-155,935	800,000	-0,049	0,102
-154,920	344,684	0,023	0,033
-153,906	542,964	-0,067	0,116
-152,891	-200,000	-0,009	0,126
-151,877	-200,000	-0,009	-0,072
-150,862	263,801	-0,014	-0,018
-149,847	-117,819	-0,045	-0,006
-148,833	-83,460	-0,115	0,027
-147,818	10,977	0,071	0,039
-146,804	220,853	-0,014	0,017
-145,789	-200,000	0,007	-0,182
-144,775	702,890	0,054	-0,104
-143,760	37,505	-0,041	0,026
-142,745	-133,185	0,049	-0,004
-141,731	-117,137	0,072	0,009
-140,716	188,803	-0,027	0,029
-139,702	-58,095	0,166	-0,052
-138,687	-160,930	0,114	0,004
-137,672	258,570	0,111	0,139
-136,658	-200,000	-0,024	-0,114
-135,643	-57,132	0,091	0,029
-134,629	-114,310	-0,124	0,017
-133,614	130,038	0,126	0,118
-132,599	10,664	0,108	0,060
-131,585	-200,000	0,032	-0,118
-130,570	97,794	0,110	0,092
-129,556	-200,000	-0,006	-0,106
-128,541	-200,000	0,004	0,044
-127,526	-64,234	0,020	0,006
-126,512	-57,603	0,085	0,027
-125,497	-200,000	-0,003	0,059
-124,483	-200,000	-0,000	0,151
-123,468	649,176	-0,005	-0,009
-122,453	-106,097	0,050	-0,008
-121,439	-200,000	-0,011	-0,091
-120,424	64,872	0,077	0,057
