DTS Sentinel unit serial number:	SN410029Multiplexer serial number:	ORYXHardware model number:	OX2-SRSoftware version number:	ORYX F/W v4,00 Oryx Data Collector v3.7.2.0data status	okinstallation	B6 Nyhavnadifferential loss correction	single-endedforward channel	channel 2reverse channel	N/Adate	2023/12/09time	15:45:08forward acquisition time	300,00reverse acquisition time	0,00gamma	499,1914k internal	0,3132k external	0,3132temperature offset calibration	1,0000default loss term (dB/km)	0,3820temperature slope calibration	1,0000multiplexer offset coefficient	1,0000multiplexer slope coefficient	1,0000fibre end	0,00T internal ref (°C)	20,72T ext. ref 1 (°C)	4,65T ext. ref 2 (°C)	4,64length (m)	temperature (°C)	Stokes	anti-Stokes-744,400	-68,281	0,055	-0,016
-743,385	-127,202	-0,290	0,031
-742,371	-105,753	0,053	0,009
-741,356	12,417	-0,188	-0,108
-740,342	800,000	0,040	-0,095
-739,327	-81,545	-0,259	-0,063
-738,312	-110,245	0,068	0,010
-737,298	-59,585	-0,250	0,079
-736,283	312,885	0,080	0,111
-735,269	-200,000	-0,300	-0,001
-734,254	15,044	0,149	0,086
-733,239	-168,091	-0,541	0,015
-732,225	193,981	0,093	0,104
-731,210	384,228	-0,033	0,050
-730,196	-6,788	-0,015	0,008
-729,181	-85,452	-0,033	-0,008
-728,167	-200,000	0,001	-0,031
-727,152	111,748	-0,054	-0,049
-726,137	-80,467	-0,033	0,008
-725,123	164,101	-0,045	-0,048
-724,108	57,531	-0,070	-0,051
-723,094	244,177	-0,040	-0,050
-722,079	-85,276	-0,130	0,030
-721,064	178,036	0,064	0,070
-720,050	-200,000	0,004	0,032
-719,035	-200,000	-0,005	0,053
-718,021	71,046	-0,046	-0,035
-717,006	132,048	-0,023	0,022
-715,991	518,722	-0,101	-0,176
-714,977	800,000	-0,025	0,076
-713,962	63,791	-0,043	-0,032
-712,948	79,608	0,076	-0,061
-711,933	-200,000	0,007	0,084
-710,918	148,830	0,058	0,059
-709,904	-200,000	-0,018	-0,142
-708,889	-137,010	-0,157	-0,013
-707,875	-49,677	-0,202	0,071
-706,860	119,295	0,060	-0,056
-705,845	-54,319	-0,038	-0,013
-704,831	800,000	0,011	0,031
-703,816	46,636	-0,149	0,102
-702,802	-29,955	-0,145	-0,061
-701,787	386,757	-0,086	-0,132
-700,772	-33,437	-0,076	0,031
-699,758	269,210	-0,055	0,072
-698,743	800,000	0,068	0,174
-697,729	-200,000	-0,032	0,159
-696,714	444,541	0,058	0,095
-695,699	-26,537	-0,062	-0,027
-694,685	-145,848	-0,078	0,005
-693,670	-67,838	0,115	-0,033
-692,656	-19,969	-0,146	0,067
-691,641	-11,275	-0,057	0,028
-690,627	398,298	0,018	-0,028
-689,612	-8,203	-0,114	-0,057
-688,597	800,000	-0,044	0,132
-687,583	-200,000	-0,012	-0,057
-686,568	-90,607	-0,169	-0,036
-685,554	800,000	-0,025	-0,069
-684,539	800,000	-0,023	-0,074
-683,524	685,025	0,102	-0,198
-682,510	-200,000	-0,006	0,163
-681,495	440,366	-0,041	-0,066
-680,481	800,000	-0,042	-0,093
-679,466	349,350	-0,071	-0,104
-678,451	630,513	0,070	0,132
-677,437	-18,725	-0,045	0,021
-676,422	-114,876	0,065	-0,009
-675,408	800,000	-0,029	0,070
-674,393	606,695	-0,010	-0,019
-673,378	-47,569	0,059	-0,021
-672,364	-24,984	-0,026	-0,011
-671,349	131,690	-0,145	0,139
-670,335	405,275	0,015	0,023
-669,320	-200,000	0,010	0,107
-668,305	48,799	0,063	0,044
-667,291	800,000	-0,037	-0,095
-666,276	-102,091	-0,026	0,005
-665,262	-200,000	-0,024	-0,165
-664,247	13,134	-0,084	0,048
-663,232	-143,622	0,077	-0,005
-662,218	232,776	-0,094	0,115
-661,203	-110,195	0,154	-0,023
-660,189	43,519	-0,081	0,055
-659,174	645,361	0,009	0,017
-658,159	174,712	-0,095	-0,101
-657,145	122,200	-0,090	-0,084
-656,130	187,481	0,096	0,106
-655,116	63,138	-0,061	-0,045
-654,101	-9,747	0,138	0,068
-653,086	800,000	0,007	-0,017
-652,072	307,201	-0,049	-0,068
-651,057	216,524	-0,073	-0,086
-650,043	-119,075	0,114	0,015
-649,028	-106,032	-0,072	0,012
-648,014	145,512	0,107	-0,106
-646,999	-200,000	-0,005	0,044
-645,984	196,840	0,031	-0,035
-644,970	800,000	-0,021	-0,066
-643,955	482,546	-0,087	-0,147
-642,941	-33,570	0,071	0,029
-641,926	5,218	0,078	0,042
-640,911	420,906	0,004	0,006
-639,897	-148,669	0,108	-0,006
-638,882	-200,000	0,013	0,234
-637,868	-4,509	0,069	-0,035
-636,853	206,957	0,039	-0,045
-635,838	110,649	0,062	-0,056
-634,824	60,552	0,036	0,026
-633,809	-200,000	-0,007	0,055
-632,795	-200,000	-0,010	-0,145
-631,780	260,457	0,096	0,123
-630,765	-200,000	-0,006	0,043
-629,751	-111,161	-0,110	0,017
-628,736	47,198	-0,076	-0,052
-627,722	-200,000	-0,011	-0,084
-626,707	271,865	-0,069	-0,091
-625,692	165,874	0,039	-0,041
-624,678	-36,365	0,062	0,025
-623,663	-46,222	0,087	0,031
-622,649	-117,821	-0,137	-0,018
-621,634	82,187	-0,121	-0,097
-620,619	-42,192	-0,110	-0,041
-619,605	-133,618	0,074	0,007
-618,590	-200,000	-0,004	0,043
-617,576	-113,328	0,214	-0,031
-616,561	219,022	0,073	0,086
-615,546	800,000	-0,024	0,059
-614,532	800,000	-0,041	-0,091
-613,517	14,447	-0,115	-0,066
-612,503	-200,000	0,022	-0,093
-611,488	-117,293	-0,050	0,007
-610,474	-200,000	0,006	-0,096
-609,459	-47,919	-0,078	0,028
-608,444	-59,946	0,086	-0,027
-607,430	800,000	-0,055	-0,136
-606,415	-200,000	0,002	-0,077
-605,401	-200,000	-0,001	0,077
-604,386	800,000	0,027	0,066
-603,371	11,240	0,018	-0,010
-602,357	-49,206	-0,065	-0,023
-601,342	137,860	-0,067	0,065
-600,328	-44,130	-0,054	-0,020
-599,313	-200,000	-0,007	-0,071
-598,298	-200,000	0,017	-0,072
-597,284	-200,000	0,005	-0,070
-596,269	-200,000	0,035	0,131
-595,255	-200,000	-0,008	0,047
-594,240	800,000	0,014	0,031
-593,225	800,000	0,014	0,035
-592,211	60,174	-0,135	-0,099
-591,196	478,263	0,087	0,146
-590,182	121,618	0,088	0,081
-589,167	-200,000	-0,097	-0,000
-588,152	225,754	0,117	0,141
-587,138	-108,685	-0,125	0,020
-586,123	-101,551	-0,127	0,023
-585,109	-200,000	0,009	0,079
-584,094	-29,995	0,058	-0,024
-583,079	-200,000	0,019	-0,129
-582,065	56,524	0,079	-0,057
-581,050	420,753	0,057	0,090
-580,036	-31,952	-0,059	-0,024
-579,021	-43,328	-0,105	0,039
-578,006	-200,000	0,007	-0,042
-576,992	159,501	-0,106	-0,109
-575,977	38,010	0,094	-0,061
-574,963	-200,000	-0,056	0,186
-573,948	-119,701	-0,066	0,008
-572,934	-200,000	0,000	-0,055
-571,919	-129,437	-0,120	0,012
-570,904	800,000	0,037	0,081
-569,890	92,999	-0,131	-0,109
-568,875	-151,361	0,100	-0,005
-567,861	800,000	0,012	0,033
-566,846	50,281	0,051	-0,035
-565,831	-68,323	-0,188	-0,054
-564,817	-200,000	0,020	0,067
-563,802	800,000	-0,037	-0,109
-562,788	-93,117	0,039	-0,008
-561,773	-106,502	-0,078	0,013
-560,758	89,456	0,058	-0,048
-559,744	-138,634	-0,113	0,009
-558,729	-200,000	-0,018	-0,065
-557,715	-200,000	0,022	-0,076
-556,700	501,771	0,043	-0,074
-555,685	-2,535	-0,050	0,026
-554,671	630,259	0,044	0,083
-553,656	-101,684	0,116	0,021
-552,642	140,444	-0,064	0,063
-551,627	-158,752	-0,207	0,009
-550,612	-200,000	-0,026	-0,130
-549,598	-200,000	-0,011	-0,053
-548,583	-200,000	0,002	-0,058
-547,569	-200,000	0,001	-0,051
-546,554	-101,032	-0,070	0,013
-545,539	800,000	-0,055	0,170
-544,525	800,000	-0,018	-0,039
-543,510	-200,000	-0,004	0,039
-542,496	615,217	-0,013	0,025
-541,481	97,238	-0,024	-0,020
-540,466	-56,996	-0,177	-0,057
-539,452	-200,000	0,029	0,115
-538,437	244,533	0,127	0,158
-537,423	800,000	0,053	0,159
-536,408	115,683	-0,028	0,025
-535,393	572,058	-0,124	-0,224
-534,379	10,012	0,085	0,048
-533,364	-139,305	0,052	0,004
-532,350	-72,977	0,104	-0,028
-531,335	-21,620	0,045	0,020
-530,321	-200,000	0,039	-0,151
-529,306	800,000	0,014	0,037
-528,291	-1,776	-0,053	0,027
-527,277	-121,995	-0,041	0,005
-526,262	-145,940	-0,040	-0,003
-525,248	19,255	0,123	0,073
-524,233	800,000	0,043	0,112
-523,218	109,946	0,059	0,052
-522,204	-0,259	-0,079	0,041
-521,189	134,727	-0,101	0,097
-520,175	800,000	-0,030	0,082
-519,160	-200,000	-0,016	-0,191
-518,145	622,430	0,046	0,086
-517,131	-200,000	0,043	0,278
-516,116	107,340	0,037	0,033
-515,102	298,565	0,037	0,050
-514,087	-200,000	-0,011	-0,074
-513,072	-200,000	0,001	-0,250
-512,058	-82,728	-0,074	0,018
-511,043	800,000	-0,033	0,080
-510,029	-26,141	0,126	0,054
-509,014	-70,381	0,131	0,036
-507,999	-40,922	-0,037	-0,014
-506,985	-36,446	-0,142	0,056
-505,970	327,527	-0,050	-0,071
-504,956	208,229	-0,101	-0,116
-503,941	103,004	-0,045	0,039
-502,926	-51,131	0,178	-0,061
-501,912	-200,000	0,017	0,084
-500,897	132,583	-0,087	0,083
-499,883	800,000	-0,046	0,127
-498,868	594,562	-0,019	-0,035
-497,853	13,881	-0,020	-0,011
-496,839	707,376	-0,059	0,116
-495,824	144,173	-0,026	-0,026
-494,810	800,000	0,025	0,052
-493,795	-115,965	-0,038	0,005
-492,781	-200,000	-0,013	-0,089
-491,766	-89,113	0,039	0,008
-490,751	107,560	-0,206	-0,181
-489,737	-24,990	0,074	-0,032
-488,722	-87,923	0,157	0,034
-487,708	-200,000	0,007	-0,029
-486,693	337,247	-0,009	0,013
-485,678	800,000	-0,028	0,080
-484,664	-25,333	-0,056	0,024
-483,649	-92,397	-0,136	-0,028
-482,635	-200,000	-0,003	-0,061
-481,620	284,809	0,043	-0,057
-480,605	800,000	0,022	0,068
-479,591	441,653	-0,037	-0,059
-478,576	-78,623	-0,169	0,042
-477,562	200,276	-0,047	0,053
-476,547	800,000	0,066	-0,194
-475,532	-200,000	0,000	-0,065
-474,518	2,884	0,060	-0,032
-473,503	-154,013	-0,033	-0,002
-472,489	-200,000	0,010	-0,105
-471,474	65,501	-0,089	-0,066
-470,459	22,007	-0,046	0,028
-469,445	-200,000	0,013	0,107
-468,430	591,818	0,015	-0,027
-467,416	247,926	0,047	0,059
-466,401	33,106	0,036	-0,023
-465,386	66,765	0,052	-0,039
-464,372	222,022	0,082	-0,097
-463,357	-129,532	-0,056	0,006
-462,343	6,973	-0,042	0,023
-461,328	-200,000	0,006	0,051
-460,313	169,629	0,132	0,139
-459,299	101,120	0,073	0,062
-458,284	-2,356	-0,095	-0,049
-457,270	96,366	-0,117	0,099
-456,255	-20,134	-0,017	0,008
-455,241	525,673	-0,104	-0,181
-454,226	800,000	-0,065	-0,169
-453,211	800,000	0,038	-0,117
-452,197	-61,050	-0,047	-0,014
-451,182	46,151	-0,081	-0,055
-450,168	-200,000	0,027	-0,102
-449,153	-200,000	0,011	0,050
-448,138	-93,715	0,170	-0,034
-447,124	-150,428	-0,066	0,004
-446,109	800,000	-0,003	-0,009
-445,095	29,778	0,055	0,034
-444,080	110,445	0,069	0,061
-443,065	152,166	0,088	-0,088
-442,051	-200,000	0,001	-0,009
-441,036	800,000	-0,043	0,093
-440,022	22,636	0,119	-0,071
-439,007	133,506	0,051	-0,049
-437,992	140,615	0,024	-0,023
-436,978	114,883	0,108	0,097
-435,963	99,197	0,066	-0,056
-434,949	-200,000	0,018	-0,102
-433,934	-118,584	-0,082	-0,011
-432,919	13,554	-0,069	-0,039
-431,905	-49,897	0,114	-0,039
-430,890	64,823	0,085	-0,063
-429,876	800,000	0,042	0,109
-428,861	-122,709	0,011	-0,001
-427,846	360,907	0,054	-0,079
-426,832	-200,000	-0,003	-0,057
-425,817	11,144	0,035	-0,020
-424,803	472,388	0,045	-0,075
-423,788	-200,000	-0,004	0,079
-422,773	-200,000	0,007	0,088
-421,759	-13,217	0,144	0,068
-420,744	90,258	-0,024	-0,019
-419,730	800,000	-0,037	-0,101
-418,715	-200,000	0,019	-0,269
-417,701	800,000	0,028	0,069
-416,686	36,285	0,033	0,022
-415,671	-200,000	-0,008	0,192
-414,657	10,043	-0,093	0,052
-413,642	90,450	0,079	0,065
-412,628	-112,916	0,068	-0,010
-411,613	524,892	-0,019	-0,033
-410,598	142,161	-0,042	-0,041
-409,584	-136,317	-0,126	-0,011
-408,569	-200,000	-0,029	0,100
-407,555	-200,000	0,008	0,076
-406,540	-200,000	0,041	0,190
-405,525	800,000	0,043	0,089
-404,511	178,040	-0,037	0,040
-403,496	-200,000	-0,010	0,143
-402,482	-200,000	0,003	-0,231
-401,467	800,000	0,056	-0,127
-400,452	246,935	0,023	-0,028
-399,438	-9,853	0,086	-0,042
-398,423	323,631	-0,040	0,057
-397,409	-55,526	-0,110	0,036
-396,394	-41,254	-0,059	0,022
-395,379	-111,921	-0,059	0,009
-394,365	31,131	0,009	-0,006
-393,350	-200,000	0,009	-0,055
-392,336	-16,908	-0,115	0,053
-391,321	800,000	0,064	-0,171
-390,306	-0,035	-0,106	-0,055
-389,292	-147,169	0,050	0,003
-388,277	652,603	-0,031	0,059
-387,263	-200,000	0,023	-0,081
-386,248	-56,014	-0,034	-0,011
-385,233	-200,000	-0,001	0,124
-384,219	-166,351	0,089	0,003
-383,204	-200,000	-0,025	-0,080
-382,190	257,973	-0,011	0,013
-381,175	274,532	0,040	-0,052
-380,160	800,000	0,066	-0,154
-379,146	-200,000	0,018	0,085
-378,131	117,613	-0,026	0,023
-377,117	-200,000	0,006	-0,051
-376,102	639,956	-0,055	-0,102
-375,088	-200,000	-0,021	-0,077
-374,073	32,290	0,142	0,090
-373,058	-200,000	0,012	-0,060
-372,044	-200,000	-0,002	0,052
-371,029	-200,000	-0,034	0,133
-370,015	-200,000	0,015	0,102
-369,000	-113,116	-0,167	0,024
-367,985	-200,000	0,016	-0,062
-366,971	-101,817	-0,037	-0,006
-365,956	-54,736	0,129	0,043
-364,942	264,516	0,029	0,038
-363,927	-70,272	0,094	0,026
-362,912	191,801	-0,032	-0,036
-361,898	467,734	0,104	0,172
-360,883	96,795	-0,030	-0,026
-359,869	-39,493	0,061	0,023
-358,854	800,000	0,066	-0,154
-357,839	-62,924	-0,172	0,052
-356,825	51,301	-0,100	-0,069
-355,810	174,154	0,081	0,086
-354,796	-70,493	-0,116	-0,032
-353,781	800,000	0,002	0,005
-352,766	800,000	-0,013	0,029
-351,752	658,241	0,049	0,093
-350,737	128,957	0,076	0,071
-349,723	555,668	0,018	0,031
-348,708	234,114	0,063	-0,076
-347,693	-71,593	-0,127	-0,034
-346,679	741,549	0,064	-0,126
-345,664	293,461	0,035	-0,047
-344,650	423,711	0,067	-0,106
-343,635	-69,688	0,043	0,012
-342,620	-63,293	0,033	0,010
-341,606	173,907	-0,114	0,120
-340,591	800,000	0,028	-0,078
-339,577	800,000	-0,042	-0,090
-338,562	-92,124	-0,129	-0,027
-337,548	181,641	-0,029	0,031
-336,533	-200,000	0,030	-0,156
-335,518	-200,000	0,004	0,081
-334,504	-200,000	0,019	-0,179
-333,489	-200,000	-0,003	-0,116
-332,475	-200,000	-0,021	-0,081
-331,460	784,328	-0,035	-0,071
-330,445	-78,162	-0,197	0,049
-329,431	344,262	-0,028	0,040
-328,416	209,684	0,129	0,149
-327,402	162,122	0,073	0,075
-326,387	252,576	0,089	-0,111
-325,372	-200,000	-0,016	-0,180
-324,358	-200,000	0,005	0,036
-323,343	-166,521	0,137	-0,004
-322,329	-200,000	-0,017	0,084
-321,314	-30,714	-0,137	-0,056
-320,299	-200,000	0,026	0,108
-319,285	-25,897	0,152	-0,065
-318,270	-32,610	0,036	-0,015
-317,256	800,000	0,055	-0,124
-316,241	428,324	0,076	-0,120
-315,226	-97,588	-0,055	0,010
-314,212	-24,221	0,118	0,051
-313,197	345,653	0,073	0,106
-312,183	-12,570	0,076	0,036
-311,168	-99,864	0,084	0,015
-310,153	-27,779	-0,038	-0,016
-309,139	587,359	-0,088	-0,158
-308,124	17,176	0,130	0,075
-307,110	-27,922	0,184	-0,078
-306,095	359,591	-0,027	-0,039
-305,080	-117,853	0,105	0,014
-304,066	800,000	-0,067	0,138
-303,051	91,464	0,054	-0,045
-302,037	102,253	-0,058	-0,049
-301,022	-200,000	-0,025	0,125
-300,008	-200,000	-0,005	-0,072
-298,993	800,000	0,024	0,063
-297,978	800,000	-0,062	0,164
-296,964	-7,488	0,050	0,024
-295,949	-200,000	-0,013	-0,093
-294,935	-200,000	0,027	-0,155
-293,920	800,000	-0,011	0,028
-292,905	-200,000	-0,022	0,094
-291,891	-200,000	-0,019	0,109
-290,876	53,574	0,117	-0,082
-289,862	800,000	-0,045	0,122
-288,847	652,267	-0,022	-0,041
-287,832	-126,665	-0,163	-0,017
-286,818	30,463	-0,045	-0,028
-285,803	-86,478	-0,067	0,015
-284,789	693,452	0,091	0,174
-283,774	-200,000	0,014	0,200
-282,759	16,618	-0,088	0,051
-281,745	-51,205	0,112	-0,038
-280,730	50,149	0,105	0,072
-279,716	-1,400	-0,069	-0,035
-278,701	-200,000	-0,049	0,190
-277,686	33,028	0,080	-0,051
-276,672	-26,557	0,061	-0,026
-275,657	-82,979	0,065	-0,015
-274,643	-200,000	-0,048	-0,163
-273,628	10,343	-0,114	0,063
-272,613	387,284	-0,046	0,070
-271,599	13,114	0,027	0,015
-270,584	196,734	0,063	0,070
-269,570	50,713	0,013	0,009
-268,555	-200,000	-0,028	0,105
-267,540	84,810	-0,119	-0,095
-266,526	-200,000	-0,008	-0,113
-265,511	800,000	-0,038	-0,103
-264,497	800,000	0,024	0,061
-263,482	-36,737	0,088	0,034
-262,467	-200,000	0,004	0,075
-261,453	-86,394	-0,037	0,008
-260,438	-200,000	0,002	-0,011
-259,424	7,091	0,032	-0,017
-258,409	-200,000	-0,010	0,107
-257,395	-111,512	0,113	0,017
-256,380	684,601	-0,070	-0,134
-255,365	-34,333	0,039	-0,015
-254,351	-94,621	-0,097	0,019
-253,336	800,000	0,019	-0,047
-252,322	637,901	-0,024	-0,044
-251,307	-122,955	-0,152	0,018
-250,292	-1,601	0,060	-0,031
-249,278	-128,993	-0,036	0,004
-248,263	-162,448	-0,119	0,004
-247,249	-121,785	0,096	-0,011
-246,234	-44,329	-0,064	0,023
-245,219	-82,137	-0,073	0,017
-244,205	310,786	-0,096	-0,131
-243,190	128,082	-0,059	-0,054
-242,176	-29,207	0,098	-0,041
-241,161	17,749	-0,058	0,033
-240,146	48,328	-0,039	-0,027
-239,132	644,208	-0,071	0,133
-238,117	589,015	0,032	-0,058
-237,103	-117,766	0,117	0,015
-236,088	194,643	-0,056	-0,063
-235,073	-200,000	0,010	0,189
-234,059	-200,000	-0,003	0,036
-233,044	800,000	0,056	0,121
-232,030	722,274	0,014	0,026
-231,015	-200,000	0,001	-0,015
-230,000	-200,000	-0,023	0,112
-228,986	193,325	0,048	0,053
-227,971	90,676	-0,077	0,063
-226,957	-83,889	-0,051	-0,012
-225,942	800,000	0,024	-0,051
-224,927	800,000	-0,075	0,168
-223,913	-200,000	0,027	-0,109
-222,898	800,000	0,055	-0,118
-221,884	244,112	-0,026	-0,032
-220,869	-183,098	0,107	-0,001
-219,855	-154,764	-0,125	-0,006
-218,840	523,151	-0,043	0,075
-217,825	-200,000	-0,002	0,036
-216,811	-47,817	-0,055	0,019
-215,796	400,543	-0,068	-0,104
-214,782	-200,000	-0,016	-0,086
-213,767	-200,000	-0,004	-0,138
-212,752	800,000	-0,031	-0,094
-211,738	800,000	0,019	-0,043
-210,723	-200,000	-0,004	0,074
-209,709	-200,000	-0,022	0,175
-208,694	495,941	0,054	-0,090
-207,679	-63,147	0,187	0,056
-206,665	-166,523	0,016	0,000
-205,650	800,000	-0,029	-0,090
-204,636	426,786	0,062	0,097
-203,621	-200,000	-0,055	0,178
-202,606	-200,000	0,044	0,146
-201,592	-109,761	-0,108	0,016
-200,577	29,375	0,107	0,066
-199,563	87,671	-0,027	0,022
-198,548	586,211	0,066	0,118
-197,533	-200,000	-0,009	0,055
-196,519	104,128	0,038	0,032
-195,504	-2,634	0,047	-0,024
-194,490	-117,825	-0,049	0,006
-193,475	321,273	-0,104	-0,144
-192,460	-200,000	0,022	0,115
-191,446	-200,000	-0,016	0,130
-190,431	12,436	0,125	-0,070
-189,417	-113,006	0,051	0,007
-188,402	-200,000	-0,002	0,068
-187,387	378,770	-0,054	0,080
-186,373	-38,550	0,068	-0,026
-185,358	177,134	-0,028	0,030
-184,344	129,227	-0,140	-0,130
-183,329	-200,000	0,035	-0,122
-182,315	800,000	0,037	0,091
-181,300	10,647	0,116	-0,064
-180,285	-44,051	0,033	-0,012
-179,271	20,111	0,031	0,018
-178,256	-200,000	0,001	-0,004
-177,242	-65,094	0,131	-0,038
-176,227	-200,000	-0,009	0,035
-175,212	168,268	0,052	-0,054
-174,198	-59,602	-0,039	0,012
-173,183	-143,966	-0,083	-0,006
-172,169	-44,133	-0,057	-0,021
-171,154	-152,021	-0,075	0,004
-170,139	-200,000	-0,014	0,056
-169,125	173,427	0,044	0,047
-168,110	371,351	0,028	0,041
-167,096	-200,000	-0,005	-0,130
-166,081	671,569	0,058	-0,110
-165,066	-58,016	0,154	-0,048
-164,052	56,865	-0,049	0,034
-163,037	67,983	0,045	0,033
-162,023	205,302	0,082	0,092
-161,008	-33,483	0,040	0,016
-159,993	376,889	0,086	0,128
-158,979	-132,147	-0,167	0,016
-157,964	557,097	-0,006	0,011
-156,950	478,063	-0,087	-0,144
-155,935	101,161	-0,122	-0,103
-154,920	-200,000	-0,049	0,179
-153,906	-43,595	0,093	-0,034
-152,891	124,345	-0,050	0,046
-151,877	-172,128	-0,139	-0,003
-150,862	130,396	-0,066	-0,061
-149,847	31,927	-0,075	0,047
-148,833	-50,061	-0,205	-0,070
-147,818	482,663	-0,019	-0,032
-146,804	800,000	0,034	0,076
-145,789	-69,149	-0,136	0,038
-144,775	65,812	-0,055	-0,040
-143,760	591,238	-0,071	-0,127
-142,745	219,210	-0,103	-0,119
-141,731	800,000	0,010	-0,023
-140,716	-77,599	0,123	0,031
-139,702	-200,000	-0,035	0,000
-138,687	800,000	0,065	-0,164
-137,672	110,456	-0,055	0,048
-136,658	165,376	-0,052	0,053
-135,643	-200,000	0,006	0,032
-134,629	800,000	0,031	-0,065
-133,614	-58,022	0,160	0,050
-132,599	800,000	-0,023	0,052
-131,585	-10,535	-0,125	0,060
-130,570	800,000	-0,021	0,050
-129,556	-200,000	-0,075	0,000
-128,541	-118,768	-0,139	-0,018
-127,526	58,330	0,141	-0,100
-126,512	-123,177	0,093	-0,011
-125,497	-200,000	0,001	-0,123
-124,483	800,000	-0,043	0,099
-123,468	800,000	-0,027	-0,057
-122,453	-106,911	-0,110	-0,017
-121,439	-200,000	0,036	-0,153
-120,424	-140,452	-0,058	-0,004
-119,410	800,000	0,049	0,125
