DTS Sentinel unit serial number:	SN410029Multiplexer serial number:	ORYXHardware model number:	OX2-SRSoftware version number:	ORYX F/W v4,00 Oryx Data Collector v3.7.2.0data status	okinstallation	B6 Nyhavnadifferential loss correction	single-endedforward channel	channel 2reverse channel	N/Adate	2023/12/09time	06:25:08forward acquisition time	300,00reverse acquisition time	0,00gamma	499,1914k internal	0,3141k external	0,3141temperature offset calibration	1,0000default loss term (dB/km)	0,3820temperature slope calibration	1,0000multiplexer offset coefficient	1,0000multiplexer slope coefficient	1,0000fibre end	0,00T internal ref (°C)	18,43T ext. ref 1 (°C)	2,27T ext. ref 2 (°C)	2,30length (m)	temperature (°C)	Stokes	anti-Stokes-744,400	159,007	0,061	0,063
-743,385	-114,834	-0,278	0,039
-742,371	-58,513	0,111	-0,035
-741,356	136,255	-0,229	0,221
-740,342	-118,428	0,224	0,029
-739,327	-106,061	-0,316	-0,052
-738,312	95,361	0,111	-0,094
-737,298	-90,473	-0,226	0,048
-736,283	-200,000	0,011	-0,086
-735,269	-176,911	-0,235	-0,004
-734,254	-98,937	0,038	-0,007
-733,239	-30,270	-0,427	-0,179
-732,225	26,559	0,150	0,093
-731,210	800,000	0,021	0,062
-730,196	-132,340	-0,064	-0,006
-729,181	-158,089	0,042	-0,002
-728,167	-200,000	-0,004	-0,104
-727,152	-200,000	0,003	0,018
-726,137	406,312	-0,054	-0,084
-725,123	203,859	-0,051	0,058
-724,108	131,237	-0,095	-0,091
-723,094	800,000	-0,029	-0,077
-722,079	800,000	0,049	-0,103
-721,064	-63,173	-0,084	0,026
-720,050	-110,948	-0,103	-0,016
-719,035	-31,574	-0,178	0,074
-718,021	-200,000	-0,027	0,175
-717,006	187,638	0,061	0,068
-715,991	75,092	0,038	-0,029
-714,977	306,601	0,036	-0,049
-713,962	800,000	0,032	0,069
-712,948	-28,282	-0,033	-0,014
-711,933	-200,000	-0,028	0,124
-710,918	-155,084	0,188	-0,009
-709,904	-200,000	-0,003	-0,017
-708,889	800,000	0,018	-0,043
-707,875	-200,000	-0,010	0,099
-706,860	-200,000	0,004	0,143
-705,845	800,000	-0,026	0,074
-704,831	48,913	0,133	0,092
-703,816	-186,000	-0,101	-0,001
-702,802	-47,068	-0,116	0,042
-701,787	-14,495	-0,022	0,010
-700,772	-200,000	-0,003	-0,124
-699,758	-143,199	0,085	-0,006
-698,743	100,722	0,174	-0,150
-697,729	-50,477	-0,080	0,028
-696,714	800,000	-0,009	-0,025
-695,699	800,000	-0,034	-0,112
-694,685	-74,831	-0,102	-0,027
-693,670	-200,000	0,019	0,145
-692,656	800,000	-0,010	0,026
-691,641	55,510	0,087	-0,062
-690,627	-7,797	-0,049	0,025
-689,612	-137,211	0,143	0,012
-688,597	193,958	-0,127	0,142
-687,583	-69,828	0,108	-0,030
-686,568	783,064	-0,031	0,063
-685,554	800,000	-0,033	-0,087
-684,539	493,538	0,022	0,038
-683,524	17,798	0,049	-0,029
-682,510	105,120	0,108	0,094
-681,495	143,710	-0,058	-0,057
-680,481	54,739	-0,038	0,027
-679,466	232,200	-0,039	-0,048
-678,451	82,951	0,049	0,039
-677,437	-200,000	-0,016	0,134
-676,422	75,742	-0,097	0,075
-675,408	-37,059	0,013	0,005
-674,393	2,446	-0,111	-0,059
-673,378	-200,000	0,008	0,124
-672,364	-114,224	-0,123	0,017
-671,349	7,801	-0,053	-0,029
-670,335	-200,000	0,013	-0,204
-669,320	19,337	-0,130	-0,077
-668,305	-200,000	-0,018	0,119
-667,291	235,593	-0,058	-0,071
-666,276	-115,186	0,083	0,011
-665,262	-200,000	0,015	-0,115
-664,247	87,089	-0,040	-0,032
-663,232	455,152	-0,053	0,087
-662,218	800,000	0,049	-0,117
-661,203	293,052	0,047	-0,063
-660,189	291,888	-0,063	0,086
-659,174	74,761	-0,155	-0,120
-658,159	178,485	0,054	-0,059
-657,145	150,220	-0,048	-0,048
-656,130	-200,000	0,007	-0,043
-655,116	368,721	0,015	0,022
-654,101	61,097	0,106	0,078
-653,086	-200,000	-0,003	0,141
-652,072	174,022	0,045	-0,048
-651,057	553,965	-0,013	0,024
-650,043	49,393	-0,106	0,073
-649,028	-200,000	0,000	-0,009
-648,014	559,340	0,041	-0,074
-646,999	347,012	0,084	0,122
-645,984	-200,000	0,038	0,153
-644,970	800,000	-0,048	-0,126
-643,955	21,465	-0,097	-0,058
-642,941	279,620	-0,076	-0,101
-641,926	-200,000	0,027	-0,134
-640,911	-200,000	0,008	-0,038
-639,897	-200,000	-0,053	0,175
-638,882	41,901	0,107	0,071
-637,868	99,076	-0,069	-0,059
-636,853	-102,409	0,136	-0,024
-635,838	-30,440	0,031	0,013
-634,824	-200,000	0,022	0,085
-633,809	590,635	0,053	0,096
-632,795	-124,243	-0,138	-0,016
-631,780	475,310	-0,078	-0,130
-630,765	-200,000	-0,011	0,054
-629,751	-200,000	0,003	0,086
-628,736	95,891	-0,065	-0,055
-627,722	772,609	-0,039	-0,079
-626,707	160,318	-0,038	-0,039
-625,692	-200,000	0,049	0,175
-624,678	298,003	-0,063	-0,086
-623,663	89,210	0,108	-0,089
-622,649	-164,715	-0,102	-0,003
-621,634	-50,728	0,106	0,037
-620,619	107,832	-0,033	-0,029
-619,605	-19,204	-0,030	-0,013
-618,590	-61,358	0,073	0,022
-617,576	331,782	-0,046	-0,065
-616,561	-124,917	-0,031	0,003
-615,546	466,786	0,101	-0,168
-614,532	5,307	-0,029	0,016
-613,517	-13,087	0,116	0,055
-612,503	-200,000	0,000	0,001
-611,488	189,789	-0,124	0,137
-610,474	-114,343	0,038	-0,005
-609,459	-104,587	0,011	-0,002
-608,444	498,153	-0,024	-0,041
-607,430	117,472	-0,089	0,080
-606,415	-125,352	0,085	-0,009
-605,401	68,793	0,020	0,015
-604,386	50,530	0,050	-0,035
-603,371	-89,231	-0,173	-0,037
-602,357	323,102	0,065	-0,091
-601,342	-7,833	-0,066	0,033
-600,328	-169,057	-0,036	0,001
-599,313	-117,055	0,117	-0,016
-598,298	800,000	-0,019	-0,043
-597,284	-101,973	0,098	0,017
-596,269	237,362	0,054	0,066
-595,255	-200,000	-0,018	0,079
-594,240	800,000	0,052	-0,112
-593,225	655,093	0,032	-0,060
-592,211	800,000	0,006	-0,018
-591,196	-107,707	-0,104	0,017
-590,182	-147,243	0,075	0,005
-589,167	-200,000	0,007	0,094
-588,152	485,626	-0,044	-0,074
-587,138	800,000	-0,059	-0,122
-586,123	-75,199	-0,226	-0,059
-585,109	134,027	-0,033	-0,031
-584,094	143,144	0,075	0,073
-583,079	381,551	0,028	0,042
-582,065	800,000	0,028	-0,057
-581,050	-58,850	-0,051	0,016
-580,036	-200,000	0,033	0,113
-579,021	-200,000	-0,037	-0,131
-578,006	531,646	0,040	-0,069
-576,992	252,252	-0,034	0,043
-575,977	-200,000	0,002	0,060
-574,963	-91,165	-0,068	-0,014
-573,948	48,027	0,032	0,022
-572,934	-32,708	-0,072	-0,029
-571,919	-89,700	-0,048	-0,010
-570,904	-177,822	-0,067	-0,001
-569,890	-25,938	0,053	-0,023
-568,875	78,325	0,035	-0,027
-567,861	16,596	-0,037	0,021
-566,846	-25,681	0,092	-0,040
-565,831	323,195	0,045	-0,064
-564,817	-89,060	-0,144	-0,031
-563,802	-200,000	-0,008	-0,033
-562,788	-200,000	0,005	-0,153
-561,773	-119,656	0,094	-0,012
-560,758	46,085	-0,082	-0,056
-559,744	-7,674	-0,067	0,033
-558,729	-48,088	0,038	0,013
-557,715	48,855	-0,057	-0,039
-556,700	800,000	0,038	-0,089
-555,685	293,831	-0,036	-0,049
-554,671	300,906	0,015	0,020
-553,656	211,995	-0,097	0,113
-552,642	800,000	0,030	0,082
-551,627	159,657	0,054	-0,055
-550,612	-116,141	0,100	0,014
-549,598	-200,000	-0,021	-0,083
-548,583	104,848	0,058	-0,050
-547,569	-200,000	-0,012	-0,076
-546,554	-200,000	-0,007	-0,067
-545,539	-200,000	0,000	0,009
-544,525	-200,000	0,013	-0,098
-543,510	282,405	-0,055	0,072
-542,496	460,982	0,069	-0,114
-541,481	-200,000	0,028	-0,132
-540,466	255,008	0,097	-0,122
-539,452	280,112	0,007	-0,009
-538,437	-47,000	0,102	0,036
-537,423	-19,543	-0,076	0,034
-536,408	800,000	-0,061	-0,134
-535,393	78,725	-0,025	0,020
-534,379	-200,000	-0,004	-0,030
-533,364	-80,078	-0,094	-0,023
-532,350	-200,000	0,012	0,054
-531,335	82,185	0,099	0,079
-530,321	-200,000	-0,021	0,121
-529,306	-54,502	-0,096	0,032
-528,291	-108,210	0,043	0,007
-527,277	2,759	-0,083	-0,044
-526,262	-200,000	-0,022	-0,155
-525,248	-200,000	-0,003	-0,052
-524,233	-200,000	-0,003	0,091
-523,218	-15,285	-0,079	0,037
-522,204	-185,370	0,096	-0,001
-521,189	800,000	-0,048	0,115
-520,175	-95,145	-0,141	0,028
-519,160	463,475	0,059	0,097
-518,145	-14,635	0,042	-0,020
-517,131	90,164	-0,078	-0,064
-516,116	-111,996	0,047	0,007
-515,102	421,354	0,082	-0,129
-514,087	582,586	-0,063	-0,113
-513,072	-84,276	-0,132	0,031
-512,058	133,282	-0,045	-0,042
-511,043	-103,092	0,091	-0,016
-510,029	-83,386	-0,054	-0,013
-509,014	240,202	-0,062	0,076
-507,999	-37,483	0,049	0,019
-506,985	-145,798	0,079	-0,005
-505,970	-200,000	-0,005	-0,187
-504,956	181,807	0,007	0,008
-503,941	-200,000	0,005	0,092
-502,926	-57,449	-0,024	-0,008
-501,912	-186,803	0,100	0,001
-500,897	-200,000	0,012	0,103
-499,883	-18,129	-0,042	0,019
-498,868	800,000	0,040	-0,117
-497,853	800,000	-0,024	0,064
-496,839	-131,105	-0,077	-0,007
-495,824	-200,000	-0,030	0,154
-494,810	-200,000	-0,004	0,040
-493,795	36,214	0,132	0,085
-492,781	800,000	-0,026	-0,072
-491,766	800,000	0,021	-0,063
-490,751	636,777	-0,047	0,089
-489,737	-200,000	0,008	-0,049
-488,722	-103,824	0,133	-0,023
-487,708	800,000	-0,033	-0,075
-486,693	286,185	0,073	-0,097
-485,678	800,000	-0,049	0,103
-484,664	-144,915	-0,134	-0,009
-483,649	46,148	-0,112	0,076
-482,635	-200,000	-0,006	0,097
-481,620	-94,339	0,180	0,036
-480,605	-200,000	0,030	-0,103
-479,591	388,715	0,071	-0,108
-478,576	-72,180	-0,144	0,039
-477,562	-40,159	0,075	-0,029
-476,547	-200,000	-0,009	-0,165
-475,532	-200,000	-0,015	0,099
-474,518	-200,000	0,013	0,046
-473,503	-200,000	-0,001	0,095
-472,489	76,026	-0,068	-0,052
-471,474	281,770	-0,045	0,060
-470,459	41,947	0,055	0,037
-469,445	55,282	-0,051	0,036
-468,430	345,274	0,022	0,031
-467,416	55,090	-0,049	-0,034
-466,401	-14,172	-0,047	0,022
-465,386	-54,732	0,052	0,017
-464,372	-2,026	-0,106	0,054
-463,357	-200,000	-0,004	-0,088
-462,343	92,892	-0,099	-0,082
-461,328	-152,265	0,052	0,003
-460,313	-80,628	-0,059	0,014
-459,299	-67,512	0,108	0,031
-458,284	19,357	-0,168	0,099
-457,270	-200,000	-0,028	0,131
-456,255	673,940	-0,060	0,115
-455,241	-98,811	0,053	0,010
-454,226	800,000	-0,038	-0,083
-453,211	158,099	0,040	-0,041
-452,197	-82,227	0,123	-0,029
-451,182	-200,000	0,015	0,084
-450,168	103,402	-0,104	-0,090
-449,153	95,016	0,031	0,026
-448,138	-200,000	0,009	-0,070
-447,124	-41,216	-0,104	-0,039
-446,109	-200,000	0,023	-0,087
-445,095	154,710	-0,033	-0,034
-444,080	-200,000	-0,005	-0,040
-443,065	-48,517	0,058	-0,020
-442,051	-19,310	0,067	0,030
-441,036	197,141	-0,055	-0,061
-440,022	800,000	0,014	-0,040
-439,007	59,804	0,034	0,024
-437,992	-136,748	0,090	0,007
-436,978	706,308	0,058	0,113
-435,963	487,722	-0,075	0,126
-434,949	297,671	-0,062	-0,083
-433,934	202,017	-0,029	0,033
-432,919	-119,829	0,053	-0,007
-431,905	217,018	-0,077	0,090
-430,890	276,121	-0,036	0,047
-429,876	97,922	0,035	-0,030
-428,861	-59,326	0,114	0,036
-427,846	-39,619	-0,064	0,025
-426,832	-200,000	0,022	-0,110
-425,817	-100,828	-0,054	-0,010
-424,803	211,710	-0,043	-0,049
-423,788	-200,000	0,010	0,136
-422,773	128,663	0,097	0,091
-421,759	88,052	-0,096	0,078
-420,744	39,167	-0,043	-0,028
-419,730	-71,536	0,040	-0,011
-418,715	-200,000	-0,002	-0,153
-417,701	-73,092	0,062	0,016
-416,686	800,000	0,014	-0,035
-415,671	-90,576	-0,077	-0,016
-414,657	-200,000	-0,004	0,217
-413,642	53,891	0,070	0,049
-412,628	-200,000	-0,003	-0,036
-411,613	677,388	-0,076	-0,146
-410,598	-46,919	-0,080	-0,029
-409,584	367,022	0,033	-0,049
-408,569	112,591	0,148	0,131
-407,555	136,531	-0,056	0,054
-406,540	-200,000	0,032	0,143
-405,525	55,053	-0,147	0,103
-404,511	-200,000	-0,187	0,000
-403,496	-32,766	-0,034	-0,014
-402,482	152,861	0,048	-0,048
-401,467	-200,000	-0,010	-0,041
-400,452	800,000	0,056	0,140
-399,438	-29,450	0,091	0,038
-398,423	800,000	-0,012	0,032
-397,409	71,844	-0,069	0,052
-396,394	405,528	-0,109	-0,169
-395,379	800,000	-0,021	0,057
-394,365	800,000	0,029	0,082
-393,350	800,000	0,028	0,086
-392,336	800,000	-0,058	0,140
-391,321	-97,009	0,056	-0,011
-390,306	800,000	0,012	-0,034
-389,292	137,263	0,031	-0,030
-388,277	-53,638	-0,124	-0,041
-387,263	321,942	-0,049	0,068
-386,248	138,975	-0,059	0,057
-385,233	-200,000	0,028	0,114
-384,219	62,415	0,110	-0,080
-383,204	238,814	-0,024	0,029
-382,190	167,698	0,022	-0,023
-381,175	29,696	-0,070	0,044
-380,160	-200,000	0,004	-0,018
-379,146	-174,133	-0,088	-0,002
-378,131	-200,000	-0,026	0,114
-377,117	-184,678	0,189	0,002
-376,102	800,000	-0,027	0,085
-375,088	65,998	0,165	-0,122
-374,073	281,751	0,050	0,065
-373,058	-59,574	0,120	-0,037
-372,044	-51,765	-0,152	0,052
-371,029	709,234	0,024	-0,046
-370,015	390,852	-0,044	-0,067
-369,000	102,601	0,067	-0,057
-367,985	-200,000	0,006	-0,024
-366,971	202,758	-0,022	0,025
-365,956	800,000	-0,035	0,071
-364,942	53,698	-0,054	0,038
-363,927	57,512	-0,054	0,038
-362,912	-58,241	0,105	-0,033
-361,898	489,508	-0,084	0,142
-360,883	146,230	-0,069	0,068
-359,869	-200,000	0,004	0,036
-358,854	-200,000	-0,030	0,108
-357,839	-200,000	-0,003	0,016
-356,825	87,156	0,102	0,082
-355,810	83,770	0,056	-0,045
-354,796	-116,935	-0,017	0,002
-353,781	74,098	-0,133	-0,101
-352,766	12,601	0,078	0,044
-351,752	232,406	-0,079	-0,094
-350,737	699,711	-0,046	0,088
-349,723	-119,752	0,058	-0,007
-348,708	-16,575	0,044	0,020
-347,693	-200,000	-0,061	-0,215
-346,679	-124,343	-0,076	-0,009
-345,664	219,605	-0,042	0,049
-344,650	309,649	0,036	-0,049
-343,635	800,000	-0,040	0,122
-342,620	-94,320	0,116	-0,023
-341,606	21,686	0,034	-0,020
-340,591	173,477	0,051	0,054
-339,577	-126,666	0,126	-0,013
-338,562	59,086	-0,057	-0,041
-337,548	-200,000	-0,001	-0,025
-336,533	-200,000	-0,016	0,106
-335,518	-95,047	0,099	0,019
-334,504	284,661	0,153	0,202
-333,489	-156,113	-0,207	-0,009
-332,475	17,582	0,051	0,030
-331,460	-200,000	0,015	0,065
-330,445	-200,000	0,002	0,014
-329,431	-110,514	0,115	0,017
-328,416	283,076	0,057	-0,075
-327,402	116,509	-0,042	0,038
-326,387	56,184	0,057	-0,040
-325,372	800,000	-0,028	0,060
-324,358	-200,000	0,000	0,083
-323,343	283,768	0,009	-0,011
-322,329	-144,748	0,096	-0,006
-321,314	-168,290	-0,152	-0,004
-320,299	-59,030	-0,053	0,017
-319,285	-52,627	-0,086	0,029
-318,270	-200,000	-0,006	-0,064
-317,256	-200,000	0,012	0,087
-316,241	450,922	0,052	-0,083
-315,226	-48,558	-0,095	0,033
-314,212	63,773	0,097	-0,071
-313,197	345,488	0,014	0,019
-312,183	46,553	-0,084	0,057
-311,168	59,515	-0,064	-0,046
-310,153	512,466	0,061	-0,104
-309,139	-46,225	-0,119	0,043
-308,124	220,007	0,046	0,054
-307,110	800,000	0,013	-0,040
-306,095	38,120	-0,082	-0,053
-305,080	143,258	0,046	-0,045
-304,066	670,852	-0,056	-0,106
-303,051	629,851	-0,042	-0,078
-302,037	18,533	-0,117	-0,068
-301,022	-200,000	0,000	-0,052
-300,008	-25,151	0,076	0,033
-298,993	133,279	0,067	0,063
-297,978	-126,739	0,080	-0,009
-296,964	224,337	0,038	-0,044
-295,949	-200,000	0,005	-0,077
-294,935	-33,642	0,046	0,018
-293,920	800,000	-0,038	0,097
-292,905	800,000	0,042	-0,120
-291,891	441,460	0,044	0,070
-290,876	-148,917	0,042	0,002
-289,862	8,836	-0,063	-0,034
-288,847	52,967	-0,098	-0,068
-287,832	107,663	0,095	0,083
-286,818	72,625	0,059	0,045
-285,803	-113,830	0,101	0,014
-284,789	-87,507	0,089	-0,020
-283,774	800,000	0,019	0,055
-282,759	46,815	-0,007	0,005
-281,745	-50,437	-0,136	0,046
-280,730	220,409	0,007	0,008
-279,716	194,573	0,069	-0,076
-278,701	45,540	-0,030	0,020
-277,686	115,882	0,145	0,129
-276,672	800,000	0,082	0,173
-275,657	800,000	-0,054	0,114
-274,643	97,544	0,093	-0,077
-273,628	-200,000	-0,014	-0,063
-272,613	-58,759	-0,035	0,011
-271,599	-37,652	0,080	0,031
-270,584	-6,078	0,062	0,031
-269,570	-53,083	0,153	-0,051
-268,555	800,000	0,012	-0,027
-267,540	250,141	-0,029	0,036
-266,526	187,331	-0,086	0,093
-265,511	127,144	0,134	0,124
-264,497	87,832	0,070	-0,056
-263,482	-39,380	0,116	-0,044
-262,467	-113,524	-0,069	-0,010
-261,453	175,759	-0,047	0,050
-260,438	-117,024	-0,040	-0,005
-259,424	-200,000	-0,000	-0,040
-258,409	-14,949	-0,104	-0,048
-257,395	582,674	0,035	-0,062
-256,380	-200,000	0,016	0,063
-255,365	188,949	-0,022	-0,024
-254,351	185,972	-0,062	0,068
-253,336	-121,616	-0,096	-0,011
-252,322	-200,000	-0,014	-0,049
-251,307	-53,998	-0,048	-0,016
-250,292	-200,000	-0,045	0,190
-249,278	488,217	0,061	0,102
-248,263	71,806	-0,050	-0,038
-247,249	-200,000	-0,020	0,112
-246,234	68,889	0,140	-0,105
-245,219	284,207	-0,043	-0,057
-244,205	242,594	0,051	0,062
-243,190	476,895	0,073	-0,121
-242,176	418,576	0,137	0,213
-241,161	-35,639	0,111	0,044
-240,146	145,217	0,043	-0,042
-239,132	-200,000	-0,003	0,034
-238,117	-137,927	0,085	-0,007
-237,103	800,000	0,036	-0,085
-236,088	38,699	-0,150	-0,097
-235,073	-128,871	0,050	-0,005
-234,059	800,000	0,042	-0,102
-233,044	800,000	-0,010	-0,025
-232,030	460,620	0,028	-0,045
-231,015	84,577	-0,119	-0,095
-230,000	800,000	0,029	-0,068
-228,986	312,015	-0,018	0,025
-227,971	-85,522	0,072	0,016
-226,957	-200,000	0,014	-0,050
-225,942	220,402	-0,008	0,010
-224,927	-33,378	-0,064	-0,026
-223,913	5,307	-0,037	-0,020
-222,898	130,542	0,037	-0,034
-221,884	204,972	-0,095	0,108
-220,869	800,000	0,008	0,024
-219,855	-200,000	0,011	0,045
-218,840	-200,000	-0,017	-0,085
-217,825	-141,291	-0,071	-0,005
-216,811	-200,000	0,013	-0,069
-215,796	135,723	0,032	0,031
-214,782	293,755	-0,027	-0,036
-213,767	-138,821	-0,081	-0,006
-212,752	158,670	0,126	-0,127
-211,738	569,129	-0,021	0,038
-210,723	-200,000	0,002	-0,057
-209,709	-150,698	-0,052	0,003
-208,694	1,845	0,029	0,015
-207,679	200,710	0,043	-0,048
-206,665	30,457	0,082	0,051
-205,650	-200,000	0,004	0,092
-204,636	98,273	0,057	0,048
-203,621	-200,000	0,015	-0,106
-202,606	168,817	-0,023	-0,023
-201,592	677,261	-0,042	0,079
-200,577	100,044	-0,125	-0,105
-199,563	290,669	0,068	-0,090
-198,548	128,549	0,085	-0,079
-197,533	206,809	-0,063	0,072
-196,519	187,158	-0,047	-0,051
-195,504	-200,000	0,006	-0,041
-194,490	385,143	-0,111	-0,167
-193,475	-42,197	-0,037	0,014
-192,460	800,000	0,036	0,074
-191,446	125,452	-0,100	0,092
-190,431	165,202	0,040	0,041
-189,417	-117,352	0,101	-0,013
-188,402	-1,399	-0,014	0,007
-187,387	800,000	-0,076	-0,187
-186,373	-200,000	0,009	0,062
-185,358	-12,882	0,040	-0,019
-184,344	61,373	0,107	0,077
-183,329	4,500	0,119	-0,063
-182,315	-200,000	-0,013	0,078
-181,300	-59,731	-0,114	0,035
-180,285	-200,000	-0,000	-0,049
-179,271	-15,172	0,099	-0,046
-178,256	-200,000	0,024	0,207
-177,242	-200,000	-0,016	0,142
-176,227	-200,000	0,015	-0,087
-175,212	97,928	0,082	-0,069
-174,198	-107,645	-0,065	-0,010
-173,183	-200,000	-0,001	-0,102
-172,169	75,701	0,047	-0,036
-171,154	-36,455	0,134	-0,052
-170,139	-30,642	-0,085	-0,035
-169,125	-168,610	0,193	0,005
-168,110	-21,739	-0,049	-0,021
-167,096	53,801	-0,031	-0,021
-166,081	579,200	-0,050	-0,089
-165,066	508,673	-0,032	-0,055
-164,052	465,882	-0,096	0,157
-163,037	800,000	-0,044	0,090
-162,023	249,561	0,039	0,048
-161,008	-200,000	0,015	0,057
-159,993	-148,577	-0,111	-0,006
-158,979	-200,000	0,015	-0,105
-157,964	-104,295	0,049	-0,008
-156,950	-58,064	-0,031	0,010
-155,935	-11,636	-0,105	0,050
-154,920	179,340	0,117	-0,124
-153,906	208,371	0,069	0,078
-152,891	197,613	-0,010	0,011
-151,877	-200,000	0,005	-0,107
-150,862	64,975	-0,083	-0,061
-149,847	-65,775	-0,089	0,026
-148,833	-200,000	0,010	-0,100
-147,818	-200,000	-0,010	0,088
-146,804	-161,373	0,071	0,003
-145,789	223,656	0,050	0,058
-144,775	-146,907	0,117	0,007
-143,760	-90,918	0,052	0,011
-142,745	-149,982	-0,070	0,004
-141,731	-135,338	-0,147	0,013
-140,716	601,606	-0,074	0,134
-139,702	-200,000	0,019	-0,088
-138,687	800,000	0,059	0,154
-137,672	-200,000	0,023	0,085
-136,658	-200,000	0,037	-0,174
-135,643	-200,000	-0,003	-0,038
-134,629	-200,000	-0,007	0,097
-133,614	-137,573	0,131	-0,011
-132,599	-79,193	-0,049	0,012
-131,585	-142,672	-0,067	-0,005
-130,570	-60,586	0,155	0,047
-129,556	64,734	0,076	-0,056
-128,541	395,511	0,030	-0,045
-127,526	-200,000	-0,034	0,141
-126,512	29,923	-0,027	-0,017
-125,497	363,539	-0,059	0,086
-124,483	19,796	-0,116	0,067
-123,468	-200,000	-0,005	-0,076
-122,453	-107,185	-0,061	0,010
-121,439	353,738	0,028	-0,040
-120,424	181,086	-0,094	-0,101
-119,410	150,978	0,045	0,044
