DTS Sentinel unit serial number:	SN410029Multiplexer serial number:	ORYXHardware model number:	OX2-SRSoftware version number:	ORYX F/W v4,00 Oryx Data Collector v3.7.2.0data status	okinstallation	B6 Nyhavnadifferential loss correction	single-endedforward channel	channel 2reverse channel	N/Adate	2023/12/10time	19:25:08forward acquisition time	300,00reverse acquisition time	0,00gamma	499,1914k internal	0,3122k external	0,3122temperature offset calibration	1,0000default loss term (dB/km)	0,3820temperature slope calibration	1,0000multiplexer offset coefficient	1,0000multiplexer slope coefficient	1,0000fibre end	0,00T internal ref (°C)	22,31T ext. ref 1 (°C)	6,03T ext. ref 2 (°C)	6,03length (m)	temperature (°C)	Stokes	anti-Stokes-744,400	800,000	-0,020	0,044
-743,385	1,807	-0,138	0,074
-742,371	-2,575	0,216	-0,112
-741,356	25,387	-0,186	0,115
-740,342	-63,003	0,053	-0,016
-739,327	50,275	-0,289	0,203
-738,312	-200,000	-0,009	-0,061
-737,298	-125,881	-0,307	-0,034
-736,283	229,872	0,096	-0,118
-735,269	-109,143	-0,306	0,048
-734,254	105,004	0,112	-0,099
-733,239	-14,587	-0,352	-0,168
-732,225	14,668	0,079	-0,046
-731,210	-10,263	-0,121	0,060
-730,196	-90,651	0,148	-0,032
-729,181	75,673	0,024	0,019
-728,167	-200,000	0,012	0,051
-727,152	191,058	0,042	-0,048
-726,137	-10,477	-0,064	-0,031
-725,123	800,000	-0,038	-0,089
-724,108	800,000	-0,025	-0,062
-723,094	-6,966	-0,109	0,055
-722,079	-27,748	0,096	-0,041
-721,064	77,027	0,038	-0,030
-720,050	36,783	-0,100	-0,066
-719,035	41,716	-0,049	-0,033
-718,021	717,975	0,052	0,104
-717,006	-86,520	-0,074	0,017
-715,991	-200,000	-0,006	-0,146
-714,977	15,963	-0,070	-0,041
-713,962	427,508	-0,023	-0,038
-712,948	237,176	-0,041	0,050
-711,933	323,843	0,032	0,045
-710,918	-133,568	-0,084	-0,008
-709,904	-43,135	0,081	-0,030
-708,889	-84,499	-0,160	0,037
-707,875	-200,000	-0,014	-0,257
-706,860	141,186	0,073	-0,072
-705,845	-133,422	0,063	-0,006
-704,831	-200,000	0,019	0,070
-703,816	-200,000	0,018	-0,071
-702,802	101,582	0,030	0,026
-701,787	-200,000	0,011	-0,043
-700,772	800,000	0,058	0,147
-699,758	-110,537	-0,061	-0,009
-698,743	-61,356	0,061	0,019
-697,729	-200,000	-0,004	0,019
-696,714	-63,098	0,072	0,022
-695,699	-115,830	-0,172	0,024
-694,685	-92,764	-0,107	-0,022
-693,670	617,279	-0,043	-0,081
-692,656	46,957	0,072	0,050
-691,641	606,416	-0,026	-0,048
-690,627	-60,193	0,015	-0,005
-689,612	-15,126	0,064	-0,030
-688,597	-85,995	-0,136	-0,031
-687,583	99,389	0,119	-0,103
-686,568	-71,967	-0,217	-0,060
-685,554	800,000	0,025	-0,064
-684,539	-106,844	0,012	0,002
-683,524	90,231	-0,089	0,074
-682,510	325,560	0,026	-0,038
-681,495	-71,394	-0,091	-0,025
-680,481	703,137	0,042	-0,083
-679,466	-33,391	0,049	-0,020
-678,451	-200,000	-0,000	-0,107
-677,437	6,980	0,083	-0,046
-676,422	-18,943	-0,158	-0,073
-675,408	388,998	0,027	0,041
-674,393	-200,000	0,011	0,055
-673,378	20,034	-0,065	-0,039
-672,364	-18,668	-0,044	-0,021
-671,349	800,000	0,007	0,016
-670,335	-200,000	-0,005	-0,096
-669,320	800,000	0,036	0,084
-668,305	-53,324	-0,055	0,019
-667,291	223,872	0,061	-0,073
-666,276	4,859	0,067	0,036
-665,262	51,314	-0,070	-0,050
-664,247	220,897	0,026	0,032
-663,232	-200,000	0,006	0,106
-662,218	234,497	-0,020	0,024
-661,203	-39,861	-0,062	-0,024
-660,189	440,255	-0,069	-0,112
-659,174	-200,000	-0,011	-0,092
-658,159	177,962	-0,084	-0,091
-657,145	-200,000	0,008	0,038
-656,130	334,460	0,017	0,025
-655,116	93,308	0,045	-0,038
-654,101	-200,000	0,016	0,163
-653,086	-200,000	0,017	0,127
-652,072	6,748	-0,066	0,036
-651,057	687,101	-0,067	-0,132
-650,043	-56,918	-0,076	-0,025
-649,028	-200,000	-0,005	0,136
-648,014	-200,000	0,013	0,070
-646,999	-154,328	0,129	-0,006
-645,984	-93,017	0,086	0,018
-644,970	-138,880	-0,033	0,003
-643,955	-200,000	-0,055	-0,197
-642,941	-7,921	-0,049	-0,025
-641,926	-79,150	0,110	-0,028
-640,911	539,290	-0,024	0,043
-639,897	-200,000	-0,008	-0,067
-638,882	-64,674	-0,078	-0,023
-637,868	-174,353	-0,063	-0,001
-636,853	-63,743	0,071	-0,022
-635,838	-41,463	-0,189	-0,072
-634,824	-139,289	-0,023	0,002
-633,809	319,661	-0,040	0,056
-632,795	800,000	-0,061	0,148
-631,780	596,252	-0,052	0,096
-630,765	800,000	-0,028	0,081
-629,751	-200,000	-0,010	-0,114
-628,736	29,499	-0,058	-0,037
-627,722	-66,885	0,048	0,014
-626,707	-200,000	0,016	0,124
-625,692	106,732	0,077	0,068
-624,678	498,091	-0,070	0,120
-623,663	-155,572	-0,159	-0,007
-622,649	-200,000	0,050	-0,240
-621,634	-200,000	-0,040	-0,174
-620,619	800,000	-0,048	-0,116
-619,605	-132,961	0,084	0,008
-618,590	220,131	0,161	0,192
-617,576	270,017	-0,062	0,080
-616,561	-145,012	-0,024	-0,002
-615,546	375,536	-0,098	-0,149
-614,532	800,000	0,031	-0,077
-613,517	-89,631	0,051	-0,011
-612,503	-118,541	-0,068	-0,009
-611,488	214,522	0,075	-0,088
-610,474	800,000	0,024	0,078
-609,459	197,664	0,081	-0,092
-608,444	-71,830	0,073	0,020
-607,430	-59,028	-0,113	0,036
-606,415	46,150	0,128	0,088
-605,401	-70,547	-0,079	0,022
-604,386	-56,737	0,087	-0,028
-603,371	398,978	0,025	-0,040
-602,357	-0,887	-0,003	0,001
-601,342	-89,038	-0,086	0,019
-600,328	-200,000	0,007	-0,091
-599,313	326,805	0,043	-0,061
-598,298	-200,000	-0,023	-0,077
-597,284	763,074	-0,075	-0,152
-596,269	-200,000	-0,023	0,209
-595,255	3,382	-0,122	0,066
-594,240	-20,254	-0,123	-0,056
-593,225	-200,000	0,012	-0,061
-592,211	188,000	0,055	-0,061
-591,196	31,482	0,091	0,058
-590,182	-200,000	0,021	-0,082
-589,167	-109,864	0,170	-0,026
-588,152	-124,559	-0,066	-0,008
-587,138	-21,546	0,064	-0,029
-586,123	232,713	-0,062	-0,075
-585,109	800,000	0,037	-0,083
-584,094	800,000	-0,055	-0,121
-583,079	-26,750	-0,052	-0,022
-582,065	-114,045	0,073	-0,010
-581,050	-200,000	0,015	-0,060
-580,036	-200,000	-0,031	0,105
-579,021	-200,000	0,001	-0,107
-578,006	800,000	0,025	-0,066
-576,992	800,000	0,014	0,032
-575,977	143,785	0,140	0,138
-574,963	-180,754	0,101	0,001
-573,948	800,000	-0,030	0,096
-572,934	-200,000	-0,011	-0,065
-571,919	800,000	-0,057	-0,151
-570,904	31,938	0,050	-0,032
-569,890	279,205	-0,046	-0,061
-568,875	-200,000	-0,007	0,076
-567,861	800,000	0,051	0,120
-566,846	367,077	0,117	-0,175
-565,831	-200,000	0,006	0,031
-564,817	-200,000	-0,013	-0,061
-563,802	-200,000	-0,032	-0,194
-562,788	-48,313	-0,049	-0,018
-561,773	-186,234	-0,035	0,000
-560,758	-133,450	-0,059	0,005
-559,744	26,207	0,037	-0,023
-558,729	226,042	0,114	-0,137
-557,715	425,619	-0,137	-0,220
-556,700	800,000	-0,051	-0,140
-555,685	475,725	0,011	-0,019
-554,671	44,253	0,087	0,059
-553,656	-200,000	-0,008	0,167
-552,642	-200,000	-0,003	0,093
-551,627	322,111	-0,094	0,133
-550,612	800,000	0,018	-0,053
-549,598	-200,000	-0,003	-0,058
-548,583	-36,067	0,062	0,024
-547,569	691,682	0,047	0,092
-546,554	-200,000	-0,000	0,151
-545,539	800,000	-0,018	0,038
-544,525	764,402	-0,056	0,113
-543,510	133,524	-0,054	0,051
-542,496	136,476	0,106	-0,103
-541,481	96,757	0,066	0,056
-540,466	79,036	-0,078	0,062
-539,452	459,471	0,024	-0,039
-538,437	-5,307	0,194	-0,098
-537,423	-200,000	-0,001	-0,052
-536,408	-200,000	-0,015	0,066
-535,393	423,316	-0,028	0,044
-534,379	282,237	-0,036	-0,048
-533,364	50,761	0,054	-0,038
-532,350	574,679	0,012	0,021
-531,335	94,875	0,111	0,094
-530,321	-53,611	-0,074	0,025
-529,306	-200,000	-0,031	0,140
-528,291	800,000	0,022	-0,063
-527,277	-48,025	-0,017	0,006
-526,262	147,468	-0,022	-0,022
-525,248	-13,122	0,026	0,013
-524,233	308,352	-0,057	0,078
-523,218	193,869	0,022	0,024
-522,204	-6,169	0,057	-0,029
-521,189	75,499	-0,056	0,044
-520,175	46,094	-0,073	0,050
-519,160	33,901	-0,018	0,011
-518,145	800,000	-0,007	-0,021
-517,131	144,325	0,089	-0,088
-516,116	-200,000	0,009	-0,033
-515,102	239,106	-0,094	0,116
-514,087	-200,000	0,012	0,076
-513,072	204,494	-0,024	-0,028
-512,058	800,000	0,035	-0,087
-511,043	7,233	-0,085	-0,047
-510,029	230,099	0,024	0,028
-509,014	5,744	-0,178	0,097
-507,999	-200,000	0,031	-0,118
-506,985	-81,560	0,077	-0,019
-505,970	66,007	-0,132	-0,099
-504,956	-200,000	-0,040	-0,155
-503,941	800,000	-0,101	-0,237
-502,926	428,625	-0,098	-0,157
-501,912	16,002	-0,157	0,091
-500,897	501,363	0,097	0,167
-499,883	220,799	0,052	0,062
-498,868	-53,025	-0,063	0,021
-497,853	-200,000	-0,007	-0,119
-496,839	1,848	0,166	-0,088
-495,824	-95,530	0,091	0,018
-494,810	-200,000	-0,026	0,086
-493,795	21,272	-0,072	0,043
-492,781	102,930	-0,024	0,021
-491,766	40,374	-0,014	-0,009
-490,751	-126,590	-0,116	0,013
-489,737	2,776	-0,031	0,017
-488,722	-55,694	0,070	0,023
-487,708	303,361	-0,081	0,110
-486,693	522,350	0,015	-0,026
-485,678	-25,677	-0,070	-0,030
-484,664	-200,000	-0,011	-0,101
-483,649	800,000	0,036	-0,078
-482,635	800,000	-0,092	-0,219
-481,620	-76,784	0,076	0,020
-480,605	-14,641	0,042	0,020
-479,591	49,794	0,109	0,076
-478,576	127,807	0,073	0,068
-477,562	189,477	0,042	-0,047
-476,547	-200,000	-0,021	0,076
-475,532	201,208	-0,023	-0,026
-474,518	-200,000	-0,022	-0,129
-473,503	230,461	0,059	-0,072
-472,489	-200,000	0,009	0,055
-471,474	84,837	-0,037	-0,030
-470,459	-123,369	-0,045	-0,005
-469,445	-101,947	-0,016	0,003
-468,430	-142,889	-0,024	0,002
-467,416	-28,089	-0,191	-0,081
-466,401	-52,250	0,079	-0,027
-465,386	-117,824	0,197	0,026
-464,372	800,000	-0,049	-0,108
-463,357	99,530	-0,066	-0,056
-462,343	800,000	0,021	-0,057
-461,328	29,724	-0,109	0,068
-460,313	-27,003	0,105	-0,045
-459,299	78,882	-0,124	0,097
-458,284	489,448	-0,048	0,081
-457,270	-200,000	0,008	-0,038
-456,255	-25,404	-0,073	0,032
-455,241	196,699	-0,019	-0,022
-454,226	250,197	0,094	-0,117
-453,211	-34,728	0,135	-0,054
-452,197	-107,810	0,034	0,005
-451,182	447,234	0,044	0,072
-450,168	12,969	0,075	-0,043
-449,153	151,756	0,119	0,120
-448,138	-200,000	-0,007	-0,026
-447,124	269,160	0,082	-0,106
-446,109	-200,000	0,030	-0,218
-445,095	438,286	-0,050	-0,080
-444,080	156,677	-0,022	-0,023
-443,065	-119,753	0,181	0,023
-442,051	-172,545	-0,121	0,003
-441,036	-200,000	-0,000	-0,015
-440,022	-150,895	-0,066	0,004
-439,007	65,822	-0,038	0,028
-437,992	800,000	0,044	-0,096
-436,978	442,516	-0,012	0,019
-435,963	179,387	-0,077	0,083
-434,949	-155,716	0,107	0,005
-433,934	-75,942	-0,103	-0,027
-432,919	-78,254	0,029	0,007
-431,905	-200,000	0,001	0,012
-430,890	-200,000	-0,031	0,150
-429,876	-200,000	-0,023	0,181
-428,861	-88,680	0,101	-0,022
-427,846	202,365	0,095	-0,108
-426,832	-160,882	-0,057	-0,002
-425,817	329,116	-0,057	0,080
-424,803	15,388	0,029	0,017
-423,788	-158,871	0,036	-0,001
-422,773	268,695	0,103	0,133
-421,759	216,714	-0,060	0,070
-420,744	-8,656	0,025	0,012
-419,730	-200,000	-0,005	0,025
-418,715	-64,581	-0,102	-0,030
-417,701	-79,954	0,145	-0,036
-416,686	800,000	-0,007	0,015
-415,671	37,901	0,101	0,066
-414,657	-81,351	-0,094	-0,023
-413,642	-105,610	0,034	-0,006
-412,628	-50,203	-0,160	0,055
-411,613	279,849	0,109	-0,143
-410,598	205,474	-0,039	-0,045
-409,584	-84,302	0,090	-0,021
-408,569	631,323	-0,058	0,108
-407,555	-200,000	0,000	0,169
-406,540	455,079	-0,043	0,070
-405,525	-200,000	0,003	-0,140
-404,511	37,434	-0,129	0,084
-403,496	215,067	0,007	-0,008
-402,482	18,365	-0,090	0,053
-401,467	-200,000	-0,012	0,216
-400,452	-126,980	-0,067	-0,007
-399,438	-35,219	0,083	-0,033
-398,423	769,858	0,049	0,098
-397,409	-119,954	0,071	-0,009
-396,394	71,434	-0,061	-0,046
-395,379	45,305	0,057	0,038
-394,365	-76,800	0,025	0,006
-393,350	448,113	-0,024	0,039
-392,336	199,120	-0,099	0,112
-391,321	-200,000	-0,004	-0,066
-390,306	273,138	-0,014	-0,018
-389,292	-48,744	0,188	-0,066
-388,277	22,882	0,014	0,009
-387,263	-58,047	0,128	-0,041
-386,248	-200,000	0,054	0,184
-385,233	211,604	-0,009	-0,011
-384,219	373,810	-0,047	-0,071
-383,204	-69,604	-0,153	0,043
-382,190	-200,000	-0,003	0,114
-381,175	322,970	-0,064	-0,090
-380,160	283,983	0,067	-0,088
-379,146	-200,000	-0,027	0,255
-378,131	800,000	-0,011	-0,028
-377,117	31,604	0,061	0,039
-376,102	75,674	-0,038	0,030
-375,088	60,878	0,088	-0,064
-374,073	-90,978	-0,187	0,039
-373,058	-71,225	0,060	0,017
-372,044	-113,811	-0,014	0,002
-371,029	435,530	-0,036	-0,057
-370,015	209,940	-0,105	0,122
-369,000	800,000	-0,041	0,130
-367,985	-22,735	-0,022	0,010
-366,971	693,472	-0,025	-0,048
-365,956	800,000	0,032	0,082
-364,942	-100,113	-0,075	0,014
-363,927	-36,190	0,072	0,028
-362,912	-93,294	0,050	0,010
-361,898	0,963	0,044	-0,023
-360,883	-47,937	0,135	-0,048
-359,869	800,000	-0,032	0,069
-358,854	-62,232	0,017	0,005
-357,839	-64,895	0,083	0,025
-356,825	-200,000	0,018	0,070
-355,810	474,569	-0,064	-0,106
-354,796	65,873	-0,071	0,053
-353,781	-200,000	0,001	-0,027
-352,766	590,769	-0,070	0,127
-351,752	127,607	0,105	0,098
-350,737	-200,000	0,019	0,081
-349,723	194,098	-0,178	0,199
-348,708	-160,443	0,085	0,003
-347,693	-143,742	0,028	0,002
-346,679	-200,000	-0,005	0,080
-345,664	-200,000	-0,009	-0,045
-344,650	12,804	-0,078	-0,044
-343,635	-200,000	0,013	0,082
-342,620	-200,000	-0,001	0,015
-341,606	-117,238	0,099	-0,013
-340,591	542,680	0,040	0,070
-339,577	25,393	-0,121	-0,074
-338,562	59,895	-0,005	-0,004
-337,548	-200,000	-0,012	-0,045
-336,533	-200,000	-0,001	-0,011
-335,518	-200,000	-0,016	0,139
-334,504	-135,298	-0,058	0,005
-333,489	-198,803	0,132	0,001
-332,475	321,375	-0,103	-0,145
-331,460	-200,000	-0,010	0,066
-330,445	-200,000	-0,012	-0,144
-329,431	-200,000	-0,010	-0,094
-328,416	800,000	0,077	0,230
-327,402	-200,000	-0,001	0,200
-326,387	-40,676	0,085	0,032
-325,372	-65,034	-0,102	-0,030
-324,358	91,721	-0,080	-0,066
-323,343	-200,000	-0,001	0,019
-322,329	111,193	0,111	0,098
-321,314	-105,416	-0,025	0,004
-320,299	516,313	0,047	0,080
-319,285	-200,000	-0,030	-0,128
-318,270	386,545	-0,047	-0,072
-317,256	-138,829	-0,103	-0,008
-316,241	96,975	0,052	0,044
-315,226	82,372	0,014	-0,011
-314,212	-200,000	-0,022	-0,085
-313,197	-152,953	0,087	0,004
-312,183	-27,342	0,011	0,005
-311,168	24,587	-0,139	0,084
-310,153	225,155	-0,022	-0,026
-309,139	10,478	-0,103	-0,057
-308,124	-69,903	0,147	0,041
-307,110	310,426	0,030	0,041
-306,095	113,831	-0,066	-0,059
-305,080	796,233	0,019	-0,038
-304,066	800,000	0,027	-0,082
-303,051	96,290	0,083	-0,070
-302,037	216,140	0,039	-0,046
-301,022	-51,444	-0,058	0,020
-300,008	173,169	-0,080	0,085
-298,993	-95,606	-0,066	-0,013
-297,978	-103,013	-0,199	-0,034
-296,964	-34,883	0,081	-0,032
-295,949	800,000	-0,059	-0,156
-294,935	-119,987	-0,044	-0,006
-293,920	-200,000	0,024	0,085
-292,905	-126,420	0,109	0,012
-291,891	-10,407	-0,116	0,056
-290,876	-33,756	0,076	0,031
-289,862	187,545	0,092	0,100
-288,847	-200,000	0,018	-0,159
-287,832	502,233	-0,028	-0,047
-286,818	800,000	0,044	0,106
-285,803	-7,934	0,050	-0,025
-284,789	140,494	0,146	0,141
-283,774	-81,038	-0,131	0,032
-282,759	-8,233	0,103	-0,050
-281,745	170,968	-0,057	-0,060
-280,730	147,145	-0,006	-0,006
-279,716	344,298	0,092	-0,133
-278,701	-200,000	-0,043	0,176
-277,686	-200,000	-0,005	0,098
-276,672	283,920	-0,052	-0,069
-275,657	10,729	-0,146	-0,081
-274,643	-200,000	0,007	-0,069
-273,628	490,029	-0,034	-0,057
-272,613	800,000	0,031	0,101
-271,599	-200,000	-0,016	0,056
-270,584	148,244	0,074	-0,073
-269,570	-46,460	0,158	0,056
-268,555	171,210	0,040	0,042
-267,540	-81,564	-0,074	0,018
-266,526	68,624	-0,067	-0,050
-265,511	-200,000	-0,018	-0,103
-264,497	800,000	-0,052	0,110
-263,482	-200,000	0,010	-0,045
-262,467	59,566	-0,056	0,040
-261,453	234,774	-0,022	-0,027
-260,438	574,684	-0,020	0,036
-259,424	161,289	-0,054	-0,055
-258,409	800,000	-0,042	-0,085
-257,395	-200,000	-0,005	0,109
-256,380	104,815	0,116	-0,100
-255,365	-198,485	0,038	0,000
-254,351	627,274	0,019	-0,034
-253,336	-31,998	-0,013	0,005
-252,322	49,274	-0,044	0,030
-251,307	32,258	-0,030	0,019
-250,292	-12,784	0,037	0,018
-249,278	-97,325	0,134	-0,025
-248,263	-119,928	0,062	0,008
-247,249	-133,851	-0,128	0,011
-246,234	-50,191	0,082	0,028
-245,219	287,818	-0,058	0,076
-244,205	-34,824	0,061	-0,024
-243,190	720,928	0,049	-0,096
-242,176	-134,689	0,080	-0,007
-241,161	-200,000	0,014	0,051
-240,146	22,832	0,067	-0,040
-239,132	-135,655	0,045	0,004
-238,117	578,096	-0,061	0,110
-237,103	800,000	0,026	-0,061
-236,088	800,000	-0,063	-0,164
-235,073	-200,000	-0,005	0,101
-234,059	25,961	-0,051	0,031
-233,044	602,674	-0,017	0,030
-232,030	-137,961	-0,069	-0,006
-231,015	318,058	0,056	-0,078
-230,000	-115,842	0,053	-0,007
-228,986	296,096	-0,046	-0,062
-227,971	-48,922	-0,011	0,004
-226,957	153,583	0,154	0,155
-225,942	60,668	0,145	0,105
-224,927	800,000	-0,013	0,041
-223,913	800,000	0,020	0,041
-222,898	-200,000	-0,034	-0,183
-221,884	62,825	0,062	0,045
-220,869	800,000	-0,052	-0,153
-219,855	108,623	0,087	-0,076
-218,840	6,719	-0,106	-0,057
-217,825	-108,119	0,022	0,003
-216,811	620,880	-0,046	0,085
-215,796	-60,857	0,068	0,021
-214,782	400,535	0,007	0,011
-213,767	95,762	0,123	-0,102
-212,752	131,537	0,094	0,088
-211,738	-200,000	0,013	0,208
-210,723	207,098	0,065	-0,074
-209,709	-67,064	-0,126	0,036
-208,694	-200,000	-0,008	-0,155
-207,679	397,560	0,059	-0,090
-206,665	-172,878	0,066	-0,001
-205,650	-63,973	0,058	-0,017
-204,636	335,551	-0,037	-0,053
-203,621	54,960	-0,039	0,028
-202,606	277,088	-0,030	-0,040
-201,592	800,000	-0,034	-0,098
-200,577	-132,905	0,135	-0,012
-199,563	-200,000	0,007	-0,024
-198,548	401,340	0,067	0,102
-197,533	-110,405	0,109	0,016
-196,519	-200,000	-0,023	0,086
-195,504	-119,609	-0,099	0,012
-194,490	180,378	-0,088	-0,095
-193,475	315,478	0,048	-0,066
-192,460	148,293	0,043	-0,042
-191,446	-150,378	-0,065	-0,004
-190,431	-200,000	0,005	0,039
-189,417	-200,000	0,019	0,120
-188,402	213,476	0,040	0,046
-187,387	800,000	-0,019	0,047
-186,373	14,757	-0,120	-0,068
-185,358	-22,027	-0,047	0,021
-184,344	-110,480	-0,091	-0,014
-183,329	4,255	0,037	-0,020
-182,315	800,000	-0,033	0,102
-181,300	-160,159	-0,100	0,004
-180,285	9,134	0,028	0,015
-179,271	-200,000	-0,004	-0,214
-178,256	800,000	0,020	0,059
-177,242	-200,000	0,004	0,108
-176,227	-200,000	-0,004	-0,035
-175,212	27,446	0,035	0,021
-174,198	-200,000	0,012	-0,066
-173,183	-156,998	-0,086	0,004
-172,169	101,501	-0,055	0,046
-171,154	82,892	-0,019	0,015
-170,139	338,414	0,021	0,030
-169,125	201,046	-0,059	0,067
-168,110	284,856	-0,031	-0,041
-167,096	-200,000	0,004	0,123
-166,081	141,765	0,070	0,068
-165,066	-200,000	0,018	-0,120
-164,052	-200,000	0,011	-0,062
-163,037	156,705	-0,027	0,027
-162,023	392,332	-0,053	0,081
-161,008	201,114	0,098	0,110
-159,993	621,408	-0,048	-0,088
-158,979	-44,899	-0,031	-0,011
-157,964	-101,573	-0,029	0,005
-156,950	601,858	-0,048	-0,087
-155,935	-24,583	0,096	-0,041
-154,920	-89,067	0,101	0,022
-153,906	-21,630	-0,057	0,025
-152,891	800,000	0,036	-0,074
-151,877	-49,013	-0,094	0,033
-150,862	-94,799	-0,108	0,021
-149,847	532,418	0,008	0,015
-148,833	-200,000	0,018	0,094
-147,818	-16,260	0,109	0,050
-146,804	502,346	0,048	-0,080
-145,789	-62,222	-0,138	0,042
-144,775	-200,000	0,001	0,006
-143,760	432,930	0,034	-0,053
-142,745	266,360	0,021	-0,027
-141,731	54,592	0,076	0,053
-140,716	-181,831	-0,049	-0,001
-139,702	312,178	0,097	0,132
-138,687	-200,000	-0,011	-0,037
-137,672	800,000	-0,035	0,077
-136,658	757,118	0,013	0,025
-135,643	-200,000	0,001	-0,121
-134,629	-200,000	-0,018	0,098
-133,614	-112,042	-0,115	-0,017
-132,599	-99,013	0,176	0,032
-131,585	-200,000	-0,016	0,078
-130,570	-32,298	-0,063	-0,025
-129,556	-200,000	-0,004	-0,014
-128,541	-124,596	-0,143	-0,016
-127,526	-54,756	0,038	0,013
-126,512	478,815	0,026	0,044
-125,497	800,000	0,016	-0,040
-124,483	-128,275	0,070	0,007
-123,468	-133,799	0,092	0,008
-122,453	262,993	-0,124	-0,157
-121,439	-200,000	-0,013	0,049
-120,424	209,207	-0,031	0,036
-119,410	800,000	-0,076	-0,196
