DTS Sentinel unit serial number:	SN410029Multiplexer serial number:	ORYXHardware model number:	OX2-SRSoftware version number:	ORYX F/W v4,00 Oryx Data Collector v3.7.2.0data status	okinstallation	B6 Nyhavnadifferential loss correction	single-endedforward channel	channel 2reverse channel	N/Adate	2023/12/10time	18:25:08forward acquisition time	300,00reverse acquisition time	0,00gamma	499,1914k internal	0,3123k external	0,3123temperature offset calibration	1,0000default loss term (dB/km)	0,3820temperature slope calibration	1,0000multiplexer offset coefficient	1,0000multiplexer slope coefficient	1,0000fibre end	0,00T internal ref (°C)	22,37T ext. ref 1 (°C)	5,97T ext. ref 2 (°C)	5,99length (m)	temperature (°C)	Stokes	anti-Stokes-744,400	-24,308	0,072	-0,032
-743,385	-133,095	-0,296	0,028
-742,371	800,000	0,016	0,049
-741,356	-40,449	-0,327	0,126
-740,342	5,190	0,080	0,044
-739,327	-58,500	-0,193	0,062
-738,312	-200,000	-0,020	-0,072
-737,298	-63,876	-0,177	-0,054
-736,283	313,515	0,094	-0,133
-735,269	-1,002	-0,340	0,179
-734,254	-50,719	0,140	-0,049
-733,239	-79,452	-0,402	-0,101
-732,225	-76,174	0,141	0,037
-731,210	-200,000	0,031	0,175
-730,196	229,735	-0,059	0,072
-729,181	-21,018	-0,148	-0,067
-728,167	-125,955	-0,114	-0,013
-727,152	41,982	0,061	0,041
-726,137	27,763	-0,110	-0,069
-725,123	-21,869	-0,102	-0,046
-724,108	196,352	-0,075	-0,086
-723,094	-200,000	-0,007	-0,049
-722,079	-144,799	-0,059	-0,004
-721,064	-200,000	0,020	-0,146
-720,050	41,177	0,051	0,034
-719,035	800,000	-0,028	0,077
-718,021	800,000	-0,053	-0,133
-717,006	-157,513	-0,022	-0,001
-715,991	800,000	-0,078	-0,219
-714,977	800,000	-0,083	-0,268
-713,962	25,968	0,034	-0,021
-712,948	-64,035	-0,107	0,032
-711,933	80,639	-0,110	-0,088
-710,918	-200,000	0,022	0,142
-709,904	227,888	0,065	-0,079
-708,889	-200,000	-0,006	0,036
-707,875	59,947	-0,072	-0,053
-706,860	-200,000	0,032	0,123
-705,845	-200,000	0,037	0,131
-704,831	800,000	0,058	0,174
-703,816	412,238	-0,068	0,108
-702,802	-75,959	-0,117	0,031
-701,787	-200,000	0,022	-0,119
-700,772	-120,364	-0,045	-0,006
-699,758	385,662	-0,084	-0,129
-698,743	-109,538	0,167	0,026
-697,729	-177,302	-0,066	-0,001
-696,714	77,510	0,047	-0,037
-695,699	-97,979	-0,007	-0,001
-694,685	-200,000	0,035	0,133
-693,670	800,000	-0,046	-0,133
-692,656	800,000	0,061	-0,178
-691,641	91,068	0,171	-0,142
-690,627	105,048	-0,068	0,060
-689,612	8,760	-0,126	0,071
-688,597	-5,398	-0,110	-0,056
-687,583	300,446	0,024	-0,033
-686,568	800,000	0,059	-0,189
-685,554	34,509	-0,104	-0,068
-684,539	564,150	-0,063	-0,114
-683,524	787,263	0,047	-0,097
-682,510	-200,000	-0,002	-0,128
-681,495	-200,000	-0,050	-0,252
-680,481	-198,059	-0,079	0,000
-679,466	-74,869	-0,067	-0,018
-678,451	-122,906	0,073	0,009
-677,437	800,000	0,021	0,050
-676,422	800,000	-0,030	-0,087
-675,408	39,720	-0,162	0,108
-674,393	-90,518	0,062	-0,013
-673,378	201,811	-0,058	-0,067
-672,364	107,109	0,056	-0,050
-671,349	222,456	0,113	-0,136
-670,335	34,619	-0,111	-0,072
-669,320	689,240	-0,029	-0,056
-668,305	118,935	-0,037	0,034
-667,291	214,195	0,041	-0,049
-666,276	800,000	0,035	-0,087
-665,262	-89,689	-0,048	0,010
-664,247	391,698	-0,025	0,039
-663,232	161,816	-0,049	0,051
-662,218	-200,000	0,023	0,118
-661,203	225,889	-0,083	0,100
-660,189	-200,000	-0,017	0,084
-659,174	439,211	-0,036	0,058
-658,159	362,985	0,028	-0,042
-657,145	-200,000	-0,021	-0,074
-656,130	5,994	-0,091	0,050
-655,116	109,477	0,059	0,052
-654,101	-200,000	0,008	0,128
-653,086	-38,538	-0,044	0,017
-652,072	800,000	0,022	-0,054
-651,057	-20,551	-0,126	-0,057
-650,043	-200,000	-0,008	-0,029
-649,028	-200,000	-0,002	0,044
-648,014	-200,000	0,005	0,056
-646,999	205,568	0,083	0,095
-645,984	271,951	0,089	0,116
-644,970	47,970	0,044	-0,031
-643,955	-92,965	0,160	0,033
-642,941	507,237	0,019	-0,032
-641,926	800,000	0,033	-0,079
-640,911	-200,000	-0,001	0,108
-639,897	591,642	-0,047	0,086
-638,882	800,000	-0,048	0,101
-637,868	-55,729	-0,156	-0,051
-636,853	-200,000	-0,028	-0,180
-635,838	103,185	0,045	-0,039
-634,824	-70,612	0,016	0,005
-633,809	-200,000	0,022	-0,128
-632,795	220,717	-0,022	0,027
-631,780	-84,355	0,083	0,019
-630,765	412,665	0,097	-0,153
-629,751	-200,000	-0,010	-0,045
-628,736	800,000	-0,042	-0,131
-627,722	-200,000	-0,019	-0,073
-626,707	800,000	-0,068	-0,150
-625,692	-54,574	-0,101	-0,034
-624,678	401,476	0,094	0,148
-623,663	-200,000	-0,033	-0,118
-622,649	97,410	-0,122	-0,104
-621,634	-112,924	0,097	-0,014
-620,619	-68,115	-0,036	0,010
-619,605	-80,795	-0,076	0,019
-618,590	253,310	-0,043	0,055
-617,576	236,355	-0,064	0,079
-616,561	-66,587	0,137	-0,040
-615,546	-111,260	-0,088	-0,013
-614,532	800,000	-0,102	-0,225
-613,517	508,278	-0,070	-0,121
-612,503	-200,000	0,002	-0,020
-611,488	800,000	-0,022	0,055
-610,474	277,113	0,017	-0,023
-609,459	-57,508	0,099	-0,032
-608,444	800,000	0,021	0,063
-607,430	-143,414	0,080	-0,006
-606,415	137,523	-0,015	0,015
-605,401	41,980	-0,090	-0,060
-604,386	64,192	-0,120	-0,090
-603,371	800,000	0,012	0,035
-602,357	-27,953	0,039	-0,017
-601,342	-200,000	-0,010	-0,089
-600,328	-200,000	-0,006	-0,035
-599,313	-53,336	0,063	-0,021
-598,298	160,868	-0,086	0,090
-597,284	5,525	0,026	-0,014
-596,269	800,000	-0,045	-0,123
-595,255	-200,000	0,003	-0,026
-594,240	-143,413	-0,068	0,005
-593,225	-111,692	0,126	-0,019
-592,211	-139,888	0,116	0,009
-591,196	-83,691	-0,149	-0,035
-590,182	66,595	0,128	-0,096
-589,167	33,900	0,077	-0,050
-588,152	-132,819	-0,104	-0,010
-587,138	-200,000	-0,033	-0,119
-586,123	-75,494	-0,039	0,010
-585,109	-15,259	-0,113	-0,053
-584,094	748,854	0,019	-0,037
-583,079	364,702	-0,051	0,077
-582,065	-30,219	-0,033	-0,014
-581,050	800,000	-0,025	-0,065
-580,036	597,265	-0,078	-0,144
-579,021	108,067	0,071	0,062
-578,006	-56,411	-0,149	0,049
-576,992	-69,916	-0,103	-0,029
-575,977	75,804	-0,101	-0,079
-574,963	-200,000	-0,017	0,173
-573,948	-69,099	0,124	0,035
-572,934	-200,000	0,012	0,091
-571,919	-66,123	-0,098	0,029
-570,904	-11,986	0,067	0,032
-569,890	3,756	-0,104	0,056
-568,875	-12,111	0,078	0,038
-567,861	96,466	0,080	-0,067
-566,846	-200,000	0,005	0,055
-565,831	-200,000	-0,003	0,065
-564,817	-200,000	0,056	-0,217
-563,802	-6,286	-0,090	-0,045
-562,788	142,563	0,024	0,024
-561,773	800,000	-0,020	0,043
-560,758	800,000	0,033	0,094
-559,744	800,000	0,039	0,080
-558,729	-13,158	0,012	0,006
-557,715	176,996	-0,014	0,015
-556,700	-122,738	0,088	0,010
-555,685	62,167	-0,071	0,052
-554,671	-114,712	0,078	0,011
-553,656	-200,000	-0,022	0,104
-552,642	222,360	-0,011	0,013
-551,627	38,160	-0,139	-0,092
-550,612	-200,000	-0,018	-0,070
-549,598	114,777	-0,028	-0,025
-548,583	-200,000	0,008	-0,052
-547,569	-169,612	0,013	0,000
-546,554	319,094	-0,016	0,022
-545,539	-200,000	-0,001	-0,035
-544,525	800,000	0,026	-0,059
-543,510	-109,530	0,057	-0,009
-542,496	298,811	-0,075	-0,103
-541,481	245,542	0,053	0,066
-540,466	87,780	-0,059	-0,048
-539,452	-129,594	0,095	-0,010
-538,437	-42,532	0,041	-0,016
-537,423	-200,000	0,003	0,035
-536,408	-200,000	0,022	0,096
-535,393	-105,875	-0,145	-0,024
-534,379	-29,760	0,057	-0,024
-533,364	532,319	-0,046	0,081
-532,350	-47,225	0,080	0,029
-531,335	65,453	-0,118	-0,088
-530,321	145,249	-0,108	0,107
-529,306	242,597	-0,099	-0,123
-528,291	203,310	-0,061	-0,070
-527,277	157,908	-0,111	0,114
-526,262	94,632	-0,082	0,069
-525,248	-24,017	0,027	-0,012
-524,233	403,549	0,073	0,114
-523,218	800,000	-0,004	0,012
-522,204	140,605	0,054	0,052
-521,189	-99,833	-0,092	0,017
-520,175	-200,000	-0,025	-0,146
-519,160	-200,000	0,001	-0,197
-518,145	19,655	-0,048	-0,028
-517,131	800,000	0,058	-0,152
-516,116	-200,000	0,019	-0,069
-515,102	-200,000	0,003	-0,066
-514,087	15,234	-0,116	-0,067
-513,072	-200,000	-0,006	-0,022
-512,058	800,000	0,009	0,026
-511,043	-200,000	0,002	-0,025
-510,029	-176,375	0,168	0,003
-509,014	125,808	-0,010	0,009
-507,999	93,867	-0,096	-0,081
-506,985	-72,353	0,055	0,015
-505,970	800,000	-0,041	0,095
-504,956	800,000	-0,046	0,102
-503,941	-32,702	0,060	0,025
-502,926	800,000	-0,037	-0,109
-501,912	800,000	-0,042	0,088
-500,897	-200,000	-0,026	0,171
-499,883	800,000	-0,039	-0,108
-498,868	507,398	0,017	-0,030
-497,853	432,179	0,043	-0,070
-496,839	-64,854	0,047	0,014
-495,824	-200,000	0,030	0,119
-494,810	32,850	-0,072	0,046
-493,795	775,930	-0,015	-0,030
-492,781	277,369	0,015	0,020
-491,766	-200,000	-0,003	-0,177
-490,751	95,261	-0,069	-0,058
-489,737	800,000	-0,022	-0,050
-488,722	-200,000	0,005	-0,068
-487,708	223,339	0,071	0,085
-486,693	-136,190	-0,091	-0,008
-485,678	-133,497	-0,052	0,005
-484,664	-102,101	-0,133	0,023
-483,649	-44,667	0,061	0,022
-482,635	78,313	0,033	-0,026
-481,620	800,000	0,025	0,063
-480,605	632,309	0,060	-0,113
-479,591	230,091	0,060	-0,072
-478,576	-65,090	-0,175	-0,052
-477,562	800,000	-0,016	0,036
-476,547	78,942	0,060	0,047
-475,532	214,612	-0,016	0,019
-474,518	-200,000	-0,011	0,105
-473,503	529,451	-0,015	0,026
-472,489	480,942	0,027	0,045
-471,474	93,925	0,047	0,039
-470,459	50,046	-0,057	-0,039
-469,445	-78,389	-0,094	0,024
-468,430	645,529	-0,022	0,042
-467,416	253,897	-0,039	-0,049
-466,401	800,000	-0,046	0,117
-465,386	162,500	0,078	0,080
-464,372	-200,000	-0,012	0,071
-463,357	62,229	-0,046	0,034
-462,343	-135,426	0,017	0,002
-461,328	618,666	-0,036	0,066
-460,313	800,000	-0,019	0,060
-459,299	69,914	0,036	-0,028
-458,284	345,224	-0,025	-0,037
-457,270	152,913	0,029	0,029
-456,255	800,000	-0,044	0,131
-455,241	-43,024	0,085	-0,032
-454,226	800,000	0,034	-0,083
-453,211	-42,841	-0,057	-0,021
-452,197	-200,000	-0,014	0,062
-451,182	800,000	0,046	0,107
-450,168	53,752	0,043	0,030
-449,153	-125,929	0,156	0,017
-448,138	-200,000	0,004	-0,055
-447,124	80,003	0,023	-0,018
-446,109	400,961	0,078	0,121
-445,095	262,136	0,044	0,056
-444,080	104,531	0,028	0,025
-443,065	-163,256	-0,049	-0,002
-442,051	160,451	0,038	0,039
-441,036	-200,000	0,000	0,076
-440,022	-200,000	0,010	-0,058
-439,007	311,865	-0,037	0,051
-437,992	-9,298	0,146	-0,072
-436,978	800,000	-0,008	0,021
-435,963	32,128	0,046	-0,029
-434,949	287,611	0,026	-0,035
-433,934	-119,013	-0,200	-0,025
-432,919	135,433	-0,047	0,045
-431,905	-135,788	0,116	-0,010
-430,890	711,233	0,038	-0,075
-429,876	-28,921	0,106	0,045
-428,861	75,179	0,110	0,085
-427,846	-200,000	-0,017	-0,059
-426,832	-200,000	-0,023	0,151
-425,817	-200,000	0,017	-0,111
-424,803	-200,000	-0,006	-0,024
-423,788	-200,000	0,005	0,078
-422,773	21,458	0,023	-0,014
-421,759	-200,000	-0,004	-0,026
-420,744	574,430	-0,103	0,187
-419,730	-200,000	-0,030	0,156
-418,715	800,000	-0,021	0,057
-417,701	-34,551	0,020	-0,008
-416,686	-109,052	0,043	-0,007
-415,671	-200,000	0,011	0,041
-414,657	13,088	0,051	-0,029
-413,642	-87,371	-0,057	-0,013
-412,628	-200,000	-0,029	0,149
-411,613	-200,000	0,017	0,183
-410,598	-200,000	0,011	0,103
-409,584	-150,799	0,067	0,004
-408,569	477,505	-0,094	0,157
-407,555	86,594	0,058	0,047
-406,540	-200,000	0,030	-0,111
-405,525	570,608	-0,004	-0,007
-404,511	610,203	-0,037	-0,069
-403,496	123,342	-0,031	-0,028
-402,482	-17,272	0,145	-0,067
-401,467	-87,546	0,038	0,008
-400,452	315,222	-0,022	-0,031
-399,438	-200,000	-0,046	-0,197
-398,423	-0,189	-0,152	-0,079
-397,409	-200,000	0,016	-0,066
-396,394	179,257	0,154	-0,166
-395,379	392,675	-0,041	0,062
-394,365	69,462	0,056	0,042
-393,350	-76,156	0,076	0,020
-392,336	34,654	-0,028	-0,018
-391,321	540,144	-0,025	-0,045
-390,306	167,084	0,053	-0,056
-389,292	-121,193	-0,060	-0,007
-388,277	-200,000	-0,027	-0,149
-387,263	52,748	0,042	-0,030
-386,248	47,959	-0,070	0,048
-385,233	-79,433	0,115	-0,028
-384,219	800,000	-0,028	-0,074
-383,204	-200,000	-0,022	0,118
-382,190	561,565	0,062	-0,110
-381,175	733,310	-0,028	0,056
-380,160	207,123	0,091	0,104
-379,146	283,217	-0,060	0,080
-378,131	96,864	-0,014	0,012
-377,117	40,100	-0,036	-0,024
-376,102	-131,291	-0,108	-0,010
-375,088	115,879	-0,023	-0,020
-374,073	-200,000	-0,044	0,148
-373,058	-200,000	-0,012	-0,070
-372,044	30,772	-0,140	0,088
-371,029	-200,000	0,009	0,077
-370,015	-128,257	-0,047	0,005
-369,000	181,161	0,073	-0,079
-367,985	-50,353	-0,059	-0,021
-366,971	800,000	-0,058	-0,125
-365,956	-88,535	-0,161	-0,035
-364,942	800,000	0,009	-0,025
-363,927	88,138	-0,054	0,044
-362,912	-84,070	0,081	0,019
-361,898	99,656	-0,060	-0,051
-360,883	-123,082	0,086	0,010
-359,869	-200,000	-0,041	-0,140
-358,854	18,250	0,031	0,018
-357,839	-34,636	0,040	-0,016
-356,825	-124,538	-0,106	0,012
-355,810	-128,035	0,131	-0,014
-354,796	570,541	0,045	0,082
-353,781	800,000	-0,015	-0,031
-352,766	-200,000	-0,011	0,041
-351,752	24,068	-0,128	0,078
-350,737	770,107	0,041	0,083
-349,723	239,851	0,046	0,056
-348,708	24,896	-0,090	0,055
-347,693	51,530	-0,037	0,026
-346,679	-200,000	-0,041	-0,210
-345,664	-41,742	-0,092	0,035
-344,650	289,690	0,087	0,116
-343,635	-200,000	-0,010	-0,040
-342,620	80,298	0,075	0,059
-341,606	228,862	-0,029	-0,035
-340,591	246,870	-0,052	-0,064
-339,577	-200,000	-0,004	-0,080
-338,562	154,733	0,062	-0,062
-337,548	-13,723	-0,009	-0,004
-336,533	-200,000	-0,020	0,107
-335,518	38,051	0,059	-0,038
-334,504	-200,000	-0,023	0,082
-333,489	37,663	0,044	0,028
-332,475	269,300	-0,076	-0,098
-331,460	144,684	-0,091	-0,089
-330,445	-200,000	0,010	-0,145
-329,431	221,533	0,065	-0,077
-328,416	109,037	0,113	0,099
-327,402	800,000	-0,027	0,067
-326,387	162,389	-0,025	0,026
-325,372	-200,000	0,020	-0,068
-324,358	122,285	0,140	-0,129
-323,343	195,966	-0,036	-0,040
-322,329	254,574	0,066	0,083
-321,314	-119,607	0,181	0,023
-320,299	-116,377	-0,097	-0,013
-319,285	-45,631	0,077	0,028
-318,270	-164,242	0,160	0,005
-317,256	13,305	-0,070	-0,040
-316,241	-200,000	0,016	-0,071
-315,226	-200,000	-0,012	-0,043
-314,212	-200,000	0,000	0,058
-313,197	-200,000	-0,013	-0,125
-312,183	-88,271	-0,113	-0,025
-311,168	279,663	0,053	-0,070
-310,153	-35,550	-0,095	0,038
-309,139	22,021	-0,115	-0,069
-308,124	30,809	0,033	0,020
-307,110	800,000	-0,027	0,060
-306,095	126,344	0,052	0,048
-305,080	31,387	-0,069	-0,043
-304,066	422,227	-0,044	-0,069
-303,051	472,456	0,026	-0,043
-302,037	-50,155	0,141	0,049
-301,022	800,000	-0,095	0,199
-300,008	69,582	0,150	0,113
-298,993	394,457	0,068	0,105
-297,978	-101,758	0,146	-0,026
-296,964	-200,000	-0,050	0,174
-295,949	82,680	0,088	0,070
-294,935	-200,000	0,026	0,092
-293,920	-200,000	0,024	0,101
-292,905	-200,000	0,006	0,021
-291,891	209,799	0,067	0,077
-290,876	-75,884	0,060	-0,016
-289,862	703,637	0,028	-0,055
-288,847	-42,571	-0,050	-0,019
-287,832	-200,000	0,018	-0,086
-286,818	126,793	0,108	-0,100
-285,803	326,267	0,063	0,089
-284,789	-88,752	0,189	0,041
-283,774	528,004	0,059	0,103
-282,759	-200,000	0,007	-0,068
-281,745	-200,000	-0,008	-0,104
-280,730	-200,000	-0,006	-0,146
-279,716	210,493	0,040	0,046
-278,701	-39,013	0,118	0,045
-277,686	800,000	0,025	-0,077
-276,672	144,091	0,017	0,017
-275,657	800,000	0,049	0,123
-274,643	162,191	-0,007	-0,007
-273,628	-200,000	0,054	-0,209
-272,613	35,129	-0,058	0,037
-271,599	289,912	0,052	-0,069
-270,584	183,837	-0,038	-0,041
-269,570	221,603	0,028	-0,033
-268,555	63,019	-0,058	-0,043
-267,540	156,893	-0,125	0,127
-266,526	-200,000	0,009	0,154
-265,511	41,848	-0,093	-0,062
-264,497	-200,000	-0,008	0,067
-263,482	72,990	0,052	0,040
-262,467	47,602	-0,131	-0,089
-261,453	61,975	0,035	0,026
-260,438	800,000	0,022	0,072
-259,424	-81,190	-0,047	0,011
-258,409	-157,191	0,079	-0,003
-257,395	145,710	0,038	0,037
-256,380	800,000	0,008	0,023
-255,365	380,834	0,015	0,023
-254,351	54,474	0,079	0,055
-253,336	145,850	-0,108	0,106
-252,322	-200,000	0,010	0,036
-251,307	-101,010	0,183	-0,032
-250,292	-94,946	-0,169	0,033
-249,278	21,652	0,065	-0,039
-248,263	-30,515	0,045	0,018
-247,249	123,276	-0,096	0,088
-246,234	-200,000	-0,004	-0,046
-245,219	-69,530	-0,148	0,041
-244,205	550,374	0,073	-0,129
-243,190	800,000	-0,038	-0,098
-242,176	27,609	0,074	0,045
-241,161	-105,533	-0,070	-0,011
-240,146	-68,192	0,198	0,056
-239,132	800,000	0,017	0,035
-238,117	314,971	0,061	0,085
-237,103	198,943	-0,085	0,095
-236,088	-200,000	-0,003	0,035
-235,073	-128,095	-0,141	0,015
-234,059	-14,219	-0,018	-0,009
-233,044	56,082	-0,014	0,010
-232,030	796,315	0,048	-0,097
-231,015	-200,000	0,009	-0,065
-230,000	800,000	0,009	-0,028
-228,986	303,491	-0,033	-0,045
-227,971	-200,000	0,019	0,128
-226,957	-132,447	0,084	-0,008
-225,942	445,920	0,024	0,038
-224,927	800,000	-0,035	-0,075
-223,913	800,000	-0,031	0,090
-222,898	800,000	0,026	0,073
-221,884	163,510	0,142	-0,146
-220,869	-200,000	-0,007	-0,047
-219,855	-130,725	0,042	-0,004
-218,840	800,000	0,013	0,035
-217,825	8,079	0,082	0,045
-216,811	480,739	-0,075	-0,125
-215,796	-200,000	-0,022	-0,146
-214,782	-200,000	-0,020	-0,082
-213,767	800,000	-0,012	0,035
-212,752	317,292	0,046	-0,063
-211,738	-118,729	-0,067	0,009
-210,723	-21,038	0,135	0,060
-209,709	365,741	-0,029	0,044
-208,694	800,000	0,028	-0,073
-207,679	800,000	-0,047	-0,107
-206,665	-200,000	-0,001	0,081
-205,650	800,000	0,041	0,101
-204,636	33,357	0,052	-0,033
-203,621	565,126	-0,018	0,033
-202,606	305,168	0,038	-0,052
-201,592	-114,199	-0,104	0,014
-200,577	36,480	0,047	0,030
-199,563	-200,000	-0,001	0,090
-198,548	-200,000	-0,012	0,041
-197,533	-200,000	0,032	-0,176
-196,519	-52,717	0,027	-0,009
-195,504	558,800	-0,098	-0,172
-194,490	-70,269	0,074	-0,020
-193,475	800,000	0,045	0,098
-192,460	148,259	0,036	-0,036
-191,446	291,343	0,068	-0,090
-190,431	800,000	0,019	-0,057
-189,417	-200,000	-0,028	0,131
-188,402	-57,221	-0,180	0,057
-187,387	-55,195	-0,073	0,024
-186,373	-200,000	0,005	0,030
-185,358	227,781	-0,043	0,052
-184,344	18,229	0,058	-0,033
-183,329	-200,000	-0,025	0,150
-182,315	-161,832	0,140	0,005
-181,300	629,818	0,051	-0,095
-180,285	572,259	-0,055	0,098
-179,271	-41,151	-0,058	-0,022
-178,256	-40,931	0,091	-0,034
-177,242	462,845	-0,042	0,069
-176,227	800,000	0,042	0,090
-175,212	-10,111	-0,042	-0,020
-174,198	-200,000	-0,016	0,107
-173,183	-20,206	0,046	0,020
-172,169	-200,000	0,013	-0,079
-171,154	121,091	-0,068	-0,062
-170,139	-200,000	-0,003	0,020
-169,125	-200,000	0,033	0,000
-168,110	800,000	0,021	-0,052
-167,096	337,645	0,053	0,075
-166,081	800,000	0,042	0,133
-165,066	409,246	-0,059	-0,092
-164,052	396,261	-0,050	-0,076
-163,037	-200,000	0,010	-0,042
-162,023	-200,000	-0,001	0,205
-161,008	457,160	-0,090	0,147
-159,993	-21,529	-0,006	-0,003
-158,979	800,000	-0,041	-0,087
-157,964	199,766	-0,029	0,032
-156,950	4,210	-0,143	0,076
-155,935	-94,945	-0,053	-0,010
-154,920	42,435	0,022	0,014
-153,906	291,326	0,048	-0,063
-152,891	-200,000	0,004	-0,128
-151,877	-39,822	-0,037	0,014
-150,862	-151,655	-0,065	-0,003
-149,847	128,096	0,016	0,015
-148,833	-200,000	-0,002	0,042
-147,818	78,664	0,017	-0,013
-146,804	-200,000	0,010	0,085
-145,789	146,524	0,111	0,108
-144,775	429,588	0,040	0,064
-143,760	-200,000	-0,009	-0,031
-142,745	800,000	-0,066	-0,148
-141,731	-200,000	0,012	-0,143
-140,716	-1,604	0,113	-0,058
-139,702	800,000	0,027	0,074
-138,687	-30,393	-0,114	0,047
-137,672	800,000	0,025	0,078
-136,658	25,060	-0,095	-0,057
-135,643	-69,383	-0,078	0,022
-134,629	800,000	0,087	0,208
-133,614	800,000	-0,045	0,114
-132,599	485,711	-0,081	0,135
-131,585	679,274	0,064	0,122
-130,570	12,262	-0,112	-0,063
-129,556	530,576	-0,053	-0,092
-128,541	-5,452	-0,086	-0,043
-127,526	-200,000	0,021	-0,146
-126,512	44,264	0,076	-0,051
-125,497	181,789	0,061	0,066
-124,483	-45,093	0,063	-0,023
-123,468	369,282	-0,048	0,071
-122,453	1,068	-0,104	0,054
-121,439	-200,000	0,048	-0,177
-120,424	265,904	-0,092	-0,117
-119,410	39,618	0,044	-0,028
