DTS Sentinel unit serial number:	SN410029Multiplexer serial number:	ORYXHardware model number:	OX2-SRSoftware version number:	ORYX F/W v4,00 Oryx Data Collector v3.7.2.0data status	okinstallation	B6 Nyhavnadifferential loss correction	single-endedforward channel	channel 2reverse channel	N/Adate	2023/12/09time	15:40:08forward acquisition time	300,00reverse acquisition time	0,00gamma	499,1914k internal	0,3133k external	0,3133temperature offset calibration	1,0000default loss term (dB/km)	0,3820temperature slope calibration	1,0000multiplexer offset coefficient	1,0000multiplexer slope coefficient	1,0000fibre end	0,00T internal ref (°C)	20,69T ext. ref 1 (°C)	4,63T ext. ref 2 (°C)	4,61length (m)	temperature (°C)	Stokes	anti-Stokes-744,400	78,923	0,084	-0,067
-743,385	49,428	-0,111	0,077
-742,371	-123,062	0,225	-0,026
-741,356	203,246	-0,214	0,246
-740,342	209,133	0,064	-0,074
-739,327	-50,734	-0,138	0,048
-738,312	-17,422	-0,122	-0,057
-737,298	92,943	-0,091	0,077
-736,283	-0,672	0,090	-0,047
-735,269	-0,498	-0,190	0,100
-734,254	134,207	-0,057	0,055
-733,239	-106,735	-0,363	-0,059
-732,225	-63,971	0,247	-0,075
-731,210	-200,000	-0,010	0,106
-730,196	70,782	0,022	-0,017
-729,181	-11,482	-0,064	0,031
-728,167	230,587	-0,118	0,144
-727,152	-200,000	0,018	0,090
-726,137	673,321	-0,037	0,072
-725,123	90,810	-0,066	0,055
-724,108	-119,408	-0,069	0,009
-723,094	-55,792	0,057	0,019
-722,079	-0,566	-0,045	0,024
-721,064	800,000	-0,040	-0,094
-720,050	223,229	-0,032	0,038
-719,035	-200,000	-0,033	0,176
-718,021	800,000	-0,022	-0,068
-717,006	-200,000	-0,032	-0,194
-715,991	256,398	-0,153	-0,196
-714,977	-108,355	-0,066	-0,010
-713,962	-200,000	0,001	-0,100
-712,948	-200,000	0,011	0,059
-711,933	-30,449	-0,108	-0,045
-710,918	-200,000	0,010	0,051
-709,904	90,877	-0,095	-0,079
-708,889	-15,957	-0,125	0,059
-707,875	-80,643	-0,096	-0,023
-706,860	248,558	0,112	-0,142
-705,845	220,534	0,091	-0,109
-704,831	123,972	-0,071	0,066
-703,816	525,426	0,014	0,024
-702,802	-200,000	-0,007	-0,056
-701,787	800,000	-0,052	-0,151
-700,772	240,172	-0,113	-0,140
-699,758	-15,301	0,127	-0,060
-698,743	-36,247	0,097	0,039
-697,729	-200,000	0,009	-0,050
-696,714	-82,370	0,126	-0,030
-695,699	-200,000	0,006	-0,027
-694,685	-99,376	0,124	0,023
-693,670	568,462	-0,013	0,023
-692,656	54,683	0,109	0,078
-691,641	-133,920	0,154	-0,014
-690,627	-115,687	0,041	-0,006
-689,612	459,404	0,067	0,111
-688,597	392,789	0,013	-0,019
-687,583	190,056	-0,018	0,021
-686,568	-94,791	0,097	0,019
-685,554	-200,000	-0,020	0,079
-684,539	-200,000	0,005	0,052
-683,524	190,424	-0,032	0,036
-682,510	764,069	0,019	0,039
-681,495	300,427	-0,105	-0,144
-680,481	-122,080	-0,071	-0,009
-679,466	93,622	-0,084	0,071
-678,451	293,123	-0,023	-0,031
-677,437	-70,793	-0,080	0,022
-676,422	-5,059	0,062	0,032
-675,408	-200,000	0,009	0,041
-674,393	-129,735	0,022	-0,002
-673,378	200,489	0,037	0,042
-672,364	-200,000	0,013	0,044
-671,349	615,726	-0,042	-0,078
-670,335	-124,004	-0,026	0,003
-669,320	-168,257	-0,156	0,004
-668,305	-200,000	-0,021	0,132
-667,291	52,324	-0,119	-0,084
-666,276	-53,575	-0,150	-0,051
-665,262	-200,000	-0,022	-0,132
-664,247	98,413	0,050	0,043
-663,232	-188,192	0,101	0,001
-662,218	800,000	0,008	0,022
-661,203	-200,000	0,011	-0,115
-660,189	56,857	-0,023	0,017
-659,174	224,923	-0,076	-0,091
-658,159	-107,160	0,052	-0,008
-657,145	448,386	0,006	0,010
-656,130	562,803	0,043	-0,078
-655,116	-13,133	0,143	-0,068
-654,101	-200,000	-0,033	-0,118
-653,086	-63,516	0,033	-0,010
-652,072	-46,830	-0,125	0,045
-651,057	-70,115	0,078	-0,022
-650,043	679,113	-0,029	-0,055
-649,028	-200,000	-0,006	-0,094
-648,014	192,034	0,062	-0,069
-646,999	-200,000	-0,009	-0,055
-645,984	52,351	-0,115	-0,081
-644,970	-143,796	0,090	0,006
-643,955	466,012	-0,042	0,070
-642,941	-81,836	-0,135	0,033
-641,926	345,629	0,088	0,128
-640,911	-145,312	-0,055	-0,004
-639,897	242,407	0,009	0,012
-638,882	-200,000	0,003	0,018
-637,868	800,000	-0,032	-0,069
-636,853	-145,379	-0,057	0,004
-635,838	462,221	0,010	-0,016
-634,824	36,128	0,136	0,088
-633,809	-109,222	0,078	-0,012
-632,795	-93,165	-0,092	0,019
-631,780	-200,000	0,033	0,116
-630,765	115,272	-0,031	-0,028
-629,751	16,069	-0,031	-0,018
-628,736	-53,252	0,060	0,020
-627,722	-95,706	0,145	-0,028
-626,707	50,803	0,078	-0,054
-625,692	-200,000	0,024	0,153
-624,678	161,456	-0,022	-0,023
-623,663	-98,075	0,013	-0,002
-622,649	-86,469	-0,026	0,006
-621,634	-114,498	-0,042	-0,006
-620,619	64,040	0,137	-0,102
-619,605	-84,810	0,075	0,017
-618,590	-117,362	-0,066	-0,009
-617,576	-118,510	0,041	0,005
-616,561	-120,274	0,162	-0,020
-615,546	147,126	0,050	0,049
-614,532	-200,000	0,003	0,028
-613,517	-200,000	0,002	-0,222
-612,503	-200,000	0,010	0,042
-611,488	-18,636	0,089	0,041
-610,474	-200,000	0,008	0,054
-609,459	303,481	-0,091	0,125
-608,444	-200,000	-0,023	0,077
-607,430	488,775	-0,054	-0,092
-606,415	800,000	-0,044	-0,104
-605,401	-26,127	0,062	-0,027
-604,386	390,548	-0,095	-0,147
-603,371	800,000	-0,029	0,081
-602,357	800,000	0,048	0,134
-601,342	-125,106	0,041	0,005
-600,328	-41,462	-0,165	-0,062
-599,313	-200,000	-0,001	-0,030
-598,298	91,826	0,057	-0,048
-597,284	-200,000	-0,006	0,044
-596,269	709,348	-0,019	0,037
-595,255	194,299	0,050	0,056
-594,240	514,994	0,034	-0,059
-593,225	-200,000	0,008	-0,089
-592,211	-93,115	0,129	-0,026
-591,196	-177,738	-0,023	0,000
-590,182	-83,179	-0,082	0,019
-589,167	-79,417	-0,043	-0,011
-588,152	-200,000	0,012	-0,048
-587,138	-200,000	0,009	-0,071
-586,123	-174,281	-0,105	-0,002
-585,109	800,000	-0,008	0,022
-584,094	54,735	-0,145	-0,103
-583,079	362,832	0,026	-0,039
-582,065	301,694	-0,031	-0,042
-581,050	-119,121	-0,181	-0,023
-580,036	-54,623	-0,053	-0,018
-579,021	203,050	-0,140	0,160
-578,006	163,650	0,066	-0,069
-576,992	-121,247	0,153	-0,019
-575,977	-48,529	-0,076	0,027
-574,963	344,065	0,089	-0,129
-573,948	320,324	-0,011	0,015
-572,934	110,449	-0,071	0,063
-571,919	288,791	-0,067	0,089
-570,904	-200,000	0,004	-0,166
-569,890	202,420	-0,098	-0,112
-568,875	135,705	0,055	-0,053
-567,861	-199,024	0,094	-0,000
-566,846	97,225	-0,069	0,058
-565,831	-200,000	-0,006	0,036
-564,817	88,214	-0,091	0,074
-563,802	484,918	0,007	0,012
-562,788	-200,000	-0,014	-0,090
-561,773	583,511	0,018	-0,033
-560,758	-190,410	0,059	-0,000
-559,744	-200,000	0,027	0,110
-558,729	-10,041	-0,055	-0,027
-557,715	-200,000	-0,007	-0,057
-556,700	80,395	0,063	-0,050
-555,685	-200,000	-0,018	0,111
-554,671	795,848	0,027	-0,056
-553,656	212,387	0,064	0,074
-552,642	-79,575	-0,131	0,032
-551,627	-9,991	0,063	-0,031
-550,612	-200,000	-0,029	-0,141
-549,598	800,000	-0,026	-0,069
-548,583	18,399	0,061	0,036
-547,569	-200,000	-0,012	-0,072
-546,554	-31,245	0,087	-0,036
-545,539	-72,870	0,079	-0,021
-544,525	165,579	-0,034	0,035
-543,510	145,998	-0,058	-0,058
-542,496	800,000	-0,024	-0,051
-541,481	683,528	0,094	0,182
-540,466	35,478	-0,053	-0,034
-539,452	246,207	-0,116	0,145
-538,437	280,360	-0,046	-0,061
-537,423	-200,000	0,002	0,093
-536,408	110,752	-0,058	-0,052
-535,393	-200,000	0,015	-0,067
-534,379	800,000	0,013	-0,032
-533,364	0,113	-0,035	0,018
-532,350	-28,669	0,084	-0,036
-531,335	-181,272	0,058	0,001
-530,321	800,000	-0,023	-0,066
-529,306	-150,241	-0,099	0,006
-528,291	-20,599	0,070	-0,031
-527,277	-200,000	0,008	0,049
-526,262	108,814	0,111	-0,098
-525,248	-8,105	-0,013	-0,007
-524,233	-200,000	0,005	-0,067
-523,218	800,000	0,010	-0,022
-522,204	-200,000	0,005	-0,051
-521,189	264,028	-0,077	-0,099
-520,175	-78,211	-0,083	0,021
-519,160	-200,000	-0,000	-0,054
-518,145	-104,467	-0,056	-0,010
-517,131	-65,791	0,079	-0,023
-516,116	146,138	0,107	0,106
-515,102	-10,619	0,035	-0,017
-514,087	487,133	-0,008	0,014
-513,072	158,024	-0,056	-0,058
-512,058	-86,798	0,077	-0,017
-511,043	130,307	0,014	0,013
-510,029	-74,553	0,057	0,015
-509,014	375,142	0,073	0,111
-507,999	151,556	0,027	0,028
-506,985	80,760	-0,111	-0,088
-505,970	-200,000	-0,035	-0,120
-504,956	607,785	0,053	0,098
-503,941	-5,026	0,038	-0,019
-502,926	-48,348	0,075	0,027
-501,912	103,531	0,033	0,029
-500,897	-124,290	0,220	-0,025
-499,883	210,980	0,127	-0,147
-498,868	-136,670	-0,061	0,005
-497,853	-128,913	0,039	-0,004
-496,839	-90,899	-0,028	0,006
-495,824	800,000	-0,048	0,106
-494,810	-31,339	0,051	-0,021
-493,795	-79,649	0,114	0,028
-492,781	277,064	-0,053	-0,069
-491,766	-200,000	-0,018	-0,111
-490,751	53,526	0,063	0,044
-489,737	800,000	0,026	-0,055
-488,722	22,506	-0,144	-0,087
-487,708	-68,379	0,104	-0,030
-486,693	-107,481	0,026	0,004
-485,678	634,936	-0,071	-0,133
-484,664	3,144	-0,054	0,029
-483,649	-200,000	-0,005	0,019
-482,635	-200,000	-0,021	-0,131
-481,620	-166,827	0,001	0,000
-480,605	-200,000	-0,020	-0,080
-479,591	-134,933	-0,100	-0,009
-478,576	8,998	0,074	0,041
-477,562	-89,398	-0,028	0,006
-476,547	791,011	0,074	-0,150
-475,532	-40,216	0,116	-0,044
-474,518	185,713	0,021	-0,023
-473,503	354,760	0,046	-0,068
-472,489	-79,386	-0,031	0,008
-471,474	-164,567	-0,166	-0,005
-470,459	436,283	0,039	0,063
-469,445	-152,012	-0,025	-0,001
-468,430	128,427	0,092	0,087
-467,416	-200,000	-0,002	0,040
-466,401	-200,000	-0,047	-0,160
-465,386	-28,173	0,089	0,038
-464,372	169,696	-0,066	-0,069
-463,357	108,934	0,029	0,026
-462,343	-36,650	-0,146	-0,057
-461,328	532,093	-0,021	-0,037
-460,313	-60,869	-0,037	0,012
-459,299	81,956	-0,029	0,023
-458,284	800,000	0,080	-0,165
-457,270	-200,000	0,005	0,039
-456,255	8,134	-0,058	0,032
-455,241	800,000	0,042	0,087
-454,226	-200,000	-0,004	-0,037
-453,211	56,601	-0,099	-0,071
-452,197	-200,000	0,014	0,105
-451,182	-82,725	0,091	0,021
-450,168	-77,002	-0,121	-0,031
-449,153	-200,000	-0,020	0,169
-448,138	103,768	-0,121	-0,104
-447,124	-63,422	-0,015	0,005
-446,109	82,571	0,089	0,071
-445,095	463,807	-0,025	-0,040
-444,080	-200,000	0,019	-0,132
-443,065	415,688	0,033	-0,051
-442,051	-31,872	0,034	-0,014
-441,036	-200,000	0,022	-0,124
-440,022	75,267	-0,107	-0,083
-439,007	-200,000	-0,024	0,080
-437,992	800,000	0,060	-0,157
-436,978	-43,668	0,069	0,025
-435,963	48,325	0,024	0,016
-434,949	-200,000	-0,001	0,025
-433,934	-200,000	0,009	-0,051
-432,919	-200,000	-0,023	0,106
-431,905	-17,199	-0,102	0,047
-430,890	478,416	0,076	-0,127
-429,876	540,788	0,074	0,130
-428,861	725,147	-0,052	0,103
-427,846	574,091	0,041	-0,075
-426,832	-82,657	0,055	-0,013
-425,817	180,140	-0,043	0,046
-424,803	624,531	0,019	0,035
-423,788	-200,000	0,013	0,124
-422,773	129,032	-0,053	0,050
-421,759	231,111	-0,020	0,025
-420,744	-89,974	0,007	0,001
-419,730	-54,001	-0,123	0,041
-418,715	-200,000	-0,018	0,138
-417,701	800,000	-0,065	-0,207
-416,686	135,066	0,121	0,116
-415,671	-65,193	-0,168	-0,049
-414,657	80,047	-0,050	-0,040
-413,642	225,642	0,090	-0,107
-412,628	239,070	-0,042	-0,051
-411,613	-78,387	-0,111	0,028
-410,598	187,177	0,058	0,063
-409,584	167,740	0,077	-0,081
-408,569	-47,421	0,087	-0,031
-407,555	-200,000	0,008	0,031
-406,540	106,623	0,122	-0,106
-405,525	-151,244	0,127	-0,007
-404,511	94,449	-0,110	-0,092
-403,496	285,500	0,042	-0,055
-402,482	12,489	-0,037	-0,021
-401,467	79,614	-0,054	0,043
-400,452	-200,000	-0,013	-0,145
-399,438	305,357	0,082	-0,112
-398,423	-100,618	-0,117	-0,021
-397,409	-200,000	-0,018	-0,085
-396,394	800,000	0,013	0,030
-395,379	-200,000	-0,004	0,018
-394,365	265,011	-0,023	0,029
-393,350	-200,000	0,036	0,146
-392,336	107,196	0,086	0,075
-391,321	27,784	-0,018	-0,011
-390,306	-115,948	0,061	0,008
-389,292	-27,068	-0,213	-0,091
-388,277	-200,000	0,030	0,140
-387,263	-200,000	0,020	0,083
-386,248	-39,513	0,061	0,023
-385,233	-200,000	-0,004	0,054
-384,219	193,307	-0,038	0,042
-383,204	-43,419	0,030	-0,011
-382,190	800,000	-0,046	0,140
-381,175	412,091	0,031	0,049
-380,160	-53,783	0,093	0,031
-379,146	-3,444	0,061	0,031
-378,131	-200,000	-0,004	0,017
-377,117	230,323	0,026	-0,031
-376,102	62,889	-0,101	0,074
-375,088	-200,000	-0,038	-0,125
-374,073	-8,674	-0,121	-0,059
-373,058	60,909	0,018	0,013
-372,044	-39,394	0,059	0,023
-371,029	-200,000	-0,023	0,111
-370,015	50,231	-0,133	0,092
-369,000	257,046	0,074	0,093
-367,985	-34,760	-0,080	-0,032
-366,971	-200,000	-0,008	0,030
-365,956	23,384	0,013	0,008
-364,942	800,000	0,041	0,114
-363,927	-15,056	0,040	-0,019
-362,912	98,241	-0,081	0,068
-361,898	-87,554	-0,112	-0,025
-360,883	-47,658	-0,099	-0,035
-359,869	-122,449	-0,103	-0,012
-358,854	-200,000	0,008	0,116
-357,839	425,134	0,048	0,077
-356,825	726,777	-0,078	0,153
-355,810	83,780	0,037	-0,029
-354,796	642,694	-0,088	0,164
-353,781	-200,000	0,002	-0,081
-352,766	-83,871	0,058	0,013
-351,752	75,050	-0,087	-0,067
-350,737	-200,000	-0,002	-0,046
-349,723	-94,737	-0,030	0,006
-348,708	800,000	-0,040	-0,103
-347,693	-200,000	0,004	0,068
-346,679	470,315	-0,059	-0,098
-345,664	39,475	0,015	-0,010
-344,650	31,139	0,063	-0,040
-343,635	-139,528	-0,052	0,004
-342,620	-200,000	-0,015	-0,104
-341,606	333,242	0,073	-0,104
-340,591	-200,000	0,004	0,098
-339,577	-200,000	0,022	0,113
-338,562	129,721	-0,012	0,012
-337,548	-200,000	0,016	0,088
-336,533	-71,081	0,147	0,040
-335,518	-200,000	0,012	0,075
-334,504	-200,000	-0,007	0,060
-333,489	-200,000	0,025	-0,090
-332,475	800,000	-0,034	-0,102
-331,460	37,471	-0,060	0,039
-330,445	2,125	-0,038	-0,020
-329,431	-200,000	0,007	0,136
-328,416	800,000	0,059	0,150
-327,402	-73,280	0,181	-0,048
-326,387	-83,367	0,154	0,036
-325,372	17,646	0,105	-0,061
-324,358	259,255	-0,057	0,072
-323,343	96,831	0,080	-0,067
-322,329	69,235	0,040	-0,030
-321,314	800,000	0,002	-0,006
-320,299	113,133	0,101	0,090
-319,285	-200,000	-0,001	0,120
-318,270	-91,366	-0,146	0,030
-317,256	14,205	-0,046	0,026
-316,241	703,206	-0,046	-0,089
-315,226	314,262	-0,077	0,106
-314,212	66,384	0,132	0,098
-313,197	800,000	-0,026	-0,063
-312,183	19,861	-0,026	-0,015
-311,168	306,162	0,014	-0,019
-310,153	156,974	-0,074	-0,074
-309,139	-200,000	-0,022	-0,125
-308,124	101,769	-0,041	0,035
-307,110	558,090	0,088	0,156
-306,095	579,596	-0,037	0,066
-305,080	740,521	-0,096	0,189
-304,066	-155,489	0,117	-0,005
-303,051	143,478	0,055	-0,053
-302,037	800,000	0,045	-0,098
-301,022	41,460	0,026	-0,017
-300,008	800,000	-0,065	-0,148
-298,993	-200,000	0,058	0,196
-297,978	357,276	0,105	-0,153
-296,964	224,756	0,048	0,056
-295,949	655,718	0,037	0,071
-294,935	-23,357	-0,116	0,051
-293,920	-34,949	0,073	0,029
-292,905	-8,311	0,022	0,011
-291,891	293,033	0,029	-0,038
-290,876	124,899	-0,015	0,014
-289,862	-200,000	0,015	-0,056
-288,847	-200,000	0,008	-0,144
-287,832	61,081	-0,113	-0,082
-286,818	-200,000	0,003	-0,033
-285,803	539,574	0,054	0,094
-284,789	-86,061	-0,068	-0,015
-283,774	231,384	0,057	0,068
-282,759	168,885	-0,058	0,061
-281,745	-27,172	0,087	0,037
-280,730	-60,198	0,033	-0,010
-279,716	626,109	-0,029	-0,053
-278,701	466,147	0,016	0,027
-277,686	800,000	0,004	-0,010
-276,672	109,204	0,095	0,083
-275,657	244,298	-0,088	0,109
-274,643	34,787	-0,082	0,052
-273,628	-200,000	0,020	0,109
-272,613	-193,506	0,075	-0,000
-271,599	-200,000	0,012	-0,048
-270,584	99,602	-0,146	-0,123
-269,570	-35,451	0,157	0,062
-268,555	800,000	-0,036	0,084
-267,540	-16,135	0,076	0,035
-266,526	261,432	-0,082	-0,103
-265,511	800,000	0,023	0,047
-264,497	-28,910	-0,046	0,019
-263,482	318,744	-0,057	0,079
-262,467	-123,628	0,050	-0,006
-261,453	268,894	-0,117	0,150
-260,438	174,961	-0,040	-0,042
-259,424	277,024	0,057	-0,074
-258,409	800,000	-0,042	-0,135
-257,395	-148,842	0,029	-0,002
-256,380	-200,000	-0,014	-0,092
-255,365	104,992	0,022	-0,019
-254,351	278,946	0,018	-0,023
-253,336	235,567	0,079	-0,095
-252,322	122,341	-0,131	-0,119
-251,307	154,956	-0,049	-0,049
-250,292	800,000	-0,056	0,123
-249,278	-26,133	0,051	0,022
-248,263	-85,712	0,063	-0,014
-247,249	356,463	0,062	-0,090
-246,234	800,000	0,053	-0,118
-245,219	652,316	0,025	0,046
-244,205	146,922	-0,061	-0,060
-243,190	483,526	-0,082	-0,136
-242,176	11,585	-0,035	-0,020
-241,161	-200,000	-0,004	0,153
-240,146	751,841	0,074	0,147
-239,132	81,371	0,056	0,044
-238,117	46,814	-0,015	0,010
-237,103	296,159	0,085	-0,113
-236,088	800,000	-0,023	-0,072
-235,073	93,509	-0,110	0,090
-234,059	-200,000	0,005	-0,080
-233,044	95,306	0,113	0,094
-232,030	-200,000	0,022	0,115
-231,015	-14,375	-0,017	-0,008
-230,000	-114,783	-0,045	-0,006
-228,986	300,215	0,017	-0,023
-227,971	-200,000	0,026	-0,121
-226,957	-4,776	0,076	-0,038
-225,942	800,000	-0,007	0,015
-224,927	-200,000	-0,008	-0,037
-223,913	800,000	-0,027	-0,075
-222,898	490,882	-0,027	0,046
-221,884	-118,174	-0,126	0,016
-220,869	32,374	-0,049	-0,030
-219,855	800,000	-0,021	0,058
-218,840	533,920	0,023	0,039
-217,825	-45,067	-0,128	-0,046
-216,811	-200,000	-0,018	-0,077
-215,796	800,000	0,025	-0,068
-214,782	-75,492	-0,107	0,027
-213,767	158,230	0,056	-0,057
-212,752	-200,000	0,002	0,034
-211,738	36,388	-0,167	0,107
-210,723	776,683	-0,020	0,040
-209,709	-77,974	-0,111	0,028
-208,694	196,818	-0,049	-0,054
-207,679	-126,173	-0,145	-0,016
-206,665	297,626	0,050	-0,067
-205,650	486,816	-0,050	-0,083
-204,636	800,000	-0,044	0,137
-203,621	34,253	-0,050	-0,032
-202,606	800,000	-0,047	-0,113
-201,592	-35,975	-0,018	-0,007
-200,577	-117,593	0,102	0,013
-199,563	-200,000	0,026	0,109
-198,548	75,186	0,110	0,084
-197,533	-128,565	0,136	-0,014
-196,519	5,233	0,095	-0,051
-195,504	-7,409	0,202	0,099
-194,490	57,021	-0,114	-0,081
-193,475	68,114	-0,054	0,040
-192,460	800,000	0,008	0,021
-191,446	492,129	0,074	0,124
-190,431	352,685	0,041	0,059
-189,417	-102,823	0,025	-0,004
-188,402	696,489	-0,024	-0,045
-187,387	800,000	-0,028	-0,056
-186,373	68,534	-0,072	-0,053
-185,358	-200,000	0,003	0,047
-184,344	-57,434	-0,122	0,039
-183,329	-41,845	0,018	0,007
-182,315	-200,000	0,000	0,046
-181,300	12,863	-0,052	0,029
-180,285	169,387	-0,043	-0,044
-179,271	-149,016	-0,050	0,003
-178,256	112,517	0,082	0,072
-177,242	196,679	0,087	-0,097
-176,227	-200,000	-0,016	0,126
-175,212	101,794	0,091	0,078
-174,198	-200,000	0,017	0,140
-173,183	800,000	0,041	-0,098
-172,169	-36,195	-0,070	-0,027
-171,154	-97,000	0,023	0,004
-170,139	296,414	0,085	-0,113
-169,125	-200,000	-0,007	-0,070
-168,110	657,284	0,066	0,123
-167,096	-22,657	0,019	0,008
-166,081	-92,034	-0,090	-0,018
-165,066	-1,328	-0,040	-0,020
-164,052	22,691	0,039	0,023
-163,037	629,944	0,015	0,028
-162,023	800,000	0,046	0,143
-161,008	331,607	-0,007	0,010
-159,993	-5,014	0,094	0,047
-158,979	314,954	0,078	0,107
-157,964	469,796	0,025	-0,040
-156,950	-200,000	0,004	-0,045
-155,935	-200,000	0,015	0,077
-154,920	-200,000	0,004	0,019
-153,906	75,468	-0,120	0,092
-152,891	800,000	-0,112	0,239
-151,877	259,147	0,071	-0,089
-150,862	697,906	-0,047	-0,091
-149,847	126,487	0,030	-0,028
-148,833	-200,000	-0,002	-0,050
-147,818	554,007	-0,019	0,033
-146,804	-200,000	-0,004	0,031
-145,789	464,317	-0,069	0,113
-144,775	159,210	0,062	0,063
-143,760	580,652	-0,054	0,096
-142,745	629,571	-0,003	0,006
-141,731	504,397	-0,030	0,051
-140,716	-17,322	0,051	-0,023
-139,702	271,980	0,041	0,053
-138,687	-200,000	0,023	0,095
-137,672	45,338	0,019	0,013
-136,658	762,816	-0,114	-0,226
-135,643	418,815	-0,075	-0,117
-134,629	159,069	0,061	-0,062
-133,614	-131,863	0,065	0,006
-132,599	199,918	-0,038	0,042
-131,585	67,191	0,065	-0,048
-130,570	-89,537	-0,042	-0,009
-129,556	-39,756	0,035	0,013
-128,541	-66,609	-0,079	0,022
-127,526	-126,463	0,062	-0,007
-126,512	524,885	0,096	-0,164
-125,497	-200,000	-0,009	-0,031
-124,483	269,219	0,058	0,074
-123,468	716,362	0,027	-0,052
-122,453	420,452	0,024	-0,037
-121,439	-200,000	-0,022	-0,082
-120,424	179,413	0,062	0,066
-119,410	800,000	-0,038	0,079
-118,395	65,447	-0,092	0,067
