DTS Sentinel unit serial number:	SN410029Multiplexer serial number:	ORYXHardware model number:	OX2-SRSoftware version number:	ORYX F/W v4,00 Oryx Data Collector v3.7.2.0data status	okinstallation	B6 Nyhavnadifferential loss correction	single-endedforward channel	channel 2reverse channel	N/Adate	2023/12/11time	03:00:08forward acquisition time	300,00reverse acquisition time	0,00gamma	499,1914k internal	0,3123k external	0,3123temperature offset calibration	1,0000default loss term (dB/km)	0,3820temperature slope calibration	1,0000multiplexer offset coefficient	1,0000multiplexer slope coefficient	1,0000fibre end	0,00T internal ref (°C)	21,46T ext. ref 1 (°C)	4,26T ext. ref 2 (°C)	4,28length (m)	temperature (°C)	Stokes	anti-Stokes-744,400	71,514	0,132	0,102
-743,385	-53,596	-0,182	0,062
-742,371	208,668	-0,038	-0,045
-741,356	-109,864	-0,218	0,034
-740,342	-200,000	0,029	0,165
-739,327	13,591	-0,326	0,188
-738,312	-200,000	0,017	-0,140
-737,298	-118,886	-0,383	0,050
-736,283	-200,000	-0,008	0,083
-735,269	80,612	-0,199	0,160
-734,254	-200,000	-0,002	0,102
-733,239	-150,330	-0,476	-0,027
-732,225	-200,000	-0,006	0,083
-731,210	-95,703	-0,125	0,025
-730,196	-156,823	-0,075	0,003
-729,181	-77,698	-0,038	-0,010
-728,167	-28,047	0,077	-0,033
-727,152	-49,078	-0,095	-0,034
-726,137	-22,388	-0,082	0,037
-725,123	68,206	-0,065	-0,049
-724,108	468,652	-0,009	-0,015
-723,094	-4,668	-0,192	-0,098
-722,079	-65,458	-0,054	0,016
-721,064	121,174	0,046	-0,043
-720,050	-200,000	-0,031	-0,157
-719,035	-200,000	-0,010	0,073
-718,021	770,608	-0,056	0,115
-717,006	-31,873	-0,216	-0,090
-715,991	-25,648	-0,092	-0,040
-714,977	260,473	0,076	-0,098
-713,962	170,954	0,077	0,082
-712,948	98,479	-0,051	0,044
-711,933	-48,408	-0,144	-0,051
-710,918	46,540	-0,116	-0,080
-709,904	-68,115	-0,157	-0,045
-708,889	-200,000	0,027	-0,138
-707,875	-76,605	-0,102	0,026
-706,860	-121,672	-0,095	0,012
-705,845	237,735	0,033	-0,041
-704,831	-8,178	-0,030	-0,015
-703,816	800,000	0,049	0,132
-702,802	288,530	-0,087	-0,117
-701,787	-52,964	0,053	-0,018
-700,772	-1,101	-0,026	0,014
-699,758	-48,048	-0,115	0,041
-698,743	-16,573	0,049	-0,023
-697,729	90,223	-0,079	0,066
-696,714	77,348	0,063	0,050
-695,699	-41,015	-0,036	-0,014
-694,685	-117,827	-0,056	-0,007
-693,670	-164,905	-0,068	-0,002
-692,656	-98,068	-0,159	-0,030
-691,641	-127,262	-0,023	0,003
-690,627	-17,906	-0,083	-0,038
-689,612	-113,562	-0,075	0,011
-688,597	18,811	-0,053	0,032
-687,583	-200,000	-0,005	-0,193
-686,568	-36,656	-0,102	-0,040
-685,554	800,000	0,050	0,144
-684,539	-200,000	-0,009	0,085
-683,524	408,618	0,015	0,023
-682,510	128,338	-0,021	-0,020
-681,495	350,613	-0,059	-0,086
-680,481	-100,071	-0,075	-0,014
-679,466	-2,607	-0,099	-0,051
-678,451	-85,416	-0,049	0,011
-677,437	-200,000	0,003	-0,124
-676,422	-78,676	0,131	-0,033
-675,408	18,380	-0,068	-0,040
-674,393	-120,069	-0,064	-0,008
-673,378	-90,958	-0,051	0,011
-672,364	-78,370	0,062	0,016
-671,349	127,110	0,012	0,011
-670,335	-200,000	-0,007	0,102
-669,320	-118,259	-0,020	-0,003
-668,305	-200,000	-0,021	-0,139
-667,291	800,000	0,015	-0,040
-666,276	-200,000	-0,021	-0,074
-665,262	-200,000	0,007	-0,083
-664,247	176,146	-0,073	0,079
-663,232	121,195	0,113	0,105
-662,218	800,000	0,030	0,087
-661,203	800,000	-0,047	0,105
-660,189	800,000	-0,058	-0,154
-659,174	-200,000	-0,004	-0,044
-658,159	800,000	-0,076	-0,183
-657,145	500,601	-0,024	0,042
-656,130	151,367	0,073	-0,073
-655,116	-200,000	0,015	-0,050
-654,101	431,690	0,062	-0,100
-653,086	117,770	-0,078	0,072
-652,072	-200,000	-0,019	0,182
-651,057	313,734	-0,048	-0,067
-650,043	36,542	-0,015	0,010
-649,028	800,000	-0,012	-0,032
-648,014	630,992	0,043	-0,082
-646,999	94,786	-0,065	0,055
-645,984	-200,000	-0,005	0,060
-644,970	-200,000	0,001	-0,020
-643,955	800,000	-0,025	-0,053
-642,941	88,185	-0,064	-0,053
-641,926	-11,776	0,014	-0,007
-640,911	800,000	0,020	-0,057
-639,897	-86,091	0,112	0,025
-638,882	-78,641	0,062	-0,016
-637,868	59,144	0,019	0,014
-636,853	800,000	0,046	-0,128
-635,838	112,385	-0,076	0,068
-634,824	652,246	-0,059	-0,113
-633,809	-9,897	-0,063	-0,031
-632,795	800,000	-0,049	0,110
-631,780	-88,899	-0,046	-0,010
-630,765	-24,821	0,083	0,037
-629,751	-122,536	-0,075	-0,009
-628,736	244,230	0,049	-0,061
-627,722	-200,000	0,005	0,042
-626,707	800,000	-0,024	0,072
-625,692	488,947	0,048	0,081
-624,678	-200,000	-0,011	-0,078
-623,663	259,425	-0,050	0,064
-622,649	80,019	-0,032	0,025
-621,634	-200,000	0,022	-0,129
-620,619	-21,030	-0,091	-0,041
-619,605	-200,000	0,001	-0,041
-618,590	293,383	-0,105	0,143
-617,576	-200,000	-0,022	0,126
-616,561	-200,000	-0,016	0,061
-615,546	223,632	-0,065	-0,078
-614,532	-200,000	-0,007	0,027
-613,517	199,280	-0,037	0,042
-612,503	210,656	-0,045	-0,052
-611,488	-200,000	0,023	-0,212
-610,474	200,887	0,018	0,020
-609,459	785,775	0,048	0,099
-608,444	384,712	0,020	0,031
-607,430	-101,431	-0,057	0,010
-606,415	800,000	0,039	0,093
-605,401	-200,000	0,012	0,044
-604,386	-134,805	-0,079	0,007
-603,371	304,841	0,067	0,093
-602,357	-19,492	0,082	0,038
-601,342	342,546	-0,079	-0,114
-600,328	327,685	-0,038	-0,054
-599,313	15,513	-0,073	-0,043
-598,298	-70,310	-0,100	-0,028
-597,284	-200,000	0,008	0,073
-596,269	-200,000	-0,005	0,018
-595,255	272,945	0,020	-0,026
-594,240	160,228	-0,068	-0,070
-593,225	-160,951	-0,218	-0,008
-592,211	-34,902	-0,119	-0,048
-591,196	-103,581	-0,082	-0,014
-590,182	-60,316	0,115	-0,036
-589,167	52,953	-0,022	-0,016
-588,152	13,059	-0,140	0,080
-587,138	-26,795	-0,130	0,056
-586,123	284,324	0,087	-0,116
-585,109	-200,000	0,032	-0,114
-584,094	147,252	-0,113	-0,113
-583,079	-127,287	0,155	0,016
-582,065	-11,912	0,111	0,054
-581,050	441,432	0,024	-0,040
-580,036	-102,437	0,033	-0,006
-579,021	89,887	0,026	-0,022
-578,006	-57,508	0,100	-0,032
-576,992	38,598	0,101	-0,067
-575,977	-174,316	-0,048	0,001
-574,963	-200,000	-0,002	-0,066
-573,948	8,822	-0,043	-0,024
-572,934	197,843	-0,048	-0,055
-571,919	-102,915	-0,100	0,017
-570,904	218,965	-0,084	-0,099
-569,890	335,087	0,041	0,059
-568,875	106,138	-0,056	-0,049
-567,861	717,220	0,068	0,135
-566,846	67,196	-0,073	0,055
-565,831	-200,000	0,030	0,127
-564,817	210,861	0,046	0,054
-563,802	678,379	-0,036	0,070
-562,788	-94,516	-0,116	0,023
-561,773	-125,091	0,017	-0,002
-560,758	678,848	-0,046	0,088
-559,744	55,174	0,072	-0,052
-558,729	-200,000	0,015	-0,056
-557,715	62,541	0,042	0,031
-556,700	183,613	0,024	0,027
-555,685	-108,896	-0,151	-0,024
-554,671	-131,836	-0,030	-0,003
-553,656	446,526	0,038	-0,061
-552,642	-200,000	0,001	-0,050
-551,627	176,452	0,154	-0,166
-550,612	55,110	-0,023	0,017
-549,598	227,993	-0,045	-0,054
-548,583	73,507	-0,031	-0,024
-547,569	44,517	-0,153	0,104
-546,554	19,534	0,093	0,055
-545,539	800,000	0,015	-0,044
-544,525	-200,000	-0,036	0,133
-543,510	-127,456	-0,059	0,006
-542,496	352,201	0,038	-0,055
-541,481	189,563	-0,076	-0,084
-540,466	-200,000	-0,028	0,151
-539,452	-200,000	-0,009	-0,066
-538,437	-191,670	0,117	0,001
-537,423	-65,781	0,157	0,046
-536,408	-200,000	0,029	-0,118
-535,393	116,460	-0,090	-0,081
-534,379	-200,000	-0,014	-0,081
-533,364	-93,755	0,096	0,019
-532,350	8,299	0,080	-0,045
-531,335	-8,089	-0,114	0,057
-530,321	-200,000	0,006	-0,096
-529,306	-18,108	0,146	-0,067
-528,291	514,029	0,015	0,025
-527,277	78,219	-0,058	-0,046
-526,262	-200,000	-0,019	-0,073
-525,248	-11,648	0,057	0,027
-524,233	-85,742	0,048	-0,011
-523,218	51,149	0,058	0,040
-522,204	448,166	-0,041	-0,067
-521,189	-200,000	0,009	-0,047
-520,175	183,561	0,085	-0,093
-519,160	-46,392	-0,087	0,031
-518,145	-200,000	-0,005	-0,040
-517,131	185,333	0,073	0,080
-516,116	281,369	0,087	-0,116
-515,102	102,175	-0,021	0,018
-514,087	-200,000	-0,014	-0,113
-513,072	-200,000	-0,010	-0,145
-512,058	-44,869	-0,117	-0,043
-511,043	118,436	-0,098	0,089
-510,029	287,970	0,088	0,117
-509,014	152,627	0,062	0,063
-507,999	466,139	0,047	0,077
-506,985	-200,000	0,021	-0,210
-505,970	-27,524	-0,105	0,045
-504,956	-200,000	-0,024	-0,122
-503,941	-2,132	-0,025	-0,013
-502,926	-40,958	-0,064	-0,024
-501,912	800,000	-0,024	-0,051
-500,897	59,864	0,099	0,072
-499,883	-200,000	-0,006	-0,078
-498,868	-200,000	-0,001	-0,165
-497,853	-21,548	-0,022	-0,010
-496,839	800,000	0,016	0,039
-495,824	-200,000	0,003	0,035
-494,810	-95,353	-0,025	-0,005
-493,795	-84,347	0,116	0,027
-492,781	-25,652	-0,031	-0,013
-491,766	-200,000	0,000	-0,015
-490,751	-45,613	0,091	-0,033
-489,737	-200,000	-0,010	0,048
-488,722	-145,693	0,206	-0,013
-487,708	231,546	0,061	0,074
-486,693	-200,000	-0,007	-0,056
-485,678	-200,000	-0,008	0,124
-484,664	-103,514	-0,037	0,006
-483,649	-200,000	-0,035	0,132
-482,635	-200,000	0,003	-0,033
-481,620	-200,000	0,010	0,077
-480,605	-200,000	-0,016	0,131
-479,591	318,541	-0,132	0,185
-478,576	126,824	-0,043	0,040
-477,562	-200,000	0,016	0,164
-476,547	458,382	-0,058	-0,095
-475,532	-76,215	0,141	-0,036
-474,518	-200,000	0,001	0,060
-473,503	-30,215	0,083	-0,034
-472,489	-53,090	0,012	0,004
-471,474	-75,571	-0,090	-0,023
-470,459	70,653	-0,106	-0,081
-469,445	-200,000	0,039	-0,201
-468,430	-200,000	-0,003	-0,035
-467,416	91,968	0,022	-0,018
-466,401	-200,000	0,022	0,111
-465,386	84,775	-0,045	0,036
-464,372	-200,000	0,001	-0,124
-463,357	218,565	-0,041	0,048
-462,343	-67,882	-0,069	-0,020
-461,328	-160,878	0,223	0,009
-460,313	77,673	0,107	0,084
-459,299	-110,515	0,097	-0,015
-458,284	-200,000	-0,021	0,068
-457,270	-50,226	0,071	-0,025
-456,255	800,000	-0,036	-0,086
-455,241	59,590	-0,007	0,005
-454,226	-57,250	-0,155	0,050
-453,211	790,723	-0,045	-0,091
-452,197	264,463	-0,060	0,078
-451,182	33,246	0,134	0,086
-450,168	-200,000	0,000	0,033
-449,153	800,000	0,029	0,064
-448,138	-200,000	-0,005	0,058
-447,124	-200,000	-0,000	0,145
-446,109	-13,260	0,134	0,064
-445,095	-200,000	-0,023	0,081
-444,080	732,074	-0,031	-0,061
-443,065	-66,113	0,011	-0,003
-442,051	107,880	-0,119	-0,104
-441,036	-200,000	-0,008	-0,029
-440,022	328,864	-0,087	-0,124
-439,007	-61,724	0,181	0,056
-437,992	92,920	0,020	0,016
-436,978	294,616	-0,019	-0,025
-435,963	-4,486	0,074	0,038
-434,949	-50,838	-0,013	-0,004
-433,934	-65,850	-0,109	0,032
-432,919	431,327	-0,057	-0,091
-431,905	-200,000	-0,007	0,042
-430,890	360,596	0,018	0,027
-429,876	-141,779	-0,153	0,011
-428,861	800,000	-0,037	0,093
-427,846	800,000	0,072	0,165
-426,832	-12,320	-0,130	0,062
-425,817	-37,435	0,125	0,049
-424,803	-99,341	0,098	0,018
-423,788	-200,000	-0,031	-0,116
-422,773	-200,000	0,009	0,071
-421,759	-4,061	0,043	-0,022
-420,744	-200,000	-0,017	0,125
-419,730	81,934	0,042	-0,033
-418,715	-200,000	-0,018	-0,162
-417,701	800,000	-0,033	-0,092
-416,686	145,804	-0,063	-0,062
-415,671	362,381	-0,081	0,120
-414,657	800,000	0,044	0,135
-413,642	-200,000	0,000	-0,102
-412,628	-200,000	-0,000	0,097
-411,613	-200,000	0,031	-0,134
-410,598	-109,164	0,114	0,018
-409,584	-49,153	0,079	0,028
-408,569	-200,000	0,015	0,102
-407,555	-200,000	0,005	-0,098
-406,540	-136,846	-0,018	-0,002
-405,525	107,024	0,026	-0,022
-404,511	2,282	-0,132	0,070
-403,496	69,477	-0,083	-0,063
-402,482	-200,000	-0,006	-0,117
-401,467	800,000	0,024	0,052
-400,452	-80,557	0,099	-0,024
-399,438	-200,000	0,003	-0,126
-398,423	-136,260	-0,142	-0,012
-397,409	279,364	-0,028	0,037
-396,394	-33,837	0,083	0,034
-395,379	794,853	0,047	0,095
-394,365	42,897	0,090	0,060
-393,350	47,851	0,045	0,031
-392,336	-200,000	-0,010	-0,051
-391,321	46,412	0,065	0,045
-390,306	-200,000	-0,025	0,102
-389,292	93,195	-0,074	-0,061
-388,277	-200,000	0,017	-0,120
-387,263	-9,561	0,118	-0,058
-386,248	245,481	0,072	0,089
-385,233	-123,459	-0,079	0,009
-384,219	-200,000	-0,031	-0,099
-383,204	-72,366	0,105	-0,028
-382,190	-125,067	-0,166	0,019
-381,175	800,000	-0,022	-0,055
-380,160	389,179	-0,048	-0,074
-379,146	-200,000	-0,005	-0,023
-378,131	-28,815	-0,055	-0,023
-377,117	13,275	-0,065	-0,037
-376,102	-48,587	0,043	-0,015
-375,088	-10,047	-0,143	-0,070
-374,073	-5,880	0,064	-0,032
-373,058	-198,094	0,147	-0,001
-372,044	413,093	0,032	0,050
-371,029	632,257	0,034	-0,063
-370,015	451,286	0,051	0,084
-369,000	2,483	-0,070	-0,037
-367,985	800,000	-0,036	-0,118
-366,971	37,795	-0,241	0,157
-365,956	215,275	-0,060	-0,071
-364,942	101,693	0,095	0,081
-363,927	-25,751	0,077	0,033
-362,912	-200,000	-0,009	0,045
-361,898	-200,000	0,006	-0,038
-360,883	69,448	0,084	0,063
-359,869	-200,000	-0,020	-0,120
-358,854	-200,000	0,018	-0,118
-357,839	-113,223	0,080	-0,011
-356,825	800,000	0,069	0,145
-355,810	-41,373	-0,099	-0,037
-354,796	-45,600	-0,047	0,017
-353,781	262,675	0,073	-0,093
-352,766	22,917	0,124	-0,074
-351,752	-125,047	-0,044	0,005
-350,737	-200,000	-0,001	0,046
-349,723	14,299	0,092	-0,052
-348,708	-104,440	-0,119	0,020
-347,693	-36,449	-0,060	0,024
-346,679	-99,009	-0,135	0,025
-345,664	-97,325	-0,078	0,015
-344,650	741,598	0,041	0,081
-343,635	88,564	0,070	0,057
-342,620	272,425	0,071	0,092
-341,606	14,904	-0,079	0,045
-340,591	-4,024	-0,134	-0,068
-339,577	121,578	-0,039	-0,035
-338,562	-148,779	0,096	0,006
-337,548	369,580	-0,026	-0,039
-336,533	-200,000	0,037	-0,136
-335,518	-67,089	0,048	0,014
-334,504	-200,000	0,020	0,077
-333,489	800,000	-0,030	0,086
-332,475	-200,000	-0,012	0,047
-331,460	-200,000	0,002	-0,052
-330,445	179,716	-0,088	-0,095
-329,431	141,033	0,067	0,065
-328,416	206,575	-0,045	-0,051
-327,402	-95,276	-0,025	0,005
-326,387	-136,206	0,095	0,008
-325,372	491,457	-0,027	-0,045
-324,358	-98,968	-0,075	-0,014
-323,343	-200,000	0,015	-0,077
-322,329	307,741	0,091	0,125
-321,314	800,000	-0,033	0,095
-320,299	404,644	0,058	0,090
-319,285	406,691	0,019	-0,030
-318,270	10,092	-0,007	-0,004
-317,256	380,974	-0,019	0,029
-316,241	697,458	0,016	-0,031
-315,226	47,274	0,027	-0,019
-314,212	-2,137	-0,068	0,035
-313,197	-108,394	-0,077	-0,012
-312,183	7,256	0,076	0,041
-311,168	800,000	0,009	0,024
-310,153	-48,058	-0,039	0,014
-309,139	-200,000	-0,037	0,179
-308,124	365,157	-0,041	0,061
-307,110	-200,000	0,002	-0,042
-306,095	800,000	0,018	0,044
-305,080	193,403	0,036	0,040
-304,066	138,988	0,040	0,038
-303,051	-96,644	-0,127	-0,024
-302,037	-132,220	-0,104	0,010
-301,022	144,269	0,027	0,026
-300,008	125,768	0,111	0,102
-298,993	219,586	-0,101	0,119
-297,978	-200,000	0,007	-0,052
-296,964	-200,000	-0,005	-0,046
-295,949	-200,000	0,008	-0,035
-294,935	544,216	0,026	-0,045
-293,920	161,744	0,069	0,070
-292,905	800,000	0,013	-0,041
-291,891	-200,000	0,022	0,091
-290,876	-200,000	0,014	0,115
-289,862	-132,264	-0,142	-0,013
-288,847	-200,000	-0,014	0,047
-287,832	550,019	-0,068	0,120
-286,818	307,976	0,100	0,138
-285,803	-200,000	-0,007	-0,092
-284,789	132,978	0,132	0,125
-283,774	159,147	0,113	0,115
-282,759	62,316	-0,073	-0,053
-281,745	19,686	0,038	0,022
-280,730	68,083	0,027	0,020
-279,716	18,647	0,017	0,010
-278,701	242,823	0,020	-0,024
-277,686	-200,000	0,019	0,097
-276,672	-200,000	0,028	0,152
-275,657	-130,831	0,122	-0,012
-274,643	263,126	-0,051	-0,065
-273,628	105,393	0,092	-0,080
-272,613	1,736	0,068	0,036
-271,599	25,485	-0,044	0,027
-270,584	18,005	0,171	0,099
-269,570	550,179	0,055	0,097
-268,555	266,865	-0,111	0,143
-267,540	800,000	0,004	0,009
-266,526	365,354	-0,051	-0,076
-265,511	-137,319	0,021	-0,002
-264,497	-150,377	0,087	0,005
-263,482	-91,292	-0,058	-0,012
-262,467	-200,000	-0,003	0,018
-261,453	98,542	0,092	0,078
-260,438	0,696	-0,059	0,031
-259,424	59,281	-0,084	-0,060
-258,409	800,000	-0,014	-0,040
-257,395	339,170	0,106	-0,152
-256,380	-200,000	0,003	-0,212
-255,365	224,830	-0,060	0,071
-254,351	-66,323	0,062	0,018
-253,336	305,788	-0,084	0,115
-252,322	800,000	0,016	0,044
-251,307	-59,264	-0,083	0,026
-250,292	-39,792	0,054	0,020
-249,278	-128,684	0,108	0,011
-248,263	-11,946	-0,025	0,012
-247,249	619,872	-0,019	0,035
-246,234	184,850	0,029	-0,032
-245,219	498,590	-0,023	-0,038
-244,205	36,935	-0,146	-0,094
-243,190	-6,014	0,059	0,029
-242,176	3,660	-0,046	-0,024
-241,161	-33,250	-0,146	0,059
-240,146	-200,000	0,002	0,074
-239,132	56,015	-0,058	0,041
-238,117	202,411	-0,081	-0,092
-237,103	-21,174	-0,095	-0,042
-236,088	-200,000	-0,001	0,058
-235,073	27,895	-0,099	0,061
-234,059	112,146	-0,081	-0,071
-233,044	266,729	0,015	-0,019
-232,030	-80,243	0,033	-0,008
-231,015	800,000	0,051	-0,130
-230,000	80,812	0,081	0,064
-228,986	-44,689	-0,165	-0,060
-227,971	12,554	0,043	-0,024
-226,957	800,000	0,012	-0,033
-225,942	649,899	0,042	0,079
-224,927	96,110	0,008	-0,007
-223,913	138,960	0,131	-0,125
-222,898	-115,470	0,054	-0,007
-221,884	445,778	0,081	-0,130
-220,869	800,000	0,026	-0,057
-219,855	-174,254	0,069	-0,001
-218,840	266,973	0,033	0,043
-217,825	-180,654	-0,039	-0,001
-216,811	-158,570	0,067	-0,003
-215,796	-200,000	0,022	-0,115
-214,782	19,963	-0,031	0,018
-213,767	779,237	-0,030	-0,060
-212,752	3,040	0,054	0,029
-211,738	-127,858	0,080	-0,008
-210,723	-29,630	-0,078	0,032
-209,709	800,000	-0,039	0,097
-208,694	-111,972	0,036	0,005
-207,679	629,797	0,002	0,004
-206,665	499,909	-0,032	0,055
-205,650	-60,796	0,051	-0,016
-204,636	-43,678	-0,014	0,005
-203,621	-200,000	0,003	-0,028
-202,606	-200,000	0,005	-0,060
-201,592	-200,000	-0,018	-0,117
-200,577	800,000	-0,020	-0,044
-199,563	16,230	0,093	0,053
-198,548	800,000	0,011	0,032
-197,533	555,622	-0,065	-0,115
-196,519	203,258	0,028	0,032
-195,504	-200,000	0,034	0,115
-194,490	88,106	-0,064	0,052
-193,475	172,198	-0,119	0,125
-192,460	550,808	0,035	-0,062
-191,446	-64,445	-0,013	0,004
-190,431	-97,759	0,238	0,045
-189,417	-200,000	0,016	0,148
-188,402	800,000	-0,014	-0,040
-187,387	-200,000	-0,010	-0,130
-186,373	432,747	-0,092	-0,145
-185,358	-200,000	0,000	-0,037
-184,344	-26,602	-0,114	0,049
-183,329	-200,000	0,014	-0,099
-182,315	6,190	0,059	0,032
-181,300	232,082	-0,061	0,073
-180,285	-8,732	0,069	0,034
-179,271	-200,000	-0,005	-0,067
-178,256	-122,250	0,071	-0,008
-177,242	36,449	-0,085	-0,055
-176,227	-137,449	0,120	0,010
-175,212	-16,224	0,048	-0,022
-174,198	-200,000	-0,002	-0,041
-173,183	94,175	-0,093	-0,077
-172,169	-200,000	0,012	-0,070
-171,154	-127,492	-0,130	-0,014
-170,139	661,192	0,016	0,031
-169,125	495,131	0,033	-0,056
-168,110	157,062	0,128	-0,129
-167,096	-200,000	0,002	-0,085
-166,081	-125,794	0,030	0,003
-165,066	232,977	0,014	-0,017
-164,052	-200,000	-0,002	0,068
-163,037	-200,000	-0,001	-0,035
-162,023	-200,000	0,000	0,045
-161,008	444,164	-0,030	0,048
-159,993	-16,853	-0,017	0,008
-158,979	663,466	0,014	-0,026
-157,964	267,787	0,022	-0,028
-156,950	-0,455	-0,044	0,023
-155,935	61,635	0,136	0,099
-154,920	-200,000	0,018	-0,091
-153,906	439,781	0,035	-0,056
-152,891	-200,000	-0,039	0,135
-151,877	91,072	0,132	0,107
-150,862	320,000	0,027	-0,037
-149,847	-200,000	-0,015	-0,088
-148,833	343,412	0,015	0,021
-147,818	3,096	0,078	0,041
-146,804	201,436	0,059	0,067
-145,789	-4,521	0,076	0,038
-144,775	-47,070	-0,048	0,017
-143,760	-61,121	-0,068	0,021
-142,745	8,018	-0,136	-0,074
-141,731	-14,504	-0,090	-0,042
-140,716	-162,139	0,108	0,004
-139,702	-38,460	-0,199	0,076
-138,687	-75,770	-0,117	0,030
-137,672	-200,000	-0,022	0,154
-136,658	-95,658	-0,156	-0,030
-135,643	-200,000	0,003	0,041
-134,629	40,830	-0,049	0,032
-133,614	-197,451	-0,091	-0,000
-132,599	-67,252	-0,085	-0,024
-131,585	12,911	-0,057	0,032
-130,570	-200,000	-0,008	-0,139
-129,556	11,270	0,055	-0,031
-128,541	-200,000	0,013	-0,059
-127,526	381,629	-0,104	0,156
-126,512	-200,000	0,021	-0,087
-125,497	-200,000	0,002	-0,123
-124,483	47,775	-0,091	0,061
-123,468	-52,433	-0,079	-0,026
-122,453	576,259	-0,073	-0,130
-121,439	-200,000	0,015	-0,049
-120,424	783,289	0,039	-0,078
-119,410	552,577	-0,061	0,107
