DTS Sentinel unit serial number:	SN410029Multiplexer serial number:	ORYXHardware model number:	OX2-SRSoftware version number:	ORYX F/W v4,00 Oryx Data Collector v3.7.2.0data status	okinstallation	B6 Nyhavnadifferential loss correction	single-endedforward channel	channel 2reverse channel	N/Adate	2023/12/11time	05:40:08forward acquisition time	300,00reverse acquisition time	0,00gamma	499,1914k internal	0,3126k external	0,3126temperature offset calibration	1,0000default loss term (dB/km)	0,3820temperature slope calibration	1,0000multiplexer offset coefficient	1,0000multiplexer slope coefficient	1,0000fibre end	0,00T internal ref (°C)	19,89T ext. ref 1 (°C)	3,06T ext. ref 2 (°C)	3,09length (m)	temperature (°C)	Stokes	anti-Stokes-744,400	-7,642	-0,096	-0,048
-743,385	-125,625	-0,374	0,042
-742,371	800,000	0,003	-0,009
-741,356	94,197	-0,171	0,144
-740,342	-200,000	-0,002	0,101
-739,327	-46,980	-0,383	0,139
-738,312	-51,871	0,135	-0,046
-737,298	-178,123	-0,270	0,005
-736,283	149,442	0,101	0,102
-735,269	-104,316	-0,135	0,023
-734,254	329,459	0,055	-0,079
-733,239	19,449	-0,287	-0,171
-732,225	18,202	0,077	-0,045
-731,210	-37,195	0,077	-0,030
-730,196	-200,000	-0,049	-0,207
-729,181	600,070	-0,089	-0,164
-728,167	69,860	0,081	-0,062
-727,152	516,513	-0,046	-0,081
-726,137	53,155	-0,146	-0,104
-725,123	13,135	-0,064	0,037
-724,108	800,000	0,024	0,071
-723,094	800,000	-0,029	-0,091
-722,079	800,000	-0,030	-0,074
-721,064	-181,908	0,109	-0,002
-720,050	-200,000	-0,011	-0,167
-719,035	-200,000	-0,000	-0,137
-718,021	-200,000	0,025	-0,093
-717,006	-30,232	0,092	0,039
-715,991	112,957	-0,056	-0,051
-714,977	44,269	-0,039	-0,027
-713,962	107,355	-0,086	-0,076
-712,948	586,799	0,059	-0,109
-711,933	-200,000	-0,009	-0,035
-710,918	-200,000	0,006	0,033
-709,904	640,354	-0,080	-0,152
-708,889	172,260	-0,078	0,084
-707,875	-130,275	-0,158	-0,016
-706,860	-48,744	0,073	-0,026
-705,845	583,460	0,059	0,107
-704,831	670,372	-0,067	0,129
-703,816	236,198	-0,106	-0,131
-702,802	800,000	0,024	-0,060
-701,787	242,518	-0,148	-0,185
-700,772	771,882	-0,076	-0,155
-699,758	800,000	-0,077	-0,209
-698,743	692,055	-0,044	0,087
-697,729	800,000	0,003	0,008
-696,714	26,509	-0,035	-0,022
-695,699	-11,143	-0,048	0,023
-694,685	-200,000	-0,009	-0,047
-693,670	-200,000	-0,029	0,111
-692,656	219,343	0,064	0,076
-691,641	656,677	-0,010	-0,019
-690,627	-200,000	-0,011	0,121
-689,612	81,591	0,028	-0,022
-688,597	-200,000	0,003	0,114
-687,583	-75,940	-0,085	0,022
-686,568	-200,000	-0,009	-0,050
-685,554	-200,000	-0,013	-0,098
-684,539	-200,000	-0,002	-0,206
-683,524	137,463	0,066	0,064
-682,510	-200,000	-0,015	-0,051
-681,495	260,651	0,059	-0,076
-680,481	-32,230	-0,109	-0,045
-679,466	160,238	-0,053	-0,055
-678,451	-65,404	0,105	0,031
-677,437	-51,081	-0,010	0,003
-676,422	-155,517	0,062	-0,003
-675,408	405,510	-0,123	0,194
-674,393	-124,506	0,123	0,014
-673,378	-37,609	-0,100	0,040
-672,364	-200,000	0,015	0,056
-671,349	-200,000	-0,002	-0,038
-670,335	-66,148	0,036	-0,011
-669,320	-114,916	-0,120	0,017
-668,305	-34,281	0,024	0,010
-667,291	18,329	-0,051	-0,030
-666,276	72,675	0,041	0,031
-665,262	211,100	0,007	-0,008
-664,247	800,000	-0,043	0,097
-663,232	120,340	0,030	0,028
-662,218	800,000	-0,039	-0,113
-661,203	-200,000	-0,016	0,074
-660,189	-41,496	0,162	0,061
-659,174	79,987	-0,012	-0,010
-658,159	-200,000	-0,025	-0,129
-657,145	451,940	-0,072	-0,118
-656,130	324,651	0,076	0,108
-655,116	-200,000	-0,031	0,113
-654,101	281,731	-0,152	0,203
-653,086	-171,959	0,100	0,002
-652,072	800,000	0,053	-0,120
-651,057	20,782	-0,136	-0,081
-650,043	-42,791	-0,082	0,031
-649,028	536,583	-0,058	-0,103
-648,014	-80,074	0,072	-0,018
-646,999	-77,090	0,062	-0,016
-645,984	-129,349	-0,082	-0,008
-644,970	27,827	0,024	-0,015
-643,955	-200,000	-0,002	0,056
-642,941	266,210	0,065	0,085
-641,926	-200,000	0,004	0,043
-640,911	800,000	-0,010	0,024
-639,897	-46,736	-0,044	-0,016
-638,882	286,085	-0,055	0,074
-637,868	800,000	0,015	0,036
-636,853	-104,297	0,039	0,007
-635,838	-35,529	-0,055	0,022
-634,824	-200,000	0,007	0,057
-633,809	207,824	0,021	0,024
-632,795	800,000	-0,053	0,128
-631,780	-68,009	0,044	0,013
-630,765	-135,143	-0,068	-0,006
-629,751	800,000	-0,036	-0,104
-628,736	800,000	0,047	-0,148
-627,722	-63,473	0,161	-0,049
-626,707	-133,353	0,092	-0,008
-625,692	-200,000	0,039	0,172
-624,678	-200,000	-0,004	-0,075
-623,663	-54,617	-0,080	-0,027
-622,649	-37,878	-0,070	0,028
-621,634	212,589	-0,108	-0,127
-620,619	207,078	-0,042	-0,048
-619,605	93,941	0,140	-0,118
-618,590	670,425	0,038	0,074
-617,576	167,408	0,058	-0,061
-616,561	-108,714	-0,081	-0,013
-615,546	28,915	-0,157	0,098
-614,532	-5,171	-0,151	-0,077
-613,517	-200,000	-0,013	-0,070
-612,503	-200,000	-0,004	0,109
-611,488	331,970	-0,083	0,119
-610,474	-83,185	0,038	-0,009
-609,459	-50,798	0,075	0,026
-608,444	-64,811	-0,091	-0,027
-607,430	-95,542	-0,017	0,003
-606,415	765,204	0,071	-0,144
-605,401	144,183	-0,019	-0,019
-604,386	755,637	-0,021	0,042
-603,371	-200,000	0,018	-0,126
-602,357	-36,776	-0,021	-0,008
-601,342	400,827	-0,106	-0,166
-600,328	-107,059	0,121	0,020
-599,313	59,820	0,116	0,085
-598,298	800,000	-0,035	0,112
-597,284	-159,877	0,100	0,004
-596,269	800,000	-0,022	0,047
-595,255	800,000	-0,025	0,055
-594,240	-100,204	-0,078	0,014
-593,225	66,427	-0,029	0,021
-592,211	278,576	-0,016	-0,021
-591,196	221,239	-0,044	0,053
-590,182	37,706	-0,066	0,043
-589,167	716,898	0,029	0,058
-588,152	-57,239	0,060	0,019
-587,138	50,576	-0,131	0,092
-586,123	-61,935	-0,137	0,042
-585,109	69,602	0,044	0,034
-584,094	308,787	0,095	-0,132
-583,079	-98,962	-0,126	0,023
-582,065	-200,000	-0,020	0,084
-581,050	265,704	0,026	0,034
-580,036	-200,000	0,044	-0,246
-579,021	693,486	-0,044	-0,086
-578,006	-200,000	0,012	-0,169
-576,992	319,401	0,084	-0,118
-575,977	23,125	0,007	-0,004
-574,963	-84,437	0,021	-0,005
-573,948	0,860	0,021	0,011
-572,934	-56,097	0,051	-0,017
-571,919	800,000	0,037	-0,103
-570,904	800,000	0,010	-0,026
-569,890	788,048	-0,031	-0,064
-568,875	628,851	0,049	0,091
-567,861	19,080	-0,067	0,040
-566,846	800,000	-0,032	0,070
-565,831	24,759	-0,174	0,106
-564,817	197,719	0,054	0,061
-563,802	-200,000	0,006	-0,176
-562,788	-157,243	0,059	0,003
-561,773	-200,000	0,032	0,168
-560,758	-141,930	-0,090	-0,007
-559,744	-171,987	0,019	-0,000
-558,729	-200,000	0,032	0,146
-557,715	800,000	0,031	-0,079
-556,700	-133,874	-0,068	0,006
-555,685	-29,150	-0,210	0,089
-554,671	-47,175	0,175	-0,063
-553,656	-200,000	-0,002	0,046
-552,642	593,948	-0,016	0,030
-551,627	276,374	-0,053	0,070
-550,612	18,083	-0,139	0,081
-549,598	-6,485	-0,111	-0,056
-548,583	-66,584	-0,073	-0,021
-547,569	800,000	0,024	-0,059
-546,554	-25,582	0,094	0,041
-545,539	120,381	-0,088	0,081
-544,525	-105,435	-0,071	0,012
-543,510	-200,000	-0,009	0,078
-542,496	-200,000	-0,021	-0,107
-541,481	-152,653	-0,096	-0,005
-540,466	-200,000	0,030	0,182
-539,452	-73,305	-0,151	0,041
-538,437	-200,000	-0,023	-0,076
-537,423	132,586	0,119	0,113
-536,408	800,000	0,058	-0,170
-535,393	165,532	-0,028	-0,030
-534,379	-200,000	0,029	-0,169
-533,364	-95,989	-0,127	0,025
-532,350	800,000	0,053	0,170
-531,335	-200,000	-0,006	0,096
-530,321	-128,488	0,055	0,006
-529,306	79,670	0,067	0,053
-528,291	-69,613	-0,092	-0,026
-527,277	16,284	0,081	-0,047
-526,262	361,940	-0,047	0,069
-525,248	-200,000	0,011	-0,059
-524,233	239,983	0,037	0,045
-523,218	1,888	0,046	-0,025
-522,204	-29,837	-0,031	-0,013
-521,189	48,719	-0,084	0,058
-520,175	-115,182	-0,105	0,015
-519,160	800,000	0,025	0,058
-518,145	-200,000	0,023	-0,122
-517,131	327,097	0,059	0,084
-516,116	179,510	0,104	-0,113
-515,102	477,954	0,011	0,018
-514,087	-200,000	-0,023	0,109
-513,072	299,587	-0,115	-0,156
-512,058	31,067	0,036	0,023
-511,043	757,410	-0,022	0,045
-510,029	551,626	-0,014	-0,024
-509,014	-123,635	0,085	0,010
-507,999	-41,306	0,051	0,019
-506,985	800,000	0,025	-0,070
-505,970	55,267	-0,092	0,065
-504,956	-2,327	-0,062	-0,032
-503,941	-200,000	-0,036	-0,123
-502,926	1,465	0,169	-0,089
-501,912	316,540	0,037	0,051
-500,897	80,592	-0,050	-0,040
-499,883	373,919	-0,023	0,035
-498,868	201,595	-0,053	0,060
-497,853	-106,292	-0,098	0,016
-496,839	177,283	0,018	-0,019
-495,824	175,430	0,042	0,044
-494,810	800,000	0,065	0,161
-493,795	-105,719	0,113	0,019
-492,781	-200,000	-0,001	-0,023
-491,766	169,998	-0,030	0,031
-490,751	650,049	0,081	-0,154
-489,737	-56,351	0,023	0,007
-488,722	-170,810	0,044	-0,001
-487,708	-200,000	-0,009	0,065
-486,693	800,000	-0,065	0,138
-485,678	17,702	0,105	0,061
-484,664	669,831	0,033	-0,063
-483,649	-200,000	0,010	-0,142
-482,635	-152,576	-0,127	0,007
-481,620	-200,000	0,001	0,069
-480,605	318,216	-0,029	-0,041
-479,591	-200,000	-0,001	-0,035
-478,576	67,122	-0,114	-0,085
-477,562	-69,696	0,075	0,021
-476,547	-200,000	-0,007	0,121
-475,532	-3,820	0,017	0,009
-474,518	43,433	-0,063	-0,042
-473,503	-200,000	0,017	0,061
-472,489	122,128	-0,065	0,060
-471,474	-200,000	0,019	-0,155
-470,459	-93,920	0,027	0,005
-469,445	800,000	-0,028	0,067
-468,430	-200,000	-0,029	-0,108
-467,416	800,000	-0,015	-0,032
-466,401	373,885	-0,007	-0,010
-465,386	-31,549	-0,121	-0,050
-464,372	-38,793	-0,078	0,030
-463,357	354,506	-0,043	0,063
-462,343	-124,450	-0,068	0,008
-461,328	-200,000	-0,009	-0,090
-460,313	-200,000	0,002	-0,064
-459,299	800,000	0,031	0,098
-458,284	309,032	0,093	-0,128
-457,270	-53,864	-0,028	0,009
-456,255	-51,951	0,053	-0,018
-455,241	782,406	-0,026	0,053
-454,226	-117,185	-0,115	-0,015
-453,211	187,680	0,106	-0,117
-452,197	-200,000	-0,003	0,020
-451,182	-88,565	0,146	-0,032
-450,168	53,529	0,055	-0,039
-449,153	-76,912	-0,032	0,008
-448,138	-78,261	-0,061	-0,015
-447,124	-200,000	-0,021	-0,163
-446,109	324,717	-0,002	-0,002
-445,095	-200,000	-0,001	0,052
-444,080	130,857	0,097	0,092
-443,065	154,639	0,036	-0,036
-442,051	275,456	0,059	0,077
-441,036	-26,850	0,059	-0,025
-440,022	208,768	-0,043	-0,049
-439,007	746,347	-0,009	0,018
-437,992	19,643	0,134	0,079
-436,978	-80,240	0,087	-0,021
-435,963	-200,000	-0,006	-0,133
-434,949	-92,905	-0,074	0,015
-433,934	90,892	-0,083	0,069
-432,919	410,338	0,047	-0,074
-431,905	0,757	-0,047	0,025
-430,890	-167,961	0,084	-0,002
-429,876	241,787	0,087	-0,107
-428,861	-200,000	0,012	0,070
-427,846	800,000	0,027	-0,056
-426,832	-197,504	-0,096	-0,000
-425,817	800,000	0,024	-0,069
-424,803	404,681	0,028	-0,044
-423,788	-105,050	0,085	0,014
-422,773	-2,089	0,080	0,041
-421,759	-55,774	0,106	-0,035
-420,744	-155,128	-0,021	0,001
-419,730	22,182	-0,094	0,056
-418,715	-125,958	0,116	-0,013
-417,701	-99,362	-0,027	0,005
-416,686	-200,000	-0,006	0,032
-415,671	-15,261	-0,065	-0,031
-414,657	-186,383	0,127	0,001
-413,642	126,434	0,082	0,076
-412,628	97,008	-0,101	0,085
-411,613	800,000	-0,017	-0,038
-410,598	-200,000	-0,017	-0,154
-409,584	126,445	-0,090	-0,084
-408,569	50,094	0,099	-0,069
-407,555	522,362	-0,057	0,098
-406,540	-105,598	-0,067	0,011
-405,525	800,000	0,023	-0,055
-404,511	-146,797	-0,088	-0,005
-403,496	800,000	0,022	-0,048
-402,482	97,413	-0,059	0,049
-401,467	96,531	-0,022	-0,019
-400,452	43,500	0,052	-0,035
-399,438	40,566	0,038	-0,025
-398,423	580,723	0,012	0,022
-397,409	-200,000	0,004	-0,115
-396,394	-164,673	-0,182	-0,006
-395,379	123,476	-0,053	0,048
-394,365	644,644	0,046	-0,087
-393,350	-27,563	0,053	-0,022
-392,336	8,487	0,087	0,048
-391,321	359,579	0,009	-0,013
-390,306	-28,406	-0,055	0,023
-389,292	13,543	-0,074	0,042
-388,277	800,000	-0,040	-0,106
-387,263	-200,000	-0,007	-0,098
-386,248	-200,000	0,012	0,193
-385,233	31,424	0,181	0,114
-384,219	-4,408	0,019	0,009
-383,204	29,500	-0,103	-0,064
-382,190	-200,000	-0,027	-0,129
-381,175	17,454	0,089	-0,052
-380,160	-200,000	0,006	0,057
-379,146	225,748	-0,049	-0,059
-378,131	82,054	0,103	0,082
-377,117	-200,000	0,014	0,062
-376,102	-40,394	-0,056	0,021
-375,088	-200,000	-0,027	-0,181
-374,073	800,000	0,011	0,033
-373,058	-173,902	-0,081	0,002
-372,044	576,505	0,015	0,027
-371,029	-200,000	0,028	-0,140
-370,015	661,326	-0,031	0,058
-369,000	543,926	-0,033	-0,058
-367,985	111,489	-0,038	-0,034
-366,971	-173,717	-0,166	0,004
-365,956	-125,449	0,072	-0,008
-364,942	-200,000	0,018	0,115
-363,927	106,549	0,112	0,098
-362,912	255,484	0,065	0,082
-361,898	-149,801	-0,025	0,001
-360,883	360,754	-0,054	-0,080
-359,869	693,824	-0,054	-0,105
-358,854	-152,880	0,106	0,005
-357,839	-1,735	-0,036	-0,019
-356,825	531,690	0,060	0,105
-355,810	-83,314	-0,037	0,009
-354,796	-200,000	0,001	0,096
-353,781	88,703	-0,161	0,131
-352,766	800,000	0,026	0,061
-351,752	44,058	0,057	0,038
-350,737	-80,967	0,071	-0,017
-349,723	231,323	0,108	0,130
-348,708	-200,000	0,029	0,101
-347,693	55,740	0,046	-0,032
-346,679	-200,000	-0,146	-0,000
-345,664	800,000	-0,019	-0,041
-344,650	179,577	0,008	-0,008
-343,635	-200,000	0,004	-0,026
-342,620	-200,000	0,016	-0,063
-341,606	-70,966	0,132	0,036
-340,591	709,532	-0,048	0,094
-339,577	186,887	-0,017	-0,019
-338,562	62,621	0,008	-0,006
-337,548	800,000	-0,034	-0,107
-336,533	800,000	-0,047	0,129
-335,518	-62,672	-0,053	-0,016
-334,504	-47,495	0,147	0,052
-333,489	-49,666	-0,077	0,027
-332,475	-200,000	-0,041	-0,168
-331,460	213,484	0,042	-0,049
-330,445	-56,709	0,070	-0,023
-329,431	66,239	0,061	-0,046
-328,416	129,851	0,062	0,058
-327,402	-200,000	-0,009	0,070
-326,387	289,829	0,070	0,094
-325,372	-200,000	-0,002	0,041
-324,358	800,000	-0,040	0,124
-323,343	159,412	0,108	0,110
-322,329	279,830	-0,049	-0,064
-321,314	317,271	-0,041	-0,056
-320,299	73,017	0,124	-0,095
-319,285	-13,275	0,037	-0,018
-318,270	-200,000	0,001	0,058
-317,256	-104,321	0,031	-0,005
-316,241	800,000	-0,021	0,060
-315,226	133,726	0,062	0,059
-314,212	-7,035	-0,025	-0,012
-313,197	-5,127	0,135	0,068
-312,183	610,360	0,005	0,009
-311,168	-180,109	-0,015	0,000
-310,153	-200,000	-0,008	-0,048
-309,139	566,663	0,023	-0,041
-308,124	616,775	0,005	-0,008
-307,110	-58,447	0,094	-0,030
-306,095	-75,213	-0,102	-0,026
-305,080	-200,000	-0,010	0,142
-304,066	-157,124	-0,054	-0,002
-303,051	-92,910	-0,113	0,023
-302,037	159,861	-0,111	-0,113
-301,022	148,599	-0,131	-0,130
-300,008	-200,000	-0,003	0,187
-298,993	56,867	-0,097	0,069
-297,978	-200,000	-0,028	0,189
-296,964	310,030	-0,025	0,035
-295,949	1,940	-0,018	-0,010
-294,935	7,482	-0,153	-0,084
-293,920	-200,000	-0,016	-0,083
-292,905	328,084	0,073	0,103
-291,891	-200,000	0,035	0,150
-290,876	-154,121	0,020	0,001
-289,862	-112,794	-0,168	0,024
-288,847	-200,000	-0,025	0,108
-287,832	24,713	-0,042	-0,026
-286,818	28,786	-0,133	-0,082
-285,803	178,863	-0,035	0,037
-284,789	162,765	-0,107	0,110
-283,774	191,377	0,069	-0,076
-282,759	-200,000	-0,018	-0,240
-281,745	142,665	-0,043	-0,042
-280,730	-128,845	-0,058	-0,006
-279,716	10,550	0,127	0,071
-278,701	223,668	0,042	-0,050
-277,686	218,605	0,092	0,108
-276,672	-90,023	-0,039	-0,008
-275,657	-200,000	0,009	0,155
-274,643	800,000	0,024	-0,072
-273,628	-62,982	0,128	0,038
-272,613	117,937	-0,070	-0,063
-271,599	-200,000	0,006	0,033
-270,584	-200,000	-0,003	-0,044
-269,570	-200,000	-0,003	0,022
-268,555	204,218	0,105	0,120
-267,540	493,660	-0,035	0,058
-266,526	-64,926	0,056	0,016
-265,511	-173,665	-0,030	0,001
-264,497	219,065	-0,103	0,121
-263,482	401,021	0,050	0,076
-262,467	272,605	0,048	0,062
-261,453	800,000	-0,043	0,098
-260,438	-146,436	0,069	-0,004
-259,424	-200,000	0,000	-0,190
-258,409	-200,000	-0,020	0,064
-257,395	-127,509	0,209	0,022
-256,380	43,063	0,064	-0,042
-255,365	59,859	0,027	0,019
-254,351	69,262	-0,023	0,017
-253,336	174,141	-0,078	0,082
-252,322	-105,046	-0,087	0,014
-251,307	-5,313	0,118	-0,059
-250,292	65,878	-0,035	0,026
-249,278	-98,321	0,139	0,026
-248,263	800,000	-0,049	-0,103
-247,249	612,838	-0,039	-0,072
-246,234	156,428	0,037	0,037
-245,219	800,000	0,036	-0,095
-244,205	-43,175	-0,162	0,060
-243,190	204,123	0,056	0,064
-242,176	-200,000	0,035	-0,120
-241,161	-60,882	0,047	-0,014
-240,146	404,279	-0,040	0,061
-239,132	429,374	-0,037	-0,059
-238,117	35,766	-0,046	0,030
-237,103	-36,186	0,025	-0,010
-236,088	-200,000	0,019	0,079
-235,073	160,912	0,048	0,049
-234,059	-200,000	-0,020	0,074
-233,044	3,635	0,049	0,026
-232,030	85,621	0,045	-0,036
-231,015	-200,000	-0,008	-0,157
-230,000	800,000	-0,052	-0,140
-228,986	636,078	0,076	-0,141
-227,971	-200,000	-0,000	-0,051
-226,957	-111,447	-0,145	-0,021
-225,942	800,000	-0,046	-0,132
-224,927	800,000	-0,034	0,075
-223,913	96,178	0,078	-0,065
-222,898	28,930	-0,102	0,063
-221,884	-200,000	0,003	-0,156
-220,869	-200,000	0,012	0,127
-219,855	379,586	0,030	-0,045
-218,840	-32,256	0,126	0,051
-217,825	-200,000	-0,020	-0,144
-216,811	85,088	-0,173	-0,138
-215,796	111,451	-0,028	0,024
-214,782	-104,082	0,135	0,023
-213,767	-200,000	-0,049	-0,165
-212,752	647,403	-0,024	0,045
-211,738	800,000	-0,051	0,111
-210,723	800,000	0,042	-0,121
-209,709	21,657	0,051	-0,030
-208,694	245,349	0,040	-0,049
-207,679	800,000	-0,035	0,074
-206,665	800,000	-0,016	0,045
-205,650	-79,500	0,060	-0,015
-204,636	800,000	0,015	0,032
-203,621	-33,389	0,019	0,007
-202,606	-68,709	0,066	0,018
-201,592	-200,000	0,001	0,014
-200,577	28,136	-0,130	-0,080
-199,563	169,396	-0,075	-0,078
-198,548	-10,050	0,111	-0,054
-197,533	-200,000	0,128	0,000
-196,519	570,065	0,047	0,085
-195,504	-200,000	-0,013	0,095
-194,490	-200,000	0,004	0,031
-193,475	8,939	-0,084	0,046
-192,460	800,000	0,034	0,081
-191,446	413,942	-0,031	0,049
-190,431	108,378	-0,059	0,051
-189,417	548,878	0,034	0,059
-188,402	19,509	0,106	-0,062
-187,387	800,000	-0,019	-0,060
-186,373	9,284	0,035	-0,019
-185,358	-27,008	-0,082	-0,035
-184,344	145,404	0,062	-0,060
-183,329	5,843	-0,058	-0,031
-182,315	-57,372	0,037	-0,012
-181,300	-55,558	-0,089	-0,029
-180,285	339,692	-0,067	-0,095
-179,271	-200,000	0,008	-0,062
-178,256	355,359	-0,071	-0,103
-177,242	205,624	0,089	0,101
-176,227	-200,000	-0,008	-0,146
-175,212	-25,545	0,169	0,072
-174,198	-45,947	0,097	-0,035
-173,183	220,302	-0,068	-0,079
-172,169	-57,304	0,076	0,024
-171,154	169,595	0,050	0,052
-170,139	800,000	0,048	0,131
-169,125	142,567	0,037	0,035
-168,110	-200,000	-0,009	0,081
-167,096	-131,388	0,062	-0,006
-166,081	-107,822	0,062	-0,010
-165,066	-200,000	-0,004	-0,081
-164,052	800,000	0,058	0,129
-163,037	61,171	0,089	-0,065
-162,023	238,026	0,083	-0,100
-161,008	-62,614	-0,065	-0,020
-159,993	13,585	-0,073	-0,041
-158,979	-27,893	0,080	-0,034
-157,964	-80,346	-0,068	-0,016
-156,950	-200,000	-0,007	-0,101
-155,935	-12,776	0,038	-0,018
-154,920	800,000	-0,054	0,132
-153,906	10,869	0,076	0,042
-152,891	-200,000	0,008	0,057
-151,877	-22,899	-0,130	-0,057
-150,862	237,974	-0,007	-0,009
-149,847	627,973	0,017	0,032
-148,833	800,000	-0,014	0,033
-147,818	800,000	-0,006	0,013
-146,804	-107,595	0,023	-0,004
-145,789	-200,000	-0,048	-0,163
-144,775	-200,000	0,008	0,094
-143,760	-131,996	0,070	0,007
-142,745	79,635	-0,092	-0,072
-141,731	-200,000	-0,017	-0,067
-140,716	-200,000	0,013	0,076
-139,702	800,000	-0,079	0,205
-138,687	154,678	0,069	-0,069
-137,672	800,000	-0,001	0,003
-136,658	-49,372	-0,125	0,043
-135,643	6,220	0,013	0,007
-134,629	-200,000	0,006	-0,043
-133,614	800,000	-0,026	0,055
-132,599	446,577	-0,035	0,057
-131,585	-200,000	0,003	-0,019
-130,570	222,979	-0,027	-0,031
-129,556	24,362	0,066	0,040
-128,541	4,038	-0,040	0,021
-127,526	9,391	0,078	0,043
-126,512	194,310	-0,012	-0,013
-125,497	800,000	0,017	0,039
-124,483	739,678	0,025	0,049
-123,468	-200,000	0,012	-0,044
-122,453	-200,000	0,005	-0,068
-121,439	800,000	-0,026	-0,071
-120,424	240,318	-0,065	0,079
-119,410	-200,000	0,000	0,100
-118,395	-127,896	-0,043	0,004
