DTS Sentinel unit serial number:	SN410029Multiplexer serial number:	ORYXHardware model number:	OX2-SRSoftware version number:	ORYX F/W v4,00 Oryx Data Collector v3.7.2.0data status	okinstallation	B6 Nyhavnadifferential loss correction	single-endedforward channel	channel 2reverse channel	N/Adate	2023/12/08time	17:35:08forward acquisition time	300,00reverse acquisition time	0,00gamma	499,1914k internal	0,3159k external	0,3159temperature offset calibration	1,0000default loss term (dB/km)	0,3820temperature slope calibration	1,0000multiplexer offset coefficient	1,0000multiplexer slope coefficient	1,0000fibre end	0,00T internal ref (°C)	15,18T ext. ref 1 (°C)	-1,32T ext. ref 2 (°C)	-1,31length (m)	temperature (°C)	Stokes	anti-Stokes-744,400	24,340	-0,102	0,062
-743,385	-7,107	-0,219	0,109
-742,371	-125,601	0,050	0,005
-741,356	4,488	-0,276	0,149
-740,342	48,566	0,114	0,079
-739,327	-151,866	-0,309	0,016
-738,312	-180,857	0,198	0,003
-737,298	28,332	-0,345	-0,214
-736,283	-200,000	0,026	-0,159
-735,269	-123,457	-0,254	-0,029
-734,254	800,000	0,020	0,054
-733,239	31,074	-0,399	-0,252
-732,225	-147,933	0,228	-0,014
-731,210	262,345	-0,049	0,063
-730,196	306,452	0,066	-0,091
-729,181	-125,499	0,097	0,011
-728,167	-61,237	-0,065	-0,020
-727,152	800,000	0,044	-0,113
-726,137	-78,717	-0,081	-0,020
-725,123	800,000	-0,034	0,095
-724,108	-200,000	-0,003	-0,168
-723,094	-200,000	-0,034	-0,168
-722,079	-200,000	-0,012	-0,048
-721,064	328,591	-0,017	-0,024
-720,050	800,000	0,050	0,130
-719,035	54,974	-0,055	-0,039
-718,021	576,864	-0,020	-0,036
-717,006	314,918	-0,071	-0,099
-715,991	-200,000	0,035	-0,170
-714,977	-79,391	0,045	-0,011
-713,962	345,363	-0,061	0,089
-712,948	155,542	0,066	0,067
-711,933	-200,000	-0,016	0,075
-710,918	-80,589	-0,109	0,027
-709,904	-143,483	-0,109	0,008
-708,889	800,000	-0,053	-0,142
-707,875	284,413	-0,072	-0,096
-706,860	-200,000	-0,002	0,016
-705,845	-200,000	0,009	0,140
-704,831	-200,000	-0,004	0,067
-703,816	-200,000	-0,005	0,089
-702,802	131,808	0,041	0,039
-701,787	-200,000	0,003	-0,118
-700,772	-200,000	0,026	-0,124
-699,758	121,443	-0,022	-0,020
-698,743	-143,996	-0,066	0,005
-697,729	75,592	-0,056	0,044
-696,714	-121,974	-0,061	0,007
-695,699	-52,074	0,050	0,017
-694,685	7,852	-0,062	-0,034
-693,670	-187,690	-0,123	0,001
-692,656	-129,510	0,058	0,006
-691,641	83,692	0,089	-0,072
-690,627	-28,144	0,106	0,045
-689,612	293,326	-0,115	-0,155
-688,597	-200,000	-0,037	-0,121
-687,583	-52,195	0,064	-0,022
-686,568	322,362	0,073	-0,103
-685,554	106,666	0,049	-0,043
-684,539	-133,070	0,185	0,017
-683,524	-103,277	0,045	-0,008
-682,510	0,649	-0,090	0,047
-681,495	64,557	0,177	-0,131
-680,481	391,132	0,015	0,023
-679,466	-0,182	-0,028	-0,015
-678,451	65,895	-0,152	-0,114
-677,437	412,135	0,040	-0,062
-676,422	-114,710	-0,142	-0,020
-675,408	161,494	0,112	0,115
-674,393	53,353	-0,059	-0,041
-673,378	281,311	0,101	-0,134
-672,364	800,000	0,067	-0,213
-671,349	535,623	0,064	-0,113
-670,335	800,000	-0,046	0,117
-669,320	99,006	-0,095	0,080
-668,305	-186,886	-0,040	0,000
-667,291	-200,000	-0,031	-0,180
-666,276	800,000	-0,044	-0,116
-665,262	2,660	0,066	-0,035
-664,247	-21,360	-0,051	0,023
-663,232	3,133	0,055	-0,029
-662,218	-200,000	-0,004	-0,032
-661,203	52,620	-0,069	-0,048
-660,189	-19,276	-0,105	0,048
-659,174	-42,036	-0,033	-0,012
-658,159	-132,531	-0,177	-0,016
-657,145	84,980	0,051	-0,041
-656,130	72,620	-0,086	0,066
-655,116	442,781	0,023	-0,037
-654,101	800,000	-0,050	0,114
-653,086	-200,000	-0,013	0,105
-652,072	410,605	0,048	-0,075
-651,057	113,133	0,058	-0,052
-650,043	-91,629	0,061	0,013
-649,028	-200,000	-0,001	0,028
-648,014	91,133	-0,067	-0,055
-646,999	147,432	-0,163	-0,161
-645,984	-200,000	-0,024	-0,097
-644,970	308,146	0,011	0,015
-643,955	8,811	0,103	0,057
-642,941	268,311	-0,037	0,048
-641,926	22,409	-0,061	0,037
-640,911	800,000	0,027	0,069
-639,897	194,066	0,039	-0,044
-638,882	696,795	0,038	-0,073
-637,868	393,294	-0,061	-0,094
-636,853	-127,604	-0,109	0,011
-635,838	391,038	-0,074	-0,113
-634,824	33,191	-0,092	-0,058
-633,809	-90,968	-0,062	0,013
-632,795	-200,000	-0,005	-0,053
-631,780	800,000	0,054	0,112
-630,765	-4,222	0,034	-0,017
-629,751	164,530	0,047	-0,048
-628,736	-200,000	-0,006	-0,117
-627,722	663,517	-0,033	-0,062
-626,707	5,241	0,034	0,019
-625,692	95,293	0,017	-0,015
-624,678	-200,000	-0,005	-0,025
-623,663	-124,648	0,059	-0,007
-622,649	-101,894	-0,127	-0,022
-621,634	312,698	0,060	-0,083
-620,619	42,582	-0,064	0,043
-619,605	-72,605	0,065	0,017
-618,590	-13,433	-0,134	-0,063
-617,576	632,172	0,023	0,042
-616,561	-200,000	0,023	-0,099
-615,546	-51,554	-0,159	0,054
-614,532	268,276	-0,046	-0,059
-613,517	515,132	-0,053	0,091
-612,503	-200,000	0,004	0,121
-611,488	741,905	0,065	0,129
-610,474	-145,418	0,077	-0,005
-609,459	53,577	0,063	0,044
-608,444	800,000	-0,008	0,016
-607,430	-200,000	-0,009	-0,069
-606,415	800,000	-0,005	-0,016
-605,401	32,851	0,013	-0,008
-604,386	7,776	-0,080	-0,044
-603,371	-68,388	-0,014	-0,004
-602,357	-84,060	0,050	0,012
-601,342	-200,000	-0,002	-0,161
-600,328	-38,235	-0,148	-0,057
-599,313	203,760	-0,045	-0,052
-598,298	131,137	0,044	0,041
-597,284	800,000	0,019	-0,043
-596,269	-112,997	-0,081	-0,012
-595,255	-53,117	-0,025	-0,008
-594,240	-200,000	-0,004	-0,071
-593,225	-200,000	-0,001	-0,031
-592,211	-52,684	-0,043	-0,014
-591,196	-200,000	-0,002	0,127
-590,182	-200,000	0,003	-0,053
-589,167	-40,887	-0,115	-0,043
-588,152	71,710	0,065	-0,049
-587,138	-95,908	0,064	-0,012
-586,123	-200,000	-0,001	0,025
-585,109	-200,000	0,023	0,183
-584,094	510,710	-0,047	-0,081
-583,079	-200,000	-0,001	0,084
-582,065	287,595	0,056	0,075
-581,050	-171,124	0,235	0,006
-580,036	800,000	0,029	0,084
-579,021	11,967	-0,067	-0,038
-578,006	-139,800	0,071	-0,005
-576,992	-71,319	-0,088	-0,024
-575,977	-153,354	0,074	-0,004
-574,963	58,398	-0,028	0,020
-573,948	93,295	-0,035	-0,029
-572,934	-130,305	0,108	-0,011
-571,919	-200,000	-0,009	-0,037
-570,904	800,000	0,018	0,046
-569,890	-132,096	0,037	-0,003
-568,875	-67,070	0,166	0,048
-567,861	800,000	0,040	0,128
-566,846	22,367	0,077	0,046
-565,831	-22,478	-0,045	-0,020
-564,817	-200,000	0,001	-0,114
-563,802	302,407	-0,013	0,017
-562,788	800,000	-0,037	-0,104
-561,773	98,935	-0,039	0,033
-560,758	-200,000	0,000	0,052
-559,744	115,543	0,090	-0,081
-558,729	6,845	-0,146	0,080
-557,715	-148,337	0,054	0,003
-556,700	800,000	-0,043	-0,109
-555,685	193,588	-0,092	-0,102
-554,671	592,256	-0,039	0,071
-553,656	568,783	-0,053	0,094
-552,642	114,127	-0,006	-0,005
-551,627	-13,003	-0,048	-0,023
-550,612	-9,124	0,092	-0,045
-549,598	800,000	-0,046	-0,103
-548,583	-77,549	-0,087	-0,022
-547,569	800,000	-0,031	0,067
-546,554	-66,919	0,066	-0,019
-545,539	-200,000	-0,011	0,070
-544,525	23,521	0,097	-0,058
-543,510	-200,000	0,001	-0,172
-542,496	800,000	0,067	-0,185
-541,481	-116,746	-0,047	-0,006
-540,466	198,090	-0,026	0,029
-539,452	-66,548	0,115	0,033
-538,437	-200,000	0,027	0,113
-537,423	27,947	0,043	0,027
-536,408	-166,091	-0,189	-0,006
-535,393	800,000	-0,037	-0,108
-534,379	13,395	0,064	-0,036
-533,364	-200,000	-0,001	0,024
-532,350	800,000	-0,030	0,085
-531,335	-200,000	-0,001	-0,015
-530,321	800,000	-0,065	-0,151
-529,306	-117,017	0,067	-0,009
-528,291	44,237	-0,103	-0,069
-527,277	197,835	-0,108	-0,121
-526,262	13,461	0,077	-0,044
-525,248	-200,000	-0,012	-0,044
-524,233	-200,000	-0,001	-0,057
-523,218	119,645	-0,030	0,028
-522,204	167,411	0,019	0,019
-521,189	1,322	-0,081	-0,042
-520,175	338,746	0,031	0,044
-519,160	-90,463	-0,020	0,004
-518,145	39,856	0,047	0,031
-517,131	137,008	0,100	0,096
-516,116	186,391	-0,091	0,099
-515,102	397,898	0,047	0,073
-514,087	-114,374	0,118	0,016
-513,072	-138,200	-0,014	-0,001
-512,058	-200,000	-0,026	0,094
-511,043	-200,000	-0,015	0,055
-510,029	708,033	-0,001	0,001
-509,014	-114,300	0,115	0,016
-507,999	308,172	-0,099	-0,135
-506,985	210,864	0,060	0,069
-505,970	-172,569	-0,176	0,004
-504,956	800,000	0,027	0,072
-503,941	73,856	0,043	0,033
-502,926	249,513	-0,031	0,039
-501,912	-161,025	0,127	-0,005
-500,897	-59,824	0,030	-0,009
-499,883	-200,000	0,006	0,066
-498,868	-26,607	0,033	0,014
-497,853	-200,000	0,019	-0,073
-496,839	540,525	0,081	0,141
-495,824	-200,000	0,014	-0,079
-494,810	800,000	-0,028	-0,068
-493,795	67,045	-0,093	0,069
-492,781	112,832	0,036	-0,032
-491,766	-195,909	0,014	0,000
-490,751	560,148	0,047	-0,084
-489,737	25,373	-0,084	0,051
-488,722	97,825	-0,024	0,020
-487,708	-200,000	0,000	-0,027
-486,693	-131,072	-0,072	-0,007
-485,678	-129,893	0,055	0,005
-484,664	-90,216	-0,150	-0,032
-483,649	145,838	-0,039	-0,038
-482,635	173,831	-0,018	-0,018
-481,620	127,197	0,098	0,090
-480,605	-42,870	0,071	-0,026
-479,591	-98,709	-0,065	0,012
-478,576	-95,040	0,018	0,003
-477,562	800,000	-0,060	0,133
-476,547	-200,000	0,031	-0,124
-475,532	-66,377	0,060	0,017
-474,518	800,000	0,033	-0,083
-473,503	274,154	-0,097	0,126
-472,489	372,304	-0,041	0,061
-471,474	-200,000	-0,006	-0,050
-470,459	325,664	-0,030	-0,042
-469,445	-162,911	-0,097	-0,003
-468,430	-31,637	-0,040	0,016
-467,416	161,322	0,071	-0,073
-466,401	-178,746	0,051	0,001
-465,386	800,000	-0,056	-0,116
-464,372	320,190	0,044	0,062
-463,357	-44,471	-0,088	0,032
-462,343	800,000	-0,031	0,071
-461,328	-65,950	0,056	0,016
-460,313	-82,501	-0,077	-0,018
-459,299	-71,883	0,170	-0,046
-458,284	-200,000	0,025	0,119
-457,270	353,894	0,051	0,074
-456,255	80,901	-0,095	0,074
-455,241	-200,000	-0,016	-0,144
-454,226	-0,716	0,040	0,020
-453,211	-200,000	0,009	0,040
-452,197	-200,000	-0,009	0,075
-451,182	-200,000	-0,032	0,132
-450,168	279,193	0,073	-0,095
-449,153	-52,337	0,104	0,035
-448,138	-139,256	-0,050	0,004
-447,124	743,606	-0,023	-0,046
-446,109	-43,195	-0,064	0,024
-445,095	-9,213	0,063	-0,031
-444,080	212,965	0,092	-0,106
-443,065	388,144	-0,051	0,078
-442,051	-200,000	0,001	-0,023
-441,036	10,420	-0,016	-0,009
-440,022	800,000	-0,024	-0,058
-439,007	-200,000	0,013	0,081
-437,992	800,000	-0,035	0,078
-436,978	1,317	0,061	0,032
-435,963	-55,450	0,131	-0,043
-434,949	62,765	-0,075	-0,055
-433,934	-43,487	-0,016	0,006
-432,919	-13,815	-0,144	-0,067
-431,905	126,706	0,048	-0,044
-430,890	800,000	0,058	-0,123
-429,876	-200,000	-0,042	0,190
-428,861	229,318	-0,090	0,107
-427,846	569,247	-0,027	-0,048
-426,832	-125,135	-0,207	0,023
-425,817	177,096	-0,066	-0,070
-424,803	-200,000	-0,013	-0,076
-423,788	192,193	-0,048	-0,052
-422,773	110,571	0,079	0,069
-421,759	-200,000	0,002	-0,097
-420,744	141,831	0,122	-0,118
-419,730	800,000	-0,069	-0,150
-418,715	-89,137	-0,088	-0,019
-417,701	800,000	-0,059	0,140
-416,686	157,248	0,100	0,100
-415,671	-200,000	0,006	0,091
-414,657	-200,000	-0,024	0,093
-413,642	-75,097	-0,102	0,026
-412,628	800,000	0,016	0,038
-411,613	701,565	0,036	-0,069
-410,598	-109,322	-0,070	-0,011
-409,584	-200,000	-0,001	-0,037
-408,569	79,938	-0,027	-0,021
-407,555	494,360	-0,043	0,073
-406,540	-200,000	0,040	0,189
-405,525	-43,579	-0,145	0,053
-404,511	95,030	-0,023	-0,019
-403,496	800,000	0,058	0,164
-402,482	-42,725	-0,049	-0,018
-401,467	-200,000	0,034	0,123
-400,452	-94,209	0,107	0,021
-399,438	716,161	-0,021	0,041
-398,423	25,090	0,008	-0,005
-397,409	-200,000	-0,002	-0,029
-396,394	109,857	0,106	-0,092
-395,379	-200,000	0,030	-0,182
-394,365	146,043	0,016	-0,016
-393,350	-200,000	0,044	0,158
-392,336	16,757	-0,052	0,030
-391,321	-197,901	0,147	0,001
-390,306	-42,529	-0,125	0,046
-389,292	83,896	0,056	0,045
-388,277	800,000	0,032	-0,099
-387,263	-11,495	0,168	0,080
-386,248	-12,587	0,097	0,046
-385,233	-13,460	-0,092	0,043
-384,219	-200,000	-0,012	0,085
-383,204	-134,825	-0,087	-0,008
-382,190	32,230	0,032	0,020
-381,175	-200,000	0,015	-0,055
-380,160	129,929	-0,104	0,096
-379,146	81,469	0,064	0,050
-378,131	-50,301	-0,075	-0,026
-377,117	44,767	-0,026	0,017
-376,102	800,000	-0,024	0,053
-375,088	-81,840	0,074	0,018
-374,073	800,000	0,035	-0,092
-373,058	-200,000	-0,019	0,129
-372,044	-5,707	0,044	-0,022
-371,029	-37,545	0,056	-0,022
-370,015	-166,834	-0,056	-0,002
-369,000	-82,652	-0,109	-0,026
-367,985	800,000	-0,026	0,061
-366,971	-200,000	-0,003	-0,075
-365,956	282,986	0,088	0,114
-364,942	-52,773	0,060	-0,020
-363,927	87,285	-0,113	-0,090
-362,912	-200,000	0,010	-0,045
-361,898	788,493	-0,041	-0,082
-360,883	-69,522	-0,172	0,047
-359,869	-36,979	-0,040	0,016
-358,854	207,671	0,050	0,056
-357,839	93,007	0,078	0,064
-356,825	-85,412	-0,117	-0,026
-355,810	-150,664	-0,037	0,002
-354,796	-36,314	-0,083	-0,032
-353,781	-200,000	0,031	-0,134
-352,766	-6,361	0,025	-0,012
-351,752	-60,278	-0,149	-0,046
-350,737	74,434	0,145	-0,111
-349,723	290,633	0,084	0,111
-348,708	-200,000	-0,011	-0,037
-347,693	151,919	0,036	0,035
-346,679	211,929	-0,095	-0,109
-345,664	-123,257	-0,037	-0,004
-344,650	-134,603	-0,111	0,010
-343,635	169,587	0,024	-0,025
-342,620	299,140	0,028	-0,038
-341,606	-184,498	0,069	-0,001
-340,591	800,000	-0,036	-0,086
-339,577	203,100	-0,044	-0,050
-338,562	-200,000	0,004	-0,031
-337,548	282,992	-0,050	-0,066
-336,533	-13,936	-0,036	-0,017
-335,518	-200,000	0,020	0,189
-334,504	-73,772	0,092	0,024
-333,489	-200,000	0,009	0,077
-332,475	102,002	0,041	-0,035
-331,460	800,000	-0,034	-0,088
-330,445	271,408	-0,085	-0,108
-329,431	300,161	0,042	-0,056
-328,416	255,414	0,088	-0,109
-327,402	47,010	0,137	0,092
-326,387	341,094	-0,049	0,069
-325,372	-200,000	0,007	-0,080
-324,358	-48,341	-0,170	0,059
-323,343	3,548	0,033	-0,018
-322,329	-200,000	0,019	-0,092
-321,314	-154,627	0,030	-0,001
-320,299	167,904	-0,065	0,067
-319,285	-74,693	-0,160	0,041
-318,270	-93,150	0,150	0,030
-317,256	-32,268	-0,094	-0,038
-316,241	800,000	0,075	-0,172
-315,226	800,000	0,047	0,148
-314,212	-184,344	0,175	0,002
-313,197	362,230	-0,029	-0,043
-312,183	184,712	0,138	0,148
-311,168	-33,414	-0,086	0,034
-310,153	-200,000	0,003	-0,028
-309,139	424,767	0,098	-0,153
-308,124	265,692	-0,064	-0,081
-307,110	800,000	0,042	0,104
-306,095	-200,000	0,001	-0,072
-305,080	302,527	-0,077	-0,104
-304,066	800,000	-0,091	0,213
-303,051	-120,589	-0,068	0,008
-302,037	283,664	-0,058	0,075
-301,022	422,179	-0,023	0,035
-300,008	-91,055	0,129	0,027
-298,993	800,000	0,031	0,065
-297,978	177,052	0,018	0,019
-296,964	95,940	0,067	-0,055
-295,949	-126,629	0,081	0,009
-294,935	-57,036	0,025	0,008
-293,920	379,543	-0,040	-0,059
-292,905	152,131	0,050	0,049
-291,891	-200,000	-0,034	0,132
-290,876	-88,729	0,080	-0,017
-289,862	495,587	0,021	-0,035
-288,847	491,725	0,027	0,045
-287,832	-200,000	-0,006	0,090
-286,818	-92,373	-0,067	0,014
-285,803	-29,213	0,063	0,026
-284,789	-118,836	-0,105	0,013
-283,774	34,521	0,151	0,095
-282,759	117,886	-0,113	0,101
-281,745	104,008	-0,022	0,019
-280,730	126,105	0,075	-0,068
-279,716	10,884	-0,058	0,032
-278,701	800,000	0,063	-0,128
-277,686	800,000	0,066	0,153
-276,672	-142,613	0,100	-0,007
-275,657	-200,000	-0,018	0,160
-274,643	-200,000	-0,014	-0,132
-273,628	-200,000	0,004	-0,104
-272,613	199,547	0,110	0,123
-271,599	162,511	0,084	0,085
-270,584	-200,000	-0,004	-0,132
-269,570	481,476	0,101	-0,167
-268,555	0,852	0,109	0,056
-267,540	800,000	0,026	-0,067
-266,526	-151,988	-0,128	-0,007
-265,511	-200,000	0,017	-0,070
-264,497	-200,000	0,002	-0,024
-263,482	65,006	0,103	0,075
-262,467	800,000	-0,024	0,066
-261,453	-200,000	0,012	-0,058
-260,438	-6,004	-0,065	0,032
-259,424	124,934	0,017	0,015
-258,409	-200,000	-0,009	-0,040
-257,395	83,448	-0,031	0,024
-256,380	550,824	-0,032	0,056
-255,365	369,173	0,114	0,167
-254,351	796,210	-0,039	0,077
-253,336	202,255	-0,103	-0,115
-252,322	528,087	0,027	-0,047
-251,307	390,419	0,035	0,052
-250,292	-200,000	-0,017	0,000
-249,278	-148,358	-0,071	-0,004
-248,263	41,926	0,142	-0,093
-247,249	-88,278	-0,060	-0,013
-246,234	800,000	-0,027	-0,063
-245,219	21,159	0,114	0,067
-244,205	-74,006	-0,165	-0,043
-243,190	687,353	0,070	-0,132
-242,176	-103,041	0,202	-0,034
-241,161	-8,636	-0,068	-0,033
-240,146	87,377	0,088	-0,070
-239,132	-42,565	-0,077	0,028
-238,117	268,513	-0,021	0,027
-237,103	-200,000	0,006	-0,073
-236,088	-60,654	0,065	0,020
-235,073	800,000	0,051	0,152
-234,059	-74,785	-0,115	-0,030
-233,044	-13,102	-0,106	-0,049
-232,030	141,343	0,126	-0,120
-231,015	-200,000	-0,002	0,011
-230,000	800,000	0,017	0,052
-228,986	669,201	-0,084	0,158
-227,971	116,051	0,071	-0,062
-226,957	-200,000	-0,029	0,122
-225,942	127,342	0,126	0,116
-224,927	-54,074	0,087	0,028
-223,913	145,787	-0,016	-0,016
-222,898	185,697	0,085	-0,092
-221,884	-200,000	0,010	-0,187
-220,869	1,913	0,081	-0,042
-219,855	52,689	0,120	0,083
-218,840	51,995	0,026	-0,018
-217,825	-53,422	-0,102	0,033
-216,811	800,000	-0,024	-0,059
-215,796	-37,910	0,061	-0,023
-214,782	-200,000	-0,005	-0,083
-213,767	-93,665	0,143	0,028
-212,752	-200,000	0,013	0,060
-211,738	-200,000	-0,014	0,075
-210,723	106,949	0,100	-0,086
-209,709	800,000	-0,032	-0,090
-208,694	-200,000	0,002	-0,060
-207,679	44,587	-0,090	-0,060
-206,665	-200,000	-0,005	0,045
-205,650	800,000	-0,033	0,069
-204,636	-200,000	0,002	-0,038
-203,621	-29,050	-0,047	-0,019
-202,606	511,172	0,014	0,023
-201,592	-200,000	-0,016	-0,075
-200,577	800,000	0,060	0,121
-199,563	304,668	-0,038	0,051
-198,548	233,977	0,111	0,132
-197,533	275,047	0,052	0,067
-196,519	-36,277	-0,071	0,027
-195,504	294,781	-0,034	0,045
-194,490	62,684	-0,068	-0,049
-193,475	-14,655	-0,040	-0,019
-192,460	-84,627	-0,168	-0,038
-191,446	-72,286	-0,096	-0,025
-190,431	-169,840	0,088	0,002
-189,417	800,000	-0,030	0,081
-188,402	-51,360	-0,122	0,041
-187,387	170,634	0,063	0,065
-186,373	-200,000	-0,021	-0,130
-185,358	-155,011	-0,152	0,007
-184,344	528,903	-0,062	-0,107
-183,329	681,837	0,043	0,082
-182,315	-35,305	0,170	0,066
-181,300	96,621	0,035	-0,029
-180,285	170,985	-0,026	0,027
-179,271	145,456	0,029	0,028
-178,256	294,357	-0,035	0,047
-177,242	199,061	-0,031	-0,034
-176,227	800,000	0,028	-0,070
-175,212	38,276	0,077	0,050
-174,198	-130,077	-0,110	0,011
-173,183	119,208	-0,138	-0,123
-172,169	-68,389	0,104	-0,029
-171,154	-28,938	-0,069	-0,028
-170,139	-67,414	0,065	-0,018
-169,125	-50,295	0,101	0,034
-168,110	-200,000	0,008	0,034
-167,096	-200,000	0,011	-0,104
-166,081	-200,000	-0,044	-0,150
-165,066	800,000	-0,035	-0,091
-164,052	-84,533	0,020	0,005
-163,037	314,450	-0,064	0,087
-162,023	-32,661	-0,073	0,029
-161,008	-100,149	0,177	0,031
-159,993	-200,000	0,018	0,101
-158,979	-88,447	0,086	0,018
-157,964	78,017	0,074	0,057
-156,950	-130,281	-0,022	-0,002
-155,935	-200,000	-0,007	-0,074
-154,920	-200,000	-0,009	-0,081
-153,906	-200,000	0,018	0,126
-152,891	-200,000	-0,037	0,129
-151,877	161,345	-0,114	0,115
-150,862	-50,208	-0,079	-0,027
-149,847	189,502	0,171	-0,184
-148,833	-200,000	0,019	-0,107
-147,818	-200,000	-0,025	0,097
-146,804	-9,298	-0,022	-0,011
-145,789	5,333	-0,162	-0,086
-144,775	-200,000	-0,005	-0,171
-143,760	-7,439	-0,071	-0,035
-142,745	298,165	0,042	-0,055
-141,731	424,901	-0,054	0,083
-140,716	800,000	0,036	-0,078
-139,702	686,296	-0,018	-0,034
-138,687	-44,660	-0,123	-0,044
-137,672	49,123	0,072	0,049
-136,658	-81,738	-0,081	-0,019
-135,643	800,000	0,035	-0,096
-134,629	800,000	0,028	-0,088
-133,614	-18,819	-0,129	0,057
-132,599	149,795	0,084	-0,082
-131,585	-96,165	0,115	-0,022
-130,570	-125,280	0,077	-0,008
-129,556	-47,681	0,102	-0,036
-128,541	-36,027	-0,172	-0,066
-127,526	800,000	0,035	-0,108
-126,512	-200,000	-0,004	0,038
-125,497	-200,000	0,012	-0,044
-124,483	372,708	-0,043	0,063
-123,468	4,799	-0,126	-0,066
-122,453	-76,188	-0,076	-0,019
-121,439	-200,000	-0,003	0,054
-120,424	104,088	-0,114	-0,097
-119,410	471,781	0,076	0,124
