DTS Sentinel unit serial number:	SN410029Multiplexer serial number:	ORYXHardware model number:	OX2-SRSoftware version number:	ORYX F/W v4,00 Oryx Data Collector v3.7.2.0data status	okinstallation	B6 Nyhavnadifferential loss correction	single-endedforward channel	channel 2reverse channel	N/Adate	2023/12/11time	01:30:08forward acquisition time	300,00reverse acquisition time	0,00gamma	499,1914k internal	0,3122k external	0,3122temperature offset calibration	1,0000default loss term (dB/km)	0,3820temperature slope calibration	1,0000multiplexer offset coefficient	1,0000multiplexer slope coefficient	1,0000fibre end	0,00T internal ref (°C)	22,10T ext. ref 1 (°C)	5,36T ext. ref 2 (°C)	5,39length (m)	temperature (°C)	Stokes	anti-Stokes-744,400	233,951	0,075	-0,092
-743,385	119,935	-0,190	0,176
-742,371	-53,346	0,102	0,035
-741,356	-27,870	-0,031	-0,014
-740,342	-46,419	0,139	-0,051
-739,327	-148,200	-0,301	0,018
-738,312	-200,000	0,009	0,076
-737,298	-60,279	-0,233	0,074
-736,283	-200,000	0,062	0,000
-735,269	-159,814	-0,222	0,009
-734,254	-137,555	0,109	-0,009
-733,239	-71,668	-0,267	-0,074
-732,225	-78,593	0,060	-0,015
-731,210	-200,000	-0,005	-0,041
-730,196	197,831	0,001	0,002
-729,181	-30,412	-0,054	-0,023
-728,167	-200,000	0,017	-0,105
-727,152	800,000	0,021	-0,064
-726,137	-200,000	-0,031	-0,135
-725,123	-134,382	-0,096	-0,009
-724,108	495,117	-0,102	-0,174
-723,094	-158,798	-0,187	-0,008
-722,079	-200,000	0,003	0,031
-721,064	-200,000	-0,014	-0,062
-720,050	-82,468	-0,045	0,011
-719,035	83,587	-0,136	0,110
-718,021	-43,818	-0,053	0,020
-717,006	-191,566	-0,050	-0,000
-715,991	187,608	-0,113	0,126
-714,977	-200,000	-0,002	0,024
-713,962	-200,000	-0,004	0,019
-712,948	182,453	0,204	-0,224
-711,933	-34,058	0,157	0,064
-710,918	-99,116	-0,144	0,027
-709,904	49,338	-0,117	-0,082
-708,889	-136,899	-0,073	-0,006
-707,875	-11,689	0,059	-0,029
-706,860	60,767	0,103	-0,076
-705,845	72,652	-0,041	0,032
-704,831	-135,750	0,200	0,017
-703,816	-187,722	0,059	0,001
-702,802	-10,483	-0,070	0,035
-701,787	-106,929	-0,062	0,010
-700,772	-200,000	-0,009	0,034
-699,758	159,373	0,069	-0,071
-698,743	129,277	0,037	0,035
-697,729	223,216	0,051	0,061
-696,714	-69,773	-0,152	-0,043
-695,699	-136,290	0,044	0,004
-694,685	-27,566	-0,035	-0,015
-693,670	271,313	-0,086	-0,113
-692,656	-115,327	-0,143	0,020
-691,641	-200,000	0,016	-0,123
-690,627	148,703	-0,050	-0,051
-689,612	800,000	0,074	-0,178
-688,597	-200,000	-0,013	-0,064
-687,583	157,252	-0,066	-0,067
-686,568	232,957	-0,118	0,145
-685,554	-200,000	-0,001	0,137
-684,539	-111,683	0,075	-0,011
-683,524	121,592	-0,105	-0,098
-682,510	-89,064	-0,150	-0,033
-681,495	-200,000	-0,034	-0,143
-680,481	-62,156	0,101	-0,031
-679,466	-200,000	-0,010	0,104
-678,451	800,000	0,045	-0,139
-677,437	98,107	-0,084	0,072
-676,422	-69,494	0,027	0,008
-675,408	-21,073	0,029	0,013
-674,393	-200,000	0,015	0,079
-673,378	-129,148	-0,132	0,014
-672,364	15,392	0,087	0,051
-671,349	-131,880	0,008	0,001
-670,335	-19,075	-0,125	0,058
-669,320	-54,133	0,096	0,032
-668,305	-24,868	-0,193	0,085
-667,291	-200,000	-0,014	-0,087
-666,276	391,270	-0,018	-0,028
-665,262	24,176	-0,053	0,033
-664,247	302,286	-0,054	-0,074
-663,232	800,000	0,011	-0,033
-662,218	380,340	-0,099	0,151
-661,203	-55,667	-0,069	-0,023
-660,189	-19,031	-0,108	-0,050
-659,174	800,000	-0,076	-0,158
-658,159	-200,000	0,013	-0,110
-657,145	-200,000	-0,021	-0,091
-656,130	59,241	0,131	0,096
-655,116	-51,890	0,084	0,029
-654,101	558,160	0,046	-0,082
-653,086	-200,000	-0,022	-0,120
-652,072	-200,000	-0,021	-0,082
-651,057	-90,742	-0,083	-0,018
-650,043	122,663	0,121	0,112
-649,028	565,204	0,054	-0,098
-648,014	89,532	0,066	-0,055
-646,999	635,075	0,072	-0,136
-645,984	175,363	-0,078	0,084
-644,970	66,640	-0,166	-0,126
-643,955	-108,347	-0,043	-0,007
-642,941	-16,002	-0,050	-0,023
-641,926	54,412	-0,046	0,033
-640,911	116,346	-0,077	0,070
-639,897	501,749	0,026	-0,044
-638,882	-200,000	0,013	-0,091
-637,868	740,151	-0,047	-0,094
-636,853	-110,091	-0,049	0,008
-635,838	158,224	-0,046	-0,047
-634,824	-0,847	-0,040	0,021
-633,809	701,765	-0,047	-0,093
-632,795	-61,517	-0,119	-0,037
-631,780	32,258	0,023	0,015
-630,765	560,951	-0,068	0,122
-629,751	-86,313	0,159	-0,036
-628,736	-200,000	-0,002	-0,070
-627,722	-200,000	-0,031	0,165
-626,707	-200,000	-0,013	0,075
-625,692	-52,115	-0,033	0,011
-624,678	29,946	0,110	0,070
-623,663	-200,000	0,005	0,072
-622,649	800,000	-0,023	0,069
-621,634	-41,868	-0,141	0,054
-620,619	-6,729	0,069	-0,035
-619,605	360,676	0,041	-0,061
-618,590	800,000	-0,035	0,098
-617,576	245,005	-0,056	0,070
-616,561	-200,000	0,015	-0,048
-615,546	-53,674	-0,056	-0,019
-614,532	-35,621	-0,074	-0,030
-613,517	-200,000	0,001	0,033
-612,503	9,763	-0,016	-0,009
-611,488	508,058	0,036	0,063
-610,474	-155,563	-0,110	-0,005
-609,459	82,700	-0,082	0,066
-608,444	800,000	-0,012	0,031
-607,430	7,640	-0,064	-0,035
-606,415	-41,325	-0,105	-0,040
-605,401	800,000	0,014	0,034
-604,386	-44,216	0,109	0,040
-603,371	-200,000	-0,034	0,126
-602,357	548,275	-0,004	-0,006
-601,342	760,446	-0,064	0,128
-600,328	-23,311	-0,131	-0,058
-599,313	-200,000	0,002	-0,100
-598,298	411,285	-0,025	0,040
-597,284	311,095	-0,063	-0,088
-596,269	-200,000	0,006	0,131
-595,255	390,087	-0,088	-0,135
-594,240	288,200	-0,087	0,117
-593,225	800,000	0,088	-0,206
-592,211	-200,000	0,004	0,091
-591,196	201,757	0,037	-0,043
-590,182	129,678	0,080	-0,076
-589,167	186,974	0,046	-0,050
-588,152	157,294	-0,102	0,105
-587,138	-200,000	-0,031	-0,117
-586,123	-71,897	-0,073	-0,020
-585,109	124,235	-0,060	-0,056
-584,094	67,255	0,073	-0,055
-583,079	-200,000	-0,024	0,086
-582,065	-179,214	0,139	-0,002
-581,050	-200,000	0,032	0,118
-580,036	1,187	0,071	0,038
-579,021	800,000	-0,057	-0,166
-578,006	-200,000	0,018	-0,090
-576,992	-30,523	-0,022	-0,009
-575,977	-152,501	-0,054	0,003
-574,963	800,000	0,014	0,033
-573,948	18,003	-0,018	0,011
-572,934	-109,823	0,031	0,005
-571,919	800,000	-0,025	-0,051
-570,904	0,325	-0,024	0,012
-569,890	-96,397	0,087	-0,017
-568,875	54,857	0,086	0,061
-567,861	88,883	0,016	-0,013
-566,846	142,263	-0,155	-0,152
-565,831	-67,037	0,201	-0,058
-564,817	155,102	0,012	0,012
-563,802	-152,639	-0,156	0,008
-562,788	800,000	0,068	-0,142
-561,773	-200,000	-0,011	0,046
-560,758	800,000	-0,033	-0,096
-559,744	-126,458	0,109	0,012
-558,729	800,000	0,041	0,096
-557,715	-85,107	-0,097	-0,022
-556,700	800,000	-0,015	-0,039
-555,685	-115,084	-0,156	0,022
-554,671	-70,558	0,046	-0,013
-553,656	-120,405	0,087	0,011
-552,642	-200,000	0,011	0,098
-551,627	-200,000	0,014	-0,063
-550,612	93,624	-0,060	-0,050
-549,598	9,881	-0,036	0,020
-548,583	11,243	0,086	-0,049
-547,569	311,391	-0,056	0,078
-546,554	-150,679	-0,052	0,003
-545,539	606,028	0,082	-0,153
-544,525	-200,000	-0,009	0,056
-543,510	-74,823	-0,047	-0,012
-542,496	622,491	-0,031	-0,059
-541,481	800,000	0,036	-0,080
-540,466	-200,000	-0,005	-0,111
-539,452	-33,368	0,119	0,048
-538,437	-120,468	0,108	0,013
-537,423	121,228	0,050	0,046
-536,408	-200,000	0,008	0,078
-535,393	152,388	-0,075	-0,075
-534,379	32,779	0,032	-0,021
-533,364	-200,000	-0,001	0,099
-532,350	57,858	-0,059	0,043
-531,335	79,369	-0,056	0,045
-530,321	800,000	-0,033	0,101
-529,306	44,917	0,066	0,045
-528,291	263,827	-0,077	-0,099
-527,277	-200,000	-0,015	0,060
-526,262	-116,842	0,116	0,016
-525,248	-200,000	-0,009	0,035
-524,233	-134,230	0,050	-0,004
-523,218	-200,000	0,009	0,139
-522,204	-200,000	-0,022	-0,113
-521,189	79,734	0,061	-0,048
-520,175	-136,548	-0,026	0,002
-519,160	737,060	-0,083	0,166
-518,145	800,000	0,051	0,139
-517,131	-200,000	0,022	-0,092
-516,116	-200,000	-0,016	-0,060
-515,102	-45,392	0,091	0,033
-514,087	-200,000	0,014	-0,090
-513,072	-112,410	-0,117	0,017
-512,058	800,000	-0,023	0,055
-511,043	106,600	-0,113	-0,099
-510,029	155,422	0,083	-0,085
-509,014	800,000	0,021	-0,058
-507,999	-200,000	-0,024	0,103
-506,985	-44,421	-0,122	0,045
-505,970	800,000	0,051	-0,139
-504,956	184,254	0,067	-0,074
-503,941	-97,216	0,071	0,014
-502,926	-144,563	0,106	0,007
-501,912	145,207	-0,067	0,066
-500,897	5,093	0,126	-0,069
-499,883	-50,873	-0,096	-0,033
-498,868	126,944	-0,135	0,126
-497,853	65,893	0,084	0,063
-496,839	-34,859	0,019	0,008
-495,824	-31,717	0,140	-0,058
-494,810	-200,000	-0,045	-0,160
-493,795	800,000	0,057	-0,118
-492,781	-60,413	-0,054	0,017
-491,766	-45,638	-0,096	0,035
-490,751	449,868	-0,061	0,100
-489,737	585,499	0,042	0,076
-488,722	432,928	0,018	0,029
-487,708	800,000	0,083	0,200
-486,693	-200,000	0,009	0,066
-485,678	800,000	0,041	-0,109
-484,664	-108,957	0,025	0,004
-483,649	-104,106	-0,098	0,017
-482,635	-104,970	0,045	-0,008
-481,620	13,907	0,096	0,055
-480,605	-19,960	0,085	-0,039
-479,591	5,677	0,167	-0,091
-478,576	19,413	-0,053	-0,031
-477,562	800,000	-0,099	-0,270
-476,547	353,553	-0,012	0,018
-475,532	226,171	0,115	-0,138
-474,518	342,735	-0,107	-0,155
-473,503	800,000	-0,046	0,149
-472,489	166,289	0,023	0,024
-471,474	69,783	-0,058	-0,044
-470,459	800,000	0,042	-0,106
-469,445	345,538	-0,064	-0,092
-468,430	-65,411	-0,158	-0,047
-467,416	-161,041	0,058	-0,002
-466,401	-143,469	0,088	-0,006
-465,386	286,394	0,021	-0,028
-464,372	-200,000	0,005	0,022
-463,357	800,000	-0,050	-0,103
-462,343	-200,000	-0,039	-0,129
-461,328	143,492	-0,023	0,023
-460,313	-200,000	0,026	-0,144
-459,299	-175,211	0,107	0,002
-458,284	-55,137	-0,043	-0,014
-457,270	237,261	0,064	0,078
-456,255	443,750	0,054	-0,088
-455,241	-200,000	0,011	-0,162
-454,226	195,141	0,085	-0,095
-453,211	-33,232	-0,085	0,035
-452,197	159,808	0,060	-0,061
-451,182	157,281	0,209	0,214
-450,168	-200,000	0,008	0,109
-449,153	-200,000	0,004	-0,142
-448,138	-85,387	-0,023	-0,005
-447,124	-200,000	0,005	0,075
-446,109	-25,788	0,081	-0,035
-445,095	123,313	0,084	0,077
-444,080	37,578	-0,041	-0,027
-443,065	-48,117	0,133	-0,047
-442,051	-17,397	-0,120	0,055
-441,036	174,064	-0,089	-0,095
-440,022	10,400	-0,044	-0,024
-439,007	101,848	-0,040	0,034
-437,992	-200,000	-0,012	0,086
-436,978	800,000	0,015	0,044
-435,963	-37,936	-0,074	0,029
-434,949	-126,584	0,050	-0,005
-433,934	-200,000	0,007	-0,040
-432,919	-200,000	0,013	0,055
-431,905	56,562	0,078	-0,056
-430,890	-200,000	-0,018	-0,109
-429,876	-200,000	0,031	0,104
-428,861	-200,000	0,008	0,087
-427,846	205,144	-0,066	-0,076
-426,832	562,919	-0,046	0,083
-425,817	-200,000	0,018	-0,120
-424,803	-200,000	-0,012	-0,107
-423,788	-85,498	0,070	0,016
-422,773	-200,000	-0,017	0,092
-421,759	48,754	-0,066	0,045
-420,744	-38,641	-0,017	-0,006
-419,730	161,419	-0,069	0,071
-418,715	198,160	-0,066	-0,075
-417,701	-200,000	-0,002	-0,085
-416,686	-120,247	0,192	0,024
-415,671	-89,347	0,098	-0,021
-414,657	-0,785	-0,032	0,017
-413,642	497,475	0,062	-0,106
-412,628	36,852	-0,025	-0,016
-411,613	-200,000	0,020	-0,133
-410,598	-68,041	-0,256	0,073
-409,584	172,041	0,058	0,062
-408,569	600,395	0,039	-0,071
-407,555	-110,881	-0,042	0,006
-406,540	-75,962	0,170	0,044
-405,525	-200,000	-0,013	0,057
-404,511	-121,930	-0,124	-0,015
-403,496	-200,000	0,023	0,099
-402,482	6,548	0,140	0,077
-401,467	-200,000	-0,012	0,074
-400,452	-136,454	0,058	0,005
-399,438	88,206	0,069	0,056
-398,423	230,813	-0,050	0,060
-397,409	-200,000	0,019	-0,089
-396,394	331,792	-0,059	0,084
-395,379	-200,000	0,019	-0,143
-394,365	-200,000	-0,012	0,041
-393,350	-200,000	-0,004	0,069
-392,336	100,737	0,041	0,035
-391,321	800,000	0,032	-0,097
-390,306	-200,000	0,014	-0,064
-389,292	226,164	-0,010	-0,011
-388,277	-113,765	-0,038	0,005
-387,263	751,152	0,023	-0,047
-386,248	137,627	-0,058	0,056
-385,233	800,000	-0,038	0,118
-384,219	625,044	-0,045	0,084
-383,204	-75,064	-0,035	0,009
-382,190	-74,091	-0,064	0,017
-381,175	-200,000	0,003	0,027
-380,160	-52,228	0,184	0,062
-379,146	-155,795	0,060	-0,003
-378,131	135,806	0,082	-0,079
-377,117	-6,501	-0,066	-0,033
-376,102	-157,584	0,118	-0,005
-375,088	638,337	-0,046	0,087
-374,073	-56,067	-0,098	-0,032
-373,058	-200,000	0,003	0,062
-372,044	320,131	0,037	0,052
-371,029	40,100	0,129	0,085
-370,015	-10,124	0,170	-0,082
-369,000	800,000	-0,019	0,041
-367,985	-200,000	-0,043	-0,182
-366,971	-200,000	-0,012	0,077
-365,956	281,772	-0,030	-0,040
-364,942	-61,825	0,157	0,048
-363,927	251,335	0,077	0,096
-362,912	800,000	0,020	-0,055
-361,898	133,900	0,045	-0,043
-360,883	-89,400	-0,260	-0,056
-359,869	429,701	-0,042	0,067
-358,854	800,000	-0,036	-0,106
-357,839	800,000	0,026	0,081
-356,825	-200,000	0,059	0,195
-355,810	-200,000	0,003	0,110
-354,796	87,109	-0,079	0,064
-353,781	788,551	-0,060	-0,121
-352,766	51,974	-0,138	-0,096
-351,752	46,214	0,057	0,038
-350,737	800,000	-0,011	-0,023
-349,723	359,589	-0,038	0,056
-348,708	86,903	0,034	0,027
-347,693	-158,482	0,120	-0,005
-346,679	134,479	0,078	0,074
-345,664	245,026	0,032	-0,040
-344,650	-200,000	0,001	-0,067
-343,635	164,847	-0,018	0,019
-342,620	-200,000	-0,013	-0,106
-341,606	451,582	-0,044	0,072
-340,591	-46,937	0,108	0,039
-339,577	-131,481	0,125	-0,012
-338,562	-200,000	0,010	0,116
-337,548	800,000	-0,018	0,040
-336,533	-200,000	0,003	-0,022
-335,518	-127,091	-0,087	-0,009
-334,504	-91,968	0,045	0,009
-333,489	-124,862	0,120	0,013
-332,475	-200,000	0,010	0,065
-331,460	34,169	-0,044	0,028
-330,445	-200,000	0,007	0,120
-329,431	51,448	0,120	0,084
-328,416	-36,991	-0,008	-0,003
-327,402	-117,809	-0,088	-0,011
-326,387	-1,783	0,051	0,026
-325,372	-164,579	-0,062	0,002
-324,358	-69,126	-0,078	-0,022
-323,343	-200,000	-0,014	-0,054
-322,329	-8,945	-0,083	0,041
-321,314	668,576	0,075	0,144
-320,299	-200,000	-0,012	0,045
-319,285	-200,000	-0,018	0,085
-318,270	486,359	-0,019	0,032
-317,256	-100,961	-0,194	0,035
-316,241	168,900	0,027	0,028
-315,226	458,857	0,034	0,056
-314,212	800,000	-0,033	-0,092
-313,197	297,790	0,077	0,104
-312,183	800,000	-0,031	0,085
-311,168	-200,000	0,006	-0,089
-310,153	277,653	-0,104	-0,136
-309,139	-113,151	-0,012	-0,002
-308,124	64,069	0,079	-0,059
-307,110	93,622	-0,052	-0,043
-306,095	111,915	0,056	0,049
-305,080	-200,000	-0,019	0,070
-304,066	425,390	0,017	-0,028
-303,051	496,949	-0,063	-0,106
-302,037	-200,000	0,001	-0,064
-301,022	36,152	0,063	-0,041
-300,008	-125,827	0,150	0,016
-298,993	33,158	0,072	-0,046
-297,978	-115,513	0,159	0,022
-296,964	-159,394	0,147	0,006
-295,949	-21,718	0,089	-0,040
-294,935	-43,812	0,026	0,010
-293,920	-83,085	0,040	-0,009
-292,905	-200,000	-0,020	0,151
-291,891	800,000	0,054	0,158
-290,876	98,629	0,027	-0,023
-289,862	580,049	-0,084	-0,151
-288,847	-200,000	-0,010	-0,055
-287,832	-190,131	0,161	-0,001
-286,818	-121,708	0,112	-0,013
-285,803	208,435	-0,016	-0,018
-284,789	-200,000	-0,011	-0,109
-283,774	-148,579	0,130	-0,008
-282,759	-75,441	0,042	0,011
-281,745	-1,918	0,114	-0,058
-280,730	245,910	-0,113	-0,139
-279,716	800,000	-0,021	0,060
-278,701	-79,882	-0,009	-0,002
-277,686	-99,814	0,074	0,013
-276,672	-142,808	0,085	-0,006
-275,657	-148,803	0,007	-0,000
-274,643	-34,867	-0,037	0,015
-273,628	-102,223	0,105	-0,018
-272,613	6,187	-0,091	-0,049
-271,599	-200,000	-0,013	0,094
-270,584	407,977	0,080	0,124
-269,570	-23,786	-0,066	0,029
-268,555	-200,000	0,014	0,055
-267,540	622,886	-0,041	-0,076
-266,526	-63,682	-0,080	-0,024
-265,511	-200,000	0,032	0,139
-264,497	363,465	0,063	-0,093
-263,482	-103,679	-0,134	0,023
-262,467	800,000	-0,061	0,157
-261,453	-200,000	0,005	0,025
-260,438	-181,830	-0,153	-0,002
-259,424	109,939	-0,041	-0,036
-258,409	-39,453	-0,073	0,028
-257,395	18,024	0,103	0,060
-256,380	-200,000	0,002	-0,049
-255,365	127,375	0,105	0,098
-254,351	-60,964	0,144	-0,044
-253,336	-118,194	-0,149	-0,019
-252,322	-18,318	-0,139	-0,063
-251,307	538,105	-0,015	-0,027
-250,292	166,461	-0,107	0,111
-249,278	800,000	0,052	0,160
-248,263	40,459	0,133	0,087
-247,249	-200,000	0,021	-0,178
-246,234	-37,393	-0,032	-0,013
-245,219	-200,000	0,008	-0,178
-244,205	-79,359	-0,056	-0,014
-243,190	-128,433	0,047	-0,005
-242,176	-200,000	0,002	-0,054
-241,161	69,070	0,090	0,068
-240,146	-200,000	0,007	0,103
-239,132	-116,278	-0,099	0,013
-238,117	-27,374	-0,075	-0,032
-237,103	-13,608	-0,017	-0,008
-236,088	19,608	0,055	-0,032
-235,073	800,000	-0,036	0,096
-234,059	-200,000	-0,011	-0,056
-233,044	-200,000	-0,014	-0,146
-232,030	-200,000	-0,019	0,144
-231,015	143,983	-0,077	-0,075
-230,000	137,735	0,128	-0,122
-228,986	399,301	0,050	-0,076
-227,971	8,054	0,034	0,019
-226,957	800,000	0,008	0,020
-225,942	369,308	0,024	0,036
-224,927	-200,000	0,012	-0,096
-223,913	-10,793	-0,049	0,024
-222,898	-74,368	-0,131	-0,034
-221,884	-200,000	-0,028	0,115
-220,869	235,983	0,038	-0,046
-219,855	-200,000	-0,003	-0,035
-218,840	1,263	-0,126	0,066
-217,825	59,181	-0,049	0,035
-216,811	-200,000	-0,020	-0,082
-215,796	-200,000	-0,011	-0,055
-214,782	-200,000	0,022	0,091
-213,767	800,000	0,049	0,125
-212,752	52,781	0,061	-0,042
-211,738	158,103	-0,082	0,084
-210,723	-200,000	0,015	-0,059
-209,709	-52,825	-0,074	0,025
-208,694	-157,280	-0,058	0,003
-207,679	-139,806	-0,051	-0,004
-206,665	-90,387	0,110	0,023
-205,650	-200,000	-0,002	-0,007
-204,636	404,948	0,061	-0,095
-203,621	-179,069	-0,045	0,001
-202,606	800,000	-0,072	0,183
-201,592	-170,938	-0,117	-0,003
-200,577	48,927	-0,086	0,059
-199,563	595,661	-0,036	-0,065
-198,548	-200,000	-0,020	0,080
-197,533	13,054	0,028	-0,016
-196,519	3,124	0,008	-0,004
-195,504	-15,210	0,124	-0,058
-194,490	137,247	0,105	-0,100
-193,475	65,232	-0,149	0,110
-192,460	204,565	-0,059	-0,067
-191,446	545,927	-0,071	-0,124
-190,431	-81,870	-0,045	0,011
-189,417	279,249	0,027	0,036
-188,402	-200,000	-0,015	0,058
-187,387	-167,782	-0,148	0,004
-186,373	22,948	0,030	0,018
-185,358	800,000	0,017	0,039
-184,344	-8,302	-0,055	0,027
-183,329	-200,000	-0,001	0,005
-182,315	376,147	0,078	-0,117
-181,300	-18,328	0,049	-0,022
-180,285	85,428	-0,033	-0,027
-179,271	-36,396	-0,068	-0,026
-178,256	-200,000	0,011	-0,044
-177,242	800,000	0,028	-0,084
-176,227	-137,680	0,031	0,003
-175,212	319,602	-0,055	0,076
-174,198	-200,000	0,002	0,018
-173,183	800,000	0,053	-0,147
-172,169	800,000	0,020	-0,042
-171,154	18,665	0,015	0,009
-170,139	154,297	-0,020	-0,020
-169,125	-200,000	-0,002	-0,061
-168,110	87,765	-0,094	0,076
-167,096	-200,000	-0,022	0,074
-166,081	-64,165	-0,126	0,037
-165,066	-40,772	0,096	0,036
-164,052	-200,000	0,018	0,090
-163,037	-200,000	0,008	-0,078
-162,023	-200,000	0,006	0,051
-161,008	28,545	0,118	0,073
-159,993	800,000	-0,013	0,030
-158,979	184,551	-0,070	-0,076
-157,964	-200,000	0,013	-0,075
-156,950	245,837	-0,062	0,076
-155,935	178,422	0,087	0,093
-154,920	500,343	-0,053	0,090
-153,906	800,000	0,052	0,133
-152,891	-152,366	-0,080	-0,004
-151,877	359,340	-0,068	-0,100
-150,862	701,078	-0,024	-0,047
-149,847	800,000	-0,025	-0,057
-148,833	-200,000	-0,017	0,097
-147,818	181,621	0,017	0,019
-146,804	-28,774	0,069	-0,029
-145,789	52,840	0,155	-0,108
-144,775	509,969	0,025	0,042
-143,760	50,499	0,097	-0,067
-142,745	-120,008	-0,050	-0,006
-141,731	800,000	-0,032	0,094
-140,716	-200,000	0,004	0,224
-139,702	467,342	-0,040	0,065
-138,687	-200,000	-0,010	0,167
-137,672	-159,364	0,209	0,008
-136,658	800,000	-0,013	-0,027
-135,643	800,000	0,035	-0,082
-134,629	523,600	-0,061	0,104
-133,614	-67,414	0,034	-0,010
-132,599	800,000	0,014	0,033
-131,585	800,000	0,047	0,112
-130,570	-125,902	-0,018	-0,002
-129,556	250,776	-0,038	0,047
-128,541	2,893	0,050	-0,027
-127,526	301,640	-0,039	0,053
-126,512	161,858	0,075	0,077
-125,497	-178,199	0,066	0,001
-124,483	-200,000	-0,024	0,171
-123,468	262,080	0,186	0,236
-122,453	-70,077	0,056	-0,015
-121,439	68,916	-0,055	0,041
-120,424	174,557	0,078	-0,082
