DTS Sentinel unit serial number:	SN410029Multiplexer serial number:	ORYXHardware model number:	OX2-SRSoftware version number:	ORYX F/W v4,00 Oryx Data Collector v3.7.2.0data status	okinstallation	B6 Nyhavnadifferential loss correction	single-endedforward channel	channel 2reverse channel	N/Adate	2023/12/08time	11:10:08forward acquisition time	300,00reverse acquisition time	0,00gamma	499,1914k internal	0,3161k external	0,3161temperature offset calibration	1,0000default loss term (dB/km)	0,3820temperature slope calibration	1,0000multiplexer offset coefficient	1,0000multiplexer slope coefficient	1,0000fibre end	0,00T internal ref (°C)	14,83T ext. ref 1 (°C)	-1,40T ext. ref 2 (°C)	-1,39length (m)	temperature (°C)	Stokes	anti-Stokes-744,400	-53,135	0,187	0,063
-743,385	-200,000	-0,447	-0,001
-742,371	-76,226	0,114	0,029
-741,356	-130,940	-0,355	-0,034
-740,342	101,116	0,084	0,072
-739,327	-55,465	-0,447	-0,147
-738,312	-200,000	-0,005	-0,103
-737,298	-106,181	-0,239	-0,039
-736,283	423,628	0,088	0,139
-735,269	-124,800	-0,215	-0,024
-734,254	-13,973	0,165	0,078
-733,239	-120,801	-0,511	-0,063
-732,225	-148,314	0,158	-0,009
-731,210	107,304	-0,104	0,091
-730,196	800,000	-0,005	-0,012
-729,181	60,254	0,069	-0,050
-728,167	90,797	-0,120	-0,099
-727,152	-170,713	-0,019	-0,000
-726,137	-87,073	-0,174	-0,039
-725,123	-200,000	-0,013	-0,067
-724,108	-46,251	-0,077	-0,028
-723,094	94,456	-0,026	0,022
-722,079	186,765	-0,087	0,095
-721,064	692,040	-0,050	-0,097
-720,050	800,000	-0,011	0,023
-719,035	-88,774	0,066	-0,014
-718,021	-200,000	-0,005	0,017
-717,006	-200,000	0,019	-0,135
-715,991	444,485	-0,070	-0,113
-714,977	82,601	0,027	0,021
-713,962	84,733	0,065	-0,052
-712,948	-67,185	-0,069	0,020
-711,933	-95,795	-0,083	0,016
-710,918	47,096	0,059	0,040
-709,904	482,887	0,041	0,069
-708,889	49,350	-0,079	-0,054
-707,875	800,000	0,003	-0,006
-706,860	800,000	-0,038	-0,123
-705,845	800,000	0,039	-0,080
-704,831	-33,388	-0,019	-0,008
-703,816	800,000	0,010	0,030
-702,802	307,643	0,033	0,045
-701,787	-152,418	-0,081	0,004
-700,772	-129,186	-0,041	0,004
-699,758	-126,024	-0,105	0,011
-698,743	-200,000	0,010	0,036
-697,729	-200,000	0,006	0,040
-696,714	-200,000	0,030	0,116
-695,699	800,000	-0,022	-0,050
-694,685	-16,530	-0,069	-0,032
-693,670	-40,995	0,017	0,007
-692,656	-29,492	-0,090	-0,038
-691,641	448,316	0,092	0,149
-690,627	-200,000	-0,020	0,089
-689,612	-155,242	0,101	0,005
-688,597	113,149	-0,119	0,106
-687,583	228,418	-0,155	-0,186
-686,568	-129,616	0,079	0,008
-685,554	529,508	0,054	-0,094
-684,539	-200,000	0,006	0,092
-683,524	-106,449	-0,155	-0,025
-682,510	359,703	0,080	0,119
-681,495	-16,986	0,062	-0,029
-680,481	-80,287	-0,019	-0,005
-679,466	10,024	-0,105	0,058
-678,451	-200,000	0,011	0,120
-677,437	800,000	0,103	0,231
-676,422	-147,698	-0,059	-0,004
-675,408	121,306	-0,053	0,048
-674,393	350,837	-0,007	0,011
-673,378	0,292	0,013	0,007
-672,364	23,302	0,030	-0,018
-671,349	389,531	-0,025	-0,038
-670,335	-95,526	-0,044	-0,009
-669,320	-200,000	-0,006	-0,059
-668,305	127,600	0,095	0,088
-667,291	54,587	-0,094	-0,066
-666,276	-101,403	-0,135	0,024
-665,262	-92,364	-0,102	-0,021
-664,247	-200,000	-0,009	-0,034
-663,232	13,374	0,090	0,051
-662,218	-200,000	-0,003	-0,018
-661,203	-81,209	-0,073	0,018
-660,189	-200,000	0,009	0,151
-659,174	800,000	0,037	0,112
-658,159	134,925	-0,085	-0,081
-657,145	800,000	-0,034	0,099
-656,130	-154,368	0,160	0,008
-655,116	-181,543	0,109	0,002
-654,101	741,336	-0,010	0,020
-653,086	800,000	0,013	-0,036
-652,072	200,193	-0,060	-0,068
-651,057	-0,812	-0,040	0,021
-650,043	-200,000	-0,014	-0,124
-649,028	463,250	0,022	0,035
-648,014	189,047	0,019	0,021
-646,999	-157,663	0,015	-0,001
-645,984	800,000	0,028	-0,076
-644,970	104,624	-0,045	-0,039
-643,955	800,000	-0,043	-0,105
-642,941	-200,000	0,000	0,042
-641,926	-200,000	0,062	-0,000
-640,911	800,000	-0,057	-0,128
-639,897	800,000	-0,038	0,092
-638,882	102,038	-0,126	0,108
-637,868	93,965	0,041	-0,034
-636,853	400,609	-0,072	-0,111
-635,838	-124,242	0,030	0,003
-634,824	-200,000	-0,029	-0,111
-633,809	69,201	0,052	-0,039
-632,795	-3,575	0,109	0,056
-631,780	-200,000	-0,000	0,046
-630,765	3,795	-0,074	-0,040
-629,751	114,120	-0,107	-0,096
-628,736	56,473	-0,135	-0,096
-627,722	-200,000	0,043	-0,139
-626,707	-57,344	-0,007	0,002
-625,692	-15,813	0,047	0,022
-624,678	169,743	-0,032	0,034
-623,663	-200,000	-0,036	-0,170
-622,649	74,132	-0,035	0,027
-621,634	156,489	0,012	0,012
-620,619	281,415	-0,100	0,132
-619,605	-200,000	0,011	0,049
-618,590	-90,044	-0,094	0,020
-617,576	-200,000	0,017	-0,103
-616,561	-24,280	0,133	-0,058
-615,546	410,062	-0,022	0,035
-614,532	-49,568	-0,091	0,032
-613,517	15,885	-0,059	-0,034
-612,503	800,000	-0,029	-0,061
-611,488	800,000	0,091	0,219
-610,474	228,438	0,043	0,052
-609,459	-200,000	-0,024	0,080
-608,444	295,500	0,039	-0,053
-607,430	-200,000	0,011	-0,077
-606,415	47,325	-0,064	-0,043
-605,401	343,430	0,052	0,075
-604,386	-200,000	-0,013	0,080
-603,371	315,523	-0,086	0,120
-602,357	75,613	-0,089	0,069
-601,342	422,019	-0,116	-0,183
-600,328	800,000	-0,050	-0,148
-599,313	-200,000	-0,002	-0,084
-598,298	-107,097	-0,058	0,009
-597,284	800,000	0,031	-0,085
-596,269	58,273	0,029	0,021
-595,255	-27,678	0,156	-0,066
-594,240	-200,000	-0,028	0,106
-593,225	444,447	0,049	-0,080
-592,211	-200,000	-0,001	-0,155
-591,196	54,999	0,142	0,100
-590,182	-164,409	-0,053	-0,002
-589,167	120,023	-0,074	0,067
-588,152	59,298	-0,094	0,067
-587,138	-96,395	0,113	-0,022
-586,123	90,186	-0,015	0,012
-585,109	41,944	0,062	-0,041
-584,094	-97,749	-0,050	0,009
-583,079	196,077	0,060	0,067
-582,065	110,551	0,006	-0,005
-581,050	40,633	0,094	0,062
-580,036	7,638	-0,022	-0,012
-579,021	800,000	-0,062	-0,183
-578,006	-200,000	0,006	0,067
-576,992	-17,201	-0,064	-0,029
-575,977	-21,892	0,039	0,017
-574,963	-81,156	0,023	0,006
-573,948	800,000	-0,013	0,027
-572,934	327,264	0,017	0,024
-571,919	46,234	-0,117	-0,079
-570,904	394,554	-0,087	-0,134
-569,890	550,193	-0,019	0,033
-568,875	-5,316	0,063	0,031
-567,861	800,000	0,028	0,079
-566,846	620,952	-0,062	-0,115
-565,831	-200,000	0,016	-0,104
-564,817	800,000	-0,033	0,079
-563,802	160,011	-0,089	-0,091
-562,788	-97,391	-0,039	0,007
-561,773	187,802	0,054	-0,059
-560,758	28,719	-0,078	-0,048
-559,744	-83,049	-0,067	0,016
-558,729	67,526	0,188	0,141
-557,715	155,892	-0,031	0,031
-556,700	-200,000	-0,003	-0,083
-555,685	-10,770	-0,189	-0,091
-554,671	-92,116	-0,085	-0,017
-553,656	378,369	-0,053	-0,079
-552,642	172,823	0,059	0,062
-551,627	-166,296	0,036	0,001
-550,612	83,538	-0,099	-0,079
-549,598	-38,863	-0,103	0,040
-548,583	12,427	0,095	0,053
-547,569	-57,769	-0,157	-0,050
-546,554	412,731	-0,057	0,089
-545,539	105,014	-0,050	0,043
-544,525	49,212	0,040	0,028
-543,510	179,681	-0,050	0,054
-542,496	-91,612	-0,064	0,013
-541,481	-2,391	0,023	-0,012
-540,466	96,940	0,043	-0,036
-539,452	-133,475	0,124	-0,011
-538,437	156,659	-0,051	-0,051
-537,423	91,627	0,033	0,027
-536,408	-35,529	-0,031	-0,012
-535,393	352,976	-0,051	-0,074
-534,379	257,139	-0,066	0,083
-533,364	80,014	0,033	0,026
-532,350	-4,619	0,050	-0,025
-531,335	-144,596	0,171	-0,011
-530,321	800,000	-0,035	0,104
-529,306	-53,619	-0,039	-0,013
-528,291	-4,780	0,094	-0,047
-527,277	-200,000	0,011	-0,039
-526,262	800,000	0,037	-0,090
-525,248	-200,000	0,009	0,052
-524,233	-200,000	0,014	-0,137
-523,218	181,021	-0,078	-0,084
-522,204	623,881	0,056	-0,104
-521,189	800,000	-0,044	0,090
-520,175	229,723	-0,080	0,095
-519,160	284,692	0,033	0,043
-518,145	-128,323	0,074	0,008
-517,131	30,828	-0,072	-0,045
-516,116	800,000	-0,062	0,127
-515,102	-200,000	0,002	0,039
-514,087	-19,424	-0,059	-0,027
-513,072	29,833	-0,126	0,078
-512,058	-85,204	-0,081	-0,018
-511,043	69,679	0,077	-0,058
-510,029	274,003	0,051	-0,067
-509,014	-25,118	-0,032	-0,014
-507,999	121,380	0,049	0,045
-506,985	800,000	0,015	-0,041
-505,970	69,349	-0,073	-0,055
-504,956	-46,320	0,075	-0,027
-503,941	135,301	-0,047	0,044
-502,926	381,470	0,075	-0,113
-501,912	130,496	-0,048	0,045
-500,897	-49,254	-0,097	-0,033
-499,883	800,000	-0,036	0,075
-498,868	-134,052	-0,064	0,006
-497,853	800,000	-0,020	-0,058
-496,839	-128,965	0,114	0,012
-495,824	-50,303	0,075	-0,026
-494,810	190,435	-0,017	-0,019
-493,795	-52,957	-0,029	0,010
-492,781	381,444	-0,032	-0,048
-491,766	181,911	0,108	-0,116
-490,751	-5,381	0,088	-0,044
-489,737	-200,000	-0,046	-0,212
-488,722	35,321	-0,015	0,010
-487,708	-200,000	-0,012	0,070
-486,693	-14,165	0,081	0,038
-485,678	307,718	0,023	0,031
-484,664	-200,000	0,006	-0,023
-483,649	-200,000	0,000	0,019
-482,635	-126,946	-0,045	0,005
-481,620	-200,000	0,018	0,072
-480,605	-89,958	0,170	0,036
-479,591	-98,420	0,050	0,009
-478,576	-200,000	0,016	0,065
-477,562	-118,142	-0,050	-0,006
-476,547	314,495	-0,051	-0,070
-475,532	-200,000	-0,009	-0,089
-474,518	70,753	0,072	-0,054
-473,503	365,617	-0,041	-0,060
-472,489	800,000	-0,029	-0,088
-471,474	-200,000	-0,003	-0,027
-470,459	-200,000	0,021	-0,096
-469,445	-50,025	-0,147	-0,051
-468,430	-150,459	-0,218	-0,012
-467,416	267,764	0,094	0,121
-466,401	59,769	-0,072	0,052
-465,386	-200,000	0,001	0,085
-464,372	-200,000	-0,010	-0,050
-463,357	-200,000	-0,001	-0,064
-462,343	-15,353	0,020	0,009
-461,328	-200,000	-0,007	-0,066
-460,313	-200,000	-0,013	0,048
-459,299	50,876	0,072	-0,049
-458,284	-200,000	-0,004	-0,098
-457,270	624,371	-0,059	-0,108
-456,255	-200,000	-0,023	-0,087
-455,241	292,379	-0,098	-0,130
-454,226	524,140	-0,032	-0,054
-453,211	5,304	0,114	-0,061
-452,197	-200,000	-0,007	0,133
-451,182	-200,000	0,028	0,141
-450,168	-126,637	0,087	0,009
-449,153	-125,280	0,022	-0,002
-448,138	-200,000	0,004	0,015
-447,124	39,706	-0,108	-0,070
-446,109	178,192	0,105	-0,111
-445,095	-95,789	0,096	-0,018
-444,080	25,106	0,068	0,041
-443,065	-155,390	-0,010	-0,000
-442,051	79,852	0,186	-0,146
-441,036	261,367	0,060	-0,076
-440,022	28,080	0,076	0,047
-439,007	-200,000	-0,009	0,140
-437,992	44,655	0,059	0,040
-436,978	20,418	0,034	-0,020
-435,963	-87,862	0,129	-0,028
-434,949	-200,000	-0,017	0,106
-433,934	-113,429	-0,145	0,021
-432,919	800,000	-0,024	-0,053
-431,905	-78,564	0,021	0,005
-430,890	668,712	-0,076	-0,144
-429,876	-200,000	0,008	-0,103
-428,861	800,000	-0,037	-0,092
-427,846	800,000	0,050	-0,103
-426,832	-166,781	0,024	0,001
-425,817	-200,000	0,003	0,088
-424,803	-157,762	0,060	0,003
-423,788	160,633	-0,104	-0,105
-422,773	800,000	0,057	-0,175
-421,759	-200,000	0,008	0,034
-420,744	-200,000	0,018	-0,088
-419,730	-134,978	-0,152	0,013
-418,715	-21,453	-0,037	0,016
-417,701	-60,316	0,156	-0,048
-416,686	375,572	0,056	-0,083
-415,671	200,633	-0,061	-0,068
-414,657	-200,000	0,004	0,085
-413,642	-133,522	0,053	0,005
-412,628	211,246	-0,067	0,077
-411,613	68,975	0,128	-0,095
-410,598	-128,756	-0,054	0,005
-409,584	-200,000	0,021	-0,089
-408,569	800,000	-0,069	-0,217
-407,555	800,000	-0,014	0,038
-406,540	-51,462	0,039	0,013
-405,525	52,374	-0,092	0,064
-404,511	800,000	0,024	-0,066
-403,496	-200,000	-0,018	-0,085
-402,482	219,961	0,053	-0,062
-401,467	-113,112	0,034	0,005
-400,452	-3,503	0,047	-0,024
-399,438	-85,107	0,163	0,037
-398,423	104,972	-0,049	-0,042
-397,409	800,000	-0,054	0,122
-396,394	-200,000	0,007	-0,046
-395,379	112,133	-0,171	0,151
-394,365	-9,490	0,060	0,029
-393,350	-200,000	-0,007	-0,041
-392,336	167,343	0,061	0,062
-391,321	30,093	-0,170	0,105
-390,306	-200,000	0,001	-0,095
-389,292	5,445	0,186	0,099
-388,277	598,348	0,061	-0,109
-387,263	-49,185	0,208	-0,072
-386,248	-200,000	0,007	0,097
-385,233	-110,880	-0,020	0,003
-384,219	558,376	-0,055	0,097
-383,204	-65,974	0,091	0,026
-382,190	-96,225	-0,147	0,028
-381,175	121,645	0,051	0,046
-380,160	-200,000	-0,012	0,045
-379,146	30,288	0,067	-0,041
-378,131	-156,185	0,081	0,004
-377,117	571,569	-0,083	-0,148
-376,102	-60,307	0,040	-0,012
-375,088	-101,126	-0,068	0,012
-374,073	325,667	0,068	-0,095
-373,058	-129,309	0,087	-0,009
-372,044	800,000	0,044	0,100
-371,029	800,000	-0,019	-0,061
-370,015	-47,517	0,053	0,019
-369,000	-200,000	0,000	0,124
-367,985	150,327	0,061	-0,060
-366,971	-62,692	-0,091	0,027
-365,956	-200,000	-0,017	0,108
-364,942	-81,971	0,060	0,014
-363,927	-97,298	0,044	-0,008
-362,912	800,000	-0,044	-0,115
-361,898	-200,000	-0,009	-0,109
-360,883	-200,000	0,007	0,032
-359,869	-65,491	-0,217	-0,063
-358,854	-200,000	-0,010	-0,103
-357,839	333,593	0,013	0,018
-356,825	4,462	-0,049	0,026
-355,810	23,907	-0,080	-0,048
-354,796	800,000	-0,097	0,218
-353,781	82,452	-0,116	-0,091
-352,766	-91,199	-0,066	-0,013
-351,752	-200,000	0,009	0,072
-350,737	439,177	-0,064	0,102
-349,723	-199,746	0,071	-0,000
-348,708	-200,000	-0,028	0,148
-347,693	-200,000	-0,011	-0,055
-346,679	-74,394	0,010	0,003
-345,664	17,101	-0,109	0,062
-344,650	-200,000	-0,002	0,036
-343,635	771,766	0,066	0,132
-342,620	415,006	0,052	0,080
-341,606	-10,969	0,065	0,031
-340,591	27,456	-0,077	0,047
-339,577	-200,000	0,011	-0,064
-338,562	-94,092	0,082	0,016
-337,548	-200,000	-0,031	0,114
-336,533	-200,000	0,009	-0,064
-335,518	-62,627	-0,015	-0,005
-334,504	288,936	-0,059	0,078
-333,489	800,000	0,054	0,116
-332,475	310,503	0,048	-0,065
-331,460	287,895	-0,024	0,032
-330,445	156,455	-0,041	0,041
-329,431	-65,751	0,102	-0,029
-328,416	9,898	-0,034	-0,019
-327,402	-200,000	0,010	0,072
-326,387	388,014	-0,019	0,028
-325,372	-81,377	-0,100	-0,024
-324,358	-200,000	-0,001	0,047
-323,343	444,972	-0,092	-0,146
-322,329	-19,759	0,084	0,038
-321,314	430,072	0,047	-0,073
-320,299	800,000	0,062	0,160
-319,285	221,712	-0,050	-0,059
-318,270	126,498	-0,067	0,062
-317,256	-14,539	-0,027	-0,013
-316,241	628,767	-0,059	-0,109
-315,226	-94,907	-0,036	0,007
-314,212	-85,193	0,182	-0,041
-313,197	198,942	-0,122	0,135
-312,183	32,586	-0,103	0,064
-311,168	551,231	-0,045	0,079
-310,153	-74,740	0,077	0,020
-309,139	445,762	0,026	0,041
-308,124	-180,755	-0,052	-0,001
-307,110	-94,299	-0,017	-0,003
-306,095	3,550	-0,159	0,084
-305,080	88,991	0,080	0,064
-304,066	755,097	-0,017	-0,033
-303,051	800,000	-0,017	-0,044
-302,037	501,941	0,060	-0,101
-301,022	41,773	0,109	0,072
-300,008	800,000	-0,046	0,130
-298,993	74,778	-0,038	0,029
-297,978	800,000	0,028	0,088
-296,964	800,000	0,075	0,177
-295,949	-112,028	-0,164	-0,024
-294,935	-97,977	0,109	-0,020
-293,920	-200,000	0,003	0,071
-292,905	-200,000	0,022	0,125
-291,891	509,482	-0,050	-0,084
-290,876	-65,496	0,051	-0,015
-289,862	-168,575	0,068	-0,002
-288,847	-54,274	-0,120	-0,039
-287,832	214,779	0,081	-0,092
-286,818	800,000	0,038	0,112
-285,803	342,390	0,096	-0,137
-284,789	49,197	0,113	0,077
-283,774	184,159	0,104	-0,112
-282,759	-70,960	0,059	0,016
-281,745	800,000	0,023	0,058
-280,730	500,809	0,043	-0,072
-279,716	-4,493	-0,017	-0,008
-278,701	36,514	-0,076	-0,048
-277,686	-56,813	0,070	-0,022
-276,672	-200,000	0,003	0,082
-275,657	510,778	-0,050	0,085
-274,643	800,000	-0,022	0,056
-273,628	19,205	0,075	-0,043
-272,613	-200,000	-0,004	0,027
-271,599	-200,000	0,014	0,074
-270,584	-38,915	0,060	0,023
-269,570	110,927	-0,037	-0,032
-268,555	274,470	0,054	0,070
-267,540	-46,871	-0,102	-0,036
-266,526	-75,177	0,170	0,043
-265,511	25,868	0,090	0,054
-264,497	63,496	-0,086	-0,063
-263,482	146,484	0,103	0,100
-262,467	-146,446	0,076	0,005
-261,453	-133,936	0,161	-0,014
-260,438	46,479	-0,129	-0,086
-259,424	800,000	-0,072	-0,146
-258,409	-200,000	0,015	-0,162
-257,395	34,399	-0,049	-0,031
-256,380	58,982	0,116	-0,083
-255,365	-129,180	0,129	-0,013
-254,351	-3,297	-0,095	-0,048
-253,336	-53,021	0,041	-0,014
-252,322	800,000	-0,034	-0,105
-251,307	-200,000	-0,003	-0,127
-250,292	800,000	-0,023	0,058
-249,278	-7,129	-0,026	-0,013
-248,263	-130,589	0,104	-0,010
-247,249	-93,146	-0,205	0,041
-246,234	-200,000	-0,008	-0,045
-245,219	-200,000	-0,012	-0,097
-244,205	-76,708	-0,082	-0,021
-243,190	-131,055	-0,141	-0,013
-242,176	-200,000	-0,018	0,072
-241,161	196,356	0,071	0,078
-240,146	-200,000	0,004	0,144
-239,132	-200,000	0,015	0,193
-238,117	779,337	-0,073	0,145
-237,103	284,202	0,110	0,144
-236,088	342,255	-0,079	0,112
-235,073	354,882	0,111	0,160
-234,059	-157,049	-0,018	-0,001
-233,044	342,994	0,007	-0,010
-232,030	-200,000	-0,005	-0,074
-231,015	-142,283	0,109	0,008
-230,000	775,793	-0,070	0,138
-228,986	185,796	-0,021	-0,023
-227,971	-200,000	0,021	-0,175
-226,957	-200,000	-0,016	0,076
-225,942	-200,000	-0,017	0,070
-224,927	-46,880	0,079	0,028
-223,913	63,117	0,048	0,034
-222,898	-71,803	-0,089	-0,024
-221,884	-200,000	-0,005	0,166
-220,869	61,374	0,121	-0,087
-219,855	800,000	0,108	0,241
-218,840	-93,984	0,020	0,004
-217,825	91,751	-0,051	0,042
-216,811	-135,128	-0,105	-0,009
-215,796	499,447	0,072	0,120
-214,782	511,831	0,025	0,043
-213,767	-49,433	-0,125	0,043
-212,752	92,880	0,035	0,029
-211,738	-200,000	0,008	0,136
-210,723	187,126	0,105	0,113
-209,709	800,000	-0,034	0,094
-208,694	800,000	0,035	-0,104
-207,679	71,955	0,035	-0,026
-206,665	-78,634	-0,043	0,010
-205,650	19,733	-0,114	0,066
-204,636	-14,890	-0,097	0,045
-203,621	78,257	0,072	-0,056
-202,606	85,567	-0,043	-0,034
-201,592	-200,000	0,001	0,124
-200,577	152,615	-0,080	0,078
-199,563	800,000	0,023	-0,048
-198,548	-78,683	0,242	0,059
-197,533	-88,549	-0,092	0,020
-196,519	261,108	0,060	-0,075
-195,504	-28,778	0,044	-0,018
-194,490	-163,874	0,049	0,002
-193,475	-200,000	-0,014	-0,071
-192,460	-200,000	-0,007	-0,057
-191,446	800,000	0,083	0,175
-190,431	-61,462	-0,170	-0,051
-189,417	-185,817	0,069	0,001
-188,402	1,863	0,041	0,021
-187,387	-29,108	-0,085	-0,035
-186,373	-189,761	0,081	-0,001
-185,358	158,977	-0,096	0,096
-184,344	-200,000	0,027	0,086
-183,329	-33,508	-0,029	0,012
-182,315	-156,485	0,042	-0,002
-181,300	-90,355	0,087	-0,018
-180,285	-104,808	0,030	-0,005
-179,271	4,100	-0,061	-0,032
-178,256	203,440	0,074	-0,083
-177,242	-200,000	-0,002	0,112
-176,227	-156,148	0,007	0,000
-175,212	800,000	-0,011	0,026
-174,198	-90,610	0,116	0,024
-173,183	194,202	-0,055	0,060
-172,169	-200,000	0,011	-0,117
-171,154	-101,815	-0,104	0,018
-170,139	-14,964	0,075	0,034
-169,125	-60,042	0,118	0,036
-168,110	800,000	-0,029	0,079
-167,096	-5,046	0,041	-0,020
-166,081	-44,190	0,101	0,036
-165,066	-84,798	-0,283	-0,064
-164,052	-143,521	0,027	-0,002
-163,037	-200,000	0,018	-0,176
-162,023	-14,935	0,062	0,029
-161,008	-200,000	0,000	0,062
-159,993	-1,255	0,076	0,038
-158,979	-24,702	0,036	-0,015
-157,964	-92,838	-0,101	0,020
-156,950	-77,694	0,047	-0,012
-155,935	800,000	0,051	-0,113
-154,920	-65,527	-0,025	0,007
-153,906	111,618	-0,073	0,063
-152,891	800,000	-0,025	-0,075
-151,877	158,265	-0,062	0,061
-150,862	-9,645	0,080	-0,038
-149,847	800,000	0,012	-0,027
-148,833	-143,102	-0,035	-0,002
-147,818	4,001	0,026	0,013
-146,804	800,000	-0,022	-0,053
-145,789	721,480	-0,054	0,103
-144,775	232,266	0,034	0,040
-143,760	-200,000	-0,000	-0,010
-142,745	-200,000	0,022	-0,115
-141,731	21,215	-0,043	-0,025
-140,716	304,190	-0,066	0,089
-139,702	-200,000	0,001	0,182
-138,687	-200,000	-0,015	0,085
-137,672	710,205	0,018	0,035
-136,658	800,000	-0,067	-0,158
-135,643	-64,257	-0,098	-0,028
-134,629	-200,000	0,014	0,048
-133,614	485,521	-0,013	0,021
-132,599	-200,000	-0,045	0,158
-131,585	800,000	0,013	0,035
-130,570	337,308	-0,027	-0,037
-129,556	83,952	-0,094	-0,074
-128,541	462,737	-0,042	-0,067
-127,526	101,290	-0,081	-0,067
-126,512	-200,000	0,026	-0,147
-125,497	-22,906	0,065	-0,028
-124,483	-99,269	0,107	-0,019
-123,468	-70,098	-0,023	0,006
-122,453	210,879	-0,065	-0,073
-121,439	31,060	0,060	-0,037
-120,424	102,433	-0,089	0,075
-119,410	-200,000	0,004	0,141
-118,395	42,690	0,037	0,024
