DTS Sentinel unit serial number:	SN410029Multiplexer serial number:	ORYXHardware model number:	OX2-SRSoftware version number:	ORYX F/W v4,00 Oryx Data Collector v3.7.2.0data status	okinstallation	B6 Nyhavnadifferential loss correction	single-endedforward channel	channel 2reverse channel	N/Adate	2023/12/11time	01:45:08forward acquisition time	300,00reverse acquisition time	0,00gamma	499,1914k internal	0,3122k external	0,3122temperature offset calibration	1,0000default loss term (dB/km)	0,3820temperature slope calibration	1,0000multiplexer offset coefficient	1,0000multiplexer slope coefficient	1,0000fibre end	0,00T internal ref (°C)	22,02T ext. ref 1 (°C)	5,17T ext. ref 2 (°C)	5,22length (m)	temperature (°C)	Stokes	anti-Stokes-744,400	-200,000	0,005	-0,048
-743,385	175,467	-0,119	0,129
-742,371	100,594	0,052	-0,045
-741,356	-4,341	-0,160	0,082
-740,342	10,203	0,084	0,047
-739,327	26,407	-0,201	0,125
-738,312	454,979	-0,079	-0,131
-737,298	-151,406	-0,359	-0,020
-736,283	413,275	-0,028	0,044
-735,269	201,360	-0,130	0,149
-734,254	-200,000	-0,010	-0,035
-733,239	-18,833	-0,386	-0,179
-732,225	55,108	0,105	-0,075
-731,210	-31,968	0,102	-0,042
-730,196	800,000	0,066	-0,146
-729,181	-36,662	-0,046	-0,018
-728,167	149,207	0,039	-0,039
-727,152	-85,392	-0,139	0,032
-726,137	65,880	-0,096	-0,073
-725,123	164,369	0,070	-0,074
-724,108	-19,225	-0,073	-0,034
-723,094	-103,782	-0,085	-0,015
-722,079	184,394	-0,021	-0,023
-721,064	-132,326	-0,044	-0,004
-720,050	279,537	-0,081	-0,108
-719,035	-200,000	0,036	-0,159
-718,021	657,835	0,016	0,031
-717,006	800,000	-0,040	-0,097
-715,991	-200,000	0,002	0,037
-714,977	161,567	-0,094	-0,098
-713,962	199,916	0,125	-0,143
-712,948	800,000	0,035	0,106
-711,933	69,672	-0,055	-0,042
-710,918	-200,000	0,047	0,173
-709,904	79,161	-0,019	-0,015
-708,889	-54,202	0,085	-0,028
-707,875	172,048	-0,162	-0,173
-706,860	-200,000	-0,007	-0,053
-705,845	800,000	-0,032	-0,069
-704,831	95,164	0,095	0,080
-703,816	-120,035	-0,039	0,005
-702,802	-3,013	-0,087	-0,045
-701,787	-60,494	-0,147	-0,046
-700,772	-59,386	0,050	0,016
-699,758	-200,000	0,010	0,034
-698,743	-168,881	0,092	-0,003
-697,729	-200,000	-0,002	-0,048
-696,714	-51,378	-0,108	0,037
-695,699	-136,027	-0,108	-0,009
-694,685	-200,000	-0,015	-0,087
-693,670	-200,000	0,021	0,095
-692,656	143,508	-0,080	0,079
-691,641	133,948	-0,052	0,050
-690,627	268,506	0,024	0,031
-689,612	-20,206	0,104	0,047
-688,597	-200,000	0,008	-0,054
-687,583	-77,697	0,104	0,027
-686,568	-113,820	0,067	0,010
-685,554	-67,896	0,036	-0,010
-684,539	-172,504	0,055	0,001
-683,524	800,000	-0,039	0,082
-682,510	575,702	-0,057	0,104
-681,495	-200,000	0,012	0,090
-680,481	800,000	0,020	-0,058
-679,466	800,000	0,023	0,069
-678,451	800,000	0,051	-0,144
-677,437	100,624	-0,007	0,006
-676,422	-200,000	0,001	-0,016
-675,408	230,277	0,057	-0,070
-674,393	-86,280	-0,117	-0,027
-673,378	-87,032	0,104	-0,023
-672,364	64,516	-0,120	-0,090
-671,349	-200,000	0,004	-0,155
-670,335	-26,284	-0,105	-0,046
-669,320	517,414	-0,065	-0,113
-668,305	-200,000	0,002	0,033
-667,291	-59,173	-0,101	-0,032
-666,276	800,000	0,022	-0,069
-665,262	-56,258	-0,177	0,058
-664,247	800,000	-0,025	0,068
-663,232	76,330	-0,042	0,033
-662,218	-130,475	-0,129	-0,013
-661,203	-7,865	0,057	-0,028
-660,189	87,091	-0,083	0,068
-659,174	159,296	-0,055	0,057
-658,159	-67,098	-0,127	-0,037
-657,145	582,595	-0,056	-0,103
-656,130	800,000	0,077	0,208
-655,116	25,773	-0,004	-0,002
-654,101	691,877	-0,089	-0,174
-653,086	-200,000	-0,000	-0,034
-652,072	-27,214	-0,083	-0,036
-651,057	153,940	-0,078	-0,080
-650,043	800,000	-0,023	0,061
-649,028	183,170	-0,062	-0,069
-648,014	778,782	0,014	-0,028
-646,999	261,936	-0,052	-0,068
-645,984	-31,086	0,147	-0,061
-644,970	-142,966	0,058	0,004
-643,955	-116,321	-0,021	0,003
-642,941	-200,000	0,005	-0,078
-641,926	-200,000	-0,006	0,043
-640,911	-91,206	-0,109	-0,023
-639,897	-39,556	-0,049	0,019
-638,882	800,000	0,006	-0,017
-637,868	-61,315	-0,075	0,023
-636,853	85,665	-0,060	0,049
-635,838	800,000	0,023	-0,073
-634,824	152,360	-0,028	0,029
-633,809	-200,000	0,009	-0,093
-632,795	741,550	0,041	0,083
-631,780	-153,531	0,117	0,006
-630,765	-116,902	0,133	0,018
-629,751	-73,086	0,018	-0,005
-628,736	608,931	-0,032	-0,059
-627,722	-200,000	-0,012	0,062
-626,707	-200,000	-0,032	-0,156
-625,692	102,306	0,069	0,060
-624,678	-98,008	0,046	0,009
-623,663	-60,907	-0,183	0,057
-622,649	-200,000	0,002	0,011
-621,634	92,687	0,125	-0,104
-620,619	-61,106	-0,072	0,023
-619,605	15,643	-0,016	-0,010
-618,590	-172,215	-0,068	-0,002
-617,576	-126,145	-0,107	-0,012
-616,561	800,000	0,058	-0,154
-615,546	-200,000	-0,004	0,125
-614,532	-152,457	0,137	-0,007
-613,517	14,207	0,034	-0,019
-612,503	314,812	0,089	-0,125
-611,488	-31,569	-0,171	-0,071
-610,474	-66,827	0,027	0,008
-609,459	-132,049	-0,098	-0,009
-608,444	-200,000	-0,023	0,150
-607,430	192,898	-0,073	0,082
-606,415	-145,528	-0,114	0,007
-605,401	-200,000	-0,008	-0,040
-604,386	-86,982	0,061	-0,014
-603,371	-150,090	-0,196	0,011
-602,357	-157,250	-0,050	-0,002
-601,342	-2,053	0,094	-0,049
-600,328	-160,077	0,029	-0,001
-599,313	721,846	-0,032	0,062
-598,298	255,253	-0,051	0,065
-597,284	-104,963	-0,145	0,024
-596,269	359,594	0,063	-0,093
-595,255	463,163	-0,019	0,031
-594,240	10,046	0,107	-0,060
-593,225	-131,753	-0,071	-0,007
-592,211	-32,381	0,038	-0,016
-591,196	-173,858	-0,067	-0,001
-590,182	-126,973	-0,177	-0,019
-589,167	26,182	0,074	0,046
-588,152	344,513	0,032	0,046
-587,138	800,000	-0,116	-0,242
-586,123	-40,773	-0,158	-0,060
-585,109	422,055	-0,041	0,065
-584,094	253,674	0,014	-0,018
-583,079	-115,534	0,060	-0,008
-582,065	-200,000	0,011	-0,036
-581,050	-76,362	-0,066	-0,017
-580,036	95,072	-0,068	-0,058
-579,021	325,757	-0,120	-0,170
-578,006	-168,353	-0,041	-0,001
-576,992	-52,118	-0,173	0,059
-575,977	-61,230	-0,039	-0,012
-574,963	126,842	0,063	-0,059
-573,948	319,804	0,118	-0,166
-572,934	137,715	-0,024	-0,023
-571,919	-200,000	-0,054	-0,291
-570,904	482,979	-0,099	-0,167
-569,890	-86,024	-0,056	-0,013
-568,875	-200,000	-0,021	-0,072
-567,861	0,644	0,079	-0,042
-566,846	-91,916	-0,074	-0,015
-565,831	-58,204	-0,143	-0,046
-564,817	-200,000	0,006	-0,059
-563,802	51,966	-0,075	0,053
-562,788	800,000	-0,005	0,013
-561,773	27,721	0,069	-0,043
-560,758	800,000	0,012	0,030
-559,744	-200,000	-0,029	0,124
-558,729	-37,857	0,074	-0,029
-557,715	11,712	-0,045	0,025
-556,700	445,246	0,025	-0,041
-555,685	492,882	0,049	-0,084
-554,671	172,596	0,055	0,058
-553,656	3,935	-0,102	-0,055
-552,642	636,598	0,047	-0,089
-551,627	72,449	0,028	0,021
-550,612	-200,000	-0,014	-0,050
-549,598	210,320	-0,125	-0,146
-548,583	800,000	-0,044	-0,118
-547,569	-95,484	-0,105	0,021
-546,554	117,986	0,107	0,098
-545,539	-75,426	0,077	0,020
-544,525	-127,680	0,118	-0,012
-543,510	371,298	0,045	0,068
-542,496	87,350	-0,115	0,094
-541,481	47,118	0,102	0,070
-540,466	440,036	-0,041	-0,066
-539,452	800,000	0,027	-0,071
-538,437	-200,000	0,011	-0,066
-537,423	263,293	0,015	-0,020
-536,408	-1,645	-0,096	0,050
-535,393	800,000	-0,022	-0,070
-534,379	-137,805	-0,134	-0,011
-533,364	-110,692	0,090	0,014
-532,350	49,388	-0,068	0,047
-531,335	40,669	-0,088	0,058
-530,321	-37,533	0,124	-0,049
-529,306	70,588	0,112	0,085
-528,291	-187,419	-0,007	0,000
-527,277	-133,091	-0,135	-0,012
-526,262	-200,000	-0,053	0,188
-525,248	153,349	0,119	0,121
-524,233	-49,496	0,038	0,013
-523,218	-200,000	0,012	0,072
-522,204	-200,000	0,005	0,054
-521,189	-200,000	0,001	0,144
-520,175	152,330	0,059	-0,060
-519,160	-200,000	0,005	-0,130
-518,145	126,241	0,013	-0,012
-517,131	248,147	-0,036	0,045
-516,116	-200,000	0,004	-0,036
-515,102	26,608	0,099	0,061
-514,087	279,129	-0,096	-0,126
-513,072	-134,082	0,135	0,012
-512,058	-200,000	-0,004	-0,079
-511,043	491,492	-0,075	-0,127
-510,029	-49,099	0,091	0,032
-509,014	-200,000	-0,027	0,092
-507,999	509,211	-0,062	0,106
-506,985	19,957	-0,095	0,056
-505,970	800,000	-0,037	0,081
-504,956	0,275	-0,078	-0,041
-503,941	7,588	0,050	0,027
-502,926	27,026	0,090	-0,056
-501,912	800,000	0,027	0,058
-500,897	24,061	0,077	0,047
-499,883	15,040	-0,121	0,070
-498,868	27,484	-0,036	-0,023
-497,853	-65,625	-0,118	-0,035
-496,839	800,000	0,016	-0,049
-495,824	-200,000	-0,019	-0,098
-494,810	800,000	0,030	0,076
-493,795	-200,000	0,035	0,121
-492,781	-100,352	-0,100	-0,018
-491,766	-200,000	0,009	0,061
-490,751	800,000	-0,053	0,111
-489,737	117,738	0,097	-0,088
-488,722	22,538	0,154	-0,093
-487,708	-200,000	0,019	-0,095
-486,693	124,289	-0,099	-0,092
-485,678	320,846	-0,049	0,069
-484,664	-155,291	0,116	-0,005
-483,649	-57,404	0,052	-0,017
-482,635	-76,135	0,022	-0,006
-481,620	40,053	0,041	0,027
-480,605	-200,000	0,005	-0,076
-479,591	800,000	0,032	0,078
-478,576	-155,640	-0,080	-0,004
-477,562	463,991	0,061	-0,102
-476,547	800,000	0,032	0,070
-475,532	800,000	0,027	0,072
-474,518	82,119	-0,042	-0,034
-473,503	-41,918	0,019	-0,007
-472,489	-200,000	-0,047	0,206
-471,474	613,097	-0,075	0,139
-470,459	-10,776	-0,017	-0,008
-469,445	-93,765	-0,113	-0,023
-468,430	91,234	-0,108	0,089
-467,416	-200,000	0,004	0,057
-466,401	493,333	0,032	-0,055
-465,386	485,312	0,032	-0,054
-464,372	613,657	0,059	0,109
-463,357	144,701	-0,095	0,094
-462,343	-200,000	-0,019	0,175
-461,328	118,412	-0,131	-0,120
-460,313	27,369	0,118	-0,073
-459,299	-200,000	0,016	0,119
-458,284	-200,000	0,016	0,120
-457,270	-200,000	-0,009	-0,090
-456,255	9,717	-0,150	-0,084
-455,241	-27,769	0,074	0,031
-454,226	-44,848	-0,103	-0,038
-453,211	-200,000	0,000	-0,086
-452,197	-48,288	0,049	-0,017
-451,182	194,903	-0,087	0,097
-450,168	-159,591	-0,058	0,002
-449,153	-200,000	-0,003	-0,142
-448,138	177,537	-0,112	-0,121
-447,124	-200,000	-0,033	-0,150
-446,109	78,231	0,047	0,037
-445,095	33,459	0,140	-0,089
-444,080	36,933	-0,065	0,042
-443,065	-125,077	0,049	0,005
-442,051	-33,573	-0,123	0,050
-441,036	-200,000	-0,034	0,131
-440,022	-154,555	0,077	-0,004
-439,007	240,835	-0,015	0,018
-437,992	116,099	0,040	0,036
-436,978	-56,198	0,097	0,032
-435,963	800,000	0,027	-0,056
-434,949	-182,410	-0,117	-0,002
-433,934	518,232	0,040	-0,069
-432,919	-106,774	-0,079	0,013
-431,905	111,286	0,097	0,086
-430,890	110,857	-0,067	-0,059
-429,876	-200,000	0,001	-0,093
-428,861	410,617	0,101	-0,158
-427,846	115,889	-0,079	-0,071
-426,832	-68,197	-0,136	-0,039
-425,817	-104,587	0,044	0,007
-424,803	-127,344	0,031	0,003
-423,788	800,000	0,062	-0,133
-422,773	800,000	0,048	0,112
-421,759	-200,000	-0,005	0,022
-420,744	-83,159	0,044	0,010
-419,730	-155,793	-0,076	0,003
-418,715	-159,751	-0,075	0,003
-417,701	-50,686	0,157	-0,054
-416,686	45,477	-0,129	-0,087
-415,671	-69,260	0,069	-0,019
-414,657	453,394	0,034	0,055
-413,642	800,000	0,051	0,132
-412,628	188,292	-0,037	-0,040
-411,613	-20,678	0,093	0,042
-410,598	-200,000	-0,001	0,169
-409,584	-3,231	0,040	0,021
-408,569	125,030	0,086	0,079
-407,555	800,000	0,047	0,098
-406,540	800,000	0,007	-0,023
-405,525	107,885	0,047	-0,041
-404,511	290,915	0,056	-0,075
-403,496	62,382	-0,021	-0,015
-402,482	239,667	-0,128	-0,158
-401,467	800,000	0,057	0,143
-400,452	-200,000	0,008	0,109
-399,438	322,197	0,045	0,064
-398,423	12,971	0,108	0,061
-397,409	-200,000	-0,035	-0,150
-396,394	800,000	0,042	0,128
-395,379	-200,000	0,012	-0,066
-394,365	-49,342	0,094	-0,033
-393,350	58,507	0,095	0,069
-392,336	-50,119	-0,058	0,020
-391,321	-200,000	0,021	-0,106
-390,306	-200,000	-0,022	-0,115
-389,292	800,000	-0,050	-0,109
-388,277	-147,457	0,061	0,004
-387,263	595,914	0,025	-0,045
-386,248	169,448	0,096	0,101
-385,233	-87,552	-0,122	0,027
-384,219	125,422	0,113	-0,105
-383,204	130,425	-0,082	-0,078
-382,190	800,000	-0,029	-0,084
-381,175	-57,005	-0,029	-0,009
-380,160	-43,381	0,109	0,040
-379,146	-150,500	-0,044	0,002
-378,131	550,462	0,103	0,183
-377,117	-200,000	-0,024	0,130
-376,102	-17,246	0,137	0,063
-375,088	-55,641	0,020	-0,006
-374,073	548,480	0,021	-0,038
-373,058	628,025	-0,009	0,016
-372,044	457,648	-0,015	-0,024
-371,029	-125,326	-0,052	0,006
-370,015	258,043	0,040	0,050
-369,000	-22,912	-0,189	-0,083
-367,985	258,153	-0,110	-0,140
-366,971	800,000	0,032	0,070
-365,956	-23,483	0,097	0,043
-364,942	120,384	-0,068	0,062
-363,927	800,000	0,038	0,091
-362,912	-28,876	-0,043	0,018
-361,898	-163,221	-0,207	-0,007
-360,883	-73,041	-0,035	-0,009
-359,869	-68,900	0,040	0,011
-358,854	800,000	-0,087	0,251
-357,839	-200,000	-0,006	0,098
-356,825	-135,145	-0,043	0,004
-355,810	774,298	0,060	0,121
-354,796	588,987	-0,032	-0,058
-353,781	800,000	-0,027	0,071
-352,766	8,886	-0,139	0,077
-351,752	-121,252	0,140	-0,017
-350,737	-109,668	-0,064	0,010
-349,723	-18,497	-0,082	0,037
-348,708	-116,930	-0,095	0,013
-347,693	-53,313	0,049	0,016
-346,679	-200,000	-0,013	0,048
-345,664	41,497	0,087	-0,058
-344,650	250,002	-0,042	-0,053
-343,635	-200,000	0,007	0,075
-342,620	800,000	0,027	0,083
-341,606	-84,850	-0,132	0,030
-340,591	-114,706	-0,057	0,008
-339,577	-122,893	0,020	0,002
-338,562	-200,000	0,008	0,079
-337,548	-200,000	-0,027	0,096
-336,533	134,630	0,030	0,028
-335,518	299,757	0,067	0,091
-334,504	-56,738	0,136	0,044
-333,489	-86,353	0,064	0,014
-332,475	-107,125	0,037	0,006
-331,460	-144,304	0,017	0,001
-330,445	-200,000	-0,015	0,093
-329,431	220,241	0,112	0,132
-328,416	12,660	0,087	-0,049
-327,402	800,000	0,020	-0,060
-326,387	512,433	0,044	-0,076
-325,372	396,622	0,075	-0,115
-324,358	131,647	-0,024	0,022
-323,343	350,545	-0,048	-0,069
-322,329	-200,000	0,014	-0,085
-321,314	-156,889	0,135	-0,006
-320,299	-200,000	0,001	0,006
-319,285	-61,335	0,071	0,022
-318,270	-7,640	-0,094	-0,046
-317,256	52,854	0,124	0,087
-316,241	800,000	0,056	0,123
-315,226	-200,000	0,012	-0,047
-314,212	-81,156	0,155	0,037
-313,197	546,485	0,055	0,097
-312,183	-73,967	-0,109	-0,029
-311,168	-23,061	-0,049	0,022
-310,153	16,742	-0,059	0,034
-309,139	256,987	0,083	0,105
-308,124	-200,000	0,009	-0,086
-307,110	-176,219	0,123	-0,002
-306,095	58,087	0,021	0,015
-305,080	218,907	0,086	0,100
-304,066	383,029	0,042	0,064
-303,051	188,423	-0,046	0,051
-302,037	7,254	0,087	0,047
-301,022	-67,541	0,111	0,032
-300,008	37,087	-0,055	-0,035
-298,993	-200,000	0,031	-0,120
-297,978	-200,000	0,002	0,025
-296,964	800,000	-0,039	-0,113
-295,949	-163,298	0,099	0,003
-294,935	-200,000	-0,017	0,075
-293,920	41,838	0,128	0,085
-292,905	-35,904	-0,067	-0,026
-291,891	622,300	0,033	-0,061
-290,876	-108,427	0,074	0,012
-289,862	800,000	-0,020	-0,049
-288,847	-200,000	0,035	0,143
-287,832	20,835	-0,048	-0,028
-286,818	235,603	-0,055	-0,067
-285,803	-14,481	-0,098	-0,046
-284,789	-200,000	-0,013	-0,104
-283,774	-83,428	0,118	0,027
-282,759	186,442	-0,027	-0,029
-281,745	296,071	0,026	0,035
-280,730	403,042	0,046	-0,071
-279,716	-182,397	0,265	0,003
-278,701	72,902	-0,053	-0,041
-277,686	171,189	-0,042	0,044
-276,672	15,088	0,030	-0,017
-275,657	-120,377	-0,093	-0,011
-274,643	119,926	-0,046	-0,042
-273,628	-93,029	-0,072	-0,015
-272,613	290,352	-0,171	-0,228
-271,599	120,878	0,079	-0,072
-270,584	800,000	0,033	-0,090
-269,570	95,718	-0,095	0,079
-268,555	800,000	0,010	-0,022
-267,540	-200,000	-0,004	0,114
-266,526	97,740	-0,050	-0,042
-265,511	-52,734	0,012	0,004
-264,497	800,000	-0,044	0,093
-263,482	-200,000	0,022	0,072
-262,467	-200,000	0,004	-0,061
-261,453	-200,000	0,034	0,111
-260,438	-200,000	-0,022	0,089
-259,424	-200,000	-0,001	-0,114
-258,409	189,702	-0,003	-0,003
-257,395	-200,000	0,020	0,123
-256,380	339,954	0,076	-0,109
-255,365	800,000	-0,025	0,065
-254,351	515,687	-0,138	0,236
-253,336	-49,458	0,079	-0,027
-252,322	800,000	-0,046	-0,135
-251,307	61,210	0,098	-0,071
-250,292	-200,000	0,001	0,021
-249,278	276,311	-0,030	-0,040
-248,263	-200,000	-0,003	0,017
-247,249	34,541	0,160	-0,102
-246,234	-200,000	-0,019	0,224
-245,219	344,864	-0,027	0,039
-244,205	-200,000	-0,009	-0,173
-243,190	-200,000	0,013	-0,049
-242,176	800,000	0,074	0,167
-241,161	-86,895	0,118	-0,026
-240,146	-200,000	0,007	0,090
-239,132	-200,000	0,014	0,101
-238,117	-200,000	0,028	0,121
-237,103	-101,373	-0,084	-0,015
-236,088	-17,282	-0,062	-0,028
-235,073	800,000	0,051	-0,104
-234,059	-200,000	0,011	-0,074
-233,044	-200,000	-0,018	-0,104
-232,030	181,449	0,025	0,027
-231,015	-53,974	0,033	0,011
-230,000	800,000	-0,029	0,081
-228,986	736,620	0,038	0,076
-227,971	-26,858	0,124	0,053
-226,957	800,000	0,045	-0,120
-225,942	-200,000	0,001	-0,144
-224,927	-200,000	0,000	0,086
-223,913	-200,000	-0,003	-0,074
-222,898	800,000	0,058	-0,130
-221,884	-135,633	0,068	0,006
-220,869	-92,910	0,015	0,003
-219,855	-90,555	-0,073	0,015
-218,840	159,313	-0,043	0,044
-217,825	800,000	0,071	0,164
-216,811	-200,000	-0,003	-0,065
-215,796	-51,056	-0,044	0,015
-214,782	-200,000	0,007	-0,026
-213,767	-7,940	0,140	-0,069
-212,752	-200,000	0,008	0,049
-211,738	89,195	-0,060	0,049
-210,723	-200,000	0,019	0,086
-209,709	-109,986	-0,097	-0,015
-208,694	63,606	-0,067	-0,049
-207,679	-102,815	0,188	-0,032
-206,665	-200,000	0,034	0,210
-205,650	800,000	0,040	0,098
-204,636	24,173	-0,105	0,063
-203,621	-200,000	0,028	-0,177
-202,606	169,696	-0,009	0,010
-201,592	81,145	-0,058	-0,045
-200,577	800,000	0,099	-0,238
-199,563	95,298	0,132	0,110
-198,548	34,322	-0,016	0,010
-197,533	673,904	0,107	-0,204
-196,519	132,125	-0,033	-0,031
-195,504	224,306	0,025	-0,030
-194,490	-200,000	0,001	0,027
-193,475	379,858	-0,002	-0,003
-192,460	438,709	-0,068	0,109
-191,446	-200,000	0,000	0,005
-190,431	-56,496	0,063	-0,020
-189,417	166,716	-0,084	0,087
-188,402	34,779	-0,074	-0,047
-187,387	-200,000	-0,013	-0,076
-186,373	-156,886	-0,045	0,002
-185,358	-200,000	0,005	0,026
-184,344	-10,834	0,026	0,013
-183,329	-200,000	0,013	0,115
-182,315	800,000	-0,064	0,135
-181,300	144,093	-0,119	0,116
-180,285	110,231	-0,070	0,061
-179,271	353,983	-0,054	0,079
-178,256	297,730	0,009	-0,012
-177,242	800,000	-0,032	0,073
-176,227	-200,000	-0,010	0,045
-175,212	-200,000	-0,001	-0,052
-174,198	-84,482	0,019	0,004
-173,183	800,000	-0,023	-0,066
-172,169	-200,000	-0,004	-0,118
-171,154	130,784	0,040	-0,037
-170,139	-200,000	-0,001	-0,018
-169,125	83,475	0,034	-0,027
-168,110	-65,252	0,075	0,022
-167,096	-40,169	0,092	-0,035
-166,081	-200,000	-0,008	-0,038
-165,066	155,758	-0,073	-0,074
-164,052	43,509	-0,063	-0,042
-163,037	138,657	0,042	0,040
-162,023	-200,000	-0,004	-0,085
-161,008	776,932	0,037	-0,074
-159,993	-200,000	0,034	0,144
-158,979	102,249	-0,084	0,071
-157,964	-200,000	-0,005	-0,016
-156,950	800,000	-0,035	-0,074
-155,935	-125,034	0,025	0,003
-154,920	800,000	0,061	-0,136
-153,906	-72,034	0,046	-0,012
-152,891	-0,566	-0,126	-0,065
-151,877	-92,659	0,022	0,004
-150,862	-200,000	-0,000	-0,064
-149,847	139,339	0,044	-0,042
-148,833	25,015	0,070	-0,042
-147,818	-160,727	0,052	0,002
-146,804	401,184	0,012	-0,018
-145,789	2,543	-0,093	-0,049
-144,775	-105,161	-0,019	0,003
-143,760	-200,000	-0,085	0,000
-142,745	-172,558	0,128	0,003
-141,731	-200,000	0,002	0,046
-140,716	-200,000	0,006	-0,042
-139,702	-200,000	-0,010	0,077
-138,687	800,000	-0,061	0,152
-137,672	-200,000	-0,008	0,120
-136,658	-41,822	-0,112	-0,042
-135,643	-163,232	-0,048	0,002
-134,629	265,563	0,055	-0,070
-133,614	-200,000	0,025	0,170
-132,599	-200,000	0,053	0,185
-131,585	-200,000	0,028	0,123
-130,570	207,197	0,103	0,117
-129,556	236,372	-0,049	0,059
-128,541	800,000	-0,041	-0,085
-127,526	102,295	-0,044	-0,037
-126,512	-200,000	-0,021	0,070
-125,497	800,000	-0,029	-0,081
-124,483	-12,535	0,181	-0,085
-123,468	-104,815	0,112	-0,019
-122,453	51,255	-0,136	0,094
-121,439	-200,000	0,026	0,089
-120,424	186,828	0,057	-0,062
-119,410	-43,225	0,136	0,050
