DTS Sentinel unit serial number:	SN410029Multiplexer serial number:	ORYXHardware model number:	OX2-SRSoftware version number:	ORYX F/W v4,00 Oryx Data Collector v3.7.2.0data status	okinstallation	B6 Nyhavnadifferential loss correction	single-endedforward channel	channel 2reverse channel	N/Adate	2023/12/11time	09:45:08forward acquisition time	300,00reverse acquisition time	0,00gamma	499,1914k internal	0,3140k external	0,3140temperature offset calibration	1,0000default loss term (dB/km)	0,3820temperature slope calibration	1,0000multiplexer offset coefficient	1,0000multiplexer slope coefficient	1,0000fibre end	0,00T internal ref (°C)	16,41T ext. ref 1 (°C)	-1,02T ext. ref 2 (°C)	-1,06length (m)	temperature (°C)	Stokes	anti-Stokes-744,400	-55,661	0,096	-0,032
-743,385	-119,641	-0,302	0,038
-742,371	-81,950	0,215	0,052
-741,356	-126,215	-0,378	0,041
-740,342	-18,537	0,188	-0,087
-739,327	-185,744	-0,276	-0,003
-738,312	-200,000	-0,001	-0,065
-737,298	-148,822	-0,288	0,017
-736,283	-58,947	0,135	-0,043
-735,269	-16,901	-0,148	0,069
-734,254	-67,083	0,105	-0,030
-733,239	-48,280	-0,565	-0,201
-732,225	124,218	0,061	0,057
-731,210	-200,000	0,008	0,036
-730,196	-64,075	0,057	0,017
-729,181	800,000	-0,002	-0,006
-728,167	800,000	0,017	0,055
-727,152	800,000	-0,009	0,027
-726,137	176,455	-0,095	0,102
-725,123	-200,000	0,003	-0,040
-724,108	-200,000	0,017	-0,123
-723,094	-200,000	0,023	-0,113
-722,079	-200,000	-0,002	-0,071
-721,064	-200,000	0,010	-0,138
-720,050	-200,000	-0,008	0,139
-719,035	326,253	0,104	-0,148
-718,021	-200,000	0,026	-0,152
-717,006	-200,000	-0,019	-0,090
-715,991	441,866	-0,075	-0,122
-714,977	-200,000	-0,019	-0,113
-713,962	33,803	-0,031	-0,020
-712,948	494,351	0,022	0,037
-711,933	-42,924	0,097	-0,036
-710,918	800,000	0,012	-0,038
-709,904	353,911	-0,072	-0,106
-708,889	800,000	-0,025	-0,060
-707,875	-24,335	-0,176	0,077
-706,860	154,642	-0,016	0,016
-705,845	-44,683	0,080	-0,029
-704,831	-200,000	0,026	0,129
-703,816	-200,000	0,003	-0,009
-702,802	-200,000	-0,011	0,068
-701,787	605,894	-0,077	-0,142
-700,772	800,000	0,018	-0,045
-699,758	221,675	0,043	0,051
-698,743	208,097	0,010	-0,011
-697,729	259,187	0,017	-0,022
-696,714	-200,000	-0,009	0,143
-695,699	-200,000	0,005	-0,032
-694,685	52,864	-0,071	-0,050
-693,670	-15,374	0,048	-0,022
-692,656	-103,932	-0,063	-0,011
-691,641	71,388	-0,044	-0,034
-690,627	28,460	-0,055	0,034
-689,612	210,710	-0,061	-0,071
-688,597	-147,632	-0,059	-0,004
-687,583	451,969	-0,021	-0,034
-686,568	234,709	0,053	-0,065
-685,554	-78,486	-0,182	-0,046
-684,539	70,228	0,071	0,054
-683,524	-34,509	0,047	-0,019
-682,510	26,989	-0,024	-0,015
-681,495	86,277	-0,095	0,077
-680,481	-62,320	-0,161	0,049
-679,466	13,043	0,037	0,021
-678,451	-200,000	0,014	-0,107
-677,437	800,000	-0,024	-0,066
-676,422	251,219	0,125	0,157
-675,408	-68,658	0,095	-0,027
-674,393	800,000	0,018	-0,051
-673,378	-58,936	0,101	-0,032
-672,364	-100,191	-0,039	0,007
-671,349	800,000	-0,078	-0,191
-670,335	177,916	-0,016	0,017
-669,320	-133,331	-0,076	0,007
-668,305	-30,499	-0,036	-0,015
-667,291	800,000	-0,042	0,106
-666,276	64,050	0,077	-0,058
-665,262	-200,000	0,012	-0,064
-664,247	-35,805	-0,155	0,062
-663,232	21,146	0,031	0,019
-662,218	-200,000	0,008	-0,043
-661,203	-77,642	0,127	0,032
-660,189	-70,039	-0,066	-0,018
-659,174	-200,000	0,001	-0,052
-658,159	-2,270	-0,102	-0,053
-657,145	-200,000	0,016	0,089
-656,130	-200,000	0,018	-0,109
-655,116	-200,000	0,000	-0,102
-654,101	-98,478	0,174	-0,033
-653,086	-65,027	0,067	-0,020
-652,072	22,095	-0,066	0,040
-651,057	139,006	-0,044	-0,043
-650,043	160,551	0,038	0,039
-649,028	800,000	-0,030	-0,069
-648,014	55,494	-0,094	-0,067
-646,999	-200,000	0,015	0,117
-645,984	-53,339	0,064	0,022
-644,970	358,581	-0,055	0,081
-643,955	230,167	-0,114	0,137
-642,941	64,143	0,103	-0,076
-641,926	214,652	0,085	0,099
-640,911	273,815	0,074	-0,096
-639,897	-200,000	-0,018	-0,103
-638,882	-42,777	0,062	0,023
-637,868	-200,000	0,001	-0,050
-636,853	-32,179	-0,159	-0,065
-635,838	443,898	-0,083	-0,135
-634,824	146,465	0,047	-0,047
-633,809	-73,411	-0,141	-0,038
-632,795	800,000	-0,044	-0,102
-631,780	78,416	0,043	0,034
-630,765	777,469	0,045	-0,091
-629,751	265,103	0,144	-0,185
-628,736	62,879	0,078	-0,058
-627,722	800,000	-0,011	0,030
-626,707	-89,397	0,011	-0,002
-625,692	24,107	-0,067	-0,041
-624,678	492,971	0,071	-0,121
-623,663	139,370	-0,047	0,046
-622,649	127,700	-0,015	0,014
-621,634	-200,000	-0,040	-0,146
-620,619	715,273	0,009	-0,018
-619,605	46,614	0,108	0,074
-618,590	800,000	-0,053	0,151
-617,576	-33,628	0,127	0,052
-616,561	-82,674	0,098	-0,023
-615,546	-200,000	0,014	-0,100
-614,532	800,000	-0,035	-0,074
-613,517	800,000	0,030	0,085
-612,503	-101,961	0,120	0,021
-611,488	568,856	0,082	0,148
-610,474	143,934	0,070	-0,069
-609,459	-200,000	0,040	0,000
-608,444	110,499	-0,085	0,075
-607,430	-34,888	-0,116	-0,046
-606,415	98,711	-0,031	-0,027
-605,401	59,232	-0,061	-0,044
-604,386	292,981	-0,111	0,150
-603,371	53,883	0,113	0,080
-602,357	-20,942	0,101	-0,045
-601,342	-200,000	-0,008	-0,113
-600,328	-70,471	-0,095	0,026
-599,313	285,098	0,032	-0,043
-598,298	760,040	-0,040	0,080
-597,284	-66,759	-0,109	-0,032
-596,269	800,000	-0,017	-0,040
-595,255	-200,000	-0,013	-0,058
-594,240	-200,000	0,017	-0,074
-593,225	224,194	-0,049	-0,059
-592,211	800,000	0,054	-0,119
-591,196	-200,000	-0,027	0,099
-590,182	-200,000	-0,002	0,012
-589,167	-54,857	0,159	0,053
-588,152	-76,652	0,032	0,008
-587,138	45,498	-0,087	0,059
-586,123	-200,000	-0,002	0,016
-585,109	-64,368	-0,093	-0,028
-584,094	-73,983	-0,126	0,033
-583,079	85,425	0,103	0,083
-582,065	363,524	-0,032	-0,047
-581,050	800,000	0,015	-0,046
-580,036	-200,000	-0,001	0,011
-579,021	800,000	0,041	0,118
-578,006	154,716	-0,071	-0,072
-576,992	-176,788	-0,057	-0,001
-575,977	-137,481	-0,155	-0,013
-574,963	-58,388	-0,030	0,010
-573,948	14,514	-0,043	-0,025
-572,934	744,710	-0,052	0,104
-571,919	323,522	-0,081	-0,114
-570,904	33,264	-0,068	-0,043
-569,890	800,000	0,024	-0,057
-568,875	56,132	-0,062	-0,044
-567,861	122,767	-0,064	0,059
-566,846	800,000	0,046	0,111
-565,831	85,684	-0,085	-0,069
-564,817	-200,000	0,038	0,131
-563,802	-200,000	-0,036	0,142
-562,788	800,000	-0,009	0,021
-561,773	-200,000	0,005	0,070
-560,758	-63,079	0,105	0,032
-559,744	-93,991	0,036	0,007
-558,729	-200,000	0,014	0,059
-557,715	-123,678	-0,092	-0,011
-556,700	-114,071	-0,138	-0,020
-555,685	800,000	0,011	-0,029
-554,671	6,173	-0,035	0,019
-553,656	570,321	-0,021	0,038
-552,642	-200,000	0,025	0,102
-551,627	103,886	-0,071	0,061
-550,612	59,408	0,089	0,065
-549,598	-9,751	-0,063	-0,031
-548,583	60,713	0,091	-0,066
-547,569	-80,962	-0,155	0,038
-546,554	-95,004	-0,060	0,012
-545,539	78,560	-0,061	0,048
-544,525	-200,000	-0,017	0,198
-543,510	-200,000	-0,012	0,078
-542,496	31,729	-0,084	0,053
-541,481	800,000	0,061	-0,178
-540,466	-200,000	0,015	-0,070
-539,452	659,317	-0,043	0,081
-538,437	800,000	0,004	0,011
-537,423	49,785	0,098	0,068
-536,408	-200,000	-0,012	-0,123
-535,393	-102,629	-0,086	-0,015
-534,379	329,169	0,021	-0,029
-533,364	-200,000	0,001	-0,151
-532,350	185,559	0,055	-0,060
-531,335	-32,887	-0,062	-0,025
-530,321	108,595	-0,082	0,072
-529,306	-200,000	-0,063	0,305
-528,291	-200,000	0,000	-0,060
-527,277	336,160	-0,131	-0,188
-526,262	-200,000	-0,004	-0,152
-525,248	-147,465	0,088	-0,005
-524,233	-124,697	0,089	0,010
-523,218	330,647	0,022	0,031
-522,204	89,302	-0,177	0,145
-521,189	692,539	-0,074	-0,143
-520,175	198,325	-0,065	-0,073
-519,160	800,000	0,045	-0,124
-518,145	-200,000	0,005	-0,053
-517,131	-200,000	0,004	-0,116
-516,116	10,871	0,006	0,003
-515,102	143,752	-0,062	0,060
-514,087	-200,000	0,018	0,081
-513,072	115,315	-0,083	-0,074
-512,058	-104,745	0,116	-0,019
-511,043	40,734	-0,122	-0,080
-510,029	48,103	0,138	-0,095
-509,014	-4,439	0,049	0,025
-507,999	-113,201	0,076	0,011
-506,985	-74,077	-0,045	0,012
-505,970	-200,000	0,010	0,058
-504,956	800,000	-0,012	-0,028
-503,941	463,976	-0,017	-0,028
-502,926	-129,502	-0,009	-0,001
-501,912	82,468	-0,045	-0,036
-500,897	-139,551	-0,050	-0,004
-499,883	800,000	0,073	-0,151
-498,868	114,493	-0,042	0,037
-497,853	-200,000	0,010	-0,049
-496,839	23,831	-0,071	-0,043
-495,824	109,994	-0,023	0,020
-494,810	-200,000	-0,002	0,047
-493,795	-84,792	0,164	0,038
-492,781	-44,448	0,067	0,024
-491,766	-200,000	-0,049	-0,218
-490,751	-200,000	-0,002	-0,056
-489,737	22,884	0,069	0,041
-488,722	-89,718	-0,107	-0,023
-487,708	-125,744	0,133	-0,015
-486,693	44,967	-0,062	0,042
-485,678	-200,000	0,011	-0,098
-484,664	357,603	-0,077	-0,113
-483,649	-158,451	0,133	0,006
-482,635	-23,401	-0,108	0,047
-481,620	-159,364	0,061	-0,002
-480,605	407,847	-0,011	-0,017
-479,591	17,458	-0,089	0,052
-478,576	2,175	-0,063	-0,033
-477,562	-33,156	0,047	0,019
-476,547	303,837	0,115	-0,156
-475,532	94,661	-0,085	0,071
-474,518	-200,000	-0,012	0,050
-473,503	275,372	0,041	0,054
-472,489	-6,233	0,087	0,044
-471,474	-69,559	-0,062	0,017
-470,459	-6,753	-0,130	-0,065
-469,445	-142,071	-0,081	-0,006
-468,430	47,668	0,098	-0,067
-467,416	-200,000	0,029	0,106
-466,401	800,000	-0,044	-0,122
-465,386	-17,976	-0,043	-0,020
-464,372	-128,096	0,193	0,020
-463,357	800,000	-0,051	0,115
-462,343	43,221	-0,211	-0,141
-461,328	800,000	0,031	-0,095
-460,313	-200,000	-0,017	-0,097
-459,299	96,936	0,013	-0,011
-458,284	384,721	0,081	0,123
-457,270	-45,381	-0,057	0,021
-456,255	800,000	0,035	-0,080
-455,241	800,000	-0,055	-0,128
-454,226	54,191	-0,050	0,035
-453,211	38,903	0,090	-0,059
-452,197	26,483	-0,141	0,086
-451,182	-150,320	-0,055	0,003
-450,168	-171,906	0,023	0,001
-449,153	-67,676	-0,069	-0,020
-448,138	-200,000	-0,019	-0,167
-447,124	-146,721	-0,165	0,010
-446,109	-80,988	0,069	-0,017
-445,095	800,000	-0,006	0,018
-444,080	-140,685	0,043	-0,003
-443,065	112,661	-0,064	0,056
-442,051	-77,684	0,059	0,015
-441,036	715,716	0,037	0,072
-440,022	800,000	-0,045	0,099
-439,007	-200,000	0,012	-0,054
-437,992	800,000	-0,016	-0,044
-436,978	-144,567	0,030	0,002
-435,963	-200,000	-0,012	0,062
-434,949	262,503	-0,056	-0,071
-433,934	524,411	-0,085	-0,147
-432,919	-63,089	0,079	-0,024
-431,905	31,488	-0,102	-0,064
-430,890	-200,000	0,016	0,095
-429,876	-200,000	-0,002	0,046
-428,861	59,301	-0,039	0,028
-427,846	-200,000	-0,011	-0,068
-426,832	-117,958	0,178	-0,023
-425,817	9,714	-0,115	0,064
-424,803	-189,404	-0,047	-0,000
-423,788	242,431	0,176	0,216
-422,773	-67,514	-0,074	-0,021
-421,759	-51,002	-0,071	0,024
-420,744	-200,000	0,014	-0,049
-419,730	-200,000	0,000	-0,092
-418,715	121,781	-0,082	-0,075
-417,701	9,454	-0,035	-0,020
-416,686	-46,021	0,057	-0,021
-415,671	-200,000	-0,007	-0,039
-414,657	800,000	0,048	0,146
-413,642	86,412	-0,047	-0,038
-412,628	118,227	-0,108	-0,097
-411,613	800,000	0,014	0,039
-410,598	300,334	0,095	-0,128
-409,584	101,002	-0,058	0,050
-408,569	571,086	0,032	-0,057
-407,555	-111,253	-0,098	0,014
-406,540	240,441	0,047	-0,058
-405,525	-73,781	0,056	0,015
-404,511	568,377	-0,026	-0,046
-403,496	126,031	-0,086	-0,079
-402,482	113,175	-0,061	0,054
-401,467	165,454	0,082	0,085
-400,452	56,148	0,043	0,030
-399,438	800,000	-0,030	-0,090
-398,423	-90,426	-0,070	0,015
-397,409	153,175	-0,108	0,108
-396,394	676,991	-0,015	-0,029
-395,379	13,191	-0,081	0,046
-394,365	42,596	0,139	0,092
-393,350	129,034	0,054	0,051
-392,336	-64,379	0,083	0,025
-391,321	42,771	0,147	0,098
-390,306	147,247	-0,143	-0,141
-389,292	800,000	-0,020	-0,055
-388,277	116,908	0,062	-0,056
-387,263	283,905	0,132	0,174
-386,248	70,442	0,052	0,039
-385,233	800,000	0,029	0,065
-384,219	8,980	-0,080	-0,044
-383,204	15,982	0,024	0,014
-382,190	800,000	-0,060	-0,157
-381,175	237,769	0,028	-0,034
-380,160	-62,928	0,059	0,018
-379,146	590,391	0,058	0,105
-378,131	-20,312	0,144	-0,065
-377,117	570,010	0,057	0,101
-376,102	-75,365	-0,127	0,033
-375,088	800,000	0,048	-0,143
-374,073	-200,000	-0,009	0,052
-373,058	-103,954	0,139	0,024
-372,044	329,863	-0,055	0,077
-371,029	-77,763	0,063	0,016
-370,015	122,347	0,077	0,070
-369,000	55,349	0,090	-0,064
-367,985	-4,482	-0,083	0,042
-366,971	83,835	-0,129	-0,103
-365,956	-200,000	0,000	0,098
-364,942	653,012	0,024	0,044
-363,927	-107,077	0,162	0,026
-362,912	-200,000	-0,008	-0,034
-361,898	-200,000	-0,029	-0,119
-360,883	23,394	-0,081	0,049
-359,869	97,467	-0,048	0,041
-358,854	-77,738	-0,062	0,016
-357,839	102,144	0,062	-0,053
-356,825	44,357	0,136	0,091
-355,810	-30,615	0,035	-0,014
-354,796	-200,000	0,019	0,082
-353,781	-200,000	0,007	0,032
-352,766	800,000	-0,031	-0,063
-351,752	345,207	0,052	0,075
-350,737	137,967	0,062	0,059
-349,723	-200,000	0,000	0,060
-348,708	48,717	0,124	0,085
-347,693	390,837	-0,060	-0,091
-346,679	93,723	0,142	-0,118
-345,664	343,516	-0,033	0,047
-344,650	800,000	0,008	0,020
-343,635	4,150	0,071	-0,038
-342,620	-1,579	0,159	-0,081
-341,606	-200,000	-0,004	-0,099
-340,591	523,319	-0,048	0,082
-339,577	-24,412	0,034	-0,015
-338,562	384,189	0,122	-0,184
-337,548	401,555	-0,070	0,107
-336,533	185,615	0,123	-0,134
-335,518	-200,000	-0,014	0,131
-334,504	-29,021	0,107	0,045
-333,489	236,692	-0,084	-0,102
-332,475	26,349	-0,096	-0,058
-331,460	458,373	0,077	-0,125
-330,445	-17,896	0,033	0,015
-329,431	800,000	-0,027	0,069
-328,416	795,286	0,064	0,130
-327,402	-200,000	-0,010	0,034
-326,387	-57,437	0,112	0,036
-325,372	27,825	-0,106	-0,065
-324,358	-197,380	0,048	-0,000
-323,343	-200,000	0,014	-0,072
-322,329	-200,000	0,001	0,051
-321,314	-200,000	0,035	0,116
-320,299	95,504	-0,105	0,087
-319,285	-102,047	0,026	0,005
-318,270	800,000	-0,030	-0,074
-317,256	-99,125	-0,115	-0,021
-316,241	800,000	-0,022	0,060
-315,226	230,779	0,072	-0,086
-314,212	723,661	0,028	0,055
-313,197	-46,757	0,048	-0,017
-312,183	-200,000	-0,033	0,135
-311,168	4,600	0,096	0,051
-310,153	-154,387	-0,081	0,004
-309,139	-115,229	-0,137	0,019
-308,124	-133,441	0,096	-0,009
-307,110	-144,417	0,046	-0,003
-306,095	-59,083	0,167	0,052
-305,080	-200,000	0,028	0,147
-304,066	-45,180	-0,125	-0,045
-303,051	-7,864	-0,044	0,022
-302,037	109,501	-0,063	0,055
-301,022	503,561	0,037	0,062
-300,008	800,000	-0,035	-0,076
-298,993	-200,000	0,003	-0,066
-297,978	-200,000	0,031	0,101
-296,964	-200,000	0,038	-0,134
-295,949	44,102	0,155	-0,104
-294,935	-31,922	-0,108	-0,044
-293,920	-200,000	-0,025	0,119
-292,905	-200,000	0,000	0,025
-291,891	529,188	-0,030	0,051
-290,876	-200,000	0,014	-0,077
-289,862	593,865	-0,073	0,132
-288,847	-200,000	-0,003	0,107
-287,832	-171,230	-0,081	-0,002
-286,818	230,705	0,035	0,041
-285,803	-109,380	-0,204	-0,031
-284,789	-200,000	0,030	-0,185
-283,774	241,897	0,055	-0,067
-282,759	-72,437	-0,149	0,040
-281,745	-89,999	-0,129	0,027
-280,730	-114,942	-0,147	0,020
-279,716	-47,418	0,028	0,010
-278,701	90,496	0,059	0,048
-277,686	-57,794	0,110	0,035
-276,672	0,641	-0,052	-0,027
-275,657	-103,184	0,041	-0,007
-274,643	319,578	0,056	-0,078
-273,628	249,465	0,045	0,055
-272,613	800,000	-0,026	0,059
-271,599	239,113	-0,051	-0,062
-270,584	223,518	0,091	-0,107
-269,570	326,607	0,099	-0,138
-268,555	-73,593	-0,095	-0,025
-267,540	105,362	-0,093	-0,080
-266,526	-129,005	-0,077	-0,008
-265,511	-34,102	0,191	0,076
-264,497	301,937	0,075	0,102
-263,482	14,408	-0,097	0,055
-262,467	257,710	0,117	-0,147
-261,453	-6,977	-0,025	0,012
-260,438	-200,000	-0,002	0,014
-259,424	170,740	-0,068	-0,071
-258,409	-126,751	-0,147	0,016
-257,395	617,998	0,068	-0,125
-256,380	-90,851	0,060	0,012
-255,365	-16,596	0,117	0,054
-254,351	73,490	0,082	-0,062
-253,336	-4,928	0,036	0,018
-252,322	93,463	0,062	0,051
-251,307	-96,320	-0,058	0,011
-250,292	-50,551	-0,048	-0,016
-249,278	30,210	0,090	0,056
-248,263	-39,415	0,068	0,026
-247,249	-200,000	-0,005	0,023
-246,234	375,406	-0,023	0,035
-245,219	-200,000	0,013	0,053
-244,205	481,497	-0,043	-0,072
-243,190	312,854	0,019	0,026
-242,176	144,941	0,098	0,096
-241,161	405,128	0,083	0,127
-240,146	-200,000	0,016	0,097
-239,132	-16,494	0,086	-0,040
-238,117	-200,000	0,010	-0,081
-237,103	-200,000	-0,017	0,092
-236,088	247,730	-0,017	-0,021
-235,073	121,596	0,094	0,085
-234,059	800,000	-0,027	0,066
-233,044	800,000	-0,028	0,085
-232,030	758,956	-0,059	-0,117
-231,015	169,256	-0,030	0,031
-230,000	-200,000	-0,005	-0,192
-228,986	48,443	-0,022	-0,015
-227,971	72,543	-0,046	0,035
-226,957	-97,739	-0,067	0,013
-225,942	195,050	-0,073	0,080
-224,927	-127,674	0,079	-0,008
-223,913	-200,000	-0,018	-0,081
-222,898	196,583	0,100	-0,111
-221,884	318,074	0,057	-0,079
-220,869	338,023	0,074	-0,105
-219,855	430,700	-0,030	0,047
-218,840	361,528	0,109	0,159
-217,825	800,000	-0,057	0,135
-216,811	800,000	-0,016	-0,040
-215,796	800,000	-0,032	0,081
-214,782	800,000	-0,013	0,029
-213,767	-64,571	0,184	-0,054
-212,752	221,782	-0,058	-0,068
-211,738	800,000	0,044	0,130
-210,723	-104,463	-0,028	-0,005
-209,709	-164,095	-0,127	-0,004
-208,694	-21,302	-0,123	0,054
-207,679	-200,000	0,044	-0,212
-206,665	-51,125	0,110	-0,037
-205,650	357,712	0,041	0,060
-204,636	50,520	0,053	-0,037
-203,621	-200,000	0,032	0,165
-202,606	-200,000	0,006	-0,134
-201,592	282,309	-0,010	-0,013
-200,577	-200,000	0,006	-0,025
-199,563	-150,665	-0,069	-0,004
-198,548	-200,000	0,003	-0,109
-197,533	-200,000	0,000	0,024
-196,519	136,318	0,084	0,080
-195,504	-42,669	0,156	-0,057
-194,490	-200,000	-0,025	-0,111
-193,475	-70,605	-0,061	0,017
-192,460	8,461	0,149	-0,081
-191,446	138,830	0,043	-0,041
-190,431	235,325	0,037	0,044
-189,417	-200,000	-0,025	0,114
-188,402	-42,585	0,048	-0,018
-187,387	800,000	-0,020	-0,042
-186,373	169,721	-0,082	-0,085
-185,358	800,000	0,038	0,086
-184,344	131,283	0,072	0,067
-183,329	59,483	0,058	0,041
-182,315	-200,000	-0,012	0,047
-181,300	13,262	-0,130	0,073
-180,285	-89,022	0,103	-0,022
-179,271	-200,000	-0,019	0,110
-178,256	28,268	-0,132	-0,081
-177,242	152,541	-0,090	0,090
-176,227	155,704	0,153	0,153
-175,212	44,302	-0,089	0,059
-174,198	-185,899	0,093	0,001
-173,183	-118,204	-0,095	0,012
-172,169	131,758	-0,041	0,038
-171,154	272,279	-0,066	0,084
-170,139	89,678	-0,134	0,108
-169,125	-15,708	0,133	0,061
-168,110	435,297	0,061	0,096
-167,096	-127,625	0,069	-0,007
-166,081	-9,972	-0,054	-0,026
-165,066	562,878	-0,078	-0,137
-164,052	-200,000	-0,006	0,026
-163,037	-29,476	0,059	0,024
-162,023	800,000	-0,032	0,104
-161,008	-93,741	0,148	0,029
-159,993	-200,000	0,014	0,051
-158,979	671,565	-0,029	-0,055
-157,964	-1,135	-0,063	-0,032
-156,950	741,061	0,041	-0,080
-155,935	42,994	0,035	-0,023
-154,920	-200,000	-0,009	0,039
-153,906	-200,000	0,006	0,183
-152,891	-71,196	-0,071	-0,019
-151,877	-200,000	0,037	-0,127
-150,862	800,000	0,054	-0,112
-149,847	-124,635	-0,037	0,004
-148,833	-200,000	0,015	-0,170
-147,818	33,040	0,151	0,095
-146,804	639,344	-0,030	0,055
-145,789	176,638	-0,053	-0,056
-144,775	40,493	-0,015	-0,010
-143,760	-200,000	-0,003	0,010
-142,745	-200,000	-0,012	-0,097
-141,731	109,459	-0,083	-0,072
-140,716	-200,000	-0,007	0,042
-139,702	-200,000	0,040	-0,141
-138,687	-65,980	-0,090	-0,026
-137,672	-73,453	-0,094	-0,025
-136,658	-33,928	-0,025	0,010
-135,643	800,000	-0,013	-0,036
-134,629	-151,829	-0,164	0,009
-133,614	101,677	0,094	0,079
-132,599	800,000	-0,024	0,056
-131,585	10,610	0,081	-0,045
-130,570	289,295	-0,072	0,094
-129,556	-108,263	0,193	0,030
-128,541	-33,394	-0,086	-0,034
-127,526	303,426	0,043	0,058
-126,512	57,930	0,033	-0,023
-125,497	311,913	0,054	0,074
-124,483	-42,780	-0,081	-0,030
-123,468	-87,901	0,051	-0,011
-122,453	34,375	-0,101	-0,064
-121,439	695,317	0,062	0,119
-120,424	-103,121	0,029	-0,005
-119,410	-18,005	-0,020	-0,009
-118,395	-113,770	-0,036	-0,005
