DTS Sentinel unit serial number:	SN410029Multiplexer serial number:	ORYXHardware model number:	OX2-SRSoftware version number:	ORYX F/W v4,00 Oryx Data Collector v3.7.2.0data status	okinstallation	B6 Nyhavnadifferential loss correction	single-endedforward channel	channel 2reverse channel	N/Adate	2023/12/08time	11:50:08forward acquisition time	300,00reverse acquisition time	0,00gamma	499,1914k internal	0,3160k external	0,3160temperature offset calibration	1,0000default loss term (dB/km)	0,3820temperature slope calibration	1,0000multiplexer offset coefficient	1,0000multiplexer slope coefficient	1,0000fibre end	0,00T internal ref (°C)	15,00T ext. ref 1 (°C)	-1,45T ext. ref 2 (°C)	-1,46length (m)	temperature (°C)	Stokes	anti-Stokes-744,400	-6,959	0,156	-0,078
-743,385	-65,343	-0,349	0,103
-742,371	-111,810	0,039	0,006
-741,356	-82,534	-0,259	0,061
-740,342	196,625	0,098	0,110
-739,327	-136,143	-0,234	0,020
-738,312	-200,000	0,000	0,074
-737,298	-72,210	-0,302	-0,082
-736,283	577,685	0,068	-0,123
-735,269	-82,840	-0,191	-0,045
-734,254	-200,000	0,002	-0,028
-733,239	-77,615	-0,504	-0,128
-732,225	-169,184	0,333	-0,009
-731,210	318,482	0,071	0,099
-730,196	-97,920	0,096	-0,018
-729,181	-140,201	0,056	-0,004
-728,167	-157,875	-0,110	-0,005
-727,152	186,607	0,009	0,010
-726,137	337,822	-0,120	-0,172
-725,123	234,654	0,024	0,029
-724,108	-109,679	-0,121	-0,019
-723,094	-44,992	-0,143	-0,052
-722,079	84,887	-0,064	-0,052
-721,064	-113,111	0,083	-0,012
-720,050	-200,000	-0,011	0,047
-719,035	800,000	-0,019	-0,050
-718,021	80,640	-0,055	-0,044
-717,006	-200,000	0,019	-0,112
-715,991	-200,000	0,015	-0,094
-714,977	50,843	-0,089	-0,062
-713,962	-200,000	0,002	-0,079
-712,948	-200,000	-0,009	0,129
-711,933	21,829	0,043	0,026
-710,918	-131,297	-0,065	-0,006
-709,904	-79,973	-0,070	0,017
-708,889	-200,000	-0,019	-0,081
-707,875	-61,959	-0,145	-0,044
-706,860	800,000	-0,006	-0,016
-705,845	23,251	0,017	0,011
-704,831	-200,000	0,018	0,074
-703,816	312,290	-0,074	-0,102
-702,802	-200,000	0,008	-0,112
-701,787	-154,219	-0,116	0,006
-700,772	-74,750	0,030	-0,008
-699,758	35,990	-0,030	-0,019
-698,743	-1,093	0,124	0,064
-697,729	-66,442	0,089	0,026
-696,714	7,978	-0,141	0,078
-695,699	20,510	-0,079	0,047
-694,685	-107,780	-0,093	-0,015
-693,670	800,000	0,025	-0,072
-692,656	-51,096	0,081	-0,028
-691,641	-200,000	0,001	-0,073
-690,627	137,290	0,038	0,037
-689,612	-200,000	-0,029	-0,099
-688,597	327,733	-0,028	-0,040
-687,583	640,286	-0,062	-0,116
-686,568	399,199	0,031	0,048
-685,554	495,901	-0,028	-0,048
-684,539	-200,000	-0,015	-0,103
-683,524	-200,000	0,005	0,049
-682,510	631,413	0,017	0,032
-681,495	-200,000	-0,024	-0,123
-680,481	36,398	-0,098	-0,064
-679,466	147,062	-0,088	-0,087
-678,451	-200,000	0,011	0,039
-677,437	656,047	-0,011	0,020
-676,422	800,000	0,018	-0,055
-675,408	284,932	0,054	0,071
-674,393	-9,714	0,109	0,053
-673,378	-200,000	-0,011	0,104
-672,364	-99,342	-0,153	0,028
-671,349	67,354	-0,067	-0,050
-670,335	-151,375	-0,084	0,005
-669,320	24,806	-0,042	0,026
-668,305	-200,000	0,045	0,222
-667,291	61,036	-0,073	0,053
-666,276	89,309	-0,004	0,003
-665,262	-73,350	-0,085	0,023
-664,247	0,807	-0,061	-0,032
-663,232	527,220	0,045	0,078
-662,218	-33,878	0,103	0,042
-661,203	-35,847	0,030	0,012
-660,189	634,215	0,037	-0,069
-659,174	157,923	0,034	-0,035
-658,159	244,443	-0,084	0,104
-657,145	102,577	-0,032	0,027
-656,130	13,400	-0,110	0,063
-655,116	800,000	0,034	-0,085
-654,101	-49,549	-0,045	-0,016
-653,086	800,000	0,046	-0,099
-652,072	-200,000	-0,006	-0,021
-651,057	-109,170	-0,109	-0,017
-650,043	800,000	0,005	0,015
-649,028	-174,358	-0,144	-0,003
-648,014	114,540	0,073	0,065
-646,999	36,948	-0,129	-0,084
-645,984	59,787	0,052	0,037
-644,970	196,436	-0,040	-0,045
-643,955	-200,000	-0,014	-0,096
-642,941	391,310	0,038	-0,058
-641,926	64,603	0,066	0,049
-640,911	-200,000	-0,057	-0,234
-639,897	-0,251	0,178	0,092
-638,882	-69,710	0,042	-0,012
-637,868	-11,292	0,052	-0,025
-636,853	800,000	-0,022	-0,067
-635,838	88,136	0,038	0,031
-634,824	-51,407	-0,081	-0,028
-633,809	-200,000	-0,013	0,108
-632,795	-5,746	0,092	-0,046
-631,780	115,326	-0,112	0,100
-630,765	-200,000	0,015	-0,050
-629,751	800,000	-0,054	0,163
-628,736	-200,000	-0,019	0,072
-627,722	-200,000	0,009	0,040
-626,707	-25,130	0,142	0,061
-625,692	-200,000	0,004	0,044
-624,678	-135,282	-0,047	0,004
-623,663	800,000	0,017	-0,055
-622,649	543,945	-0,045	-0,079
-621,634	800,000	-0,039	0,086
-620,619	-43,734	-0,045	0,017
-619,605	284,721	0,026	-0,034
-618,590	171,450	-0,041	0,043
-617,576	-166,785	0,185	0,005
-616,561	-200,000	-0,005	-0,018
-615,546	160,145	-0,064	-0,065
-614,532	17,319	-0,174	-0,101
-613,517	-96,761	0,025	0,005
-612,503	2,523	0,080	0,042
-611,488	304,322	-0,024	0,033
-610,474	130,751	0,114	0,108
-609,459	604,037	0,031	-0,057
-608,444	-28,931	0,104	-0,044
-607,430	800,000	0,013	-0,029
-606,415	122,712	-0,026	-0,024
-605,401	800,000	0,020	0,054
-604,386	-87,108	0,060	-0,013
-603,371	-43,614	-0,053	0,020
-602,357	131,416	-0,117	-0,110
-601,342	-200,000	0,004	0,019
-600,328	-0,029	-0,079	0,041
-599,313	183,446	-0,060	0,066
-598,298	198,880	-0,095	-0,106
-597,284	393,971	0,107	0,164
-596,269	89,942	0,077	0,063
-595,255	165,676	0,111	-0,115
-594,240	-51,951	0,116	-0,039
-593,225	-48,206	0,042	0,015
-592,211	-200,000	-0,003	-0,043
-591,196	-200,000	0,016	-0,114
-590,182	94,083	-0,080	-0,067
-589,167	283,445	-0,054	0,071
-588,152	-200,000	-0,035	0,123
-587,138	800,000	0,048	0,126
-586,123	-200,000	-0,024	-0,114
-585,109	674,959	-0,037	0,070
-584,094	-200,000	-0,001	-0,007
-583,079	94,927	0,001	-0,001
-582,065	-145,824	-0,060	-0,004
-581,050	-200,000	0,011	0,068
-580,036	-13,297	-0,098	-0,046
-579,021	800,000	-0,027	0,080
-578,006	800,000	-0,044	0,103
-576,992	-4,208	-0,050	-0,025
-575,977	-149,898	0,062	0,004
-574,963	-18,918	0,114	0,052
-573,948	106,070	0,083	-0,072
-572,934	-50,829	-0,080	0,027
-571,919	-122,294	-0,195	0,023
-570,904	-103,145	-0,019	0,003
-569,890	252,065	-0,111	0,138
-568,875	213,338	-0,097	-0,113
-567,861	96,356	-0,018	-0,015
-566,846	442,408	0,068	0,110
-565,831	-145,554	0,054	-0,004
-564,817	800,000	-0,041	0,110
-563,802	13,790	0,027	0,015
-562,788	457,787	-0,055	-0,089
-561,773	1,671	0,031	0,016
-560,758	113,521	-0,037	-0,033
-559,744	-74,881	0,106	0,028
-558,729	-200,000	-0,017	-0,110
-557,715	-117,257	-0,014	0,002
-556,700	-101,291	0,155	-0,027
-555,685	26,928	-0,117	0,072
-554,671	800,000	0,008	-0,023
-553,656	800,000	0,033	-0,099
-552,642	-118,666	0,058	0,007
-551,627	-200,000	0,015	0,111
-550,612	-200,000	0,016	0,060
-549,598	-200,000	0,001	-0,065
-548,583	-15,350	0,070	0,033
-547,569	-25,157	0,151	-0,065
-546,554	204,239	0,025	0,029
-545,539	-12,522	-0,023	-0,011
-544,525	-5,452	0,071	-0,036
-543,510	57,184	0,049	-0,035
-542,496	319,790	0,058	0,081
-541,481	43,599	-0,121	0,081
-540,466	-200,000	-0,025	-0,107
-539,452	-200,000	0,003	0,068
-538,437	148,432	0,126	0,124
-537,423	24,816	-0,062	0,038
-536,408	-81,153	-0,028	-0,007
-535,393	166,924	-0,126	-0,131
-534,379	800,000	0,013	-0,041
-533,364	-65,604	-0,058	0,017
-532,350	3,235	-0,039	-0,021
-531,335	-103,308	-0,029	0,005
-530,321	208,358	0,096	0,110
-529,306	-200,000	-0,030	-0,128
-528,291	800,000	0,050	-0,125
-527,277	181,182	-0,022	0,023
-526,262	39,887	-0,108	-0,071
-525,248	-147,957	0,172	0,010
-524,233	-140,106	0,115	0,009
-523,218	800,000	-0,015	0,036
-522,204	27,754	-0,085	0,052
-521,189	800,000	-0,034	-0,078
-520,175	-200,000	-0,023	-0,109
-519,160	-200,000	-0,019	0,155
-518,145	76,164	-0,065	0,050
-517,131	738,097	-0,048	-0,095
-516,116	194,407	-0,102	-0,113
-515,102	63,294	0,032	0,023
-514,087	41,453	-0,082	0,054
-513,072	627,228	-0,096	-0,177
-512,058	-200,000	0,020	-0,089
-511,043	-82,093	0,123	0,029
-510,029	223,181	0,071	0,084
-509,014	568,939	0,072	0,129
-507,999	-32,279	-0,043	0,017
-506,985	800,000	-0,037	-0,089
-505,970	-70,696	-0,019	-0,005
-504,956	-128,911	-0,190	0,019
-503,941	33,632	-0,049	0,031
-502,926	201,858	0,077	0,086
-501,912	-72,037	-0,022	0,006
-500,897	514,204	0,103	0,176
-499,883	23,094	-0,090	0,054
-498,868	-18,295	-0,087	-0,039
-497,853	-8,001	0,054	0,027
-496,839	-200,000	-0,001	0,003
-495,824	452,368	0,035	0,056
-494,810	-81,754	0,140	0,033
-493,795	-54,983	-0,047	0,015
-492,781	-200,000	-0,008	0,037
-491,766	28,031	-0,073	0,045
-490,751	68,181	-0,035	-0,026
-489,737	-28,378	0,049	0,021
-488,722	-200,000	-0,000	-0,009
-487,708	-42,200	0,097	0,036
-486,693	233,382	-0,044	0,053
-485,678	-131,349	-0,189	-0,018
-484,664	-31,575	-0,073	0,030
-483,649	20,349	-0,130	-0,076
-482,635	-95,901	-0,029	0,006
-481,620	-54,190	-0,095	0,031
-480,605	74,512	0,072	0,055
-479,591	790,609	-0,065	0,131
-478,576	116,975	0,040	-0,036
-477,562	-200,000	-0,051	-0,288
-476,547	-200,000	0,007	0,046
-475,532	11,615	-0,160	-0,089
-474,518	393,961	0,051	-0,078
-473,503	309,856	0,125	0,171
-472,489	-4,059	-0,041	-0,021
-471,474	377,741	0,076	0,114
-470,459	-200,000	0,008	0,130
-469,445	-200,000	-0,004	-0,158
-468,430	30,547	-0,064	-0,040
-467,416	-200,000	0,012	-0,087
-466,401	18,644	0,104	0,061
-465,386	253,232	0,080	0,100
-464,372	136,569	-0,084	-0,080
-463,357	244,878	-0,094	-0,115
-462,343	-53,725	-0,083	0,027
-461,328	-31,222	-0,136	-0,055
-460,313	357,947	0,102	0,149
-459,299	102,068	-0,007	-0,006
-458,284	-16,011	0,107	-0,049
-457,270	-200,000	-0,000	0,036
-456,255	-73,031	-0,102	-0,027
-455,241	231,531	-0,055	-0,065
-454,226	152,906	-0,058	-0,058
-453,211	18,896	0,094	-0,055
-452,197	597,478	0,032	-0,057
-451,182	-191,568	0,018	-0,000
-450,168	302,732	-0,118	0,159
-449,153	191,353	-0,058	-0,064
-448,138	315,661	0,064	-0,089
-447,124	101,503	0,018	-0,015
-446,109	190,713	-0,089	-0,097
-445,095	96,895	0,058	0,048
-444,080	-200,000	0,028	0,134
-443,065	-200,000	-0,013	0,054
-442,051	-63,967	-0,121	-0,036
-441,036	-106,892	-0,080	0,013
-440,022	43,539	-0,072	-0,048
-439,007	-28,350	0,120	-0,050
-437,992	156,749	0,048	-0,048
-436,978	-57,028	-0,028	-0,009
-435,963	249,208	0,024	0,030
-434,949	560,050	-0,027	-0,048
-433,934	800,000	-0,061	-0,126
-432,919	-152,544	-0,181	0,009
-431,905	-183,043	-0,090	0,001
-430,890	-92,605	-0,093	-0,019
-429,876	156,570	0,110	0,110
-428,861	-77,403	-0,129	-0,032
-427,846	-27,118	0,016	-0,007
-426,832	83,985	0,162	-0,128
-425,817	-134,878	0,050	0,004
-424,803	-200,000	-0,005	0,090
-423,788	800,000	0,033	-0,080
-422,773	94,343	0,147	0,121
-421,759	-200,000	-0,014	0,073
-420,744	54,195	0,035	0,025
-419,730	-200,000	-0,007	-0,107
-418,715	-200,000	-0,022	-0,197
-417,701	-50,268	-0,120	0,041
-416,686	-12,308	-0,095	0,045
-415,671	146,052	0,010	-0,009
-414,657	-125,184	-0,088	-0,010
-413,642	301,012	0,045	-0,060
-412,628	-95,374	0,039	-0,007
-411,613	-200,000	-0,016	0,081
-410,598	-200,000	0,016	-0,105
-409,584	-5,961	0,146	-0,073
-408,569	42,999	0,017	0,011
-407,555	800,000	0,029	0,083
-406,540	-46,522	0,030	0,011
-405,525	-200,000	-0,020	0,133
-404,511	255,043	-0,068	-0,085
-403,496	391,116	0,084	-0,128
-402,482	-200,000	0,005	0,036
-401,467	800,000	0,013	0,031
-400,452	800,000	-0,049	0,141
-399,438	-141,349	0,119	0,009
-398,423	-200,000	0,003	-0,050
-397,409	-83,465	-0,142	-0,033
-396,394	140,567	0,105	0,100
-395,379	800,000	0,007	0,021
-394,365	290,110	-0,083	-0,110
-393,350	-56,122	0,137	0,044
-392,336	-1,806	-0,076	-0,039
-391,321	629,236	-0,032	0,058
-390,306	111,042	-0,109	0,095
-389,292	-53,692	-0,071	-0,023
-388,277	57,619	0,090	-0,064
-387,263	-120,796	0,089	-0,011
-386,248	-96,586	0,060	0,011
-385,233	-163,579	-0,066	-0,002
-384,219	709,737	0,035	-0,067
-383,204	-24,881	-0,121	0,052
-382,190	505,859	-0,051	-0,086
-381,175	197,460	-0,061	-0,068
-380,160	238,792	-0,013	-0,015
-379,146	-112,432	0,063	-0,009
-378,131	-31,712	0,101	-0,041
-377,117	800,000	0,024	0,058
-376,102	-200,000	-0,002	-0,115
-375,088	-69,621	-0,094	0,026
-374,073	-54,345	-0,081	-0,026
-373,058	-200,000	0,019	0,097
-372,044	-163,268	0,107	0,004
-371,029	-200,000	0,004	0,071
-370,015	-200,000	0,018	0,092
-369,000	10,130	-0,046	-0,025
-367,985	79,457	-0,078	-0,061
-366,971	-200,000	0,002	-0,029
-365,956	800,000	0,003	-0,010
-364,942	-74,477	0,072	0,019
-363,927	196,131	0,110	-0,121
-362,912	505,974	-0,027	-0,046
-361,898	-131,770	-0,221	0,021
-360,883	-66,228	0,102	-0,029
-359,869	-7,410	0,078	-0,038
-358,854	-200,000	-0,008	-0,057
-357,839	-62,245	0,074	-0,022
-356,825	245,536	0,082	0,101
-355,810	800,000	-0,028	-0,059
-354,796	-79,821	-0,071	-0,017
-353,781	-128,683	-0,076	0,008
-352,766	-144,339	0,061	0,004
-351,752	402,560	0,023	0,035
-350,737	18,268	-0,086	0,050
-349,723	339,561	0,021	0,030
-348,708	-200,000	0,006	0,142
-347,693	-200,000	-0,029	0,099
-346,679	-43,142	-0,023	-0,008
-345,664	-19,119	-0,138	0,062
-344,650	27,946	-0,098	-0,060
-343,635	-46,658	0,126	-0,045
-342,620	212,818	0,084	0,096
-341,606	189,890	-0,050	-0,054
-340,591	-200,000	-0,021	-0,153
-339,577	207,700	-0,032	-0,036
-338,562	209,200	-0,055	-0,063
-337,548	800,000	-0,027	-0,065
-336,533	-73,677	0,085	-0,022
-335,518	324,689	-0,042	0,059
-334,504	-130,412	0,092	0,009
-333,489	800,000	-0,020	0,042
-332,475	-200,000	0,006	-0,041
-331,460	-200,000	0,028	0,125
-330,445	-200,000	0,020	0,075
-329,431	800,000	-0,069	0,170
-328,416	-200,000	0,021	0,168
-327,402	264,771	-0,027	-0,034
-326,387	94,828	0,042	-0,034
-325,372	144,290	-0,039	-0,038
-324,358	-129,879	-0,166	-0,016
-323,343	220,439	-0,100	-0,116
-322,329	113,140	0,164	0,144
-321,314	105,624	-0,081	0,070
-320,299	-200,000	0,001	0,161
-319,285	-31,660	0,063	0,026
-318,270	74,853	-0,011	-0,009
-317,256	800,000	-0,093	-0,198
-316,241	-200,000	0,006	-0,077
-315,226	-200,000	0,007	-0,031
-314,212	137,239	0,092	0,087
-313,197	341,300	0,083	0,117
-312,183	-200,000	0,026	0,124
-311,168	365,301	-0,026	0,038
-310,153	713,780	-0,056	0,109
-309,139	127,821	0,081	-0,074
-308,124	-93,117	0,144	-0,029
-307,110	709,122	-0,078	0,149
-306,095	-28,787	-0,041	0,017
-305,080	24,694	0,049	-0,030
-304,066	-60,633	-0,160	-0,049
-303,051	800,000	-0,018	-0,042
-302,037	85,408	0,078	0,062
-301,022	559,124	-0,037	0,065
-300,008	-128,343	0,083	-0,008
-298,993	100,836	0,128	0,108
-297,978	-89,280	0,060	0,013
-296,964	800,000	-0,003	0,008
-295,949	-200,000	0,009	0,032
-294,935	-200,000	-0,019	-0,139
-293,920	26,109	-0,035	-0,021
-292,905	-175,164	-0,087	0,002
-291,891	-200,000	-0,023	0,091
-290,876	62,635	0,017	-0,012
-289,862	40,027	0,051	-0,033
-288,847	-20,898	0,053	0,023
-287,832	-200,000	-0,026	-0,221
-286,818	107,578	0,102	0,087
-285,803	-126,036	-0,103	0,011
-284,789	-119,508	0,068	0,008
-283,774	192,482	-0,077	0,085
-282,759	-139,618	0,110	0,008
-281,745	-200,000	-0,033	-0,200
-280,730	-200,000	0,016	0,053
-279,716	201,155	-0,138	0,154
-278,701	-166,321	0,075	0,002
-277,686	-77,120	0,199	0,050
-276,672	131,553	-0,105	0,098
-275,657	368,342	-0,046	0,067
-274,643	74,259	-0,104	0,079
-273,628	-200,000	-0,014	-0,118
-272,613	-178,039	0,320	0,005
-271,599	101,656	-0,045	-0,038
-270,584	448,244	-0,078	0,125
-269,570	-200,000	0,008	-0,184
-268,555	27,545	-0,045	-0,027
-267,540	-200,000	0,023	-0,074
-266,526	292,995	-0,020	-0,027
-265,511	-84,202	0,071	0,016
-264,497	-191,892	0,154	0,001
-263,482	-200,000	-0,009	0,042
-262,467	-90,951	-0,071	0,015
-261,453	-200,000	-0,011	-0,036
-260,438	332,306	0,052	-0,073
-259,424	-157,186	-0,051	-0,002
-258,409	67,171	-0,071	-0,053
-257,395	800,000	0,050	-0,152
-256,380	55,397	-0,036	-0,025
-255,365	800,000	0,060	0,169
-254,351	800,000	-0,050	-0,110
-253,336	-62,753	-0,108	0,032
-252,322	101,774	-0,018	-0,015
-251,307	685,480	0,034	-0,064
-250,292	-61,841	0,118	-0,036
-249,278	-151,672	-0,028	-0,001
-248,263	-200,000	0,012	0,087
-247,249	788,708	-0,075	0,149
-246,234	132,057	-0,040	0,038
-245,219	-112,080	-0,125	0,018
-244,205	-200,000	0,010	-0,098
-243,190	126,413	0,047	-0,043
-242,176	317,389	-0,055	0,075
-241,161	-91,899	0,119	-0,024
-240,146	-139,411	0,127	0,010
-239,132	800,000	-0,038	-0,098
-238,117	284,095	0,047	0,061
-237,103	65,623	0,051	0,037
-236,088	116,850	0,022	0,020
-235,073	-200,000	0,025	-0,118
-234,059	-45,282	-0,074	-0,026
-233,044	120,181	0,115	0,103
-232,030	-107,296	-0,018	-0,003
-231,015	541,660	-0,021	-0,036
-230,000	-200,000	-0,007	-0,052
-228,986	443,754	0,071	0,114
-227,971	130,522	0,091	0,084
-226,957	418,546	-0,032	-0,049
-225,942	800,000	-0,033	-0,086
-224,927	104,182	-0,049	0,042
-223,913	-106,980	0,148	-0,023
-222,898	-200,000	-0,026	-0,092
-221,884	-200,000	0,014	0,126
-220,869	800,000	0,015	0,043
-219,855	-87,917	0,125	0,027
-218,840	17,303	0,047	-0,027
-217,825	-132,890	0,048	-0,004
-216,811	-200,000	-0,001	0,080
-215,796	-200,000	0,000	-0,063
-214,782	800,000	-0,028	0,064
-213,767	-137,893	-0,109	-0,009
-212,752	-200,000	-0,003	0,025
-211,738	-126,914	0,101	-0,011
-210,723	-17,141	0,109	-0,050
-209,709	77,717	0,026	-0,020
-208,694	800,000	0,021	-0,042
-207,679	-52,785	0,117	-0,039
-206,665	-30,836	0,066	-0,027
-205,650	53,561	0,038	0,026
-204,636	-42,128	0,016	0,006
-203,621	159,663	-0,073	-0,073
-202,606	-200,000	0,003	-0,036
-201,592	315,365	0,058	-0,079
-200,577	163,608	0,020	-0,020
-199,563	-96,701	-0,058	-0,011
-198,548	302,138	-0,021	-0,028
-197,533	48,569	0,032	-0,021
-196,519	245,681	0,057	-0,069
-195,504	-30,927	0,038	-0,015
-194,490	800,000	-0,041	0,087
-193,475	-200,000	-0,026	-0,178
-192,460	488,142	-0,052	0,086
-191,446	-128,603	0,191	0,019
-190,431	-122,427	0,052	-0,006
-189,417	190,262	-0,022	0,024
-188,402	-200,000	-0,034	0,123
-187,387	538,842	0,042	-0,073
-186,373	54,505	0,112	-0,078
-185,358	-70,877	0,035	-0,009
-184,344	800,000	0,046	0,130
-183,329	-200,000	-0,003	0,017
-182,315	112,425	-0,081	-0,070
-181,300	-71,753	-0,031	0,008
-180,285	800,000	0,021	-0,043
-179,271	-47,346	0,014	0,005
-178,256	66,830	-0,121	-0,089
-177,242	800,000	0,012	-0,026
-176,227	-59,915	0,080	0,024
-175,212	-91,339	-0,102	0,021
-174,198	25,365	-0,127	-0,076
-173,183	306,734	-0,072	-0,097
-172,169	135,194	0,070	0,066
-171,154	23,845	-0,075	0,044
-170,139	-54,768	0,118	0,038
-169,125	336,972	-0,030	-0,042
-168,110	520,935	0,020	0,033
-167,096	-200,000	-0,018	-0,074
-166,081	-37,094	0,223	-0,086
-165,066	-192,629	-0,137	-0,001
-164,052	-200,000	0,000	-0,082
-163,037	-19,680	0,051	0,022
-162,023	532,343	0,059	-0,102
-161,008	-156,871	-0,132	-0,006
-159,993	332,409	0,051	0,071
-158,979	204,001	-0,082	-0,091
-157,964	-1,673	0,032	0,016
-156,950	63,841	-0,034	-0,025
-155,935	800,000	-0,020	-0,049
-154,920	800,000	0,028	0,082
-153,906	800,000	0,010	0,025
-152,891	220,720	-0,030	0,035
-151,877	-200,000	0,007	-0,129
-150,862	800,000	0,008	-0,021
-149,847	186,215	0,046	-0,050
-148,833	358,286	-0,101	0,146
-147,818	-56,808	-0,035	-0,011
-146,804	71,303	0,073	0,054
-145,789	312,354	0,162	0,220
-144,775	800,000	0,017	-0,036
-143,760	20,285	-0,061	-0,036
-142,745	270,277	-0,074	0,093
-141,731	-17,666	-0,057	0,026
-140,716	411,232	-0,034	-0,052
-139,702	-200,000	-0,011	0,085
-138,687	70,920	-0,076	0,056
-137,672	-37,696	-0,032	0,012
-136,658	321,394	-0,141	-0,194
-135,643	194,694	0,024	-0,027
-134,629	-97,329	0,025	-0,005
-133,614	-135,949	0,091	0,008
-132,599	40,725	-0,054	-0,035
-131,585	502,673	-0,014	-0,023
-130,570	-23,854	0,048	0,021
-129,556	91,772	0,022	0,017
-128,541	-52,810	-0,118	0,039
-127,526	301,767	-0,059	0,079
-126,512	191,886	-0,037	0,040
-125,497	-200,000	-0,018	0,065
-124,483	106,712	0,036	0,030
-123,468	-12,513	-0,059	0,028
-122,453	-200,000	-0,016	-0,090
-121,439	-179,223	-0,024	-0,000
-120,424	-1,428	0,059	-0,030
-119,410	53,057	-0,110	0,075
