DTS Sentinel unit serial number:	SN410029Multiplexer serial number:	ORYXHardware model number:	OX2-SRSoftware version number:	ORYX F/W v4,00 Oryx Data Collector v3.7.2.0data status	okinstallation	B6 Nyhavnadifferential loss correction	single-endedforward channel	channel 2reverse channel	N/Adate	2023/12/07time	15:55:08forward acquisition time	300,00reverse acquisition time	0,00gamma	499,1914k internal	0,3165k external	0,3165temperature offset calibration	1,0000default loss term (dB/km)	0,3820temperature slope calibration	1,0000multiplexer offset coefficient	1,0000multiplexer slope coefficient	1,0000fibre end	0,00T internal ref (°C)	14,49T ext. ref 1 (°C)	-2,05T ext. ref 2 (°C)	-2,06length (m)	temperature (°C)	Stokes	anti-Stokes-744,400	-46,043	0,147	0,053
-743,385	-162,141	-0,255	-0,009
-742,371	-82,091	0,214	0,051
-741,356	-100,526	-0,373	0,067
-740,342	-30,103	0,209	0,087
-739,327	-164,683	-0,287	-0,009
-738,312	-59,662	0,055	0,017
-737,298	-126,836	-0,300	-0,032
-736,283	-150,895	0,110	0,006
-735,269	-20,833	-0,319	0,143
-734,254	25,547	0,116	0,071
-733,239	-78,785	-0,546	-0,136
-732,225	-52,978	0,272	0,091
-731,210	-120,296	0,282	0,035
-730,196	37,569	0,110	0,072
-729,181	290,305	-0,039	0,052
-728,167	-141,910	0,059	-0,004
-727,152	800,000	0,026	-0,055
-726,137	-200,000	0,007	0,043
-725,123	-200,000	0,009	0,034
-724,108	-36,915	-0,076	-0,030
-723,094	14,883	-0,155	-0,089
-722,079	705,322	0,027	-0,053
-721,064	-109,932	-0,078	-0,012
-720,050	-200,000	-0,003	-0,032
-719,035	-200,000	-0,003	-0,055
-718,021	800,000	0,018	0,051
-717,006	-40,717	-0,197	-0,075
-715,991	35,600	-0,082	-0,053
-714,977	-200,000	0,009	0,059
-713,962	800,000	0,051	0,126
-712,948	74,285	0,135	-0,104
-711,933	-90,159	0,030	0,006
-710,918	111,949	-0,071	-0,063
-709,904	-110,910	-0,132	0,020
-708,889	21,293	0,182	-0,109
-707,875	-26,649	0,075	-0,032
-706,860	-200,000	-0,020	0,084
-705,845	-16,509	-0,137	-0,063
-704,831	46,784	0,125	0,085
-703,816	-129,802	0,054	0,005
-702,802	232,243	0,018	0,021
-701,787	-91,404	-0,209	-0,044
-700,772	8,310	0,110	-0,061
-699,758	-200,000	0,001	-0,058
-698,743	276,283	-0,006	0,008
-697,729	-200,000	-0,062	-0,000
-696,714	66,691	0,037	0,028
-695,699	342,397	0,051	-0,073
-694,685	22,859	-0,070	0,042
-693,670	68,521	-0,112	-0,085
-692,656	-169,429	-0,089	-0,002
-691,641	785,035	-0,024	-0,048
-690,627	178,684	-0,055	0,059
-689,612	-200,000	-0,010	-0,084
-688,597	-200,000	-0,004	-0,083
-687,583	27,486	-0,039	-0,024
-686,568	23,483	0,078	-0,047
-685,554	-100,474	-0,055	-0,010
-684,539	97,782	-0,056	0,047
-683,524	196,646	0,149	0,167
-682,510	-200,000	0,020	0,076
-681,495	-25,122	-0,059	-0,025
-680,481	586,455	-0,051	0,092
-679,466	-92,092	-0,032	-0,007
-678,451	12,667	0,140	0,079
-677,437	800,000	-0,048	-0,130
-676,422	189,090	0,053	-0,058
-675,408	800,000	0,008	-0,025
-674,393	-200,000	-0,003	-0,071
-673,378	800,000	-0,037	0,085
-672,364	56,562	-0,061	0,043
-671,349	-5,997	0,044	0,022
-670,335	299,042	0,035	-0,047
-669,320	48,556	0,069	0,047
-668,305	-21,068	-0,064	-0,028
-667,291	183,087	-0,093	-0,101
-666,276	237,906	-0,152	-0,185
-665,262	37,314	-0,020	-0,013
-664,247	-72,886	-0,036	0,010
-663,232	119,548	0,063	0,057
-662,218	91,206	0,057	0,047
-661,203	-200,000	-0,023	-0,074
-660,189	29,664	0,058	0,036
-659,174	184,914	-0,083	0,090
-658,159	-60,111	-0,085	-0,026
-657,145	-106,812	-0,171	-0,028
-656,130	800,000	-0,028	0,082
-655,116	800,000	0,053	0,120
-654,101	-43,180	-0,092	0,034
-653,086	633,815	-0,064	0,119
-652,072	800,000	0,039	0,093
-651,057	-0,831	-0,047	0,024
-650,043	-99,922	0,084	0,015
-649,028	314,306	0,034	-0,047
-648,014	800,000	0,039	-0,093
-646,999	-200,000	0,021	0,198
-645,984	-200,000	-0,007	-0,024
-644,970	240,821	0,065	-0,080
-643,955	-34,466	0,079	0,031
-642,941	413,996	-0,062	-0,096
-641,926	543,481	0,051	-0,089
-640,911	736,850	0,016	-0,032
-639,897	139,321	-0,115	-0,111
-638,882	33,120	0,041	-0,026
-637,868	-8,567	0,073	-0,036
-636,853	-179,924	-0,096	0,001
-635,838	665,829	-0,090	-0,171
-634,824	184,478	-0,096	-0,104
-633,809	800,000	0,013	-0,038
-632,795	-163,544	0,049	0,002
-631,780	800,000	-0,050	0,157
-630,765	-30,502	0,072	0,030
-629,751	800,000	0,032	-0,076
-628,736	-200,000	-0,011	-0,155
-627,722	800,000	0,036	0,110
-626,707	114,921	-0,052	0,046
-625,692	124,292	0,024	-0,022
-624,678	165,331	0,168	0,174
-623,663	-200,000	-0,007	0,122
-622,649	-22,581	-0,118	0,052
-621,634	-200,000	0,022	-0,143
-620,619	34,576	-0,090	-0,058
-619,605	80,999	-0,094	-0,074
-618,590	145,878	0,088	0,086
-617,576	-64,484	-0,083	0,025
-616,561	-200,000	-0,013	-0,043
-615,546	45,699	-0,073	-0,049
-614,532	-38,478	-0,066	-0,025
-613,517	800,000	0,023	0,064
-612,503	471,792	0,083	-0,136
-611,488	800,000	0,044	0,095
-610,474	800,000	0,030	0,095
-609,459	-99,937	0,122	0,022
-608,444	-69,539	-0,112	0,031
-607,430	-46,823	-0,050	0,018
-606,415	164,289	-0,073	-0,076
-605,401	-200,000	0,018	-0,068
-604,386	800,000	0,040	-0,111
-603,371	-200,000	-0,020	-0,200
-602,357	-200,000	-0,005	0,017
-601,342	-148,171	-0,115	-0,007
-600,328	-136,725	-0,188	0,016
-599,313	-200,000	0,036	-0,157
-598,298	-86,263	0,077	0,017
-597,284	-92,499	0,085	-0,017
-596,269	-200,000	-0,014	-0,050
-595,255	-40,292	0,056	0,021
-594,240	-133,263	-0,094	0,009
-593,225	-42,074	-0,102	0,038
-592,211	277,312	0,084	0,110
-591,196	800,000	-0,067	0,162
-590,182	789,731	0,029	-0,059
-589,167	-86,740	0,111	0,025
-588,152	-57,591	0,041	-0,013
-587,138	237,489	-0,091	0,111
-586,123	-34,068	0,113	0,045
-585,109	22,435	-0,077	-0,046
-584,094	27,989	-0,048	-0,030
-583,079	-33,405	0,189	0,076
-582,065	-36,617	-0,031	0,012
-581,050	183,547	0,056	-0,060
-580,036	-200,000	-0,020	-0,077
-579,021	-84,933	-0,148	-0,034
-578,006	544,478	0,083	-0,145
-576,992	800,000	0,016	-0,039
-575,977	-200,000	-0,006	-0,080
-574,963	-200,000	-0,011	0,111
-573,948	106,348	-0,066	-0,057
-572,934	343,086	0,038	0,054
-571,919	-200,000	0,026	0,109
-570,904	769,511	-0,065	-0,129
-569,890	667,787	-0,046	-0,086
-568,875	-183,501	-0,084	-0,001
-567,861	424,856	0,043	0,069
-566,846	-104,163	0,063	0,011
-565,831	-113,536	-0,038	-0,005
-564,817	-17,479	0,068	-0,031
-563,802	-200,000	0,049	-0,170
-562,788	-200,000	-0,006	-0,044
-561,773	-31,622	-0,070	-0,029
-560,758	133,134	-0,070	0,066
-559,744	99,730	0,078	0,066
-558,729	-160,802	0,053	-0,002
-557,715	499,739	-0,037	-0,063
-556,700	-61,991	0,108	-0,033
-555,685	-167,584	0,070	0,002
-554,671	-200,000	-0,015	0,086
-553,656	57,719	0,015	0,011
-552,642	349,040	0,042	-0,061
-551,627	-200,000	-0,007	0,120
-550,612	154,666	-0,056	-0,057
-549,598	321,989	-0,061	-0,086
-548,583	-0,264	0,062	-0,032
-547,569	-200,000	-0,005	-0,018
-546,554	-198,214	0,094	-0,000
-545,539	-86,706	-0,045	-0,010
-544,525	-200,000	0,042	0,161
-543,510	-175,111	-0,068	0,001
-542,496	-200,000	0,008	0,091
-541,481	-140,172	-0,092	-0,007
-540,466	142,276	-0,070	-0,068
-539,452	-200,000	0,020	0,103
-538,437	322,620	0,039	0,054
-537,423	-200,000	-0,007	0,033
-536,408	636,264	0,009	0,016
-535,393	800,000	-0,005	-0,017
-534,379	-200,000	0,003	0,018
-533,364	-200,000	-0,009	0,066
-532,350	101,446	0,083	0,070
-531,335	61,351	0,031	0,022
-530,321	-158,866	0,033	-0,001
-529,306	-0,978	0,070	0,036
-528,291	-200,000	-0,035	-0,222
-527,277	-74,016	-0,117	0,031
-526,262	19,470	0,048	-0,028
-525,248	-200,000	-0,004	0,099
-524,233	567,473	0,050	-0,089
-523,218	-61,911	0,179	0,054
-522,204	-31,220	-0,020	-0,008
-521,189	-105,582	-0,079	-0,013
-520,175	460,291	0,036	0,058
-519,160	262,190	0,038	0,048
-518,145	-136,431	0,142	-0,012
-517,131	800,000	0,032	0,065
-516,116	-87,186	-0,151	-0,033
-515,102	787,513	-0,050	-0,100
-514,087	35,783	0,061	-0,039
-513,072	800,000	-0,032	-0,096
-512,058	-200,000	-0,029	-0,135
-511,043	-31,828	0,120	0,049
-510,029	-64,941	0,151	0,044
-509,014	24,890	-0,102	0,062
-507,999	-107,488	0,149	-0,023
-506,985	-22,834	-0,101	-0,044
-505,970	-177,657	0,054	-0,001
-504,956	16,826	-0,078	0,045
-503,941	-200,000	-0,019	0,093
-502,926	800,000	-0,011	0,022
-501,912	-200,000	-0,012	0,145
-500,897	29,476	-0,099	0,061
-499,883	800,000	0,048	-0,126
-498,868	43,046	-0,069	-0,046
-497,853	189,671	0,077	-0,085
-496,839	-84,166	0,053	-0,012
-495,824	2,238	0,111	0,058
-494,810	492,844	-0,059	0,099
-493,795	146,631	-0,043	0,042
-492,781	55,892	0,016	0,011
-491,766	439,261	-0,029	0,046
-490,751	436,177	0,032	-0,051
-489,737	-35,426	-0,054	-0,021
-488,722	-51,318	0,132	-0,045
-487,708	-35,134	0,065	-0,026
-486,693	-149,120	0,022	-0,001
-485,678	-22,032	-0,058	-0,026
-484,664	800,000	-0,017	-0,035
-483,649	800,000	-0,011	-0,023
-482,635	68,861	0,091	0,068
-481,620	421,075	-0,020	-0,031
-480,605	527,997	-0,076	-0,132
-479,591	800,000	-0,022	-0,048
-478,576	-200,000	-0,002	0,103
-477,562	-180,044	-0,239	0,004
-476,547	586,385	-0,039	0,070
-475,532	429,450	-0,055	0,087
-474,518	415,853	-0,014	-0,021
-473,503	-143,664	-0,082	0,006
-472,489	-139,458	0,167	-0,013
-471,474	-172,535	0,027	-0,001
-470,459	-15,828	-0,169	-0,078
-469,445	-104,009	-0,151	0,025
-468,430	-128,224	-0,150	-0,015
-467,416	97,669	0,085	-0,071
-466,401	65,581	-0,049	-0,036
-465,386	274,180	-0,063	0,081
-464,372	380,817	-0,047	0,070
-463,357	-200,000	0,008	-0,070
-462,343	-200,000	0,012	-0,089
-461,328	117,187	-0,037	0,033
-460,313	36,299	-0,063	0,041
-459,299	62,550	0,015	-0,011
-458,284	800,000	-0,047	0,099
-457,270	-200,000	-0,010	0,125
-456,255	725,007	0,031	-0,060
-455,241	203,746	0,026	0,029
-454,226	-200,000	-0,011	0,178
-453,211	-175,458	0,069	0,001
-452,197	800,000	-0,032	-0,072
-451,182	-43,475	0,106	0,039
-450,168	240,408	0,082	0,099
-449,153	578,562	0,082	0,147
-448,138	721,785	0,048	-0,093
-447,124	-60,654	-0,112	-0,034
-446,109	-90,910	-0,070	0,014
-445,095	753,246	-0,029	0,057
-444,080	-103,590	0,118	-0,020
-443,065	-200,000	0,014	0,112
-442,051	-97,297	-0,037	0,007
-441,036	157,992	-0,035	0,035
-440,022	800,000	-0,073	-0,179
-439,007	-200,000	0,000	-0,081
-437,992	188,668	-0,063	0,069
-436,978	519,912	0,017	0,029
-435,963	800,000	0,029	0,064
-434,949	-29,246	0,047	-0,019
-433,934	-200,000	0,018	-0,120
-432,919	-200,000	0,007	-0,147
-431,905	800,000	-0,041	-0,120
-430,890	360,229	-0,042	0,062
-429,876	198,248	0,030	0,033
-428,861	800,000	0,030	0,078
-427,846	800,000	-0,002	0,007
-426,832	204,253	0,026	0,029
-425,817	96,569	-0,059	-0,049
-424,803	273,603	0,035	-0,045
-423,788	-200,000	-0,030	0,100
-422,773	-200,000	-0,024	0,082
-421,759	220,579	0,073	0,086
-420,744	-200,000	-0,014	-0,095
-419,730	800,000	0,041	-0,092
-418,715	169,565	-0,027	0,028
-417,701	149,404	-0,050	-0,049
-416,686	-200,000	-0,001	0,041
-415,671	-68,966	0,100	-0,028
-414,657	-2,766	0,076	0,038
-413,642	-88,280	0,096	0,021
-412,628	-3,481	-0,109	0,055
-411,613	800,000	-0,078	-0,210
-410,598	-200,000	0,020	0,151
-409,584	32,216	0,044	0,027
-408,569	23,839	0,063	-0,038
-407,555	105,883	0,151	0,130
-406,540	800,000	0,019	0,047
-405,525	-181,694	-0,115	0,002
-404,511	-44,158	-0,085	-0,031
-403,496	124,050	-0,031	0,028
-402,482	268,850	-0,034	0,043
-401,467	-200,000	0,037	0,138
-400,452	359,553	0,044	0,064
-399,438	-52,959	0,097	0,032
-398,423	-100,465	-0,129	0,023
-397,409	-72,941	-0,108	-0,029
-396,394	245,492	-0,044	-0,054
-395,379	800,000	0,028	-0,085
-394,365	-200,000	-0,025	0,103
-393,350	-0,232	0,127	0,065
-392,336	208,063	-0,125	-0,142
-391,321	-36,395	0,121	0,047
-390,306	187,941	0,051	-0,056
-389,292	-6,748	-0,065	-0,032
-388,277	800,000	0,039	0,087
-387,263	-48,635	0,044	0,015
-386,248	800,000	0,011	0,028
-385,233	695,821	-0,030	0,057
-384,219	416,507	0,051	0,079
-383,204	86,063	-0,014	0,011
-382,190	695,169	-0,042	-0,080
-381,175	800,000	0,045	0,139
-380,160	800,000	-0,045	0,123
-379,146	-17,147	0,039	0,018
-378,131	800,000	0,017	-0,035
-377,117	-77,048	-0,060	0,015
-376,102	-200,000	0,004	-0,050
-375,088	-60,680	-0,128	-0,039
-374,073	62,529	-0,074	-0,054
-373,058	3,288	0,037	0,019
-372,044	188,915	-0,046	-0,050
-371,029	800,000	-0,032	0,073
-370,015	-61,847	0,161	-0,049
-369,000	-5,791	-0,101	-0,050
-367,985	-146,204	-0,058	0,004
-366,971	-200,000	0,007	0,089
-365,956	112,918	0,127	-0,111
-364,942	316,747	0,063	-0,087
-363,927	56,182	-0,034	-0,024
-362,912	-200,000	0,003	-0,010
-361,898	88,057	0,101	-0,081
-360,883	323,868	-0,071	0,098
-359,869	-66,804	0,027	0,008
-358,854	-200,000	0,011	-0,156
-357,839	-200,000	-0,007	0,113
-356,825	-136,814	0,054	-0,004
-355,810	26,222	-0,046	-0,027
-354,796	56,717	-0,040	-0,028
-353,781	-200,000	0,003	0,043
-352,766	531,715	0,029	0,050
-351,752	-58,180	0,129	-0,040
-350,737	-8,093	0,076	0,037
-349,723	-61,655	-0,132	0,040
-348,708	256,721	0,079	0,098
-347,693	-91,737	-0,039	0,008
-346,679	-200,000	-0,007	-0,071
-345,664	292,765	-0,059	-0,078
-344,650	-112,584	0,053	0,008
-343,635	-34,813	-0,053	-0,021
-342,620	-35,809	-0,077	0,030
-341,606	279,540	-0,038	-0,050
-340,591	231,132	0,035	0,042
-339,577	-200,000	-0,030	-0,119
-338,562	665,269	-0,013	-0,023
-337,548	165,714	-0,103	-0,106
-336,533	800,000	0,034	0,102
-335,518	800,000	0,028	0,062
-334,504	-28,401	-0,073	0,030
-333,489	-87,721	-0,037	0,008
-332,475	276,084	-0,036	-0,046
-331,460	183,736	-0,060	0,064
-330,445	38,612	0,045	-0,029
-329,431	0,326	0,121	0,062
-328,416	9,362	0,136	0,074
-327,402	800,000	0,045	0,142
-326,387	-121,710	0,050	0,006
-325,372	-15,862	-0,113	0,052
-324,358	15,663	-0,150	-0,085
-323,343	-200,000	-0,002	-0,153
-322,329	-146,501	-0,083	-0,005
-321,314	-200,000	0,016	0,138
-320,299	-200,000	-0,003	0,154
-319,285	100,845	-0,024	0,020
-318,270	311,636	-0,047	-0,064
-317,256	800,000	-0,053	-0,154
-316,241	228,857	-0,052	0,061
-315,226	90,931	0,050	-0,041
-314,212	307,575	0,063	-0,085
-313,197	-117,068	-0,087	-0,011
-312,183	800,000	0,031	0,066
-311,168	-200,000	-0,005	-0,124
-310,153	-200,000	0,026	-0,107
-309,139	800,000	-0,027	-0,081
-308,124	-200,000	-0,019	-0,133
-307,110	-82,921	0,020	-0,005
-306,095	48,488	-0,083	0,056
-305,080	-200,000	-0,006	0,041
-304,066	-131,580	0,012	-0,001
-303,051	199,001	-0,067	-0,075
-302,037	-187,240	-0,040	0,000
-301,022	532,964	-0,046	0,080
-300,008	431,738	0,119	0,188
-298,993	143,518	0,082	0,079
-297,978	153,926	-0,057	-0,056
-296,964	62,135	0,075	0,054
-295,949	138,580	-0,026	-0,025
-294,935	-32,951	-0,048	0,019
-293,920	-200,000	0,001	-0,194
-292,905	-118,976	-0,056	-0,007
-291,891	16,008	-0,089	-0,050
-290,876	-200,000	-0,000	0,009
-289,862	231,859	-0,062	0,073
-288,847	800,000	-0,029	-0,091
-287,832	-200,000	0,036	-0,128
-286,818	-200,000	0,015	-0,068
-285,803	-200,000	0,005	-0,025
-284,789	-80,867	0,153	-0,036
-283,774	528,811	-0,016	0,027
-282,759	-200,000	0,015	-0,114
-281,745	-81,349	-0,041	-0,010
-280,730	343,573	-0,003	-0,005
-279,716	20,580	0,050	-0,029
-278,701	-200,000	0,005	0,022
-277,686	800,000	-0,039	0,082
-276,672	-129,973	-0,076	-0,007
-275,657	-200,000	-0,010	0,070
-274,643	-39,648	-0,071	0,027
-273,628	-200,000	0,013	-0,071
-272,613	800,000	0,038	-0,120
-271,599	-12,770	0,113	0,053
-270,584	800,000	0,037	0,084
-269,570	-34,923	-0,059	-0,023
-268,555	800,000	0,036	-0,101
-267,540	27,390	0,012	0,007
-266,526	-74,059	0,047	-0,012
-265,511	-43,927	-0,072	-0,026
-264,497	800,000	-0,024	-0,069
-263,482	-133,010	0,110	0,010
-262,467	-200,000	0,005	0,045
-261,453	-200,000	0,030	-0,103
-260,438	147,233	-0,067	0,065
-259,424	-200,000	0,043	-0,217
-258,409	800,000	0,027	-0,079
-257,395	242,234	0,092	0,112
-256,380	381,335	-0,048	0,071
-255,365	-17,816	0,073	0,033
-254,351	-200,000	0,003	0,110
-253,336	92,739	-0,163	0,133
-252,322	205,196	-0,116	0,130
-251,307	-82,843	0,094	-0,022
-250,292	108,069	0,049	0,042
-249,278	-87,633	-0,015	0,003
-248,263	-81,913	-0,050	0,012
-247,249	122,641	-0,114	0,103
-246,234	-200,000	-0,000	0,052
-245,219	559,457	-0,052	0,090
-244,205	-200,000	-0,005	-0,054
-243,190	-31,800	-0,099	-0,040
-242,176	-85,394	-0,085	-0,019
-241,161	-200,000	-0,019	0,208
-240,146	-200,000	0,003	0,134
-239,132	-14,560	-0,099	0,046
-238,117	-135,760	-0,080	0,007
-237,103	-200,000	-0,007	-0,077
-236,088	218,747	-0,115	-0,133
-235,073	800,000	0,039	0,081
-234,059	-200,000	0,009	0,069
-233,044	449,520	0,058	0,093
-232,030	-200,000	0,006	0,099
-231,015	568,463	-0,065	0,114
-230,000	-200,000	-0,001	-0,092
-228,986	-200,000	0,004	-0,021
-227,971	-111,509	0,177	0,026
-226,957	351,317	0,030	0,043
-225,942	773,360	0,071	0,140
-224,927	-200,000	0,003	0,016
-223,913	800,000	0,030	0,059
-222,898	-200,000	0,012	0,064
-221,884	-200,000	-0,009	-0,064
-220,869	-200,000	0,018	-0,131
-219,855	130,934	0,017	-0,016
-218,840	-18,089	-0,081	0,036
-217,825	-200,000	0,005	-0,026
-216,811	-168,814	-0,063	-0,002
-215,796	800,000	-0,036	-0,080
-214,782	800,000	0,061	-0,186
-213,767	431,154	-0,094	-0,148
-212,752	-152,320	0,132	-0,007
-211,738	-130,633	0,117	-0,011
-210,723	227,953	0,030	-0,035
-209,709	407,768	0,054	0,082
-208,694	800,000	-0,016	-0,042
-207,679	34,465	0,057	-0,036
-206,665	-63,539	0,074	0,022
-205,650	331,597	0,019	-0,027
-204,636	-77,920	0,118	0,029
-203,621	44,516	0,097	0,064
-202,606	-1,230	-0,092	-0,046
-201,592	-113,499	-0,193	-0,027
-200,577	-143,564	-0,047	0,003
-199,563	82,832	0,111	-0,087
-198,548	80,204	-0,057	0,044
-197,533	-119,476	0,044	0,005
-196,519	27,508	-0,068	0,041
-195,504	111,776	0,102	0,089
-194,490	-200,000	0,003	0,081
-193,475	472,884	0,038	0,062
-192,460	148,342	0,120	0,117
-191,446	-12,906	0,077	-0,036
-190,431	-31,884	0,050	0,020
-189,417	-181,517	0,044	-0,001
-188,402	-11,919	0,093	-0,044
-187,387	496,047	-0,065	-0,108
-186,373	-200,000	0,028	-0,197
-185,358	-29,808	0,064	-0,026
-184,344	-107,614	-0,055	0,009
-183,329	-24,842	-0,031	-0,013
-182,315	-149,324	0,099	-0,006
-181,300	204,094	0,008	-0,009
-180,285	-200,000	0,004	-0,100
-179,271	297,902	0,004	0,006
-178,256	40,073	0,069	0,045
-177,242	800,000	-0,035	0,075
-176,227	-200,000	0,026	0,210
-175,212	-18,262	0,041	0,018
-174,198	115,044	0,108	-0,095
-173,183	35,941	-0,078	0,049
-172,169	-200,000	0,037	-0,126
-171,154	22,148	-0,135	0,079
-170,139	-20,577	0,079	-0,035
-169,125	-200,000	0,045	0,239
-168,110	-200,000	0,037	0,141
-167,096	9,397	-0,131	-0,071
-166,081	800,000	0,003	0,008
-165,066	149,772	-0,035	-0,035
-164,052	800,000	0,043	-0,112
-163,037	-115,977	0,132	0,018
-162,023	52,054	0,093	-0,064
-161,008	-200,000	0,003	0,015
-159,993	199,249	-0,040	0,045
-158,979	-200,000	-0,035	0,000
-157,964	194,842	-0,126	-0,137
-156,950	263,636	0,077	-0,097
-155,935	18,141	0,039	-0,022
-154,920	-115,847	0,052	0,007
-153,906	-200,000	0,017	-0,091
-152,891	70,605	-0,141	0,105
-151,877	800,000	-0,035	-0,085
-150,862	10,866	-0,018	-0,010
-149,847	-104,299	0,021	0,003
-148,833	-118,142	-0,172	-0,022
-147,818	800,000	0,040	0,085
-146,804	-200,000	0,008	0,029
-145,789	800,000	0,021	-0,043
-144,775	-60,124	0,008	0,002
-143,760	-200,000	-0,034	0,141
-142,745	800,000	0,034	-0,088
-141,731	-88,991	-0,034	0,007
-140,716	89,291	0,102	0,081
-139,702	-200,000	0,012	0,064
-138,687	-25,625	0,118	0,050
-137,672	303,791	-0,163	-0,218
-136,658	-80,040	0,064	-0,015
-135,643	-200,000	-0,052	0,180
-134,629	800,000	0,031	-0,075
-133,614	224,274	0,130	0,151
-132,599	18,827	-0,115	0,066
-131,585	-75,161	0,065	-0,017
-130,570	-200,000	0,006	0,053
-129,556	-195,394	-0,053	0,000
-128,541	-200,000	-0,000	0,027
-127,526	-4,933	-0,053	-0,026
-126,512	107,276	0,054	-0,046
-125,497	-93,130	0,044	-0,009
-124,483	18,476	-0,068	0,039
-123,468	-72,431	-0,133	-0,035
-122,453	800,000	0,033	-0,076
-121,439	51,094	-0,057	-0,039
-120,424	-200,000	-0,016	0,149
-119,410	-136,965	0,088	-0,007
