DTS Sentinel unit serial number:	SN410029Multiplexer serial number:	ORYXHardware model number:	OX2-SRSoftware version number:	ORYX F/W v4,00 Oryx Data Collector v3.7.2.0data status	okinstallation	B6 Nyhavnadifferential loss correction	single-endedforward channel	channel 2reverse channel	N/Adate	2023/12/10time	03:45:08forward acquisition time	300,00reverse acquisition time	0,00gamma	499,1914k internal	0,3125k external	0,3125temperature offset calibration	1,0000default loss term (dB/km)	0,3820temperature slope calibration	1,0000multiplexer offset coefficient	1,0000multiplexer slope coefficient	1,0000fibre end	0,00T internal ref (°C)	22,06T ext. ref 1 (°C)	6,00T ext. ref 2 (°C)	5,97length (m)	temperature (°C)	Stokes	anti-Stokes-744,400	100,050	-0,062	-0,053
-743,385	-4,850	-0,267	0,137
-742,371	317,469	0,033	0,047
-741,356	-79,046	-0,256	0,064
-740,342	14,046	0,107	0,062
-739,327	-76,389	-0,283	0,074
-738,312	187,019	0,069	-0,077
-737,298	-177,682	-0,159	-0,003
-736,283	-200,000	0,001	-0,132
-735,269	75,703	-0,223	0,175
-734,254	800,000	0,045	-0,120
-733,239	-78,418	-0,452	-0,115
-732,225	-41,208	0,048	-0,018
-731,210	-70,055	0,089	0,025
-730,196	-24,224	-0,035	0,015
-729,181	800,000	0,024	0,075
-728,167	173,963	0,032	-0,034
-727,152	349,337	-0,036	-0,054
-726,137	-142,667	-0,043	0,003
-725,123	-200,000	0,016	-0,076
-724,108	70,062	-0,163	-0,125
-723,094	740,658	0,016	-0,033
-722,079	-97,198	-0,097	-0,019
-721,064	106,353	0,125	-0,110
-720,050	-75,362	0,016	0,004
-719,035	-65,177	0,074	-0,022
-718,021	-62,916	-0,033	0,010
-717,006	738,930	0,056	-0,113
-715,991	800,000	-0,050	-0,140
-714,977	-200,000	0,006	-0,147
-713,962	-187,088	-0,060	0,001
-712,948	40,187	0,040	-0,026
-711,933	-200,000	-0,010	-0,121
-710,918	-114,188	-0,212	0,030
-709,904	800,000	-0,042	-0,101
-708,889	23,621	-0,106	-0,065
-707,875	374,290	-0,086	-0,131
-706,860	209,451	0,099	-0,116
-705,845	-200,000	-0,002	-0,105
-704,831	-4,903	0,056	0,029
-703,816	137,451	0,064	0,063
-702,802	238,753	0,096	-0,119
-701,787	-148,048	-0,243	0,015
-700,772	800,000	0,037	-0,096
-699,758	261,459	-0,020	-0,026
-698,743	411,185	0,063	0,100
-697,729	-200,000	-0,002	0,030
-696,714	47,731	0,079	-0,055
-695,699	-200,000	-0,004	0,015
-694,685	178,819	0,078	-0,084
-693,670	-70,886	-0,111	-0,031
-692,656	136,620	-0,078	-0,076
-691,641	-5,954	0,046	0,023
-690,627	-139,163	0,025	0,002
-689,612	174,920	-0,072	0,078
-688,597	-200,000	-0,016	-0,112
-687,583	86,289	0,027	-0,022
-686,568	23,026	-0,111	-0,067
-685,554	24,599	0,075	-0,046
-684,539	-64,192	0,062	0,019
-683,524	-200,000	0,012	0,072
-682,510	253,202	0,068	-0,086
-681,495	-200,000	0,029	0,098
-680,481	93,341	-0,112	0,094
-679,466	-200,000	0,011	-0,082
-678,451	800,000	-0,044	-0,117
-677,437	25,258	0,057	-0,035
-676,422	173,633	0,050	0,054
-675,408	-146,135	-0,123	-0,008
-674,393	-82,156	0,100	-0,024
-673,378	396,313	-0,054	-0,083
-672,364	336,238	-0,029	0,042
-671,349	308,777	-0,043	-0,059
-670,335	73,666	0,051	-0,040
-669,320	-200,000	-0,016	-0,056
-668,305	90,288	0,020	-0,017
-667,291	105,753	-0,111	-0,098
-666,276	314,810	-0,096	-0,135
-665,262	800,000	-0,031	-0,099
-664,247	-200,000	-0,016	-0,082
-663,232	-200,000	0,011	-0,055
-662,218	800,000	-0,018	0,047
-661,203	147,949	-0,040	-0,040
-660,189	-200,000	-0,004	-0,084
-659,174	-200,000	-0,019	-0,077
-658,159	-200,000	0,015	-0,054
-657,145	-124,491	0,134	-0,015
-656,130	57,606	-0,091	-0,066
-655,116	-200,000	-0,006	0,036
-654,101	254,627	-0,104	0,133
-653,086	800,000	-0,023	-0,061
-652,072	-36,263	-0,070	0,028
-651,057	-83,465	-0,114	-0,027
-650,043	-200,000	-0,009	0,068
-649,028	337,433	-0,022	-0,031
-648,014	279,827	0,071	-0,095
-646,999	-0,034	-0,105	0,055
-645,984	-200,000	0,005	0,052
-644,970	643,026	-0,065	0,123
-643,955	4,781	-0,138	-0,075
-642,941	800,000	-0,020	-0,052
-641,926	800,000	-0,035	-0,099
-640,911	-77,890	0,058	-0,015
-639,897	305,757	0,082	-0,114
-638,882	-136,621	-0,086	-0,007
-637,868	24,550	-0,051	-0,031
-636,853	-26,607	-0,081	-0,035
-635,838	200,729	-0,147	-0,168
-634,824	800,000	0,013	-0,040
-633,809	35,714	-0,092	0,060
-632,795	800,000	0,007	-0,019
-631,780	-3,988	0,122	0,062
-630,765	-81,408	-0,063	-0,015
-629,751	-200,000	-0,000	-0,126
-628,736	-75,640	-0,059	0,015
-627,722	-47,428	0,060	-0,021
-626,707	800,000	-0,059	0,123
-625,692	800,000	-0,070	-0,181
-624,678	-200,000	-0,001	0,053
-623,663	-200,000	0,009	-0,062
-622,649	148,590	-0,133	-0,133
-621,634	678,174	0,063	0,121
-620,619	-114,185	-0,079	0,011
-619,605	470,000	-0,089	-0,149
-618,590	52,068	0,084	0,059
-617,576	141,222	-0,029	0,029
-616,561	208,115	-0,079	0,091
-615,546	-200,000	0,026	-0,142
-614,532	123,764	0,031	-0,028
-613,517	-86,227	0,054	-0,012
-612,503	-14,283	0,016	0,008
-611,488	-200,000	-0,018	0,089
-610,474	796,197	-0,046	-0,094
-609,459	800,000	-0,027	-0,057
-608,444	-120,962	0,044	-0,005
-607,430	-199,655	-0,059	0,000
-606,415	-200,000	0,005	-0,148
-605,401	-56,159	0,058	-0,019
-604,386	-200,000	-0,027	0,209
-603,371	800,000	-0,015	0,047
-602,357	-200,000	-0,032	0,109
-601,342	-79,729	-0,139	-0,034
-600,328	-181,121	-0,101	0,001
-599,313	-113,126	-0,104	0,015
-598,298	-113,586	0,015	0,002
-597,284	-103,479	-0,101	0,017
-596,269	32,562	0,106	-0,068
-595,255	102,558	-0,028	0,025
-594,240	-200,000	0,035	-0,170
-593,225	-148,567	-0,093	-0,006
-592,211	-132,704	0,020	0,002
-591,196	-110,554	0,043	-0,007
-590,182	39,673	0,188	0,125
-589,167	800,000	-0,052	0,122
-588,152	-155,889	-0,076	-0,004
-587,138	-112,727	0,109	-0,016
-586,123	48,076	-0,139	-0,096
-585,109	-200,000	-0,013	-0,128
-584,094	-124,998	0,091	-0,010
-583,079	-122,951	0,063	-0,007
-582,065	109,353	0,037	-0,033
-581,050	-200,000	0,024	-0,105
-580,036	26,592	0,041	0,025
-579,021	-59,600	-0,077	-0,024
-578,006	-200,000	0,009	-0,085
-576,992	127,473	0,104	-0,098
-575,977	113,470	0,127	-0,114
-574,963	-200,000	0,027	0,124
-573,948	59,541	-0,149	0,108
-572,934	340,458	0,021	-0,031
-571,919	43,095	0,045	-0,030
-570,904	-29,499	-0,101	0,043
-569,890	-50,198	0,081	0,028
-568,875	43,931	0,084	-0,057
-567,861	3,236	0,037	-0,020
-566,846	-62,983	-0,122	-0,037
-565,831	800,000	-0,029	0,064
-564,817	800,000	-0,047	-0,136
-563,802	-170,232	-0,167	0,004
-562,788	235,419	0,061	0,075
-561,773	43,864	0,042	-0,028
-560,758	-174,130	-0,071	-0,002
-559,744	190,360	-0,047	-0,052
-558,729	7,790	-0,079	-0,044
-557,715	-19,744	-0,088	-0,040
-556,700	16,846	-0,142	0,083
-555,685	-124,236	-0,055	-0,006
-554,671	800,000	-0,055	-0,142
-553,656	445,575	0,022	-0,036
-552,642	-168,899	0,083	-0,002
-551,627	800,000	0,032	0,078
-550,612	40,028	-0,043	-0,029
-549,598	-134,154	-0,097	-0,009
-548,583	800,000	-0,002	-0,006
-547,569	-162,343	-0,025	0,001
-546,554	488,769	0,062	-0,105
-545,539	46,198	0,072	-0,049
-544,525	-200,000	-0,015	-0,124
-543,510	-49,455	-0,086	0,030
-542,496	532,725	0,072	-0,126
-541,481	222,997	-0,154	-0,183
-540,466	765,004	-0,029	-0,059
-539,452	-200,000	0,011	0,118
-538,437	62,560	0,101	0,074
-537,423	-70,317	0,072	-0,020
-536,408	-200,000	-0,033	-0,124
-535,393	-200,000	-0,034	-0,176
-534,379	0,759	0,030	0,016
-533,364	-17,869	0,072	0,033
-532,350	142,896	0,111	-0,109
-531,335	-200,000	0,014	-0,061
-530,321	-200,000	-0,031	0,157
-529,306	-18,557	0,010	-0,004
-528,291	-127,362	0,216	0,023
-527,277	120,740	-0,101	0,093
-526,262	-97,579	-0,129	-0,025
-525,248	-162,612	-0,038	0,001
-524,233	636,305	-0,004	-0,008
-523,218	35,344	0,041	0,026
-522,204	40,638	0,119	0,079
-521,189	-114,308	-0,148	0,021
-520,175	209,640	0,047	-0,054
-519,160	-200,000	-0,001	0,050
-518,145	579,295	0,039	-0,071
-517,131	-130,297	-0,063	-0,006
-516,116	-200,000	0,015	0,087
-515,102	-65,449	0,069	-0,020
-514,087	-200,000	0,009	0,038
-513,072	800,000	-0,043	-0,096
-512,058	24,648	-0,070	0,043
-511,043	-200,000	0,023	-0,096
-510,029	602,962	0,040	0,075
-509,014	-200,000	0,017	0,092
-507,999	229,267	0,056	0,068
-506,985	94,757	-0,076	-0,064
-505,970	60,533	-0,029	0,021
-504,956	-200,000	0,003	-0,115
-503,941	800,000	0,017	0,044
-502,926	181,089	0,043	-0,047
-501,912	-74,782	0,048	0,013
-500,897	-54,286	-0,121	0,040
-499,883	451,380	0,006	-0,010
-498,868	-144,958	0,103	-0,007
-497,853	-200,000	0,003	0,035
-496,839	-200,000	-0,017	-0,085
-495,824	-200,000	0,029	0,107
-494,810	27,270	0,077	-0,047
-493,795	97,080	-0,083	-0,070
-492,781	-200,000	-0,004	0,111
-491,766	434,321	-0,071	0,114
-490,751	4,745	-0,099	-0,054
-489,737	47,634	0,059	0,041
-488,722	92,317	0,145	0,121
-487,708	5,928	0,088	0,048
-486,693	-149,731	-0,107	0,006
-485,678	25,129	-0,086	0,052
-484,664	-200,000	-0,027	-0,116
-483,649	472,420	-0,098	-0,164
-482,635	-200,000	-0,007	-0,058
-481,620	131,761	0,090	-0,086
-480,605	-23,980	0,045	-0,020
-479,591	-200,000	0,011	-0,159
-478,576	345,345	0,007	0,011
-477,562	-106,025	0,027	0,004
-476,547	121,425	0,023	0,022
-475,532	652,263	0,016	-0,029
-474,518	175,701	0,105	0,112
-473,503	-64,932	-0,073	0,022
-472,489	240,824	0,044	-0,054
-471,474	-45,152	-0,151	0,055
-470,459	507,213	0,045	0,078
-469,445	-200,000	-0,006	-0,066
-468,430	5,549	-0,070	0,038
-467,416	-200,000	-0,017	-0,149
-466,401	800,000	0,013	-0,040
-465,386	-70,896	0,049	0,013
-464,372	174,811	0,055	-0,059
-463,357	-200,000	-0,013	-0,059
-462,343	52,219	0,096	0,068
-461,328	800,000	0,031	-0,099
-460,313	156,871	-0,021	-0,022
-459,299	-94,392	0,146	-0,029
-458,284	-41,636	0,093	0,035
-457,270	-200,000	0,111	-0,000
-456,255	361,932	0,014	0,020
-455,241	180,705	0,036	0,038
-454,226	-0,900	-0,104	-0,054
-453,211	-200,000	0,012	0,106
-452,197	11,653	0,082	0,046
-451,182	701,488	-0,078	0,152
-450,168	54,362	0,059	0,042
-449,153	363,197	0,055	-0,082
-448,138	-197,042	0,082	-0,000
-447,124	-130,741	-0,075	-0,007
-446,109	-61,230	0,050	0,015
-445,095	-200,000	0,011	0,055
-444,080	800,000	0,056	-0,151
-443,065	800,000	-0,045	0,093
-442,051	-200,000	-0,005	0,183
-441,036	-55,800	-0,051	0,017
-440,022	220,302	-0,100	-0,118
-439,007	781,489	-0,043	0,087
-437,992	476,807	-0,055	0,092
-436,978	41,505	0,017	-0,011
-435,963	31,988	-0,068	0,043
-434,949	151,430	0,085	0,085
-433,934	800,000	-0,036	-0,087
-432,919	-27,039	0,061	0,026
-431,905	-75,072	0,066	-0,017
-430,890	-50,933	0,080	-0,028
-429,876	800,000	-0,023	0,060
-428,861	145,698	0,159	0,157
-427,846	800,000	-0,060	0,143
-426,832	800,000	-0,025	0,073
-425,817	791,261	0,034	-0,069
-424,803	3,056	-0,101	-0,054
-423,788	-200,000	0,016	0,099
-422,773	-188,977	0,175	-0,002
-421,759	800,000	-0,048	0,111
-420,744	-121,151	-0,099	-0,012
-419,730	40,687	-0,030	0,020
-418,715	610,166	-0,036	-0,066
-417,701	800,000	-0,062	-0,184
-416,686	800,000	-0,026	-0,076
-415,671	-200,000	-0,007	-0,061
-414,657	100,507	0,066	0,056
-413,642	-171,190	-0,104	-0,003
-412,628	-49,288	-0,130	0,045
-411,613	-73,349	-0,128	-0,034
-410,598	-200,000	0,020	-0,076
-409,584	225,016	0,068	-0,081
-408,569	-26,653	0,065	-0,028
-407,555	-200,000	0,004	0,032
-406,540	45,364	0,053	0,036
-405,525	-200,000	-0,008	0,077
-404,511	29,663	0,079	-0,049
-403,496	800,000	0,013	-0,035
-402,482	2,815	0,089	-0,047
-401,467	-200,000	0,006	-0,095
-400,452	800,000	0,026	0,069
-399,438	-200,000	0,005	0,045
-398,423	413,121	0,047	0,074
-397,409	800,000	-0,042	-0,096
-396,394	-22,012	-0,076	0,034
-395,379	-200,000	-0,016	0,063
-394,365	136,298	-0,032	-0,030
-393,350	-34,424	0,104	-0,042
-392,336	387,828	0,012	0,019
-391,321	94,776	-0,028	0,024
-390,306	105,416	0,039	-0,034
-389,292	140,963	0,033	0,032
-388,277	64,339	-0,180	0,133
-387,263	-47,067	0,098	0,035
-386,248	-200,000	0,028	0,156
-385,233	800,000	0,013	0,027
-384,219	144,917	-0,075	0,074
-383,204	289,125	-0,037	0,049
-382,190	800,000	-0,029	0,071
-381,175	-31,156	0,091	0,038
-380,160	-129,631	-0,097	-0,010
-379,146	20,896	-0,027	-0,016
-378,131	128,351	0,085	0,079
-377,117	116,102	-0,158	0,142
-376,102	-200,000	-0,012	0,043
-375,088	127,945	-0,058	-0,054
-374,073	-200,000	0,025	0,092
-373,058	-200,000	0,048	-0,166
-372,044	36,312	0,084	0,055
-371,029	-200,000	0,041	0,173
-370,015	25,949	-0,055	-0,034
-369,000	800,000	-0,022	0,069
-367,985	-200,000	-0,006	-0,045
-366,971	800,000	-0,021	-0,049
-365,956	-24,820	0,124	0,054
-364,942	-37,075	0,121	0,047
-363,927	-200,000	-0,002	0,089
-362,912	369,536	-0,052	0,077
-361,898	128,130	0,042	0,039
-360,883	-106,953	-0,127	0,020
-359,869	-200,000	-0,022	0,240
-358,854	71,729	0,019	-0,014
-357,839	39,299	0,055	-0,036
-356,825	384,026	-0,054	0,082
-355,810	-200,000	0,010	0,093
-354,796	-62,566	-0,064	0,019
-353,781	-200,000	0,013	0,086
-352,766	199,863	-0,155	-0,175
-351,752	716,017	-0,035	-0,068
-350,737	-200,000	0,021	0,146
-349,723	-115,698	0,064	0,009
-348,708	-200,000	0,033	0,160
-347,693	-200,000	-0,020	0,098
-346,679	95,927	-0,094	-0,079
-345,664	-49,662	0,096	-0,033
-344,650	280,937	0,031	-0,040
-343,635	-17,703	0,145	0,067
-342,620	105,267	0,100	0,087
-341,606	27,216	-0,161	0,099
-340,591	-200,000	0,048	0,197
-339,577	-200,000	-0,042	-0,181
-338,562	-200,000	-0,017	-0,063
-337,548	5,190	-0,152	-0,082
-336,533	-200,000	0,007	-0,129
-335,518	439,294	-0,020	0,032
-334,504	16,638	-0,073	0,042
-333,489	-85,753	-0,034	-0,008
-332,475	800,000	0,033	-0,073
-331,460	800,000	0,057	-0,150
-330,445	-112,798	0,020	0,003
-329,431	800,000	0,023	0,067
-328,416	108,900	0,056	-0,049
-327,402	-200,000	0,040	0,137
-326,387	213,274	0,021	0,025
-325,372	800,000	-0,020	0,049
-324,358	800,000	-0,024	0,052
-323,343	-200,000	0,007	0,027
-322,329	-124,188	0,060	-0,007
-321,314	-19,700	0,092	0,041
-320,299	90,062	0,147	0,121
-319,285	187,855	-0,081	0,089
-318,270	-136,206	0,212	0,018
-317,256	29,200	0,101	-0,063
-316,241	87,329	-0,051	-0,042
-315,226	-200,000	0,019	0,061
-314,212	-137,555	-0,042	0,003
-313,197	-200,000	-0,030	-0,116
-312,183	146,497	0,073	0,072
-311,168	800,000	-0,020	0,058
-310,153	-200,000	0,043	0,149
-309,139	404,778	-0,039	0,060
-308,124	157,173	-0,061	0,062
-307,110	800,000	0,051	0,137
-306,095	134,575	0,084	0,080
-305,080	200,711	-0,102	-0,114
-304,066	462,017	0,040	-0,066
-303,051	0,165	-0,055	-0,029
-302,037	-200,000	0,002	-0,053
-301,022	-53,958	0,076	-0,025
-300,008	52,420	0,084	0,058
-298,993	259,217	-0,110	-0,139
-297,978	267,749	0,015	0,019
-296,964	-66,796	0,091	0,026
-295,949	-200,000	-0,014	0,064
-294,935	-10,191	-0,134	-0,065
-293,920	-51,430	0,033	0,011
-292,905	285,025	-0,061	0,081
-291,891	89,999	0,061	0,050
-290,876	372,366	-0,027	-0,041
-289,862	197,647	-0,041	-0,046
-288,847	-200,000	0,005	-0,038
-287,832	-28,774	0,035	0,015
-286,818	-37,502	-0,057	-0,022
-285,803	66,508	-0,125	-0,093
-284,789	-22,767	-0,017	0,008
-283,774	1,381	0,046	-0,024
-282,759	800,000	0,017	-0,046
-281,745	800,000	-0,031	-0,100
-280,730	-0,346	-0,020	0,011
-279,716	106,853	0,101	0,088
-278,701	-122,335	-0,115	-0,014
-277,686	800,000	-0,011	0,030
-276,672	-200,000	0,027	0,090
-275,657	-200,000	0,113	-0,000
-274,643	-71,855	-0,158	-0,043
-273,628	-200,000	0,029	-0,145
-272,613	-200,000	-0,006	-0,065
-271,599	-73,115	-0,029	-0,008
-270,584	-200,000	0,016	-0,071
-269,570	76,727	-0,095	-0,074
-268,555	-57,521	-0,077	0,025
-267,540	381,011	0,036	-0,054
-266,526	236,052	0,038	-0,047
-265,511	210,621	0,089	0,103
-264,497	-200,000	0,001	0,111
-263,482	24,433	0,076	0,046
-262,467	800,000	0,037	0,101
-261,453	341,897	0,030	-0,043
-260,438	109,125	0,050	-0,044
-259,424	-67,438	-0,099	-0,028
-258,409	29,243	-0,056	0,034
-257,395	18,291	0,105	-0,061
-256,380	299,118	0,006	0,008
-255,365	-10,002	0,028	0,013
-254,351	-84,349	-0,085	-0,020
-253,336	-200,000	0,011	-0,137
-252,322	384,412	0,045	-0,068
-251,307	-200,000	0,022	-0,090
-250,292	-38,498	0,203	-0,078
-249,278	163,104	-0,050	-0,052
-248,263	8,319	0,048	0,026
-247,249	315,159	0,037	0,051
-246,234	800,000	-0,051	0,145
-245,219	-146,016	-0,033	0,002
-244,205	800,000	-0,030	0,073
-243,190	-200,000	0,009	0,070
-242,176	-200,000	0,019	0,066
-241,161	-200,000	-0,009	0,057
-240,146	800,000	-0,029	0,083
-239,132	-66,636	0,060	0,017
-238,117	684,067	0,010	-0,019
-237,103	415,902	-0,082	-0,128
-236,088	124,858	0,143	0,131
-235,073	130,309	0,070	0,065
-234,059	-70,823	0,050	0,014
-233,044	-151,117	0,075	-0,004
-232,030	-162,851	-0,056	-0,002
-231,015	86,398	0,080	-0,064
-230,000	-58,435	-0,078	0,025
-228,986	-198,786	0,014	0,000
-227,971	-28,122	0,044	-0,018
-226,957	77,566	0,155	0,121
-225,942	134,828	0,150	0,142
-224,927	-74,669	-0,105	0,027
-223,913	-38,182	-0,069	-0,026
-222,898	-200,000	-0,003	-0,142
-221,884	-200,000	-0,021	-0,206
-220,869	101,341	-0,079	0,067
-219,855	-200,000	0,032	0,106
-218,840	526,844	-0,085	0,147
-217,825	144,296	-0,073	0,071
-216,811	-70,170	0,039	-0,011
-215,796	-66,286	-0,095	0,027
-214,782	223,946	0,037	0,043
-213,767	-200,000	0,028	-0,115
-212,752	36,925	0,057	0,037
-211,738	-200,000	-0,032	-0,129
-210,723	-35,644	0,117	-0,046
-209,709	120,045	-0,080	-0,072
-208,694	-97,385	-0,097	-0,018
-207,679	800,000	0,013	-0,033
-206,665	570,955	0,048	-0,086
-205,650	110,147	-0,069	0,060
-204,636	800,000	0,059	0,180
-203,621	631,268	-0,064	0,119
-202,606	-24,025	0,116	-0,050
-201,592	387,413	0,032	-0,049
-200,577	-200,000	0,012	-0,041
-199,563	800,000	0,034	-0,072
-198,548	-114,625	0,074	-0,010
-197,533	-200,000	0,035	0,118
-196,519	107,523	-0,030	0,026
-195,504	-200,000	-0,023	0,129
-194,490	-200,000	0,015	-0,120
-193,475	6,745	-0,052	-0,028
-192,460	-31,948	-0,082	0,033
-191,446	361,720	0,098	0,144
-190,431	-177,058	0,088	-0,002
-189,417	800,000	-0,007	0,016
-188,402	-200,000	0,002	0,035
-187,387	-60,516	0,092	-0,028
-186,373	-200,000	0,001	-0,192
-185,358	800,000	-0,059	-0,177
-184,344	95,697	-0,090	0,075
-183,329	800,000	0,064	-0,135
-182,315	120,923	-0,048	-0,043
-181,300	-62,718	0,029	-0,009
-180,285	-90,815	-0,039	-0,008
-179,271	-189,155	0,089	-0,001
-178,256	-186,151	-0,047	0,000
-177,242	-200,000	0,023	-0,106
-176,227	60,546	-0,132	0,095
-175,212	426,231	-0,055	0,086
-174,198	800,000	-0,045	-0,097
-173,183	67,263	-0,116	-0,086
-172,169	-49,436	0,037	-0,013
-171,154	-200,000	-0,016	-0,101
-170,139	606,893	-0,052	-0,095
-169,125	-105,991	0,110	0,018
-168,110	-200,000	-0,019	0,097
-167,096	-163,342	-0,089	-0,003
-166,081	13,641	0,136	-0,077
-165,066	56,942	0,015	-0,010
-164,052	159,303	0,018	0,018
-163,037	-123,517	-0,070	0,008
-162,023	-200,000	-0,016	-0,135
-161,008	581,400	0,022	-0,040
-159,993	-200,000	-0,005	0,112
-158,979	61,938	0,055	0,040
-157,964	33,822	-0,088	-0,056
-156,950	83,418	0,066	-0,052
-155,935	157,097	-0,040	0,040
-154,920	120,286	0,162	0,147
-153,906	800,000	0,017	0,053
-152,891	-200,000	0,007	-0,137
-151,877	190,957	-0,067	-0,073
-150,862	-200,000	-0,029	-0,123
-149,847	-200,000	0,013	-0,113
-148,833	-200,000	0,002	0,062
-147,818	-200,000	0,006	-0,102
-146,804	613,611	-0,041	-0,076
-145,789	-67,968	-0,059	-0,017
-144,775	138,168	-0,045	0,043
-143,760	213,611	0,078	-0,090
-142,745	218,510	0,077	-0,090
-141,731	230,251	-0,037	0,044
-140,716	-79,783	0,038	0,009
-139,702	408,261	0,026	0,041
-138,687	-200,000	-0,001	0,056
-137,672	308,956	-0,087	0,118
-136,658	68,411	-0,090	0,067
-135,643	800,000	-0,019	0,046
-134,629	800,000	-0,024	0,069
-133,614	108,631	0,018	0,015
-132,599	644,809	0,055	0,102
-131,585	243,149	-0,045	0,055
-130,570	144,075	-0,078	0,075
-129,556	330,938	0,008	-0,012
-128,541	-101,862	-0,017	0,003
-127,526	-200,000	-0,006	0,074
-126,512	-200,000	0,026	0,134
-125,497	-67,105	0,119	0,034
-124,483	-200,000	-0,018	0,111
-123,468	-190,816	-0,036	-0,000
-122,453	509,380	-0,114	-0,193
-121,439	-109,603	-0,050	-0,008
-120,424	-200,000	0,019	0,120
-119,410	19,954	-0,033	-0,019
