DTS Sentinel unit serial number:	SN410029Multiplexer serial number:	ORYXHardware model number:	OX2-SRSoftware version number:	ORYX F/W v4,00 Oryx Data Collector v3.7.2.0data status	okinstallation	B6 Nyhavnadifferential loss correction	single-endedforward channel	channel 2reverse channel	N/Adate	2023/12/08time	18:50:08forward acquisition time	300,00reverse acquisition time	0,00gamma	499,1914k internal	0,3158k external	0,3158temperature offset calibration	1,0000default loss term (dB/km)	0,3820temperature slope calibration	1,0000multiplexer offset coefficient	1,0000multiplexer slope coefficient	1,0000fibre end	0,00T internal ref (°C)	15,26T ext. ref 1 (°C)	-1,35T ext. ref 2 (°C)	-1,33length (m)	temperature (°C)	Stokes	anti-Stokes-744,400	-38,673	0,133	0,051
-743,385	-84,540	-0,319	0,074
-742,371	-5,886	0,155	0,078
-741,356	-69,012	-0,172	0,049
-740,342	45,936	0,092	0,063
-739,327	-144,195	-0,289	-0,020
-738,312	66,942	0,113	0,085
-737,298	-151,855	-0,460	-0,024
-736,283	-78,406	0,145	-0,036
-735,269	-148,723	-0,241	-0,014
-734,254	87,041	0,025	0,021
-733,239	-33,801	-0,456	-0,184
-732,225	24,645	0,228	0,139
-731,210	-200,000	-0,025	-0,106
-730,196	-200,000	0,008	-0,114
-729,181	-200,000	0,014	-0,137
-728,167	-200,000	-0,002	-0,076
-727,152	11,268	-0,171	-0,096
-726,137	102,590	0,038	0,033
-725,123	39,004	-0,069	0,046
-724,108	-146,192	-0,119	-0,008
-723,094	547,771	0,031	-0,056
-722,079	47,086	-0,154	-0,106
-721,064	-200,000	-0,019	-0,110
-720,050	107,952	0,089	-0,078
-719,035	-90,725	-0,124	0,026
-718,021	154,714	-0,005	-0,005
-717,006	254,736	-0,042	-0,053
-715,991	175,433	-0,108	-0,115
-714,977	50,201	-0,082	0,057
-713,962	-138,440	-0,090	-0,007
-712,948	-200,000	-0,046	0,191
-711,933	800,000	0,024	0,051
-710,918	109,594	0,108	0,095
-709,904	607,849	-0,054	0,100
-708,889	-200,000	0,026	-0,121
-707,875	-55,625	0,033	-0,011
-706,860	-200,000	0,014	-0,045
-705,845	0,814	0,097	0,051
-704,831	423,467	-0,057	-0,090
-703,816	87,946	-0,098	0,080
-702,802	239,060	0,060	-0,073
-701,787	-100,616	-0,136	-0,025
-700,772	111,023	0,061	0,054
-699,758	-200,000	0,001	-0,118
-698,743	-200,000	-0,004	-0,031
-697,729	-146,185	-0,041	-0,003
-696,714	800,000	0,028	-0,070
-695,699	-26,468	-0,114	0,049
-694,685	-200,000	0,007	-0,027
-693,670	19,592	-0,114	-0,067
-692,656	-200,000	-0,001	-0,096
-691,641	-148,128	0,093	0,006
-690,627	-120,331	-0,220	0,027
-689,612	-200,000	-0,018	-0,078
-688,597	800,000	-0,020	-0,052
-687,583	800,000	-0,025	-0,059
-686,568	709,005	-0,079	-0,154
-685,554	223,339	0,052	-0,062
-684,539	54,828	0,038	0,027
-683,524	-3,615	-0,139	0,071
-682,510	800,000	0,023	0,053
-681,495	-200,000	-0,022	-0,105
-680,481	152,737	-0,022	0,022
-679,466	195,180	-0,044	-0,050
-678,451	-200,000	0,015	-0,139
-677,437	800,000	-0,037	0,117
-676,422	-200,000	0,030	0,137
-675,408	62,996	-0,025	-0,019
-674,393	45,790	0,018	0,012
-673,378	119,165	-0,141	-0,128
-672,364	-200,000	-0,029	-0,193
-671,349	392,923	0,009	-0,014
-670,335	-67,367	0,110	0,031
-669,320	58,970	-0,066	0,048
-668,305	-200,000	-0,010	0,068
-667,291	-200,000	0,007	0,063
-666,276	634,076	-0,066	-0,124
-665,262	235,066	-0,027	0,033
-664,247	-200,000	0,034	0,121
-663,232	-122,126	0,063	0,008
-662,218	454,262	-0,108	-0,176
-661,203	189,903	-0,077	0,085
-660,189	222,695	0,027	-0,032
-659,174	14,906	-0,096	0,055
-658,159	9,876	-0,182	-0,101
-657,145	-200,000	-0,027	-0,188
-656,130	40,395	0,027	0,018
-655,116	85,896	-0,122	-0,099
-654,101	-104,850	0,019	-0,003
-653,086	800,000	-0,054	0,114
-652,072	-174,880	0,135	-0,003
-651,057	800,000	-0,022	-0,054
-650,043	155,516	0,073	0,074
-649,028	-14,683	0,065	0,031
-648,014	147,706	0,092	-0,091
-646,999	-200,000	0,008	-0,067
-645,984	-200,000	0,004	-0,094
-644,970	-200,000	0,014	0,052
-643,955	-0,711	-0,125	0,065
-642,941	-73,001	-0,168	-0,045
-641,926	51,450	0,083	0,058
-640,911	-200,000	-0,027	0,137
-639,897	800,000	0,048	0,124
-638,882	-19,412	0,071	-0,032
-637,868	383,887	-0,068	0,103
-636,853	-106,682	-0,106	-0,017
-635,838	59,030	-0,171	-0,123
-634,824	-56,439	0,115	-0,037
-633,809	-80,615	0,042	0,010
-632,795	-200,000	0,048	0,179
-631,780	453,613	-0,088	0,143
-630,765	196,844	-0,133	-0,149
-629,751	148,345	-0,054	-0,053
-628,736	496,085	0,081	0,137
-627,722	698,106	0,027	0,052
-626,707	-94,840	-0,025	0,005
-625,692	66,743	0,140	0,104
-624,678	-200,000	0,006	0,051
-623,663	800,000	0,047	-0,114
-622,649	-39,841	-0,135	-0,052
-621,634	128,433	-0,068	0,063
-620,619	390,256	0,009	0,014
-619,605	48,430	-0,031	-0,022
-618,590	34,227	0,048	0,031
-617,576	78,702	0,089	0,070
-616,561	-200,000	0,038	-0,155
-615,546	-200,000	0,004	0,027
-614,532	-200,000	0,026	-0,154
-613,517	-2,139	0,098	-0,050
-612,503	-177,914	-0,061	0,001
-611,488	-95,631	0,095	-0,018
-610,474	-25,526	-0,073	-0,032
-609,459	273,781	-0,045	0,059
-608,444	-200,000	-0,009	-0,141
-607,430	330,154	-0,020	-0,029
-606,415	-200,000	0,012	-0,140
-605,401	-200,000	0,024	0,098
-604,386	243,122	0,027	0,033
-603,371	31,142	0,031	-0,020
-602,357	-176,205	-0,073	0,001
-601,342	-103,736	-0,077	-0,013
-600,328	-200,000	0,034	-0,153
-599,313	176,299	-0,047	-0,050
-598,298	-200,000	0,008	-0,057
-597,284	165,651	0,040	-0,041
-596,269	506,862	0,057	-0,098
-595,255	800,000	-0,025	-0,056
-594,240	421,267	-0,067	-0,106
-593,225	-23,989	0,020	0,009
-592,211	77,855	-0,045	0,035
-591,196	-200,000	0,009	-0,065
-590,182	-200,000	0,002	0,078
-589,167	800,000	-0,113	0,244
-588,152	-200,000	0,021	0,189
-587,138	191,052	-0,014	0,015
-586,123	-200,000	0,023	-0,129
-585,109	-80,339	0,043	-0,010
-584,094	109,648	0,019	0,017
-583,079	-134,118	-0,129	0,012
-582,065	-77,546	0,118	-0,030
-581,050	-111,350	0,173	0,026
-580,036	264,866	-0,015	0,019
-579,021	41,125	-0,090	-0,060
-578,006	12,986	-0,159	-0,090
-576,992	146,440	0,062	-0,061
-575,977	800,000	-0,022	0,064
-574,963	-159,582	-0,134	-0,005
-573,948	-200,000	-0,001	0,151
-572,934	534,519	0,055	0,095
-571,919	472,175	-0,033	-0,054
-570,904	239,459	-0,019	0,023
-569,890	-200,000	-0,010	0,058
-568,875	-200,000	0,010	0,076
-567,861	183,021	0,041	0,045
-566,846	185,346	0,033	0,036
-565,831	-22,383	0,107	-0,047
-564,817	453,083	0,054	-0,087
-563,802	-47,403	0,057	-0,020
-562,788	-200,000	0,014	0,083
-561,773	86,887	0,070	-0,056
-560,758	800,000	0,025	0,071
-559,744	-18,615	0,061	0,028
-558,729	264,171	-0,149	0,190
-557,715	156,490	-0,045	-0,045
-556,700	-92,772	0,202	-0,041
-555,685	251,374	0,020	0,025
-554,671	161,442	-0,087	-0,089
-553,656	761,370	-0,071	0,142
-552,642	166,223	-0,081	0,084
-551,627	-200,000	-0,001	0,028
-550,612	163,332	-0,069	-0,071
-549,598	-46,383	0,090	-0,032
-548,583	-200,000	0,011	0,105
-547,569	800,000	0,044	-0,106
-546,554	134,093	0,041	0,039
-545,539	728,991	-0,046	0,090
-544,525	348,467	0,113	0,163
-543,510	-200,000	0,026	0,162
-542,496	147,409	-0,089	0,087
-541,481	800,000	-0,044	-0,138
-540,466	-200,000	0,012	0,048
-539,452	332,375	-0,064	-0,091
-538,437	-200,000	-0,036	-0,117
-537,423	289,214	0,174	0,231
-536,408	-200,000	0,028	0,129
-535,393	-17,834	-0,127	0,058
-534,379	800,000	0,040	-0,082
-533,364	-200,000	0,002	0,082
-532,350	-200,000	0,009	0,063
-531,335	-200,000	0,022	0,072
-530,321	241,897	-0,052	-0,063
-529,306	-76,359	0,081	0,021
-528,291	-200,000	0,011	-0,071
-527,277	-30,862	-0,044	-0,018
-526,262	-200,000	0,003	-0,044
-525,248	-200,000	0,002	0,061
-524,233	-29,799	0,099	0,041
-523,218	-200,000	0,014	0,157
-522,204	-200,000	0,008	-0,053
-521,189	587,456	0,006	-0,011
-520,175	110,179	-0,102	0,090
-519,160	403,951	-0,051	0,078
-518,145	800,000	0,061	-0,157
-517,131	800,000	0,012	-0,039
-516,116	-28,258	0,091	-0,038
-515,102	148,396	0,064	0,064
-514,087	-200,000	0,037	-0,142
-513,072	-200,000	0,006	0,027
-512,058	236,352	-0,052	-0,062
-511,043	-200,000	-0,049	-0,245
-510,029	-58,915	-0,058	-0,018
-509,014	800,000	-0,051	0,161
-507,999	-90,519	0,038	-0,008
-506,985	-200,000	-0,001	-0,029
-505,970	346,178	-0,049	-0,071
-504,956	50,858	0,029	0,020
-503,941	602,161	-0,032	-0,059
-502,926	-200,000	-0,004	-0,047
-501,912	-61,886	0,140	0,042
-500,897	-200,000	-0,001	0,081
-499,883	-51,370	-0,049	0,017
-498,868	282,817	0,046	-0,061
-497,853	-200,000	0,015	-0,060
-496,839	-200,000	-0,009	0,122
-495,824	-200,000	0,018	0,103
-494,810	466,741	0,068	0,111
-493,795	-200,000	-0,013	-0,044
-492,781	-117,196	-0,036	0,005
-491,766	209,004	0,149	0,170
-490,751	-129,767	-0,151	0,015
-489,737	-134,492	-0,103	-0,009
-488,722	800,000	0,034	0,097
-487,708	-200,000	-0,012	0,047
-486,693	-114,154	0,075	-0,010
-485,678	-42,570	-0,021	0,008
-484,664	-25,286	0,019	0,008
-483,649	-3,811	0,065	0,033
-482,635	-71,969	-0,060	0,016
-481,620	800,000	0,053	0,158
-480,605	-200,000	-0,022	0,089
-479,591	36,133	-0,178	0,114
-478,576	-104,549	-0,150	-0,025
-477,562	124,385	-0,074	-0,068
-476,547	710,495	-0,037	0,072
-475,532	-200,000	-0,017	-0,057
-474,518	-0,767	0,153	-0,079
-473,503	800,000	-0,015	-0,042
-472,489	-200,000	0,034	0,143
-471,474	-88,065	-0,115	-0,025
-470,459	-48,954	-0,046	-0,016
-469,445	75,406	0,103	-0,080
-468,430	-34,595	-0,070	-0,028
-467,416	90,924	-0,018	-0,015
-466,401	-14,906	0,066	-0,031
-465,386	-200,000	0,004	-0,028
-464,372	-66,965	0,218	0,062
-463,357	-103,281	-0,069	0,012
-462,343	800,000	-0,032	-0,080
-461,328	179,540	-0,113	-0,120
-460,313	-65,032	-0,089	-0,026
-459,299	444,661	-0,011	0,018
-458,284	13,231	-0,030	0,017
-457,270	800,000	0,026	0,054
-456,255	79,990	-0,039	-0,030
-455,241	269,618	-0,111	-0,142
-454,226	678,893	-0,047	-0,089
-453,211	-81,504	0,053	0,013
-452,197	-83,913	-0,052	-0,012
-451,182	-200,000	0,019	-0,133
-450,168	-62,631	0,055	-0,017
-449,153	800,000	0,081	0,169
-448,138	90,512	0,037	-0,030
-447,124	-52,569	-0,039	0,013
-446,109	338,993	0,048	-0,069
-445,095	300,951	0,043	-0,058
-444,080	-200,000	0,001	-0,102
-443,065	128,231	-0,108	-0,100
-442,051	-53,314	0,126	0,042
-441,036	800,000	-0,035	-0,095
-440,022	-200,000	0,005	-0,078
-439,007	-90,849	0,145	-0,030
-437,992	307,774	0,075	-0,102
-436,978	517,626	-0,042	-0,073
-435,963	-200,000	0,007	0,059
-434,949	800,000	0,075	0,154
-433,934	12,232	-0,088	0,049
-432,919	238,571	0,026	-0,031
-431,905	132,269	-0,018	0,017
-430,890	-200,000	0,021	-0,134
-429,876	-200,000	-0,027	-0,223
-428,861	-44,488	0,064	-0,023
-427,846	800,000	-0,036	-0,077
-426,832	-58,765	-0,053	-0,017
-425,817	-119,139	-0,123	-0,015
-424,803	800,000	-0,036	-0,073
-423,788	34,524	0,151	0,096
-422,773	-200,000	0,054	0,230
-421,759	690,664	-0,017	0,033
-420,744	-200,000	-0,011	0,040
-419,730	249,516	-0,050	-0,061
-418,715	-200,000	0,024	-0,148
-417,701	-17,456	-0,123	0,056
-416,686	428,374	0,041	-0,064
-415,671	135,689	-0,060	0,057
-414,657	4,038	0,107	-0,057
-413,642	-45,434	-0,112	-0,040
-412,628	605,319	0,032	-0,059
-411,613	67,287	0,032	0,024
-410,598	723,926	-0,045	-0,087
-409,584	346,264	0,043	-0,061
-408,569	-200,000	0,008	0,120
-407,555	183,242	0,074	0,080
-406,540	-200,000	-0,001	0,044
-405,525	-200,000	0,022	-0,075
-404,511	-200,000	-0,003	-0,081
-403,496	89,264	-0,111	0,090
-402,482	-151,002	0,085	-0,005
-401,467	598,976	-0,085	0,155
-400,452	-84,196	-0,040	-0,009
-399,438	282,883	0,043	-0,056
-398,423	-88,426	-0,124	-0,027
-397,409	337,267	0,021	0,030
-396,394	-200,000	0,016	-0,083
-395,379	-110,828	0,108	-0,016
-394,365	-112,699	0,060	-0,009
-393,350	188,745	0,099	0,108
-392,336	705,159	0,038	-0,074
-391,321	-200,000	0,007	0,046
-390,306	-135,232	-0,139	0,012
-389,292	-200,000	-0,002	-0,029
-388,277	51,062	0,036	-0,025
-387,263	566,986	0,012	0,021
-386,248	800,000	0,018	-0,040
-385,233	-200,000	-0,011	-0,079
-384,219	245,761	0,044	-0,054
-383,204	98,258	0,026	-0,022
-382,190	-187,297	-0,105	-0,001
-381,175	29,254	0,013	-0,008
-380,160	14,370	0,089	-0,050
-379,146	-156,285	-0,095	-0,004
-378,131	24,488	0,076	-0,045
-377,117	-68,743	-0,042	-0,012
-376,102	34,404	-0,063	-0,040
-375,088	-0,697	-0,115	-0,059
-374,073	209,727	0,025	0,029
-373,058	-200,000	-0,001	-0,020
-372,044	800,000	0,066	-0,148
-371,029	-127,741	0,047	0,005
-370,015	800,000	0,036	0,094
-369,000	335,261	0,052	-0,074
-367,985	530,357	-0,053	-0,092
-366,971	800,000	-0,048	-0,144
-365,956	-200,000	0,023	0,085
-364,942	418,136	0,019	-0,030
-363,927	41,206	-0,029	0,019
-362,912	-200,000	0,001	0,158
-361,898	251,762	0,064	-0,079
-360,883	13,068	-0,128	0,072
-359,869	-200,000	0,013	0,064
-358,854	595,900	0,138	0,248
-357,839	-200,000	-0,016	0,176
-356,825	18,011	-0,021	0,012
-355,810	800,000	-0,046	0,128
-354,796	608,914	-0,047	0,086
-353,781	104,403	0,030	0,025
-352,766	-200,000	-0,009	-0,100
-351,752	222,235	0,034	0,040
-350,737	-50,521	0,049	-0,017
-349,723	707,153	0,070	-0,134
-348,708	800,000	-0,042	0,109
-347,693	771,391	0,031	-0,062
-346,679	-200,000	0,015	-0,147
-345,664	-38,727	-0,080	0,030
-344,650	192,036	0,051	0,056
-343,635	-200,000	0,002	-0,027
-342,620	21,730	0,117	-0,069
-341,606	-67,313	0,070	0,020
-340,591	-200,000	0,009	-0,047
-339,577	-62,615	-0,076	-0,023
-338,562	-48,467	0,084	-0,029
-337,548	-24,817	0,082	0,035
-336,533	-97,334	0,039	0,007
-335,518	-150,634	0,026	-0,001
-334,504	-200,000	0,006	0,068
-333,489	-20,031	-0,060	-0,027
-332,475	800,000	-0,039	-0,101
-331,460	-200,000	0,005	-0,088
-330,445	410,278	0,033	0,051
-329,431	195,620	0,071	0,078
-328,416	234,718	0,110	0,132
-327,402	-200,000	-0,006	0,054
-326,387	800,000	0,045	0,104
-325,372	709,120	0,096	0,185
-324,358	800,000	-0,026	-0,064
-323,343	67,021	-0,073	0,054
-322,329	-200,000	-0,009	0,085
-321,314	121,430	0,098	0,089
-320,299	-200,000	-0,033	0,119
-319,285	-38,158	-0,139	0,053
-318,270	660,768	0,045	-0,084
-317,256	800,000	0,017	0,047
-316,241	-82,823	0,153	-0,036
-315,226	-200,000	-0,002	0,019
-314,212	-200,000	-0,001	0,044
-313,197	-97,662	-0,003	-0,001
-312,183	-18,217	0,035	0,016
-311,168	55,982	-0,061	-0,043
-310,153	-77,633	0,018	0,004
-309,139	800,000	-0,012	-0,033
-308,124	-43,411	-0,077	0,028
-307,110	23,287	0,080	0,047
-306,095	718,677	0,059	0,115
-305,080	654,888	0,060	0,112
-304,066	11,263	0,053	-0,029
-303,051	-94,914	-0,097	-0,019
-302,037	-200,000	-0,006	-0,055
-301,022	-41,403	0,084	-0,031
-300,008	-200,000	0,029	0,168
-298,993	637,294	0,073	0,135
-297,978	800,000	-0,026	-0,074
-296,964	-200,000	-0,008	0,048
-295,949	15,146	-0,174	-0,098
-294,935	800,000	-0,010	-0,023
-293,920	277,413	0,040	-0,052
-292,905	-45,119	0,105	-0,038
-291,891	-61,433	-0,089	0,027
-290,876	-200,000	-0,024	0,121
-289,862	-16,442	-0,077	-0,035
-288,847	201,395	-0,084	-0,094
-287,832	375,468	0,061	-0,090
-286,818	-18,837	0,131	-0,059
-285,803	-63,270	0,087	0,026
-284,789	490,284	-0,062	-0,103
-283,774	131,580	0,065	0,061
-282,759	800,000	0,017	0,043
-281,745	-87,596	-0,224	0,049
-280,730	-112,848	0,138	0,020
-279,716	-200,000	0,022	0,180
-278,701	-170,131	0,080	0,002
-277,686	454,517	-0,084	0,136
-276,672	-200,000	0,002	-0,076
-275,657	240,318	0,062	0,075
-274,643	371,147	-0,052	-0,076
-273,628	-200,000	0,008	-0,074
-272,613	-30,437	0,069	0,028
-271,599	43,117	0,091	-0,060
-270,584	-200,000	0,012	0,116
-269,570	542,190	-0,089	0,154
-268,555	-200,000	0,032	0,165
-267,540	-200,000	0,016	-0,054
-266,526	-200,000	-0,011	-0,083
-265,511	135,323	0,054	0,051
-264,497	464,114	0,019	-0,030
-263,482	1,296	-0,038	-0,020
-262,467	-147,967	-0,125	0,007
-261,453	-200,000	-0,001	0,102
-260,438	5,260	-0,070	-0,037
-259,424	64,463	-0,055	-0,040
-258,409	131,645	0,048	0,045
-257,395	-200,000	-0,010	-0,046
-256,380	-200,000	-0,026	-0,104
-255,365	119,196	-0,078	0,070
-254,351	646,430	-0,032	-0,059
-253,336	-1,571	0,047	0,024
-252,322	754,702	-0,005	-0,011
-251,307	-34,914	0,055	0,022
-250,292	-200,000	-0,085	0,000
-249,278	-200,000	0,012	0,067
-248,263	-46,520	-0,090	0,032
-247,249	152,698	0,073	0,072
-246,234	-200,000	-0,008	0,118
-245,219	-5,137	0,071	-0,035
-244,205	214,513	-0,104	0,119
-243,190	7,033	-0,129	0,070
-242,176	535,736	-0,022	0,038
-241,161	102,641	-0,027	0,023
-240,146	380,351	0,078	0,116
-239,132	-5,862	-0,039	-0,019
-238,117	-65,002	-0,050	-0,015
-237,103	-200,000	-0,042	-0,250
-236,088	-200,000	0,006	-0,193
-235,073	118,181	0,077	-0,069
-234,059	183,262	0,007	0,007
-233,044	800,000	0,024	-0,064
-232,030	-200,000	0,011	0,168
-231,015	-119,664	-0,155	-0,019
-230,000	512,715	-0,022	-0,036
-228,986	-200,000	0,004	0,031
-227,971	347,236	0,091	-0,130
-226,957	-200,000	0,003	-0,064
-225,942	-200,000	0,027	0,133
-224,927	119,068	-0,086	-0,077
-223,913	-115,204	0,033	-0,004
-222,898	90,537	-0,061	-0,049
-221,884	800,000	-0,082	-0,189
-220,869	-200,000	0,006	-0,156
-219,855	-200,000	0,019	-0,069
-218,840	434,307	-0,048	-0,076
-217,825	-200,000	0,019	-0,063
-216,811	800,000	0,017	-0,035
-215,796	476,036	-0,062	-0,101
-214,782	800,000	-0,021	-0,064
-213,767	373,945	0,038	0,055
-212,752	17,247	0,018	-0,011
-211,738	800,000	0,053	0,137
-210,723	348,181	-0,037	0,053
-209,709	297,482	-0,037	-0,049
-208,694	109,969	-0,016	0,014
-207,679	-200,000	0,027	-0,098
-206,665	800,000	-0,038	-0,118
-205,650	-99,901	0,052	-0,009
-204,636	28,416	-0,178	0,109
-203,621	473,932	-0,045	0,073
-202,606	92,935	-0,147	-0,120
-201,592	198,903	-0,053	-0,059
-200,577	-200,000	0,000	-0,039
-199,563	-115,722	-0,094	0,013
-198,548	-132,089	0,067	-0,006
-197,533	-200,000	-0,003	0,031
-196,519	800,000	-0,038	-0,076
-195,504	85,812	0,107	0,085
-194,490	193,968	0,139	-0,152
-193,475	-71,132	-0,120	-0,032
-192,460	-200,000	-0,008	0,115
-191,446	350,602	0,072	0,103
-190,431	109,388	-0,073	-0,063
-189,417	-5,535	0,057	0,028
-188,402	68,805	0,054	0,040
-187,387	302,162	0,019	0,026
-186,373	800,000	0,016	-0,037
-185,358	-79,088	0,042	0,010
-184,344	-53,643	-0,030	-0,010
-183,329	-111,867	0,103	-0,015
-182,315	14,919	0,124	0,070
-181,300	-11,765	-0,014	0,006
-180,285	101,130	-0,093	-0,078
-179,271	800,000	-0,076	-0,214
-178,256	-200,000	-0,003	-0,095
-177,242	443,291	0,052	0,082
-176,227	518,341	-0,028	0,047
-175,212	-70,491	-0,129	0,035
-174,198	317,299	0,024	-0,033
-173,183	-104,318	-0,130	0,022
-172,169	106,375	-0,039	-0,033
-171,154	-116,719	-0,075	-0,010
-170,139	-200,000	0,016	0,139
-169,125	243,027	0,072	-0,088
-168,110	-90,652	0,187	0,039
-167,096	-94,851	-0,040	-0,008
-166,081	-143,040	0,225	-0,015
-165,066	-200,000	-0,026	-0,114
-164,052	800,000	0,058	-0,122
-163,037	373,730	-0,021	0,031
-162,023	800,000	-0,031	-0,062
-161,008	98,232	-0,119	-0,099
-159,993	98,500	-0,061	-0,050
-158,979	-161,870	-0,094	-0,003
-157,964	-155,954	-0,094	-0,004
-156,950	-22,542	-0,113	0,049
-155,935	123,396	0,068	-0,062
-154,920	216,837	0,051	-0,058
-153,906	1,877	0,105	0,055
-152,891	232,154	0,074	-0,087
-151,877	199,788	-0,118	0,131
-150,862	-17,525	-0,141	-0,063
-149,847	-55,784	-0,115	-0,037
-148,833	300,965	-0,020	0,026
-147,818	255,734	0,012	0,015
-146,804	-4,927	0,057	-0,028
-145,789	-141,109	0,141	0,010
-144,775	800,000	0,032	-0,094
-143,760	-191,020	-0,212	-0,002
-142,745	12,063	0,082	-0,045
-141,731	800,000	0,054	-0,110
-140,716	-22,335	0,067	-0,029
-139,702	-200,000	0,011	0,059
-138,687	630,821	-0,022	0,040
-137,672	137,209	0,102	-0,096
-136,658	-98,796	-0,078	-0,014
-135,643	-103,036	-0,118	-0,020
-134,629	35,927	0,078	0,049
-133,614	-200,000	-0,020	0,148
-132,599	800,000	0,046	0,120
-131,585	517,650	-0,076	0,128
-130,570	223,711	-0,121	-0,140
-129,556	-16,903	0,114	-0,052
-128,541	-101,141	-0,190	-0,033
-127,526	-200,000	0,040	0,133
-126,512	45,861	0,048	0,032
-125,497	43,716	0,026	0,017
-124,483	800,000	0,044	0,119
-123,468	-143,914	-0,086	-0,006
-122,453	-139,340	-0,041	0,003
-121,439	-25,006	-0,127	-0,054
-120,424	800,000	-0,025	0,066
-119,410	64,904	0,051	0,037
