DTS Sentinel unit serial number:	SN410029Multiplexer serial number:	ORYXHardware model number:	OX2-SRSoftware version number:	ORYX F/W v4,00 Oryx Data Collector v3.7.2.0data status	okinstallation	B6 Nyhavnadifferential loss correction	single-endedforward channel	channel 2reverse channel	N/Adate	2023/12/10time	21:15:08forward acquisition time	300,00reverse acquisition time	0,00gamma	499,1914k internal	0,3123k external	0,3123temperature offset calibration	1,0000default loss term (dB/km)	0,3820temperature slope calibration	1,0000multiplexer offset coefficient	1,0000multiplexer slope coefficient	1,0000fibre end	0,00T internal ref (°C)	22,26T ext. ref 1 (°C)	5,99T ext. ref 2 (°C)	6,01length (m)	temperature (°C)	Stokes	anti-Stokes-744,400	101,762	0,019	-0,017
-743,385	-102,235	-0,192	0,034
-742,371	-200,000	-0,010	0,075
-741,356	94,031	-0,212	0,179
-740,342	800,000	-0,027	0,083
-739,327	-53,616	-0,303	0,103
-738,312	55,284	-0,011	0,008
-737,298	-91,304	-0,179	-0,038
-736,283	28,231	-0,026	-0,016
-735,269	341,958	-0,197	0,287
-734,254	-16,632	0,076	-0,036
-733,239	-86,469	-0,481	-0,109
-732,225	-19,569	0,077	0,035
-731,210	273,419	-0,024	-0,032
-730,196	-200,000	0,003	-0,029
-729,181	12,290	-0,128	-0,073
-728,167	419,932	-0,120	0,192
-727,152	-97,442	-0,076	-0,015
-726,137	-4,870	-0,110	-0,056
-725,123	-200,000	-0,029	-0,242
-724,108	-123,846	-0,182	0,021
-723,094	800,000	-0,030	0,071
-722,079	-200,000	-0,015	-0,077
-721,064	142,859	-0,058	-0,057
-720,050	21,532	-0,080	-0,048
-719,035	-133,203	-0,081	-0,008
-718,021	67,768	-0,068	0,052
-717,006	15,942	-0,109	-0,064
-715,991	346,968	-0,040	-0,059
-714,977	-200,000	0,006	0,136
-713,962	-200,000	-0,015	0,095
-712,948	-200,000	-0,000	0,044
-711,933	-51,107	0,057	-0,020
-710,918	-121,436	0,119	-0,015
-709,904	-200,000	-0,004	-0,051
-708,889	631,833	0,056	0,106
-707,875	296,433	-0,095	-0,130
-706,860	800,000	-0,011	-0,032
-705,845	390,833	-0,040	0,061
-704,831	225,517	0,113	0,136
-703,816	67,069	-0,071	0,054
-702,802	117,656	-0,089	0,081
-701,787	82,193	0,107	-0,086
-700,772	-200,000	-0,015	-0,092
-699,758	-200,000	-0,006	0,114
-698,743	-116,385	0,121	0,017
-697,729	184,699	-0,020	-0,022
-696,714	366,661	0,055	0,083
-695,699	565,144	-0,085	-0,154
-694,685	-200,000	0,005	0,154
-693,670	800,000	-0,040	0,120
-692,656	351,387	-0,032	0,048
-691,641	-5,338	0,036	0,018
-690,627	483,633	0,029	0,050
-689,612	800,000	0,032	0,068
-688,597	152,495	-0,085	0,087
-687,583	41,809	-0,142	0,096
-686,568	800,000	-0,024	-0,069
-685,554	417,177	-0,119	-0,189
-684,539	-200,000	-0,000	-0,009
-683,524	800,000	0,012	0,040
-682,510	184,719	-0,077	0,085
-681,495	66,814	0,158	-0,120
-680,481	-200,000	-0,021	-0,115
-679,466	-119,472	-0,137	0,017
-678,451	-55,190	0,088	-0,029
-677,437	38,011	-0,063	-0,041
-676,422	-200,000	-0,012	-0,044
-675,408	42,039	0,116	0,078
-674,393	156,183	-0,095	0,097
-673,378	-8,520	-0,148	-0,074
-672,364	-200,000	0,015	-0,081
-671,349	510,311	-0,094	0,162
-670,335	800,000	-0,034	0,089
-669,320	32,440	0,097	0,062
-668,305	800,000	-0,059	0,190
-667,291	-77,214	-0,063	-0,016
-666,276	33,365	-0,063	0,040
-665,262	310,458	0,060	-0,084
-664,247	-179,524	-0,116	0,002
-663,232	-71,572	0,077	0,021
-662,218	-131,440	0,092	-0,009
-661,203	53,906	0,106	-0,076
-660,189	-109,112	-0,163	-0,025
-659,174	-137,624	0,051	0,004
-658,159	-51,571	-0,069	-0,024
-657,145	-34,544	-0,038	0,015
-656,130	267,602	-0,013	-0,017
-655,116	800,000	-0,022	0,058
-654,101	143,992	0,062	0,061
-653,086	697,445	0,031	-0,060
-652,072	-200,000	-0,014	0,133
-651,057	-32,278	-0,109	-0,045
-650,043	26,103	-0,072	-0,044
-649,028	104,265	0,089	-0,078
-648,014	-200,000	-0,015	-0,107
-646,999	800,000	0,020	0,051
-645,984	-41,160	-0,014	0,006
-644,970	-107,980	-0,257	0,041
-643,955	-20,271	-0,012	0,005
-642,941	-200,000	-0,024	-0,103
-641,926	-29,020	0,190	-0,081
-640,911	-3,571	0,038	0,019
-639,897	-11,292	0,076	0,037
-638,882	-200,000	-0,005	0,092
-637,868	-200,000	0,000	-0,045
-636,853	126,921	0,039	-0,037
-635,838	-200,000	0,002	-0,108
-634,824	78,448	-0,098	0,078
-633,809	-59,446	-0,174	0,055
-632,795	379,871	0,083	0,127
-631,780	-79,695	-0,164	0,041
-630,765	627,462	-0,051	-0,097
-629,751	800,000	0,007	-0,024
-628,736	-200,000	-0,011	0,087
-627,722	-8,499	0,121	0,060
-626,707	-200,000	-0,013	-0,084
-625,692	800,000	-0,050	-0,129
-624,678	-159,719	-0,110	0,004
-623,663	-47,018	-0,032	0,012
-622,649	513,598	-0,051	-0,089
-621,634	-10,980	-0,117	-0,057
-620,619	-200,000	0,001	0,048
-619,605	285,067	-0,026	0,035
-618,590	169,042	-0,052	-0,055
-617,576	800,000	-0,056	0,127
-616,561	-96,928	-0,152	-0,029
-615,546	209,636	-0,028	-0,032
-614,532	62,481	-0,177	-0,131
-613,517	-181,174	-0,076	0,001
-612,503	160,230	0,060	-0,062
-611,488	271,191	0,041	0,054
-610,474	116,060	0,009	0,008
-609,459	-200,000	-0,019	0,119
-608,444	-200,000	-0,004	-0,052
-607,430	-200,000	-0,029	-0,156
-606,415	-92,358	-0,099	-0,021
-605,401	107,302	-0,035	-0,031
-604,386	53,786	0,140	0,099
-603,371	800,000	0,027	-0,071
-602,357	140,315	-0,049	0,048
-601,342	119,752	-0,098	0,090
-600,328	800,000	-0,010	-0,031
-599,313	410,776	-0,040	-0,064
-598,298	216,564	0,057	0,067
-597,284	2,998	0,128	0,068
-596,269	800,000	0,055	-0,139
-595,255	229,674	0,014	-0,017
-594,240	-200,000	0,003	0,086
-593,225	800,000	-0,036	-0,111
-592,211	517,321	-0,037	-0,065
-591,196	800,000	-0,052	0,118
-590,182	239,131	0,027	0,034
-589,167	-200,000	-0,028	0,092
-588,152	-70,024	-0,089	0,025
-587,138	-95,167	-0,082	0,016
-586,123	-20,892	0,075	0,034
-585,109	-200,000	0,016	-0,158
-584,094	-200,000	-0,009	-0,049
-583,079	-200,000	0,002	-0,030
-582,065	-92,171	0,096	-0,020
-581,050	-200,000	0,005	-0,028
-580,036	-200,000	-0,013	-0,054
-579,021	-200,000	-0,007	-0,162
-578,006	-200,000	-0,034	-0,167
-576,992	-141,999	-0,067	0,005
-575,977	-45,858	-0,059	-0,022
-574,963	-75,246	0,073	-0,019
-573,948	75,618	0,103	-0,080
-572,934	800,000	-0,027	0,061
-571,919	363,029	0,039	0,059
-570,904	369,650	-0,073	0,110
-569,890	37,537	0,055	-0,036
-568,875	-72,446	0,036	0,010
-567,861	15,679	-0,015	-0,009
-566,846	-96,523	0,182	0,035
-565,831	574,021	-0,072	0,130
-564,817	434,631	0,083	-0,134
-563,802	-200,000	-0,017	-0,110
-562,788	24,921	0,032	0,019
-561,773	800,000	-0,010	-0,025
-560,758	-200,000	-0,036	0,136
-559,744	-56,044	-0,073	-0,024
-558,729	-80,036	0,111	0,027
-557,715	402,977	-0,014	0,021
-556,700	800,000	-0,033	0,102
-555,685	150,958	0,023	-0,024
-554,671	-70,650	0,069	-0,019
-553,656	-200,000	-0,019	0,121
-552,642	632,569	0,044	0,083
-551,627	53,835	0,139	-0,098
-550,612	52,074	-0,081	-0,057
-549,598	-200,000	0,032	-0,124
-548,583	800,000	0,037	-0,079
-547,569	-200,000	-0,003	-0,060
-546,554	89,462	-0,092	-0,076
-545,539	-200,000	-0,039	0,128
-544,525	-0,435	0,053	0,028
-543,510	502,517	-0,014	-0,024
-542,496	800,000	-0,064	-0,210
-541,481	7,604	-0,120	-0,066
-540,466	-200,000	0,006	0,037
-539,452	-200,000	0,012	0,092
-538,437	257,328	-0,042	0,053
-537,423	779,508	0,033	0,066
-536,408	-57,881	-0,030	-0,010
-535,393	132,811	-0,135	0,129
-534,379	86,878	0,049	0,040
-533,364	-155,114	-0,091	-0,004
-532,350	-200,000	0,011	-0,078
-531,335	416,441	0,057	0,090
-530,321	6,080	0,055	0,030
-529,306	-179,423	0,076	-0,001
-528,291	-22,416	0,046	-0,021
-527,277	-200,000	-0,036	-0,178
-526,262	7,905	-0,104	0,057
-525,248	46,662	0,183	0,126
-524,233	800,000	-0,094	0,215
-523,218	-86,136	0,161	0,036
-522,204	-28,778	0,073	-0,031
-521,189	154,073	-0,064	0,065
-520,175	447,882	-0,101	-0,165
-519,160	86,905	-0,076	-0,062
-518,145	-91,495	0,047	-0,010
-517,131	-33,846	0,081	-0,033
-516,116	108,992	-0,099	0,088
-515,102	14,431	0,081	0,047
-514,087	-200,000	-0,009	-0,137
-513,072	215,745	-0,036	-0,042
-512,058	279,907	0,017	0,023
-511,043	50,319	-0,087	-0,061
-510,029	-200,000	0,002	-0,024
-509,014	-79,130	-0,021	0,005
-507,999	-50,433	-0,017	0,006
-506,985	-200,000	-0,024	-0,099
-505,970	-200,000	0,017	-0,168
-504,956	197,220	-0,096	0,109
-503,941	-113,664	0,133	0,019
-502,926	-13,662	0,061	0,029
-501,912	145,240	0,097	0,096
-500,897	800,000	-0,066	-0,168
-499,883	-200,000	0,037	-0,121
-498,868	-200,000	-0,014	0,151
-497,853	21,455	0,036	0,021
-496,839	800,000	-0,031	0,072
-495,824	-168,019	0,111	0,003
-494,810	-200,000	0,000	0,030
-493,795	498,412	0,027	-0,047
-492,781	92,441	-0,083	0,069
-491,766	-106,485	-0,112	-0,018
-490,751	700,026	-0,027	0,052
-489,737	800,000	0,032	-0,074
-488,722	800,000	-0,062	-0,147
-487,708	800,000	0,023	0,053
-486,693	166,609	0,078	0,082
-485,678	552,264	-0,075	-0,134
-484,664	800,000	-0,014	-0,045
-483,649	-200,000	-0,008	-0,091
-482,635	-7,301	-0,053	0,026
-481,620	33,091	0,112	0,071
-480,605	800,000	0,033	-0,071
-479,591	-200,000	0,009	0,137
-478,576	547,583	0,064	-0,114
-477,562	663,325	-0,024	-0,047
-476,547	800,000	0,028	-0,081
-475,532	800,000	0,050	-0,119
-474,518	105,736	0,019	0,017
-473,503	265,194	-0,042	0,055
-472,489	-200,000	0,022	0,094
-471,474	-118,137	0,033	0,004
-470,459	142,091	-0,083	-0,081
-469,445	-200,000	0,018	-0,107
-468,430	-200,000	-0,000	0,036
-467,416	120,519	0,057	-0,052
-466,401	-27,939	0,121	0,051
-465,386	4,191	-0,070	-0,038
-464,372	-200,000	0,010	-0,094
-463,357	369,523	-0,041	-0,061
-462,343	44,517	-0,039	-0,026
-461,328	-200,000	-0,000	0,024
-460,313	800,000	0,018	0,050
-459,299	-75,931	0,156	0,041
-458,284	547,208	-0,041	-0,073
-457,270	187,145	-0,045	-0,050
-456,255	199,065	-0,077	-0,087
-455,241	-180,763	-0,088	-0,001
-454,226	800,000	-0,017	-0,037
-453,211	105,115	-0,056	-0,049
-452,197	-2,830	0,127	-0,065
-451,182	-57,354	0,082	0,026
-450,168	12,996	0,054	0,031
-449,153	132,574	-0,184	0,175
-448,138	245,514	0,016	0,020
-447,124	-200,000	-0,004	-0,134
-446,109	195,026	-0,064	0,072
-445,095	-200,000	-0,007	0,034
-444,080	452,283	0,023	0,037
-443,065	171,212	0,032	0,034
-442,051	-114,629	-0,026	-0,004
-441,036	-200,000	0,037	0,125
-440,022	-78,914	-0,203	0,051
-439,007	8,499	-0,055	0,031
-437,992	4,235	-0,073	0,039
-436,978	539,402	0,025	0,044
-435,963	-118,265	-0,165	0,021
-434,949	47,341	-0,034	0,023
-433,934	183,606	0,098	-0,106
-432,919	-53,909	-0,030	0,010
-431,905	178,815	0,116	-0,125
-430,890	15,910	0,026	0,015
-429,876	800,000	0,013	0,038
-428,861	-200,000	0,028	0,120
-427,846	-200,000	-0,010	-0,052
-426,832	-105,349	-0,144	0,024
-425,817	-14,511	0,097	-0,046
-424,803	665,751	-0,040	0,075
-423,788	-77,598	0,086	0,022
-422,773	178,798	0,080	-0,086
-421,759	-200,000	-0,007	0,026
-420,744	-18,335	0,090	0,041
-419,730	-93,158	-0,066	-0,013
-418,715	92,876	0,061	0,050
-417,701	159,370	0,063	-0,065
-416,686	-200,000	-0,004	0,160
-415,671	48,194	-0,024	0,017
-414,657	-200,000	-0,026	0,163
-413,642	68,025	0,020	-0,015
-412,628	-99,092	-0,124	-0,023
-411,613	-131,283	0,066	0,006
-410,598	-200,000	0,011	-0,137
-409,584	84,479	-0,065	0,053
-408,569	-127,973	0,058	-0,006
-407,555	-22,142	0,046	0,020
-406,540	196,529	0,091	-0,102
-405,525	172,991	-0,102	-0,108
-404,511	163,794	-0,065	-0,068
-403,496	121,085	-0,053	0,049
-402,482	-200,000	-0,016	0,095
-401,467	-200,000	0,073	-0,000
-400,452	-200,000	0,014	0,092
-399,438	-200,000	0,024	0,169
-398,423	-163,155	-0,097	0,003
-397,409	-200,000	0,007	-0,100
-396,394	-200,000	-0,016	-0,063
-395,379	-49,514	0,072	0,025
-394,365	-104,918	-0,072	0,012
-393,350	-128,251	-0,104	-0,011
-392,336	48,397	-0,023	0,016
-391,321	159,454	-0,084	-0,086
-390,306	88,578	-0,071	-0,058
-389,292	-200,000	-0,002	0,069
-388,277	-12,085	0,144	-0,069
-387,263	32,103	-0,010	-0,006
-386,248	15,001	0,036	-0,021
-385,233	95,058	0,019	0,016
-384,219	-90,009	-0,054	0,011
-383,204	-67,844	-0,162	-0,046
-382,190	651,739	-0,027	0,051
-381,175	71,638	0,070	-0,054
-380,160	-200,000	0,020	-0,136
-379,146	-0,464	-0,058	-0,030
-378,131	78,301	0,134	0,105
-377,117	-200,000	-0,010	0,161
-376,102	32,283	-0,091	-0,058
-375,088	800,000	-0,071	-0,213
-374,073	3,537	-0,081	-0,043
-373,058	800,000	0,026	0,057
-372,044	-94,907	0,064	-0,013
-371,029	-143,077	-0,069	0,005
-370,015	-75,794	-0,125	-0,032
-369,000	-200,000	0,004	0,023
-367,985	-200,000	0,026	0,092
-366,971	-11,893	0,056	0,027
-365,956	200,198	0,020	0,023
-364,942	800,000	-0,035	0,109
-363,927	800,000	0,055	0,125
-362,912	-195,833	0,083	0,000
-361,898	258,570	-0,036	0,046
-360,883	146,740	-0,110	0,108
-359,869	-200,000	-0,022	0,077
-358,854	-200,000	0,025	-0,107
-357,839	-200,000	0,037	0,136
-356,825	800,000	0,028	0,061
-355,810	-200,000	-0,029	-0,103
-354,796	11,996	0,073	-0,041
-353,781	625,443	-0,042	-0,079
-352,766	-125,571	0,136	0,015
-351,752	-78,406	-0,075	0,019
-350,737	386,872	0,059	-0,090
-349,723	-79,814	0,193	0,047
-348,708	89,171	-0,011	0,009
-347,693	-126,431	-0,141	-0,015
-346,679	800,000	-0,030	-0,076
-345,664	800,000	-0,052	0,130
-344,650	251,532	-0,059	0,074
-343,635	-152,459	0,100	0,005
-342,620	-200,000	0,020	0,158
-341,606	267,740	-0,008	-0,010
-340,591	376,640	0,057	0,085
-339,577	81,607	-0,036	-0,029
-338,562	-21,950	-0,028	-0,013
-337,548	-200,000	-0,013	-0,045
-336,533	-164,573	0,082	0,003
-335,518	-200,000	-0,027	0,099
-334,504	49,340	0,099	0,068
-333,489	-200,000	0,008	0,062
-332,475	585,480	0,026	0,047
-331,460	-95,265	0,024	0,005
-330,445	68,541	0,121	-0,091
-329,431	-104,324	0,078	0,013
-328,416	-200,000	-0,015	0,183
-327,402	28,639	0,081	0,050
-326,387	-200,000	-0,047	-0,235
-325,372	-112,409	0,038	0,006
-324,358	-91,266	0,077	-0,016
-323,343	-104,910	0,161	0,027
-322,329	-152,745	-0,068	-0,003
-321,314	-64,850	0,035	-0,010
-320,299	128,246	0,059	-0,055
-319,285	-200,000	0,025	-0,087
-318,270	784,843	-0,011	0,023
-317,256	-165,873	0,074	0,002
-316,241	-35,003	0,039	0,015
-315,226	407,807	0,012	-0,019
-314,212	800,000	-0,021	0,058
-313,197	-57,649	0,048	0,015
-312,183	318,932	-0,097	0,135
-311,168	-132,354	-0,023	0,002
-310,153	-16,522	-0,147	0,068
-309,139	-55,960	0,107	0,035
-308,124	-147,260	0,118	-0,007
-307,110	-34,115	0,054	0,022
-306,095	299,672	-0,042	-0,056
-305,080	744,055	-0,028	-0,055
-304,066	246,148	-0,104	-0,128
-303,051	-200,000	-0,039	-0,161
-302,037	-200,000	-0,056	-0,185
-301,022	-89,331	0,038	-0,008
-300,008	70,838	0,053	-0,040
-298,993	82,918	0,039	0,031
-297,978	-25,869	0,127	-0,055
-296,964	-183,264	-0,008	-0,000
-295,949	7,348	-0,061	0,033
-294,935	463,984	-0,027	0,044
-293,920	699,488	0,047	-0,091
-292,905	105,661	0,099	-0,086
-291,891	127,549	0,049	-0,045
-290,876	494,589	0,078	0,131
-289,862	800,000	-0,028	0,082
-288,847	78,144	-0,140	-0,109
-287,832	99,902	-0,120	-0,102
-286,818	397,513	0,041	-0,064
-285,803	224,432	0,117	0,139
-284,789	800,000	0,041	0,133
-283,774	-200,000	0,008	0,066
-282,759	-200,000	-0,033	-0,176
-281,745	-53,106	-0,093	-0,031
-280,730	293,991	0,015	0,020
-279,716	80,250	-0,056	0,044
-278,701	23,977	-0,032	0,019
-277,686	44,532	0,048	0,032
-276,672	-111,789	0,023	-0,003
-275,657	-200,000	0,014	-0,133
-274,643	95,503	-0,097	-0,081
-273,628	-200,000	-0,011	0,079
-272,613	566,873	-0,038	-0,069
-271,599	-133,679	0,135	-0,012
-270,584	373,302	0,083	0,125
-269,570	-200,000	-0,011	0,130
-268,555	198,605	-0,062	-0,070
-267,540	800,000	0,018	-0,054
-266,526	225,253	0,051	-0,061
-265,511	-200,000	0,001	0,057
-264,497	173,370	-0,033	-0,034
-263,482	800,000	0,037	0,087
-262,467	-23,227	-0,143	0,063
-261,453	-200,000	0,010	-0,079
-260,438	-200,000	-0,014	-0,055
-259,424	-97,679	0,059	0,011
-258,409	-105,326	0,028	0,005
-257,395	186,945	0,022	0,024
-256,380	256,516	-0,016	-0,020
-255,365	96,971	0,028	-0,024
-254,351	395,745	0,026	0,040
-253,336	514,148	-0,021	0,035
-252,322	-166,209	-0,089	-0,003
-251,307	-60,947	-0,139	-0,043
-250,292	800,000	-0,007	-0,017
-249,278	199,761	-0,047	-0,053
-248,263	212,658	0,074	0,085
-247,249	-200,000	-0,001	0,040
-246,234	26,060	-0,123	0,075
-245,219	-90,609	-0,057	-0,012
-244,205	800,000	0,015	-0,045
-243,190	286,503	0,073	-0,096
-242,176	-58,250	-0,031	0,010
-241,161	153,393	0,099	0,099
-240,146	154,368	0,054	0,054
-239,132	-69,518	0,134	0,037
-238,117	800,000	-0,015	-0,034
-237,103	-32,709	-0,049	0,020
-236,088	800,000	-0,045	-0,111
-235,073	294,543	-0,119	0,160
-234,059	-83,891	0,139	0,032
-233,044	389,134	-0,047	-0,071
-232,030	255,150	-0,019	-0,024
-231,015	-33,619	-0,129	-0,052
-230,000	385,650	0,043	-0,065
-228,986	-79,266	0,160	-0,039
-227,971	98,047	0,064	0,054
-226,957	-108,307	0,205	-0,032
-225,942	420,939	0,023	0,037
-224,927	-89,450	0,063	-0,013
-223,913	-14,792	-0,080	0,037
-222,898	-26,794	-0,086	0,037
-221,884	-122,291	0,056	0,007
-220,869	-158,964	-0,043	-0,002
-219,855	259,946	-0,049	-0,062
-218,840	-22,590	-0,097	0,043
-217,825	-200,000	-0,022	-0,100
-216,811	211,204	-0,049	-0,057
-215,796	-200,000	-0,017	0,054
-214,782	-95,463	0,027	0,005
-213,767	-149,520	-0,048	0,003
-212,752	-200,000	-0,003	-0,051
-211,738	163,384	0,059	-0,060
-210,723	69,014	-0,046	-0,034
-209,709	-54,609	0,049	0,016
-208,694	-6,746	-0,039	0,019
-207,679	335,681	0,064	-0,090
-206,665	-200,000	0,032	-0,154
-205,650	-200,000	0,023	0,094
-204,636	124,502	0,044	-0,041
-203,621	57,233	0,071	0,051
-202,606	800,000	0,020	-0,057
-201,592	113,569	-0,110	-0,098
-200,577	-200,000	-0,001	-0,036
-199,563	800,000	-0,016	-0,034
-198,548	93,198	-0,072	0,059
-197,533	263,814	0,070	0,088
-196,519	138,064	0,152	0,146
-195,504	-113,163	-0,137	-0,019
-194,490	-67,345	0,036	0,010
-193,475	239,289	0,068	-0,083
-192,460	375,166	-0,126	0,188
-191,446	342,600	-0,049	0,070
-190,431	-200,000	0,005	0,134
-189,417	-62,230	-0,038	-0,012
-188,402	-21,598	0,157	0,070
-187,387	800,000	-0,071	0,166
-186,373	-159,823	-0,072	-0,003
-185,358	237,490	-0,094	-0,114
-184,344	-14,688	0,078	0,036
-183,329	800,000	0,042	0,096
-182,315	30,354	0,121	0,075
-181,300	-200,000	-0,020	0,108
-180,285	166,461	-0,109	-0,113
-179,271	343,364	0,098	-0,141
-178,256	125,619	-0,010	-0,009
-177,242	-83,963	-0,142	0,033
-176,227	-91,450	0,170	-0,035
-175,212	-75,052	-0,068	-0,018
-174,198	-76,180	0,060	-0,015
-173,183	-200,000	0,016	-0,123
-172,169	800,000	-0,039	-0,086
-171,154	91,733	0,050	-0,041
-170,139	-77,801	-0,004	-0,001
-169,125	114,551	-0,078	0,069
-168,110	-200,000	0,026	0,100
-167,096	-200,000	0,024	-0,120
-166,081	-163,690	-0,038	0,001
-165,066	-200,000	-0,029	0,099
-164,052	-200,000	0,008	0,075
-163,037	800,000	-0,060	0,156
-162,023	291,154	0,049	0,065
-161,008	800,000	0,070	0,172
-159,993	-200,000	0,013	0,049
-158,979	432,295	0,061	0,097
-157,964	-108,183	0,058	0,009
-156,950	-200,000	-0,004	-0,088
-155,935	426,229	-0,020	0,032
-154,920	-165,416	0,114	-0,004
-153,906	119,740	0,064	0,058
-152,891	224,582	0,068	0,081
-151,877	57,625	0,106	0,075
-150,862	340,511	-0,107	0,152
-149,847	-67,780	0,138	0,039
-148,833	267,330	-0,067	0,086
-147,818	-175,691	0,084	0,002
-146,804	-83,577	-0,128	0,029
-145,789	437,654	-0,066	0,106
-144,775	-200,000	0,006	0,049
-143,760	144,407	0,085	-0,083
-142,745	10,287	-0,162	-0,090
-141,731	103,187	-0,054	0,046
-140,716	100,791	0,075	-0,064
-139,702	35,160	0,020	0,013
-138,687	-200,000	-0,007	-0,031
-137,672	87,558	0,125	-0,101
-136,658	-200,000	-0,023	0,091
-135,643	366,150	0,094	-0,139
-134,629	800,000	0,039	-0,082
-133,614	198,516	-0,058	0,065
-132,599	-54,115	-0,136	-0,045
-131,585	-32,415	-0,067	-0,027
-130,570	-135,382	0,069	0,006
-129,556	646,966	-0,047	-0,088
-128,541	215,155	0,075	-0,086
-127,526	-200,000	-0,005	-0,179
-126,512	247,569	0,008	-0,010
-125,497	1,422	0,046	0,024
-124,483	800,000	-0,045	-0,132
-123,468	-119,319	-0,122	0,015
-122,453	-34,876	-0,071	-0,028
-121,439	-200,000	0,013	-0,104
-120,424	-200,000	-0,014	-0,073
-119,410	-87,841	0,039	-0,008
