DTS Sentinel unit serial number:	SN410029Multiplexer serial number:	ORYXHardware model number:	OX2-SRSoftware version number:	ORYX F/W v4,00 Oryx Data Collector v3.7.2.0data status	okinstallation	B6 Nyhavnadifferential loss correction	single-endedforward channel	channel 2reverse channel	N/Adate	2023/12/11time	06:15:08forward acquisition time	300,00reverse acquisition time	0,00gamma	499,1914k internal	0,3126k external	0,3126temperature offset calibration	1,0000default loss term (dB/km)	0,3820temperature slope calibration	1,0000multiplexer offset coefficient	1,0000multiplexer slope coefficient	1,0000fibre end	0,00T internal ref (°C)	19,65T ext. ref 1 (°C)	2,75T ext. ref 2 (°C)	2,79length (m)	temperature (°C)	Stokes	anti-Stokes-744,400	-140,313	0,177	-0,014
-743,385	19,461	-0,272	0,163
-742,371	-98,098	0,113	-0,021
-741,356	-85,291	-0,241	0,056
-740,342	-138,269	0,116	-0,009
-739,327	-93,423	-0,328	0,067
-738,312	111,617	0,098	-0,088
-737,298	-173,999	-0,307	-0,007
-736,283	77,673	0,078	0,061
-735,269	213,137	-0,232	0,273
-734,254	-200,000	0,030	0,156
-733,239	-103,958	-0,411	-0,071
-732,225	13,952	0,245	0,141
-731,210	-89,337	0,083	0,018
-730,196	462,613	-0,068	0,113
-729,181	800,000	-0,009	0,029
-728,167	800,000	-0,003	-0,009
-727,152	119,100	-0,073	0,067
-726,137	-128,975	0,072	0,007
-725,123	-22,870	-0,018	0,008
-724,108	156,498	-0,073	0,075
-723,094	-200,000	-0,024	-0,151
-722,079	145,308	0,065	-0,065
-721,064	374,053	0,044	0,067
-720,050	182,400	0,102	-0,112
-719,035	-200,000	-0,017	-0,068
-718,021	38,028	-0,078	-0,051
-717,006	20,704	-0,113	-0,068
-715,991	60,609	-0,094	-0,069
-714,977	1,947	-0,089	-0,048
-713,962	0,257	-0,082	-0,044
-712,948	-143,592	0,017	-0,001
-711,933	800,000	-0,067	0,149
-710,918	-69,980	-0,063	0,018
-709,904	249,493	0,026	0,033
-708,889	-63,894	-0,066	-0,020
-707,875	-3,963	0,069	-0,036
-706,860	47,636	0,038	-0,026
-705,845	800,000	0,030	-0,090
-704,831	-102,553	-0,083	0,015
-703,816	800,000	-0,038	-0,114
-702,802	49,082	0,104	0,073
-701,787	-36,991	-0,113	-0,045
-700,772	38,534	-0,042	-0,028
-699,758	800,000	-0,018	0,049
-698,743	-59,092	0,083	-0,026
-697,729	-10,626	0,144	0,071
-696,714	42,251	-0,044	-0,029
-695,699	-200,000	-0,006	0,027
-694,685	480,327	-0,051	-0,086
-693,670	37,255	-0,064	0,042
-692,656	-108,359	-0,182	0,029
-691,641	-200,000	0,038	0,136
-690,627	-24,632	-0,032	-0,014
-689,612	800,000	-0,027	-0,086
-688,597	-169,532	-0,065	-0,002
-687,583	800,000	0,020	-0,052
-686,568	133,349	-0,018	0,018
-685,554	800,000	-0,047	-0,100
-684,539	-25,386	-0,072	0,032
-683,524	800,000	-0,039	-0,121
-682,510	26,896	0,120	-0,074
-681,495	-200,000	-0,012	-0,072
-680,481	-28,937	0,093	0,039
-679,466	560,084	-0,021	-0,038
-678,451	-57,885	-0,101	-0,033
-677,437	126,074	0,050	-0,047
-676,422	177,736	0,109	-0,118
-675,408	226,651	0,045	-0,055
-674,393	136,611	0,048	-0,046
-673,378	231,402	-0,059	0,072
-672,364	239,509	-0,089	0,110
-671,349	800,000	-0,045	-0,131
-670,335	-167,111	-0,037	0,001
-669,320	-118,909	0,113	-0,015
-668,305	-200,000	-0,008	0,136
-667,291	-200,000	-0,037	0,137
-666,276	-200,000	0,019	0,106
-665,262	-18,381	-0,036	0,016
-664,247	59,028	0,025	0,018
-663,232	-199,107	0,141	-0,001
-662,218	454,008	-0,063	0,103
-661,203	-200,000	-0,016	0,065
-660,189	800,000	0,070	0,174
-659,174	42,696	-0,086	0,058
-658,159	8,172	-0,088	0,049
-657,145	-200,000	-0,038	-0,137
-656,130	34,232	0,046	-0,030
-655,116	-169,935	-0,029	0,001
-654,101	-200,000	-0,001	0,062
-653,086	-118,976	0,125	-0,016
-652,072	-200,000	-0,009	-0,040
-651,057	-68,888	-0,089	-0,025
-650,043	268,060	-0,065	-0,084
-649,028	-200,000	-0,028	0,098
-648,014	-200,000	-0,012	0,072
-646,999	180,670	0,098	-0,107
-645,984	-200,000	0,004	0,136
-644,970	-52,968	-0,164	-0,056
-643,955	-200,000	-0,001	-0,029
-642,941	209,273	0,014	0,017
-641,926	-200,000	-0,009	-0,054
-640,911	-200,000	-0,002	-0,182
-639,897	800,000	0,016	0,045
-638,882	-200,000	0,002	-0,103
-637,868	-200,000	-0,018	-0,140
-636,853	-93,551	-0,112	0,023
-635,838	-200,000	-0,034	-0,192
-634,824	-200,000	-0,015	-0,096
-633,809	-200,000	0,011	-0,057
-632,795	273,780	0,082	-0,107
-631,780	-62,016	-0,051	-0,016
-630,765	169,937	-0,087	-0,092
-629,751	-200,000	0,023	-0,149
-628,736	1,672	-0,087	-0,047
-627,722	-118,291	-0,120	-0,016
-626,707	542,592	-0,035	-0,062
-625,692	-77,878	0,070	0,018
-624,678	-200,000	0,036	0,141
-623,663	-200,000	-0,016	-0,057
-622,649	-200,000	-0,008	-0,075
-621,634	-154,957	0,221	-0,011
-620,619	-109,602	-0,048	0,007
-619,605	78,925	0,048	0,038
-618,590	800,000	-0,032	-0,076
-617,576	-200,000	-0,015	-0,092
-616,561	70,807	0,041	-0,031
-615,546	-200,000	-0,004	-0,074
-614,532	-161,347	-0,032	-0,001
-613,517	46,472	-0,063	-0,043
-612,503	-200,000	-0,018	0,151
-611,488	161,234	0,079	-0,082
-610,474	-112,620	0,167	0,024
-609,459	1,959	-0,076	-0,040
-608,444	370,377	-0,022	0,032
-607,430	-162,538	-0,078	-0,003
-606,415	765,623	-0,035	0,070
-605,401	-200,000	-0,016	0,093
-604,386	365,987	-0,010	-0,015
-603,371	442,535	-0,037	0,060
-602,357	-104,279	-0,117	-0,020
-601,342	42,788	-0,038	-0,025
-600,328	800,000	-0,050	-0,107
-599,313	-194,255	0,076	0,000
-598,298	-200,000	0,000	-0,036
-597,284	658,823	0,012	0,022
-596,269	800,000	0,049	0,102
-595,255	-200,000	0,007	-0,083
-594,240	-112,205	-0,106	-0,016
-593,225	200,931	-0,097	-0,111
-592,211	26,118	-0,051	-0,031
-591,196	-103,039	-0,019	-0,003
-590,182	-143,010	0,122	0,009
-589,167	-200,000	-0,012	0,079
-588,152	12,127	0,059	0,033
-587,138	251,313	-0,074	-0,093
-586,123	-200,000	-0,007	0,032
-585,109	615,793	-0,031	-0,059
-584,094	800,000	0,009	0,021
-583,079	-200,000	-0,010	-0,037
-582,065	-9,280	0,067	-0,033
-581,050	-31,209	0,066	0,027
-580,036	-125,792	0,028	0,003
-579,021	-200,000	-0,010	-0,061
-578,006	11,543	-0,038	-0,021
-576,992	188,171	0,099	-0,109
-575,977	30,136	-0,105	-0,066
-574,963	-200,000	-0,010	-0,085
-573,948	-200,000	0,007	-0,061
-572,934	569,035	0,036	-0,065
-571,919	-200,000	0,008	-0,036
-570,904	55,624	0,078	-0,055
-569,890	151,483	-0,084	-0,085
-568,875	-7,476	-0,138	-0,069
-567,861	-77,175	0,065	0,017
-566,846	-64,459	-0,081	-0,024
-565,831	159,485	0,054	-0,055
-564,817	800,000	-0,009	0,026
-563,802	-122,809	-0,078	0,009
-562,788	-27,511	-0,074	0,032
-561,773	-200,000	0,012	0,063
-560,758	67,909	0,114	-0,086
-559,744	33,351	-0,083	-0,053
-558,729	-53,845	0,048	-0,016
-557,715	-112,528	-0,105	0,015
-556,700	-200,000	0,009	-0,063
-555,685	-162,514	-0,063	-0,002
-554,671	-165,006	0,143	-0,005
-553,656	-200,000	0,002	0,101
-552,642	-27,378	0,106	0,045
-551,627	102,597	0,065	0,057
-550,612	-200,000	-0,005	-0,023
-549,598	-200,000	-0,009	0,036
-548,583	284,907	-0,074	0,098
-547,569	800,000	0,022	0,050
-546,554	-200,000	0,001	0,047
-545,539	318,040	0,052	0,073
-544,525	-110,598	-0,072	-0,011
-543,510	-83,029	0,118	0,028
-542,496	-6,826	-0,042	0,021
-541,481	800,000	-0,029	0,084
-540,466	-200,000	0,029	0,111
-539,452	-194,444	-0,020	-0,000
-538,437	800,000	0,011	0,035
-537,423	70,498	0,070	-0,053
-536,408	52,280	-0,058	-0,041
-535,393	-149,947	0,127	0,007
-534,379	-62,650	0,044	-0,013
-533,364	-70,087	0,097	0,027
-532,350	661,366	-0,015	-0,029
-531,335	122,472	-0,069	0,064
-530,321	-200,000	0,009	-0,042
-529,306	800,000	0,041	0,123
-528,291	-39,200	0,085	0,033
-527,277	800,000	0,025	-0,062
-526,262	12,971	0,084	0,048
-525,248	15,319	0,051	-0,030
-524,233	-200,000	0,003	0,023
-523,218	-66,265	0,107	-0,031
-522,204	-200,000	-0,001	0,006
-521,189	-127,376	-0,032	0,003
-520,175	-200,000	-0,008	-0,156
-519,160	200,386	-0,036	-0,041
-518,145	800,000	-0,021	0,064
-517,131	-23,607	0,078	0,034
-516,116	589,378	0,036	0,067
-515,102	-75,421	-0,093	0,024
-514,087	800,000	0,020	-0,044
-513,072	-200,000	-0,005	-0,043
-512,058	182,514	0,056	-0,061
-511,043	-200,000	0,008	-0,081
-510,029	231,315	0,037	-0,044
-509,014	-200,000	0,013	0,075
-507,999	-200,000	0,020	0,073
-506,985	105,574	-0,086	-0,075
-505,970	148,857	-0,094	0,094
-504,956	148,592	-0,073	-0,072
-503,941	-48,342	0,132	-0,047
-502,926	359,109	0,071	0,105
-501,912	33,988	0,049	-0,032
-500,897	132,166	-0,052	0,050
-499,883	-137,915	-0,100	0,008
-498,868	-200,000	0,018	0,102
-497,853	-200,000	0,007	0,068
-496,839	-100,048	0,013	-0,002
-495,824	800,000	0,034	-0,082
-494,810	-105,798	-0,128	-0,021
-493,795	-63,358	0,032	0,010
-492,781	387,037	-0,057	0,087
-491,766	42,625	0,094	0,063
-490,751	124,855	-0,021	-0,019
-489,737	-146,984	0,130	0,008
-488,722	197,309	0,026	0,030
-487,708	-200,000	-0,018	0,084
-486,693	800,000	0,038	0,092
-485,678	-5,611	-0,050	0,025
-484,664	88,585	-0,056	-0,046
-483,649	121,704	-0,088	0,081
-482,635	800,000	0,077	0,195
-481,620	-36,474	0,106	-0,042
-480,605	53,201	-0,051	0,036
-479,591	149,580	0,042	-0,042
-478,576	-200,000	-0,002	-0,128
-477,562	-200,000	-0,034	-0,138
-476,547	127,664	-0,095	-0,089
-475,532	800,000	-0,047	0,102
-474,518	280,801	0,052	-0,069
-473,503	800,000	0,028	0,073
-472,489	98,032	0,040	0,034
-471,474	28,155	0,019	-0,012
-470,459	-200,000	-0,003	0,013
-469,445	15,238	0,104	0,060
-468,430	800,000	-0,025	-0,061
-467,416	485,489	0,029	0,048
-466,401	-200,000	-0,013	0,160
-465,386	-108,767	0,182	-0,028
-464,372	15,051	-0,090	0,052
-463,357	92,619	0,080	0,066
-462,343	-41,292	-0,070	-0,026
-461,328	800,000	0,047	-0,123
-460,313	-17,234	0,033	0,015
-459,299	59,652	0,082	-0,059
-458,284	-7,689	0,093	-0,046
-457,270	234,577	-0,042	0,051
-456,255	-96,115	-0,011	0,002
-455,241	-200,000	-0,009	0,031
-454,226	54,816	0,132	-0,093
-453,211	289,298	-0,084	-0,112
-452,197	800,000	-0,041	0,106
-451,182	800,000	0,058	0,128
-450,168	800,000	0,043	0,127
-449,153	-165,544	-0,051	-0,002
-448,138	-99,917	-0,173	-0,031
-447,124	471,031	-0,018	0,030
-446,109	-130,346	-0,047	-0,005
-445,095	800,000	0,064	0,146
-444,080	306,352	0,062	0,085
-443,065	403,980	-0,040	0,063
-442,051	-200,000	0,005	0,046
-441,036	-125,304	-0,117	-0,013
-440,022	-200,000	-0,006	-0,206
-439,007	-166,691	0,011	0,000
-437,992	-104,450	-0,017	0,003
-436,978	-107,932	0,085	0,014
-435,963	-53,040	0,109	-0,037
-434,949	-165,500	0,113	-0,004
-433,934	-200,000	0,009	0,038
-432,919	19,692	0,114	0,067
-431,905	11,245	-0,118	0,066
-430,890	800,000	-0,032	0,070
-429,876	195,476	0,098	-0,110
-428,861	39,166	-0,069	-0,045
-427,846	-159,647	0,148	0,006
-426,832	310,166	-0,079	0,109
-425,817	-186,896	0,129	0,001
-424,803	-200,000	0,003	-0,013
-423,788	168,650	-0,095	-0,100
-422,773	61,450	0,062	-0,045
-421,759	276,528	-0,013	0,017
-420,744	62,873	0,078	-0,057
-419,730	398,017	-0,069	-0,107
-418,715	319,123	-0,053	-0,074
-417,701	800,000	-0,012	0,037
-416,686	-169,090	-0,081	0,002
-415,671	187,999	0,028	-0,031
-414,657	-27,602	-0,129	0,055
-413,642	-96,947	-0,030	-0,006
-412,628	70,094	-0,054	-0,041
-411,613	-147,765	-0,063	-0,004
-410,598	19,885	-0,023	-0,014
-409,584	-200,000	-0,001	-0,044
-408,569	-28,707	0,133	0,056
-407,555	800,000	0,024	0,062
-406,540	15,932	0,114	-0,066
-405,525	-200,000	0,018	-0,085
-404,511	20,075	-0,171	-0,101
-403,496	12,851	-0,049	0,028
-402,482	-51,739	0,036	0,012
-401,467	800,000	-0,055	0,121
-400,452	242,499	0,092	0,113
-399,438	16,761	0,061	0,035
-398,423	50,840	-0,114	-0,079
-397,409	-200,000	0,010	-0,042
-396,394	31,172	-0,045	-0,028
-395,379	281,404	0,062	-0,081
-394,365	700,841	-0,031	-0,061
-393,350	46,571	-0,130	-0,089
-392,336	-200,000	-0,008	0,077
-391,321	-30,696	-0,059	0,025
-390,306	132,859	-0,118	0,112
-389,292	-47,556	-0,126	0,045
-388,277	-59,112	-0,059	0,019
-387,263	353,113	0,048	-0,070
-386,248	171,778	-0,126	-0,133
-385,233	35,641	0,054	0,035
-384,219	-69,248	0,083	-0,023
-383,204	-200,000	-0,036	-0,133
-382,190	255,134	-0,076	-0,096
-381,175	-200,000	0,011	0,132
-380,160	57,722	0,082	0,059
-379,146	-200,000	0,042	0,153
-378,131	-59,965	-0,024	-0,007
-377,117	93,714	-0,026	-0,022
-376,102	-156,524	-0,043	-0,002
-375,088	-86,636	-0,120	-0,027
-374,073	800,000	-0,033	-0,075
-373,058	-200,000	0,039	-0,163
-372,044	254,113	-0,006	-0,008
-371,029	-67,506	0,113	-0,032
-370,015	-200,000	0,012	-0,095
-369,000	-200,000	0,014	-0,122
-367,985	-29,961	-0,059	0,025
-366,971	-200,000	-0,001	0,052
-365,956	800,000	0,020	-0,041
-364,942	-171,934	0,102	-0,002
-363,927	-89,055	0,167	0,036
-362,912	9,337	-0,087	0,048
-361,898	-200,000	-0,026	-0,099
-360,883	56,633	-0,044	-0,031
-359,869	-123,096	-0,088	-0,010
-358,854	-200,000	0,013	-0,050
-357,839	220,424	0,014	-0,016
-356,825	81,457	0,058	-0,046
-355,810	15,907	-0,106	0,061
-354,796	800,000	0,014	-0,033
-353,781	260,862	0,098	-0,125
-352,766	8,071	0,052	0,028
-351,752	-200,000	-0,001	0,064
-350,737	26,672	0,102	0,062
-349,723	508,278	0,043	0,074
-348,708	260,474	-0,032	-0,040
-347,693	-61,872	0,101	0,031
-346,679	-200,000	-0,044	-0,193
-345,664	62,815	0,075	-0,055
-344,650	135,171	0,095	-0,090
-343,635	271,508	0,045	0,058
-342,620	-33,003	0,186	0,075
-341,606	224,896	-0,045	0,053
-340,591	30,452	-0,087	0,054
-339,577	-144,315	-0,075	-0,005
-338,562	22,060	-0,063	0,037
-337,548	81,409	0,069	0,055
-336,533	800,000	-0,009	0,024
-335,518	-45,824	0,167	0,060
-334,504	27,345	0,047	0,029
-333,489	-75,282	0,119	-0,031
-332,475	50,776	-0,089	0,062
-331,460	-200,000	0,010	-0,118
-330,445	38,820	0,126	0,082
-329,431	251,309	0,016	-0,020
-328,416	-200,000	-0,017	0,098
-327,402	180,596	-0,037	0,040
-326,387	51,637	0,045	0,032
-325,372	75,812	-0,063	-0,049
-324,358	800,000	-0,044	-0,112
-323,343	800,000	0,032	0,089
-322,329	-3,913	0,098	0,050
-321,314	800,000	0,006	0,015
-320,299	-27,558	-0,060	-0,025
-319,285	-94,742	0,056	0,011
-318,270	-33,071	-0,174	-0,070
-317,256	-200,000	0,012	0,069
-316,241	-200,000	0,009	-0,034
-315,226	-200,000	0,001	-0,019
-314,212	9,148	-0,092	0,051
-313,197	800,000	-0,035	0,112
-312,183	-105,857	0,108	0,018
-311,168	-74,249	-0,136	0,036
-310,153	48,935	-0,045	-0,031
-309,139	313,469	-0,100	0,138
-308,124	138,287	0,102	0,098
-307,110	-69,795	-0,026	0,007
-306,095	-43,009	0,106	-0,039
-305,080	44,531	0,051	0,034
-304,066	-28,461	0,074	-0,031
-303,051	-200,000	-0,018	0,063
-302,037	800,000	-0,012	-0,025
-301,022	-200,000	-0,002	0,106
-300,008	179,849	-0,019	0,021
-298,993	-108,898	-0,185	0,029
-297,978	800,000	-0,025	-0,066
-296,964	-158,634	-0,013	0,001
-295,949	381,122	-0,046	-0,069
-294,935	630,169	-0,048	-0,089
-293,920	-26,796	-0,074	0,032
-292,905	-7,634	0,049	-0,024
-291,891	114,953	-0,057	-0,051
-290,876	-28,353	0,081	0,034
-289,862	-131,151	-0,108	0,010
-288,847	151,535	0,050	-0,050
-287,832	676,566	0,055	0,106
-286,818	118,123	-0,103	-0,093
-285,803	800,000	0,038	0,093
-284,789	24,850	-0,108	0,066
-283,774	-200,000	-0,007	0,099
-282,759	0,211	-0,112	0,058
-281,745	800,000	0,010	0,023
-280,730	183,483	0,035	-0,038
-279,716	109,965	0,048	-0,043
-278,701	800,000	-0,037	0,080
-277,686	72,492	-0,083	0,063
-276,672	-200,000	-0,025	0,127
-275,657	800,000	-0,016	0,041
-274,643	240,722	-0,024	0,029
-273,628	800,000	0,011	-0,028
-272,613	238,563	0,065	-0,079
-271,599	-61,177	-0,094	-0,029
-270,584	-200,000	-0,011	0,104
-269,570	-102,406	0,070	0,012
-268,555	-200,000	0,042	-0,150
-267,540	-200,000	-0,034	-0,115
-266,526	453,669	-0,022	-0,036
-265,511	-64,305	-0,045	0,013
-264,497	800,000	-0,009	0,025
-263,482	-200,000	0,002	0,095
-262,467	246,534	0,039	0,048
-261,453	7,515	0,090	-0,049
-260,438	800,000	-0,055	-0,163
-259,424	800,000	0,042	-0,119
-258,409	87,382	-0,070	0,056
-257,395	-109,138	0,107	0,016
-256,380	-30,350	0,128	0,053
-255,365	-144,504	-0,076	0,005
-254,351	-200,000	0,018	0,057
-253,336	78,266	-0,084	0,066
-252,322	-200,000	0,006	0,119
-251,307	-146,270	-0,060	0,004
-250,292	-200,000	-0,013	0,048
-249,278	-200,000	-0,007	0,079
-248,263	699,771	0,111	0,214
-247,249	396,045	0,028	0,043
-246,234	-34,307	-0,204	0,081
-245,219	35,347	-0,014	0,009
-244,205	-93,203	0,074	-0,015
-243,190	7,454	-0,167	0,091
-242,176	645,682	0,016	0,029
-241,161	40,740	0,170	0,112
-240,146	800,000	-0,011	-0,025
-239,132	85,226	0,039	0,031
-238,117	-54,832	0,104	-0,034
-237,103	91,945	0,047	0,038
-236,088	-200,000	-0,026	-0,116
-235,073	778,631	0,036	-0,073
-234,059	800,000	-0,035	-0,101
-233,044	-5,285	0,018	-0,009
-232,030	-113,543	-0,057	0,008
-231,015	111,993	-0,049	0,043
-230,000	260,950	-0,036	-0,045
-228,986	-53,807	0,112	0,037
-227,971	391,485	-0,092	0,140
-226,957	-49,472	0,105	0,036
-225,942	608,566	0,048	0,087
-224,927	430,989	0,061	0,097
-223,913	26,846	-0,053	-0,033
-222,898	191,749	-0,106	-0,117
-221,884	-100,275	0,041	-0,007
-220,869	800,000	0,020	-0,059
-219,855	-104,387	0,103	0,017
-218,840	569,224	-0,048	0,085
-217,825	317,977	0,061	-0,085
-216,811	800,000	0,079	-0,197
-215,796	-200,000	-0,027	0,135
-214,782	-25,448	-0,134	0,057
-213,767	-200,000	0,011	0,073
-212,752	-200,000	0,024	0,206
-211,738	-101,244	-0,102	0,018
-210,723	800,000	0,056	-0,116
-209,709	319,592	-0,089	0,123
-208,694	60,829	-0,056	0,041
-207,679	-118,227	-0,097	0,012
-206,665	483,798	-0,023	-0,039
-205,650	3,110	-0,047	-0,025
-204,636	-200,000	-0,034	0,125
-203,621	22,799	0,113	0,067
-202,606	85,074	0,027	-0,022
-201,592	329,439	-0,136	-0,191
-200,577	-34,430	0,065	-0,026
-199,563	140,204	-0,067	0,065
-198,548	61,616	-0,118	0,085
-197,533	-102,338	0,172	-0,030
-196,519	-64,064	0,101	-0,030
-195,504	-123,043	-0,048	0,006
-194,490	-200,000	0,003	-0,085
-193,475	-81,446	0,110	-0,026
-192,460	-93,022	0,018	-0,004
-191,446	-87,538	-0,051	-0,011
-190,431	547,559	0,054	0,094
-189,417	71,412	-0,091	0,069
-188,402	-46,539	0,083	-0,029
-187,387	378,744	-0,034	-0,051
-186,373	107,045	0,011	0,009
-185,358	-200,000	-0,006	0,065
-184,344	-200,000	-0,018	-0,073
-183,329	800,000	-0,023	-0,062
-182,315	-92,612	-0,058	0,012
-181,300	-200,000	0,040	-0,145
-180,285	800,000	-0,025	-0,071
-179,271	-197,373	-0,100	0,000
-178,256	-173,430	0,075	-0,002
-177,242	800,000	0,031	0,065
-176,227	-200,000	-0,007	-0,028
-175,212	272,044	-0,053	0,068
-174,198	-200,000	-0,010	-0,084
-173,183	-200,000	-0,019	-0,077
-172,169	19,962	-0,035	-0,020
-171,154	-200,000	0,001	-0,064
-170,139	-200,000	-0,016	0,058
-169,125	-131,337	0,054	-0,005
-168,110	800,000	0,057	0,130
-167,096	800,000	0,044	-0,111
-166,081	413,588	0,093	-0,144
-165,066	-200,000	-0,010	0,057
-164,052	800,000	0,045	-0,134
-163,037	-200,000	-0,014	0,087
-162,023	-80,815	0,149	0,036
-161,008	-200,000	0,009	0,077
-159,993	-37,530	-0,143	0,055
-158,979	-200,000	-0,012	-0,047
-157,964	218,033	-0,097	0,113
-156,950	-37,017	0,081	-0,032
-155,935	800,000	0,020	-0,058
-154,920	12,010	-0,063	-0,035
-153,906	-200,000	0,005	0,035
-152,891	669,975	-0,007	-0,013
-151,877	228,794	-0,086	-0,102
-150,862	-19,082	0,053	-0,024
-149,847	64,558	0,046	0,034
-148,833	188,803	-0,082	-0,089
-147,818	755,922	0,069	0,137
-146,804	39,038	0,076	0,050
-145,789	180,945	-0,060	0,065
-144,775	310,860	-0,045	-0,062
-143,760	146,395	0,082	0,080
-142,745	171,690	-0,029	-0,030
-141,731	-39,900	-0,033	-0,013
-140,716	45,403	0,139	-0,093
-139,702	-132,151	-0,205	0,019
-138,687	-89,879	-0,058	0,012
-137,672	800,000	0,035	-0,078
-136,658	318,209	0,065	0,090
-135,643	84,979	-0,077	-0,062
-134,629	179,262	0,046	0,049
-133,614	-42,235	-0,067	0,025
-132,599	10,955	0,076	0,042
-131,585	-83,752	0,196	0,045
-130,570	-200,000	0,019	-0,094
-129,556	50,260	-0,032	0,022
-128,541	-24,691	-0,021	0,009
-127,526	-200,000	-0,005	-0,040
-126,512	-200,000	-0,046	0,000
-125,497	191,696	0,103	0,113
-124,483	-200,000	0,002	0,092
-123,468	47,082	-0,040	-0,027
-122,453	123,488	-0,083	-0,076
-121,439	192,459	-0,078	-0,086
-120,424	-92,003	-0,113	0,023
-119,410	699,797	-0,025	-0,049
