DTS Sentinel unit serial number:	SN410029Multiplexer serial number:	ORYXHardware model number:	OX2-SRSoftware version number:	ORYX F/W v4,00 Oryx Data Collector v3.7.2.0data status	okinstallation	B6 Nyhavnadifferential loss correction	single-endedforward channel	channel 2reverse channel	N/Adate	2023/12/08time	04:35:08forward acquisition time	300,00reverse acquisition time	0,00gamma	499,1914k internal	0,3165k external	0,3165temperature offset calibration	1,0000default loss term (dB/km)	0,3820temperature slope calibration	1,0000multiplexer offset coefficient	1,0000multiplexer slope coefficient	1,0000fibre end	0,00T internal ref (°C)	13,03T ext. ref 1 (°C)	-3,77T ext. ref 2 (°C)	-3,75length (m)	temperature (°C)	Stokes	anti-Stokes-744,400	-140,102	0,132	0,010
-743,385	-111,096	-0,168	-0,025
-742,371	-66,144	0,087	0,025
-741,356	42,804	-0,187	-0,125
-740,342	68,846	0,134	0,101
-739,327	-31,301	-0,263	-0,109
-738,312	-200,000	0,042	0,151
-737,298	-51,344	-0,311	-0,106
-736,283	320,682	0,095	-0,132
-735,269	-72,648	-0,298	0,080
-734,254	-200,000	0,002	0,181
-733,239	39,940	-0,465	-0,307
-732,225	-56,368	0,208	0,067
-731,210	-200,000	0,006	0,105
-730,196	-164,005	-0,142	0,005
-729,181	-96,756	0,095	-0,018
-728,167	10,462	-0,032	-0,018
-727,152	106,479	0,023	0,020
-726,137	61,920	0,076	0,056
-725,123	-133,294	-0,091	0,008
-724,108	800,000	-0,060	-0,140
-723,094	44,663	-0,094	-0,063
-722,079	-109,147	-0,153	0,024
-721,064	97,767	-0,034	-0,029
-720,050	94,456	-0,093	-0,078
-719,035	-200,000	-0,020	-0,106
-718,021	-106,332	-0,159	-0,026
-717,006	800,000	0,053	-0,152
-715,991	-102,287	-0,098	0,017
-714,977	222,806	0,071	0,084
-713,962	-62,245	0,054	0,016
-712,948	91,868	0,058	0,048
-711,933	-200,000	0,016	0,143
-710,918	-200,000	0,043	-0,238
-709,904	-200,000	-0,007	-0,028
-708,889	-200,000	-0,010	-0,169
-707,875	-200,000	-0,040	-0,135
-706,860	800,000	-0,021	-0,047
-705,845	604,514	-0,035	0,065
-704,831	-200,000	0,040	-0,139
-703,816	-180,864	-0,067	-0,001
-702,802	327,234	0,023	0,032
-701,787	45,531	-0,071	-0,048
-700,772	800,000	-0,029	-0,065
-699,758	800,000	0,020	0,058
-698,743	-200,000	0,001	0,078
-697,729	800,000	0,043	0,096
-696,714	-200,000	-0,021	-0,135
-695,699	364,778	-0,025	-0,038
-694,685	-200,000	-0,022	-0,087
-693,670	4,316	0,068	-0,037
-692,656	66,943	-0,113	-0,084
-691,641	-65,362	-0,089	0,026
-690,627	51,534	0,064	0,044
-689,612	800,000	0,019	0,056
-688,597	-121,725	0,079	-0,009
-687,583	386,079	-0,048	-0,073
-686,568	800,000	-0,035	-0,089
-685,554	-134,118	0,037	0,003
-684,539	254,167	0,067	0,085
-683,524	83,121	0,064	-0,051
-682,510	-200,000	-0,023	0,077
-681,495	-79,102	0,092	-0,023
-680,481	800,000	-0,017	-0,051
-679,466	110,529	-0,038	-0,034
-678,451	800,000	-0,020	-0,051
-677,437	-127,141	0,128	-0,014
-676,422	-64,614	-0,091	0,027
-675,408	800,000	-0,055	0,157
-674,393	-73,596	0,109	-0,029
-673,378	-200,000	0,023	-0,115
-672,364	-71,371	-0,088	0,024
-671,349	-129,845	-0,101	-0,010
-670,335	54,302	-0,093	0,066
-669,320	-145,387	0,036	0,002
-668,305	-75,672	-0,034	0,009
-667,291	-100,525	0,009	0,002
-666,276	-200,000	0,007	0,090
-665,262	-144,852	-0,201	0,013
-664,247	-93,852	-0,051	0,010
-663,232	476,839	0,030	0,050
-662,218	-200,000	0,023	-0,094
-661,203	59,178	-0,107	0,077
-660,189	-200,000	0,007	-0,078
-659,174	-64,783	0,062	-0,018
-658,159	-200,000	-0,033	-0,156
-657,145	-200,000	-0,029	-0,139
-656,130	-200,000	-0,027	-0,201
-655,116	-200,000	0,005	-0,047
-654,101	800,000	0,017	0,035
-653,086	-200,000	-0,011	-0,115
-652,072	258,360	-0,090	-0,113
-651,057	81,874	-0,043	0,034
-650,043	176,002	-0,060	-0,064
-649,028	-200,000	-0,001	-0,051
-648,014	-159,274	-0,098	-0,004
-646,999	114,788	-0,041	0,037
-645,984	403,068	0,015	0,023
-644,970	119,496	-0,088	-0,080
-643,955	-200,000	0,002	-0,039
-642,941	-200,000	0,000	0,053
-641,926	115,123	-0,038	-0,034
-640,911	56,453	0,061	0,043
-639,897	3,873	0,063	0,034
-638,882	-200,000	-0,005	-0,126
-637,868	800,000	-0,035	0,104
-636,853	52,858	0,020	0,014
-635,838	387,624	0,016	0,025
-634,824	51,488	-0,073	0,051
-633,809	14,707	0,111	0,063
-632,795	48,539	0,044	-0,030
-631,780	800,000	0,021	-0,044
-630,765	-200,000	-0,001	0,021
-629,751	-200,000	0,013	0,056
-628,736	800,000	-0,010	-0,032
-627,722	800,000	-0,045	-0,094
-626,707	-94,869	-0,127	0,025
-625,692	772,590	0,114	0,228
-624,678	-200,000	0,016	0,070
-623,663	25,163	0,025	-0,015
-622,649	-200,000	0,047	-0,163
-621,634	800,000	0,035	0,088
-620,619	-114,614	-0,145	0,020
-619,605	626,087	0,030	0,055
-618,590	69,480	-0,097	0,073
-617,576	-11,977	0,112	0,054
-616,561	152,999	0,049	0,049
-615,546	-169,262	-0,157	0,004
-614,532	800,000	-0,053	-0,117
-613,517	-200,000	0,057	0,000
-612,503	-200,000	-0,016	-0,055
-611,488	-104,592	0,042	0,007
-610,474	-89,444	0,144	0,031
-609,459	-25,170	-0,130	0,056
-608,444	302,877	-0,051	-0,069
-607,430	-55,413	0,062	-0,020
-606,415	800,000	-0,035	-0,082
-605,401	99,885	-0,029	-0,024
-604,386	8,347	0,044	0,024
-603,371	-39,689	0,147	-0,056
-602,357	-200,000	0,001	0,003
-601,342	800,000	-0,079	0,164
-600,328	-200,000	-0,006	-0,159
-599,313	-109,990	0,087	-0,013
-598,298	-180,387	-0,109	0,002
-597,284	75,875	-0,043	-0,033
-596,269	313,137	0,064	0,088
-595,255	-131,939	0,021	-0,002
-594,240	-27,997	-0,082	0,034
-593,225	44,733	-0,111	-0,075
-592,211	-57,694	-0,028	-0,009
-591,196	-3,967	0,103	0,052
-590,182	589,126	0,034	0,061
-589,167	603,036	0,004	0,008
-588,152	-8,082	0,060	-0,030
-587,138	800,000	0,023	-0,065
-586,123	161,444	-0,089	-0,091
-585,109	175,475	0,048	-0,050
-584,094	13,480	0,041	-0,023
-583,079	-46,731	-0,015	-0,005
-582,065	800,000	-0,026	0,060
-581,050	-182,402	0,119	-0,002
-580,036	400,442	-0,077	0,119
-579,021	277,632	-0,026	-0,034
-578,006	800,000	-0,047	-0,122
-576,992	-139,274	-0,090	-0,007
-575,977	-8,202	0,185	-0,091
-574,963	-200,000	0,004	-0,112
-573,948	-11,365	-0,049	-0,023
-572,934	-200,000	0,020	-0,080
-571,919	697,034	0,035	0,068
-570,904	54,633	0,023	-0,016
-569,890	-200,000	0,016	-0,054
-568,875	-42,192	0,100	-0,037
-567,861	604,541	-0,040	0,072
-566,846	-41,463	0,084	0,031
-565,831	-200,000	0,006	0,146
-564,817	5,838	-0,032	-0,017
-563,802	37,036	-0,078	-0,050
-562,788	360,377	-0,024	-0,035
-561,773	728,892	-0,039	-0,076
-560,758	-123,063	0,103	-0,012
-559,744	800,000	0,041	0,124
-558,729	445,977	0,040	0,065
-557,715	-9,320	-0,070	0,034
-556,700	-88,992	-0,138	0,030
-555,685	-200,000	0,021	-0,084
-554,671	219,262	0,116	-0,135
-553,656	-16,612	-0,107	0,049
-552,642	-200,000	-0,018	0,152
-551,627	-200,000	0,033	0,187
-550,612	-200,000	-0,005	-0,077
-549,598	-200,000	0,016	0,071
-548,583	800,000	-0,051	-0,161
-547,569	616,839	0,036	-0,066
-546,554	-120,434	0,016	0,002
-545,539	-21,141	0,057	0,025
-544,525	-200,000	0,028	-0,121
-543,510	-113,456	-0,071	-0,010
-542,496	84,563	-0,120	0,096
-541,481	63,181	0,115	-0,084
-540,466	38,119	-0,094	0,061
-539,452	208,139	0,038	0,043
-538,437	-200,000	-0,044	0,187
-537,423	800,000	0,058	0,135
-536,408	-82,897	0,031	-0,007
-535,393	99,240	0,049	0,041
-534,379	-200,000	0,024	-0,081
-533,364	-107,208	0,104	-0,017
-532,350	800,000	0,025	0,078
-531,335	418,775	0,086	0,134
-530,321	800,000	0,031	-0,074
-529,306	-65,574	0,046	-0,013
-528,291	322,155	0,021	0,029
-527,277	-22,169	-0,047	-0,021
-526,262	326,629	-0,026	0,036
-525,248	800,000	-0,023	-0,047
-524,233	-126,956	0,121	0,013
-523,218	-200,000	0,006	0,119
-522,204	-41,641	0,178	-0,066
-521,189	140,953	-0,057	-0,055
-520,175	-200,000	-0,009	-0,079
-519,160	196,161	-0,082	0,091
-518,145	-82,741	-0,117	0,027
-517,131	-93,415	-0,084	0,017
-516,116	495,688	0,074	-0,125
-515,102	-200,000	-0,017	-0,091
-514,087	-75,609	-0,096	0,025
-513,072	-200,000	-0,031	-0,175
-512,058	651,615	-0,033	-0,062
-511,043	38,822	-0,086	-0,056
-510,029	475,219	0,014	-0,023
-509,014	179,838	-0,018	-0,019
-507,999	-135,465	0,088	0,008
-506,985	-93,742	-0,065	-0,013
-505,970	243,069	-0,107	-0,131
-504,956	-200,000	0,024	-0,122
-503,941	265,951	0,026	-0,033
-502,926	62,463	-0,070	-0,051
-501,912	140,334	-0,068	0,065
-500,897	-148,856	-0,035	0,002
-499,883	-200,000	0,028	0,145
-498,868	800,000	0,026	0,058
-497,853	82,427	-0,074	-0,058
-496,839	-200,000	0,008	0,131
-495,824	49,666	0,082	0,056
-494,810	18,872	-0,086	-0,050
-493,795	17,663	-0,041	0,023
-492,781	253,584	-0,015	-0,018
-491,766	-114,392	-0,060	-0,008
-490,751	3,574	0,075	-0,040
-489,737	800,000	0,054	-0,171
-488,722	-200,000	0,028	-0,090
-487,708	471,414	-0,072	-0,119
-486,693	-78,890	0,052	0,013
-485,678	800,000	0,072	-0,167
-484,664	421,218	0,029	-0,045
-483,649	800,000	0,015	-0,030
-482,635	199,670	-0,035	0,039
-481,620	-200,000	-0,004	0,052
-480,605	-171,023	0,049	-0,001
-479,591	228,559	0,048	-0,057
-478,576	800,000	-0,086	-0,180
-477,562	-42,467	0,031	0,011
-476,547	95,455	-0,038	-0,031
-475,532	-200,000	0,028	0,118
-474,518	-200,000	-0,007	0,075
-473,503	-137,565	0,106	-0,009
-472,489	-200,000	0,001	0,207
-471,474	800,000	-0,017	0,050
-470,459	27,467	-0,126	0,077
-469,445	301,094	0,065	-0,087
-468,430	800,000	0,012	0,033
-467,416	288,690	0,022	-0,029
-466,401	-85,301	0,214	0,048
-465,386	-16,012	-0,072	-0,033
-464,372	-168,684	0,052	-0,001
-463,357	62,198	-0,018	0,013
-462,343	-200,000	0,006	-0,180
-461,328	-15,551	-0,054	-0,025
-460,313	-200,000	-0,011	-0,103
-459,299	-106,126	-0,067	0,011
-458,284	-33,601	0,083	-0,033
-457,270	-200,000	0,012	-0,097
-456,255	-75,561	-0,040	0,010
-455,241	-200,000	-0,011	-0,096
-454,226	-200,000	-0,021	-0,079
-453,211	-200,000	-0,030	0,150
-452,197	-200,000	-0,026	0,139
-451,182	800,000	0,058	0,155
-450,168	-200,000	-0,008	-0,079
-449,153	800,000	0,047	0,099
-448,138	-200,000	0,020	-0,199
-447,124	800,000	0,040	-0,118
-446,109	-56,749	-0,024	0,008
-445,095	397,636	-0,022	-0,033
-444,080	-200,000	0,001	-0,011
-443,065	111,564	0,030	-0,026
-442,051	-19,999	0,050	0,022
-441,036	123,337	-0,100	-0,091
-440,022	-200,000	0,003	-0,018
-439,007	-124,609	0,079	-0,009
-437,992	-24,556	0,019	-0,008
-436,978	800,000	-0,011	0,024
-435,963	-200,000	-0,004	0,083
-434,949	-200,000	0,002	0,054
-433,934	-143,779	0,067	-0,005
-432,919	-118,845	-0,100	0,013
-431,905	-200,000	-0,021	-0,117
-430,890	-146,103	0,047	0,003
-429,876	144,596	-0,018	-0,017
-428,861	-200,000	0,017	0,153
-427,846	-200,000	0,011	-0,036
-426,832	51,875	-0,048	-0,033
-425,817	800,000	0,036	-0,087
-424,803	257,779	-0,085	-0,106
-423,788	182,836	-0,056	-0,060
-422,773	16,337	0,035	-0,020
-421,759	-200,000	0,003	0,009
-420,744	6,584	-0,064	-0,035
-419,730	-105,479	0,026	-0,004
-418,715	309,774	0,012	0,017
-417,701	-200,000	-0,000	0,006
-416,686	35,510	0,104	0,066
-415,671	76,432	-0,043	0,033
-414,657	-26,764	-0,054	-0,023
-413,642	9,643	-0,068	-0,037
-412,628	299,387	-0,056	-0,074
-411,613	-39,493	-0,031	0,012
-410,598	473,956	-0,039	-0,064
-409,584	800,000	-0,014	-0,030
-408,569	800,000	-0,062	0,168
-407,555	603,872	0,051	0,093
-406,540	-9,240	-0,043	-0,021
-405,525	-116,678	0,090	-0,012
-404,511	151,267	0,078	0,077
-403,496	741,791	-0,023	-0,045
-402,482	619,702	0,077	-0,141
-401,467	31,789	-0,050	-0,031
-400,452	29,052	0,164	0,100
-399,438	745,893	-0,028	0,056
-398,423	-131,827	-0,085	0,008
-397,409	36,284	-0,052	0,033
-396,394	285,277	-0,044	-0,058
-395,379	-200,000	0,033	0,145
-394,365	800,000	-0,008	0,025
-393,350	-85,060	0,086	0,019
-392,336	59,467	-0,063	0,045
-391,321	-67,282	0,021	-0,006
-390,306	192,161	-0,126	-0,138
-389,292	-200,000	0,022	-0,120
-388,277	330,617	0,087	-0,123
-387,263	-200,000	-0,011	-0,102
-386,248	-58,690	0,033	0,010
-385,233	-200,000	0,006	0,134
-384,219	1,136	0,115	0,060
-383,204	-145,539	-0,071	0,005
-382,190	-8,627	-0,103	0,050
-381,175	-111,410	0,107	0,016
-380,160	58,074	-0,076	0,054
-379,146	-95,473	0,095	0,018
-378,131	202,384	0,022	-0,025
-377,117	-200,000	-0,014	0,058
-376,102	-200,000	-0,082	0,000
-375,088	480,169	0,007	0,011
-374,073	477,849	-0,024	-0,039
-373,058	-16,238	0,133	0,061
-372,044	-200,000	-0,029	0,146
-371,029	194,082	-0,047	0,051
-370,015	-136,743	0,057	0,005
-369,000	800,000	-0,037	0,076
-367,985	-24,841	-0,102	-0,044
-366,971	-59,088	-0,073	0,023
-365,956	-97,743	0,136	-0,025
-364,942	662,309	-0,050	0,093
-363,927	800,000	-0,008	0,022
-362,912	186,400	0,115	-0,124
-361,898	-200,000	-0,001	-0,125
-360,883	-200,000	-0,005	-0,038
-359,869	800,000	0,019	0,046
-358,854	184,179	-0,060	0,064
-357,839	-132,563	0,124	0,011
-356,825	-41,133	0,088	0,033
-355,810	-200,000	-0,008	-0,151
-354,796	521,660	-0,055	-0,095
-353,781	294,918	-0,013	0,018
-352,766	426,469	0,066	-0,104
-351,752	11,748	0,098	-0,054
-350,737	800,000	0,018	-0,054
-349,723	-200,000	0,000	0,068
-348,708	-200,000	0,033	-0,113
-347,693	133,752	-0,105	-0,099
-346,679	800,000	0,017	-0,040
-345,664	289,786	-0,004	-0,005
-344,650	-62,597	0,114	0,034
-343,635	64,783	-0,055	0,040
-342,620	-200,000	0,042	-0,172
-341,606	44,728	0,078	-0,052
-340,591	-200,000	0,009	-0,286
-339,577	139,351	-0,108	-0,103
-338,562	-128,950	0,119	0,012
-337,548	283,959	0,012	-0,015
-336,533	307,093	-0,124	-0,167
-335,518	-9,592	0,081	0,039
-334,504	-46,715	-0,079	-0,028
-333,489	552,680	-0,044	-0,077
-332,475	-200,000	-0,015	-0,050
-331,460	-74,853	-0,020	-0,005
-330,445	38,360	-0,031	0,020
-329,431	420,292	0,054	0,084
-328,416	-200,000	-0,029	0,100
-327,402	-93,901	-0,015	0,003
-326,387	247,742	-0,076	-0,093
-325,372	44,312	-0,163	-0,108
-324,358	8,834	-0,137	0,075
-323,343	-55,219	0,069	-0,022
-322,329	32,572	-0,090	0,056
-321,314	266,418	0,071	0,090
-320,299	-200,000	-0,042	0,237
-319,285	-6,796	-0,063	0,031
-318,270	-82,757	-0,162	-0,038
-317,256	158,424	0,066	-0,066
-316,241	698,759	0,045	0,087
-315,226	462,711	0,075	-0,122
-314,212	-3,142	0,033	0,017
-313,197	-200,000	0,014	0,290
-312,183	106,180	0,047	-0,040
-311,168	-88,518	-0,119	0,025
-310,153	146,953	-0,036	0,035
-309,139	87,838	-0,111	-0,089
-308,124	-4,975	0,149	-0,074
-307,110	364,738	0,045	0,065
-306,095	363,713	-0,030	0,044
-305,080	-133,812	0,087	-0,008
-304,066	-200,000	0,004	-0,028
-303,051	-144,094	-0,064	-0,004
-302,037	483,927	0,046	0,076
-301,022	-109,233	-0,039	0,006
-300,008	244,115	-0,047	0,057
-298,993	-120,869	-0,142	-0,017
-297,978	145,262	0,004	0,004
-296,964	-200,000	0,026	0,086
-295,949	-200,000	0,005	0,049
-294,935	-13,385	-0,097	-0,045
-293,920	-12,539	0,121	0,057
-292,905	-200,000	-0,018	0,180
-291,891	-136,152	-0,115	0,010
-290,876	-38,990	0,076	0,029
-289,862	5,765	-0,033	0,018
-288,847	-67,726	0,060	-0,017
-287,832	-143,918	-0,177	-0,012
-286,818	800,000	-0,043	-0,134
-285,803	800,000	0,063	0,146
-284,789	800,000	0,017	0,050
-283,774	34,786	0,049	-0,031
-282,759	-102,626	-0,038	0,006
-281,745	50,120	0,109	0,075
-280,730	-3,171	-0,099	-0,050
-279,716	-200,000	-0,013	0,043
-278,701	-200,000	-0,007	0,135
-277,686	53,516	0,103	0,072
-276,672	310,678	0,020	0,027
-275,657	405,976	0,059	-0,090
-274,643	-200,000	-0,004	-0,048
-273,628	201,729	0,040	-0,045
-272,613	-200,000	-0,007	-0,148
-271,599	-80,555	0,065	-0,015
-270,584	463,391	0,084	0,137
-269,570	-22,248	-0,098	-0,043
-268,555	173,760	-0,093	-0,097
-267,540	595,837	0,026	0,046
-266,526	800,000	0,007	-0,016
-265,511	327,273	0,015	-0,020
-264,497	-200,000	-0,004	0,050
-263,482	13,599	0,082	-0,046
-262,467	-200,000	0,005	0,035
-261,453	-106,116	-0,030	0,005
-260,438	149,445	-0,068	0,067
-259,424	-170,599	-0,176	0,004
-258,409	382,639	-0,023	0,035
-257,395	-73,954	-0,079	-0,021
-256,380	144,204	0,021	-0,020
-255,365	-31,440	-0,060	0,024
-254,351	357,945	0,021	0,030
-253,336	-31,940	0,134	-0,054
-252,322	-200,000	0,001	0,013
-251,307	-200,000	-0,014	-0,065
-250,292	-200,000	-0,026	-0,148
-249,278	230,251	0,060	0,071
-248,263	294,609	0,047	0,062
-247,249	-78,525	-0,174	0,043
-246,234	122,833	-0,022	0,020
-245,219	-200,000	0,009	-0,035
-244,205	361,001	0,076	-0,110
-243,190	-5,947	0,027	-0,013
-242,176	33,063	0,055	0,034
-241,161	85,461	0,127	0,100
-240,146	800,000	-0,053	-0,131
-239,132	800,000	0,017	0,036
-238,117	418,870	0,020	-0,031
-237,103	62,500	-0,056	-0,040
-236,088	-79,527	0,025	-0,006
-235,073	588,176	-0,025	-0,044
-234,059	800,000	0,024	0,071
-233,044	-200,000	0,009	0,048
-232,030	-200,000	0,020	0,157
-231,015	70,533	0,073	0,054
-230,000	430,063	0,048	0,075
-228,986	-25,251	0,094	-0,040
-227,971	65,057	-0,084	0,061
-226,957	-200,000	0,009	-0,189
-225,942	33,793	0,097	0,061
-224,927	81,407	0,086	0,067
-223,913	84,140	-0,078	0,061
-222,898	-200,000	-0,015	0,094
-221,884	248,195	-0,080	-0,098
-220,869	800,000	0,037	0,087
-219,855	73,973	0,009	0,007
-218,840	-200,000	0,037	0,128
-217,825	800,000	-0,062	0,144
-216,811	-161,573	-0,012	0,000
-215,796	-200,000	0,051	0,180
-214,782	800,000	0,047	-0,123
-213,767	184,564	0,045	0,048
-212,752	101,087	0,086	0,072
-211,738	-16,781	0,146	0,066
-210,723	-148,062	0,031	0,002
-209,709	-106,880	-0,106	-0,017
-208,694	70,738	0,110	0,082
-207,679	800,000	0,045	-0,104
-206,665	-28,347	-0,037	-0,015
-205,650	287,845	0,033	-0,044
-204,636	-200,000	0,000	-0,017
-203,621	-44,480	0,051	0,018
-202,606	800,000	-0,017	0,048
-201,592	800,000	-0,037	0,082
-200,577	-155,194	-0,082	0,004
-199,563	-135,165	0,103	0,009
-198,548	800,000	0,042	0,128
-197,533	-90,980	0,007	0,001
-196,519	-181,496	-0,063	0,001
-195,504	-39,418	-0,179	-0,067
-194,490	-200,000	-0,014	0,109
-193,475	-200,000	0,000	0,043
-192,460	373,177	0,044	0,064
-191,446	800,000	0,005	-0,015
-190,431	797,625	0,063	0,125
-189,417	-127,940	-0,088	0,009
-188,402	-200,000	-0,015	-0,088
-187,387	-65,286	-0,092	0,026
-186,373	-94,291	-0,095	0,019
-185,358	-200,000	0,029	-0,119
-184,344	-200,000	-0,005	-0,078
-183,329	-200,000	-0,005	0,110
-182,315	-3,056	-0,144	-0,072
-181,300	71,671	0,074	0,055
-180,285	148,568	0,072	-0,070
-179,271	182,190	0,102	0,108
-178,256	-200,000	-0,003	-0,044
-177,242	-200,000	0,003	-0,033
-176,227	-142,654	0,083	0,006
-175,212	-200,000	-0,033	0,149
-174,198	800,000	0,076	0,163
-173,183	140,111	-0,093	-0,088
-172,169	-165,609	-0,109	0,003
-171,154	-84,480	0,085	0,019
-170,139	800,000	0,030	-0,067
-169,125	104,689	0,064	-0,054
-168,110	800,000	-0,028	0,063
-167,096	-95,748	-0,016	0,003
-166,081	-68,883	0,052	0,014
-165,066	346,263	-0,088	-0,125
-164,052	-200,000	-0,006	-0,067
-163,037	166,021	0,051	0,051
-162,023	800,000	-0,040	0,106
-161,008	224,635	-0,064	0,074
-159,993	-43,994	0,085	0,031
-158,979	-108,995	-0,151	-0,023
-157,964	683,102	0,028	-0,053
-156,950	645,770	-0,037	-0,069
-155,935	-119,166	-0,091	0,011
-154,920	-146,100	0,098	-0,006
-153,906	457,243	-0,026	-0,042
-152,891	236,768	-0,077	-0,092
-151,877	-158,814	-0,040	0,002
-150,862	659,195	-0,014	-0,026
-149,847	-17,524	0,056	0,025
-148,833	-200,000	0,005	0,088
-147,818	-84,016	0,072	0,016
-146,804	379,290	-0,023	0,034
-145,789	-80,534	0,055	-0,013
-144,775	77,179	-0,047	0,036
-143,760	533,529	-0,020	-0,034
-142,745	150,878	-0,110	0,107
-141,731	50,637	0,111	-0,075
-140,716	195,496	0,054	-0,059
-139,702	-88,579	0,160	0,034
-138,687	785,672	-0,064	-0,127
-137,672	-111,018	0,092	0,013
-136,658	390,211	-0,048	0,072
-135,643	-200,000	0,004	0,030
-134,629	-70,779	0,103	0,028
-133,614	-126,301	-0,074	0,008
-132,599	225,182	0,086	0,101
-131,585	785,393	0,043	0,085
-130,570	-20,117	-0,075	0,033
-129,556	-109,724	-0,046	-0,007
-128,541	61,212	-0,044	0,031
-127,526	297,264	0,128	0,169
-126,512	-200,000	0,016	0,082
-125,497	29,140	0,053	-0,032
-124,483	205,715	0,109	0,122
-123,468	-200,000	0,012	-0,049
-122,453	53,523	0,140	0,097
-121,439	-28,784	-0,063	0,026
-120,424	-115,581	0,047	-0,006
-119,410	169,689	0,064	-0,066
-118,395	40,924	0,050	-0,032
