DTS Sentinel unit serial number:	SN410029Multiplexer serial number:	ORYXHardware model number:	OX2-SRSoftware version number:	ORYX F/W v4,00 Oryx Data Collector v3.7.2.0data status	okinstallation	B6 Nyhavnadifferential loss correction	single-endedforward channel	channel 2reverse channel	N/Adate	2023/12/10time	07:40:08forward acquisition time	300,00reverse acquisition time	0,00gamma	499,1914k internal	0,3123k external	0,3123temperature offset calibration	1,0000default loss term (dB/km)	0,3820temperature slope calibration	1,0000multiplexer offset coefficient	1,0000multiplexer slope coefficient	1,0000fibre end	0,00T internal ref (°C)	22,59T ext. ref 1 (°C)	6,34T ext. ref 2 (°C)	6,33length (m)	temperature (°C)	Stokes	anti-Stokes-744,400	45,804	0,076	0,053
-743,385	-48,708	-0,144	0,051
-742,371	-144,319	0,025	-0,002
-741,356	21,871	-0,133	0,081
-740,342	800,000	-0,002	-0,005
-739,327	-62,370	-0,266	0,082
-738,312	-104,695	-0,051	0,009
-737,298	-16,043	-0,224	0,106
-736,283	-200,000	0,017	-0,071
-735,269	438,782	-0,076	0,125
-734,254	-107,963	0,247	0,040
-733,239	-99,757	-0,323	-0,060
-732,225	-26,204	-0,042	-0,018
-731,210	184,891	0,026	0,029
-730,196	21,342	-0,130	0,079
-729,181	800,000	-0,020	-0,065
-728,167	316,883	0,036	0,051
-727,152	747,398	-0,056	0,112
-726,137	329,859	-0,046	-0,067
-725,123	-200,000	0,010	-0,100
-724,108	174,530	-0,059	-0,064
-723,094	-150,935	-0,048	0,003
-722,079	800,000	0,014	-0,036
-721,064	687,037	0,016	0,032
-720,050	189,840	0,080	-0,090
-719,035	800,000	0,036	-0,088
-718,021	182,453	-0,039	0,043
-717,006	800,000	-0,071	-0,230
-715,991	516,192	-0,063	-0,110
-714,977	53,473	-0,064	-0,045
-713,962	535,085	0,030	-0,053
-712,948	17,731	-0,043	0,025
-711,933	-200,000	-0,009	-0,112
-710,918	-200,000	-0,019	-0,075
-709,904	228,366	0,043	0,052
-708,889	59,956	-0,108	0,079
-707,875	-200,000	0,022	-0,099
-706,860	6,639	0,088	-0,049
-705,845	37,551	0,026	0,017
-704,831	-200,000	0,020	-0,090
-703,816	-48,210	-0,144	-0,051
-702,802	253,179	0,055	-0,070
-701,787	735,021	-0,089	-0,178
-700,772	38,324	-0,138	0,092
-699,758	-97,206	0,112	-0,022
-698,743	-200,000	0,025	0,123
-697,729	-28,985	-0,079	0,034
-696,714	-200,000	0,014	0,109
-695,699	125,428	-0,011	-0,010
-694,685	800,000	-0,044	-0,143
-693,670	-200,000	0,019	0,084
-692,656	-142,794	0,058	-0,004
-691,641	-19,094	0,042	-0,019
-690,627	-102,072	0,079	-0,014
-689,612	-62,933	-0,085	0,026
-688,597	305,058	-0,051	-0,070
-687,583	424,329	-0,033	-0,054
-686,568	800,000	0,045	-0,103
-685,554	463,982	0,019	0,032
-684,539	24,843	-0,087	0,053
-683,524	800,000	-0,064	0,144
-682,510	613,408	-0,056	0,104
-681,495	800,000	0,049	-0,147
-680,481	-70,351	0,058	0,016
-679,466	496,057	0,068	-0,117
-678,451	-200,000	0,009	-0,053
-677,437	222,982	0,029	0,035
-676,422	24,977	0,127	0,078
-675,408	-200,000	0,005	0,074
-674,393	-200,000	-0,011	0,068
-673,378	262,421	-0,054	-0,069
-672,364	-200,000	-0,017	-0,063
-671,349	-200,000	-0,002	-0,057
-670,335	-200,000	0,008	0,076
-669,320	-200,000	-0,005	0,089
-668,305	24,962	-0,110	0,067
-667,291	-200,000	-0,008	-0,106
-666,276	-116,882	0,008	0,001
-665,262	800,000	-0,058	-0,134
-664,247	389,622	0,041	-0,064
-663,232	302,797	-0,065	0,090
-662,218	-200,000	0,030	0,103
-661,203	102,124	0,073	0,064
-660,189	239,422	0,077	0,095
-659,174	-200,000	-0,019	0,067
-658,159	-200,000	0,004	-0,050
-657,145	459,402	0,060	-0,099
-656,130	-200,000	0,017	-0,208
-655,116	195,421	0,102	0,115
-654,101	471,932	-0,047	0,079
-653,086	-103,467	-0,190	0,033
-652,072	745,098	0,056	-0,112
-651,057	-200,000	0,006	-0,028
-650,043	340,991	0,014	-0,020
-649,028	-18,292	-0,152	-0,070
-648,014	-200,000	-0,004	0,045
-646,999	-200,000	0,025	0,193
-645,984	-200,000	0,015	0,056
-644,970	510,956	-0,038	0,066
-643,955	262,684	-0,030	0,039
-642,941	800,000	-0,043	-0,118
-641,926	74,705	0,097	-0,076
-640,911	-200,000	0,024	-0,103
-639,897	178,810	0,008	-0,008
-638,882	76,447	0,066	-0,052
-637,868	-33,127	0,056	-0,023
-636,853	-200,000	-0,028	-0,180
-635,838	38,989	-0,084	0,056
-634,824	533,120	0,024	-0,043
-633,809	36,986	0,133	0,087
-632,795	800,000	0,046	0,149
-631,780	-75,245	-0,038	0,010
-630,765	651,169	-0,032	0,062
-629,751	288,660	-0,084	-0,113
-628,736	103,132	0,023	-0,020
-627,722	-76,788	-0,068	-0,018
-626,707	-200,000	-0,005	0,096
-625,692	295,479	0,095	0,130
-624,678	-148,649	-0,099	-0,006
-623,663	37,078	-0,008	0,005
-622,649	-150,347	0,078	-0,004
-621,634	800,000	-0,042	0,137
-620,619	210,924	-0,011	0,012
-619,605	-200,000	0,015	0,111
-618,590	-133,642	0,018	-0,002
-617,576	124,085	0,048	-0,044
-616,561	-56,122	0,045	-0,015
-615,546	-88,724	-0,019	-0,004
-614,532	-21,132	-0,136	-0,061
-613,517	800,000	-0,006	-0,017
-612,503	-1,631	0,134	0,070
-611,488	318,339	-0,032	-0,046
-610,474	-161,210	0,152	0,006
-609,459	800,000	-0,056	0,115
-608,444	214,611	0,028	0,033
-607,430	800,000	0,038	-0,103
-606,415	800,000	0,092	-0,227
-605,401	57,399	-0,060	-0,043
-604,386	162,627	0,125	-0,130
-603,371	-135,544	0,107	0,009
-602,357	-200,000	-0,014	0,144
-601,342	-106,148	-0,110	0,018
-600,328	800,000	-0,055	-0,136
-599,313	204,160	-0,047	0,054
-598,298	-200,000	-0,021	-0,124
-597,284	201,307	-0,039	-0,044
-596,269	-200,000	0,004	0,019
-595,255	-200,000	-0,013	0,094
-594,240	304,191	-0,030	-0,041
-593,225	102,941	-0,153	0,133
-592,211	19,372	-0,086	0,051
-591,196	3,138	0,059	0,031
-590,182	249,960	-0,082	-0,104
-589,167	-200,000	-0,008	0,037
-588,152	-200,000	-0,001	0,054
-587,138	-6,790	-0,018	-0,009
-586,123	72,970	-0,143	-0,111
-585,109	228,808	0,103	-0,125
-584,094	388,446	0,105	-0,161
-583,079	-200,000	-0,040	-0,149
-582,065	232,225	0,066	-0,081
-581,050	800,000	0,016	0,039
-580,036	18,910	-0,090	0,053
-579,021	-164,763	-0,008	0,000
-578,006	-5,704	-0,100	-0,050
-576,992	-200,000	-0,009	0,041
-575,977	-200,000	0,003	-0,073
-574,963	-64,774	0,057	-0,017
-573,948	-71,668	-0,077	0,021
-572,934	251,830	0,038	0,049
-571,919	669,376	-0,062	-0,119
-570,904	-200,000	-0,014	-0,059
-569,890	233,326	-0,113	-0,138
-568,875	-76,568	0,136	0,035
-567,861	-44,151	0,041	-0,015
-566,846	800,000	-0,050	0,151
-565,831	800,000	-0,083	0,191
-564,817	-148,655	-0,045	-0,003
-563,802	277,059	-0,081	0,106
-562,788	-93,256	0,032	0,007
-561,773	172,107	0,025	0,027
-560,758	329,451	-0,014	0,019
-559,744	-129,003	0,156	-0,016
-558,729	-88,914	-0,114	0,025
-557,715	359,014	0,030	-0,045
-556,700	52,211	-0,213	-0,150
-555,685	289,830	0,071	0,095
-554,671	800,000	0,045	0,103
-553,656	474,333	-0,039	0,065
-552,642	800,000	-0,012	0,033
-551,627	-200,000	-0,007	0,076
-550,612	187,453	-0,034	-0,038
-549,598	-200,000	-0,038	-0,176
-548,583	-43,338	-0,111	-0,041
-547,569	-56,668	0,098	0,032
-546,554	315,762	0,030	-0,042
-545,539	-200,000	-0,009	-0,112
-544,525	434,164	-0,072	-0,117
-543,510	-37,890	-0,061	0,024
-542,496	800,000	-0,033	-0,078
-541,481	-200,000	-0,008	0,099
-540,466	-130,933	0,108	-0,011
-539,452	-51,760	0,054	-0,019
-538,437	-35,782	0,081	-0,032
-537,423	-200,000	0,012	-0,127
-536,408	345,877	-0,092	-0,134
-535,393	-137,192	-0,050	0,004
-534,379	330,610	-0,031	0,044
-533,364	-44,493	0,079	0,029
-532,350	161,990	-0,015	0,015
-531,335	135,006	-0,078	0,075
-530,321	-31,671	0,071	-0,029
-529,306	13,514	-0,133	0,076
-528,291	800,000	-0,035	-0,099
-527,277	-8,377	0,018	0,009
-526,262	-92,785	-0,054	-0,011
-525,248	-102,752	0,079	0,014
-524,233	532,236	0,107	-0,187
-523,218	192,354	0,123	-0,137
-522,204	659,527	-0,027	0,052
-521,189	800,000	0,037	-0,095
-520,175	800,000	-0,029	-0,061
-519,160	-200,000	0,017	-0,054
-518,145	-57,156	-0,090	-0,029
-517,131	188,961	0,102	0,112
-516,116	-64,161	0,147	0,044
-515,102	282,583	0,096	-0,128
-514,087	315,116	0,060	0,083
-513,072	224,863	0,074	-0,088
-512,058	800,000	-0,020	-0,050
-511,043	71,173	-0,018	-0,014
-510,029	-114,748	-0,137	-0,019
-509,014	0,812	-0,041	0,022
-507,999	-159,488	0,055	-0,002
-506,985	97,121	0,044	0,037
-505,970	-200,000	-0,004	-0,045
-504,956	41,707	0,072	0,048
-503,941	-27,686	0,150	-0,064
-502,926	601,038	-0,073	0,135
-501,912	800,000	0,037	0,091
-500,897	471,436	0,082	0,137
-499,883	800,000	0,043	-0,137
-498,868	94,893	0,039	-0,033
-497,853	-200,000	-0,004	-0,094
-496,839	14,682	-0,182	-0,105
-495,824	-174,637	0,092	-0,002
-494,810	469,256	-0,035	0,058
-493,795	-200,000	-0,017	0,092
-492,781	-159,760	0,039	0,002
-491,766	800,000	0,040	0,098
-490,751	124,089	-0,021	0,020
-489,737	-141,234	0,130	0,010
-488,722	472,929	0,077	0,129
-487,708	-90,654	0,084	-0,018
-486,693	-93,715	0,031	0,006
-485,678	357,285	-0,079	-0,117
-484,664	-179,121	-0,125	-0,002
-483,649	126,041	0,042	-0,039
-482,635	-200,000	-0,002	-0,025
-481,620	800,000	-0,015	-0,031
-480,605	144,858	-0,102	0,100
-479,591	-57,402	0,016	-0,005
-478,576	249,170	0,016	-0,020
-477,562	-67,813	-0,047	0,013
-476,547	405,619	-0,016	0,025
-475,532	-200,000	0,034	0,117
-474,518	-75,743	0,061	0,016
-473,503	-200,000	0,011	-0,116
-472,489	239,936	-0,050	-0,061
-471,474	-10,788	0,078	0,038
-470,459	800,000	0,016	-0,038
-469,445	800,000	0,036	0,108
-468,430	-31,965	0,101	0,041
-467,416	174,185	0,112	0,119
-466,401	-132,464	0,182	0,017
-465,386	306,301	0,029	0,040
-464,372	800,000	0,033	0,095
-463,357	78,551	-0,078	0,061
-462,343	-200,000	0,013	-0,084
-461,328	6,241	-0,152	-0,083
-460,313	-64,047	0,072	0,021
-459,299	-155,439	-0,077	-0,004
-458,284	150,158	0,013	0,013
-457,270	443,445	-0,071	-0,116
-456,255	-200,000	-0,004	-0,040
-455,241	800,000	-0,059	-0,168
-454,226	-200,000	-0,007	-0,041
-453,211	-71,264	0,069	-0,019
-452,197	-118,659	0,055	0,007
-451,182	-72,876	0,087	-0,023
-450,168	-200,000	0,016	0,151
-449,153	47,426	-0,084	0,058
-448,138	-78,521	0,134	-0,034
-447,124	435,315	0,022	-0,036
-446,109	-18,102	-0,081	0,037
-445,095	725,238	0,046	-0,091
-444,080	-200,000	-0,011	0,056
-443,065	7,414	-0,053	-0,029
-442,051	36,631	-0,059	-0,038
-441,036	-200,000	-0,008	-0,050
-440,022	281,957	-0,050	-0,066
-439,007	130,685	0,084	-0,079
-437,992	800,000	-0,045	-0,112
-436,978	223,492	-0,078	0,093
-435,963	800,000	-0,043	-0,095
-434,949	607,675	-0,032	-0,059
-433,934	9,438	-0,068	0,038
-432,919	-200,000	-0,020	0,173
-431,905	277,226	0,073	0,096
-430,890	243,420	-0,045	-0,056
-429,876	-200,000	-0,012	0,107
-428,861	-82,442	0,066	-0,016
-427,846	228,126	-0,095	-0,114
-426,832	-139,815	-0,058	-0,004
-425,817	456,140	-0,064	-0,105
-424,803	68,491	0,092	-0,069
-423,788	-39,768	-0,047	-0,018
-422,773	-107,574	-0,126	0,020
-421,759	-200,000	-0,001	0,082
-420,744	800,000	0,042	-0,128
-419,730	-200,000	-0,011	-0,086
-418,715	-200,000	-0,013	0,077
-417,701	31,667	0,069	0,043
-416,686	471,071	-0,033	0,055
-415,671	142,078	0,078	0,076
-414,657	800,000	0,026	0,085
-413,642	-200,000	0,060	0,218
-412,628	-200,000	0,023	0,117
-411,613	-15,101	-0,067	0,032
-410,598	202,443	0,059	-0,067
-409,584	-200,000	0,015	0,208
-408,569	800,000	0,076	0,166
-407,555	-200,000	0,008	0,077
-406,540	63,159	-0,070	-0,052
-405,525	721,079	0,026	0,051
-404,511	-86,868	-0,072	0,016
-403,496	-200,000	0,027	-0,167
-402,482	800,000	-0,015	-0,037
-401,467	800,000	-0,058	-0,127
-400,452	136,350	-0,083	0,080
-399,438	-33,778	0,130	-0,052
-398,423	-118,033	0,027	-0,004
-397,409	-200,000	0,009	0,034
-396,394	10,060	-0,061	-0,034
-395,379	86,653	-0,151	-0,123
-394,365	277,166	0,063	0,083
-393,350	310,196	0,034	-0,047
-392,336	-29,812	0,119	0,049
-391,321	-26,693	0,054	-0,023
-390,306	260,466	-0,033	-0,042
-389,292	33,080	0,108	-0,069
-388,277	14,091	0,036	0,021
-387,263	719,540	0,032	0,064
-386,248	-57,339	0,100	-0,032
-385,233	-89,075	0,103	-0,022
-384,219	-200,000	-0,003	-0,045
-383,204	1,120	0,107	-0,056
-382,190	-138,662	-0,137	-0,011
-381,175	-200,000	-0,006	0,110
-380,160	797,522	-0,053	0,109
-379,146	-200,000	0,012	-0,163
-378,131	38,166	-0,102	0,067
-377,117	100,986	-0,091	0,078
-376,102	179,454	-0,055	0,059
-375,088	523,226	0,021	-0,036
-374,073	-168,553	-0,025	0,001
-373,058	-200,000	-0,026	-0,105
-372,044	140,178	0,085	0,083
-371,029	-80,748	0,068	-0,016
-370,015	-60,870	-0,114	-0,035
-369,000	-200,000	-0,024	-0,165
-367,985	263,172	-0,091	-0,116
-366,971	480,247	0,033	-0,056
-365,956	-200,000	-0,012	0,049
-364,942	800,000	0,017	-0,045
-363,927	-200,000	0,019	0,163
-362,912	-113,395	-0,147	0,021
-361,898	18,687	-0,168	0,099
-360,883	266,312	0,023	0,030
-359,869	-200,000	-0,022	-0,133
-358,854	45,477	0,109	0,074
-357,839	-173,548	0,117	0,003
-356,825	-200,000	-0,013	0,051
-355,810	800,000	-0,017	-0,034
-354,796	-200,000	-0,021	-0,154
-353,781	-200,000	0,010	0,060
-352,766	88,605	-0,049	-0,040
-351,752	-83,407	0,104	0,024
-350,737	118,831	0,141	0,128
-349,723	67,940	-0,025	-0,019
-348,708	82,406	0,094	-0,075
-347,693	-189,541	-0,214	0,002
-346,679	636,035	0,085	-0,160
-345,664	-200,000	-0,023	-0,081
-344,650	-103,266	0,032	0,006
-343,635	215,711	0,084	0,098
-342,620	-120,823	-0,062	-0,008
-341,606	560,172	0,072	0,129
-340,591	154,953	-0,147	-0,149
-339,577	419,517	0,038	-0,060
-338,562	285,820	-0,081	-0,107
-337,548	800,000	0,071	0,208
-336,533	89,972	0,092	0,075
-335,518	-99,288	0,071	0,013
-334,504	380,625	0,044	-0,066
-333,489	561,367	0,020	-0,036
-332,475	-83,146	-0,121	0,028
-331,460	-134,294	0,073	0,007
-330,445	-200,000	0,010	-0,041
-329,431	50,166	0,054	0,037
-328,416	417,245	0,048	0,075
-327,402	110,750	-0,071	0,062
-326,387	-200,000	0,036	0,159
-325,372	-200,000	0,003	0,014
-324,358	-200,000	0,012	-0,047
-323,343	178,991	0,085	0,091
-322,329	-25,433	-0,111	-0,048
-321,314	-200,000	-0,007	-0,044
-320,299	371,979	0,048	0,071
-319,285	148,288	-0,020	-0,020
-318,270	-200,000	0,023	0,090
-317,256	-140,086	-0,082	-0,006
-316,241	-46,547	-0,153	-0,055
-315,226	215,800	0,107	0,125
-314,212	-200,000	0,011	0,123
-313,197	363,285	0,021	0,031
-312,183	800,000	-0,067	0,144
-311,168	159,434	-0,116	0,118
-310,153	-52,601	0,054	-0,018
-309,139	108,215	-0,071	0,062
-308,124	-111,991	0,063	-0,009
-307,110	-200,000	0,023	-0,095
-306,095	-56,114	0,065	-0,021
-305,080	-200,000	0,017	-0,068
-304,066	-200,000	-0,003	0,050
-303,051	-200,000	0,030	0,123
-302,037	101,793	-0,142	-0,122
-301,022	-60,429	0,034	0,010
-300,008	39,385	-0,047	-0,031
-298,993	180,215	-0,066	-0,071
-297,978	800,000	0,052	0,154
-296,964	-200,000	-0,002	-0,035
-295,949	-77,330	-0,046	0,012
-294,935	80,955	0,136	-0,107
-293,920	551,324	-0,029	-0,052
-292,905	69,366	0,108	-0,081
-291,891	-200,000	-0,011	-0,063
-290,876	-28,909	-0,072	0,030
-289,862	-200,000	-0,012	-0,043
-288,847	27,401	-0,053	0,033
-287,832	9,630	0,080	-0,044
-286,818	234,724	0,046	0,055
-285,803	142,940	0,078	0,076
-284,789	-3,313	-0,044	-0,022
-283,774	65,053	-0,130	0,096
-282,759	-76,208	-0,109	0,028
-281,745	154,017	-0,164	-0,164
-280,730	29,505	0,074	-0,046
-279,716	-28,940	0,115	-0,048
-278,701	-110,390	0,046	0,007
-277,686	575,114	0,068	0,121
-276,672	52,380	0,011	0,007
-275,657	467,168	-0,016	0,026
-274,643	-200,000	-0,039	-0,128
-273,628	631,895	0,028	-0,052
-272,613	92,001	-0,021	-0,018
-271,599	-200,000	-0,008	0,139
-270,584	-158,577	-0,067	-0,003
-269,570	-200,000	0,000	0,020
-268,555	154,796	-0,020	-0,020
-267,540	-200,000	0,001	-0,095
-266,526	-200,000	0,004	-0,031
-265,511	155,214	-0,129	0,130
-264,497	166,624	0,094	-0,097
-263,482	-200,000	-0,012	0,117
-262,467	305,974	-0,009	0,012
-261,453	298,391	0,003	0,003
-260,438	-70,581	0,079	0,022
-259,424	-42,169	-0,061	0,023
-258,409	195,391	0,077	-0,085
-257,395	-74,464	0,097	-0,025
-256,380	17,735	-0,112	0,065
-255,365	-23,805	-0,101	0,044
-254,351	-3,063	-0,036	-0,018
-253,336	331,184	-0,031	-0,043
-252,322	54,904	-0,084	0,059
-251,307	800,000	0,058	0,149
-250,292	135,376	0,073	-0,069
-249,278	123,589	-0,055	0,051
-248,263	800,000	-0,016	-0,046
-247,249	399,996	-0,036	0,056
-246,234	-121,925	0,125	0,015
-245,219	67,800	-0,066	-0,049
-244,205	-56,446	-0,128	-0,041
-243,190	-129,931	0,018	0,002
-242,176	689,345	-0,036	0,070
-241,161	-83,896	0,140	-0,032
-240,146	-169,119	-0,071	0,002
-239,132	-78,367	-0,052	0,013
-238,117	800,000	-0,055	-0,154
-237,103	724,148	-0,078	-0,153
-236,088	615,113	-0,030	0,055
-235,073	-56,756	0,036	0,012
-234,059	-200,000	-0,009	0,057
-233,044	28,587	0,128	0,079
-232,030	-104,222	-0,095	-0,016
-231,015	-121,251	-0,114	0,014
-230,000	800,000	0,017	0,054
-228,986	-200,000	0,055	0,212
-227,971	125,262	0,069	0,063
-226,957	-200,000	0,048	0,296
-225,942	-119,495	0,125	0,016
-224,927	-73,419	-0,107	-0,028
-223,913	-114,864	-0,076	0,010
-222,898	800,000	0,023	-0,051
-221,884	-200,000	0,001	-0,116
-220,869	19,840	-0,138	-0,081
-219,855	-68,286	-0,061	0,017
-218,840	644,613	0,039	0,073
-217,825	409,337	0,036	0,056
-216,811	-126,926	0,128	-0,014
-215,796	-200,000	0,004	0,039
-214,782	21,027	-0,071	0,042
-213,767	460,991	0,023	0,038
-212,752	-200,000	-0,012	0,068
-211,738	-200,000	0,012	-0,095
-210,723	-137,372	0,104	0,008
-209,709	-200,000	0,016	-0,150
-208,694	90,719	-0,123	-0,101
-207,679	-200,000	-0,013	-0,073
-206,665	-200,000	0,005	0,033
-205,650	-137,462	0,145	-0,012
-204,636	234,133	-0,018	-0,022
-203,621	-38,680	-0,049	-0,019
-202,606	109,542	-0,056	-0,049
-201,592	-76,804	0,075	-0,019
-200,577	-200,000	-0,009	0,089
-199,563	50,206	-0,074	-0,051
-198,548	29,666	0,102	0,063
-197,533	764,472	0,069	-0,137
-196,519	-200,000	-0,008	0,112
-195,504	-200,000	0,002	-0,025
-194,490	-200,000	-0,004	-0,096
-193,475	800,000	-0,020	0,044
-192,460	306,428	0,056	0,076
-191,446	160,574	-0,029	0,029
-190,431	-200,000	0,012	0,111
-189,417	-1,344	0,071	0,036
-188,402	-109,074	0,146	0,022
-187,387	-30,923	-0,062	-0,025
-186,373	-200,000	-0,015	-0,060
-185,358	-200,000	0,003	0,110
-184,344	-200,000	-0,010	-0,063
-183,329	176,968	0,033	0,035
-182,315	59,338	-0,122	0,087
-181,300	-111,505	0,065	0,010
-180,285	102,964	-0,024	0,020
-179,271	-168,624	-0,090	-0,002
-178,256	800,000	-0,049	-0,107
-177,242	-0,018	0,121	0,062
-176,227	-200,000	-0,032	0,113
-175,212	-200,000	0,020	0,070
-174,198	118,111	-0,065	0,059
-173,183	500,210	0,015	-0,025
-172,169	-200,000	-0,012	-0,096
-171,154	-141,833	-0,142	-0,010
-170,139	-99,528	-0,041	-0,008
-169,125	800,000	0,040	-0,123
-168,110	520,700	-0,033	0,057
-167,096	-200,000	-0,013	0,072
-166,081	44,143	-0,033	0,022
-165,066	68,103	0,107	-0,080
-164,052	-144,395	0,036	0,002
-163,037	-200,000	-0,014	-0,144
-162,023	63,220	-0,055	0,040
-161,008	53,456	0,099	-0,069
-159,993	414,849	-0,042	-0,065
-158,979	107,107	0,043	-0,038
-157,964	-200,000	-0,001	-0,081
-156,950	-14,527	-0,103	0,048
-155,935	-200,000	-0,016	-0,063
-154,920	-157,600	0,077	0,003
-153,906	-44,183	0,105	-0,038
-152,891	-200,000	0,029	0,138
-151,877	17,141	-0,115	-0,066
-150,862	-22,393	-0,117	-0,051
-149,847	269,653	-0,037	-0,048
-148,833	-11,154	-0,108	-0,052
-147,818	430,240	0,067	0,106
-146,804	39,468	0,027	-0,017
-145,789	138,282	0,031	0,030
-144,775	34,447	0,041	0,026
-143,760	-53,068	-0,163	-0,054
-142,745	-71,246	-0,130	0,035
-141,731	-31,739	0,026	-0,011
-140,716	207,756	-0,077	0,088
-139,702	-31,096	0,101	-0,041
-138,687	412,942	-0,033	-0,051
-137,672	800,000	-0,045	0,125
-136,658	564,639	0,037	0,065
-135,643	-95,653	-0,146	0,028
-134,629	320,375	-0,026	0,036
-133,614	179,096	-0,151	0,161
-132,599	-200,000	-0,035	-0,131
-131,585	163,350	0,029	-0,030
-130,570	92,922	0,012	-0,009
-129,556	800,000	-0,023	-0,068
-128,541	-10,895	-0,108	-0,052
-127,526	168,492	0,027	-0,028
-126,512	89,683	-0,096	0,078
-125,497	171,380	0,037	-0,039
-124,483	-158,942	-0,063	-0,003
-123,468	351,461	-0,050	0,072
-122,453	77,060	-0,075	-0,058
-121,439	-200,000	-0,040	-0,177
-120,424	-11,582	-0,163	0,078
-119,410	800,000	0,027	0,071
