DTS Sentinel unit serial number:	SN410029Multiplexer serial number:	ORYXHardware model number:	OX2-SRSoftware version number:	ORYX F/W v4,00 Oryx Data Collector v3.7.2.0data status	okinstallation	B6 Nyhavnadifferential loss correction	single-endedforward channel	channel 2reverse channel	N/Adate	2023/12/10time	06:25:08forward acquisition time	300,00reverse acquisition time	0,00gamma	499,1914k internal	0,3123k external	0,3123temperature offset calibration	1,0000default loss term (dB/km)	0,3820temperature slope calibration	1,0000multiplexer offset coefficient	1,0000multiplexer slope coefficient	1,0000fibre end	0,00T internal ref (°C)	22,57T ext. ref 1 (°C)	6,46T ext. ref 2 (°C)	6,45length (m)	temperature (°C)	Stokes	anti-Stokes-744,400	800,000	-0,028	-0,082
-743,385	-51,589	-0,302	0,104
-742,371	800,000	-0,029	-0,078
-741,356	54,843	-0,237	0,170
-740,342	-200,000	0,030	0,131
-739,327	28,412	-0,252	0,158
-738,312	356,824	0,054	-0,081
-737,298	-50,489	-0,225	0,079
-736,283	21,704	0,162	-0,098
-735,269	64,015	-0,222	0,166
-734,254	-68,923	0,066	-0,019
-733,239	-102,626	-0,394	-0,069
-732,225	-200,000	-0,021	-0,136
-731,210	456,345	-0,059	0,097
-730,196	300,276	-0,036	0,050
-729,181	254,145	-0,095	-0,122
-728,167	186,510	0,048	0,053
-727,152	217,575	-0,044	-0,052
-726,137	-200,000	0,005	0,087
-725,123	309,373	-0,063	-0,087
-724,108	-200,000	0,004	-0,062
-723,094	132,085	-0,092	0,088
-722,079	126,869	-0,094	0,089
-721,064	800,000	-0,059	0,146
-720,050	232,839	-0,090	0,110
-719,035	282,677	-0,080	0,107
-718,021	257,317	-0,116	-0,149
-717,006	388,191	-0,057	-0,089
-715,991	-55,126	-0,079	0,026
-714,977	577,651	0,008	0,015
-713,962	199,248	-0,062	-0,071
-712,948	3,493	-0,221	-0,120
-711,933	184,640	0,088	0,098
-710,918	-61,308	0,040	0,012
-709,904	-56,735	-0,082	-0,027
-708,889	-200,000	-0,013	-0,093
-707,875	-119,673	-0,054	0,007
-706,860	-94,698	-0,110	-0,022
-705,845	48,790	-0,027	0,019
-704,831	-200,000	-0,004	0,074
-703,816	-95,862	0,029	0,006
-702,802	-200,000	0,010	0,119
-701,787	223,538	-0,003	0,004
-700,772	-200,000	-0,026	-0,143
-699,758	331,524	0,007	-0,010
-698,743	237,893	-0,059	0,072
-697,729	-200,000	-0,013	0,049
-696,714	-200,000	-0,037	-0,186
-695,699	278,736	-0,109	-0,145
-694,685	800,000	-0,025	-0,061
-693,670	633,418	0,041	-0,077
-692,656	-75,397	0,118	0,031
-691,641	42,927	0,123	-0,083
-690,627	-200,000	0,004	0,049
-689,612	79,448	-0,050	0,040
-688,597	333,630	0,072	0,104
-687,583	-99,505	-0,092	0,017
-686,568	-200,000	0,020	-0,124
-685,554	347,326	-0,121	-0,177
-684,539	-200,000	0,002	-0,085
-683,524	-140,553	0,175	0,013
-682,510	-66,655	-0,065	-0,019
-681,495	129,153	-0,153	-0,145
-680,481	471,120	0,079	-0,133
-679,466	40,893	-0,068	-0,045
-678,451	264,622	-0,084	-0,108
-677,437	-4,622	0,138	-0,071
-676,422	651,301	-0,008	-0,016
-675,408	-200,000	-0,013	-0,130
-674,393	-97,344	0,055	-0,011
-673,378	-118,166	-0,041	0,005
-672,364	800,000	-0,043	-0,133
-671,349	-14,421	0,043	0,020
-670,335	93,740	0,077	0,065
-669,320	-12,255	0,063	-0,031
-668,305	-200,000	-0,000	0,014
-667,291	175,467	0,023	0,025
-666,276	-200,000	0,006	0,024
-665,262	-145,140	-0,049	-0,003
-664,247	-40,213	-0,097	-0,037
-663,232	800,000	0,014	-0,033
-662,218	800,000	0,050	-0,105
-661,203	-200,000	-0,011	0,051
-660,189	800,000	0,042	-0,123
-659,174	10,831	-0,080	-0,045
-658,159	302,112	-0,070	-0,097
-657,145	-64,748	-0,152	-0,046
-656,130	-200,000	-0,006	-0,062
-655,116	800,000	0,060	-0,146
-654,101	-81,489	0,073	-0,018
-653,086	81,063	-0,080	0,064
-652,072	485,226	-0,021	0,036
-651,057	73,301	-0,113	-0,088
-650,043	322,152	0,067	-0,095
-649,028	12,432	0,089	0,051
-648,014	-28,503	0,036	0,015
-646,999	-200,000	-0,001	0,106
-645,984	-200,000	0,031	0,149
-644,970	-200,000	0,008	-0,045
-643,955	-200,000	0,010	0,036
-642,941	-20,357	0,061	-0,028
-641,926	-102,009	-0,083	0,015
-640,911	-127,947	0,092	0,010
-639,897	435,915	0,014	0,023
-638,882	-200,000	0,008	-0,052
-637,868	12,948	-0,148	-0,085
-636,853	343,270	0,030	0,044
-635,838	800,000	-0,019	-0,053
-634,824	455,519	0,059	-0,097
-633,809	-200,000	0,014	0,103
-632,795	-18,607	0,150	0,069
-631,780	-44,176	-0,076	-0,028
-630,765	-200,000	-0,027	-0,138
-629,751	43,499	0,192	-0,130
-628,736	218,114	-0,047	-0,056
-627,722	328,158	-0,015	-0,021
-626,707	507,433	-0,006	0,011
-625,692	-200,000	0,005	0,113
-624,678	389,772	0,007	0,011
-623,663	361,294	0,092	0,137
-622,649	-87,677	-0,136	-0,030
-621,634	247,449	-0,078	-0,098
-620,619	-29,958	0,091	-0,038
-619,605	51,206	-0,051	-0,036
-618,590	32,994	-0,022	-0,014
-617,576	282,826	-0,028	-0,038
-616,561	-200,000	0,010	-0,133
-615,546	-200,000	-0,004	-0,026
-614,532	-156,140	0,085	-0,004
-613,517	-200,000	-0,002	-0,114
-612,503	800,000	0,028	0,079
-611,488	-200,000	0,013	0,064
-610,474	9,847	-0,111	0,062
-609,459	-147,271	0,189	-0,012
-608,444	-200,000	-0,024	0,099
-607,430	-89,079	0,036	0,008
-606,415	-87,503	-0,041	0,009
-605,401	32,731	0,061	0,039
-604,386	-200,000	0,003	0,083
-603,371	800,000	0,010	0,027
-602,357	-200,000	0,018	0,118
-601,342	-200,000	-0,011	-0,090
-600,328	113,752	-0,088	-0,079
-599,313	7,972	-0,101	-0,056
-598,298	-81,122	-0,046	-0,011
-597,284	-80,817	0,063	0,015
-596,269	-101,530	0,156	0,028
-595,255	-200,000	0,001	-0,155
-594,240	800,000	-0,026	0,063
-593,225	113,920	0,023	-0,021
-592,211	-92,327	-0,051	-0,011
-591,196	32,300	0,130	-0,083
-590,182	-200,000	-0,013	0,062
-589,167	192,832	0,029	0,033
-588,152	800,000	-0,026	-0,055
-587,138	19,941	-0,077	0,046
-586,123	140,245	0,021	-0,021
-585,109	800,000	-0,028	0,065
-584,094	-73,133	-0,148	-0,040
-583,079	800,000	-0,026	0,077
-582,065	-200,000	-0,000	0,136
-581,050	12,135	0,019	-0,011
-580,036	-102,536	-0,044	0,008
-579,021	-141,673	-0,140	-0,010
-578,006	-161,992	-0,218	-0,008
-576,992	-78,418	-0,032	0,008
-575,977	-129,313	-0,080	-0,008
-574,963	-200,000	0,010	0,126
-573,948	7,835	0,026	-0,014
-572,934	315,324	-0,060	-0,083
-571,919	800,000	0,038	0,082
-570,904	-143,280	0,055	-0,004
-569,890	-160,801	-0,112	0,004
-568,875	93,861	0,026	0,022
-567,861	383,290	0,025	0,038
-566,846	13,816	0,136	-0,078
-565,831	56,232	-0,107	0,077
-564,817	-120,685	-0,040	-0,005
-563,802	50,945	-0,144	-0,101
-562,788	-200,000	-0,003	-0,031
-561,773	638,978	0,029	0,056
-560,758	-190,008	0,072	-0,001
-559,744	91,134	-0,054	-0,045
-558,729	233,368	-0,049	0,060
-557,715	354,240	0,087	0,129
-556,700	486,875	0,019	0,032
-555,685	-38,351	-0,019	-0,008
-554,671	-55,336	0,025	0,008
-553,656	191,179	0,022	-0,025
-552,642	485,184	0,036	-0,061
-551,627	-200,000	0,008	0,046
-550,612	42,699	0,077	-0,052
-549,598	519,237	-0,050	-0,087
-548,583	-51,309	0,034	-0,012
-547,569	118,616	0,096	-0,088
-546,554	428,971	-0,037	0,060
-545,539	467,763	-0,019	-0,032
-544,525	112,952	0,021	0,019
-543,510	112,040	-0,029	-0,026
-542,496	-200,000	-0,019	-0,088
-541,481	-57,229	0,130	-0,042
-540,466	800,000	-0,052	-0,148
-539,452	123,984	0,163	0,152
-538,437	-200,000	0,026	-0,101
-537,423	-200,000	0,004	0,062
-536,408	800,000	0,046	0,100
-535,393	176,971	-0,110	-0,119
-534,379	800,000	0,037	-0,082
-533,364	113,923	-0,069	-0,062
-532,350	156,902	-0,103	0,106
-531,335	77,333	0,136	0,107
-530,321	227,688	-0,011	-0,014
-529,306	800,000	-0,045	0,096
-528,291	800,000	0,015	0,039
-527,277	-200,000	0,031	-0,119
-526,262	-200,000	0,003	-0,025
-525,248	-12,166	0,046	-0,022
-524,233	-200,000	0,018	-0,179
-523,218	-86,975	-0,098	-0,022
-522,204	46,704	0,134	0,092
-521,189	-82,912	0,027	-0,006
-520,175	-200,000	-0,000	-0,006
-519,160	-17,917	-0,065	0,030
-518,145	403,168	-0,058	0,090
-517,131	-159,546	0,158	0,006
-516,116	-200,000	0,003	0,137
-515,102	-192,456	-0,032	-0,000
-514,087	220,481	0,092	0,109
-513,072	-57,511	-0,173	-0,056
-512,058	-200,000	-0,016	-0,101
-511,043	-39,885	0,102	0,039
-510,029	203,020	0,055	0,063
-509,014	290,927	0,067	-0,090
-507,999	455,849	-0,027	0,044
-506,985	164,459	-0,039	0,041
-505,970	-200,000	0,008	0,054
-504,956	-3,269	0,074	-0,038
-503,941	-137,556	-0,111	0,009
-502,926	800,000	0,008	-0,022
-501,912	-42,567	0,085	-0,032
-500,897	366,172	-0,086	-0,128
-499,883	129,708	0,071	-0,067
-498,868	309,920	0,038	-0,053
-497,853	525,172	-0,068	0,118
-496,839	368,697	0,072	0,108
-495,824	723,765	0,032	0,063
-494,810	74,189	-0,050	-0,039
-493,795	-127,438	0,151	0,016
-492,781	-19,316	0,105	-0,048
-491,766	-125,332	-0,111	-0,012
-490,751	330,150	0,024	-0,034
-489,737	165,741	-0,039	-0,041
-488,722	321,074	0,049	-0,069
-487,708	223,908	0,025	0,030
-486,693	-110,797	-0,073	-0,011
-485,678	-105,450	-0,017	0,003
-484,664	-151,629	-0,026	0,001
-483,649	-200,000	0,001	-0,078
-482,635	-58,467	0,117	0,037
-481,620	-200,000	-0,002	0,086
-480,605	458,093	0,064	0,106
-479,591	-120,790	0,076	0,009
-478,576	-41,238	-0,028	-0,011
-477,562	-128,982	0,058	-0,006
-476,547	-200,000	-0,028	-0,122
-475,532	-200,000	0,006	0,071
-474,518	-200,000	-0,023	0,078
-473,503	382,551	0,050	0,076
-472,489	-100,092	0,077	-0,014
-471,474	88,313	-0,073	0,060
-470,459	286,725	0,072	-0,096
-469,445	95,795	0,015	-0,013
-468,430	800,000	0,023	0,074
-467,416	-99,106	-0,070	-0,013
-466,401	406,733	0,087	0,136
-465,386	720,402	0,044	-0,087
-464,372	-27,953	-0,043	0,018
-463,357	-168,336	0,087	-0,002
-462,343	-132,820	-0,033	0,003
-461,328	-200,000	0,015	-0,092
-460,313	800,000	-0,059	-0,125
-459,299	800,000	0,048	0,140
-458,284	-138,608	0,035	0,003
-457,270	92,496	-0,046	-0,038
-456,255	-146,092	0,106	-0,007
-455,241	-200,000	-0,010	-0,105
-454,226	800,000	0,049	-0,135
-453,211	800,000	-0,025	0,078
-452,197	-200,000	0,009	0,111
-451,182	800,000	0,018	-0,042
-450,168	-67,643	0,034	0,010
-449,153	-59,987	-0,141	0,044
-448,138	9,106	0,080	0,044
-447,124	23,541	0,037	0,023
-446,109	20,093	-0,054	0,032
-445,095	240,992	-0,064	-0,079
-444,080	800,000	0,023	0,061
-443,065	217,213	0,036	0,043
-442,051	-27,080	0,005	0,002
-441,036	66,438	-0,058	-0,043
-440,022	-105,929	-0,105	0,017
-439,007	-15,141	-0,055	0,026
-437,992	-200,000	0,016	0,192
-436,978	348,156	0,038	0,055
-435,963	-200,000	-0,019	0,097
-434,949	-39,469	-0,069	0,027
-433,934	-200,000	-0,013	-0,048
-432,919	-200,000	0,023	-0,108
-431,905	-56,365	-0,190	-0,062
-430,890	-7,984	0,063	-0,031
-429,876	800,000	0,041	0,124
-428,861	167,371	-0,070	0,074
-427,846	77,158	-0,035	0,027
-426,832	-58,329	-0,021	-0,007
-425,817	-200,000	-0,006	0,081
-424,803	-92,632	-0,205	-0,042
-423,788	281,493	0,023	-0,030
-422,773	225,779	0,050	0,059
-421,759	-60,469	0,146	-0,045
-420,744	577,754	0,057	-0,104
-419,730	800,000	-0,032	0,082
-418,715	-6,492	-0,090	-0,045
-417,701	45,402	-0,088	0,060
-416,686	800,000	-0,044	0,126
-415,671	-200,000	0,020	0,111
-414,657	19,393	-0,115	0,068
-413,642	107,515	-0,086	0,076
-412,628	54,633	0,089	0,063
-411,613	-72,444	0,110	-0,030
-410,598	106,507	0,065	-0,056
-409,584	-200,000	-0,001	0,084
-408,569	-26,287	0,070	0,030
-407,555	-13,958	0,125	-0,059
-406,540	178,303	-0,086	0,092
-405,525	441,640	-0,035	0,057
-404,511	-123,970	0,128	-0,015
-403,496	-200,000	0,000	0,060
-402,482	29,981	-0,091	-0,057
-401,467	-200,000	-0,006	0,070
-400,452	-26,112	0,034	-0,015
-399,438	-200,000	-0,008	0,094
-398,423	-200,000	-0,009	-0,188
-397,409	163,869	-0,106	-0,110
-396,394	-200,000	0,033	-0,110
-395,379	244,028	-0,059	0,072
-394,365	-200,000	0,008	0,075
-393,350	98,452	-0,058	0,049
-392,336	67,360	0,133	-0,100
-391,321	54,914	0,093	0,066
-390,306	-200,000	-0,010	-0,116
-389,292	290,987	-0,076	-0,102
-388,277	230,122	0,067	-0,081
-387,263	119,532	-0,110	-0,100
-386,248	23,602	0,099	0,060
-385,233	-200,000	0,002	-0,125
-384,219	-200,000	-0,010	-0,108
-383,204	-200,000	0,000	-0,040
-382,190	35,889	-0,055	-0,036
-381,175	-32,447	-0,049	-0,020
-380,160	121,507	0,141	-0,129
-379,146	-161,572	0,029	-0,001
-378,131	87,417	-0,078	-0,064
-377,117	-109,813	0,129	0,020
-376,102	-100,640	-0,174	-0,031
-375,088	-200,000	0,026	-0,283
-374,073	38,244	-0,156	0,102
-373,058	-200,000	0,002	-0,034
-372,044	-40,491	0,042	0,016
-371,029	-200,000	0,009	0,112
-370,015	192,448	0,020	0,023
-369,000	15,129	-0,121	-0,070
-367,985	-60,139	-0,165	-0,051
-366,971	-200,000	0,037	-0,171
-365,956	0,206	0,097	-0,051
-364,942	90,222	0,077	-0,063
-363,927	25,734	0,093	-0,057
-362,912	-200,000	-0,030	-0,137
-361,898	695,309	-0,090	-0,174
-360,883	249,021	0,091	-0,113
-359,869	617,689	-0,080	0,147
-358,854	-47,815	0,089	0,032
-357,839	-84,581	0,068	0,016
-356,825	800,000	0,033	0,095
-355,810	-200,000	0,042	0,154
-354,796	34,865	-0,087	0,056
-353,781	-185,898	-0,047	0,000
-352,766	658,236	0,014	-0,027
-351,752	-200,000	-0,002	-0,085
-350,737	217,571	-0,093	-0,109
-349,723	-200,000	-0,000	0,001
-348,708	-200,000	0,009	0,043
-347,693	-200,000	-0,008	-0,045
-346,679	33,520	-0,020	-0,013
-345,664	-93,450	0,137	-0,028
-344,650	38,860	-0,061	0,040
-343,635	608,600	0,034	0,063
-342,620	46,500	0,053	-0,036
-341,606	-166,350	-0,080	-0,002
-340,591	-137,556	0,023	-0,002
-339,577	800,000	-0,058	-0,128
-338,562	-78,362	-0,163	-0,041
-337,548	-200,000	0,014	0,111
-336,533	800,000	0,045	-0,126
-335,518	-19,104	0,069	-0,031
-334,504	-4,864	-0,089	-0,045
-333,489	140,463	0,105	-0,102
-332,475	10,937	-0,067	-0,038
-331,460	17,602	-0,021	0,012
-330,445	-76,121	0,079	-0,020
-329,431	-177,647	0,127	-0,002
-328,416	243,973	0,071	-0,088
-327,402	138,021	-0,024	0,023
-326,387	59,058	-0,140	0,101
-325,372	64,595	-0,153	0,113
-324,358	134,174	-0,025	0,024
-323,343	316,416	0,051	0,070
-322,329	-200,000	-0,035	-0,119
-321,314	-200,000	-0,043	0,196
-320,299	-200,000	0,004	-0,058
-319,285	317,951	0,035	0,049
-318,270	241,307	-0,047	0,058
-317,256	-100,007	-0,039	0,007
-316,241	-200,000	0,006	-0,050
-315,226	7,155	0,130	0,071
-314,212	-200,000	-0,004	-0,119
-313,197	115,181	0,080	0,072
-312,183	529,942	-0,007	-0,012
-311,168	-200,000	-0,022	-0,086
-310,153	-145,783	0,025	0,002
-309,139	82,420	-0,118	-0,094
-308,124	104,133	0,029	0,025
-307,110	-9,450	0,190	0,093
-306,095	608,830	-0,012	0,022
-305,080	17,055	-0,033	-0,019
-304,066	-28,554	0,112	-0,047
-303,051	90,805	-0,060	-0,049
-302,037	800,000	-0,026	-0,068
-301,022	248,521	0,070	-0,087
-300,008	17,934	0,090	0,052
-298,993	800,000	0,034	0,072
-297,978	-33,224	-0,016	-0,006
-296,964	136,939	0,092	0,088
-295,949	-200,000	0,021	-0,083
-294,935	131,133	-0,041	-0,039
-293,920	-200,000	0,001	0,014
-292,905	38,023	-0,066	0,043
-291,891	-200,000	-0,001	-0,037
-290,876	-41,725	-0,076	0,028
-289,862	-54,901	-0,126	-0,041
-288,847	-200,000	0,007	0,077
-287,832	79,323	0,073	-0,057
-286,818	-159,728	0,056	-0,002
-285,803	560,054	-0,032	0,057
-284,789	-200,000	-0,002	0,083
-283,774	545,330	0,050	-0,088
-282,759	-7,931	0,083	-0,041
-281,745	100,794	-0,032	0,027
-280,730	-61,817	-0,094	0,029
-279,716	50,485	0,034	-0,024
-278,701	139,033	-0,066	-0,063
-277,686	30,458	0,093	0,058
-276,672	-200,000	0,038	-0,156
-275,657	-62,133	0,114	0,034
-274,643	23,955	-0,118	0,071
-273,628	376,718	-0,038	0,057
-272,613	395,281	-0,089	-0,137
-271,599	218,276	-0,064	0,075
-270,584	206,739	0,107	0,122
-269,570	79,493	0,031	-0,025
-268,555	-200,000	0,030	0,098
-267,540	-30,024	-0,059	0,025
-266,526	-200,000	0,009	-0,036
-265,511	164,495	-0,081	0,084
-264,497	-200,000	-0,021	-0,149
-263,482	178,852	0,110	0,117
-262,467	237,647	0,026	0,031
-261,453	-89,111	-0,104	0,022
-260,438	-41,008	0,123	-0,046
-259,424	-200,000	-0,002	-0,040
-258,409	181,730	-0,071	-0,077
-257,395	538,448	-0,020	-0,034
-256,380	-200,000	0,007	-0,052
-255,365	800,000	0,036	-0,074
-254,351	45,691	0,070	-0,047
-253,336	-200,000	-0,014	0,076
-252,322	-57,295	-0,076	-0,024
-251,307	800,000	-0,054	-0,125
-250,292	694,256	0,073	-0,141
-249,278	41,509	0,076	-0,051
-248,263	800,000	0,040	0,085
-247,249	-200,000	-0,004	0,079
-246,234	-200,000	0,023	0,126
-245,219	-67,157	-0,036	0,010
-244,205	489,896	-0,096	-0,161
-243,190	-57,672	-0,092	0,029
-242,176	800,000	-0,027	0,087
-241,161	725,263	-0,041	-0,080
-240,146	-200,000	-0,004	0,098
-239,132	-133,310	0,124	-0,011
-238,117	-200,000	-0,069	-0,249
-237,103	82,704	-0,113	-0,090
-236,088	269,543	-0,059	0,076
-235,073	800,000	0,041	0,102
-234,059	270,938	0,062	0,080
-233,044	-107,851	-0,136	-0,021
-232,030	-134,322	-0,097	-0,009
-231,015	620,354	0,044	0,081
-230,000	262,517	-0,036	-0,046
-228,986	92,075	0,114	-0,094
-227,971	-110,330	-0,078	-0,012
-226,957	-103,435	0,068	-0,012
-225,942	221,567	0,008	0,010
-224,927	155,525	0,126	0,127
-223,913	9,754	-0,100	-0,055
-222,898	-133,291	-0,121	-0,011
-221,884	387,841	-0,069	-0,104
-220,869	-46,703	0,075	-0,027
-219,855	495,150	0,079	0,132
-218,840	-29,927	-0,087	0,036
-217,825	800,000	0,034	0,077
-216,811	-23,645	0,145	0,063
-215,796	29,609	-0,018	0,011
-214,782	-200,000	0,000	-0,149
-213,767	-22,976	-0,033	-0,014
-212,752	463,741	0,080	0,131
-211,738	96,017	0,081	0,067
-210,723	800,000	-0,024	-0,054
-209,709	4,063	0,015	-0,008
-208,694	82,299	-0,090	0,071
-207,679	-200,000	-0,022	-0,070
-206,665	-118,317	-0,085	-0,011
-205,650	-70,864	0,122	-0,033
-204,636	540,022	-0,033	-0,058
-203,621	-200,000	-0,003	0,128
-202,606	482,117	-0,038	0,063
-201,592	417,850	0,042	0,066
-200,577	-159,503	0,106	0,004
-199,563	800,000	-0,028	-0,089
-198,548	-64,480	0,105	-0,031
-197,533	800,000	0,012	0,031
-196,519	31,570	-0,053	-0,033
-195,504	-37,998	0,115	0,044
-194,490	800,000	0,034	-0,083
-193,475	767,921	-0,015	-0,030
-192,460	593,675	-0,033	-0,060
-191,446	-20,557	-0,046	-0,020
-190,431	-95,344	-0,052	-0,010
-189,417	308,676	-0,049	0,068
-188,402	175,138	-0,065	0,068
-187,387	-39,410	-0,051	-0,019
-186,373	-200,000	0,000	-0,080
-185,358	-74,498	-0,063	-0,016
-184,344	-200,000	-0,009	-0,060
-183,329	143,456	0,047	0,045
-182,315	527,141	-0,069	0,118
-181,300	-13,270	0,124	-0,058
-180,285	-137,264	0,108	-0,009
-179,271	463,253	-0,048	0,078
-178,256	-200,000	-0,008	0,035
-177,242	-34,232	0,079	0,031
-176,227	143,588	-0,135	0,132
-175,212	151,097	0,132	0,131
-174,198	-49,664	0,021	-0,007
-173,183	800,000	-0,070	-0,167
-172,169	185,698	0,024	0,026
-171,154	-78,156	-0,077	-0,019
-170,139	-129,529	-0,115	0,011
-169,125	446,353	-0,022	0,035
-168,110	-172,057	-0,037	0,001
-167,096	-82,199	-0,168	0,040
-166,081	-54,539	0,043	0,014
-165,066	80,053	-0,083	0,065
-164,052	10,397	-0,140	0,078
-163,037	-200,000	-0,015	-0,072
-162,023	-129,647	0,135	-0,013
-161,008	504,905	-0,091	0,154
-159,993	-200,000	-0,001	0,085
-158,979	800,000	-0,077	0,167
-157,964	288,779	0,101	0,133
-156,950	-200,000	0,009	-0,037
-155,935	800,000	0,017	0,038
-154,920	800,000	-0,039	-0,112
-153,906	-160,024	0,130	0,005
-152,891	97,217	-0,074	0,062
-151,877	784,275	-0,072	-0,144
-150,862	-200,000	-0,014	-0,098
-149,847	39,774	0,067	-0,044
-148,833	-62,019	0,133	0,040
-147,818	-9,553	0,186	0,090
-146,804	58,577	-0,030	-0,022
-145,789	9,942	0,141	-0,078
-144,775	-200,000	-0,028	-0,102
-143,760	78,562	-0,148	0,115
-142,745	197,095	0,084	0,093
-141,731	68,501	-0,081	0,060
-140,716	37,732	0,096	0,062
-139,702	44,938	-0,084	0,056
-138,687	561,566	0,060	0,107
-137,672	-82,958	-0,145	0,034
-136,658	77,365	0,059	-0,046
-135,643	-91,791	-0,072	0,015
-134,629	81,353	0,066	-0,052
-133,614	-133,458	0,085	0,008
-132,599	278,145	0,142	0,184
-131,585	70,199	-0,073	0,055
-130,570	526,776	-0,016	-0,028
-129,556	11,655	-0,067	0,037
-128,541	-67,897	-0,086	0,024
-127,526	800,000	0,075	0,208
-126,512	309,614	0,062	0,085
-125,497	-18,286	0,042	0,019
-124,483	132,910	-0,042	-0,040
-123,468	-18,718	-0,043	0,019
-122,453	-100,737	0,077	-0,014
-121,439	800,000	-0,098	-0,203
-120,424	309,218	0,061	0,083
-119,410	-200,000	-0,003	0,010
-118,395	98,851	0,114	0,096
