DTS Sentinel unit serial number:	SN410029Multiplexer serial number:	ORYXHardware model number:	OX2-SRSoftware version number:	ORYX F/W v4,00 Oryx Data Collector v3.7.2.0data status	okinstallation	B6 Nyhavnadifferential loss correction	single-endedforward channel	channel 2reverse channel	N/Adate	2023/12/10time	14:55:08forward acquisition time	300,00reverse acquisition time	0,00gamma	499,1914k internal	0,3122k external	0,3122temperature offset calibration	1,0000default loss term (dB/km)	0,3820temperature slope calibration	1,0000multiplexer offset coefficient	1,0000multiplexer slope coefficient	1,0000fibre end	0,00T internal ref (°C)	22,54T ext. ref 1 (°C)	5,99T ext. ref 2 (°C)	5,99length (m)	temperature (°C)	Stokes	anti-Stokes-744,400	-200,000	0,019	-0,065
-743,385	85,948	-0,141	0,115
-742,371	-58,589	0,082	-0,026
-741,356	37,303	-0,246	0,162
-740,342	-200,000	0,002	0,112
-739,327	12,917	-0,213	0,122
-738,312	-200,000	0,004	-0,065
-737,298	400,312	-0,110	0,173
-736,283	49,647	-0,020	0,014
-735,269	-96,982	-0,230	0,045
-734,254	800,000	0,003	0,009
-733,239	-47,095	-0,421	-0,152
-732,225	-92,979	0,144	0,030
-731,210	800,000	-0,023	0,073
-730,196	760,882	0,036	-0,074
-729,181	-200,000	0,017	-0,092
-728,167	800,000	-0,039	-0,114
-727,152	-89,301	-0,064	-0,014
-726,137	-16,182	-0,100	-0,047
-725,123	800,000	-0,041	-0,121
-724,108	43,595	-0,134	-0,091
-723,094	106,770	-0,043	0,038
-722,079	7,861	-0,104	0,058
-721,064	-89,862	-0,099	-0,021
-720,050	403,313	-0,040	-0,063
-719,035	0,544	0,078	-0,042
-718,021	-200,000	0,007	0,115
-717,006	518,432	-0,009	0,016
-715,991	-200,000	-0,001	0,059
-714,977	-96,351	-0,196	-0,038
-713,962	93,516	-0,042	-0,035
-712,948	65,161	0,059	-0,044
-711,933	744,668	-0,077	0,154
-710,918	-142,098	0,087	-0,006
-709,904	-183,971	-0,054	-0,001
-708,889	381,449	0,117	-0,180
-707,875	-200,000	0,003	0,126
-706,860	264,820	-0,064	-0,083
-705,845	5,850	0,014	0,008
-704,831	-200,000	0,025	0,089
-703,816	479,951	0,016	-0,027
-702,802	-200,000	0,006	0,073
-701,787	800,000	-0,025	-0,081
-700,772	-147,322	-0,219	-0,014
-699,758	101,484	-0,035	-0,030
-698,743	-100,912	0,103	-0,019
-697,729	188,874	0,091	0,102
-696,714	-146,205	0,059	0,004
-695,699	196,682	-0,032	-0,036
-694,685	129,842	-0,037	-0,036
-693,670	686,128	-0,008	0,015
-692,656	-80,070	-0,091	0,022
-691,641	-200,000	-0,007	-0,036
-690,627	-200,000	-0,018	0,076
-689,612	176,781	0,099	-0,108
-688,597	-200,000	0,002	-0,100
-687,583	-36,157	-0,042	0,017
-686,568	13,394	0,035	0,020
-685,554	-9,089	-0,106	0,052
-684,539	-200,000	0,040	-0,142
-683,524	402,954	0,030	0,047
-682,510	52,756	0,052	0,037
-681,495	800,000	0,018	-0,050
-680,481	90,318	-0,076	-0,063
-679,466	-169,693	0,082	-0,002
-678,451	-143,483	0,057	0,004
-677,437	800,000	0,019	0,058
-676,422	-40,712	-0,072	-0,027
-675,408	16,279	-0,019	0,011
-674,393	-149,178	-0,011	-0,001
-673,378	-200,000	-0,006	0,037
-672,364	-200,000	-0,019	0,068
-671,349	472,906	-0,028	0,048
-670,335	-10,473	-0,074	-0,036
-669,320	-200,000	-0,015	0,052
-668,305	-16,366	0,130	0,061
-667,291	-28,646	0,087	-0,037
-666,276	57,348	-0,180	0,131
-665,262	278,101	-0,016	0,021
-664,247	-200,000	-0,015	0,065
-663,232	-113,725	0,099	-0,014
-662,218	117,235	0,082	-0,075
-661,203	249,469	-0,055	-0,070
-660,189	-132,558	-0,054	-0,005
-659,174	655,471	-0,045	-0,085
-658,159	-12,733	-0,104	-0,050
-657,145	-148,272	-0,136	0,008
-656,130	3,966	0,109	-0,059
-655,116	112,056	0,080	-0,071
-654,101	-200,000	0,008	0,083
-653,086	-67,767	-0,073	-0,021
-652,072	800,000	0,019	-0,041
-651,057	92,690	0,061	-0,051
-650,043	-200,000	-0,034	-0,129
-649,028	15,757	0,148	-0,086
-648,014	502,461	0,028	-0,048
-646,999	-151,688	-0,048	-0,003
-645,984	-200,000	-0,000	0,034
-644,970	263,198	0,003	0,004
-643,955	-107,100	-0,168	-0,027
-642,941	89,436	-0,111	0,092
-641,926	-86,915	-0,063	-0,014
-640,911	483,344	0,065	0,110
-639,897	-200,000	-0,037	-0,161
-638,882	-200,000	0,003	0,108
-637,868	-200,000	-0,007	0,100
-636,853	87,635	0,068	0,055
-635,838	33,005	-0,083	0,053
-634,824	323,604	-0,016	0,023
-633,809	216,505	0,064	-0,075
-632,795	-200,000	0,011	0,039
-631,780	800,000	-0,022	0,064
-630,765	194,731	-0,079	-0,089
-629,751	800,000	0,023	0,050
-628,736	-147,937	-0,130	-0,008
-627,722	-106,775	-0,066	0,011
-626,707	-200,000	-0,009	-0,053
-625,692	129,323	-0,068	-0,064
-624,678	-200,000	0,008	0,072
-623,663	137,407	-0,063	0,061
-622,649	-200,000	-0,013	-0,093
-621,634	-30,634	0,046	0,019
-620,619	23,767	-0,042	-0,026
-619,605	-200,000	0,005	0,056
-618,590	344,469	-0,027	0,040
-617,576	-200,000	0,022	0,151
-616,561	-77,121	0,115	0,029
-615,546	-118,386	-0,135	0,018
-614,532	82,868	0,127	-0,102
-613,517	48,971	0,054	-0,038
-612,503	-200,000	-0,033	0,136
-611,488	-200,000	0,025	0,111
-610,474	-120,099	0,050	-0,006
-609,459	23,677	0,105	0,064
-608,444	-95,300	-0,073	-0,014
-607,430	274,902	-0,052	-0,068
-606,415	28,843	0,065	0,041
-605,401	800,000	-0,036	-0,101
-604,386	-200,000	0,008	0,071
-603,371	-200,000	-0,025	0,104
-602,357	1,159	-0,131	-0,070
-601,342	125,690	-0,098	0,092
-600,328	-200,000	0,010	0,060
-599,313	-200,000	-0,013	0,067
-598,298	-200,000	-0,007	0,090
-597,284	60,948	-0,020	0,015
-596,269	-200,000	0,008	0,103
-595,255	381,132	0,015	-0,022
-594,240	800,000	0,048	-0,100
-593,225	-200,000	0,014	0,092
-592,211	41,381	0,068	0,046
-591,196	240,934	-0,034	0,043
-590,182	78,108	-0,063	0,050
-589,167	384,360	0,018	0,028
-588,152	-200,000	0,016	-0,171
-587,138	492,960	0,024	-0,042
-586,123	-200,000	-0,036	-0,141
-585,109	-200,000	-0,015	-0,183
-584,094	-200,000	-0,006	-0,036
-583,079	306,459	0,020	-0,028
-582,065	210,890	-0,079	0,093
-581,050	59,208	0,065	0,047
-580,036	207,376	0,090	-0,104
-579,021	152,020	-0,032	0,032
-578,006	-41,287	-0,130	-0,049
-576,992	800,000	-0,047	-0,122
-575,977	-50,714	-0,035	0,012
-574,963	-200,000	0,011	-0,148
-573,948	-62,816	-0,056	0,017
-572,934	-200,000	0,001	-0,041
-571,919	-63,613	-0,102	-0,031
-570,904	-200,000	-0,029	-0,154
-569,890	-155,065	-0,138	0,007
-568,875	167,960	0,045	-0,047
-567,861	-200,000	0,022	0,096
-566,846	-138,136	0,182	0,015
-565,831	-200,000	0,019	0,186
-564,817	-98,261	0,083	0,016
-563,802	-18,066	-0,148	-0,068
-562,788	-200,000	0,021	-0,133
-561,773	297,621	0,055	0,074
-560,758	564,505	0,072	0,129
-559,744	-200,000	-0,000	-0,097
-558,729	-13,739	0,086	-0,041
-557,715	-186,035	-0,020	0,000
-556,700	73,709	-0,100	-0,077
-555,685	165,726	0,107	-0,113
-554,671	-200,000	0,017	0,086
-553,656	-200,000	-0,020	-0,105
-552,642	-169,241	0,117	-0,003
-551,627	785,892	0,055	0,113
-550,612	199,009	-0,157	0,178
-549,598	-200,000	-0,053	-0,175
-548,583	-200,000	0,005	0,034
-547,569	-125,533	0,160	0,018
-546,554	-200,000	0,043	0,188
-545,539	-44,762	-0,085	0,031
-544,525	202,159	-0,076	-0,087
-543,510	583,033	-0,053	-0,096
-542,496	-186,372	-0,074	-0,001
-541,481	725,366	-0,037	0,073
-540,466	-200,000	0,007	-0,073
-539,452	82,842	-0,055	0,044
-538,437	253,038	-0,074	0,093
-537,423	800,000	0,040	0,095
-536,408	23,309	0,038	-0,023
-535,393	800,000	-0,035	-0,094
-534,379	-60,508	-0,069	-0,021
-533,364	-200,000	0,007	-0,042
-532,350	800,000	-0,033	-0,090
-531,335	-200,000	-0,014	0,110
-530,321	-200,000	-0,014	0,240
-529,306	-200,000	-0,007	0,104
-528,291	-44,410	-0,130	-0,048
-527,277	528,239	-0,088	-0,154
-526,262	800,000	0,045	-0,129
-525,248	632,748	0,049	0,092
-524,233	290,320	-0,087	-0,117
-523,218	276,559	0,018	-0,023
-522,204	-200,000	0,021	0,098
-521,189	498,812	-0,027	0,045
-520,175	-200,000	0,012	-0,063
-519,160	689,565	0,092	-0,180
-518,145	234,689	0,027	-0,033
-517,131	78,458	0,099	0,078
-516,116	800,000	0,020	-0,047
-515,102	-15,052	-0,081	0,038
-514,087	800,000	0,040	0,105
-513,072	-109,605	-0,108	0,017
-512,058	76,353	0,110	0,086
-511,043	583,556	0,068	-0,124
-510,029	-70,294	0,112	-0,031
-509,014	33,956	-0,115	0,074
-507,999	-178,272	-0,185	-0,003
-506,985	-10,867	-0,054	0,026
-505,970	559,754	0,010	-0,017
-504,956	-117,115	-0,050	0,007
-503,941	560,807	0,107	0,191
-502,926	-53,890	0,125	-0,042
-501,912	800,000	0,006	-0,014
-500,897	800,000	0,043	0,129
-499,883	146,022	-0,106	-0,105
-498,868	-88,930	-0,030	-0,006
-497,853	-14,888	-0,061	-0,029
-496,839	65,978	0,081	0,060
-495,824	153,294	-0,051	-0,052
-494,810	-161,584	0,122	-0,005
-493,795	800,000	0,043	-0,136
-492,781	-200,000	-0,019	-0,124
-491,766	311,574	0,011	0,015
-490,751	800,000	0,054	-0,171
-489,737	-121,638	0,160	0,019
-488,722	800,000	0,028	-0,089
-487,708	-147,082	-0,011	-0,001
-486,693	-53,188	0,085	0,029
-485,678	-1,957	-0,041	0,021
-484,664	-200,000	0,012	-0,100
-483,649	-200,000	-0,010	-0,119
-482,635	144,689	-0,046	-0,045
-481,620	638,944	-0,042	0,079
-480,605	-36,029	0,156	0,062
-479,591	-64,819	-0,094	-0,028
-478,576	399,195	-0,012	-0,018
-477,562	763,603	-0,072	-0,145
-476,547	800,000	0,008	-0,022
-475,532	42,353	0,190	-0,127
-474,518	-113,278	-0,049	0,007
-473,503	-139,952	0,217	-0,017
-472,489	-200,000	0,008	0,057
-471,474	166,711	-0,053	0,056
-470,459	684,777	-0,037	0,071
-469,445	800,000	-0,028	-0,081
-468,430	-148,891	-0,098	-0,006
-467,416	-200,000	0,032	-0,118
-466,401	63,923	-0,070	0,052
-465,386	105,122	-0,081	0,070
-464,372	-200,000	0,006	0,027
-463,357	311,203	0,029	0,040
-462,343	-200,000	-0,030	-0,174
-461,328	-59,065	-0,041	-0,013
-460,313	-200,000	-0,026	-0,108
-459,299	-200,000	0,014	-0,044
-458,284	-200,000	0,010	0,076
-457,270	-200,000	0,016	0,069
-456,255	291,652	0,098	0,132
-455,241	294,199	-0,054	-0,073
-454,226	-97,547	0,060	0,011
-453,211	-200,000	-0,010	0,045
-452,197	800,000	0,018	-0,053
-451,182	-18,603	-0,019	-0,009
-450,168	203,621	-0,080	0,091
-449,153	234,951	0,098	-0,120
-448,138	-33,568	-0,078	0,032
-447,124	-163,740	-0,076	0,003
-446,109	242,574	0,076	0,094
-445,095	162,145	0,047	0,048
-444,080	800,000	-0,020	0,044
-443,065	725,083	0,051	-0,101
-442,051	-44,460	-0,137	-0,050
-441,036	68,868	0,082	-0,062
-440,022	800,000	0,008	-0,025
-439,007	-200,000	0,009	-0,063
-437,992	193,809	0,098	-0,109
-436,978	-200,000	-0,002	-0,056
-435,963	47,388	0,114	0,078
-434,949	-200,000	-0,012	-0,068
-433,934	-77,530	-0,158	-0,040
-432,919	-200,000	0,014	-0,142
-431,905	-27,279	0,155	0,066
-430,890	-18,673	0,078	0,036
-429,876	-94,978	0,144	-0,028
-428,861	-200,000	0,011	-0,070
-427,846	366,682	-0,107	0,160
-426,832	-56,574	-0,139	-0,045
-425,817	114,437	-0,023	-0,020
-424,803	800,000	-0,003	-0,008
-423,788	-16,279	0,045	0,021
-422,773	-113,885	0,021	0,003
-421,759	-200,000	-0,025	0,106
-420,744	800,000	0,011	0,035
-419,730	-200,000	0,003	-0,019
-418,715	24,242	0,011	-0,006
-417,701	116,532	0,102	-0,092
-416,686	140,181	0,081	-0,078
-415,671	223,102	-0,036	-0,042
-414,657	71,745	0,103	-0,079
-413,642	277,857	-0,057	-0,075
-412,628	-200,000	0,000	-0,022
-411,613	-48,503	-0,010	-0,004
-410,598	-200,000	0,022	-0,081
-409,584	26,801	0,099	-0,061
-408,569	466,460	-0,027	-0,045
-407,555	19,084	0,084	-0,050
-406,540	-75,143	-0,110	-0,029
-405,525	160,198	-0,066	-0,068
-404,511	92,837	-0,064	0,053
-403,496	800,000	-0,088	-0,212
-402,482	-83,847	0,052	0,012
-401,467	285,202	-0,029	0,038
-400,452	-200,000	0,005	0,057
-399,438	458,022	0,045	-0,073
-398,423	-200,000	-0,018	0,079
-397,409	-79,596	-0,122	-0,030
-396,394	-123,916	0,067	0,008
-395,379	-200,000	0,003	0,047
-394,365	-80,261	-0,071	-0,017
-393,350	-108,217	0,136	0,021
-392,336	-200,000	0,002	0,035
-391,321	-48,828	-0,081	-0,029
-390,306	-200,000	-0,016	0,055
-389,292	-200,000	-0,002	0,077
-388,277	-200,000	-0,007	0,129
-387,263	-63,263	0,072	0,022
-386,248	-200,000	0,041	-0,170
-385,233	-116,147	-0,038	0,005
-384,219	-77,060	0,085	0,022
-383,204	-200,000	0,016	-0,055
-382,190	-200,000	0,002	-0,083
-381,175	-76,139	0,070	-0,018
-380,160	31,392	-0,045	0,028
-379,146	2,111	0,064	0,034
-378,131	800,000	-0,021	-0,063
-377,117	-200,000	-0,019	0,095
-376,102	39,984	-0,057	-0,038
-375,088	377,784	-0,053	-0,080
-374,073	800,000	0,040	0,097
-373,058	320,473	0,039	0,055
-372,044	-200,000	0,026	0,186
-371,029	-103,094	-0,054	0,009
-370,015	-200,000	-0,005	0,152
-369,000	-70,731	-0,055	0,015
-367,985	-14,881	-0,120	-0,056
-366,971	124,232	0,090	-0,083
-365,956	800,000	-0,025	0,070
-364,942	800,000	-0,048	0,129
-363,927	800,000	0,055	0,128
-362,912	161,552	-0,020	0,021
-361,898	748,853	0,051	-0,102
-360,883	313,212	-0,113	-0,156
-359,869	-200,000	0,026	0,098
-358,854	-200,000	0,007	0,111
-357,839	286,908	0,051	0,067
-356,825	-19,208	0,009	-0,004
-355,810	-200,000	0,014	-0,106
-354,796	138,233	-0,026	-0,025
-353,781	-200,000	0,005	-0,064
-352,766	2,327	0,114	0,061
-351,752	-179,298	0,061	0,001
-350,737	800,000	0,009	0,024
-349,723	265,619	0,144	0,185
-348,708	-187,185	0,066	0,001
-347,693	-200,000	0,000	-0,047
-346,679	-105,142	-0,060	0,010
-345,664	-158,990	-0,111	-0,005
-344,650	-200,000	-0,004	-0,033
-343,635	-200,000	0,001	0,067
-342,620	79,602	-0,022	0,017
-341,606	800,000	-0,018	0,054
-340,591	-80,628	-0,226	-0,055
-339,577	-32,260	0,053	-0,022
-338,562	800,000	-0,042	-0,088
-337,548	199,364	-0,029	0,033
-336,533	-200,000	0,004	0,134
-335,518	800,000	-0,066	0,176
-334,504	344,011	0,054	-0,078
-333,489	37,619	-0,038	0,025
-332,475	745,539	-0,045	0,089
-331,460	201,500	-0,065	0,074
-330,445	-200,000	-0,008	-0,030
-329,431	205,087	-0,082	-0,093
-328,416	520,614	-0,078	-0,136
-327,402	74,308	-0,080	-0,062
-326,387	251,790	-0,071	-0,088
-325,372	203,214	0,029	-0,033
-324,358	112,828	-0,066	0,058
-323,343	-128,646	0,061	-0,006
-322,329	-200,000	0,007	-0,037
-321,314	-61,881	0,091	0,028
-320,299	135,363	0,060	-0,057
-319,285	-200,000	-0,011	-0,056
-318,270	-186,692	0,128	0,001
-317,256	42,228	0,065	0,043
-316,241	-200,000	-0,006	-0,063
-315,226	260,652	0,067	0,085
-314,212	-131,133	0,108	0,010
-313,197	98,440	-0,069	0,059
-312,183	171,369	-0,039	0,041
-311,168	-37,984	-0,077	0,030
-310,153	278,557	-0,114	0,149
-309,139	-143,133	0,082	0,006
-308,124	3,076	-0,130	-0,069
-307,110	62,806	0,074	-0,054
-306,095	172,923	0,031	0,033
-305,080	-71,870	-0,172	-0,047
-304,066	-102,296	-0,120	-0,021
-303,051	709,370	-0,027	-0,052
-302,037	-200,000	0,010	-0,109
-301,022	42,007	0,045	-0,030
-300,008	206,301	0,096	0,110
-298,993	-200,000	0,019	0,190
-297,978	800,000	0,029	-0,069
-296,964	15,943	-0,096	-0,055
-295,949	496,968	-0,069	-0,118
-294,935	-71,902	-0,135	0,037
-293,920	800,000	-0,017	-0,043
-292,905	225,710	0,039	0,047
-291,891	138,092	0,062	0,059
-290,876	-200,000	0,001	-0,152
-289,862	-200,000	0,037	-0,171
-288,847	110,514	-0,185	-0,163
-287,832	-200,000	-0,007	0,043
-286,818	-200,000	-0,008	-0,143
-285,803	-30,268	-0,038	-0,016
-284,789	200,455	-0,024	-0,027
-283,774	800,000	0,021	0,045
-282,759	-147,590	0,132	0,008
-281,745	-92,955	-0,047	-0,010
-280,730	270,007	-0,068	0,087
-279,716	-99,387	0,048	0,009
-278,701	100,615	-0,143	-0,122
-277,686	-21,975	0,059	0,026
-276,672	-200,000	0,004	-0,032
-275,657	255,819	0,038	-0,048
-274,643	800,000	-0,032	0,068
-273,628	-65,988	-0,034	0,010
-272,613	57,590	0,044	-0,031
-271,599	-142,983	0,153	0,011
-270,584	227,216	0,018	-0,021
-269,570	800,000	-0,045	-0,118
-268,555	-106,467	-0,063	-0,010
-267,540	84,896	0,019	0,015
-266,526	-2,927	0,004	-0,002
-265,511	784,305	0,065	0,130
-264,497	-166,525	0,094	0,003
-263,482	-200,000	-0,006	-0,053
-262,467	-15,329	0,031	0,014
-261,453	279,352	0,023	-0,030
-260,438	800,000	-0,057	-0,117
-259,424	-55,249	0,069	0,023
-258,409	-200,000	0,041	-0,166
-257,395	-200,000	0,008	0,044
-256,380	-200,000	-0,007	0,146
-255,365	-200,000	0,018	-0,092
-254,351	-54,321	0,038	0,013
-253,336	-200,000	-0,001	-0,046
-252,322	163,273	-0,016	-0,017
-251,307	-40,537	0,096	-0,036
-250,292	-90,809	-0,162	-0,034
-249,278	-91,437	0,072	0,015
-248,263	800,000	-0,024	0,058
-247,249	-200,000	0,009	0,119
-246,234	114,147	0,059	0,053
-245,219	-131,129	-0,074	0,007
-244,205	261,120	0,043	-0,055
-243,190	800,000	0,009	0,023
-242,176	120,288	0,141	0,128
-241,161	800,000	0,027	0,080
-240,146	-31,653	0,106	0,043
-239,132	361,799	0,065	0,095
-238,117	-27,160	-0,090	0,038
-237,103	800,000	-0,023	-0,071
-236,088	607,854	-0,055	0,100
-235,073	-141,811	0,141	0,010
-234,059	-129,886	-0,025	0,002
-233,044	68,734	0,056	0,042
-232,030	275,711	0,041	0,054
-231,015	162,847	-0,062	-0,063
-230,000	75,017	-0,041	-0,032
-228,986	64,029	-0,107	-0,079
-227,971	-139,366	-0,027	-0,002
-226,957	6,095	0,116	0,062
-225,942	127,601	0,029	0,027
-224,927	138,770	-0,040	0,038
-223,913	-200,000	-0,003	0,033
-222,898	-18,077	0,087	-0,040
-221,884	-42,606	0,111	0,041
-220,869	-200,000	0,037	0,127
-219,855	-123,868	-0,065	-0,007
-218,840	-35,098	0,067	0,027
-217,825	218,042	-0,048	-0,056
-216,811	-200,000	0,009	0,039
-215,796	-83,325	-0,162	0,038
-214,782	-2,016	-0,053	-0,027
-213,767	-17,325	0,100	0,046
-212,752	-200,000	0,004	0,084
-211,738	-124,846	0,067	-0,007
-210,723	16,301	0,039	0,022
-209,709	-83,481	0,082	-0,019
-208,694	-200,000	0,009	0,029
-207,679	239,633	0,032	-0,038
-206,665	118,483	0,101	-0,091
-205,650	635,547	-0,042	0,079
-204,636	48,008	0,089	0,061
-203,621	-129,247	0,087	-0,009
-202,606	-133,516	-0,099	0,009
-201,592	-200,000	0,016	0,077
-200,577	-48,091	-0,126	0,044
-199,563	193,799	0,069	0,077
-198,548	355,421	-0,020	0,029
-197,533	-9,035	0,026	-0,012
-196,519	293,149	0,064	0,086
-195,504	-61,017	-0,017	-0,005
-194,490	77,406	-0,104	-0,081
-193,475	-200,000	-0,004	0,080
-192,460	800,000	-0,025	-0,051
-191,446	-200,000	0,016	0,057
-190,431	-95,006	0,276	0,054
-189,417	-200,000	0,001	-0,076
-188,402	-200,000	0,040	-0,147
-187,387	-59,584	0,185	-0,058
-186,373	-200,000	-0,003	0,078
-185,358	800,000	-0,016	0,033
-184,344	-16,796	0,056	-0,026
-183,329	-200,000	0,005	0,039
-182,315	-135,668	0,123	0,010
-181,300	5,272	-0,063	0,034
-180,285	-35,092	-0,177	-0,070
-179,271	800,000	-0,031	0,069
-178,256	175,443	0,081	0,085
-177,242	-200,000	0,024	0,092
-176,227	-135,580	-0,066	-0,006
-175,212	-70,441	0,093	-0,025
-174,198	-200,000	0,003	0,028
-173,183	161,351	0,019	0,019
-172,169	-110,534	-0,072	0,011
-171,154	800,000	-0,061	-0,146
-170,139	-200,000	-0,007	0,029
-169,125	-172,838	0,092	0,002
-168,110	-91,872	-0,093	-0,019
-167,096	-200,000	-0,001	0,021
-166,081	-161,919	-0,012	-0,000
-165,066	21,850	-0,092	0,054
-164,052	-73,629	-0,060	-0,016
-163,037	150,701	0,103	0,102
-162,023	-200,000	0,009	-0,082
-161,008	-12,885	0,076	0,036
-159,993	800,000	0,015	0,033
-158,979	19,928	-0,128	-0,075
-157,964	-200,000	-0,001	0,035
-156,950	69,938	-0,048	0,036
-155,935	-36,348	-0,143	0,056
-154,920	68,763	0,104	-0,078
-153,906	251,815	-0,092	0,114
-152,891	365,233	-0,015	-0,022
-151,877	-200,000	0,032	0,109
-150,862	800,000	0,051	0,118
-149,847	-41,503	0,072	0,027
-148,833	228,349	0,047	0,056
-147,818	-36,040	0,036	-0,014
-146,804	-78,025	-0,113	0,028
-145,789	126,235	0,071	0,065
-144,775	719,260	0,050	0,098
-143,760	74,931	-0,045	-0,034
-142,745	226,099	0,033	0,039
-141,731	426,647	0,055	-0,086
-140,716	-134,865	0,073	0,006
-139,702	-200,000	-0,011	0,049
-138,687	52,648	0,041	0,029
-137,672	9,339	-0,157	0,086
-136,658	-200,000	-0,021	-0,082
-135,643	-110,466	-0,131	0,020
-134,629	-200,000	-0,009	-0,051
-133,614	2,654	0,150	-0,079
-132,599	-200,000	0,011	0,048
-131,585	-146,922	0,081	-0,005
-130,570	-83,726	0,112	-0,026
-129,556	57,878	-0,060	-0,043
-128,541	-200,000	0,034	-0,125
-127,526	305,046	0,015	0,021
-126,512	-115,164	0,086	-0,012
-125,497	800,000	-0,009	0,023
-124,483	-200,000	0,004	0,045
-123,468	-200,000	0,023	0,088
-122,453	375,863	-0,048	-0,072
-121,439	-85,138	0,076	0,017
-120,424	800,000	-0,033	-0,097
-119,410	102,696	0,075	0,064
