DTS Sentinel unit serial number:	SN410029Multiplexer serial number:	ORYXHardware model number:	OX2-SRSoftware version number:	ORYX F/W v4,00 Oryx Data Collector v3.7.2.0data status	okinstallation	B6 Nyhavnadifferential loss correction	single-endedforward channel	channel 2reverse channel	N/Adate	2023/12/09time	08:40:08forward acquisition time	300,00reverse acquisition time	0,00gamma	499,1914k internal	0,3139k external	0,3139temperature offset calibration	1,0000default loss term (dB/km)	0,3820temperature slope calibration	1,0000multiplexer offset coefficient	1,0000multiplexer slope coefficient	1,0000fibre end	0,00T internal ref (°C)	18,48T ext. ref 1 (°C)	1,93T ext. ref 2 (°C)	1,93length (m)	temperature (°C)	Stokes	anti-Stokes-744,400	18,069	0,183	-0,108
-743,385	-162,491	-0,294	0,011
-742,371	-200,000	-0,009	-0,064
-741,356	-23,814	-0,222	0,098
-740,342	336,214	0,115	0,166
-739,327	-142,805	-0,345	-0,025
-738,312	-72,092	0,197	-0,054
-737,298	-10,049	-0,187	0,092
-736,283	173,911	0,064	-0,069
-735,269	-81,204	-0,305	0,074
-734,254	800,000	0,039	-0,101
-733,239	-93,335	-0,397	-0,081
-732,225	-89,357	0,017	0,004
-731,210	436,246	-0,010	-0,016
-730,196	143,038	-0,053	0,052
-729,181	352,853	-0,018	-0,027
-728,167	159,515	-0,168	-0,174
-727,152	-19,720	-0,057	0,026
-726,137	800,000	-0,082	-0,182
-725,123	800,000	-0,029	-0,089
-724,108	-200,000	-0,007	-0,088
-723,094	50,302	-0,144	-0,100
-722,079	44,555	-0,049	-0,033
-721,064	-78,813	-0,068	-0,017
-720,050	306,907	-0,030	0,041
-719,035	-200,000	-0,008	-0,027
-718,021	117,640	0,084	0,077
-717,006	-78,348	-0,056	0,014
-715,991	-24,969	-0,108	0,047
-714,977	-13,101	-0,009	-0,004
-713,962	-137,628	-0,120	-0,010
-712,948	39,030	-0,110	-0,073
-711,933	60,105	-0,132	-0,097
-710,918	13,838	0,085	-0,049
-709,904	-200,000	0,003	-0,084
-708,889	289,296	-0,075	-0,102
-707,875	-106,469	0,016	0,003
-706,860	8,848	-0,008	-0,005
-705,845	15,130	-0,021	0,012
-704,831	-188,651	-0,037	-0,000
-703,816	-12,999	0,124	-0,060
-702,802	-8,129	-0,078	-0,039
-701,787	-126,487	0,040	0,004
-700,772	800,000	0,016	0,049
-699,758	284,362	-0,091	-0,121
-698,743	-120,783	0,096	0,012
-697,729	-200,000	0,003	0,031
-696,714	394,710	-0,057	0,087
-695,699	-151,135	-0,129	-0,007
-694,685	-114,426	-0,040	0,006
-693,670	525,551	-0,040	-0,070
-692,656	75,179	-0,161	-0,126
-691,641	-24,727	-0,129	0,056
-690,627	-153,069	0,135	0,007
-689,612	357,281	-0,043	-0,064
-688,597	8,839	-0,080	-0,045
-687,583	-200,000	0,018	-0,061
-686,568	-48,330	-0,178	-0,063
-685,554	-169,929	0,087	0,002
-684,539	306,078	0,032	0,044
-683,524	279,327	0,071	-0,094
-682,510	-200,000	0,004	-0,130
-681,495	-200,000	-0,029	-0,105
-680,481	800,000	0,030	0,079
-679,466	143,783	-0,117	0,116
-678,451	-200,000	0,017	-0,133
-677,437	-200,000	0,015	-0,100
-676,422	108,287	0,090	-0,079
-675,408	800,000	0,028	-0,078
-674,393	800,000	0,051	0,130
-673,378	230,388	-0,086	0,105
-672,364	260,265	0,056	-0,072
-671,349	-45,054	-0,047	-0,017
-670,335	-62,252	0,099	0,030
-669,320	-200,000	0,007	0,033
-668,305	-35,183	0,049	-0,020
-667,291	259,185	-0,043	-0,055
-666,276	62,874	-0,201	-0,149
-665,262	800,000	-0,049	-0,109
-664,247	39,873	0,109	-0,072
-663,232	299,496	-0,026	0,036
-662,218	501,736	-0,111	0,190
-661,203	-12,010	-0,076	-0,037
-660,189	800,000	0,016	-0,036
-659,174	290,886	0,078	-0,105
-658,159	-83,143	0,110	-0,026
-657,145	171,026	-0,100	-0,106
-656,130	-19,323	0,071	0,032
-655,116	385,342	0,082	-0,125
-654,101	11,495	-0,050	0,029
-653,086	684,424	-0,047	0,091
-652,072	-59,917	-0,047	0,015
-651,057	55,109	-0,122	0,087
-650,043	326,927	-0,036	0,051
-649,028	352,152	0,038	0,056
-648,014	-16,920	-0,118	-0,055
-646,999	-116,547	0,045	-0,006
-645,984	-200,000	-0,004	-0,037
-644,970	73,978	0,068	-0,052
-643,955	-200,000	-0,040	-0,136
-642,941	800,000	-0,045	0,105
-641,926	169,518	-0,055	0,058
-640,911	-200,000	-0,017	0,113
-639,897	-9,186	-0,030	0,015
-638,882	-51,644	-0,095	0,033
-637,868	800,000	0,010	0,030
-636,853	586,550	-0,102	-0,186
-635,838	-200,000	-0,025	-0,202
-634,824	-200,000	0,019	-0,077
-633,809	130,875	0,045	0,043
-632,795	518,053	0,068	0,118
-631,780	-200,000	-0,009	0,040
-630,765	-117,382	-0,048	0,006
-629,751	313,944	-0,003	0,004
-628,736	-19,686	-0,042	0,019
-627,722	646,483	-0,053	-0,100
-626,707	-56,964	-0,043	-0,014
-625,692	-114,562	-0,040	0,006
-624,678	68,379	0,090	-0,068
-623,663	176,044	-0,135	0,144
-622,649	55,741	-0,064	-0,046
-621,634	-200,000	-0,020	0,127
-620,619	38,292	0,075	0,049
-619,605	800,000	-0,017	-0,051
-618,590	-191,634	-0,122	-0,001
-617,576	143,588	-0,041	-0,040
-616,561	6,798	-0,012	0,006
-615,546	509,387	-0,080	-0,137
-614,532	800,000	-0,073	-0,187
-613,517	-200,000	-0,003	-0,072
-612,503	270,535	-0,118	-0,154
-611,488	-184,654	0,131	-0,002
-610,474	231,466	0,052	0,063
-609,459	183,392	0,024	-0,026
-608,444	-200,000	-0,006	-0,144
-607,430	254,969	0,090	-0,114
-606,415	525,675	-0,019	0,032
-605,401	-43,317	0,005	0,002
-604,386	-113,344	0,043	0,006
-603,371	69,135	-0,026	0,019
-602,357	268,291	-0,049	0,063
-601,342	-24,786	0,152	0,066
-600,328	-83,028	0,049	-0,012
-599,313	-90,953	-0,037	-0,008
-598,298	597,457	-0,106	-0,194
-597,284	-200,000	-0,004	-0,045
-596,269	138,175	0,047	-0,046
-595,255	-43,608	-0,050	-0,018
-594,240	-112,953	-0,040	-0,006
-593,225	106,797	0,046	-0,041
-592,211	27,900	-0,056	-0,035
-591,196	800,000	-0,027	-0,057
-590,182	46,298	-0,036	0,025
-589,167	174,213	-0,024	-0,026
-588,152	-129,530	-0,090	0,009
-587,138	-119,980	0,111	-0,014
-586,123	800,000	-0,043	0,105
-585,109	76,755	0,066	-0,052
-584,094	-200,000	-0,017	-0,212
-583,079	517,951	0,035	0,061
-582,065	800,000	-0,001	-0,003
-581,050	-39,066	-0,053	-0,021
-580,036	-200,000	0,025	-0,097
-579,021	7,666	-0,085	0,047
-578,006	101,790	0,016	0,013
-576,992	-121,661	-0,052	-0,006
-575,977	-62,658	-0,037	0,011
-574,963	13,163	0,026	0,015
-573,948	-200,000	0,032	0,117
-572,934	-200,000	-0,002	0,116
-571,919	800,000	-0,071	0,152
-570,904	44,955	-0,090	0,061
-569,890	24,318	0,095	-0,058
-568,875	-200,000	-0,014	0,060
-567,861	2,343	0,034	0,018
-566,846	139,254	0,154	0,149
-565,831	-96,124	0,199	0,039
-564,817	-94,812	-0,149	0,029
-563,802	-187,083	-0,121	-0,001
-562,788	-103,464	0,077	0,013
-561,773	800,000	0,036	-0,087
-560,758	-200,000	-0,019	-0,086
-559,744	-200,000	0,004	-0,133
-558,729	-200,000	0,010	-0,076
-557,715	800,000	-0,045	-0,118
-556,700	308,345	0,070	-0,096
-555,685	453,080	0,075	-0,123
-554,671	-152,368	0,058	0,003
-553,656	12,202	0,092	-0,052
-552,642	-200,000	0,005	-0,032
-551,627	-200,000	-0,005	0,048
-550,612	542,505	0,026	0,045
-549,598	-1,947	-0,080	-0,041
-548,583	-200,000	0,007	-0,027
-547,569	20,265	0,086	0,051
-546,554	388,751	-0,097	0,148
-545,539	-200,000	-0,003	-0,023
-544,525	238,785	0,047	0,058
-543,510	-200,000	0,030	0,126
-542,496	-96,999	-0,135	0,026
-541,481	612,300	0,007	-0,013
-540,466	-142,094	0,115	0,008
-539,452	-200,000	-0,042	0,145
-538,437	-200,000	0,018	-0,083
-537,423	800,000	-0,030	-0,092
-536,408	800,000	-0,044	-0,095
-535,393	-200,000	-0,010	-0,056
-534,379	800,000	-0,055	-0,154
-533,364	326,512	-0,083	-0,118
-532,350	800,000	0,066	0,151
-531,335	800,000	0,046	-0,115
-530,321	-151,522	0,123	-0,007
-529,306	-200,000	0,002	-0,162
-528,291	474,326	-0,079	-0,132
-527,277	-43,257	-0,035	-0,013
-526,262	275,511	-0,018	-0,023
-525,248	800,000	0,047	0,133
-524,233	-129,272	0,106	-0,011
-523,218	-85,278	0,140	0,032
-522,204	31,668	0,035	0,022
-521,189	417,687	0,097	-0,153
-520,175	248,984	-0,077	-0,096
-519,160	-200,000	-0,038	-0,210
-518,145	-33,835	0,031	0,012
-517,131	800,000	0,060	0,186
-516,116	287,971	0,068	0,091
-515,102	-0,697	0,096	0,050
-514,087	38,146	-0,098	-0,064
-513,072	-48,925	0,074	-0,026
-512,058	126,346	-0,073	-0,068
-511,043	-186,792	0,150	0,002
-510,029	-62,073	0,030	0,009
-509,014	24,065	0,058	0,035
-507,999	-64,982	-0,002	0,001
-506,985	79,525	-0,076	0,060
-505,970	-200,000	0,106	0,000
-504,956	35,251	0,057	-0,037
-503,941	49,785	0,086	0,060
-502,926	127,144	-0,098	0,091
-501,912	407,989	-0,087	0,136
-500,897	313,621	0,029	-0,040
-499,883	-93,110	0,041	0,008
-498,868	-200,000	0,012	-0,175
-497,853	-200,000	0,038	-0,135
-496,839	800,000	0,041	-0,099
-495,824	-187,441	-0,023	-0,000
-494,810	-2,510	-0,069	0,035
-493,795	-92,558	-0,082	0,017
-492,781	-200,000	0,002	0,072
-491,766	-14,344	-0,066	-0,031
-490,751	800,000	0,010	-0,027
-489,737	800,000	-0,051	0,146
-488,722	-200,000	0,035	0,141
-487,708	-46,517	-0,082	-0,029
-486,693	-52,733	0,155	0,052
-485,678	800,000	0,050	-0,158
-484,664	194,313	0,078	-0,087
-483,649	-200,000	-0,026	-0,088
-482,635	-200,000	-0,002	-0,039
-481,620	-200,000	-0,010	0,097
-480,605	-200,000	-0,015	0,067
-479,591	-200,000	0,030	0,118
-478,576	-200,000	-0,027	0,106
-477,562	-115,864	0,063	-0,009
-476,547	-200,000	0,007	-0,135
-475,532	-99,655	-0,080	-0,015
-474,518	28,709	-0,150	-0,093
-473,503	11,872	0,059	0,033
-472,489	800,000	0,058	-0,127
-471,474	-124,679	0,082	0,009
-470,459	-17,841	-0,157	-0,072
-469,445	95,204	-0,063	0,052
-468,430	66,652	0,045	0,034
-467,416	-75,763	-0,145	0,037
-466,401	234,883	-0,028	0,033
-465,386	-112,607	0,049	-0,007
-464,372	-2,513	-0,090	0,046
-463,357	285,510	0,036	0,048
-462,343	800,000	-0,023	-0,070
-461,328	-58,671	0,049	-0,015
-460,313	-6,856	0,108	-0,053
-459,299	149,359	-0,055	-0,054
-458,284	800,000	0,038	-0,103
-457,270	-69,122	0,134	0,038
-456,255	-200,000	-0,017	0,059
-455,241	-74,574	0,034	-0,009
-454,226	-200,000	-0,018	-0,105
-453,211	426,953	0,022	0,034
-452,197	50,938	0,136	-0,094
-451,182	800,000	0,061	0,140
-450,168	-200,000	0,030	0,169
-449,153	800,000	-0,039	0,106
-448,138	-200,000	-0,005	-0,189
-447,124	-46,800	-0,030	0,011
-446,109	94,907	0,095	0,079
-445,095	800,000	-0,033	0,086
-444,080	-130,395	0,082	-0,008
-443,065	-35,781	0,060	0,024
-442,051	24,128	-0,134	-0,081
-441,036	800,000	-0,032	0,100
-440,022	-77,802	-0,178	-0,045
-439,007	-36,094	-0,073	-0,029
-437,992	322,042	0,068	0,095
-436,978	-51,258	0,112	-0,038
-435,963	685,303	0,050	0,095
-434,949	-54,896	-0,100	0,033
-433,934	-200,000	-0,022	0,137
-432,919	479,696	0,034	0,056
-431,905	710,422	-0,064	-0,124
-430,890	-200,000	0,014	-0,053
-429,876	-44,207	0,093	0,034
-428,861	324,405	0,089	0,125
-427,846	-200,000	-0,022	-0,090
-426,832	-38,870	0,021	-0,008
-425,817	800,000	0,020	-0,051
-424,803	248,212	-0,089	0,111
-423,788	38,787	-0,021	-0,014
-422,773	-44,725	0,056	0,020
-421,759	800,000	-0,019	0,042
-420,744	186,330	-0,041	0,045
-419,730	291,600	0,050	-0,067
-418,715	81,272	-0,089	-0,071
-417,701	800,000	-0,035	0,089
-416,686	-132,640	0,086	0,008
-415,671	-1,528	-0,150	-0,077
-414,657	-18,109	-0,091	-0,042
-413,642	-200,000	-0,005	0,052
-412,628	564,697	-0,055	-0,098
-411,613	-200,000	-0,008	-0,068
-410,598	-200,000	-0,002	0,070
-409,584	95,859	0,094	0,079
-408,569	98,990	-0,056	0,047
-407,555	-55,377	0,123	-0,040
-406,540	792,708	0,040	0,080
-405,525	-143,036	0,020	-0,001
-404,511	29,097	0,017	0,011
-403,496	128,617	-0,096	-0,089
-402,482	363,911	-0,029	0,042
-401,467	-25,886	0,068	0,029
-400,452	190,371	0,051	0,056
-399,438	-200,000	-0,005	0,113
-398,423	-21,135	0,069	-0,031
-397,409	24,463	-0,110	0,066
-396,394	206,091	0,041	-0,047
-395,379	54,260	-0,072	-0,051
-394,365	-200,000	-0,000	0,056
-393,350	-96,329	-0,124	-0,024
-392,336	-200,000	0,001	0,121
-391,321	20,256	-0,070	0,041
-390,306	89,638	-0,066	-0,054
-389,292	-200,000	-0,031	-0,130
-388,277	-23,273	0,116	-0,051
-387,263	-200,000	-0,004	0,031
-386,248	-200,000	0,029	0,135
-385,233	-200,000	0,012	-0,153
-384,219	390,770	-0,042	-0,063
-383,204	-200,000	-0,023	-0,102
-382,190	303,923	-0,043	-0,058
-381,175	-4,583	0,025	0,012
-380,160	-200,000	-0,041	0,185
-379,146	-70,284	0,141	-0,039
-378,131	-25,113	-0,105	-0,045
-377,117	-200,000	0,037	-0,178
-376,102	82,450	0,061	-0,048
-375,088	-200,000	-0,002	-0,056
-374,073	800,000	-0,040	0,126
-373,058	-47,011	0,131	-0,047
-372,044	483,072	-0,082	-0,137
-371,029	-58,894	-0,203	0,064
-370,015	-103,016	0,074	-0,013
-369,000	-42,108	-0,089	-0,033
-367,985	800,000	-0,042	-0,115
-366,971	139,157	0,043	-0,041
-365,956	135,718	0,064	-0,061
-364,942	342,922	0,050	0,072
-363,927	-58,452	0,066	0,021
-362,912	619,449	-0,041	-0,076
-361,898	39,714	-0,172	-0,113
-360,883	58,832	0,088	-0,063
-359,869	-87,572	-0,042	-0,009
-358,854	-200,000	0,028	0,094
-357,839	77,500	0,038	-0,030
-356,825	366,831	0,066	0,098
-355,810	-177,945	0,076	-0,001
-354,796	-83,828	-0,060	-0,014
-353,781	-200,000	0,040	0,180
-352,766	338,228	0,046	-0,065
-351,752	-39,918	0,162	0,062
-350,737	-9,542	-0,047	0,023
-349,723	787,493	0,027	-0,055
-348,708	-165,884	-0,067	-0,002
-347,693	-150,376	0,096	-0,005
-346,679	-200,000	0,004	-0,020
-345,664	-64,818	-0,122	0,036
-344,650	659,669	0,039	0,074
-343,635	250,095	-0,043	-0,054
-342,620	-56,076	0,094	-0,030
-341,606	373,404	-0,020	0,029
-340,591	91,393	-0,048	0,039
-339,577	345,885	-0,045	-0,065
-338,562	-200,000	-0,035	0,116
-337,548	-28,756	0,161	0,067
-336,533	36,723	0,058	0,037
-335,518	-188,156	0,131	-0,001
-334,504	-143,973	-0,073	0,005
-333,489	800,000	-0,025	0,062
-332,475	-141,534	-0,062	0,005
-331,460	241,070	-0,094	0,115
-330,445	800,000	-0,019	-0,052
-329,431	174,888	0,102	0,108
-328,416	702,211	0,036	0,069
-327,402	-126,368	0,089	-0,010
-326,387	232,809	-0,033	-0,040
-325,372	19,183	0,039	-0,023
-324,358	800,000	-0,025	0,070
-323,343	133,067	-0,110	0,103
-322,329	-200,000	-0,044	0,142
-321,314	38,444	-0,072	0,047
-320,299	275,193	0,034	0,045
-319,285	-43,751	-0,104	0,038
-318,270	-200,000	-0,020	-0,124
-317,256	67,011	-0,059	0,044
-316,241	-200,000	0,001	0,083
-315,226	-132,145	0,034	-0,003
-314,212	-200,000	0,027	0,093
-313,197	91,889	-0,047	-0,039
-312,183	800,000	-0,019	-0,057
-311,168	162,985	-0,098	0,101
-310,153	-200,000	-0,022	-0,096
-309,139	-200,000	-0,001	-0,071
-308,124	390,152	0,057	0,086
-307,110	101,422	0,114	0,097
-306,095	110,584	0,077	0,068
-305,080	-200,000	-0,011	0,061
-304,066	-151,391	-0,152	0,008
-303,051	-62,549	-0,020	-0,006
-302,037	-22,674	-0,116	-0,051
-301,022	44,674	0,065	0,043
-300,008	568,405	0,048	-0,086
-298,993	800,000	0,043	-0,118
-297,978	-200,000	0,002	0,064
-296,964	133,077	-0,071	-0,067
-295,949	132,801	-0,083	0,078
-294,935	260,660	-0,066	0,083
-293,920	-184,223	-0,019	-0,000
-292,905	20,264	0,080	0,047
-291,891	800,000	0,053	0,109
-290,876	800,000	0,045	-0,105
-289,862	-109,366	-0,124	-0,019
-288,847	800,000	-0,011	-0,025
-287,832	57,816	-0,029	-0,020
-286,818	-36,270	0,159	-0,062
-285,803	-200,000	-0,014	0,090
-284,789	-63,449	0,035	-0,010
-283,774	-200,000	0,005	0,067
-282,759	680,734	0,050	-0,095
-281,745	-200,000	-0,006	0,021
-280,730	-200,000	-0,001	0,005
-279,716	-34,075	0,125	-0,050
-278,701	277,283	-0,100	-0,130
-277,686	-93,304	-0,067	0,013
-276,672	-118,069	0,084	-0,011
-275,657	290,927	-0,094	0,125
-274,643	175,584	0,057	0,061
-273,628	-200,000	-0,023	-0,119
-272,613	-110,183	0,068	-0,010
-271,599	76,960	0,079	0,061
-270,584	-44,824	-0,051	0,019
-269,570	48,658	0,119	0,081
-268,555	-2,841	-0,144	-0,073
-267,540	-200,000	-0,001	-0,071
-266,526	-81,901	-0,123	0,029
-265,511	344,999	-0,098	0,140
-264,497	111,815	-0,052	-0,046
-263,482	800,000	-0,016	-0,043
-262,467	71,189	-0,034	0,026
-261,453	84,430	0,048	0,038
-260,438	436,821	-0,088	-0,140
-259,424	188,135	0,052	-0,056
-258,409	-13,000	0,022	-0,010
-257,395	-200,000	0,030	0,142
-256,380	39,836	-0,050	0,033
-255,365	265,693	-0,081	0,104
-254,351	95,632	0,044	-0,036
-253,336	-38,299	-0,108	-0,041
-252,322	-200,000	-0,031	-0,136
-251,307	-111,162	-0,058	0,009
-250,292	-194,552	-0,039	-0,000
-249,278	-59,489	-0,061	0,019
-248,263	235,310	0,062	0,075
-247,249	209,003	0,056	0,064
-246,234	-200,000	0,029	-0,101
-245,219	1,408	0,055	-0,029
-244,205	-200,000	-0,007	0,107
-243,190	-200,000	-0,026	0,096
-242,176	-124,193	0,035	0,004
-241,161	-200,000	0,000	0,055
-240,146	322,040	0,061	-0,084
-239,132	-154,023	-0,133	-0,006
-238,117	715,973	0,048	0,093
-237,103	29,955	0,153	-0,095
-236,088	81,948	-0,117	-0,092
-235,073	-54,272	0,073	0,024
-234,059	-200,000	0,005	0,101
-233,044	664,399	-0,008	-0,014
-232,030	800,000	-0,029	-0,067
-231,015	424,733	0,033	0,052
-230,000	-200,000	-0,005	-0,018
-228,986	75,384	-0,073	0,056
-227,971	-200,000	-0,035	0,163
-226,957	-75,256	0,185	-0,048
-225,942	130,150	0,024	-0,023
-224,927	-46,467	-0,043	-0,015
-223,913	73,847	-0,072	-0,055
-222,898	-66,309	0,100	-0,029
-221,884	400,022	-0,027	0,041
-220,869	165,274	0,045	0,047
-219,855	-200,000	0,027	-0,104
-218,840	800,000	0,071	0,164
-217,825	-200,000	-0,007	0,061
-216,811	-200,000	-0,018	0,088
-215,796	800,000	-0,035	0,078
-214,782	115,011	0,033	-0,029
-213,767	-35,398	-0,099	0,039
-212,752	-200,000	-0,011	-0,081
-211,738	562,180	0,011	0,019
-210,723	-200,000	-0,037	0,221
-209,709	122,634	-0,048	0,043
-208,694	58,502	0,016	-0,012
-207,679	-200,000	-0,052	-0,170
-206,665	92,060	-0,049	0,040
-205,650	201,950	0,082	0,092
-204,636	-91,664	0,089	-0,018
-203,621	656,269	0,059	0,111
-202,606	-146,495	-0,047	-0,003
-201,592	225,016	-0,044	0,052
-200,577	-200,000	-0,035	-0,131
-199,563	252,402	-0,060	0,075
-198,548	271,695	-0,049	0,063
-197,533	-6,990	0,154	0,076
-196,519	-165,550	-0,119	-0,004
-195,504	800,000	0,014	-0,041
-194,490	292,061	0,065	0,086
-193,475	558,201	-0,024	-0,043
-192,460	226,757	0,041	0,048
-191,446	741,940	-0,026	0,050
-190,431	-200,000	0,003	0,033
-189,417	-197,669	-0,126	-0,001
-188,402	66,028	-0,114	-0,084
-187,387	23,909	0,016	0,010
-186,373	42,302	-0,045	0,029
-185,358	-200,000	-0,005	-0,094
-184,344	22,909	0,051	0,030
-183,329	-200,000	0,010	-0,073
-182,315	92,482	0,104	0,085
-181,300	81,197	0,100	-0,079
-180,285	340,649	0,081	-0,116
-179,271	800,000	0,085	-0,213
-178,256	-108,835	-0,137	-0,021
-177,242	-147,754	-0,094	0,006
-176,227	-200,000	0,006	0,075
-175,212	-14,794	0,094	-0,043
-174,198	43,665	0,103	0,069
-173,183	210,214	0,012	0,013
-172,169	202,908	0,015	-0,017
-171,154	285,292	-0,089	-0,116
-170,139	-140,382	0,127	0,009
-169,125	78,146	0,068	0,053
-168,110	136,599	0,082	0,078
-167,096	-136,561	-0,098	0,008
-166,081	47,970	-0,052	-0,035
-165,066	800,000	0,072	-0,170
-164,052	800,000	-0,057	0,116
-163,037	-91,831	0,044	0,009
-162,023	400,463	-0,028	0,042
-161,008	129,670	0,116	-0,108
-159,993	54,420	0,101	0,071
-158,979	-200,000	0,024	-0,129
-157,964	-75,238	-0,102	0,026
-156,950	372,809	0,097	0,144
-155,935	800,000	0,047	0,099
-154,920	88,211	0,078	-0,063
-153,906	-12,231	-0,044	0,021
-152,891	-104,001	-0,106	0,018
-151,877	-34,846	-0,186	-0,073
-150,862	-16,411	-0,027	-0,012
-149,847	800,000	-0,080	0,170
-148,833	-22,776	0,069	0,030
-147,818	212,082	0,028	-0,032
-146,804	442,411	-0,028	-0,045
-145,789	-101,454	0,145	-0,025
-144,775	-200,000	0,009	0,061
-143,760	-160,443	-0,105	-0,004
-142,745	-200,000	0,003	-0,089
-141,731	-76,952	-0,050	0,013
-140,716	430,297	0,037	0,058
-139,702	800,000	-0,040	0,115
-138,687	-200,000	-0,012	0,113
-137,672	472,641	-0,077	0,125
-136,658	96,669	0,041	-0,034
-135,643	-196,160	-0,134	-0,001
-134,629	92,443	-0,084	0,068
-133,614	72,837	-0,040	0,030
-132,599	52,104	-0,070	0,048
-131,585	-138,677	-0,126	0,010
-130,570	800,000	-0,024	0,058
-129,556	80,602	-0,035	-0,027
-128,541	-200,000	0,022	-0,075
-127,526	-68,786	-0,052	0,015
-126,512	-48,307	0,061	-0,021
-125,497	-5,786	0,141	0,070
-124,483	408,488	-0,014	-0,021
-123,468	-8,367	-0,100	-0,048
-122,453	800,000	-0,068	0,168
-121,439	376,630	0,080	-0,118
-120,424	-126,741	-0,168	0,018
-119,410	-200,000	-0,081	0,000
