DTS Sentinel unit serial number:	SN410029Multiplexer serial number:	ORYXHardware model number:	OX2-SRSoftware version number:	ORYX F/W v4,00 Oryx Data Collector v3.7.2.0data status	okinstallation	B6 Nyhavnadifferential loss correction	single-endedforward channel	channel 2reverse channel	N/Adate	2023/12/08time	00:30:08forward acquisition time	300,00reverse acquisition time	0,00gamma	499,1914k internal	0,3164k external	0,3164temperature offset calibration	1,0000default loss term (dB/km)	0,3820temperature slope calibration	1,0000multiplexer offset coefficient	1,0000multiplexer slope coefficient	1,0000fibre end	0,00T internal ref (°C)	13,31T ext. ref 1 (°C)	-3,60T ext. ref 2 (°C)	-3,59length (m)	temperature (°C)	Stokes	anti-Stokes-744,400	-131,794	0,145	0,014
-743,385	-96,768	-0,281	-0,054
-742,371	-137,311	0,145	0,012
-741,356	-96,929	-0,311	0,059
-740,342	-19,326	0,225	0,102
-739,327	-106,378	-0,341	-0,056
-738,312	7,772	0,153	-0,084
-737,298	-89,255	-0,338	-0,073
-736,283	69,548	0,103	0,078
-735,269	-177,448	-0,306	0,005
-734,254	800,000	-0,016	-0,043
-733,239	-37,602	-0,488	-0,190
-732,225	-200,000	0,011	0,065
-731,210	-200,000	-0,028	0,228
-730,196	-2,694	0,010	0,005
-729,181	137,850	0,047	-0,046
-728,167	-17,880	-0,091	-0,042
-727,152	-7,960	0,158	-0,078
-726,137	134,362	-0,112	0,107
-725,123	100,374	-0,075	0,064
-724,108	-18,788	-0,243	-0,111
-723,094	35,128	0,078	-0,050
-722,079	-78,180	-0,126	-0,032
-721,064	70,294	-0,070	-0,053
-720,050	32,637	-0,039	-0,025
-719,035	-200,000	-0,006	-0,064
-718,021	-3,122	-0,116	0,059
-717,006	-123,383	-0,051	-0,006
-715,991	-200,000	0,010	-0,170
-714,977	-77,588	-0,049	-0,012
-713,962	800,000	-0,055	-0,161
-712,948	201,996	-0,032	-0,036
-711,933	691,377	0,008	-0,016
-710,918	-78,448	-0,030	0,008
-709,904	-141,176	0,063	-0,005
-708,889	265,838	-0,123	-0,158
-707,875	-102,363	-0,020	0,004
-706,860	-51,337	0,043	0,015
-705,845	53,840	-0,078	-0,055
-704,831	57,956	0,067	0,048
-703,816	46,580	-0,017	-0,012
-702,802	140,256	-0,096	0,094
-701,787	241,225	0,020	0,024
-700,772	82,529	0,025	-0,020
-699,758	8,596	-0,156	0,086
-698,743	249,785	0,046	0,057
-697,729	-200,000	0,009	0,105
-696,714	21,335	0,118	0,071
-695,699	-200,000	-0,008	-0,044
-694,685	-115,967	-0,153	-0,021
-693,670	-200,000	-0,001	-0,124
-692,656	-62,724	0,154	0,046
-691,641	13,611	-0,061	0,035
-690,627	-200,000	-0,050	0,197
-689,612	-200,000	-0,009	0,047
-688,597	-52,285	-0,050	0,017
-687,583	26,760	-0,101	-0,062
-686,568	159,374	0,025	-0,025
-685,554	-2,102	0,060	0,031
-684,539	-165,801	0,108	0,003
-683,524	-28,421	-0,101	0,043
-682,510	155,596	-0,073	0,074
-681,495	800,000	-0,038	-0,079
-680,481	191,463	-0,048	-0,054
-679,466	196,323	-0,076	-0,085
-678,451	-200,000	-0,012	0,048
-677,437	30,042	0,062	0,039
-676,422	680,722	-0,023	0,045
-675,408	168,187	0,043	-0,045
-674,393	402,041	0,075	-0,116
-673,378	800,000	0,027	-0,058
-672,364	-200,000	0,015	0,102
-671,349	183,552	-0,016	0,018
-670,335	-35,925	0,068	-0,027
-669,320	800,000	0,036	-0,084
-668,305	213,487	-0,056	0,065
-667,291	-142,152	0,055	0,004
-666,276	-110,556	-0,072	0,011
-665,262	96,113	-0,073	0,061
-664,247	60,533	0,116	0,084
-663,232	779,848	-0,044	-0,088
-662,218	-65,993	0,042	0,012
-661,203	-200,000	-0,008	0,076
-660,189	-194,593	0,096	-0,001
-659,174	305,457	0,111	-0,152
-658,159	-48,289	-0,076	-0,027
-657,145	800,000	-0,036	-0,117
-656,130	133,770	-0,024	-0,022
-655,116	-200,000	-0,008	-0,094
-654,101	800,000	-0,008	-0,020
-653,086	382,343	-0,064	0,097
-652,072	476,321	0,025	0,042
-651,057	-200,000	0,003	-0,076
-650,043	47,323	-0,126	-0,086
-649,028	-200,000	0,019	-0,134
-648,014	-20,852	-0,058	-0,026
-646,999	-25,381	-0,065	-0,028
-645,984	-131,262	0,048	0,005
-644,970	756,253	0,088	-0,176
-643,955	311,347	-0,074	-0,102
-642,941	475,985	0,059	-0,099
-641,926	800,000	0,028	0,066
-640,911	-98,873	0,015	-0,003
-639,897	-170,464	0,108	-0,003
-638,882	67,443	-0,075	-0,056
-637,868	-155,671	0,112	0,005
-636,853	298,286	-0,094	-0,127
-635,838	-200,000	-0,030	-0,139
-634,824	-200,000	0,024	-0,139
-633,809	800,000	0,056	0,171
-632,795	-179,830	-0,111	0,002
-631,780	-25,483	0,059	0,025
-630,765	186,632	-0,107	-0,117
-629,751	-70,041	-0,088	-0,024
-628,736	800,000	0,044	-0,098
-627,722	155,426	-0,047	0,047
-626,707	261,409	0,046	0,058
-625,692	-120,443	0,047	-0,006
-624,678	252,369	-0,060	0,075
-623,663	27,212	0,075	-0,046
-622,649	694,416	0,026	-0,051
-621,634	-138,882	-0,105	-0,008
-620,619	-32,221	-0,124	0,050
-619,605	746,070	0,067	0,134
-618,590	25,480	0,161	-0,098
-617,576	800,000	-0,036	0,088
-616,561	9,976	-0,132	-0,073
-615,546	800,000	-0,044	-0,140
-614,532	765,549	-0,062	-0,125
-613,517	800,000	0,041	-0,126
-612,503	-200,000	-0,035	-0,116
-611,488	-200,000	-0,031	0,134
-610,474	661,618	0,105	0,199
-609,459	-139,580	-0,018	-0,001
-608,444	-73,936	-0,113	0,030
-607,430	-79,477	-0,132	-0,032
-606,415	-22,806	0,105	0,046
-605,401	-200,000	-0,004	-0,053
-604,386	422,744	-0,046	0,073
-603,371	-200,000	0,017	0,056
-602,357	19,901	-0,074	-0,044
-601,342	117,762	-0,078	0,070
-600,328	359,687	-0,093	-0,137
-599,313	11,300	0,025	0,014
-598,298	515,729	-0,029	-0,051
-597,284	-200,000	0,007	-0,113
-596,269	-59,927	-0,095	-0,029
-595,255	-200,000	-0,039	0,158
-594,240	-200,000	0,022	0,107
-593,225	800,000	-0,008	0,021
-592,211	-200,000	0,010	0,036
-591,196	-200,000	-0,002	-0,154
-590,182	584,497	0,069	0,125
-589,167	481,823	0,058	-0,097
-588,152	-40,050	0,039	-0,015
-587,138	-42,356	-0,059	-0,022
-586,123	800,000	-0,046	-0,125
-585,109	332,284	-0,055	-0,077
-584,094	126,486	0,054	-0,050
-583,079	98,860	0,048	-0,040
-582,065	800,000	0,002	0,007
-581,050	-4,642	-0,017	-0,009
-580,036	800,000	-0,018	0,054
-579,021	-200,000	-0,028	-0,108
-578,006	800,000	0,014	0,033
-576,992	-200,000	-0,011	0,046
-575,977	-18,979	-0,118	0,054
-574,963	-30,825	-0,119	0,049
-573,948	229,715	-0,104	0,124
-572,934	-78,607	-0,081	-0,020
-571,919	-200,000	0,001	0,026
-570,904	-159,495	0,203	0,008
-569,890	-90,767	-0,108	0,023
-568,875	-200,000	-0,027	-0,139
-567,861	-200,000	0,042	0,139
-566,846	27,909	0,123	0,076
-565,831	58,602	-0,070	-0,050
-564,817	-200,000	-0,005	-0,061
-563,802	67,974	-0,126	0,094
-562,788	-200,000	-0,003	-0,103
-561,773	268,864	-0,038	0,049
-560,758	77,073	0,124	0,096
-559,744	-200,000	-0,011	0,139
-558,729	113,417	-0,025	-0,022
-557,715	-138,696	-0,046	-0,004
-556,700	-140,688	-0,152	0,011
-555,685	-200,000	-0,025	0,101
-554,671	156,854	0,044	0,044
-553,656	58,405	-0,101	-0,072
-552,642	-13,428	0,103	0,049
-551,627	-200,000	-0,043	-0,144
-550,612	-200,000	0,015	-0,129
-549,598	44,412	-0,049	-0,033
-548,583	-200,000	-0,021	-0,115
-547,569	419,438	-0,020	-0,032
-546,554	85,092	0,032	0,026
-545,539	-9,074	0,027	0,013
-544,525	-92,056	0,041	0,008
-543,510	89,714	-0,072	0,059
-542,496	-200,000	-0,031	-0,142
-541,481	368,217	0,091	-0,135
-540,466	-30,512	0,053	-0,022
-539,452	-200,000	-0,029	0,120
-538,437	99,119	0,089	0,075
-537,423	51,632	-0,065	0,045
-536,408	320,508	-0,084	0,116
-535,393	-24,255	0,104	-0,045
-534,379	296,781	-0,023	-0,031
-533,364	166,495	0,028	-0,029
-532,350	761,125	0,036	0,071
-531,335	-200,000	-0,026	0,123
-530,321	800,000	-0,054	0,113
-529,306	351,602	-0,101	-0,146
-528,291	800,000	-0,033	0,097
-527,277	-200,000	0,021	-0,128
-526,262	53,694	-0,015	0,011
-525,248	-200,000	0,026	-0,109
-524,233	-116,397	-0,138	-0,018
-523,218	146,450	-0,050	0,049
-522,204	172,866	-0,037	0,039
-521,189	-146,237	-0,129	-0,008
-520,175	149,382	-0,037	-0,037
-519,160	148,850	0,059	0,058
-518,145	116,227	-0,023	0,021
-517,131	-191,825	-0,105	0,001
-516,116	-200,000	-0,001	-0,002
-515,102	800,000	0,009	0,020
-514,087	-200,000	0,023	-0,091
-513,072	-66,737	-0,130	-0,037
-512,058	800,000	0,051	-0,156
-511,043	-127,745	0,018	0,002
-510,029	18,339	0,072	0,042
-509,014	469,915	-0,017	-0,029
-507,999	800,000	0,054	0,120
-506,985	78,582	0,105	0,081
-505,970	-200,000	-0,001	-0,152
-504,956	-83,531	0,074	-0,017
-503,941	253,640	-0,076	0,095
-502,926	119,793	-0,062	0,056
-501,912	-200,000	-0,009	-0,099
-500,897	23,461	-0,103	-0,061
-499,883	-138,865	0,124	0,010
-498,868	-103,181	0,166	0,028
-497,853	95,816	-0,136	-0,113
-496,839	149,933	0,022	0,022
-495,824	800,000	0,040	0,121
-494,810	24,478	0,095	0,057
-493,795	800,000	-0,048	-0,112
-492,781	-200,000	-0,007	0,041
-491,766	-200,000	0,031	0,144
-490,751	-155,145	0,167	-0,008
-489,737	-200,000	0,009	-0,111
-488,722	-87,621	0,078	-0,017
-487,708	210,764	0,080	0,091
-486,693	679,255	0,071	0,136
-485,678	-95,920	-0,116	0,022
-484,664	-38,792	-0,145	-0,055
-483,649	800,000	0,021	-0,050
-482,635	537,883	-0,047	0,081
-481,620	73,196	0,075	-0,057
-480,605	800,000	0,023	0,053
-479,591	800,000	0,009	0,021
-478,576	800,000	0,028	-0,061
-477,562	250,130	-0,053	0,066
-476,547	-140,860	0,092	0,007
-475,532	-200,000	-0,035	0,159
-474,518	180,739	-0,086	0,092
-473,503	-66,153	0,153	-0,044
-472,489	-200,000	-0,047	0,162
-471,474	628,110	-0,038	0,071
-470,459	-112,854	-0,065	0,009
-469,445	800,000	0,031	-0,092
-468,430	-200,000	0,031	-0,104
-467,416	265,286	-0,106	-0,135
-466,401	86,418	0,066	0,053
-465,386	800,000	-0,027	0,059
-464,372	800,000	0,043	0,139
-463,357	712,516	-0,028	0,053
-462,343	-200,000	-0,081	0,000
-461,328	65,118	0,162	-0,119
-460,313	-200,000	0,015	-0,177
-459,299	800,000	0,039	0,119
-458,284	243,404	-0,017	0,021
-457,270	560,253	0,023	0,040
-456,255	-200,000	0,019	0,094
-455,241	103,530	-0,086	-0,073
-454,226	-200,000	0,010	-0,041
-453,211	-43,882	0,104	-0,038
-452,197	-131,310	0,077	-0,007
-451,182	-200,000	-0,013	0,130
-450,168	39,397	-0,060	0,039
-449,153	-200,000	-0,019	0,100
-448,138	324,496	-0,084	-0,117
-447,124	-200,000	-0,041	-0,170
-446,109	-190,138	-0,099	-0,001
-445,095	-200,000	-0,001	-0,005
-444,080	-155,448	0,170	0,008
-443,065	-200,000	0,008	0,070
-442,051	564,214	0,042	0,075
-441,036	-136,987	-0,105	0,009
-440,022	-200,000	0,017	0,175
-439,007	-116,407	-0,099	0,013
-437,992	-115,559	0,225	-0,030
-436,978	228,906	-0,083	0,099
-435,963	-69,103	0,019	0,005
-434,949	-76,899	-0,097	-0,024
-433,934	89,739	0,095	-0,077
-432,919	749,430	0,021	0,041
-431,905	-200,000	0,015	-0,050
-430,890	-200,000	-0,006	-0,028
-429,876	99,089	-0,098	0,082
-428,861	90,125	-0,069	0,056
-427,846	66,566	0,064	0,048
-426,832	-65,315	-0,025	-0,007
-425,817	159,672	-0,042	0,042
-424,803	-97,243	-0,045	0,008
-423,788	-200,000	-0,007	0,155
-422,773	35,683	0,134	0,086
-421,759	-200,000	0,001	0,093
-420,744	-200,000	0,037	0,152
-419,730	800,000	0,022	0,050
-418,715	-200,000	0,011	-0,040
-417,701	29,413	-0,124	-0,076
-416,686	139,006	0,077	-0,074
-415,671	-140,682	0,070	-0,005
-414,657	160,257	0,150	0,152
-413,642	-58,047	-0,119	0,037
-412,628	-65,581	-0,081	-0,024
-411,613	-82,886	0,066	-0,015
-410,598	76,223	-0,069	-0,053
-409,584	800,000	0,030	0,075
-408,569	85,367	0,183	-0,146
-407,555	-200,000	0,004	-0,081
-406,540	-200,000	-0,014	-0,171
-405,525	-112,202	0,073	0,011
-404,511	-115,136	-0,076	0,010
-403,496	92,234	-0,058	-0,047
-402,482	74,210	0,132	0,100
-401,467	56,977	0,089	-0,063
-400,452	533,534	0,087	-0,150
-399,438	-200,000	-0,010	0,064
-398,423	-156,282	0,051	0,002
-397,409	220,415	-0,057	-0,066
-396,394	-200,000	0,034	0,123
-395,379	-200,000	-0,006	-0,050
-394,365	-200,000	0,008	-0,033
-393,350	416,910	0,026	0,040
-392,336	-148,339	0,070	0,004
-391,321	800,000	-0,016	-0,050
-390,306	-41,388	-0,010	0,004
-389,292	-200,000	0,008	-0,051
-388,277	-200,000	0,003	-0,066
-387,263	-194,330	0,213	-0,001
-386,248	180,662	0,114	-0,122
-385,233	59,869	0,013	0,009
-384,219	-154,782	-0,133	0,006
-383,204	-200,000	0,013	-0,045
-382,190	800,000	-0,034	-0,102
-381,175	-12,506	0,156	0,074
-380,160	-21,415	-0,055	-0,024
-379,146	165,678	0,021	-0,021
-378,131	32,559	0,047	0,030
-377,117	-79,521	-0,110	-0,027
-376,102	-200,000	0,002	-0,016
-375,088	800,000	0,046	-0,095
-374,073	60,750	-0,109	-0,078
-373,058	-134,545	0,162	-0,014
-372,044	-1,800	0,156	0,079
-371,029	-17,808	0,054	-0,024
-370,015	66,136	0,079	-0,058
-369,000	-200,000	0,056	-0,235
-367,985	151,548	-0,056	-0,055
-366,971	-60,298	0,010	0,003
-365,956	-107,594	0,128	0,020
-364,942	800,000	0,047	0,097
-363,927	-44,520	0,089	-0,032
-362,912	104,166	0,060	0,051
-361,898	-200,000	0,000	-0,130
-360,883	-64,819	0,076	-0,022
-359,869	-200,000	0,020	0,101
-358,854	-118,184	0,093	-0,012
-357,839	306,983	0,056	0,076
-356,825	270,250	0,009	-0,012
-355,810	281,011	0,063	-0,082
-354,796	12,210	-0,151	0,084
-353,781	-200,000	-0,037	-0,134
-352,766	-162,697	0,086	0,003
-351,752	-39,280	-0,025	0,010
-350,737	100,247	-0,077	-0,065
-349,723	247,120	0,123	0,151
-348,708	800,000	-0,057	0,162
-347,693	-63,460	-0,050	-0,015
-346,679	-200,000	0,014	-0,046
-345,664	-200,000	0,003	0,093
-344,650	-200,000	-0,039	-0,145
-343,635	-75,214	0,044	-0,011
-342,620	800,000	0,069	0,160
-341,606	-200,000	0,014	0,081
-340,591	-82,326	0,050	0,012
-339,577	96,222	-0,095	-0,079
-338,562	-43,449	-0,093	-0,034
-337,548	435,225	0,069	0,109
-336,533	528,428	0,052	0,089
-335,518	-107,600	-0,060	-0,009
-334,504	123,401	-0,055	0,050
-333,489	-103,229	0,054	-0,009
-332,475	-200,000	-0,022	-0,087
-331,460	-89,981	-0,079	0,017
-330,445	800,000	-0,059	-0,156
-329,431	46,375	0,033	-0,022
-328,416	-200,000	0,014	0,087
-327,402	46,838	-0,064	0,043
-326,387	162,654	-0,067	-0,068
-325,372	264,606	0,062	0,079
-324,358	-159,984	-0,106	-0,004
-323,343	800,000	0,040	-0,117
-322,329	199,249	-0,115	-0,128
-321,314	-200,000	-0,038	0,120
-320,299	53,185	0,123	0,085
-319,285	-70,264	0,080	0,022
-318,270	665,519	0,055	-0,104
-317,256	-97,155	-0,089	-0,017
-316,241	14,689	-0,129	0,073
-315,226	709,572	0,037	-0,072
-314,212	-133,532	0,073	-0,007
-313,197	-200,000	0,030	-0,098
-312,183	-54,844	0,192	0,062
-311,168	323,576	-0,038	0,053
-310,153	47,234	-0,104	-0,070
-309,139	-3,461	-0,059	0,029
-308,124	14,864	-0,154	0,087
-307,110	-142,821	0,123	-0,009
-306,095	-9,621	0,120	0,058
-305,080	-200,000	-0,020	-0,124
-304,066	-200,000	0,017	0,068
-303,051	-85,837	0,027	0,006
-302,037	-200,000	0,022	-0,097
-301,022	225,160	0,023	0,027
-300,008	112,428	0,028	0,024
-298,993	-89,705	0,024	0,005
-297,978	356,032	0,033	0,048
-296,964	-200,000	0,010	0,119
-295,949	800,000	-0,028	0,058
-294,935	55,216	0,071	-0,050
-293,920	800,000	0,011	0,029
-292,905	-22,022	0,162	-0,071
-291,891	704,807	-0,046	-0,087
-290,876	-84,839	-0,049	0,011
-289,862	800,000	0,028	0,062
-288,847	613,431	-0,010	-0,018
-287,832	198,868	-0,048	0,053
-286,818	-58,598	0,029	-0,009
-285,803	-200,000	-0,021	-0,105
-284,789	756,575	-0,044	-0,086
-283,774	-20,918	0,139	0,061
-282,759	-11,902	-0,078	-0,037
-281,745	800,000	-0,088	-0,191
-280,730	133,406	0,084	0,079
-279,716	-18,551	0,082	0,037
-278,701	-200,000	0,030	-0,120
-277,686	-52,021	-0,068	-0,023
-276,672	60,577	-0,085	-0,061
-275,657	-64,560	-0,051	0,015
-274,643	23,782	-0,067	0,040
-273,628	-34,491	-0,140	-0,055
-272,613	-200,000	0,009	-0,109
-271,599	-200,000	-0,039	0,152
-270,584	-200,000	0,003	0,225
-269,570	-7,658	0,126	0,061
-268,555	55,438	-0,035	-0,025
-267,540	-200,000	-0,008	-0,050
-266,526	178,311	-0,064	0,068
-265,511	346,912	0,047	0,067
-264,497	250,280	0,040	0,049
-263,482	-28,856	-0,056	-0,023
-262,467	800,000	0,028	0,082
-261,453	55,690	0,075	-0,052
-260,438	800,000	-0,056	-0,124
-259,424	800,000	0,002	-0,005
-258,409	-91,293	-0,036	-0,007
-257,395	432,181	-0,010	0,015
-256,380	204,673	-0,076	-0,085
-255,365	210,703	0,036	0,041
-254,351	-200,000	0,024	-0,084
-253,336	-56,972	-0,072	0,023
-252,322	800,000	-0,033	0,075
-251,307	-200,000	-0,011	0,096
-250,292	-200,000	-0,021	0,210
-249,278	-200,000	-0,027	0,144
-248,263	539,161	0,055	0,095
-247,249	-200,000	-0,013	0,069
-246,234	800,000	-0,020	-0,058
-245,219	140,303	-0,039	0,037
-244,205	174,576	0,077	0,081
-243,190	241,803	0,006	0,007
-242,176	658,032	0,050	0,093
-241,161	-200,000	-0,024	0,151
-240,146	-27,111	-0,069	0,029
-239,132	344,941	0,029	0,041
-238,117	-200,000	0,019	-0,083
-237,103	-200,000	-0,021	-0,091
-236,088	553,527	-0,017	-0,030
-235,073	120,475	0,105	0,094
-234,059	469,960	0,064	0,103
-233,044	51,552	-0,023	0,016
-232,030	527,892	-0,097	0,166
-231,015	-69,974	-0,059	0,016
-230,000	-2,537	-0,145	-0,073
-228,986	403,370	-0,033	-0,050
-227,971	-200,000	0,002	-0,077
-226,957	-97,661	0,112	-0,021
-225,942	488,322	0,025	-0,040
-224,927	56,971	0,137	0,096
-223,913	56,317	-0,072	-0,050
-222,898	-200,000	0,014	-0,051
-221,884	238,624	-0,051	0,061
-220,869	-34,902	0,075	-0,029
-219,855	3,074	0,106	0,056
-218,840	-143,809	0,071	-0,005
-217,825	13,626	0,034	-0,019
-216,811	-200,000	-0,005	0,098
-215,796	244,068	0,068	-0,083
-214,782	-80,634	0,061	-0,015
-213,767	-166,535	-0,022	0,001
-212,752	72,023	-0,065	-0,049
-211,738	-114,695	0,080	0,011
-210,723	327,620	0,040	-0,055
-209,709	-200,000	-0,004	0,050
-208,694	169,085	-0,014	0,015
-207,679	-200,000	0,003	0,048
-206,665	-68,293	0,071	0,020
-205,650	-200,000	0,018	0,094
-204,636	800,000	-0,042	-0,123
-203,621	309,865	0,074	-0,100
-202,606	-87,177	0,152	0,033
-201,592	-93,323	-0,048	0,010
-200,577	-56,880	-0,100	0,032
-199,563	-35,393	0,149	-0,058
-198,548	163,094	0,108	0,109
-197,533	-21,206	-0,021	0,009
-196,519	-200,000	-0,007	-0,228
-195,504	-106,938	-0,083	0,013
-194,490	-200,000	-0,023	-0,132
-193,475	-200,000	-0,015	0,064
-192,460	-200,000	-0,015	-0,071
-191,446	-108,085	0,056	-0,009
-190,431	599,392	0,058	0,105
-189,417	178,805	-0,089	0,093
-188,402	153,878	0,055	0,054
-187,387	-81,226	-0,065	-0,015
-186,373	-0,655	-0,083	0,042
-185,358	219,513	0,026	0,030
-184,344	18,110	0,092	-0,053
-183,329	100,699	-0,092	0,077
-182,315	-200,000	-0,047	-0,208
-181,300	800,000	-0,026	0,056
-180,285	57,248	-0,044	-0,031
-179,271	325,437	-0,052	-0,072
-178,256	-42,514	0,154	-0,056
-177,242	104,883	0,121	0,103
-176,227	800,000	-0,029	0,060
-175,212	-200,000	0,017	-0,077
-174,198	-150,716	-0,106	0,006
-173,183	455,166	-0,033	-0,052
-172,169	-94,010	0,037	0,007
-171,154	-7,364	-0,192	-0,093
-170,139	59,393	-0,071	-0,050
-169,125	104,414	0,068	0,057
-168,110	800,000	0,042	0,112
-167,096	109,841	-0,107	-0,092
-166,081	-200,000	-0,016	-0,129
-165,066	-63,412	-0,058	0,017
-164,052	-200,000	-0,035	-0,112
-163,037	-135,226	-0,127	-0,011
-162,023	34,896	-0,046	0,029
-161,008	-200,000	0,012	0,039
-159,993	173,300	0,071	-0,074
-158,979	-21,699	-0,175	0,076
-157,964	800,000	0,005	-0,016
-156,950	-4,604	-0,053	-0,026
-155,935	71,932	-0,125	0,093
-154,920	175,721	0,039	0,041
-153,906	800,000	-0,032	0,067
-152,891	-79,192	-0,048	-0,012
-151,877	-143,418	-0,167	0,011
-150,862	25,764	-0,072	-0,043
-149,847	155,542	0,004	0,004
-148,833	226,035	-0,100	-0,117
-147,818	-87,241	-0,071	0,015
-146,804	-44,770	0,116	0,041
-145,789	-200,000	0,022	0,134
-144,775	-200,000	-0,007	-0,056
-143,760	495,518	-0,047	-0,078
-142,745	-200,000	-0,005	0,017
-141,731	-200,000	-0,032	-0,134
-140,716	263,171	-0,101	-0,126
-139,702	-138,055	0,073	-0,006
-138,687	-153,226	-0,039	0,002
-137,672	-154,154	-0,043	-0,002
-136,658	-127,915	-0,065	-0,007
-135,643	-200,000	-0,004	0,062
-134,629	-200,000	0,022	0,093
-133,614	69,616	0,089	0,066
-132,599	-96,336	0,071	0,013
-131,585	259,155	-0,070	0,087
-130,570	102,959	-0,098	-0,082
-129,556	-200,000	-0,024	-0,147
-128,541	-120,570	-0,246	-0,030
-127,526	-200,000	0,048	-0,236
-126,512	145,133	-0,042	0,041
-125,497	-102,832	0,081	-0,014
-124,483	47,327	0,062	0,042
-123,468	-53,178	0,057	0,019
-122,453	485,056	0,019	-0,032
-121,439	28,331	0,023	-0,014
-120,424	-55,125	-0,104	-0,033
-119,410	-89,282	0,041	0,009
