DTS Sentinel unit serial number:	SN410029Multiplexer serial number:	ORYXHardware model number:	OX2-SRSoftware version number:	ORYX F/W v4,00 Oryx Data Collector v3.7.2.0data status	okinstallation	B6 Nyhavnadifferential loss correction	single-endedforward channel	channel 2reverse channel	N/Adate	2023/12/09time	08:30:08forward acquisition time	300,00reverse acquisition time	0,00gamma	499,1914k internal	0,3139k external	0,3139temperature offset calibration	1,0000default loss term (dB/km)	0,3820temperature slope calibration	1,0000multiplexer offset coefficient	1,0000multiplexer slope coefficient	1,0000fibre end	0,00T internal ref (°C)	18,49T ext. ref 1 (°C)	1,94T ext. ref 2 (°C)	1,94length (m)	temperature (°C)	Stokes	anti-Stokes-744,400	9,830	0,159	0,090
-743,385	-42,951	-0,329	0,123
-742,371	-200,000	-0,001	0,012
-741,356	-145,011	-0,239	0,016
-740,342	-26,069	-0,051	0,022
-739,327	-197,071	-0,302	-0,001
-738,312	-36,425	-0,067	0,027
-737,298	-13,257	-0,337	0,162
-736,283	789,097	0,067	0,138
-735,269	35,976	-0,212	0,138
-734,254	-69,736	0,128	0,036
-733,239	-200,000	-0,481	0,001
-732,225	-108,145	0,158	0,025
-731,210	-157,748	-0,043	0,002
-730,196	-200,000	-0,012	-0,092
-729,181	794,412	0,047	-0,097
-728,167	71,100	-0,038	-0,029
-727,152	789,922	-0,072	0,147
-726,137	361,571	0,053	0,079
-725,123	-200,000	0,014	0,152
-724,108	-50,771	-0,114	0,040
-723,094	800,000	-0,032	-0,071
-722,079	-37,945	-0,183	-0,072
-721,064	103,500	-0,093	-0,081
-720,050	128,251	0,015	-0,014
-719,035	-108,889	0,154	0,024
-718,021	94,365	0,079	-0,066
-717,006	538,321	0,068	-0,121
-715,991	-32,674	-0,145	-0,060
-714,977	124,362	-0,051	-0,048
-713,962	279,916	-0,024	-0,032
-712,948	-22,202	0,158	-0,071
-711,933	-143,643	0,037	0,003
-710,918	111,343	-0,154	-0,138
-709,904	800,000	-0,043	-0,139
-708,889	398,552	-0,138	-0,214
-707,875	164,707	-0,184	-0,193
-706,860	-175,739	-0,072	-0,001
-705,845	-200,000	0,013	-0,090
-704,831	183,966	0,102	0,112
-703,816	-90,956	0,120	-0,025
-702,802	-200,000	0,005	-0,032
-701,787	800,000	-0,029	0,083
-700,772	800,000	0,046	-0,134
-699,758	26,414	-0,047	-0,029
-698,743	413,812	0,032	-0,050
-697,729	291,102	0,061	0,082
-696,714	574,721	-0,039	-0,070
-695,699	-123,054	0,153	0,018
-694,685	-129,873	0,170	-0,017
-693,670	-89,385	-0,083	-0,018
-692,656	800,000	0,050	-0,138
-691,641	89,388	0,048	-0,040
-690,627	224,350	-0,101	0,121
-689,612	-161,142	-0,048	0,002
-688,597	536,041	0,005	-0,009
-687,583	-200,000	0,026	0,165
-686,568	145,802	0,043	-0,042
-685,554	-89,122	0,043	-0,009
-684,539	95,051	-0,073	-0,062
-683,524	-200,000	-0,007	-0,109
-682,510	115,248	-0,112	0,101
-681,495	91,283	0,083	0,069
-680,481	-169,664	0,025	0,001
-679,466	-200,000	0,009	-0,085
-678,451	-156,839	0,065	-0,003
-677,437	-200,000	0,001	0,098
-676,422	-200,000	-0,019	-0,103
-675,408	800,000	-0,034	-0,078
-674,393	-200,000	-0,014	-0,046
-673,378	290,181	-0,032	-0,042
-672,364	-200,000	-0,006	0,055
-671,349	18,907	-0,086	-0,051
-670,335	-200,000	0,005	-0,038
-669,320	-200,000	-0,017	0,105
-668,305	54,200	-0,022	0,016
-667,291	-4,893	0,133	-0,068
-666,276	501,029	-0,067	-0,115
-665,262	-33,013	-0,034	0,014
-664,247	397,195	-0,010	-0,016
-663,232	-168,558	-0,054	0,001
-662,218	-200,000	0,001	-0,078
-661,203	-200,000	0,006	0,142
-660,189	-200,000	-0,014	0,164
-659,174	-38,492	-0,094	0,036
-658,159	-200,000	0,000	0,011
-657,145	800,000	0,034	0,102
-656,130	-200,000	0,022	-0,120
-655,116	-200,000	-0,017	-0,071
-654,101	-53,849	-0,043	0,014
-653,086	52,082	0,093	0,066
-652,072	-156,567	0,034	0,002
-651,057	800,000	-0,051	-0,115
-650,043	-71,352	-0,170	-0,047
-649,028	800,000	-0,023	-0,053
-648,014	123,961	0,030	0,028
-646,999	-200,000	-0,005	0,080
-645,984	-72,703	0,042	0,011
-644,970	-171,784	-0,119	-0,003
-643,955	-193,878	-0,089	-0,001
-642,941	-22,294	0,054	-0,024
-641,926	-19,833	-0,101	-0,046
-640,911	-9,717	0,098	-0,048
-639,897	393,695	0,065	0,100
-638,882	451,049	-0,040	0,065
-637,868	-109,989	0,068	0,010
-636,853	-95,073	-0,110	0,022
-635,838	-200,000	-0,015	-0,067
-634,824	611,212	-0,119	-0,221
-633,809	-7,818	0,065	0,032
-632,795	-24,701	-0,013	-0,006
-631,780	380,731	-0,056	-0,086
-630,765	123,678	-0,053	0,049
-629,751	-200,000	-0,011	0,087
-628,736	-200,000	0,023	0,094
-627,722	715,715	-0,004	-0,009
-626,707	316,253	0,036	-0,051
-625,692	800,000	-0,009	-0,026
-624,678	410,648	-0,080	-0,126
-623,663	126,554	-0,042	0,039
-622,649	485,940	0,048	-0,082
-621,634	-200,000	-0,008	-0,102
-620,619	800,000	-0,040	0,102
-619,605	257,883	-0,060	0,077
-618,590	-61,467	-0,127	0,039
-617,576	-200,000	-0,045	0,169
-616,561	-169,552	0,116	-0,003
-615,546	-200,000	0,003	-0,056
-614,532	-195,929	0,046	-0,000
-613,517	-200,000	-0,013	-0,172
-612,503	-200,000	-0,033	0,129
-611,488	764,776	0,010	0,020
-610,474	-200,000	-0,018	0,094
-609,459	-83,309	-0,062	-0,014
-608,444	-107,545	-0,045	0,007
-607,430	347,436	-0,004	-0,006
-606,415	-200,000	0,011	-0,067
-605,401	-200,000	-0,021	-0,092
-604,386	-156,572	0,028	0,001
-603,371	-130,912	-0,074	-0,007
-602,357	800,000	0,010	0,029
-601,342	116,812	-0,031	0,028
-600,328	-122,778	-0,111	0,013
-599,313	-117,048	-0,051	-0,007
-598,298	-11,761	0,090	-0,044
-597,284	357,712	0,012	0,018
-596,269	4,489	0,062	-0,034
-595,255	6,067	0,102	-0,056
-594,240	-20,186	-0,103	-0,047
-593,225	19,195	-0,042	0,025
-592,211	-32,936	0,141	-0,057
-591,196	-169,807	0,054	-0,001
-590,182	484,992	0,066	0,110
-589,167	442,196	0,032	0,051
-588,152	204,635	-0,014	-0,016
-587,138	303,120	0,020	-0,027
-586,123	607,732	-0,100	0,185
-585,109	-200,000	-0,018	-0,078
-584,094	-200,000	0,008	0,053
-583,079	460,132	0,118	0,195
-582,065	-200,000	0,024	0,106
-581,050	-136,338	0,029	-0,002
-580,036	643,123	0,029	-0,054
-579,021	800,000	-0,023	0,071
-578,006	544,989	0,049	-0,086
-576,992	601,921	-0,059	-0,109
-575,977	-200,000	0,023	-0,083
-574,963	14,959	0,060	0,035
-573,948	-16,238	0,077	-0,036
-572,934	24,489	0,115	0,070
-571,919	-200,000	0,036	-0,176
-570,904	-200,000	-0,047	-0,179
-569,890	800,000	-0,065	-0,177
-568,875	-200,000	0,029	0,183
-567,861	324,539	-0,046	0,064
-566,846	-200,000	-0,013	0,058
-565,831	800,000	0,018	0,047
-564,817	118,865	0,068	-0,062
-563,802	-200,000	0,028	-0,111
-562,788	38,039	0,050	-0,033
-561,773	800,000	0,065	-0,138
-560,758	-55,687	-0,043	0,014
-559,744	320,665	-0,039	0,055
-558,729	-16,839	0,058	-0,027
-557,715	-96,433	0,109	-0,021
-556,700	-45,206	-0,036	-0,013
-555,685	366,806	-0,032	-0,047
-554,671	800,000	-0,025	-0,056
-553,656	-200,000	0,042	-0,137
-552,642	-131,502	0,050	0,005
-551,627	-200,000	-0,030	0,139
-550,612	-200,000	-0,031	0,116
-549,598	38,267	-0,207	-0,136
-548,583	317,186	0,128	-0,179
-547,569	-61,643	0,085	0,026
-546,554	800,000	0,054	0,125
-545,539	-200,000	0,009	0,030
-544,525	-200,000	0,049	-0,170
-543,510	701,104	-0,099	-0,192
-542,496	22,221	-0,076	-0,045
-541,481	179,161	-0,068	0,073
-540,466	216,472	0,021	0,024
-539,452	227,784	0,056	0,067
-538,437	-89,400	0,040	0,009
-537,423	-200,000	0,014	0,208
-536,408	-159,956	0,145	0,006
-535,393	178,440	0,094	0,101
-534,379	361,863	-0,071	-0,106
-533,364	800,000	0,024	0,062
-532,350	16,405	-0,041	-0,024
-531,335	494,038	-0,086	0,146
-530,321	237,233	0,075	-0,091
-529,306	-28,808	0,083	-0,035
-528,291	138,185	0,064	0,062
-527,277	-200,000	-0,003	-0,049
-526,262	-138,861	-0,141	0,011
-525,248	684,066	0,037	-0,071
-524,233	-200,000	0,010	0,051
-523,218	-200,000	0,002	0,060
-522,204	-200,000	-0,006	-0,048
-521,189	-11,293	0,070	-0,034
-520,175	-47,323	0,099	-0,035
-519,160	-111,343	-0,144	-0,021
-518,145	61,751	-0,042	0,031
-517,131	236,411	0,021	0,026
-516,116	-64,694	-0,035	0,010
-515,102	63,962	-0,209	0,154
-514,087	18,139	-0,023	0,013
-513,072	-18,053	-0,101	-0,046
-512,058	-0,038	0,070	-0,036
-511,043	226,953	0,047	0,057
-510,029	246,382	0,119	-0,148
-509,014	-27,289	0,077	-0,033
-507,999	79,996	-0,079	-0,062
-506,985	-55,791	0,138	-0,045
-505,970	32,967	-0,055	0,035
-504,956	524,028	0,042	-0,073
-503,941	800,000	0,061	0,129
-502,926	-200,000	-0,027	0,160
-501,912	-180,305	0,137	0,002
-500,897	-200,000	-0,032	-0,165
-499,883	-22,734	-0,108	0,048
-498,868	8,981	0,086	-0,048
-497,853	800,000	-0,025	0,064
-496,839	193,061	0,056	-0,063
-495,824	220,060	-0,090	0,106
-494,810	-125,001	0,039	-0,004
-493,795	-160,551	-0,126	0,005
-492,781	-79,560	-0,170	0,042
-491,766	27,911	-0,131	-0,081
-490,751	406,901	-0,033	-0,051
-489,737	-170,426	0,125	0,003
-488,722	101,815	-0,136	0,116
-487,708	-104,707	0,036	0,006
-486,693	-37,556	0,052	-0,020
-485,678	-70,420	-0,144	-0,040
-484,664	-200,000	0,033	0,000
-483,649	-90,495	-0,111	-0,023
-482,635	355,555	-0,070	-0,102
-481,620	344,480	0,029	0,041
-480,605	14,346	-0,047	0,027
-479,591	-112,138	-0,051	0,007
-478,576	800,000	-0,052	0,109
-477,562	-200,000	0,028	0,102
-476,547	-39,844	0,081	0,031
-475,532	-86,528	-0,121	-0,027
-474,518	-129,923	0,041	0,004
-473,503	378,331	0,092	-0,139
-472,489	-176,185	0,188	0,004
-471,474	-200,000	-0,015	-0,107
-470,459	567,809	0,041	-0,074
-469,445	-101,502	0,082	0,015
-468,430	257,277	-0,077	-0,098
-467,416	27,526	-0,039	-0,024
-466,401	-42,440	0,032	-0,012
-465,386	-200,000	-0,013	0,370
-464,372	-200,000	0,001	0,139
-463,357	398,814	0,045	-0,070
-462,343	-200,000	-0,006	-0,150
-461,328	225,131	-0,035	-0,041
-460,313	38,828	-0,119	-0,078
-459,299	-0,278	0,129	0,067
-458,284	459,183	0,056	-0,091
-457,270	163,507	-0,026	-0,027
-456,255	103,203	0,060	-0,051
-455,241	447,164	0,025	-0,041
-454,226	12,763	0,126	-0,071
-453,211	-27,923	-0,097	-0,041
-452,197	-200,000	-0,038	-0,147
-451,182	-200,000	0,001	-0,005
-450,168	84,282	-0,095	-0,076
-449,153	7,813	0,052	-0,029
-448,138	800,000	0,022	-0,065
-447,124	-200,000	-0,011	-0,065
-446,109	-157,927	0,058	0,002
-445,095	-177,011	-0,120	-0,002
-444,080	29,433	0,134	0,083
-443,065	-166,266	-0,149	-0,005
-442,051	390,333	-0,029	0,044
-441,036	800,000	-0,020	-0,059
-440,022	-200,000	0,023	0,168
-439,007	800,000	-0,022	0,061
-437,992	-176,136	0,096	0,002
-436,978	41,336	0,111	0,074
-435,963	800,000	-0,040	0,101
-434,949	549,874	-0,011	-0,020
-433,934	-23,846	0,125	-0,055
-432,919	-116,388	-0,044	-0,006
-431,905	-16,233	-0,070	0,032
-430,890	-62,240	0,166	-0,050
-429,876	-200,000	-0,005	0,141
-428,861	496,412	-0,044	0,074
-427,846	-200,000	0,001	-0,088
-426,832	129,164	-0,015	0,014
-425,817	59,730	0,113	-0,082
-424,803	800,000	-0,010	0,030
-423,788	261,716	0,028	0,035
-422,773	163,126	0,072	-0,075
-421,759	299,863	0,034	0,045
-420,744	-200,000	0,007	0,042
-419,730	800,000	0,013	-0,029
-418,715	-144,042	-0,035	-0,002
-417,701	-200,000	-0,025	-0,095
-416,686	757,653	0,051	0,101
-415,671	109,714	-0,061	0,054
-414,657	-91,757	0,074	0,015
-413,642	26,711	-0,139	0,085
-412,628	-200,000	0,027	-0,102
-411,613	103,803	-0,102	-0,088
-410,598	-200,000	-0,009	-0,058
-409,584	-60,838	-0,113	0,035
-408,569	37,958	0,029	0,019
-407,555	-200,000	0,012	0,069
-406,540	800,000	-0,035	-0,090
-405,525	800,000	-0,044	-0,112
-404,511	42,647	-0,131	-0,087
-403,496	-1,066	0,113	-0,058
-402,482	625,096	-0,023	-0,043
-401,467	357,145	-0,038	0,055
-400,452	800,000	0,062	0,131
-399,438	-78,999	-0,057	-0,014
-398,423	441,386	0,082	0,132
-397,409	-75,420	0,113	-0,029
-396,394	-200,000	0,002	-0,012
-395,379	800,000	-0,023	-0,051
-394,365	189,213	-0,045	0,050
-393,350	-73,621	0,041	0,011
-392,336	15,230	0,094	0,054
-391,321	-43,216	-0,030	-0,011
-390,306	-200,000	-0,022	-0,087
-389,292	285,374	0,019	-0,025
-388,277	-93,986	-0,094	0,019
-387,263	203,155	0,110	0,125
-386,248	399,193	-0,033	0,051
-385,233	-200,000	-0,012	-0,048
-384,219	800,000	-0,014	-0,035
-383,204	-200,000	-0,002	-0,020
-382,190	-200,000	0,008	0,041
-381,175	800,000	-0,065	0,164
-380,160	-92,157	-0,019	0,004
-379,146	-200,000	-0,009	0,116
-378,131	466,291	-0,033	-0,053
-377,117	147,904	0,046	-0,046
-376,102	-101,941	-0,084	0,015
-375,088	-44,233	-0,142	-0,052
-374,073	-200,000	0,002	-0,094
-373,058	-86,427	-0,143	0,032
-372,044	800,000	0,027	0,069
-371,029	65,743	0,099	-0,073
-370,015	711,862	0,048	-0,093
-369,000	-108,232	-0,068	-0,011
-367,985	464,766	-0,060	0,099
-366,971	800,000	0,052	0,148
-365,956	800,000	-0,045	-0,136
-364,942	475,390	-0,030	0,050
-363,927	-200,000	-0,035	0,140
-362,912	-5,693	-0,039	-0,020
-361,898	152,267	-0,056	0,056
-360,883	-200,000	0,009	0,050
-359,869	-22,388	-0,096	0,042
-358,854	-133,096	-0,092	0,008
-357,839	-81,146	-0,071	-0,017
-356,825	320,412	-0,054	0,075
-355,810	192,768	0,081	0,089
-354,796	-200,000	0,005	0,081
-353,781	116,515	-0,079	-0,071
-352,766	-127,342	0,071	-0,007
-351,752	-200,000	0,006	-0,027
-350,737	-3,463	0,129	0,065
-349,723	-13,582	0,101	0,048
-348,708	-112,472	-0,117	0,017
-347,693	-200,000	0,012	0,153
-346,679	585,251	-0,075	0,135
-345,664	-200,000	-0,018	0,070
-344,650	-200,000	0,007	0,131
-343,635	-146,647	0,147	0,009
-342,620	-84,340	0,115	0,026
-341,606	-72,517	-0,111	0,030
-340,591	800,000	0,027	-0,059
-339,577	5,900	-0,072	0,039
-338,562	-22,918	0,055	-0,024
-337,548	-52,393	-0,135	-0,045
-336,533	-78,829	-0,101	-0,025
-335,518	280,641	0,063	-0,083
-334,504	76,817	-0,067	0,051
-333,489	-200,000	0,031	0,115
-332,475	26,914	-0,065	-0,040
-331,460	-200,000	-0,006	0,039
-330,445	-200,000	0,021	0,076
-329,431	-200,000	0,028	0,121
-328,416	800,000	0,024	0,063
-327,402	149,839	0,085	-0,084
-326,387	-142,155	0,100	-0,007
-325,372	-200,000	0,014	0,062
-324,358	-200,000	-0,018	-0,176
-323,343	93,377	-0,053	-0,044
-322,329	36,106	-0,094	-0,060
-321,314	-87,085	0,122	-0,027
-320,299	94,692	-0,056	0,047
-319,285	-200,000	0,000	0,017
-318,270	163,181	-0,080	-0,082
-317,256	-98,627	-0,077	-0,014
-316,241	-120,134	0,144	-0,018
-315,226	314,461	0,006	-0,008
-314,212	800,000	-0,044	0,123
-313,197	-141,328	0,061	-0,004
-312,183	800,000	0,047	-0,114
-311,168	-4,892	-0,115	-0,057
-310,153	294,987	-0,058	-0,077
-309,139	800,000	-0,011	0,035
-308,124	186,517	-0,061	-0,066
-307,110	-114,226	0,116	0,016
-306,095	-200,000	0,008	0,040
-305,080	-200,000	-0,022	0,126
-304,066	134,747	-0,015	0,014
-303,051	502,866	-0,047	0,079
-302,037	-200,000	-0,020	0,064
-301,022	-200,000	-0,004	-0,135
-300,008	800,000	-0,046	-0,120
-298,993	-200,000	0,016	0,094
-297,978	171,401	0,142	0,149
-296,964	-200,000	0,023	0,134
-295,949	-200,000	0,013	-0,105
-294,935	75,590	-0,070	-0,054
-293,920	-4,102	-0,039	-0,019
-292,905	-55,957	0,143	0,046
-291,891	296,130	-0,043	0,057
-290,876	123,100	-0,027	0,025
-289,862	-161,074	0,026	-0,001
-288,847	452,283	-0,049	-0,079
-287,832	-33,100	-0,101	-0,041
-286,818	-200,000	0,004	0,016
-285,803	-16,972	0,084	-0,038
-284,789	590,245	-0,031	0,056
-283,774	800,000	0,025	0,056
-282,759	297,848	-0,067	0,089
-281,745	-81,774	0,073	0,017
-280,730	-200,000	-0,002	-0,096
-279,716	-91,426	0,167	0,035
-278,701	-39,803	0,118	-0,045
-277,686	800,000	0,034	0,103
-276,672	552,974	-0,057	0,100
-275,657	-200,000	0,005	0,051
-274,643	-200,000	0,028	-0,115
-273,628	123,967	0,128	-0,117
-272,613	139,690	0,077	-0,074
-271,599	-200,000	0,010	0,050
-270,584	48,264	0,131	0,089
-269,570	31,227	0,133	0,083
-268,555	148,397	0,032	0,031
-267,540	236,461	0,047	-0,056
-266,526	-167,202	0,104	-0,003
-265,511	-108,171	-0,166	-0,026
-264,497	800,000	-0,021	0,055
-263,482	-200,000	0,007	0,091
-262,467	-39,912	0,089	0,034
-261,453	0,778	0,054	-0,028
-260,438	800,000	-0,024	-0,071
-259,424	-123,246	-0,060	0,007
-258,409	142,177	0,016	-0,015
-257,395	633,642	-0,020	0,037
-256,380	-20,981	0,019	-0,009
-255,365	11,752	-0,080	-0,044
-254,351	86,370	-0,057	0,046
-253,336	-200,000	0,009	0,077
-252,322	100,601	0,074	-0,062
-251,307	-200,000	0,013	0,045
-250,292	800,000	-0,024	0,067
-249,278	197,157	0,115	0,128
-248,263	351,654	0,044	-0,063
-247,249	-200,000	-0,011	0,040
-246,234	307,199	-0,046	0,063
-245,219	800,000	0,038	0,104
-244,205	800,000	-0,066	-0,175
-243,190	255,533	0,040	-0,049
-242,176	-200,000	-0,003	0,081
-241,161	357,377	-0,044	-0,064
-240,146	-135,271	0,029	-0,002
-239,132	-200,000	-0,021	-0,151
-238,117	-200,000	-0,050	-0,162
-237,103	800,000	0,033	-0,079
-236,088	-200,000	-0,015	-0,101
-235,073	800,000	-0,068	0,178
-234,059	800,000	0,017	-0,051
-233,044	800,000	0,032	-0,101
-232,030	729,943	-0,052	-0,101
-231,015	-77,604	-0,134	-0,033
-230,000	-176,139	-0,063	-0,001
-228,986	-200,000	0,011	-0,068
-227,971	-200,000	-0,019	0,065
-226,957	800,000	0,029	0,082
-225,942	-200,000	-0,006	-0,226
-224,927	-200,000	-0,021	0,070
-223,913	-200,000	-0,021	-0,084
-222,898	-200,000	-0,015	0,086
-221,884	-31,534	0,078	0,032
-220,869	37,623	-0,045	-0,029
-219,855	-4,011	0,110	0,055
-218,840	60,103	0,055	0,040
-217,825	800,000	-0,009	-0,019
-216,811	-98,339	0,070	0,013
-215,796	182,049	0,141	0,151
-214,782	-69,131	0,071	-0,020
-213,767	-200,000	-0,019	0,115
-212,752	-5,742	0,182	-0,090
-211,738	94,861	-0,078	0,065
-210,723	-146,761	0,015	0,001
-209,709	800,000	0,052	-0,113
-208,694	-2,433	-0,120	-0,061
-207,679	20,679	-0,161	-0,094
-206,665	-39,913	-0,053	0,020
-205,650	164,442	0,071	0,072
-204,636	-20,905	0,032	-0,014
-203,621	188,232	0,056	0,061
-202,606	-102,585	-0,141	-0,024
-201,592	105,769	-0,018	-0,015
-200,577	-9,636	-0,060	-0,029
-199,563	800,000	-0,037	0,093
-198,548	327,735	0,041	-0,057
-197,533	-68,402	0,049	-0,014
-196,519	67,661	0,040	0,030
-195,504	-200,000	0,033	-0,147
-194,490	323,390	-0,121	-0,168
-193,475	72,851	-0,112	-0,085
-192,460	800,000	-0,034	-0,077
-191,446	800,000	-0,053	-0,127
-190,431	800,000	-0,041	0,107
-189,417	-200,000	-0,005	-0,039
-188,402	-200,000	0,012	0,073
-187,387	575,942	-0,094	-0,168
-186,373	726,970	-0,043	-0,084
-185,358	1,278	-0,052	0,027
-184,344	800,000	0,036	-0,074
-183,329	21,727	0,120	0,071
-182,315	65,434	0,061	0,045
-181,300	55,537	-0,089	0,062
-180,285	-200,000	0,008	-0,095
-179,271	-84,492	-0,101	-0,023
-178,256	-200,000	-0,011	0,057
-177,242	27,696	-0,034	0,021
-176,227	-200,000	0,013	0,043
-175,212	-200,000	0,034	0,175
-174,198	-200,000	0,017	-0,145
-173,183	-66,707	-0,028	-0,008
-172,169	6,829	-0,027	-0,015
-171,154	800,000	0,017	0,044
-170,139	141,589	0,067	0,064
-169,125	19,962	0,046	-0,027
-168,110	800,000	0,058	0,127
-167,096	-200,000	0,008	0,121
-166,081	800,000	-0,052	0,120
-165,066	-200,000	0,041	-0,163
-164,052	-200,000	0,010	-0,139
-163,037	-200,000	0,011	0,041
-162,023	800,000	-0,041	0,088
-161,008	19,613	0,028	-0,017
-159,993	409,915	0,052	-0,079
-158,979	236,554	0,022	0,026
-157,964	102,497	-0,042	0,036
-156,950	73,068	0,018	0,014
-155,935	-200,000	0,004	-0,045
-154,920	-16,993	0,059	-0,027
-153,906	-118,406	0,036	0,005
-152,891	410,017	0,041	-0,063
-151,877	68,820	0,050	-0,037
-150,862	-52,822	0,046	0,015
-149,847	-2,720	-0,059	0,030
-148,833	12,279	0,162	-0,090
-147,818	800,000	-0,013	0,037
-146,804	42,261	-0,036	-0,024
-145,789	-200,000	-0,001	-0,019
-144,775	520,241	-0,015	0,026
-143,760	-102,358	-0,074	-0,013
-142,745	-89,849	-0,075	-0,016
-141,731	-16,115	-0,085	0,039
-140,716	-52,324	0,046	0,015
-139,702	-78,555	-0,091	0,022
-138,687	-35,390	-0,047	0,019
-137,672	-59,252	-0,109	-0,034
-136,658	-108,292	-0,068	-0,010
-135,643	-144,526	-0,098	-0,006
-134,629	-200,000	0,004	-0,073
-133,614	-65,903	0,074	0,021
-132,599	20,323	-0,112	0,065
-131,585	296,481	-0,025	-0,034
-130,570	34,588	0,106	-0,067
-129,556	-34,286	-0,172	0,068
-128,541	-200,000	0,009	0,201
-127,526	141,783	0,080	-0,077
-126,512	381,595	0,030	-0,044
-125,497	800,000	0,002	0,006
-124,483	-53,295	0,205	0,068
-123,468	-200,000	-0,006	0,037
-122,453	-200,000	0,004	-0,018
-121,439	-9,735	-0,129	-0,062
-120,424	800,000	0,069	-0,164
