DTS Sentinel unit serial number:	SN410029Multiplexer serial number:	ORYXHardware model number:	OX2-SRSoftware version number:	ORYX F/W v4,00 Oryx Data Collector v3.7.2.0data status	okinstallation	B6 Nyhavnadifferential loss correction	single-endedforward channel	channel 2reverse channel	N/Adate	2023/12/08time	10:45:08forward acquisition time	300,00reverse acquisition time	0,00gamma	499,1914k internal	0,3163k external	0,3163temperature offset calibration	1,0000default loss term (dB/km)	0,3820temperature slope calibration	1,0000multiplexer offset coefficient	1,0000multiplexer slope coefficient	1,0000fibre end	0,00T internal ref (°C)	14,62T ext. ref 1 (°C)	-1,31T ext. ref 2 (°C)	-1,26length (m)	temperature (°C)	Stokes	anti-Stokes-744,400	347,386	0,081	-0,117
-743,385	-137,046	-0,381	0,032
-742,371	-12,291	0,171	0,082
-741,356	-128,730	-0,194	0,020
-740,342	-153,270	0,123	0,006
-739,327	-121,627	-0,299	-0,036
-738,312	-145,325	0,101	0,007
-737,298	-108,393	-0,370	-0,058
-736,283	-71,140	0,140	0,038
-735,269	-4,961	-0,224	0,113
-734,254	-108,011	0,110	0,017
-733,239	-62,299	-0,632	-0,192
-732,225	-120,343	0,218	0,027
-731,210	-200,000	0,035	0,140
-730,196	405,234	-0,050	-0,078
-729,181	181,618	-0,020	0,021
-728,167	-200,000	-0,019	-0,067
-727,152	800,000	-0,032	-0,088
-726,137	-200,000	0,017	-0,108
-725,123	-120,478	-0,098	-0,012
-724,108	23,167	-0,130	-0,078
-723,094	800,000	-0,033	-0,073
-722,079	234,877	-0,052	-0,063
-721,064	-183,668	0,028	-0,000
-720,050	-33,568	-0,078	-0,031
-719,035	600,155	-0,019	-0,035
-718,021	1,528	-0,047	-0,025
-717,006	-123,984	-0,027	-0,003
-715,991	800,000	-0,060	-0,177
-714,977	-200,000	0,011	-0,106
-713,962	561,162	-0,013	-0,023
-712,948	144,995	-0,009	-0,008
-711,933	-43,501	-0,070	0,026
-710,918	-79,317	-0,054	-0,013
-709,904	637,329	-0,032	-0,061
-708,889	108,694	-0,054	0,047
-707,875	59,591	-0,119	-0,086
-706,860	435,341	0,058	-0,093
-705,845	-113,536	0,163	-0,023
-704,831	545,387	-0,070	0,123
-703,816	192,704	-0,031	-0,035
-702,802	800,000	-0,014	0,035
-701,787	333,316	-0,010	-0,014
-700,772	-45,329	0,024	-0,009
-699,758	200,680	-0,011	0,012
-698,743	-125,529	0,118	0,013
-697,729	174,476	-0,007	-0,008
-696,714	294,536	0,028	0,038
-695,699	-163,664	-0,110	-0,004
-694,685	628,777	-0,048	0,090
-693,670	-200,000	-0,003	0,037
-692,656	800,000	0,035	0,078
-691,641	800,000	0,029	0,083
-690,627	-200,000	-0,020	0,070
-689,612	165,944	-0,107	0,111
-688,597	-57,833	-0,148	-0,047
-687,583	800,000	0,065	-0,151
-686,568	38,865	0,105	-0,069
-685,554	-200,000	0,007	0,104
-684,539	34,311	-0,064	0,041
-683,524	224,998	0,109	0,130
-682,510	-200,000	-0,015	0,183
-681,495	-200,000	-0,012	-0,048
-680,481	-132,800	-0,078	0,007
-679,466	-106,288	-0,059	0,010
-678,451	-200,000	-0,014	0,084
-677,437	150,443	0,010	0,010
-676,422	105,950	0,023	-0,020
-675,408	-200,000	-0,030	0,140
-674,393	-142,469	-0,046	-0,003
-673,378	800,000	-0,141	-0,305
-672,364	61,401	-0,175	-0,128
-671,349	-51,366	-0,096	-0,033
-670,335	-183,722	0,087	0,001
-669,320	148,940	-0,012	-0,012
-668,305	578,079	-0,024	0,043
-667,291	33,730	-0,060	0,038
-666,276	3,096	-0,021	0,011
-665,262	73,001	-0,072	0,055
-664,247	355,129	0,070	0,103
-663,232	-63,384	-0,154	0,046
-662,218	39,250	-0,078	-0,051
-661,203	-52,839	0,119	-0,040
-660,189	800,000	-0,026	-0,084
-659,174	-121,956	0,003	0,000
-658,159	-54,689	-0,118	0,039
-657,145	-35,372	0,029	0,012
-656,130	-62,691	-0,200	0,060
-655,116	272,367	0,084	0,109
-654,101	120,925	-0,096	0,087
-653,086	180,194	-0,047	-0,050
-652,072	91,724	-0,043	-0,036
-651,057	-200,000	0,007	0,139
-650,043	219,912	-0,052	0,061
-649,028	240,329	-0,122	0,149
-648,014	55,311	-0,038	0,027
-646,999	297,348	0,107	0,144
-645,984	-55,020	-0,072	0,024
-644,970	171,505	-0,071	-0,075
-643,955	-122,183	0,142	-0,017
-642,941	37,724	0,063	-0,041
-641,926	-157,851	-0,127	-0,005
-640,911	-45,338	0,126	-0,046
-639,897	-200,000	-0,009	0,033
-638,882	4,610	-0,066	0,035
-637,868	800,000	-0,046	0,119
-636,853	-200,000	-0,019	-0,122
-635,838	78,031	-0,111	0,087
-634,824	-97,714	0,041	-0,008
-633,809	127,902	-0,023	-0,021
-632,795	800,000	0,031	0,088
-631,780	-110,617	-0,057	0,009
-630,765	7,282	0,142	0,078
-629,751	800,000	-0,040	-0,084
-628,736	-200,000	0,010	-0,096
-627,722	638,243	-0,058	-0,109
-626,707	211,492	0,107	-0,123
-625,692	-200,000	-0,004	-0,013
-624,678	-155,180	-0,148	0,007
-623,663	106,043	0,030	0,026
-622,649	-169,745	-0,181	0,005
-621,634	-200,000	0,003	-0,066
-620,619	-84,411	-0,097	-0,022
-619,605	-200,000	-0,021	0,079
-618,590	-110,540	-0,088	-0,013
-617,576	686,962	-0,035	0,068
-616,561	-173,845	-0,034	-0,001
-615,546	6,514	0,100	-0,054
-614,532	-58,284	-0,216	-0,069
-613,517	800,000	-0,041	0,102
-612,503	-200,000	0,007	-0,069
-611,488	-200,000	-0,003	-0,074
-610,474	121,679	-0,031	-0,028
-609,459	608,240	0,103	-0,190
-608,444	-147,298	-0,084	0,005
-607,430	-52,330	0,066	0,022
-606,415	-47,996	-0,071	0,025
-605,401	800,000	0,017	-0,047
-604,386	384,247	-0,029	0,043
-603,371	16,012	0,042	-0,024
-602,357	67,017	0,045	0,034
-601,342	36,322	-0,084	0,054
-600,328	-200,000	0,018	-0,059
-599,313	-200,000	0,020	0,074
-598,298	63,070	-0,113	0,083
-597,284	77,918	0,044	-0,034
-596,269	154,816	-0,020	-0,020
-595,255	800,000	0,024	0,077
-594,240	-181,036	-0,041	0,001
-593,225	800,000	-0,061	0,149
-592,211	6,604	-0,107	0,058
-591,196	800,000	-0,003	-0,006
-590,182	173,872	-0,111	0,117
-589,167	-200,000	0,046	0,170
-588,152	-129,337	0,110	-0,011
-587,138	-200,000	0,015	-0,049
-586,123	-200,000	0,011	-0,040
-585,109	370,660	0,075	-0,112
-584,094	-83,544	-0,062	0,014
-583,079	-200,000	0,003	0,187
-582,065	-200,000	0,190	-0,000
-581,050	7,672	-0,070	0,038
-580,036	208,505	0,102	-0,117
-579,021	-200,000	-0,022	-0,133
-578,006	800,000	-0,031	0,065
-576,992	208,395	0,063	0,073
-575,977	800,000	-0,041	-0,103
-574,963	246,527	0,087	0,107
-573,948	-200,000	-0,004	0,064
-572,934	644,810	-0,079	0,148
-571,919	186,861	-0,080	0,087
-570,904	216,238	0,054	-0,063
-569,890	30,014	0,076	-0,047
-568,875	-140,206	-0,058	0,004
-567,861	113,710	-0,056	0,050
-566,846	-200,000	-0,003	-0,087
-565,831	127,475	-0,024	-0,022
-564,817	-200,000	0,025	-0,163
-563,802	-200,000	0,001	-0,157
-562,788	-200,000	-0,005	-0,068
-561,773	122,020	-0,070	-0,064
-560,758	262,994	0,075	-0,096
-559,744	-50,053	0,181	0,062
-558,729	-22,479	0,041	-0,018
-557,715	188,527	0,056	-0,061
-556,700	222,559	-0,006	0,007
-555,685	-16,896	0,017	-0,008
-554,671	-71,135	-0,037	-0,010
-553,656	18,057	-0,022	0,013
-552,642	17,746	0,055	0,032
-551,627	-101,578	0,057	0,010
-550,612	-200,000	-0,004	0,102
-549,598	-163,999	0,112	-0,004
-548,583	-188,074	-0,120	-0,001
-547,569	104,442	-0,050	0,043
-546,554	-200,000	-0,026	-0,097
-545,539	-43,454	0,133	0,049
-544,525	323,875	-0,058	-0,081
-543,510	800,000	0,030	0,062
-542,496	-25,104	0,080	-0,034
-541,481	-200,000	-0,027	-0,101
-540,466	-82,321	-0,019	0,005
-539,452	-200,000	0,007	-0,064
-538,437	-200,000	-0,004	0,075
-537,423	630,233	0,054	0,101
-536,408	-124,367	-0,008	0,001
-535,393	-14,661	-0,120	0,056
-534,379	226,364	0,113	-0,134
-533,364	-162,307	-0,083	0,003
-532,350	221,705	-0,071	0,083
-531,335	800,000	-0,067	0,162
-530,321	1,971	-0,079	-0,042
-529,306	800,000	0,011	0,026
-528,291	655,791	-0,064	-0,121
-527,277	14,801	0,062	0,036
-526,262	800,000	0,037	0,076
-525,248	-48,161	0,121	0,042
-524,233	-10,524	0,089	-0,043
-523,218	107,233	0,048	0,042
-522,204	270,076	0,062	0,080
-521,189	176,517	0,136	0,145
-520,175	800,000	-0,013	-0,029
-519,160	101,771	-0,081	-0,069
-518,145	-21,279	0,184	-0,082
-517,131	507,366	-0,023	-0,039
-516,116	171,101	0,043	-0,045
-515,102	98,724	-0,052	0,044
-514,087	121,507	0,046	0,042
-513,072	-200,000	0,042	-0,137
-512,058	-200,000	0,025	0,089
-511,043	-200,000	0,018	-0,111
-510,029	-200,000	-0,000	-0,026
-509,014	535,644	0,036	0,062
-507,999	-200,000	-0,006	0,028
-506,985	9,053	0,141	-0,078
-505,970	-66,482	-0,202	-0,058
-504,956	-200,000	0,008	-0,127
-503,941	-121,579	-0,034	0,004
-502,926	343,384	0,072	0,103
-501,912	-200,000	0,000	0,080
-500,897	-200,000	-0,003	-0,041
-499,883	800,000	-0,016	-0,044
-498,868	269,035	0,078	-0,100
-497,853	-142,965	-0,142	-0,010
-496,839	25,560	-0,024	-0,015
-495,824	-200,000	-0,001	-0,099
-494,810	-200,000	0,036	0,136
-493,795	-1,698	-0,066	0,034
-492,781	211,199	-0,040	0,046
-491,766	-64,505	0,093	0,027
-490,751	800,000	0,036	0,103
-489,737	536,940	0,103	-0,179
-488,722	49,792	-0,136	0,093
-487,708	128,290	0,114	-0,106
-486,693	141,620	-0,057	0,055
-485,678	-37,995	0,149	0,058
-484,664	-200,000	-0,026	-0,127
-483,649	434,188	-0,035	-0,056
-482,635	104,104	0,086	-0,074
-481,620	-143,423	0,161	-0,011
-480,605	-200,000	0,027	0,119
-479,591	-69,830	0,061	-0,017
-478,576	210,707	-0,036	-0,041
-477,562	-58,448	0,111	-0,035
-476,547	482,796	0,055	-0,092
-475,532	532,444	-0,043	-0,074
-474,518	98,358	0,102	0,086
-473,503	22,442	-0,104	0,062
-472,489	-6,657	0,032	-0,016
-471,474	800,000	0,014	0,037
-470,459	47,978	-0,152	-0,103
-469,445	-92,962	-0,041	0,008
-468,430	-200,000	-0,038	-0,221
-467,416	140,790	0,103	0,099
-466,401	-18,387	-0,085	0,038
-465,386	303,735	0,057	0,077
-464,372	800,000	-0,029	0,074
-463,357	-60,635	-0,216	-0,066
-462,343	-121,737	-0,189	0,023
-461,328	-200,000	-0,020	0,099
-460,313	347,919	0,098	0,141
-459,299	-64,879	0,146	-0,043
-458,284	384,646	-0,031	0,047
-457,270	-81,467	-0,154	0,037
-456,255	-200,000	-0,031	-0,112
-455,241	-147,231	-0,046	0,003
-454,226	-200,000	0,046	0,176
-453,211	-200,000	-0,031	0,144
-452,197	195,637	0,097	-0,108
-451,182	-6,168	-0,021	0,010
-450,168	-200,000	0,015	-0,115
-449,153	261,766	-0,054	-0,069
-448,138	107,443	-0,033	0,028
-447,124	-95,481	-0,128	-0,025
-446,109	-5,847	-0,033	-0,016
-445,095	104,015	-0,058	-0,049
-444,080	-200,000	0,015	0,112
-443,065	532,570	0,053	0,091
-442,051	409,248	-0,048	0,075
-441,036	150,117	-0,084	0,083
-440,022	304,524	0,016	0,021
-439,007	131,848	0,074	0,069
-437,992	-12,014	0,195	0,092
-436,978	31,819	-0,095	0,059
-435,963	108,287	-0,111	-0,096
-434,949	-200,000	-0,028	-0,115
-433,934	-200,000	-0,052	-0,173
-432,919	757,402	-0,014	-0,027
-431,905	800,000	0,059	-0,139
-430,890	-74,247	-0,045	-0,012
-429,876	-131,825	-0,034	0,003
-428,861	-200,000	-0,029	0,137
-427,846	-200,000	0,004	0,038
-426,832	-200,000	0,023	-0,078
-425,817	62,243	0,120	0,087
-424,803	151,929	-0,062	0,061
-423,788	-200,000	0,021	0,213
-422,773	62,350	-0,047	0,034
-421,759	-37,130	-0,045	-0,017
-420,744	146,643	0,093	0,091
-419,730	107,942	-0,102	0,089
-418,715	-156,315	-0,057	0,003
-417,701	-98,680	-0,049	-0,009
-416,686	-153,728	0,213	0,010
-415,671	37,367	0,141	0,091
-414,657	-69,670	0,052	-0,014
-413,642	640,940	-0,082	-0,153
-412,628	-200,000	-0,013	0,115
-411,613	-200,000	-0,004	0,015
-410,598	688,897	0,015	-0,029
-409,584	800,000	0,069	0,149
-408,569	3,077	0,133	0,070
-407,555	131,297	-0,058	0,055
-406,540	-52,482	0,110	-0,037
-405,525	-42,987	0,066	0,024
-404,511	142,346	-0,114	-0,110
-403,496	800,000	0,081	-0,191
-402,482	1,652	0,083	-0,043
-401,467	4,052	0,054	-0,028
-400,452	295,361	-0,020	0,026
-399,438	800,000	-0,023	0,054
-398,423	158,169	0,045	0,045
-397,409	-69,783	-0,115	0,032
-396,394	-60,988	0,070	0,021
-395,379	-90,047	0,101	-0,021
-394,365	742,400	-0,034	0,066
-393,350	-12,514	0,031	0,015
-392,336	-115,182	-0,055	0,008
-391,321	348,931	0,111	-0,159
-390,306	51,662	-0,066	0,045
-389,292	-200,000	-0,012	-0,068
-388,277	-200,000	0,001	-0,020
-387,263	-200,000	-0,014	0,089
-386,248	-200,000	0,023	0,142
-385,233	-191,010	-0,111	-0,001
-384,219	568,356	0,057	-0,101
-383,204	388,595	-0,043	0,065
-382,190	-55,049	0,137	-0,044
-381,175	-200,000	0,017	0,087
-380,160	-69,046	0,049	0,013
-379,146	800,000	-0,021	-0,047
-378,131	800,000	0,050	0,104
-377,117	-99,835	0,077	0,014
-376,102	-130,474	0,027	-0,003
-375,088	-10,791	-0,053	0,025
-374,073	191,744	-0,020	0,022
-373,058	-31,614	0,065	-0,026
-372,044	-200,000	-0,005	0,108
-371,029	518,738	-0,061	-0,103
-370,015	-82,248	-0,083	-0,019
-369,000	714,768	0,036	-0,070
-367,985	-200,000	0,001	0,018
-366,971	-200,000	0,014	0,076
-365,956	-0,592	0,062	-0,032
-364,942	-200,000	0,031	0,138
-363,927	-88,537	-0,027	0,006
-362,912	18,728	-0,018	-0,010
-361,898	598,501	-0,028	-0,051
-360,883	303,221	0,022	-0,030
-359,869	-90,457	-0,088	0,018
-358,854	118,689	0,043	-0,039
-357,839	-200,000	0,004	-0,065
-356,825	80,651	0,054	-0,042
-355,810	-34,334	-0,035	0,014
-354,796	127,612	0,010	0,009
-353,781	-200,000	-0,011	-0,089
-352,766	800,000	0,008	-0,018
-351,752	-200,000	0,058	-0,234
-350,737	286,440	0,016	-0,021
-349,723	41,303	0,179	0,117
-348,708	-5,242	-0,050	-0,025
-347,693	800,000	-0,035	0,082
-346,679	0,071	0,060	-0,031
-345,664	-56,834	0,039	0,012
-344,650	741,354	0,042	0,081
-343,635	800,000	0,054	0,113
-342,620	-200,000	-0,004	-0,122
-341,606	-92,977	0,097	0,019
-340,591	-200,000	-0,006	-0,087
-339,577	-76,898	-0,133	0,033
-338,562	-180,521	-0,033	0,000
-337,548	-132,146	0,176	0,016
-336,533	800,000	-0,044	-0,132
-335,518	-184,063	0,002	0,000
-334,504	-80,494	0,171	-0,041
-333,489	800,000	0,027	0,084
-332,475	-28,826	-0,038	0,016
-331,460	-145,091	0,064	-0,004
-330,445	-46,027	-0,053	0,019
-329,431	-129,998	0,100	0,010
-328,416	800,000	0,042	-0,089
-327,402	-60,359	-0,015	-0,004
-326,387	-24,884	-0,006	0,002
-325,372	800,000	-0,046	-0,137
-324,358	431,003	-0,043	-0,068
-323,343	-51,257	0,067	-0,023
-322,329	316,435	0,087	0,119
-321,314	800,000	0,034	-0,100
-320,299	705,233	-0,038	0,073
-319,285	-200,000	-0,004	0,142
-318,270	2,877	-0,065	-0,034
-317,256	-33,365	-0,062	-0,025
-316,241	248,165	0,058	-0,071
-315,226	-151,651	0,062	-0,003
-314,212	-115,027	0,038	0,005
-313,197	140,351	0,091	-0,087
-312,183	-200,000	-0,012	0,046
-311,168	75,570	-0,085	0,065
-310,153	800,000	0,017	0,041
-309,139	-69,108	0,065	-0,018
-308,124	78,408	-0,061	-0,047
-307,110	-200,000	0,003	0,108
-306,095	-9,363	-0,072	0,034
-305,080	800,000	-0,040	0,123
-304,066	-200,000	0,005	0,020
-303,051	409,464	-0,105	-0,161
-302,037	-11,996	-0,099	0,047
-301,022	800,000	0,023	-0,047
-300,008	796,773	0,038	0,075
-298,993	275,379	0,016	0,021
-297,978	195,391	0,057	0,062
-296,964	800,000	0,003	-0,008
-295,949	800,000	-0,015	-0,045
-294,935	800,000	-0,012	-0,027
-293,920	22,784	0,087	0,052
-292,905	-200,000	0,013	0,098
-291,891	92,468	-0,105	0,085
-290,876	800,000	-0,056	0,128
-289,862	-200,000	0,007	-0,034
-288,847	-115,929	-0,123	-0,016
-287,832	-200,000	-0,013	-0,112
-286,818	517,971	0,012	-0,021
-285,803	51,971	0,035	-0,024
-284,789	800,000	-0,027	0,059
-283,774	-169,545	0,152	0,004
-282,759	-37,043	0,084	-0,033
-281,745	-200,000	-0,011	-0,056
-280,730	-200,000	0,005	-0,035
-279,716	99,109	-0,111	0,092
-278,701	800,000	0,030	0,064
-277,686	178,020	0,119	-0,125
-276,672	-6,982	-0,006	-0,003
-275,657	-42,634	-0,013	0,005
-274,643	-140,772	0,085	-0,006
-273,628	-200,000	-0,038	-0,124
-272,613	482,805	0,110	-0,181
-271,599	203,279	-0,037	-0,042
-270,584	-124,885	-0,102	-0,011
-269,570	-24,236	-0,070	0,030
-268,555	800,000	-0,033	-0,069
-267,540	-166,307	-0,056	-0,002
-266,526	-28,629	-0,192	-0,079
-265,511	95,486	-0,131	-0,108
-264,497	194,684	-0,024	0,026
-263,482	-200,000	-0,009	0,035
-262,467	414,737	-0,037	0,058
-261,453	-6,878	-0,068	0,033
-260,438	800,000	0,043	-0,129
-259,424	230,169	0,074	-0,088
-258,409	84,289	-0,085	-0,067
-257,395	-54,384	-0,028	0,009
-256,380	-92,658	-0,183	0,037
-255,365	-116,246	-0,077	-0,010
-254,351	3,528	0,052	0,028
-253,336	-200,000	0,014	-0,160
-252,322	102,893	-0,070	-0,059
-251,307	-147,543	-0,050	-0,003
-250,292	147,139	0,022	0,021
-249,278	-200,000	0,002	-0,105
-248,263	-183,074	-0,033	0,000
-247,249	177,550	0,045	-0,047
-246,234	-45,980	0,076	0,027
-245,219	-200,000	-0,002	0,033
-244,205	-151,131	-0,062	0,003
-243,190	-3,934	-0,065	-0,033
-242,176	-154,830	0,035	-0,002
-241,161	-200,000	0,031	-0,188
-240,146	-167,801	0,034	0,001
-239,132	-45,105	0,002	-0,001
-238,117	168,716	-0,167	-0,172
-237,103	-200,000	-0,059	0,189
-236,088	800,000	0,075	-0,172
-235,073	-200,000	-0,011	-0,050
-234,059	-94,451	-0,062	0,012
-233,044	91,921	-0,131	0,106
-232,030	-109,049	0,080	-0,012
-231,015	159,747	-0,118	0,119
-230,000	467,726	0,078	0,126
-228,986	-115,406	0,042	0,006
-227,971	-152,988	-0,065	-0,003
-226,957	593,535	0,049	0,088
-225,942	130,077	0,059	0,054
-224,927	162,221	-0,046	0,046
-223,913	-200,000	-0,005	-0,138
-222,898	-40,106	0,107	0,040
-221,884	-200,000	0,014	-0,063
-220,869	-200,000	0,001	-0,033
-219,855	-200,000	-0,001	0,028
-218,840	383,794	0,041	0,061
-217,825	486,832	0,030	0,050
-216,811	108,620	-0,130	0,112
-215,796	45,662	-0,033	-0,022
-214,782	31,502	0,039	0,024
-213,767	146,025	-0,055	0,054
-212,752	-130,529	0,138	0,013
-211,738	-200,000	0,008	-0,042
-210,723	-104,593	0,038	0,006
-209,709	-200,000	0,022	0,097
-208,694	800,000	-0,045	-0,102
-207,679	-77,205	0,177	-0,044
-206,665	338,358	0,008	0,011
-205,650	-200,000	-0,006	-0,082
-204,636	329,654	0,059	0,081
-203,621	800,000	-0,037	0,091
-202,606	-30,708	-0,052	0,021
-201,592	47,790	-0,019	-0,012
-200,577	-122,138	0,095	0,011
-199,563	-105,896	-0,073	-0,012
-198,548	129,278	0,102	0,094
-197,533	11,742	-0,091	0,050
-196,519	732,330	0,056	0,108
-195,504	-117,755	-0,062	0,008
-194,490	-28,692	-0,046	-0,019
-193,475	-95,260	-0,113	-0,022
-192,460	-84,287	-0,033	0,007
-191,446	-130,085	0,079	0,008
-190,431	25,314	-0,071	-0,042
-189,417	-132,047	-0,098	0,009
-188,402	-200,000	0,013	-0,084
-187,387	76,525	-0,122	-0,093
-186,373	-200,000	0,025	-0,142
-185,358	348,378	0,038	0,055
-184,344	60,128	-0,094	-0,067
-183,329	-45,448	0,030	0,011
-182,315	-134,551	0,141	-0,012
-181,300	800,000	-0,028	-0,058
-180,285	192,572	-0,035	0,039
-179,271	-120,264	-0,140	-0,017
-178,256	1,168	0,130	-0,067
-177,242	-70,369	0,072	-0,019
-176,227	206,405	-0,032	0,036
-175,212	243,607	-0,049	-0,059
-174,198	37,965	0,043	-0,028
-173,183	155,558	0,019	-0,018
-172,169	-136,249	-0,071	-0,006
-171,154	-5,707	0,122	-0,060
-170,139	-175,001	0,113	-0,002
-169,125	-19,874	0,098	0,043
-168,110	800,000	-0,023	0,049
-167,096	-13,402	-0,086	0,040
-166,081	502,488	-0,082	0,138
-165,066	-105,427	-0,075	-0,012
-164,052	550,942	-0,062	-0,107
-163,037	-42,372	-0,054	-0,020
-162,023	117,271	0,052	-0,046
-161,008	-200,000	-0,002	-0,090
-159,993	-200,000	-0,036	0,117
-158,979	279,202	0,062	0,080
-157,964	-153,630	-0,103	-0,005
-156,950	-2,265	0,050	-0,025
-155,935	-93,539	0,120	0,024
-154,920	438,581	-0,067	0,106
-153,906	784,026	0,027	0,054
-152,891	-99,738	-0,036	-0,006
-151,877	-200,000	-0,004	0,031
-150,862	12,730	-0,149	-0,083
-149,847	-37,292	-0,068	-0,026
-148,833	77,347	-0,028	0,022
-147,818	-140,999	-0,122	0,009
-146,804	576,361	-0,065	0,114
-145,789	-200,000	0,011	0,099
-144,775	800,000	0,031	0,066
-143,760	-200,000	0,015	-0,272
-142,745	50,470	-0,073	0,049
-141,731	-25,539	0,176	0,074
-140,716	513,951	-0,041	0,069
-139,702	-156,927	0,076	-0,003
-138,687	78,483	-0,050	-0,038
-137,672	-59,991	0,062	-0,019
-136,658	800,000	0,029	-0,083
-135,643	-200,000	-0,028	-0,094
-134,629	-200,000	0,000	-0,062
-133,614	800,000	0,043	-0,101
-132,599	115,046	-0,104	-0,091
-131,585	-78,424	0,092	0,023
-130,570	-5,659	-0,048	-0,024
-129,556	-200,000	-0,016	-0,071
-128,541	-155,320	-0,115	0,005
-127,526	-55,925	0,070	0,022
-126,512	-92,201	-0,178	0,036
-125,497	107,482	0,094	-0,081
-124,483	800,000	-0,072	-0,192
-123,468	-113,309	0,113	-0,016
-122,453	10,042	-0,032	-0,017
-121,439	-121,864	0,116	0,014
-120,424	-200,000	-0,083	0,000
