DTS Sentinel unit serial number:	SN410029Multiplexer serial number:	ORYXHardware model number:	OX2-SRSoftware version number:	ORYX F/W v4,00 Oryx Data Collector v3.7.2.0data status	okinstallation	B6 Nyhavnadifferential loss correction	single-endedforward channel	channel 2reverse channel	N/Adate	2023/12/11time	06:00:08forward acquisition time	300,00reverse acquisition time	0,00gamma	499,1914k internal	0,3126k external	0,3126temperature offset calibration	1,0000default loss term (dB/km)	0,3820temperature slope calibration	1,0000multiplexer offset coefficient	1,0000multiplexer slope coefficient	1,0000fibre end	0,00T internal ref (°C)	19,75T ext. ref 1 (°C)	2,90T ext. ref 2 (°C)	2,92length (m)	temperature (°C)	Stokes	anti-Stokes-744,400	65,523	0,161	-0,121
-743,385	-142,467	-0,200	0,014
-742,371	17,402	0,152	-0,089
-741,356	-30,233	-0,263	0,111
-740,342	-152,797	0,117	0,006
-739,327	-163,760	-0,310	0,011
-738,312	-169,645	0,098	0,003
-737,298	-16,434	-0,301	0,141
-736,283	106,876	0,112	0,099
-735,269	-84,677	-0,366	0,085
-734,254	800,000	0,039	0,082
-733,239	104,125	-0,245	-0,215
-732,225	33,118	0,058	-0,037
-731,210	147,088	-0,022	-0,022
-730,196	-41,373	0,176	-0,067
-729,181	-10,699	0,040	-0,019
-728,167	220,665	-0,044	0,053
-727,152	-85,544	-0,141	-0,032
-726,137	76,100	-0,078	-0,062
-725,123	131,053	-0,113	0,108
-724,108	76,750	-0,121	-0,096
-723,094	329,158	-0,050	-0,072
-722,079	97,625	-0,094	-0,080
-721,064	-200,000	0,009	-0,121
-720,050	-48,457	-0,031	-0,011
-719,035	-92,822	0,064	-0,013
-718,021	-165,028	-0,087	0,003
-717,006	63,666	0,087	0,065
-715,991	-200,000	0,016	-0,135
-714,977	455,257	0,028	0,046
-713,962	800,000	-0,048	-0,118
-712,948	678,684	-0,034	-0,066
-711,933	-200,000	0,009	0,099
-710,918	-200,000	0,010	-0,051
-709,904	46,621	-0,038	-0,026
-708,889	-43,025	-0,084	0,031
-707,875	-70,235	0,032	0,009
-706,860	-35,448	-0,109	-0,044
-705,845	68,249	0,155	-0,118
-704,831	116,171	-0,049	0,045
-703,816	-43,368	-0,057	-0,021
-702,802	-82,751	-0,059	-0,014
-701,787	-200,000	0,003	-0,039
-700,772	-200,000	-0,012	-0,119
-699,758	153,948	-0,031	0,032
-698,743	800,000	-0,007	-0,020
-697,729	307,491	-0,014	-0,019
-696,714	-200,000	-0,028	-0,116
-695,699	-93,311	0,005	-0,001
-694,685	271,602	-0,039	0,051
-693,670	-187,593	-0,078	-0,001
-692,656	530,851	-0,042	-0,075
-691,641	800,000	-0,028	-0,078
-690,627	-200,000	0,015	0,053
-689,612	-63,029	-0,013	-0,004
-688,597	296,286	0,035	0,047
-687,583	-200,000	0,008	0,053
-686,568	-200,000	0,017	0,175
-685,554	351,424	-0,043	0,064
-684,539	721,850	-0,021	-0,042
-683,524	62,062	-0,073	-0,054
-682,510	-200,000	-0,021	-0,121
-681,495	-200,000	0,027	0,128
-680,481	251,848	-0,018	0,023
-679,466	800,000	0,030	-0,085
-678,451	-200,000	-0,015	-0,099
-677,437	-95,349	0,093	-0,018
-676,422	-157,405	0,195	-0,009
-675,408	-117,596	-0,102	0,014
-674,393	300,038	0,047	0,064
-673,378	800,000	-0,027	0,085
-672,364	-152,473	-0,170	-0,009
-671,349	24,837	-0,104	-0,064
-670,335	-164,272	0,140	-0,005
-669,320	175,230	0,064	-0,069
-668,305	-60,412	-0,104	-0,033
-667,291	679,182	-0,016	-0,031
-666,276	342,482	-0,073	0,106
-665,262	-200,000	0,022	-0,100
-664,247	-200,000	-0,038	-0,144
-663,232	163,481	0,114	0,120
-662,218	800,000	-0,044	-0,120
-661,203	800,000	-0,018	0,052
-660,189	-83,677	-0,055	-0,013
-659,174	140,015	-0,100	-0,097
-658,159	179,882	0,023	0,025
-657,145	800,000	0,028	-0,059
-656,130	53,504	-0,106	-0,076
-655,116	15,179	-0,082	0,048
-654,101	-200,000	-0,009	-0,070
-653,086	622,368	-0,091	-0,170
-652,072	54,582	-0,067	-0,048
-651,057	-200,000	-0,002	-0,128
-650,043	-200,000	-0,021	-0,110
-649,028	-65,572	-0,132	0,039
-648,014	225,883	0,078	-0,094
-646,999	-175,866	-0,078	-0,002
-645,984	82,149	0,095	0,076
-644,970	-200,000	-0,008	-0,063
-643,955	800,000	-0,030	0,084
-642,941	-11,812	-0,080	-0,039
-641,926	296,815	-0,023	0,031
-640,911	307,199	-0,034	-0,047
-639,897	-78,803	-0,048	-0,012
-638,882	22,083	-0,049	0,029
-637,868	-74,597	0,081	-0,021
-636,853	196,334	-0,037	0,042
-635,838	40,228	0,091	-0,061
-634,824	315,284	-0,028	-0,039
-633,809	109,653	-0,149	0,132
-632,795	-32,711	-0,061	-0,025
-631,780	-22,126	0,119	0,053
-630,765	80,711	-0,028	-0,022
-629,751	-31,883	-0,077	-0,032
-628,736	-200,000	-0,016	-0,109
-627,722	-200,000	-0,016	-0,141
-626,707	800,000	-0,069	0,163
-625,692	231,751	-0,025	-0,031
-624,678	491,772	-0,006	-0,010
-623,663	205,903	-0,035	0,041
-622,649	-134,863	-0,150	-0,013
-621,634	-200,000	0,010	-0,045
-620,619	4,497	0,037	0,020
-619,605	189,018	-0,095	0,105
-618,590	-200,000	0,001	0,053
-617,576	-200,000	-0,014	0,103
-616,561	-83,272	-0,110	0,026
-615,546	359,685	0,063	-0,094
-614,532	-119,580	-0,069	-0,009
-613,517	-162,441	0,037	-0,001
-612,503	-200,000	-0,008	-0,032
-611,488	186,350	-0,078	0,086
-610,474	-53,115	-0,071	0,024
-609,459	-200,000	0,002	0,022
-608,444	43,818	0,060	-0,041
-607,430	-106,980	-0,123	0,020
-606,415	-49,418	-0,120	-0,042
-605,401	-105,416	0,076	0,013
-604,386	-35,481	-0,052	0,021
-603,371	800,000	-0,034	-0,091
-602,357	-9,652	-0,034	0,017
-601,342	-200,000	-0,009	0,164
-600,328	-22,776	-0,074	-0,033
-599,313	-72,430	-0,128	-0,035
-598,298	-116,822	-0,030	0,004
-597,284	800,000	0,063	0,146
-596,269	800,000	-0,027	-0,058
-595,255	781,664	0,055	-0,113
-594,240	-200,000	0,009	-0,052
-593,225	-8,853	-0,117	-0,058
-592,211	253,690	-0,074	-0,093
-591,196	332,021	0,016	-0,023
-590,182	-43,248	-0,125	-0,047
-589,167	-139,641	0,170	-0,013
-588,152	308,529	-0,018	-0,024
-587,138	579,254	-0,055	-0,101
-586,123	800,000	0,078	-0,167
-585,109	-173,055	-0,046	-0,001
-584,094	144,345	-0,143	-0,142
-583,079	-58,000	0,183	-0,059
-582,065	-200,000	-0,031	-0,155
-581,050	-85,350	-0,052	-0,012
-580,036	-62,363	0,054	0,017
-579,021	-200,000	-0,031	-0,109
-578,006	-127,843	-0,168	0,018
-576,992	208,563	0,030	0,035
-575,977	38,364	-0,041	-0,027
-574,963	549,640	0,023	-0,042
-573,948	550,821	-0,031	0,055
-572,934	628,747	-0,036	0,067
-571,919	-200,000	-0,007	-0,058
-570,904	-166,750	0,045	-0,001
-569,890	-67,293	-0,037	-0,011
-568,875	-109,536	0,016	0,002
-567,861	-200,000	0,052	0,229
-566,846	26,092	0,077	-0,048
-565,831	-60,537	0,050	-0,016
-564,817	-112,388	-0,098	-0,014
-563,802	68,476	-0,143	-0,109
-562,788	661,452	-0,016	-0,030
-561,773	-104,589	0,119	-0,020
-560,758	-200,000	0,022	0,088
-559,744	-200,000	-0,039	0,134
-558,729	800,000	0,041	0,111
-557,715	44,081	0,034	-0,023
-556,700	32,595	0,081	0,052
-555,685	800,000	0,057	-0,143
-554,671	-200,000	0,014	0,052
-553,656	101,697	-0,035	-0,031
-552,642	-93,077	0,095	0,019
-551,627	800,000	0,031	0,087
-550,612	-47,250	-0,106	0,038
-549,598	-49,829	0,016	-0,006
-548,583	-18,124	0,038	0,018
-547,569	136,929	0,056	-0,054
-546,554	800,000	0,007	-0,019
-545,539	-200,000	0,019	0,067
-544,525	-87,880	0,027	0,006
-543,510	800,000	-0,043	-0,097
-542,496	277,603	-0,081	-0,107
-541,481	298,796	0,053	0,073
-540,466	-169,733	0,081	0,002
-539,452	446,578	-0,068	-0,111
-538,437	-32,726	0,098	0,040
-537,423	-35,493	-0,035	0,014
-536,408	348,600	0,035	-0,050
-535,393	630,948	0,033	0,062
-534,379	-72,665	0,066	-0,018
-533,364	-200,000	-0,007	-0,043
-532,350	-2,538	0,025	0,013
-531,335	-200,000	0,016	0,065
-530,321	-200,000	0,009	-0,065
-529,306	693,020	-0,017	-0,033
-528,291	182,583	0,016	-0,018
-527,277	-81,336	0,006	-0,002
-526,262	179,912	-0,028	0,030
-525,248	298,947	0,038	-0,051
-524,233	-200,000	0,002	0,105
-523,218	24,449	-0,058	0,035
-522,204	-200,000	-0,009	-0,126
-521,189	800,000	-0,045	-0,125
-520,175	-200,000	0,002	-0,068
-519,160	-200,000	-0,008	-0,036
-518,145	-7,745	-0,037	-0,018
-517,131	-54,003	0,110	-0,037
-516,116	800,000	-0,040	0,103
-515,102	800,000	-0,036	0,096
-514,087	95,826	0,150	-0,126
-513,072	-2,883	-0,029	-0,015
-512,058	1,087	0,103	0,055
-511,043	110,903	0,082	0,072
-510,029	140,883	0,042	0,041
-509,014	-200,000	-0,016	0,108
-507,999	800,000	-0,027	0,058
-506,985	-176,117	-0,108	0,002
-505,970	-17,310	0,064	-0,030
-504,956	20,293	0,074	-0,044
-503,941	98,215	-0,136	-0,115
-502,926	-150,456	0,200	0,011
-501,912	642,904	0,022	-0,041
-500,897	184,122	-0,033	0,036
-499,883	279,682	0,042	-0,055
-498,868	165,134	0,067	-0,070
-497,853	69,315	-0,081	0,061
-496,839	-200,000	-0,003	-0,015
-495,824	-19,839	0,174	-0,079
-494,810	-158,994	-0,047	-0,002
-493,795	-116,287	-0,120	0,016
-492,781	31,614	0,118	-0,074
-491,766	-200,000	-0,003	-0,029
-490,751	52,975	0,081	0,057
-489,737	-200,000	0,047	0,181
-488,722	199,549	-0,019	0,022
-487,708	10,329	0,029	-0,016
-486,693	97,148	0,035	0,029
-485,678	-74,024	0,042	-0,011
-484,664	84,949	0,081	0,065
-483,649	-23,658	0,021	0,009
-482,635	71,090	-0,058	-0,044
-481,620	11,865	-0,083	0,047
-480,605	-200,000	-0,014	0,096
-479,591	189,338	0,034	0,038
-478,576	-168,101	0,058	0,002
-477,562	46,163	0,080	0,054
-476,547	403,044	-0,120	-0,187
-475,532	213,379	0,110	0,128
-474,518	-104,271	0,034	-0,006
-473,503	-80,510	0,094	0,023
-472,489	-45,641	-0,113	-0,041
-471,474	378,659	0,018	-0,027
-470,459	800,000	0,032	0,100
-469,445	800,000	0,078	-0,195
-468,430	-185,679	0,129	-0,001
-467,416	215,659	-0,008	-0,010
-466,401	201,443	-0,039	-0,045
-465,386	-12,657	0,055	0,026
-464,372	800,000	0,017	0,036
-463,357	-91,501	0,144	-0,030
-462,343	-89,846	-0,059	0,013
-461,328	-200,000	-0,002	0,049
-460,313	-151,550	0,127	0,007
-459,299	-200,000	-0,001	0,036
-458,284	117,493	-0,215	0,195
-457,270	173,135	0,093	-0,099
-456,255	-200,000	0,005	-0,075
-455,241	332,186	-0,022	0,032
-454,226	-200,000	0,004	-0,207
-453,211	-21,690	-0,046	-0,020
-452,197	-148,725	0,156	-0,009
-451,182	-49,574	0,151	0,053
-450,168	-184,613	0,111	-0,001
-449,153	299,919	-0,020	-0,027
-448,138	800,000	0,024	-0,069
-447,124	800,000	-0,026	-0,070
-446,109	-200,000	-0,005	-0,037
-445,095	-82,095	0,048	0,011
-444,080	573,925	0,033	-0,059
-443,065	-200,000	0,008	-0,076
-442,051	-41,870	-0,054	-0,020
-441,036	-200,000	0,021	-0,092
-440,022	-200,000	0,017	-0,121
-439,007	331,867	0,028	-0,040
-437,992	-19,306	0,076	0,034
-436,978	-100,479	0,094	0,017
-435,963	-200,000	-0,021	-0,072
-434,949	-136,750	-0,113	0,009
-433,934	-165,093	-0,085	0,003
-432,919	-33,286	-0,104	0,042
-431,905	-200,000	-0,011	0,076
-430,890	-26,760	-0,099	-0,042
-429,876	-200,000	-0,006	0,050
-428,861	607,799	-0,097	0,178
-427,846	64,293	0,070	0,052
-426,832	58,032	-0,067	-0,048
-425,817	-200,000	0,021	-0,118
-424,803	94,503	-0,008	0,007
-423,788	732,124	0,060	0,118
-422,773	108,909	0,053	0,047
-421,759	-0,002	-0,156	0,081
-420,744	-200,000	0,019	-0,075
-419,730	-200,000	0,003	0,050
-418,715	136,558	0,031	0,029
-417,701	-200,000	-0,039	-0,149
-416,686	196,226	0,099	0,111
-415,671	-200,000	0,036	0,127
-414,657	-63,434	-0,115	0,034
-413,642	11,338	-0,038	-0,021
-412,628	-200,000	-0,005	-0,018
-411,613	-54,480	-0,148	-0,049
-410,598	82,177	0,056	-0,045
-409,584	-22,773	0,058	-0,026
-408,569	185,882	0,051	0,056
-407,555	800,000	-0,012	0,033
-406,540	617,161	-0,036	-0,067
-405,525	172,280	-0,061	-0,064
-404,511	-200,000	-0,019	-0,088
-403,496	-200,000	-0,034	-0,197
-402,482	-125,295	0,154	0,017
-401,467	-82,819	0,058	-0,014
-400,452	451,246	-0,091	-0,148
-399,438	-52,670	0,034	0,012
-398,423	-1,139	0,065	0,034
-397,409	23,431	-0,036	0,021
-396,394	-59,818	-0,008	-0,003
-395,379	-46,952	0,068	0,024
-394,365	-18,535	-0,071	0,032
-393,350	146,841	0,068	0,067
-392,336	-49,867	0,042	0,015
-391,321	-56,208	0,052	0,017
-390,306	-176,195	0,037	-0,001
-389,292	800,000	-0,007	0,020
-388,277	294,163	0,051	-0,069
-387,263	114,082	0,056	0,050
-386,248	-200,000	0,024	0,090
-385,233	-30,892	0,054	-0,022
-384,219	761,805	-0,024	-0,048
-383,204	-200,000	-0,014	0,127
-382,190	-107,881	-0,062	-0,010
-381,175	-163,835	0,141	-0,005
-380,160	242,964	0,043	0,053
-379,146	-200,000	0,002	0,010
-378,131	-32,693	-0,028	0,012
-377,117	-58,145	-0,025	-0,008
-376,102	72,013	-0,086	-0,066
-375,088	178,141	0,047	-0,050
-374,073	491,641	-0,091	-0,154
-373,058	-45,334	0,130	0,047
-372,044	-150,496	0,075	-0,004
-371,029	111,947	-0,121	-0,107
-370,015	212,145	-0,068	-0,079
-369,000	98,391	-0,061	-0,052
-367,985	710,786	-0,041	-0,080
-366,971	123,729	0,054	-0,050
-365,956	74,992	0,071	0,055
-364,942	-200,000	0,006	-0,059
-363,927	-200,000	0,008	0,136
-362,912	562,265	-0,049	-0,087
-361,898	456,755	0,019	-0,032
-360,883	44,067	0,053	0,036
-359,869	286,175	0,066	0,087
-358,854	674,681	0,084	-0,162
-357,839	-124,873	0,079	-0,009
-356,825	-54,057	-0,104	-0,035
-355,810	298,274	0,036	-0,049
-354,796	-150,429	0,150	0,008
-353,781	-90,652	-0,012	0,003
-352,766	800,000	-0,050	0,156
-351,752	52,147	0,031	0,022
-350,737	-152,108	-0,087	0,005
-349,723	72,137	0,026	-0,020
-348,708	-200,000	-0,019	0,064
-347,693	0,184	-0,076	0,040
-346,679	-200,000	-0,010	-0,034
-345,664	335,644	-0,090	-0,128
-344,650	209,525	-0,054	-0,062
-343,635	800,000	-0,040	0,093
-342,620	105,571	-0,114	0,099
-341,606	-200,000	0,010	0,042
-340,591	-6,168	0,074	0,037
-339,577	-55,744	-0,116	0,038
-338,562	-2,410	0,083	0,043
-337,548	-200,000	0,025	0,153
-336,533	-112,727	-0,115	-0,017
-335,518	800,000	-0,042	0,087
-334,504	87,359	-0,017	-0,014
-333,489	-200,000	-0,002	-0,094
-332,475	-200,000	0,007	0,057
-331,460	-154,257	0,105	-0,005
-330,445	800,000	-0,022	-0,046
-329,431	-108,184	-0,062	-0,010
-328,416	114,334	-0,083	-0,074
-327,402	-200,000	-0,002	0,009
-326,387	364,053	-0,077	0,114
-325,372	-200,000	0,032	-0,120
-324,358	-35,582	-0,054	-0,021
-323,343	72,576	-0,075	0,057
-322,329	-136,967	0,151	0,013
-321,314	-26,321	-0,162	0,069
-320,299	198,941	0,079	0,089
-319,285	-66,967	0,085	-0,025
-318,270	-55,626	0,151	0,049
-317,256	179,053	-0,048	-0,052
-316,241	92,748	-0,111	0,092
-315,226	67,943	0,090	-0,068
-314,212	-19,227	-0,058	0,026
-313,197	578,340	0,046	0,083
-312,183	196,518	-0,069	-0,077
-311,168	719,379	-0,023	-0,045
-310,153	117,024	-0,045	-0,041
-309,139	-54,676	-0,122	-0,040
-308,124	-79,500	0,055	0,014
-307,110	13,367	0,074	0,042
-306,095	-21,934	-0,050	0,022
-305,080	390,954	-0,101	0,153
-304,066	-58,522	0,153	-0,048
-303,051	-126,851	0,123	-0,013
-302,037	-200,000	-0,013	-0,152
-301,022	167,833	0,051	-0,053
-300,008	800,000	0,019	0,058
-298,993	-200,000	0,016	-0,116
-297,978	28,468	-0,059	0,036
-296,964	-200,000	-0,027	-0,152
-295,949	230,358	-0,064	0,077
-294,935	81,606	0,062	0,049
-293,920	133,266	0,019	0,018
-292,905	800,000	-0,017	-0,045
-291,891	-191,950	0,077	-0,001
-290,876	268,764	-0,060	0,077
-289,862	800,000	-0,018	0,054
-288,847	385,172	-0,003	-0,004
-287,832	-200,000	0,016	-0,079
-286,818	630,839	0,070	-0,130
-285,803	307,083	0,050	-0,068
-284,789	28,246	0,069	0,042
-283,774	-200,000	-0,014	0,091
-282,759	-23,923	0,042	-0,018
-281,745	-83,347	-0,119	0,028
-280,730	-200,000	0,003	-0,114
-279,716	-130,178	0,080	-0,008
-278,701	800,000	0,030	0,090
-277,686	800,000	0,015	-0,038
-276,672	-48,609	0,084	0,029
-275,657	-182,398	-0,083	0,001
-274,643	51,903	-0,175	0,121
-273,628	800,000	0,045	-0,142
-272,613	800,000	0,015	0,032
-271,599	12,907	-0,035	0,020
-270,584	219,638	-0,075	-0,088
-269,570	800,000	-0,007	-0,017
-268,555	800,000	-0,061	0,125
-267,540	5,694	0,058	-0,031
-266,526	-95,702	-0,050	-0,010
-265,511	-105,693	-0,030	-0,005
-264,497	390,306	-0,078	-0,119
-263,482	-79,628	0,107	0,026
-262,467	70,213	0,037	0,028
-261,453	180,434	0,082	0,088
-260,438	553,185	-0,024	0,042
-259,424	-95,463	0,130	-0,025
-258,409	-123,862	0,105	-0,012
-257,395	532,041	-0,059	0,103
-256,380	778,520	0,042	-0,085
-255,365	-200,000	0,002	-0,037
-254,351	146,632	-0,045	0,045
-253,336	-105,850	-0,134	0,022
-252,322	-200,000	0,013	-0,070
-251,307	-200,000	-0,047	0,160
-250,292	127,765	-0,045	-0,042
-249,278	800,000	-0,049	0,134
-248,263	800,000	0,029	0,090
-247,249	-83,404	0,172	-0,040
-246,234	-31,822	0,028	0,012
-245,219	16,372	-0,057	0,033
-244,205	-63,306	-0,161	0,048
-243,190	800,000	0,072	0,166
-242,176	168,866	-0,042	0,044
-241,161	47,074	0,131	0,089
-240,146	292,774	-0,038	-0,051
-239,132	281,256	-0,081	0,106
-238,117	14,798	-0,099	-0,057
-237,103	-92,879	-0,020	0,004
-236,088	5,523	-0,036	0,019
-235,073	-62,723	0,059	-0,018
-234,059	-200,000	0,017	0,239
-233,044	96,554	0,114	0,096
-232,030	94,432	-0,032	0,026
-231,015	475,355	0,064	-0,106
-230,000	309,252	0,008	-0,011
-228,986	53,107	0,017	0,012
-227,971	-200,000	-0,001	-0,072
-226,957	253,249	-0,046	-0,057
-225,942	83,807	0,126	0,100
-224,927	119,104	0,052	-0,047
-223,913	281,780	0,019	-0,025
-222,898	197,724	0,078	0,087
-221,884	17,086	-0,206	0,119
-220,869	288,537	-0,078	0,103
-219,855	-200,000	0,012	0,052
-218,840	-26,512	0,126	-0,054
-217,825	325,799	-0,046	0,064
-216,811	63,331	0,132	-0,097
-215,796	-36,706	-0,134	0,052
-214,782	234,020	-0,083	-0,099
-213,767	-200,000	0,015	-0,102
-212,752	236,172	-0,019	0,022
-211,738	-200,000	-0,022	0,091
-210,723	426,141	-0,024	0,038
-209,709	177,389	-0,125	-0,133
-208,694	-200,000	0,023	-0,171
-207,679	800,000	0,059	-0,125
-206,665	12,359	-0,115	0,065
-205,650	-71,647	-0,021	0,006
-204,636	800,000	0,063	0,147
-203,621	-23,328	-0,101	0,044
-202,606	-122,153	0,052	0,006
-201,592	800,000	-0,045	-0,131
-200,577	585,454	0,021	0,037
-199,563	-158,671	0,135	0,006
-198,548	-163,194	-0,075	-0,003
-197,533	-79,900	0,105	0,025
-196,519	600,884	0,064	0,116
-195,504	614,142	0,038	0,069
-194,490	800,000	0,022	-0,071
-193,475	800,000	-0,024	0,053
-192,460	239,092	-0,039	-0,047
-191,446	-6,431	-0,121	0,060
-190,431	800,000	-0,015	0,038
-189,417	-113,820	0,063	-0,009
-188,402	800,000	-0,040	0,101
-187,387	317,748	-0,052	0,072
-186,373	-37,263	0,064	-0,025
-185,358	35,997	-0,064	-0,041
-184,344	800,000	0,066	0,211
-183,329	127,119	-0,099	0,092
-182,315	33,576	0,086	-0,054
-181,300	24,777	-0,145	-0,087
-180,285	5,770	-0,101	-0,054
-179,271	-60,397	-0,108	0,033
-178,256	153,570	0,045	-0,044
-177,242	52,911	0,091	-0,064
-176,227	557,133	-0,025	0,045
-175,212	4,076	-0,098	-0,052
-174,198	-75,671	-0,034	-0,009
-173,183	-200,000	0,016	0,071
-172,169	15,243	0,079	-0,045
-171,154	305,441	-0,068	-0,092
-170,139	-95,932	0,234	0,045
-169,125	290,585	0,070	0,092
-168,110	-33,609	0,152	0,061
-167,096	-200,000	-0,003	0,057
-166,081	502,745	0,032	0,054
-165,066	62,626	-0,033	-0,024
-164,052	85,331	0,073	-0,058
-163,037	235,866	0,027	-0,033
-162,023	-200,000	0,003	0,010
-161,008	800,000	-0,055	-0,120
-159,993	-86,506	-0,087	0,019
-158,979	516,733	0,094	-0,160
-157,964	-200,000	-0,031	0,123
-156,950	-200,000	-0,024	0,127
-155,935	129,371	-0,016	-0,015
-154,920	-200,000	0,011	0,054
-153,906	-200,000	-0,048	0,000
-152,891	800,000	-0,029	-0,070
-151,877	280,142	-0,052	-0,068
-150,862	-54,277	-0,162	0,053
-149,847	800,000	0,023	0,054
-148,833	-26,791	0,045	0,019
-147,818	120,196	-0,100	0,091
-146,804	-200,000	0,038	0,136
-145,789	-200,000	0,005	0,140
-144,775	-24,621	-0,026	-0,011
-143,760	366,673	-0,102	-0,150
-142,745	-200,000	0,019	-0,095
-141,731	2,594	-0,125	-0,065
-140,716	57,156	0,091	-0,064
-139,702	-125,352	0,201	-0,022
-138,687	-119,858	0,189	-0,023
-137,672	800,000	-0,005	-0,017
-136,658	-102,238	0,070	-0,012
-135,643	42,747	0,078	0,052
-134,629	-134,318	-0,088	-0,008
-133,614	373,118	0,103	0,152
-132,599	238,365	0,120	0,145
-131,585	-166,683	-0,008	0,000
-130,570	-200,000	-0,004	-0,085
-129,556	-52,488	-0,059	-0,020
-128,541	1,993	-0,072	-0,038
-127,526	-200,000	-0,008	0,070
-126,512	-200,000	-0,003	-0,091
-125,497	22,910	0,119	0,071
-124,483	47,594	-0,073	0,049
-123,468	80,625	-0,070	0,055
-122,453	-26,054	-0,113	-0,048
-121,439	135,460	-0,031	-0,029
-120,424	-11,258	-0,023	0,011
-119,410	800,000	0,029	0,088
