DTS Sentinel unit serial number:	SN410029Multiplexer serial number:	ORYXHardware model number:	OX2-SRSoftware version number:	ORYX F/W v4,00 Oryx Data Collector v3.7.2.0data status	okinstallation	B6 Nyhavnadifferential loss correction	single-endedforward channel	channel 2reverse channel	N/Adate	2023/12/09time	17:50:08forward acquisition time	300,00reverse acquisition time	0,00gamma	499,1914k internal	0,3130k external	0,3130temperature offset calibration	1,0000default loss term (dB/km)	0,3820temperature slope calibration	1,0000multiplexer offset coefficient	1,0000multiplexer slope coefficient	1,0000fibre end	0,00T internal ref (°C)	21,01T ext. ref 1 (°C)	4,76T ext. ref 2 (°C)	4,76length (m)	temperature (°C)	Stokes	anti-Stokes-744,400	800,000	-0,039	-0,121
-743,385	-62,738	-0,194	0,059
-742,371	-115,722	0,059	-0,008
-741,356	136,723	-0,221	0,215
-740,342	83,953	0,025	0,020
-739,327	146,922	-0,107	0,107
-738,312	-200,000	0,008	-0,065
-737,298	-46,130	-0,152	-0,055
-736,283	-69,642	0,066	-0,019
-735,269	57,303	-0,246	0,178
-734,254	60,777	-0,015	-0,011
-733,239	-116,478	-0,458	-0,062
-732,225	-149,599	0,265	-0,015
-731,210	800,000	-0,082	0,177
-730,196	-136,951	-0,032	-0,003
-729,181	-200,000	-0,002	0,023
-728,167	-200,000	0,002	-0,094
-727,152	178,061	-0,083	0,090
-726,137	800,000	-0,033	-0,096
-725,123	-48,134	-0,067	0,024
-724,108	-200,000	0,007	-0,064
-723,094	62,301	-0,044	0,033
-722,079	-200,000	0,007	-0,073
-721,064	569,919	0,019	0,035
-720,050	-179,498	-0,055	0,001
-719,035	453,808	-0,059	-0,097
-718,021	646,322	-0,075	-0,143
-717,006	-97,305	0,087	0,017
-715,991	800,000	-0,019	0,046
-714,977	74,353	-0,101	0,079
-713,962	-146,810	0,127	-0,008
-712,948	-200,000	-0,025	-0,114
-711,933	-53,542	0,122	-0,041
-710,918	-72,480	-0,266	0,073
-709,904	228,120	-0,094	0,114
-708,889	542,153	0,050	-0,088
-707,875	800,000	-0,076	-0,184
-706,860	57,836	-0,038	0,027
-705,845	-200,000	0,012	0,064
-704,831	247,254	0,135	0,170
-703,816	-119,108	-0,182	-0,023
-702,802	29,143	0,027	0,017
-701,787	27,994	-0,031	0,019
-700,772	-138,197	-0,106	-0,009
-699,758	39,076	0,049	-0,032
-698,743	-121,800	-0,083	0,010
-697,729	638,345	-0,055	-0,104
-696,714	800,000	0,022	0,070
-695,699	800,000	0,011	0,025
-694,685	-200,000	-0,050	-0,177
-693,670	-112,257	0,139	-0,021
-692,656	-64,699	0,098	0,029
-691,641	-139,682	0,069	0,005
-690,627	188,416	-0,124	-0,137
-689,612	674,039	0,078	0,150
-688,597	-200,000	0,000	-0,049
-687,583	-200,000	-0,016	-0,111
-686,568	133,322	0,083	0,080
-685,554	800,000	0,001	-0,003
-684,539	-35,604	0,085	0,034
-683,524	3,774	-0,049	-0,026
-682,510	-166,783	-0,178	-0,005
-681,495	284,671	0,036	-0,048
-680,481	74,522	-0,085	-0,066
-679,466	-0,668	-0,055	0,029
-678,451	-200,000	0,011	-0,092
-677,437	270,650	0,028	-0,036
-676,422	-200,000	-0,021	0,147
-675,408	800,000	-0,015	0,033
-674,393	60,025	0,087	0,064
-673,378	-1,606	-0,032	-0,017
-672,364	-116,729	-0,170	-0,023
-671,349	800,000	-0,047	-0,126
-670,335	155,607	-0,105	0,107
-669,320	7,662	0,167	0,093
-668,305	-146,761	-0,049	0,003
-667,291	216,502	-0,111	-0,131
-666,276	-130,021	0,087	-0,009
-665,262	-200,000	-0,001	-0,107
-664,247	262,501	-0,042	-0,054
-663,232	387,684	-0,086	-0,132
-662,218	800,000	-0,039	0,096
-661,203	-147,301	0,080	0,005
-660,189	82,257	0,051	-0,041
-659,174	-200,000	0,008	0,038
-658,159	-200,000	-0,004	-0,051
-657,145	286,684	0,049	-0,065
-656,130	-18,150	-0,180	-0,083
-655,116	55,526	0,071	0,051
-654,101	0,575	0,071	0,038
-653,086	-59,865	-0,088	-0,028
-652,072	-109,655	-0,055	0,008
-651,057	540,846	-0,041	-0,073
-650,043	-200,000	0,012	-0,051
-649,028	-200,000	-0,003	-0,141
-648,014	-68,639	-0,052	-0,015
-646,999	-200,000	0,003	0,056
-645,984	800,000	-0,045	-0,129
-644,970	-52,854	-0,116	-0,039
-643,955	280,784	0,025	-0,033
-642,941	-200,000	0,002	-0,011
-641,926	261,549	-0,031	-0,039
-640,911	-61,871	-0,128	0,039
-639,897	800,000	-0,030	0,079
-638,882	120,535	0,074	0,068
-637,868	-82,749	-0,061	-0,014
-636,853	205,362	-0,116	-0,134
-635,838	-200,000	-0,005	-0,077
-634,824	24,895	-0,090	-0,055
-633,809	800,000	0,012	0,039
-632,795	-111,566	-0,093	0,014
-631,780	216,518	0,141	0,166
-630,765	210,330	-0,065	-0,075
-629,751	-63,030	-0,104	-0,032
-628,736	800,000	0,023	-0,052
-627,722	-2,240	0,009	-0,004
-626,707	-67,455	0,246	0,071
-625,692	-200,000	-0,010	0,076
-624,678	800,000	-0,007	0,023
-623,663	190,113	0,038	0,042
-622,649	370,927	-0,005	-0,008
-621,634	-132,517	-0,123	-0,012
-620,619	800,000	-0,057	-0,132
-619,605	37,872	0,041	-0,027
-618,590	143,618	0,092	0,090
-617,576	146,686	-0,033	0,033
-616,561	776,518	0,028	0,056
-615,546	-200,000	-0,001	0,067
-614,532	800,000	-0,080	-0,189
-613,517	-200,000	0,014	-0,075
-612,503	-139,914	0,109	-0,008
-611,488	633,370	0,030	0,056
-610,474	-200,000	0,020	0,083
-609,459	-74,147	0,027	0,007
-608,444	44,642	-0,011	-0,008
-607,430	-200,000	-0,010	-0,167
-606,415	800,000	-0,076	-0,193
-605,401	88,791	0,087	-0,072
-604,386	327,258	0,027	0,038
-603,371	-47,457	-0,038	-0,014
-602,357	800,000	0,012	-0,038
-601,342	-38,799	-0,024	-0,009
-600,328	-200,000	0,012	-0,128
-599,313	-69,653	0,117	0,033
-598,298	800,000	0,089	0,228
-597,284	-31,110	-0,088	0,037
-596,269	296,129	0,036	0,048
-595,255	494,987	-0,008	-0,014
-594,240	145,553	-0,040	0,040
-593,225	479,536	-0,060	-0,101
-592,211	305,694	-0,098	-0,135
-591,196	24,720	0,004	-0,003
-590,182	364,786	-0,059	0,088
-589,167	159,448	0,031	-0,032
-588,152	-200,000	-0,012	-0,047
-587,138	800,000	-0,049	-0,143
-586,123	-33,306	0,037	-0,015
-585,109	-31,283	-0,075	-0,031
-584,094	-200,000	-0,007	0,125
-583,079	800,000	-0,062	0,166
-582,065	279,569	-0,013	-0,017
-581,050	34,452	-0,100	0,065
-580,036	-42,138	-0,084	-0,032
-579,021	-128,762	-0,047	0,005
-578,006	453,788	-0,040	-0,065
-576,992	95,218	-0,028	-0,023
-575,977	103,471	0,124	0,107
-574,963	181,416	-0,064	-0,070
-573,948	427,225	0,082	0,131
-572,934	800,000	-0,074	0,155
-571,919	117,422	-0,049	0,044
-570,904	800,000	0,014	0,031
-569,890	123,979	0,112	-0,104
-568,875	172,206	0,091	-0,097
-567,861	-200,000	0,004	0,058
-566,846	800,000	-0,067	0,144
-565,831	800,000	-0,041	-0,132
-564,817	66,996	-0,068	-0,051
-563,802	-200,000	0,016	-0,081
-562,788	531,682	-0,086	0,150
-561,773	280,576	0,017	-0,023
-560,758	800,000	-0,038	-0,113
-559,744	231,921	0,058	-0,070
-558,729	-200,000	0,032	0,121
-557,715	800,000	-0,041	0,098
-556,700	123,598	-0,096	-0,089
-555,685	-200,000	-0,019	0,098
-554,671	-196,590	0,059	0,000
-553,656	-38,193	0,024	-0,009
-552,642	238,032	-0,048	0,059
-551,627	-78,200	0,075	-0,019
-550,612	-94,229	-0,128	0,026
-549,598	143,963	-0,110	-0,108
-548,583	-92,250	-0,058	0,012
-547,569	-139,717	0,025	-0,002
-546,554	800,000	0,013	-0,029
-545,539	272,495	-0,058	0,076
-544,525	-150,464	-0,169	-0,009
-543,510	245,503	0,070	-0,087
-542,496	-200,000	-0,040	-0,167
-541,481	-71,931	0,144	0,039
-540,466	-76,882	0,149	-0,038
-539,452	84,282	-0,014	-0,011
-538,437	130,826	-0,052	-0,049
-537,423	-200,000	-0,001	-0,069
-536,408	786,872	0,060	0,122
-535,393	-200,000	-0,016	-0,131
-534,379	209,791	-0,042	-0,048
-533,364	800,000	-0,041	0,093
-532,350	20,676	0,056	0,033
-531,335	-4,997	0,142	-0,072
-530,321	64,832	0,047	-0,035
-529,306	73,213	0,094	0,072
-528,291	637,487	-0,034	-0,064
-527,277	-200,000	-0,027	-0,138
-526,262	-200,000	-0,012	-0,144
-525,248	-24,039	0,124	-0,055
-524,233	-141,582	0,118	-0,009
-523,218	-200,000	-0,000	-0,011
-522,204	87,814	-0,083	0,068
-521,189	293,898	-0,054	0,072
-520,175	40,833	-0,094	-0,063
-519,160	-103,552	0,048	-0,008
-518,145	-154,396	0,165	-0,008
-517,131	55,823	0,062	0,044
-516,116	800,000	0,039	-0,098
-515,102	-200,000	-0,006	-0,046
-514,087	-105,840	0,092	0,015
-513,072	-200,000	0,001	-0,128
-512,058	79,269	0,018	-0,014
-511,043	96,582	0,072	0,061
-510,029	-200,000	0,006	-0,039
-509,014	180,723	-0,075	0,081
-507,999	-55,837	0,134	0,044
-506,985	324,150	-0,058	0,082
-505,970	43,930	-0,113	-0,076
-504,956	-145,406	0,121	0,008
-503,941	-14,953	0,030	-0,014
-502,926	559,874	0,030	0,054
-501,912	-29,296	0,096	0,040
-500,897	125,775	-0,058	-0,054
-499,883	202,378	-0,027	-0,030
-498,868	-28,631	-0,137	-0,058
-497,853	610,207	0,065	0,120
-496,839	492,328	0,032	0,054
-495,824	51,454	0,107	0,075
-494,810	183,364	0,067	0,073
-493,795	-200,000	-0,012	-0,043
-492,781	-166,080	-0,109	0,003
-491,766	-19,556	0,063	-0,028
-490,751	267,349	-0,050	-0,064
-489,737	-200,000	-0,023	-0,099
-488,722	-174,740	0,137	-0,003
-487,708	-63,532	0,111	0,033
-486,693	570,554	-0,032	-0,057
-485,678	755,497	-0,042	0,083
-484,664	41,349	-0,085	0,057
-483,649	179,002	-0,085	-0,092
-482,635	282,470	-0,059	-0,078
-481,620	44,779	-0,026	-0,018
-480,605	-200,000	0,031	-0,144
-479,591	591,408	-0,021	-0,038
-478,576	-3,796	-0,100	-0,051
-477,562	-200,000	0,005	0,032
-476,547	-128,839	0,123	-0,013
-475,532	137,273	0,022	-0,021
-474,518	-147,087	-0,061	-0,004
-473,503	-74,650	0,098	0,026
-472,489	4,527	0,101	0,054
-471,474	263,363	0,041	0,052
-470,459	800,000	-0,031	0,070
-469,445	70,227	0,058	0,044
-468,430	-1,296	-0,028	-0,015
-467,416	67,632	0,066	0,049
-466,401	371,425	0,053	0,079
-465,386	1,589	0,076	0,040
-464,372	-49,646	-0,089	-0,031
-463,357	-200,000	-0,002	0,057
-462,343	-5,431	-0,029	0,015
-461,328	-15,242	0,078	-0,037
-460,313	-153,620	0,186	-0,009
-459,299	-177,378	0,069	-0,001
-458,284	587,006	0,027	-0,050
-457,270	129,931	0,073	-0,068
-456,255	93,564	-0,088	-0,073
-455,241	-200,000	0,012	-0,167
-454,226	-107,430	0,036	-0,006
-453,211	141,302	0,039	-0,038
-452,197	-97,464	0,080	-0,015
-451,182	-42,317	0,109	0,041
-450,168	-171,877	-0,074	0,002
-449,153	1,128	0,097	-0,051
-448,138	-46,617	0,117	-0,042
-447,124	-200,000	-0,015	0,083
-446,109	-70,942	-0,102	-0,028
-445,095	-77,180	0,095	-0,024
-444,080	-200,000	-0,002	-0,016
-443,065	532,689	0,040	-0,070
-442,051	127,658	-0,066	0,062
-441,036	297,188	-0,052	-0,070
-440,022	-200,000	0,004	0,090
-439,007	364,213	0,056	-0,083
-437,992	66,743	0,095	0,071
-436,978	-200,000	-0,005	0,065
-435,963	84,933	0,107	0,086
-434,949	-127,586	0,094	-0,010
-433,934	241,136	-0,083	-0,102
-432,919	403,868	-0,084	0,130
-431,905	137,709	-0,122	0,117
-430,890	5,810	0,177	0,096
-429,876	192,847	-0,064	-0,071
-428,861	273,487	0,022	0,029
-427,846	92,176	-0,139	-0,115
-426,832	-200,000	0,020	-0,075
-425,817	-200,000	-0,007	0,035
-424,803	76,360	0,053	0,041
-423,788	782,644	0,030	0,061
-422,773	-12,285	-0,101	-0,049
-421,759	252,682	-0,052	-0,065
-420,744	-122,896	-0,022	0,003
-419,730	49,243	-0,184	-0,127
-418,715	-200,000	0,035	-0,153
-417,701	-200,000	-0,007	-0,043
-416,686	242,344	0,081	-0,100
-415,671	-154,118	0,088	0,004
-414,657	-76,690	0,008	-0,002
-413,642	37,116	-0,096	-0,063
-412,628	800,000	-0,035	0,103
-411,613	-93,107	0,108	-0,022
-410,598	60,489	-0,085	-0,062
-409,584	-57,701	-0,049	-0,016
-408,569	-155,133	0,109	0,005
-407,555	-125,175	-0,078	-0,009
-406,540	-14,226	-0,057	-0,027
-405,525	-200,000	-0,014	-0,088
-404,511	80,850	-0,161	-0,127
-403,496	329,313	-0,038	0,054
-402,482	-72,821	-0,102	0,027
-401,467	800,000	-0,023	0,066
-400,452	-130,263	0,095	0,009
-399,438	-200,000	0,007	0,090
-398,423	-53,623	0,027	0,009
-397,409	333,557	0,113	-0,160
-396,394	-34,587	-0,033	-0,013
-395,379	-140,115	0,143	-0,011
-394,365	457,219	0,037	0,061
-393,350	-86,194	0,069	-0,016
-392,336	800,000	-0,015	0,044
-391,321	-200,000	-0,031	-0,158
-390,306	670,708	0,057	-0,109
-389,292	-200,000	0,034	-0,130
-388,277	-23,332	-0,025	-0,011
-387,263	40,626	0,081	-0,053
-386,248	800,000	0,044	0,096
-385,233	340,504	0,088	0,127
-384,219	-200,000	-0,017	0,089
-383,204	-78,681	-0,039	0,010
-382,190	11,746	-0,092	0,052
-381,175	56,297	-0,074	0,053
-380,160	263,589	-0,058	-0,074
-379,146	-200,000	0,005	-0,050
-378,131	49,271	-0,113	-0,078
-377,117	-7,365	0,103	-0,051
-376,102	-200,000	-0,011	-0,108
-375,088	-28,800	-0,066	-0,028
-374,073	-83,088	-0,074	0,017
-373,058	81,015	0,071	0,056
-372,044	130,472	0,012	-0,011
-371,029	-125,344	-0,062	-0,007
-370,015	-35,456	0,216	0,085
-369,000	-149,349	0,081	-0,005
-367,985	-200,000	0,017	0,088
-366,971	372,177	-0,062	0,092
-365,956	-88,531	0,064	0,014
-364,942	641,665	0,096	0,180
-363,927	-200,000	-0,013	0,106
-362,912	-200,000	-0,012	0,063
-361,898	-43,418	0,167	-0,061
-360,883	-42,677	-0,105	-0,039
-359,869	-114,353	-0,031	0,004
-358,854	-16,660	0,073	0,034
-357,839	117,306	-0,022	-0,019
-356,825	800,000	-0,061	0,127
-355,810	-200,000	0,017	0,088
-354,796	291,159	-0,046	0,061
-353,781	11,608	-0,142	0,079
-352,766	-200,000	-0,027	-0,122
-351,752	-116,913	0,103	-0,014
-350,737	389,690	0,038	-0,058
-349,723	500,369	0,100	-0,170
-348,708	-64,583	0,086	0,025
-347,693	303,155	0,039	-0,053
-346,679	7,557	-0,089	-0,049
-345,664	800,000	0,028	-0,075
-344,650	198,666	-0,063	-0,071
-343,635	217,418	-0,065	0,076
-342,620	117,483	-0,050	-0,045
-341,606	-200,000	0,004	0,059
-340,591	275,618	0,030	0,038
-339,577	-200,000	-0,010	0,171
-338,562	-66,440	-0,124	-0,036
-337,548	800,000	0,053	-0,111
-336,533	304,697	0,075	-0,102
-335,518	800,000	0,033	0,081
-334,504	43,500	0,084	0,056
-333,489	-7,803	0,055	0,027
-332,475	800,000	-0,037	-0,110
-331,460	-41,491	-0,177	-0,066
-330,445	56,019	-0,035	-0,025
-329,431	-200,000	0,009	-0,146
-328,416	-148,843	-0,089	-0,005
-327,402	-19,389	-0,078	0,035
-326,387	466,856	0,026	-0,043
-325,372	71,792	-0,033	-0,025
-324,358	800,000	0,021	-0,049
-323,343	800,000	-0,045	-0,135
-322,329	-57,672	-0,138	-0,044
-321,314	207,614	0,031	0,036
-320,299	800,000	0,035	0,075
-319,285	-0,326	-0,172	0,089
-318,270	4,890	0,163	0,087
-317,256	-200,000	0,008	0,049
-316,241	441,894	0,006	-0,010
-315,226	208,472	-0,081	0,092
-314,212	-128,617	0,069	-0,007
-313,197	-200,000	-0,007	0,064
-312,183	800,000	0,014	0,040
-311,168	-35,043	0,107	-0,042
-310,153	-200,000	0,021	-0,151
-309,139	-52,708	-0,069	-0,023
-308,124	800,000	0,027	0,064
-307,110	309,777	0,057	0,078
-306,095	16,913	0,036	-0,021
-305,080	228,703	0,067	0,080
-304,066	144,486	-0,043	0,042
-303,051	190,313	0,019	0,021
-302,037	-35,202	-0,079	-0,031
-301,022	-115,318	0,121	0,016
-300,008	-200,000	0,015	0,114
-298,993	-109,184	-0,152	0,023
-297,978	56,384	0,030	0,021
-296,964	18,668	-0,114	-0,067
-295,949	-200,000	-0,015	-0,117
-294,935	800,000	-0,039	-0,096
-293,920	62,419	0,008	-0,006
-292,905	-137,908	0,083	0,007
-291,891	36,120	0,051	0,033
-290,876	296,806	-0,026	0,034
-289,862	-30,752	-0,045	0,018
-288,847	-200,000	0,009	-0,034
-287,832	-200,000	0,022	0,096
-286,818	8,016	-0,060	-0,033
-285,803	-151,528	0,093	-0,005
-284,789	169,558	0,069	-0,072
-283,774	285,863	0,096	0,127
-282,759	285,836	-0,057	-0,075
-281,745	-200,000	0,021	0,122
-280,730	-200,000	-0,021	0,091
-279,716	79,891	0,112	0,088
-278,701	-79,947	-0,056	0,014
-277,686	800,000	0,091	0,217
-276,672	173,567	-0,123	0,130
-275,657	-200,000	-0,004	0,072
-274,643	-200,000	-0,034	-0,112
-273,628	93,402	-0,075	-0,062
-272,613	-200,000	-0,000	0,064
-271,599	79,512	0,142	-0,112
-270,584	-83,476	0,077	0,018
-269,570	-44,883	-0,122	0,044
-268,555	-97,108	-0,093	0,018
-267,540	-146,450	0,033	-0,002
-266,526	-200,000	-0,027	-0,090
-265,511	389,154	0,077	-0,117
-264,497	239,964	0,065	-0,079
-263,482	-61,928	-0,036	-0,011
-262,467	-94,517	0,110	-0,022
-261,453	-87,669	0,035	-0,008
-260,438	-200,000	-0,015	-0,132
-259,424	-102,945	-0,133	0,023
-258,409	-142,763	0,016	-0,001
-257,395	89,843	-0,068	0,056
-256,380	-97,694	0,011	0,002
-255,365	697,551	0,084	0,161
-254,351	-165,940	0,161	0,005
-253,336	-45,796	-0,160	0,057
-252,322	-200,000	-0,018	0,077
-251,307	172,874	0,028	0,030
-250,292	-200,000	-0,039	0,172
-249,278	800,000	-0,034	0,078
-248,263	-30,003	0,133	0,055
-247,249	-67,753	0,152	0,043
-246,234	205,564	-0,067	-0,076
-245,219	-51,025	-0,109	-0,037
-244,205	401,059	-0,050	-0,077
-243,190	166,933	-0,038	0,040
-242,176	139,725	0,081	0,078
-241,161	92,647	0,071	0,058
-240,146	800,000	-0,022	-0,069
-239,132	-200,000	0,003	-0,011
-238,117	800,000	-0,062	0,131
-237,103	21,525	0,114	-0,068
-236,088	-200,000	-0,005	-0,059
-235,073	450,378	0,026	0,042
-234,059	464,692	0,024	-0,040
-233,044	-90,536	-0,125	-0,026
-232,030	115,859	-0,092	-0,082
-231,015	-31,829	-0,095	-0,039
-230,000	-60,800	-0,142	-0,044
-228,986	423,175	-0,029	0,045
-227,971	-144,354	-0,050	0,003
-226,957	-200,000	-0,062	0,222
-225,942	800,000	-0,005	0,011
-224,927	-114,506	-0,065	-0,009
-223,913	-15,715	-0,141	-0,065
-222,898	-144,961	-0,056	0,004
-221,884	-14,496	0,048	0,023
-220,869	305,527	-0,028	-0,038
-219,855	-44,624	0,137	-0,049
-218,840	63,777	0,016	-0,012
-217,825	43,700	-0,006	-0,004
-216,811	800,000	0,031	-0,094
-215,796	-46,566	0,018	-0,007
-214,782	51,123	-0,049	0,033
-213,767	-108,693	-0,012	0,002
-212,752	800,000	0,023	-0,066
-211,738	-110,276	0,095	0,014
-210,723	-200,000	0,027	0,135
-209,709	48,439	0,038	0,026
-208,694	-200,000	-0,006	0,126
-207,679	118,666	0,104	0,094
-206,665	86,677	0,071	0,057
-205,650	555,071	-0,059	0,104
-204,636	-112,288	-0,114	0,016
-203,621	800,000	0,019	0,057
-202,606	177,414	-0,116	-0,123
-201,592	490,037	0,035	-0,058
-200,577	133,078	-0,036	-0,033
-199,563	237,826	0,060	-0,073
-198,548	800,000	-0,006	-0,016
-197,533	-200,000	-0,006	-0,039
-196,519	800,000	-0,011	0,029
-195,504	52,642	-0,057	-0,039
-194,490	101,117	-0,111	-0,094
-193,475	388,024	-0,043	-0,064
-192,460	800,000	-0,053	-0,140
-191,446	-200,000	-0,042	0,136
-190,431	-200,000	-0,006	-0,086
-189,417	800,000	-0,047	0,103
-188,402	362,740	0,023	0,033
-187,387	166,387	0,062	-0,064
-186,373	800,000	0,027	-0,084
-185,358	386,343	-0,029	0,044
-184,344	-63,736	0,194	0,058
-183,329	325,006	-0,058	0,081
-182,315	163,358	0,107	0,110
-181,300	-200,000	0,019	-0,088
-180,285	-66,585	-0,130	-0,037
-179,271	156,532	-0,011	0,011
-178,256	-200,000	0,002	0,089
-177,242	555,611	0,070	0,124
-176,227	438,337	-0,025	0,040
-175,212	-200,000	-0,012	0,116
-174,198	800,000	0,032	0,094
-173,183	107,281	-0,033	-0,028
-172,169	800,000	0,014	0,034
-171,154	800,000	0,027	-0,065
-170,139	35,259	0,049	-0,031
-169,125	98,491	0,086	0,072
-168,110	800,000	-0,039	0,117
-167,096	625,531	-0,061	0,113
-166,081	427,242	0,028	-0,045
-165,066	396,188	-0,106	0,161
-164,052	60,735	0,043	-0,031
-163,037	787,120	-0,055	0,110
-162,023	-200,000	-0,002	0,061
-161,008	800,000	-0,050	0,124
-159,993	800,000	0,029	0,076
-158,979	-200,000	-0,009	-0,076
-157,964	367,680	-0,058	-0,086
-156,950	752,994	-0,028	-0,055
-155,935	208,273	0,052	0,059
-154,920	-200,000	-0,001	0,090
-153,906	1,655	-0,084	0,044
-152,891	-200,000	0,006	-0,127
-151,877	-200,000	0,021	-0,136
-150,862	-111,837	-0,102	-0,015
-149,847	800,000	-0,043	-0,090
-148,833	205,009	-0,134	-0,152
-147,818	-200,000	0,002	-0,030
-146,804	800,000	0,038	0,092
-145,789	49,980	-0,087	-0,060
-144,775	800,000	-0,044	-0,099
-143,760	-98,186	-0,144	-0,027
-142,745	-200,000	-0,009	0,039
-141,731	-140,690	-0,163	-0,012
-140,716	800,000	-0,024	0,055
-139,702	-131,970	-0,057	0,005
-138,687	-200,000	-0,055	0,218
-137,672	467,788	-0,058	0,094
-136,658	-39,631	0,049	0,019
-135,643	160,419	-0,067	0,068
-134,629	260,702	-0,036	-0,046
-133,614	40,309	0,134	0,088
-132,599	259,573	0,032	0,040
-131,585	-144,009	-0,042	0,003
-130,570	-188,518	0,045	0,000
-129,556	338,703	-0,077	0,109
-128,541	-200,000	0,004	0,033
-127,526	-7,964	-0,055	0,027
-126,512	543,907	0,078	-0,135
-125,497	800,000	0,018	0,057
-124,483	-143,337	-0,098	-0,007
-123,468	160,934	0,113	0,114
-122,453	-39,731	-0,092	0,035
-121,439	-200,000	-0,029	0,154
-120,424	-200,000	-0,005	0,022
-119,410	-69,935	-0,187	0,052
