DTS Sentinel unit serial number:	SN410029Multiplexer serial number:	ORYXHardware model number:	OX2-SRSoftware version number:	ORYX F/W v4,00 Oryx Data Collector v3.7.2.0data status	okinstallation	B6 Nyhavnadifferential loss correction	single-endedforward channel	channel 2reverse channel	N/Adate	2023/12/10time	21:35:08forward acquisition time	300,00reverse acquisition time	0,00gamma	499,1914k internal	0,3123k external	0,3123temperature offset calibration	1,0000default loss term (dB/km)	0,3820temperature slope calibration	1,0000multiplexer offset coefficient	1,0000multiplexer slope coefficient	1,0000fibre end	0,00T internal ref (°C)	22,29T ext. ref 1 (°C)	6,06T ext. ref 2 (°C)	6,07length (m)	temperature (°C)	Stokes	anti-Stokes-744,400	-200,000	0,020	-0,108
-743,385	-63,821	-0,167	0,051
-742,371	-141,063	0,089	0,007
-741,356	-21,705	-0,261	0,118
-740,342	201,805	0,108	-0,124
-739,327	204,140	-0,047	0,055
-738,312	502,859	0,082	-0,142
-737,298	-54,898	-0,186	0,062
-736,283	56,710	0,104	-0,075
-735,269	94,422	-0,199	0,168
-734,254	39,605	0,070	-0,047
-733,239	-92,029	-0,482	-0,101
-732,225	-48,204	-0,018	0,006
-731,210	68,294	0,009	-0,007
-730,196	104,801	-0,140	-0,123
-729,181	453,928	-0,018	0,029
-728,167	-200,000	-0,007	0,063
-727,152	-200,000	0,017	-0,166
-726,137	69,590	-0,083	-0,064
-725,123	257,035	-0,034	-0,044
-724,108	25,970	-0,171	-0,106
-723,094	800,000	-0,081	-0,192
-722,079	288,473	0,030	-0,041
-721,064	18,042	0,029	-0,017
-720,050	132,894	0,063	-0,061
-719,035	10,093	-0,050	-0,028
-718,021	76,687	-0,032	0,025
-717,006	800,000	0,039	-0,087
-715,991	800,000	0,031	-0,073
-714,977	-89,356	-0,057	-0,012
-713,962	-200,000	-0,011	-0,152
-712,948	800,000	0,017	-0,056
-711,933	800,000	0,008	-0,021
-710,918	317,046	-0,076	-0,107
-709,904	-200,000	0,001	0,014
-708,889	-200,000	0,003	-0,020
-707,875	800,000	-0,022	-0,070
-706,860	94,932	0,059	0,050
-705,845	194,279	0,004	-0,004
-704,831	-200,000	0,000	-0,011
-703,816	5,048	0,100	0,055
-702,802	-181,730	-0,042	0,001
-701,787	80,792	-0,055	0,044
-700,772	133,505	-0,082	-0,079
-699,758	205,841	0,065	-0,075
-698,743	237,313	0,019	-0,023
-697,729	-64,841	0,067	0,020
-696,714	-200,000	-0,011	0,097
-695,699	16,307	-0,054	-0,032
-694,685	800,000	-0,044	-0,091
-693,670	-85,113	-0,129	0,030
-692,656	-12,300	0,126	-0,061
-691,641	10,769	0,045	0,026
-690,627	463,858	-0,049	0,082
-689,612	-200,000	0,007	-0,134
-688,597	-200,000	0,005	0,115
-687,583	114,041	-0,089	-0,081
-686,568	-200,000	0,016	-0,108
-685,554	333,357	0,117	-0,169
-684,539	-26,450	0,021	0,009
-683,524	129,060	-0,080	0,076
-682,510	-200,000	0,014	-0,141
-681,495	-200,000	0,001	-0,008
-680,481	-200,000	-0,002	-0,048
-679,466	11,380	0,041	-0,023
-678,451	163,680	-0,070	0,073
-677,437	800,000	0,040	-0,082
-676,422	-2,746	0,008	0,004
-675,408	-42,804	0,102	0,038
-674,393	-50,351	0,074	-0,026
-673,378	752,221	-0,079	-0,159
-672,364	-59,329	-0,055	0,018
-671,349	401,884	0,024	-0,038
-670,335	-39,137	0,145	-0,056
-669,320	255,695	0,077	-0,099
-668,305	-113,369	-0,064	0,009
-667,291	571,632	-0,061	-0,110
-666,276	-200,000	-0,006	-0,138
-665,262	398,516	-0,052	-0,081
-664,247	365,348	-0,051	-0,076
-663,232	-141,766	0,043	-0,003
-662,218	121,653	-0,095	0,088
-661,203	-200,000	-0,001	0,177
-660,189	-200,000	0,003	-0,013
-659,174	4,133	-0,067	-0,036
-658,159	-112,627	-0,071	-0,010
-657,145	-200,000	-0,027	0,131
-656,130	193,039	0,024	0,027
-655,116	512,163	0,038	-0,066
-654,101	-200,000	0,007	-0,070
-653,086	-39,992	0,110	-0,042
-652,072	-200,000	-0,006	0,026
-651,057	-200,000	-0,015	0,063
-650,043	-200,000	-0,009	-0,049
-649,028	-200,000	-0,016	-0,058
-648,014	286,544	0,074	0,099
-646,999	42,639	0,089	-0,060
-645,984	622,830	0,086	0,161
-644,970	-200,000	0,005	-0,135
-643,955	166,364	-0,089	-0,094
-642,941	611,455	-0,072	-0,134
-641,926	462,474	-0,020	-0,034
-640,911	42,563	0,052	0,035
-639,897	314,948	-0,012	0,017
-638,882	-64,792	0,052	-0,016
-637,868	29,751	-0,184	0,116
-636,853	122,052	0,076	-0,070
-635,838	345,533	-0,092	-0,135
-634,824	169,829	-0,107	-0,113
-633,809	271,755	0,022	-0,029
-632,795	-152,721	0,085	-0,004
-631,780	-200,000	-0,021	0,079
-630,765	353,960	0,042	-0,062
-629,751	-77,979	-0,010	-0,002
-628,736	705,286	-0,077	-0,152
-627,722	521,095	0,049	-0,086
-626,707	123,938	-0,114	0,106
-625,692	-200,000	-0,008	0,079
-624,678	203,433	0,112	-0,128
-623,663	800,000	-0,038	-0,118
-622,649	422,179	-0,076	-0,121
-621,634	-140,219	-0,101	0,008
-620,619	-20,021	-0,068	0,031
-619,605	274,017	0,083	0,109
-618,590	107,760	0,088	0,078
-617,576	-74,737	-0,036	0,010
-616,561	-44,982	-0,098	0,036
-615,546	-144,599	-0,017	-0,001
-614,532	91,485	-0,033	0,027
-613,517	-75,202	-0,102	-0,027
-612,503	211,932	0,056	-0,066
-611,488	55,209	-0,058	-0,041
-610,474	-200,000	-0,014	0,000
-609,459	-200,000	0,013	0,072
-608,444	355,513	-0,032	-0,048
-607,430	235,146	-0,079	0,097
-606,415	800,000	0,050	0,115
-605,401	-41,843	-0,182	-0,069
-604,386	-45,165	0,095	-0,035
-603,371	-129,264	-0,080	0,008
-602,357	305,884	-0,034	0,047
-601,342	-7,957	-0,097	0,049
-600,328	800,000	-0,041	-0,103
-599,313	-184,864	-0,062	-0,001
-598,298	-81,210	-0,093	-0,023
-597,284	95,946	0,170	-0,144
-596,269	-69,324	0,103	-0,029
-595,255	-200,000	0,027	0,191
-594,240	-200,000	-0,033	0,000
-593,225	800,000	-0,040	0,110
-592,211	-130,709	-0,180	-0,018
-591,196	-28,835	-0,099	-0,042
-590,182	-18,990	0,066	0,030
-589,167	-88,285	-0,025	0,006
-588,152	-14,315	-0,081	0,039
-587,138	-3,882	-0,092	-0,047
-586,123	-41,337	-0,138	0,052
-585,109	-200,000	-0,012	-0,187
-584,094	800,000	0,042	-0,094
-583,079	-200,000	0,020	0,095
-582,065	-44,247	-0,038	-0,014
-581,050	-60,816	0,066	0,021
-580,036	-37,684	0,152	-0,060
-579,021	-103,116	-0,253	0,044
-578,006	-12,088	-0,028	-0,013
-576,992	454,685	0,040	-0,065
-575,977	-200,000	0,022	0,108
-574,963	639,964	-0,064	0,121
-573,948	280,333	0,091	0,121
-572,934	578,847	0,024	0,044
-571,919	651,749	0,070	0,133
-570,904	291,718	-0,028	-0,038
-569,890	141,056	0,060	-0,059
-568,875	-77,938	0,104	-0,026
-567,861	-200,000	-0,001	0,157
-566,846	89,388	-0,069	-0,057
-565,831	622,606	0,032	-0,059
-564,817	-200,000	0,016	0,096
-563,802	-200,000	-0,004	0,029
-562,788	800,000	0,010	0,022
-561,773	585,995	0,056	0,103
-560,758	308,365	0,073	-0,102
-559,744	800,000	-0,066	0,178
-558,729	-200,000	0,001	-0,018
-557,715	-132,525	0,051	0,005
-556,700	749,474	0,045	0,090
-555,685	800,000	-0,023	0,070
-554,671	-200,000	-0,013	-0,054
-553,656	121,493	0,098	0,090
-552,642	77,215	0,040	0,032
-551,627	800,000	-0,035	0,106
-550,612	273,341	-0,102	-0,134
-549,598	35,705	-0,122	-0,079
-548,583	-120,111	-0,036	0,004
-547,569	800,000	0,048	0,153
-546,554	-200,000	0,008	0,123
-545,539	77,543	0,103	0,081
-544,525	74,125	-0,083	0,064
-543,510	106,937	-0,071	0,062
-542,496	-18,062	-0,074	-0,034
-541,481	19,929	0,057	0,034
-540,466	-200,000	-0,013	-0,100
-539,452	122,356	-0,038	-0,035
-538,437	-200,000	-0,006	-0,022
-537,423	45,251	-0,068	-0,046
-536,408	58,026	-0,065	0,047
-535,393	-200,000	-0,008	-0,128
-534,379	127,621	-0,099	-0,093
-533,364	193,874	0,076	0,085
-532,350	-0,643	-0,074	-0,039
-531,335	690,367	-0,024	-0,047
-530,321	343,029	0,035	0,051
-529,306	744,543	0,048	-0,096
-528,291	337,747	-0,081	-0,117
-527,277	252,694	0,015	-0,020
-526,262	-200,000	0,008	-0,178
-525,248	62,967	0,020	0,015
-524,233	110,117	0,091	0,080
-523,218	-9,206	0,087	-0,043
-522,204	528,546	0,045	0,079
-521,189	208,159	-0,082	-0,094
-520,175	68,291	0,048	-0,036
-519,160	-113,510	0,103	0,015
-518,145	536,972	0,022	-0,040
-517,131	800,000	-0,025	0,072
-516,116	82,339	0,052	-0,042
-515,102	641,189	0,030	0,057
-514,087	-200,000	-0,043	0,160
-513,072	-102,714	-0,180	0,031
-512,058	174,159	-0,070	0,075
-511,043	-104,232	0,096	-0,016
-510,029	-200,000	0,019	0,068
-509,014	800,000	0,005	0,015
-507,999	353,037	-0,021	-0,030
-506,985	318,860	0,044	-0,062
-505,970	-200,000	-0,024	0,096
-504,956	-200,000	0,021	-0,228
-503,941	20,658	-0,057	-0,034
-502,926	-66,903	0,167	-0,048
-501,912	140,183	-0,074	0,072
-500,897	366,612	-0,038	0,057
-499,883	-86,870	0,103	0,023
-498,868	-88,715	-0,102	0,022
-497,853	1,900	-0,062	-0,033
-496,839	-200,000	-0,009	0,120
-495,824	54,849	-0,021	0,015
-494,810	18,602	0,029	-0,017
-493,795	445,655	0,023	0,038
-492,781	800,000	0,044	-0,132
-491,766	-127,195	-0,086	0,009
-490,751	-200,000	-0,004	-0,022
-489,737	-75,569	-0,012	0,003
-488,722	800,000	-0,051	0,123
-487,708	-74,352	0,125	-0,033
-486,693	321,019	0,016	-0,023
-485,678	-151,229	-0,055	0,003
-484,664	-200,000	-0,026	-0,139
-483,649	507,651	0,067	-0,115
-482,635	48,235	0,064	0,044
-481,620	-200,000	-0,004	-0,083
-480,605	-189,583	0,053	-0,000
-479,591	487,239	-0,056	-0,095
-478,576	-93,676	-0,062	0,012
-477,562	-200,000	-0,041	-0,161
-476,547	800,000	-0,037	-0,093
-475,532	800,000	0,017	0,048
-474,518	382,838	0,077	0,117
-473,503	800,000	-0,015	0,038
-472,489	800,000	0,022	-0,057
-471,474	213,176	0,005	0,006
-470,459	167,024	0,083	0,087
-469,445	236,860	-0,025	-0,031
-468,430	800,000	-0,055	-0,144
-467,416	-32,753	0,049	-0,020
-466,401	-200,000	0,044	0,000
-465,386	800,000	-0,037	-0,087
-464,372	-200,000	-0,014	-0,133
-463,357	-3,563	-0,084	-0,043
-462,343	800,000	-0,022	-0,068
-461,328	59,856	0,142	0,103
-460,313	-98,436	0,091	-0,017
-459,299	-24,216	0,037	-0,016
-458,284	-170,051	0,080	0,002
-457,270	303,179	-0,034	-0,047
-456,255	-21,068	-0,115	0,051
-455,241	800,000	0,010	0,031
-454,226	-102,186	0,044	-0,008
-453,211	11,631	0,117	0,066
-452,197	486,707	0,020	0,034
-451,182	307,718	0,083	0,115
-450,168	-27,823	0,053	0,023
-449,153	800,000	-0,032	-0,072
-448,138	58,312	-0,126	-0,091
-447,124	116,389	-0,079	0,071
-446,109	-34,336	0,090	-0,036
-445,095	-200,000	0,036	0,119
-444,080	205,702	0,049	0,056
-443,065	800,000	0,037	0,083
-442,051	-157,215	-0,076	0,003
-441,036	439,366	-0,063	-0,101
-440,022	800,000	-0,032	0,073
-439,007	304,381	0,059	-0,080
-437,992	-111,047	0,126	-0,019
-436,978	475,297	0,061	-0,101
-435,963	800,000	-0,055	-0,162
-434,949	180,548	0,056	-0,060
-433,934	-200,000	-0,007	0,081
-432,919	1,413	-0,132	0,069
-431,905	800,000	-0,040	0,127
-430,890	-174,767	0,205	-0,004
-429,876	-28,866	0,155	0,065
-428,861	188,890	-0,087	-0,096
-427,846	-101,926	-0,088	-0,016
-426,832	-45,614	-0,011	-0,004
-425,817	-200,000	0,002	0,057
-424,803	-200,000	-0,021	0,072
-423,788	689,322	-0,039	0,075
-422,773	225,539	-0,019	-0,022
-421,759	90,850	-0,020	0,017
-420,744	800,000	0,080	0,255
-419,730	-97,343	0,107	0,020
-418,715	800,000	-0,038	-0,102
-417,701	-200,000	-0,032	-0,113
-416,686	-73,709	0,102	0,027
-415,671	-200,000	-0,012	0,095
-414,657	74,377	0,130	0,101
-413,642	474,044	-0,069	0,114
-412,628	293,589	-0,068	-0,091
-411,613	148,092	-0,093	0,092
-410,598	17,935	0,235	-0,138
-409,584	-200,000	-0,012	-0,080
-408,569	168,004	0,066	0,069
-407,555	35,575	-0,028	-0,018
-406,540	-200,000	-0,001	0,060
-405,525	198,531	-0,087	0,098
-404,511	442,450	-0,061	-0,098
-403,496	-33,283	-0,105	-0,042
-402,482	89,386	0,152	0,124
-401,467	-200,000	0,024	-0,124
-400,452	800,000	-0,021	-0,048
-399,438	-35,756	0,060	-0,024
-398,423	800,000	-0,070	-0,146
-397,409	101,771	-0,113	-0,097
-396,394	-200,000	-0,017	-0,234
-395,379	-145,881	-0,034	-0,002
-394,365	61,131	0,067	0,049
-393,350	306,988	0,083	0,115
-392,336	-93,853	0,105	-0,021
-391,321	-131,109	-0,026	0,002
-390,306	151,930	-0,090	-0,090
-389,292	218,416	-0,040	-0,047
-388,277	-200,000	-0,008	-0,087
-387,263	11,982	-0,038	0,021
-386,248	-200,000	-0,022	0,080
-385,233	279,264	-0,083	0,109
-384,219	39,693	-0,173	-0,114
-383,204	124,376	-0,054	-0,050
-382,190	-65,151	0,074	-0,022
-381,175	800,000	0,028	-0,066
-380,160	13,233	-0,106	0,060
-379,146	421,016	0,035	0,055
-378,131	324,809	0,034	0,047
-377,117	137,809	-0,107	0,103
-376,102	-94,283	0,053	-0,011
-375,088	219,781	-0,022	-0,026
-374,073	783,630	0,035	-0,071
-373,058	311,825	-0,046	-0,064
-372,044	-200,000	-0,006	0,050
-371,029	-200,000	-0,015	0,050
-370,015	-95,261	-0,043	0,008
-369,000	800,000	-0,015	-0,042
-367,985	111,498	0,062	-0,055
-366,971	212,204	0,050	0,058
-365,956	-200,000	-0,001	-0,019
-364,942	-8,105	0,089	-0,044
-363,927	-131,030	0,134	0,013
-362,912	-200,000	-0,033	0,127
-361,898	-200,000	0,023	0,108
-360,883	800,000	0,022	0,061
-359,869	13,209	0,083	-0,047
-358,854	-22,548	-0,103	0,045
-357,839	-200,000	0,004	0,137
-356,825	24,109	0,097	0,059
-355,810	-156,621	-0,037	0,002
-354,796	-167,822	-0,080	0,002
-353,781	94,624	0,023	0,019
-352,766	800,000	-0,014	0,038
-351,752	240,956	0,048	-0,059
-350,737	-78,570	-0,027	0,007
-349,723	77,983	0,127	0,099
-348,708	-200,000	0,029	-0,119
-347,693	214,064	-0,059	0,069
-346,679	18,705	0,070	-0,041
-345,664	-200,000	0,001	-0,024
-344,650	346,613	0,049	-0,071
-343,635	-200,000	0,039	0,168
-342,620	-21,573	-0,041	-0,018
-341,606	99,692	0,152	-0,129
-340,591	-200,000	-0,014	-0,073
-339,577	-143,278	-0,102	0,007
-338,562	-104,571	-0,115	-0,019
-337,548	-138,590	-0,072	-0,006
-336,533	275,121	0,052	-0,068
-335,518	-137,601	0,161	-0,013
-334,504	49,159	0,110	0,076
-333,489	800,000	0,050	-0,161
-332,475	-200,000	-0,006	0,049
-331,460	-200,000	0,008	-0,036
-330,445	800,000	0,040	-0,084
-329,431	-200,000	-0,023	0,082
-328,416	95,497	-0,126	0,106
-327,402	661,563	-0,030	0,057
-326,387	-151,433	-0,081	0,004
-325,372	-37,486	-0,087	-0,034
-324,358	-92,547	-0,055	-0,011
-323,343	-191,474	-0,021	0,000
-322,329	228,274	0,043	0,051
-321,314	87,945	0,089	-0,072
-320,299	-125,974	0,097	0,011
-319,285	351,168	-0,049	-0,071
-318,270	632,294	0,023	-0,043
-317,256	-200,000	0,020	0,088
-316,241	800,000	0,027	0,077
-315,226	-68,534	0,111	-0,031
-314,212	85,092	-0,039	0,031
-313,197	-35,751	0,027	0,011
-312,183	-200,000	0,001	0,229
-311,168	-34,462	-0,078	-0,031
-310,153	351,717	-0,045	-0,066
-309,139	9,133	-0,034	0,019
-308,124	-23,803	0,136	0,059
-307,110	166,198	-0,071	0,074
-306,095	-119,025	0,166	-0,021
-305,080	50,368	0,090	0,062
-304,066	-200,000	-0,004	0,112
-303,051	800,000	0,040	-0,116
-302,037	322,234	-0,029	-0,041
-301,022	-200,000	-0,011	0,102
-300,008	-200,000	-0,021	-0,090
-298,993	-200,000	-0,006	-0,024
-297,978	38,419	0,044	-0,029
-296,964	-110,018	-0,077	0,012
-295,949	-135,322	-0,140	-0,012
-294,935	-200,000	0,009	0,219
-293,920	-99,442	0,155	-0,028
-292,905	-200,000	-0,002	-0,107
-291,891	800,000	0,034	-0,106
-290,876	728,957	0,079	0,156
-289,862	27,337	-0,043	0,026
-288,847	-200,000	0,018	-0,165
-287,832	-76,919	-0,122	0,031
-286,818	320,232	0,111	-0,155
-285,803	83,313	0,010	0,008
-284,789	69,107	-0,064	-0,048
-283,774	48,133	-0,116	0,079
-282,759	2,493	0,027	-0,014
-281,745	-200,000	0,024	-0,161
-280,730	-200,000	0,001	0,108
-279,716	800,000	0,049	-0,118
-278,701	800,000	-0,058	0,128
-277,686	98,467	-0,034	0,029
-276,672	-133,196	-0,063	-0,006
-275,657	-200,000	0,008	-0,046
-274,643	123,080	0,072	-0,066
-273,628	469,906	-0,088	-0,146
-272,613	800,000	-0,013	0,026
-271,599	-4,776	0,121	-0,061
-270,584	-200,000	0,026	-0,171
-269,570	-200,000	0,028	0,125
-268,555	800,000	0,033	0,090
-267,540	-200,000	-0,021	-0,079
-266,526	-200,000	-0,026	0,154
-265,511	30,297	0,146	-0,091
-264,497	800,000	-0,030	-0,062
-263,482	-200,000	0,000	0,053
-262,467	-200,000	0,008	0,174
-261,453	64,042	-0,085	0,062
-260,438	-200,000	-0,017	0,138
-259,424	-200,000	-0,009	-0,080
-258,409	-200,000	-0,014	0,118
-257,395	155,049	0,011	0,011
-256,380	367,768	-0,053	-0,079
-255,365	20,964	-0,038	-0,022
-254,351	202,684	-0,108	0,122
-253,336	373,648	-0,022	0,033
-252,322	151,458	-0,072	-0,072
-251,307	136,606	-0,030	0,029
-250,292	188,006	0,072	-0,079
-249,278	-100,204	0,080	-0,014
-248,263	800,000	0,052	-0,105
-247,249	-77,872	-0,123	0,031
-246,234	-27,619	-0,166	-0,070
-245,219	64,303	-0,108	-0,080
-244,205	800,000	0,016	0,047
-243,190	-23,567	0,203	-0,089
-242,176	194,803	0,026	0,029
-241,161	800,000	0,030	0,064
-240,146	-200,000	-0,000	0,031
-239,132	41,545	0,117	0,077
-238,117	800,000	0,037	-0,104
-237,103	800,000	-0,049	0,103
-236,088	-50,949	0,024	0,008
-235,073	-200,000	0,025	0,128
-234,059	18,896	0,035	0,021
-233,044	-200,000	0,011	0,073
-232,030	-200,000	-0,032	0,110
-231,015	800,000	-0,025	-0,069
-230,000	255,962	0,029	0,037
-228,986	40,198	0,069	0,045
-227,971	291,877	-0,034	-0,045
-226,957	100,011	0,044	0,037
-225,942	-161,491	-0,074	0,003
-224,927	-55,310	-0,024	0,008
-223,913	-200,000	-0,001	0,037
-222,898	-17,855	-0,095	-0,043
-221,884	337,848	-0,064	0,092
-220,869	289,432	-0,057	-0,075
-219,855	-53,309	-0,017	-0,006
-218,840	-200,000	0,012	0,053
-217,825	-40,147	0,087	-0,033
-216,811	800,000	0,039	-0,121
-215,796	-36,994	0,045	-0,018
-214,782	95,500	0,027	-0,023
-213,767	601,421	0,071	0,129
-212,752	80,789	0,043	-0,034
-211,738	-200,000	-0,000	0,115
-210,723	-9,911	0,085	0,041
-209,709	800,000	0,039	0,089
-208,694	191,088	0,048	0,053
-207,679	800,000	0,069	-0,197
-206,665	-18,037	-0,094	-0,043
-205,650	-72,737	0,139	-0,037
-204,636	57,415	-0,087	0,062
-203,621	413,148	-0,032	-0,049
-202,606	-200,000	-0,011	0,123
-201,592	-80,530	-0,101	0,024
-200,577	-200,000	-0,004	0,066
-199,563	461,189	0,104	-0,169
-198,548	333,384	0,093	-0,132
-197,533	800,000	0,056	-0,119
-196,519	-152,175	0,133	-0,007
-195,504	200,656	-0,083	0,093
-194,490	800,000	-0,040	-0,103
-193,475	144,026	0,076	0,074
-192,460	-200,000	-0,020	0,125
-191,446	3,120	0,046	0,025
-190,431	-76,914	0,014	0,003
-189,417	-200,000	0,011	-0,088
-188,402	800,000	0,016	0,034
-187,387	-200,000	0,032	-0,139
-186,373	-137,973	-0,213	-0,017
-185,358	-113,819	-0,098	-0,014
-184,344	-36,776	0,136	0,053
-183,329	-200,000	-0,015	0,082
-182,315	-200,000	-0,026	-0,114
-181,300	-200,000	0,012	-0,133
-180,285	-200,000	-0,004	-0,090
-179,271	800,000	0,033	-0,099
-178,256	154,131	-0,041	-0,041
-177,242	14,480	0,098	-0,055
-176,227	164,224	-0,078	-0,080
-175,212	-117,066	0,076	0,010
-174,198	84,049	-0,045	0,036
-173,183	-200,000	-0,001	0,070
-172,169	147,991	-0,078	-0,076
-171,154	-59,368	0,056	0,017
-170,139	-15,464	0,042	-0,020
-169,125	-24,085	0,122	0,053
-168,110	468,631	0,074	0,121
-167,096	800,000	0,043	0,100
-166,081	595,237	0,032	-0,058
-165,066	-200,000	-0,007	-0,157
-164,052	-136,942	-0,031	-0,003
-163,037	-200,000	-0,019	0,070
-162,023	279,832	0,056	0,072
-161,008	-46,115	-0,059	-0,021
-159,993	323,417	-0,098	0,136
-158,979	121,052	-0,106	-0,096
-157,964	800,000	-0,033	-0,069
-156,950	281,863	-0,041	0,054
-155,935	79,495	-0,112	0,088
-154,920	-129,756	-0,050	0,005
-153,906	7,686	0,037	0,020
-152,891	800,000	0,037	0,077
-151,877	-13,131	-0,095	0,045
-150,862	314,207	-0,031	-0,043
-149,847	145,972	0,020	-0,020
-148,833	800,000	-0,056	-0,117
-147,818	-200,000	0,004	-0,016
-146,804	-200,000	-0,023	-0,155
-145,789	-200,000	-0,019	0,073
-144,775	800,000	-0,059	0,122
-143,760	113,745	-0,086	-0,076
-142,745	-15,158	-0,006	-0,003
-141,731	-200,000	-0,028	0,129
-140,716	-139,363	-0,044	-0,003
-139,702	356,061	0,072	0,104
-138,687	150,090	0,098	0,097
-137,672	-64,726	0,108	0,032
-136,658	-0,349	0,024	-0,013
-135,643	632,970	0,031	-0,058
-134,629	-13,214	0,084	-0,039
-133,614	71,851	0,057	-0,043
-132,599	59,283	0,073	-0,052
-131,585	39,174	0,122	0,079
-130,570	-200,000	0,014	0,081
-129,556	-200,000	-0,009	-0,047
-128,541	-25,816	-0,067	0,028
-127,526	-200,000	0,012	-0,083
-126,512	-170,375	0,093	-0,002
-125,497	-78,886	0,111	0,027
-124,483	-11,716	-0,101	0,048
-123,468	40,515	0,056	-0,037
-122,453	1,283	-0,052	-0,027
-121,439	800,000	-0,057	-0,166
-120,424	-200,000	-0,016	-0,119
-119,410	-200,000	0,020	-0,229
