DTS Sentinel unit serial number:	SN410029Multiplexer serial number:	ORYXHardware model number:	OX2-SRSoftware version number:	ORYX F/W v4,00 Oryx Data Collector v3.7.2.0data status	okinstallation	B6 Nyhavnadifferential loss correction	single-endedforward channel	channel 2reverse channel	N/Adate	2023/12/09time	02:55:08forward acquisition time	300,00reverse acquisition time	0,00gamma	499,1914k internal	0,3154k external	0,3154temperature offset calibration	1,0000default loss term (dB/km)	0,3820temperature slope calibration	1,0000multiplexer offset coefficient	1,0000multiplexer slope coefficient	1,0000fibre end	0,00T internal ref (°C)	16,13T ext. ref 1 (°C)	-0,04T ext. ref 2 (°C)	-0,06length (m)	temperature (°C)	Stokes	anti-Stokes-744,400	-200,000	0,014	-0,069
-743,385	-97,788	-0,325	0,061
-742,371	-119,508	0,108	0,014
-741,356	-68,059	-0,236	0,068
-740,342	131,698	0,140	-0,133
-739,327	-117,585	-0,374	0,049
-738,312	71,687	0,088	0,067
-737,298	-100,364	-0,402	0,073
-736,283	-200,000	0,009	0,051
-735,269	-49,201	-0,304	0,107
-734,254	-105,450	0,098	0,016
-733,239	-72,243	-0,420	-0,114
-732,225	-110,802	0,096	0,014
-731,210	61,946	0,007	0,005
-730,196	-200,000	0,003	-0,101
-729,181	-91,152	-0,061	-0,013
-728,167	-109,346	-0,061	0,009
-727,152	-101,211	-0,085	-0,015
-726,137	7,200	-0,090	-0,049
-725,123	800,000	-0,035	-0,080
-724,108	-200,000	0,045	-0,172
-723,094	800,000	-0,081	-0,165
-722,079	-200,000	-0,046	-0,182
-721,064	-46,065	-0,066	0,024
-720,050	-31,447	0,106	-0,044
-719,035	259,053	-0,104	-0,133
-718,021	-49,580	0,080	-0,028
-717,006	543,741	-0,066	-0,116
-715,991	611,073	0,056	0,104
-714,977	6,436	0,040	0,022
-713,962	340,619	0,041	0,059
-712,948	19,215	-0,063	-0,037
-711,933	99,526	-0,071	0,060
-710,918	800,000	-0,023	-0,054
-709,904	800,000	0,008	0,018
-708,889	697,863	-0,050	-0,097
-707,875	62,366	-0,089	-0,065
-706,860	451,964	0,048	-0,078
-705,845	656,778	0,073	-0,139
-704,831	37,822	-0,060	0,039
-703,816	231,716	0,009	0,010
-702,802	-97,145	0,020	0,004
-701,787	800,000	-0,045	-0,109
-700,772	800,000	-0,026	-0,065
-699,758	-200,000	0,008	-0,088
-698,743	456,083	0,070	0,115
-697,729	-200,000	-0,012	-0,082
-696,714	211,834	-0,050	0,058
-695,699	-10,785	-0,149	-0,072
-694,685	30,263	-0,212	-0,133
-693,670	-10,920	-0,059	-0,029
-692,656	800,000	0,033	0,070
-691,641	-124,596	0,072	0,008
-690,627	-200,000	0,016	-0,136
-689,612	201,841	-0,084	0,096
-688,597	800,000	-0,017	0,039
-687,583	249,670	-0,064	-0,080
-686,568	-136,294	-0,054	-0,005
-685,554	283,743	-0,064	-0,084
-684,539	-120,045	-0,120	0,015
-683,524	-75,917	-0,037	-0,009
-682,510	61,334	-0,024	0,018
-681,495	-200,000	0,046	-0,174
-680,481	-200,000	-0,009	-0,079
-679,466	-200,000	0,018	-0,186
-678,451	23,869	-0,055	0,033
-677,437	-200,000	-0,014	-0,093
-676,422	800,000	-0,021	0,048
-675,408	519,570	0,050	-0,087
-674,393	-200,000	-0,018	0,096
-673,378	-145,876	-0,113	0,007
-672,364	-200,000	0,008	0,031
-671,349	800,000	0,074	0,232
-670,335	164,004	0,092	0,095
-669,320	-200,000	-0,044	-0,207
-668,305	-0,018	0,167	0,087
-667,291	79,640	-0,073	-0,057
-666,276	-200,000	-0,006	-0,093
-665,262	-200,000	-0,003	-0,142
-664,247	316,868	0,063	-0,088
-663,232	317,152	0,050	-0,070
-662,218	655,716	0,059	0,113
-661,203	800,000	-0,014	0,037
-660,189	-200,000	-0,014	-0,053
-659,174	-70,576	-0,043	-0,012
-658,159	800,000	-0,045	0,105
-657,145	497,708	-0,031	-0,053
-656,130	11,962	-0,067	0,038
-655,116	-125,785	0,085	-0,009
-654,101	212,021	0,037	0,043
-653,086	800,000	-0,013	-0,030
-652,072	-200,000	0,009	-0,101
-651,057	-200,000	0,009	0,135
-650,043	186,781	-0,101	0,111
-649,028	800,000	0,087	0,187
-648,014	-200,000	0,005	-0,048
-646,999	78,873	-0,069	-0,054
-645,984	800,000	0,029	0,070
-644,970	27,007	-0,059	-0,036
-643,955	-200,000	0,002	0,177
-642,941	336,436	-0,031	0,044
-641,926	268,299	-0,064	-0,083
-640,911	39,991	-0,171	0,113
-639,897	800,000	0,031	0,068
-638,882	-37,810	-0,153	0,060
-637,868	-20,567	-0,029	0,013
-636,853	-8,384	-0,035	-0,017
-635,838	253,530	-0,094	-0,119
-634,824	-10,643	-0,010	-0,005
-633,809	-200,000	0,000	-0,012
-632,795	800,000	0,013	0,027
-631,780	257,128	-0,008	0,011
-630,765	128,335	0,031	0,029
-629,751	-171,117	-0,065	0,002
-628,736	-33,635	-0,175	-0,070
-627,722	-66,583	0,053	-0,015
-626,707	-66,689	0,093	-0,027
-625,692	75,300	-0,113	0,088
-624,678	-50,917	0,132	0,045
-623,663	513,405	-0,003	-0,004
-622,649	-200,000	-0,005	-0,139
-621,634	800,000	-0,049	0,130
-620,619	232,183	0,058	-0,071
-619,605	379,193	0,009	0,014
-618,590	-29,298	-0,129	0,054
-617,576	-38,092	0,088	-0,034
-616,561	127,221	-0,042	0,039
-615,546	-69,133	-0,179	-0,050
-614,532	170,909	-0,037	-0,039
-613,517	-123,730	-0,191	0,022
-612,503	-31,532	0,145	0,059
-611,488	-97,677	-0,212	-0,040
-610,474	249,065	0,049	0,060
-609,459	800,000	-0,052	0,120
-608,444	800,000	0,017	-0,034
-607,430	606,770	0,048	-0,089
-606,415	-139,815	-0,135	0,010
-605,401	47,029	-0,086	-0,058
-604,386	-27,561	-0,056	-0,024
-603,371	311,045	0,131	0,181
-602,357	-200,000	-0,015	-0,079
-601,342	800,000	0,016	-0,043
-600,328	-200,000	-0,001	-0,023
-599,313	-139,862	0,108	0,008
-598,298	-22,476	-0,118	0,052
-597,284	-9,112	0,053	0,026
-596,269	8,683	0,128	-0,070
-595,255	-200,000	-0,007	0,052
-594,240	26,250	-0,192	-0,118
-593,225	-200,000	-0,021	-0,154
-592,211	-174,120	-0,135	0,003
-591,196	-40,477	-0,031	-0,012
-590,182	-126,433	-0,106	-0,011
-589,167	41,784	0,174	0,115
-588,152	4,469	-0,057	0,031
-587,138	19,403	-0,076	-0,045
-586,123	-74,996	-0,107	-0,028
-585,109	-99,981	-0,078	0,014
-584,094	56,032	0,133	-0,095
-583,079	417,215	0,068	-0,108
-582,065	115,591	-0,037	-0,033
-581,050	135,675	-0,065	0,062
-580,036	784,540	-0,102	-0,206
-579,021	51,066	0,116	0,081
-578,006	-200,000	0,001	0,060
-576,992	63,664	0,058	0,042
-575,977	2,633	-0,126	0,067
-574,963	99,310	0,029	0,024
-573,948	-34,928	0,038	0,015
-572,934	5,645	-0,065	0,035
-571,919	-200,000	-0,001	-0,157
-570,904	-200,000	0,003	-0,039
-569,890	315,602	-0,038	-0,052
-568,875	197,410	0,023	-0,025
-567,861	800,000	0,063	0,138
-566,846	-200,000	-0,001	0,028
-565,831	87,016	0,046	-0,037
-564,817	-24,892	0,007	0,003
-563,802	-87,680	-0,091	0,020
-562,788	-107,346	-0,076	0,012
-561,773	-37,147	0,020	0,008
-560,758	173,809	0,122	0,129
-559,744	279,700	0,068	0,089
-558,729	132,116	0,101	0,095
-557,715	39,602	-0,120	-0,079
-556,700	432,475	-0,058	-0,092
-555,685	-37,682	-0,075	0,029
-554,671	-73,780	0,026	-0,007
-553,656	450,850	-0,058	-0,095
-552,642	405,359	0,114	0,177
-551,627	13,629	-0,140	-0,079
-550,612	578,834	0,055	-0,099
-549,598	-200,000	-0,039	-0,170
-548,583	29,274	-0,041	0,026
-547,569	-200,000	0,000	0,004
-546,554	-40,521	0,104	0,039
-545,539	156,274	0,023	-0,024
-544,525	404,517	-0,067	-0,104
-543,510	800,000	-0,037	-0,098
-542,496	-200,000	0,008	-0,140
-541,481	-167,488	-0,110	0,003
-540,466	430,449	0,046	-0,073
-539,452	335,350	0,027	-0,039
-538,437	800,000	0,099	0,223
-537,423	-200,000	-0,037	0,163
-536,408	-200,000	0,004	0,160
-535,393	112,186	-0,064	0,057
-534,379	-200,000	-0,008	-0,037
-533,364	-200,000	0,030	-0,131
-532,350	800,000	0,029	-0,080
-531,335	-94,554	-0,059	0,012
-530,321	-94,603	0,086	-0,017
-529,306	-22,165	-0,035	-0,016
-528,291	-0,283	-0,126	-0,065
-527,277	142,730	-0,089	0,087
-526,262	-200,000	0,019	-0,130
-525,248	-200,000	0,001	-0,171
-524,233	-99,025	-0,136	0,025
-523,218	23,468	-0,033	-0,020
-522,204	-67,280	-0,074	-0,021
-521,189	470,253	-0,054	-0,090
-520,175	302,717	0,092	-0,124
-519,160	-72,230	-0,155	-0,042
-518,145	-200,000	0,018	-0,080
-517,131	-200,000	0,012	0,100
-516,116	-72,788	-0,050	-0,013
-515,102	361,427	0,041	0,060
-514,087	244,665	0,074	0,091
-513,072	-200,000	-0,001	-0,046
-512,058	-54,594	0,106	0,035
-511,043	46,286	-0,159	-0,108
-510,029	114,048	-0,098	-0,088
-509,014	634,859	0,065	0,122
-507,999	-200,000	0,047	-0,182
-506,985	-192,027	-0,076	-0,001
-505,970	130,448	0,015	-0,014
-504,956	-200,000	-0,000	-0,063
-503,941	-48,460	0,087	0,030
-502,926	800,000	0,014	-0,034
-501,912	-86,474	-0,044	0,010
-500,897	551,552	-0,052	0,092
-499,883	-107,534	-0,183	0,029
-498,868	-200,000	-0,032	-0,128
-497,853	-200,000	0,008	-0,054
-496,839	221,789	-0,057	-0,067
-495,824	131,785	0,085	-0,080
-494,810	-83,223	-0,094	0,022
-493,795	800,000	-0,075	0,164
-492,781	25,323	0,143	0,087
-491,766	598,420	0,096	-0,175
-490,751	123,383	0,032	-0,029
-489,737	800,000	0,016	-0,045
-488,722	281,332	0,013	-0,017
-487,708	5,222	-0,014	0,007
-486,693	-200,000	-0,006	0,064
-485,678	-98,196	-0,066	-0,012
-484,664	-200,000	-0,004	0,063
-483,649	-200,000	-0,004	-0,069
-482,635	209,001	-0,014	-0,016
-481,620	209,250	0,044	-0,050
-480,605	-200,000	0,025	0,136
-479,591	-200,000	0,015	0,050
-478,576	-200,000	0,002	0,044
-477,562	-39,466	0,099	-0,038
-476,547	-200,000	-0,016	-0,066
-475,532	-24,322	-0,069	0,030
-474,518	121,900	0,057	-0,052
-473,503	152,293	0,114	-0,114
-472,489	800,000	-0,098	0,236
-471,474	145,418	0,026	0,026
-470,459	-24,069	-0,065	0,028
-469,445	49,318	-0,129	-0,088
-468,430	125,564	-0,154	-0,142
-467,416	174,771	0,108	0,114
-466,401	170,891	0,029	0,030
-465,386	56,573	-0,031	-0,022
-464,372	45,585	-0,112	0,075
-463,357	800,000	-0,012	-0,030
-462,343	-200,000	-0,012	-0,097
-461,328	21,369	0,143	-0,085
-460,313	-128,908	0,053	0,005
-459,299	-200,000	0,053	0,203
-458,284	800,000	-0,058	0,121
-457,270	470,454	-0,080	-0,132
-456,255	-13,052	0,038	0,018
-455,241	-200,000	0,016	0,068
-454,226	-16,039	0,079	0,037
-453,211	252,200	0,071	0,089
-452,197	-7,148	0,105	0,052
-451,182	-200,000	0,004	-0,151
-450,168	-200,000	0,032	-0,108
-449,153	-132,976	-0,050	-0,005
-448,138	-179,933	0,051	0,001
-447,124	-200,000	-0,002	0,047
-446,109	80,158	0,080	0,063
-445,095	800,000	0,031	0,069
-444,080	-53,328	0,116	-0,039
-443,065	-10,758	0,110	0,053
-442,051	15,689	-0,021	-0,012
-441,036	50,859	-0,120	-0,083
-440,022	-96,219	-0,110	-0,021
-439,007	-200,000	-0,024	-0,078
-437,992	-132,157	0,124	-0,012
-436,978	222,100	0,122	0,143
-435,963	299,321	0,100	0,134
-434,949	-200,000	-0,032	0,118
-433,934	-65,052	-0,046	-0,013
-432,919	3,965	-0,113	-0,060
-431,905	-124,141	-0,044	0,005
-430,890	800,000	0,023	-0,068
-429,876	20,367	0,091	-0,053
-428,861	-71,050	0,084	-0,023
-427,846	-64,044	0,033	0,010
-426,832	-200,000	-0,022	-0,143
-425,817	77,376	0,026	0,021
-424,803	9,871	0,120	-0,066
-423,788	-37,899	-0,039	-0,015
-422,773	328,442	0,094	-0,132
-421,759	-43,090	0,056	0,021
-420,744	91,050	0,094	0,077
-419,730	-157,759	-0,056	0,002
-418,715	250,620	0,063	-0,078
-417,701	1,258	0,084	0,044
-416,686	19,120	0,080	0,046
-415,671	266,982	0,053	0,068
-414,657	800,000	-0,041	-0,123
-413,642	-79,847	-0,150	0,037
-412,628	800,000	-0,045	-0,137
-411,613	800,000	-0,041	0,108
-410,598	-200,000	0,056	0,188
-409,584	-173,863	0,199	-0,004
-408,569	800,000	-0,053	0,127
-407,555	-55,491	-0,094	-0,031
-406,540	74,432	-0,011	0,008
-405,525	800,000	-0,009	-0,025
-404,511	-9,851	-0,036	-0,018
-403,496	78,052	-0,154	-0,120
-402,482	41,279	0,074	-0,048
-401,467	-103,992	0,220	-0,037
-400,452	152,271	-0,084	0,084
-399,438	-200,000	-0,001	-0,085
-398,423	59,757	-0,023	0,016
-397,409	335,073	-0,008	-0,011
-396,394	800,000	0,034	-0,096
-395,379	189,054	-0,075	0,082
-394,365	-43,481	-0,028	0,010
-393,350	-200,000	0,013	-0,101
-392,336	-200,000	0,001	0,106
-391,321	-62,882	0,024	-0,007
-390,306	-200,000	0,007	-0,070
-389,292	-149,209	-0,102	0,006
-388,277	142,723	0,101	0,098
-387,263	269,593	0,052	0,066
-386,248	-44,821	0,159	0,057
-385,233	226,034	-0,032	-0,037
-384,219	-18,054	0,113	0,051
-383,204	104,526	-0,023	0,020
-382,190	-200,000	0,004	-0,014
-381,175	-93,736	0,059	-0,012
-380,160	312,188	-0,066	-0,090
-379,146	99,484	0,059	0,049
-378,131	-71,997	-0,057	-0,015
-377,117	303,648	-0,088	-0,118
-376,102	87,835	0,117	0,095
-375,088	15,874	-0,013	-0,007
-374,073	-200,000	0,002	-0,125
-373,058	-200,000	-0,019	-0,097
-372,044	-15,640	0,116	0,054
-371,029	-15,602	0,164	-0,076
-370,015	19,516	-0,075	-0,044
-369,000	-200,000	0,024	0,077
-367,985	-200,000	-0,012	0,102
-366,971	43,073	-0,030	-0,020
-365,956	5,931	-0,058	0,031
-364,942	235,390	-0,016	0,019
-363,927	410,232	-0,072	0,112
-362,912	17,097	0,041	-0,023
-361,898	248,920	0,025	-0,031
-360,883	464,637	0,075	0,123
-359,869	-76,050	-0,096	0,024
-358,854	-200,000	0,001	0,082
-357,839	800,000	-0,041	0,104
-356,825	-200,000	0,032	0,114
-355,810	-38,511	0,073	0,028
-354,796	-149,154	-0,128	-0,007
-353,781	-200,000	0,003	-0,118
-352,766	-200,000	0,015	-0,142
-351,752	76,408	-0,084	0,065
-350,737	-61,429	0,074	0,022
-349,723	800,000	-0,025	0,081
-348,708	-200,000	-0,038	-0,137
-347,693	297,107	0,056	-0,076
-346,679	624,494	-0,035	-0,065
-345,664	497,618	-0,073	-0,123
-344,650	204,012	0,083	0,094
-343,635	-10,931	-0,063	-0,030
-342,620	-200,000	0,021	0,111
-341,606	116,298	0,072	0,064
-340,591	309,654	-0,053	-0,072
-339,577	-171,872	-0,062	-0,001
-338,562	219,365	-0,175	0,204
-337,548	-200,000	0,041	0,137
-336,533	-52,162	0,147	0,049
-335,518	-200,000	0,004	0,065
-334,504	-96,270	0,046	0,009
-333,489	-101,590	-0,021	0,004
-332,475	800,000	0,024	-0,060
-331,460	-200,000	-0,024	-0,163
-330,445	-181,048	-0,130	0,002
-329,431	55,034	0,111	0,078
-328,416	800,000	-0,007	0,021
-327,402	-200,000	0,028	0,197
-326,387	-66,563	0,121	0,035
-325,372	-8,286	-0,022	-0,011
-324,358	526,615	0,061	0,104
-323,343	-97,227	-0,147	-0,028
-322,329	280,693	0,021	0,027
-321,314	36,300	0,178	-0,114
-320,299	605,852	0,051	-0,092
-319,285	747,449	-0,044	0,087
-318,270	352,470	-0,033	-0,048
-317,256	104,565	-0,097	-0,083
-316,241	338,042	0,100	-0,142
-315,226	51,118	-0,097	-0,067
-314,212	-200,000	0,010	0,036
-313,197	-200,000	-0,012	-0,067
-312,183	-10,028	0,133	-0,064
-311,168	-31,282	-0,062	-0,025
-310,153	106,255	-0,087	-0,074
-309,139	136,676	0,090	-0,086
-308,124	165,342	-0,027	0,028
-307,110	485,148	0,041	-0,068
-306,095	800,000	0,017	0,043
-305,080	181,701	0,041	-0,044
-304,066	-200,000	0,006	-0,041
-303,051	800,000	0,054	-0,130
-302,037	800,000	-0,059	-0,186
-301,022	-167,722	0,095	0,003
-300,008	2,494	0,017	-0,009
-298,993	379,545	-0,037	0,056
-297,978	-86,040	-0,095	0,021
-296,964	232,918	-0,069	-0,083
-295,949	-200,000	-0,015	-0,170
-294,935	-200,000	0,048	0,157
-293,920	-98,724	0,120	0,022
-292,905	-200,000	0,023	0,085
-291,891	-0,547	0,020	0,010
-290,876	-200,000	0,019	0,139
-289,862	-200,000	0,003	0,052
-288,847	-85,164	-0,042	0,009
-287,832	-28,806	0,145	-0,060
-286,818	398,516	-0,028	0,042
-285,803	-200,000	0,002	0,077
-284,789	-1,284	-0,039	0,020
-283,774	-154,535	-0,098	0,005
-282,759	-23,474	0,077	0,033
-281,745	-94,678	0,028	-0,005
-280,730	-200,000	0,026	-0,148
-279,716	-200,000	-0,025	0,146
-278,701	485,664	-0,097	0,161
-277,686	422,001	-0,027	0,043
-276,672	-49,442	-0,089	0,030
-275,657	-61,623	0,067	0,020
-274,643	61,379	0,083	-0,060
-273,628	304,367	0,066	-0,089
-272,613	339,582	-0,053	-0,075
-271,599	11,715	0,086	0,048
-270,584	-8,584	0,073	-0,035
-269,570	-200,000	0,164	0,000
-268,555	-193,874	0,097	-0,001
-267,540	800,000	-0,031	0,079
-266,526	-33,338	-0,054	-0,022
-265,511	-200,000	0,020	-0,117
-264,497	-200,000	0,014	0,134
-263,482	42,278	0,151	0,099
-262,467	-200,000	0,014	0,081
-261,453	-200,000	0,016	-0,056
-260,438	402,851	-0,053	-0,081
-259,424	40,260	0,075	-0,049
-258,409	-200,000	-0,007	-0,046
-257,395	-200,000	-0,021	-0,117
-256,380	-200,000	-0,027	0,105
-255,365	-200,000	0,043	0,139
-254,351	-27,535	0,179	0,075
-253,336	-92,809	0,191	0,038
-252,322	189,202	-0,063	-0,069
-251,307	107,654	-0,039	-0,033
-250,292	-78,597	-0,094	0,023
-249,278	110,736	0,016	-0,014
-248,263	32,974	0,166	0,104
-247,249	-14,416	-0,065	-0,030
-246,234	84,989	-0,088	-0,070
-245,219	-200,000	0,000	-0,053
-244,205	-200,000	-0,007	-0,059
-243,190	800,000	0,080	0,168
-242,176	248,736	-0,057	0,070
-241,161	397,146	0,069	0,104
-240,146	-200,000	-0,003	0,079
-239,132	-24,767	0,053	0,023
-238,117	-159,293	-0,078	0,003
-237,103	800,000	-0,040	0,107
-236,088	267,593	-0,074	-0,093
-235,073	-200,000	-0,006	-0,271
-234,059	-200,000	0,025	0,087
-233,044	73,354	0,091	0,069
-232,030	607,941	-0,035	0,064
-231,015	-89,796	0,133	-0,028
-230,000	-169,324	0,040	0,001
-228,986	-200,000	0,002	0,082
-227,971	-143,010	0,007	-0,000
-226,957	800,000	-0,028	0,058
-225,942	-66,441	-0,053	-0,015
-224,927	-200,000	0,008	0,093
-223,913	-116,007	-0,136	-0,018
-222,898	477,437	-0,019	-0,032
-221,884	-200,000	0,013	0,066
-220,869	800,000	-0,061	0,126
-219,855	-144,960	0,182	0,012
-218,840	800,000	0,030	-0,064
-217,825	319,694	-0,027	0,037
-216,811	800,000	-0,059	-0,131
-215,796	289,867	-0,026	0,034
-214,782	149,992	0,112	-0,110
-213,767	-159,574	-0,040	0,002
-212,752	-200,000	0,012	0,230
-211,738	343,562	-0,043	0,060
-210,723	566,211	0,077	0,135
-209,709	363,019	-0,037	-0,055
-208,694	-200,000	0,011	-0,074
-207,679	800,000	-0,024	-0,063
-206,665	800,000	0,055	-0,157
-205,650	677,936	0,016	0,030
-204,636	-21,485	-0,012	-0,005
-203,621	-200,000	-0,025	0,124
-202,606	220,017	-0,033	0,038
-201,592	536,900	-0,036	-0,063
-200,577	-200,000	-0,003	-0,019
-199,563	-200,000	-0,006	-0,096
-198,548	-200,000	0,019	0,000
-197,533	62,259	0,117	0,084
-196,519	195,101	-0,053	0,059
-195,504	-200,000	-0,057	-0,199
-194,490	-30,148	0,079	-0,032
-193,475	-200,000	-0,048	-0,172
-192,460	-17,638	-0,057	-0,026
-191,446	800,000	0,043	0,088
-190,431	800,000	-0,003	-0,007
-189,417	-90,792	-0,065	-0,013
-188,402	-200,000	0,112	0,000
-187,387	-15,006	-0,098	-0,045
-186,373	-126,881	-0,077	-0,008
-185,358	60,143	-0,048	0,034
-184,344	-67,971	-0,071	0,020
-183,329	-82,242	-0,097	-0,023
-182,315	-122,542	0,045	0,005
-181,300	224,872	0,069	-0,080
-180,285	12,655	-0,039	-0,022
-179,271	67,404	0,079	0,058
-178,256	51,619	0,107	0,073
-177,242	92,102	0,032	-0,026
-176,227	97,368	0,094	0,078
-175,212	-200,000	0,013	0,174
-174,198	-92,228	0,118	0,024
-173,183	698,267	0,013	-0,026
-172,169	-200,000	-0,012	-0,133
-171,154	-73,526	-0,074	-0,019
-170,139	800,000	0,033	0,093
-169,125	-200,000	0,006	0,031
-168,110	800,000	0,053	0,110
-167,096	800,000	-0,042	-0,094
-166,081	-200,000	0,002	-0,064
-165,066	-200,000	-0,020	-0,116
-164,052	9,712	0,084	0,046
-163,037	187,056	-0,058	-0,063
-162,023	249,579	0,089	0,109
-161,008	-122,991	-0,029	0,003
-159,993	-88,688	-0,038	-0,008
-158,979	-27,916	-0,049	-0,020
-157,964	-200,000	-0,020	-0,092
-156,950	-154,405	0,028	-0,001
-155,935	800,000	-0,034	0,069
-154,920	99,837	-0,060	0,051
-153,906	-10,547	-0,070	0,033
-152,891	-200,000	0,000	0,026
-151,877	-200,000	0,002	-0,027
-150,862	-200,000	-0,010	-0,040
-149,847	-200,000	0,025	-0,183
-148,833	32,210	0,111	0,069
-147,818	-200,000	0,004	0,082
-146,804	800,000	0,037	-0,080
-145,789	12,826	-0,054	0,030
-144,775	777,405	0,066	-0,131
-143,760	459,013	0,069	-0,110
-142,745	417,255	-0,084	-0,130
-141,731	-200,000	-0,044	0,178
-140,716	581,674	-0,079	0,140
-139,702	11,536	0,107	-0,059
-138,687	295,795	0,037	-0,049
-137,672	-200,000	0,014	0,084
-136,658	-30,354	-0,029	0,012
-135,643	284,214	-0,073	-0,095
-134,629	-44,124	0,046	0,017
-133,614	800,000	0,033	-0,074
-132,599	200,971	-0,047	0,052
-131,585	205,123	0,115	0,129
-130,570	-6,269	0,101	0,050
-129,556	190,997	0,100	0,108
-128,541	-49,763	-0,029	-0,010
-127,526	51,508	0,046	0,031
-126,512	142,489	0,035	-0,033
-125,497	-138,989	0,061	-0,005
-124,483	19,720	-0,051	0,029
-123,468	721,589	-0,022	-0,043
-122,453	-200,000	-0,024	-0,161
-121,439	-200,000	-0,042	-0,169
-120,424	209,428	-0,099	-0,112
-119,410	-200,000	-0,004	-0,060
