DTS Sentinel unit serial number:	SN410029Multiplexer serial number:	ORYXHardware model number:	OX2-SRSoftware version number:	ORYX F/W v4,00 Oryx Data Collector v3.7.2.0data status	okinstallation	B6 Nyhavnadifferential loss correction	single-endedforward channel	channel 2reverse channel	N/Adate	2023/12/08time	04:50:08forward acquisition time	300,00reverse acquisition time	0,00gamma	499,1914k internal	0,3165k external	0,3165temperature offset calibration	1,0000default loss term (dB/km)	0,3820temperature slope calibration	1,0000multiplexer offset coefficient	1,0000multiplexer slope coefficient	1,0000fibre end	0,00T internal ref (°C)	13,04T ext. ref 1 (°C)	-3,79T ext. ref 2 (°C)	-3,77length (m)	temperature (°C)	Stokes	anti-Stokes-744,400	164,347	0,045	0,047
-743,385	-99,499	-0,242	-0,044
-742,371	-162,645	0,108	-0,004
-741,356	-99,433	-0,411	-0,075
-740,342	-22,680	0,160	0,071
-739,327	-70,837	-0,380	-0,105
-738,312	144,526	-0,078	0,077
-737,298	-115,464	-0,227	-0,031
-736,283	27,574	0,120	0,074
-735,269	-170,623	-0,254	0,006
-734,254	7,649	0,103	-0,057
-733,239	37,599	-0,547	-0,356
-732,225	-48,726	0,146	0,051
-731,210	800,000	0,049	0,133
-730,196	-200,000	-0,020	0,074
-729,181	-83,683	-0,061	0,014
-728,167	60,674	0,078	-0,057
-727,152	347,122	0,011	0,015
-726,137	-200,000	0,003	-0,098
-725,123	-55,054	-0,054	-0,018
-724,108	-90,963	-0,090	-0,019
-723,094	54,142	-0,148	-0,104
-722,079	-200,000	0,008	-0,033
-721,064	-85,740	0,135	-0,031
-720,050	-152,406	-0,051	0,003
-719,035	-138,235	0,102	-0,008
-718,021	253,932	-0,087	-0,109
-717,006	800,000	-0,040	-0,090
-715,991	-200,000	0,004	-0,106
-714,977	-71,147	-0,083	-0,023
-713,962	-85,074	0,069	0,016
-712,948	-77,709	-0,108	-0,027
-711,933	-60,402	-0,147	0,046
-710,918	388,048	0,016	-0,024
-709,904	-200,000	-0,001	-0,030
-708,889	-43,334	0,079	0,029
-707,875	-77,616	-0,125	-0,032
-706,860	59,353	-0,114	-0,083
-705,845	-69,790	-0,103	0,029
-704,831	-21,825	0,126	0,056
-703,816	105,020	-0,045	0,039
-702,802	-95,112	0,019	-0,004
-701,787	-99,756	-0,034	-0,006
-700,772	-2,602	-0,111	0,057
-699,758	-165,072	-0,076	0,002
-698,743	760,709	0,027	0,054
-697,729	185,018	-0,070	0,076
-696,714	83,706	-0,056	0,045
-695,699	800,000	-0,029	0,065
-694,685	-181,139	-0,163	0,002
-693,670	22,055	0,048	-0,029
-692,656	-15,662	-0,079	-0,037
-691,641	166,032	-0,087	-0,091
-690,627	55,162	0,027	-0,019
-689,612	-38,657	0,034	-0,013
-688,597	446,000	0,041	-0,066
-687,583	186,169	-0,079	-0,087
-686,568	-200,000	0,007	-0,099
-685,554	-25,620	0,093	-0,040
-684,539	59,589	-0,096	0,070
-683,524	242,159	-0,040	-0,049
-682,510	45,248	0,068	-0,046
-681,495	-124,663	-0,046	-0,005
-680,481	-100,988	0,184	0,033
-679,466	4,915	0,078	-0,042
-678,451	-57,545	-0,017	-0,006
-677,437	768,759	0,011	-0,023
-676,422	7,479	0,156	0,086
-675,408	85,981	-0,174	0,140
-674,393	-23,726	0,115	-0,050
-673,378	-9,632	-0,237	-0,115
-672,364	604,337	-0,009	-0,016
-671,349	-167,277	-0,051	0,001
-670,335	-82,514	0,093	0,022
-669,320	-200,000	-0,028	0,150
-668,305	-200,000	0,028	-0,202
-667,291	-148,943	-0,131	-0,008
-666,276	-200,000	0,010	0,050
-665,262	800,000	0,048	-0,098
-664,247	800,000	0,031	0,080
-663,232	-200,000	0,031	-0,180
-662,218	6,271	-0,110	0,060
-661,203	8,938	-0,035	0,019
-660,189	-135,849	-0,055	-0,005
-659,174	152,138	-0,057	0,057
-658,159	-78,567	-0,035	0,009
-657,145	197,968	0,041	-0,046
-656,130	-96,282	0,133	0,026
-655,116	184,919	0,040	0,043
-654,101	-200,000	0,002	-0,082
-653,086	322,879	0,109	-0,152
-652,072	114,662	-0,151	-0,135
-651,057	-113,214	-0,118	0,017
-650,043	-200,000	-0,001	-0,054
-649,028	486,507	-0,036	-0,061
-648,014	210,976	0,037	0,042
-646,999	75,113	0,125	-0,096
-645,984	253,138	-0,039	0,049
-644,970	52,578	0,029	0,020
-643,955	-200,000	0,012	-0,063
-642,941	0,371	-0,037	-0,019
-641,926	25,311	-0,058	-0,035
-640,911	-75,974	0,022	-0,006
-639,897	-23,511	0,118	-0,052
-638,882	800,000	-0,030	-0,077
-637,868	-57,399	0,011	-0,003
-636,853	800,000	-0,018	0,038
-635,838	189,930	-0,083	-0,092
-634,824	-38,725	-0,100	0,038
-633,809	-60,722	-0,051	0,016
-632,795	97,012	0,146	-0,123
-631,780	-200,000	-0,004	-0,051
-630,765	800,000	-0,017	0,036
-629,751	151,194	-0,050	-0,050
-628,736	-107,000	-0,153	-0,025
-627,722	795,931	-0,064	-0,130
-626,707	-48,687	0,102	-0,036
-625,692	800,000	0,033	-0,083
-624,678	605,391	-0,055	0,100
-623,663	800,000	-0,037	0,077
-622,649	795,820	0,064	-0,130
-621,634	180,624	-0,078	-0,084
-620,619	-200,000	0,030	-0,141
-619,605	61,797	-0,048	0,035
-618,590	-128,523	-0,167	0,017
-617,576	-12,889	0,026	-0,013
-616,561	322,943	-0,079	-0,111
-615,546	-200,000	-0,015	-0,123
-614,532	-85,669	-0,084	-0,019
-613,517	-200,000	0,002	-0,053
-612,503	-200,000	0,021	-0,124
-611,488	-200,000	0,000	0,009
-610,474	800,000	-0,006	-0,011
-609,459	-200,000	-0,034	-0,171
-608,444	240,297	0,018	0,022
-607,430	-20,537	-0,071	-0,032
-606,415	464,989	0,051	-0,084
-605,401	-200,000	0,012	0,048
-604,386	53,425	0,116	0,081
-603,371	63,038	0,092	0,067
-602,357	800,000	0,052	0,110
-601,342	372,337	-0,018	0,026
-600,328	-60,431	-0,132	-0,041
-599,313	148,389	-0,122	-0,120
-598,298	800,000	0,021	-0,050
-597,284	-200,000	0,018	-0,062
-596,269	-200,000	0,015	0,093
-595,255	229,426	0,054	-0,065
-594,240	291,559	-0,017	0,022
-593,225	-200,000	0,028	-0,115
-592,211	-200,000	-0,025	-0,109
-591,196	-200,000	-0,015	-0,066
-590,182	-175,564	-0,186	-0,004
-589,167	20,588	0,037	0,022
-588,152	-123,346	0,134	0,015
-587,138	-87,101	-0,085	0,019
-586,123	120,797	-0,129	-0,117
-585,109	-69,032	-0,102	0,029
-584,094	782,055	0,026	-0,052
-583,079	-185,441	0,024	-0,000
-582,065	394,213	-0,079	-0,121
-581,050	121,212	0,162	-0,147
-580,036	-75,648	-0,114	-0,029
-579,021	35,242	-0,074	0,047
-578,006	-132,089	-0,005	-0,000
-576,992	-200,000	0,000	-0,073
-575,977	-174,806	0,115	-0,002
-574,963	800,000	0,065	0,174
-573,948	-192,148	0,120	0,001
-572,934	84,889	-0,124	0,099
-571,919	-200,000	0,012	-0,044
-570,904	116,004	0,113	0,101
-569,890	800,000	-0,045	-0,095
-568,875	38,991	0,020	-0,013
-567,861	123,657	0,042	-0,039
-566,846	165,632	-0,078	-0,081
-565,831	-27,367	0,138	0,058
-564,817	-15,623	0,056	-0,026
-563,802	-140,622	-0,230	0,017
-562,788	-55,658	-0,083	-0,027
-561,773	-200,000	-0,122	0,000
-560,758	-200,000	-0,002	0,027
-559,744	121,875	-0,024	0,022
-558,729	30,606	0,063	-0,039
-557,715	156,662	0,018	-0,018
-556,700	77,015	0,033	-0,026
-555,685	295,573	0,082	-0,110
-554,671	281,284	0,038	0,049
-553,656	90,985	-0,102	-0,083
-552,642	28,515	0,097	0,060
-551,627	-200,000	0,017	-0,101
-550,612	-109,232	-0,068	0,010
-549,598	130,802	-0,059	-0,055
-548,583	-42,715	0,050	0,019
-547,569	136,492	0,133	0,127
-546,554	-155,938	-0,044	0,002
-545,539	800,000	0,044	-0,097
-544,525	137,164	-0,117	0,112
-543,510	26,581	0,100	-0,061
-542,496	344,929	0,057	-0,082
-541,481	800,000	-0,009	0,024
-540,466	91,318	-0,041	0,033
-539,452	-200,000	-0,014	0,092
-538,437	-110,954	-0,070	0,010
-537,423	-138,585	-0,069	-0,005
-536,408	800,000	0,047	-0,116
-535,393	800,000	0,059	-0,120
-534,379	289,473	-0,030	-0,040
-533,364	800,000	-0,064	-0,186
-532,350	-73,403	0,034	-0,009
-531,335	-200,000	0,028	0,133
-530,321	-200,000	0,000	-0,120
-529,306	-200,000	-0,005	0,101
-528,291	284,538	-0,026	-0,034
-527,277	194,970	-0,089	-0,098
-526,262	22,442	-0,133	0,079
-525,248	-200,000	0,004	0,041
-524,233	163,408	0,083	-0,085
-523,218	-92,158	0,058	-0,012
-522,204	-200,000	0,026	0,110
-521,189	190,974	-0,098	-0,108
-520,175	234,397	0,067	0,081
-519,160	-24,538	-0,124	-0,053
-518,145	433,898	0,053	0,084
-517,131	-25,230	0,081	0,035
-516,116	-20,676	-0,040	0,018
-515,102	-12,025	0,074	-0,035
-514,087	426,129	0,055	0,086
-513,072	-80,711	0,134	-0,032
-512,058	36,438	-0,047	0,030
-511,043	132,391	0,038	0,036
-510,029	-200,000	-0,016	0,063
-509,014	70,819	-0,034	0,026
-507,999	218,482	-0,036	0,042
-506,985	189,445	0,059	-0,065
-505,970	-200,000	-0,023	-0,098
-504,956	97,410	0,017	-0,015
-503,941	800,000	0,041	-0,117
-502,926	-200,000	0,006	0,065
-501,912	350,844	0,040	-0,057
-500,897	-77,286	-0,057	0,014
-499,883	-175,138	0,079	-0,002
-498,868	368,231	-0,026	0,039
-497,853	-29,075	0,063	-0,026
-496,839	800,000	0,019	-0,040
-495,824	223,305	0,026	0,031
-494,810	-200,000	0,006	-0,034
-493,795	25,105	-0,072	0,043
-492,781	229,559	0,081	-0,096
-491,766	-0,460	-0,097	-0,050
-490,751	772,254	0,066	0,132
-489,737	317,751	-0,033	0,046
-488,722	-200,000	0,019	0,110
-487,708	-138,209	0,115	-0,009
-486,693	147,790	-0,065	-0,064
-485,678	336,949	-0,033	-0,047
-484,664	-1,462	-0,068	0,035
-483,649	79,786	0,064	0,050
-482,635	74,601	0,119	0,091
-481,620	494,425	0,079	-0,133
-480,605	-88,764	0,024	0,005
-479,591	-200,000	-0,007	-0,034
-478,576	-200,000	0,000	-0,114
-477,562	-54,052	-0,102	-0,034
-476,547	8,928	-0,077	-0,042
-475,532	460,012	-0,021	0,034
-474,518	-200,000	0,001	0,034
-473,503	251,720	-0,081	0,100
-472,489	-177,911	-0,042	0,001
-471,474	150,096	-0,073	0,072
-470,459	12,293	-0,058	0,032
-469,445	800,000	0,013	-0,026
-468,430	-200,000	0,014	0,070
-467,416	186,027	0,026	0,029
-466,401	-38,537	0,153	-0,058
-465,386	800,000	-0,028	-0,073
-464,372	194,328	-0,015	-0,016
-463,357	164,645	-0,051	0,052
-462,343	-27,478	0,079	0,033
-461,328	-48,287	0,049	-0,017
-460,313	-200,000	0,009	0,077
-459,299	-9,968	0,115	-0,055
-458,284	800,000	-0,023	-0,056
-457,270	485,585	0,042	-0,070
-456,255	-123,725	-0,033	0,004
-455,241	363,604	0,009	0,013
-454,226	331,254	-0,106	0,149
-453,211	-54,312	0,099	0,033
-452,197	-6,353	-0,051	-0,025
-451,182	239,434	-0,016	0,020
-450,168	800,000	-0,074	-0,162
-449,153	-200,000	-0,021	-0,113
-448,138	26,533	-0,061	-0,037
-447,124	281,877	-0,080	-0,104
-446,109	0,102	0,141	0,073
-445,095	-23,943	0,121	0,052
-444,080	-9,831	0,026	0,013
-443,065	-200,000	-0,016	0,091
-442,051	800,000	-0,049	0,153
-441,036	-200,000	0,039	0,134
-440,022	330,316	-0,060	-0,084
-439,007	284,104	0,037	-0,048
-437,992	-200,000	-0,009	0,039
-436,978	-135,283	0,038	-0,003
-435,963	800,000	0,005	-0,014
-434,949	8,385	0,079	-0,043
-433,934	195,848	0,032	0,035
-432,919	800,000	-0,091	-0,189
-431,905	-19,394	0,108	-0,049
-430,890	-34,144	-0,118	-0,047
-429,876	800,000	0,032	-0,076
-428,861	21,018	0,055	0,032
-427,846	125,830	-0,087	-0,079
-426,832	-91,169	-0,097	0,020
-425,817	-200,000	-0,005	-0,052
-424,803	800,000	0,022	0,067
-423,788	-33,751	0,011	-0,004
-422,773	800,000	0,087	0,186
-421,759	10,734	-0,141	0,078
-420,744	47,942	0,044	0,030
-419,730	-200,000	-0,011	-0,067
-418,715	-136,111	-0,032	0,003
-417,701	-200,000	-0,000	0,026
-416,686	-200,000	-0,018	0,083
-415,671	233,240	0,147	0,176
-414,657	-200,000	-0,023	0,086
-413,642	-200,000	-0,006	0,067
-412,628	800,000	0,009	0,027
-411,613	-200,000	-0,018	-0,104
-410,598	-166,103	-0,152	0,005
-409,584	800,000	0,034	-0,069
-408,569	64,576	0,022	0,016
-407,555	98,302	-0,033	-0,027
-406,540	800,000	0,054	-0,118
-405,525	-200,000	0,003	-0,101
-404,511	20,104	0,047	-0,028
-403,496	311,672	-0,077	-0,106
-402,482	-200,000	-0,001	0,045
-401,467	-200,000	0,064	0,207
-400,452	-200,000	0,027	0,141
-399,438	800,000	-0,035	0,111
-398,423	-155,767	-0,115	0,005
-397,409	-200,000	-0,016	-0,131
-396,394	-144,437	-0,148	0,010
-395,379	339,027	0,022	0,031
-394,365	223,266	-0,044	0,052
-393,350	-23,176	0,035	0,015
-392,336	478,465	0,019	0,031
-391,321	111,849	0,087	-0,076
-390,306	-30,204	0,068	-0,028
-389,292	-136,243	0,043	-0,004
-388,277	-200,000	0,011	-0,057
-387,263	611,748	-0,034	0,063
-386,248	800,000	0,035	0,097
-385,233	460,945	0,083	0,134
-384,219	-200,000	0,029	-0,098
-383,204	377,362	-0,070	-0,105
-382,190	-200,000	0,014	-0,087
-381,175	491,564	0,045	0,075
-380,160	-200,000	0,024	-0,133
-379,146	-200,000	-0,016	-0,110
-378,131	105,390	0,087	-0,075
-377,117	-73,229	-0,043	-0,011
-376,102	-59,775	-0,073	-0,023
-375,088	335,270	-0,035	0,050
-374,073	-200,000	0,013	0,069
-373,058	-200,000	-0,033	0,142
-372,044	-200,000	-0,009	0,079
-371,029	82,802	0,014	-0,011
-370,015	800,000	-0,044	-0,095
-369,000	800,000	0,015	-0,037
-367,985	145,588	-0,168	-0,163
-366,971	635,091	-0,033	-0,061
-365,956	-200,000	-0,012	0,079
-364,942	6,779	0,053	-0,028
-363,927	800,000	0,040	0,082
-362,912	375,880	0,146	0,216
-361,898	208,369	-0,009	0,011
-360,883	-200,000	-0,045	-0,189
-359,869	800,000	-0,081	-0,172
-358,854	624,627	-0,016	0,030
-357,839	-70,366	0,134	0,036
-356,825	-147,544	0,094	-0,006
-355,810	-30,692	0,133	0,054
-354,796	-200,000	-0,015	-0,060
-353,781	115,383	-0,032	-0,029
-352,766	221,903	-0,070	0,081
-351,752	209,895	-0,066	0,075
-350,737	-49,527	0,047	0,016
-349,723	-200,000	0,012	0,082
-348,708	-82,689	-0,119	-0,028
-347,693	337,594	0,058	-0,081
-346,679	-200,000	-0,008	-0,106
-345,664	-200,000	0,017	-0,162
-344,650	180,781	0,058	0,062
-343,635	31,724	0,092	0,057
-342,620	-57,207	-0,078	-0,025
-341,606	-84,123	0,080	-0,018
-340,591	-200,000	0,011	0,072
-339,577	605,900	0,035	-0,063
-338,562	222,068	-0,072	0,084
-337,548	-200,000	-0,009	0,042
-336,533	191,284	-0,060	-0,065
-335,518	-200,000	0,025	0,123
-334,504	-200,000	-0,017	0,059
-333,489	-111,866	-0,036	0,005
-332,475	343,376	-0,056	0,079
-331,460	68,523	-0,030	-0,022
-330,445	-82,243	-0,094	-0,022
-329,431	800,000	0,032	0,096
-328,416	469,201	0,027	0,044
-327,402	-142,479	0,030	-0,002
-326,387	24,359	-0,128	-0,076
-325,372	-200,000	0,009	-0,060
-324,358	-200,000	0,047	0,000
-323,343	-200,000	0,015	-0,090
-322,329	17,533	0,111	0,064
-321,314	800,000	-0,090	0,184
-320,299	119,864	-0,057	0,051
-319,285	-176,465	0,056	-0,001
-318,270	115,727	-0,042	-0,037
-317,256	171,548	0,022	-0,023
-316,241	-142,704	0,139	0,010
-315,226	64,683	0,058	-0,043
-314,212	104,451	0,101	-0,086
-313,197	71,973	-0,061	0,046
-312,183	412,963	-0,030	0,046
-311,168	-69,048	-0,081	0,023
-310,153	178,416	0,065	-0,069
-309,139	325,315	0,120	0,167
-308,124	800,000	0,036	-0,077
-307,110	800,000	-0,035	-0,110
-306,095	-200,000	-0,005	0,118
-305,080	800,000	-0,047	0,125
-304,066	55,386	-0,054	0,037
-303,051	800,000	0,018	-0,055
-302,037	78,304	0,051	-0,039
-301,022	800,000	0,022	-0,048
-300,008	236,323	0,037	-0,045
-298,993	-86,751	-0,108	-0,024
-297,978	338,599	0,017	0,024
-296,964	242,562	-0,085	-0,103
-295,949	250,262	-0,069	-0,085
-294,935	-200,000	0,035	-0,164
-293,920	800,000	0,044	0,126
-292,905	800,000	-0,029	-0,074
-291,891	35,261	0,063	0,040
-290,876	189,616	-0,079	0,085
-289,862	-156,268	-0,096	0,004
-288,847	-141,239	0,033	-0,002
-287,832	800,000	0,049	0,122
-286,818	159,683	0,101	0,102
-285,803	-200,000	-0,010	-0,097
-284,789	111,319	0,089	0,078
-283,774	376,364	0,104	0,154
-282,759	32,966	0,042	0,026
-281,745	-200,000	0,008	0,116
-280,730	-163,596	-0,117	-0,004
-279,716	-200,000	0,008	0,144
-278,701	-200,000	0,003	0,184
-277,686	-200,000	0,007	0,064
-276,672	-200,000	0,015	0,191
-275,657	-105,982	-0,062	-0,010
-274,643	-128,027	0,024	-0,002
-273,628	800,000	0,048	-0,139
-272,613	-200,000	-0,007	0,063
-271,599	-200,000	0,001	0,030
-270,584	-200,000	0,053	0,193
-269,570	122,209	0,074	-0,067
-268,555	-20,728	-0,090	-0,040
-267,540	-69,458	-0,087	-0,024
-266,526	709,863	-0,019	-0,036
-265,511	-10,170	0,052	0,025
-264,497	-75,526	0,095	-0,024
-263,482	-155,914	0,066	-0,003
-262,467	-131,956	-0,112	0,010
-261,453	148,814	0,152	0,148
-260,438	327,940	-0,100	-0,139
-259,424	-71,042	0,081	-0,022
-258,409	-200,000	-0,013	0,145
-257,395	315,053	0,087	0,118
-256,380	130,671	-0,086	0,080
-255,365	69,166	-0,003	0,002
-254,351	-200,000	0,023	0,074
-253,336	141,738	0,036	-0,034
-252,322	-70,668	-0,082	-0,022
-251,307	-134,872	-0,215	0,019
-250,292	-150,352	-0,062	-0,003
-249,278	-112,111	0,024	-0,003
-248,263	-54,997	0,175	0,056
-247,249	-200,000	0,003	0,065
-246,234	239,652	-0,068	0,082
-245,219	-200,000	0,005	-0,126
-244,205	-72,421	-0,063	-0,017
-243,190	97,312	0,032	-0,026
-242,176	24,681	0,128	-0,076
-241,161	419,225	-0,059	0,091
-240,146	-200,000	0,010	0,062
-239,132	-200,000	-0,017	0,070
-238,117	-200,000	0,002	-0,064
-237,103	-173,030	0,122	0,003
-236,088	-200,000	-0,024	-0,098
-235,073	179,614	0,058	0,061
-234,059	372,339	0,013	0,019
-233,044	-77,215	-0,118	0,029
-232,030	402,088	0,071	-0,108
-231,015	-197,051	-0,062	0,000
-230,000	-61,133	0,066	-0,020
-228,986	261,978	0,050	-0,063
-227,971	63,226	-0,063	-0,046
-226,957	458,256	0,062	0,099
-225,942	-200,000	-0,005	-0,022
-224,927	-200,000	0,013	-0,105
-223,913	-200,000	0,038	-0,187
-222,898	216,268	0,033	-0,037
-221,884	-183,897	0,106	0,001
-220,869	-3,231	0,083	-0,042
-219,855	800,000	0,046	0,116
-218,840	-200,000	0,000	-0,074
-217,825	129,008	-0,090	0,083
-216,811	-131,804	-0,274	-0,026
-215,796	-46,423	0,088	0,031
-214,782	124,226	-0,094	-0,085
-213,767	-200,000	-0,021	0,066
-212,752	800,000	0,075	0,231
-211,738	0,494	-0,047	0,024
-210,723	27,347	-0,025	-0,015
-209,709	107,204	0,022	-0,019
-208,694	83,718	0,008	0,006
-207,679	-200,000	-0,028	-0,135
-206,665	800,000	0,046	0,100
-205,650	184,811	0,029	0,031
-204,636	69,086	-0,041	0,031
-203,621	-39,884	0,143	-0,053
-202,606	-200,000	0,016	0,075
-201,592	195,362	-0,043	0,047
-200,577	800,000	-0,039	0,096
-199,563	110,199	0,109	-0,094
-198,548	800,000	0,023	0,059
-197,533	-94,164	0,129	-0,025
-196,519	-161,265	-0,057	-0,002
-195,504	-200,000	0,004	0,071
-194,490	322,228	-0,044	-0,061
-193,475	51,865	-0,070	0,048
-192,460	64,737	0,130	-0,094
-191,446	-200,000	-0,001	0,036
-190,431	116,031	-0,046	-0,041
-189,417	478,080	0,098	-0,161
-188,402	232,285	-0,054	0,064
-187,387	-200,000	0,018	-0,062
-186,373	-63,008	-0,065	0,019
-185,358	-70,818	-0,122	0,033
-184,344	2,319	0,066	-0,034
-183,329	790,768	-0,009	-0,019
-182,315	-78,065	-0,108	-0,027
-181,300	244,850	-0,080	0,097
-180,285	-200,000	-0,000	-0,052
-179,271	789,133	-0,061	-0,121
-178,256	-26,465	-0,088	-0,037
-177,242	633,523	0,087	0,158
-176,227	428,544	0,070	0,110
-175,212	131,768	-0,050	-0,046
-174,198	235,218	-0,046	0,054
-173,183	-59,020	-0,093	-0,029
-172,169	276,992	0,011	0,014
-171,154	-200,000	0,004	-0,050
-170,139	-9,050	0,066	0,031
-169,125	800,000	0,022	0,050
-168,110	800,000	0,024	0,059
-167,096	-200,000	-0,021	-0,119
-166,081	-164,106	-0,131	0,004
-165,066	-200,000	-0,017	0,146
-164,052	-37,641	-0,118	0,045
-163,037	117,301	0,074	-0,066
-162,023	46,088	0,125	0,083
-161,008	800,000	-0,045	0,096
-159,993	-99,448	0,106	0,019
-158,979	-43,481	0,129	0,046
-157,964	34,826	-0,061	-0,038
-156,950	558,734	-0,086	0,149
-155,935	-200,000	-0,002	0,053
-154,920	-200,000	0,025	0,126
-153,906	127,158	0,114	0,104
-152,891	800,000	-0,041	0,083
-151,877	-66,946	-0,111	0,031
-150,862	800,000	-0,054	-0,129
-149,847	-59,404	0,041	-0,012
-148,833	587,292	0,072	-0,128
-147,818	177,444	0,062	-0,065
-146,804	-200,000	0,008	-0,038
-145,789	99,454	0,022	-0,018
-144,775	-200,000	-0,005	-0,053
-143,760	800,000	0,046	-0,119
-142,745	800,000	-0,021	0,051
-141,731	-136,029	0,080	-0,007
-140,716	457,364	0,053	0,085
-139,702	-200,000	0,001	0,024
-138,687	286,054	0,046	0,060
-137,672	-163,487	-0,076	-0,003
-136,658	800,000	0,050	-0,113
-135,643	55,697	-0,146	-0,102
-134,629	-95,502	0,091	-0,017
-133,614	800,000	-0,022	-0,060
-132,599	-200,000	0,033	0,167
-131,585	170,422	0,107	0,110
-130,570	166,198	-0,035	0,036
-129,556	800,000	0,033	0,068
-128,541	-200,000	-0,025	0,128
-127,526	-104,839	0,056	-0,009
-126,512	329,795	0,055	-0,076
-125,497	384,886	0,034	-0,051
-124,483	800,000	0,043	-0,103
-123,468	-41,061	-0,115	-0,043
-122,453	-112,127	0,034	0,005
-121,439	-54,940	0,048	-0,016
-120,424	744,380	-0,082	-0,159
-119,410	-54,028	0,070	-0,023
