DTS Sentinel unit serial number:	SN410029Multiplexer serial number:	ORYXHardware model number:	OX2-SRSoftware version number:	ORYX F/W v4,00 Oryx Data Collector v3.7.2.0data status	okinstallation	B6 Nyhavnadifferential loss correction	single-endedforward channel	channel 2reverse channel	N/Adate	2023/12/10time	23:00:08forward acquisition time	300,00reverse acquisition time	0,00gamma	499,1914k internal	0,3122k external	0,3122temperature offset calibration	1,0000default loss term (dB/km)	0,3820temperature slope calibration	1,0000multiplexer offset coefficient	1,0000multiplexer slope coefficient	1,0000fibre end	0,00T internal ref (°C)	22,38T ext. ref 1 (°C)	6,14T ext. ref 2 (°C)	6,16length (m)	temperature (°C)	Stokes	anti-Stokes-744,400	-200,000	-0,001	-0,032
-743,385	125,018	-0,097	0,091
-742,371	126,327	0,044	0,041
-741,356	74,255	-0,286	0,224
-740,342	569,967	-0,071	-0,130
-739,327	-10,566	-0,216	0,106
-738,312	800,000	0,054	-0,150
-737,298	-71,626	-0,303	0,084
-736,283	119,854	-0,148	-0,137
-735,269	306,832	-0,091	0,126
-734,254	-118,196	0,110	-0,014
-733,239	-135,424	-0,332	-0,029
-732,225	11,575	0,161	-0,092
-731,210	187,161	-0,031	-0,034
-730,196	-50,586	-0,063	-0,022
-729,181	-200,000	-0,027	0,129
-728,167	-200,000	-0,004	-0,095
-727,152	0,789	-0,021	0,011
-726,137	-6,064	-0,114	-0,058
-725,123	355,523	-0,109	-0,162
-724,108	-200,000	-0,022	-0,147
-723,094	-172,973	-0,059	0,001
-722,079	124,552	-0,087	-0,081
-721,064	-200,000	0,006	0,110
-720,050	-103,123	-0,147	0,026
-719,035	42,277	-0,056	0,038
-718,021	-45,368	-0,120	0,044
-717,006	186,569	-0,023	-0,025
-715,991	800,000	-0,050	-0,127
-714,977	172,182	-0,063	-0,068
-713,962	800,000	-0,013	-0,034
-712,948	800,000	0,027	-0,056
-711,933	6,732	0,043	-0,024
-710,918	-45,425	-0,113	-0,042
-709,904	-81,142	-0,160	0,039
-708,889	31,445	0,027	0,017
-707,875	100,775	-0,155	-0,134
-706,860	52,337	0,011	-0,008
-705,845	-22,951	-0,076	0,034
-704,831	-200,000	0,009	0,095
-703,816	-139,067	0,083	0,007
-702,802	-9,669	-0,036	0,018
-701,787	222,720	0,063	-0,076
-700,772	251,532	-0,133	-0,169
-699,758	-15,986	-0,092	0,043
-698,743	800,000	0,021	0,055
-697,729	800,000	-0,013	-0,042
-696,714	-200,000	0,008	0,144
-695,699	-200,000	-0,002	-0,051
-694,685	800,000	-0,063	-0,160
-693,670	405,699	-0,073	-0,115
-692,656	37,083	-0,074	-0,048
-691,641	366,877	0,022	-0,033
-690,627	-31,754	-0,126	0,052
-689,612	592,817	-0,060	-0,110
-688,597	-200,000	0,011	-0,134
-687,583	1,463	-0,131	-0,070
-686,568	334,555	-0,134	-0,193
-685,554	-200,000	-0,028	-0,126
-684,539	-45,764	-0,082	0,030
-683,524	-200,000	0,026	0,097
-682,510	124,539	0,101	0,095
-681,495	41,574	0,040	0,027
-680,481	-108,357	0,115	0,018
-679,466	110,600	-0,043	-0,038
-678,451	525,905	0,027	0,048
-677,437	-67,727	0,015	0,004
-676,422	385,152	-0,063	-0,097
-675,408	-50,518	0,115	-0,040
-674,393	-149,673	-0,039	-0,002
-673,378	276,175	0,065	-0,086
-672,364	312,397	0,047	-0,066
-671,349	-200,000	-0,003	-0,140
-670,335	-200,000	0,012	-0,081
-669,320	-200,000	-0,008	-0,041
-668,305	-200,000	0,007	0,100
-667,291	-200,000	-0,015	0,103
-666,276	-200,000	-0,009	0,092
-665,262	800,000	-0,020	-0,048
-664,247	-157,000	-0,083	0,004
-663,232	-105,402	0,152	0,025
-662,218	424,797	-0,032	0,051
-661,203	-94,052	-0,041	-0,008
-660,189	-156,256	0,123	0,006
-659,174	800,000	-0,006	0,020
-658,159	367,879	0,045	-0,068
-657,145	250,187	-0,078	0,098
-656,130	-105,668	-0,089	-0,015
-655,116	-171,961	-0,119	-0,003
-654,101	603,783	-0,051	0,095
-653,086	118,914	0,028	-0,025
-652,072	519,631	0,043	0,074
-651,057	-162,124	-0,024	0,001
-650,043	175,514	-0,095	0,103
-649,028	492,108	-0,038	0,065
-648,014	-103,824	0,140	-0,024
-646,999	-80,962	0,069	-0,017
-645,984	355,180	0,037	0,055
-644,970	-200,000	-0,010	-0,071
-643,955	150,427	0,022	0,023
-642,941	310,304	-0,048	-0,067
-641,926	-23,805	0,013	0,006
-640,911	-83,869	-0,074	0,017
-639,897	13,806	0,050	-0,029
-638,882	-147,615	0,083	-0,005
-637,868	-157,931	0,150	-0,006
-636,853	18,825	-0,064	-0,038
-635,838	3,439	-0,119	-0,064
-634,824	-143,123	0,069	0,005
-633,809	-30,009	-0,090	-0,038
-632,795	-29,224	0,113	-0,048
-631,780	-27,606	-0,145	0,062
-630,765	-200,000	-0,000	0,119
-629,751	-200,000	-0,018	-0,063
-628,736	-200,000	0,031	-0,114
-627,722	528,089	-0,094	0,166
-626,707	800,000	0,010	0,021
-625,692	800,000	-0,063	0,140
-624,678	-200,000	0,004	0,202
-623,663	518,038	-0,043	0,075
-622,649	371,479	-0,086	-0,130
-621,634	-200,000	0,002	-0,020
-620,619	174,523	0,045	-0,049
-619,605	-200,000	0,012	0,103
-618,590	-120,807	-0,071	-0,009
-617,576	186,933	-0,073	0,080
-616,561	-125,527	0,143	0,016
-615,546	646,773	-0,049	-0,093
-614,532	800,000	-0,010	0,025
-613,517	-150,398	-0,208	0,012
-612,503	29,630	-0,150	-0,094
-611,488	-47,010	-0,058	0,021
-610,474	-200,000	-0,014	-0,128
-609,459	13,062	0,040	0,023
-608,444	800,000	-0,065	0,191
-607,430	-10,769	0,114	-0,055
-606,415	800,000	0,033	0,076
-605,401	-111,684	0,144	0,021
-604,386	800,000	-0,046	0,102
-603,371	-9,516	0,142	0,070
-602,357	641,016	0,039	0,074
-601,342	-200,000	0,004	0,074
-600,328	-95,244	-0,125	0,025
-599,313	-200,000	0,007	-0,096
-598,298	800,000	0,052	-0,108
-597,284	800,000	0,022	-0,048
-596,269	71,623	0,037	-0,028
-595,255	181,688	0,030	-0,032
-594,240	-200,000	0,004	0,024
-593,225	-200,000	0,015	0,049
-592,211	-200,000	0,005	0,060
-591,196	204,746	-0,091	-0,104
-590,182	800,000	-0,014	-0,036
-589,167	-17,426	0,048	0,022
-588,152	-38,676	-0,127	-0,049
-587,138	326,795	-0,068	0,097
-586,123	-71,476	-0,104	0,029
-585,109	800,000	-0,029	-0,084
-584,094	-92,993	0,100	-0,020
-583,079	73,707	0,129	-0,100
-582,065	-200,000	-0,019	-0,088
-581,050	-200,000	-0,020	-0,094
-580,036	205,134	-0,038	-0,043
-579,021	-154,241	0,067	0,003
-578,006	587,752	-0,087	-0,159
-576,992	-200,000	-0,002	0,067
-575,977	-143,169	0,100	0,007
-574,963	-45,313	0,108	0,039
-573,948	101,571	0,071	-0,061
-572,934	-163,244	0,048	0,002
-571,919	-87,730	-0,098	-0,022
-570,904	800,000	0,024	0,065
-569,890	800,000	0,025	-0,078
-568,875	800,000	0,007	-0,015
-567,861	257,878	0,051	0,066
-566,846	-200,000	0,042	0,175
-565,831	800,000	-0,025	0,080
-564,817	68,155	-0,070	0,053
-563,802	204,692	-0,042	0,049
-562,788	800,000	-0,040	0,110
-561,773	-7,251	0,128	-0,064
-560,758	477,746	0,064	0,107
-559,744	800,000	-0,004	0,014
-558,729	72,530	-0,076	0,059
-557,715	11,763	-0,045	0,026
-556,700	141,860	-0,069	-0,068
-555,685	683,116	0,049	0,095
-554,671	-62,039	0,020	0,006
-553,656	800,000	0,030	0,070
-552,642	-170,056	-0,173	0,004
-551,627	632,862	-0,055	0,103
-550,612	328,466	0,009	0,013
-549,598	42,151	0,063	0,042
-548,583	224,236	0,064	-0,077
-547,569	-200,000	-0,014	-0,131
-546,554	127,626	-0,021	-0,020
-545,539	236,969	0,026	-0,032
-544,525	97,782	-0,109	-0,093
-543,510	643,287	-0,023	-0,043
-542,496	-200,000	0,034	-0,147
-541,481	-76,546	-0,041	0,010
-540,466	-9,715	0,058	0,029
-539,452	-28,670	-0,099	-0,042
-538,437	800,000	-0,022	-0,047
-537,423	-200,000	0,001	0,073
-536,408	-121,581	0,113	0,014
-535,393	-135,816	-0,081	0,007
-534,379	-102,051	0,151	0,027
-533,364	-133,177	-0,022	-0,002
-532,350	800,000	-0,040	-0,099
-531,335	-74,740	-0,035	-0,009
-530,321	37,807	0,198	-0,130
-529,306	800,000	-0,040	-0,109
-528,291	244,511	0,072	-0,090
-527,277	-150,955	-0,053	-0,003
-526,262	34,188	-0,120	0,077
-525,248	383,569	0,015	0,023
-524,233	100,407	-0,075	0,064
-523,218	319,559	0,062	0,088
-522,204	416,402	-0,030	0,048
-521,189	-200,000	0,006	0,032
-520,175	5,803	-0,147	-0,080
-519,160	94,940	-0,105	0,088
-518,145	-22,103	-0,130	0,058
-517,131	800,000	0,065	0,184
-516,116	506,224	-0,034	0,059
-515,102	238,432	0,081	-0,100
-514,087	221,120	0,088	-0,104
-513,072	800,000	0,016	-0,040
-512,058	38,261	0,036	0,023
-511,043	800,000	-0,049	-0,105
-510,029	800,000	0,010	0,025
-509,014	-10,841	0,079	-0,038
-507,999	-141,176	0,040	-0,003
-506,985	90,545	0,117	-0,097
-505,970	-82,159	0,075	-0,018
-504,956	114,122	-0,042	-0,037
-503,941	277,553	-0,059	0,078
-502,926	232,425	-0,021	-0,025
-501,912	800,000	-0,046	0,097
-500,897	-59,004	0,162	0,051
-499,883	-61,207	0,125	0,039
-498,868	786,331	0,022	-0,045
-497,853	85,090	0,140	-0,114
-496,839	256,627	-0,092	-0,117
-495,824	-119,319	0,061	0,008
-494,810	434,816	0,047	-0,076
-493,795	-140,522	-0,139	-0,011
-492,781	-92,437	0,204	0,042
-491,766	-28,237	-0,114	0,048
-490,751	433,342	-0,088	0,141
-489,737	715,350	-0,039	0,076
-488,722	-71,036	0,094	-0,026
-487,708	-87,620	-0,045	-0,010
-486,693	-61,742	-0,020	0,006
-485,678	-200,000	-0,013	-0,070
-484,664	297,664	-0,037	-0,050
-483,649	264,530	-0,095	-0,122
-482,635	500,444	0,052	0,089
-481,620	154,528	-0,031	-0,032
-480,605	-200,000	-0,008	-0,040
-479,591	789,366	-0,027	0,055
-478,576	800,000	-0,069	0,146
-477,562	63,239	-0,132	0,097
-476,547	10,594	-0,042	-0,023
-475,532	186,258	-0,082	-0,090
-474,518	135,996	0,045	0,043
-473,503	118,938	0,043	0,039
-472,489	90,603	-0,164	0,135
-471,474	472,055	-0,038	0,064
-470,459	221,879	0,046	0,055
-469,445	800,000	-0,028	-0,082
-468,430	11,981	0,022	-0,012
-467,416	-200,000	0,027	-0,090
-466,401	-153,870	-0,022	-0,001
-465,386	800,000	0,013	0,033
-464,372	202,515	-0,129	-0,147
-463,357	-89,121	0,055	-0,012
-462,343	211,729	0,049	0,057
-461,328	-155,627	-0,098	0,005
-460,313	68,634	0,112	-0,084
-459,299	57,208	-0,028	0,020
-458,284	69,251	0,086	0,065
-457,270	131,914	0,104	-0,099
-456,255	224,131	-0,067	-0,079
-455,241	-86,279	0,070	-0,016
-454,226	-93,981	-0,092	-0,018
-453,211	800,000	0,043	-0,093
-452,197	-200,000	0,010	0,095
-451,182	41,944	0,089	-0,059
-450,168	216,428	0,047	-0,056
-449,153	-33,729	-0,077	-0,031
-448,138	-200,000	-0,015	-0,078
-447,124	-15,692	-0,061	0,028
-446,109	800,000	-0,015	-0,047
-445,095	-63,066	0,062	-0,019
-444,080	103,211	0,101	0,087
-443,065	-93,904	0,058	0,012
-442,051	103,519	0,107	-0,092
-441,036	-200,000	0,003	-0,113
-440,022	483,657	0,020	0,034
-439,007	305,848	0,073	-0,100
-437,992	562,929	0,031	-0,055
-436,978	-200,000	0,000	0,004
-435,963	412,262	-0,044	0,070
-434,949	-115,084	0,037	0,005
-433,934	41,636	0,036	-0,024
-432,919	-9,135	-0,073	-0,036
-431,905	126,560	0,061	-0,057
-430,890	-147,628	-0,096	0,006
-429,876	18,151	-0,051	-0,030
-428,861	-28,882	0,167	0,070
-427,846	-200,000	0,025	-0,132
-426,832	-200,000	0,019	-0,104
-425,817	-167,592	0,038	-0,001
-424,803	-80,405	-0,059	0,014
-423,788	-106,436	0,064	-0,010
-422,773	-1,565	0,069	0,036
-421,759	-200,000	-0,011	0,078
-420,744	113,175	-0,092	0,082
-419,730	48,851	0,067	0,047
-418,715	-200,000	0,003	0,051
-417,701	-200,000	0,006	0,054
-416,686	190,052	0,106	-0,117
-415,671	-29,416	-0,054	0,022
-414,657	183,484	-0,053	-0,058
-413,642	-200,000	-0,010	0,054
-412,628	800,000	-0,041	-0,103
-411,613	31,931	-0,104	-0,066
-410,598	-200,000	0,036	-0,133
-409,584	84,055	-0,101	0,081
-408,569	800,000	0,027	0,064
-407,555	378,364	0,061	0,092
-406,540	-26,205	-0,034	-0,015
-405,525	40,116	0,010	0,006
-404,511	-98,365	0,074	-0,014
-403,496	-17,028	0,020	0,009
-402,482	-0,259	-0,114	0,059
-401,467	-132,496	0,190	0,018
-400,452	147,781	-0,113	0,112
-399,438	-200,000	0,020	-0,074
-398,423	33,801	0,170	0,108
-397,409	-117,723	-0,152	0,020
-396,394	123,073	0,037	-0,034
-395,379	10,602	0,037	-0,021
-394,365	93,547	-0,087	0,072
-393,350	-200,000	0,038	0,125
-392,336	632,453	-0,043	0,081
-391,321	321,065	-0,028	-0,039
-390,306	-38,650	-0,028	-0,011
-389,292	287,391	-0,029	0,039
-388,277	-36,847	0,057	-0,023
-387,263	800,000	-0,069	0,154
-386,248	-200,000	-0,018	0,091
-385,233	91,492	-0,078	0,064
-384,219	-47,315	-0,036	-0,013
-383,204	-200,000	-0,002	0,010
-382,190	-132,117	-0,155	0,015
-381,175	120,021	0,024	-0,022
-380,160	-76,383	0,077	-0,020
-379,146	-112,263	0,138	-0,020
-378,131	215,346	0,026	0,030
-377,117	626,826	-0,034	-0,064
-376,102	-200,000	-0,014	-0,064
-375,088	-35,928	0,014	0,006
-374,073	9,346	-0,104	-0,058
-373,058	-200,000	0,005	0,113
-372,044	-200,000	0,047	0,169
-371,029	12,071	-0,111	0,063
-370,015	800,000	0,065	0,188
-369,000	-200,000	-0,001	-0,186
-367,985	7,540	-0,088	-0,048
-366,971	469,896	-0,010	-0,016
-365,956	-200,000	-0,020	-0,069
-364,942	800,000	0,003	-0,009
-363,927	331,197	0,067	0,095
-362,912	-200,000	0,004	-0,114
-361,898	-48,934	0,072	-0,025
-360,883	800,000	-0,032	-0,088
-359,869	17,130	-0,098	0,057
-358,854	-200,000	0,001	0,142
-357,839	-200,000	0,013	0,065
-356,825	111,257	-0,067	-0,059
-355,810	-50,349	0,162	-0,056
-354,796	167,087	-0,072	-0,075
-353,781	-64,545	0,088	0,026
-352,766	-81,225	-0,066	-0,016
-351,752	-180,101	-0,116	0,002
-350,737	-100,303	0,135	0,024
-349,723	-31,563	0,217	-0,089
-348,708	-200,000	0,020	-0,075
-347,693	-200,000	0,002	0,021
-346,679	87,931	-0,050	0,041
-345,664	-200,000	-0,005	-0,040
-344,650	-200,000	-0,032	-0,126
-343,635	-108,292	-0,007	-0,001
-342,620	-14,273	0,090	-0,042
-341,606	153,712	0,021	-0,021
-340,591	-200,000	-0,023	0,187
-339,577	-166,321	0,131	-0,004
-338,562	-200,000	-0,007	0,080
-337,548	2,195	-0,103	-0,054
-336,533	-47,545	0,184	0,065
-335,518	-200,000	0,003	0,041
-334,504	567,955	-0,061	-0,109
-333,489	800,000	-0,031	-0,087
-332,475	-14,792	-0,133	0,063
-331,460	73,934	0,043	0,033
-330,445	142,705	-0,123	-0,120
-329,431	90,944	0,031	0,026
-328,416	-31,272	0,227	-0,094
-327,402	379,256	0,073	0,110
-326,387	-153,045	0,055	-0,003
-325,372	800,000	-0,026	0,084
-324,358	-200,000	-0,002	0,040
-323,343	-143,563	0,109	0,007
-322,329	-123,191	0,095	0,011
-321,314	-62,404	-0,063	-0,019
-320,299	-120,848	-0,067	0,008
-319,285	172,324	-0,040	0,042
-318,270	82,476	-0,079	0,063
-317,256	-35,154	-0,105	0,042
-316,241	-200,000	-0,009	-0,078
-315,226	307,994	-0,056	0,076
-314,212	334,914	0,117	0,166
-313,197	-175,533	0,118	0,002
-312,183	348,111	-0,054	0,078
-311,168	30,062	-0,086	0,054
-310,153	800,000	0,032	0,090
-309,139	800,000	0,025	0,055
-308,124	-200,000	-0,014	0,104
-307,110	-184,345	-0,071	-0,001
-306,095	-200,000	0,031	0,103
-305,080	133,590	-0,074	0,070
-304,066	-98,883	0,072	-0,013
-303,051	800,000	-0,019	-0,049
-302,037	116,900	-0,108	-0,097
-301,022	188,270	0,113	-0,124
-300,008	-200,000	0,040	-0,208
-298,993	-93,486	-0,037	-0,007
-297,978	-200,000	0,024	-0,082
-296,964	-95,376	0,048	0,009
-295,949	800,000	-0,050	-0,123
-294,935	800,000	0,042	-0,126
-293,920	-29,903	-0,122	0,051
-292,905	-160,270	0,074	-0,003
-291,891	-85,850	0,110	0,025
-290,876	190,040	-0,046	-0,051
-289,862	312,596	-0,047	-0,064
-288,847	-200,000	0,045	-0,156
-287,832	800,000	0,089	-0,201
-286,818	237,794	-0,059	-0,071
-285,803	90,315	-0,021	0,017
-284,789	114,267	-0,017	-0,015
-283,774	-151,278	0,028	0,002
-282,759	-200,000	0,006	0,083
-281,745	-21,086	0,060	-0,027
-280,730	26,828	-0,182	-0,111
-279,716	-200,000	0,001	-0,042
-278,701	-200,000	0,023	0,076
-277,686	-200,000	-0,009	0,053
-276,672	-15,586	0,017	0,008
-275,657	271,133	0,072	-0,093
-274,643	-115,967	-0,008	-0,001
-273,628	75,709	0,029	0,022
-272,613	397,159	-0,079	-0,121
-271,599	11,198	0,027	0,015
-270,584	-137,404	0,081	-0,007
-269,570	-109,102	0,077	-0,012
-268,555	227,291	0,029	0,034
-267,540	-191,275	-0,104	0,001
-266,526	800,000	-0,077	-0,165
-265,511	-200,000	0,006	-0,079
-264,497	27,265	-0,020	0,012
-263,482	111,261	-0,026	0,023
-262,467	-200,000	-0,012	0,052
-261,453	-196,124	0,065	0,000
-260,438	800,000	0,054	-0,137
-259,424	39,437	0,028	-0,018
-258,409	-200,000	-0,026	-0,099
-257,395	-156,548	0,027	0,001
-256,380	-200,000	-0,013	-0,051
-255,365	358,621	0,112	0,165
-254,351	20,461	0,083	-0,049
-253,336	15,820	-0,093	0,053
-252,322	-132,088	-0,143	0,013
-251,307	800,000	-0,058	-0,144
-250,292	800,000	0,012	0,032
-249,278	800,000	0,093	0,189
-248,263	-200,000	0,040	0,142
-247,249	-81,892	-0,272	-0,065
-246,234	-62,637	0,039	0,012
-245,219	-200,000	-0,007	-0,113
-244,205	800,000	0,065	-0,149
-243,190	-200,000	0,016	0,056
-242,176	28,248	0,141	0,087
-241,161	23,168	0,099	-0,059
-240,146	-200,000	-0,018	-0,129
-239,132	800,000	0,046	-0,120
-238,117	-22,420	-0,059	0,026
-237,103	111,100	0,049	-0,043
-236,088	234,662	0,007	-0,009
-235,073	800,000	0,044	0,112
-234,059	-200,000	-0,008	0,069
-233,044	-185,790	0,040	0,000
-232,030	-200,000	-0,037	0,141
-231,015	256,361	-0,020	0,025
-230,000	-31,222	-0,056	0,023
-228,986	230,543	0,020	0,024
-227,971	800,000	0,019	-0,046
-226,957	-200,000	0,004	0,017
-225,942	13,657	0,066	0,037
-224,927	-200,000	0,002	-0,133
-223,913	-200,000	-0,006	0,087
-222,898	111,811	-0,142	-0,125
-221,884	463,063	-0,101	-0,166
-220,869	-76,867	-0,083	-0,021
-219,855	-200,000	0,013	0,127
-218,840	-200,000	0,010	0,038
-217,825	-200,000	0,019	-0,127
-216,811	-124,235	-0,052	0,006
-215,796	55,220	0,013	0,009
-214,782	-200,000	-0,004	0,052
-213,767	44,365	0,015	0,010
-212,752	-25,054	0,040	-0,017
-211,738	372,931	0,071	0,106
-210,723	5,710	-0,154	0,083
-209,709	619,859	-0,023	-0,043
-208,694	197,633	-0,052	0,058
-207,679	-62,255	0,072	0,022
-206,665	-200,000	0,017	0,101
-205,650	-134,133	0,132	-0,012
-204,636	258,180	-0,056	-0,071
-203,621	-3,326	-0,137	0,069
-202,606	-68,123	-0,021	0,006
-201,592	-57,493	-0,129	-0,041
-200,577	800,000	-0,061	-0,171
-199,563	800,000	0,027	0,085
-198,548	32,239	-0,056	-0,035
-197,533	-84,517	0,105	-0,024
-196,519	800,000	-0,047	0,113
-195,504	8,858	0,092	0,051
-194,490	-108,689	-0,116	-0,018
-193,475	189,923	-0,090	-0,098
-192,460	-200,000	-0,003	0,062
-191,446	68,182	0,015	0,011
-190,431	-146,745	0,122	-0,008
-189,417	-10,439	0,060	-0,029
-188,402	52,546	0,084	-0,058
-187,387	173,263	-0,038	0,040
-186,373	67,319	0,089	0,066
-185,358	282,539	0,008	0,010
-184,344	522,324	-0,048	-0,082
-183,329	-101,631	0,030	-0,005
-182,315	-149,583	0,067	-0,004
-181,300	-148,848	-0,102	-0,006
-180,285	-4,454	0,072	-0,036
-179,271	301,897	-0,066	-0,090
-178,256	-200,000	-0,006	0,056
-177,242	-56,254	0,070	-0,023
-176,227	295,382	-0,086	0,114
-175,212	303,189	-0,119	0,162
-174,198	383,095	-0,065	0,097
-173,183	720,683	0,014	0,027
-172,169	171,178	-0,055	0,058
-171,154	2,722	-0,082	0,043
-170,139	-200,000	0,038	0,136
-169,125	800,000	0,005	0,010
-168,110	360,528	-0,043	0,063
-167,096	632,727	-0,034	0,063
-166,081	284,132	0,029	0,038
-165,066	398,952	-0,056	-0,086
-164,052	800,000	-0,025	0,056
-163,037	-34,287	0,120	-0,048
-162,023	102,997	0,060	-0,051
-161,008	-200,000	-0,028	0,107
-159,993	-142,366	-0,064	0,005
-158,979	8,062	0,068	-0,037
-157,964	-200,000	-0,013	-0,055
-156,950	262,559	-0,079	-0,100
-155,935	-127,423	0,067	0,007
-154,920	-94,971	0,118	0,023
-153,906	800,000	0,011	0,030
-152,891	-79,826	-0,045	0,011
-151,877	170,130	-0,065	-0,068
-150,862	154,975	0,057	-0,057
-149,847	507,300	-0,100	-0,170
-148,833	-200,000	-0,002	-0,080
-147,818	369,709	0,078	0,115
-146,804	-99,618	-0,048	0,009
-145,789	146,122	-0,035	-0,034
-144,775	306,460	-0,057	0,078
-143,760	-76,159	-0,042	-0,011
-142,745	-27,481	-0,068	0,029
-141,731	-200,000	0,006	0,136
-140,716	-200,000	-0,032	0,110
-139,702	800,000	-0,031	0,074
-138,687	251,977	0,087	0,108
-137,672	-30,060	0,082	-0,034
-136,658	-137,625	0,105	0,008
-135,643	30,769	-0,057	-0,035
-134,629	-200,000	-0,001	-0,088
-133,614	800,000	-0,027	-0,060
-132,599	-200,000	-0,015	-0,066
-131,585	290,229	0,050	-0,066
-130,570	258,140	0,050	0,063
-129,556	-104,569	0,267	-0,044
-128,541	-50,709	-0,041	-0,014
-127,526	66,510	-0,016	-0,012
-126,512	261,095	0,071	-0,089
-125,497	8,677	0,026	-0,014
-124,483	-56,570	0,029	0,009
-123,468	70,059	-0,054	-0,041
-122,453	71,665	-0,090	-0,068
-121,439	-36,624	-0,047	-0,018
-120,424	-73,396	0,205	0,054
-119,410	60,042	0,059	0,042
