DTS Sentinel unit serial number:	SN410029Multiplexer serial number:	ORYXHardware model number:	OX2-SRSoftware version number:	ORYX F/W v4,00 Oryx Data Collector v3.7.2.0data status	okinstallation	B6 Nyhavnadifferential loss correction	single-endedforward channel	channel 2reverse channel	N/Adate	2023/12/09time	22:50:08forward acquisition time	300,00reverse acquisition time	0,00gamma	499,1914k internal	0,3127k external	0,3127temperature offset calibration	1,0000default loss term (dB/km)	0,3820temperature slope calibration	1,0000multiplexer offset coefficient	1,0000multiplexer slope coefficient	1,0000fibre end	0,00T internal ref (°C)	21,69T ext. ref 1 (°C)	5,44T ext. ref 2 (°C)	5,43length (m)	temperature (°C)	Stokes	anti-Stokes-744,400	-31,961	0,141	-0,059
-743,385	-14,137	-0,222	0,106
-742,371	-77,690	0,121	0,031
-741,356	350,463	-0,185	0,273
-740,342	-135,807	0,153	0,013
-739,327	5,367	-0,195	0,107
-738,312	800,000	0,044	-0,114
-737,298	-141,580	-0,311	0,023
-736,283	156,090	0,024	-0,025
-735,269	56,005	-0,191	0,138
-734,254	800,000	0,028	-0,059
-733,239	-98,662	-0,367	-0,069
-732,225	-26,799	0,121	0,053
-731,210	-200,000	-0,011	-0,046
-730,196	-66,114	0,028	0,008
-729,181	477,241	-0,031	0,053
-728,167	-140,414	0,077	0,006
-727,152	-200,000	-0,002	-0,075
-726,137	-6,626	-0,115	-0,058
-725,123	215,704	0,122	-0,145
-724,108	35,347	-0,129	-0,084
-723,094	9,345	-0,030	-0,017
-722,079	-21,004	-0,102	0,046
-721,064	-200,000	0,075	-0,000
-720,050	-200,000	-0,022	-0,096
-719,035	387,734	-0,071	0,109
-718,021	-200,000	-0,018	0,217
-717,006	-171,815	-0,174	-0,004
-715,991	38,849	-0,107	0,071
-714,977	428,178	0,081	-0,131
-713,962	-200,000	-0,030	-0,129
-712,948	-200,000	-0,006	-0,025
-711,933	275,681	0,004	-0,006
-710,918	-1,669	0,024	-0,013
-709,904	-200,000	-0,060	-0,203
-708,889	-200,000	-0,004	-0,051
-707,875	3,071	-0,194	0,105
-706,860	369,149	0,027	0,040
-705,845	-48,101	0,048	0,017
-704,831	-40,729	0,101	-0,039
-703,816	-200,000	-0,005	-0,098
-702,802	-34,587	-0,074	-0,030
-701,787	-200,000	-0,027	0,095
-700,772	-200,000	0,014	-0,050
-699,758	21,205	0,075	-0,045
-698,743	-200,000	0,001	-0,036
-697,729	227,219	-0,034	-0,041
-696,714	-101,797	-0,083	0,015
-695,699	-81,291	0,055	0,013
-694,685	-83,156	-0,168	-0,040
-693,670	-20,716	-0,074	-0,034
-692,656	510,076	-0,041	0,070
-691,641	85,461	0,081	-0,066
-690,627	-200,000	-0,011	0,053
-689,612	-192,642	0,085	0,001
-688,597	218,552	0,053	0,063
-687,583	173,943	-0,060	0,064
-686,568	603,517	-0,040	-0,074
-685,554	-40,865	-0,051	0,019
-684,539	103,769	0,089	0,077
-683,524	-200,000	-0,033	-0,137
-682,510	14,990	-0,074	0,043
-681,495	-146,430	-0,126	0,008
-680,481	-87,613	-0,095	-0,021
-679,466	-200,000	-0,002	-0,037
-678,451	800,000	-0,024	-0,054
-677,437	72,590	0,033	-0,025
-676,422	-153,873	0,134	0,007
-675,408	522,671	-0,051	0,089
-674,393	-17,351	0,117	-0,054
-673,378	-51,887	0,086	0,030
-672,364	-17,663	-0,023	0,011
-671,349	-83,722	-0,078	0,018
-670,335	-121,809	0,007	0,001
-669,320	800,000	0,022	0,046
-668,305	288,270	-0,051	-0,069
-667,291	-117,323	-0,107	0,014
-666,276	-104,204	-0,077	-0,013
-665,262	-66,879	-0,090	0,026
-664,247	-124,008	-0,080	0,009
-663,232	800,000	-0,056	-0,136
-662,218	13,849	0,137	0,079
-661,203	800,000	-0,062	0,157
-660,189	-125,913	-0,168	0,019
-659,174	70,099	0,055	0,042
-658,159	127,460	-0,081	-0,076
-657,145	135,691	0,054	-0,052
-656,130	-200,000	-0,015	0,084
-655,116	-58,747	0,008	0,002
-654,101	800,000	-0,018	0,053
-653,086	-103,126	-0,158	-0,028
-652,072	-109,082	-0,093	-0,015
-651,057	174,571	-0,139	-0,149
-650,043	424,131	0,033	0,054
-649,028	-113,585	-0,056	-0,008
-648,014	-132,129	0,136	0,013
-646,999	72,471	0,074	0,057
-645,984	-97,955	-0,095	-0,018
-644,970	800,000	-0,060	-0,195
-643,955	-200,000	0,001	0,040
-642,941	560,480	-0,030	-0,053
-641,926	-200,000	-0,007	-0,048
-640,911	16,038	0,046	-0,027
-639,897	-200,000	0,023	0,116
-638,882	64,734	-0,162	0,121
-637,868	58,032	0,058	0,042
-636,853	206,430	0,090	0,104
-635,838	23,115	-0,106	-0,064
-634,824	-108,666	-0,147	0,023
-633,809	257,213	0,021	0,027
-632,795	-75,923	0,094	0,024
-631,780	147,292	0,091	-0,091
-630,765	-5,848	-0,106	0,054
-629,751	557,045	-0,073	0,131
-628,736	-131,528	0,078	-0,008
-627,722	106,291	0,034	-0,030
-626,707	800,000	-0,034	-0,109
-625,692	166,733	-0,046	-0,048
-624,678	-66,454	0,077	0,023
-623,663	800,000	0,019	0,060
-622,649	-200,000	0,003	-0,156
-621,634	-200,000	0,004	-0,127
-620,619	800,000	0,026	-0,072
-619,605	800,000	0,026	0,070
-618,590	800,000	0,057	0,118
-617,576	-101,018	-0,034	-0,006
-616,561	-175,904	-0,077	-0,001
-615,546	306,206	-0,058	0,080
-614,532	800,000	0,027	-0,066
-613,517	-89,273	-0,085	-0,018
-612,503	-200,000	-0,008	-0,065
-611,488	-200,000	-0,036	0,149
-610,474	-200,000	-0,001	-0,004
-609,459	103,264	0,077	0,067
-608,444	97,039	-0,092	-0,078
-607,430	-200,000	0,022	-0,109
-606,415	-40,201	-0,140	-0,054
-605,401	-186,602	0,162	-0,002
-604,386	-30,837	0,072	-0,030
-603,371	65,023	0,082	-0,061
-602,357	-200,000	0,035	0,129
-601,342	4,017	0,028	0,015
-600,328	-41,825	0,074	-0,028
-599,313	-113,942	-0,049	0,007
-598,298	-46,443	-0,162	0,058
-597,284	628,802	0,066	0,124
-596,269	527,669	-0,055	-0,097
-595,255	-110,143	-0,152	-0,023
-594,240	-81,320	0,244	-0,059
-593,225	-37,363	0,101	-0,040
-592,211	93,922	-0,039	0,033
-591,196	800,000	-0,031	-0,090
-590,182	-183,911	0,171	0,002
-589,167	-73,056	0,086	0,023
-588,152	800,000	0,013	0,040
-587,138	77,910	-0,115	0,090
-586,123	-137,973	-0,055	-0,005
-585,109	-44,903	-0,111	0,041
-584,094	-50,409	0,030	-0,010
-583,079	55,670	0,078	0,056
-582,065	339,427	-0,014	0,020
-581,050	148,600	0,069	0,069
-580,036	288,109	0,054	0,072
-579,021	-200,000	0,024	-0,103
-578,006	-67,633	-0,041	-0,012
-576,992	-200,000	-0,006	-0,033
-575,977	29,780	0,056	0,035
-574,963	-200,000	0,013	-0,043
-573,948	272,938	-0,064	-0,083
-572,934	-65,215	-0,062	0,018
-571,919	-200,000	-0,088	0,000
-570,904	95,999	-0,027	0,023
-569,890	-119,068	-0,119	0,015
-568,875	-156,201	-0,020	-0,001
-567,861	-128,634	-0,031	0,003
-566,846	-159,359	0,097	-0,004
-565,831	20,598	-0,078	0,046
-564,817	-200,000	-0,017	-0,147
-563,802	103,189	-0,121	-0,105
-562,788	131,998	0,081	0,077
-561,773	254,981	0,038	-0,048
-560,758	-200,000	-0,016	0,052
-559,744	-200,000	-0,007	-0,026
-558,729	462,374	-0,056	0,093
-557,715	800,000	0,031	0,065
-556,700	50,558	-0,064	0,044
-555,685	114,260	-0,083	-0,075
-554,671	530,285	0,046	0,081
-553,656	-41,391	0,053	0,020
-552,642	-27,294	0,068	0,029
-551,627	-200,000	-0,012	-0,080
-550,612	46,496	-0,132	-0,091
-549,598	800,000	-0,014	-0,038
-548,583	-84,755	-0,082	-0,019
-547,569	800,000	0,044	0,139
-546,554	-122,564	0,027	0,003
-545,539	-200,000	0,002	-0,115
-544,525	-200,000	-0,014	0,097
-543,510	800,000	0,055	0,139
-542,496	489,040	-0,079	0,134
-541,481	96,247	-0,111	-0,094
-540,466	185,925	0,070	0,077
-539,452	-4,519	0,081	0,041
-538,437	-200,000	-0,003	0,065
-537,423	6,910	0,091	0,050
-536,408	16,311	0,048	0,028
-535,393	-67,981	0,081	0,023
-534,379	99,428	-0,047	-0,040
-533,364	800,000	0,048	0,123
-532,350	-108,448	0,039	-0,006
-531,335	254,832	0,125	0,159
-530,321	57,626	-0,049	-0,035
-529,306	104,780	-0,036	-0,032
-528,291	-200,000	-0,016	-0,062
-527,277	800,000	-0,002	0,007
-526,262	34,046	0,030	-0,019
-525,248	800,000	0,012	-0,038
-524,233	-200,000	-0,001	-0,062
-523,218	-200,000	0,023	0,114
-522,204	463,548	-0,014	0,023
-521,189	178,967	-0,127	-0,137
-520,175	-72,665	0,038	-0,010
-519,160	509,164	0,014	-0,024
-518,145	800,000	-0,019	-0,054
-517,131	800,000	-0,048	0,126
-516,116	-200,000	0,009	-0,068
-515,102	800,000	0,018	0,042
-514,087	-200,000	-0,016	-0,057
-513,072	115,995	0,062	-0,056
-512,058	161,040	0,039	-0,041
-511,043	-105,568	0,073	-0,012
-510,029	521,794	0,076	0,132
-509,014	-1,993	0,057	0,030
-507,999	113,335	-0,030	0,027
-506,985	-110,552	-0,102	-0,015
-505,970	70,602	-0,097	-0,074
-504,956	800,000	0,026	-0,072
-503,941	-61,708	-0,009	-0,003
-502,926	-110,136	-0,124	0,019
-501,912	-200,000	0,041	0,152
-500,897	297,582	0,054	0,074
-499,883	-200,000	-0,003	-0,047
-498,868	290,198	-0,076	-0,103
-497,853	350,066	-0,030	-0,044
-496,839	-65,163	0,084	0,025
-495,824	240,448	-0,091	0,112
-494,810	-200,000	0,016	0,112
-493,795	71,080	-0,046	0,035
-492,781	232,075	-0,008	0,009
-491,766	-200,000	-0,008	-0,039
-490,751	-200,000	0,005	-0,091
-489,737	4,190	0,029	0,016
-488,722	1,099	0,158	0,084
-487,708	123,122	-0,036	0,033
-486,693	800,000	0,013	0,033
-485,678	319,918	-0,046	-0,064
-484,664	-7,874	-0,023	-0,011
-483,649	-16,319	0,106	-0,049
-482,635	800,000	0,048	-0,143
-481,620	352,453	-0,072	-0,105
-480,605	164,431	0,123	-0,128
-479,591	170,451	-0,030	0,031
-478,576	63,329	-0,036	0,026
-477,562	153,835	-0,014	0,014
-476,547	106,697	0,024	0,021
-475,532	98,280	0,072	-0,061
-474,518	-200,000	0,004	-0,020
-473,503	362,243	-0,014	-0,020
-472,489	-200,000	-0,010	0,122
-471,474	-69,633	-0,097	-0,027
-470,459	-200,000	-0,042	-0,154
-469,445	-155,960	-0,053	0,002
-468,430	63,542	-0,095	-0,070
-467,416	108,371	-0,034	0,029
-466,401	87,222	-0,044	0,035
-465,386	-91,966	-0,058	-0,012
-464,372	-200,000	0,020	0,087
-463,357	-200,000	-0,005	0,021
-462,343	58,306	-0,093	0,067
-461,328	87,260	0,030	0,024
-460,313	800,000	-0,051	0,107
-459,299	-200,000	-0,017	0,098
-458,284	-200,000	0,019	-0,063
-457,270	15,995	0,045	-0,026
-456,255	-30,016	-0,067	-0,028
-455,241	57,679	0,009	0,006
-454,226	136,184	0,056	-0,054
-453,211	-200,000	0,012	-0,143
-452,197	7,348	-0,054	-0,030
-451,182	258,951	-0,035	-0,045
-450,168	7,496	-0,061	-0,034
-449,153	181,277	0,064	-0,070
-448,138	-50,550	-0,080	-0,028
-447,124	-72,378	-0,120	-0,033
-446,109	623,403	0,038	-0,071
-445,095	-18,614	-0,090	-0,041
-444,080	800,000	-0,095	0,236
-443,065	-200,000	0,005	-0,125
-442,051	-200,000	0,017	-0,188
-441,036	194,553	0,094	-0,105
-440,022	28,492	-0,072	-0,045
-439,007	800,000	0,045	0,117
-437,992	-200,000	0,028	0,096
-436,978	203,961	0,034	0,039
-435,963	-21,270	-0,068	0,030
-434,949	-84,602	0,025	-0,006
-433,934	266,270	-0,057	0,074
-432,919	-200,000	0,006	0,050
-431,905	800,000	-0,032	0,082
-430,890	-122,079	0,070	0,008
-429,876	797,145	0,064	0,131
-428,861	120,567	0,081	-0,074
-427,846	702,784	-0,020	-0,039
-426,832	-33,023	-0,017	-0,007
-425,817	481,472	-0,064	-0,107
-424,803	-200,000	-0,001	-0,028
-423,788	800,000	0,017	-0,047
-422,773	396,293	0,039	-0,059
-421,759	229,826	-0,019	-0,023
-420,744	304,206	-0,042	-0,057
-419,730	-200,000	0,003	-0,146
-418,715	-200,000	0,016	-0,098
-417,701	692,523	0,022	0,042
-416,686	-200,000	-0,004	0,066
-415,671	-22,247	0,034	-0,015
-414,657	36,239	0,043	0,028
-413,642	393,224	0,069	-0,105
-412,628	800,000	-0,037	0,086
-411,613	-200,000	-0,015	0,070
-410,598	-200,000	-0,002	-0,022
-409,584	800,000	0,049	0,143
-408,569	-200,000	-0,016	0,088
-407,555	326,504	0,040	0,056
-406,540	206,787	-0,027	-0,031
-405,525	-200,000	-0,007	-0,132
-404,511	202,012	0,104	-0,118
-403,496	131,069	0,041	0,039
-402,482	-91,233	0,151	0,031
-401,467	-28,383	-0,092	0,039
-400,452	-43,491	-0,135	0,050
-399,438	176,470	0,069	0,073
-398,423	-154,315	0,107	-0,005
-397,409	58,801	-0,096	0,069
-396,394	-200,000	0,033	-0,215
-395,379	-200,000	-0,005	-0,019
-394,365	-116,236	-0,027	0,004
-393,350	161,711	0,036	0,037
-392,336	800,000	-0,065	0,156
-391,321	-200,000	0,043	0,176
-390,306	263,380	-0,089	-0,114
-389,292	52,098	0,049	0,034
-388,277	32,425	0,134	-0,085
-387,263	70,547	0,158	0,120
-386,248	163,581	0,077	0,080
-385,233	-200,000	0,008	0,098
-384,219	-200,000	0,025	0,084
-383,204	22,411	-0,101	-0,061
-382,190	559,458	0,012	-0,022
-381,175	519,486	0,023	0,039
-380,160	-200,000	0,022	0,169
-379,146	-200,000	0,008	0,109
-378,131	109,049	-0,044	-0,039
-377,117	800,000	-0,001	-0,002
-376,102	-76,139	-0,010	0,002
-375,088	256,891	-0,007	-0,009
-374,073	-200,000	-0,043	0,000
-373,058	-63,991	-0,094	0,028
-372,044	-17,085	0,110	0,051
-371,029	-200,000	0,023	-0,091
-370,015	42,312	0,043	0,029
-369,000	800,000	-0,072	-0,203
-367,985	-62,795	0,133	0,040
-366,971	-25,397	0,036	0,015
-365,956	14,337	-0,040	-0,023
-364,942	-34,353	-0,077	0,031
-363,927	-77,355	0,020	0,005
-362,912	-200,000	-0,001	0,044
-361,898	478,261	0,077	0,129
-360,883	-58,716	-0,038	0,012
-359,869	-163,006	0,201	0,007
-358,854	581,082	0,082	0,148
-357,839	-200,000	-0,031	0,184
-356,825	-200,000	0,002	0,068
-355,810	-22,327	-0,042	0,019
-354,796	800,000	0,033	-0,074
-353,781	170,124	-0,158	-0,166
-352,766	182,941	-0,030	-0,033
-351,752	-65,613	0,043	-0,012
-350,737	-143,862	-0,069	-0,005
-349,723	-200,000	-0,004	0,031
-348,708	-200,000	0,010	0,089
-347,693	-200,000	-0,010	-0,062
-346,679	0,001	-0,117	-0,061
-345,664	207,287	-0,096	0,109
-344,650	19,520	-0,063	-0,037
-343,635	84,248	0,060	-0,048
-342,620	445,031	0,078	0,126
-341,606	15,143	0,038	-0,022
-340,591	-192,278	0,124	-0,001
-339,577	-5,618	-0,093	-0,047
-338,562	-135,866	-0,072	0,006
-337,548	87,105	0,078	0,063
-336,533	-5,472	0,083	0,042
-335,518	39,334	-0,074	0,049
-334,504	210,855	0,107	0,123
-333,489	800,000	0,016	-0,046
-332,475	-28,698	0,110	0,046
-331,460	-200,000	-0,035	-0,180
-330,445	325,927	-0,050	-0,070
-329,431	-139,907	0,175	0,013
-328,416	47,499	0,103	0,070
-327,402	138,357	0,053	0,051
-326,387	355,079	-0,063	0,092
-325,372	-179,266	-0,022	-0,000
-324,358	-200,000	-0,010	0,035
-323,343	-93,433	-0,103	-0,021
-322,329	-102,295	0,050	0,009
-321,314	800,000	0,085	-0,183
-320,299	356,003	-0,015	-0,022
-319,285	-70,729	0,120	-0,033
-318,270	-200,000	-0,061	-0,196
-317,256	258,879	-0,036	0,046
-316,241	-13,338	-0,052	-0,025
-315,226	392,224	-0,048	-0,073
-314,212	-200,000	-0,024	-0,122
-313,197	-200,000	0,018	-0,120
-312,183	-145,510	0,075	-0,005
-311,168	113,986	-0,122	-0,109
-310,153	-200,000	0,003	-0,058
-309,139	341,252	0,026	-0,037
-308,124	-65,577	-0,055	-0,016
-307,110	770,813	-0,035	0,071
-306,095	365,333	0,079	0,117
-305,080	-200,000	-0,008	0,072
-304,066	-56,553	-0,112	-0,036
-303,051	800,000	0,016	0,037
-302,037	279,470	-0,013	0,017
-301,022	-1,610	0,027	-0,014
-300,008	431,851	0,023	0,036
-298,993	583,411	0,025	-0,046
-297,978	200,922	-0,020	-0,022
-296,964	1,682	0,029	0,015
-295,949	800,000	0,025	-0,075
-294,935	-200,000	0,009	-0,042
-293,920	-14,388	-0,131	0,062
-292,905	-200,000	0,014	0,134
-291,891	-200,000	0,027	0,100
-290,876	-4,715	-0,076	0,038
-289,862	-105,965	-0,084	-0,014
-288,847	-200,000	-0,018	0,089
-287,832	-200,000	-0,000	-0,028
-286,818	55,828	-0,071	-0,050
-285,803	44,393	-0,039	0,026
-284,789	-34,961	0,065	-0,026
-283,774	-123,873	0,119	-0,014
-282,759	-200,000	0,022	-0,123
-281,745	526,309	0,033	-0,057
-280,730	-200,000	0,016	-0,122
-279,716	451,888	-0,040	-0,065
-278,701	2,201	-0,089	0,047
-277,686	283,692	0,020	0,026
-276,672	103,865	0,106	0,091
-275,657	-124,995	-0,042	0,005
-274,643	284,769	-0,087	-0,115
-273,628	800,000	0,027	0,085
-272,613	136,783	0,111	-0,106
-271,599	-95,484	0,082	0,016
-270,584	17,403	-0,053	0,031
-269,570	-200,000	-0,013	-0,086
-268,555	-13,920	0,044	-0,021
-267,540	-200,000	0,001	-0,082
-266,526	88,025	-0,029	0,023
-265,511	-158,296	0,090	-0,004
-264,497	-158,984	0,131	-0,005
-263,482	-200,000	0,005	0,026
-262,467	-92,297	-0,074	0,015
-261,453	100,060	0,058	0,049
-260,438	122,133	-0,062	0,057
-259,424	-173,393	-0,156	0,003
-258,409	75,296	-0,076	-0,059
-257,395	20,057	-0,028	0,016
-256,380	800,000	-0,063	0,201
-255,365	-200,000	0,002	-0,031
-254,351	-113,778	-0,143	0,020
-253,336	-200,000	-0,017	0,068
-252,322	140,124	-0,048	-0,046
-251,307	-82,591	-0,059	0,014
-250,292	125,444	0,044	0,041
-249,278	-200,000	-0,026	0,097
-248,263	-200,000	-0,001	0,072
-247,249	687,482	0,024	-0,047
-246,234	-200,000	0,006	0,052
-245,219	800,000	0,028	0,068
-244,205	167,344	0,022	-0,022
-243,190	-64,159	0,045	0,013
-242,176	-200,000	0,019	0,069
-241,161	-79,948	0,091	-0,022
-240,146	16,863	-0,067	0,039
-239,132	46,363	-0,078	-0,053
-238,117	800,000	-0,005	-0,010
-237,103	-200,000	-0,020	-0,186
-236,088	162,940	-0,025	-0,026
-235,073	249,418	0,119	0,147
-234,059	-200,000	0,002	-0,101
-233,044	149,399	0,100	0,099
-232,030	69,385	-0,123	-0,092
-231,015	435,830	-0,044	0,070
-230,000	-70,172	0,112	0,031
-228,986	156,281	0,059	-0,060
-227,971	83,579	-0,037	0,030
-226,957	65,062	-0,071	0,052
-225,942	328,283	-0,076	0,107
-224,927	800,000	-0,017	-0,040
-223,913	-94,316	-0,051	0,010
-222,898	-200,000	-0,007	-0,117
-221,884	-65,486	0,080	-0,023
-220,869	92,717	0,059	0,048
-219,855	57,959	0,045	-0,032
-218,840	-86,632	-0,068	0,015
-217,825	298,860	-0,067	-0,090
-216,811	-49,482	0,021	0,007
-215,796	-75,277	-0,113	-0,029
-214,782	326,428	0,062	-0,087
-213,767	-18,091	0,162	0,074
-212,752	-111,490	-0,023	-0,003
-211,738	26,852	0,068	0,041
-210,723	-200,000	0,008	-0,075
-209,709	-200,000	0,046	-0,177
-208,694	218,007	-0,085	-0,099
-207,679	-200,000	0,007	-0,057
-206,665	-133,027	0,091	-0,008
-205,650	205,678	-0,011	0,012
-204,636	-152,794	0,032	0,002
-203,621	118,148	0,116	-0,104
-202,606	-146,587	-0,097	0,006
-201,592	-145,712	-0,063	-0,004
-200,577	-86,518	-0,024	-0,005
-199,563	226,889	-0,087	0,104
-198,548	-200,000	0,007	0,141
-197,533	800,000	0,026	-0,066
-196,519	-200,000	0,012	-0,045
-195,504	-65,462	0,080	-0,023
-194,490	213,136	0,098	-0,113
-193,475	-44,340	-0,019	-0,007
-192,460	-200,000	0,012	-0,069
-191,446	800,000	-0,048	0,121
-190,431	17,120	0,061	-0,035
-189,417	-3,374	-0,022	-0,011
-188,402	22,315	-0,083	0,049
-187,387	430,794	-0,065	-0,103
-186,373	800,000	-0,016	-0,042
-185,358	6,764	-0,116	0,063
-184,344	275,593	0,051	-0,066
-183,329	-200,000	-0,010	0,057
-182,315	206,652	0,044	-0,050
-181,300	-71,578	-0,075	0,020
-180,285	800,000	0,015	-0,048
-179,271	-52,828	0,060	0,020
-178,256	-200,000	-0,019	-0,066
-177,242	800,000	-0,036	-0,110
-176,227	-100,184	0,185	-0,033
-175,212	-92,880	-0,068	-0,014
-174,198	38,817	-0,115	-0,074
-173,183	431,658	0,024	-0,039
-172,169	147,731	-0,063	-0,062
-171,154	85,370	-0,031	-0,025
-170,139	419,381	0,051	-0,079
-169,125	-17,006	0,030	-0,014
-168,110	-29,057	-0,039	0,016
-167,096	-33,159	-0,071	0,029
-166,081	81,844	0,107	0,084
-165,066	291,529	-0,021	-0,028
-164,052	-122,280	-0,105	0,012
-163,037	190,440	-0,108	0,118
-162,023	513,120	-0,028	-0,048
-161,008	-200,000	0,004	0,109
-159,993	450,171	0,014	-0,023
-158,979	-5,409	0,133	-0,066
-157,964	-110,855	-0,104	0,015
-156,950	-38,863	0,144	-0,055
-155,935	-28,343	0,101	-0,042
-154,920	-200,000	0,008	0,145
-153,906	265,385	0,091	0,116
-152,891	800,000	0,026	0,079
-151,877	49,516	-0,078	0,053
-150,862	45,457	-0,139	-0,093
-149,847	800,000	0,030	0,082
-148,833	-200,000	0,031	0,132
-147,818	188,608	0,089	-0,097
-146,804	385,234	0,007	-0,010
-145,789	-200,000	-0,049	0,161
-144,775	97,337	-0,080	0,067
-143,760	207,462	0,012	-0,014
-142,745	432,896	0,053	-0,084
-141,731	446,012	-0,003	0,005
-140,716	-200,000	0,005	0,031
-139,702	-152,673	0,121	0,006
-138,687	148,739	0,151	-0,148
-137,672	-137,387	-0,086	-0,007
-136,658	800,000	-0,050	-0,116
-135,643	-21,386	-0,031	-0,014
-134,629	-116,565	0,039	-0,005
-133,614	-200,000	-0,015	-0,061
-132,599	800,000	-0,022	0,049
-131,585	2,817	-0,078	0,041
-130,570	82,518	0,076	0,060
-129,556	-1,358	0,028	-0,014
-128,541	-5,594	-0,064	0,032
-127,526	56,392	-0,093	0,065
-126,512	-92,462	0,066	-0,013
-125,497	-179,496	0,061	-0,001
-124,483	-141,678	0,058	0,004
-123,468	701,415	-0,040	-0,077
-122,453	500,848	-0,024	-0,041
-121,439	261,909	0,107	-0,135
-120,424	491,486	-0,017	0,028
-119,410	48,932	0,059	0,040
