DTS Sentinel unit serial number:	SN410029Multiplexer serial number:	ORYXHardware model number:	OX2-SRSoftware version number:	ORYX F/W v4,00 Oryx Data Collector v3.7.2.0data status	okinstallation	B6 Nyhavnadifferential loss correction	single-endedforward channel	channel 2reverse channel	N/Adate	2023/12/09time	01:40:08forward acquisition time	300,00reverse acquisition time	0,00gamma	499,1914k internal	0,3156k external	0,3156temperature offset calibration	1,0000default loss term (dB/km)	0,3820temperature slope calibration	1,0000multiplexer offset coefficient	1,0000multiplexer slope coefficient	1,0000fibre end	0,00T internal ref (°C)	15,81T ext. ref 1 (°C)	-0,50T ext. ref 2 (°C)	-0,50length (m)	temperature (°C)	Stokes	anti-Stokes-744,400	-35,750	0,161	-0,064
-743,385	-56,242	-0,220	0,072
-742,371	-174,124	0,218	-0,005
-741,356	-192,393	-0,269	-0,002
-740,342	6,022	0,157	-0,085
-739,327	-154,335	-0,299	0,015
-738,312	-36,460	0,110	0,043
-737,298	-179,236	-0,413	0,007
-736,283	520,539	0,034	-0,060
-735,269	-113,889	-0,411	0,058
-734,254	57,648	0,140	0,101
-733,239	-110,193	-0,531	-0,081
-732,225	-169,025	0,202	0,005
-731,210	800,000	-0,028	0,083
-730,196	557,939	-0,013	-0,024
-729,181	495,397	-0,051	0,087
-728,167	-7,086	-0,146	0,073
-727,152	108,659	-0,060	0,053
-726,137	70,009	-0,039	-0,030
-725,123	-199,734	0,096	0,000
-724,108	297,892	-0,045	0,061
-723,094	-79,210	-0,041	-0,010
-722,079	41,803	-0,171	-0,114
-721,064	800,000	-0,024	0,060
-720,050	800,000	-0,022	-0,052
-719,035	78,413	0,049	0,039
-718,021	-168,821	-0,168	0,005
-717,006	-200,000	0,033	0,153
-715,991	800,000	-0,028	0,085
-714,977	299,779	0,069	0,095
-713,962	-36,804	-0,220	0,086
-712,948	103,090	0,053	0,046
-711,933	800,000	0,025	-0,066
-710,918	-137,760	0,022	-0,002
-709,904	223,871	-0,128	-0,153
-708,889	760,449	-0,028	-0,056
-707,875	-200,000	-0,023	0,115
-706,860	-200,000	-0,015	0,126
-705,845	-200,000	0,014	0,053
-704,831	-200,000	0,009	0,031
-703,816	-145,072	0,120	-0,008
-702,802	-84,456	-0,048	-0,011
-701,787	-14,561	-0,150	-0,071
-700,772	333,829	-0,050	-0,072
-699,758	302,893	0,036	-0,049
-698,743	363,896	0,023	-0,034
-697,729	-51,114	-0,066	-0,023
-696,714	-200,000	-0,029	0,121
-695,699	-200,000	-0,016	-0,070
-694,685	800,000	-0,059	0,147
-693,670	-162,093	0,082	-0,003
-692,656	211,844	0,032	0,037
-691,641	-154,139	-0,184	-0,009
-690,627	800,000	-0,045	-0,105
-689,612	-100,376	0,094	-0,017
-688,597	46,544	0,069	-0,047
-687,583	800,000	-0,079	-0,231
-686,568	-79,729	0,162	-0,040
-685,554	382,506	-0,049	-0,075
-684,539	-81,911	-0,076	0,018
-683,524	-24,059	0,061	0,026
-682,510	-12,759	-0,094	0,045
-681,495	275,850	0,078	-0,103
-680,481	376,010	-0,012	0,019
-679,466	100,092	-0,173	-0,147
-678,451	398,753	0,007	0,010
-677,437	-200,000	0,000	0,010
-676,422	358,356	-0,038	0,056
-675,408	-200,000	-0,027	-0,192
-674,393	-18,172	0,014	0,006
-673,378	209,468	-0,113	-0,131
-672,364	-200,000	-0,004	-0,074
-671,349	727,459	-0,031	0,061
-670,335	-200,000	0,005	0,029
-669,320	-200,000	0,015	-0,128
-668,305	-140,671	-0,103	-0,008
-667,291	562,870	-0,070	-0,125
-666,276	-200,000	-0,026	-0,150
-665,262	-105,396	-0,161	0,027
-664,247	61,945	-0,019	-0,014
-663,232	800,000	0,021	0,053
-662,218	-200,000	-0,039	0,144
-661,203	-45,766	-0,019	0,007
-660,189	-29,501	0,092	0,038
-659,174	800,000	-0,025	-0,065
-658,159	-119,511	-0,176	0,022
-657,145	-200,000	-0,002	0,062
-656,130	0,247	0,037	0,019
-655,116	332,534	0,031	-0,044
-654,101	181,803	0,034	0,037
-653,086	-57,005	0,034	-0,011
-652,072	359,951	-0,032	-0,047
-651,057	-200,000	-0,036	-0,188
-650,043	-200,000	-0,018	0,080
-649,028	134,811	-0,076	-0,073
-648,014	-81,677	0,143	-0,034
-646,999	-76,424	0,087	-0,022
-645,984	-200,000	0,028	-0,098
-644,970	7,888	-0,151	-0,083
-643,955	-29,327	-0,031	-0,013
-642,941	2,450	0,048	-0,025
-641,926	246,221	0,078	-0,096
-640,911	-94,872	-0,076	0,015
-639,897	-200,000	-0,019	0,178
-638,882	105,558	0,144	-0,125
-637,868	0,992	-0,083	-0,044
-636,853	-200,000	0,018	-0,100
-635,838	84,998	-0,022	-0,017
-634,824	-200,000	-0,025	0,098
-633,809	-47,587	0,068	-0,024
-632,795	-182,404	0,093	0,001
-631,780	-200,000	0,015	-0,055
-630,765	-39,332	0,176	-0,067
-629,751	-194,813	0,093	-0,001
-628,736	202,941	-0,069	-0,078
-627,722	148,518	0,103	-0,102
-626,707	-20,641	0,071	-0,032
-625,692	346,628	-0,056	-0,082
-624,678	490,403	-0,022	0,037
-623,663	345,791	0,033	0,048
-622,649	135,408	-0,080	0,077
-621,634	103,150	-0,062	0,053
-620,619	-200,000	0,033	-0,108
-619,605	84,890	0,072	-0,058
-618,590	800,000	-0,036	0,110
-617,576	800,000	0,034	0,098
-616,561	55,167	-0,054	-0,038
-615,546	-200,000	-0,006	-0,124
-614,532	800,000	-0,068	-0,156
-613,517	11,880	0,007	0,004
-612,503	-200,000	-0,006	0,020
-611,488	216,251	0,173	0,202
-610,474	-149,370	-0,085	0,005
-609,459	-102,378	0,085	-0,015
-608,444	-22,205	-0,174	0,077
-607,430	-112,861	-0,252	0,036
-606,415	-144,332	-0,083	0,006
-605,401	-200,000	0,024	0,207
-604,386	-52,029	0,078	0,026
-603,371	800,000	-0,027	-0,067
-602,357	-14,513	-0,107	-0,050
-601,342	-43,127	0,075	0,028
-600,328	-200,000	-0,013	-0,143
-599,313	-93,229	0,065	0,013
-598,298	-200,000	-0,021	-0,072
-597,284	-200,000	-0,006	-0,045
-596,269	800,000	-0,051	-0,114
-595,255	343,163	-0,057	-0,082
-594,240	512,175	0,028	0,048
-593,225	-186,901	-0,155	0,002
-592,211	-141,468	-0,054	-0,004
-591,196	-29,559	0,140	-0,059
-590,182	-3,771	0,054	0,027
-589,167	-200,000	0,012	-0,139
-588,152	365,228	0,009	0,013
-587,138	-38,202	-0,031	-0,012
-586,123	800,000	0,055	-0,162
-585,109	699,788	-0,042	-0,082
-584,094	-174,934	0,077	0,002
-583,079	-3,996	0,095	0,048
-582,065	-200,000	-0,012	0,097
-581,050	-200,000	0,001	0,093
-580,036	800,000	0,007	0,022
-579,021	332,506	-0,025	0,035
-578,006	-85,694	-0,084	0,019
-576,992	332,749	-0,048	-0,068
-575,977	-27,801	0,113	-0,048
-574,963	694,270	0,047	-0,092
-573,948	129,411	-0,133	0,124
-572,934	173,309	-0,054	-0,057
-571,919	-49,659	-0,164	0,057
-570,904	-200,000	-0,021	-0,096
-569,890	-200,000	-0,015	-0,135
-568,875	800,000	0,018	0,047
-567,861	39,436	-0,062	0,041
-566,846	569,806	-0,054	0,096
-565,831	800,000	0,025	0,069
-564,817	95,167	-0,096	-0,080
-563,802	90,917	-0,020	-0,016
-562,788	-200,000	-0,009	0,090
-561,773	-40,613	-0,010	0,004
-560,758	-74,124	0,154	0,041
-559,744	-200,000	0,016	0,072
-558,729	-200,000	-0,010	0,038
-557,715	69,949	0,071	-0,054
-556,700	800,000	-0,030	-0,074
-555,685	-96,984	0,025	0,005
-554,671	-200,000	0,010	0,045
-553,656	-121,898	0,043	-0,005
-552,642	195,977	0,062	0,069
-551,627	-200,000	-0,008	-0,065
-550,612	64,219	-0,079	-0,059
-549,598	800,000	-0,025	-0,053
-548,583	800,000	0,047	0,137
-547,569	-147,088	0,060	0,004
-546,554	523,067	-0,017	0,029
-545,539	-5,191	0,062	-0,031
-544,525	-200,000	-0,032	0,118
-543,510	-31,554	-0,129	-0,053
-542,496	800,000	0,024	0,074
-541,481	-191,652	-0,052	0,000
-540,466	94,167	0,065	0,054
-539,452	-55,750	0,055	-0,018
-538,437	-200,000	-0,023	0,086
-537,423	93,284	0,117	-0,097
-536,408	275,073	-0,092	-0,119
-535,393	49,967	0,089	0,061
-534,379	43,481	0,050	-0,034
-533,364	554,043	-0,093	-0,165
-532,350	-200,000	-0,010	0,057
-531,335	190,649	-0,018	0,020
-530,321	-130,610	0,033	-0,003
-529,306	-200,000	0,003	0,096
-528,291	392,153	-0,059	0,090
-527,277	39,818	-0,049	-0,032
-526,262	9,897	0,060	0,033
-525,248	800,000	0,038	-0,099
-524,233	-47,165	-0,098	0,035
-523,218	-142,445	0,091	0,006
-522,204	167,974	-0,061	0,063
-521,189	-110,588	-0,045	0,007
-520,175	800,000	0,030	0,067
-519,160	178,390	-0,146	-0,156
-518,145	-180,705	-0,065	-0,001
-517,131	-40,648	-0,120	0,045
-516,116	-4,337	0,140	0,071
-515,102	-82,134	0,108	-0,026
-514,087	1,180	-0,048	-0,025
-513,072	75,147	-0,083	-0,064
-512,058	299,920	-0,085	-0,115
-511,043	800,000	-0,070	-0,152
-510,029	68,920	-0,048	-0,036
-509,014	-75,132	0,118	0,031
-507,999	606,618	0,020	-0,036
-506,985	437,744	0,012	-0,019
-505,970	-65,324	-0,032	-0,009
-504,956	577,335	-0,030	-0,053
-503,941	92,810	0,062	0,051
-502,926	503,586	0,104	0,176
-501,912	296,875	-0,028	-0,037
-500,897	-129,126	-0,127	-0,013
-499,883	-61,773	0,036	-0,011
-498,868	800,000	0,033	-0,077
-497,853	-200,000	0,019	0,074
-496,839	177,695	0,193	0,206
-495,824	128,955	0,058	0,054
-494,810	800,000	-0,021	0,064
-493,795	-145,081	0,114	0,007
-492,781	129,002	0,067	0,062
-491,766	-200,000	0,018	-0,118
-490,751	220,096	-0,055	-0,065
-489,737	311,469	-0,041	-0,056
-488,722	800,000	-0,018	-0,047
-487,708	168,718	0,039	0,041
-486,693	360,730	-0,087	0,128
-485,678	176,064	0,075	-0,080
-484,664	-81,239	-0,118	-0,028
-483,649	-200,000	0,037	-0,169
-482,635	-102,248	0,202	-0,035
-481,620	496,956	0,046	0,078
-480,605	-99,523	-0,027	0,005
-479,591	89,756	-0,029	-0,024
-478,576	92,704	0,037	-0,031
-477,562	86,770	-0,065	0,053
-476,547	773,520	-0,049	-0,098
-475,532	-155,188	-0,094	-0,004
-474,518	-25,496	0,023	-0,010
-473,503	800,000	-0,084	0,194
-472,489	204,789	0,074	-0,083
-471,474	-162,581	-0,054	-0,002
-470,459	-64,066	-0,100	0,030
-469,445	-43,127	-0,169	-0,062
-468,430	-83,235	-0,047	0,011
-467,416	-200,000	-0,005	0,098
-466,401	44,610	0,164	0,110
-465,386	-165,490	0,091	0,003
-464,372	-200,000	0,011	-0,054
-463,357	-113,413	0,064	-0,009
-462,343	800,000	0,061	-0,140
-461,328	-128,852	0,082	-0,008
-460,313	-133,730	0,158	-0,014
-459,299	166,827	-0,066	-0,068
-458,284	225,928	-0,045	-0,053
-457,270	164,909	-0,054	0,055
-456,255	-200,000	0,015	0,079
-455,241	135,563	-0,072	0,069
-454,226	-131,030	-0,097	-0,009
-453,211	17,708	0,127	-0,074
-452,197	800,000	0,041	-0,113
-451,182	186,827	-0,056	0,060
-450,168	800,000	-0,061	0,140
-449,153	-40,041	0,082	0,031
-448,138	184,605	0,065	0,070
-447,124	199,842	0,020	-0,022
-446,109	800,000	-0,045	0,105
-445,095	275,305	0,064	0,083
-444,080	800,000	-0,053	0,120
-443,065	254,932	0,109	0,137
-442,051	129,220	-0,107	0,099
-441,036	-98,846	0,030	0,006
-440,022	-109,638	-0,052	-0,008
-439,007	-200,000	-0,004	0,163
-437,992	-200,000	0,005	-0,061
-436,978	800,000	0,081	0,195
-435,963	-200,000	-0,006	0,044
-434,949	203,827	-0,034	0,039
-433,934	-200,000	-0,027	-0,102
-432,919	34,582	-0,168	0,107
-431,905	-90,442	0,167	0,035
-430,890	564,038	0,043	-0,076
-429,876	-70,590	-0,153	0,042
-428,861	-100,977	0,095	0,017
-427,846	196,876	0,046	0,051
-426,832	-200,000	-0,033	-0,113
-425,817	4,054	-0,036	0,019
-424,803	800,000	0,028	0,084
-423,788	-200,000	0,010	0,046
-422,773	786,956	-0,015	0,030
-421,759	657,503	-0,056	0,106
-420,744	-200,000	-0,014	0,085
-419,730	99,621	0,074	-0,062
-418,715	245,799	-0,065	-0,080
-417,701	774,400	0,041	0,082
-416,686	331,872	0,022	0,031
-415,671	167,889	0,062	0,064
-414,657	800,000	-0,059	0,181
-413,642	433,593	-0,062	0,098
-412,628	-200,000	-0,027	-0,091
-411,613	41,405	-0,105	-0,069
-410,598	-136,138	0,109	-0,009
-409,584	-200,000	-0,005	0,043
-408,569	-200,000	-0,038	0,151
-407,555	-12,508	-0,077	0,037
-406,540	610,620	0,023	-0,042
-405,525	548,307	0,021	0,037
-404,511	-200,000	0,025	-0,136
-403,496	109,684	-0,047	-0,041
-402,482	479,867	-0,051	-0,084
-401,467	-18,895	0,168	-0,076
-400,452	46,497	0,066	0,045
-399,438	800,000	0,014	0,039
-398,423	-47,979	-0,109	0,038
-397,409	576,810	-0,026	0,047
-396,394	800,000	-0,059	-0,122
-395,379	20,164	-0,178	-0,104
-394,365	42,397	0,065	0,043
-393,350	71,079	-0,011	-0,008
-392,336	-67,809	0,133	-0,038
-391,321	105,362	-0,114	0,098
-390,306	-123,625	-0,037	0,004
-389,292	800,000	-0,023	-0,047
-388,277	749,895	-0,051	-0,100
-387,263	28,029	0,030	0,018
-386,248	-200,000	-0,005	-0,097
-385,233	-200,000	0,001	-0,052
-384,219	-127,213	-0,124	0,013
-383,204	-200,000	0,000	-0,038
-382,190	-140,366	-0,114	-0,009
-381,175	-99,397	-0,027	-0,005
-380,160	-179,082	0,005	0,000
-379,146	189,321	-0,023	0,026
-378,131	191,682	-0,011	0,012
-377,117	49,078	0,036	-0,024
-376,102	123,754	0,053	-0,049
-375,088	95,486	-0,086	-0,072
-374,073	223,648	-0,113	0,133
-373,058	319,519	-0,098	0,136
-372,044	470,235	0,045	-0,074
-371,029	638,079	0,082	0,152
-370,015	-36,476	0,088	-0,034
-369,000	41,412	0,090	0,059
-367,985	321,689	-0,096	-0,133
-366,971	-82,122	-0,106	0,025
-365,956	800,000	0,109	0,226
-364,942	38,040	0,057	-0,037
-363,927	489,130	0,044	-0,074
-362,912	-44,324	0,120	0,043
-361,898	-200,000	-0,024	-0,110
-360,883	386,369	0,040	0,060
-359,869	321,654	-0,041	-0,057
-358,854	478,705	0,095	0,156
-357,839	800,000	0,042	-0,129
-356,825	-17,414	0,059	0,027
-355,810	-24,672	-0,041	0,018
-354,796	-142,031	-0,099	-0,007
-353,781	-200,000	0,027	-0,144
-352,766	97,713	0,010	0,008
-351,752	159,842	-0,053	0,053
-350,737	196,818	0,044	0,049
-349,723	-200,000	-0,011	0,064
-348,708	-100,987	0,164	0,029
-347,693	21,606	-0,117	0,069
-346,679	-200,000	-0,012	-0,080
-345,664	-102,199	-0,025	-0,004
-344,650	-200,000	0,002	0,069
-343,635	-200,000	0,015	0,104
-342,620	-200,000	-0,008	0,180
-341,606	-89,106	-0,079	0,017
-340,591	800,000	0,040	-0,122
-339,577	39,292	-0,098	-0,063
-338,562	-5,398	0,112	0,056
-337,548	-194,982	-0,096	-0,001
-336,533	-122,433	0,157	0,018
-335,518	-200,000	-0,003	0,014
-334,504	800,000	0,026	0,056
-333,489	446,781	-0,038	0,061
-332,475	65,712	0,054	-0,039
-331,460	45,571	-0,073	-0,049
-330,445	-10,942	-0,104	-0,050
-329,431	243,892	0,055	0,067
-328,416	-32,573	0,104	-0,042
-327,402	11,233	-0,058	-0,032
-326,387	-200,000	0,022	-0,106
-325,372	-200,000	-0,008	-0,065
-324,358	-200,000	0,003	-0,083
-323,343	-200,000	-0,036	-0,196
-322,329	-40,452	-0,098	-0,037
-321,314	-200,000	-0,027	0,128
-320,299	-85,915	0,099	0,022
-319,285	101,460	-0,063	0,053
-318,270	-200,000	-0,011	0,143
-317,256	98,606	-0,080	-0,067
-316,241	150,498	0,082	-0,081
-315,226	-91,192	0,145	-0,030
-314,212	-63,508	0,046	0,014
-313,197	-200,000	-0,017	0,191
-312,183	-107,280	-0,052	-0,008
-311,168	59,589	0,138	-0,099
-310,153	-200,000	0,004	-0,216
-309,139	-200,000	0,018	-0,077
-308,124	-200,000	-0,051	-0,189
-307,110	264,095	0,043	0,055
-306,095	-103,922	0,156	0,026
-305,080	-200,000	0,014	-0,122
-304,066	143,746	0,107	0,103
-303,051	-66,722	-0,101	-0,029
-302,037	441,901	0,096	-0,152
-301,022	-200,000	0,008	-0,047
-300,008	800,000	-0,033	-0,077
-298,993	403,599	0,078	0,120
-297,978	-44,449	0,027	0,010
-296,964	5,494	-0,014	-0,007
-295,949	91,515	-0,081	-0,066
-294,935	800,000	0,013	0,036
-293,920	-109,893	0,041	-0,006
-292,905	-200,000	0,013	-0,041
-291,891	92,777	0,044	0,036
-290,876	11,148	0,025	-0,014
-289,862	68,074	-0,063	0,047
-288,847	-24,804	-0,069	0,030
-287,832	-200,000	0,000	-0,039
-286,818	-1,470	0,117	0,060
-285,803	125,015	-0,045	0,041
-284,789	94,945	-0,085	0,070
-283,774	-200,000	-0,035	0,188
-282,759	-200,000	-0,015	-0,081
-281,745	-46,685	-0,036	0,013
-280,730	-156,405	-0,158	0,007
-279,716	28,213	0,036	-0,022
-278,701	-200,000	-0,016	-0,085
-277,686	-200,000	0,015	0,059
-276,672	-200,000	0,006	0,059
-275,657	16,835	-0,046	0,026
-274,643	123,437	-0,076	-0,069
-273,628	-118,522	-0,191	-0,024
-272,613	800,000	0,009	-0,025
-271,599	800,000	0,012	0,028
-270,584	39,027	-0,028	-0,018
-269,570	-179,813	-0,168	-0,003
-268,555	61,593	0,106	-0,077
-267,540	42,846	0,094	-0,062
-266,526	-200,000	0,011	-0,161
-265,511	59,049	-0,074	-0,053
-264,497	241,533	0,064	0,078
-263,482	-200,000	0,015	0,103
-262,467	-103,706	0,150	-0,025
-261,453	62,960	0,031	0,023
-260,438	34,592	0,102	-0,064
-259,424	-2,481	0,049	-0,025
-258,409	800,000	0,064	0,191
-257,395	-200,000	0,008	0,158
-256,380	14,639	-0,092	0,052
-255,365	85,111	-0,005	0,004
-254,351	229,564	0,005	-0,006
-253,336	147,446	-0,079	0,077
-252,322	-197,714	0,121	-0,001
-251,307	89,528	-0,046	-0,037
-250,292	-34,880	-0,038	0,015
-249,278	-14,498	0,115	-0,053
-248,263	80,955	0,063	-0,049
-247,249	17,891	0,134	-0,077
-246,234	-200,000	0,002	-0,073
-245,219	170,735	-0,060	-0,063
-244,205	-200,000	0,001	0,021
-243,190	-106,071	-0,140	0,023
-242,176	-200,000	0,016	0,055
-241,161	-81,575	0,126	-0,030
-240,146	-29,555	0,089	0,037
-239,132	244,870	-0,015	-0,019
-238,117	-118,102	-0,168	0,021
-237,103	106,055	-0,068	-0,058
-236,088	255,422	0,038	-0,048
-235,073	264,556	-0,019	0,024
-234,059	168,285	-0,070	-0,072
-233,044	800,000	0,082	0,187
-232,030	13,150	-0,051	0,029
-231,015	-200,000	-0,015	-0,099
-230,000	103,047	0,128	-0,108
-228,986	800,000	-0,030	0,063
-227,971	238,286	-0,056	0,067
-226,957	242,201	0,028	0,034
-225,942	-42,144	-0,102	-0,037
-224,927	-200,000	0,030	0,126
-223,913	-154,330	0,048	0,002
-222,898	52,033	-0,048	0,033
-221,884	-200,000	-0,003	-0,012
-220,869	53,405	0,144	-0,100
-219,855	-200,000	0,001	0,080
-218,840	800,000	-0,039	0,088
-217,825	179,812	-0,088	-0,093
-216,811	-84,294	0,231	-0,052
-215,796	132,965	-0,021	0,019
-214,782	737,765	-0,039	0,075
-213,767	-200,000	0,153	0,000
-212,752	-200,000	0,004	0,080
-211,738	-50,172	0,079	0,027
-210,723	764,331	0,038	-0,075
-209,709	150,302	0,024	-0,024
-208,694	-104,909	-0,183	-0,030
-207,679	-30,598	-0,074	0,030
-206,665	-200,000	-0,002	0,032
-205,650	371,395	-0,086	0,126
-204,636	227,358	0,104	0,122
-203,621	41,276	-0,006	0,004
-202,606	800,000	-0,031	-0,088
-201,592	305,072	0,083	-0,112
-200,577	-200,000	-0,014	-0,139
-199,563	-193,662	0,032	-0,000
-198,548	232,478	-0,077	-0,091
-197,533	-96,829	-0,070	-0,013
-196,519	279,886	-0,040	-0,051
-195,504	111,624	-0,069	-0,060
-194,490	-80,526	0,120	-0,029
-193,475	35,908	-0,026	-0,016
-192,460	-6,537	-0,059	0,029
-191,446	-200,000	0,007	-0,095
-190,431	132,470	-0,050	-0,047
-189,417	239,840	0,083	-0,100
-188,402	90,892	0,110	0,089
-187,387	294,265	-0,067	-0,089
-186,373	800,000	-0,025	-0,062
-185,358	-200,000	0,019	-0,105
-184,344	-103,036	0,074	-0,013
-183,329	800,000	-0,048	0,097
-182,315	183,648	-0,069	0,074
-181,300	-200,000	-0,021	0,131
-180,285	-200,000	-0,017	0,165
-179,271	-89,533	0,085	0,018
-178,256	-200,000	0,004	-0,059
-177,242	41,932	-0,101	0,066
-176,227	110,467	-0,045	0,039
-175,212	-18,156	0,046	0,021
-174,198	800,000	0,010	0,026
-173,183	-200,000	-0,013	-0,115
-172,169	182,109	-0,043	0,046
-171,154	59,092	-0,087	-0,062
-170,139	695,028	-0,026	0,050
-169,125	-200,000	0,057	-0,183
-168,110	-115,383	0,038	0,005
-167,096	12,910	0,093	0,052
-166,081	-200,000	0,005	0,084
-165,066	-133,748	-0,025	0,002
-164,052	392,837	-0,044	0,066
-163,037	-200,000	-0,010	-0,041
-162,023	-41,581	-0,152	-0,056
-161,008	562,598	-0,052	0,091
-159,993	-108,130	-0,136	0,021
-158,979	-200,000	0,020	-0,063
-157,964	759,685	0,041	-0,081
-156,950	-57,551	-0,009	-0,003
-155,935	222,550	0,076	-0,088
-154,920	160,709	-0,018	0,018
-153,906	-25,339	0,120	0,051
-152,891	167,623	0,124	0,127
-151,877	-9,505	-0,061	-0,029
-150,862	164,419	0,050	-0,051
-149,847	218,342	0,036	-0,042
-148,833	-33,416	0,037	0,015
-147,818	-200,000	-0,002	0,036
-146,804	262,618	-0,065	0,081
-145,789	-200,000	0,009	0,119
-144,775	45,773	0,051	0,034
-143,760	-18,060	0,055	-0,025
-142,745	33,253	-0,044	-0,028
-141,731	364,970	0,059	0,086
-140,716	800,000	-0,036	0,087
-139,702	56,638	0,075	0,052
-138,687	-44,167	-0,083	0,030
-137,672	-136,479	-0,057	-0,005
-136,658	148,019	-0,086	-0,084
-135,643	162,198	-0,061	-0,062
-134,629	31,008	-0,136	0,084
-133,614	-200,000	0,022	-0,072
-132,599	-134,321	0,187	0,016
-131,585	16,864	-0,067	0,038
-130,570	52,446	-0,105	0,072
-129,556	63,033	-0,060	0,043
-128,541	-200,000	0,004	-0,019
-127,526	-38,643	-0,139	0,053
-126,512	-200,000	0,000	0,117
-125,497	-79,492	0,129	0,031
-124,483	-101,088	0,072	0,013
-123,468	175,267	-0,092	0,096
-122,453	-109,063	0,105	0,016
-121,439	-200,000	0,013	-0,100
-120,424	-81,205	-0,058	0,014
-119,410	1,419	-0,069	-0,036
