DTS Sentinel unit serial number:	SN410029Multiplexer serial number:	ORYXHardware model number:	OX2-SRSoftware version number:	ORYX F/W v4,00 Oryx Data Collector v3.7.2.0data status	okinstallation	B6 Nyhavnadifferential loss correction	single-endedforward channel	channel 2reverse channel	N/Adate	2023/12/08time	23:35:08forward acquisition time	300,00reverse acquisition time	0,00gamma	499,1914k internal	0,3158k external	0,3158temperature offset calibration	1,0000default loss term (dB/km)	0,3820temperature slope calibration	1,0000multiplexer offset coefficient	1,0000multiplexer slope coefficient	1,0000fibre end	0,00T internal ref (°C)	15,47T ext. ref 1 (°C)	-0,94T ext. ref 2 (°C)	-0,96length (m)	temperature (°C)	Stokes	anti-Stokes-744,400	-108,973	0,162	-0,025
-743,385	-169,075	-0,394	-0,011
-742,371	68,561	0,115	0,087
-741,356	-18,316	-0,226	0,104
-740,342	-136,193	0,076	-0,006
-739,327	31,715	-0,231	-0,146
-738,312	161,914	-0,037	0,038
-737,298	-96,007	-0,341	-0,066
-736,283	329,078	0,056	0,079
-735,269	-61,252	-0,229	0,071
-734,254	550,029	-0,037	0,066
-733,239	-22,725	-0,485	-0,215
-732,225	-74,194	0,200	0,053
-731,210	-9,679	0,116	0,057
-730,196	82,481	-0,151	-0,121
-729,181	97,988	0,102	-0,086
-728,167	-57,003	0,039	-0,013
-727,152	50,531	-0,058	-0,040
-726,137	-200,000	-0,034	-0,228
-725,123	-200,000	-0,017	-0,150
-724,108	-200,000	0,001	-0,026
-723,094	244,239	0,036	-0,045
-722,079	297,771	0,063	-0,086
-721,064	179,486	-0,076	-0,082
-720,050	42,526	0,052	-0,035
-719,035	61,923	-0,050	-0,037
-718,021	-77,193	-0,058	0,015
-717,006	-200,000	-0,049	-0,178
-715,991	800,000	-0,028	-0,075
-714,977	246,953	-0,098	0,123
-713,962	-200,000	-0,004	0,044
-712,948	-200,000	-0,007	0,042
-711,933	-200,000	-0,067	0,000
-710,918	-200,000	0,015	0,098
-709,904	27,978	-0,139	-0,086
-708,889	241,341	-0,093	-0,115
-707,875	117,862	-0,114	0,104
-706,860	-200,000	-0,026	0,139
-705,845	-200,000	0,036	0,127
-704,831	-151,270	-0,116	-0,006
-703,816	-200,000	0,002	-0,083
-702,802	11,903	-0,039	-0,022
-701,787	300,205	-0,072	0,097
-700,772	-200,000	0,024	-0,117
-699,758	-89,768	-0,068	0,014
-698,743	-25,950	-0,077	-0,033
-697,729	800,000	-0,066	0,179
-696,714	316,830	-0,062	-0,087
-695,699	-200,000	0,004	0,055
-694,685	273,276	0,048	0,063
-693,670	-184,223	-0,111	-0,001
-692,656	-200,000	-0,001	0,044
-691,641	-164,151	-0,187	0,006
-690,627	-5,708	0,045	0,023
-689,612	-200,000	0,042	0,149
-688,597	-137,270	0,052	0,004
-687,583	-200,000	0,012	-0,055
-686,568	152,221	-0,014	0,014
-685,554	-200,000	0,056	-0,190
-684,539	51,317	-0,090	0,063
-683,524	-200,000	-0,032	0,216
-682,510	236,441	-0,056	-0,068
-681,495	132,446	-0,027	0,025
-680,481	800,000	0,038	-0,084
-679,466	-200,000	0,029	-0,245
-678,451	-200,000	-0,048	-0,183
-677,437	158,450	0,059	-0,060
-676,422	31,559	-0,113	0,071
-675,408	-91,358	-0,040	0,008
-674,393	-44,791	0,032	0,012
-673,378	-91,702	-0,137	-0,028
-672,364	-200,000	-0,023	0,088
-671,349	74,237	0,095	0,074
-670,335	-200,000	0,011	0,099
-669,320	-60,586	-0,134	-0,042
-668,305	800,000	0,048	0,145
-667,291	-38,899	-0,080	-0,031
-666,276	160,846	0,002	-0,002
-665,262	63,183	-0,199	-0,147
-664,247	-200,000	-0,018	-0,106
-663,232	564,627	0,054	-0,097
-662,218	43,630	0,041	0,028
-661,203	-40,589	0,147	0,056
-660,189	-39,831	-0,078	0,030
-659,174	173,007	-0,064	0,068
-658,159	786,187	-0,011	-0,022
-657,145	86,823	0,090	-0,073
-656,130	-200,000	-0,001	-0,005
-655,116	-200,000	-0,007	-0,115
-654,101	-200,000	-0,029	0,105
-653,086	-200,000	-0,003	-0,051
-652,072	800,000	-0,034	-0,076
-651,057	186,980	0,046	-0,050
-650,043	-0,619	-0,082	0,043
-649,028	-200,000	-0,018	-0,076
-648,014	202,160	0,121	-0,137
-646,999	50,046	-0,094	-0,065
-645,984	-200,000	-0,011	0,047
-644,970	-200,000	0,001	0,019
-643,955	-200,000	-0,027	-0,150
-642,941	78,671	-0,051	-0,040
-641,926	-200,000	-0,003	0,087
-640,911	149,345	-0,013	0,013
-639,897	-200,000	0,002	0,042
-638,882	72,674	0,016	-0,012
-637,868	73,440	-0,058	-0,045
-636,853	800,000	-0,020	0,052
-635,838	102,281	0,016	-0,013
-634,824	-68,028	-0,069	0,020
-633,809	-200,000	0,010	0,066
-632,795	-200,000	-0,013	0,103
-631,780	-31,613	0,063	0,026
-630,765	-200,000	0,012	-0,063
-629,751	-200,000	0,010	0,100
-628,736	-120,344	-0,158	0,020
-627,722	-200,000	0,022	0,106
-626,707	102,143	-0,080	0,069
-625,692	800,000	-0,025	0,056
-624,678	-44,570	0,140	-0,051
-623,663	-94,322	-0,100	0,020
-622,649	800,000	-0,040	-0,119
-621,634	0,434	-0,079	-0,041
-620,619	-48,699	0,059	0,021
-619,605	-82,894	-0,140	-0,033
-618,590	67,813	0,074	-0,056
-617,576	-30,817	-0,139	-0,057
-616,561	272,890	-0,075	0,097
-615,546	-154,696	-0,043	0,002
-614,532	-200,000	-0,016	0,106
-613,517	-200,000	0,010	-0,095
-612,503	-157,983	-0,043	0,002
-611,488	-120,543	-0,022	-0,003
-610,474	-68,086	0,095	0,027
-609,459	22,035	0,019	0,011
-608,444	184,774	0,063	-0,068
-607,430	380,567	-0,036	0,054
-606,415	-200,000	-0,009	-0,078
-605,401	-200,000	0,013	-0,093
-604,386	-53,235	-0,091	0,031
-603,371	-69,941	0,098	-0,027
-602,357	109,626	-0,104	0,091
-601,342	800,000	0,040	-0,097
-600,328	793,686	0,032	-0,064
-599,313	50,271	0,045	0,031
-598,298	161,513	-0,067	0,068
-597,284	265,333	-0,051	-0,065
-596,269	-115,572	-0,125	0,017
-595,255	389,180	0,049	-0,075
-594,240	43,216	-0,041	-0,027
-593,225	-13,204	-0,066	0,031
-592,211	-200,000	0,002	-0,105
-591,196	-1,448	0,113	0,058
-590,182	254,792	0,010	0,013
-589,167	800,000	0,041	-0,107
-588,152	-200,000	-0,082	0,000
-587,138	-117,279	0,190	0,025
-586,123	-110,133	0,070	-0,011
-585,109	-125,306	-0,050	0,005
-584,094	-200,000	0,007	0,025
-583,079	800,000	-0,024	0,059
-582,065	-200,000	-0,012	0,097
-581,050	173,014	-0,051	0,054
-580,036	800,000	0,000	-0,001
-579,021	-200,000	0,005	-0,126
-578,006	228,402	-0,008	0,009
-576,992	-131,108	0,075	0,007
-575,977	800,000	0,064	0,203
-574,963	800,000	0,054	-0,162
-573,948	-32,424	-0,065	-0,027
-572,934	143,567	-0,046	-0,045
-571,919	-200,000	0,003	-0,130
-570,904	-113,863	-0,154	-0,022
-569,890	-41,513	-0,161	-0,060
-568,875	-196,311	-0,025	-0,000
-567,861	-23,379	0,126	0,055
-566,846	206,818	0,130	0,148
-565,831	105,705	-0,077	-0,066
-564,817	-106,728	-0,080	0,013
-563,802	-13,746	-0,115	-0,054
-562,788	-200,000	-0,015	-0,154
-561,773	-157,815	-0,058	0,002
-560,758	167,865	0,068	-0,071
-559,744	-200,000	0,063	0,226
-558,729	-16,785	-0,024	-0,011
-557,715	100,309	0,026	0,022
-556,700	-66,550	-0,108	-0,031
-555,685	388,600	-0,024	-0,037
-554,671	92,615	-0,113	-0,094
-553,656	-89,405	0,130	-0,028
-552,642	800,000	0,012	-0,026
-551,627	447,355	-0,016	-0,026
-550,612	-138,883	-0,055	0,004
-549,598	-90,670	-0,223	-0,047
-548,583	800,000	0,012	-0,035
-547,569	-56,367	0,087	-0,028
-546,554	-15,879	-0,074	0,035
-545,539	800,000	0,020	0,052
-544,525	-101,834	-0,161	0,028
-543,510	-87,748	-0,094	-0,021
-542,496	199,763	-0,076	-0,086
-541,481	-21,315	-0,085	0,038
-540,466	206,550	0,045	-0,051
-539,452	219,395	0,135	0,158
-538,437	-185,195	0,106	0,001
-537,423	204,622	-0,099	-0,113
-536,408	66,778	0,049	0,036
-535,393	586,747	-0,070	-0,126
-534,379	-200,000	-0,016	-0,149
-533,364	2,165	-0,115	-0,060
-532,350	800,000	0,046	0,133
-531,335	-142,301	-0,050	0,004
-530,321	-113,854	0,148	0,021
-529,306	263,673	-0,072	-0,091
-528,291	166,927	-0,042	-0,043
-527,277	37,151	0,025	-0,016
-526,262	-117,396	-0,047	-0,006
-525,248	-138,277	0,130	-0,010
-524,233	168,871	0,150	0,156
-523,218	416,086	-0,078	-0,122
-522,204	24,240	0,022	-0,014
-521,189	800,000	-0,024	0,051
-520,175	290,490	-0,059	-0,078
-519,160	102,237	-0,069	-0,059
-518,145	-200,000	-0,004	-0,027
-517,131	-107,304	0,164	-0,026
-516,116	98,086	-0,111	0,093
-515,102	-81,152	0,086	-0,021
-514,087	376,378	0,080	-0,120
-513,072	-200,000	-0,012	0,076
-512,058	-200,000	-0,016	-0,164
-511,043	175,732	-0,068	0,072
-510,029	39,073	0,077	-0,050
-509,014	70,114	-0,054	0,041
-507,999	800,000	0,048	0,110
-506,985	800,000	-0,028	-0,056
-505,970	201,801	-0,024	0,027
-504,956	11,223	-0,027	0,015
-503,941	52,528	0,166	0,116
-502,926	-65,835	-0,023	0,007
-501,912	-154,936	0,091	0,004
-500,897	-17,054	-0,066	0,030
-499,883	-110,458	0,047	0,007
-498,868	17,904	0,100	-0,058
-497,853	217,126	0,070	-0,081
-496,839	-200,000	-0,012	0,147
-495,824	-133,336	0,175	0,016
-494,810	-200,000	0,002	0,021
-493,795	50,623	-0,045	-0,031
-492,781	282,089	-0,046	-0,060
-491,766	254,159	0,064	0,080
-490,751	246,625	0,012	0,015
-489,737	-200,000	-0,012	0,089
-488,722	-72,352	0,117	-0,031
-487,708	-15,850	-0,020	0,009
-486,693	-153,467	-0,106	0,005
-485,678	-100,596	-0,115	0,021
-484,664	102,874	-0,054	-0,046
-483,649	393,245	-0,040	-0,061
-482,635	-52,258	0,133	-0,045
-481,620	114,331	0,083	-0,074
-480,605	276,229	0,088	-0,114
-479,591	-57,665	-0,078	-0,025
-478,576	800,000	-0,026	-0,054
-477,562	206,601	-0,036	0,041
-476,547	-200,000	-0,023	-0,086
-475,532	153,879	-0,104	-0,104
-474,518	-200,000	0,009	0,069
-473,503	188,680	-0,045	0,049
-472,489	-41,379	-0,078	-0,029
-471,474	-101,936	0,077	0,013
-470,459	58,243	-0,017	-0,012
-469,445	141,437	-0,052	-0,050
-468,430	-10,962	0,049	-0,023
-467,416	-200,000	0,005	-0,025
-466,401	-200,000	-0,020	0,073
-465,386	72,009	0,037	-0,028
-464,372	-200,000	0,010	0,081
-463,357	84,255	0,066	-0,053
-462,343	-200,000	-0,013	0,117
-461,328	-29,016	0,010	0,004
-460,313	708,602	0,044	-0,085
-459,299	-200,000	-0,025	0,109
-458,284	109,913	-0,021	0,019
-457,270	142,635	-0,029	0,028
-456,255	87,681	0,051	-0,041
-455,241	-109,126	0,105	0,016
-454,226	-158,475	0,063	-0,003
-453,211	230,309	-0,049	0,059
-452,197	-16,116	0,093	-0,043
-451,182	-61,281	-0,087	0,027
-450,168	-53,804	-0,103	0,034
-449,153	-48,071	-0,052	0,018
-448,138	-93,591	0,021	0,004
-447,124	-200,000	0,005	0,027
-446,109	800,000	0,040	-0,092
-445,095	-200,000	-0,002	0,122
-444,080	37,932	0,100	0,064
-443,065	13,829	-0,119	-0,067
-442,051	-114,819	-0,096	0,013
-441,036	26,435	0,053	-0,032
-440,022	89,421	0,100	0,081
-439,007	800,000	-0,027	-0,066
-437,992	-49,951	-0,080	0,028
-436,978	136,712	0,058	0,055
-435,963	628,747	-0,016	-0,029
-434,949	50,831	-0,122	-0,084
-433,934	519,935	-0,063	-0,109
-432,919	118,847	-0,090	-0,081
-431,905	21,532	-0,057	-0,034
-430,890	-8,597	0,072	0,035
-429,876	383,841	0,104	0,157
-428,861	-200,000	0,006	-0,098
-427,846	-104,537	-0,060	-0,010
-426,832	-114,048	-0,079	0,011
-425,817	-55,396	-0,059	-0,019
-424,803	800,000	-0,025	0,054
-423,788	2,199	0,043	-0,023
-422,773	341,593	-0,035	-0,050
-421,759	-200,000	0,006	-0,104
-420,744	-55,259	0,006	-0,002
-419,730	-136,873	-0,057	-0,005
-418,715	490,822	-0,089	-0,148
-417,701	110,712	0,045	0,039
-416,686	507,183	0,053	0,090
-415,671	107,103	0,104	0,090
-414,657	102,411	0,084	0,071
-413,642	-200,000	-0,015	-0,149
-412,628	245,223	0,019	0,023
-411,613	35,937	-0,121	-0,077
-410,598	-200,000	-0,035	0,158
-409,584	-95,865	0,125	0,024
-408,569	-112,835	-0,073	-0,010
-407,555	-200,000	0,034	0,186
-406,540	-15,912	0,128	-0,059
-405,525	-200,000	-0,026	-0,104
-404,511	759,109	-0,031	-0,061
-403,496	800,000	0,021	-0,058
-402,482	-92,192	-0,085	0,017
-401,467	-100,936	0,044	0,008
-400,452	-200,000	-0,018	0,112
-399,438	110,722	0,069	0,060
-398,423	777,499	0,049	-0,098
-397,409	114,696	0,117	0,104
-396,394	-30,554	0,068	-0,028
-395,379	-25,505	0,029	-0,013
-394,365	-200,000	0,004	0,036
-393,350	-200,000	0,026	0,153
-392,336	-200,000	-0,016	0,051
-391,321	659,803	0,074	0,140
-390,306	-98,603	-0,067	0,012
-389,292	65,703	-0,072	-0,053
-388,277	-200,000	0,013	0,054
-387,263	443,068	0,025	0,039
-386,248	800,000	0,053	0,109
-385,233	444,180	-0,014	0,022
-384,219	-200,000	0,025	-0,158
-383,204	-48,627	-0,046	0,016
-382,190	12,883	-0,078	-0,044
-381,175	800,000	0,041	-0,107
-380,160	69,308	0,034	0,025
-379,146	-40,943	0,062	0,023
-378,131	352,108	0,027	-0,039
-377,117	26,054	-0,093	0,056
-376,102	-74,074	-0,034	-0,009
-375,088	229,387	-0,066	0,079
-374,073	627,287	0,055	-0,101
-373,058	-122,796	0,042	0,005
-372,044	420,640	-0,038	0,059
-371,029	800,000	-0,052	0,108
-370,015	-38,591	0,041	0,016
-369,000	-200,000	0,009	-0,056
-367,985	800,000	0,060	-0,130
-366,971	800,000	0,006	-0,019
-365,956	-200,000	0,004	-0,198
-364,942	800,000	0,023	0,063
-363,927	89,635	0,059	-0,048
-362,912	800,000	0,035	-0,097
-361,898	81,325	-0,016	0,013
-360,883	7,966	-0,021	-0,011
-359,869	35,802	-0,027	0,017
-358,854	-163,227	0,121	-0,004
-357,839	83,423	0,111	-0,088
-356,825	84,308	0,113	0,089
-355,810	-87,804	-0,054	0,012
-354,796	23,011	-0,095	0,057
-353,781	57,586	-0,119	-0,084
-352,766	25,665	0,038	0,023
-351,752	-26,516	-0,099	-0,042
-350,737	-48,825	0,088	0,031
-349,723	153,524	0,018	0,018
-348,708	713,598	-0,059	-0,114
-347,693	300,268	0,089	0,119
-346,679	-200,000	0,026	-0,186
-345,664	97,477	-0,136	-0,114
-344,650	-81,617	0,054	-0,013
-343,635	-200,000	-0,015	0,107
-342,620	312,073	0,043	-0,058
-341,606	-76,155	0,037	0,009
-340,591	176,392	-0,115	0,122
-339,577	318,730	0,048	-0,066
-338,562	199,501	0,120	-0,134
-337,548	305,365	-0,082	0,111
-336,533	62,441	0,096	0,070
-335,518	14,536	0,075	-0,042
-334,504	38,775	0,119	0,077
-333,489	536,091	0,072	0,124
-332,475	-30,362	-0,063	-0,026
-331,460	144,168	0,089	0,086
-330,445	64,219	0,122	0,089
-329,431	70,485	0,108	0,081
-328,416	-200,000	0,006	-0,026
-327,402	-112,696	-0,104	0,015
-326,387	-33,638	-0,140	-0,056
-325,372	800,000	-0,052	-0,159
-324,358	22,508	-0,099	0,059
-323,343	64,939	-0,129	-0,094
-322,329	-200,000	0,205	-0,000
-321,314	2,144	0,042	-0,022
-320,299	-30,261	0,028	0,012
-319,285	-13,691	0,096	-0,045
-318,270	-200,000	0,008	-0,197
-317,256	411,017	0,012	0,018
-316,241	-200,000	-0,005	0,146
-315,226	-99,201	-0,048	-0,009
-314,212	-152,833	0,082	-0,004
-313,197	100,778	-0,061	0,052
-312,183	-200,000	0,074	0,000
-311,168	476,844	-0,026	0,043
-310,153	112,163	0,132	-0,116
-309,139	-200,000	-0,008	-0,033
-308,124	18,921	0,042	0,024
-307,110	-167,566	0,068	0,002
-306,095	20,497	0,119	0,069
-305,080	252,542	-0,020	-0,025
-304,066	6,333	-0,131	0,070
-303,051	275,375	0,038	-0,048
-302,037	-200,000	0,021	-0,106
-301,022	-200,000	-0,012	0,088
-300,008	-149,432	0,061	0,003
-298,993	454,010	0,068	0,110
-297,978	-76,250	-0,071	-0,018
-296,964	-88,419	0,145	0,031
-295,949	800,000	0,039	0,085
-294,935	516,658	-0,019	-0,033
-293,920	800,000	-0,009	0,028
-292,905	479,436	-0,029	-0,047
-291,891	9,746	0,068	0,037
-290,876	87,619	-0,081	0,065
-289,862	-200,000	0,016	0,080
-288,847	-200,000	0,008	0,042
-287,832	-118,216	0,102	0,013
-286,818	-75,112	-0,088	0,023
-285,803	96,318	0,142	0,117
-284,789	3,758	0,098	0,051
-283,774	218,098	0,100	0,116
-282,759	35,319	0,036	0,023
-281,745	764,740	-0,022	-0,043
-280,730	-22,921	-0,162	-0,070
-279,716	301,592	0,047	0,063
-278,701	403,073	0,055	0,084
-277,686	65,315	0,016	0,012
-276,672	58,815	0,072	0,051
-275,657	-110,800	-0,171	0,025
-274,643	-200,000	0,006	0,092
-273,628	-200,000	-0,040	-0,132
-272,613	76,917	0,061	0,047
-271,599	159,704	-0,059	-0,059
-270,584	-81,520	0,151	0,036
-269,570	72,903	0,112	0,085
-268,555	-200,000	0,033	-0,110
-267,540	800,000	-0,088	0,178
-266,526	131,792	0,108	-0,101
-265,511	363,975	-0,017	0,025
-264,497	321,441	0,066	0,091
-263,482	161,163	0,050	-0,050
-262,467	-200,000	-0,013	-0,056
-261,453	-162,979	-0,076	-0,003
-260,438	50,387	-0,058	0,040
-259,424	-200,000	-0,021	-0,127
-258,409	-144,136	0,054	-0,004
-257,395	-192,992	-0,088	-0,001
-256,380	-134,149	0,145	-0,013
-255,365	110,907	-0,048	0,042
-254,351	755,420	-0,040	0,079
-253,336	800,000	-0,070	-0,196
-252,322	-200,000	-0,009	0,032
-251,307	-200,000	-0,017	-0,068
-250,292	-200,000	-0,031	0,113
-249,278	15,740	-0,063	0,036
-248,263	570,303	-0,059	-0,104
-247,249	23,366	-0,031	0,019
-246,234	800,000	-0,058	-0,128
-245,219	-118,731	0,054	-0,007
-244,205	-78,114	0,028	0,007
-243,190	118,240	-0,064	-0,057
-242,176	-71,068	-0,122	-0,033
-241,161	-200,000	-0,012	0,209
-240,146	246,153	0,074	0,091
-239,132	-92,581	0,170	0,034
-238,117	-89,024	-0,123	0,026
-237,103	800,000	-0,089	-0,182
-236,088	800,000	0,029	0,058
-235,073	-200,000	-0,011	0,108
-234,059	150,883	-0,080	0,079
-233,044	-168,217	0,020	-0,001
-232,030	-5,950	-0,129	0,064
-231,015	109,807	-0,094	-0,082
-230,000	-200,000	-0,011	-0,036
-228,986	-130,524	-0,216	0,021
-227,971	800,000	0,033	0,071
-226,957	-38,342	0,066	-0,025
-225,942	-200,000	-0,015	0,173
-224,927	-107,090	-0,036	-0,006
-223,913	-71,158	-0,149	-0,040
-222,898	371,871	-0,069	-0,102
-221,884	-173,808	0,133	0,003
-220,869	-200,000	-0,023	-0,098
-219,855	154,432	0,083	0,082
-218,840	200,769	0,041	0,045
-217,825	-107,225	-0,130	-0,020
-216,811	89,314	-0,081	-0,065
-215,796	800,000	0,031	0,071
-214,782	800,000	-0,039	-0,092
-213,767	-200,000	-0,006	0,041
-212,752	-200,000	0,017	0,107
-211,738	-200,000	0,006	0,212
-210,723	312,590	0,089	-0,121
-209,709	-48,133	-0,164	0,057
-208,694	-200,000	-0,011	-0,069
-207,679	-200,000	0,025	-0,159
-206,665	42,445	0,053	0,035
-205,650	209,661	0,036	0,040
-204,636	-200,000	0,010	0,100
-203,621	800,000	0,042	0,102
-202,606	-53,086	-0,092	-0,030
-201,592	-114,314	-0,007	-0,001
-200,577	72,502	-0,069	0,052
-199,563	-128,499	-0,201	-0,020
-198,548	-42,846	-0,070	-0,026
-197,533	-47,396	-0,055	-0,019
-196,519	359,884	0,062	-0,090
-195,504	360,161	0,050	0,072
-194,490	106,095	-0,049	0,042
-193,475	639,004	-0,035	-0,065
-192,460	-86,527	-0,079	-0,017
-191,446	-200,000	0,012	0,061
-190,431	-75,958	0,104	-0,026
-189,417	355,698	0,052	-0,075
-188,402	-112,375	-0,084	-0,012
-187,387	779,582	-0,052	-0,104
-186,373	-200,000	-0,014	-0,065
-185,358	92,429	-0,044	0,035
-184,344	-104,718	0,213	-0,035
-183,329	-200,000	0,002	0,016
-182,315	-200,000	-0,003	0,028
-181,300	324,817	-0,096	-0,133
-180,285	551,919	0,051	-0,089
-179,271	46,833	0,102	-0,068
-178,256	-54,644	-0,075	0,024
-177,242	-200,000	-0,016	0,144
-176,227	-200,000	0,016	-0,092
-175,212	138,562	0,077	0,073
-174,198	148,168	0,052	0,051
-173,183	177,939	0,062	-0,066
-172,169	-200,000	0,026	-0,148
-171,154	249,709	-0,011	0,013
-170,139	800,000	0,034	0,073
-169,125	566,880	0,025	-0,044
-168,110	-200,000	0,031	0,123
-167,096	5,662	0,099	0,052
-166,081	-52,543	-0,117	-0,039
-165,066	308,371	-0,035	-0,048
-164,052	-99,698	0,036	-0,006
-163,037	729,457	0,067	0,129
-162,023	-200,000	0,001	0,084
-161,008	800,000	0,064	-0,151
-159,993	18,703	0,103	0,059
-158,979	288,144	0,064	0,084
-157,964	201,975	-0,060	-0,067
-156,950	432,827	-0,034	0,054
-155,935	-200,000	0,013	0,099
-154,920	800,000	0,013	0,028
-153,906	-43,905	0,159	0,057
-152,891	800,000	0,017	-0,041
-151,877	256,581	-0,054	-0,067
-150,862	111,308	-0,030	0,026
-149,847	-200,000	0,019	-0,148
-148,833	-200,000	-0,026	-0,100
-147,818	283,310	-0,095	0,123
-146,804	84,051	0,085	0,067
-145,789	-141,056	0,083	0,006
-144,775	-156,863	0,129	0,006
-143,760	800,000	-0,011	0,032
-142,745	-200,000	-0,005	0,024
-141,731	245,230	-0,100	-0,121
-140,716	-151,546	0,097	-0,005
-139,702	-1,361	0,058	0,029
-138,687	-67,212	-0,117	0,033
-137,672	-200,000	-0,024	-0,102
-136,658	800,000	-0,028	0,067
-135,643	-184,334	-0,055	0,001
-134,629	186,682	0,105	-0,113
-133,614	-131,789	0,057	-0,005
-132,599	-57,593	0,100	-0,031
-131,585	-200,000	-0,001	0,014
-130,570	560,977	-0,022	0,039
-129,556	-101,950	0,087	-0,015
-128,541	196,934	-0,071	-0,078
-127,526	180,616	0,077	0,082
-126,512	766,493	-0,044	0,086
-125,497	-200,000	-0,002	0,097
-124,483	-56,576	-0,178	0,056
-123,468	-38,728	0,049	0,018
-122,453	477,225	-0,038	-0,062
-121,439	-139,046	-0,168	-0,013
-120,424	92,606	0,035	0,028
-119,410	-168,493	0,049	-0,001
