DTS Sentinel unit serial number:	SN410029Multiplexer serial number:	ORYXHardware model number:	OX2-SRSoftware version number:	ORYX F/W v4,00 Oryx Data Collector v3.7.2.0data status	okinstallation	B6 Nyhavnadifferential loss correction	single-endedforward channel	channel 2reverse channel	N/Adate	2023/12/10time	11:30:08forward acquisition time	300,00reverse acquisition time	0,00gamma	499,1914k internal	0,3123k external	0,3123temperature offset calibration	1,0000default loss term (dB/km)	0,3820temperature slope calibration	1,0000multiplexer offset coefficient	1,0000multiplexer slope coefficient	1,0000fibre end	0,00T internal ref (°C)	22,67T ext. ref 1 (°C)	6,58T ext. ref 2 (°C)	6,59length (m)	temperature (°C)	Stokes	anti-Stokes-744,400	46,549	0,197	-0,136
-743,385	-140,678	-0,162	-0,012
-742,371	-110,489	0,101	0,015
-741,356	-173,469	-0,161	0,004
-740,342	-64,747	0,051	0,015
-739,327	-70,614	-0,351	0,098
-738,312	-72,522	-0,172	0,047
-737,298	-32,651	-0,259	0,107
-736,283	-54,071	0,094	-0,032
-735,269	609,248	-0,129	0,242
-734,254	-200,000	-0,007	-0,110
-733,239	-26,482	-0,438	-0,191
-732,225	-51,970	0,054	-0,019
-731,210	-9,552	0,089	0,044
-730,196	-33,566	0,076	0,031
-729,181	147,567	0,072	-0,072
-728,167	-172,280	-0,090	0,002
-727,152	-200,000	-0,003	-0,029
-726,137	-200,000	-0,023	0,094
-725,123	-200,000	0,013	-0,071
-724,108	141,676	-0,102	-0,101
-723,094	800,000	0,043	-0,113
-722,079	118,419	-0,013	-0,012
-721,064	75,661	0,055	-0,043
-720,050	800,000	0,056	0,131
-719,035	208,226	0,051	-0,059
-718,021	-200,000	-0,027	0,089
-717,006	-200,000	0,014	-0,207
-715,991	-200,000	-0,030	-0,110
-714,977	228,978	-0,035	0,042
-713,962	-6,008	-0,088	0,044
-712,948	-25,636	-0,139	-0,061
-711,933	-184,843	0,022	0,000
-710,918	-200,000	0,015	-0,103
-709,904	-200,000	-0,018	-0,112
-708,889	-200,000	0,016	-0,111
-707,875	261,724	-0,139	-0,180
-706,860	153,748	0,053	0,055
-705,845	800,000	-0,042	-0,103
-704,831	-200,000	-0,015	0,117
-703,816	-21,975	0,109	-0,049
-702,802	800,000	-0,040	-0,103
-701,787	552,678	-0,090	-0,162
-700,772	-200,000	-0,019	-0,088
-699,758	270,193	-0,120	-0,157
-698,743	182,483	0,043	0,047
-697,729	527,402	-0,105	0,185
-696,714	175,167	0,052	0,056
-695,699	10,877	-0,107	-0,060
-694,685	274,448	-0,050	-0,066
-693,670	-31,015	-0,115	-0,048
-692,656	-43,690	0,109	-0,041
-691,641	144,991	0,038	-0,038
-690,627	-200,000	0,002	0,034
-689,612	-33,817	-0,116	-0,047
-688,597	-53,300	-0,083	-0,028
-687,583	-200,000	-0,005	0,147
-686,568	-48,515	-0,109	-0,039
-685,554	-93,285	-0,127	-0,026
-684,539	-120,786	-0,051	0,006
-683,524	92,082	-0,125	-0,105
-682,510	-184,704	0,137	0,002
-681,495	-5,127	-0,071	0,036
-680,481	10,463	-0,052	-0,029
-679,466	-197,682	-0,254	0,001
-678,451	-200,000	0,001	-0,010
-677,437	-36,950	0,047	-0,019
-676,422	170,563	-0,055	-0,059
-675,408	113,276	0,034	0,031
-674,393	145,944	-0,011	-0,011
-673,378	800,000	0,013	0,028
-672,364	-200,000	-0,001	-0,038
-671,349	319,935	-0,058	-0,082
-670,335	89,030	0,025	-0,021
-669,320	-99,828	0,088	0,016
-668,305	-200,000	-0,005	-0,028
-667,291	-98,033	-0,136	0,026
-666,276	-200,000	0,004	-0,079
-665,262	-200,000	-0,007	-0,093
-664,247	-12,664	0,044	-0,021
-663,232	-200,000	0,002	0,129
-662,218	-200,000	0,007	-0,102
-661,203	243,993	-0,069	-0,086
-660,189	62,054	-0,077	-0,057
-659,174	-113,368	-0,053	-0,008
-658,159	21,361	-0,158	-0,095
-657,145	-200,000	-0,041	-0,252
-656,130	245,990	0,080	-0,100
-655,116	227,807	0,079	-0,095
-654,101	2,192	0,052	-0,028
-653,086	-200,000	-0,025	0,085
-652,072	800,000	0,019	-0,048
-651,057	45,796	-0,124	-0,085
-650,043	258,528	-0,045	0,058
-649,028	178,003	0,053	0,057
-648,014	-200,000	0,010	0,067
-646,999	97,182	0,032	-0,027
-645,984	144,044	-0,087	-0,086
-644,970	43,120	-0,164	-0,111
-643,955	-39,911	-0,217	0,084
-642,941	-35,452	0,087	-0,035
-641,926	133,957	0,073	0,070
-640,911	77,871	-0,031	0,024
-639,897	-180,824	0,138	0,002
-638,882	-200,000	-0,016	-0,068
-637,868	-23,036	-0,064	-0,029
-636,853	-124,952	-0,054	-0,006
-635,838	-200,000	0,000	-0,039
-634,824	800,000	-0,030	-0,067
-633,809	-200,000	0,014	0,090
-632,795	180,524	-0,092	-0,100
-631,780	-200,000	-0,029	0,100
-630,765	541,781	-0,011	0,019
-629,751	291,830	-0,044	-0,060
-628,736	107,917	-0,101	-0,089
-627,722	53,046	-0,103	-0,073
-626,707	369,156	0,022	-0,033
-625,692	-200,000	-0,005	-0,158
-624,678	-122,870	-0,081	-0,010
-623,663	-200,000	-0,022	0,081
-622,649	93,017	-0,031	-0,026
-621,634	-200,000	-0,004	-0,026
-620,619	-200,000	0,002	-0,038
-619,605	-137,851	-0,025	-0,002
-618,590	-122,890	0,082	0,010
-617,576	-92,083	-0,058	0,012
-616,561	-55,988	0,090	-0,029
-615,546	-78,437	-0,128	-0,032
-614,532	-119,590	-0,118	-0,015
-613,517	-91,489	-0,090	-0,019
-612,503	-200,000	-0,016	-0,081
-611,488	-200,000	-0,017	0,091
-610,474	-84,034	0,111	0,026
-609,459	378,810	0,036	0,055
-608,444	240,275	-0,058	-0,072
-607,430	-200,000	-0,028	-0,123
-606,415	119,502	-0,080	0,073
-605,401	-200,000	-0,017	-0,094
-604,386	590,107	-0,034	0,062
-603,371	-200,000	-0,004	0,023
-602,357	-200,000	0,004	-0,021
-601,342	-107,572	-0,067	-0,011
-600,328	39,200	-0,089	-0,059
-599,313	-200,000	0,022	-0,071
-598,298	335,377	-0,030	-0,043
-597,284	265,735	-0,055	0,071
-596,269	-200,000	-0,057	-0,200
-595,255	381,281	-0,081	-0,123
-594,240	593,293	-0,058	-0,106
-593,225	-200,000	0,005	0,042
-592,211	-7,077	0,111	0,056
-591,196	-200,000	0,007	0,042
-590,182	-47,491	-0,119	-0,043
-589,167	413,492	0,048	-0,076
-588,152	-100,947	-0,027	-0,005
-587,138	196,095	-0,035	-0,039
-586,123	8,317	-0,161	0,090
-585,109	40,540	-0,085	-0,057
-584,094	-14,602	0,081	0,039
-583,079	800,000	-0,051	0,124
-582,065	-74,783	0,077	0,020
-581,050	119,715	0,053	-0,049
-580,036	476,669	-0,029	-0,049
-579,021	-32,338	-0,080	-0,033
-578,006	41,167	-0,139	-0,093
-576,992	31,365	-0,114	-0,072
-575,977	-88,883	0,060	0,013
-574,963	-200,000	-0,011	0,039
-573,948	-200,000	0,018	0,069
-572,934	-91,958	-0,063	0,013
-571,919	42,434	0,048	-0,032
-570,904	-128,500	0,139	-0,014
-569,890	249,309	0,011	0,014
-568,875	65,587	-0,035	-0,026
-567,861	501,972	0,015	0,026
-566,846	-34,464	-0,031	-0,012
-565,831	550,576	0,022	-0,039
-564,817	-55,942	-0,005	-0,002
-563,802	800,000	0,046	-0,124
-562,788	444,165	-0,035	0,058
-561,773	299,403	0,117	-0,160
-560,758	-49,492	0,115	0,040
-559,744	800,000	-0,047	-0,117
-558,729	-92,504	-0,035	-0,007
-557,715	-200,000	-0,005	-0,022
-556,700	-108,825	-0,246	-0,038
-555,685	-168,082	-0,121	-0,003
-554,671	40,742	0,064	-0,043
-553,656	-200,000	-0,005	0,034
-552,642	-9,065	-0,066	0,033
-551,627	-17,298	0,063	-0,029
-550,612	-18,427	-0,037	0,017
-549,598	800,000	-0,044	-0,094
-548,583	125,835	0,119	-0,112
-547,569	-152,988	0,071	-0,004
-546,554	794,590	0,067	0,137
-545,539	181,194	0,083	-0,091
-544,525	149,145	0,095	0,095
-543,510	-143,024	0,065	-0,005
-542,496	-33,519	-0,101	-0,041
-541,481	448,514	-0,046	-0,076
-540,466	-23,066	0,095	0,042
-539,452	-200,000	-0,015	0,102
-538,437	-200,000	0,006	0,093
-537,423	-200,000	-0,017	-0,087
-536,408	-200,000	0,013	-0,070
-535,393	-200,000	0,046	-0,238
-534,379	82,669	0,055	0,044
-533,364	-200,000	0,005	-0,101
-532,350	-9,531	0,044	0,022
-531,335	695,967	-0,089	0,174
-530,321	-200,000	0,005	0,124
-529,306	-105,647	0,160	0,026
-528,291	-33,129	0,032	0,013
-527,277	-111,223	0,021	0,003
-526,262	224,755	0,027	0,033
-525,248	-200,000	0,010	0,079
-524,233	-86,784	0,050	0,011
-523,218	154,318	-0,078	-0,080
-522,204	55,564	-0,063	0,045
-521,189	-17,873	-0,174	-0,080
-520,175	78,277	-0,076	0,060
-519,160	170,792	-0,025	0,026
-518,145	800,000	-0,030	-0,085
-517,131	-130,554	0,046	0,005
-516,116	-108,545	0,026	-0,004
-515,102	-168,621	0,072	0,002
-514,087	3,079	-0,118	-0,063
-513,072	-17,143	0,074	-0,034
-512,058	-66,257	-0,105	-0,031
-511,043	199,962	0,077	-0,087
-510,029	-84,457	0,097	0,022
-509,014	-200,000	-0,006	0,027
-507,999	-200,000	0,017	0,072
-506,985	46,171	0,103	0,070
-505,970	-16,540	0,094	-0,044
-504,956	800,000	0,032	-0,090
-503,941	226,854	-0,022	0,026
-502,926	-6,840	-0,106	-0,053
-501,912	5,407	-0,094	0,051
-500,897	-90,187	-0,042	-0,009
-499,883	39,971	0,047	-0,031
-498,868	-141,107	-0,085	0,006
-497,853	-104,744	-0,173	0,029
-496,839	-146,370	-0,063	0,004
-495,824	-23,289	-0,094	0,042
-494,810	29,083	0,031	-0,019
-493,795	800,000	0,036	0,087
-492,781	172,755	-0,033	0,035
-491,766	-8,802	-0,055	-0,027
-490,751	298,428	-0,045	-0,061
-489,737	-89,654	-0,086	-0,018
-488,722	199,556	0,041	0,046
-487,708	166,123	0,055	0,057
-486,693	369,585	-0,021	0,031
-485,678	-200,000	0,007	-0,093
-484,664	314,914	-0,018	-0,026
-483,649	221,773	-0,029	-0,035
-482,635	800,000	-0,073	0,171
-481,620	549,713	-0,042	-0,074
-480,605	238,021	0,084	0,103
-479,591	136,747	0,131	0,126
-478,576	-200,000	-0,004	-0,047
-477,562	632,373	-0,031	-0,057
-476,547	473,697	-0,056	-0,094
-475,532	-200,000	-0,002	-0,055
-474,518	26,072	0,112	-0,069
-473,503	800,000	0,034	0,097
-472,489	22,905	0,040	0,024
-471,474	-200,000	0,011	0,093
-470,459	191,184	0,011	-0,012
-469,445	-200,000	0,037	-0,143
-468,430	-200,000	-0,019	-0,109
-467,416	-120,371	-0,112	0,014
-466,401	398,405	0,062	-0,096
-465,386	143,718	0,040	-0,039
-464,372	-200,000	0,007	0,039
-463,357	-101,153	-0,111	-0,020
-462,343	800,000	-0,032	-0,081
-461,328	-200,000	0,007	-0,244
-460,313	-49,583	-0,134	-0,047
-459,299	323,235	0,090	-0,127
-458,284	800,000	0,043	0,097
-457,270	365,041	-0,058	0,086
-456,255	118,295	0,027	0,025
-455,241	436,795	-0,030	-0,048
-454,226	40,353	-0,099	-0,066
-453,211	-200,000	-0,009	-0,103
-452,197	-118,497	0,130	0,017
-451,182	-200,000	0,013	0,091
-450,168	172,999	-0,098	-0,104
-449,153	264,840	-0,085	-0,110
-448,138	611,231	-0,016	-0,029
-447,124	-107,262	0,017	-0,003
-446,109	124,448	0,054	-0,050
-445,095	-115,639	0,085	-0,012
-444,080	76,948	0,133	0,104
-443,065	262,309	-0,067	0,086
-442,051	485,746	0,027	0,046
-441,036	-200,000	-0,002	-0,020
-440,022	800,000	0,045	-0,102
-439,007	-164,568	0,060	-0,002
-437,992	3,853	0,089	-0,048
-436,978	-200,000	0,012	0,074
-435,963	356,674	0,087	0,128
-434,949	-200,000	-0,019	-0,087
-433,934	273,948	0,093	-0,121
-432,919	365,343	0,089	0,132
-431,905	-52,757	0,100	0,034
-430,890	-193,581	-0,013	0,000
-429,876	800,000	-0,043	0,095
-428,861	398,557	0,025	0,038
-427,846	-99,011	-0,036	0,007
-426,832	30,441	-0,096	-0,060
-425,817	230,574	-0,059	0,072
-424,803	53,413	0,097	-0,068
-423,788	-61,849	0,110	0,034
-422,773	296,477	-0,060	-0,081
-421,759	102,027	-0,047	0,040
-420,744	349,226	0,094	0,136
-419,730	-98,113	-0,216	-0,040
-418,715	311,276	-0,048	-0,067
-417,701	-200,000	-0,051	-0,260
-416,686	76,627	0,030	0,024
-415,671	-200,000	0,035	-0,124
-414,657	181,916	-0,020	-0,022
-413,642	-82,451	-0,135	0,032
-412,628	346,393	0,031	-0,045
-411,613	-200,000	-0,007	0,050
-410,598	-62,361	0,133	-0,041
-409,584	16,190	0,091	-0,052
-408,569	-200,000	-0,001	-0,029
-407,555	-200,000	-0,029	0,154
-406,540	414,790	-0,042	-0,066
-405,525	-200,000	0,004	0,031
-404,511	6,648	0,047	0,026
-403,496	-200,000	-0,001	0,102
-402,482	-200,000	0,002	0,042
-401,467	378,767	-0,027	-0,041
-400,452	567,058	0,018	-0,031
-399,438	-187,772	-0,007	0,000
-398,423	99,780	-0,038	0,033
-397,409	-53,936	-0,106	-0,035
-396,394	-114,877	0,074	-0,010
-395,379	371,743	0,068	-0,102
-394,365	395,254	0,032	-0,050
-393,350	-200,000	-0,036	0,141
-392,336	-91,168	0,113	-0,024
-391,321	68,633	0,074	0,056
-390,306	262,692	0,045	0,057
-389,292	-93,934	-0,109	-0,022
-388,277	567,623	-0,086	-0,154
-387,263	-200,000	0,034	-0,135
-386,248	-160,764	0,078	0,003
-385,233	-68,890	-0,157	0,044
-384,219	-23,998	-0,116	-0,051
-383,204	-82,618	0,241	0,057
-382,190	-200,000	0,024	-0,093
-381,175	333,907	0,030	-0,042
-380,160	113,102	0,053	0,047
-379,146	40,743	-0,044	0,029
-378,131	800,000	0,074	0,165
-377,117	440,629	0,050	-0,080
-376,102	-149,190	0,083	-0,005
-375,088	141,544	-0,082	-0,080
-374,073	297,171	-0,023	-0,031
-373,058	-97,475	-0,043	-0,008
-372,044	800,000	0,041	0,115
-371,029	1,426	-0,148	0,078
-370,015	800,000	0,035	0,091
-369,000	-71,062	0,120	-0,033
-367,985	-75,107	-0,156	0,041
-366,971	193,729	0,090	0,100
-365,956	-200,000	0,010	0,056
-364,942	344,562	0,116	0,167
-363,927	800,000	0,074	0,174
-362,912	123,753	-0,089	-0,082
-361,898	-200,000	-0,006	0,059
-360,883	-200,000	-0,013	0,162
-359,869	-67,403	0,060	0,017
-358,854	27,786	0,075	0,046
-357,839	98,020	0,082	0,069
-356,825	-200,000	0,056	0,207
-355,810	-200,000	0,026	-0,125
-354,796	273,844	-0,066	0,087
-353,781	800,000	0,017	-0,049
-352,766	-200,000	0,006	-0,098
-351,752	19,406	-0,041	0,024
-350,737	-36,836	0,072	0,028
-349,723	613,280	-0,065	0,119
-348,708	-55,258	0,199	0,065
-347,693	27,175	-0,060	0,037
-346,679	41,317	0,083	0,055
-345,664	-200,000	0,014	-0,089
-344,650	151,890	-0,054	0,054
-343,635	93,369	0,090	-0,075
-342,620	-200,000	-0,029	0,117
-341,606	249,740	-0,113	0,141
-340,591	-200,000	-0,003	0,018
-339,577	800,000	-0,019	0,040
-338,562	155,597	-0,102	0,103
-337,548	-135,003	0,136	0,012
-336,533	-29,699	-0,093	0,039
-335,518	-90,510	0,126	-0,027
-334,504	800,000	-0,028	0,076
-333,489	800,000	0,042	0,116
-332,475	252,101	-0,022	0,028
-331,460	72,734	0,048	0,037
-330,445	-93,876	-0,074	0,015
-329,431	4,675	-0,100	0,054
-328,416	27,053	0,032	0,020
-327,402	-11,126	0,056	-0,027
-326,387	-110,279	0,042	0,006
-325,372	-200,000	0,004	0,018
-324,358	-200,000	-0,031	-0,109
-323,343	800,000	-0,035	-0,089
-322,329	-104,459	0,173	0,029
-321,314	-124,346	0,044	0,005
-320,299	-74,156	0,101	0,026
-319,285	800,000	-0,014	-0,034
-318,270	-200,000	0,009	-0,055
-317,256	197,123	-0,056	-0,062
-316,241	-92,243	0,138	-0,028
-315,226	-200,000	-0,012	0,130
-314,212	-90,160	0,108	0,023
-313,197	299,532	0,041	0,056
-312,183	-11,386	-0,126	0,060
-311,168	-181,426	-0,064	-0,001
-310,153	-112,600	-0,086	0,012
-309,139	444,663	0,026	0,041
-308,124	-123,112	0,092	-0,011
-307,110	800,000	0,031	-0,086
-306,095	-156,515	0,114	0,005
-305,080	-5,805	0,105	-0,052
-304,066	87,176	0,025	-0,020
-303,051	478,126	-0,068	-0,112
-302,037	-200,000	-0,009	0,155
-301,022	112,239	0,051	0,045
-300,008	3,708	0,144	-0,077
-298,993	-67,434	0,116	0,033
-297,978	349,871	-0,055	0,080
-296,964	246,388	0,029	0,036
-295,949	24,184	-0,066	0,040
-294,935	800,000	-0,016	-0,042
-293,920	800,000	-0,023	-0,057
-292,905	-93,962	0,083	-0,017
-291,891	-181,477	0,181	0,003
-290,876	23,315	0,117	-0,070
-289,862	-200,000	-0,013	0,111
-288,847	122,043	-0,024	-0,022
-287,832	-32,291	0,097	0,040
-286,818	800,000	-0,026	-0,060
-285,803	-50,085	0,102	-0,035
-284,789	-23,646	0,042	-0,018
-283,774	185,557	0,038	0,041
-282,759	-200,000	-0,002	0,052
-281,745	-200,000	0,001	-0,056
-280,730	-153,477	-0,181	0,009
-279,716	-106,567	-0,110	-0,018
-278,701	301,217	-0,012	0,016
-277,686	112,356	0,147	0,130
-276,672	-200,000	0,016	0,147
-275,657	800,000	0,037	-0,080
-274,643	-200,000	-0,023	0,074
-273,628	-15,047	-0,066	0,031
-272,613	-88,281	0,109	0,024
-271,599	63,946	0,044	0,032
-270,584	-200,000	-0,013	0,082
-269,570	800,000	0,044	0,125
-268,555	-126,606	0,214	-0,023
-267,540	-135,875	0,073	-0,006
-266,526	282,898	-0,039	-0,051
-265,511	477,846	0,075	0,125
-264,497	800,000	0,019	0,057
-263,482	25,639	0,021	-0,013
-262,467	27,439	0,076	-0,046
-261,453	128,574	0,077	-0,072
-260,438	171,668	0,070	0,073
-259,424	-41,783	0,063	-0,023
-258,409	290,096	-0,054	-0,072
-257,395	-145,851	-0,082	0,005
-256,380	56,536	0,062	-0,044
-255,365	800,000	-0,041	0,094
-254,351	-200,000	0,004	0,033
-253,336	-200,000	0,015	0,061
-252,322	408,024	0,063	-0,098
-251,307	800,000	0,039	-0,119
-250,292	130,732	0,059	0,055
-249,278	-77,194	-0,126	0,032
-248,263	-31,217	-0,071	-0,029
-247,249	800,000	0,034	-0,082
-246,234	76,010	0,009	-0,007
-245,219	-81,912	-0,070	-0,017
-244,205	-7,305	0,161	0,079
-243,190	-36,595	-0,037	-0,015
-242,176	-66,795	-0,101	0,029
-241,161	-200,000	0,019	0,070
-240,146	-118,917	0,062	0,008
-239,132	-200,000	-0,021	-0,091
-238,117	-127,445	-0,105	0,011
-237,103	-15,289	0,089	-0,042
-236,088	800,000	0,036	0,084
-235,073	-200,000	0,002	0,023
-234,059	800,000	-0,015	0,032
-233,044	-40,779	0,047	0,018
-232,030	92,995	-0,076	-0,062
-231,015	188,262	0,060	0,066
-230,000	800,000	-0,052	-0,167
-228,986	-135,793	-0,061	0,005
-227,971	231,326	0,037	-0,044
-226,957	800,000	-0,017	-0,038
-225,942	-200,000	0,008	0,039
-224,927	-61,771	-0,051	-0,016
-223,913	425,886	-0,093	-0,147
-222,898	-20,179	0,128	-0,058
-221,884	-200,000	-0,013	-0,084
-220,869	-200,000	0,007	0,092
-219,855	153,570	-0,022	0,022
-218,840	-200,000	0,013	0,149
-217,825	259,096	-0,045	0,057
-216,811	296,475	-0,061	0,082
-215,796	185,328	-0,076	-0,082
-214,782	800,000	0,055	-0,116
-213,767	376,451	0,075	0,112
-212,752	-130,863	-0,047	0,005
-211,738	5,423	0,018	-0,009
-210,723	-64,131	-0,099	0,029
-209,709	391,761	0,078	-0,119
-208,694	148,152	-0,143	-0,141
-207,679	-200,000	0,013	-0,193
-206,665	-123,208	0,065	-0,008
-205,650	37,159	0,028	0,018
-204,636	-200,000	0,007	0,099
-203,621	-8,161	0,117	-0,057
-202,606	-200,000	0,000	-0,047
-201,592	-200,000	0,039	-0,144
-200,577	-200,000	-0,015	0,064
-199,563	-118,201	0,133	-0,017
-198,548	-126,298	0,036	-0,004
-197,533	32,846	0,014	0,009
-196,519	-130,187	-0,058	0,006
-195,504	632,293	-0,029	0,053
-194,490	-55,387	-0,117	0,038
-193,475	-200,000	-0,021	-0,133
-192,460	-38,064	-0,214	0,083
-191,446	267,834	0,078	0,099
-190,431	-123,784	-0,043	-0,005
-189,417	630,019	0,051	0,094
-188,402	-58,840	-0,038	0,012
-187,387	-11,783	-0,129	-0,061
-186,373	-140,928	0,066	0,005
-185,358	-200,000	0,003	0,020
-184,344	-200,000	0,008	-0,128
-183,329	46,271	-0,097	-0,065
-182,315	758,622	-0,079	0,157
-181,300	-200,000	-0,015	0,099
-180,285	123,724	-0,066	-0,061
-179,271	106,731	0,062	-0,053
-178,256	-25,949	-0,071	-0,030
-177,242	153,315	-0,020	-0,020
-176,227	-132,302	0,120	0,011
-175,212	-43,799	-0,019	0,007
-174,198	-200,000	-0,014	0,090
-173,183	-200,000	-0,005	-0,066
-172,169	-200,000	0,005	-0,148
-171,154	800,000	-0,030	-0,085
-170,139	-130,794	-0,123	-0,012
-169,125	-200,000	-0,017	0,103
-168,110	555,871	0,082	0,145
-167,096	757,163	0,068	0,135
-166,081	-94,491	-0,072	-0,014
-165,066	-200,000	-0,009	-0,146
-164,052	-200,000	0,006	0,137
-163,037	-200,000	0,038	0,152
-162,023	800,000	-0,011	0,029
-161,008	240,984	-0,067	0,082
-159,993	-200,000	-0,002	0,034
-158,979	-133,541	-0,076	-0,007
-157,964	-73,526	-0,056	0,015
-156,950	-139,822	-0,142	0,011
-155,935	-200,000	-0,005	0,061
-154,920	225,392	0,105	0,124
-153,906	800,000	-0,042	0,092
-152,891	-48,355	-0,088	0,031
-151,877	-200,000	-0,006	0,026
-150,862	800,000	0,033	-0,069
-149,847	-200,000	0,014	-0,098
-148,833	-200,000	0,007	-0,027
-147,818	-125,365	0,113	0,012
-146,804	-200,000	-0,139	0,000
-145,789	-173,059	0,180	-0,004
-144,775	800,000	0,025	-0,073
-143,760	336,209	-0,085	-0,120
-142,745	100,531	0,101	-0,086
-141,731	-58,124	0,111	0,035
-140,716	155,837	0,101	-0,101
-139,702	-5,075	0,045	0,023
-138,687	177,684	-0,132	0,140
-137,672	67,232	0,068	0,051
-136,658	-99,272	-0,038	-0,007
-135,643	-200,000	-0,002	-0,117
-134,629	-200,000	-0,002	0,025
-133,614	-67,084	0,213	-0,061
-132,599	11,621	-0,038	0,021
-131,585	9,303	-0,060	-0,033
-130,570	486,378	-0,070	0,117
-129,556	100,243	-0,067	0,056
-128,541	-124,411	-0,090	-0,010
-127,526	-40,689	0,063	0,024
-126,512	-108,458	0,037	0,006
-125,497	394,948	0,068	-0,103
-124,483	-172,918	0,036	-0,001
-123,468	-120,765	-0,112	0,014
-122,453	201,654	0,056	-0,063
-121,439	-200,000	0,012	-0,122
-120,424	169,063	-0,045	0,047
