DTS Sentinel unit serial number:	SN410029Multiplexer serial number:	ORYXHardware model number:	OX2-SRSoftware version number:	ORYX F/W v4,00 Oryx Data Collector v3.7.2.0data status	okinstallation	B6 Nyhavnadifferential loss correction	single-endedforward channel	channel 2reverse channel	N/Adate	2023/12/09time	12:55:08forward acquisition time	300,00reverse acquisition time	0,00gamma	499,1914k internal	0,3137k external	0,3137temperature offset calibration	1,0000default loss term (dB/km)	0,3820temperature slope calibration	1,0000multiplexer offset coefficient	1,0000multiplexer slope coefficient	1,0000fibre end	0,00T internal ref (°C)	19,70T ext. ref 1 (°C)	4,45T ext. ref 2 (°C)	4,43length (m)	temperature (°C)	Stokes	anti-Stokes-744,400	247,289	-0,087	-0,109
-743,385	80,536	-0,104	-0,083
-742,371	-200,000	-0,009	0,063
-741,356	-40,564	-0,232	0,089
-740,342	5,596	-0,045	-0,024
-739,327	3,506	-0,285	0,154
-738,312	240,686	0,091	-0,112
-737,298	-76,905	-0,354	0,091
-736,283	-6,683	0,132	-0,066
-735,269	-168,163	-0,255	-0,007
-734,254	-61,911	0,085	-0,026
-733,239	-16,212	-0,454	-0,213
-732,225	-62,947	0,194	0,059
-731,210	800,000	0,037	0,119
-730,196	448,378	-0,059	-0,097
-729,181	-200,000	-0,000	-0,062
-728,167	-200,000	0,010	0,076
-727,152	227,733	0,021	0,025
-726,137	18,087	-0,140	-0,083
-725,123	-72,368	0,059	0,016
-724,108	-84,810	-0,136	0,031
-723,094	-127,261	0,034	0,004
-722,079	800,000	-0,031	-0,087
-721,064	-73,243	-0,037	-0,010
-720,050	-176,077	-0,178	0,003
-719,035	53,054	-0,048	-0,034
-718,021	-200,000	-0,011	0,061
-717,006	-200,000	0,008	0,055
-715,991	318,982	-0,053	-0,075
-714,977	-26,462	-0,090	-0,039
-713,962	-200,000	-0,015	-0,140
-712,948	-88,613	0,083	-0,018
-711,933	800,000	-0,029	-0,083
-710,918	-200,000	0,000	-0,022
-709,904	424,278	-0,091	-0,145
-708,889	-200,000	0,029	-0,188
-707,875	-200,000	0,015	-0,063
-706,860	161,167	0,023	0,023
-705,845	-200,000	-0,006	0,079
-704,831	44,159	-0,185	-0,125
-703,816	-44,284	-0,155	0,057
-702,802	152,963	-0,097	-0,099
-701,787	-42,231	-0,089	0,034
-700,772	301,715	-0,036	0,050
-699,758	-130,305	-0,104	-0,010
-698,743	12,831	0,037	-0,021
-697,729	-200,000	0,022	-0,089
-696,714	-89,657	-0,009	-0,002
-695,699	186,983	-0,028	-0,030
-694,685	-104,646	0,103	-0,017
-693,670	12,821	-0,177	-0,101
-692,656	680,746	-0,050	-0,096
-691,641	86,695	-0,058	-0,048
-690,627	-200,000	-0,017	-0,071
-689,612	22,663	-0,043	-0,026
-688,597	-200,000	-0,010	-0,048
-687,583	654,635	-0,053	-0,101
-686,568	147,467	-0,122	-0,122
-685,554	-200,000	-0,010	-0,045
-684,539	-168,239	0,067	0,002
-683,524	-6,205	0,066	-0,033
-682,510	-114,393	-0,108	0,015
-681,495	-200,000	0,001	-0,018
-680,481	175,945	0,147	-0,158
-679,466	-38,661	-0,133	-0,052
-678,451	785,565	-0,042	-0,085
-677,437	800,000	0,046	-0,108
-676,422	8,487	-0,036	0,020
-675,408	-75,019	-0,109	0,029
-674,393	-11,351	0,062	-0,030
-673,378	-200,000	-0,021	-0,176
-672,364	-200,000	-0,003	0,041
-671,349	92,624	0,062	0,052
-670,335	229,755	-0,026	0,032
-669,320	157,671	0,094	-0,096
-668,305	100,292	0,079	0,068
-667,291	-16,883	0,015	0,007
-666,276	123,151	0,024	0,022
-665,262	321,566	-0,012	-0,017
-664,247	-160,119	0,100	-0,004
-663,232	-200,000	-0,015	-0,060
-662,218	-200,000	0,003	-0,038
-661,203	-118,892	0,185	0,024
-660,189	281,348	-0,139	-0,184
-659,174	-50,579	-0,059	-0,020
-658,159	12,766	-0,134	0,077
-657,145	-42,655	0,052	-0,019
-656,130	14,280	0,065	0,037
-655,116	800,000	-0,054	0,148
-654,101	-69,783	0,063	-0,018
-653,086	72,997	-0,157	0,121
-652,072	-200,000	0,018	0,099
-651,057	416,422	-0,093	-0,148
-650,043	-34,396	0,102	-0,041
-649,028	384,975	-0,107	-0,164
-648,014	226,411	0,069	0,083
-646,999	-200,000	0,068	0,253
-645,984	-32,801	-0,121	-0,050
-644,970	102,222	-0,085	-0,073
-643,955	111,773	0,027	-0,024
-642,941	-93,736	0,077	-0,015
-641,926	-200,000	0,018	-0,075
-640,911	-33,120	-0,117	0,048
-639,897	-200,000	0,037	0,136
-638,882	74,427	0,122	0,095
-637,868	303,107	-0,076	-0,104
-636,853	49,678	0,054	-0,038
-635,838	-71,915	-0,041	0,011
-634,824	-200,000	-0,016	-0,114
-633,809	33,662	-0,024	0,015
-632,795	-196,371	0,121	-0,001
-631,780	-86,120	0,075	-0,017
-630,765	342,054	-0,006	-0,009
-629,751	-200,000	0,006	0,022
-628,736	175,963	-0,073	-0,079
-627,722	109,378	-0,115	0,101
-626,707	0,911	0,112	-0,059
-625,692	800,000	0,015	-0,037
-624,678	-66,655	-0,100	0,029
-623,663	64,181	0,129	-0,096
-622,649	150,422	0,066	-0,066
-621,634	293,421	0,060	-0,081
-620,619	-188,231	-0,053	0,000
-619,605	129,111	0,114	0,107
-618,590	-200,000	-0,004	0,043
-617,576	800,000	-0,051	0,121
-616,561	-172,667	-0,107	0,002
-615,546	70,947	-0,108	-0,083
-614,532	74,421	0,029	0,022
-613,517	556,661	0,056	0,100
-612,503	401,471	-0,082	-0,128
-611,488	334,245	-0,043	-0,062
-610,474	-200,000	0,029	0,097
-609,459	-11,015	-0,067	0,033
-608,444	800,000	-0,049	-0,104
-607,430	-200,000	0,006	-0,097
-606,415	-200,000	0,011	-0,073
-605,401	111,802	0,050	-0,044
-604,386	187,798	0,102	0,112
-603,371	82,449	-0,050	-0,040
-602,357	-19,521	0,056	0,025
-601,342	225,482	-0,078	0,093
-600,328	75,165	-0,165	-0,128
-599,313	37,733	0,023	-0,015
-598,298	800,000	0,018	-0,039
-597,284	-200,000	0,016	0,081
-596,269	-32,824	0,090	-0,037
-595,255	-139,480	-0,071	0,006
-594,240	-200,000	-0,012	-0,043
-593,225	-200,000	0,013	0,051
-592,211	212,875	-0,047	-0,055
-591,196	-93,982	0,091	0,018
-590,182	301,953	-0,043	-0,058
-589,167	-200,000	0,001	0,009
-588,152	-77,919	0,136	0,034
-587,138	-104,279	0,023	-0,004
-586,123	92,844	-0,084	-0,070
-585,109	586,548	-0,111	-0,202
-584,094	112,025	-0,105	-0,094
-583,079	84,062	0,048	0,039
-582,065	0,761	0,080	-0,042
-581,050	187,401	-0,056	-0,061
-580,036	120,461	-0,107	-0,098
-579,021	-200,000	-0,031	-0,115
-578,006	-11,761	-0,074	-0,036
-576,992	-11,664	-0,170	0,082
-575,977	392,902	0,048	0,073
-574,963	76,705	0,062	-0,048
-573,948	800,000	0,025	-0,053
-572,934	-98,794	-0,026	-0,005
-571,919	458,271	-0,083	-0,136
-570,904	21,930	0,101	-0,060
-569,890	800,000	0,007	0,019
-568,875	200,453	-0,022	0,025
-567,861	72,320	-0,084	0,064
-566,846	184,560	0,084	0,092
-565,831	673,726	-0,035	-0,067
-564,817	-200,000	0,016	0,066
-563,802	-130,376	-0,037	-0,004
-562,788	-91,730	-0,093	0,019
-561,773	270,563	0,048	-0,062
-560,758	-200,000	-0,020	0,114
-559,744	80,141	0,013	-0,011
-558,729	-161,064	0,050	0,002
-557,715	-200,000	-0,030	0,139
-556,700	46,202	-0,069	0,047
-555,685	-9,033	0,046	-0,023
-554,671	-112,715	-0,124	0,018
-553,656	70,479	0,117	-0,089
-552,642	-22,146	0,035	-0,016
-551,627	38,839	-0,116	-0,076
-550,612	-12,725	-0,125	0,060
-549,598	86,310	-0,081	-0,066
-548,583	-200,000	0,006	0,036
-547,569	99,747	0,081	0,069
-546,554	800,000	-0,039	0,117
-545,539	34,131	0,065	0,042
-544,525	223,180	-0,036	-0,043
-543,510	10,870	-0,031	-0,018
-542,496	-40,864	0,088	0,033
-541,481	-200,000	0,000	0,075
-540,466	581,883	0,027	0,048
-539,452	-200,000	-0,034	0,117
-538,437	45,409	-0,117	-0,079
-537,423	569,517	-0,062	0,112
-536,408	-200,000	-0,017	0,088
-535,393	-177,491	0,236	0,004
-534,379	47,140	-0,089	-0,061
-533,364	800,000	0,046	0,111
-532,350	184,761	0,087	-0,096
-531,335	-200,000	-0,012	0,061
-530,321	-200,000	-0,016	-0,094
-529,306	281,076	-0,067	-0,089
-528,291	62,254	-0,025	-0,018
-527,277	134,476	-0,029	-0,028
-526,262	-200,000	0,039	-0,171
-525,248	122,379	0,049	-0,046
-524,233	800,000	0,044	0,106
-523,218	800,000	0,027	0,064
-522,204	27,322	0,042	-0,026
-521,189	279,172	-0,103	0,135
-520,175	222,060	0,031	-0,036
-519,160	182,909	0,057	-0,062
-518,145	-200,000	-0,002	-0,035
-517,131	-15,107	0,048	0,023
-516,116	-200,000	0,029	0,097
-515,102	-22,199	-0,059	-0,026
-514,087	800,000	-0,004	0,010
-513,072	487,558	0,030	0,050
-512,058	21,806	0,048	0,028
-511,043	-21,141	-0,057	0,025
-510,029	-133,089	0,265	0,024
-509,014	230,649	-0,028	0,034
-507,999	14,124	-0,086	-0,049
-506,985	395,128	0,017	0,026
-505,970	283,042	0,078	-0,104
-504,956	-200,000	-0,010	-0,099
-503,941	29,825	-0,031	0,019
-502,926	100,341	0,031	0,026
-501,912	-34,221	0,083	0,034
-500,897	800,000	0,030	0,074
-499,883	204,286	0,095	-0,108
-498,868	14,639	0,100	0,057
-497,853	-200,000	0,019	0,062
-496,839	96,975	0,093	0,078
-495,824	77,715	-0,016	-0,012
-494,810	-30,862	-0,146	0,060
-493,795	-200,000	0,041	0,145
-492,781	101,042	0,022	0,019
-491,766	15,250	-0,093	-0,053
-490,751	-55,978	0,075	-0,024
-489,737	420,460	-0,079	-0,124
-488,722	-50,791	0,092	0,031
-487,708	-200,000	-0,020	0,093
-486,693	-62,086	-0,053	-0,016
-485,678	-59,220	0,024	0,007
-484,664	-200,000	-0,007	-0,052
-483,649	-14,966	0,094	-0,044
-482,635	56,303	0,061	0,043
-481,620	800,000	-0,042	-0,118
-480,605	-200,000	0,011	0,043
-479,591	-4,133	0,108	0,055
-478,576	800,000	-0,016	0,042
-477,562	252,351	-0,072	0,091
-476,547	-200,000	-0,005	-0,050
-475,532	70,949	-0,056	-0,043
-474,518	-200,000	0,019	0,095
-473,503	-200,000	-0,018	0,085
-472,489	-45,999	0,131	0,047
-471,474	45,013	-0,040	-0,027
-470,459	26,229	-0,082	-0,050
-469,445	-200,000	0,030	-0,116
-468,430	107,642	-0,076	0,067
-467,416	800,000	0,026	0,061
-466,401	-200,000	-0,004	0,025
-465,386	-200,000	-0,000	-0,078
-464,372	14,727	-0,158	-0,090
-463,357	-200,000	-0,010	-0,091
-462,343	800,000	0,021	-0,059
-461,328	-200,000	-0,000	-0,113
-460,313	-9,620	0,088	-0,043
-459,299	-88,908	0,073	-0,016
-458,284	-200,000	0,007	0,064
-457,270	-153,586	0,129	-0,006
-456,255	229,398	-0,027	-0,032
-455,241	226,320	-0,020	0,024
-454,226	-200,000	-0,019	-0,120
-453,211	-200,000	-0,005	0,039
-452,197	-40,992	-0,085	-0,032
-451,182	87,170	0,025	0,020
-450,168	-200,000	-0,000	0,072
-449,153	137,743	0,007	0,006
-448,138	9,807	0,095	-0,053
-447,124	-200,000	0,010	0,114
-446,109	424,713	-0,116	0,183
-445,095	211,891	0,114	0,132
-444,080	-26,095	-0,100	0,043
-443,065	104,687	0,045	-0,039
-442,051	800,000	-0,045	-0,100
-441,036	-200,000	0,011	0,063
-440,022	800,000	-0,033	-0,092
-439,007	-118,618	0,119	0,015
-437,992	-200,000	0,015	0,098
-436,978	-136,926	0,167	0,014
-435,963	2,950	-0,023	0,012
-434,949	49,427	-0,064	-0,044
-433,934	-43,221	-0,067	-0,025
-432,919	-9,578	-0,038	-0,018
-431,905	-3,560	-0,083	-0,042
-430,890	-145,853	-0,033	0,002
-429,876	204,209	0,024	0,027
-428,861	-135,420	0,076	-0,007
-427,846	-14,668	-0,083	0,039
-426,832	40,441	-0,057	-0,038
-425,817	172,293	-0,043	0,045
-424,803	-200,000	0,028	0,197
-423,788	-13,289	-0,078	-0,037
-422,773	323,127	0,079	0,110
-421,759	800,000	-0,036	0,093
-420,744	-153,688	0,110	0,005
-419,730	-200,000	-0,033	-0,156
-418,715	-50,362	-0,084	0,029
-417,701	800,000	0,044	0,123
-416,686	-200,000	0,001	-0,020
-415,671	-200,000	-0,020	0,125
-414,657	-101,644	-0,083	0,015
-413,642	-81,889	-0,017	-0,004
-412,628	-133,505	0,104	0,009
-411,613	-55,535	-0,081	0,027
-410,598	-65,774	-0,260	-0,076
-409,584	-48,716	0,130	0,045
-408,569	-200,000	-0,034	0,122
-407,555	-200,000	0,027	0,101
-406,540	555,159	0,063	0,111
-405,525	28,449	-0,079	-0,049
-404,511	32,237	-0,131	0,082
-403,496	-200,000	0,000	-0,051
-402,482	343,879	-0,058	-0,083
-401,467	6,661	0,050	0,027
-400,452	-72,080	-0,067	0,018
-399,438	13,567	-0,076	0,043
-398,423	-55,855	-0,042	0,014
-397,409	643,784	0,071	0,133
-396,394	-200,000	-0,004	-0,063
-395,379	-200,000	-0,001	-0,053
-394,365	800,000	0,008	-0,019
-393,350	-200,000	-0,008	0,069
-392,336	165,517	-0,068	-0,070
-391,321	14,019	-0,042	0,024
-390,306	114,038	-0,092	-0,082
-389,292	-200,000	0,008	-0,124
-388,277	-173,698	-0,108	0,002
-387,263	-134,511	-0,085	-0,008
-386,248	-74,319	0,092	-0,024
-385,233	81,863	0,034	0,027
-384,219	800,000	0,061	-0,144
-383,204	800,000	0,040	-0,118
-382,190	-200,000	0,027	-0,255
-381,175	-200,000	-0,013	0,047
-380,160	98,794	-0,114	-0,096
-379,146	-200,000	0,006	-0,067
-378,131	-200,000	-0,003	-0,094
-377,117	-200,000	0,023	0,106
-376,102	-200,000	-0,008	0,061
-375,088	291,391	0,075	0,101
-374,073	-5,690	-0,033	0,016
-373,058	800,000	0,046	0,094
-372,044	405,655	0,127	0,197
-371,029	-15,116	-0,075	0,035
-370,015	496,151	0,061	0,103
-369,000	202,790	0,125	0,142
-367,985	-47,872	0,084	-0,030
-366,971	75,165	-0,106	0,082
-365,956	91,380	0,141	0,116
-364,942	446,800	-0,099	0,160
-363,927	-200,000	-0,002	-0,019
-362,912	0,381	0,065	0,034
-361,898	-52,743	-0,061	0,020
-360,883	-200,000	-0,027	-0,121
-359,869	-56,864	-0,188	-0,060
-358,854	-169,270	0,088	-0,002
-357,839	800,000	-0,083	-0,234
-356,825	-36,937	0,074	-0,029
-355,810	-200,000	0,002	0,049
-354,796	122,890	0,103	-0,094
-353,781	-200,000	0,003	-0,072
-352,766	-82,355	-0,031	0,007
-351,752	-12,730	0,085	0,040
-350,737	-86,082	0,044	-0,010
-349,723	714,517	0,026	0,051
-348,708	-24,497	0,043	-0,019
-347,693	-200,000	-0,010	-0,050
-346,679	-187,427	0,096	-0,001
-345,664	-121,290	-0,089	0,011
-344,650	-197,386	-0,061	0,000
-343,635	-141,510	0,073	0,005
-342,620	9,144	0,039	0,022
-341,606	-200,000	0,018	-0,078
-340,591	2,577	0,062	-0,033
-339,577	-86,579	0,134	-0,030
-338,562	179,996	-0,074	-0,079
-337,548	-200,000	0,014	-0,128
-336,533	672,089	0,076	0,144
-335,518	800,000	-0,067	0,196
-334,504	210,565	0,038	0,043
-333,489	28,086	0,065	0,040
-332,475	800,000	-0,012	0,028
-331,460	379,099	-0,073	-0,109
-330,445	52,745	0,043	0,030
-329,431	599,531	0,065	0,118
-328,416	800,000	-0,067	0,141
-327,402	800,000	0,027	0,064
-326,387	-193,641	0,027	0,000
-325,372	-200,000	0,001	-0,119
-324,358	-18,687	-0,056	-0,025
-323,343	-200,000	0,046	0,151
-322,329	-146,104	-0,049	-0,003
-321,314	-200,000	0,001	0,048
-320,299	-30,891	0,197	0,081
-319,285	-150,996	-0,055	-0,003
-318,270	-29,151	0,111	0,046
-317,256	-114,298	-0,120	0,017
-316,241	-127,008	-0,039	-0,004
-315,226	-156,001	0,060	0,003
-314,212	-158,479	0,056	-0,002
-313,197	-125,225	-0,089	-0,010
-312,183	-200,000	-0,002	-0,057
-311,168	-161,737	-0,140	0,005
-310,153	295,652	0,078	-0,105
-309,139	364,754	0,027	0,040
-308,124	-55,081	-0,074	0,024
-307,110	-34,611	0,062	-0,025
-306,095	-200,000	0,011	0,069
-305,080	451,900	0,037	0,060
-304,066	793,916	0,024	0,048
-303,051	800,000	-0,010	-0,027
-302,037	-146,512	-0,123	-0,008
-301,022	206,934	0,040	-0,045
-300,008	-42,458	0,099	-0,036
-298,993	-200,000	-0,007	0,070
-297,978	85,616	-0,107	-0,086
-296,964	104,709	0,040	-0,034
-295,949	800,000	-0,013	-0,039
-294,935	-20,614	0,087	-0,039
-293,920	800,000	-0,019	-0,052
-292,905	-200,000	-0,010	0,106
-291,891	99,851	-0,128	0,108
-290,876	215,142	-0,031	-0,036
-289,862	-200,000	0,003	-0,024
-288,847	-200,000	-0,014	-0,068
-287,832	57,412	-0,039	-0,028
-286,818	125,428	0,099	0,091
-285,803	800,000	0,035	-0,082
-284,789	184,332	0,014	0,015
-283,774	2,938	0,208	0,110
-282,759	-75,494	-0,074	0,019
-281,745	125,973	0,063	-0,058
-280,730	-55,343	-0,197	-0,064
-279,716	80,153	0,015	0,012
-278,701	636,284	0,023	0,043
-277,686	800,000	-0,043	-0,105
-276,672	-42,342	-0,056	-0,021
-275,657	-200,000	0,007	-0,043
-274,643	4,797	0,072	0,038
-273,628	-75,691	-0,114	0,029
-272,613	-200,000	-0,006	0,066
-271,599	118,549	-0,068	-0,061
-270,584	-200,000	0,008	0,102
-269,570	-200,000	-0,004	-0,065
-268,555	171,363	0,044	0,046
-267,540	-181,896	-0,148	0,002
-266,526	-200,000	-0,020	0,067
-265,511	19,524	0,024	-0,014
-264,497	-39,389	-0,035	0,013
-263,482	728,942	0,031	-0,061
-262,467	45,394	-0,028	-0,019
-261,453	-23,101	-0,009	0,004
-260,438	-22,527	-0,078	-0,034
-259,424	-200,000	-0,000	0,003
-258,409	8,147	-0,072	-0,039
-257,395	23,593	0,104	-0,062
-256,380	200,595	0,093	0,104
-255,365	-200,000	0,004	0,067
-254,351	-200,000	-0,030	0,121
-253,336	800,000	0,041	-0,121
-252,322	-200,000	-0,011	-0,064
-251,307	50,583	-0,095	0,065
-250,292	-54,043	-0,008	0,003
-249,278	800,000	0,048	0,130
-248,263	-96,087	0,056	0,011
-247,249	800,000	-0,024	0,057
-246,234	-200,000	0,002	0,069
-245,219	32,423	0,066	-0,041
-244,205	248,325	0,005	0,007
-243,190	-25,542	-0,076	-0,033
-242,176	311,308	-0,028	0,038
-241,161	-103,685	0,145	0,024
-240,146	-200,000	-0,040	0,151
-239,132	435,241	0,036	-0,057
-238,117	67,171	-0,007	-0,005
-237,103	800,000	-0,074	-0,198
-236,088	-73,203	-0,088	0,023
-235,073	374,261	0,041	0,061
-234,059	-125,895	-0,068	0,007
-233,044	477,845	0,016	-0,026
-232,030	800,000	0,007	0,021
-231,015	-188,567	-0,080	-0,001
-230,000	800,000	-0,046	-0,127
-228,986	800,000	-0,034	-0,085
-227,971	-200,000	-0,009	-0,044
-226,957	-7,257	0,070	0,034
-225,942	-12,872	-0,035	0,016
-224,927	800,000	0,026	-0,068
-223,913	-200,000	0,013	-0,106
-222,898	213,699	-0,095	-0,109
-221,884	-126,065	-0,167	0,018
-220,869	220,730	0,083	-0,097
-219,855	-64,755	0,098	-0,029
-218,840	300,631	0,107	-0,145
-217,825	-3,578	0,102	0,051
-216,811	185,991	0,041	0,044
-215,796	124,395	0,042	-0,038
-214,782	-200,000	-0,007	-0,076
-213,767	40,809	-0,097	0,064
-212,752	34,532	0,089	0,057
-211,738	-9,550	0,157	-0,076
-210,723	-200,000	-0,016	0,075
-209,709	-78,356	0,026	-0,007
-208,694	-117,211	0,025	-0,003
-207,679	99,357	0,149	-0,125
-206,665	5,100	0,137	0,073
-205,650	800,000	0,009	0,020
-204,636	574,361	-0,084	-0,150
-203,621	800,000	0,036	0,112
-202,606	-200,000	0,024	0,096
-201,592	282,146	0,020	-0,026
-200,577	-4,010	-0,066	-0,033
-199,563	-121,033	0,067	-0,008
-198,548	322,169	0,086	-0,119
-197,533	194,644	0,093	0,102
-196,519	40,173	0,054	-0,035
-195,504	595,489	-0,121	-0,218
-194,490	-119,043	-0,025	-0,003
-193,475	32,117	0,137	0,086
-192,460	-11,807	-0,036	-0,017
-191,446	-200,000	-0,033	-0,122
-190,431	-200,000	-0,003	0,139
-189,417	800,000	0,016	-0,034
-188,402	800,000	-0,040	0,114
-187,387	-200,000	-0,014	-0,081
-186,373	463,562	0,038	0,061
-185,358	800,000	0,029	-0,081
-184,344	-200,000	-0,011	-0,055
-183,329	-200,000	0,005	0,081
-182,315	463,179	0,033	0,054
-181,300	80,947	-0,156	0,122
-180,285	-88,108	-0,016	0,004
-179,271	-41,944	-0,186	-0,069
-178,256	-200,000	0,005	0,027
-177,242	13,770	-0,050	0,028
-176,227	609,391	-0,054	0,098
-175,212	-200,000	0,004	-0,092
-174,198	120,782	0,007	-0,006
-173,183	-81,001	0,095	-0,023
-172,169	800,000	-0,020	-0,043
-171,154	-34,114	-0,172	-0,068
-170,139	-200,000	-0,036	-0,117
-169,125	-200,000	0,002	-0,027
-168,110	167,387	0,107	0,110
-167,096	248,673	0,145	-0,178
-166,081	-94,941	-0,116	-0,023
-165,066	92,337	-0,072	-0,059
-164,052	-200,000	0,008	-0,079
-163,037	800,000	0,027	0,073
-162,023	11,529	-0,117	-0,065
-161,008	-193,978	0,137	0,001
-159,993	-200,000	-0,007	-0,063
-158,979	184,776	-0,019	0,020
-157,964	91,969	0,049	-0,040
-156,950	-106,176	-0,053	0,009
-155,935	293,540	-0,027	0,036
-154,920	33,987	0,117	0,074
-153,906	-200,000	0,010	0,125
-152,891	-200,000	-0,024	-0,088
-151,877	95,673	-0,026	0,021
-150,862	-200,000	-0,016	0,131
-149,847	-200,000	-0,008	0,048
-148,833	483,000	-0,053	0,088
-147,818	800,000	-0,009	0,024
-146,804	-7,810	0,126	-0,062
-145,789	-200,000	-0,008	0,041
-144,775	-128,582	-0,212	-0,021
-143,760	-200,000	0,007	0,030
-142,745	89,936	0,018	-0,014
-141,731	41,347	0,115	0,075
-140,716	-59,519	0,125	0,039
-139,702	-24,831	0,099	-0,043
-138,687	800,000	0,051	-0,129
-137,672	-43,951	-0,110	0,040
-136,658	197,471	-0,020	-0,023
-135,643	190,662	-0,120	-0,131
-134,629	479,461	-0,026	0,043
-133,614	203,938	0,022	0,025
-132,599	800,000	0,006	-0,020
-131,585	409,947	0,059	0,091
-130,570	-200,000	-0,003	-0,020
-129,556	800,000	-0,048	0,127
-128,541	67,541	0,072	0,053
-127,526	-200,000	0,002	0,113
-126,512	-29,587	0,040	-0,017
-125,497	-79,479	0,104	0,025
-124,483	723,107	-0,033	0,063
-123,468	-200,000	-0,031	-0,128
-122,453	-121,829	0,104	0,012
-121,439	574,858	-0,045	0,081
-120,424	-131,441	0,108	-0,010
-119,410	-200,000	-0,024	-0,113
-118,395	800,000	0,045	-0,098
