DTS Sentinel unit serial number:	SN410029Multiplexer serial number:	ORYXHardware model number:	OX2-SRSoftware version number:	ORYX F/W v4,00 Oryx Data Collector v3.7.2.0data status	okinstallation	B6 Nyhavnadifferential loss correction	single-endedforward channel	channel 2reverse channel	N/Adate	2023/12/07time	12:40:08forward acquisition time	300,00reverse acquisition time	0,00gamma	499,1914k internal	0,3203k external	0,3203temperature offset calibration	1,0000default loss term (dB/km)	0,3820temperature slope calibration	1,0000multiplexer offset coefficient	1,0000multiplexer slope coefficient	1,0000fibre end	0,00T internal ref (°C)	10,47T ext. ref 1 (°C)	-3,06T ext. ref 2 (°C)	-3,02length (m)	temperature (°C)	Stokes	anti-Stokes-744,400	-164,796	0,115	0,004
-743,385	-47,980	-0,285	0,100
-742,371	478,584	0,042	0,070
-741,356	-115,936	-0,291	-0,039
-740,342	460,313	0,058	0,094
-739,327	-21,402	-0,246	-0,108
-738,312	-200,000	0,003	-0,068
-737,298	-57,772	-0,348	-0,110
-736,283	175,227	0,067	-0,071
-735,269	-97,277	-0,234	-0,044
-734,254	230,182	0,142	0,169
-733,239	23,040	-0,479	-0,285
-732,225	-49,666	0,242	0,083
-731,210	215,434	0,047	0,055
-730,196	800,000	0,047	0,105
-729,181	-200,000	-0,017	-0,085
-728,167	-200,000	0,003	0,019
-727,152	-200,000	0,017	-0,126
-726,137	154,138	-0,132	-0,132
-725,123	149,049	-0,101	-0,099
-724,108	800,000	0,119	-0,261
-723,094	-37,316	-0,199	-0,077
-722,079	798,281	-0,034	-0,069
-721,064	382,595	-0,023	0,034
-720,050	261,348	0,098	0,123
-719,035	483,199	0,032	-0,052
-718,021	-67,543	-0,141	-0,040
-717,006	474,366	0,021	-0,035
-715,991	-167,071	-0,108	0,003
-714,977	80,160	-0,085	-0,066
-713,962	-200,000	0,017	-0,067
-712,948	314,473	0,028	0,039
-711,933	-200,000	-0,003	-0,036
-710,918	-30,447	-0,017	-0,007
-709,904	150,620	-0,169	-0,167
-708,889	416,213	-0,084	0,130
-707,875	-200,000	-0,024	-0,128
-706,860	304,980	-0,021	-0,028
-705,845	40,046	0,048	-0,031
-704,831	-200,000	0,012	0,129
-703,816	-84,154	-0,086	-0,020
-702,802	800,000	0,051	-0,154
-701,787	36,020	-0,156	-0,099
-700,772	-200,000	0,013	-0,222
-699,758	0,842	-0,085	-0,044
-698,743	200,615	-0,049	-0,055
-697,729	379,673	0,070	-0,105
-696,714	-148,690	-0,093	-0,005
-695,699	-200,000	-0,019	-0,129
-694,685	-159,085	-0,199	0,008
-693,670	92,921	0,030	0,024
-692,656	-200,000	0,006	0,024
-691,641	800,000	-0,030	0,086
-690,627	-132,645	-0,049	0,004
-689,612	592,090	-0,044	-0,079
-688,597	93,352	-0,118	-0,097
-687,583	800,000	-0,026	-0,070
-686,568	-200,000	0,021	-0,088
-685,554	800,000	-0,030	0,061
-684,539	-74,543	0,138	-0,036
-683,524	286,629	0,040	0,052
-682,510	718,997	0,035	0,068
-681,495	-200,000	-0,019	-0,131
-680,481	-200,000	-0,008	-0,135
-679,466	60,835	-0,169	-0,121
-678,451	51,563	-0,050	0,034
-677,437	800,000	-0,055	0,170
-676,422	-55,756	0,147	0,047
-675,408	58,847	0,054	-0,039
-674,393	-16,892	-0,103	0,047
-673,378	-127,480	-0,205	-0,021
-672,364	-200,000	-0,013	-0,141
-671,349	-15,110	-0,208	-0,096
-670,335	197,398	0,051	-0,057
-669,320	278,116	-0,040	0,052
-668,305	102,836	-0,105	-0,089
-667,291	-31,314	-0,049	0,020
-666,276	-200,000	-0,017	-0,103
-665,262	-56,229	0,126	-0,040
-664,247	-122,377	-0,110	-0,013
-663,232	-200,000	0,013	0,048
-662,218	-200,000	-0,007	0,117
-661,203	36,273	-0,073	-0,046
-660,189	-31,954	0,050	-0,020
-659,174	338,468	0,122	-0,173
-658,159	-143,690	-0,043	0,003
-657,145	-200,000	-0,012	-0,119
-656,130	295,865	-0,065	-0,087
-655,116	114,672	-0,060	0,053
-654,101	414,859	0,073	-0,113
-653,086	800,000	0,023	-0,065
-652,072	-200,000	-0,028	-0,162
-651,057	684,995	-0,059	-0,112
-650,043	246,359	0,070	-0,086
-649,028	-73,781	0,098	0,026
-648,014	540,195	0,046	0,080
-646,999	186,464	-0,058	0,063
-645,984	181,466	-0,083	0,088
-644,970	88,395	-0,075	-0,060
-643,955	118,254	-0,133	-0,119
-642,941	-21,024	0,039	-0,017
-641,926	-200,000	0,004	-0,038
-640,911	72,060	0,093	-0,070
-639,897	-73,795	0,121	-0,032
-638,882	-14,440	-0,136	-0,063
-637,868	-64,664	0,124	-0,036
-636,853	-200,000	0,010	-0,078
-635,838	496,820	-0,023	-0,039
-634,824	112,007	-0,037	-0,033
-633,809	3,232	-0,108	0,057
-632,795	-50,034	0,165	-0,056
-631,780	-39,974	0,054	-0,020
-630,765	-137,498	-0,166	0,013
-629,751	-164,149	-0,022	-0,001
-628,736	800,000	-0,005	-0,011
-627,722	-200,000	-0,029	0,188
-626,707	44,011	0,015	-0,010
-625,692	800,000	-0,016	-0,051
-624,678	-37,826	0,106	-0,041
-623,663	81,769	-0,071	-0,055
-622,649	800,000	0,009	0,030
-621,634	-59,216	-0,131	-0,041
-620,619	-60,548	-0,017	-0,005
-619,605	-200,000	0,029	0,130
-618,590	539,011	-0,035	0,061
-617,576	-200,000	0,036	0,132
-616,561	-200,000	-0,011	-0,075
-615,546	-200,000	-0,023	0,080
-614,532	-200,000	-0,012	-0,119
-613,517	-104,158	-0,170	-0,028
-612,503	-200,000	-0,009	0,059
-611,488	-110,744	0,160	-0,024
-610,474	-200,000	-0,011	-0,060
-609,459	-128,197	-0,132	-0,013
-608,444	-0,678	-0,037	0,019
-607,430	-75,941	-0,057	0,015
-606,415	-37,364	-0,017	-0,006
-605,401	-26,204	-0,085	0,036
-604,386	213,945	-0,046	0,053
-603,371	-161,950	0,088	0,003
-602,357	-121,857	-0,147	0,017
-601,342	25,549	-0,131	-0,078
-600,328	800,000	0,048	-0,133
-599,313	-200,000	-0,001	-0,119
-598,298	271,344	0,134	-0,172
-597,284	501,975	0,102	0,171
-596,269	-61,260	0,173	-0,052
-595,255	800,000	0,019	0,058
-594,240	80,224	0,116	0,090
-593,225	-200,000	-0,013	-0,069
-592,211	432,397	-0,049	0,077
-591,196	72,014	-0,015	-0,011
-590,182	124,500	0,135	0,123
-589,167	54,218	0,059	-0,041
-588,152	156,652	-0,039	0,039
-587,138	407,088	-0,040	-0,061
-586,123	-90,965	-0,100	-0,021
-585,109	-56,609	0,095	-0,030
-584,094	-179,545	-0,105	-0,002
-583,079	-28,919	-0,028	-0,012
-582,065	800,000	0,032	0,099
-581,050	-200,000	-0,026	-0,093
-580,036	-200,000	0,000	-0,103
-579,021	298,186	-0,024	-0,032
-578,006	178,545	-0,028	-0,029
-576,992	-190,891	-0,055	-0,000
-575,977	403,178	-0,095	-0,145
-574,963	-141,217	0,020	0,001
-573,948	141,994	0,132	-0,126
-572,934	800,000	-0,014	0,036
-571,919	262,301	-0,084	-0,105
-570,904	-200,000	-0,016	-0,095
-569,890	-179,025	-0,177	-0,003
-568,875	195,666	0,108	0,118
-567,861	86,021	0,083	0,066
-566,846	-85,792	0,046	0,010
-565,831	5,300	0,075	-0,040
-564,817	412,845	-0,085	0,131
-563,802	-56,379	-0,121	0,039
-562,788	65,865	-0,061	-0,045
-561,773	800,000	0,041	0,117
-560,758	100,305	0,108	0,090
-559,744	800,000	0,041	0,107
-558,729	-50,198	0,068	-0,023
-557,715	-45,174	-0,099	-0,035
-556,700	-200,000	-0,012	0,057
-555,685	56,590	-0,085	-0,059
-554,671	44,408	0,037	0,025
-553,656	414,697	0,045	0,069
-552,642	301,274	0,065	0,087
-551,627	155,585	-0,066	0,066
-550,612	800,000	-0,023	-0,048
-549,598	-110,212	-0,110	-0,016
-548,583	48,393	-0,072	-0,049
-547,569	-93,028	0,074	0,015
-546,554	-128,163	0,096	-0,010
-545,539	-89,626	0,090	0,019
-544,525	-120,052	0,046	0,006
-543,510	-136,275	-0,072	-0,006
-542,496	12,658	0,062	-0,034
-541,481	-111,088	-0,092	-0,013
-540,466	-200,000	0,009	-0,170
-539,452	-117,539	0,060	0,008
-538,437	-167,054	-0,035	0,001
-537,423	800,000	0,080	0,241
-536,408	-200,000	0,018	0,161
-535,393	11,943	0,096	0,053
-534,379	597,092	0,078	-0,140
-533,364	-200,000	0,030	-0,202
-532,350	30,902	0,034	0,021
-531,335	-161,711	0,066	-0,002
-530,321	13,142	-0,064	-0,036
-529,306	-115,801	0,079	0,010
-528,291	424,132	0,038	-0,059
-527,277	19,819	-0,123	-0,071
-526,262	21,079	-0,038	-0,022
-525,248	-85,813	0,141	-0,031
-524,233	56,930	0,047	0,033
-523,218	-133,819	0,026	0,002
-522,204	375,008	0,038	-0,056
-521,189	-200,000	-0,030	-0,099
-520,175	412,613	-0,045	-0,069
-519,160	-200,000	-0,033	0,223
-518,145	-70,911	-0,107	0,029
-517,131	48,738	0,118	-0,080
-516,116	-57,928	-0,118	-0,037
-515,102	-200,000	0,004	-0,095
-514,087	33,932	0,090	0,056
-513,072	-10,068	-0,027	0,013
-512,058	110,452	0,064	-0,055
-511,043	-55,132	0,114	-0,037
-510,029	-200,000	0,015	-0,076
-509,014	577,869	-0,023	0,041
-507,999	74,400	-0,024	0,018
-506,985	169,700	-0,099	-0,102
-505,970	-200,000	0,011	-0,068
-504,956	-194,856	-0,020	0,000
-503,941	19,428	0,091	-0,052
-502,926	119,403	-0,052	0,047
-501,912	376,573	0,028	-0,041
-500,897	204,979	-0,043	-0,048
-499,883	800,000	0,035	-0,078
-498,868	-200,000	-0,018	-0,074
-497,853	-200,000	0,001	-0,020
-496,839	-7,262	-0,030	0,014
-495,824	-83,767	-0,098	-0,022
-494,810	47,552	0,062	0,042
-493,795	800,000	0,032	0,077
-492,781	-37,576	-0,127	-0,049
-491,766	-98,744	-0,143	0,026
-490,751	432,254	0,006	-0,010
-489,737	-86,439	-0,106	-0,023
-488,722	-200,000	0,010	0,066
-487,708	185,133	0,048	0,051
-486,693	800,000	0,036	-0,097
-485,678	-152,590	-0,156	0,008
-484,664	-200,000	-0,009	0,121
-483,649	596,283	-0,030	0,054
-482,635	210,550	0,053	-0,060
-481,620	-200,000	0,009	0,034
-480,605	-139,161	-0,102	-0,008
-479,591	800,000	0,028	0,086
-478,576	-127,472	-0,059	-0,006
-477,562	-137,565	-0,110	-0,009
-476,547	-72,810	-0,133	-0,035
-475,532	-39,111	0,089	-0,033
-474,518	-90,877	0,075	0,015
-473,503	519,715	0,066	-0,112
-472,489	332,105	-0,029	-0,040
-471,474	123,949	-0,101	0,091
-470,459	616,434	0,020	0,036
-469,445	-200,000	0,020	-0,084
-468,430	-200,000	0,023	-0,104
-467,416	623,945	0,027	-0,049
-466,401	46,283	-0,054	0,036
-465,386	43,192	-0,043	-0,028
-464,372	170,583	-0,072	0,074
-463,357	-28,418	-0,056	0,023
-462,343	800,000	0,048	-0,097
-461,328	-200,000	0,024	-0,097
-460,313	-113,412	0,074	0,010
-459,299	247,348	0,016	0,019
-458,284	598,481	0,059	0,105
-457,270	90,619	-0,020	0,016
-456,255	-200,000	-0,009	0,106
-455,241	18,781	-0,041	0,023
-454,226	-166,153	0,181	-0,005
-453,211	-200,000	-0,012	0,056
-452,197	-200,000	-0,017	0,064
-451,182	644,573	0,025	-0,047
-450,168	141,964	-0,040	-0,039
-449,153	-44,115	-0,011	-0,004
-448,138	0,310	-0,166	-0,085
-447,124	-200,000	0,029	-0,092
-446,109	-29,492	-0,046	-0,019
-445,095	-68,539	0,066	0,018
-444,080	-49,896	0,041	-0,014
-443,065	-200,000	-0,018	0,096
-442,051	616,272	-0,081	-0,146
-441,036	800,000	-0,083	-0,166
-440,022	584,944	-0,064	0,113
-439,007	800,000	-0,008	-0,017
-437,992	144,740	0,080	0,077
-436,978	34,379	-0,045	-0,028
-435,963	-100,586	0,082	-0,014
-434,949	402,216	0,129	0,196
-433,934	68,522	-0,089	-0,066
-432,919	-176,780	0,089	-0,002
-431,905	298,043	0,090	0,120
-430,890	-200,000	0,022	0,130
-429,876	800,000	-0,031	0,067
-428,861	123,358	0,129	0,116
-427,846	51,968	-0,117	-0,080
-426,832	439,160	-0,049	0,077
-425,817	-111,983	-0,074	0,011
-424,803	261,133	0,065	0,082
-423,788	-200,000	-0,006	0,056
-422,773	800,000	0,074	0,214
-421,759	294,179	0,094	0,124
-420,744	-108,065	-0,119	0,018
-419,730	-134,687	0,211	0,018
-418,715	-145,160	-0,136	-0,009
-417,701	113,796	-0,008	0,007
-416,686	-52,347	0,161	-0,053
-415,671	43,024	0,051	0,033
-414,657	172,455	-0,053	-0,054
-413,642	61,933	0,058	0,041
-412,628	582,809	-0,015	-0,026
-411,613	-91,365	0,023	-0,005
-410,598	-132,742	-0,125	-0,011
-409,584	-92,822	0,065	-0,013
-408,569	370,682	0,039	0,058
-407,555	350,308	0,092	0,131
-406,540	435,229	0,081	0,126
-405,525	-200,000	-0,018	-0,120
-404,511	-149,232	-0,056	0,003
-403,496	75,727	-0,020	0,015
-402,482	-200,000	-0,026	0,096
-401,467	99,408	0,072	-0,060
-400,452	10,006	0,115	0,062
-399,438	151,066	0,152	0,148
-398,423	-29,496	0,054	0,022
-397,409	69,993	-0,121	-0,090
-396,394	123,450	0,059	-0,053
-395,379	-200,000	-0,009	-0,062
-394,365	175,243	0,075	0,078
-393,350	800,000	-0,014	-0,037
-392,336	-200,000	0,004	-0,048
-391,321	-102,263	-0,049	-0,008
-390,306	-200,000	0,014	0,064
-389,292	800,000	-0,030	-0,083
-388,277	-125,467	0,191	-0,021
-387,263	-34,133	-0,033	-0,013
-386,248	80,523	0,078	0,060
-385,233	-103,739	-0,096	0,016
-384,219	-200,000	0,006	-0,036
-383,204	-200,000	0,006	-0,082
-382,190	800,000	-0,063	-0,142
-381,175	800,000	-0,024	0,051
-380,160	-29,395	0,026	-0,011
-379,146	800,000	0,022	0,051
-378,131	325,629	0,025	0,034
-377,117	-200,000	0,037	-0,131
-376,102	161,009	-0,073	-0,074
-375,088	-200,000	0,021	0,089
-374,073	-200,000	-0,031	0,100
-373,058	126,796	0,057	0,052
-372,044	-200,000	0,005	0,069
-371,029	-200,000	0,018	0,113
-370,015	-176,041	-0,051	-0,001
-369,000	238,162	-0,088	-0,105
-367,985	800,000	-0,033	-0,080
-366,971	67,550	0,080	0,058
-365,956	-200,000	-0,008	0,073
-364,942	-156,759	0,127	-0,006
-363,927	93,870	-0,095	0,077
-362,912	-34,866	-0,120	0,047
-361,898	800,000	-0,046	-0,116
-360,883	800,000	-0,024	-0,071
-359,869	-200,000	0,018	0,169
-358,854	132,915	0,018	0,017
-357,839	-69,939	0,047	-0,013
-356,825	390,715	-0,042	-0,063
-355,810	-1,004	-0,066	0,033
-354,796	-200,000	0,030	0,177
-353,781	-51,153	0,160	0,053
-352,766	800,000	-0,033	0,072
-351,752	-200,000	0,014	0,054
-350,737	-200,000	0,001	0,022
-349,723	800,000	0,042	-0,100
-348,708	-200,000	0,002	0,129
-347,693	-200,000	0,009	0,103
-346,679	-200,000	0,026	-0,091
-345,664	77,357	-0,101	-0,077
-344,650	88,744	0,023	-0,018
-343,635	408,190	0,014	-0,022
-342,620	-200,000	-0,004	0,028
-341,606	412,598	0,055	0,083
-340,591	432,887	0,067	0,104
-339,577	800,000	-0,015	0,033
-338,562	-200,000	0,001	-0,109
-337,548	18,300	0,022	0,013
-336,533	-118,383	0,015	0,002
-335,518	-125,606	0,096	0,010
-334,504	13,919	-0,053	0,029
-333,489	57,157	-0,083	-0,058
-332,475	195,937	-0,055	0,060
-331,460	-12,339	-0,063	0,029
-330,445	-140,133	0,175	0,013
-329,431	14,298	-0,079	0,044
-328,416	-200,000	-0,012	0,094
-327,402	-142,831	-0,051	0,003
-326,387	-115,383	0,012	0,002
-325,372	-119,277	0,027	0,003
-324,358	-20,312	0,059	-0,026
-323,343	165,864	-0,062	-0,063
-322,329	119,371	0,079	0,070
-321,314	242,097	-0,052	0,063
-320,299	-10,118	-0,061	0,029
-319,285	-7,737	-0,080	-0,039
-318,270	112,738	-0,061	-0,053
-317,256	50,794	-0,083	-0,056
-316,241	72,889	0,048	-0,036
-315,226	223,785	0,035	-0,040
-314,212	800,000	0,082	-0,167
-313,197	99,964	0,025	0,020
-312,183	-3,002	0,068	-0,034
-311,168	-200,000	0,003	-0,021
-310,153	24,343	-0,066	-0,039
-309,139	-77,566	0,086	-0,021
-308,124	-125,299	-0,162	0,017
-307,110	60,404	0,146	0,103
-306,095	-200,000	-0,027	0,115
-305,080	-200,000	0,014	-0,106
-304,066	55,421	-0,057	-0,040
-303,051	-157,016	-0,146	-0,006
-302,037	-200,000	0,015	-0,127
-301,022	-200,000	-0,011	-0,125
-300,008	800,000	0,014	0,028
-298,993	-200,000	0,003	-0,025
-297,978	211,321	-0,082	-0,092
-296,964	-20,606	0,056	0,024
-295,949	619,541	-0,055	0,100
-294,935	-33,833	0,094	-0,037
-293,920	299,447	-0,067	-0,088
-292,905	60,427	0,160	0,113
-291,891	-164,889	0,152	-0,005
-290,876	7,736	-0,072	-0,038
-289,862	-98,985	-0,104	0,019
-288,847	-89,267	0,047	-0,010
-287,832	-200,000	-0,006	0,047
-286,818	-18,634	-0,061	-0,027
-285,803	32,721	0,134	-0,082
-284,789	-16,051	0,086	0,039
-283,774	-200,000	-0,001	-0,050
-282,759	-73,088	0,025	0,007
-281,745	206,061	-0,042	-0,047
-280,730	-200,000	0,059	-0,198
-279,716	539,123	0,039	-0,067
-278,701	800,000	-0,030	-0,094
-277,686	-200,000	-0,005	0,138
-276,672	82,909	-0,040	-0,031
-275,657	58,198	-0,093	0,065
-274,643	-62,281	-0,153	-0,045
-273,628	800,000	0,044	-0,133
-272,613	237,108	-0,053	0,062
-271,599	800,000	-0,012	-0,036
-270,584	300,562	0,120	0,159
-269,570	-200,000	0,014	0,093
-268,555	-109,369	0,144	-0,021
-267,540	213,101	-0,079	-0,090
-266,526	-51,211	-0,174	-0,058
-265,511	800,000	0,010	-0,022
-264,497	-67,799	0,104	-0,029
-263,482	-200,000	-0,043	0,154
-262,467	625,372	-0,008	-0,014
-261,453	-200,000	-0,013	-0,110
-260,438	-109,107	-0,152	0,023
-259,424	-2,595	0,056	-0,028
-258,409	146,407	-0,131	-0,125
-257,395	-200,000	0,004	-0,063
-256,380	-200,000	0,004	-0,062
-255,365	-123,073	0,087	0,010
-254,351	-200,000	-0,013	0,061
-253,336	268,845	0,069	0,086
-252,322	-200,000	0,004	-0,094
-251,307	50,679	-0,085	-0,057
-250,292	173,208	-0,040	0,041
-249,278	-200,000	-0,015	0,083
-248,263	30,905	-0,069	-0,042
-247,249	800,000	-0,017	-0,052
-246,234	800,000	0,033	-0,092
-245,219	800,000	0,030	-0,086
-244,205	-200,000	-0,037	-0,143
-243,190	48,497	-0,123	-0,082
-242,176	216,392	-0,054	0,061
-241,161	28,566	-0,151	0,091
-240,146	-126,407	-0,083	-0,009
-239,132	147,608	0,023	0,022
-238,117	-200,000	-0,019	-0,155
-237,103	71,618	-0,072	0,053
-236,088	-200,000	-0,008	0,114
-235,073	93,195	-0,116	0,094
-234,059	-99,810	0,056	0,010
-233,044	-200,000	0,004	0,015
-232,030	75,895	0,044	0,033
-231,015	-200,000	0,001	0,162
-230,000	800,000	0,030	-0,087
-228,986	-200,000	0,000	0,127
-227,971	-156,028	0,110	0,005
-226,957	-200,000	-0,002	-0,121
-225,942	-200,000	0,023	0,075
-224,927	39,502	0,078	-0,050
-223,913	-31,377	-0,056	0,022
-222,898	-86,172	-0,047	-0,010
-221,884	-200,000	0,005	-0,065
-220,869	-200,000	0,031	-0,101
-219,855	134,967	0,160	0,148
-218,840	-150,491	-0,066	0,004
-217,825	-200,000	0,020	0,083
-216,811	-21,111	-0,093	0,040
-215,796	-200,000	0,005	-0,099
-214,782	73,413	0,017	0,012
-213,767	166,257	0,043	0,043
-212,752	355,799	0,046	0,066
-211,738	235,418	0,080	0,094
-210,723	-200,000	0,004	0,023
-209,709	-200,000	0,010	-0,059
-208,694	199,452	-0,037	-0,040
-207,679	800,000	0,061	0,144
-206,665	-200,000	-0,002	0,066
-205,650	-89,239	0,065	0,014
-204,636	-200,000	0,003	0,090
-203,621	-200,000	0,002	-0,053
-202,606	-22,641	-0,040	0,017
-201,592	169,258	-0,089	0,091
-200,577	59,189	0,119	-0,083
-199,563	-43,454	-0,055	0,020
-198,548	-12,939	0,070	-0,033
-197,533	194,709	0,159	0,171
-196,519	301,556	-0,028	-0,037
-195,504	-42,791	-0,147	-0,053
-194,490	-117,883	-0,030	0,004
-193,475	800,000	-0,064	-0,133
-192,460	-200,000	0,016	0,122
-191,446	-200,000	-0,005	-0,080
-190,431	275,842	-0,036	0,046
-189,417	260,921	-0,054	-0,066
-188,402	367,054	0,064	0,092
-187,387	33,438	-0,027	0,017
-186,373	151,539	-0,016	0,015
-185,358	-113,187	-0,064	0,009
-184,344	-19,544	0,166	0,073
-183,329	800,000	0,058	-0,127
-182,315	30,436	-0,079	-0,048
-181,300	-172,516	0,045	0,001
-180,285	12,197	-0,043	-0,023
-179,271	230,635	-0,040	-0,047
-178,256	-125,295	-0,124	0,013
-177,242	320,970	0,050	0,067
-176,227	-29,607	0,119	0,048
-175,212	92,581	-0,012	-0,010
-174,198	-82,252	0,032	0,007
-173,183	-200,000	0,004	0,038
-172,169	165,206	-0,076	-0,076
-171,154	-75,482	-0,109	-0,027
-170,139	-10,255	0,046	-0,021
-169,125	249,821	0,035	0,042
-168,110	-200,000	0,027	0,151
-167,096	281,878	-0,031	0,040
-166,081	-200,000	0,022	-0,088
-165,066	107,818	-0,050	0,042
-164,052	453,026	-0,045	0,071
-163,037	-181,241	0,065	0,001
-162,023	-77,201	0,118	-0,029
-161,008	-200,000	0,011	-0,081
-159,993	-200,000	0,004	-0,139
-158,979	-200,000	0,016	-0,186
-157,964	296,571	0,049	-0,063
-156,950	-156,758	-0,072	-0,003
-155,935	-200,000	-0,020	-0,063
-154,920	800,000	0,058	0,122
-153,906	435,381	0,081	0,126
-152,891	77,832	0,079	-0,060
-151,877	8,234	-0,065	0,035
-150,862	95,843	-0,037	0,030
-149,847	151,040	0,037	-0,036
-148,833	225,206	-0,048	0,055
-147,818	-21,204	0,122	-0,053
-146,804	37,137	0,045	0,028
-145,789	-62,005	-0,071	0,021
-144,775	800,000	0,015	0,040
-143,760	103,358	0,032	-0,027
-142,745	-200,000	0,040	-0,133
-141,731	800,000	-0,042	-0,086
-140,716	-93,424	0,071	-0,014
-139,702	-54,587	-0,104	0,033
-138,687	-200,000	-0,001	0,041
-137,672	-44,326	-0,142	0,050
-136,658	-200,000	-0,010	-0,081
-135,643	-20,199	-0,211	-0,092
-134,629	-131,342	-0,043	0,004
-133,614	-30,713	0,091	-0,036
-132,599	145,658	0,058	0,056
-131,585	-200,000	0,011	0,045
-130,570	-200,000	-0,006	-0,072
-129,556	-40,886	-0,091	-0,033
-128,541	115,838	0,133	-0,115
-127,526	-200,000	0,005	0,081
-126,512	-117,729	0,086	-0,011
-125,497	597,169	-0,057	0,101
-124,483	800,000	0,025	-0,067
-123,468	298,228	0,053	-0,069
-122,453	-150,004	-0,196	-0,011
-121,439	-45,045	-0,204	-0,071
-120,424	-133,457	0,049	-0,004
