DTS Sentinel unit serial number:	SN410029Multiplexer serial number:	ORYXHardware model number:	OX2-SRSoftware version number:	ORYX F/W v4,00 Oryx Data Collector v3.7.2.0data status	okinstallation	B6 Nyhavnadifferential loss correction	single-endedforward channel	channel 2reverse channel	N/Adate	2023/12/10time	06:45:08forward acquisition time	300,00reverse acquisition time	0,00gamma	499,1914k internal	0,3124k external	0,3124temperature offset calibration	1,0000default loss term (dB/km)	0,3820temperature slope calibration	1,0000multiplexer offset coefficient	1,0000multiplexer slope coefficient	1,0000fibre end	0,00T internal ref (°C)	22,62T ext. ref 1 (°C)	6,42T ext. ref 2 (°C)	6,40length (m)	temperature (°C)	Stokes	anti-Stokes-744,400	-200,000	-0,000	-0,069
-743,385	181,543	-0,206	0,227
-742,371	43,743	0,107	-0,073
-741,356	208,617	-0,101	0,118
-740,342	-200,000	0,005	0,098
-739,327	-133,081	-0,188	0,018
-738,312	362,770	0,049	-0,073
-737,298	-163,854	-0,230	-0,008
-736,283	92,493	0,013	0,011
-735,269	161,847	-0,208	0,217
-734,254	800,000	0,039	-0,092
-733,239	-61,662	-0,418	-0,130
-732,225	215,978	-0,079	-0,094
-731,210	800,000	0,026	-0,083
-730,196	-22,897	0,159	0,071
-729,181	460,718	-0,058	-0,096
-728,167	636,872	-0,080	0,151
-727,152	36,828	-0,015	-0,010
-726,137	7,202	-0,031	-0,017
-725,123	-200,000	0,007	-0,051
-724,108	-64,358	-0,171	0,052
-723,094	-200,000	0,026	-0,143
-722,079	174,587	-0,114	-0,123
-721,064	-200,000	-0,053	-0,211
-720,050	800,000	-0,065	-0,175
-719,035	-200,000	0,015	-0,093
-718,021	399,239	-0,068	-0,106
-717,006	339,885	0,023	-0,034
-715,991	46,712	-0,149	0,103
-714,977	-200,000	-0,007	-0,034
-713,962	208,533	-0,126	-0,147
-712,948	68,091	0,035	-0,026
-711,933	-200,000	-0,035	0,130
-710,918	22,964	-0,089	-0,054
-709,904	-27,095	-0,117	-0,050
-708,889	-200,000	-0,032	-0,215
-707,875	-44,578	-0,110	-0,041
-706,860	-200,000	0,002	-0,094
-705,845	-200,000	-0,010	-0,067
-704,831	148,279	0,111	-0,112
-703,816	94,986	-0,044	-0,037
-702,802	800,000	-0,029	0,081
-701,787	28,693	-0,096	-0,061
-700,772	329,854	-0,075	-0,107
-699,758	-200,000	-0,001	-0,134
-698,743	-119,688	0,047	-0,006
-697,729	800,000	-0,036	0,099
-696,714	154,775	0,046	0,047
-695,699	-200,000	0,004	-0,026
-694,685	800,000	-0,035	-0,103
-693,670	-23,967	0,084	-0,037
-692,656	-132,275	0,097	0,009
-691,641	784,109	-0,055	0,112
-690,627	327,534	0,066	-0,094
-689,612	-112,724	0,052	-0,008
-688,597	511,061	-0,037	0,064
-687,583	-200,000	0,011	-0,132
-686,568	-33,501	0,045	-0,018
-685,554	626,924	0,047	0,089
-684,539	-3,652	-0,033	0,017
-683,524	-200,000	-0,005	-0,047
-682,510	-55,261	-0,186	-0,062
-681,495	97,664	0,027	0,023
-680,481	-200,000	-0,045	-0,165
-679,466	154,953	0,044	0,045
-678,451	-200,000	-0,001	-0,012
-677,437	-30,044	0,164	-0,069
-676,422	144,105	-0,030	0,030
-675,408	24,218	0,142	-0,087
-674,393	800,000	-0,017	0,043
-673,378	65,481	-0,073	-0,055
-672,364	-200,000	0,008	-0,080
-671,349	-200,000	0,013	-0,103
-670,335	-200,000	-0,021	-0,243
-669,320	-200,000	-0,044	0,170
-668,305	121,709	0,087	-0,080
-667,291	-128,920	0,096	0,010
-666,276	169,610	-0,088	-0,094
-665,262	566,616	0,038	-0,068
-664,247	-200,000	0,029	-0,138
-663,232	-125,983	-0,033	0,004
-662,218	411,371	0,039	-0,061
-661,203	800,000	-0,057	0,117
-660,189	14,518	-0,097	-0,056
-659,174	-16,286	-0,167	-0,079
-658,159	52,518	-0,097	-0,069
-657,145	800,000	-0,053	-0,125
-656,130	237,664	0,086	0,106
-655,116	-143,469	0,197	-0,014
-654,101	-126,799	0,095	0,010
-653,086	-200,000	0,011	0,092
-652,072	-76,294	-0,059	-0,015
-651,057	-77,232	-0,145	-0,037
-650,043	-200,000	-0,012	-0,073
-649,028	800,000	0,050	0,109
-648,014	-49,044	0,087	0,031
-646,999	-44,963	-0,013	0,005
-645,984	575,279	-0,024	-0,043
-644,970	-200,000	-0,015	0,081
-643,955	-173,383	-0,072	-0,002
-642,941	800,000	-0,006	-0,013
-641,926	151,574	0,071	0,072
-640,911	800,000	0,027	0,060
-639,897	-84,722	0,127	-0,029
-638,882	18,810	-0,081	0,048
-637,868	-40,360	-0,084	-0,032
-636,853	800,000	-0,008	-0,019
-635,838	-200,000	0,023	-0,097
-634,824	800,000	-0,028	-0,077
-633,809	-200,000	-0,005	0,212
-632,795	800,000	-0,021	-0,066
-631,780	800,000	-0,015	0,040
-630,765	-200,000	-0,034	-0,129
-629,751	-127,895	0,005	-0,001
-628,736	-15,187	-0,105	0,050
-627,722	169,931	-0,084	0,089
-626,707	160,786	0,074	0,077
-625,692	-34,380	0,042	-0,017
-624,678	-200,000	-0,005	0,034
-623,663	-7,822	-0,122	-0,061
-622,649	-54,158	0,133	-0,045
-621,634	387,417	-0,088	-0,135
-620,619	-200,000	-0,019	-0,201
-619,605	800,000	0,033	-0,078
-618,590	800,000	0,046	-0,123
-617,576	791,375	0,034	0,070
-616,561	253,442	0,076	0,097
-615,546	-101,209	-0,233	0,042
-614,532	-137,071	-0,172	-0,014
-613,517	-161,697	-0,033	0,001
-612,503	168,558	-0,124	-0,131
-611,488	-200,000	-0,017	0,103
-610,474	576,055	-0,012	-0,022
-609,459	93,907	0,049	-0,041
-608,444	-200,000	0,047	-0,155
-607,430	-170,192	0,053	-0,001
-606,415	251,496	-0,054	-0,068
-605,401	-38,352	0,026	-0,010
-604,386	-106,590	0,098	0,016
-603,371	-12,012	-0,104	-0,050
-602,357	482,534	-0,009	0,015
-601,342	471,981	-0,039	-0,065
-600,328	-200,000	-0,004	-0,061
-599,313	-148,244	0,110	0,007
-598,298	800,000	0,044	0,092
-597,284	130,669	-0,102	-0,097
-596,269	6,107	0,106	-0,058
-595,255	586,849	-0,040	-0,073
-594,240	800,000	-0,009	0,018
-593,225	-38,982	-0,073	-0,028
-592,211	103,393	0,015	-0,013
-591,196	47,485	0,049	-0,034
-590,182	18,716	0,083	0,049
-589,167	800,000	0,069	0,155
-588,152	-161,922	0,075	-0,003
-587,138	-200,000	0,006	0,043
-586,123	800,000	0,013	-0,041
-585,109	-40,490	-0,156	0,060
-584,094	-134,613	-0,031	0,003
-583,079	154,306	-0,081	0,082
-582,065	-92,338	0,056	0,012
-581,050	46,784	-0,082	-0,056
-580,036	165,084	0,144	-0,150
-579,021	-64,572	-0,034	0,010
-578,006	800,000	-0,053	-0,110
-576,992	-111,898	0,109	0,016
-575,977	72,127	-0,031	-0,024
-574,963	0,452	0,143	0,075
-573,948	800,000	-0,067	0,156
-572,934	-200,000	-0,038	0,127
-571,919	-200,000	0,000	0,057
-570,904	-200,000	-0,029	-0,128
-569,890	-200,000	-0,006	0,041
-568,875	-130,172	0,057	0,006
-567,861	-200,000	-0,010	0,132
-566,846	270,940	-0,086	0,112
-565,831	-124,635	-0,037	0,004
-564,817	225,955	0,051	-0,061
-563,802	571,463	0,017	-0,030
-562,788	-200,000	-0,006	-0,039
-561,773	-200,000	0,028	-0,099
-560,758	67,146	0,256	-0,193
-559,744	-165,752	-0,057	-0,002
-558,729	593,414	-0,064	-0,117
-557,715	65,241	0,113	-0,085
-556,700	35,569	-0,057	-0,037
-555,685	62,987	-0,125	0,093
-554,671	207,494	-0,045	-0,052
-553,656	408,600	-0,021	0,033
-552,642	4,284	-0,025	-0,014
-551,627	-93,767	-0,037	0,007
-550,612	-102,439	0,120	0,021
-549,598	-20,969	-0,130	0,058
-548,583	52,355	-0,211	-0,149
-547,569	-141,410	-0,134	-0,010
-546,554	800,000	-0,027	-0,088
-545,539	800,000	0,039	-0,093
-544,525	262,258	0,081	-0,104
-543,510	-200,000	0,002	-0,105
-542,496	800,000	-0,011	-0,027
-541,481	-56,951	-0,131	-0,042
-540,466	169,824	-0,021	-0,022
-539,452	158,734	0,090	-0,092
-538,437	-25,429	0,096	0,042
-537,423	-114,517	0,071	-0,010
-536,408	83,718	-0,123	-0,099
-535,393	800,000	-0,021	0,061
-534,379	-31,443	-0,034	0,014
-533,364	149,273	-0,078	-0,078
-532,350	-35,462	0,071	0,028
-531,335	192,735	-0,021	0,024
-530,321	58,246	0,083	0,060
-529,306	-129,822	0,032	0,003
-528,291	800,000	0,023	0,072
-527,277	800,000	0,015	0,043
-526,262	244,880	-0,040	-0,050
-525,248	-200,000	-0,014	-0,078
-524,233	-28,119	0,185	0,079
-523,218	-200,000	0,026	0,146
-522,204	-155,191	0,065	-0,003
-521,189	400,244	-0,058	-0,090
-520,175	-200,000	0,010	-0,101
-519,160	27,421	0,094	-0,058
-518,145	-24,908	0,058	-0,025
-517,131	-93,071	0,053	0,011
-516,116	-130,225	0,063	-0,006
-515,102	-200,000	-0,019	0,123
-514,087	-200,000	0,014	-0,050
-513,072	800,000	-0,045	0,105
-512,058	800,000	-0,032	-0,088
-511,043	97,824	0,068	-0,058
-510,029	480,978	0,048	-0,081
-509,014	-23,106	-0,037	-0,016
-507,999	-200,000	0,003	0,101
-506,985	-105,039	-0,210	0,035
-505,970	-71,485	0,125	0,034
-504,956	323,919	0,064	0,090
-503,941	606,861	-0,057	-0,106
-502,926	-153,426	-0,084	-0,004
-501,912	-200,000	0,007	0,062
-500,897	-9,625	-0,230	0,113
-499,883	-65,249	0,071	0,021
-498,868	-31,259	-0,110	-0,046
-497,853	-79,969	0,015	0,004
-496,839	-81,026	-0,033	0,008
-495,824	173,497	0,128	0,136
-494,810	-200,000	0,003	-0,028
-493,795	-10,803	0,104	0,050
-492,781	7,617	-0,188	0,104
-491,766	-80,112	0,087	-0,021
-490,751	7,843	-0,102	0,056
-489,737	-200,000	0,005	-0,032
-488,722	-0,391	-0,047	0,025
-487,708	247,635	0,112	0,140
-486,693	299,356	0,026	-0,035
-485,678	439,062	0,026	-0,042
-484,664	-200,000	0,008	-0,064
-483,649	53,199	-0,070	-0,050
-482,635	-200,000	0,000	-0,079
-481,620	800,000	0,016	-0,050
-480,605	-37,749	-0,033	0,013
-479,591	800,000	-0,038	0,120
-478,576	-3,883	0,072	-0,037
-477,562	-116,471	0,115	-0,016
-476,547	42,491	-0,106	-0,071
-475,532	-152,382	-0,210	-0,011
-474,518	-166,332	0,080	0,002
-473,503	-200,000	0,002	-0,039
-472,489	-105,988	-0,115	0,019
-471,474	-200,000	-0,009	0,035
-470,459	235,757	-0,041	-0,050
-469,445	363,249	-0,038	0,056
-468,430	800,000	0,023	-0,073
-467,416	-83,443	0,088	0,021
-466,401	7,667	0,042	0,023
-465,386	-200,000	0,033	0,150
-464,372	-200,000	-0,004	-0,058
-463,357	291,299	0,037	-0,050
-462,343	326,543	0,032	-0,045
-461,328	-200,000	-0,020	0,104
-460,313	800,000	0,022	0,063
-459,299	800,000	-0,009	0,029
-458,284	257,944	0,039	0,049
-457,270	108,921	0,023	-0,020
-456,255	-200,000	0,005	0,106
-455,241	-177,041	-0,086	0,002
-454,226	-45,333	-0,068	0,025
-453,211	408,463	-0,023	-0,035
-452,197	54,541	0,065	0,046
-451,182	99,716	0,100	0,085
-450,168	-200,000	0,015	-0,109
-449,153	-162,933	-0,057	-0,002
-448,138	227,023	-0,097	-0,116
-447,124	-200,000	0,008	-0,051
-446,109	704,847	0,033	-0,064
-445,095	69,326	0,035	-0,027
-444,080	-76,281	0,032	-0,008
-443,065	125,805	-0,038	0,035
-442,051	800,000	-0,032	-0,095
-441,036	3,328	-0,084	-0,045
-440,022	-200,000	0,016	-0,056
-439,007	800,000	-0,048	-0,105
-437,992	198,461	0,073	0,082
-436,978	351,642	0,043	0,063
-435,963	-200,000	-0,006	0,102
-434,949	36,966	0,034	-0,022
-433,934	800,000	0,010	-0,021
-432,919	180,938	-0,032	0,035
-431,905	428,546	0,055	-0,088
-430,890	-163,116	0,154	-0,005
-429,876	391,377	-0,039	-0,059
-428,861	15,471	-0,024	-0,014
-427,846	197,516	-0,029	-0,033
-426,832	-200,000	0,009	0,047
-425,817	-63,094	0,244	-0,074
-424,803	800,000	-0,048	-0,104
-423,788	-138,981	-0,151	-0,012
-422,773	-144,656	0,076	0,005
-421,759	-157,991	0,154	0,007
-420,744	71,727	0,024	0,019
-419,730	33,526	-0,080	0,051
-418,715	-196,367	-0,140	0,001
-417,701	-92,440	-0,107	-0,022
-416,686	800,000	-0,012	0,035
-415,671	-200,000	-0,006	0,041
-414,657	-94,425	0,098	0,020
-413,642	-200,000	-0,064	-0,000
-412,628	642,643	0,029	0,055
-411,613	-153,206	-0,073	-0,004
-410,598	115,832	-0,068	-0,061
-409,584	800,000	0,024	0,053
-408,569	417,826	-0,026	-0,041
-407,555	-200,000	0,007	-0,069
-406,540	-69,000	0,109	-0,031
-405,525	186,916	-0,044	0,049
-404,511	-102,336	0,066	0,011
-403,496	143,651	0,049	-0,048
-402,482	-200,000	-0,038	-0,133
-401,467	-166,761	0,034	-0,001
-400,452	335,409	-0,098	0,140
-399,438	-200,000	-0,004	-0,040
-398,423	-123,642	-0,108	-0,012
-397,409	294,133	-0,035	-0,047
-396,394	-43,825	0,071	0,026
-395,379	642,781	0,017	-0,032
-394,365	-46,697	0,034	-0,012
-393,350	800,000	0,074	0,152
-392,336	216,458	-0,118	-0,138
-391,321	89,334	-0,110	0,090
-390,306	301,099	0,016	-0,022
-389,292	800,000	-0,028	-0,086
-388,277	311,712	0,060	0,083
-387,263	79,466	0,095	0,074
-386,248	306,105	-0,081	-0,111
-385,233	87,692	0,108	0,088
-384,219	740,091	-0,017	0,033
-383,204	-76,442	0,055	-0,014
-382,190	352,512	0,045	0,066
-381,175	-200,000	0,007	-0,181
-380,160	-91,817	0,105	-0,022
-379,146	75,411	-0,037	-0,029
-378,131	172,877	0,078	0,083
-377,117	800,000	0,032	0,086
-376,102	281,384	-0,107	-0,140
-375,088	248,151	0,050	-0,063
-374,073	-151,851	0,069	-0,004
-373,058	-34,139	0,167	0,067
-372,044	-8,664	-0,093	-0,046
-371,029	182,242	0,043	-0,046
-370,015	-200,000	0,036	0,138
-369,000	-35,568	-0,104	0,041
-367,985	207,136	-0,057	-0,066
-366,971	100,271	0,063	0,054
-365,956	659,988	0,082	-0,155
-364,942	725,522	-0,025	-0,050
-363,927	800,000	0,043	-0,099
-362,912	-138,450	0,113	0,009
-361,898	-84,567	-0,113	0,026
-360,883	-24,942	0,110	-0,048
-359,869	-200,000	-0,007	-0,073
-358,854	10,941	-0,012	0,006
-357,839	134,071	-0,087	0,083
-356,825	-34,455	0,069	-0,027
-355,810	-98,703	0,116	0,022
-354,796	275,538	0,037	-0,049
-353,781	-200,000	0,018	-0,076
-352,766	93,849	-0,048	-0,040
-351,752	203,574	0,008	0,009
-350,737	-111,525	-0,128	0,019
-349,723	148,674	-0,073	0,072
-348,708	151,184	0,107	0,107
-347,693	121,251	0,045	-0,041
-346,679	318,582	-0,044	0,062
-345,664	126,105	-0,081	-0,075
-344,650	800,000	-0,005	0,017
-343,635	800,000	-0,024	-0,058
-342,620	574,455	-0,020	0,036
-341,606	142,944	-0,044	-0,043
-340,591	211,388	-0,100	-0,116
-339,577	800,000	-0,021	-0,065
-338,562	-200,000	-0,014	0,060
-337,548	92,651	0,113	-0,094
-336,533	665,343	0,080	0,152
-335,518	-0,296	-0,063	0,033
-334,504	-152,745	0,083	-0,004
-333,489	800,000	-0,038	0,098
-332,475	728,567	-0,065	-0,128
-331,460	103,637	-0,042	-0,036
-330,445	-76,804	-0,131	-0,033
-329,431	800,000	0,029	0,090
-328,416	9,713	0,105	-0,058
-327,402	800,000	0,020	0,043
-326,387	268,174	-0,047	0,061
-325,372	61,648	-0,129	0,094
-324,358	79,353	0,127	-0,100
-323,343	40,805	-0,077	0,051
-322,329	168,968	-0,067	0,070
-321,314	-200,000	0,010	0,063
-320,299	-146,473	-0,111	-0,007
-319,285	56,287	0,038	-0,027
-318,270	-200,000	0,012	-0,073
-317,256	194,257	-0,055	-0,061
-316,241	-15,638	-0,033	-0,015
-315,226	-6,947	0,054	0,027
-314,212	43,801	0,034	0,023
-313,197	128,905	-0,027	0,025
-312,183	-61,428	-0,084	0,026
-311,168	561,445	-0,059	0,106
-310,153	515,474	-0,065	0,111
-309,139	-34,959	0,084	0,034
-308,124	800,000	-0,040	0,116
-307,110	588,976	0,038	-0,069
-306,095	-200,000	-0,014	0,072
-305,080	-6,969	-0,090	0,044
-304,066	-200,000	0,016	-0,066
-303,051	800,000	0,043	0,103
-302,037	-25,566	-0,059	-0,025
-301,022	245,100	-0,087	0,107
-300,008	-30,231	0,055	0,023
-298,993	282,442	0,113	0,149
-297,978	-158,519	0,074	-0,003
-296,964	-200,000	0,006	-0,051
-295,949	-85,463	-0,135	-0,031
-294,935	378,163	0,065	-0,097
-293,920	406,846	0,032	-0,049
-292,905	800,000	-0,027	-0,073
-291,891	-36,399	0,089	0,035
-290,876	800,000	-0,024	0,050
-289,862	-172,316	0,102	0,002
-288,847	-54,720	-0,092	-0,030
-287,832	273,238	0,038	-0,049
-286,818	800,000	-0,033	-0,077
-285,803	52,455	0,130	0,091
-284,789	41,917	0,103	0,068
-283,774	50,089	0,030	0,020
-282,759	-200,000	-0,001	0,073
-281,745	800,000	-0,040	0,126
-280,730	17,107	-0,137	0,079
-279,716	271,064	-0,091	0,118
-278,701	-68,872	-0,045	0,013
-277,686	-123,942	-0,087	0,010
-276,672	57,350	0,050	-0,036
-275,657	-51,174	-0,011	0,004
-274,643	261,086	-0,118	-0,149
-273,628	378,394	-0,104	-0,156
-272,613	11,673	0,051	0,028
-271,599	800,000	0,037	0,085
-270,584	-81,783	-0,142	-0,034
-269,570	-15,861	0,106	-0,049
-268,555	-122,931	0,022	-0,003
-267,540	-117,072	0,094	-0,012
-266,526	-200,000	-0,010	0,061
-265,511	33,967	0,088	0,056
-264,497	25,501	0,098	0,060
-263,482	-128,978	0,047	-0,005
-262,467	800,000	-0,030	0,090
-261,453	166,533	0,072	-0,075
-260,438	152,248	-0,067	-0,067
-259,424	-200,000	-0,023	-0,088
-258,409	-154,832	-0,045	-0,002
-257,395	-84,402	0,149	0,034
-256,380	288,178	0,032	-0,043
-255,365	-32,441	-0,115	0,047
-254,351	-200,000	-0,025	0,132
-253,336	800,000	0,022	0,066
-252,322	-200,000	0,013	-0,082
-251,307	671,172	-0,063	-0,120
-250,292	113,181	-0,030	-0,027
-249,278	-200,000	0,020	0,075
-248,263	800,000	-0,011	0,023
-247,249	136,384	0,061	-0,058
-246,234	21,716	-0,079	0,047
-245,219	477,976	0,039	-0,064
-244,205	-200,000	0,007	-0,106
-243,190	800,000	0,027	-0,075
-242,176	134,367	0,045	-0,043
-241,161	15,706	0,076	-0,044
-240,146	305,360	-0,081	-0,110
-239,132	-200,000	0,000	-0,081
-238,117	-29,652	0,115	0,048
-237,103	3,352	-0,125	-0,066
-236,088	-60,649	0,110	-0,034
-235,073	800,000	-0,018	-0,041
-234,059	-136,721	0,081	-0,007
-233,044	-89,386	0,048	0,010
-232,030	217,976	-0,053	-0,062
-231,015	33,370	0,058	0,037
-230,000	-200,000	-0,001	-0,120
-228,986	24,398	-0,047	0,028
-227,971	-200,000	0,009	0,033
-226,957	18,317	0,090	0,052
-225,942	76,476	0,070	0,054
-224,927	-200,000	-0,034	-0,116
-223,913	-194,998	0,145	0,001
-222,898	800,000	-0,089	-0,218
-221,884	-64,109	-0,107	0,032
-220,869	69,771	0,100	0,076
-219,855	-51,970	0,100	0,034
-218,840	800,000	0,083	0,188
-217,825	-200,000	0,003	0,034
-216,811	284,967	0,055	-0,072
-215,796	-30,095	-0,027	0,011
-214,782	-200,000	0,013	0,099
-213,767	-44,238	-0,075	0,027
-212,752	751,227	0,044	0,087
-211,738	-106,336	0,055	-0,009
-210,723	-200,000	0,012	0,076
-209,709	569,376	-0,070	-0,126
-208,694	-91,064	-0,146	-0,030
-207,679	-44,603	-0,114	0,041
-206,665	36,872	0,139	-0,089
-205,650	11,573	0,125	0,070
-204,636	-14,570	-0,135	0,063
-203,621	-200,000	-0,012	-0,067
-202,606	-145,232	0,072	0,005
-201,592	0,107	-0,099	-0,051
-200,577	-29,626	-0,120	-0,050
-199,563	-10,270	0,025	-0,012
-198,548	497,503	0,032	0,054
-197,533	242,376	0,157	0,192
-196,519	-97,041	0,071	-0,013
-195,504	305,857	-0,049	0,066
-194,490	800,000	-0,016	-0,038
-193,475	-200,000	-0,024	0,104
-192,460	-200,000	0,045	0,146
-191,446	181,405	0,070	-0,076
-190,431	-200,000	-0,003	0,150
-189,417	-200,000	-0,022	0,097
-188,402	-200,000	0,036	0,147
-187,387	-133,692	-0,061	-0,005
-186,373	384,134	0,050	0,075
-185,358	-86,626	0,112	0,025
-184,344	800,000	0,065	0,156
-183,329	192,653	-0,066	-0,072
-182,315	-146,012	0,138	-0,009
-181,300	800,000	-0,080	0,203
-180,285	20,779	-0,070	0,041
-179,271	-63,418	-0,047	0,014
-178,256	41,501	-0,108	-0,071
-177,242	800,000	-0,034	0,069
-176,227	-121,146	-0,084	-0,010
-175,212	48,066	0,103	-0,070
-174,198	-200,000	-0,016	0,070
-173,183	-158,338	0,093	-0,004
-172,169	-200,000	-0,003	-0,014
-171,154	-22,437	-0,060	0,026
-170,139	644,268	0,042	0,079
-169,125	-200,000	0,016	0,113
-168,110	-200,000	-0,009	-0,062
-167,096	478,479	0,105	-0,174
-166,081	-66,467	-0,194	-0,056
-165,066	-143,407	-0,055	-0,004
-164,052	7,830	-0,020	-0,011
-163,037	-200,000	-0,017	-0,069
-162,023	308,589	0,022	-0,030
-161,008	556,479	0,037	0,065
-159,993	55,437	0,093	0,065
-158,979	645,796	-0,063	-0,118
-157,964	178,939	-0,031	-0,033
-156,950	161,840	-0,077	0,079
-155,935	-54,724	-0,037	-0,012
-154,920	-4,865	-0,026	0,013
-153,906	498,020	0,115	0,194
-152,891	765,849	0,045	0,089
-151,877	146,981	-0,043	0,042
-150,862	43,342	0,068	-0,045
-149,847	-111,212	0,099	0,015
-148,833	654,002	0,057	0,106
-147,818	-81,200	0,126	0,030
-146,804	80,149	0,150	0,117
-145,789	349,455	-0,014	0,021
-144,775	-68,146	-0,060	-0,017
-143,760	724,876	0,011	0,022
-142,745	-157,630	0,105	-0,005
-141,731	246,185	0,068	-0,083
-140,716	207,163	-0,121	0,137
-139,702	-98,471	-0,140	0,026
-138,687	65,735	0,082	-0,061
-137,672	800,000	-0,020	-0,057
-136,658	541,510	-0,065	0,113
-135,643	-56,881	0,105	-0,034
-134,629	156,833	-0,038	-0,038
-133,614	800,000	-0,035	0,100
-132,599	800,000	0,053	0,144
-131,585	-200,000	-0,006	-0,025
-130,570	-200,000	-0,021	-0,140
-129,556	77,072	-0,136	0,105
-128,541	5,052	0,072	0,038
-127,526	-200,000	-0,015	0,079
-126,512	-79,846	0,093	-0,023
-125,497	-200,000	0,002	-0,030
-124,483	-200,000	0,024	0,137
-123,468	-132,636	0,052	-0,005
-122,453	343,193	-0,011	0,015
-121,439	-200,000	-0,009	-0,109
-120,424	365,595	0,092	-0,134
-119,410	592,970	-0,027	-0,049
