DTS Sentinel unit serial number:	SN410029Multiplexer serial number:	ORYXHardware model number:	OX2-SRSoftware version number:	ORYX F/W v4,00 Oryx Data Collector v3.7.2.0data status	okinstallation	B6 Nyhavnadifferential loss correction	single-endedforward channel	channel 2reverse channel	N/Adate	2023/12/10time	00:20:08forward acquisition time	300,00reverse acquisition time	0,00gamma	499,1914k internal	0,3126k external	0,3126temperature offset calibration	1,0000default loss term (dB/km)	0,3820temperature slope calibration	1,0000multiplexer offset coefficient	1,0000multiplexer slope coefficient	1,0000fibre end	0,00T internal ref (°C)	21,81T ext. ref 1 (°C)	5,69T ext. ref 2 (°C)	5,66length (m)	temperature (°C)	Stokes	anti-Stokes-744,400	800,000	-0,056	0,163
-743,385	57,159	-0,161	0,117
-742,371	164,354	0,071	0,075
-741,356	-30,251	-0,234	0,099
-740,342	101,057	-0,046	0,040
-739,327	-85,710	-0,160	0,037
-738,312	-7,708	0,142	0,071
-737,298	-82,841	-0,272	0,065
-736,283	-84,271	0,037	-0,009
-735,269	-74,407	-0,165	0,044
-734,254	-200,000	-0,024	-0,085
-733,239	-55,792	-0,374	-0,124
-732,225	-6,746	0,098	-0,049
-731,210	-11,841	0,023	-0,011
-730,196	-200,000	-0,005	0,048
-729,181	-122,658	-0,153	0,018
-728,167	151,487	-0,037	-0,037
-727,152	-109,436	0,058	-0,009
-726,137	193,478	-0,023	-0,026
-725,123	-200,000	-0,029	-0,158
-724,108	60,341	-0,055	0,040
-723,094	800,000	-0,039	-0,082
-722,079	178,793	-0,079	-0,086
-721,064	119,758	0,112	-0,103
-720,050	187,889	0,055	0,061
-719,035	-200,000	-0,007	0,107
-718,021	800,000	-0,037	-0,077
-717,006	-168,081	-0,068	-0,002
-715,991	211,250	-0,110	-0,129
-714,977	120,555	-0,108	-0,100
-713,962	444,307	0,062	0,102
-712,948	-200,000	0,006	-0,133
-711,933	309,434	0,034	0,047
-710,918	433,285	0,014	0,023
-709,904	714,242	0,044	0,088
-708,889	16,454	-0,086	-0,051
-707,875	800,000	-0,083	-0,188
-706,860	17,404	-0,133	0,078
-705,845	-57,285	-0,090	-0,029
-704,831	-200,000	-0,004	-0,046
-703,816	-148,276	0,069	0,004
-702,802	45,147	-0,021	-0,014
-701,787	-14,980	-0,097	0,046
-700,772	-200,000	-0,034	-0,194
-699,758	78,481	0,092	-0,073
-698,743	30,756	0,139	0,088
-697,729	-133,421	0,054	0,005
-696,714	800,000	-0,058	-0,192
-695,699	-200,000	-0,142	-0,000
-694,685	-176,068	-0,033	-0,001
-693,670	800,000	0,043	-0,093
-692,656	-187,368	0,135	0,001
-691,641	800,000	-0,032	0,095
-690,627	800,000	0,027	0,080
-689,612	38,172	-0,104	0,069
-688,597	589,693	-0,025	0,046
-687,583	-200,000	-0,000	0,017
-686,568	465,624	-0,060	0,100
-685,554	-63,679	0,060	-0,018
-684,539	124,186	-0,083	-0,078
-683,524	265,152	0,027	0,035
-682,510	-8,754	0,047	0,023
-681,495	165,244	-0,072	0,075
-680,481	-123,836	-0,063	0,007
-679,466	-28,829	-0,199	-0,084
-678,451	224,469	-0,051	-0,061
-677,437	33,550	-0,044	0,029
-676,422	227,946	0,058	0,071
-675,408	131,977	0,126	0,120
-674,393	199,012	-0,047	-0,054
-673,378	-112,725	-0,182	0,027
-672,364	130,266	0,030	-0,028
-671,349	208,771	0,046	-0,053
-670,335	52,229	0,073	0,052
-669,320	800,000	-0,043	0,097
-668,305	90,361	0,119	0,099
-667,291	-200,000	-0,003	-0,112
-666,276	-200,000	-0,047	-0,156
-665,262	-200,000	0,010	-0,135
-664,247	-200,000	-0,027	-0,155
-663,232	296,321	0,094	-0,128
-662,218	-97,961	-0,091	-0,017
-661,203	800,000	0,037	0,103
-660,189	800,000	0,053	-0,124
-659,174	99,170	-0,134	0,115
-658,159	81,362	0,066	-0,053
-657,145	-103,550	-0,022	-0,004
-656,130	226,596	0,061	-0,073
-655,116	294,459	0,028	-0,038
-654,101	800,000	-0,041	0,112
-653,086	149,470	-0,047	0,047
-652,072	-16,652	-0,135	-0,063
-651,057	-29,513	-0,145	0,061
-650,043	-157,976	0,017	-0,001
-649,028	-65,949	-0,083	0,025
-648,014	-49,697	0,035	-0,012
-646,999	8,211	-0,040	0,022
-645,984	-129,112	0,101	0,010
-644,970	-103,940	-0,056	0,010
-643,955	-120,276	0,099	-0,012
-642,941	800,000	0,029	0,081
-641,926	-24,050	-0,092	-0,041
-640,911	109,226	-0,032	0,029
-639,897	-143,294	0,013	0,001
-638,882	7,630	-0,088	0,049
-637,868	43,541	-0,022	0,015
-636,853	207,284	0,051	0,059
-635,838	391,592	0,020	-0,031
-634,824	-28,864	-0,052	0,022
-633,809	373,207	0,045	0,068
-632,795	292,167	0,045	0,060
-631,780	-200,000	-0,002	-0,123
-630,765	-109,372	0,013	0,002
-629,751	-200,000	-0,005	-0,076
-628,736	-200,000	0,042	-0,188
-627,722	-200,000	-0,006	-0,039
-626,707	115,683	0,086	-0,078
-625,692	-200,000	-0,005	-0,057
-624,678	-20,028	-0,063	0,029
-623,663	-200,000	-0,006	0,063
-622,649	-143,600	-0,137	0,010
-621,634	-170,848	-0,038	-0,001
-620,619	-200,000	-0,024	0,081
-619,605	-200,000	-0,007	-0,085
-618,590	-200,000	-0,007	0,113
-617,576	158,465	0,058	0,060
-616,561	-85,741	-0,118	0,027
-615,546	114,794	-0,123	-0,111
-614,532	-97,163	-0,154	-0,029
-613,517	800,000	0,008	-0,024
-612,503	6,729	-0,036	-0,020
-611,488	14,654	-0,035	-0,020
-610,474	-106,837	0,130	0,021
-609,459	24,305	-0,027	-0,016
-608,444	73,252	0,134	-0,104
-607,430	417,289	-0,070	0,110
-606,415	658,058	0,036	0,069
-605,401	-105,424	-0,114	-0,019
-604,386	17,549	0,101	0,059
-603,371	-150,412	0,038	-0,002
-602,357	-101,046	-0,098	-0,018
-601,342	800,000	-0,026	0,063
-600,328	257,002	-0,035	-0,044
-599,313	-200,000	0,013	-0,185
-598,298	-200,000	-0,005	-0,123
-597,284	-200,000	-0,041	-0,162
-596,269	17,140	0,198	-0,116
-595,255	-200,000	-0,025	-0,133
-594,240	800,000	0,024	-0,078
-593,225	-10,500	0,065	-0,032
-592,211	145,052	-0,037	-0,036
-591,196	-200,000	-0,016	0,076
-590,182	-88,722	-0,048	-0,011
-589,167	-200,000	0,033	0,141
-588,152	800,000	-0,018	0,050
-587,138	371,135	-0,059	0,089
-586,123	312,751	-0,006	0,009
-585,109	780,087	-0,040	-0,081
-584,094	-200,000	-0,002	0,012
-583,079	387,240	-0,032	0,049
-582,065	-200,000	0,062	-0,000
-581,050	-34,950	-0,006	0,002
-580,036	-30,513	0,044	-0,018
-579,021	211,050	-0,042	-0,049
-578,006	-200,000	0,022	-0,084
-576,992	-200,000	0,008	-0,044
-575,977	-200,000	-0,006	-0,037
-574,963	-116,987	-0,120	-0,016
-573,948	-3,265	-0,069	0,036
-572,934	150,720	0,119	-0,119
-571,919	-200,000	0,002	0,011
-570,904	-12,909	0,043	0,020
-569,890	-52,301	-0,026	-0,009
-568,875	-133,967	0,096	0,009
-567,861	158,706	-0,054	-0,055
-566,846	116,663	0,018	-0,016
-565,831	-106,619	0,109	0,018
-564,817	177,006	-0,125	-0,134
-563,802	191,800	0,026	0,029
-562,788	800,000	0,049	-0,137
-561,773	167,659	-0,049	0,051
-560,758	-200,000	-0,010	0,107
-559,744	-37,274	0,053	-0,021
-558,729	-138,479	0,112	0,009
-557,715	-87,172	-0,087	-0,019
-556,700	-200,000	-0,038	-0,160
-555,685	-200,000	-0,023	-0,080
-554,671	267,022	0,030	-0,039
-553,656	40,629	-0,054	-0,036
-552,642	-200,000	0,007	0,086
-551,627	148,958	0,117	0,117
-550,612	-39,204	-0,130	-0,050
-549,598	-200,000	-0,001	-0,069
-548,583	-200,000	-0,009	-0,050
-547,569	-200,000	0,009	-0,071
-546,554	-200,000	-0,030	0,127
-545,539	44,630	-0,057	0,038
-544,525	-38,974	0,097	0,037
-543,510	-111,052	0,086	-0,013
-542,496	-200,000	0,000	-0,075
-541,481	67,776	0,108	-0,081
-540,466	-85,058	-0,115	0,026
-539,452	166,411	-0,028	0,029
-538,437	800,000	0,040	0,104
-537,423	-20,011	-0,072	-0,033
-536,408	13,836	0,017	-0,010
-535,393	-83,616	-0,167	-0,039
-534,379	-73,159	-0,047	0,013
-533,364	-134,689	-0,086	-0,008
-532,350	-200,000	0,009	0,137
-531,335	-200,000	-0,013	-0,044
-530,321	51,518	-0,115	-0,081
-529,306	-135,844	-0,101	-0,009
-528,291	-128,515	0,065	-0,007
-527,277	325,050	-0,015	-0,021
-526,262	-200,000	-0,006	0,050
-525,248	-200,000	0,004	-0,157
-524,233	612,776	0,078	-0,144
-523,218	766,711	-0,022	0,045
-522,204	171,274	0,049	-0,052
-521,189	39,459	-0,016	0,011
-520,175	136,094	-0,089	-0,085
-519,160	-183,122	0,099	-0,001
-518,145	27,663	0,087	-0,054
-517,131	-2,055	0,075	0,039
-516,116	376,343	-0,082	-0,124
-515,102	-114,540	-0,075	-0,011
-514,087	351,052	-0,067	-0,099
-513,072	42,353	0,035	-0,023
-512,058	-200,000	-0,015	0,071
-511,043	244,122	-0,044	0,055
-510,029	800,000	-0,003	0,009
-509,014	53,190	0,111	-0,078
-507,999	-10,275	0,049	0,024
-506,985	-200,000	0,016	0,161
-505,970	-28,144	-0,095	-0,040
-504,956	-69,472	-0,091	-0,026
-503,941	-8,182	0,011	0,006
-502,926	-200,000	0,025	0,085
-501,912	3,055	0,063	-0,034
-500,897	-47,187	0,079	-0,028
-499,883	-200,000	0,006	0,054
-498,868	114,924	0,129	-0,116
-497,853	-18,288	-0,067	0,031
-496,839	-200,000	0,006	0,095
-495,824	-121,227	0,085	0,010
-494,810	98,898	-0,047	0,040
-493,795	800,000	-0,039	-0,095
-492,781	10,634	-0,143	-0,080
-491,766	57,705	-0,111	-0,080
-490,751	-200,000	-0,004	-0,146
-489,737	12,918	0,083	-0,047
-488,722	37,427	-0,055	-0,036
-487,708	111,536	0,056	0,050
-486,693	3,190	0,072	-0,039
-485,678	162,956	0,064	-0,067
-484,664	102,107	-0,008	-0,007
-483,649	800,000	-0,053	-0,113
-482,635	-119,321	0,116	-0,015
-481,620	-67,477	-0,055	0,016
-480,605	48,443	0,097	-0,067
-479,591	-200,000	0,001	0,054
-478,576	800,000	0,016	-0,049
-477,562	-57,743	-0,144	-0,046
-476,547	-158,477	-0,100	-0,004
-475,532	452,106	0,004	0,006
-474,518	34,517	0,054	0,034
-473,503	-94,932	0,060	0,012
-472,489	-1,276	-0,054	0,028
-471,474	93,209	0,063	0,052
-470,459	-59,458	-0,161	-0,051
-469,445	145,074	0,040	0,040
-468,430	202,130	-0,025	-0,028
-467,416	140,661	0,062	0,060
-466,401	-200,000	-0,011	0,083
-465,386	-200,000	0,039	0,138
-464,372	-132,068	-0,120	0,011
-463,357	299,467	0,077	-0,105
-462,343	800,000	-0,028	0,058
-461,328	-29,112	0,111	0,047
-460,313	196,997	0,076	-0,085
-459,299	-72,671	0,098	0,026
-458,284	7,566	0,042	0,023
-457,270	-180,178	0,023	0,000
-456,255	646,821	-0,054	0,103
-455,241	-87,861	-0,097	-0,021
-454,226	-68,629	-0,034	-0,010
-453,211	-197,642	0,218	-0,001
-452,197	-55,607	-0,019	0,006
-451,182	-118,564	-0,004	-0,001
-450,168	-200,000	0,022	-0,156
-449,153	162,908	-0,055	0,057
-448,138	-200,000	0,016	-0,122
-447,124	-169,581	-0,135	-0,004
-446,109	-155,312	-0,073	-0,003
-445,095	97,548	0,089	-0,075
-444,080	-200,000	0,051	0,166
-443,065	220,891	0,090	0,106
-442,051	-22,474	-0,082	0,036
-441,036	73,970	0,050	-0,038
-440,022	193,334	-0,114	0,127
-439,007	-200,000	0,023	0,092
-437,992	-18,774	0,160	-0,073
-436,978	201,224	0,091	0,103
-435,963	675,025	0,043	-0,083
-434,949	-131,088	0,096	-0,009
-433,934	-6,725	0,026	0,013
-432,919	8,550	-0,010	0,006
-431,905	-200,000	0,026	0,153
-430,890	-146,258	-0,005	0,000
-429,876	562,933	0,077	0,137
-428,861	-53,844	0,060	-0,020
-427,846	-14,334	-0,061	-0,029
-426,832	-200,000	0,036	0,144
-425,817	-200,000	-0,002	-0,043
-424,803	-189,125	-0,053	0,000
-423,788	450,940	-0,075	0,123
-422,773	-27,185	-0,024	-0,010
-421,759	800,000	-0,026	-0,060
-420,744	-79,363	0,124	0,031
-419,730	762,751	-0,020	-0,041
-418,715	-200,000	-0,040	-0,184
-417,701	619,801	-0,095	-0,177
-416,686	126,284	0,084	0,078
-415,671	38,097	-0,009	-0,006
-414,657	-42,685	-0,052	-0,019
-413,642	800,000	-0,005	-0,013
-412,628	800,000	-0,057	-0,157
-411,613	56,772	-0,080	0,057
-410,598	109,487	-0,040	-0,036
-409,584	-200,000	0,018	0,065
-408,569	-200,000	-0,002	-0,029
-407,555	229,550	0,168	0,202
-406,540	-200,000	0,026	0,108
-405,525	503,114	-0,023	0,038
-404,511	800,000	-0,049	0,151
-403,496	175,271	-0,066	0,071
-402,482	144,588	-0,087	0,086
-401,467	-164,990	0,132	0,004
-400,452	-200,000	-0,019	0,090
-399,438	-91,608	-0,066	-0,014
-398,423	168,460	0,050	0,052
-397,409	-72,729	-0,098	-0,026
-396,394	-24,448	-0,121	0,053
-395,379	-200,000	-0,012	0,138
-394,365	367,118	0,020	0,030
-393,350	189,916	-0,053	-0,059
-392,336	249,520	-0,021	0,026
-391,321	-55,086	0,064	0,021
-390,306	41,135	-0,074	-0,049
-389,292	-200,000	0,005	-0,040
-388,277	800,000	-0,022	-0,065
-387,263	-200,000	0,014	0,051
-386,248	800,000	0,041	0,105
-385,233	-21,075	0,036	0,016
-384,219	169,633	-0,109	0,114
-383,204	-89,921	-0,040	0,009
-382,190	-200,000	0,043	-0,164
-381,175	-117,155	0,045	-0,006
-380,160	800,000	0,057	0,126
-379,146	-200,000	-0,019	-0,130
-378,131	-200,000	-0,044	0,164
-377,117	-200,000	-0,025	-0,138
-376,102	-200,000	0,009	0,043
-375,088	-200,000	0,024	0,094
-374,073	-200,000	0,015	0,075
-373,058	30,362	0,054	0,034
-372,044	-200,000	0,000	0,059
-371,029	140,987	-0,032	0,031
-370,015	-200,000	0,005	0,020
-369,000	800,000	-0,081	-0,199
-367,985	800,000	-0,042	-0,101
-366,971	309,670	0,145	-0,199
-365,956	-118,121	-0,064	-0,008
-364,942	89,525	0,083	0,068
-363,927	318,427	-0,037	0,052
-362,912	-75,341	0,105	-0,027
-361,898	82,674	0,044	-0,035
-360,883	800,000	0,019	-0,057
-359,869	-200,000	0,002	0,022
-358,854	238,629	0,067	-0,082
-357,839	0,022	0,103	0,054
-356,825	800,000	0,058	0,118
-355,810	596,546	-0,026	0,047
-354,796	-186,173	-0,121	-0,001
-353,781	260,161	-0,070	-0,090
-352,766	800,000	0,020	-0,057
-351,752	-200,000	-0,008	0,138
-350,737	-200,000	0,004	0,112
-349,723	-200,000	0,010	-0,044
-348,708	-200,000	0,019	-0,065
-347,693	362,517	-0,045	0,066
-346,679	37,969	-0,049	-0,032
-345,664	800,000	-0,026	-0,060
-344,650	-12,761	-0,019	0,009
-343,635	-200,000	-0,005	0,067
-342,620	406,257	0,024	0,037
-341,606	-200,000	-0,005	-0,106
-340,591	111,937	0,038	0,034
-339,577	-200,000	-0,023	0,122
-338,562	-200,000	-0,004	-0,110
-337,548	-79,955	0,146	-0,036
-336,533	-200,000	-0,010	-0,051
-335,518	-200,000	-0,015	0,066
-334,504	-54,143	-0,113	-0,037
-333,489	23,332	0,101	0,060
-332,475	46,602	-0,033	-0,022
-331,460	20,791	-0,127	-0,075
-330,445	-171,929	0,089	0,002
-329,431	237,826	0,035	0,042
-328,416	316,068	0,057	-0,078
-327,402	-200,000	0,011	-0,093
-326,387	-21,650	-0,041	0,018
-325,372	293,728	0,025	-0,033
-324,358	-200,000	0,010	-0,080
-323,343	-34,048	0,058	-0,023
-322,329	446,815	-0,013	0,022
-321,314	-200,000	0,010	-0,059
-320,299	-68,539	-0,048	-0,014
-319,285	-50,136	0,029	0,010
-318,270	-17,569	-0,033	0,015
-317,256	216,808	-0,066	-0,077
-316,241	-47,324	-0,066	0,023
-315,226	800,000	0,030	-0,070
-314,212	-118,523	0,214	0,027
-313,197	-200,000	0,008	0,031
-312,183	82,986	-0,095	0,076
-311,168	323,619	0,031	-0,043
-310,153	268,281	-0,161	-0,206
-309,139	332,606	0,052	-0,073
-308,124	-133,986	0,090	-0,008
-307,110	-127,449	0,123	0,013
-306,095	800,000	-0,062	-0,161
-305,080	207,271	-0,024	0,027
-304,066	12,750	0,097	0,055
-303,051	800,000	0,095	0,267
-302,037	-12,411	-0,030	0,015
-301,022	112,874	-0,116	0,103
-300,008	300,217	0,118	0,160
-298,993	800,000	-0,009	0,024
-297,978	483,922	-0,121	-0,202
-296,964	126,125	-0,133	0,123
-295,949	439,023	-0,018	0,029
-294,935	800,000	-0,053	-0,132
-293,920	374,453	0,048	0,072
-292,905	-135,460	-0,098	-0,008
-291,891	260,337	0,091	0,116
-290,876	324,066	0,093	0,130
-289,862	-32,446	0,052	-0,021
-288,847	-200,000	0,024	0,085
-287,832	-157,315	-0,094	-0,004
-286,818	-95,389	0,156	0,030
-285,803	203,369	0,064	0,072
-284,789	-23,926	0,159	0,069
-283,774	800,000	0,004	-0,009
-282,759	52,077	-0,114	-0,079
-281,745	-133,149	-0,170	-0,016
-280,730	7,966	-0,098	0,053
-279,716	280,819	0,094	0,123
-278,701	52,212	0,140	0,098
-277,686	-200,000	0,015	0,072
-276,672	-58,839	-0,078	0,025
-275,657	75,270	0,030	0,023
-274,643	28,576	-0,162	-0,100
-273,628	-200,000	-0,034	-0,121
-272,613	54,820	-0,138	-0,097
-271,599	745,539	0,019	0,037
-270,584	-200,000	0,022	0,199
-269,570	18,207	0,097	0,057
-268,555	-86,457	0,163	0,036
-267,540	-110,564	-0,230	0,034
-266,526	-200,000	0,010	-0,143
-265,511	100,522	-0,078	-0,067
-264,497	800,000	0,023	-0,048
-263,482	-134,942	0,146	-0,013
-262,467	28,610	-0,064	0,040
-261,453	99,133	-0,032	0,027
-260,438	654,285	-0,032	-0,060
-259,424	493,993	-0,061	-0,103
-258,409	139,962	0,055	-0,053
-257,395	583,175	-0,016	-0,029
-256,380	-200,000	0,006	0,050
-255,365	-65,840	-0,091	0,026
-254,351	63,308	0,068	0,050
-253,336	-200,000	-0,005	-0,123
-252,322	24,204	-0,091	0,055
-251,307	-143,615	-0,063	-0,004
-250,292	-89,745	-0,093	0,020
-249,278	-66,884	0,087	0,025
-248,263	295,585	0,025	-0,034
-247,249	-55,564	0,010	0,003
-246,234	182,198	-0,073	-0,078
-245,219	117,676	0,093	-0,084
-244,205	-200,000	0,016	-0,065
-243,190	-26,629	0,183	-0,078
-242,176	49,454	0,137	0,094
-241,161	-152,007	0,086	-0,005
-240,146	18,109	0,239	-0,139
-239,132	157,026	-0,079	0,080
-238,117	800,000	0,016	0,047
-237,103	-2,312	0,070	-0,035
-236,088	800,000	-0,022	-0,060
-235,073	-108,415	0,088	0,014
-234,059	-3,411	-0,089	0,045
-233,044	-200,000	0,025	-0,120
-232,030	-10,813	0,033	-0,016
-231,015	-4,611	-0,041	0,021
-230,000	736,012	-0,082	-0,161
-228,986	800,000	-0,044	0,100
-227,971	-200,000	0,002	0,077
-226,957	-2,801	0,048	0,024
-225,942	166,670	-0,026	0,027
-224,927	-200,000	-0,005	0,055
-223,913	-77,712	-0,052	0,013
-222,898	-63,001	-0,034	-0,010
-221,884	-107,310	0,090	-0,014
-220,869	800,000	-0,056	0,137
-219,855	228,781	0,074	-0,088
-218,840	55,815	0,082	0,058
-217,825	-64,918	-0,105	0,031
-216,811	-32,968	0,051	0,021
-215,796	-200,000	-0,012	-0,086
-214,782	148,443	0,086	-0,084
-213,767	800,000	0,040	0,108
-212,752	-39,639	-0,013	0,005
-211,738	-66,977	-0,034	-0,010
-210,723	800,000	-0,017	0,046
-209,709	800,000	-0,039	0,108
-208,694	560,313	0,048	-0,086
-207,679	111,171	-0,065	0,057
-206,665	-29,769	0,120	0,050
-205,650	-200,000	0,003	-0,050
-204,636	378,502	0,074	0,111
-203,621	-20,252	-0,104	0,046
-202,606	120,572	-0,071	0,064
-201,592	-150,689	-0,115	0,006
-200,577	-106,675	-0,067	0,011
-199,563	633,428	-0,030	-0,056
-198,548	154,077	0,035	0,035
-197,533	800,000	-0,011	-0,022
-196,519	800,000	-0,060	0,163
-195,504	-28,592	-0,116	0,049
-194,490	394,558	-0,077	0,118
-193,475	-200,000	0,032	-0,172
-192,460	657,117	-0,041	0,078
-191,446	800,000	0,040	0,097
-190,431	-200,000	0,027	-0,119
-189,417	54,127	0,004	-0,003
-188,402	-138,647	0,131	-0,010
-187,387	-21,281	-0,075	-0,033
-186,373	26,255	0,072	-0,044
-185,358	9,148	-0,016	-0,009
-184,344	561,511	-0,030	0,053
-183,329	16,466	0,066	0,038
-182,315	-200,000	0,020	0,064
-181,300	800,000	-0,105	-0,219
-180,285	16,046	0,023	0,013
-179,271	-200,000	0,003	0,029
-178,256	800,000	0,050	0,143
-177,242	124,231	0,027	0,025
-176,227	6,666	-0,037	0,020
-175,212	800,000	-0,032	-0,066
-174,198	259,931	0,031	-0,039
-173,183	-67,290	0,088	-0,025
-172,169	-200,000	-0,004	-0,084
-171,154	-200,000	-0,014	-0,151
-170,139	64,084	-0,143	-0,104
-169,125	-200,000	-0,004	0,055
-168,110	-147,680	0,065	0,004
-167,096	136,137	-0,123	0,116
-166,081	800,000	0,018	0,043
-165,066	529,705	-0,067	-0,115
-164,052	-0,764	-0,101	-0,052
-163,037	800,000	0,025	0,072
-162,023	-200,000	-0,011	0,037
-161,008	800,000	0,054	0,118
-159,993	375,209	0,009	-0,013
-158,979	-24,264	0,056	0,024
-157,964	-200,000	-0,013	0,123
-156,950	109,573	0,050	0,044
-155,935	-200,000	-0,007	0,047
-154,920	-95,338	0,211	-0,041
-153,906	800,000	0,075	0,159
-152,891	770,577	-0,040	0,079
-151,877	-200,000	0,054	0,226
-150,862	-0,543	-0,094	0,048
-149,847	69,120	-0,091	0,068
-148,833	693,706	0,036	0,069
-147,818	21,386	0,030	0,018
-146,804	137,354	0,132	-0,125
-145,789	482,456	0,051	0,084
-144,775	132,677	0,040	-0,037
-143,760	-53,541	0,084	-0,028
-142,745	-200,000	0,005	-0,024
-141,731	-97,518	0,089	0,017
-140,716	-94,045	0,149	-0,029
-139,702	-200,000	0,027	0,135
-138,687	410,694	-0,045	-0,070
-137,672	-123,985	0,046	0,005
-136,658	-130,970	-0,027	-0,003
-135,643	1,007	-0,149	-0,077
-134,629	-75,569	0,078	0,020
-133,614	311,197	0,037	-0,050
-132,599	-150,795	0,102	0,006
-131,585	771,335	0,034	0,067
-130,570	800,000	-0,011	-0,026
-129,556	800,000	-0,017	0,051
-128,541	-40,777	-0,126	-0,047
-127,526	800,000	-0,038	0,084
-126,512	-200,000	0,008	-0,091
-125,497	-200,000	0,034	0,178
-124,483	-200,000	0,034	0,190
-123,468	-87,523	0,113	0,025
-122,453	196,721	-0,079	0,087
-121,439	800,000	-0,052	-0,114
-120,424	800,000	0,014	-0,034
-119,410	-200,000	0,004	0,095
