DTS Sentinel unit serial number:	SN410029Multiplexer serial number:	ORYXHardware model number:	OX2-SRSoftware version number:	ORYX F/W v4,00 Oryx Data Collector v3.7.2.0data status	okinstallation	B6 Nyhavnadifferential loss correction	single-endedforward channel	channel 2reverse channel	N/Adate	2023/12/09time	05:15:08forward acquisition time	300,00reverse acquisition time	0,00gamma	499,1914k internal	0,3144k external	0,3144temperature offset calibration	1,0000default loss term (dB/km)	0,3820temperature slope calibration	1,0000multiplexer offset coefficient	1,0000multiplexer slope coefficient	1,0000fibre end	0,00T internal ref (°C)	17,73T ext. ref 1 (°C)	2,20T ext. ref 2 (°C)	2,23length (m)	temperature (°C)	Stokes	anti-Stokes-744,400	-152,020	0,054	0,003
-743,385	-117,624	-0,182	0,024
-742,371	90,113	0,048	0,039
-741,356	32,031	-0,299	0,190
-740,342	-82,869	0,136	0,032
-739,327	-149,127	-0,239	-0,014
-738,312	-126,011	-0,095	-0,010
-737,298	-79,490	-0,355	-0,088
-736,283	350,134	0,027	-0,039
-735,269	-184,927	-0,354	-0,004
-734,254	-175,732	0,113	-0,002
-733,239	-31,126	-0,567	-0,236
-732,225	-113,909	0,205	0,029
-731,210	-88,023	0,018	0,004
-730,196	16,480	-0,082	-0,048
-729,181	69,599	0,062	-0,047
-728,167	-156,404	-0,129	-0,006
-727,152	3,922	-0,111	-0,060
-726,137	800,000	-0,045	-0,108
-725,123	-76,806	-0,039	0,010
-724,108	21,264	-0,052	-0,031
-723,094	218,648	-0,112	-0,132
-722,079	-200,000	-0,001	0,017
-721,064	-200,000	-0,006	-0,054
-720,050	800,000	0,029	-0,094
-719,035	-200,000	0,014	0,108
-718,021	120,843	0,005	0,005
-717,006	-5,297	0,067	0,034
-715,991	-200,000	0,005	-0,166
-714,977	382,883	-0,025	0,037
-713,962	60,125	0,063	-0,046
-712,948	279,360	-0,052	0,069
-711,933	-200,000	-0,014	0,103
-710,918	268,518	0,067	-0,087
-709,904	-200,000	-0,014	-0,125
-708,889	14,551	-0,151	-0,087
-707,875	-14,306	-0,080	-0,038
-706,860	-200,000	-0,008	-0,074
-705,845	264,299	-0,070	-0,090
-704,831	800,000	-0,036	0,096
-703,816	-113,112	0,090	0,013
-702,802	800,000	-0,009	0,020
-701,787	-45,156	-0,121	0,044
-700,772	-95,513	0,025	0,005
-699,758	135,601	0,023	0,022
-698,743	143,299	-0,032	-0,032
-697,729	217,235	0,093	0,110
-696,714	290,674	-0,111	-0,149
-695,699	-60,313	-0,100	-0,031
-694,685	-200,000	0,008	-0,091
-693,670	325,361	0,054	-0,076
-692,656	-118,609	-0,077	-0,010
-691,641	310,339	-0,087	0,121
-690,627	-104,190	-0,098	0,017
-689,612	-16,597	-0,119	0,055
-688,597	-45,640	-0,108	-0,039
-687,583	32,260	-0,079	0,050
-686,568	38,425	0,206	-0,135
-685,554	-200,000	-0,037	-0,152
-684,539	144,119	-0,029	-0,028
-683,524	220,567	0,118	0,141
-682,510	-54,527	-0,223	-0,074
-681,495	800,000	-0,078	-0,209
-680,481	190,111	-0,037	-0,041
-679,466	-200,000	0,010	-0,060
-678,451	800,000	-0,071	-0,161
-677,437	-57,730	-0,139	-0,045
-676,422	793,940	-0,046	0,095
-675,408	273,744	0,079	-0,103
-674,393	125,098	-0,057	-0,053
-673,378	187,281	-0,035	-0,038
-672,364	630,400	-0,040	-0,075
-671,349	708,032	-0,085	0,167
-670,335	-200,000	0,008	-0,091
-669,320	773,326	-0,072	0,146
-668,305	-122,786	-0,056	-0,007
-667,291	-72,124	-0,091	-0,025
-666,276	-200,000	0,022	0,107
-665,262	-146,291	-0,136	-0,009
-664,247	-200,000	0,005	-0,066
-663,232	-200,000	-0,025	-0,081
-662,218	-200,000	0,018	0,072
-661,203	-132,230	-0,067	-0,006
-660,189	-200,000	0,022	-0,128
-659,174	199,717	-0,086	-0,098
-658,159	16,896	-0,133	-0,078
-657,145	-60,315	0,049	0,015
-656,130	0,680	-0,061	-0,032
-655,116	-153,121	0,092	0,005
-654,101	-49,451	-0,075	-0,026
-653,086	-51,545	0,116	-0,040
-652,072	800,000	0,019	-0,047
-651,057	-171,978	0,021	0,000
-650,043	82,726	-0,048	-0,039
-649,028	-200,000	-0,018	-0,109
-648,014	156,098	-0,056	0,057
-646,999	800,000	-0,031	0,099
-645,984	800,000	0,025	0,069
-644,970	99,491	0,102	0,087
-643,955	-168,243	-0,045	0,001
-642,941	6,002	-0,045	0,025
-641,926	241,984	-0,097	-0,120
-640,911	361,838	0,020	-0,029
-639,897	-76,110	-0,111	0,029
-638,882	156,268	-0,060	0,061
-637,868	-133,953	0,059	-0,005
-636,853	-185,118	0,121	0,001
-635,838	276,604	0,065	-0,086
-634,824	93,438	0,107	-0,089
-633,809	800,000	0,005	-0,016
-632,795	800,000	0,053	0,123
-631,780	-120,659	0,090	0,011
-630,765	290,443	-0,027	0,037
-629,751	98,829	0,023	-0,019
-628,736	-2,538	-0,165	-0,085
-627,722	-54,443	-0,131	0,044
-626,707	-200,000	0,008	-0,139
-625,692	533,396	0,046	0,081
-624,678	10,028	-0,012	-0,007
-623,663	-75,632	-0,085	0,022
-622,649	800,000	0,029	-0,087
-621,634	-28,896	0,083	-0,035
-620,619	236,001	-0,054	0,066
-619,605	-200,000	0,005	-0,059
-618,590	262,121	0,013	0,017
-617,576	-35,054	0,080	-0,032
-616,561	66,659	-0,057	-0,043
-615,546	403,266	-0,059	-0,092
-614,532	71,608	0,088	-0,067
-613,517	266,650	-0,094	0,121
-612,503	-200,000	0,017	0,083
-611,488	484,217	-0,085	0,143
-610,474	82,834	-0,015	0,012
-609,459	18,007	-0,136	-0,080
-608,444	-152,699	0,085	0,004
-607,430	-86,330	-0,103	0,023
-606,415	-30,692	-0,178	-0,074
-605,401	800,000	0,014	-0,044
-604,386	0,096	0,100	-0,052
-603,371	707,122	0,015	0,029
-602,357	7,197	-0,090	0,049
-601,342	-200,000	-0,000	0,106
-600,328	24,682	0,074	0,045
-599,313	-19,664	-0,060	-0,027
-598,298	-83,210	0,049	0,011
-597,284	12,064	0,088	0,050
-596,269	183,095	0,060	0,065
-595,255	-6,076	0,080	0,040
-594,240	-200,000	0,003	-0,016
-593,225	-40,375	-0,043	-0,016
-592,211	-86,211	-0,142	0,032
-591,196	603,255	0,027	-0,050
-590,182	692,905	-0,041	-0,080
-589,167	-200,000	-0,001	-0,081
-588,152	-200,000	-0,031	-0,131
-587,138	546,506	0,060	0,105
-586,123	-128,884	-0,066	-0,007
-585,109	156,908	0,045	-0,046
-584,094	221,613	-0,049	0,058
-583,079	195,487	0,034	0,038
-582,065	22,633	0,068	0,041
-581,050	-30,082	-0,047	0,020
-580,036	173,155	-0,049	0,052
-579,021	800,000	0,008	-0,021
-578,006	192,103	-0,163	-0,181
-576,992	18,002	-0,058	0,034
-575,977	31,327	0,132	0,083
-574,963	-200,000	-0,026	0,116
-573,948	43,378	-0,070	-0,047
-572,934	-34,802	0,111	0,044
-571,919	80,075	0,007	-0,006
-570,904	-23,921	0,042	0,018
-569,890	-43,722	0,110	-0,040
-568,875	-6,825	0,134	-0,067
-567,861	800,000	-0,049	-0,150
-566,846	800,000	-0,053	0,116
-565,831	145,239	-0,099	-0,098
-564,817	-41,100	-0,069	0,026
-563,802	-136,203	-0,085	-0,007
-562,788	-52,764	-0,069	-0,023
-561,773	223,808	0,045	0,054
-560,758	-200,000	0,008	-0,037
-559,744	352,417	-0,038	0,056
-558,729	104,007	-0,105	0,090
-557,715	174,888	0,018	0,019
-556,700	136,098	-0,041	-0,039
-555,685	-60,246	-0,090	-0,028
-554,671	-39,979	0,065	-0,025
-553,656	21,408	0,149	0,089
-552,642	-50,237	0,043	0,015
-551,627	-122,409	-0,184	-0,022
-550,612	211,552	0,054	-0,063
-549,598	-200,000	-0,033	-0,108
-548,583	-27,412	-0,043	-0,018
-547,569	-200,000	0,007	0,048
-546,554	-127,385	0,116	0,012
-545,539	-52,175	-0,083	-0,028
-544,525	-200,000	0,000	0,056
-543,510	183,094	-0,023	0,025
-542,496	672,002	0,033	-0,063
-541,481	647,635	-0,035	-0,065
-540,466	-200,000	-0,007	0,035
-539,452	98,928	0,040	-0,034
-538,437	560,689	-0,036	-0,064
-537,423	175,157	-0,045	-0,048
-536,408	446,358	0,061	0,099
-535,393	-200,000	0,015	0,081
-534,379	35,408	-0,102	0,066
-533,364	127,932	0,115	0,107
-532,350	-200,000	-0,044	0,171
-531,335	500,594	0,040	0,069
-530,321	800,000	-0,036	-0,099
-529,306	481,211	-0,032	0,054
-528,291	-200,000	0,014	-0,058
-527,277	-200,000	-0,000	0,115
-526,262	-78,049	0,092	0,023
-525,248	-63,438	0,104	-0,031
-524,233	-125,151	-0,172	-0,019
-523,218	800,000	0,039	-0,121
-522,204	-200,000	-0,004	0,031
-521,189	800,000	0,032	0,079
-520,175	-200,000	-0,006	-0,092
-519,160	188,343	-0,059	-0,065
-518,145	-200,000	-0,038	0,147
-517,131	-40,174	0,159	-0,061
-516,116	-41,068	-0,039	0,015
-515,102	-200,000	0,014	-0,073
-514,087	-200,000	-0,015	0,110
-513,072	706,494	0,028	0,054
-512,058	-43,270	0,020	0,007
-511,043	-174,216	0,039	0,001
-510,029	22,919	0,100	0,060
-509,014	702,827	0,065	0,127
-507,999	260,311	-0,094	-0,120
-506,985	-200,000	-0,013	-0,114
-505,970	800,000	-0,019	0,051
-504,956	410,959	-0,064	-0,099
-503,941	-55,171	0,011	-0,004
-502,926	-62,023	0,050	0,015
-501,912	0,096	0,044	0,023
-500,897	47,903	-0,047	0,032
-499,883	-58,412	0,068	0,022
-498,868	-200,000	0,005	0,098
-497,853	58,518	-0,077	0,056
-496,839	-200,000	0,078	0,000
-495,824	346,319	0,011	-0,016
-494,810	603,111	-0,025	0,046
-493,795	46,571	-0,037	-0,025
-492,781	209,694	-0,030	-0,034
-491,766	-128,256	0,049	0,005
-490,751	-138,602	-0,216	-0,017
-489,737	-101,728	-0,151	-0,027
-488,722	-200,000	0,019	-0,097
-487,708	-183,199	0,116	0,001
-486,693	-200,000	0,013	-0,074
-485,678	188,753	-0,012	-0,014
-484,664	87,542	-0,030	-0,025
-483,649	-137,177	-0,150	0,012
-482,635	-114,605	-0,091	0,013
-481,620	-200,000	0,011	0,038
-480,605	-151,491	0,080	-0,004
-479,591	-200,000	-0,006	-0,068
-478,576	467,830	-0,050	0,083
-477,562	-104,464	-0,102	-0,017
-476,547	674,596	-0,085	-0,163
-475,532	652,596	0,037	0,069
-474,518	131,863	0,103	0,097
-473,503	182,905	0,054	-0,059
-472,489	138,619	-0,075	0,072
-471,474	800,000	-0,018	0,053
-470,459	-200,000	-0,010	-0,057
-469,445	-200,000	-0,008	0,045
-468,430	800,000	-0,063	-0,131
-467,416	-200,000	0,028	-0,114
-466,401	370,825	-0,088	-0,131
-465,386	196,418	0,055	-0,061
-464,372	192,565	-0,090	-0,099
-463,357	800,000	-0,059	-0,151
-462,343	-200,000	-0,001	-0,072
-461,328	-200,000	-0,014	-0,056
-460,313	-200,000	-0,017	0,071
-459,299	142,757	-0,036	-0,035
-458,284	-98,010	0,025	0,005
-457,270	-197,486	-0,063	0,000
-456,255	-53,709	0,037	0,012
-455,241	86,745	-0,047	-0,038
-454,226	-111,886	-0,186	0,027
-453,211	-145,202	0,111	-0,007
-452,197	-142,547	-0,039	0,003
-451,182	-112,298	0,122	0,018
-450,168	-200,000	0,023	0,077
-449,153	212,265	0,048	-0,056
-448,138	4,509	-0,056	-0,030
-447,124	333,840	0,035	-0,050
-446,109	47,688	0,102	0,070
-445,095	-106,073	0,031	0,005
-444,080	105,654	0,042	0,037
-443,065	-81,674	0,135	-0,032
-442,051	-200,000	0,007	-0,035
-441,036	-91,453	-0,064	-0,013
-440,022	105,985	-0,022	0,019
-439,007	-138,586	-0,141	0,011
-437,992	-200,000	-0,014	0,070
-436,978	-66,258	0,039	0,011
-435,963	-26,665	0,088	-0,038
-434,949	800,000	-0,021	0,064
-433,934	-200,000	-0,001	-0,056
-432,919	94,259	0,012	0,010
-431,905	-56,956	-0,116	0,037
-430,890	39,734	0,088	0,057
-429,876	-200,000	0,008	0,071
-428,861	168,966	0,063	0,065
-427,846	179,836	0,086	-0,092
-426,832	-82,234	-0,043	0,010
-425,817	800,000	0,051	0,111
-424,803	-119,935	0,127	-0,016
-423,788	151,452	-0,062	-0,062
-422,773	-135,703	0,046	0,004
-421,759	-69,751	-0,035	0,010
-420,744	-10,436	0,116	0,056
-419,730	-113,010	-0,089	-0,013
-418,715	-38,102	-0,040	-0,016
-417,701	-117,312	-0,088	0,012
-416,686	111,833	0,103	0,091
-415,671	800,000	0,064	0,137
-414,657	800,000	-0,047	-0,123
-413,642	-11,389	-0,124	0,059
-412,628	260,348	-0,052	-0,065
-411,613	-200,000	-0,004	-0,115
-410,598	-168,675	0,069	-0,002
-409,584	148,542	0,054	0,054
-408,569	800,000	-0,010	0,033
-407,555	-17,414	0,059	0,027
-406,540	336,695	0,113	-0,161
-405,525	-53,175	-0,115	-0,038
-404,511	-14,878	-0,072	0,034
-403,496	-200,000	0,019	-0,116
-402,482	800,000	-0,008	0,020
-401,467	-68,012	-0,034	0,010
-400,452	405,880	0,049	0,076
-399,438	-200,000	0,011	0,052
-398,423	-200,000	0,090	0,000
-397,409	-111,060	-0,092	0,014
-396,394	17,588	-0,054	-0,031
-395,379	800,000	-0,019	0,047
-394,365	-25,453	0,061	0,026
-393,350	800,000	0,050	-0,144
-392,336	133,953	0,061	-0,058
-391,321	-171,573	0,112	0,003
-390,306	-200,000	0,002	0,111
-389,292	800,000	0,034	0,090
-388,277	45,201	0,032	0,021
-387,263	-77,048	0,062	0,016
-386,248	187,755	0,042	0,046
-385,233	117,520	0,020	0,018
-384,219	-16,268	-0,057	-0,026
-383,204	333,479	-0,067	-0,095
-382,190	-23,937	-0,067	-0,029
-381,175	800,000	0,012	-0,033
-380,160	612,146	0,063	-0,115
-379,146	-28,857	-0,094	-0,039
-378,131	294,312	-0,081	0,108
-377,117	136,145	-0,076	-0,073
-376,102	800,000	-0,002	-0,004
-375,088	539,612	-0,036	-0,063
-374,073	4,382	-0,155	0,083
-373,058	-200,000	-0,016	0,059
-372,044	800,000	-0,076	0,189
-371,029	-200,000	0,028	0,134
-370,015	-53,773	-0,077	-0,026
-369,000	80,777	0,121	-0,095
-367,985	50,866	-0,116	-0,080
-366,971	36,979	-0,067	-0,043
-365,956	-55,804	0,049	-0,016
-364,942	-82,466	0,133	-0,031
-363,927	800,000	0,030	0,074
-362,912	800,000	0,050	0,127
-361,898	-26,510	-0,128	0,055
-360,883	-200,000	-0,016	-0,076
-359,869	-200,000	-0,022	-0,079
-358,854	-138,876	-0,075	0,006
-357,839	-134,064	0,102	-0,009
-356,825	-200,000	0,022	-0,090
-355,810	-200,000	0,026	-0,190
-354,796	171,352	-0,043	0,046
-353,781	243,152	0,055	0,067
-352,766	24,901	-0,083	0,050
-351,752	275,708	0,076	0,098
-350,737	-27,962	0,019	0,008
-349,723	30,414	0,055	0,035
-348,708	-25,887	0,094	0,040
-347,693	261,661	0,113	-0,143
-346,679	322,253	0,020	0,028
-345,664	-146,638	-0,087	-0,005
-344,650	-84,108	-0,105	0,024
-343,635	-200,000	-0,011	-0,118
-342,620	800,000	0,029	0,071
-341,606	-200,000	-0,004	-0,070
-340,591	308,993	-0,079	-0,108
-339,577	-18,534	-0,102	-0,046
-338,562	800,000	-0,050	-0,149
-337,548	-200,000	0,008	0,036
-336,533	7,890	0,114	-0,062
-335,518	112,590	-0,056	-0,049
-334,504	301,827	0,037	-0,050
-333,489	266,421	0,063	0,080
-332,475	800,000	-0,027	-0,074
-331,460	-119,593	-0,059	0,007
-330,445	52,414	0,067	0,046
-329,431	99,750	-0,082	0,070
-328,416	140,998	0,114	0,110
-327,402	-100,142	0,137	0,025
-326,387	46,669	-0,061	0,041
-325,372	800,000	-0,057	0,139
-324,358	437,246	-0,038	-0,060
-323,343	346,325	0,013	-0,018
-322,329	207,922	-0,061	-0,070
-321,314	237,480	0,119	0,144
-320,299	-87,714	0,103	0,022
-319,285	418,856	-0,057	0,089
-318,270	6,210	-0,168	-0,091
-317,256	-59,780	-0,071	0,022
-316,241	-200,000	0,029	0,114
-315,226	800,000	-0,029	0,088
-314,212	-200,000	0,006	0,195
-313,197	63,841	0,032	0,023
-312,183	667,571	-0,031	-0,059
-311,168	108,077	0,085	-0,073
-310,153	-200,000	-0,014	0,088
-309,139	-136,880	-0,010	-0,001
-308,124	450,910	-0,053	0,085
-307,110	-77,205	0,108	0,027
-306,095	-154,446	0,130	0,006
-305,080	50,700	0,189	0,130
-304,066	374,372	-0,033	0,049
-303,051	800,000	-0,037	-0,105
-302,037	-200,000	0,025	0,092
-301,022	800,000	0,050	-0,117
-300,008	258,903	0,044	0,055
-298,993	-110,270	0,152	-0,023
-297,978	77,951	-0,118	-0,091
-296,964	796,244	-0,068	-0,136
-295,949	14,383	-0,063	-0,036
-294,935	193,211	-0,041	-0,045
-293,920	800,000	0,039	0,120
-292,905	255,210	0,050	-0,063
-291,891	-53,602	-0,082	-0,027
-290,876	162,968	-0,069	0,070
-289,862	-200,000	0,007	-0,033
-288,847	800,000	0,020	-0,045
-287,832	-176,161	-0,014	-0,000
-286,818	-173,132	0,066	-0,001
-285,803	46,724	0,034	0,023
-284,789	140,365	0,048	-0,046
-283,774	-43,716	0,069	0,025
-282,759	-200,000	-0,023	0,000
-281,745	30,544	0,032	0,020
-280,730	15,444	-0,042	0,024
-279,716	-64,009	0,130	-0,038
-278,701	-200,000	-0,007	0,037
-277,686	-200,000	-0,031	0,194
-276,672	135,998	-0,051	0,048
-275,657	438,148	0,030	-0,047
-274,643	-200,000	-0,044	-0,156
-273,628	5,713	-0,141	0,075
-272,613	-200,000	0,002	0,028
-271,599	-48,269	-0,099	0,035
-270,584	-200,000	0,022	0,097
-269,570	-200,000	0,013	-0,069
-268,555	-30,311	-0,093	0,038
-267,540	-200,000	0,009	-0,049
-266,526	7,459	0,110	-0,059
-265,511	-200,000	-0,044	0,000
-264,497	660,352	-0,014	0,026
-263,482	-134,938	0,176	0,015
-262,467	271,190	0,026	-0,033
-261,453	82,296	0,056	0,044
-260,438	345,348	-0,067	-0,096
-259,424	-200,000	-0,037	0,169
-258,409	-200,000	-0,012	0,116
-257,395	800,000	-0,022	-0,065
-256,380	-200,000	0,001	0,068
-255,365	632,214	0,037	0,068
-254,351	-78,321	0,087	-0,021
-253,336	-200,000	-0,013	0,051
-252,322	-200,000	-0,003	0,068
-251,307	130,675	0,108	0,100
-250,292	800,000	0,021	0,063
-249,278	72,683	-0,119	0,090
-248,263	448,372	0,076	-0,122
-247,249	-200,000	0,024	-0,080
-246,234	-200,000	0,008	0,061
-245,219	425,427	-0,048	-0,075
-244,205	800,000	-0,022	-0,046
-243,190	61,268	0,079	-0,057
-242,176	800,000	-0,082	0,185
-241,161	-5,700	-0,122	0,061
-240,146	135,661	-0,045	-0,042
-239,132	403,582	0,039	0,061
-238,117	153,765	-0,089	0,088
-237,103	216,539	0,052	-0,060
-236,088	-4,619	-0,028	-0,014
-235,073	74,246	-0,025	0,019
-234,059	57,170	0,091	-0,064
-233,044	-30,014	-0,063	0,026
-232,030	-200,000	0,014	0,054
-231,015	55,447	-0,109	0,077
-230,000	83,476	-0,048	-0,038
-228,986	260,171	-0,021	0,026
-227,971	386,881	0,069	0,104
-226,957	-125,821	0,072	0,008
-225,942	348,120	-0,057	0,082
-224,927	150,931	-0,033	0,033
-223,913	800,000	-0,025	-0,054
-222,898	-200,000	0,009	-0,082
-221,884	-49,980	-0,184	-0,063
-220,869	-100,972	0,236	0,042
-219,855	372,463	-0,046	0,068
-218,840	800,000	0,032	0,077
-217,825	185,161	0,074	0,080
-216,811	-200,000	0,015	-0,095
-215,796	70,918	-0,092	-0,069
-214,782	-200,000	0,030	0,159
-213,767	-200,000	0,020	-0,102
-212,752	7,282	0,122	-0,066
-211,738	-122,709	0,096	0,011
-210,723	86,395	-0,069	-0,055
-209,709	-153,064	0,027	-0,001
-208,694	556,639	0,058	0,102
-207,679	-2,922	0,122	-0,061
-206,665	40,771	-0,126	-0,082
-205,650	-200,000	0,014	0,086
-204,636	-76,933	0,085	0,021
-203,621	-200,000	0,050	-0,185
-202,606	-200,000	-0,011	0,086
-201,592	-200,000	0,011	-0,089
-200,577	-35,123	-0,022	0,009
-199,563	-91,936	-0,093	0,019
-198,548	800,000	0,034	-0,069
-197,533	-119,426	0,012	-0,001
-196,519	-197,667	-0,036	-0,000
-195,504	800,000	-0,044	-0,127
-194,490	-43,037	0,013	0,005
-193,475	135,230	-0,142	-0,134
-192,460	-121,546	0,128	-0,015
-191,446	49,354	0,073	-0,050
-190,431	232,322	0,106	0,127
-189,417	-200,000	0,002	0,050
-188,402	-200,000	-0,012	-0,212
-187,387	135,492	0,084	-0,080
-186,373	-200,000	0,027	0,098
-185,358	18,669	0,111	-0,064
-184,344	106,897	0,078	-0,067
-183,329	351,884	0,030	0,043
-182,315	70,095	-0,051	-0,038
-181,300	772,939	-0,034	-0,068
-180,285	67,631	0,062	0,046
-179,271	578,953	-0,060	-0,107
-178,256	92,703	0,166	-0,136
-177,242	800,000	-0,052	-0,114
-176,227	-200,000	-0,009	0,098
-175,212	-46,388	0,126	0,045
-174,198	800,000	-0,038	0,090
-173,183	617,512	0,046	-0,084
-172,169	-36,458	-0,007	-0,003
-171,154	-200,000	-0,006	0,026
-170,139	14,472	0,043	-0,024
-169,125	510,187	0,021	-0,035
-168,110	71,973	0,081	-0,061
-167,096	-4,831	-0,106	0,053
-166,081	800,000	0,022	0,063
-165,066	-10,660	-0,121	0,058
-164,052	39,643	-0,040	-0,026
-163,037	3,059	0,035	-0,018
-162,023	102,103	0,041	-0,034
-161,008	527,207	-0,038	0,065
-159,993	516,395	0,047	-0,080
-158,979	142,156	-0,016	-0,015
-157,964	492,585	-0,007	0,012
-156,950	800,000	0,026	-0,056
-155,935	800,000	0,048	-0,123
-154,920	-3,105	0,038	0,019
-153,906	68,376	0,092	-0,068
-152,891	-99,277	-0,111	-0,020
-151,877	226,574	0,042	-0,049
-150,862	-200,000	0,018	-0,072
-149,847	-58,953	-0,096	0,030
-148,833	492,816	0,017	0,029
-147,818	800,000	-0,037	0,083
-146,804	100,208	0,044	0,037
-145,789	27,462	-0,077	-0,047
-144,775	58,705	-0,133	-0,094
-143,760	282,537	-0,030	-0,039
-142,745	78,670	-0,056	-0,043
-141,731	429,742	-0,085	-0,134
-140,716	22,238	-0,043	-0,025
-139,702	-42,821	-0,033	0,012
-138,687	-200,000	0,019	-0,089
-137,672	174,415	-0,083	-0,087
-136,658	-58,157	0,069	-0,022
-135,643	330,062	0,012	0,017
-134,629	-181,149	-0,166	0,002
-133,614	-65,949	0,119	-0,034
-132,599	-87,700	0,140	0,030
-131,585	-93,797	0,070	-0,014
-130,570	-44,317	0,092	-0,033
-129,556	349,048	0,031	-0,044
-128,541	-200,000	-0,007	0,023
-127,526	-200,000	-0,021	-0,076
-126,512	464,611	0,013	-0,022
-125,497	366,364	-0,023	-0,034
-124,483	800,000	0,043	-0,119
-123,468	78,541	0,154	-0,119
-122,453	-39,478	-0,131	0,049
-121,439	-200,000	0,011	0,037
-120,424	213,729	0,032	0,036
-119,410	-200,000	-0,040	0,138
-118,395	-1,682	-0,050	-0,025
