DTS Sentinel unit serial number:	SN410029Multiplexer serial number:	ORYXHardware model number:	OX2-SRSoftware version number:	ORYX F/W v4,00 Oryx Data Collector v3.7.2.0data status	okinstallation	B6 Nyhavnadifferential loss correction	single-endedforward channel	channel 2reverse channel	N/Adate	2023/12/08time	15:15:08forward acquisition time	300,00reverse acquisition time	0,00gamma	499,1914k internal	0,3159k external	0,3159temperature offset calibration	1,0000default loss term (dB/km)	0,3820temperature slope calibration	1,0000multiplexer offset coefficient	1,0000multiplexer slope coefficient	1,0000fibre end	0,00T internal ref (°C)	15,07T ext. ref 1 (°C)	-1,47T ext. ref 2 (°C)	-1,47length (m)	temperature (°C)	Stokes	anti-Stokes-744,400	-105,654	0,182	0,030
-743,385	-23,799	-0,169	0,074
-742,371	188,345	0,097	0,107
-741,356	-57,781	-0,295	0,094
-740,342	-137,312	0,121	-0,010
-739,327	-137,814	-0,466	-0,038
-738,312	-21,411	0,078	0,035
-737,298	-56,362	-0,353	-0,115
-736,283	-96,425	0,058	-0,011
-735,269	-149,168	-0,351	0,020
-734,254	-65,260	0,198	-0,058
-733,239	-0,056	-0,676	-0,354
-732,225	-16,166	0,244	-0,114
-731,210	-54,894	0,041	0,013
-730,196	23,789	-0,101	-0,061
-729,181	197,261	-0,057	0,065
-728,167	355,115	0,047	-0,068
-727,152	81,228	-0,046	-0,037
-726,137	-200,000	0,011	-0,036
-725,123	-200,000	-0,006	-0,099
-724,108	-200,000	-0,038	-0,179
-723,094	-43,495	-0,117	-0,043
-722,079	-131,467	-0,198	-0,019
-721,064	115,776	-0,102	-0,092
-720,050	-74,800	-0,049	-0,013
-719,035	331,983	-0,081	0,115
-718,021	194,387	0,086	-0,097
-717,006	2,876	-0,169	-0,090
-715,991	787,123	0,066	-0,135
-714,977	-200,000	-0,011	-0,044
-713,962	-200,000	0,005	0,036
-712,948	398,317	-0,038	-0,059
-711,933	220,639	0,067	-0,080
-710,918	174,298	0,035	-0,038
-709,904	-62,854	-0,055	-0,017
-708,889	-69,229	-0,079	0,022
-707,875	-200,000	0,004	0,092
-706,860	-200,000	0,018	0,065
-705,845	124,477	-0,091	-0,085
-704,831	178,717	-0,076	0,081
-703,816	-129,151	-0,040	-0,004
-702,802	-21,866	0,056	0,025
-701,787	-31,895	-0,094	-0,039
-700,772	41,819	-0,122	-0,081
-699,758	411,625	-0,078	-0,123
-698,743	-112,636	0,023	-0,003
-697,729	-64,550	-0,046	0,014
-696,714	19,069	0,057	0,034
-695,699	113,900	-0,037	-0,033
-694,685	227,094	0,045	-0,053
-693,670	-81,921	-0,104	0,025
-692,656	54,657	0,081	-0,058
-691,641	-200,000	0,035	-0,128
-690,627	26,992	0,145	0,089
-689,612	214,365	-0,057	-0,067
-688,597	722,849	-0,070	0,138
-687,583	-34,815	0,054	-0,022
-686,568	-59,575	-0,134	0,042
-685,554	215,101	0,028	-0,033
-684,539	-109,200	0,116	0,018
-683,524	-5,717	0,047	0,023
-682,510	33,897	0,083	0,053
-681,495	42,199	0,046	-0,030
-680,481	18,730	-0,029	-0,017
-679,466	-200,000	-0,003	0,049
-678,451	71,697	-0,096	-0,073
-677,437	-200,000	0,011	-0,040
-676,422	382,409	0,072	0,109
-675,408	800,000	-0,064	0,183
-674,393	224,754	0,053	-0,063
-673,378	77,268	0,060	-0,047
-672,364	41,125	0,074	-0,049
-671,349	-94,766	0,071	-0,014
-670,335	-34,094	0,058	0,023
-669,320	103,504	-0,040	-0,035
-668,305	-200,000	0,004	0,018
-667,291	281,025	-0,042	0,055
-666,276	7,040	-0,056	0,031
-665,262	-81,183	-0,170	0,041
-664,247	105,216	-0,047	-0,041
-663,232	278,574	-0,119	-0,156
-662,218	252,343	-0,044	0,056
-661,203	-200,000	0,000	-0,003
-660,189	800,000	-0,031	0,064
-659,174	-59,546	-0,058	-0,018
-658,159	-200,000	-0,004	-0,056
-657,145	169,466	0,079	0,083
-656,130	81,848	-0,058	0,046
-655,116	-70,902	-0,082	0,023
-654,101	148,980	0,045	0,045
-653,086	800,000	0,039	0,084
-652,072	-30,304	-0,104	0,043
-651,057	-200,000	-0,006	-0,169
-650,043	-85,849	-0,173	-0,039
-649,028	148,984	-0,020	0,019
-648,014	-40,900	0,048	-0,018
-646,999	187,213	0,050	-0,054
-645,984	244,660	-0,089	0,111
-644,970	97,739	-0,064	0,054
-643,955	-108,963	-0,032	0,005
-642,941	96,833	0,061	0,052
-641,926	-127,706	0,017	0,002
-640,911	-200,000	-0,005	0,060
-639,897	-90,826	0,056	-0,012
-638,882	609,380	0,042	-0,077
-637,868	-200,000	0,005	-0,073
-636,853	225,468	-0,034	-0,040
-635,838	457,805	0,072	-0,117
-634,824	-22,794	-0,128	-0,057
-633,809	-112,059	0,061	-0,009
-632,795	9,959	0,083	-0,046
-631,780	195,254	0,077	0,086
-630,765	800,000	0,036	-0,077
-629,751	800,000	-0,065	-0,134
-628,736	-200,000	0,007	-0,111
-627,722	55,749	0,053	-0,038
-626,707	-149,584	0,035	0,002
-625,692	167,309	-0,087	0,091
-624,678	-200,000	-0,016	0,130
-623,663	800,000	0,035	-0,094
-622,649	-200,000	0,011	0,092
-621,634	800,000	-0,034	-0,085
-620,619	-200,000	-0,034	0,122
-619,605	-154,005	0,157	-0,008
-618,590	-48,787	0,093	0,033
-617,576	-200,000	-0,004	-0,065
-616,561	322,723	-0,046	-0,065
-615,546	-200,000	-0,004	-0,082
-614,532	800,000	0,043	-0,091
-613,517	-74,302	-0,052	-0,014
-612,503	573,628	0,019	-0,035
-611,488	800,000	0,027	-0,072
-610,474	-84,657	0,034	-0,008
-609,459	73,965	-0,074	0,057
-608,444	391,462	0,105	-0,161
-607,430	-200,000	0,009	0,063
-606,415	69,135	0,029	-0,022
-605,401	-80,328	-0,079	-0,019
-604,386	-200,000	-0,011	0,048
-603,371	800,000	0,027	0,086
-602,357	11,996	0,050	-0,028
-601,342	-55,715	0,080	-0,026
-600,328	-200,000	0,013	-0,188
-599,313	800,000	-0,038	0,094
-598,298	-85,961	0,174	0,039
-597,284	-57,513	0,093	0,030
-596,269	306,235	0,008	-0,011
-595,255	-63,057	-0,028	-0,008
-594,240	4,421	0,163	-0,088
-593,225	206,691	-0,086	0,098
-592,211	443,413	-0,020	-0,032
-591,196	168,831	-0,091	-0,095
-590,182	800,000	-0,009	0,018
-589,167	-27,993	-0,164	0,069
-588,152	-140,380	0,165	0,012
-587,138	800,000	-0,051	0,131
-586,123	-18,749	0,107	-0,049
-585,109	133,868	-0,081	-0,077
-584,094	23,213	-0,011	0,007
-583,079	800,000	0,028	0,089
-582,065	264,684	-0,070	0,089
-581,050	377,173	-0,023	0,035
-580,036	-200,000	-0,007	-0,049
-579,021	70,623	-0,069	0,052
-578,006	-147,195	-0,082	-0,005
-576,992	-200,000	-0,021	0,081
-575,977	86,460	0,152	0,122
-574,963	-72,503	0,060	0,016
-573,948	800,000	0,021	-0,044
-572,934	118,810	0,119	0,108
-571,919	78,396	-0,059	-0,046
-570,904	800,000	0,058	-0,121
-569,890	158,178	-0,053	0,054
-568,875	457,884	-0,032	-0,053
-567,861	-25,170	0,081	0,035
-566,846	800,000	0,044	-0,138
-565,831	-112,961	-0,130	0,019
-564,817	198,470	0,060	-0,067
-563,802	800,000	-0,012	-0,037
-562,788	-200,000	0,000	0,044
-561,773	800,000	0,023	0,047
-560,758	263,671	-0,030	-0,039
-559,744	-11,370	-0,040	0,019
-558,729	320,034	0,029	0,040
-557,715	734,015	-0,088	-0,173
-556,700	294,168	-0,042	0,057
-555,685	-124,937	-0,161	0,018
-554,671	467,757	0,020	-0,033
-553,656	-179,851	0,160	-0,002
-552,642	17,950	-0,015	-0,008
-551,627	103,157	-0,104	0,090
-550,612	-200,000	0,024	-0,108
-549,598	800,000	-0,036	-0,093
-548,583	217,326	-0,078	-0,091
-547,569	100,441	-0,059	0,050
-546,554	-51,697	0,040	-0,014
-545,539	-200,000	-0,008	0,178
-544,525	-19,443	0,098	0,044
-543,510	-192,137	-0,099	0,001
-542,496	157,710	0,059	0,060
-541,481	-200,000	0,025	0,094
-540,466	108,020	0,065	0,057
-539,452	-84,767	-0,226	0,052
-538,437	159,911	0,035	-0,036
-537,423	168,406	0,057	-0,059
-536,408	-43,188	-0,047	-0,017
-535,393	3,909	-0,116	-0,062
-534,379	-200,000	0,004	-0,125
-533,364	-113,160	0,091	0,013
-532,350	-78,775	-0,029	0,007
-531,335	-77,693	0,034	0,008
-530,321	384,683	0,062	-0,093
-529,306	800,000	-0,015	-0,031
-528,291	522,016	-0,034	0,058
-527,277	28,352	-0,062	-0,038
-526,262	349,190	0,055	-0,080
-525,248	167,597	-0,053	-0,055
-524,233	-17,767	0,064	-0,029
-523,218	-118,028	-0,096	0,012
-522,204	34,602	-0,054	-0,035
-521,189	544,438	-0,048	0,084
-520,175	-200,000	-0,006	0,094
-519,160	-68,399	-0,098	-0,028
-518,145	800,000	0,045	-0,095
-517,131	-24,755	-0,063	-0,027
-516,116	43,055	-0,038	-0,025
-515,102	75,717	0,123	-0,095
-514,087	127,975	-0,077	0,071
-513,072	7,110	0,037	0,020
-512,058	800,000	-0,061	-0,156
-511,043	337,515	-0,070	0,100
-510,029	-200,000	0,009	0,081
-509,014	-200,000	0,014	0,081
-507,999	12,620	-0,021	-0,012
-506,985	76,187	-0,108	-0,084
-505,970	-200,000	-0,002	-0,127
-504,956	309,498	-0,081	-0,111
-503,941	-200,000	-0,006	-0,023
-502,926	201,207	-0,028	-0,031
-501,912	-120,121	0,050	0,006
-500,897	74,223	0,130	-0,100
-499,883	523,270	0,044	0,076
-498,868	-147,973	-0,074	-0,004
-497,853	800,000	-0,028	0,073
-496,839	-124,671	-0,032	-0,004
-495,824	546,929	0,029	0,050
-494,810	-200,000	0,013	0,188
-493,795	-76,268	0,085	-0,022
-492,781	16,605	-0,143	-0,082
-491,766	-172,907	-0,027	0,001
-490,751	10,753	-0,039	-0,022
-489,737	-49,545	-0,092	-0,032
-488,722	620,430	-0,059	0,108
-487,708	-200,000	0,002	0,018
-486,693	-200,000	-0,011	-0,040
-485,678	-200,000	-0,004	-0,165
-484,664	176,073	-0,097	-0,103
-483,649	84,426	0,054	-0,043
-482,635	325,528	0,078	-0,110
-481,620	784,179	-0,045	0,090
-480,605	180,108	0,051	0,055
-479,591	800,000	0,012	-0,027
-478,576	-200,000	-0,011	-0,104
-477,562	800,000	-0,009	0,024
-476,547	-200,000	-0,016	-0,065
-475,532	-200,000	-0,001	-0,070
-474,518	-200,000	-0,014	0,057
-473,503	-52,183	0,075	-0,025
-472,489	-200,000	0,009	0,129
-471,474	-200,000	-0,020	-0,070
-470,459	293,782	-0,047	-0,062
-469,445	117,590	-0,036	-0,033
-468,430	440,024	-0,031	0,050
-467,416	395,369	-0,137	-0,209
-466,401	302,762	0,060	0,082
-465,386	-200,000	-0,011	0,060
-464,372	-178,540	-0,058	-0,001
-463,357	500,208	-0,045	-0,076
-462,343	-200,000	-0,005	-0,019
-461,328	95,753	-0,045	-0,037
-460,313	-200,000	0,022	0,085
-459,299	6,995	0,070	-0,038
-458,284	290,947	0,009	-0,012
-457,270	-151,522	-0,068	0,004
-456,255	333,946	-0,076	-0,107
-455,241	-148,020	0,081	-0,005
-454,226	-76,224	-0,132	-0,034
-453,211	-105,858	-0,128	0,021
-452,197	-96,530	0,008	0,002
-451,182	-147,367	0,088	0,005
-450,168	800,000	-0,031	0,094
-449,153	38,037	-0,070	-0,045
-448,138	-7,134	-0,064	-0,032
-447,124	443,505	0,085	-0,137
-446,109	-27,788	0,068	0,029
-445,095	-200,000	0,004	0,015
-444,080	-120,492	0,161	0,020
-443,065	228,667	0,040	0,048
-442,051	-16,924	0,049	-0,023
-441,036	-200,000	-0,009	-0,129
-440,022	-55,918	-0,115	0,037
-439,007	-70,785	0,102	-0,028
-437,992	-11,583	0,063	-0,030
-436,978	-42,566	-0,019	-0,007
-435,963	193,951	-0,038	0,042
-434,949	-105,787	0,075	0,012
-433,934	-200,000	-0,015	0,050
-432,919	-24,808	0,120	-0,052
-431,905	-145,248	0,129	-0,008
-430,890	-166,001	-0,091	0,003
-429,876	-140,266	0,080	-0,006
-428,861	-200,000	0,018	-0,085
-427,846	144,210	-0,052	-0,051
-426,832	63,007	0,015	-0,011
-425,817	-86,941	-0,105	0,023
-424,803	-119,059	-0,140	-0,018
-423,788	89,569	0,058	-0,047
-422,773	-200,000	0,034	0,144
-421,759	568,361	-0,027	0,047
-420,744	1,928	-0,083	0,044
-419,730	-200,000	0,002	0,023
-418,715	800,000	-0,010	0,023
-417,701	155,671	-0,083	-0,084
-416,686	193,230	0,067	-0,074
-415,671	800,000	-0,016	-0,041
-414,657	473,060	0,090	0,149
-413,642	269,697	-0,106	-0,136
-412,628	-129,307	-0,072	-0,007
-411,613	198,873	-0,086	0,096
-410,598	-81,296	-0,029	0,007
-409,584	506,265	0,026	-0,044
-408,569	-93,740	-0,084	-0,017
-407,555	800,000	-0,061	0,145
-406,540	800,000	-0,054	0,152
-405,525	-200,000	0,015	-0,051
-404,511	150,073	0,072	0,072
-403,496	-98,126	-0,143	0,027
-402,482	-77,351	0,179	-0,045
-401,467	-200,000	0,008	-0,048
-400,452	-70,420	-0,011	-0,003
-399,438	112,733	0,132	0,117
-398,423	-200,000	-0,011	0,043
-397,409	520,872	0,060	-0,103
-396,394	51,554	-0,113	-0,078
-395,379	121,735	0,035	-0,031
-394,365	-200,000	0,006	0,113
-393,350	595,823	-0,038	0,069
-392,336	210,381	-0,114	-0,131
-391,321	293,380	0,044	-0,058
-390,306	-73,175	-0,053	0,014
-389,292	90,773	-0,043	-0,035
-388,277	148,198	-0,090	-0,089
-387,263	-200,000	-0,008	0,115
-386,248	-200,000	0,002	-0,040
-385,233	-32,515	-0,051	0,021
-384,219	-200,000	0,022	0,096
-383,204	-104,221	0,083	-0,014
-382,190	44,211	0,082	0,055
-381,175	800,000	0,049	-0,100
-380,160	785,685	-0,033	0,067
-379,146	800,000	-0,038	0,110
-378,131	622,271	0,037	-0,068
-377,117	-200,000	-0,019	-0,156
-376,102	-200,000	0,020	-0,157
-375,088	-58,203	-0,067	-0,021
-374,073	616,422	-0,010	0,018
-373,058	-136,196	-0,106	0,009
-372,044	-117,089	0,145	0,019
-371,029	-48,506	-0,098	-0,034
-370,015	-200,000	-0,009	0,032
-369,000	49,097	0,062	-0,042
-367,985	-55,934	0,056	0,018
-366,971	800,000	0,030	-0,061
-365,956	527,019	0,027	-0,047
-364,942	-200,000	0,005	0,051
-363,927	-200,000	-0,004	0,034
-362,912	369,796	0,085	0,126
-361,898	-76,093	-0,035	-0,009
-360,883	800,000	0,010	0,032
-359,869	800,000	-0,040	0,102
-358,854	-72,343	0,178	-0,048
-357,839	800,000	0,013	-0,028
-356,825	145,375	0,102	-0,099
-355,810	116,719	0,033	0,030
-354,796	-61,231	-0,059	-0,018
-353,781	-45,503	0,020	0,007
-352,766	-200,000	-0,004	-0,108
-351,752	78,888	0,027	-0,021
-350,737	158,188	-0,042	0,043
-349,723	-85,806	0,156	-0,035
-348,708	252,774	-0,074	-0,092
-347,693	-91,095	-0,081	-0,017
-346,679	161,532	-0,019	0,019
-345,664	-200,000	-0,015	-0,109
-344,650	-96,683	0,032	-0,006
-343,635	176,603	0,041	0,044
-342,620	800,000	-0,016	-0,046
-341,606	800,000	-0,045	0,135
-340,591	340,960	-0,067	-0,096
-339,577	-140,168	0,066	0,005
-338,562	-80,243	-0,042	-0,010
-337,548	18,528	-0,018	0,010
-336,533	-119,851	0,097	-0,012
-335,518	-63,850	0,174	0,051
-334,504	-125,066	-0,059	0,007
-333,489	-200,000	0,020	-0,097
-332,475	-64,732	-0,084	0,025
-331,460	-200,000	-0,002	-0,015
-330,445	-72,144	0,219	-0,058
-329,431	-200,000	0,023	0,095
-328,416	-114,271	0,174	0,024
-327,402	132,236	0,037	0,035
-326,387	110,515	0,084	-0,073
-325,372	-177,819	-0,047	-0,001
-324,358	-102,400	-0,044	-0,008
-323,343	190,141	-0,039	-0,043
-322,329	-138,268	0,153	-0,012
-321,314	501,752	-0,046	0,077
-320,299	800,000	-0,044	0,130
-319,285	99,975	-0,052	0,043
-318,270	-140,187	-0,098	-0,007
-317,256	396,222	-0,048	0,074
-316,241	-200,000	-0,036	0,197
-315,226	-159,079	0,052	0,002
-314,212	43,415	-0,042	-0,028
-313,197	16,287	0,061	0,035
-312,183	184,056	0,033	0,035
-311,168	-200,000	0,001	0,035
-310,153	800,000	0,020	0,059
-309,139	88,552	-0,011	-0,009
-308,124	19,388	0,096	0,056
-307,110	-200,000	0,034	0,119
-306,095	-200,000	0,004	0,095
-305,080	-104,691	0,134	0,022
-304,066	92,818	-0,119	-0,097
-303,051	-200,000	0,019	0,114
-302,037	-200,000	0,018	-0,109
-301,022	-39,493	-0,070	0,026
-300,008	70,409	0,051	-0,038
-298,993	-121,988	0,060	-0,007
-297,978	-100,636	-0,042	-0,007
-296,964	-102,466	0,149	-0,026
-295,949	46,162	-0,101	-0,068
-294,935	97,378	-0,034	-0,028
-293,920	-198,781	0,117	0,000
-292,905	-200,000	-0,030	-0,149
-291,891	800,000	-0,018	0,053
-290,876	343,113	-0,032	0,046
-289,862	-200,000	-0,029	0,106
-288,847	246,753	-0,093	0,114
-287,832	-200,000	0,054	-0,191
-286,818	18,177	0,025	-0,015
-285,803	-140,665	-0,030	-0,002
-284,789	-200,000	-0,005	0,058
-283,774	551,351	0,022	-0,039
-282,759	-60,850	-0,117	0,036
-281,745	-200,000	-0,004	-0,019
-280,730	254,278	0,029	0,035
-279,716	-200,000	0,026	-0,094
-278,701	-200,000	0,027	-0,232
-277,686	150,286	0,168	0,165
-276,672	67,877	-0,069	0,051
-275,657	-200,000	0,044	-0,157
-274,643	254,262	0,056	-0,069
-273,628	385,707	-0,059	-0,089
-272,613	31,778	-0,020	0,012
-271,599	60,307	0,008	0,006
-270,584	800,000	-0,036	-0,076
-269,570	265,946	0,060	0,076
-268,555	-91,478	-0,043	-0,009
-267,540	102,873	0,009	0,008
-266,526	317,629	0,030	-0,041
-265,511	-200,000	-0,009	-0,064
-264,497	114,792	-0,123	0,108
-263,482	649,779	0,033	-0,061
-262,467	-200,000	-0,017	-0,069
-261,453	24,027	0,073	0,043
-260,438	-200,000	-0,014	0,251
-259,424	429,510	0,076	-0,119
-258,409	-83,340	-0,089	0,021
-257,395	800,000	-0,041	0,097
-256,380	-200,000	-0,001	-0,028
-255,365	564,490	0,056	0,099
-254,351	-137,021	-0,121	-0,010
-253,336	592,041	-0,034	-0,062
-252,322	172,663	-0,097	-0,101
-251,307	-200,000	-0,009	0,114
-250,292	-200,000	0,025	-0,125
-249,278	30,201	0,139	0,086
-248,263	259,928	0,038	0,048
-247,249	340,389	0,080	0,113
-246,234	-138,209	0,117	-0,009
-245,219	36,706	-0,130	0,083
-244,205	47,335	0,075	0,050
-243,190	329,777	-0,051	0,072
-242,176	174,172	0,063	0,066
-241,161	348,696	0,062	0,089
-240,146	-176,839	0,238	-0,004
-239,132	162,457	0,079	0,081
-238,117	800,000	-0,042	-0,100
-237,103	145,445	-0,107	-0,104
-236,088	-200,000	0,004	-0,035
-235,073	800,000	0,020	0,049
-234,059	-200,000	-0,023	0,136
-233,044	149,144	-0,072	-0,070
-232,030	619,536	0,015	-0,028
-231,015	-119,466	-0,130	0,016
-230,000	-200,000	0,008	-0,082
-228,986	-72,012	-0,092	-0,025
-227,971	-81,457	0,074	0,018
-226,957	-64,162	0,079	0,023
-225,942	446,427	0,030	0,048
-224,927	97,042	-0,048	0,040
-223,913	373,158	-0,066	-0,097
-222,898	-200,000	0,018	-0,104
-221,884	-112,245	-0,180	-0,026
-220,869	-154,690	0,108	0,005
-219,855	800,000	0,037	0,081
-218,840	302,811	0,036	-0,048
-217,825	-103,531	-0,045	0,008
-216,811	87,484	-0,057	-0,045
-215,796	33,080	-0,031	0,019
-214,782	-79,624	-0,076	0,018
-213,767	-200,000	-0,005	0,075
-212,752	-49,955	0,111	0,038
-211,738	800,000	-0,038	-0,082
-210,723	46,242	-0,129	0,086
-209,709	-200,000	0,032	-0,175
-208,694	24,924	-0,128	-0,076
-207,679	-3,696	-0,009	-0,004
-206,665	800,000	0,034	0,076
-205,650	-200,000	-0,002	0,041
-204,636	67,003	0,113	0,083
-203,621	-53,795	-0,117	-0,038
-202,606	2,092	0,071	0,037
-201,592	-200,000	0,047	0,153
-200,577	-17,542	-0,099	-0,045
-199,563	-54,243	0,098	-0,032
-198,548	800,000	0,054	0,133
-197,533	-200,000	-0,015	-0,053
-196,519	149,240	-0,050	-0,049
-195,504	280,981	0,010	0,013
-194,490	-200,000	0,055	0,251
-193,475	800,000	0,017	0,047
-192,460	62,242	0,034	-0,024
-191,446	-80,506	-0,246	0,059
-190,431	-124,019	0,123	0,014
-189,417	-4,228	-0,108	0,054
-188,402	-200,000	-0,003	-0,075
-187,387	105,573	0,020	-0,017
-186,373	-7,054	0,138	-0,067
-185,358	106,678	-0,143	0,122
-184,344	242,400	0,087	0,105
-183,329	469,630	-0,027	-0,043
-182,315	-200,000	-0,012	0,127
-181,300	69,700	0,025	0,018
-180,285	-199,058	-0,064	0,000
-179,271	698,657	0,021	-0,040
-178,256	299,897	-0,050	0,067
-177,242	143,948	0,047	-0,045
-176,227	-50,846	0,106	-0,036
-175,212	-200,000	0,018	0,167
-174,198	-200,000	0,028	0,115
-173,183	-39,526	0,107	0,040
-172,169	258,042	-0,032	0,040
-171,154	467,060	-0,045	-0,072
-170,139	-200,000	-0,002	0,049
-169,125	129,818	0,114	0,105
-168,110	61,374	0,068	0,049
-167,096	-200,000	0,014	0,098
-166,081	156,036	-0,124	-0,124
-165,066	-200,000	0,003	0,042
-164,052	800,000	-0,003	-0,010
-163,037	128,951	0,052	0,047
-162,023	-200,000	-0,027	0,102
-161,008	449,051	-0,014	-0,022
-159,993	-68,582	-0,089	-0,025
-158,979	145,600	-0,080	-0,077
-157,964	-91,587	0,047	0,010
-156,950	800,000	-0,013	0,035
-155,935	-124,560	0,034	-0,004
-154,920	-200,000	0,002	0,117
-153,906	-200,000	0,011	-0,122
-152,891	-200,000	-0,033	0,115
-151,877	757,639	-0,049	0,096
-150,862	-92,359	-0,091	-0,018
-149,847	-28,847	-0,036	-0,015
-148,833	723,760	-0,020	0,038
-147,818	-31,971	0,048	0,019
-146,804	53,714	0,069	0,048
-145,789	-197,128	-0,054	0,000
-144,775	38,813	-0,044	0,028
-143,760	-200,000	0,018	-0,090
-142,745	84,118	0,057	-0,045
-141,731	-200,000	0,026	-0,159
-140,716	800,000	0,069	-0,195
-139,702	224,335	0,128	0,149
-138,687	-200,000	-0,005	0,166
-137,672	-200,000	-0,021	0,070
-136,658	335,756	-0,063	-0,088
-135,643	-200,000	-0,043	0,200
-134,629	-200,000	-0,007	-0,117
-133,614	135,732	-0,130	-0,122
-132,599	-136,828	0,201	0,016
-131,585	800,000	-0,008	-0,021
-130,570	60,831	-0,066	0,047
-129,556	-200,000	0,003	-0,055
-128,541	79,036	-0,106	-0,081
-127,526	-10,064	-0,080	-0,038
-126,512	-200,000	0,023	0,083
-125,497	-200,000	-0,015	0,077
-124,483	-200,000	0,014	0,048
-123,468	57,554	0,020	0,014
-122,453	800,000	0,024	-0,058
-121,439	-10,112	-0,013	-0,006
-120,424	-200,000	0,014	0,062
