DTS Sentinel unit serial number:	SN410029Multiplexer serial number:	ORYXHardware model number:	OX2-SRSoftware version number:	ORYX F/W v4,00 Oryx Data Collector v3.7.2.0data status	okinstallation	B6 Nyhavnadifferential loss correction	single-endedforward channel	channel 2reverse channel	N/Adate	2023/12/09time	09:35:08forward acquisition time	300,00reverse acquisition time	0,00gamma	499,1914k internal	0,3138k external	0,3138temperature offset calibration	1,0000default loss term (dB/km)	0,3820temperature slope calibration	1,0000multiplexer offset coefficient	1,0000multiplexer slope coefficient	1,0000fibre end	0,00T internal ref (°C)	18,46T ext. ref 1 (°C)	2,07T ext. ref 2 (°C)	2,07length (m)	temperature (°C)	Stokes	anti-Stokes-744,400	388,508	0,031	0,048
-743,385	-11,384	-0,155	0,076
-742,371	95,053	-0,059	0,050
-741,356	39,637	-0,200	0,133
-740,342	55,700	0,082	0,059
-739,327	-49,834	-0,344	0,120
-738,312	-200,000	-0,005	0,069
-737,298	38,908	-0,366	0,242
-736,283	800,000	0,024	-0,062
-735,269	-95,127	-0,288	0,057
-734,254	-200,000	-0,001	-0,024
-733,239	-98,403	-0,443	-0,083
-732,225	-79,423	0,142	0,035
-731,210	-176,349	-0,078	-0,001
-730,196	57,890	0,145	0,105
-729,181	38,184	-0,152	-0,100
-728,167	-22,190	-0,123	-0,055
-727,152	39,174	0,073	-0,048
-726,137	504,615	-0,022	0,038
-725,123	714,560	-0,039	0,077
-724,108	137,708	0,031	-0,030
-723,094	800,000	-0,045	-0,103
-722,079	717,350	-0,080	-0,158
-721,064	-35,222	-0,091	-0,036
-720,050	86,453	-0,039	0,032
-719,035	-68,197	0,117	0,034
-718,021	294,179	-0,061	0,082
-717,006	76,854	-0,146	-0,115
-715,991	-67,593	-0,043	-0,013
-714,977	-109,926	-0,043	-0,007
-713,962	-1,675	-0,162	-0,084
-712,948	90,051	0,089	0,073
-711,933	-200,000	0,014	0,120
-710,918	-200,000	-0,013	-0,094
-709,904	309,058	-0,001	-0,001
-708,889	27,034	0,027	-0,017
-707,875	22,889	-0,175	-0,106
-706,860	-200,000	0,035	0,129
-705,845	420,791	0,058	0,092
-704,831	659,312	0,050	-0,096
-703,816	164,808	-0,106	0,111
-702,802	800,000	0,045	0,098
-701,787	750,870	-0,065	-0,130
-700,772	56,391	0,079	-0,057
-699,758	11,198	-0,061	0,034
-698,743	334,808	-0,029	-0,042
-697,729	315,939	-0,070	0,098
-696,714	225,005	0,134	0,161
-695,699	-200,000	0,001	0,124
-694,685	-6,427	-0,042	-0,021
-693,670	122,558	-0,145	-0,134
-692,656	800,000	-0,004	-0,012
-691,641	-91,650	0,125	-0,026
-690,627	269,271	0,126	-0,164
-689,612	-200,000	0,005	0,016
-688,597	800,000	0,043	-0,130
-687,583	800,000	0,014	-0,044
-686,568	-184,856	-0,098	0,001
-685,554	146,867	-0,011	-0,011
-684,539	-90,918	0,145	-0,031
-683,524	-200,000	0,029	0,105
-682,510	-200,000	-0,001	0,127
-681,495	350,572	-0,042	0,061
-680,481	341,276	-0,069	-0,100
-679,466	-200,000	-0,004	-0,233
-678,451	92,705	-0,092	-0,077
-677,437	-53,770	-0,106	-0,035
-676,422	-200,000	0,001	0,019
-675,408	100,314	0,109	-0,094
-674,393	-154,099	-0,095	-0,005
-673,378	-62,604	-0,080	-0,025
-672,364	-179,058	-0,129	0,002
-671,349	506,176	-0,043	0,074
-670,335	-31,644	0,097	-0,040
-669,320	62,271	-0,030	0,022
-668,305	132,983	0,042	-0,041
-667,291	800,000	-0,035	-0,077
-666,276	658,552	0,040	-0,076
-665,262	-200,000	-0,028	-0,126
-664,247	-200,000	0,024	-0,133
-663,232	-200,000	0,030	-0,107
-662,218	34,859	0,062	0,040
-661,203	1,447	0,129	-0,068
-660,189	564,755	-0,045	0,082
-659,174	-94,447	-0,113	-0,023
-658,159	-32,148	-0,143	0,059
-657,145	-200,000	0,005	0,051
-656,130	-200,000	-0,009	-0,049
-655,116	800,000	0,040	0,098
-654,101	-200,000	0,015	0,108
-653,086	-145,431	-0,183	0,012
-652,072	-122,330	0,097	0,012
-651,057	84,682	-0,132	-0,107
-650,043	-116,465	-0,076	0,010
-649,028	-132,438	-0,138	-0,013
-648,014	38,924	0,097	-0,064
-646,999	170,218	0,044	-0,046
-645,984	6,460	0,104	-0,057
-644,970	800,000	-0,006	-0,012
-643,955	161,145	-0,096	-0,099
-642,941	-58,959	-0,119	-0,038
-641,926	-200,000	-0,007	0,072
-640,911	653,598	-0,029	0,056
-639,897	15,946	-0,043	0,025
-638,882	-200,000	-0,035	0,175
-637,868	213,421	-0,047	-0,055
-636,853	618,543	-0,090	-0,168
-635,838	-100,243	-0,073	-0,013
-634,824	-39,948	0,079	0,030
-633,809	-11,574	0,096	-0,046
-632,795	94,156	0,096	-0,080
-631,780	569,414	0,011	0,021
-630,765	-92,401	0,062	-0,013
-629,751	10,840	-0,078	0,044
-628,736	47,941	-0,028	0,020
-627,722	-21,667	0,061	-0,027
-626,707	135,950	0,022	0,021
-625,692	363,574	-0,020	-0,031
-624,678	22,489	0,072	0,043
-623,663	800,000	-0,028	-0,068
-622,649	-30,405	-0,085	-0,035
-621,634	-200,000	0,009	-0,048
-620,619	7,710	-0,140	-0,077
-619,605	607,399	-0,019	-0,035
-618,590	-77,108	0,025	-0,006
-617,576	-19,127	-0,028	-0,013
-616,561	-132,929	0,022	-0,002
-615,546	-101,109	-0,061	0,011
-614,532	-80,652	-0,077	-0,019
-613,517	-102,580	-0,090	0,016
-612,503	64,941	0,090	0,067
-611,488	800,000	0,069	-0,212
-610,474	800,000	0,036	0,111
-609,459	-11,183	-0,083	-0,040
-608,444	-200,000	-0,003	0,049
-607,430	32,544	0,104	0,066
-606,415	119,046	0,093	0,085
-605,401	24,877	0,109	-0,067
-604,386	-200,000	0,011	-0,148
-603,371	-200,000	0,009	-0,061
-602,357	236,317	-0,094	0,115
-601,342	299,986	0,018	0,024
-600,328	14,331	-0,128	0,073
-599,313	0,993	0,050	-0,026
-598,298	800,000	0,074	0,234
-597,284	-60,534	0,060	0,019
-596,269	131,510	0,099	0,094
-595,255	472,407	0,002	-0,004
-594,240	211,809	-0,078	0,090
-593,225	351,136	-0,046	0,067
-592,211	-35,447	-0,204	-0,081
-591,196	800,000	-0,021	0,052
-590,182	22,885	0,037	0,022
-589,167	-200,000	-0,005	0,092
-588,152	-95,678	-0,047	-0,009
-587,138	487,343	0,068	0,115
-586,123	-200,000	0,003	-0,220
-585,109	-182,458	0,046	-0,001
-584,094	800,000	-0,046	0,097
-583,079	4,285	-0,152	0,082
-582,065	-200,000	-0,059	0,210
-581,050	800,000	0,020	-0,054
-580,036	394,597	0,067	-0,104
-579,021	-89,118	-0,035	-0,008
-578,006	57,224	-0,040	-0,029
-576,992	170,256	0,106	-0,112
-575,977	800,000	0,009	-0,022
-574,963	366,172	-0,035	-0,053
-573,948	-31,846	0,048	0,020
-572,934	-159,491	-0,146	-0,006
-571,919	-61,833	-0,143	0,044
-570,904	-16,018	0,082	0,038
-569,890	-31,317	0,028	0,011
-568,875	-51,424	-0,057	0,020
-567,861	-200,000	0,004	0,068
-566,846	56,511	-0,063	-0,045
-565,831	74,284	-0,072	0,056
-564,817	141,421	-0,020	0,019
-563,802	-136,613	-0,077	0,006
-562,788	52,515	0,053	-0,037
-561,773	-172,983	0,112	-0,002
-560,758	-200,000	-0,004	-0,065
-559,744	391,904	0,083	-0,128
-558,729	800,000	-0,049	-0,109
-557,715	800,000	0,038	-0,091
-556,700	800,000	-0,062	-0,143
-555,685	-64,391	-0,077	-0,023
-554,671	137,953	0,105	-0,101
-553,656	9,456	-0,056	0,031
-552,642	-200,000	-0,012	0,117
-551,627	-43,824	0,137	-0,050
-550,612	66,123	-0,091	-0,068
-549,598	37,420	-0,037	-0,024
-548,583	27,592	-0,122	-0,076
-547,569	-107,351	-0,080	0,013
-546,554	-200,000	-0,012	0,049
-545,539	-132,379	-0,091	0,009
-544,525	-200,000	-0,001	-0,032
-543,510	93,199	-0,039	-0,032
-542,496	-200,000	0,056	-0,203
-541,481	96,985	0,056	-0,047
-540,466	388,903	0,055	0,084
-539,452	24,374	0,095	-0,058
-538,437	-200,000	-0,006	0,065
-537,423	-107,862	0,038	0,006
-536,408	-41,584	-0,209	0,079
-535,393	249,173	-0,083	-0,104
-534,379	-200,000	0,028	-0,102
-533,364	-200,000	0,000	-0,081
-532,350	-84,625	-0,020	-0,004
-531,335	173,415	-0,081	0,086
-530,321	-11,849	0,011	-0,005
-529,306	-200,000	0,014	0,096
-528,291	141,934	-0,032	-0,031
-527,277	-200,000	0,021	-0,078
-526,262	-200,000	-0,008	-0,082
-525,248	169,382	0,080	-0,084
-524,233	800,000	0,047	0,107
-523,218	233,270	0,114	0,138
-522,204	14,582	-0,042	-0,024
-521,189	-159,854	-0,175	-0,007
-520,175	-200,000	0,003	0,097
-519,160	-58,106	-0,078	0,025
-518,145	-200,000	0,002	-0,046
-517,131	-200,000	0,093	0,000
-516,116	302,651	0,080	0,109
-515,102	-91,032	-0,098	0,021
-514,087	-22,253	-0,078	0,035
-513,072	-200,000	0,007	-0,046
-512,058	-83,479	-0,069	0,016
-511,043	-145,079	0,160	0,011
-510,029	72,322	-0,060	-0,046
-509,014	-144,557	0,083	-0,006
-507,999	85,260	0,087	-0,070
-506,985	800,000	-0,048	-0,128
-505,970	277,164	0,089	-0,117
-504,956	-92,727	0,039	-0,008
-503,941	-144,657	-0,032	-0,002
-502,926	-147,116	-0,082	-0,005
-501,912	-121,489	-0,099	0,012
-500,897	336,214	-0,056	0,081
-499,883	319,316	0,015	-0,021
-498,868	27,158	-0,015	-0,009
-497,853	79,306	0,049	0,039
-496,839	800,000	0,042	0,089
-495,824	156,619	0,080	0,081
-494,810	-200,000	-0,014	-0,075
-493,795	7,346	-0,113	0,062
-492,781	-200,000	-0,005	0,044
-491,766	736,172	0,042	-0,084
-490,751	-33,348	-0,064	0,026
-489,737	-91,036	0,106	-0,022
-488,722	29,202	0,113	0,070
-487,708	800,000	-0,024	0,059
-486,693	479,261	0,068	0,114
-485,678	313,710	0,046	-0,064
-484,664	245,657	-0,044	0,055
-483,649	-200,000	-0,008	-0,031
-482,635	-140,876	0,051	0,004
-481,620	410,996	0,062	0,097
-480,605	-34,154	0,129	-0,052
-479,591	800,000	0,007	0,016
-478,576	531,863	-0,015	-0,026
-477,562	647,960	0,016	0,030
-476,547	800,000	0,010	-0,025
-475,532	800,000	0,029	-0,071
-474,518	-200,000	0,039	0,138
-473,503	18,133	-0,076	-0,044
-472,489	175,857	-0,105	0,112
-471,474	99,323	0,063	0,054
-470,459	101,188	0,076	-0,065
-469,445	84,861	0,111	0,090
-468,430	121,230	0,076	-0,069
-467,416	-200,000	-0,024	0,085
-466,401	-200,000	-0,005	0,040
-465,386	-200,000	-0,013	0,067
-464,372	-200,000	-0,013	-0,060
-463,357	208,411	-0,072	-0,083
-462,343	-144,309	-0,066	0,004
-461,328	-158,810	0,143	0,006
-460,313	-200,000	0,004	-0,040
-459,299	-153,420	0,044	-0,002
-458,284	14,238	-0,055	-0,031
-457,270	-16,364	0,061	-0,028
-456,255	-200,000	0,007	-0,071
-455,241	160,260	0,029	0,029
-454,226	-31,909	-0,042	-0,017
-453,211	-200,000	0,003	-0,020
-452,197	52,004	0,110	-0,077
-451,182	515,916	-0,045	0,078
-450,168	-26,030	0,130	0,056
-449,153	-200,000	0,007	0,041
-448,138	-200,000	0,004	0,050
-447,124	-200,000	-0,011	-0,140
-446,109	462,396	-0,085	-0,139
-445,095	-200,000	-0,007	0,055
-444,080	144,531	-0,046	0,045
-443,065	-200,000	-0,029	0,129
-442,051	-128,797	-0,079	0,008
-441,036	120,562	-0,050	-0,046
-440,022	390,027	-0,046	0,070
-439,007	158,787	0,070	0,071
-437,992	104,024	0,097	-0,083
-436,978	786,270	-0,032	-0,064
-435,963	318,304	-0,050	0,069
-434,949	-17,730	-0,114	-0,052
-433,934	468,210	-0,095	0,157
-432,919	-200,000	0,011	0,059
-431,905	-74,816	0,080	0,021
-430,890	800,000	-0,043	0,090
-429,876	99,225	-0,031	0,027
-428,861	-169,571	0,093	0,002
-427,846	-200,000	0,011	-0,044
-426,832	-200,000	0,006	0,134
-425,817	800,000	0,054	-0,118
-424,803	800,000	-0,032	-0,099
-423,788	246,097	0,130	0,160
-422,773	-200,000	0,003	0,158
-421,759	142,581	0,035	0,034
-420,744	-200,000	-0,008	0,054
-419,730	61,680	-0,040	-0,029
-418,715	-200,000	-0,033	-0,206
-417,701	184,286	0,090	-0,098
-416,686	800,000	-0,023	-0,051
-415,671	319,564	-0,041	0,058
-414,657	-200,000	-0,017	0,137
-413,642	446,574	-0,035	0,056
-412,628	800,000	0,025	0,053
-411,613	-200,000	-0,007	0,108
-410,598	-65,483	-0,108	0,032
-409,584	306,812	-0,053	-0,072
-408,569	-200,000	0,009	0,091
-407,555	-200,000	0,023	-0,079
-406,540	-200,000	-0,010	0,069
-405,525	379,085	-0,070	-0,105
-404,511	35,511	0,034	0,022
-403,496	54,753	-0,161	-0,113
-402,482	-200,000	-0,002	-0,088
-401,467	-200,000	-0,053	0,222
-400,452	-188,201	-0,138	-0,001
-399,438	402,971	0,095	-0,147
-398,423	-200,000	0,010	-0,100
-397,409	53,352	0,045	0,031
-396,394	110,195	-0,022	-0,019
-395,379	-74,813	-0,163	0,042
-394,365	-200,000	0,022	0,120
-393,350	-0,105	-0,129	-0,067
-392,336	416,453	-0,020	0,031
-391,321	134,591	-0,136	-0,129
-390,306	-151,774	0,028	-0,001
-389,292	-200,000	-0,031	0,169
-388,277	-200,000	0,005	0,130
-387,263	216,528	-0,147	0,171
-386,248	-200,000	0,066	0,247
-385,233	542,935	0,067	-0,117
-384,219	-126,557	-0,118	-0,013
-383,204	-149,832	0,082	0,005
-382,190	-200,000	0,025	-0,199
-381,175	-103,599	0,159	-0,027
-380,160	-33,044	0,141	-0,057
-379,146	19,456	0,137	0,080
-378,131	59,853	0,057	0,041
-377,117	-88,439	-0,077	0,017
-376,102	800,000	-0,045	0,094
-375,088	-166,698	-0,022	-0,001
-374,073	-200,000	0,000	0,037
-373,058	-42,268	0,051	-0,019
-372,044	17,717	0,064	0,037
-371,029	756,705	-0,027	-0,054
-370,015	800,000	-0,026	0,078
-369,000	715,541	0,017	0,032
-367,985	-200,000	0,031	-0,132
-366,971	269,955	0,052	-0,067
-365,956	-42,065	0,027	-0,010
-364,942	-61,126	-0,036	-0,011
-363,927	-126,344	-0,068	-0,007
-362,912	492,414	0,049	0,082
-361,898	260,450	-0,040	-0,051
-360,883	71,976	-0,064	0,049
-359,869	72,858	0,035	-0,027
-358,854	110,171	-0,042	-0,037
-357,839	800,000	0,015	-0,042
-356,825	152,150	0,067	0,067
-355,810	800,000	0,025	-0,068
-354,796	216,816	0,023	0,027
-353,781	800,000	-0,012	-0,033
-352,766	-68,177	-0,128	-0,036
-351,752	23,134	0,018	-0,011
-350,737	-9,967	0,130	0,063
-349,723	-158,777	-0,109	-0,004
-348,708	-200,000	0,000	0,042
-347,693	800,000	-0,038	-0,093
-346,679	96,214	-0,055	0,046
-345,664	-146,430	-0,096	-0,006
-344,650	-107,104	0,126	0,020
-343,635	-200,000	0,002	0,084
-342,620	634,299	-0,137	0,254
-341,606	10,364	0,152	0,084
-340,591	-200,000	0,002	0,042
-339,577	66,252	-0,090	-0,067
-338,562	-200,000	0,001	-0,096
-337,548	234,207	-0,012	0,015
-336,533	51,301	0,124	-0,086
-335,518	800,000	-0,026	-0,064
-334,504	403,795	0,080	-0,123
-333,489	145,809	0,054	-0,053
-332,475	800,000	0,074	-0,199
-331,460	145,823	-0,079	0,078
-330,445	38,746	0,049	0,032
-329,431	-200,000	-0,003	-0,034
-328,416	612,633	-0,053	-0,098
-327,402	163,520	0,060	0,062
-326,387	366,103	0,055	0,081
-325,372	800,000	0,017	-0,037
-324,358	193,387	-0,034	0,038
-323,343	412,492	0,039	-0,060
-322,329	4,172	0,108	0,058
-321,314	800,000	0,013	0,037
-320,299	-66,233	0,087	0,025
-319,285	26,615	-0,078	0,048
-318,270	60,392	-0,029	-0,021
-317,256	800,000	-0,024	0,049
-316,241	509,118	0,036	-0,062
-315,226	374,131	-0,019	0,028
-314,212	233,788	-0,030	-0,036
-313,197	202,459	0,002	-0,002
-312,183	-101,696	-0,051	-0,009
-311,168	160,051	-0,061	-0,062
-310,153	-12,806	-0,132	-0,063
-309,139	800,000	0,013	-0,028
-308,124	800,000	-0,033	-0,092
-307,110	-94,067	-0,048	-0,010
-306,095	-41,031	-0,051	-0,019
-305,080	-146,253	0,059	0,004
-304,066	-200,000	-0,001	-0,119
-303,051	800,000	-0,024	0,060
-302,037	-200,000	0,002	0,015
-301,022	-200,000	-0,028	-0,105
-300,008	59,803	-0,045	-0,032
-298,993	665,673	-0,086	0,162
-297,978	556,348	0,032	-0,056
-296,964	-200,000	-0,010	-0,083
-295,949	720,491	-0,070	-0,136
-294,935	800,000	0,034	-0,078
-293,920	-200,000	0,028	-0,154
-292,905	180,280	0,083	0,089
-291,891	3,410	0,181	-0,096
-290,876	-200,000	0,041	0,199
-289,862	800,000	-0,009	0,024
-288,847	183,558	-0,103	0,111
-287,832	-11,515	0,009	0,004
-286,818	526,357	-0,016	-0,027
-285,803	110,504	-0,016	0,014
-284,789	-94,103	0,098	-0,019
-283,774	-65,134	-0,077	0,023
-282,759	397,972	0,047	0,072
-281,745	-138,592	0,045	0,004
-280,730	-200,000	-0,012	0,082
-279,716	380,819	-0,095	-0,143
-278,701	-179,040	0,126	-0,002
-277,686	-200,000	-0,024	0,139
-276,672	-38,410	-0,048	-0,018
-275,657	513,268	-0,051	-0,087
-274,643	-200,000	-0,003	-0,013
-273,628	22,247	-0,092	-0,054
-272,613	94,026	-0,091	-0,075
-271,599	288,743	-0,023	-0,030
-270,584	43,888	0,068	-0,046
-269,570	137,995	-0,049	0,047
-268,555	-200,000	0,021	-0,069
-267,540	-200,000	0,003	0,016
-266,526	800,000	0,031	0,092
-265,511	123,781	-0,050	-0,045
-264,497	-200,000	-0,032	0,162
-263,482	394,711	0,045	0,068
-262,467	189,745	-0,031	0,034
-261,453	19,604	0,096	0,056
-260,438	565,950	-0,119	-0,211
-259,424	237,430	-0,017	-0,021
-258,409	151,148	0,090	-0,089
-257,395	-200,000	-0,002	-0,080
-256,380	-82,032	0,112	-0,026
-255,365	-23,729	-0,061	0,026
-254,351	-125,709	-0,028	-0,003
-253,336	-34,737	-0,087	-0,034
-252,322	-200,000	-0,012	-0,100
-251,307	60,742	0,013	0,009
-250,292	-14,457	-0,036	-0,017
-249,278	106,066	0,084	-0,072
-248,263	265,401	0,105	0,133
-247,249	-200,000	0,002	0,144
-246,234	528,540	-0,039	0,067
-245,219	651,017	-0,030	0,055
-244,205	-30,376	0,069	0,028
-243,190	658,106	-0,018	-0,034
-242,176	49,827	0,117	-0,080
-241,161	-200,000	0,004	0,021
-240,146	407,077	-0,043	0,067
-239,132	-200,000	-0,012	-0,055
-238,117	800,000	0,022	-0,058
-237,103	800,000	-0,054	-0,171
-236,088	431,527	-0,081	-0,128
-235,073	-93,424	0,141	0,028
-234,059	204,625	0,040	0,046
-233,044	-200,000	-0,045	0,191
-232,030	133,575	0,083	-0,078
-231,015	-9,604	0,070	-0,034
-230,000	-17,121	0,055	-0,025
-228,986	-200,000	-0,019	-0,105
-227,971	-140,997	0,117	0,009
-226,957	130,429	0,061	0,057
-225,942	-45,808	0,030	0,011
-224,927	800,000	0,031	0,094
-223,913	800,000	-0,062	-0,131
-222,898	111,809	0,077	0,068
-221,884	429,240	0,069	0,109
-220,869	-58,820	0,102	-0,032
-219,855	136,911	-0,096	0,091
-218,840	-200,000	0,034	0,145
-217,825	71,222	0,011	0,008
-216,811	-34,015	-0,118	0,047
-215,796	47,818	0,059	-0,040
-214,782	43,518	0,036	-0,024
-213,767	248,981	0,093	0,115
-212,752	541,219	0,085	0,148
-211,738	-200,000	0,040	0,132
-210,723	-200,000	0,047	-0,253
-209,709	800,000	-0,014	-0,044
-208,694	-22,275	-0,072	0,032
-207,679	42,430	-0,072	0,047
-206,665	126,155	-0,022	0,020
-205,650	168,694	0,034	0,035
-204,636	-200,000	-0,009	0,059
-203,621	-99,181	-0,074	0,013
-202,606	800,000	0,027	-0,063
-201,592	-200,000	-0,026	-0,108
-200,577	800,000	0,025	-0,072
-199,563	11,220	-0,033	-0,018
-198,548	377,224	0,032	-0,047
-197,533	167,861	0,030	0,031
-196,519	71,753	0,096	0,072
-195,504	228,195	-0,036	0,043
-194,490	-200,000	0,023	-0,146
-193,475	16,434	-0,061	0,035
-192,460	104,359	0,034	0,029
-191,446	249,842	-0,009	0,012
-190,431	92,374	0,095	0,077
-189,417	800,000	0,001	-0,004
-188,402	-152,681	-0,114	0,006
-187,387	265,859	-0,016	-0,020
-186,373	-109,380	-0,189	0,029
-185,358	26,707	0,103	0,063
-184,344	-179,929	0,142	0,002
-183,329	138,831	-0,064	0,061
-182,315	36,011	0,049	-0,031
-181,300	-200,000	-0,004	-0,035
-180,285	300,971	-0,054	0,072
-179,271	480,713	-0,034	-0,055
-178,256	164,572	-0,105	-0,108
-177,242	-200,000	-0,004	0,094
-176,227	14,206	0,002	-0,001
-175,212	11,875	-0,084	-0,047
-174,198	-200,000	0,002	0,024
-173,183	800,000	-0,056	-0,139
-172,169	-200,000	0,002	-0,031
-171,154	-111,003	0,030	0,004
-170,139	800,000	0,044	0,113
-169,125	-0,997	-0,033	0,017
-168,110	44,187	0,093	-0,062
-167,096	-55,007	-0,059	-0,019
-166,081	37,206	0,075	0,048
-165,066	-200,000	-0,020	-0,085
-164,052	238,068	0,051	0,061
-163,037	115,944	0,112	0,099
-162,023	20,599	0,146	-0,085
-161,008	-93,324	0,041	0,008
-159,993	20,335	-0,088	0,052
-158,979	190,599	-0,040	0,043
-157,964	-200,000	-0,021	-0,099
-156,950	33,533	-0,009	-0,006
-155,935	-121,006	-0,007	-0,001
-154,920	38,467	0,059	-0,038
-153,906	370,879	0,060	0,088
-152,891	30,615	0,123	-0,076
-151,877	-110,218	-0,147	-0,022
-150,862	-105,674	-0,074	-0,012
-149,847	-84,825	-0,146	-0,033
-148,833	-200,000	-0,012	-0,051
-147,818	800,000	-0,037	-0,102
-146,804	214,895	-0,073	0,084
-145,789	-20,418	-0,110	-0,049
-144,775	507,694	0,044	-0,073
-143,760	-132,420	-0,133	0,012
-142,745	-200,000	-0,022	-0,074
-141,731	185,725	0,039	0,043
-140,716	-78,474	0,092	-0,023
-139,702	-200,000	-0,007	0,105
-138,687	-200,000	-0,025	0,177
-137,672	-40,398	-0,140	0,052
-136,658	-200,000	-0,000	-0,025
-135,643	-106,927	-0,101	0,016
-134,629	-39,605	0,102	0,038
-133,614	800,000	0,050	0,106
-132,599	490,987	0,047	0,078
-131,585	-200,000	0,025	0,137
-130,570	30,355	-0,017	-0,010
-129,556	-101,120	-0,079	-0,014
-128,541	-20,575	-0,043	-0,019
-127,526	-31,545	0,123	0,050
-126,512	409,005	0,054	-0,083
-125,497	52,765	0,162	0,112
-124,483	-200,000	0,016	0,071
-123,468	800,000	0,016	0,038
-122,453	-6,103	-0,067	-0,033
-121,439	69,349	-0,080	-0,060
-120,424	-200,000	0,000	-0,025
-119,410	204,992	0,101	-0,113
