DTS Sentinel unit serial number:	SN410029Multiplexer serial number:	ORYXHardware model number:	OX2-SRSoftware version number:	ORYX F/W v4,00 Oryx Data Collector v3.7.2.0data status	okinstallation	B6 Nyhavnadifferential loss correction	single-endedforward channel	channel 2reverse channel	N/Adate	2023/12/11time	02:15:08forward acquisition time	300,00reverse acquisition time	0,00gamma	499,1914k internal	0,3122k external	0,3122temperature offset calibration	1,0000default loss term (dB/km)	0,3820temperature slope calibration	1,0000multiplexer offset coefficient	1,0000multiplexer slope coefficient	1,0000fibre end	0,00T internal ref (°C)	21,83T ext. ref 1 (°C)	4,78T ext. ref 2 (°C)	4,81length (m)	temperature (°C)	Stokes	anti-Stokes-744,400	-84,152	0,060	0,014
-743,385	101,898	-0,197	0,171
-742,371	31,080	0,038	-0,024
-741,356	185,598	-0,187	0,207
-740,342	-200,000	0,003	-0,079
-739,327	199,338	-0,076	0,087
-738,312	800,000	0,015	-0,039
-737,298	-77,182	-0,284	0,073
-736,283	-200,000	-0,035	-0,153
-735,269	-43,124	-0,263	0,099
-734,254	-118,989	0,021	0,003
-733,239	-111,113	-0,364	-0,055
-732,225	252,602	0,048	0,062
-731,210	-200,000	-0,012	0,166
-730,196	90,553	-0,053	0,044
-729,181	800,000	0,012	0,036
-728,167	-200,000	0,009	-0,041
-727,152	-200,000	-0,014	-0,082
-726,137	214,538	-0,072	-0,085
-725,123	-200,000	-0,012	-0,133
-724,108	800,000	-0,012	0,026
-723,094	800,000	-0,051	0,120
-722,079	-0,212	-0,024	0,012
-721,064	0,678	-0,033	-0,018
-720,050	11,740	-0,068	-0,039
-719,035	-31,977	-0,090	-0,037
-718,021	800,000	-0,043	0,121
-717,006	-200,000	-0,002	0,070
-715,991	190,270	-0,034	0,038
-714,977	-56,401	-0,037	0,012
-713,962	-200,000	-0,028	0,121
-712,948	-13,896	-0,025	0,012
-711,933	508,427	0,037	0,064
-710,918	-200,000	-0,022	0,101
-709,904	-23,303	-0,073	-0,033
-708,889	120,198	-0,037	-0,034
-707,875	-200,000	-0,009	-0,085
-706,860	-70,392	0,020	-0,006
-705,845	104,724	0,028	0,025
-704,831	-133,357	-0,056	0,005
-703,816	-200,000	-0,014	-0,065
-702,802	-200,000	-0,021	-0,078
-701,787	332,117	-0,077	-0,111
-700,772	-200,000	0,013	-0,120
-699,758	-200,000	0,014	-0,085
-698,743	-200,000	0,002	0,200
-697,729	241,126	0,020	-0,024
-696,714	327,734	-0,045	0,064
-695,699	-200,000	-0,025	-0,107
-694,685	800,000	-0,039	-0,112
-693,670	800,000	0,033	-0,069
-692,656	226,543	0,051	-0,062
-691,641	-19,772	0,109	0,050
-690,627	-200,000	0,025	-0,106
-689,612	-69,137	-0,072	0,020
-688,597	40,931	0,082	-0,055
-687,583	-151,441	-0,118	-0,006
-686,568	-60,560	-0,172	0,054
-685,554	-200,000	-0,028	-0,150
-684,539	-200,000	-0,014	0,068
-683,524	47,207	-0,048	0,033
-682,510	202,810	-0,029	-0,033
-681,495	467,631	-0,091	-0,153
-680,481	-167,351	-0,086	-0,003
-679,466	-200,000	-0,002	-0,137
-678,451	-200,000	0,040	-0,193
-677,437	-200,000	-0,007	-0,060
-676,422	-200,000	0,004	0,082
-675,408	800,000	-0,025	0,076
-674,393	800,000	0,025	0,075
-673,378	145,070	-0,030	0,030
-672,364	-67,108	-0,108	0,031
-671,349	-84,777	-0,106	-0,025
-670,335	800,000	-0,059	-0,166
-669,320	-118,620	0,111	0,014
-668,305	-20,014	-0,109	0,050
-667,291	552,563	0,065	-0,116
-666,276	-67,864	0,034	-0,010
-665,262	-105,398	-0,163	-0,027
-664,247	-200,000	-0,002	0,120
-663,232	-200,000	-0,007	0,096
-662,218	122,448	0,071	0,066
-661,203	140,053	-0,129	0,126
-660,189	-200,000	-0,028	-0,147
-659,174	-158,141	-0,195	-0,008
-658,159	71,429	-0,040	0,031
-657,145	33,851	-0,014	0,009
-656,130	-90,538	0,066	0,014
-655,116	193,971	-0,104	0,117
-654,101	-53,408	0,188	0,064
-653,086	322,881	0,055	-0,079
-652,072	11,376	-0,068	0,038
-651,057	689,746	-0,048	-0,094
-650,043	408,739	-0,068	-0,108
-649,028	424,071	-0,067	-0,107
-648,014	623,410	0,052	-0,099
-646,999	800,000	0,033	0,099
-645,984	800,000	-0,057	0,123
-644,970	-118,472	-0,055	0,007
-643,955	266,342	-0,042	-0,055
-642,941	-85,182	0,060	-0,014
-641,926	97,360	0,031	-0,027
-640,911	-15,809	0,161	0,076
-639,897	144,645	0,148	-0,147
-638,882	336,727	0,011	0,015
-637,868	559,094	0,007	0,013
-636,853	-139,155	-0,143	-0,011
-635,838	384,865	0,061	0,094
-634,824	-200,000	-0,020	-0,087
-633,809	-200,000	0,003	-0,084
-632,795	800,000	0,040	0,106
-631,780	-200,000	-0,029	0,168
-630,765	48,528	0,123	-0,086
-629,751	800,000	-0,067	-0,141
-628,736	109,528	-0,055	-0,049
-627,722	-13,105	-0,091	-0,044
-626,707	65,461	-0,012	-0,009
-625,692	-151,616	0,087	-0,005
-624,678	327,792	-0,081	0,116
-623,663	138,740	0,018	-0,017
-622,649	800,000	-0,025	0,058
-621,634	-200,000	0,012	-0,059
-620,619	-164,386	0,111	-0,004
-619,605	800,000	-0,052	-0,107
-618,590	49,966	0,067	0,047
-617,576	800,000	0,045	0,131
-616,561	96,192	-0,027	0,023
-615,546	-168,254	0,071	0,002
-614,532	-200,000	-0,010	-0,084
-613,517	-32,194	-0,122	-0,050
-612,503	-2,850	0,118	0,061
-611,488	-200,000	0,014	-0,065
-610,474	-57,799	-0,066	0,021
-609,459	-51,207	0,149	0,052
-608,444	686,925	0,042	-0,082
-607,430	566,039	-0,104	-0,187
-606,415	-200,000	-0,022	-0,094
-605,401	800,000	-0,020	-0,059
-604,386	319,559	0,055	0,078
-603,371	116,126	-0,021	-0,019
-602,357	-121,224	0,008	0,001
-601,342	577,878	0,015	0,028
-600,328	155,365	-0,052	-0,053
-599,313	-30,649	-0,129	0,054
-598,298	-200,000	-0,076	-0,000
-597,284	-9,861	0,130	0,064
-596,269	293,876	-0,032	0,043
-595,255	-200,000	0,002	0,029
-594,240	-138,294	-0,097	-0,008
-593,225	-29,221	-0,085	0,036
-592,211	-83,021	0,069	0,016
-591,196	416,298	0,027	0,042
-590,182	576,619	-0,042	0,076
-589,167	800,000	-0,026	-0,064
-588,152	-176,229	-0,167	-0,003
-587,138	-12,569	-0,144	-0,070
-586,123	800,000	-0,019	0,055
-585,109	-185,473	0,112	-0,001
-584,094	800,000	-0,038	-0,082
-583,079	73,273	0,167	-0,129
-582,065	-26,947	-0,022	-0,010
-581,050	-47,231	0,107	0,038
-580,036	69,871	0,029	-0,022
-579,021	314,874	0,110	-0,154
-578,006	246,120	-0,095	0,119
-576,992	-130,498	0,108	0,011
-575,977	-14,344	0,030	0,014
-574,963	800,000	-0,005	-0,010
-573,948	800,000	0,011	0,033
-572,934	-200,000	-0,000	-0,041
-571,919	-57,052	-0,153	-0,050
-570,904	-200,000	-0,015	0,185
-569,890	-86,284	-0,099	0,022
-568,875	-200,000	-0,003	0,058
-567,861	514,327	0,040	0,070
-566,846	-95,435	-0,041	0,008
-565,831	-200,000	0,006	-0,068
-564,817	72,175	-0,055	0,043
-563,802	675,182	-0,061	-0,117
-562,788	556,200	0,009	-0,016
-561,773	432,515	-0,025	0,041
-560,758	109,773	-0,114	0,101
-559,744	-125,862	0,067	0,007
-558,729	321,167	-0,041	-0,058
-557,715	800,000	0,040	-0,105
-556,700	-200,000	0,017	0,075
-555,685	163,075	0,026	0,027
-554,671	-200,000	0,018	0,093
-553,656	800,000	-0,020	-0,062
-552,642	-62,268	0,112	-0,034
-551,627	-28,382	-0,044	-0,019
-550,612	-62,288	-0,056	0,017
-549,598	784,667	-0,066	-0,134
-548,583	-50,920	0,081	-0,028
-547,569	86,313	0,116	0,095
-546,554	309,807	-0,047	0,065
-545,539	229,361	0,019	-0,023
-544,525	46,135	0,032	-0,022
-543,510	76,751	0,078	0,061
-542,496	-151,149	-0,161	0,009
-541,481	-45,350	0,079	-0,029
-540,466	0,558	-0,075	0,039
-539,452	260,558	-0,083	-0,106
-538,437	-200,000	0,018	0,088
-537,423	63,522	0,069	0,051
-536,408	469,257	-0,046	-0,076
-535,393	-10,462	-0,075	-0,037
-534,379	-200,000	-0,003	0,107
-533,364	183,314	0,083	0,090
-532,350	159,332	-0,015	0,015
-531,335	318,861	-0,058	-0,081
-530,321	165,095	0,045	-0,047
-529,306	52,999	0,050	0,035
-528,291	-65,406	-0,072	-0,021
-527,277	177,168	0,056	-0,061
-526,262	36,180	-0,059	0,039
-525,248	380,341	0,099	-0,150
-524,233	-200,000	0,006	0,023
-523,218	-50,655	-0,109	0,038
-522,204	601,956	-0,027	-0,050
-521,189	11,365	-0,090	-0,051
-520,175	61,015	-0,087	-0,064
-519,160	470,837	0,026	0,044
-518,145	-70,176	0,032	-0,009
-517,131	-116,576	0,066	0,009
-516,116	47,673	-0,094	0,064
-515,102	114,115	-0,106	-0,095
-514,087	-90,548	0,059	-0,012
-513,072	103,110	0,025	0,022
-512,058	800,000	-0,042	-0,092
-511,043	-158,097	-0,126	0,005
-510,029	667,552	0,047	-0,091
-509,014	328,041	-0,003	0,005
-507,999	185,409	-0,052	0,057
-506,985	-165,746	-0,085	0,003
-505,970	-77,208	-0,113	-0,029
-504,956	386,986	-0,053	-0,081
-503,941	-75,098	0,073	-0,019
-502,926	-169,021	0,077	-0,002
-501,912	67,624	-0,073	-0,055
-500,897	-200,000	-0,052	0,177
-499,883	-103,792	-0,024	-0,004
-498,868	223,706	-0,063	-0,075
-497,853	-200,000	0,002	-0,156
-496,839	129,902	0,106	0,101
-495,824	800,000	-0,060	0,179
-494,810	30,363	-0,041	0,026
-493,795	255,963	0,032	-0,040
-492,781	-200,000	0,017	0,090
-491,766	109,925	-0,064	0,057
-490,751	182,341	0,023	-0,025
-489,737	-56,243	0,009	0,003
-488,722	-33,799	0,125	0,051
-487,708	-166,362	-0,080	0,002
-486,693	-200,000	0,011	-0,075
-485,678	-193,410	-0,114	0,001
-484,664	-141,994	-0,106	-0,008
-483,649	146,585	-0,043	-0,043
-482,635	-67,590	-0,084	0,024
-481,620	-136,137	0,166	-0,014
-480,605	-47,925	0,081	-0,029
-479,591	554,614	0,003	0,005
-478,576	191,279	-0,039	-0,043
-477,562	-200,000	-0,004	0,032
-476,547	800,000	-0,039	0,104
-475,532	800,000	-0,060	0,137
-474,518	800,000	0,046	-0,106
-473,503	99,133	0,087	-0,074
-472,489	61,326	-0,057	0,042
-471,474	409,643	-0,054	0,085
-470,459	-37,437	-0,131	0,051
-469,445	222,098	0,085	-0,101
-468,430	800,000	0,033	-0,080
-467,416	494,887	-0,029	-0,050
-466,401	-190,471	0,135	0,001
-465,386	-123,181	-0,125	0,015
-464,372	55,053	0,106	0,075
-463,357	776,788	0,075	0,151
-462,343	-73,712	-0,138	-0,037
-461,328	-95,160	0,040	-0,008
-460,313	-119,204	0,083	-0,011
-459,299	112,586	-0,055	0,049
-458,284	145,058	-0,036	0,035
-457,270	90,298	-0,071	-0,058
-456,255	174,447	0,066	-0,071
-455,241	638,745	0,050	-0,095
-454,226	800,000	-0,021	-0,043
-453,211	-200,000	0,007	0,055
-452,197	-200,000	0,017	-0,188
-451,182	-200,000	0,038	0,153
-450,168	-98,988	-0,110	-0,020
-449,153	-176,958	0,116	-0,002
-448,138	800,000	0,024	-0,073
-447,124	-110,784	-0,052	-0,008
-446,109	255,532	0,016	-0,020
-445,095	-200,000	-0,009	0,082
-444,080	-200,000	0,033	0,123
-443,065	-200,000	-0,015	0,081
-442,051	-26,706	-0,068	0,029
-441,036	-155,886	-0,130	-0,006
-440,022	151,801	-0,028	-0,028
-439,007	273,163	0,038	0,049
-437,992	154,715	0,114	0,116
-436,978	800,000	-0,047	0,106
-435,963	-200,000	0,007	0,080
-434,949	491,296	0,074	-0,125
-433,934	102,682	-0,067	-0,058
-432,919	13,698	0,126	-0,072
-431,905	-197,076	0,016	0,000
-430,890	-149,410	0,072	-0,004
-429,876	-200,000	-0,004	-0,025
-428,861	800,000	-0,027	0,075
-427,846	212,053	-0,102	0,119
-426,832	-200,000	-0,041	-0,133
-425,817	497,046	-0,064	-0,110
-424,803	800,000	-0,023	0,049
-423,788	-143,769	0,168	0,012
-422,773	41,740	0,142	0,095
-421,759	-60,012	0,062	-0,019
-420,744	-86,831	-0,101	0,023
-419,730	217,429	0,015	-0,018
-418,715	800,000	-0,028	-0,068
-417,701	664,032	-0,067	-0,127
-416,686	-200,000	-0,032	0,144
-415,671	63,737	0,071	0,053
-414,657	-200,000	0,022	-0,121
-413,642	800,000	0,074	0,187
-412,628	-16,803	0,080	-0,037
-411,613	-41,550	0,077	-0,029
-410,598	131,490	0,028	0,026
-409,584	371,426	0,014	0,020
-408,569	681,932	-0,043	0,084
-407,555	800,000	0,034	-0,078
-406,540	-200,000	-0,001	0,124
-405,525	407,880	-0,066	0,103
-404,511	-149,354	-0,087	0,005
-403,496	-200,000	0,005	-0,069
-402,482	77,555	0,032	-0,025
-401,467	-200,000	-0,022	-0,076
-400,452	-71,565	0,101	0,027
-399,438	419,480	-0,042	-0,066
-398,423	-68,954	0,086	0,024
-397,409	58,113	-0,083	-0,060
-396,394	-98,062	-0,169	-0,032
-395,379	95,222	0,073	0,061
-394,365	67,214	0,034	0,026
-393,350	-200,000	0,010	-0,064
-392,336	-22,444	0,079	-0,035
-391,321	-163,246	-0,040	0,001
-390,306	-110,326	-0,102	-0,015
-389,292	415,826	0,104	-0,164
-388,277	99,786	0,082	0,070
-387,263	-200,000	-0,008	0,034
-386,248	78,278	0,135	0,106
-385,233	-200,000	0,003	0,069
-384,219	-200,000	-0,002	0,047
-383,204	-200,000	-0,020	0,073
-382,190	415,513	-0,067	-0,106
-381,175	-200,000	-0,025	0,164
-380,160	-41,422	0,003	0,001
-379,146	-79,325	0,053	-0,013
-378,131	608,715	0,059	0,109
-377,117	364,182	0,049	0,073
-376,102	-73,141	-0,036	-0,010
-375,088	112,369	-0,115	-0,103
-374,073	111,752	0,025	-0,022
-373,058	82,538	-0,122	0,097
-372,044	435,069	0,040	0,063
-371,029	580,856	0,035	-0,064
-370,015	-200,000	-0,004	0,062
-369,000	-200,000	0,015	-0,093
-367,985	-77,347	-0,189	-0,048
-366,971	-200,000	0,006	0,021
-365,956	-54,398	0,143	0,047
-364,942	-200,000	0,005	0,079
-363,927	800,000	-0,017	0,044
-362,912	332,848	-0,035	-0,049
-361,898	149,131	-0,042	-0,042
-360,883	145,034	0,074	-0,073
-359,869	477,270	-0,064	-0,107
-358,854	-55,853	-0,133	0,043
-357,839	526,349	0,084	0,146
-356,825	-13,716	0,045	-0,022
-355,810	-200,000	-0,013	0,083
-354,796	164,074	0,014	0,015
-353,781	-200,000	-0,019	-0,135
-352,766	-27,167	-0,074	-0,032
-351,752	180,457	-0,008	-0,009
-350,737	-200,000	-0,005	0,074
-349,723	-200,000	0,014	0,108
-348,708	119,576	-0,080	0,073
-347,693	-18,912	-0,163	-0,074
-346,679	-82,829	0,169	-0,040
-345,664	-135,389	0,047	0,004
-344,650	-115,119	-0,158	0,022
-343,635	-185,406	0,053	-0,001
-342,620	-38,716	0,087	0,033
-341,606	-117,408	-0,115	-0,015
-340,591	243,432	-0,073	-0,090
-339,577	-200,000	-0,010	-0,166
-338,562	356,856	0,043	-0,064
-337,548	762,195	-0,045	-0,090
-336,533	-200,000	0,042	0,138
-335,518	-200,000	-0,002	0,030
-334,504	-200,000	-0,018	0,139
-333,489	-30,659	0,092	-0,038
-332,475	183,439	-0,084	-0,091
-331,460	-157,978	-0,154	-0,007
-330,445	277,372	-0,045	-0,058
-329,431	65,731	0,017	-0,012
-328,416	305,400	0,046	0,063
-327,402	278,837	0,036	0,047
-326,387	224,055	-0,040	0,048
-325,372	428,822	-0,053	-0,085
-324,358	800,000	0,038	-0,109
-323,343	66,639	0,118	-0,088
-322,329	-200,000	0,044	0,161
-321,314	-11,593	0,042	0,020
-320,299	-200,000	0,002	-0,088
-319,285	-200,000	-0,012	0,059
-318,270	158,214	0,053	0,054
-317,256	800,000	-0,029	-0,091
-316,241	-82,300	-0,128	-0,030
-315,226	-108,942	-0,101	-0,016
-314,212	-200,000	0,007	0,111
-313,197	72,786	-0,082	0,063
-312,183	-200,000	-0,006	0,085
-311,168	13,500	-0,049	0,028
-310,153	-42,872	0,078	-0,029
-309,139	-132,347	-0,011	0,001
-308,124	-8,241	0,139	-0,068
-307,110	489,532	0,011	0,018
-306,095	-66,593	-0,108	-0,031
-305,080	-82,361	-0,050	-0,012
-304,066	-169,711	0,080	-0,002
-303,051	-62,534	0,081	0,025
-302,037	141,341	0,114	0,111
-301,022	-200,000	0,013	-0,067
-300,008	-0,236	0,143	-0,074
-298,993	195,254	0,101	0,113
-297,978	-200,000	0,009	0,084
-296,964	-200,000	0,033	-0,107
-295,949	7,867	-0,110	-0,060
-294,935	-200,000	0,019	0,066
-293,920	178,318	0,033	-0,035
-292,905	443,819	0,043	0,069
-291,891	-15,808	0,104	0,048
-290,876	62,081	0,058	0,043
-289,862	800,000	0,046	-0,102
-288,847	-58,736	0,122	-0,038
-287,832	-67,836	-0,091	0,026
-286,818	-200,000	-0,008	-0,077
-285,803	800,000	0,015	0,035
-284,789	687,924	-0,043	0,083
-283,774	476,932	-0,041	-0,067
-282,759	-200,000	-0,020	-0,142
-281,745	15,066	-0,124	-0,071
-280,730	365,877	-0,089	0,132
-279,716	-200,000	-0,024	-0,097
-278,701	-200,000	0,006	0,052
-277,686	-23,692	0,055	-0,024
-276,672	-200,000	0,003	0,054
-275,657	800,000	-0,038	-0,116
-274,643	752,108	0,043	-0,086
-273,628	-200,000	0,009	-0,045
-272,613	376,757	-0,042	0,063
-271,599	468,499	0,068	-0,112
-270,584	669,135	0,049	0,094
-269,570	-13,241	-0,058	0,028
-268,555	-200,000	0,017	-0,104
-267,540	800,000	-0,005	0,016
-266,526	-200,000	-0,000	-0,061
-265,511	-110,209	-0,006	-0,001
-264,497	-68,555	0,114	-0,032
-263,482	-200,000	0,011	-0,042
-262,467	-200,000	-0,006	-0,091
-261,453	-200,000	-0,033	-0,122
-260,438	-200,000	-0,002	-0,067
-259,424	-42,249	-0,092	0,034
-258,409	105,435	-0,092	-0,079
-257,395	29,726	-0,049	-0,030
-256,380	-200,000	0,003	0,022
-255,365	800,000	0,051	-0,137
-254,351	800,000	-0,032	0,073
-253,336	-13,016	-0,129	-0,061
-252,322	575,724	0,013	-0,024
-251,307	-114,300	0,135	0,019
-250,292	294,702	0,137	0,184
-249,278	526,691	-0,052	0,089
-248,263	-200,000	0,008	0,130
-247,249	-48,212	-0,027	0,009
-246,234	800,000	0,021	0,045
-245,219	800,000	-0,079	0,195
-244,205	-146,805	-0,048	-0,003
-243,190	138,811	-0,067	0,065
-242,176	373,664	-0,092	0,137
-241,161	57,316	0,069	0,049
-240,146	665,201	0,061	-0,115
-239,132	164,301	-0,036	-0,037
-238,117	-200,000	0,012	-0,119
-237,103	92,866	-0,083	-0,068
-236,088	-200,000	0,004	-0,038
-235,073	393,407	0,016	-0,024
-234,059	313,531	0,132	0,181
-233,044	-68,524	0,179	0,051
-232,030	257,219	-0,087	-0,109
-231,015	-200,000	-0,017	-0,079
-230,000	-57,162	0,047	0,015
-228,986	-164,575	-0,034	-0,001
-227,971	-200,000	-0,002	0,048
-226,957	-72,523	0,113	-0,030
-225,942	74,214	-0,067	-0,051
-224,927	-200,000	-0,031	0,119
-223,913	333,128	-0,061	-0,086
-222,898	237,226	0,008	-0,009
-221,884	169,777	0,055	-0,057
-220,869	800,000	-0,050	0,152
-219,855	-200,000	0,009	0,151
-218,840	-200,000	0,010	0,155
-217,825	-200,000	-0,005	-0,037
-216,811	-200,000	0,020	0,099
-215,796	-75,133	-0,068	-0,018
-214,782	510,774	0,054	-0,092
-213,767	369,380	0,061	-0,091
-212,752	140,388	0,035	-0,034
-211,738	77,655	0,055	-0,043
-210,723	-118,400	0,108	0,014
-209,709	-19,039	-0,131	0,059
-208,694	-200,000	-0,002	0,166
-207,679	-100,345	0,021	-0,004
-206,665	-200,000	0,022	-0,099
-205,650	61,840	0,178	-0,129
-204,636	-37,234	0,138	-0,053
-203,621	276,367	0,069	0,090
-202,606	129,847	-0,023	0,022
-201,592	289,307	0,036	-0,048
-200,577	-114,617	0,043	-0,006
-199,563	-200,000	-0,030	-0,098
-198,548	44,575	-0,022	-0,015
-197,533	74,264	-0,035	0,027
-196,519	426,184	0,052	0,082
-195,504	655,388	-0,081	-0,153
-194,490	-194,412	-0,139	-0,001
-193,475	-131,892	-0,075	-0,007
-192,460	-55,387	0,184	-0,060
-191,446	800,000	0,080	0,221
-190,431	-5,122	0,256	0,128
-189,417	-169,265	-0,072	0,002
-188,402	24,641	-0,061	0,037
-187,387	-200,000	-0,009	-0,049
-186,373	-51,399	-0,124	-0,042
-185,358	-200,000	0,021	-0,117
-184,344	167,573	-0,085	0,088
-183,329	800,000	-0,036	0,080
-182,315	-129,772	0,137	-0,014
-181,300	-200,000	0,006	0,042
-180,285	-200,000	0,021	0,085
-179,271	-142,362	0,152	-0,011
-178,256	-11,933	-0,072	0,034
-177,242	800,000	0,009	0,026
-176,227	402,456	-0,026	-0,041
-175,212	-66,508	-0,025	0,007
-174,198	349,916	-0,102	-0,147
-173,183	-200,000	0,010	-0,035
-172,169	76,992	-0,066	0,051
-171,154	243,333	0,012	0,014
-170,139	-200,000	0,027	0,137
-169,125	-90,801	0,146	-0,030
-168,110	30,843	-0,088	0,055
-167,096	-200,000	-0,008	0,122
-166,081	607,747	-0,055	-0,100
-165,066	800,000	0,057	-0,177
-164,052	-62,098	-0,094	0,028
-163,037	311,436	-0,038	-0,052
-162,023	-22,935	0,075	-0,033
-161,008	175,968	0,064	-0,068
-159,993	-159,295	0,057	-0,002
-158,979	-200,000	-0,039	-0,130
-157,964	-22,317	0,084	0,037
-156,950	33,822	-0,112	0,071
-155,935	159,833	0,084	-0,086
-154,920	56,867	0,029	0,020
-153,906	-176,249	0,083	-0,002
-152,891	121,541	-0,087	0,079
-151,877	-133,943	-0,026	-0,002
-150,862	-200,000	0,013	0,052
-149,847	-200,000	0,015	-0,066
-148,833	-200,000	-0,009	0,077
-147,818	106,381	0,068	0,059
-146,804	-26,796	-0,066	0,028
-145,789	129,718	0,080	-0,074
-144,775	-200,000	-0,028	-0,107
-143,760	324,086	-0,079	0,111
-142,745	-177,145	0,033	-0,001
-141,731	-200,000	-0,007	-0,028
-140,716	-62,556	-0,073	0,022
-139,702	-12,428	0,050	-0,024
-138,687	-111,458	0,034	-0,005
-137,672	800,000	0,036	-0,092
-136,658	34,515	0,025	-0,016
-135,643	800,000	-0,022	0,053
-134,629	284,232	0,079	0,103
-133,614	800,000	-0,027	0,070
-132,599	800,000	-0,005	-0,015
-131,585	-111,949	-0,012	0,002
-130,570	298,353	0,040	-0,053
-129,556	-200,000	-0,004	-0,071
-128,541	800,000	-0,031	-0,068
-127,526	645,962	-0,017	0,031
-126,512	354,704	-0,056	0,081
-125,497	33,359	-0,018	-0,011
-124,483	-200,000	0,002	0,083
-123,468	4,901	0,089	-0,048
-122,453	-109,839	-0,060	0,009
-121,439	-200,000	0,003	0,043
