DTS Sentinel unit serial number:	SN410029Multiplexer serial number:	ORYXHardware model number:	OX2-SRSoftware version number:	ORYX F/W v4,00 Oryx Data Collector v3.7.2.0data status	okinstallation	B6 Nyhavnadifferential loss correction	single-endedforward channel	channel 2reverse channel	N/Adate	2023/12/10time	22:55:08forward acquisition time	300,00reverse acquisition time	0,00gamma	499,1914k internal	0,3122k external	0,3122temperature offset calibration	1,0000default loss term (dB/km)	0,3820temperature slope calibration	1,0000multiplexer offset coefficient	1,0000multiplexer slope coefficient	1,0000fibre end	0,00T internal ref (°C)	22,38T ext. ref 1 (°C)	6,13T ext. ref 2 (°C)	6,15length (m)	temperature (°C)	Stokes	anti-Stokes-744,400	567,369	0,091	-0,165
-743,385	-196,394	-0,174	-0,001
-742,371	401,947	-0,050	-0,078
-741,356	147,138	-0,115	0,115
-740,342	-102,956	0,218	-0,038
-739,327	322,152	-0,125	0,178
-738,312	-200,000	0,005	-0,024
-737,298	119,797	-0,155	0,143
-736,283	408,971	0,025	-0,040
-735,269	111,831	-0,190	0,171
-734,254	564,445	-0,016	-0,029
-733,239	-79,550	-0,449	-0,112
-732,225	180,800	0,060	-0,065
-731,210	-92,783	-0,072	0,015
-730,196	40,153	-0,062	-0,041
-729,181	800,000	-0,059	0,160
-728,167	297,224	0,021	-0,028
-727,152	800,000	0,002	-0,005
-726,137	800,000	-0,017	-0,043
-725,123	-200,000	-0,023	-0,096
-724,108	-200,000	-0,056	-0,192
-723,094	-200,000	0,021	-0,119
-722,079	-103,584	-0,048	0,008
-721,064	42,202	0,053	-0,036
-720,050	-138,012	0,099	-0,008
-719,035	39,613	0,027	-0,018
-718,021	106,882	-0,090	-0,080
-717,006	-200,000	0,008	-0,097
-715,991	94,996	-0,095	-0,080
-714,977	-200,000	-0,024	-0,126
-713,962	-51,837	-0,133	0,046
-712,948	-200,000	-0,008	0,061
-711,933	-200,000	-0,003	0,019
-710,918	-128,467	0,098	-0,010
-709,904	-200,000	-0,008	-0,146
-708,889	-200,000	0,003	-0,155
-707,875	800,000	-0,018	-0,056
-706,860	-138,078	-0,019	0,002
-705,845	8,971	-0,050	0,028
-704,831	-49,901	-0,082	0,029
-703,816	789,189	-0,023	-0,046
-702,802	-200,000	-0,012	-0,077
-701,787	54,594	-0,129	-0,092
-700,772	408,180	-0,031	0,049
-699,758	-153,401	-0,130	-0,007
-698,743	800,000	-0,048	0,142
-697,729	-41,087	-0,103	0,040
-696,714	317,092	0,064	-0,090
-695,699	-74,531	0,112	-0,030
-694,685	-64,989	-0,094	0,028
-693,670	67,763	-0,030	-0,023
-692,656	-5,171	-0,101	-0,052
-691,641	230,101	0,082	-0,099
-690,627	-200,000	-0,007	0,143
-689,612	-63,608	-0,185	-0,056
-688,597	-200,000	-0,012	-0,094
-687,583	656,190	0,023	-0,044
-686,568	72,425	-0,135	-0,104
-685,554	-5,228	-0,141	-0,072
-684,539	16,757	0,078	0,046
-683,524	227,123	0,043	-0,052
-682,510	-95,306	0,009	0,002
-681,495	486,918	0,076	-0,129
-680,481	-200,000	0,002	0,091
-679,466	-113,216	-0,143	0,021
-678,451	375,572	0,033	-0,051
-677,437	-200,000	-0,011	0,059
-676,422	148,882	0,073	0,073
-675,408	-200,000	-0,001	0,011
-674,393	-10,312	-0,089	-0,044
-673,378	-200,000	-0,008	0,046
-672,364	-55,416	-0,080	0,027
-671,349	-200,000	-0,004	-0,117
-670,335	-200,000	-0,000	0,030
-669,320	-74,089	-0,139	0,037
-668,305	63,127	-0,062	0,046
-667,291	-13,113	0,061	-0,029
-666,276	125,601	-0,011	0,010
-665,262	-21,827	-0,160	0,072
-664,247	323,348	0,042	-0,059
-663,232	-200,000	0,010	0,042
-662,218	694,416	0,013	-0,025
-661,203	182,045	-0,125	-0,137
-660,189	-200,000	0,016	-0,099
-659,174	-140,750	-0,117	0,009
-658,159	800,000	-0,036	-0,105
-657,145	369,269	0,043	-0,065
-656,130	-200,000	-0,012	0,062
-655,116	-136,961	0,049	0,004
-654,101	800,000	-0,023	-0,055
-653,086	-200,000	-0,005	-0,052
-652,072	800,000	0,031	-0,078
-651,057	-200,000	-0,046	-0,179
-650,043	-200,000	-0,012	-0,105
-649,028	242,156	-0,042	-0,052
-648,014	-138,297	0,187	-0,015
-646,999	800,000	-0,029	-0,071
-645,984	-13,117	0,022	0,011
-644,970	800,000	-0,025	0,066
-643,955	26,408	-0,054	-0,033
-642,941	262,654	0,063	-0,082
-641,926	-200,000	-0,021	0,097
-640,911	-200,000	0,000	0,030
-639,897	-200,000	0,005	0,121
-638,882	-200,000	-0,005	0,148
-637,868	-10,150	-0,051	-0,025
-636,853	24,047	-0,039	-0,024
-635,838	17,556	-0,049	-0,029
-634,824	-200,000	-0,018	-0,099
-633,809	587,166	-0,056	-0,102
-632,795	300,473	0,124	0,170
-631,780	-200,000	0,018	-0,097
-630,765	473,556	0,032	-0,054
-629,751	445,894	0,042	-0,069
-628,736	166,542	-0,135	-0,142
-627,722	-72,607	-0,096	0,026
-626,707	-104,726	0,091	-0,015
-625,692	69,681	0,065	-0,050
-624,678	98,730	-0,069	0,059
-623,663	800,000	-0,038	-0,086
-622,649	64,166	-0,074	-0,055
-621,634	52,870	-0,109	-0,077
-620,619	-132,177	0,126	-0,012
-619,605	765,315	0,034	0,069
-618,590	-46,094	-0,110	-0,040
-617,576	73,664	-0,022	0,017
-616,561	584,461	0,036	-0,065
-615,546	-200,000	-0,022	-0,079
-614,532	666,468	-0,050	-0,097
-613,517	-67,340	0,105	-0,030
-612,503	-94,808	0,053	-0,010
-611,488	800,000	0,031	-0,078
-610,474	350,325	0,056	0,083
-609,459	-10,387	-0,102	0,050
-608,444	-164,010	0,106	-0,004
-607,430	800,000	-0,031	-0,066
-606,415	800,000	-0,058	-0,168
-605,401	-200,000	-0,003	0,042
-604,386	-28,682	0,134	-0,057
-603,371	-44,156	0,090	0,033
-602,357	-67,689	-0,030	-0,009
-601,342	34,032	-0,143	-0,092
-600,328	236,699	-0,053	0,065
-599,313	-200,000	0,000	0,049
-598,298	657,439	0,048	0,093
-597,284	50,999	-0,062	0,043
-596,269	-137,225	0,101	-0,008
-595,255	-6,176	0,061	0,031
-594,240	800,000	0,030	0,074
-593,225	-200,000	0,021	-0,114
-592,211	46,237	-0,139	-0,096
-591,196	538,941	-0,015	0,026
-590,182	184,318	-0,057	0,062
-589,167	546,598	0,072	-0,127
-588,152	257,542	0,073	0,093
-587,138	73,105	0,057	0,044
-586,123	3,655	-0,068	-0,037
-585,109	426,661	-0,062	-0,099
-584,094	-42,047	0,139	0,052
-583,079	-49,203	-0,040	-0,014
-582,065	160,707	-0,062	-0,064
-581,050	-200,000	0,007	0,037
-580,036	675,291	0,036	0,069
-579,021	84,748	-0,050	0,040
-578,006	-69,062	0,061	0,017
-576,992	15,261	-0,032	-0,018
-575,977	318,176	0,137	-0,193
-574,963	800,000	0,036	0,092
-573,948	-2,350	-0,073	0,038
-572,934	800,000	-0,024	-0,065
-571,919	-110,676	-0,135	-0,020
-570,904	-73,644	-0,098	-0,026
-569,890	-200,000	0,003	0,032
-568,875	800,000	-0,058	0,134
-567,861	581,475	0,044	-0,080
-566,846	-93,122	0,090	-0,018
-565,831	195,950	0,012	-0,013
-564,817	613,602	-0,034	0,063
-563,802	461,167	-0,077	0,127
-562,788	180,311	0,045	-0,048
-561,773	33,680	-0,073	-0,047
-560,758	-200,000	0,035	0,140
-559,744	578,171	-0,044	-0,081
-558,729	5,919	0,116	-0,064
-557,715	-68,162	0,085	0,024
-556,700	-37,167	0,065	0,025
-555,685	-200,000	0,001	-0,071
-554,671	166,074	-0,029	0,030
-553,656	-117,577	0,157	0,021
-552,642	62,411	-0,075	0,056
-551,627	-44,917	0,063	-0,023
-550,612	579,899	-0,045	0,082
-549,598	-32,190	-0,113	0,047
-548,583	403,193	-0,058	0,091
-547,569	-200,000	-0,012	0,052
-546,554	800,000	0,034	0,083
-545,539	-200,000	0,028	0,106
-544,525	-200,000	0,015	0,099
-543,510	-112,049	0,130	0,019
-542,496	19,026	-0,141	-0,083
-541,481	27,171	0,037	0,023
-540,466	-200,000	-0,011	0,204
-539,452	-200,000	0,018	0,220
-538,437	236,759	-0,045	0,055
-537,423	-200,000	-0,016	0,174
-536,408	8,943	-0,067	0,037
-535,393	163,277	-0,142	-0,148
-534,379	800,000	-0,038	0,083
-533,364	800,000	-0,025	-0,056
-532,350	-157,414	0,079	0,003
-531,335	-200,000	-0,020	0,078
-530,321	800,000	-0,051	0,150
-529,306	-58,271	0,082	-0,026
-528,291	-61,879	-0,018	0,006
-527,277	312,170	-0,019	0,026
-526,262	4,207	0,014	0,007
-525,248	-115,721	0,063	0,009
-524,233	800,000	-0,045	-0,108
-523,218	-200,000	0,012	0,050
-522,204	-200,000	0,013	-0,051
-521,189	-129,365	0,102	-0,010
-520,175	-200,000	-0,048	-0,171
-519,160	50,796	-0,082	0,058
-518,145	412,228	0,025	0,039
-517,131	-200,000	0,004	-0,012
-516,116	239,032	-0,028	0,034
-515,102	-200,000	0,017	-0,069
-514,087	-37,025	0,090	-0,035
-513,072	742,754	-0,050	0,099
-512,058	-105,792	-0,042	-0,007
-511,043	-200,000	-0,007	0,060
-510,029	-31,787	0,105	0,043
-509,014	292,530	0,054	-0,073
-507,999	800,000	-0,026	0,064
-506,985	300,617	-0,064	0,088
-505,970	-172,079	-0,097	-0,002
-504,956	-129,136	0,137	0,014
-503,941	800,000	0,060	0,124
-502,926	800,000	-0,027	-0,070
-501,912	-200,000	-0,011	0,048
-500,897	26,623	0,077	-0,048
-499,883	35,984	-0,107	-0,069
-498,868	-200,000	0,007	-0,100
-497,853	514,709	-0,039	0,067
-496,839	800,000	-0,030	-0,063
-495,824	795,007	0,015	0,032
-494,810	800,000	-0,036	0,086
-493,795	-118,786	0,064	0,008
-492,781	186,643	-0,032	0,035
-491,766	514,310	-0,043	-0,074
-490,751	-200,000	0,002	0,012
-489,737	800,000	0,022	0,048
-488,722	-43,230	0,080	0,030
-487,708	252,556	0,062	0,078
-486,693	-200,000	0,053	0,209
-485,678	20,821	-0,081	0,048
-484,664	289,521	0,037	0,050
-483,649	174,591	0,036	-0,039
-482,635	-200,000	0,007	0,037
-481,620	-108,039	0,067	0,011
-480,605	-50,228	-0,082	-0,029
-479,591	420,847	0,026	0,041
-478,576	-200,000	-0,022	-0,160
-477,562	444,570	-0,059	-0,095
-476,547	69,437	-0,101	0,077
-475,532	-74,564	0,078	-0,021
-474,518	346,295	-0,030	0,044
-473,503	-123,213	-0,042	0,005
-472,489	-141,523	0,144	0,011
-471,474	163,078	0,058	0,060
-470,459	277,484	-0,046	0,061
-469,445	4,395	0,086	0,046
-468,430	306,512	-0,013	-0,018
-467,416	800,000	-0,012	0,035
-466,401	87,396	0,162	0,132
-465,386	682,406	-0,035	0,067
-464,372	80,785	0,102	-0,081
-463,357	-83,581	0,047	0,011
-462,343	-35,151	-0,185	-0,074
-461,328	164,478	-0,050	0,052
-460,313	-200,000	0,014	-0,058
-459,299	210,298	0,068	-0,079
-458,284	-200,000	0,002	-0,013
-457,270	-200,000	-0,019	0,090
-456,255	-200,000	-0,051	-0,180
-455,241	-45,584	0,082	0,030
-454,226	-111,379	-0,086	-0,013
-453,211	-159,777	-0,106	0,004
-452,197	-200,000	0,000	-0,054
-451,182	195,282	0,072	0,081
-450,168	163,217	0,105	0,109
-449,153	-72,017	-0,052	0,014
-448,138	68,871	0,106	-0,080
-447,124	656,205	0,022	0,041
-446,109	-200,000	-0,024	0,138
-445,095	-90,342	0,077	0,016
-444,080	30,273	-0,111	0,069
-443,065	227,583	-0,045	-0,054
-442,051	800,000	-0,013	-0,033
-441,036	703,709	-0,072	-0,140
-440,022	163,602	0,035	-0,036
-439,007	-36,704	-0,081	0,032
-437,992	800,000	-0,052	0,125
-436,978	800,000	-0,037	0,095
-435,963	-200,000	0,006	0,051
-434,949	-200,000	-0,008	-0,038
-433,934	800,000	0,017	-0,040
-432,919	113,956	0,017	0,016
-431,905	287,896	0,067	-0,089
-430,890	261,666	-0,054	0,069
-429,876	760,415	0,010	0,020
-428,861	766,201	0,057	0,115
-427,846	242,104	-0,098	-0,121
-426,832	-84,866	-0,017	-0,004
-425,817	-10,230	-0,065	-0,032
-424,803	486,864	-0,067	-0,113
-423,788	-200,000	0,001	0,016
-422,773	24,946	0,063	-0,039
-421,759	-130,293	-0,051	0,005
-420,744	72,756	-0,048	-0,037
-419,730	-200,000	0,001	-0,057
-418,715	-90,984	0,070	-0,015
-417,701	178,445	0,050	-0,053
-416,686	800,000	0,024	-0,052
-415,671	-22,503	-0,048	0,021
-414,657	-200,000	0,006	0,055
-413,642	800,000	0,038	0,101
-412,628	-76,486	0,037	0,010
-411,613	-200,000	-0,002	-0,082
-410,598	-200,000	0,021	-0,069
-409,584	-14,739	0,052	-0,024
-408,569	-109,810	0,096	-0,015
-407,555	347,766	0,099	0,143
-406,540	379,024	0,025	-0,037
-405,525	24,754	-0,120	-0,073
-404,511	800,000	0,060	-0,144
-403,496	400,652	-0,048	-0,075
-402,482	83,797	0,010	-0,008
-401,467	625,053	0,033	0,061
-400,452	457,670	0,034	0,056
-399,438	-200,000	0,010	0,087
-398,423	-200,000	-0,000	-0,080
-397,409	298,747	0,057	0,077
-396,394	-177,026	-0,090	-0,002
-395,379	-74,844	0,079	0,021
-394,365	800,000	0,036	0,074
-393,350	369,780	0,104	0,155
-392,336	72,327	0,059	-0,045
-391,321	-200,000	0,020	0,103
-390,306	106,837	-0,049	-0,043
-389,292	297,295	0,039	-0,053
-388,277	-200,000	-0,002	0,056
-387,263	234,516	0,037	0,044
-386,248	-73,047	-0,020	0,005
-385,233	-26,979	0,007	-0,003
-384,219	-78,953	0,124	0,031
-383,204	-200,000	-0,039	-0,275
-382,190	-200,000	-0,008	-0,139
-381,175	234,422	-0,066	-0,080
-380,160	-56,287	-0,077	-0,025
-379,146	9,297	0,092	0,051
-378,131	203,997	-0,045	0,051
-377,117	502,105	0,035	-0,059
-376,102	-45,298	-0,152	-0,055
-375,088	-200,000	-0,021	-0,113
-374,073	-2,400	0,153	-0,078
-373,058	699,942	0,018	0,034
-372,044	-15,483	0,189	0,088
-371,029	767,740	0,033	0,066
-370,015	252,327	0,059	0,075
-369,000	132,309	-0,059	-0,056
-367,985	-200,000	0,000	0,021
-366,971	75,770	-0,102	-0,079
-365,956	479,922	0,043	-0,073
-364,942	-91,981	0,060	0,012
-363,927	800,000	-0,040	-0,091
-362,912	238,403	-0,045	-0,055
-361,898	-200,000	-0,068	-0,221
-360,883	143,407	-0,055	0,054
-359,869	171,208	0,089	-0,094
-358,854	-104,995	-0,041	-0,007
-357,839	261,836	-0,020	-0,025
-356,825	7,537	-0,161	0,088
-355,810	142,407	-0,097	0,094
-354,796	-45,498	-0,040	-0,014
-353,781	150,828	-0,011	-0,011
-352,766	-20,433	0,044	-0,020
-351,752	800,000	0,055	-0,165
-350,737	800,000	0,024	0,072
-349,723	800,000	0,046	0,111
-348,708	274,031	-0,087	-0,113
-347,693	-63,427	0,061	0,018
-346,679	-85,977	-0,161	-0,036
-345,664	187,001	0,044	-0,048
-344,650	-36,111	0,087	0,034
-343,635	-54,215	0,060	-0,020
-342,620	-98,584	-0,032	-0,006
-341,606	141,364	0,065	0,063
-340,591	-13,184	-0,078	0,037
-339,577	-123,276	0,099	0,011
-338,562	416,394	-0,024	-0,038
-337,548	564,802	-0,027	-0,049
-336,533	800,000	-0,016	-0,047
-335,518	-116,895	-0,036	-0,005
-334,504	800,000	-0,040	-0,117
-333,489	107,667	-0,035	0,031
-332,475	114,871	-0,130	-0,117
-331,460	-41,604	-0,151	-0,057
-330,445	-73,161	0,056	-0,015
-329,431	-200,000	-0,006	-0,036
-328,416	800,000	-0,015	-0,034
-327,402	700,356	-0,034	0,066
-326,387	54,289	0,034	-0,024
-325,372	-180,925	-0,030	0,000
-324,358	-200,000	0,000	-0,026
-323,343	-200,000	-0,006	-0,156
-322,329	-86,662	-0,097	0,022
-321,314	250,389	0,101	0,126
-320,299	26,228	0,066	0,040
-319,285	102,746	-0,054	-0,046
-318,270	-26,929	-0,100	0,043
-317,256	-16,728	0,082	0,038
-316,241	510,693	0,079	-0,135
-315,226	98,491	0,019	0,016
-314,212	403,543	-0,052	0,080
-313,197	-200,000	0,007	0,083
-312,183	157,759	-0,121	-0,123
-311,168	39,326	0,055	0,036
-310,153	800,000	0,045	-0,117
-309,139	91,381	-0,068	0,056
-308,124	112,708	0,012	0,010
-307,110	-200,000	0,017	0,076
-306,095	-108,599	0,107	0,017
-305,080	141,874	-0,035	0,034
-304,066	-200,000	-0,011	0,194
-303,051	-99,934	-0,050	-0,009
-302,037	-103,204	-0,037	-0,006
-301,022	-200,000	0,048	-0,162
-300,008	800,000	-0,009	-0,028
-298,993	-200,000	-0,002	-0,071
-297,978	-200,000	0,006	-0,035
-296,964	-200,000	-0,002	-0,015
-295,949	-62,930	0,089	0,027
-294,935	79,038	-0,076	-0,060
-293,920	-200,000	0,004	-0,041
-292,905	-118,744	-0,040	-0,005
-291,891	428,058	-0,031	0,049
-290,876	800,000	-0,008	-0,023
-289,862	800,000	0,019	0,060
-288,847	2,334	-0,046	0,024
-287,832	-58,849	0,058	-0,018
-286,818	-81,688	-0,197	-0,047
-285,803	-200,000	0,004	0,051
-284,789	79,433	0,118	0,093
-283,774	-200,000	-0,004	0,051
-282,759	-52,518	0,179	-0,060
-281,745	800,000	-0,010	-0,027
-280,730	-97,503	-0,100	-0,019
-279,716	88,432	0,075	0,061
-278,701	-45,097	0,029	0,010
-277,686	188,325	-0,007	0,007
-276,672	158,490	0,096	0,098
-275,657	-38,216	-0,045	-0,018
-274,643	800,000	0,027	0,059
-273,628	356,645	-0,023	0,034
-272,613	55,855	-0,037	0,026
-271,599	-116,379	0,064	-0,009
-270,584	449,620	0,095	0,154
-269,570	800,000	0,054	-0,110
-268,555	-125,783	0,015	-0,002
-267,540	800,000	-0,047	0,118
-266,526	52,847	0,036	-0,025
-265,511	-200,000	-0,012	-0,042
-264,497	-122,947	-0,071	-0,008
-263,482	271,535	0,045	0,059
-262,467	-131,051	-0,028	0,003
-261,453	-49,033	-0,103	0,036
-260,438	539,370	-0,065	-0,113
-259,424	264,349	0,057	-0,073
-258,409	800,000	0,083	-0,239
-257,395	657,801	0,048	0,091
-256,380	-144,798	0,095	-0,006
-255,365	800,000	0,028	0,074
-254,351	-200,000	0,023	-0,108
-253,336	-200,000	0,031	0,101
-252,322	635,666	-0,047	-0,088
-251,307	10,308	-0,155	-0,086
-250,292	800,000	-0,040	-0,121
-249,278	-110,513	0,077	-0,012
-248,263	482,994	0,022	-0,037
-247,249	-60,760	0,116	0,036
-246,234	-114,079	-0,148	-0,021
-245,219	-200,000	-0,005	-0,039
-244,205	719,565	0,016	0,030
-243,190	2,475	0,039	-0,021
-242,176	-149,624	0,156	0,009
-241,161	-200,000	0,007	0,106
-240,146	-136,930	0,171	0,014
-239,132	89,839	-0,133	-0,109
-238,117	800,000	-0,040	0,089
-237,103	800,000	-0,012	-0,037
-236,088	506,552	0,050	0,085
-235,073	-200,000	-0,001	0,125
-234,059	-53,545	0,141	0,047
-233,044	-27,794	0,041	-0,017
-232,030	309,130	0,006	-0,008
-231,015	-114,866	-0,102	0,014
-230,000	-200,000	-0,000	-0,169
-228,986	308,544	0,056	-0,077
-227,971	445,868	-0,039	0,063
-226,957	33,546	0,008	0,005
-225,942	86,805	0,102	-0,083
-224,927	800,000	0,005	0,013
-223,913	-24,378	-0,094	0,041
-222,898	-200,000	0,016	-0,062
-221,884	451,753	0,087	-0,141
-220,869	800,000	0,045	0,095
-219,855	-98,336	-0,096	-0,018
-218,840	-200,000	-0,015	-0,080
-217,825	-148,323	-0,099	0,006
-216,811	-157,648	0,038	-0,002
-215,796	800,000	-0,038	0,080
-214,782	-25,195	-0,024	-0,010
-213,767	-200,000	0,013	0,056
-212,752	-200,000	0,004	-0,045
-211,738	558,708	-0,004	0,007
-210,723	110,594	-0,050	0,044
-209,709	558,664	0,040	-0,070
-208,694	800,000	-0,054	0,129
-207,679	-200,000	0,011	0,048
-206,665	15,441	-0,028	-0,016
-205,650	-200,000	-0,026	0,123
-204,636	187,039	0,045	-0,049
-203,621	171,798	0,065	-0,068
-202,606	35,053	-0,163	-0,104
-201,592	50,978	-0,154	-0,106
-200,577	-26,171	-0,088	-0,037
-199,563	-130,703	0,075	0,007
-198,548	422,192	-0,013	-0,021
-197,533	-89,152	0,018	0,004
-196,519	234,686	0,117	0,141
-195,504	79,491	-0,037	-0,029
-194,490	800,000	0,017	-0,046
-193,475	-10,033	0,071	-0,034
-192,460	800,000	0,033	0,090
-191,446	-190,895	0,101	-0,001
-190,431	-200,000	0,002	0,116
-189,417	-143,630	-0,106	0,007
-188,402	-200,000	0,005	-0,037
-187,387	-200,000	0,006	-0,115
-186,373	230,009	0,029	0,034
-185,358	-107,484	0,084	-0,013
-184,344	800,000	0,033	-0,089
-183,329	-176,063	-0,103	0,002
-182,315	-83,815	-0,059	-0,014
-181,300	545,543	-0,059	0,103
-180,285	91,344	-0,126	-0,103
-179,271	800,000	0,038	-0,083
-178,256	86,454	0,011	0,009
-177,242	317,815	0,043	0,059
-176,227	127,028	-0,047	-0,044
-175,212	112,560	0,034	-0,030
-174,198	-200,000	-0,015	0,153
-173,183	-117,163	-0,114	-0,015
-172,169	-125,392	0,019	-0,002
-171,154	158,044	-0,103	0,104
-170,139	-200,000	0,008	-0,081
-169,125	320,892	-0,095	0,131
-168,110	130,071	0,085	0,079
-167,096	800,000	0,017	-0,035
-166,081	111,378	0,046	-0,041
-165,066	36,951	-0,075	0,048
-164,052	-200,000	-0,024	-0,084
-163,037	-200,000	0,033	0,187
-162,023	99,492	0,074	0,062
-161,008	-200,000	-0,023	0,075
-159,993	-193,477	-0,020	-0,000
-158,979	-48,088	-0,053	-0,019
-157,964	45,773	-0,107	-0,072
-156,950	-200,000	0,015	-0,166
-155,935	62,099	-0,088	0,064
-154,920	-33,205	-0,075	0,030
-153,906	-102,963	0,140	-0,024
-152,891	-200,000	-0,001	0,083
-151,877	230,251	-0,054	0,065
-150,862	64,837	0,070	-0,051
-149,847	376,117	-0,044	-0,066
-148,833	-200,000	-0,013	0,184
-147,818	-5,312	0,108	0,054
-146,804	-63,845	-0,058	-0,017
-145,789	88,512	0,095	-0,077
-144,775	800,000	-0,018	-0,051
-143,760	800,000	0,059	-0,165
-142,745	634,184	-0,032	0,059
-141,731	57,290	-0,113	-0,080
-140,716	313,649	0,095	-0,131
-139,702	-41,368	0,061	0,023
-138,687	-200,000	-0,015	0,161
-137,672	468,736	0,047	-0,077
-136,658	135,906	0,053	-0,050
-135,643	-70,671	-0,113	0,031
-134,629	-200,000	-0,011	-0,138
-133,614	225,862	-0,019	0,022
-132,599	-200,000	0,001	-0,010
-131,585	77,672	0,096	-0,075
-130,570	-200,000	-0,031	0,115
-129,556	-33,697	-0,078	0,031
-128,541	800,000	0,047	-0,096
-127,526	-48,933	0,103	0,036
-126,512	-84,725	-0,102	-0,023
-125,497	5,137	0,072	-0,039
-124,483	139,171	-0,038	-0,037
-123,468	723,928	0,026	0,050
-122,453	800,000	-0,016	0,038
-121,439	646,747	-0,058	-0,109
-120,424	-100,399	-0,076	0,014
-119,410	8,609	0,085	-0,047
