DTS Sentinel unit serial number:	SN410029Multiplexer serial number:	ORYXHardware model number:	OX2-SRSoftware version number:	ORYX F/W v4,00 Oryx Data Collector v3.7.2.0data status	okinstallation	B6 Nyhavnadifferential loss correction	single-endedforward channel	channel 2reverse channel	N/Adate	2023/12/11time	04:20:08forward acquisition time	300,00reverse acquisition time	0,00gamma	499,1914k internal	0,3125k external	0,3125temperature offset calibration	1,0000default loss term (dB/km)	0,3820temperature slope calibration	1,0000multiplexer offset coefficient	1,0000multiplexer slope coefficient	1,0000fibre end	0,00T internal ref (°C)	20,64T ext. ref 1 (°C)	3,40T ext. ref 2 (°C)	3,42length (m)	temperature (°C)	Stokes	anti-Stokes-744,400	-200,000	-0,007	-0,053
-743,385	-105,526	-0,333	0,056
-742,371	-49,493	0,095	0,033
-741,356	-52,700	-0,222	0,076
-740,342	162,112	0,070	0,073
-739,327	26,289	-0,171	0,106
-738,312	-59,645	0,127	-0,040
-737,298	-100,589	-0,245	0,045
-736,283	-200,000	0,003	-0,085
-735,269	-81,217	-0,208	0,051
-734,254	411,503	0,068	-0,108
-733,239	-7,139	-0,481	-0,242
-732,225	5,299	0,140	0,077
-731,210	-200,000	0,016	0,115
-730,196	92,834	0,102	-0,086
-729,181	-130,015	-0,084	-0,008
-728,167	437,043	0,035	0,057
-727,152	-200,000	-0,021	0,069
-726,137	-200,000	-0,001	0,122
-725,123	-15,737	-0,100	0,047
-724,108	748,277	-0,017	-0,034
-723,094	-200,000	-0,004	-0,103
-722,079	190,566	0,017	0,019
-721,064	-200,000	-0,031	0,113
-720,050	-45,880	-0,024	-0,009
-719,035	259,011	-0,016	0,020
-718,021	-200,000	0,022	0,129
-717,006	-200,000	0,003	-0,010
-715,991	141,408	-0,109	-0,108
-714,977	-200,000	-0,006	-0,106
-713,962	800,000	-0,049	-0,128
-712,948	-89,229	0,031	-0,007
-711,933	481,486	-0,022	-0,037
-710,918	-127,145	-0,141	-0,015
-709,904	-1,948	-0,082	-0,043
-708,889	-46,697	-0,065	0,024
-707,875	41,606	0,065	0,044
-706,860	-37,774	-0,016	0,006
-705,845	174,904	0,090	-0,097
-704,831	295,132	0,015	-0,020
-703,816	722,860	-0,056	0,112
-702,802	800,000	0,035	0,074
-701,787	-200,000	-0,017	-0,085
-700,772	-200,000	-0,023	-0,086
-699,758	-179,255	-0,060	0,001
-698,743	-200,000	0,015	-0,147
-697,729	800,000	0,047	0,150
-696,714	-200,000	0,005	-0,018
-695,699	10,101	-0,054	-0,030
-694,685	117,435	0,051	0,047
-693,670	347,758	0,062	-0,092
-692,656	800,000	-0,043	0,133
-691,641	800,000	-0,042	-0,122
-690,627	-200,000	-0,026	0,143
-689,612	93,192	-0,077	0,065
-688,597	-124,905	-0,030	-0,003
-687,583	-14,451	-0,188	-0,090
-686,568	-123,332	-0,033	0,004
-685,554	-200,000	0,005	0,153
-684,539	-200,000	-0,016	-0,143
-683,524	-121,793	0,151	-0,018
-682,510	-174,579	0,056	-0,001
-681,495	-27,101	-0,092	-0,040
-680,481	-182,970	-0,064	-0,001
-679,466	47,552	-0,100	-0,069
-678,451	-73,764	0,064	-0,017
-677,437	629,704	-0,032	-0,060
-676,422	800,000	-0,027	0,066
-675,408	120,278	-0,004	0,004
-674,393	48,977	-0,170	-0,118
-673,378	203,491	-0,032	0,037
-672,364	60,648	-0,059	-0,043
-671,349	42,682	0,116	0,079
-670,335	106,948	0,039	0,034
-669,320	-121,012	-0,069	0,009
-668,305	331,588	0,110	0,158
-667,291	265,986	0,041	0,053
-666,276	-150,111	0,034	-0,002
-665,262	-200,000	0,021	-0,098
-664,247	-200,000	-0,022	-0,115
-663,232	-200,000	-0,012	-0,082
-662,218	-200,000	-0,024	-0,106
-661,203	396,490	0,058	0,091
-660,189	-162,518	-0,061	0,002
-659,174	-200,000	0,008	0,077
-658,159	-200,000	-0,041	-0,139
-657,145	-82,721	0,056	0,013
-656,130	-200,000	0,000	0,008
-655,116	-200,000	-0,018	0,062
-654,101	-67,163	0,113	0,033
-653,086	-70,504	-0,022	0,006
-652,072	0,475	0,026	-0,014
-651,057	800,000	-0,016	-0,044
-650,043	-200,000	-0,007	-0,072
-649,028	-56,094	-0,120	0,039
-648,014	-200,000	0,010	-0,061
-646,999	97,780	-0,070	0,059
-645,984	-200,000	-0,014	-0,081
-644,970	308,214	0,064	-0,088
-643,955	91,198	-0,109	-0,091
-642,941	-79,565	0,040	-0,010
-641,926	169,859	-0,037	-0,040
-640,911	43,763	-0,091	-0,062
-639,897	-69,763	-0,115	0,032
-638,882	-200,000	-0,009	-0,052
-637,868	-141,895	-0,122	0,009
-636,853	24,356	-0,053	-0,033
-635,838	800,000	-0,013	-0,030
-634,824	800,000	-0,045	0,121
-633,809	-65,061	0,117	0,035
-632,795	71,266	0,138	-0,106
-631,780	109,091	-0,059	0,053
-630,765	-119,591	0,062	0,008
-629,751	-25,272	-0,102	-0,045
-628,736	-200,000	-0,047	-0,165
-627,722	-76,481	-0,099	0,026
-626,707	-106,517	-0,030	0,005
-625,692	-75,682	-0,078	-0,020
-624,678	-200,000	-0,035	-0,145
-623,663	-23,623	0,058	0,026
-622,649	-200,000	0,007	-0,097
-621,634	800,000	-0,016	-0,047
-620,619	-142,629	0,053	-0,004
-619,605	673,963	-0,084	0,162
-618,590	-6,504	-0,131	0,066
-617,576	-200,000	0,038	0,214
-616,561	17,825	-0,101	0,060
-615,546	-79,873	-0,044	-0,011
-614,532	-200,000	-0,020	0,119
-613,517	-200,000	0,028	-0,104
-612,503	-7,606	0,099	-0,050
-611,488	-36,339	-0,139	-0,055
-610,474	-200,000	-0,014	-0,055
-609,459	-200,000	-0,027	0,090
-608,444	191,017	-0,052	-0,058
-607,430	667,301	-0,090	-0,173
-606,415	71,239	-0,035	-0,027
-605,401	-123,643	0,039	-0,005
-604,386	-48,762	0,030	0,010
-603,371	288,069	-0,011	0,015
-602,357	96,557	-0,079	-0,067
-601,342	-200,000	0,003	0,042
-600,328	324,560	0,018	-0,025
-599,313	-133,712	-0,138	0,013
-598,298	21,085	0,067	-0,040
-597,284	-42,628	0,067	0,025
-596,269	-61,910	-0,058	0,018
-595,255	35,314	0,049	-0,032
-594,240	55,606	-0,081	-0,058
-593,225	20,809	0,033	0,020
-592,211	84,407	-0,013	0,011
-591,196	96,288	0,087	0,073
-590,182	800,000	-0,017	0,037
-589,167	-43,320	0,070	-0,026
-588,152	16,894	-0,129	-0,075
-587,138	-16,918	-0,027	-0,012
-586,123	-18,597	-0,062	0,028
-585,109	170,492	0,089	-0,094
-584,094	-78,543	-0,046	-0,012
-583,079	-44,660	-0,143	-0,053
-582,065	-115,585	0,108	0,015
-581,050	-175,183	-0,020	-0,000
-580,036	-200,000	0,004	-0,076
-579,021	647,977	0,031	-0,059
-578,006	389,258	-0,086	-0,133
-576,992	411,443	0,059	-0,094
-575,977	328,581	-0,054	-0,078
-574,963	-171,746	0,119	0,003
-573,948	10,703	0,044	0,025
-572,934	-200,000	0,017	0,083
-571,919	-140,117	0,107	0,008
-570,904	-200,000	0,000	-0,054
-569,890	-142,466	-0,021	-0,002
-568,875	-70,818	0,050	-0,014
-567,861	50,868	0,085	-0,060
-566,846	-14,305	0,060	0,029
-565,831	37,301	0,053	-0,035
-564,817	-200,000	0,008	0,033
-563,802	-77,916	-0,059	0,015
-562,788	-200,000	0,014	0,057
-561,773	-15,527	0,070	0,033
-560,758	-114,975	0,134	0,019
-559,744	-49,200	0,051	0,018
-558,729	-44,258	0,127	0,047
-557,715	4,450	-0,199	-0,108
-556,700	18,876	0,107	-0,063
-555,685	376,699	-0,037	-0,055
-554,671	-10,518	-0,058	-0,028
-553,656	53,690	0,053	-0,038
-552,642	-47,286	0,048	0,017
-551,627	-101,094	0,238	-0,043
-550,612	168,027	-0,170	-0,179
-549,598	229,384	-0,036	-0,043
-548,583	-103,513	-0,133	-0,023
-547,569	37,868	-0,112	-0,074
-546,554	36,676	0,074	-0,048
-545,539	554,573	0,021	0,038
-544,525	-44,224	0,125	0,046
-543,510	-80,160	-0,060	-0,015
-542,496	-113,735	-0,252	0,036
-541,481	-140,819	0,073	0,006
-540,466	-15,556	-0,113	0,053
-539,452	99,489	0,058	-0,050
-538,437	-200,000	0,018	0,074
-537,423	800,000	0,080	0,179
-536,408	57,038	0,107	-0,077
-535,393	315,092	0,009	-0,013
-534,379	153,014	0,026	0,026
-533,364	800,000	0,021	-0,045
-532,350	109,049	0,109	0,096
-531,335	-140,481	-0,017	-0,001
-530,321	-28,271	-0,145	-0,062
-529,306	22,383	-0,082	-0,049
-528,291	-33,350	-0,098	0,040
-527,277	156,465	0,136	0,139
-526,262	-200,000	0,008	-0,081
-525,248	-200,000	-0,009	-0,041
-524,233	800,000	-0,021	0,053
-523,218	-15,293	0,161	-0,076
-522,204	-78,852	-0,142	0,035
-521,189	-200,000	0,009	-0,183
-520,175	-200,000	0,015	0,088
-519,160	289,917	-0,117	0,158
-518,145	85,721	0,069	0,056
-517,131	589,020	0,083	0,151
-516,116	-200,000	-0,005	0,027
-515,102	46,418	-0,097	-0,066
-514,087	-200,000	0,014	-0,102
-513,072	201,663	-0,052	-0,059
-512,058	-106,321	0,024	-0,004
-511,043	-200,000	-0,007	-0,073
-510,029	333,054	0,034	-0,049
-509,014	113,717	-0,064	0,057
-507,999	57,671	0,019	0,014
-506,985	-168,364	0,105	0,003
-505,970	-200,000	-0,009	-0,071
-504,956	-200,000	0,002	-0,009
-503,941	151,623	-0,016	0,016
-502,926	-200,000	0,031	-0,129
-501,912	-200,000	-0,019	0,114
-500,897	-50,528	-0,074	0,026
-499,883	5,451	0,034	0,018
-498,868	-44,427	-0,061	0,022
-497,853	800,000	-0,028	0,075
-496,839	-32,666	0,019	-0,008
-495,824	-35,583	0,104	0,041
-494,810	-37,458	-0,007	0,003
-493,795	-200,000	-0,004	0,018
-492,781	349,263	0,017	-0,025
-491,766	-66,439	-0,061	-0,018
-490,751	-42,696	0,113	-0,042
-489,737	800,000	0,046	0,110
-488,722	119,369	0,094	0,086
-487,708	-38,497	0,172	-0,067
-486,693	212,236	-0,046	-0,053
-485,678	-200,000	0,001	-0,092
-484,664	-100,459	-0,190	-0,034
-483,649	92,451	-0,051	0,043
-482,635	-61,681	-0,109	0,033
-481,620	211,339	0,032	0,037
-480,605	74,145	0,037	0,029
-479,591	-200,000	0,020	-0,079
-478,576	72,420	0,086	0,066
-477,562	-200,000	0,006	-0,031
-476,547	-127,257	-0,071	-0,008
-475,532	311,010	0,092	0,127
-474,518	-200,000	-0,027	-0,105
-473,503	181,448	0,046	0,050
-472,489	497,951	-0,035	0,060
-471,474	-28,229	-0,064	0,027
-470,459	192,290	-0,098	0,109
-469,445	753,771	0,048	-0,097
-468,430	-200,000	-0,021	-0,187
-467,416	6,874	0,086	0,047
-466,401	69,888	0,045	0,034
-465,386	-200,000	0,005	-0,120
-464,372	800,000	0,018	0,054
-463,357	800,000	0,038	0,078
-462,343	67,245	-0,080	0,060
-461,328	290,974	-0,028	0,038
-460,313	187,543	-0,040	0,044
-459,299	800,000	0,020	0,060
-458,284	71,591	-0,103	-0,078
-457,270	-111,356	-0,089	0,013
-456,255	-75,607	-0,028	0,007
-455,241	-80,575	-0,084	0,020
-454,226	-70,714	-0,095	0,026
-453,211	144,259	0,123	-0,121
-452,197	-200,000	0,004	0,057
-451,182	164,530	0,022	-0,023
-450,168	-200,000	-0,053	0,197
-449,153	-55,548	-0,150	0,049
-448,138	-200,000	-0,045	-0,182
-447,124	79,682	0,091	-0,072
-446,109	393,938	0,099	0,153
-445,095	255,977	0,045	0,057
-444,080	155,716	-0,131	0,133
-443,065	225,872	0,076	0,091
-442,051	33,601	-0,161	0,103
-441,036	800,000	-0,009	0,024
-440,022	35,206	-0,085	-0,054
-439,007	388,475	-0,084	-0,129
-437,992	75,310	0,061	-0,048
-436,978	-83,560	0,161	0,038
-435,963	42,975	0,050	-0,034
-434,949	388,152	-0,036	-0,055
-433,934	800,000	-0,036	-0,115
-432,919	-77,284	0,115	-0,029
-431,905	-22,284	-0,058	0,026
-430,890	346,746	-0,042	0,062
-429,876	-116,235	-0,026	-0,004
-428,861	-98,794	0,050	-0,009
-427,846	-200,000	0,015	0,114
-426,832	135,060	0,021	0,020
-425,817	800,000	-0,034	-0,108
-424,803	800,000	-0,017	0,036
-423,788	-200,000	-0,022	0,115
-422,773	95,375	0,021	0,018
-421,759	274,397	-0,042	0,055
-420,744	118,883	-0,106	0,096
-419,730	61,695	-0,149	-0,109
-418,715	-23,905	0,037	0,016
-417,701	176,639	-0,111	0,119
-416,686	-42,637	0,024	0,009
-415,671	-200,000	-0,009	0,044
-414,657	800,000	0,060	0,155
-413,642	-152,185	0,111	-0,006
-412,628	-109,511	-0,155	-0,024
-411,613	-37,395	-0,124	-0,048
-410,598	-93,570	-0,049	-0,010
-409,584	-200,000	0,039	-0,167
-408,569	-200,000	-0,004	0,118
-407,555	800,000	0,072	0,234
-406,540	-200,000	0,006	0,057
-405,525	44,859	0,178	0,120
-404,511	-200,000	0,005	-0,089
-403,496	30,116	0,046	0,029
-402,482	-22,775	0,115	0,051
-401,467	-200,000	-0,018	-0,061
-400,452	-200,000	-0,004	0,025
-399,438	299,908	-0,056	-0,075
-398,423	-200,000	-0,015	-0,097
-397,409	214,572	-0,074	-0,087
-396,394	97,967	0,084	-0,071
-395,379	-70,513	-0,074	0,021
-394,365	-21,736	0,094	0,042
-393,350	-200,000	-0,018	-0,095
-392,336	-200,000	0,013	0,054
-391,321	76,175	-0,058	0,045
-390,306	36,347	-0,080	-0,051
-389,292	188,788	0,047	-0,052
-388,277	-200,000	-0,000	-0,075
-387,263	111,325	0,093	0,082
-386,248	77,105	0,093	0,073
-385,233	-200,000	-0,055	0,206
-384,219	-120,224	0,127	-0,016
-383,204	43,624	-0,085	-0,057
-382,190	-51,009	-0,093	0,032
-381,175	-93,468	0,055	-0,011
-380,160	-200,000	-0,023	-0,114
-379,146	-200,000	0,019	0,076
-378,131	97,693	-0,045	-0,038
-377,117	-200,000	0,009	0,041
-376,102	-108,477	-0,028	-0,004
-375,088	187,340	0,087	-0,095
-374,073	258,274	-0,008	0,010
-373,058	319,653	0,055	0,076
-372,044	49,234	-0,062	-0,043
-371,029	184,061	0,051	0,056
-370,015	-200,000	-0,009	0,031
-369,000	285,672	0,032	0,043
-367,985	-114,394	-0,200	0,028
-366,971	-200,000	-0,018	0,074
-365,956	-140,676	0,076	-0,006
-364,942	-107,635	0,075	-0,012
-363,927	-2,706	0,037	0,019
-362,912	-200,000	0,012	0,045
-361,898	557,415	0,027	-0,048
-360,883	-200,000	0,023	-0,121
-359,869	800,000	-0,024	0,052
-358,854	-200,000	-0,019	-0,101
-357,839	-54,261	-0,127	0,042
-356,825	-193,586	0,071	-0,000
-355,810	-200,000	0,013	0,096
-354,796	800,000	0,015	-0,037
-353,781	37,183	-0,062	-0,040
-352,766	-200,000	-0,016	0,064
-351,752	-200,000	0,010	0,057
-350,737	639,073	0,050	-0,094
-349,723	-200,000	-0,020	0,108
-348,708	73,378	-0,087	0,067
-347,693	-176,278	-0,079	-0,001
-346,679	-200,000	-0,004	0,082
-345,664	-200,000	0,024	0,217
-344,650	365,262	0,019	-0,029
-343,635	-105,085	0,158	-0,026
-342,620	800,000	-0,042	0,104
-341,606	-93,368	0,039	0,008
-340,591	-88,673	0,142	-0,031
-339,577	800,000	0,015	-0,040
-338,562	-78,701	-0,081	-0,020
-337,548	-13,340	-0,083	0,039
-336,533	57,504	0,040	0,029
-335,518	-104,462	0,179	-0,030
-334,504	722,596	0,073	0,142
-333,489	-49,135	-0,043	0,015
-332,475	99,975	-0,068	0,058
-331,460	-35,291	-0,051	0,020
-330,445	-200,000	-0,007	-0,086
-329,431	109,401	0,077	0,068
-328,416	-103,173	0,028	0,005
-327,402	301,942	-0,054	0,073
-326,387	372,797	0,034	0,051
-325,372	792,605	0,070	-0,142
-324,358	270,861	-0,058	-0,075
-323,343	101,299	0,051	0,043
-322,329	181,634	0,077	0,083
-321,314	-200,000	0,015	-0,082
-320,299	-39,700	-0,187	0,071
-319,285	257,638	-0,048	0,061
-318,270	335,696	0,062	-0,089
-317,256	-118,247	-0,154	-0,020
-316,241	-78,729	-0,056	0,014
-315,226	174,958	0,054	0,057
-314,212	181,109	0,093	-0,100
-313,197	-159,821	-0,113	0,004
-312,183	160,075	-0,106	-0,108
-311,168	15,235	-0,111	0,063
-310,153	-200,000	-0,013	-0,044
-309,139	159,286	0,029	-0,029
-308,124	545,154	0,100	0,176
-307,110	-0,944	0,058	0,030
-306,095	143,530	0,077	0,075
-305,080	38,916	-0,136	-0,089
-304,066	800,000	0,009	-0,026
-303,051	-200,000	0,032	-0,107
-302,037	-123,872	-0,066	-0,008
-301,022	-156,357	0,106	0,005
-300,008	-132,985	0,156	-0,014
-298,993	-200,000	-0,003	-0,025
-297,978	-200,000	0,014	0,081
-296,964	-200,000	-0,003	-0,050
-295,949	-200,000	-0,008	-0,076
-294,935	-21,595	-0,119	0,053
-293,920	800,000	0,027	0,058
-292,905	199,403	0,081	0,091
-291,891	-14,844	0,099	0,047
-290,876	-4,758	0,033	-0,017
-289,862	800,000	0,046	-0,118
-288,847	-200,000	0,004	-0,068
-287,832	15,869	0,046	0,027
-286,818	122,585	-0,069	0,063
-285,803	35,069	0,138	0,088
-284,789	-114,582	0,095	0,013
-283,774	-2,448	0,127	0,065
-282,759	181,779	0,089	0,096
-281,745	-200,000	0,001	0,165
-280,730	-200,000	-0,004	-0,168
-279,716	-56,786	0,089	-0,029
-278,701	800,000	-0,017	0,052
-277,686	-85,865	0,052	-0,012
-276,672	-200,000	0,014	-0,061
-275,657	-99,108	0,078	-0,014
-274,643	603,944	0,062	-0,113
-273,628	-200,000	0,011	0,085
-272,613	-200,000	-0,002	-0,068
-271,599	525,421	0,001	0,002
-270,584	25,616	0,106	0,064
-269,570	800,000	0,012	-0,036
-268,555	243,354	0,045	-0,055
-267,540	-142,792	-0,131	0,009
-266,526	-121,795	-0,069	0,008
-265,511	-200,000	0,011	-0,084
-264,497	-39,504	0,093	-0,035
-263,482	-75,248	-0,042	0,011
-262,467	165,203	-0,059	-0,061
-261,453	-66,363	0,162	0,047
-260,438	80,127	0,019	-0,015
-259,424	-200,000	-0,005	-0,117
-258,409	-185,872	-0,109	-0,001
-257,395	148,463	-0,041	-0,041
-256,380	36,310	-0,036	-0,023
-255,365	10,847	0,137	0,076
-254,351	-79,860	0,055	0,013
-253,336	-200,000	0,017	-0,099
-252,322	-200,000	-0,035	-0,144
-251,307	-33,607	-0,127	-0,051
-250,292	-64,882	-0,148	-0,043
-249,278	732,590	-0,040	0,079
-248,263	432,839	-0,026	-0,042
-247,249	249,296	-0,078	0,096
-246,234	179,625	0,067	-0,072
-245,219	-57,742	-0,085	0,027
-244,205	38,606	-0,194	-0,126
-243,190	63,137	0,045	0,033
-242,176	-43,044	-0,080	0,030
-241,161	-200,000	0,040	0,136
-240,146	800,000	-0,081	0,167
-239,132	24,290	-0,095	-0,057
-238,117	-200,000	-0,009	-0,036
-237,103	-70,781	-0,099	-0,027
-236,088	-168,676	-0,049	0,001
-235,073	-200,000	-0,018	-0,082
-234,059	19,919	-0,076	-0,044
-233,044	162,487	-0,049	-0,050
-232,030	-22,156	-0,132	-0,058
-231,015	-200,000	0,006	-0,032
-230,000	192,679	0,066	-0,072
-228,986	-96,183	-0,142	0,027
-227,971	-78,569	0,105	0,026
-226,957	108,775	0,129	-0,113
-225,942	-34,872	0,051	0,020
-224,927	169,158	0,022	0,023
-223,913	-177,131	0,023	-0,000
-222,898	-108,139	0,245	-0,038
-221,884	800,000	0,019	-0,038
-220,869	-200,000	0,010	0,134
-219,855	92,314	0,014	-0,011
-218,840	-200,000	-0,002	-0,125
-217,825	-200,000	0,005	-0,047
-216,811	-200,000	-0,005	-0,036
-215,796	644,247	0,034	-0,063
-214,782	208,120	-0,048	0,055
-213,767	535,238	0,026	-0,045
-212,752	193,423	0,042	-0,046
-211,738	-12,019	0,105	-0,050
-210,723	-200,000	0,012	0,044
-209,709	800,000	-0,012	0,026
-208,694	-200,000	0,027	0,109
-207,679	-124,179	0,066	0,007
-206,665	-200,000	0,030	0,115
-205,650	112,726	-0,104	0,092
-204,636	33,761	0,092	0,058
-203,621	800,000	-0,050	0,115
-202,606	87,984	0,027	-0,021
-201,592	-168,301	-0,076	0,002
-200,577	800,000	0,026	-0,069
-199,563	-200,000	0,000	-0,011
-198,548	-200,000	0,009	-0,081
-197,533	93,361	0,053	0,043
-196,519	800,000	0,074	-0,167
-195,504	800,000	-0,062	-0,141
-194,490	-97,081	-0,019	-0,004
-193,475	800,000	0,062	0,172
-192,460	124,292	-0,019	-0,017
-191,446	320,761	0,063	-0,087
-190,431	274,577	-0,066	0,085
-189,417	-200,000	-0,015	0,078
-188,402	800,000	-0,028	-0,073
-187,387	89,747	0,076	-0,062
-186,373	-124,993	0,098	-0,011
-185,358	-143,623	0,114	0,008
-184,344	54,080	0,046	-0,032
-183,329	158,633	0,091	0,093
-182,315	-128,059	-0,066	0,007
-181,300	153,508	0,065	-0,065
-180,285	-83,519	-0,060	-0,014
-179,271	-200,000	-0,033	-0,156
-178,256	45,822	0,130	-0,088
-177,242	-200,000	0,005	0,026
-176,227	19,332	-0,025	-0,015
-175,212	-171,870	0,150	0,003
-174,198	25,164	-0,030	-0,018
-173,183	-200,000	-0,007	-0,040
-172,169	474,948	0,055	-0,091
-171,154	-200,000	-0,019	-0,112
-170,139	490,871	-0,061	0,103
-169,125	-200,000	0,048	0,171
-168,110	8,756	-0,020	-0,011
-167,096	-103,136	-0,051	0,009
-166,081	-132,380	-0,041	-0,004
-165,066	-181,182	-0,059	-0,001
-164,052	800,000	-0,021	0,059
-163,037	800,000	-0,007	0,015
-162,023	668,410	0,060	0,114
-161,008	-200,000	-0,023	0,100
-159,993	800,000	0,033	-0,078
-158,979	301,804	-0,074	-0,100
-157,964	390,992	0,035	0,053
-156,950	107,842	-0,052	0,045
-155,935	800,000	0,053	0,122
-154,920	-58,545	0,107	-0,033
-153,906	-200,000	0,050	0,194
-152,891	-80,960	-0,061	0,015
-151,877	800,000	0,012	-0,028
-150,862	-58,723	-0,055	0,017
-149,847	106,120	0,144	0,124
-148,833	166,571	-0,089	0,092
-147,818	-200,000	-0,009	-0,144
-146,804	-70,316	-0,131	0,036
-145,789	769,844	0,030	0,059
-144,775	-29,746	0,049	0,020
-143,760	336,833	0,079	-0,113
-142,745	413,178	-0,070	0,108
-141,731	773,074	0,058	0,116
-140,716	-200,000	-0,005	-0,029
-139,702	-200,000	0,005	0,110
-138,687	800,000	0,031	0,085
-137,672	-200,000	-0,028	0,097
-136,658	204,115	0,009	-0,011
-135,643	-200,000	-0,001	-0,005
-134,629	800,000	-0,031	-0,068
-133,614	131,859	0,050	0,046
-132,599	-200,000	0,034	-0,126
-131,585	151,188	0,047	0,047
-130,570	-40,091	0,079	-0,030
-129,556	-70,705	-0,060	-0,016
-128,541	597,461	-0,079	-0,143
-127,526	-139,906	0,214	0,016
-126,512	-68,527	0,119	0,033
-125,497	-40,218	-0,130	-0,049
-124,483	376,204	-0,063	0,093
-123,468	-200,000	-0,018	0,120
-122,453	-200,000	0,028	0,102
-121,439	-200,000	-0,003	0,048
-120,424	-14,883	0,124	-0,057
-119,410	119,662	-0,043	-0,039
