DTS Sentinel unit serial number:	SN410029Multiplexer serial number:	ORYXHardware model number:	OX2-SRSoftware version number:	ORYX F/W v4,00 Oryx Data Collector v3.7.2.0data status	okinstallation	B6 Nyhavnadifferential loss correction	single-endedforward channel	channel 2reverse channel	N/Adate	2023/12/10time	04:25:08forward acquisition time	300,00reverse acquisition time	0,00gamma	499,1914k internal	0,3125k external	0,3125temperature offset calibration	1,0000default loss term (dB/km)	0,3820temperature slope calibration	1,0000multiplexer offset coefficient	1,0000multiplexer slope coefficient	1,0000fibre end	0,00T internal ref (°C)	22,18T ext. ref 1 (°C)	6,23T ext. ref 2 (°C)	6,20length (m)	temperature (°C)	Stokes	anti-Stokes-744,400	-70,769	0,042	0,012
-743,385	-123,321	-0,316	0,037
-742,371	5,844	0,090	-0,050
-741,356	-105,291	-0,219	0,037
-740,342	112,524	0,035	-0,031
-739,327	-76,973	-0,253	0,065
-738,312	45,749	-0,076	0,053
-737,298	37,348	-0,291	0,192
-736,283	14,046	0,125	0,072
-735,269	336,866	-0,169	0,245
-734,254	133,426	0,071	0,068
-733,239	-117,733	-0,476	0,063
-732,225	232,071	0,112	-0,137
-731,210	0,020	-0,059	-0,031
-730,196	231,120	-0,037	0,046
-729,181	800,000	-0,037	0,089
-728,167	-200,000	0,035	-0,137
-727,152	-82,752	-0,139	0,033
-726,137	-200,000	0,031	0,124
-725,123	141,523	-0,032	-0,031
-724,108	-200,000	-0,002	-0,012
-723,094	-137,368	-0,040	-0,003
-722,079	198,531	-0,073	-0,083
-721,064	4,823	-0,020	0,011
-720,050	-200,000	0,003	0,013
-719,035	483,425	0,036	0,060
-718,021	332,095	-0,021	-0,030
-717,006	29,903	-0,148	-0,094
-715,991	-163,371	-0,021	-0,001
-714,977	45,103	-0,059	0,041
-713,962	60,960	-0,102	-0,075
-712,948	162,416	-0,009	0,009
-711,933	550,278	0,021	-0,037
-710,918	55,210	-0,127	-0,091
-709,904	178,957	-0,080	-0,088
-708,889	47,445	-0,100	0,070
-707,875	53,664	-0,030	0,022
-706,860	-200,000	0,003	0,102
-705,845	656,256	-0,038	-0,073
-704,831	-143,866	0,029	-0,002
-703,816	-173,345	-0,075	0,002
-702,802	-78,337	0,128	-0,032
-701,787	-60,008	-0,129	-0,041
-700,772	-130,007	-0,064	0,006
-699,758	-200,000	0,011	-0,164
-698,743	-200,000	-0,015	0,060
-697,729	800,000	0,031	-0,081
-696,714	-44,858	0,094	0,035
-695,699	49,745	0,073	0,051
-694,685	511,705	-0,068	-0,119
-693,670	93,100	0,071	-0,060
-692,656	-68,361	0,081	0,023
-691,641	-200,000	-0,010	-0,173
-690,627	-137,727	-0,050	0,004
-689,612	322,154	-0,083	-0,117
-688,597	-85,750	-0,093	0,021
-687,583	-200,000	-0,014	0,123
-686,568	31,577	-0,125	-0,080
-685,554	-200,000	0,007	-0,115
-684,539	-39,345	0,061	0,024
-683,524	-200,000	0,002	0,018
-682,510	158,640	0,063	0,065
-681,495	-200,000	-0,012	-0,062
-680,481	46,702	-0,054	0,037
-679,466	-36,655	-0,038	0,015
-678,451	-102,613	0,107	0,019
-677,437	34,957	0,140	0,091
-676,422	-85,541	0,031	0,007
-675,408	537,521	0,010	-0,018
-674,393	800,000	-0,022	-0,047
-673,378	800,000	-0,061	-0,154
-672,364	-32,514	-0,140	-0,058
-671,349	-200,000	-0,024	-0,084
-670,335	-43,551	0,072	0,027
-669,320	800,000	-0,054	0,137
-668,305	411,935	-0,074	0,116
-667,291	399,576	-0,054	-0,084
-666,276	112,622	-0,117	-0,105
-665,262	270,792	-0,022	0,028
-664,247	283,276	-0,089	0,119
-663,232	-7,690	0,057	0,028
-662,218	770,413	-0,041	-0,083
-661,203	42,770	-0,063	0,042
-660,189	-121,356	0,074	0,009
-659,174	-200,000	-0,005	-0,029
-658,159	-14,737	-0,171	0,081
-657,145	127,366	0,027	0,025
-656,130	800,000	-0,076	0,242
-655,116	421,197	0,089	0,142
-654,101	-58,166	-0,030	0,010
-653,086	-30,544	-0,035	0,015
-652,072	-200,000	-0,012	-0,059
-651,057	531,095	-0,081	-0,142
-650,043	8,192	-0,056	0,031
-649,028	375,039	-0,041	0,063
-648,014	127,129	-0,057	-0,054
-646,999	-27,767	0,126	-0,054
-645,984	271,301	-0,051	0,066
-644,970	168,765	0,007	0,007
-643,955	167,217	0,011	-0,011
-642,941	-47,910	-0,107	-0,038
-641,926	-35,485	0,102	-0,041
-640,911	105,745	0,063	0,055
-639,897	800,000	0,060	0,146
-638,882	-40,049	0,065	-0,025
-637,868	-200,000	-0,010	-0,144
-636,853	403,278	-0,072	-0,113
-635,838	158,649	-0,121	0,125
-634,824	-200,000	-0,007	0,054
-633,809	-18,697	0,019	0,009
-632,795	-200,000	0,000	-0,105
-631,780	-56,938	-0,127	-0,041
-630,765	730,640	-0,035	0,069
-629,751	-71,883	-0,126	0,034
-628,736	800,000	0,016	0,034
-627,722	-17,252	-0,071	0,033
-626,707	26,331	0,071	0,044
-625,692	-157,894	0,111	0,005
-624,678	588,950	-0,045	-0,082
-623,663	-46,235	0,121	0,044
-622,649	-200,000	-0,007	-0,037
-621,634	-200,000	-0,008	-0,080
-620,619	74,338	-0,102	-0,079
-619,605	-200,000	0,005	-0,091
-618,590	-200,000	0,018	0,101
-617,576	172,844	0,148	0,158
-616,561	625,276	0,034	0,064
-615,546	363,288	-0,051	-0,076
-614,532	459,564	-0,032	0,053
-613,517	-200,000	-0,018	-0,113
-612,503	225,933	0,045	-0,054
-611,488	217,918	0,084	-0,100
-610,474	-74,985	-0,061	-0,016
-609,459	-125,954	-0,070	-0,008
-608,444	781,397	-0,081	-0,166
-607,430	180,391	0,091	-0,099
-606,415	-200,000	-0,002	-0,116
-605,401	-169,257	0,015	-0,000
-604,386	235,007	-0,031	-0,038
-603,371	800,000	-0,022	-0,066
-602,357	-77,587	-0,061	0,015
-601,342	16,557	-0,057	0,033
-600,328	-45,054	-0,085	-0,031
-599,313	800,000	0,009	0,025
-598,298	196,868	0,054	0,060
-597,284	-76,864	0,055	-0,014
-596,269	345,770	0,036	-0,053
-595,255	81,016	-0,047	-0,037
-594,240	800,000	0,009	0,022
-593,225	636,842	0,046	0,087
-592,211	800,000	0,054	-0,117
-591,196	612,689	-0,059	-0,110
-590,182	-186,481	-0,112	-0,001
-589,167	-200,000	-0,034	0,147
-588,152	197,788	0,044	0,050
-587,138	-200,000	0,015	0,077
-586,123	114,176	-0,075	0,068
-585,109	-56,442	-0,100	-0,033
-584,094	-1,551	0,067	0,035
-583,079	800,000	0,046	0,109
-582,065	687,024	-0,022	-0,042
-581,050	312,604	-0,020	0,027
-580,036	-193,981	-0,060	0,000
-579,021	2,692	-0,066	-0,035
-578,006	38,764	0,066	0,044
-576,992	121,502	0,091	-0,084
-575,977	357,362	0,045	-0,066
-574,963	800,000	-0,037	0,094
-573,948	280,523	-0,062	0,082
-572,934	-200,000	-0,008	0,049
-571,919	148,578	-0,088	-0,088
-570,904	-200,000	0,016	-0,114
-569,890	800,000	-0,033	-0,081
-568,875	-200,000	0,015	-0,058
-567,861	-200,000	-0,040	0,132
-566,846	-200,000	-0,029	0,130
-565,831	36,450	-0,101	-0,066
-564,817	761,532	-0,008	-0,016
-563,802	-80,810	0,046	-0,011
-562,788	-65,773	-0,095	-0,028
-561,773	-88,520	0,083	-0,018
-560,758	119,161	-0,088	0,081
-559,744	297,603	0,081	-0,110
-558,729	-162,973	-0,105	0,004
-557,715	800,000	0,031	-0,064
-556,700	-140,026	-0,066	-0,005
-555,685	118,411	0,071	-0,065
-554,671	85,070	0,024	-0,019
-553,656	337,354	0,064	0,093
-552,642	800,000	0,031	-0,075
-551,627	182,328	0,073	0,080
-550,612	389,089	-0,073	-0,113
-549,598	270,529	-0,044	0,058
-548,583	425,436	0,056	0,089
-547,569	-200,000	0,003	0,174
-546,554	397,443	-0,018	0,027
-545,539	489,483	0,026	-0,045
-544,525	-200,000	-0,002	-0,020
-543,510	468,036	-0,037	0,062
-542,496	493,459	-0,104	-0,177
-541,481	-8,676	-0,149	0,074
-540,466	-124,123	-0,081	0,009
-539,452	-200,000	-0,003	0,073
-538,437	-35,095	0,052	-0,021
-537,423	4,659	0,116	-0,063
-536,408	-200,000	0,001	-0,031
-535,393	-200,000	0,038	-0,144
-534,379	143,386	0,081	0,080
-533,364	51,613	0,065	0,046
-532,350	-59,767	0,151	0,047
-531,335	-61,615	-0,050	-0,016
-530,321	310,908	0,076	0,105
-529,306	800,000	-0,043	0,112
-528,291	-200,000	0,009	0,062
-527,277	800,000	-0,042	-0,129
-526,262	20,796	-0,134	0,080
-525,248	-11,771	0,101	0,049
-524,233	27,894	0,013	0,008
-523,218	-72,836	-0,084	-0,023
-522,204	-24,906	0,150	0,066
-521,189	800,000	0,059	-0,123
-520,175	203,384	-0,127	-0,145
-519,160	251,023	-0,096	-0,120
-518,145	186,236	0,078	-0,086
-517,131	-200,000	0,014	-0,067
-516,116	-67,094	0,157	0,045
-515,102	84,741	-0,042	-0,034
-514,087	-200,000	-0,040	-0,173
-513,072	45,733	-0,062	-0,042
-512,058	-104,625	-0,078	0,013
-511,043	-200,000	0,000	-0,025
-510,029	-200,000	-0,016	0,108
-509,014	207,415	-0,025	-0,029
-507,999	260,101	-0,097	0,124
-506,985	168,686	-0,032	0,034
-505,970	81,975	-0,082	-0,065
-504,956	-159,416	-0,039	-0,002
-503,941	-87,671	0,112	-0,025
-502,926	-200,000	-0,000	-0,011
-501,912	-66,406	0,142	0,041
-500,897	316,566	-0,025	-0,035
-499,883	40,934	-0,127	0,084
-498,868	800,000	-0,013	0,043
-497,853	800,000	-0,037	-0,092
-496,839	107,318	-0,075	-0,066
-495,824	110,849	0,076	-0,067
-494,810	800,000	0,029	-0,062
-493,795	180,096	0,069	0,075
-492,781	463,898	0,035	0,057
-491,766	-200,000	0,021	-0,150
-490,751	150,689	-0,116	-0,117
-489,737	-104,295	0,157	0,027
-488,722	800,000	0,028	-0,088
-487,708	-200,000	-0,006	0,055
-486,693	-59,210	-0,110	0,035
-485,678	31,961	0,123	-0,078
-484,664	-162,963	-0,067	-0,002
-483,649	-28,540	0,052	0,022
-482,635	16,454	0,141	0,082
-481,620	46,232	-0,071	0,049
-480,605	386,883	-0,054	0,082
-479,591	8,932	0,102	0,057
-478,576	-200,000	0,005	0,067
-477,562	-126,578	0,032	0,003
-476,547	102,923	-0,098	0,085
-475,532	42,447	0,062	0,041
-474,518	-200,000	-0,005	-0,102
-473,503	-200,000	-0,017	0,100
-472,489	-116,437	0,059	-0,008
-471,474	99,282	0,079	0,068
-470,459	-86,020	-0,047	-0,011
-469,445	800,000	0,007	-0,020
-468,430	-200,000	0,000	-0,051
-467,416	194,718	0,046	-0,052
-466,401	17,662	0,062	0,036
-465,386	217,594	0,061	0,071
-464,372	-200,000	0,015	0,169
-463,357	185,419	0,012	-0,013
-462,343	800,000	0,016	0,048
-461,328	123,238	0,034	0,031
-460,313	-10,431	-0,036	0,017
-459,299	167,343	-0,108	0,114
-458,284	-200,000	0,017	-0,058
-457,270	422,103	0,083	0,132
-456,255	-200,000	-0,022	0,117
-455,241	800,000	-0,097	-0,208
-454,226	43,029	-0,082	-0,055
-453,211	-68,140	-0,079	0,022
-452,197	137,670	0,022	0,021
-451,182	32,149	-0,118	-0,075
-450,168	800,000	-0,037	-0,105
-449,153	-40,556	0,087	-0,033
-448,138	-200,000	-0,013	-0,123
-447,124	-200,000	0,027	-0,100
-446,109	-200,000	0,014	-0,080
-445,095	800,000	0,034	0,103
-444,080	-200,000	0,014	0,077
-443,065	-67,978	0,069	-0,020
-442,051	747,300	0,051	-0,102
-441,036	-200,000	-0,012	-0,132
-440,022	-200,000	-0,012	0,084
-439,007	-57,405	-0,081	0,026
-437,992	103,653	-0,083	0,072
-436,978	111,904	0,036	-0,032
-435,963	-200,000	-0,002	-0,117
-434,949	-200,000	-0,000	0,093
-433,934	-53,648	-0,168	-0,056
-432,919	-35,880	-0,035	0,014
-431,905	365,540	0,058	0,087
-430,890	-200,000	0,014	0,136
-429,876	46,302	0,073	0,050
-428,861	116,699	-0,030	-0,027
-427,846	-200,000	0,022	-0,093
-426,832	93,955	-0,178	-0,149
-425,817	-18,920	-0,122	0,056
-424,803	-200,000	0,007	-0,247
-423,788	-53,276	-0,040	0,014
-422,773	61,688	0,110	0,080
-421,759	157,621	-0,107	-0,109
-420,744	-200,000	0,011	-0,136
-419,730	-107,544	-0,061	0,010
-418,715	628,721	-0,029	0,053
-417,701	607,372	0,005	0,008
-416,686	-200,000	-0,020	0,130
-415,671	204,858	0,043	-0,049
-414,657	-65,285	0,128	0,038
-413,642	-173,754	0,067	0,001
-412,628	-98,825	-0,065	-0,012
-411,613	-200,000	0,049	-0,303
-410,598	800,000	0,021	-0,054
-409,584	-33,495	0,076	-0,031
-408,569	-21,769	0,130	0,058
-407,555	-34,650	0,108	0,043
-406,540	449,447	-0,014	0,023
-405,525	-77,459	-0,039	0,010
-404,511	163,278	-0,104	-0,108
-403,496	-200,000	0,015	0,060
-402,482	-25,900	-0,077	0,033
-401,467	800,000	0,035	0,092
-400,452	-200,000	-0,002	0,073
-399,438	-80,901	0,045	-0,011
-398,423	227,839	-0,100	0,120
-397,409	450,905	-0,085	-0,139
-396,394	-110,596	0,085	0,013
-395,379	376,546	-0,066	-0,100
-394,365	-157,934	0,095	-0,004
-393,350	-141,580	-0,060	-0,004
-392,336	193,524	-0,061	0,068
-391,321	-200,000	0,014	0,073
-390,306	22,667	-0,093	0,056
-389,292	800,000	0,023	0,064
-388,277	141,204	0,066	0,064
-387,263	-84,163	0,080	-0,018
-386,248	-39,900	-0,079	-0,030
-385,233	524,887	-0,006	0,010
-384,219	-200,000	-0,024	-0,083
-383,204	800,000	-0,039	0,083
-382,190	-200,000	0,001	0,025
-381,175	-98,945	0,052	0,010
-380,160	-162,885	0,072	0,003
-379,146	150,884	0,026	0,026
-378,131	800,000	-0,055	0,136
-377,117	171,308	0,018	-0,019
-376,102	-200,000	0,010	-0,049
-375,088	7,376	-0,052	0,028
-374,073	-81,576	0,101	-0,024
-373,058	-200,000	-0,012	0,047
-372,044	-20,403	0,047	-0,021
-371,029	-200,000	0,027	0,127
-370,015	81,999	0,079	-0,063
-369,000	308,704	-0,027	0,037
-367,985	-200,000	-0,023	-0,133
-366,971	-200,000	-0,008	-0,070
-365,956	800,000	0,033	-0,092
-364,942	613,702	0,064	0,117
-363,927	-62,357	0,040	-0,012
-362,912	-27,359	0,061	0,026
-361,898	68,459	0,085	-0,064
-360,883	-200,000	-0,007	0,171
-359,869	5,393	0,061	-0,033
-358,854	-200,000	0,003	0,020
-357,839	-35,352	-0,109	0,043
-356,825	118,931	0,063	0,057
-355,810	92,986	0,117	0,097
-354,796	-200,000	-0,004	0,135
-353,781	800,000	0,027	-0,082
-352,766	101,278	-0,112	-0,096
-351,752	26,691	0,090	0,055
-350,737	-115,623	0,147	0,020
-349,723	-148,964	0,152	-0,009
-348,708	11,017	0,086	0,048
-347,693	-200,000	-0,003	-0,109
-346,679	-75,476	0,030	-0,008
-345,664	208,750	0,044	-0,051
-344,650	800,000	0,010	0,026
-343,635	-118,603	0,041	0,005
-342,620	800,000	-0,014	-0,035
-341,606	706,353	-0,008	0,016
-340,591	-128,464	0,197	-0,020
-339,577	37,285	-0,052	0,034
-338,562	800,000	-0,019	0,048
-337,548	84,789	0,030	0,024
-336,533	-200,000	0,008	-0,074
-335,518	-151,193	-0,107	-0,006
-334,504	58,473	0,057	-0,041
-333,489	-157,157	-0,095	0,004
-332,475	316,835	0,075	-0,105
-331,460	316,005	-0,025	-0,034
-330,445	199,627	-0,115	0,129
-329,431	60,630	-0,184	0,133
-328,416	4,080	0,059	0,032
-327,402	60,286	0,055	-0,040
-326,387	455,286	-0,019	0,030
-325,372	-3,262	-0,118	-0,060
-324,358	-200,000	0,013	-0,069
-323,343	-27,539	-0,056	0,024
-322,329	-92,720	-0,044	0,009
-321,314	81,535	0,105	0,083
-320,299	-129,484	0,244	-0,024
-319,285	-8,284	0,141	0,069
-318,270	220,403	0,080	-0,094
-317,256	86,886	-0,085	-0,068
-316,241	-13,967	0,104	-0,049
-315,226	336,667	0,049	0,070
-314,212	-127,421	-0,055	0,006
-313,197	800,000	-0,025	0,073
-312,183	4,840	0,023	-0,012
-311,168	126,963	-0,114	0,106
-310,153	-164,729	0,084	0,003
-309,139	55,221	-0,049	-0,035
-308,124	800,000	-0,053	-0,155
-307,110	27,285	0,132	-0,081
-306,095	-82,062	0,117	0,028
-305,080	800,000	-0,024	-0,063
-304,066	800,000	0,058	-0,126
-303,051	-200,000	0,036	-0,134
-302,037	145,248	0,148	-0,145
-301,022	-108,150	-0,151	0,024
-300,008	-63,842	-0,105	-0,031
-298,993	-57,117	0,103	0,033
-297,978	-147,426	0,034	0,002
-296,964	88,677	-0,011	0,009
-295,949	546,661	-0,041	-0,072
-294,935	-103,719	-0,071	-0,012
-293,920	-200,000	0,000	0,114
-292,905	-200,000	-0,019	-0,106
-291,891	91,592	-0,088	0,072
-290,876	149,576	0,095	0,094
-289,862	48,450	-0,108	0,074
-288,847	19,319	-0,055	-0,032
-287,832	800,000	-0,015	0,039
-286,818	-9,033	-0,145	0,071
-285,803	-95,469	-0,112	0,022
-284,789	-200,000	0,143	0,000
-283,774	-171,507	-0,121	-0,003
-282,759	-113,989	-0,024	-0,003
-281,745	44,363	-0,084	-0,056
-280,730	800,000	-0,043	0,106
-279,716	-46,965	0,103	0,037
-278,701	304,328	-0,039	-0,054
-277,686	110,291	0,041	0,036
-276,672	-200,000	0,005	0,072
-275,657	-7,786	-0,126	-0,062
-274,643	53,635	-0,107	-0,075
-273,628	271,888	0,058	-0,075
-272,613	42,616	0,076	-0,050
-271,599	800,000	0,025	0,072
-270,584	229,773	-0,098	-0,118
-269,570	409,561	0,078	0,121
-268,555	-24,078	0,099	-0,043
-267,540	12,816	-0,091	0,051
-266,526	800,000	0,047	-0,122
-265,511	800,000	0,013	0,035
-264,497	-200,000	-0,001	-0,032
-263,482	140,795	0,055	0,054
-262,467	-200,000	0,013	0,093
-261,453	-200,000	-0,008	0,055
-260,438	-200,000	0,024	0,083
-259,424	45,083	0,095	-0,064
-258,409	800,000	-0,033	-0,096
-257,395	-121,088	0,114	0,014
-256,380	58,284	0,039	-0,028
-255,365	105,187	-0,115	-0,099
-254,351	-183,618	-0,109	0,001
-253,336	-49,324	0,068	-0,024
-252,322	-27,853	-0,177	-0,074
-251,307	-200,000	0,001	0,007
-250,292	-42,162	0,058	-0,022
-249,278	-200,000	-0,002	-0,042
-248,263	-81,358	0,142	0,034
-247,249	-2,195	-0,083	0,042
-246,234	4,385	-0,098	-0,052
-245,219	-60,527	0,068	-0,021
-244,205	800,000	0,043	-0,110
-243,190	800,000	-0,040	0,114
-242,176	176,695	-0,095	0,101
-241,161	31,041	0,048	0,030
-240,146	260,689	0,050	-0,063
-239,132	324,986	0,107	-0,150
-238,117	562,561	0,049	0,087
-237,103	27,705	-0,162	-0,099
-236,088	-200,000	-0,007	-0,045
-235,073	164,100	0,041	-0,042
-234,059	503,559	-0,071	0,121
-233,044	-92,546	-0,120	0,024
-232,030	104,711	0,006	-0,005
-231,015	54,033	-0,075	-0,053
-230,000	-200,000	0,002	-0,069
-228,986	498,651	0,023	-0,038
-227,971	214,748	0,042	-0,049
-226,957	800,000	-0,028	-0,082
-225,942	14,116	-0,080	0,045
-224,927	-200,000	-0,010	0,120
-223,913	161,651	0,026	-0,027
-222,898	529,217	-0,044	-0,076
-221,884	-159,144	0,069	-0,003
-220,869	-169,134	-0,027	-0,001
-219,855	8,336	0,118	-0,065
-218,840	-6,776	0,080	0,039
-217,825	800,000	-0,011	-0,027
-216,811	41,532	-0,011	0,007
-215,796	-109,283	0,104	-0,016
-214,782	-94,356	-0,190	-0,037
-213,767	-130,650	-0,013	0,001
-212,752	800,000	-0,027	0,064
-211,738	-80,937	0,070	0,017
-210,723	34,369	0,105	0,067
-209,709	-118,734	-0,115	-0,015
-208,694	-200,000	0,034	-0,115
-207,679	343,797	-0,076	-0,109
-206,665	-134,336	-0,131	0,012
-205,650	600,654	0,050	0,091
-204,636	-14,362	0,034	0,016
-203,621	-200,000	-0,025	0,085
-202,606	-168,156	-0,056	0,002
-201,592	-34,909	0,069	-0,027
-200,577	-44,594	0,107	-0,039
-199,563	169,054	0,066	-0,069
-198,548	137,017	0,047	0,045
-197,533	-82,358	0,063	-0,015
-196,519	-155,046	0,136	0,006
-195,504	-200,000	-0,012	0,108
-194,490	436,541	0,053	0,084
-193,475	-200,000	-0,006	-0,120
-192,460	39,227	0,089	0,058
-191,446	-200,000	0,035	0,190
-190,431	-57,242	0,230	0,073
-189,417	800,000	-0,027	-0,058
-188,402	800,000	-0,037	-0,083
-187,387	-44,223	-0,131	0,048
-186,373	-155,880	-0,172	-0,008
-185,358	-200,000	-0,009	0,063
-184,344	272,646	-0,028	0,036
-183,329	-200,000	-0,030	0,105
-182,315	-130,155	0,058	-0,006
-181,300	129,021	-0,076	0,071
-180,285	259,111	-0,047	0,060
-179,271	-118,682	-0,018	-0,002
-178,256	-44,565	-0,053	-0,019
-177,242	800,000	-0,038	-0,102
-176,227	-200,000	0,000	0,058
-175,212	800,000	-0,076	-0,160
-174,198	16,428	-0,039	-0,022
-173,183	-20,830	-0,093	0,041
-172,169	800,000	-0,036	-0,087
-171,154	-145,292	-0,073	-0,005
-170,139	800,000	-0,097	0,214
-169,125	-200,000	-0,006	0,033
-168,110	800,000	0,034	0,105
-167,096	262,445	-0,033	-0,042
-166,081	-200,000	-0,025	0,088
-165,066	-200,000	0,014	0,079
-164,052	800,000	-0,035	-0,111
-163,037	414,124	0,022	0,035
-162,023	333,064	0,131	0,185
-161,008	419,346	0,072	0,113
-159,993	-74,133	0,056	-0,015
-158,979	-85,530	0,060	-0,014
-157,964	-66,001	-0,091	0,026
-156,950	135,998	-0,045	-0,042
-155,935	91,132	0,061	0,050
-154,920	-200,000	-0,006	0,078
-153,906	-200,000	0,026	0,213
-152,891	-200,000	-0,003	0,116
-151,877	-165,596	-0,053	0,002
-150,862	291,642	-0,080	0,106
-149,847	36,485	-0,092	-0,059
-148,833	471,748	-0,086	-0,141
-147,818	401,409	0,070	0,108
-146,804	-96,849	0,136	-0,026
-145,789	-200,000	0,002	0,025
-144,775	534,487	0,094	0,163
-143,760	800,000	-0,046	0,104
-142,745	347,021	0,014	-0,020
-141,731	-86,259	0,125	-0,028
-140,716	169,560	-0,012	0,013
-139,702	522,537	0,070	0,121
-138,687	421,275	0,037	0,058
-137,672	-200,000	0,008	0,025
-136,658	-200,000	0,003	-0,040
-135,643	800,000	0,031	-0,069
-134,629	252,986	0,055	0,068
-133,614	9,568	-0,023	0,013
-132,599	800,000	0,014	0,032
-131,585	-117,032	0,063	-0,008
-130,570	-200,000	-0,001	-0,074
-129,556	800,000	-0,054	-0,135
-128,541	-66,152	-0,165	0,047
-127,526	97,793	0,053	-0,044
-126,512	-66,613	0,123	-0,035
-125,497	11,051	0,118	-0,066
-124,483	-200,000	0,028	0,153
-123,468	-154,480	-0,019	0,001
-122,453	21,662	-0,018	-0,010
-121,439	-155,024	-0,146	0,007
-120,424	-115,633	-0,088	-0,012
-119,410	18,477	0,050	0,029
-118,395	281,251	0,041	0,054
