DTS Sentinel unit serial number:	SN410029Multiplexer serial number:	ORYXHardware model number:	OX2-SRSoftware version number:	ORYX F/W v4,00 Oryx Data Collector v3.7.2.0data status	okinstallation	B6 Nyhavnadifferential loss correction	single-endedforward channel	channel 2reverse channel	N/Adate	2023/12/07time	13:00:08forward acquisition time	300,00reverse acquisition time	0,00gamma	499,1914k internal	0,3203k external	0,3203temperature offset calibration	1,0000default loss term (dB/km)	0,3820temperature slope calibration	1,0000multiplexer offset coefficient	1,0000multiplexer slope coefficient	1,0000fibre end	0,00T internal ref (°C)	11,07T ext. ref 1 (°C)	-2,50T ext. ref 2 (°C)	-2,51length (m)	temperature (°C)	Stokes	anti-Stokes-744,400	27,346	0,198	0,121
-743,385	-105,386	-0,346	-0,057
-742,371	-99,827	0,111	0,020
-741,356	-106,875	-0,247	-0,039
-740,342	574,163	0,114	0,203
-739,327	-119,092	-0,368	0,046
-738,312	-200,000	-0,004	0,047
-737,298	-20,246	-0,335	-0,149
-736,283	-90,560	0,194	-0,040
-735,269	11,456	-0,219	-0,121
-734,254	2,415	0,153	0,080
-733,239	-90,641	-0,577	-0,120
-732,225	-79,056	0,320	0,078
-731,210	-178,172	-0,053	-0,001
-730,196	73,543	-0,102	-0,077
-729,181	5,576	-0,159	-0,085
-728,167	15,018	0,078	0,044
-727,152	-200,000	0,017	-0,074
-726,137	358,607	-0,033	-0,048
-725,123	-200,000	-0,006	-0,160
-724,108	364,884	-0,083	-0,121
-723,094	-115,547	-0,099	-0,013
-722,079	362,315	-0,095	-0,139
-721,064	-116,980	-0,118	0,016
-720,050	-105,436	-0,056	-0,009
-719,035	52,511	-0,099	-0,069
-718,021	-88,443	0,133	0,029
-717,006	800,000	-0,047	-0,099
-715,991	800,000	-0,076	-0,222
-714,977	-200,000	0,009	-0,187
-713,962	800,000	-0,076	0,159
-712,948	-31,241	-0,156	0,063
-711,933	800,000	0,029	-0,093
-710,918	-142,814	0,025	0,002
-709,904	-200,000	-0,013	-0,104
-708,889	-41,543	-0,195	-0,072
-707,875	-161,738	-0,070	-0,003
-706,860	-42,922	0,116	-0,043
-705,845	-200,000	0,013	-0,127
-704,831	-200,000	-0,062	0,222
-703,816	-200,000	0,040	0,304
-702,802	54,574	-0,128	0,090
-701,787	50,029	-0,093	-0,063
-700,772	-200,000	0,052	-0,200
-699,758	-200,000	-0,055	-0,259
-698,743	-41,843	-0,151	-0,056
-697,729	800,000	-0,018	0,054
-696,714	163,004	0,062	0,063
-695,699	128,517	-0,036	-0,033
-694,685	380,422	-0,044	-0,066
-693,670	-53,992	0,095	0,031
-692,656	115,328	0,109	-0,097
-691,641	230,074	-0,027	-0,031
-690,627	197,931	0,125	-0,138
-689,612	800,000	-0,067	0,180
-688,597	170,720	-0,096	-0,100
-687,583	-97,091	-0,100	-0,019
-686,568	492,333	0,036	-0,060
-685,554	125,521	-0,024	0,022
-684,539	242,710	0,056	0,068
-683,524	-200,000	-0,001	-0,079
-682,510	412,335	-0,040	-0,062
-681,495	-200,000	0,015	0,053
-680,481	-58,502	-0,144	-0,045
-679,466	373,642	-0,018	0,026
-678,451	-65,269	0,057	0,017
-677,437	72,430	-0,053	-0,040
-676,422	5,454	-0,071	-0,038
-675,408	-31,694	-0,128	0,052
-674,393	788,441	0,030	0,059
-673,378	143,334	0,081	-0,078
-672,364	160,172	0,004	0,004
-671,349	-126,022	0,062	-0,007
-670,335	21,233	-0,070	0,041
-669,320	13,571	0,147	0,083
-668,305	-87,513	-0,156	-0,034
-667,291	241,104	-0,047	0,057
-666,276	-43,478	0,080	-0,029
-665,262	800,000	0,034	-0,102
-664,247	502,185	-0,067	-0,113
-663,232	340,437	-0,093	-0,131
-662,218	11,604	0,111	-0,061
-661,203	-3,088	-0,120	0,060
-660,189	800,000	0,016	0,038
-659,174	800,000	0,046	-0,102
-658,159	-200,000	-0,044	-0,149
-657,145	125,839	0,107	-0,098
-656,130	-13,137	-0,040	-0,019
-655,116	-93,571	0,061	0,012
-654,101	-52,959	-0,092	0,031
-653,086	-100,855	0,039	0,007
-652,072	-34,320	-0,025	-0,010
-651,057	-200,000	-0,038	-0,196
-650,043	-93,523	-0,025	-0,005
-649,028	130,950	0,104	-0,097
-648,014	-92,055	-0,089	0,018
-646,999	-113,270	-0,042	0,006
-645,984	-200,000	-0,002	-0,011
-644,970	44,971	0,077	-0,051
-643,955	506,085	-0,098	-0,165
-642,941	-116,041	-0,051	-0,007
-641,926	800,000	-0,040	0,105
-640,911	-200,000	0,010	-0,085
-639,897	-136,163	0,095	0,008
-638,882	405,828	-0,058	0,088
-637,868	-21,961	-0,041	0,018
-636,853	39,236	-0,134	-0,087
-635,838	52,925	0,014	-0,010
-634,824	556,417	-0,073	-0,127
-633,809	89,306	0,033	0,027
-632,795	-18,621	0,022	-0,010
-631,780	208,795	0,075	0,085
-630,765	-110,757	-0,100	-0,015
-629,751	-200,000	-0,015	-0,050
-628,736	800,000	-0,024	-0,066
-627,722	477,738	0,009	-0,014
-626,707	-144,755	-0,041	-0,003
-625,692	129,059	-0,046	-0,042
-624,678	-5,043	-0,053	0,027
-623,663	-60,528	0,040	-0,012
-622,649	-29,327	-0,079	-0,033
-621,634	-102,460	-0,166	0,028
-620,619	-86,176	0,128	-0,028
-619,605	-200,000	-0,005	0,076
-618,590	184,712	0,041	0,044
-617,576	-200,000	-0,002	-0,016
-616,561	54,732	-0,028	-0,020
-615,546	106,057	0,104	-0,089
-614,532	-200,000	-0,012	-0,057
-613,517	-18,906	-0,011	-0,005
-612,503	-155,449	-0,112	-0,005
-611,488	792,221	0,064	0,128
-610,474	-200,000	-0,014	0,067
-609,459	84,089	-0,067	-0,053
-608,444	-200,000	-0,009	-0,094
-607,430	38,078	0,086	0,055
-606,415	-18,143	0,023	-0,011
-605,401	-200,000	-0,018	0,179
-604,386	93,666	0,079	0,064
-603,371	-200,000	0,016	0,055
-602,357	123,783	-0,063	-0,057
-601,342	200,510	-0,148	-0,164
-600,328	800,000	0,041	0,110
-599,313	-71,268	-0,049	0,013
-598,298	249,565	-0,031	-0,038
-597,284	-6,101	0,069	-0,034
-596,269	800,000	0,043	0,112
-595,255	-118,572	-0,137	0,017
-594,240	-200,000	0,028	0,168
-593,225	800,000	0,031	-0,094
-592,211	40,597	-0,003	-0,002
-591,196	549,817	0,057	0,099
-590,182	225,042	0,100	-0,118
-589,167	67,650	-0,114	-0,084
-588,152	263,618	0,096	0,121
-587,138	308,937	-0,076	-0,103
-586,123	169,895	0,016	0,016
-585,109	-200,000	-0,002	-0,061
-584,094	-157,892	0,197	-0,008
-583,079	-118,838	-0,103	0,013
-582,065	40,401	0,083	0,054
-581,050	800,000	-0,026	-0,077
-580,036	-12,672	-0,102	-0,048
-579,021	-200,000	-0,000	-0,091
-578,006	549,907	-0,036	-0,062
-576,992	-200,000	0,026	0,093
-575,977	800,000	0,018	0,045
-574,963	-86,089	0,088	-0,019
-573,948	165,197	-0,046	0,047
-572,934	1,900	-0,093	0,048
-571,919	800,000	0,070	-0,155
-570,904	-200,000	-0,008	-0,100
-569,890	19,973	-0,069	-0,040
-568,875	800,000	-0,022	0,062
-567,861	728,802	-0,139	0,269
-566,846	77,571	0,090	0,069
-565,831	-200,000	0,031	0,132
-564,817	-200,000	0,022	0,144
-563,802	24,460	-0,064	0,038
-562,788	-200,000	-0,035	0,144
-561,773	-200,000	-0,005	-0,028
-560,758	80,545	0,149	0,116
-559,744	-102,725	0,134	-0,023
-558,729	-4,997	-0,066	0,033
-557,715	560,930	-0,070	-0,122
-556,700	-200,000	0,008	0,076
-555,685	224,197	-0,119	0,138
-554,671	800,000	-0,018	0,050
-553,656	5,203	0,100	0,053
-552,642	-200,000	0,016	0,091
-551,627	800,000	-0,032	0,072
-550,612	283,503	-0,079	-0,102
-549,598	-200,000	-0,031	-0,224
-548,583	-200,000	-0,001	0,100
-547,569	-2,019	0,097	0,049
-546,554	800,000	-0,040	-0,125
-545,539	-83,588	0,016	0,004
-544,525	343,084	0,020	0,028
-543,510	-200,000	0,007	-0,039
-542,496	-37,832	-0,153	-0,059
-541,481	800,000	-0,047	-0,124
-540,466	59,291	0,090	0,064
-539,452	78,739	0,034	-0,026
-538,437	-146,517	-0,022	0,001
-537,423	-106,666	0,070	-0,011
-536,408	-200,000	-0,006	0,067
-535,393	229,210	0,026	-0,031
-534,379	204,164	0,036	0,040
-533,364	235,773	-0,040	0,047
-532,350	386,419	0,076	0,114
-531,335	153,366	-0,086	0,085
-530,321	-97,651	-0,065	-0,012
-529,306	-200,000	-0,025	-0,154
-528,291	51,795	-0,050	-0,035
-527,277	17,637	-0,060	-0,034
-526,262	6,411	0,090	-0,048
-525,248	-109,293	0,027	-0,004
-524,233	-200,000	0,013	-0,084
-523,218	-77,174	0,097	-0,024
-522,204	800,000	-0,038	0,085
-521,189	40,183	-0,077	0,050
-520,175	800,000	-0,007	-0,017
-519,160	-5,393	-0,034	-0,017
-518,145	-88,624	0,302	0,064
-517,131	431,773	-0,107	-0,167
-516,116	-200,000	0,011	-0,056
-515,102	308,651	-0,019	0,026
-514,087	42,472	-0,044	-0,029
-513,072	514,856	-0,043	-0,072
-512,058	800,000	-0,012	-0,032
-511,043	-59,365	-0,073	-0,023
-510,029	5,980	0,070	0,037
-509,014	-200,000	0,006	0,035
-507,999	800,000	0,022	-0,066
-506,985	57,108	-0,108	-0,076
-505,970	40,719	-0,005	0,003
-504,956	-50,000	0,072	-0,024
-503,941	-200,000	-0,018	0,110
-502,926	21,532	0,114	0,067
-501,912	800,000	-0,031	0,062
-500,897	-12,593	-0,060	0,028
-499,883	318,796	-0,011	-0,015
-498,868	338,302	0,076	-0,106
-497,853	-200,000	0,011	0,071
-496,839	225,361	-0,092	-0,108
-495,824	-115,583	0,083	-0,011
-494,810	-200,000	0,002	0,158
-493,795	50,471	-0,129	0,088
-492,781	256,072	-0,085	0,105
-491,766	-200,000	0,019	0,070
-490,751	-200,000	0,003	0,071
-489,737	-200,000	0,004	0,151
-488,722	339,029	-0,024	-0,033
-487,708	-131,060	0,215	-0,020
-486,693	160,849	0,077	-0,077
-485,678	66,142	0,073	0,053
-484,664	-54,081	0,058	-0,019
-483,649	489,717	-0,033	-0,055
-482,635	312,770	0,030	0,041
-481,620	-200,000	0,033	-0,184
-480,605	-13,613	0,067	0,031
-479,591	-141,066	0,042	-0,003
-478,576	302,527	-0,024	-0,031
-477,562	800,000	-0,039	-0,082
-476,547	-200,000	-0,016	-0,059
-475,532	-200,000	-0,000	-0,015
-474,518	-81,604	-0,107	0,025
-473,503	-113,099	0,091	0,013
-472,489	-103,204	-0,077	0,013
-471,474	260,157	0,073	0,091
-470,459	119,961	-0,049	0,044
-469,445	-136,075	-0,031	-0,003
-468,430	190,651	-0,020	-0,021
-467,416	207,268	-0,012	-0,013
-466,401	-26,087	0,114	-0,048
-465,386	-62,774	0,078	-0,023
-464,372	115,899	-0,131	0,115
-463,357	800,000	0,008	0,025
-462,343	800,000	0,015	0,048
-461,328	246,068	0,009	0,011
-460,313	223,772	0,105	0,122
-459,299	-23,290	-0,122	-0,053
-458,284	-84,227	-0,041	0,009
-457,270	235,571	0,032	-0,038
-456,255	47,755	-0,066	-0,044
-455,241	-15,984	-0,119	0,054
-454,226	61,516	-0,072	0,051
-453,211	-22,622	-0,025	-0,011
-452,197	221,919	0,055	0,063
-451,182	780,628	0,018	0,035
-450,168	-121,776	0,047	0,006
-449,153	54,325	0,114	-0,079
-448,138	153,484	-0,076	-0,075
-447,124	-200,000	-0,006	-0,070
-446,109	-200,000	-0,008	-0,056
-445,095	800,000	-0,014	-0,045
-444,080	800,000	-0,019	0,044
-443,065	800,000	0,047	0,104
-442,051	800,000	-0,031	-0,097
-441,036	800,000	-0,027	-0,063
-440,022	-200,000	0,033	-0,129
-439,007	-2,664	-0,069	0,035
-437,992	6,549	0,113	0,060
-436,978	-107,499	-0,090	0,014
-435,963	7,395	0,053	-0,029
-434,949	-71,089	0,093	-0,025
-433,934	562,985	0,040	-0,070
-432,919	210,060	-0,038	-0,042
-431,905	29,162	-0,018	0,011
-430,890	448,211	0,058	0,092
-429,876	-51,068	0,089	0,030
-428,861	33,419	0,129	0,080
-427,846	753,543	-0,091	0,177
-426,832	81,405	-0,181	-0,140
-425,817	79,826	-0,015	-0,012
-424,803	237,008	-0,119	0,142
-423,788	800,000	0,032	-0,085
-422,773	-178,881	0,056	-0,001
-421,759	-178,338	0,082	0,001
-420,744	800,000	-0,024	0,049
-419,730	378,661	0,036	0,052
-418,715	156,570	-0,044	-0,043
-417,701	12,851	-0,100	-0,055
-416,686	1,578	0,084	0,043
-415,671	800,000	0,009	-0,029
-414,657	413,376	0,025	0,038
-413,642	326,761	-0,016	-0,022
-412,628	401,662	-0,031	-0,046
-411,613	91,683	0,068	-0,055
-410,598	-200,000	-0,020	0,078
-409,584	537,174	-0,086	0,147
-408,569	93,074	0,096	0,078
-407,555	110,144	-0,027	-0,023
-406,540	-200,000	-0,025	-0,096
-405,525	-22,389	0,094	-0,041
-404,511	123,610	-0,044	-0,039
-403,496	800,000	-0,038	-0,119
-402,482	-11,168	-0,062	-0,029
-401,467	-4,155	-0,116	0,057
-400,452	-200,000	0,012	0,113
-399,438	-200,000	0,032	0,160
-398,423	44,246	0,057	0,037
-397,409	752,238	-0,013	-0,025
-396,394	-49,471	0,095	-0,032
-395,379	800,000	-0,040	-0,083
-394,365	-174,273	0,214	-0,004
-393,350	-68,363	0,093	0,026
-392,336	124,148	-0,086	0,077
-391,321	575,098	-0,019	0,034
-390,306	-36,382	-0,049	-0,019
-389,292	-150,267	0,076	0,004
-388,277	49,556	0,109	0,073
-387,263	-200,000	0,002	0,041
-386,248	-143,909	0,092	0,006
-385,233	700,056	0,047	0,088
-384,219	-100,268	-0,027	-0,005
-383,204	-200,000	0,014	-0,054
-382,190	70,537	0,048	0,035
-381,175	-156,449	0,080	0,004
-380,160	-200,000	0,003	-0,097
-379,146	-169,483	-0,133	-0,003
-378,131	-75,069	-0,070	0,018
-377,117	-200,000	0,035	0,215
-376,102	341,166	0,037	0,052
-375,088	-200,000	-0,037	-0,146
-374,073	-200,000	0,010	-0,104
-373,058	12,010	0,055	0,030
-372,044	-6,457	-0,122	-0,059
-371,029	66,260	0,034	0,025
-370,015	142,173	-0,091	0,087
-369,000	121,508	-0,079	0,070
-367,985	800,000	0,040	-0,092
-366,971	-200,000	0,005	-0,023
-365,956	-81,059	0,126	0,030
-364,942	750,891	0,023	0,045
-363,927	-197,682	0,046	0,000
-362,912	-75,185	-0,039	-0,010
-361,898	-10,143	0,066	-0,031
-360,883	-37,296	-0,067	0,026
-359,869	-57,382	-0,052	0,016
-358,854	246,065	0,055	0,067
-357,839	800,000	0,014	-0,043
-356,825	53,869	-0,035	-0,024
-355,810	2,477	-0,058	-0,030
-354,796	-200,000	-0,027	0,100
-353,781	-112,706	0,064	0,009
-352,766	-145,028	-0,056	0,004
-351,752	-48,752	-0,129	0,044
-350,737	484,911	0,058	-0,095
-349,723	-200,000	0,022	0,069
-348,708	-200,000	-0,025	-0,083
-347,693	18,177	0,084	-0,048
-346,679	693,093	-0,045	-0,086
-345,664	385,704	-0,040	0,059
-344,650	-72,253	0,023	0,006
-343,635	-70,104	0,075	-0,020
-342,620	800,000	-0,028	0,085
-341,606	-104,126	-0,081	-0,013
-340,591	82,549	0,134	-0,104
-339,577	7,571	-0,152	-0,081
-338,562	-5,401	0,019	0,009
-337,548	99,367	0,131	0,109
-336,533	800,000	0,060	0,152
-335,518	-200,000	0,008	0,031
-334,504	58,499	0,076	-0,053
-333,489	-200,000	-0,016	0,058
-332,475	-110,746	-0,066	-0,010
-331,460	-200,000	-0,065	-0,210
-330,445	-50,461	0,012	0,004
-329,431	25,005	0,064	0,038
-328,416	-200,000	-0,000	0,060
-327,402	-200,000	0,001	-0,018
-326,387	-140,090	-0,039	-0,003
-325,372	90,613	-0,108	0,086
-324,358	420,590	0,088	-0,135
-323,343	-200,000	0,011	0,055
-322,329	473,224	-0,064	0,104
-321,314	-31,037	0,167	0,067
-320,299	800,000	0,049	-0,103
-319,285	-200,000	-0,003	-0,011
-318,270	-200,000	0,003	-0,136
-317,256	569,402	-0,101	-0,177
-316,241	-200,000	0,026	-0,138
-315,226	-85,075	-0,033	-0,007
-314,212	-200,000	-0,032	0,179
-313,197	-200,000	0,007	0,171
-312,183	53,736	-0,053	0,036
-311,168	800,000	0,015	-0,043
-310,153	19,002	-0,055	0,031
-309,139	301,778	0,048	0,063
-308,124	209,857	0,056	-0,062
-307,110	177,195	-0,033	-0,034
-306,095	686,178	-0,015	0,028
-305,080	800,000	-0,060	-0,122
-304,066	599,998	-0,083	-0,148
-303,051	76,700	0,125	-0,095
-302,037	-200,000	0,011	-0,075
-301,022	-128,606	0,126	-0,013
-300,008	-80,818	0,077	0,018
-298,993	-165,528	0,149	-0,005
-297,978	-200,000	0,001	-0,044
-296,964	-200,000	-0,024	-0,101
-295,949	-200,000	-0,010	0,114
-294,935	-200,000	-0,020	-0,224
-293,920	138,812	0,035	-0,033
-292,905	-68,972	-0,057	0,016
-291,891	8,207	-0,032	0,017
-290,876	12,257	0,101	-0,056
-289,862	-200,000	-0,018	-0,065
-288,847	620,648	-0,055	-0,100
-287,832	-112,671	0,063	0,009
-286,818	-200,000	-0,002	-0,026
-285,803	-55,254	0,077	-0,024
-284,789	356,522	0,035	0,050
-283,774	-49,265	0,046	-0,016
-282,759	-86,183	0,089	-0,019
-281,745	179,664	-0,067	-0,071
-280,730	-65,835	0,125	-0,035
-279,716	37,312	-0,052	0,033
-278,701	38,321	-0,037	0,023
-277,686	-200,000	0,013	0,119
-276,672	-200,000	0,007	0,058
-275,657	232,170	-0,041	-0,048
-274,643	-198,162	-0,209	0,001
-273,628	259,516	0,093	-0,114
-272,613	81,975	-0,103	-0,080
-271,599	800,000	0,020	-0,051
-270,584	-200,000	-0,028	0,183
-269,570	-114,599	-0,084	-0,011
-268,555	-200,000	-0,000	-0,029
-267,540	485,372	0,051	-0,084
-266,526	793,841	-0,013	0,026
-265,511	-158,780	0,139	-0,006
-264,497	40,505	0,032	-0,020
-263,482	10,243	0,207	0,112
-262,467	-200,000	0,003	0,073
-261,453	133,686	-0,139	0,129
-260,438	-200,000	0,016	0,063
-259,424	167,872	0,043	-0,044
-258,409	25,766	0,117	0,069
-257,395	298,142	0,093	0,122
-256,380	240,249	-0,022	0,026
-255,365	402,991	0,131	0,197
-254,351	-200,000	-0,002	0,101
-253,336	216,605	0,054	-0,061
-252,322	138,969	-0,106	-0,099
-251,307	-200,000	0,022	0,181
-250,292	204,905	-0,053	-0,058
-249,278	57,564	0,078	-0,054
-248,263	-44,027	-0,055	0,020
-247,249	-200,000	0,011	0,099
-246,234	-200,000	-0,002	-0,102
-245,219	-27,146	-0,076	0,031
-244,205	-55,832	-0,124	0,039
-243,190	-99,952	-0,100	0,018
-242,176	99,444	-0,053	0,043
-241,161	21,347	-0,079	-0,046
-240,146	-49,949	-0,076	0,025
-239,132	-53,442	-0,122	0,039
-238,117	800,000	-0,025	0,050
-237,103	127,849	-0,076	-0,069
-236,088	228,736	0,088	0,102
-235,073	-200,000	0,007	0,061
-234,059	-200,000	-0,014	-0,098
-233,044	277,313	0,197	0,250
-232,030	-80,255	-0,096	-0,023
-231,015	-78,819	0,066	0,016
-230,000	505,809	-0,061	-0,101
-228,986	80,703	0,045	-0,035
-227,971	231,732	0,073	-0,086
-226,957	-25,217	-0,087	0,036
-225,942	-35,578	0,096	-0,037
-224,927	-103,929	-0,061	-0,010
-223,913	30,606	-0,088	-0,053
-222,898	372,582	-0,018	-0,026
-221,884	307,673	-0,030	-0,040
-220,869	429,796	0,023	0,035
-219,855	-200,000	0,006	0,045
-218,840	-200,000	-0,026	-0,125
-217,825	-2,411	-0,046	-0,023
-216,811	-21,846	-0,151	0,065
-215,796	-200,000	0,001	0,124
-214,782	-88,732	-0,166	0,035
-213,767	-200,000	0,004	0,061
-212,752	800,000	0,030	0,067
-211,738	-200,000	0,009	0,092
-210,723	-200,000	0,042	-0,163
-209,709	800,000	0,032	-0,087
-208,694	-91,952	-0,093	0,019
-207,679	800,000	-0,023	0,060
-206,665	103,078	0,045	-0,038
-205,650	145,552	0,068	-0,065
-204,636	-29,895	-0,017	-0,007
-203,621	42,548	0,119	-0,077
-202,606	-200,000	-0,005	-0,031
-201,592	800,000	0,032	0,082
-200,577	-200,000	0,023	-0,128
-199,563	-200,000	0,021	-0,072
-198,548	158,338	-0,045	0,045
-197,533	-200,000	-0,001	-0,049
-196,519	-99,711	-0,083	-0,015
-195,504	-47,170	-0,012	0,004
-194,490	-200,000	-0,035	-0,147
-193,475	30,541	0,033	-0,020
-192,460	-65,087	-0,133	0,038
-191,446	512,258	-0,014	-0,023
-190,431	-200,000	0,008	0,115
-189,417	-28,857	-0,046	-0,019
-188,402	-80,355	-0,080	-0,019
-187,387	450,139	-0,090	-0,142
-186,373	-40,983	0,030	-0,011
-185,358	622,439	0,024	-0,043
-184,344	109,059	-0,067	0,057
-183,329	268,501	0,059	0,074
-182,315	33,601	0,065	-0,040
-181,300	96,515	0,055	-0,044
-180,285	95,256	0,038	0,031
-179,271	64,273	-0,167	-0,120
-178,256	796,217	0,039	-0,076
-177,242	-44,621	-0,090	-0,032
-176,227	800,000	0,088	0,182
-175,212	119,764	0,039	-0,035
-174,198	-200,000	-0,015	-0,081
-173,183	-29,578	-0,029	-0,012
-172,169	656,054	-0,106	-0,194
-171,154	136,757	-0,054	0,050
-170,139	-34,229	-0,071	-0,027
-169,125	14,063	0,130	-0,072
-168,110	-61,192	0,064	-0,019
-167,096	36,797	0,131	0,082
-166,081	800,000	0,023	-0,066
-165,066	-162,843	-0,077	-0,003
-164,052	366,862	0,037	0,054
-163,037	-200,000	-0,024	-0,119
-162,023	-200,000	0,013	0,081
-161,008	-107,649	-0,037	-0,006
-159,993	-2,549	0,098	0,049
-158,979	385,797	0,077	-0,113
-157,964	281,382	0,061	-0,077
-156,950	339,988	-0,059	-0,082
-155,935	12,838	0,137	0,075
-154,920	148,953	-0,110	0,106
-153,906	-88,039	0,162	0,034
-152,891	-200,000	-0,009	0,068
-151,877	-137,118	-0,019	0,002
-150,862	-200,000	-0,010	0,052
-149,847	-2,003	0,049	-0,025
-148,833	-140,648	0,045	-0,003
-147,818	706,665	0,089	-0,169
-146,804	100,435	-0,015	0,013
-145,789	178,446	-0,020	-0,021
-144,775	-93,680	-0,050	0,010
-143,760	800,000	0,027	-0,061
-142,745	-200,000	-0,060	-0,203
-141,731	-200,000	0,009	-0,063
-140,716	-68,175	0,043	-0,012
-139,702	-200,000	-0,029	-0,093
-138,687	800,000	0,046	-0,124
-137,672	179,075	-0,008	0,008
-136,658	-60,750	-0,085	0,025
-135,643	-200,000	-0,004	-0,076
-134,629	750,806	-0,067	-0,129
-133,614	-48,856	0,115	-0,039
-132,599	-79,745	0,119	-0,028
-131,585	-141,860	-0,070	0,005
-130,570	355,617	-0,013	-0,019
-129,556	123,410	-0,045	-0,040
-128,541	99,107	-0,096	-0,079
-127,526	-200,000	0,014	-0,075
-126,512	-7,130	0,152	-0,073
-125,497	-7,653	-0,119	0,057
-124,483	-200,000	0,011	0,066
-123,468	-88,622	-0,146	0,031
-122,453	27,620	0,087	-0,052
-121,439	800,000	-0,033	-0,103
-120,424	-200,000	0,026	-0,101
-119,410	2,329	-0,046	-0,023
