DTS Sentinel unit serial number:	SN410029Multiplexer serial number:	ORYXHardware model number:	OX2-SRSoftware version number:	ORYX F/W v4,00 Oryx Data Collector v3.7.2.0data status	okinstallation	B6 Nyhavnadifferential loss correction	single-endedforward channel	channel 2reverse channel	N/Adate	2023/12/10time	10:50:08forward acquisition time	300,00reverse acquisition time	0,00gamma	499,1914k internal	0,3123k external	0,3123temperature offset calibration	1,0000default loss term (dB/km)	0,3820temperature slope calibration	1,0000multiplexer offset coefficient	1,0000multiplexer slope coefficient	1,0000fibre end	0,00T internal ref (°C)	22,61T ext. ref 1 (°C)	6,48T ext. ref 2 (°C)	6,47length (m)	temperature (°C)	Stokes	anti-Stokes-744,400	-200,000	0,041	-0,155
-743,385	-25,168	-0,214	0,094
-742,371	64,326	-0,116	0,087
-741,356	69,887	-0,137	0,105
-740,342	102,924	-0,046	0,040
-739,327	-15,325	-0,249	0,118
-738,312	-77,805	0,074	-0,019
-737,298	8,817	-0,149	-0,083
-736,283	800,000	-0,061	-0,151
-735,269	-26,691	-0,141	0,061
-734,254	800,000	0,031	-0,090
-733,239	-68,887	-0,254	-0,073
-732,225	-20,923	0,152	0,069
-731,210	393,420	-0,074	0,116
-730,196	341,890	0,054	-0,079
-729,181	466,966	-0,026	-0,043
-728,167	-96,730	0,113	-0,022
-727,152	-56,846	-0,149	-0,049
-726,137	22,158	-0,099	-0,060
-725,123	162,208	-0,068	-0,071
-724,108	23,529	-0,046	-0,028
-723,094	432,626	-0,092	-0,150
-722,079	32,167	-0,041	-0,026
-721,064	-200,000	0,013	-0,071
-720,050	-91,863	-0,205	-0,043
-719,035	-76,294	0,090	0,023
-718,021	254,652	-0,075	-0,096
-717,006	-32,258	-0,108	-0,045
-715,991	145,825	-0,074	-0,074
-714,977	-20,387	0,030	0,014
-713,962	-114,675	-0,036	0,005
-712,948	-200,000	-0,000	-0,139
-711,933	-145,229	-0,110	0,007
-710,918	150,417	0,127	0,129
-709,904	213,360	0,027	0,032
-708,889	800,000	-0,067	-0,187
-707,875	-200,000	-0,004	-0,131
-706,860	-149,144	0,062	-0,004
-705,845	800,000	0,027	-0,074
-704,831	-200,000	-0,012	0,047
-703,816	800,000	-0,013	-0,031
-702,802	67,661	0,061	-0,046
-701,787	-200,000	-0,018	-0,112
-700,772	260,678	-0,138	-0,178
-699,758	9,610	0,045	0,026
-698,743	-159,953	-0,048	-0,002
-697,729	353,907	-0,051	-0,076
-696,714	362,232	-0,012	-0,017
-695,699	-39,816	-0,076	-0,029
-694,685	501,214	0,042	-0,073
-693,670	78,497	0,052	-0,041
-692,656	423,631	-0,023	-0,038
-691,641	67,990	0,110	0,084
-690,627	-200,000	-0,002	-0,008
-689,612	-143,435	0,104	-0,007
-688,597	240,450	-0,021	-0,026
-687,583	-200,000	-0,022	0,108
-686,568	465,071	-0,069	-0,115
-685,554	-32,649	-0,103	-0,043
-684,539	-200,000	-0,001	-0,025
-683,524	-49,378	-0,034	0,012
-682,510	-200,000	-0,038	0,148
-681,495	195,573	-0,040	0,046
-680,481	-88,882	-0,053	0,011
-679,466	487,668	0,032	0,055
-678,451	-18,102	-0,007	-0,003
-677,437	43,161	0,134	-0,091
-676,422	-103,004	0,107	0,019
-675,408	17,685	-0,063	-0,037
-674,393	-200,000	0,005	0,043
-673,378	43,956	-0,059	0,040
-672,364	800,000	-0,059	-0,125
-671,349	471,286	-0,024	-0,040
-670,335	-38,849	0,229	-0,089
-669,320	-45,950	0,057	0,021
-668,305	-200,000	-0,004	0,020
-667,291	800,000	-0,061	-0,186
-666,276	-200,000	0,014	-0,170
-665,262	-111,914	-0,067	-0,010
-664,247	10,775	-0,109	-0,062
-663,232	-200,000	-0,013	0,080
-662,218	74,715	0,028	0,022
-661,203	20,905	-0,094	-0,057
-660,189	738,307	-0,069	0,139
-659,174	-200,000	-0,044	-0,152
-658,159	-200,000	-0,000	0,011
-657,145	11,921	-0,091	-0,052
-656,130	-200,000	-0,006	0,022
-655,116	-200,000	0,006	0,122
-654,101	39,375	0,127	0,085
-653,086	800,000	0,018	0,057
-652,072	184,003	-0,032	-0,035
-651,057	-200,000	0,047	-0,260
-650,043	-200,000	0,031	-0,155
-649,028	52,701	0,076	0,054
-648,014	9,095	-0,015	-0,008
-646,999	78,478	-0,169	-0,134
-645,984	14,774	0,062	-0,036
-644,970	-1,981	0,059	-0,031
-643,955	-67,361	-0,123	-0,036
-642,941	205,165	0,052	-0,060
-641,926	800,000	-0,053	0,149
-640,911	273,212	0,066	0,087
-639,897	162,852	-0,043	0,044
-638,882	-200,000	-0,017	0,102
-637,868	245,027	0,035	-0,044
-636,853	105,772	-0,026	-0,023
-635,838	-200,000	-0,016	-0,079
-634,824	-200,000	-0,006	-0,174
-633,809	-200,000	-0,011	-0,064
-632,795	0,357	-0,103	0,054
-631,780	-200,000	0,009	0,126
-630,765	800,000	-0,033	0,069
-629,751	-200,000	0,027	-0,202
-628,736	163,261	0,044	-0,046
-627,722	800,000	-0,015	-0,043
-626,707	-155,643	-0,207	0,010
-625,692	-200,000	0,000	0,129
-624,678	-200,000	-0,033	0,121
-623,663	683,805	-0,041	0,080
-622,649	115,865	-0,042	0,038
-621,634	105,109	-0,014	-0,012
-620,619	-53,956	-0,099	-0,033
-619,605	-65,770	0,126	0,037
-618,590	-116,609	-0,213	0,029
-617,576	220,387	0,068	-0,081
-616,561	620,675	-0,056	-0,104
-615,546	285,355	-0,038	-0,051
-614,532	791,900	-0,115	-0,237
-613,517	-200,000	-0,051	-0,182
-612,503	-200,000	0,019	0,070
-611,488	439,394	0,005	-0,008
-610,474	1,625	0,091	0,048
-609,459	-200,000	-0,006	0,040
-608,444	338,184	-0,035	-0,050
-607,430	-12,888	-0,098	0,047
-606,415	66,521	-0,062	-0,047
-605,401	680,484	-0,041	0,080
-604,386	103,773	-0,107	-0,093
-603,371	-15,688	0,019	0,009
-602,357	-80,954	-0,019	-0,005
-601,342	-200,000	0,016	0,070
-600,328	-85,205	-0,081	0,019
-599,313	-37,772	-0,114	-0,045
-598,298	-87,931	-0,174	-0,038
-597,284	258,983	0,082	0,105
-596,269	202,479	-0,005	-0,005
-595,255	-200,000	-0,020	-0,072
-594,240	-200,000	0,002	-0,065
-593,225	-200,000	0,008	0,074
-592,211	740,255	-0,011	0,022
-591,196	800,000	0,045	-0,134
-590,182	43,801	0,130	0,088
-589,167	-200,000	-0,014	0,069
-588,152	0,195	0,015	0,008
-587,138	800,000	-0,016	-0,052
-586,123	800,000	-0,059	-0,156
-585,109	607,507	0,061	-0,114
-584,094	800,000	-0,056	-0,135
-583,079	-200,000	0,022	0,105
-582,065	-40,025	0,096	0,037
-581,050	-200,000	-0,009	0,101
-580,036	284,585	0,069	-0,092
-579,021	-200,000	0,008	-0,067
-578,006	490,909	0,035	-0,060
-576,992	25,595	-0,054	-0,033
-575,977	-116,170	0,056	0,008
-574,963	374,350	-0,077	0,116
-573,948	-149,490	0,119	0,007
-572,934	103,549	0,025	0,022
-571,919	122,824	-0,048	-0,045
-570,904	-21,025	-0,041	-0,019
-569,890	-25,945	-0,058	-0,025
-568,875	800,000	-0,016	0,033
-567,861	163,371	-0,024	0,025
-566,846	-74,479	0,054	0,014
-565,831	-200,000	-0,005	-0,169
-564,817	-200,000	0,040	-0,178
-563,802	800,000	0,049	-0,102
-562,788	697,134	-0,023	-0,045
-561,773	145,167	-0,176	-0,175
-560,758	-200,000	0,007	-0,082
-559,744	12,300	0,081	0,046
-558,729	61,384	-0,038	-0,028
-557,715	800,000	0,046	-0,130
-556,700	-200,000	-0,020	-0,085
-555,685	124,973	-0,070	-0,065
-554,671	-132,172	-0,063	0,006
-553,656	-105,376	0,038	-0,006
-552,642	-200,000	-0,016	-0,099
-551,627	-200,000	-0,017	-0,100
-550,612	-200,000	-0,025	-0,172
-549,598	206,796	-0,006	0,007
-548,583	-200,000	0,001	-0,092
-547,569	25,216	-0,095	0,058
-546,554	415,805	-0,028	0,044
-545,539	-130,658	0,136	0,013
-544,525	-90,902	0,047	0,010
-543,510	-200,000	-0,030	-0,104
-542,496	-200,000	0,014	-0,122
-541,481	-109,778	-0,086	-0,013
-540,466	-200,000	0,007	-0,121
-539,452	209,019	-0,022	0,026
-538,437	-200,000	0,010	-0,112
-537,423	800,000	0,023	0,073
-536,408	-51,405	-0,093	0,032
-535,393	376,642	0,072	0,109
-534,379	-200,000	0,001	-0,027
-533,364	163,919	0,012	0,013
-532,350	15,001	0,072	0,042
-531,335	25,999	-0,098	-0,060
-530,321	309,731	-0,022	0,031
-529,306	32,912	0,025	-0,016
-528,291	62,567	-0,056	-0,041
-527,277	492,933	-0,013	0,022
-526,262	-128,012	0,089	-0,009
-525,248	186,447	0,042	0,047
-524,233	27,651	0,095	0,059
-523,218	12,368	0,094	0,053
-522,204	800,000	0,029	0,069
-521,189	792,649	-0,025	-0,051
-520,175	-200,000	-0,016	-0,106
-519,160	712,307	0,006	-0,012
-518,145	800,000	-0,060	0,175
-517,131	16,703	0,009	0,005
-516,116	-4,803	-0,024	0,012
-515,102	-200,000	-0,006	0,101
-514,087	384,763	0,046	-0,070
-513,072	-122,705	-0,158	0,019
-512,058	538,423	0,040	-0,071
-511,043	354,600	0,089	0,131
-510,029	45,111	0,027	0,018
-509,014	-200,000	-0,022	0,108
-507,999	-83,980	-0,073	0,017
-506,985	681,541	-0,041	-0,079
-505,970	-87,269	-0,141	0,031
-504,956	-200,000	0,014	-0,142
-503,941	-200,000	0,028	-0,149
-502,926	800,000	0,025	-0,056
-501,912	-200,000	-0,011	0,054
-500,897	-200,000	-0,027	0,113
-499,883	-12,738	-0,113	-0,054
-498,868	-34,027	0,015	-0,006
-497,853	-122,340	-0,056	0,007
-496,839	388,004	-0,046	0,070
-495,824	29,487	0,008	-0,005
-494,810	-57,800	0,091	-0,029
-493,795	313,713	-0,096	0,133
-492,781	183,986	0,071	-0,078
-491,766	404,541	-0,041	-0,064
-490,751	358,654	-0,067	-0,098
-489,737	-23,143	-0,032	0,014
-488,722	-10,827	-0,132	0,064
-487,708	82,697	-0,076	0,061
-486,693	-95,460	0,026	-0,005
-485,678	-101,061	-0,114	0,020
-484,664	-200,000	0,002	-0,020
-483,649	-109,062	-0,044	0,007
-482,635	-130,829	-0,150	-0,015
-481,620	50,508	0,113	0,079
-480,605	431,817	-0,020	0,032
-479,591	631,002	0,026	0,049
-478,576	12,769	-0,088	0,050
-477,562	87,449	0,109	-0,089
-476,547	72,932	0,026	0,020
-475,532	-118,386	0,174	0,022
-474,518	800,000	0,036	0,097
-473,503	321,298	0,098	0,137
-472,489	-200,000	-0,005	-0,053
-471,474	-200,000	-0,011	0,102
-470,459	80,142	0,031	-0,024
-469,445	7,059	-0,105	-0,058
-468,430	69,057	0,091	0,069
-467,416	800,000	-0,022	0,069
-466,401	-31,074	0,063	0,026
-465,386	-101,126	0,082	-0,015
-464,372	-200,000	0,007	0,062
-463,357	231,594	-0,033	-0,040
-462,343	99,546	0,051	-0,043
-461,328	155,427	-0,051	-0,052
-460,313	-200,000	-0,017	0,076
-459,299	800,000	0,018	0,053
-458,284	-200,000	-0,008	-0,042
-457,270	800,000	0,028	0,072
-456,255	700,326	0,015	-0,029
-455,241	800,000	-0,076	-0,167
-454,226	-54,915	-0,085	-0,028
-453,211	800,000	-0,012	0,038
-452,197	-42,044	0,080	-0,030
-451,182	120,436	0,095	0,087
-450,168	-200,000	-0,012	0,067
-449,153	0,481	0,099	-0,052
-448,138	71,454	0,072	0,055
-447,124	145,395	0,109	-0,108
-446,109	-13,297	0,151	-0,072
-445,095	-200,000	0,005	0,025
-444,080	-144,460	0,190	-0,013
-443,065	60,786	0,028	-0,021
-442,051	243,216	-0,066	0,081
-441,036	-200,000	-0,004	0,033
-440,022	-200,000	0,007	0,113
-439,007	147,657	-0,110	0,109
-437,992	-27,778	0,188	0,080
-436,978	-200,000	-0,009	0,124
-435,963	31,389	0,080	0,051
-434,949	-200,000	0,016	-0,113
-433,934	800,000	-0,088	-0,184
-432,919	-54,852	-0,136	0,045
-431,905	-200,000	-0,011	0,064
-430,890	200,910	-0,100	0,113
-429,876	-33,326	0,075	0,030
-428,861	-200,000	-0,002	0,029
-427,846	107,495	-0,038	-0,033
-426,832	-200,000	-0,035	0,000
-425,817	800,000	-0,016	-0,040
-424,803	-125,380	-0,015	-0,002
-423,788	800,000	0,037	0,092
-422,773	800,000	0,017	0,049
-421,759	800,000	-0,016	0,048
-420,744	-81,275	0,130	0,031
-419,730	15,500	-0,055	-0,032
-418,715	-59,661	0,054	0,017
-417,701	-68,528	-0,111	0,031
-416,686	633,597	0,047	0,088
-415,671	-89,988	0,104	0,022
-414,657	-83,134	-0,053	0,013
-413,642	-148,989	0,081	0,005
-412,628	800,000	0,008	-0,022
-411,613	99,647	-0,166	-0,142
-410,598	-108,163	-0,029	-0,004
-409,584	-200,000	-0,014	-0,065
-408,569	-200,000	-0,041	0,199
-407,555	273,831	-0,038	0,049
-406,540	-200,000	0,022	-0,111
-405,525	-86,261	0,099	0,022
-404,511	-200,000	-0,014	0,146
-403,496	-155,131	-0,166	0,008
-402,482	-15,437	0,080	0,037
-401,467	422,683	0,111	-0,175
-400,452	-54,225	-0,008	0,003
-399,438	284,705	-0,032	0,043
-398,423	800,000	0,018	0,037
-397,409	-25,611	0,103	-0,044
-396,394	-200,000	-0,022	-0,127
-395,379	395,690	0,078	0,120
-394,365	-52,471	-0,119	-0,040
-393,350	-109,147	-0,080	0,012
-392,336	54,228	0,069	0,049
-391,321	-200,000	-0,003	0,095
-390,306	-200,000	-0,001	0,045
-389,292	26,548	0,068	-0,042
-388,277	78,888	-0,159	-0,125
-387,263	-106,256	0,059	-0,010
-386,248	-7,524	0,148	0,073
-385,233	-60,234	0,073	0,023
-384,219	-145,407	-0,089	-0,006
-383,204	-37,787	-0,074	0,029
-382,190	-182,320	0,159	-0,002
-381,175	800,000	0,017	-0,051
-380,160	-138,909	0,054	-0,004
-379,146	800,000	0,051	0,154
-378,131	182,076	-0,049	0,053
-377,117	800,000	-0,041	0,088
-376,102	553,311	-0,051	-0,091
-375,088	800,000	0,054	-0,111
-374,073	584,283	-0,052	-0,094
-373,058	131,444	-0,019	0,018
-372,044	456,719	0,025	-0,041
-371,029	158,277	-0,093	-0,095
-370,015	-200,000	0,003	-0,072
-369,000	-185,421	0,014	-0,000
-367,985	-200,000	-0,057	-0,227
-366,971	-200,000	0,011	-0,050
-365,956	-131,738	0,113	-0,011
-364,942	800,000	0,059	-0,147
-363,927	-127,958	0,093	-0,010
-362,912	166,894	-0,089	0,092
-361,898	671,584	0,040	0,077
-360,883	149,023	-0,049	0,049
-359,869	34,197	0,059	0,038
-358,854	-45,230	-0,142	0,052
-357,839	115,179	-0,105	0,094
-356,825	-148,897	0,064	-0,004
-355,810	-4,114	0,116	0,059
-354,796	166,003	0,056	0,058
-353,781	22,616	-0,061	-0,036
-352,766	95,228	-0,055	-0,046
-351,752	800,000	-0,040	0,095
-350,737	250,266	-0,056	0,069
-349,723	-82,408	-0,104	-0,025
-348,708	-160,902	-0,118	0,004
-347,693	442,903	0,032	0,052
-346,679	-200,000	0,001	-0,210
-345,664	36,034	-0,050	-0,032
-344,650	-200,000	-0,017	0,082
-343,635	800,000	-0,025	0,079
-342,620	230,312	-0,045	-0,055
-341,606	800,000	0,030	-0,072
-340,591	75,948	-0,022	0,017
-339,577	-200,000	-0,012	-0,045
-338,562	330,737	-0,052	0,073
-337,548	-157,157	-0,095	0,004
-336,533	56,141	0,131	0,093
-335,518	-81,212	0,066	0,016
-334,504	145,233	0,062	-0,061
-333,489	331,638	0,028	-0,039
-332,475	-200,000	0,000	-0,073
-331,460	-200,000	-0,017	-0,127
-330,445	-200,000	-0,022	-0,140
-329,431	-103,358	0,069	-0,012
-328,416	-86,289	0,066	0,015
-327,402	-200,000	-0,003	0,023
-326,387	41,081	-0,053	0,035
-325,372	200,955	0,053	-0,060
-324,358	800,000	-0,029	-0,094
-323,343	0,975	0,024	-0,012
-322,329	800,000	0,073	0,159
-321,314	-200,000	0,015	0,192
-320,299	-12,417	0,040	-0,019
-319,285	-115,000	-0,089	0,012
-318,270	800,000	-0,032	-0,096
-317,256	-200,000	0,011	-0,081
-316,241	-26,454	-0,048	0,021
-315,226	31,949	-0,083	0,052
-314,212	-3,476	0,066	-0,034
-313,197	211,596	0,044	0,051
-312,183	733,791	-0,023	0,045
-311,168	61,045	-0,124	-0,090
-310,153	27,177	0,027	-0,016
-309,139	-200,000	-0,011	-0,124
-308,124	189,092	0,034	0,037
-307,110	500,907	-0,032	0,054
-306,095	-200,000	0,072	0,234
-305,080	-200,000	0,002	0,112
-304,066	-116,701	-0,144	-0,019
-303,051	-200,000	0,001	-0,097
-302,037	-200,000	-0,031	0,109
-301,022	800,000	0,093	0,241
-300,008	129,527	0,078	0,073
-298,993	98,412	-0,050	0,042
-297,978	800,000	0,027	0,080
-296,964	79,159	-0,069	0,054
-295,949	68,434	-0,107	0,080
-294,935	315,970	-0,058	-0,080
-293,920	-200,000	0,005	0,095
-292,905	-200,000	0,025	0,149
-291,891	-200,000	0,005	0,090
-290,876	-200,000	-0,026	0,207
-289,862	-200,000	-0,031	0,172
-288,847	321,507	-0,060	0,083
-287,832	98,217	0,112	-0,094
-286,818	-200,000	0,005	-0,033
-285,803	800,000	0,013	0,042
-284,789	179,989	-0,037	-0,040
-283,774	36,102	0,040	0,026
-282,759	528,727	0,050	-0,086
-281,745	-119,238	-0,097	-0,012
-280,730	-97,882	0,164	-0,031
-279,716	-200,000	-0,019	0,062
-278,701	729,732	-0,022	0,044
-277,686	-28,513	0,139	0,059
-276,672	387,066	0,070	0,107
-275,657	0,377	-0,151	-0,079
-274,643	-109,731	-0,111	0,017
-273,628	286,294	0,063	-0,083
-272,613	90,115	-0,100	-0,082
-271,599	191,889	0,120	-0,132
-270,584	128,881	-0,065	0,061
-269,570	279,267	0,060	0,079
-268,555	630,541	-0,134	-0,250
-267,540	-200,000	0,005	0,133
-266,526	-200,000	-0,001	0,118
-265,511	266,513	-0,050	-0,064
-264,497	-14,999	0,047	-0,022
-263,482	-200,000	-0,002	0,026
-262,467	707,661	0,038	-0,075
-261,453	-8,309	-0,093	-0,045
-260,438	-64,281	0,089	-0,026
-259,424	800,000	-0,062	-0,154
-258,409	-200,000	0,001	0,067
-257,395	650,952	0,057	0,108
-256,380	96,211	0,143	-0,120
-255,365	-33,803	-0,133	0,054
-254,351	-150,294	0,116	-0,006
-253,336	-16,402	-0,037	0,017
-252,322	43,245	-0,160	-0,106
-251,307	507,390	-0,049	-0,084
-250,292	-23,560	0,208	-0,091
-249,278	-125,832	-0,040	-0,004
-248,263	-17,715	0,152	0,069
-247,249	-200,000	-0,013	0,110
-246,234	144,191	-0,130	0,127
-245,219	-200,000	-0,023	-0,077
-244,205	-200,000	-0,012	-0,170
-243,190	282,813	-0,025	0,033
-242,176	-182,970	0,074	-0,001
-241,161	-200,000	0,026	-0,092
-240,146	365,801	0,083	0,122
-239,132	-200,000	-0,007	0,057
-238,117	128,600	0,031	0,028
-237,103	-51,608	-0,064	-0,022
-236,088	-200,000	0,008	0,104
-235,073	319,793	0,047	0,066
-234,059	-200,000	-0,002	0,061
-233,044	-15,510	0,072	-0,033
-232,030	144,265	-0,136	-0,133
-231,015	-62,206	0,055	-0,017
-230,000	800,000	0,035	-0,111
-228,986	46,796	0,063	0,042
-227,971	-200,000	-0,008	0,118
-226,957	800,000	0,061	0,130
-225,942	58,705	-0,065	0,047
-224,927	-73,189	-0,156	0,042
-223,913	-200,000	0,014	0,168
-222,898	-146,646	-0,032	0,002
-221,884	-18,661	-0,041	-0,018
-220,869	167,910	0,140	-0,146
-219,855	-3,573	-0,036	-0,018
-218,840	-122,445	0,117	0,014
-217,825	-200,000	-0,031	-0,153
-216,811	129,491	-0,019	-0,018
-215,796	-65,310	0,154	-0,045
-214,782	-178,726	0,189	0,003
-213,767	287,086	0,039	-0,052
-212,752	-200,000	0,019	0,067
-211,738	382,489	0,081	-0,121
-210,723	68,573	-0,024	0,018
-209,709	-96,490	-0,045	0,009
-208,694	-200,000	-0,011	-0,094
-207,679	-200,000	0,022	-0,141
-206,665	422,513	-0,032	0,050
-205,650	547,595	0,034	0,059
-204,636	72,845	0,037	-0,028
-203,621	264,754	0,099	0,126
-202,606	-138,495	-0,064	0,005
-201,592	568,158	-0,060	-0,108
-200,577	247,997	-0,091	-0,112
-199,563	-110,807	0,088	-0,013
-198,548	56,629	0,099	-0,070
-197,533	500,795	0,040	0,068
-196,519	64,987	-0,046	0,034
-195,504	269,079	-0,024	0,031
-194,490	-59,409	0,077	0,024
-193,475	800,000	-0,056	-0,141
-192,460	-139,066	0,113	-0,009
-191,446	234,664	0,035	0,042
-190,431	-200,000	0,009	0,047
-189,417	289,341	0,053	0,071
-188,402	-80,516	-0,131	-0,032
-187,387	-125,194	-0,065	-0,007
-186,373	-200,000	-0,020	-0,108
-185,358	-200,000	-0,010	-0,089
-184,344	58,127	0,117	-0,083
-183,329	-67,244	-0,103	0,029
-182,315	-72,302	0,119	0,032
-181,300	-200,000	0,006	-0,045
-180,285	172,308	0,069	0,072
-179,271	-15,752	0,097	-0,045
-178,256	-200,000	0,016	0,180
-177,242	-53,817	0,023	0,007
-176,227	-200,000	0,001	0,144
-175,212	87,928	0,099	0,080
-174,198	-115,548	0,093	0,013
-173,183	800,000	0,056	-0,137
-172,169	-200,000	0,002	-0,012
-171,154	637,803	-0,053	-0,098
-170,139	-200,000	0,059	0,000
-169,125	19,614	0,141	0,083
-168,110	-112,204	-0,032	-0,005
-167,096	164,766	0,050	0,052
-166,081	-42,117	-0,080	0,030
-165,066	60,419	0,059	0,043
-164,052	800,000	-0,048	-0,109
-163,037	-200,000	-0,010	0,055
-162,023	306,157	0,032	0,043
-161,008	-200,000	-0,018	0,067
-159,993	-200,000	-0,003	-0,080
-158,979	800,000	-0,063	0,155
-157,964	274,973	0,073	-0,095
-156,950	-200,000	0,020	-0,080
-155,935	-51,693	0,056	-0,019
-154,920	-143,177	-0,118	-0,008
-153,906	542,770	0,071	0,124
-152,891	-200,000	-0,003	0,104
-151,877	603,715	-0,032	-0,058
-150,862	141,222	-0,102	0,098
-149,847	16,137	-0,135	0,077
-148,833	103,297	-0,011	0,009
-147,818	140,488	-0,104	0,100
-146,804	-200,000	-0,004	-0,078
-145,789	-126,051	0,094	-0,010
-144,775	636,378	-0,063	-0,116
-143,760	-200,000	-0,011	-0,042
-142,745	-125,281	0,027	-0,003
-141,731	576,476	-0,021	-0,038
-140,716	57,146	0,125	0,089
-139,702	249,640	0,079	-0,098
-138,687	800,000	0,078	-0,179
-137,672	348,903	-0,069	-0,100
-136,658	381,497	-0,015	0,023
-135,643	-72,489	-0,014	-0,004
-134,629	15,276	-0,088	0,050
-133,614	800,000	0,053	0,110
-132,599	180,649	-0,061	0,065
-131,585	594,549	0,038	0,068
-130,570	28,695	0,088	0,054
-129,556	800,000	0,026	-0,069
-128,541	426,544	-0,073	-0,115
-127,526	-200,000	-0,005	-0,024
-126,512	288,322	0,070	0,093
-125,497	-130,157	-0,126	-0,012
-124,483	418,124	-0,054	0,085
-123,468	-200,000	-0,019	0,127
-122,453	165,622	-0,033	0,034
-121,439	-145,193	-0,139	0,009
-120,424	47,084	-0,112	-0,076
-119,410	38,598	0,015	0,010
