DTS Sentinel unit serial number:	SN410029Multiplexer serial number:	ORYXHardware model number:	OX2-SRSoftware version number:	ORYX F/W v4,00 Oryx Data Collector v3.7.2.0data status	okinstallation	B6 Nyhavnadifferential loss correction	single-endedforward channel	channel 2reverse channel	N/Adate	2023/12/10time	23:30:08forward acquisition time	300,00reverse acquisition time	0,00gamma	499,1914k internal	0,3122k external	0,3122temperature offset calibration	1,0000default loss term (dB/km)	0,3820temperature slope calibration	1,0000multiplexer offset coefficient	1,0000multiplexer slope coefficient	1,0000fibre end	0,00T internal ref (°C)	22,38T ext. ref 1 (°C)	6,11T ext. ref 2 (°C)	6,11length (m)	temperature (°C)	Stokes	anti-Stokes-744,400	174,890	0,050	-0,054
-743,385	-106,296	-0,230	-0,038
-742,371	-21,529	0,117	-0,053
-741,356	-61,471	-0,210	0,065
-740,342	-200,000	-0,024	-0,088
-739,327	-66,932	-0,178	0,052
-738,312	-200,000	-0,008	-0,169
-737,298	38,200	-0,091	-0,060
-736,283	110,754	-0,178	-0,160
-735,269	-21,758	-0,153	-0,069
-734,254	-81,738	0,205	-0,050
-733,239	-178,395	-0,424	0,007
-732,225	-41,779	0,136	0,052
-731,210	-98,661	0,103	0,019
-730,196	-11,914	0,123	0,060
-729,181	402,583	-0,084	-0,132
-728,167	-159,482	0,073	-0,003
-727,152	-52,717	-0,068	0,023
-726,137	111,376	-0,110	-0,099
-725,123	-118,648	-0,057	0,007
-724,108	-200,000	0,004	-0,069
-723,094	-200,000	-0,003	-0,081
-722,079	-144,432	-0,109	-0,007
-721,064	800,000	-0,033	-0,092
-720,050	658,062	-0,044	0,085
-719,035	-200,000	-0,005	-0,023
-718,021	-200,000	0,010	0,134
-717,006	-36,174	-0,045	0,018
-715,991	-200,000	0,002	-0,020
-714,977	98,235	0,142	-0,121
-713,962	-200,000	0,024	0,117
-712,948	108,506	-0,029	-0,026
-711,933	103,811	0,028	0,025
-710,918	335,606	-0,063	-0,091
-709,904	-49,802	-0,166	-0,059
-708,889	-73,055	-0,026	0,007
-707,875	-111,370	-0,069	-0,010
-706,860	-153,293	0,066	-0,003
-705,845	50,136	0,053	-0,037
-704,831	800,000	-0,027	0,062
-703,816	-200,000	0,000	-0,086
-702,802	-18,026	-0,035	0,016
-701,787	50,425	-0,087	-0,061
-700,772	800,000	0,003	-0,010
-699,758	-64,572	-0,112	0,034
-698,743	-54,092	0,065	0,022
-697,729	800,000	-0,054	-0,146
-696,714	124,509	0,098	0,092
-695,699	19,347	-0,092	-0,055
-694,685	-58,352	0,009	-0,003
-693,670	800,000	-0,053	0,124
-692,656	-200,000	-0,004	-0,130
-691,641	-200,000	0,026	-0,125
-690,627	50,871	0,044	-0,031
-689,612	-90,806	-0,075	-0,016
-688,597	502,437	0,033	-0,056
-687,583	-149,877	-0,099	0,006
-686,568	49,320	-0,057	0,040
-685,554	-200,000	-0,016	0,090
-684,539	-200,000	0,002	0,005
-683,524	368,116	-0,043	-0,065
-682,510	705,495	0,017	0,034
-681,495	-45,662	-0,128	0,047
-680,481	-130,557	-0,089	-0,009
-679,466	-73,180	-0,153	0,041
-678,451	-200,000	-0,051	-0,198
-677,437	-200,000	-0,018	-0,088
-676,422	-110,141	-0,045	-0,007
-675,408	-47,627	0,048	-0,017
-674,393	593,892	-0,037	-0,068
-673,378	-200,000	0,021	-0,153
-672,364	-200,000	0,048	-0,182
-671,349	-200,000	0,008	-0,115
-670,335	800,000	-0,006	-0,019
-669,320	44,435	-0,013	0,009
-668,305	-50,041	0,097	-0,034
-667,291	313,632	-0,015	-0,021
-666,276	-73,705	-0,150	-0,040
-665,262	-115,937	-0,038	-0,005
-664,247	400,346	-0,040	-0,063
-663,232	77,184	0,190	0,150
-662,218	434,139	-0,054	0,087
-661,203	800,000	-0,047	0,125
-660,189	-113,278	-0,059	0,009
-659,174	-84,872	-0,180	-0,042
-658,159	-200,000	-0,018	-0,082
-657,145	-31,811	0,136	-0,056
-656,130	787,477	0,044	-0,091
-655,116	-200,000	0,005	0,066
-654,101	54,591	0,048	0,034
-653,086	27,366	-0,093	0,058
-652,072	283,305	-0,034	0,045
-651,057	-200,000	-0,052	-0,207
-650,043	-78,046	-0,059	0,015
-649,028	-121,481	-0,068	0,008
-648,014	83,573	0,158	-0,128
-646,999	214,182	-0,015	0,018
-645,984	-200,000	0,023	0,124
-644,970	-141,256	0,066	-0,005
-643,955	-200,000	-0,014	0,084
-642,941	182,049	-0,060	-0,065
-641,926	-71,699	-0,093	0,026
-640,911	23,556	-0,078	0,047
-639,897	-200,000	0,012	0,099
-638,882	49,892	-0,024	-0,017
-637,868	-200,000	0,020	0,088
-636,853	453,332	-0,045	-0,074
-635,838	-51,520	-0,057	-0,020
-634,824	365,406	-0,090	-0,136
-633,809	800,000	-0,015	-0,036
-632,795	-200,000	0,021	-0,079
-631,780	800,000	0,017	0,043
-630,765	-22,788	-0,097	-0,043
-629,751	-132,329	-0,132	0,012
-628,736	205,546	-0,078	-0,090
-627,722	-200,000	0,007	0,035
-626,707	178,359	0,057	-0,062
-625,692	-30,857	-0,058	0,024
-624,678	-91,401	0,103	-0,022
-623,663	235,578	-0,103	-0,126
-622,649	44,097	-0,146	-0,099
-621,634	463,011	0,054	-0,090
-620,619	66,891	-0,079	-0,059
-619,605	338,157	-0,089	0,129
-618,590	-200,000	-0,017	-0,074
-617,576	130,025	0,139	-0,132
-616,561	800,000	0,038	-0,120
-615,546	800,000	0,025	-0,077
-614,532	599,634	-0,056	0,104
-613,517	437,400	-0,024	0,038
-612,503	49,756	0,037	-0,026
-611,488	-200,000	0,001	0,064
-610,474	-71,097	-0,120	-0,033
-609,459	-49,825	-0,089	-0,031
-608,444	-200,000	0,013	-0,142
-607,430	363,624	0,075	-0,112
-606,415	-200,000	0,020	-0,102
-605,401	-136,652	-0,083	0,007
-604,386	108,902	-0,004	-0,004
-603,371	56,442	0,100	0,072
-602,357	-83,378	0,133	0,031
-601,342	168,240	-0,077	-0,081
-600,328	28,679	-0,171	0,107
-599,313	29,692	0,219	-0,138
-598,298	171,041	-0,075	-0,080
-597,284	-200,000	-0,011	-0,094
-596,269	-164,813	-0,065	0,002
-595,255	-47,239	0,100	0,036
-594,240	370,067	-0,088	-0,133
-593,225	66,179	-0,055	-0,041
-592,211	-200,000	0,024	-0,103
-591,196	-200,000	0,003	-0,013
-590,182	-200,000	-0,006	0,111
-589,167	-31,570	0,206	0,085
-588,152	-38,892	-0,072	0,028
-587,138	-94,518	-0,069	0,014
-586,123	800,000	0,021	-0,067
-585,109	800,000	0,017	0,038
-584,094	32,225	0,015	-0,010
-583,079	-91,244	-0,132	0,028
-582,065	472,931	0,047	0,079
-581,050	339,383	0,094	0,136
-580,036	800,000	-0,005	0,018
-579,021	368,524	0,113	-0,169
-578,006	692,494	-0,038	-0,073
-576,992	90,834	0,081	-0,067
-575,977	-200,000	0,016	-0,133
-574,963	800,000	-0,031	-0,068
-573,948	800,000	0,023	0,049
-572,934	-113,591	-0,120	0,017
-571,919	-115,199	0,065	-0,009
-570,904	-39,132	-0,136	-0,053
-569,890	73,241	0,081	-0,063
-568,875	-200,000	-0,003	0,027
-567,861	74,833	0,050	0,039
-566,846	800,000	-0,010	-0,022
-565,831	128,706	0,044	0,041
-564,817	526,405	-0,039	-0,068
-563,802	-108,405	-0,145	0,023
-562,788	-200,000	0,001	-0,118
-561,773	800,000	0,034	-0,073
-560,758	-200,000	-0,029	0,128
-559,744	-22,079	0,044	-0,020
-558,729	709,832	0,038	0,074
-557,715	124,006	-0,033	-0,031
-556,700	349,338	0,046	-0,068
-555,685	468,038	-0,034	0,056
-554,671	486,091	0,070	0,118
-553,656	88,388	0,147	0,121
-552,642	-74,436	0,087	-0,023
-551,627	-200,000	-0,002	0,092
-550,612	11,629	-0,042	-0,024
-549,598	143,480	-0,103	-0,102
-548,583	146,275	0,012	-0,012
-547,569	800,000	-0,005	0,014
-546,554	315,525	0,044	-0,062
-545,539	-63,503	-0,126	0,038
-544,525	-91,561	0,052	-0,011
-543,510	279,366	0,043	-0,057
-542,496	258,863	0,008	0,010
-541,481	-200,000	0,007	0,026
-540,466	-91,087	-0,063	-0,013
-539,452	221,378	-0,049	-0,058
-538,437	283,561	0,076	-0,101
-537,423	800,000	-0,029	0,062
-536,408	-122,589	-0,068	-0,008
-535,393	30,009	-0,069	0,043
-534,379	-26,674	-0,123	0,053
-533,364	-200,000	-0,011	-0,077
-532,350	-116,588	0,072	-0,010
-531,335	123,332	0,049	-0,045
-530,321	89,572	0,072	0,060
-529,306	800,000	0,062	0,132
-528,291	800,000	-0,048	0,104
-527,277	401,013	0,031	0,048
-526,262	32,797	-0,032	-0,020
-525,248	800,000	-0,062	0,129
-524,233	-89,879	0,134	0,029
-523,218	128,430	-0,047	0,044
-522,204	800,000	-0,036	-0,092
-521,189	67,496	0,131	-0,099
-520,175	-200,000	-0,010	-0,123
-519,160	-157,431	0,118	0,005
-518,145	-200,000	0,011	-0,119
-517,131	-42,056	0,118	-0,044
-516,116	-150,342	0,059	0,003
-515,102	17,966	0,051	0,030
-514,087	-200,000	0,002	0,009
-513,072	51,791	-0,069	0,049
-512,058	18,690	-0,069	0,041
-511,043	-200,000	0,015	0,066
-510,029	-200,000	0,022	-0,087
-509,014	-86,049	0,090	0,020
-507,999	-200,000	-0,002	0,053
-506,985	-113,337	-0,081	0,012
-505,970	-78,911	-0,123	-0,031
-504,956	800,000	0,033	-0,079
-503,941	395,111	-0,015	0,023
-502,926	83,866	-0,026	0,021
-501,912	-200,000	-0,013	0,085
-500,897	243,755	0,050	0,062
-499,883	100,375	0,074	0,064
-498,868	-200,000	-0,009	0,049
-497,853	-97,080	0,055	0,011
-496,839	-67,452	-0,157	-0,045
-495,824	-92,892	-0,151	0,031
-494,810	195,263	0,014	-0,016
-493,795	53,037	0,104	-0,073
-492,781	1,202	-0,136	-0,072
-491,766	-120,164	0,012	-0,002
-490,751	56,024	0,083	-0,059
-489,737	687,825	0,051	-0,099
-488,722	-200,000	-0,037	0,152
-487,708	-200,000	0,014	0,142
-486,693	-200,000	0,013	0,130
-485,678	-200,000	0,013	0,103
-484,664	-200,000	0,009	-0,181
-483,649	800,000	-0,060	-0,137
-482,635	-200,000	-0,007	-0,038
-481,620	-97,913	0,137	-0,026
-480,605	-142,553	-0,009	0,001
-479,591	51,991	-0,074	0,052
-478,576	-137,511	-0,094	-0,008
-477,562	-17,652	-0,107	0,049
-476,547	-3,146	-0,039	0,020
-475,532	255,911	0,027	0,035
-474,518	-99,219	0,074	-0,014
-473,503	155,432	0,061	-0,062
-472,489	800,000	0,007	-0,024
-471,474	310,176	0,035	-0,049
-470,459	-127,955	-0,054	0,006
-469,445	-162,912	-0,029	-0,001
-468,430	10,667	0,014	0,008
-467,416	-128,431	0,045	-0,005
-466,401	-200,000	-0,010	-0,065
-465,386	159,856	0,044	0,046
-464,372	470,429	-0,046	0,076
-463,357	-115,406	-0,126	-0,017
-462,343	-64,448	-0,095	0,028
-461,328	-162,888	-0,023	-0,001
-460,313	-200,000	0,003	-0,012
-459,299	60,552	0,017	0,012
-458,284	612,933	0,028	0,052
-457,270	90,495	-0,015	0,012
-456,255	800,000	0,025	-0,069
-455,241	-200,000	0,027	-0,177
-454,226	179,625	-0,084	-0,090
-453,211	-200,000	0,003	0,015
-452,197	168,966	-0,068	0,071
-451,182	14,614	-0,099	0,057
-450,168	-75,305	0,118	0,031
-449,153	-125,124	-0,134	-0,015
-448,138	-200,000	0,022	0,128
-447,124	-200,000	-0,002	-0,078
-446,109	800,000	0,015	0,031
-445,095	800,000	0,012	0,027
-444,080	-127,802	0,135	-0,014
-443,065	-200,000	-0,006	0,100
-442,051	-200,000	-0,004	0,097
-441,036	78,172	-0,073	-0,057
-440,022	-116,094	-0,109	-0,015
-439,007	-200,000	0,006	-0,064
-437,992	-54,296	-0,038	0,013
-436,978	-74,911	0,034	-0,009
-435,963	-47,783	0,099	0,035
-434,949	379,658	-0,089	0,135
-433,934	483,170	-0,080	-0,134
-432,919	-146,013	0,090	-0,006
-431,905	-20,839	0,128	0,058
-430,890	-71,384	0,063	0,017
-429,876	298,140	0,048	0,065
-428,861	-200,000	0,011	0,097
-427,846	121,719	-0,075	-0,069
-426,832	-200,000	0,000	0,064
-425,817	-200,000	-0,017	-0,152
-424,803	3,561	-0,054	0,029
-423,788	-103,419	0,102	0,017
-422,773	298,463	-0,127	0,173
-421,759	800,000	0,051	0,134
-420,744	-4,086	-0,091	0,046
-419,730	45,189	-0,076	0,052
-418,715	-200,000	0,020	0,120
-417,701	-88,597	-0,082	0,018
-416,686	-30,497	0,067	-0,028
-415,671	-200,000	0,031	0,143
-414,657	-200,000	0,004	0,154
-413,642	-200,000	0,006	0,133
-412,628	800,000	0,006	0,018
-411,613	-200,000	-0,006	-0,109
-410,598	689,835	0,023	-0,044
-409,584	96,883	0,093	-0,078
-408,569	-200,000	-0,019	-0,176
-407,555	25,051	0,069	0,042
-406,540	44,154	-0,025	0,017
-405,525	-200,000	0,018	0,197
-404,511	284,423	-0,087	-0,115
-403,496	4,140	0,072	-0,039
-402,482	-122,459	0,046	0,005
-401,467	549,437	-0,022	0,039
-400,452	59,524	-0,062	-0,045
-399,438	-79,510	-0,035	0,009
-398,423	159,215	0,080	0,082
-397,409	92,446	-0,024	-0,020
-396,394	-28,968	-0,077	0,032
-395,379	430,775	0,068	-0,109
-394,365	-200,000	0,011	0,094
-393,350	800,000	-0,026	0,078
-392,336	-40,777	0,123	0,047
-391,321	49,403	-0,065	-0,045
-390,306	-132,028	0,110	0,010
-389,292	800,000	0,010	-0,025
-388,277	-133,543	-0,086	-0,008
-387,263	-155,342	0,109	-0,005
-386,248	10,084	-0,039	-0,022
-385,233	-125,876	-0,150	-0,016
-384,219	412,682	0,043	0,068
-383,204	-42,487	-0,132	-0,049
-382,190	-17,647	0,058	0,027
-381,175	-132,044	-0,132	0,012
-380,160	755,080	0,033	-0,065
-379,146	-93,992	0,154	-0,031
-378,131	-200,000	-0,004	-0,081
-377,117	411,041	-0,101	-0,157
-376,102	800,000	0,023	-0,075
-375,088	36,371	0,033	-0,022
-374,073	42,856	0,018	-0,012
-373,058	-4,322	0,024	0,012
-372,044	800,000	-0,008	-0,025
-371,029	-200,000	-0,004	0,096
-370,015	800,000	-0,022	-0,047
-369,000	84,760	-0,024	-0,019
-367,985	5,195	-0,113	0,061
-366,971	187,020	-0,087	0,096
-365,956	145,119	0,044	-0,043
-364,942	177,854	0,052	-0,056
-363,927	-200,000	-0,017	0,067
-362,912	68,566	0,048	0,036
-361,898	-200,000	0,008	0,030
-360,883	-200,000	0,032	-0,139
-359,869	-65,219	0,016	0,005
-358,854	68,432	0,023	0,017
-357,839	800,000	0,075	0,172
-356,825	-200,000	0,012	-0,046
-355,810	6,946	0,030	-0,017
-354,796	-200,000	-0,016	-0,100
-353,781	40,518	-0,078	-0,052
-352,766	527,419	0,030	0,051
-351,752	152,618	-0,159	0,160
-350,737	-200,000	-0,006	-0,035
-349,723	774,972	-0,075	-0,150
-348,708	-92,885	0,051	0,010
-347,693	374,807	0,021	0,031
-346,679	-81,426	-0,049	0,012
-345,664	152,275	-0,057	-0,057
-344,650	20,938	0,135	0,080
-343,635	800,000	-0,042	0,095
-342,620	142,536	0,134	0,131
-341,606	722,362	0,069	-0,136
-340,591	76,683	0,067	0,052
-339,577	800,000	-0,086	-0,232
-338,562	653,214	0,067	-0,127
-337,548	-59,334	-0,086	-0,027
-336,533	800,000	0,091	0,231
-335,518	330,888	-0,041	-0,058
-334,504	170,444	0,076	-0,080
-333,489	-200,000	-0,026	0,102
-332,475	339,057	-0,048	0,069
-331,460	-200,000	-0,000	-0,099
-330,445	-50,638	-0,066	0,023
-329,431	99,780	-0,065	0,055
-328,416	-200,000	0,010	0,112
-327,402	-200,000	-0,001	-0,122
-326,387	38,630	0,068	-0,044
-325,372	-200,000	0,040	0,177
-324,358	-200,000	-0,026	-0,133
-323,343	227,277	-0,087	0,104
-322,329	39,381	0,074	0,048
-321,314	-200,000	-0,009	0,079
-320,299	-144,680	-0,129	-0,009
-319,285	24,662	0,058	-0,035
-318,270	-200,000	-0,030	-0,159
-317,256	42,864	0,069	-0,046
-316,241	-1,856	0,091	0,047
-315,226	800,000	0,021	0,055
-314,212	-34,869	0,118	0,047
-313,197	-86,352	-0,035	-0,008
-312,183	-17,996	-0,112	-0,051
-311,168	450,733	-0,026	0,043
-310,153	-39,975	0,059	0,023
-309,139	-75,195	0,077	0,020
-308,124	-133,269	-0,085	0,008
-307,110	267,058	0,042	0,053
-306,095	-200,000	0,002	-0,008
-305,080	2,024	-0,052	0,027
-304,066	-200,000	0,001	0,042
-303,051	143,642	0,044	0,043
-302,037	250,898	-0,039	0,049
-301,022	-122,797	0,123	-0,014
-300,008	-200,000	-0,055	-0,206
-298,993	500,742	0,023	-0,039
-297,978	14,852	0,095	-0,054
-296,964	-159,483	0,068	-0,003
-295,949	800,000	-0,047	-0,106
-294,935	800,000	-0,028	-0,080
-293,920	-200,000	-0,033	-0,132
-292,905	214,339	0,061	0,071
-291,891	-64,887	0,118	0,035
-290,876	-14,055	-0,152	-0,071
-289,862	800,000	0,019	0,060
-288,847	-49,567	-0,128	-0,044
-287,832	800,000	-0,020	-0,056
-286,818	-200,000	0,001	-0,020
-285,803	-45,155	0,072	0,026
-284,789	13,392	0,113	-0,064
-283,774	743,354	0,010	-0,021
-282,759	287,817	-0,054	0,072
-281,745	134,372	0,090	-0,086
-280,730	-197,729	0,041	0,000
-279,716	73,927	0,054	0,042
-278,701	-89,291	0,035	-0,007
-277,686	599,523	-0,047	0,086
-276,672	-72,015	0,079	-0,021
-275,657	-70,622	0,014	0,004
-274,643	800,000	0,043	-0,117
-273,628	245,262	-0,124	0,154
-272,613	800,000	0,024	0,074
-271,599	-200,000	-0,007	-0,032
-270,584	63,517	0,095	0,070
-269,570	800,000	-0,035	0,093
-268,555	-41,952	0,116	0,043
-267,540	800,000	-0,038	0,109
-266,526	-200,000	0,002	-0,066
-265,511	-200,000	0,014	-0,067
-264,497	47,824	0,069	-0,047
-263,482	800,000	0,009	-0,027
-262,467	50,208	0,040	-0,028
-261,453	-200,000	0,011	0,114
-260,438	127,722	-0,093	0,087
-259,424	255,180	-0,117	0,147
-258,409	-184,944	-0,025	0,000
-257,395	-200,000	0,026	-0,095
-256,380	-110,896	0,074	0,011
-255,365	800,000	-0,023	0,068
-254,351	-87,471	0,129	0,028
-253,336	-119,457	-0,087	0,011
-252,322	147,494	-0,101	0,100
-251,307	61,797	-0,073	0,053
-250,292	-200,000	0,022	-0,082
-249,278	-80,521	0,079	0,019
-248,263	-121,521	-0,029	0,004
-247,249	-200,000	-0,020	-0,074
-246,234	-200,000	-0,021	0,228
-245,219	308,675	-0,074	-0,102
-244,205	33,988	0,028	0,018
-243,190	-200,000	-0,003	-0,054
-242,176	106,760	0,044	0,039
-241,161	97,870	-0,053	0,045
-240,146	-112,304	-0,154	0,022
-239,132	-200,000	0,001	-0,017
-238,117	-65,635	-0,080	-0,023
-237,103	-200,000	-0,022	0,110
-236,088	559,740	0,056	-0,100
-235,073	308,769	-0,006	0,008
-234,059	800,000	0,012	-0,034
-233,044	40,997	0,016	0,011
-232,030	-112,431	-0,080	0,012
-231,015	448,369	-0,020	0,033
-230,000	-200,000	0,002	0,029
-228,986	-200,000	0,015	-0,072
-227,971	-120,894	-0,066	0,008
-226,957	170,220	0,082	0,086
-225,942	-200,000	0,017	-0,063
-224,927	180,784	-0,040	0,043
-223,913	-145,301	-0,036	0,002
-222,898	131,668	-0,103	-0,097
-221,884	800,000	-0,050	-0,116
-220,869	273,781	0,068	0,087
-219,855	456,042	-0,083	-0,134
-218,840	466,839	0,027	-0,045
-217,825	-200,000	-0,007	0,062
-216,811	800,000	-0,014	0,034
-215,796	-200,000	0,081	-0,271
-214,782	208,341	-0,043	0,049
-213,767	162,785	0,019	0,020
-212,752	165,961	0,064	0,066
-211,738	-200,000	-0,006	0,022
-210,723	577,938	0,041	-0,073
-209,709	800,000	0,028	-0,086
-208,694	59,139	-0,085	0,061
-207,679	800,000	0,047	0,136
-206,665	-200,000	0,005	-0,038
-205,650	-200,000	0,001	-0,070
-204,636	-21,649	-0,101	0,045
-203,621	-102,756	-0,128	-0,022
-202,606	-200,000	0,008	-0,055
-201,592	800,000	0,016	0,047
-200,577	800,000	-0,069	-0,162
-199,563	-87,001	0,089	-0,020
-198,548	45,692	-0,008	-0,006
-197,533	-59,030	-0,027	0,008
-196,519	103,746	0,103	-0,089
-195,504	800,000	0,075	0,165
-194,490	122,419	0,039	0,035
-193,475	-200,000	-0,009	0,116
-192,460	276,150	0,085	-0,110
-191,446	784,498	-0,038	-0,076
-190,431	25,506	0,170	0,103
-189,417	66,695	0,022	-0,016
-188,402	290,581	0,055	-0,073
-187,387	800,000	0,019	-0,041
-186,373	-200,000	-0,005	0,018
-185,358	-200,000	-0,006	-0,099
-184,344	-72,184	-0,034	-0,009
-183,329	3,593	0,105	0,056
-182,315	-33,011	0,138	-0,056
-181,300	-22,028	0,020	0,009
-180,285	-200,000	-0,009	-0,084
-179,271	8,108	-0,051	0,028
-178,256	123,334	0,022	-0,021
-177,242	183,547	0,106	-0,115
-176,227	-146,141	0,110	-0,007
-175,212	-200,000	0,016	0,148
-174,198	161,243	0,060	0,062
-173,183	-200,000	0,036	-0,137
-172,169	226,732	-0,122	-0,145
-171,154	14,614	-0,103	-0,058
-170,139	800,000	0,048	0,154
-169,125	67,185	-0,037	0,028
-168,110	-200,000	-0,052	0,182
-167,096	2,364	0,043	-0,023
-166,081	202,956	0,043	0,049
-165,066	119,812	-0,080	0,072
-164,052	-103,495	-0,149	-0,025
-163,037	800,000	0,006	-0,012
-162,023	396,997	-0,013	0,020
-161,008	-200,000	-0,013	0,215
-159,993	526,889	0,101	0,174
-158,979	-26,249	-0,059	-0,025
-157,964	261,009	-0,052	-0,065
-156,950	-200,000	0,012	0,052
-155,935	27,095	0,198	0,121
-154,920	-32,160	0,074	-0,030
-153,906	-200,000	0,009	0,145
-152,891	87,577	-0,017	-0,014
-151,877	800,000	-0,024	-0,055
-150,862	-200,000	-0,001	0,013
-149,847	800,000	-0,022	0,049
-148,833	-78,770	0,060	0,015
-147,818	-200,000	-0,003	0,018
-146,804	457,536	0,069	0,112
-145,789	308,692	0,137	0,187
-144,775	-200,000	0,014	-0,050
-143,760	-82,766	-0,022	-0,005
-142,745	455,596	0,022	0,036
-141,731	31,971	0,148	-0,093
-140,716	35,384	0,102	0,065
-139,702	-59,401	-0,031	0,010
-138,687	523,188	0,047	0,081
-137,672	15,127	-0,082	-0,047
-136,658	-80,919	-0,104	0,025
-135,643	159,320	-0,100	-0,101
-134,629	29,595	0,149	0,092
-133,614	119,283	0,080	0,072
-132,599	-2,758	-0,083	0,042
-131,585	25,182	0,147	0,089
-130,570	-101,848	-0,082	-0,014
-129,556	156,021	-0,039	-0,039
-128,541	-85,984	-0,129	0,029
-127,526	2,467	0,045	0,023
-126,512	126,790	-0,026	-0,024
-125,497	163,031	0,007	0,007
-124,483	41,798	-0,022	-0,014
-123,468	39,112	-0,101	0,066
-122,453	800,000	-0,030	-0,095
-121,439	689,864	-0,069	-0,132
-120,424	-200,000	0,003	-0,051
-119,410	391,247	0,016	0,024
-118,395	516,507	-0,050	0,085
