DTS Sentinel unit serial number:	SN410029Multiplexer serial number:	ORYXHardware model number:	OX2-SRSoftware version number:	ORYX F/W v4,00 Oryx Data Collector v3.7.2.0data status	okinstallation	B6 Nyhavnadifferential loss correction	single-endedforward channel	channel 2reverse channel	N/Adate	2023/12/09time	14:35:08forward acquisition time	300,00reverse acquisition time	0,00gamma	499,1914k internal	0,3133k external	0,3133temperature offset calibration	1,0000default loss term (dB/km)	0,3820temperature slope calibration	1,0000multiplexer offset coefficient	1,0000multiplexer slope coefficient	1,0000fibre end	0,00T internal ref (°C)	20,52T ext. ref 1 (°C)	4,30T ext. ref 2 (°C)	4,31length (m)	temperature (°C)	Stokes	anti-Stokes-744,400	-25,619	0,065	-0,028
-743,385	-59,945	-0,381	0,120
-742,371	-200,000	0,021	-0,128
-741,356	-123,616	-0,261	0,030
-740,342	301,725	0,088	0,121
-739,327	-117,921	-0,214	0,028
-738,312	-114,173	0,163	-0,023
-737,298	-91,635	-0,190	0,040
-736,283	-57,330	0,132	0,043
-735,269	16,275	-0,276	0,162
-734,254	800,000	-0,036	0,102
-733,239	-68,149	-0,354	-0,102
-732,225	-3,536	0,046	0,024
-731,210	-99,083	0,122	0,023
-730,196	222,599	-0,064	-0,077
-729,181	-200,000	-0,015	-0,066
-728,167	-185,113	0,193	0,002
-727,152	-14,565	-0,066	-0,031
-726,137	-200,000	-0,016	-0,065
-725,123	-2,840	-0,080	-0,041
-724,108	-130,559	-0,125	-0,012
-723,094	135,233	-0,096	-0,092
-722,079	93,691	-0,149	-0,125
-721,064	341,390	-0,098	0,143
-720,050	-179,949	0,047	-0,001
-719,035	34,290	-0,028	-0,018
-718,021	95,022	-0,036	0,031
-717,006	-126,251	-0,203	-0,022
-715,991	-110,878	0,042	-0,006
-714,977	-135,519	-0,136	-0,012
-713,962	236,861	-0,114	-0,140
-712,948	-74,368	0,048	0,013
-711,933	-200,000	0,029	-0,111
-710,918	-141,592	0,073	-0,005
-709,904	782,956	-0,021	-0,043
-708,889	63,956	-0,008	-0,006
-707,875	267,781	-0,134	-0,175
-706,860	800,000	-0,059	-0,168
-705,845	-84,227	-0,081	-0,019
-704,831	-200,000	0,011	0,092
-703,816	800,000	-0,071	0,148
-702,802	-64,479	-0,163	-0,049
-701,787	110,523	0,106	0,095
-700,772	-200,000	-0,017	-0,126
-699,758	52,274	-0,135	0,095
-698,743	-185,477	-0,138	0,002
-697,729	-200,000	-0,028	0,133
-696,714	-200,000	0,027	-0,159
-695,699	-200,000	-0,037	-0,121
-694,685	304,368	-0,029	-0,040
-693,670	445,775	-0,024	-0,040
-692,656	-17,663	-0,086	0,040
-691,641	-152,345	0,069	-0,004
-690,627	-37,246	0,137	-0,054
-689,612	-144,921	-0,112	0,007
-688,597	-21,709	0,033	0,015
-687,583	-63,061	-0,062	-0,019
-686,568	-3,524	-0,117	-0,060
-685,554	-200,000	-0,025	-0,145
-684,539	99,623	0,065	-0,056
-683,524	-200,000	-0,017	-0,077
-682,510	800,000	-0,061	0,151
-681,495	-100,892	-0,037	0,007
-680,481	-200,000	0,027	-0,122
-679,466	-101,370	-0,073	-0,013
-678,451	-200,000	-0,019	-0,063
-677,437	-35,392	0,040	0,016
-676,422	-128,607	0,104	0,011
-675,408	-158,603	-0,082	-0,003
-674,393	116,568	0,021	0,019
-673,378	-137,434	-0,014	-0,001
-672,364	387,373	-0,069	-0,106
-671,349	-200,000	0,025	0,118
-670,335	93,477	-0,117	-0,098
-669,320	313,920	0,029	0,040
-668,305	-12,897	-0,045	0,022
-667,291	800,000	-0,012	-0,032
-666,276	-17,426	-0,031	-0,014
-665,262	800,000	0,014	0,044
-664,247	316,131	-0,036	0,050
-663,232	-2,149	-0,130	-0,067
-662,218	-154,306	0,114	-0,006
-661,203	206,168	-0,076	-0,088
-660,189	-200,000	0,004	0,063
-659,174	166,128	-0,038	-0,040
-658,159	-46,518	-0,031	-0,011
-657,145	339,662	0,036	-0,052
-656,130	800,000	0,026	0,067
-655,116	-200,000	0,012	-0,061
-654,101	434,867	-0,010	0,016
-653,086	25,294	0,084	-0,051
-652,072	268,706	-0,080	-0,105
-651,057	462,984	-0,049	-0,082
-650,043	-71,768	-0,096	-0,026
-649,028	23,768	0,125	0,076
-648,014	115,820	-0,076	-0,069
-646,999	800,000	-0,014	-0,029
-645,984	-9,545	0,117	0,058
-644,970	-93,066	-0,042	-0,009
-643,955	367,330	-0,078	-0,117
-642,941	-200,000	-0,032	-0,131
-641,926	-200,000	0,024	-0,103
-640,911	-92,517	0,072	0,015
-639,897	-200,000	0,007	0,041
-638,882	-200,000	-0,011	-0,064
-637,868	66,198	-0,084	-0,063
-636,853	52,685	-0,139	-0,098
-635,838	299,027	-0,028	-0,039
-634,824	1,050	-0,080	-0,043
-633,809	220,489	-0,063	-0,075
-632,795	-200,000	0,006	-0,070
-631,780	120,364	0,146	0,134
-630,765	444,614	-0,038	-0,062
-629,751	-200,000	-0,016	-0,129
-628,736	-200,000	-0,011	-0,115
-627,722	-200,000	-0,056	-0,185
-626,707	143,778	0,118	-0,117
-625,692	678,310	0,023	0,044
-624,678	-200,000	-0,011	0,100
-623,663	-200,000	-0,009	-0,174
-622,649	-110,954	-0,135	-0,020
-621,634	657,551	0,070	0,133
-620,619	-92,114	-0,206	-0,043
-619,605	-148,389	-0,096	-0,006
-618,590	-135,709	0,153	0,013
-617,576	800,000	-0,043	0,126
-616,561	800,000	-0,023	-0,061
-615,546	681,321	-0,051	-0,099
-614,532	37,925	0,046	0,030
-613,517	310,696	-0,042	0,058
-612,503	-78,150	-0,145	0,037
-611,488	-44,786	0,143	-0,053
-610,474	-128,219	0,022	0,002
-609,459	55,711	-0,080	0,057
-608,444	-200,000	0,010	-0,032
-607,430	152,414	0,103	-0,104
-606,415	503,906	-0,040	-0,068
-605,401	-200,000	0,009	0,049
-604,386	-200,000	0,025	-0,096
-603,371	-34,479	0,044	0,018
-602,357	-200,000	0,005	-0,044
-601,342	-82,722	-0,121	0,029
-600,328	800,000	-0,031	-0,084
-599,313	-200,000	-0,015	-0,114
-598,298	-40,247	-0,175	0,067
-597,284	800,000	0,032	-0,066
-596,269	-122,414	0,083	-0,010
-595,255	157,376	0,082	0,083
-594,240	-137,641	-0,099	-0,008
-593,225	394,732	0,058	0,090
-592,211	80,508	-0,076	-0,061
-591,196	81,521	-0,037	-0,029
-590,182	-37,608	-0,080	-0,031
-589,167	383,196	0,085	0,130
-588,152	-200,000	0,014	0,051
-587,138	47,247	0,034	0,024
-586,123	335,033	-0,044	-0,064
-585,109	-49,523	-0,095	-0,033
-584,094	29,718	-0,180	-0,113
-583,079	-122,993	0,023	-0,003
-582,065	-9,601	0,035	-0,017
-581,050	192,562	-0,098	0,110
-580,036	110,170	-0,090	-0,080
-579,021	-200,000	0,007	-0,156
-578,006	505,817	-0,016	0,027
-576,992	-200,000	0,002	0,115
-575,977	417,003	0,063	0,100
-574,963	-200,000	0,008	-0,071
-573,948	-117,163	0,057	0,008
-572,934	-174,604	-0,042	-0,001
-571,919	800,000	0,025	0,058
-570,904	296,623	0,094	-0,127
-569,890	102,961	-0,125	-0,108
-568,875	-32,758	0,037	-0,015
-567,861	44,340	0,092	-0,063
-566,846	-87,517	-0,061	-0,013
-565,831	-200,000	0,031	0,147
-564,817	226,603	-0,081	0,098
-563,802	68,799	-0,085	-0,064
-562,788	670,257	0,011	0,021
-561,773	-66,383	0,120	-0,035
-560,758	574,759	0,044	-0,080
-559,744	302,463	0,068	-0,093
-558,729	-179,109	-0,074	0,001
-557,715	127,582	-0,047	-0,044
-556,700	569,215	-0,055	-0,099
-555,685	800,000	-0,027	-0,085
-554,671	-48,910	0,020	-0,007
-553,656	800,000	-0,027	0,066
-552,642	103,200	-0,019	-0,017
-551,627	44,007	0,160	0,108
-550,612	131,238	0,065	0,062
-549,598	126,081	-0,031	-0,029
-548,583	800,000	-0,042	0,089
-547,569	798,292	0,083	-0,170
-546,554	-62,786	0,031	0,009
-545,539	95,675	-0,093	-0,079
-544,525	-183,583	0,053	0,001
-543,510	10,266	-0,107	-0,060
-542,496	-200,000	-0,010	-0,038
-541,481	-200,000	0,001	0,027
-540,466	243,870	0,104	0,129
-539,452	-200,000	-0,019	0,184
-538,437	59,983	0,120	0,087
-537,423	252,252	0,049	-0,062
-536,408	-47,157	-0,074	0,027
-535,393	-200,000	0,009	-0,043
-534,379	-7,978	-0,144	-0,071
-533,364	490,944	-0,046	-0,078
-532,350	-162,019	-0,107	-0,004
-531,335	-88,203	0,145	0,032
-530,321	-91,556	-0,073	0,015
-529,306	560,272	0,014	0,026
-528,291	128,783	-0,006	-0,006
-527,277	-200,000	-0,007	-0,055
-526,262	-9,370	-0,031	-0,015
-525,248	-79,710	-0,090	-0,022
-524,233	5,386	-0,095	-0,051
-523,218	800,000	0,040	0,094
-522,204	-25,259	-0,039	0,017
-521,189	-1,607	0,039	0,020
-520,175	486,229	-0,017	0,029
-519,160	649,641	-0,056	-0,105
-518,145	147,599	0,023	0,023
-517,131	800,000	-0,045	0,144
-516,116	-107,112	0,050	0,008
-515,102	592,052	-0,037	-0,067
-514,087	63,320	0,073	0,054
-513,072	-200,000	-0,022	-0,142
-512,058	-0,489	-0,088	-0,046
-511,043	-200,000	0,012	-0,104
-510,029	58,047	-0,063	0,046
-509,014	-137,870	0,188	0,015
-507,999	-64,785	0,040	0,012
-506,985	80,320	-0,051	-0,040
-505,970	-200,000	0,026	-0,137
-504,956	299,216	-0,080	0,108
-503,941	-5,933	0,037	-0,019
-502,926	-154,880	-0,083	-0,004
-501,912	-200,000	-0,035	0,222
-500,897	303,137	-0,064	0,088
-499,883	-37,851	-0,050	0,020
-498,868	-200,000	0,003	-0,110
-497,853	-137,216	0,195	0,016
-496,839	-200,000	-0,004	-0,096
-495,824	800,000	0,031	-0,091
-494,810	166,128	0,042	0,043
-493,795	411,586	-0,070	-0,110
-492,781	28,492	-0,040	-0,025
-491,766	-33,772	-0,093	-0,037
-490,751	-200,000	0,022	0,089
-489,737	-68,407	0,110	-0,031
-488,722	683,860	0,057	0,111
-487,708	33,970	0,077	0,049
-486,693	70,936	-0,034	0,026
-485,678	635,624	-0,020	-0,037
-484,664	-200,000	0,014	-0,057
-483,649	379,261	0,046	0,069
-482,635	33,675	0,091	0,058
-481,620	800,000	-0,017	0,034
-480,605	109,268	0,043	0,038
-479,591	-200,000	-0,025	-0,093
-478,576	258,098	0,098	0,124
-477,562	-200,000	-0,036	-0,118
-476,547	147,687	-0,147	-0,146
-475,532	184,866	-0,042	-0,046
-474,518	1,065	-0,047	-0,024
-473,503	-32,711	0,167	0,068
-472,489	335,430	-0,085	0,122
-471,474	88,940	-0,105	0,086
-470,459	-51,232	-0,026	0,009
-469,445	772,608	-0,025	0,051
-468,430	-200,000	0,006	-0,070
-467,416	297,134	0,074	-0,100
-466,401	8,272	-0,078	0,043
-465,386	-95,241	-0,038	-0,007
-464,372	86,804	0,119	-0,096
-463,357	-178,980	-0,060	0,001
-462,343	658,510	0,037	0,069
-461,328	32,097	0,021	0,013
-460,313	-120,622	0,033	0,004
-459,299	125,572	-0,104	0,096
-458,284	-6,399	-0,071	0,036
-457,270	-68,969	0,059	-0,017
-456,255	121,378	-0,027	-0,025
-455,241	-200,000	-0,031	-0,119
-454,226	43,912	0,091	0,061
-453,211	36,161	-0,053	0,034
-452,197	800,000	0,014	0,037
-451,182	-57,565	-0,023	0,007
-450,168	-200,000	-0,009	0,035
-449,153	-200,000	0,026	0,121
-448,138	-200,000	0,007	-0,061
-447,124	408,574	0,054	0,084
-446,109	-200,000	-0,024	-0,078
-445,095	25,702	0,120	-0,073
-444,080	185,065	0,075	0,082
-443,065	-11,543	-0,081	-0,039
-442,051	139,179	0,051	-0,049
-441,036	-25,243	-0,023	-0,010
-440,022	266,188	0,041	-0,052
-439,007	73,633	0,079	-0,060
-437,992	-121,062	0,056	-0,007
-436,978	323,679	-0,030	0,042
-435,963	-200,000	-0,019	0,126
-434,949	155,198	-0,147	0,149
-433,934	800,000	-0,020	0,060
-432,919	-200,000	-0,000	-0,121
-431,905	800,000	0,033	-0,085
-430,890	-138,988	-0,172	0,014
-429,876	-112,072	0,074	-0,011
-428,861	140,660	-0,070	0,068
-427,846	383,274	0,092	0,139
-426,832	-200,000	0,000	-0,062
-425,817	46,433	-0,144	-0,098
-424,803	23,326	0,078	-0,047
-423,788	272,590	0,035	0,045
-422,773	456,177	0,085	0,139
-421,759	-200,000	0,026	0,093
-420,744	800,000	0,027	-0,072
-419,730	527,606	-0,049	0,086
-418,715	-200,000	-0,041	-0,177
-417,701	-200,000	-0,030	-0,117
-416,686	-67,161	0,116	0,033
-415,671	-20,285	-0,042	-0,019
-414,657	-200,000	-0,043	0,150
-413,642	-200,000	0,030	0,196
-412,628	15,116	-0,076	0,043
-411,613	-164,386	-0,158	0,005
-410,598	59,542	0,034	0,024
-409,584	-200,000	-0,003	0,123
-408,569	169,976	-0,030	0,031
-407,555	-85,649	0,149	0,034
-406,540	341,375	-0,075	-0,108
-405,525	-88,891	0,064	0,014
-404,511	130,646	-0,023	-0,021
-403,496	-12,717	0,084	-0,040
-402,482	-99,874	-0,010	0,002
-401,467	547,224	0,106	0,187
-400,452	27,239	0,170	0,105
-399,438	468,248	-0,029	0,048
-398,423	-149,319	-0,231	0,013
-397,409	-25,589	-0,123	0,053
-396,394	-200,000	-0,007	-0,262
-395,379	453,226	0,058	0,095
-394,365	-200,000	0,058	0,286
-393,350	-200,000	-0,024	0,131
-392,336	-200,000	-0,004	0,042
-391,321	-200,000	-0,006	0,100
-390,306	76,993	-0,131	-0,102
-389,292	-116,577	-0,057	-0,008
-388,277	-85,821	0,017	-0,004
-387,263	800,000	0,072	0,170
-386,248	454,073	0,029	0,047
-385,233	419,188	-0,066	0,104
-384,219	-200,000	0,010	0,111
-383,204	800,000	0,009	-0,025
-382,190	800,000	-0,062	-0,139
-381,175	-118,990	-0,133	-0,017
-380,160	-200,000	-0,020	0,094
-379,146	-57,271	0,141	0,045
-378,131	377,672	-0,044	-0,066
-377,117	-200,000	0,002	-0,070
-376,102	476,443	0,029	-0,049
-375,088	200,743	-0,081	0,091
-374,073	52,684	-0,077	-0,054
-373,058	800,000	-0,015	-0,045
-372,044	-17,684	0,042	0,019
-371,029	330,134	0,013	0,018
-370,015	-200,000	-0,000	0,025
-369,000	-200,000	-0,008	0,067
-367,985	-200,000	0,006	-0,049
-366,971	-200,000	0,005	-0,041
-365,956	3,236	0,159	0,084
-364,942	-200,000	0,007	0,037
-363,927	-125,752	-0,053	0,006
-362,912	-83,350	-0,008	-0,002
-361,898	149,739	0,085	-0,084
-360,883	-50,638	-0,133	0,046
-359,869	109,240	-0,098	-0,086
-358,854	-164,604	0,070	0,002
-357,839	250,123	-0,028	-0,035
-356,825	170,085	0,108	-0,114
-355,810	315,804	0,038	-0,053
-354,796	40,233	-0,053	-0,035
-353,781	800,000	-0,030	-0,063
-352,766	161,553	-0,037	-0,038
-351,752	691,144	0,039	0,076
-350,737	-0,700	0,072	0,037
-349,723	569,290	0,073	0,130
-348,708	800,000	-0,022	0,063
-347,693	708,604	0,061	0,118
-346,679	-200,000	-0,006	-0,035
-345,664	-200,000	0,007	-0,024
-344,650	39,427	0,141	-0,092
-343,635	800,000	0,041	0,109
-342,620	-114,068	-0,087	0,012
-341,606	-38,811	0,088	0,034
-340,591	800,000	0,036	0,101
-339,577	-200,000	0,009	0,046
-338,562	-29,477	-0,055	-0,023
-337,548	608,592	0,062	0,114
-336,533	-200,000	0,016	-0,072
-335,518	-200,000	0,001	0,045
-334,504	208,463	-0,014	-0,016
-333,489	-200,000	-0,005	0,052
-332,475	-64,487	0,026	0,008
-331,460	-96,878	-0,076	-0,014
-330,445	186,423	0,117	-0,128
-329,431	-200,000	-0,012	0,066
-328,416	-200,000	-0,011	0,074
-327,402	353,088	0,033	0,048
-326,387	-200,000	0,014	0,072
-325,372	-51,797	-0,123	-0,042
-324,358	-200,000	-0,022	-0,104
-323,343	79,801	-0,068	-0,054
-322,329	46,919	0,086	0,059
-321,314	-70,670	-0,073	-0,020
-320,299	-104,824	0,016	0,003
-319,285	143,254	0,143	-0,139
-318,270	800,000	0,020	-0,040
-317,256	6,459	-0,084	-0,046
-316,241	-200,000	0,005	-0,082
-315,226	-200,000	0,003	0,078
-314,212	19,028	0,116	0,068
-313,197	-200,000	-0,002	0,092
-312,183	-200,000	-0,003	0,095
-311,168	778,287	0,029	-0,058
-310,153	108,701	-0,095	-0,083
-309,139	4,330	0,065	-0,034
-308,124	6,342	-0,068	0,037
-307,110	-118,621	0,096	-0,012
-306,095	800,000	0,031	0,095
-305,080	-200,000	0,015	0,056
-304,066	67,203	-0,098	0,073
-303,051	-200,000	0,007	0,041
-302,037	184,405	-0,067	-0,072
-301,022	3,834	0,128	-0,068
-300,008	-200,000	0,012	0,156
-298,993	-200,000	0,004	0,085
-297,978	-112,208	-0,060	0,009
-296,964	-49,727	-0,053	-0,018
-295,949	800,000	-0,046	-0,125
-294,935	-97,061	-0,111	-0,021
-293,920	170,023	-0,053	0,055
-292,905	-110,954	0,139	0,021
-291,891	-121,509	0,146	-0,017
-290,876	800,000	0,045	0,109
-289,862	-1,838	0,094	0,048
-288,847	91,171	-0,054	-0,044
-287,832	89,193	0,092	-0,074
-286,818	-2,688	-0,046	0,024
-285,803	149,330	-0,068	0,067
-284,789	58,758	-0,037	-0,027
-283,774	-200,000	0,054	0,181
-282,759	343,384	-0,044	-0,064
-281,745	-200,000	0,005	-0,029
-280,730	800,000	-0,038	0,109
-279,716	-200,000	0,023	-0,082
-278,701	643,636	-0,025	0,046
-277,686	169,112	0,089	0,092
-276,672	135,716	0,066	0,063
-275,657	-200,000	-0,007	-0,056
-274,643	236,593	0,013	0,015
-273,628	800,000	-0,019	0,043
-272,613	-139,373	-0,099	-0,008
-271,599	-200,000	0,009	-0,067
-270,584	56,913	0,042	-0,030
-269,570	49,374	-0,111	0,076
-268,555	800,000	0,015	-0,040
-267,540	800,000	-0,042	-0,122
-266,526	197,900	0,088	-0,098
-265,511	-200,000	-0,016	-0,076
-264,497	372,349	0,034	-0,051
-263,482	429,659	-0,032	0,051
-262,467	-147,014	-0,016	-0,001
-261,453	8,728	0,101	-0,055
-260,438	-70,356	0,019	-0,005
-259,424	800,000	-0,004	0,011
-258,409	-151,699	0,078	0,004
-257,395	-92,179	-0,003	-0,001
-256,380	383,150	0,073	-0,111
-255,365	-200,000	-0,009	0,143
-254,351	800,000	-0,019	-0,061
-253,336	-200,000	-0,008	-0,120
-252,322	-80,806	-0,079	-0,019
-251,307	-200,000	0,014	-0,060
-250,292	-170,065	0,157	-0,004
-249,278	-200,000	-0,013	-0,060
-248,263	109,897	0,076	-0,067
-247,249	-52,237	0,065	-0,022
-246,234	-200,000	0,012	0,109
-245,219	-37,673	-0,125	-0,048
-244,205	-200,000	0,027	0,098
-243,190	422,250	0,080	0,125
-242,176	-48,160	0,007	-0,002
-241,161	35,870	0,105	0,067
-240,146	378,251	-0,036	-0,054
-239,132	-200,000	-0,006	-0,024
-238,117	-200,000	0,007	-0,131
-237,103	-9,079	-0,015	0,007
-236,088	176,704	0,097	-0,103
-235,073	179,457	0,078	-0,084
-234,059	-200,000	-0,018	-0,065
-233,044	800,000	-0,008	0,024
-232,030	493,616	-0,035	0,058
-231,015	115,912	0,059	-0,052
-230,000	-75,058	-0,080	0,021
-228,986	26,827	0,038	-0,023
-227,971	-200,000	0,004	0,057
-226,957	22,793	0,090	0,054
-225,942	-21,710	-0,080	0,035
-224,927	-16,741	-0,021	-0,009
-223,913	223,737	0,034	0,041
-222,898	-200,000	-0,008	0,072
-221,884	-156,117	-0,107	-0,005
-220,869	-168,948	0,128	-0,003
-219,855	144,240	-0,025	-0,024
-218,840	800,000	0,047	-0,105
-217,825	800,000	-0,051	0,151
-216,811	519,828	-0,055	-0,094
-215,796	-200,000	0,012	-0,167
-214,782	368,878	0,060	-0,088
-213,767	345,687	0,089	0,127
-212,752	423,367	0,092	0,145
-211,738	40,735	0,118	0,077
-210,723	-100,259	-0,150	0,027
-209,709	510,221	0,036	0,061
-208,694	-24,973	-0,100	-0,043
-207,679	800,000	0,011	-0,034
-206,665	-200,000	0,009	-0,079
-205,650	61,005	-0,008	-0,006
-204,636	-171,822	-0,034	0,001
-203,621	800,000	-0,031	0,084
-202,606	-81,397	0,048	0,011
-201,592	-103,130	-0,105	-0,018
-200,577	94,685	-0,118	-0,097
-199,563	-151,956	0,107	-0,006
-198,548	-193,507	-0,075	0,000
-197,533	-200,000	0,012	-0,059
-196,519	-200,000	0,012	0,048
-195,504	142,452	0,088	-0,085
-194,490	796,670	0,018	-0,037
-193,475	800,000	0,006	0,015
-192,460	33,292	0,050	-0,031
-191,446	-200,000	0,027	0,096
-190,431	302,457	-0,089	0,121
-189,417	65,393	0,055	-0,041
-188,402	800,000	0,029	0,075
-187,387	-75,952	-0,072	-0,018
-186,373	800,000	0,032	0,086
-185,358	206,860	-0,082	-0,093
-184,344	37,568	0,037	0,024
-183,329	393,967	0,070	0,106
-182,315	-49,827	0,151	0,052
-181,300	164,083	0,081	0,083
-180,285	-67,533	0,104	-0,029
-179,271	-200,000	-0,018	-0,121
-178,256	-200,000	0,005	-0,036
-177,242	-74,844	0,119	-0,031
-176,227	486,311	-0,007	0,012
-175,212	800,000	-0,026	0,068
-174,198	-125,560	-0,086	0,009
-173,183	-113,454	-0,037	-0,005
-172,169	800,000	-0,042	-0,085
-171,154	-200,000	-0,002	-0,031
-170,139	-200,000	-0,009	-0,086
-169,125	-66,420	-0,041	-0,012
-168,110	-200,000	-0,025	0,082
-167,096	800,000	-0,020	0,059
-166,081	-36,001	-0,086	0,034
-165,066	165,639	-0,037	0,038
-164,052	-18,839	0,058	0,026
-163,037	5,419	0,076	-0,040
-162,023	68,409	-0,050	-0,037
-161,008	61,445	0,084	0,060
-159,993	-200,000	-0,001	-0,134
-158,979	800,000	-0,080	-0,176
-157,964	133,870	0,049	-0,046
-156,950	-200,000	0,007	-0,083
-155,935	-200,000	0,007	-0,065
-154,920	443,949	-0,027	0,043
-153,906	-200,000	0,067	0,253
-152,891	86,500	-0,093	0,074
-151,877	-200,000	0,024	0,117
-150,862	-18,939	-0,090	-0,040
-149,847	150,410	-0,076	-0,075
-148,833	72,399	-0,057	-0,043
-147,818	15,795	0,028	0,016
-146,804	516,964	0,007	-0,011
-145,789	195,906	0,056	-0,062
-144,775	-200,000	-0,017	-0,094
-143,760	19,067	0,033	-0,019
-142,745	-105,726	-0,029	-0,005
-141,731	800,000	-0,038	0,102
-140,716	133,105	0,067	0,063
-139,702	-200,000	0,004	-0,019
-138,687	-166,776	-0,088	0,003
-137,672	97,379	-0,035	-0,029
-136,658	82,606	-0,075	0,059
-135,643	126,128	-0,058	0,053
-134,629	34,352	-0,020	0,013
-133,614	9,737	0,056	-0,031
-132,599	-141,222	-0,081	-0,006
-131,585	800,000	0,109	0,224
-130,570	10,410	-0,167	-0,092
-129,556	-3,190	0,077	-0,039
-128,541	18,947	0,033	-0,019
-127,526	99,934	-0,080	0,067
-126,512	385,149	0,055	0,083
-125,497	-200,000	0,010	0,066
-124,483	-38,532	-0,057	-0,022
-123,468	21,342	-0,068	-0,040
-122,453	-200,000	-0,028	0,102
-121,439	201,320	0,103	-0,116
-120,424	800,000	-0,008	0,025
