DTS Sentinel unit serial number:	SN410029Multiplexer serial number:	ORYXHardware model number:	OX2-SRSoftware version number:	ORYX F/W v4,00 Oryx Data Collector v3.7.2.0data status	okinstallation	B6 Nyhavnadifferential loss correction	single-endedforward channel	channel 2reverse channel	N/Adate	2023/12/08time	02:40:08forward acquisition time	300,00reverse acquisition time	0,00gamma	499,1914k internal	0,3165k external	0,3165temperature offset calibration	1,0000default loss term (dB/km)	0,3820temperature slope calibration	1,0000multiplexer offset coefficient	1,0000multiplexer slope coefficient	1,0000fibre end	0,00T internal ref (°C)	13,15T ext. ref 1 (°C)	-3,71T ext. ref 2 (°C)	-3,71length (m)	temperature (°C)	Stokes	anti-Stokes-744,400	-134,962	0,254	0,022
-743,385	-68,371	-0,345	0,098
-742,371	-200,000	0,020	0,172
-741,356	-28,750	-0,318	0,134
-740,342	800,000	0,027	-0,069
-739,327	-82,808	-0,316	-0,075
-738,312	-200,000	-0,007	0,049
-737,298	-77,968	-0,436	0,110
-736,283	-16,406	0,211	0,098
-735,269	-133,576	-0,178	0,016
-734,254	471,444	0,041	0,069
-733,239	-73,330	-0,544	-0,145
-732,225	-71,540	0,200	-0,055
-731,210	-123,585	-0,147	0,017
-730,196	-118,970	0,063	-0,008
-729,181	-200,000	-0,015	-0,056
-728,167	55,273	-0,027	-0,019
-727,152	-31,876	-0,072	0,030
-726,137	219,778	-0,073	-0,086
-725,123	-10,845	0,100	-0,049
-724,108	101,085	-0,106	0,091
-723,094	-51,222	-0,107	0,037
-722,079	73,641	-0,010	0,008
-721,064	61,758	-0,080	-0,059
-720,050	-200,000	-0,014	-0,093
-719,035	15,778	0,052	0,030
-718,021	-200,000	-0,001	-0,051
-717,006	325,569	-0,065	-0,091
-715,991	800,000	-0,057	-0,142
-714,977	82,949	0,054	0,043
-713,962	-36,900	0,204	0,080
-712,948	46,947	-0,137	0,093
-711,933	511,205	-0,058	0,099
-710,918	-200,000	-0,005	-0,046
-709,904	-200,000	0,006	0,072
-708,889	-55,293	-0,022	0,007
-707,875	677,732	0,050	-0,096
-706,860	226,449	-0,041	-0,049
-705,845	127,258	0,039	-0,036
-704,831	55,509	-0,097	0,069
-703,816	537,522	-0,049	-0,085
-702,802	-78,032	0,076	0,019
-701,787	45,616	-0,108	0,073
-700,772	-120,118	-0,124	-0,015
-699,758	-200,000	0,008	0,085
-698,743	-114,089	0,061	0,009
-697,729	105,045	-0,034	0,029
-696,714	-200,000	-0,032	0,123
-695,699	712,133	-0,038	0,074
-694,685	-200,000	0,011	-0,047
-693,670	94,328	-0,117	-0,097
-692,656	202,879	-0,035	0,040
-691,641	-200,000	0,014	0,105
-690,627	208,925	-0,038	-0,044
-689,612	800,000	-0,027	0,072
-688,597	-200,000	0,015	-0,083
-687,583	-200,000	-0,030	-0,236
-686,568	142,897	-0,033	0,032
-685,554	374,696	-0,053	0,079
-684,539	32,349	0,060	0,038
-683,524	57,116	-0,070	0,050
-682,510	-21,546	-0,124	0,055
-681,495	800,000	0,027	0,085
-680,481	-51,638	-0,056	-0,019
-679,466	-200,000	0,005	-0,099
-678,451	106,080	-0,147	0,127
-677,437	-89,056	-0,100	0,021
-676,422	-102,202	0,061	0,011
-675,408	-116,244	-0,106	0,014
-674,393	800,000	0,021	-0,049
-673,378	19,294	0,037	-0,022
-672,364	-84,838	0,026	0,006
-671,349	-126,881	-0,073	0,008
-670,335	-193,612	0,017	0,000
-669,320	15,235	-0,029	0,016
-668,305	0,949	0,059	0,031
-667,291	800,000	-0,020	-0,058
-666,276	331,924	-0,068	-0,097
-665,262	298,835	0,055	-0,074
-664,247	-54,446	0,058	-0,019
-663,232	-200,000	0,008	0,199
-662,218	800,000	0,054	-0,141
-661,203	418,175	0,037	-0,057
-660,189	311,817	-0,046	-0,063
-659,174	5,822	0,150	0,081
-658,159	365,464	-0,116	-0,171
-657,145	297,970	0,010	-0,014
-656,130	-86,378	-0,093	0,021
-655,116	-200,000	-0,012	-0,042
-654,101	246,269	-0,029	0,036
-653,086	194,632	0,073	0,081
-652,072	-200,000	-0,015	-0,072
-651,057	-146,722	-0,254	0,016
-650,043	-200,000	-0,006	0,050
-649,028	403,380	0,049	-0,076
-648,014	-9,124	-0,170	-0,083
-646,999	-2,608	0,168	0,086
-645,984	-200,000	-0,014	0,067
-644,970	551,360	-0,030	-0,052
-643,955	-151,376	-0,101	-0,005
-642,941	-200,000	-0,003	-0,015
-641,926	-192,606	0,032	0,000
-640,911	-61,071	-0,110	0,034
-639,897	191,147	-0,028	-0,031
-638,882	-78,669	-0,209	0,052
-637,868	800,000	0,022	-0,067
-636,853	-200,000	-0,030	-0,104
-635,838	-33,591	-0,048	-0,019
-634,824	-200,000	0,002	0,046
-633,809	-173,446	0,045	0,001
-632,795	196,361	0,151	0,169
-631,780	-162,899	0,006	-0,000
-630,765	785,355	-0,042	-0,085
-629,751	800,000	0,026	-0,074
-628,736	159,373	0,037	-0,038
-627,722	-106,212	-0,114	-0,019
-626,707	318,649	0,048	0,067
-625,692	-16,328	0,102	0,047
-624,678	-200,000	0,005	-0,033
-623,663	-173,574	0,105	0,002
-622,649	-44,078	0,107	0,039
-621,634	132,181	-0,088	-0,083
-620,619	800,000	0,041	-0,082
-619,605	15,922	0,147	-0,085
-618,590	-67,089	-0,052	-0,015
-617,576	106,149	0,084	0,073
-616,561	-200,000	0,015	0,052
-615,546	366,346	0,032	0,048
-614,532	304,521	-0,031	0,043
-613,517	289,985	-0,065	-0,087
-612,503	800,000	-0,035	0,089
-611,488	666,193	-0,004	-0,007
-610,474	101,246	0,023	-0,019
-609,459	169,527	-0,046	0,048
-608,444	-200,000	0,003	-0,072
-607,430	-200,000	-0,012	-0,039
-606,415	-200,000	-0,023	-0,204
-605,401	714,353	0,020	-0,040
-604,386	-51,225	0,126	0,043
-603,371	-200,000	-0,010	-0,046
-602,357	-200,000	-0,001	0,015
-601,342	92,240	-0,061	0,051
-600,328	-200,000	-0,018	-0,068
-599,313	86,486	-0,057	0,046
-598,298	800,000	-0,033	0,101
-597,284	800,000	0,044	0,102
-596,269	-200,000	-0,020	0,158
-595,255	231,366	0,072	-0,086
-594,240	-200,000	-0,017	-0,071
-593,225	82,262	-0,070	-0,055
-592,211	31,443	-0,090	-0,056
-591,196	57,475	0,076	0,054
-590,182	-200,000	0,012	-0,138
-589,167	-143,963	0,037	-0,002
-588,152	749,407	-0,012	-0,023
-587,138	800,000	-0,023	0,059
-586,123	34,099	-0,135	-0,086
-585,109	150,306	-0,049	-0,049
-584,094	128,358	0,064	0,059
-583,079	800,000	-0,052	0,108
-582,065	-27,384	-0,061	-0,026
-581,050	779,698	0,088	0,177
-580,036	643,403	-0,065	0,121
-579,021	48,157	-0,067	-0,046
-578,006	604,712	0,047	-0,087
-576,992	800,000	-0,027	0,056
-575,977	-200,000	-0,004	-0,091
-574,963	-200,000	0,022	-0,071
-573,948	-200,000	-0,016	-0,062
-572,934	-200,000	-0,007	0,026
-571,919	-24,559	-0,060	-0,026
-570,904	-173,904	0,010	0,000
-569,890	346,026	-0,072	0,104
-568,875	-80,684	0,127	-0,031
-567,861	143,250	-0,037	-0,036
-566,846	-88,916	0,082	-0,018
-565,831	278,225	0,034	-0,044
-564,817	374,232	-0,090	0,135
-563,802	800,000	-0,026	-0,053
-562,788	-200,000	0,039	-0,140
-561,773	44,259	-0,035	-0,024
-560,758	-53,998	0,102	-0,034
-559,744	-82,525	0,090	-0,021
-558,729	247,275	0,083	-0,103
-557,715	9,645	-0,079	0,044
-556,700	-18,181	-0,142	-0,065
-555,685	84,342	-0,135	-0,108
-554,671	-51,135	0,006	-0,002
-553,656	-92,772	0,097	0,020
-552,642	800,000	-0,051	-0,104
-551,627	185,388	-0,112	0,121
-550,612	565,815	0,037	-0,065
-549,598	-76,313	-0,146	-0,037
-548,583	3,459	0,082	0,044
-547,569	800,000	0,040	-0,129
-546,554	24,028	0,035	0,021
-545,539	-96,101	-0,168	0,032
-544,525	433,622	-0,031	0,049
-543,510	41,395	0,169	-0,112
-542,496	-200,000	-0,003	-0,042
-541,481	800,000	0,044	-0,107
-540,466	18,681	-0,050	0,029
-539,452	-200,000	-0,000	0,088
-538,437	-163,558	0,045	-0,002
-537,423	-88,585	0,030	-0,007
-536,408	-155,458	-0,161	0,007
-535,393	79,574	0,125	-0,098
-534,379	-200,000	-0,017	0,057
-533,364	-87,529	-0,143	0,031
-532,350	231,869	0,039	0,047
-531,335	-35,536	-0,064	0,025
-530,321	114,117	0,128	0,113
-529,306	-200,000	0,014	-0,183
-528,291	235,804	-0,129	-0,156
-527,277	800,000	-0,009	-0,026
-526,262	11,549	0,076	-0,042
-525,248	297,344	-0,055	0,073
-524,233	137,592	0,045	0,043
-523,218	57,222	-0,041	0,029
-522,204	-13,025	-0,077	-0,036
-521,189	-22,085	-0,182	-0,080
-520,175	202,795	-0,055	-0,062
-519,160	800,000	0,015	0,041
-518,145	79,345	0,083	0,065
-517,131	-43,970	-0,010	-0,004
-516,116	291,966	0,110	0,146
-515,102	20,241	-0,090	0,053
-514,087	102,116	0,064	-0,055
-513,072	272,848	-0,079	-0,102
-512,058	53,887	-0,103	0,072
-511,043	-200,000	-0,014	0,084
-510,029	57,559	-0,161	-0,114
-509,014	-22,690	0,096	0,042
-507,999	-69,843	-0,068	0,019
-506,985	-135,143	-0,057	0,005
-505,970	-200,000	-0,002	0,109
-504,956	-154,362	-0,158	-0,008
-503,941	291,732	-0,049	0,065
-502,926	-38,896	0,045	-0,017
-501,912	-124,046	0,143	0,016
-500,897	-112,262	-0,135	0,020
-499,883	800,000	0,022	0,046
-498,868	-9,437	0,074	-0,036
-497,853	146,010	0,048	-0,047
-496,839	742,542	-0,052	0,102
-495,824	163,540	-0,050	-0,051
-494,810	-170,348	0,031	-0,001
-493,795	63,918	-0,090	-0,066
-492,781	177,484	0,029	-0,031
-491,766	-20,087	-0,124	-0,056
-490,751	-200,000	0,005	0,034
-489,737	380,006	-0,083	0,124
-488,722	-44,271	0,088	-0,032
-487,708	-109,828	0,013	0,002
-486,693	-200,000	0,004	0,183
-485,678	-200,000	0,006	0,036
-484,664	-200,000	0,003	-0,058
-483,649	-38,610	-0,148	-0,057
-482,635	-200,000	0,001	0,063
-481,620	186,551	-0,036	0,040
-480,605	-200,000	0,010	-0,093
-479,591	-130,578	0,018	0,002
-478,576	664,018	-0,050	0,095
-477,562	46,529	-0,049	0,033
-476,547	800,000	-0,063	-0,130
-475,532	-200,000	0,009	-0,029
-474,518	-57,208	0,060	-0,019
-473,503	-73,075	0,064	0,017
-472,489	-200,000	0,015	-0,107
-471,474	155,505	0,043	0,043
-470,459	-200,000	0,004	-0,117
-469,445	-113,416	0,107	-0,015
-468,430	-200,000	0,012	-0,112
-467,416	-83,805	0,042	-0,010
-466,401	800,000	-0,049	0,147
-465,386	-24,542	-0,073	0,031
-464,372	443,074	-0,085	-0,137
-463,357	10,833	-0,043	-0,024
-462,343	-200,000	0,005	-0,123
-461,328	800,000	0,008	-0,019
-460,313	-200,000	-0,001	-0,045
-459,299	-200,000	0,021	0,072
-458,284	-200,000	0,014	0,081
-457,270	483,040	-0,026	-0,043
-456,255	267,952	-0,022	-0,028
-455,241	-21,301	-0,078	-0,035
-454,226	-18,503	0,036	0,016
-453,211	800,000	-0,026	0,072
-452,197	-73,064	-0,064	-0,017
-451,182	361,756	0,079	0,116
-450,168	-200,000	-0,003	-0,024
-449,153	-156,309	-0,012	0,001
-448,138	-119,457	0,089	-0,011
-447,124	780,729	-0,068	0,136
-446,109	-9,379	0,063	0,030
-445,095	208,070	-0,041	0,047
-444,080	462,626	0,130	0,211
-443,065	102,219	0,106	-0,090
-442,051	-200,000	-0,005	-0,027
-441,036	-98,678	-0,152	-0,028
-440,022	-200,000	0,007	-0,060
-439,007	-112,945	-0,009	0,001
-437,992	167,252	0,084	-0,087
-436,978	-3,185	0,107	0,054
-435,963	573,534	0,051	-0,090
-434,949	-2,812	-0,091	0,046
-433,934	-47,597	0,062	-0,022
-432,919	2,935	0,058	0,031
-431,905	-200,000	0,000	0,005
-430,890	-75,038	-0,038	0,010
-429,876	-200,000	0,004	-0,058
-428,861	98,986	-0,046	-0,038
-427,846	318,270	-0,017	0,024
-426,832	-200,000	-0,020	0,123
-425,817	-17,083	-0,172	-0,079
-424,803	225,559	0,092	-0,109
-423,788	-200,000	-0,008	0,075
-422,773	-200,000	0,012	0,130
-421,759	-38,378	0,016	0,006
-420,744	-200,000	-0,005	0,045
-419,730	31,009	0,033	0,020
-418,715	-96,103	0,073	-0,014
-417,701	-58,180	-0,025	0,008
-416,686	800,000	0,077	-0,185
-415,671	129,439	-0,025	-0,023
-414,657	-177,535	-0,081	0,001
-413,642	47,107	0,133	0,090
-412,628	123,740	0,028	-0,025
-411,613	-123,938	-0,028	-0,003
-410,598	26,121	0,189	-0,114
-409,584	-15,913	-0,082	-0,038
-408,569	800,000	-0,028	0,064
-407,555	800,000	0,018	-0,047
-406,540	625,898	0,036	0,065
-405,525	40,855	-0,070	0,046
-404,511	336,906	-0,099	-0,139
-403,496	800,000	0,035	-0,087
-402,482	-200,000	0,018	0,184
-401,467	800,000	-0,013	0,032
-400,452	-6,163	-0,093	-0,046
-399,438	-200,000	-0,029	-0,119
-398,423	800,000	-0,014	-0,037
-397,409	412,796	0,007	0,011
-396,394	-200,000	-0,032	-0,156
-395,379	158,313	0,098	-0,098
-394,365	48,132	0,004	0,003
-393,350	-111,920	0,061	0,009
-392,336	-200,000	-0,004	0,040
-391,321	-59,473	0,068	-0,021
-390,306	188,976	-0,031	-0,033
-389,292	-200,000	-0,011	-0,078
-388,277	-200,000	0,012	-0,084
-387,263	-200,000	0,013	-0,058
-386,248	-200,000	0,017	-0,074
-385,233	-29,574	0,175	0,072
-384,219	201,969	0,034	0,038
-383,204	-140,194	0,129	0,010
-382,190	800,000	0,027	-0,060
-381,175	800,000	0,061	0,128
-380,160	44,859	0,082	-0,055
-379,146	106,163	0,047	-0,040
-378,131	-157,951	0,046	0,002
-377,117	800,000	0,010	-0,031
-376,102	200,708	0,047	0,053
-375,088	16,523	-0,200	-0,114
-374,073	-50,903	0,101	-0,034
-373,058	-200,000	-0,018	0,076
-372,044	-13,383	0,134	0,063
-371,029	287,386	0,039	0,052
-370,015	146,612	0,042	-0,041
-369,000	220,989	0,025	-0,030
-367,985	-200,000	0,009	0,039
-366,971	12,162	-0,142	0,079
-365,956	-141,545	0,091	0,007
-364,942	-18,744	0,039	-0,017
-363,927	-89,575	0,077	-0,016
-362,912	-18,265	-0,078	-0,035
-361,898	-200,000	-0,005	-0,083
-360,883	50,506	-0,013	-0,009
-359,869	-41,725	0,042	-0,016
-358,854	221,140	-0,054	0,063
-357,839	237,679	0,098	0,118
-356,825	44,712	-0,050	0,033
-355,810	-200,000	0,014	-0,089
-354,796	-200,000	-0,008	-0,059
-353,781	-9,254	-0,118	-0,057
-352,766	160,915	-0,064	-0,065
-351,752	256,471	0,104	-0,130
-350,737	408,649	-0,053	-0,082
-349,723	-101,020	-0,068	-0,012
-348,708	298,425	-0,082	0,110
-347,693	388,783	0,078	-0,118
-346,679	-200,000	-0,014	-0,054
-345,664	800,000	0,030	0,086
-344,650	348,934	0,049	0,071
-343,635	-92,514	-0,063	-0,013
-342,620	32,552	0,162	0,101
-341,606	30,048	0,025	-0,015
-340,591	20,272	-0,041	0,024
-339,577	26,262	0,028	-0,017
-338,562	-18,648	0,108	0,049
-337,548	337,570	-0,035	-0,049
-336,533	88,143	0,092	-0,074
-335,518	504,361	0,027	0,046
-334,504	123,406	0,059	-0,053
-333,489	-60,782	0,026	0,008
-332,475	800,000	0,043	-0,107
-331,460	-200,000	0,012	0,065
-330,445	50,324	0,028	-0,019
-329,431	-148,783	-0,080	-0,005
-328,416	157,249	0,126	0,126
-327,402	313,776	0,053	0,072
-326,387	251,806	-0,067	-0,083
-325,372	-200,000	-0,029	-0,135
-324,358	720,284	0,059	-0,115
-323,343	-200,000	-0,021	-0,110
-322,329	-200,000	-0,030	0,130
-321,314	274,076	0,084	0,107
-320,299	-200,000	0,005	0,103
-319,285	-65,565	0,031	-0,009
-318,270	-48,550	0,119	0,041
-317,256	-200,000	0,004	0,026
-316,241	60,835	-0,098	-0,070
-315,226	-200,000	-0,017	0,056
-314,212	800,000	-0,022	0,065
-313,197	-200,000	0,016	0,119
-312,183	236,988	-0,064	0,077
-311,168	-104,558	-0,086	0,014
-310,153	184,865	-0,022	0,024
-309,139	447,996	-0,043	0,069
-308,124	-102,540	-0,119	0,020
-307,110	-123,423	0,158	0,018
-306,095	64,868	0,027	0,020
-305,080	-148,632	-0,035	-0,002
-304,066	-46,403	-0,057	0,020
-303,051	181,982	-0,124	-0,132
-302,037	800,000	-0,035	-0,103
-301,022	139,105	0,070	0,067
-300,008	229,075	0,054	0,064
-298,993	252,404	0,043	0,053
-297,978	194,179	-0,048	0,053
-296,964	80,636	0,055	-0,043
-295,949	262,644	-0,052	-0,065
-294,935	93,803	0,054	-0,044
-293,920	-200,000	-0,006	0,023
-292,905	181,112	-0,071	0,076
-291,891	-200,000	-0,006	0,267
-290,876	-165,717	-0,074	0,002
-289,862	66,672	0,082	-0,060
-288,847	-123,233	-0,095	0,011
-287,832	40,307	-0,063	0,041
-286,818	116,863	-0,080	-0,071
-285,803	74,314	0,166	0,126
-284,789	-21,372	-0,022	-0,010
-283,774	-200,000	0,010	0,112
-282,759	727,280	0,025	-0,048
-281,745	330,001	0,041	-0,057
-280,730	300,808	-0,077	-0,102
-279,716	-113,696	-0,133	-0,018
-278,701	-81,105	-0,072	0,017
-277,686	-52,116	-0,117	-0,039
-276,672	175,884	-0,041	0,043
-275,657	-189,456	-0,122	-0,001
-274,643	151,466	-0,097	0,096
-273,628	-200,000	0,022	-0,107
-272,613	35,111	-0,099	-0,062
-271,599	800,000	0,034	-0,097
-270,584	18,120	0,048	0,028
-269,570	37,881	0,023	0,015
-268,555	-200,000	-0,021	-0,130
-267,540	314,983	0,007	0,009
-266,526	194,871	0,037	0,040
-265,511	0,860	0,045	-0,023
-264,497	179,416	0,045	0,048
-263,482	800,000	0,041	0,107
-262,467	239,773	-0,029	-0,035
-261,453	-200,000	0,009	0,114
-260,438	-54,962	-0,161	0,052
-259,424	-105,319	-0,060	0,010
-258,409	212,151	0,021	0,024
-257,395	-200,000	0,008	-0,048
-256,380	-200,000	0,018	0,060
-255,365	147,486	0,099	-0,097
-254,351	800,000	0,036	0,115
-253,336	89,271	-0,089	0,072
-252,322	-105,835	-0,104	0,017
-251,307	-200,000	0,033	0,168
-250,292	-200,000	0,010	0,084
-249,278	-200,000	-0,009	0,045
-248,263	-76,160	0,071	-0,018
-247,249	-90,463	0,064	0,013
-246,234	687,591	0,025	-0,048
-245,219	-200,000	0,014	-0,132
-244,205	-38,873	-0,131	-0,050
-243,190	-200,000	0,013	-0,081
-242,176	140,475	0,132	0,126
-241,161	800,000	0,050	-0,114
-240,146	-3,238	0,058	0,029
-239,132	69,759	0,057	-0,042
-238,117	444,412	-0,095	0,151
-237,103	800,000	0,056	-0,118
-236,088	800,000	-0,066	-0,175
-235,073	-10,919	0,108	0,051
-234,059	-90,622	-0,103	0,021
-233,044	533,732	-0,082	0,141
-232,030	-26,818	-0,079	0,033
-231,015	164,854	-0,054	0,055
-230,000	-200,000	-0,005	-0,142
-228,986	800,000	-0,013	0,041
-227,971	-200,000	0,004	-0,045
-226,957	757,582	0,105	-0,206
-225,942	129,459	0,068	0,063
-224,927	111,436	0,067	0,058
-223,913	60,113	-0,046	-0,033
-222,898	-200,000	-0,003	0,102
-221,884	800,000	0,014	-0,028
-220,869	194,234	0,040	-0,044
-219,855	-78,033	-0,114	0,028
-218,840	29,062	0,115	0,070
-217,825	800,000	0,020	0,050
-216,811	800,000	0,031	-0,074
-215,796	107,114	0,112	0,096
-214,782	38,367	-0,118	0,076
-213,767	-125,627	0,120	0,013
-212,752	800,000	-0,019	0,049
-211,738	19,952	0,060	-0,035
-210,723	500,086	0,034	0,056
-209,709	800,000	0,010	-0,029
-208,694	-200,000	-0,010	-0,043
-207,679	-56,570	-0,140	0,044
-206,665	-200,000	0,009	-0,054
-205,650	-61,754	0,161	0,048
-204,636	6,794	0,091	0,048
-203,621	-81,929	-0,075	-0,017
-202,606	-69,237	0,019	0,005
-201,592	85,056	0,022	-0,018
-200,577	-200,000	0,005	0,096
-199,563	-67,193	0,017	-0,005
-198,548	-200,000	0,017	0,102
-197,533	443,613	0,083	0,132
-196,519	800,000	-0,025	0,061
-195,504	-200,000	-0,016	0,116
-194,490	800,000	-0,061	-0,134
-193,475	800,000	0,059	-0,165
-192,460	248,242	0,111	0,135
-191,446	-66,454	-0,042	0,012
-190,431	-141,528	0,093	0,007
-189,417	-200,000	0,006	0,126
-188,402	-200,000	-0,002	0,078
-187,387	-200,000	0,006	0,065
-186,373	309,022	0,093	0,126
-185,358	-200,000	-0,005	-0,134
-184,344	800,000	-0,040	0,080
-183,329	74,239	0,070	0,053
-182,315	18,842	0,074	0,042
-181,300	476,618	0,090	-0,148
-180,285	-52,835	-0,149	0,049
-179,271	-200,000	0,025	0,093
-178,256	800,000	-0,051	0,136
-177,242	-111,286	0,126	0,018
-176,227	-200,000	0,010	0,157
-175,212	-200,000	0,042	-0,156
-174,198	712,940	0,033	0,063
-173,183	800,000	-0,035	-0,072
-172,169	-200,000	0,020	-0,069
-171,154	440,016	-0,050	-0,079
-170,139	226,453	0,084	0,099
-169,125	800,000	0,016	-0,050
-168,110	26,666	0,073	-0,044
-167,096	-200,000	-0,004	0,110
-166,081	111,485	-0,165	-0,143
-165,066	-200,000	0,016	-0,087
-164,052	626,650	-0,051	-0,092
-163,037	-87,702	-0,051	-0,011
-162,023	-54,839	0,056	-0,018
-161,008	-74,933	-0,054	0,014
-159,993	-73,029	0,037	0,010
-158,979	414,202	-0,063	0,096
-157,964	800,000	-0,049	-0,105
-156,950	-200,000	-0,015	-0,051
-155,935	210,175	-0,034	0,039
-154,920	39,265	-0,107	-0,068
-153,906	475,397	0,059	0,097
-152,891	-200,000	0,022	0,100
-151,877	-82,983	0,078	0,018
-150,862	538,910	0,060	0,103
-149,847	-93,102	0,070	-0,014
-148,833	-174,186	-0,079	0,002
-147,818	800,000	0,045	0,127
-146,804	163,428	-0,036	0,036
-145,789	-200,000	-0,030	0,180
-144,775	800,000	0,035	0,091
-143,760	1,878	0,046	0,024
-142,745	3,600	-0,103	-0,054
-141,731	52,483	0,121	0,083
-140,716	-200,000	0,023	0,119
-139,702	135,057	0,079	0,074
-138,687	800,000	-0,047	0,131
-137,672	-200,000	-0,033	0,149
-136,658	-141,684	-0,114	-0,008
-135,643	781,649	0,066	-0,130
-134,629	326,748	-0,076	0,105
-133,614	800,000	0,035	0,075
-132,599	187,477	0,181	0,194
-131,585	-180,358	-0,065	0,001
-130,570	800,000	0,025	0,059
-129,556	123,344	0,044	-0,039
-128,541	-62,177	0,050	-0,015
-127,526	-200,000	0,038	0,148
-126,512	-16,360	0,061	0,028
-125,497	-200,000	0,008	0,202
-124,483	-200,000	0,011	0,085
-123,468	122,275	0,093	0,083
-122,453	-24,226	-0,121	-0,052
-121,439	-200,000	-0,007	-0,071
-120,424	73,519	-0,084	0,063
-119,410	503,715	0,048	-0,079
-118,395	79,458	0,181	-0,139
