DTS Sentinel unit serial number:	SN410029Multiplexer serial number:	ORYXHardware model number:	OX2-SRSoftware version number:	ORYX F/W v4,00 Oryx Data Collector v3.7.2.0data status	okinstallation	B6 Nyhavnadifferential loss correction	single-endedforward channel	channel 2reverse channel	N/Adate	2023/12/11time	02:00:08forward acquisition time	300,00reverse acquisition time	0,00gamma	499,1914k internal	0,3122k external	0,3122temperature offset calibration	1,0000default loss term (dB/km)	0,3820temperature slope calibration	1,0000multiplexer offset coefficient	1,0000multiplexer slope coefficient	1,0000fibre end	0,00T internal ref (°C)	21,94T ext. ref 1 (°C)	4,98T ext. ref 2 (°C)	5,03length (m)	temperature (°C)	Stokes	anti-Stokes-744,400	95,243	0,070	0,059
-743,385	-138,808	-0,184	0,015
-742,371	-182,119	0,143	0,002
-741,356	26,134	-0,256	0,159
-740,342	-18,044	-0,010	0,005
-739,327	-113,514	-0,230	0,033
-738,312	-126,844	0,043	0,005
-737,298	-147,921	-0,164	0,010
-736,283	707,919	0,028	0,055
-735,269	26,254	-0,224	0,139
-734,254	526,884	0,041	-0,073
-733,239	49,759	-0,285	-0,200
-732,225	-104,593	0,110	-0,019
-731,210	24,536	0,051	0,031
-730,196	-200,000	0,030	0,157
-729,181	-200,000	-0,009	0,041
-728,167	448,561	-0,019	0,031
-727,152	-83,972	0,066	0,016
-726,137	-58,162	-0,041	-0,013
-725,123	-200,000	0,009	0,036
-724,108	-9,160	-0,092	-0,046
-723,094	164,692	-0,119	-0,125
-722,079	71,923	-0,211	-0,164
-721,064	-65,241	0,120	-0,036
-720,050	30,509	-0,085	-0,054
-719,035	385,224	-0,073	-0,112
-718,021	211,145	-0,091	-0,107
-717,006	800,000	0,034	0,107
-715,991	53,567	-0,098	-0,070
-714,977	275,756	0,029	-0,038
-713,962	800,000	0,049	-0,120
-712,948	26,280	0,006	0,004
-711,933	-200,000	0,001	0,099
-710,918	66,780	-0,077	-0,059
-709,904	-59,199	-0,056	0,018
-708,889	-91,485	-0,093	-0,020
-707,875	183,185	-0,043	-0,047
-706,860	306,413	0,096	-0,133
-705,845	-3,322	0,069	-0,036
-704,831	-200,000	-0,032	0,143
-703,816	-82,261	-0,043	0,010
-702,802	123,123	-0,045	0,042
-701,787	800,000	0,030	-0,086
-700,772	110,900	0,107	-0,095
-699,758	-31,391	-0,091	0,038
-698,743	-141,774	0,135	0,010
-697,729	49,063	-0,075	0,052
-696,714	282,054	-0,067	0,089
-695,699	-77,347	0,021	-0,005
-694,685	-152,551	-0,084	0,004
-693,670	-16,294	-0,067	0,031
-692,656	426,476	-0,083	-0,133
-691,641	-105,953	0,137	0,023
-690,627	71,353	0,092	0,071
-689,612	89,635	-0,050	0,041
-688,597	-89,657	-0,145	-0,031
-687,583	-89,813	0,074	-0,016
-686,568	-200,000	0,015	0,075
-685,554	89,305	-0,123	-0,102
-684,539	12,940	-0,066	-0,038
-683,524	800,000	0,042	0,092
-682,510	458,240	-0,061	0,102
-681,495	24,489	0,020	0,012
-680,481	-109,892	-0,064	0,010
-679,466	-94,010	-0,151	-0,031
-678,451	76,387	0,069	-0,055
-677,437	-200,000	-0,011	0,065
-676,422	800,000	0,091	0,190
-675,408	595,252	0,041	0,077
-674,393	-200,000	-0,011	0,040
-673,378	800,000	-0,024	-0,075
-672,364	-200,000	0,022	0,076
-671,349	-144,760	-0,125	0,008
-670,335	-22,184	0,071	0,032
-669,320	-26,739	-0,110	-0,048
-668,305	-102,769	0,094	0,017
-667,291	151,826	0,105	-0,106
-666,276	800,000	0,051	-0,112
-665,262	208,152	-0,020	-0,023
-664,247	-125,846	-0,118	0,013
-663,232	481,931	0,033	-0,055
-662,218	-18,743	0,042	0,019
-661,203	800,000	0,034	-0,085
-660,189	-200,000	-0,018	-0,064
-659,174	-39,484	-0,143	0,055
-658,159	177,966	-0,088	-0,095
-657,145	121,922	-0,077	-0,071
-656,130	-130,122	0,107	0,011
-655,116	-200,000	-0,006	0,047
-654,101	-5,257	0,017	0,009
-653,086	-200,000	0,011	-0,063
-652,072	153,842	-0,131	-0,133
-651,057	-114,879	-0,100	-0,014
-650,043	-200,000	-0,018	-0,103
-649,028	1,038	-0,051	0,027
-648,014	-200,000	-0,003	0,015
-646,999	148,053	-0,090	-0,090
-645,984	-173,305	0,141	0,003
-644,970	-200,000	0,005	-0,078
-643,955	22,472	-0,045	-0,028
-642,941	8,355	-0,119	0,067
-641,926	-200,000	-0,037	-0,128
-640,911	64,834	-0,012	-0,009
-639,897	800,000	-0,035	0,077
-638,882	-161,098	-0,090	-0,003
-637,868	91,506	-0,068	-0,057
-636,853	800,000	-0,062	-0,150
-635,838	209,768	-0,049	-0,058
-634,824	800,000	0,052	-0,120
-633,809	-200,000	0,014	-0,064
-632,795	-200,000	-0,014	0,053
-631,780	785,346	-0,024	-0,049
-630,765	60,198	0,045	-0,033
-629,751	-200,000	-0,009	0,072
-628,736	-116,896	-0,133	-0,018
-627,722	94,190	-0,040	-0,034
-626,707	48,624	0,094	0,065
-625,692	124,235	0,058	0,054
-624,678	274,460	0,106	-0,140
-623,663	435,204	-0,002	-0,004
-622,649	58,857	-0,040	-0,029
-621,634	381,956	-0,128	-0,195
-620,619	-200,000	-0,007	-0,088
-619,605	79,889	-0,023	-0,019
-618,590	-200,000	0,041	0,000
-617,576	-83,573	0,138	0,032
-616,561	117,008	0,033	0,030
-615,546	60,903	-0,032	0,024
-614,532	-17,994	0,026	-0,012
-613,517	-200,000	-0,012	-0,042
-612,503	800,000	-0,032	0,104
-611,488	800,000	-0,052	0,160
-610,474	-200,000	0,005	0,084
-609,459	-108,537	-0,118	-0,019
-608,444	-121,333	-0,042	-0,005
-607,430	-24,727	-0,048	-0,021
-606,415	-6,008	-0,091	-0,046
-605,401	228,314	-0,036	0,043
-604,386	-200,000	-0,010	0,072
-603,371	-76,308	0,113	-0,029
-602,357	-1,576	0,080	0,042
-601,342	800,000	0,036	0,095
-600,328	-33,400	-0,099	0,040
-599,313	554,763	-0,062	-0,111
-598,298	-200,000	0,004	0,080
-597,284	800,000	0,014	0,033
-596,269	800,000	0,028	-0,091
-595,255	800,000	-0,036	-0,106
-594,240	-127,710	-0,102	0,011
-593,225	800,000	0,055	-0,125
-592,211	-200,000	-0,191	-0,000
-591,196	630,577	-0,027	0,051
-590,182	-200,000	0,032	0,155
-589,167	-86,451	0,091	0,020
-588,152	-200,000	-0,024	0,143
-587,138	332,982	0,073	-0,105
-586,123	-200,000	-0,024	-0,080
-585,109	258,033	-0,008	-0,010
-584,094	-200,000	0,005	-0,070
-583,079	-200,000	0,011	-0,039
-582,065	617,138	0,039	0,074
-581,050	193,468	0,020	-0,022
-580,036	800,000	-0,068	-0,161
-579,021	800,000	0,045	-0,113
-578,006	87,641	-0,086	-0,071
-576,992	-200,000	-0,007	0,073
-575,977	-200,000	0,006	-0,109
-574,963	13,351	0,102	0,059
-573,948	-96,097	0,139	-0,027
-572,934	-22,336	0,093	0,041
-571,919	-200,000	0,019	-0,111
-570,904	22,162	0,138	-0,083
-569,890	23,249	-0,089	-0,054
-568,875	-200,000	-0,001	0,089
-567,861	362,893	-0,063	0,094
-566,846	-129,866	-0,015	-0,002
-565,831	56,326	-0,088	0,063
-564,817	10,710	0,094	0,053
-563,802	-48,030	0,076	0,027
-562,788	-26,427	-0,050	-0,022
-561,773	116,607	0,055	-0,050
-560,758	-18,650	0,053	-0,024
-559,744	482,888	-0,077	0,131
-558,729	161,199	0,052	-0,054
-557,715	-200,000	-0,039	-0,134
-556,700	264,732	-0,063	-0,081
-555,685	-200,000	0,003	-0,023
-554,671	1,412	-0,045	0,024
-553,656	-57,634	0,068	-0,022
-552,642	77,635	0,145	0,114
-551,627	-153,183	0,150	-0,008
-550,612	-200,000	0,002	0,014
-549,598	95,197	-0,099	-0,083
-548,583	12,575	0,080	-0,045
-547,569	-112,293	0,071	0,010
-546,554	-51,485	0,058	-0,020
-545,539	-200,000	-0,014	0,158
-544,525	6,133	0,024	-0,013
-543,510	68,649	-0,037	0,028
-542,496	39,456	0,030	0,020
-541,481	800,000	-0,061	-0,156
-540,466	161,915	-0,037	0,039
-539,452	-200,000	0,006	0,047
-538,437	-104,348	-0,071	0,012
-537,423	743,372	0,033	0,066
-536,408	800,000	-0,032	-0,086
-535,393	214,495	-0,100	-0,118
-534,379	-14,426	-0,012	-0,006
-533,364	47,477	0,043	0,030
-532,350	630,013	0,037	0,070
-531,335	95,046	-0,126	0,106
-530,321	786,312	0,071	0,145
-529,306	107,806	-0,076	0,067
-528,291	-200,000	-0,039	-0,158
-527,277	-5,341	-0,071	-0,036
-526,262	-200,000	0,015	-0,140
-525,248	40,489	0,068	-0,045
-524,233	511,717	0,015	0,025
-523,218	178,809	0,108	0,117
-522,204	-200,000	0,005	0,102
-521,189	631,856	0,070	-0,131
-520,175	-200,000	0,014	-0,098
-519,160	60,735	0,029	0,021
-518,145	332,256	-0,051	0,073
-517,131	-102,326	0,122	0,021
-516,116	210,361	0,060	0,070
-515,102	800,000	-0,081	0,225
-514,087	-37,030	-0,085	0,034
-513,072	800,000	-0,025	-0,078
-512,058	-148,068	-0,075	-0,005
-511,043	19,392	0,095	-0,056
-510,029	-200,000	0,035	0,157
-509,014	-200,000	-0,036	0,133
-507,999	-39,534	0,115	0,044
-506,985	800,000	-0,032	-0,089
-505,970	154,399	0,038	-0,039
-504,956	396,450	0,057	0,088
-503,941	180,643	0,069	0,075
-502,926	424,423	0,046	-0,074
-501,912	252,002	0,038	0,048
-500,897	-200,000	0,017	0,062
-499,883	356,849	0,032	0,047
-498,868	550,330	-0,078	-0,139
-497,853	800,000	-0,057	-0,160
-496,839	-25,949	-0,010	0,004
-495,824	-200,000	0,019	-0,068
-494,810	-108,853	0,034	-0,005
-493,795	-155,910	-0,039	0,002
-492,781	-35,711	0,148	0,059
-491,766	37,491	-0,101	-0,066
-490,751	-181,819	-0,124	-0,002
-489,737	-200,000	0,032	-0,169
-488,722	384,909	0,065	-0,099
-487,708	-200,000	0,054	0,182
-486,693	136,241	-0,034	0,032
-485,678	542,216	0,024	-0,043
-484,664	774,551	0,033	-0,067
-483,649	-200,000	0,000	-0,039
-482,635	800,000	0,021	0,047
-481,620	-200,000	0,005	0,120
-480,605	-200,000	-0,023	0,100
-479,591	-127,382	-0,087	0,009
-478,576	-63,585	0,039	0,012
-477,562	67,496	-0,046	-0,035
-476,547	-148,905	-0,055	-0,003
-475,532	-80,576	-0,016	0,004
-474,518	144,806	-0,104	-0,103
-473,503	-20,273	0,085	0,039
-472,489	-38,320	0,094	-0,037
-471,474	27,653	-0,032	0,020
-470,459	-112,138	0,087	0,013
-469,445	-82,426	-0,107	-0,025
-468,430	800,000	0,019	0,055
-467,416	-200,000	-0,002	-0,029
-466,401	376,750	0,027	0,041
-465,386	-200,000	0,014	-0,049
-464,372	39,206	0,103	-0,068
-463,357	377,902	-0,039	-0,059
-462,343	-200,000	-0,007	-0,182
-461,328	22,916	-0,175	-0,106
-460,313	115,070	0,143	0,128
-459,299	-200,000	-0,028	0,143
-458,284	587,263	-0,102	-0,186
-457,270	-200,000	0,016	0,051
-456,255	800,000	0,040	-0,113
-455,241	393,947	-0,024	-0,037
-454,226	-8,947	-0,088	-0,043
-453,211	800,000	-0,055	-0,119
-452,197	635,640	0,047	-0,089
-451,182	-200,000	0,018	0,098
-450,168	121,990	-0,031	-0,028
-449,153	50,811	-0,077	-0,054
-448,138	800,000	0,001	-0,004
-447,124	15,992	-0,030	0,017
-446,109	583,248	-0,048	-0,087
-445,095	191,459	-0,089	-0,099
-444,080	464,572	0,031	0,052
-443,065	50,615	0,095	0,066
-442,051	-7,773	-0,092	-0,046
-441,036	127,382	-0,069	-0,064
-440,022	155,502	0,098	0,100
-439,007	281,628	-0,048	-0,063
-437,992	19,570	-0,093	0,055
-436,978	-8,737	0,023	0,011
-435,963	-200,000	-0,000	-0,047
-434,949	-200,000	-0,033	-0,139
-433,934	725,484	0,035	-0,069
-432,919	-200,000	-0,009	-0,073
-431,905	-200,000	-0,035	-0,148
-430,890	-200,000	0,035	-0,166
-429,876	-200,000	0,015	-0,070
-428,861	67,099	0,054	0,040
-427,846	133,103	0,023	-0,022
-426,832	88,541	0,065	0,053
-425,817	495,617	-0,050	0,084
-424,803	-93,233	-0,159	-0,032
-423,788	-200,000	0,003	-0,087
-422,773	-200,000	-0,004	-0,045
-421,759	48,775	-0,063	-0,044
-420,744	-200,000	0,049	-0,167
-419,730	-140,763	-0,074	0,006
-418,715	800,000	-0,066	-0,150
-417,701	137,452	-0,056	-0,054
-416,686	800,000	0,043	0,089
-415,671	800,000	-0,014	0,029
-414,657	103,434	0,031	0,027
-413,642	-200,000	0,005	0,127
-412,628	800,000	0,023	0,071
-411,613	-40,244	-0,078	-0,030
-410,598	-200,000	0,025	-0,131
-409,584	-81,492	0,116	0,028
-408,569	386,769	0,040	-0,061
-407,555	-56,515	0,092	0,030
-406,540	781,410	-0,094	0,190
-405,525	332,111	0,048	-0,068
-404,511	211,334	-0,056	-0,065
-403,496	110,198	-0,140	-0,123
-402,482	101,784	-0,027	0,023
-401,467	800,000	0,047	0,136
-400,452	-9,043	-0,031	0,015
-399,438	76,986	0,097	0,075
-398,423	-200,000	-0,022	0,139
-397,409	-138,216	0,017	-0,001
-396,394	198,462	0,047	0,053
-395,379	34,072	0,099	0,063
-394,365	323,140	-0,099	-0,139
-393,350	-200,000	0,019	-0,143
-392,336	204,607	0,030	0,035
-391,321	407,458	0,018	-0,028
-390,306	-200,000	0,016	-0,102
-389,292	551,387	0,073	-0,130
-388,277	800,000	-0,086	0,204
-387,263	-200,000	-0,019	-0,165
-386,248	764,989	-0,025	0,051
-385,233	368,835	0,102	0,152
-384,219	-57,653	-0,168	0,054
-383,204	33,247	0,133	-0,085
-382,190	800,000	-0,040	-0,092
-381,175	-64,339	-0,159	0,047
-380,160	111,037	0,050	0,044
-379,146	29,914	-0,077	0,048
-378,131	275,743	0,045	-0,059
-377,117	145,932	-0,069	-0,068
-376,102	508,297	0,070	0,119
-375,088	-200,000	-0,020	-0,134
-374,073	-112,667	-0,119	0,017
-373,058	-200,000	0,032	0,148
-372,044	-191,818	-0,136	0,001
-371,029	-55,958	0,110	0,036
-370,015	-121,073	0,164	0,020
-369,000	800,000	-0,038	-0,079
-367,985	1,152	0,158	-0,083
-366,971	500,837	-0,022	0,038
-365,956	-133,703	-0,080	0,007
-364,942	-26,512	-0,027	-0,012
-363,927	122,777	-0,024	0,022
-362,912	800,000	0,013	-0,034
-361,898	800,000	-0,026	-0,077
-360,883	322,493	-0,065	-0,091
-359,869	-143,465	0,026	0,002
-358,854	62,622	0,010	-0,008
-357,839	-177,853	0,070	-0,001
-356,825	-139,331	0,013	0,001
-355,810	249,096	0,067	0,083
-354,796	-200,000	0,025	0,105
-353,781	800,000	-0,014	0,029
-352,766	-200,000	0,009	-0,079
-351,752	-200,000	0,014	-0,076
-350,737	-23,830	-0,050	0,022
-349,723	5,216	0,170	-0,092
-348,708	-200,000	-0,009	0,043
-347,693	-32,526	0,137	0,056
-346,679	623,837	-0,037	-0,069
-345,664	203,098	0,031	-0,035
-344,650	-37,123	-0,100	0,039
-343,635	-52,105	0,223	0,075
-342,620	1,450	0,015	-0,008
-341,606	134,663	-0,030	0,029
-340,591	31,585	-0,063	-0,040
-339,577	397,903	0,020	-0,030
-338,562	-45,765	-0,064	-0,023
-337,548	156,297	-0,049	-0,050
-336,533	-200,000	-0,019	0,067
-335,518	-200,000	0,018	0,183
-334,504	51,492	-0,146	0,102
-333,489	-200,000	-0,008	-0,071
-332,475	573,677	0,028	-0,050
-331,460	705,277	-0,035	-0,069
-330,445	-200,000	0,008	-0,042
-329,431	-5,065	0,124	-0,063
-328,416	800,000	0,020	-0,065
-327,402	-53,510	0,062	0,021
-326,387	153,803	0,033	0,033
-325,372	800,000	0,059	-0,131
-324,358	795,465	-0,035	0,071
-323,343	389,560	-0,057	-0,087
-322,329	800,000	0,026	0,058
-321,314	-200,000	-0,006	0,059
-320,299	8,503	0,162	-0,089
-319,285	14,266	-0,029	0,017
-318,270	800,000	-0,030	-0,073
-317,256	-109,357	-0,111	-0,017
-316,241	-200,000	0,002	-0,050
-315,226	180,495	-0,081	0,087
-314,212	138,510	0,051	-0,049
-313,197	694,336	-0,071	0,137
-312,183	-33,120	-0,033	-0,013
-311,168	-77,530	-0,030	-0,008
-310,153	-97,969	0,170	-0,032
-309,139	-200,000	-0,024	0,084
-308,124	-200,000	0,017	0,113
-307,110	294,484	0,098	0,132
-306,095	51,376	0,052	0,036
-305,080	192,820	0,031	0,034
-304,066	217,866	-0,047	0,055
-303,051	10,003	-0,122	-0,068
-302,037	-7,022	0,111	-0,055
-301,022	-200,000	0,009	-0,039
-300,008	800,000	-0,049	-0,110
-298,993	130,397	0,082	0,077
-297,978	-24,914	-0,102	0,044
-296,964	377,484	-0,038	0,057
-295,949	-74,728	0,041	-0,011
-294,935	-200,000	0,005	0,087
-293,920	17,415	0,167	0,097
-292,905	800,000	0,080	0,201
-291,891	-200,000	-0,018	-0,178
-290,876	-53,979	0,051	-0,017
-289,862	800,000	-0,030	-0,064
-288,847	-33,432	0,063	-0,025
-287,832	-200,000	-0,009	0,075
-286,818	200,893	0,011	0,012
-285,803	-200,000	-0,019	0,070
-284,789	127,968	-0,030	0,028
-283,774	800,000	0,015	0,046
-282,759	-125,144	0,133	-0,015
-281,745	800,000	-0,034	-0,090
-280,730	7,906	-0,111	-0,061
-279,716	-200,000	0,012	0,117
-278,701	800,000	0,018	-0,041
-277,686	-147,670	0,055	-0,003
-276,672	23,513	0,207	-0,124
-275,657	-4,975	-0,067	-0,033
-274,643	-200,000	0,015	-0,113
-273,628	-23,916	0,035	-0,015
-272,613	115,252	0,108	-0,096
-271,599	404,783	0,083	0,129
-270,584	-32,134	0,093	0,038
-269,570	800,000	-0,016	0,039
-268,555	-200,000	0,031	-0,120
-267,540	176,980	-0,044	-0,047
-266,526	-32,400	0,059	0,024
-265,511	-200,000	-0,006	0,144
-264,497	-200,000	0,013	0,138
-263,482	25,290	0,064	-0,039
-262,467	69,800	-0,061	0,046
-261,453	800,000	0,062	0,197
-260,438	-135,306	-0,074	0,006
-259,424	0,060	-0,108	0,056
-258,409	-200,000	-0,015	0,074
-257,395	12,619	0,028	-0,016
-256,380	87,162	0,102	0,082
-255,365	91,019	0,050	0,041
-254,351	-124,805	-0,079	-0,009
-253,336	169,409	0,004	0,005
-252,322	-4,117	-0,067	-0,034
-251,307	97,872	-0,049	-0,041
-250,292	-22,698	-0,026	0,012
-249,278	7,870	0,045	-0,024
-248,263	800,000	0,005	0,012
-247,249	118,872	-0,105	0,095
-246,234	515,064	0,073	0,125
-245,219	800,000	-0,023	-0,048
-244,205	-38,590	-0,106	0,041
-243,190	-71,358	0,064	0,017
-242,176	-200,000	0,035	0,131
-241,161	-200,000	0,006	0,105
-240,146	697,437	0,083	0,161
-239,132	-105,097	-0,110	0,018
-238,117	-200,000	-0,002	-0,019
-237,103	-127,594	0,101	0,011
-236,088	-200,000	-0,027	-0,087
-235,073	-149,062	-0,065	-0,004
-234,059	102,116	0,091	0,077
-233,044	513,040	0,029	0,049
-232,030	691,016	-0,062	0,119
-231,015	800,000	0,058	-0,175
-230,000	200,816	-0,012	-0,014
-228,986	527,605	-0,017	-0,029
-227,971	-200,000	0,021	0,101
-226,957	-4,471	0,131	0,066
-225,942	445,528	-0,051	0,083
-224,927	441,276	-0,091	0,147
-223,913	800,000	-0,051	-0,153
-222,898	-6,867	-0,026	0,013
-221,884	-184,371	0,073	0,001
-220,869	800,000	0,008	0,021
-219,855	-78,094	-0,027	-0,007
-218,840	-200,000	-0,015	0,071
-217,825	-113,592	-0,057	0,008
-216,811	-200,000	-0,017	0,112
-215,796	14,630	-0,036	0,020
-214,782	134,510	-0,047	-0,045
-213,767	62,273	-0,040	-0,029
-212,752	800,000	0,029	0,078
-211,738	800,000	0,063	0,165
-210,723	-169,146	0,101	-0,003
-209,709	544,150	-0,048	0,084
-208,694	-200,000	-0,006	0,067
-207,679	94,313	-0,079	-0,066
-206,665	-10,111	0,090	0,044
-205,650	-99,268	0,109	-0,020
-204,636	-200,000	-0,012	0,041
-203,621	1,032	0,068	0,036
-202,606	-112,404	0,028	-0,004
-201,592	-100,228	-0,058	-0,010
-200,577	24,228	-0,135	-0,081
-199,563	-44,667	-0,106	-0,039
-198,548	354,355	0,037	-0,054
-197,533	57,896	0,028	0,020
-196,519	-78,679	-0,033	0,008
-195,504	800,000	0,023	0,071
-194,490	-143,979	0,094	-0,006
-193,475	-61,152	0,025	0,008
-192,460	800,000	0,002	0,007
-191,446	-200,000	0,011	-0,068
-190,431	18,597	0,147	0,086
-189,417	148,155	0,066	0,065
-188,402	315,316	-0,026	0,036
-187,387	-155,350	-0,044	0,002
-186,373	-123,066	0,119	0,014
-185,358	-98,999	-0,124	-0,023
-184,344	303,826	0,061	0,083
-183,329	-169,962	-0,147	0,004
-182,315	180,547	0,104	0,111
-181,300	52,053	-0,172	-0,120
-180,285	222,269	-0,025	0,030
-179,271	-61,375	-0,198	0,060
-178,256	98,261	-0,051	0,043
-177,242	104,471	-0,166	-0,142
-176,227	-10,541	0,080	0,039
-175,212	184,710	0,065	-0,070
-174,198	800,000	0,031	0,088
-173,183	-45,745	-0,145	-0,052
-172,169	97,624	-0,047	0,039
-171,154	14,745	-0,090	-0,051
-170,139	-69,786	-0,171	-0,047
-169,125	800,000	0,094	0,223
-168,110	-38,989	-0,089	0,034
-167,096	-200,000	0,035	-0,174
-166,081	186,112	-0,036	-0,039
-165,066	-200,000	0,019	-0,084
-164,052	-200,000	0,025	-0,089
-163,037	157,204	0,015	-0,015
-162,023	258,768	-0,024	0,030
-161,008	157,681	0,053	0,053
-159,993	50,792	0,040	-0,028
-158,979	800,000	-0,023	0,057
-157,964	-200,000	-0,002	-0,057
-156,950	-167,569	0,092	-0,003
-155,935	-17,561	0,110	0,050
-154,920	408,321	0,022	-0,033
-153,906	55,013	-0,160	0,113
-152,891	-200,000	-0,003	0,110
-151,877	131,252	0,007	0,007
-150,862	546,910	-0,025	-0,045
-149,847	14,751	-0,030	-0,017
-148,833	-200,000	0,007	-0,129
-147,818	-97,987	0,046	-0,009
-146,804	800,000	-0,038	0,094
-145,789	-142,715	0,098	-0,007
-144,775	-200,000	0,007	-0,034
-143,760	288,080	0,011	0,015
-142,745	370,255	0,011	0,016
-141,731	2,563	-0,081	-0,043
-140,716	-78,134	0,084	-0,021
-139,702	81,994	0,055	0,044
-138,687	-62,945	-0,071	0,021
-137,672	-175,684	0,119	0,002
-136,658	431,172	-0,054	-0,086
-135,643	508,484	-0,050	-0,086
-134,629	565,175	-0,039	0,068
-133,614	-157,704	0,137	-0,006
-132,599	-200,000	-0,002	0,101
-131,585	312,153	0,082	0,112
-130,570	-50,962	-0,200	0,068
-129,556	-200,000	0,008	0,067
-128,541	11,290	0,091	0,051
-127,526	-35,673	0,024	0,009
-126,512	-0,298	-0,074	0,038
-125,497	98,747	0,081	-0,068
-124,483	800,000	0,031	-0,096
-123,468	800,000	0,011	-0,030
-122,453	-127,204	-0,152	-0,016
-121,439	268,767	0,026	-0,033
-120,424	-200,000	0,032	0,124
-119,410	54,468	-0,054	0,038
-118,395	404,480	0,058	-0,089
-117,380	41,997	-0,041	-0,027
