DTS Sentinel unit serial number:	SN410029Multiplexer serial number:	ORYXHardware model number:	OX2-SRSoftware version number:	ORYX F/W v4,00 Oryx Data Collector v3.7.2.0data status	okinstallation	B6 Nyhavnadifferential loss correction	single-endedforward channel	channel 2reverse channel	N/Adate	2023/12/10time	20:05:08forward acquisition time	300,00reverse acquisition time	0,00gamma	499,1914k internal	0,3122k external	0,3122temperature offset calibration	1,0000default loss term (dB/km)	0,3820temperature slope calibration	1,0000multiplexer offset coefficient	1,0000multiplexer slope coefficient	1,0000fibre end	0,00T internal ref (°C)	22,30T ext. ref 1 (°C)	5,93T ext. ref 2 (°C)	5,96length (m)	temperature (°C)	Stokes	anti-Stokes-744,400	-83,277	0,004	0,001
-743,385	-79,987	-0,330	0,082
-742,371	159,124	0,080	-0,083
-741,356	-140,267	-0,201	0,015
-740,342	129,256	0,048	-0,046
-739,327	-43,826	-0,258	0,096
-738,312	16,777	-0,067	-0,039
-737,298	-64,341	-0,245	0,074
-736,283	-165,369	-0,052	0,002
-735,269	357,293	-0,142	0,212
-734,254	-200,000	0,005	-0,016
-733,239	-200,000	-0,319	0,000
-732,225	-157,965	0,044	0,002
-731,210	-200,000	0,005	0,069
-730,196	237,507	-0,122	-0,151
-729,181	114,510	-0,083	-0,075
-728,167	-197,794	-0,111	-0,000
-727,152	-200,000	0,012	-0,055
-726,137	800,000	0,017	-0,037
-725,123	127,241	-0,063	-0,059
-724,108	-78,144	-0,075	0,019
-723,094	-177,764	-0,044	0,001
-722,079	-51,641	-0,126	0,044
-721,064	-197,810	-0,145	-0,001
-720,050	156,114	-0,071	0,073
-719,035	94,575	-0,007	-0,006
-718,021	-51,040	0,055	-0,019
-717,006	115,625	-0,050	0,045
-715,991	506,345	-0,034	-0,059
-714,977	-154,781	-0,065	0,003
-713,962	-83,600	0,195	-0,046
-712,948	13,081	0,036	0,021
-711,933	800,000	0,041	-0,100
-710,918	81,788	-0,071	-0,058
-709,904	201,704	-0,053	-0,061
-708,889	-200,000	-0,025	-0,137
-707,875	22,088	-0,018	-0,011
-706,860	-80,631	-0,112	-0,028
-705,845	-200,000	-0,003	0,027
-704,831	800,000	0,037	0,090
-703,816	40,003	0,115	0,077
-702,802	-75,055	0,088	0,023
-701,787	397,196	-0,038	-0,059
-700,772	279,293	-0,023	-0,031
-699,758	-200,000	-0,013	-0,072
-698,743	-80,637	0,141	0,035
-697,729	-165,310	-0,042	0,001
-696,714	-200,000	-0,041	0,166
-695,699	273,412	-0,067	-0,088
-694,685	-51,378	-0,077	-0,027
-693,670	189,079	-0,036	-0,040
-692,656	-200,000	0,015	-0,064
-691,641	18,315	0,091	-0,054
-690,627	800,000	-0,028	0,071
-689,612	124,061	0,118	-0,111
-688,597	800,000	-0,024	0,063
-687,583	-200,000	-0,002	-0,100
-686,568	-17,665	-0,068	0,031
-685,554	26,355	0,079	-0,049
-684,539	-28,944	-0,030	0,013
-683,524	-31,303	0,058	-0,024
-682,510	800,000	0,060	-0,125
-681,495	126,120	0,079	-0,074
-680,481	214,782	-0,049	-0,058
-679,466	-106,384	-0,166	-0,027
-678,451	-200,000	-0,014	0,062
-677,437	394,438	0,085	0,132
-676,422	-85,441	0,126	-0,029
-675,408	443,276	0,068	0,112
-674,393	-94,835	0,152	0,030
-673,378	26,898	-0,081	0,050
-672,364	-200,000	-0,027	-0,110
-671,349	800,000	0,030	-0,097
-670,335	-51,126	0,054	-0,019
-669,320	-101,110	-0,039	-0,007
-668,305	338,326	-0,029	-0,043
-667,291	-82,328	-0,132	-0,032
-666,276	57,100	-0,129	-0,094
-665,262	-109,972	-0,024	0,004
-664,247	-200,000	0,012	0,057
-663,232	-200,000	-0,015	-0,099
-662,218	256,461	0,023	0,030
-661,203	-200,000	0,003	-0,035
-660,189	-200,000	0,002	0,034
-659,174	-80,382	-0,281	0,069
-658,159	221,138	-0,055	-0,066
-657,145	-200,000	-0,058	-0,201
-656,130	-106,568	0,114	0,019
-655,116	144,113	0,070	0,069
-654,101	-101,669	0,108	0,019
-653,086	469,137	-0,037	0,061
-652,072	-176,447	-0,068	-0,001
-651,057	606,782	-0,058	-0,107
-650,043	22,585	-0,042	0,025
-649,028	-31,557	-0,072	-0,030
-648,014	-62,162	0,110	0,034
-646,999	119,915	-0,102	-0,094
-645,984	713,170	0,023	0,046
-644,970	-9,869	0,027	0,013
-643,955	155,403	-0,082	-0,083
-642,941	16,405	-0,017	-0,010
-641,926	800,000	-0,044	-0,105
-640,911	-200,000	-0,005	0,022
-639,897	-200,000	0,005	0,138
-638,882	-110,551	-0,075	-0,011
-637,868	386,660	0,019	0,029
-636,853	47,059	-0,052	-0,036
-635,838	800,000	-0,027	-0,076
-634,824	310,855	0,022	-0,030
-633,809	-200,000	0,000	-0,064
-632,795	-200,000	-0,007	-0,110
-631,780	-150,225	-0,125	0,007
-630,765	800,000	-0,009	0,027
-629,751	-200,000	-0,020	-0,094
-628,736	-200,000	-0,012	-0,174
-627,722	230,721	-0,076	-0,093
-626,707	266,781	-0,053	-0,069
-625,692	-200,000	0,034	0,126
-624,678	161,862	0,074	-0,077
-623,663	34,872	0,036	-0,023
-622,649	-50,911	-0,069	0,024
-621,634	398,523	-0,009	0,014
-620,619	5,283	-0,044	0,024
-619,605	644,537	-0,055	0,104
-618,590	-200,000	0,011	0,057
-617,576	149,300	0,057	0,057
-616,561	-106,293	-0,091	-0,015
-615,546	20,417	-0,094	-0,056
-614,532	-200,000	-0,010	-0,056
-613,517	-200,000	0,001	-0,095
-612,503	488,348	-0,017	-0,029
-611,488	551,038	-0,061	0,109
-610,474	-27,288	0,087	-0,037
-609,459	279,458	-0,098	-0,130
-608,444	191,432	-0,066	-0,074
-607,430	-200,000	0,044	0,185
-606,415	-94,395	0,056	-0,011
-605,401	61,255	-0,086	0,063
-604,386	538,030	-0,027	0,047
-603,371	551,774	0,026	0,047
-602,357	-176,297	-0,020	-0,000
-601,342	557,567	-0,023	0,041
-600,328	-116,571	0,015	-0,002
-599,313	120,619	-0,046	-0,043
-598,298	-159,698	0,071	0,003
-597,284	-200,000	0,003	0,044
-596,269	800,000	-0,040	0,102
-595,255	-95,738	-0,171	-0,034
-594,240	128,377	-0,084	-0,080
-593,225	-10,927	0,140	-0,068
-592,211	17,141	-0,140	-0,082
-591,196	-26,887	0,070	-0,030
-590,182	800,000	-0,011	0,035
-589,167	-200,000	0,011	-0,045
-588,152	481,997	0,019	-0,032
-587,138	362,269	-0,093	-0,138
-586,123	-200,000	0,016	-0,168
-585,109	90,327	-0,046	-0,038
-584,094	66,010	-0,083	-0,063
-583,079	-200,000	-0,017	-0,075
-582,065	211,089	-0,018	0,021
-581,050	-127,383	-0,028	-0,003
-580,036	340,221	0,064	-0,092
-579,021	38,094	-0,095	-0,063
-578,006	-31,265	0,120	0,050
-576,992	-200,000	-0,016	0,130
-575,977	-153,479	0,078	-0,004
-574,963	-63,766	-0,024	0,007
-573,948	-131,906	0,141	0,013
-572,934	-38,899	0,072	0,028
-571,919	-50,241	-0,106	-0,037
-570,904	326,993	0,016	0,022
-569,890	118,546	0,095	0,087
-568,875	-55,123	-0,223	0,074
-567,861	24,416	0,044	0,027
-566,846	325,779	0,067	0,095
-565,831	800,000	-0,021	-0,069
-564,817	800,000	-0,050	-0,138
-563,802	800,000	0,034	-0,076
-562,788	718,258	0,028	-0,055
-561,773	147,561	0,119	-0,119
-560,758	-109,693	0,048	-0,007
-559,744	-200,000	0,007	0,068
-558,729	71,899	-0,052	-0,040
-557,715	43,151	-0,025	0,017
-556,700	36,503	-0,110	-0,072
-555,685	-76,386	-0,047	-0,012
-554,671	-66,831	-0,050	0,014
-553,656	115,950	-0,064	-0,058
-552,642	800,000	0,043	-0,098
-551,627	5,623	0,048	0,026
-550,612	-130,567	-0,112	0,011
-549,598	-200,000	0,002	0,095
-548,583	800,000	0,025	0,060
-547,569	-200,000	0,032	-0,124
-546,554	84,262	-0,019	-0,016
-545,539	-105,166	0,119	0,020
-544,525	-200,000	0,016	-0,069
-543,510	800,000	0,015	-0,042
-542,496	800,000	0,039	-0,104
-541,481	-6,083	-0,212	0,107
-540,466	-54,991	0,127	0,042
-539,452	86,616	-0,169	0,138
-538,437	624,458	-0,054	0,101
-537,423	81,165	0,092	0,073
-536,408	117,081	0,065	-0,059
-535,393	800,000	-0,008	0,017
-534,379	800,000	0,018	0,057
-533,364	-46,331	0,092	-0,033
-532,350	-200,000	0,027	0,144
-531,335	-158,507	0,120	-0,005
-530,321	-200,000	-0,024	0,121
-529,306	-200,000	-0,026	-0,151
-528,291	78,033	0,142	0,112
-527,277	800,000	-0,023	-0,051
-526,262	800,000	0,010	0,030
-525,248	800,000	0,017	-0,046
-524,233	-71,584	-0,040	0,011
-523,218	-123,566	-0,028	0,003
-522,204	-37,029	0,124	0,049
-521,189	89,423	-0,016	-0,013
-520,175	800,000	0,021	-0,057
-519,160	800,000	0,033	-0,076
-518,145	2,983	0,112	0,060
-517,131	166,292	0,103	-0,108
-516,116	-93,617	0,062	-0,013
-515,102	201,093	0,020	0,023
-514,087	-200,000	0,002	-0,168
-513,072	-200,000	-0,004	-0,069
-512,058	-200,000	0,005	0,075
-511,043	348,785	-0,059	-0,086
-510,029	97,193	0,019	0,016
-509,014	-64,263	0,077	0,023
-507,999	-77,879	-0,026	-0,007
-506,985	-138,741	-0,111	0,009
-505,970	-200,000	-0,019	0,096
-504,956	-200,000	-0,010	-0,143
-503,941	-63,709	-0,111	-0,033
-502,926	282,923	-0,065	0,087
-501,912	519,205	-0,085	0,147
-500,897	800,000	0,061	0,128
-499,883	-29,159	-0,096	0,041
-498,868	98,107	-0,143	-0,121
-497,853	-200,000	-0,005	-0,116
-496,839	443,617	-0,042	0,069
-495,824	453,295	0,064	0,104
-494,810	-24,099	0,027	0,012
-493,795	-200,000	0,004	-0,101
-492,781	22,097	-0,169	0,101
-491,766	-118,263	-0,122	0,016
-490,751	171,717	-0,120	-0,128
-489,737	284,211	0,102	-0,136
-488,722	187,366	0,085	-0,094
-487,708	-36,621	0,048	0,019
-486,693	-200,000	0,014	0,135
-485,678	-200,000	0,020	0,092
-484,664	413,920	0,087	0,137
-483,649	78,829	0,086	0,068
-482,635	174,796	-0,015	-0,016
-481,620	-200,000	0,019	0,062
-480,605	800,000	0,025	0,077
-479,591	-200,000	0,010	0,083
-478,576	118,713	-0,051	-0,046
-477,562	42,165	-0,090	-0,060
-476,547	-200,000	0,025	-0,121
-475,532	-61,078	0,097	0,030
-474,518	-200,000	0,024	0,080
-473,503	-94,934	0,049	0,010
-472,489	619,691	0,028	0,053
-471,474	-200,000	-0,011	0,121
-470,459	-135,084	0,052	-0,005
-469,445	38,918	-0,075	0,049
-468,430	13,738	0,099	0,057
-467,416	-200,000	0,015	0,095
-466,401	-126,981	0,080	0,009
-465,386	253,875	0,052	0,066
-464,372	-200,000	0,026	0,099
-463,357	800,000	-0,022	-0,055
-462,343	-172,316	-0,054	-0,001
-461,328	-200,000	-0,009	0,032
-460,313	52,636	0,128	0,090
-459,299	55,198	0,130	-0,092
-458,284	-0,688	0,039	-0,020
-457,270	663,774	-0,005	-0,009
-456,255	-72,205	0,087	-0,024
-455,241	364,311	-0,046	-0,069
-454,226	116,216	0,080	-0,072
-453,211	176,154	0,047	-0,051
-452,197	5,285	0,079	-0,043
-451,182	-10,116	0,141	-0,069
-450,168	-115,001	-0,092	0,013
-449,153	-21,121	0,049	-0,022
-448,138	36,074	0,125	-0,081
-447,124	451,339	-0,048	-0,078
-446,109	-200,000	0,004	0,047
-445,095	214,778	-0,047	-0,055
-444,080	151,824	-0,049	-0,050
-443,065	-122,225	-0,020	-0,002
-442,051	240,733	-0,064	-0,079
-441,036	800,000	0,062	0,156
-440,022	319,584	-0,072	-0,101
-439,007	6,740	-0,082	0,045
-437,992	431,648	-0,081	0,129
-436,978	-21,450	0,032	-0,014
-435,963	-200,000	0,009	-0,125
-434,949	-200,000	-0,002	-0,070
-433,934	-139,522	-0,113	-0,009
-432,919	-79,285	-0,033	0,008
-431,905	800,000	0,087	0,203
-430,890	-200,000	-0,001	0,014
-429,876	-200,000	0,030	-0,109
-428,861	151,651	0,016	0,016
-427,846	344,455	0,035	-0,050
-426,832	455,035	0,019	-0,031
-425,817	-48,326	-0,120	0,042
-424,803	285,380	-0,060	0,079
-423,788	-35,507	0,194	0,077
-422,773	77,503	0,101	-0,079
-421,759	-195,654	0,114	-0,001
-420,744	96,984	0,054	0,045
-419,730	453,834	-0,021	-0,035
-418,715	800,000	0,015	-0,041
-417,701	-200,000	0,022	-0,104
-416,686	-200,000	0,008	-0,196
-415,671	-138,786	0,144	-0,011
-414,657	-200,000	0,015	0,135
-413,642	-200,000	-0,089	-0,000
-412,628	86,628	-0,028	0,023
-411,613	311,502	-0,041	-0,057
-410,598	-100,168	0,051	0,009
-409,584	233,122	0,038	0,046
-408,569	-92,602	0,043	0,009
-407,555	-37,193	0,003	-0,001
-406,540	-23,578	-0,117	-0,051
-405,525	207,600	-0,075	0,086
-404,511	-110,189	0,120	0,018
-403,496	800,000	-0,017	-0,041
-402,482	-199,878	0,207	-0,001
-401,467	-83,856	-0,043	-0,010
-400,452	-23,424	0,023	-0,010
-399,438	89,635	-0,002	0,002
-398,423	236,189	-0,105	0,128
-397,409	-100,211	-0,065	0,012
-396,394	643,116	0,042	0,078
-395,379	-184,338	-0,087	-0,001
-394,365	-3,592	0,156	0,079
-393,350	800,000	0,018	0,058
-392,336	-83,040	-0,101	0,024
-391,321	-200,000	-0,015	-0,068
-390,306	-68,381	0,089	-0,025
-389,292	-65,075	-0,104	0,031
-388,277	-200,000	0,015	0,075
-387,263	-200,000	-0,002	-0,025
-386,248	-73,472	-0,079	-0,021
-385,233	-200,000	-0,020	0,104
-384,219	-20,551	-0,130	-0,059
-383,204	800,000	0,014	0,032
-382,190	-103,767	0,008	-0,001
-381,175	330,890	-0,022	0,031
-380,160	-38,818	0,071	0,027
-379,146	800,000	-0,030	-0,072
-378,131	339,730	-0,040	-0,058
-377,117	167,824	-0,085	0,089
-376,102	-200,000	0,007	-0,132
-375,088	-1,875	-0,116	-0,060
-374,073	-36,490	-0,033	-0,013
-373,058	335,371	0,015	0,021
-372,044	-115,953	0,058	-0,008
-371,029	-200,000	0,015	0,075
-370,015	304,172	-0,094	0,129
-369,000	-112,218	0,050	0,007
-367,985	800,000	-0,008	0,025
-366,971	800,000	-0,080	0,176
-365,956	-161,293	0,092	-0,003
-364,942	-16,849	0,042	-0,019
-363,927	-130,573	-0,154	0,015
-362,912	-42,206	-0,055	0,021
-361,898	90,192	0,059	-0,048
-360,883	800,000	-0,057	-0,165
-359,869	-200,000	-0,023	-0,089
-358,854	4,950	-0,026	0,014
-357,839	-200,000	-0,026	-0,112
-356,825	612,511	0,059	0,109
-355,810	-200,000	-0,008	0,069
-354,796	59,064	0,059	-0,043
-353,781	800,000	-0,062	-0,131
-352,766	-200,000	0,010	-0,064
-351,752	-200,000	0,004	0,029
-350,737	-182,556	0,111	0,001
-349,723	402,237	0,035	-0,054
-348,708	-200,000	0,002	-0,077
-347,693	-115,655	-0,085	-0,012
-346,679	-200,000	0,000	0,097
-345,664	-45,723	-0,063	0,023
-344,650	320,829	0,056	-0,078
-343,635	-99,331	0,208	0,038
-342,620	489,200	0,077	0,129
-341,606	451,269	0,019	-0,031
-340,591	-200,000	-0,011	0,037
-339,577	800,000	0,009	-0,025
-338,562	800,000	-0,060	0,124
-337,548	-200,000	0,013	0,054
-336,533	-45,991	0,063	-0,023
-335,518	135,046	0,081	-0,077
-334,504	271,102	0,063	0,082
-333,489	-103,498	0,126	0,022
-332,475	800,000	-0,035	-0,081
-331,460	-200,000	0,040	-0,152
-330,445	300,336	-0,076	-0,103
-329,431	17,568	0,066	0,038
-328,416	800,000	-0,028	0,061
-327,402	212,830	0,025	-0,028
-326,387	267,644	-0,052	0,068
-325,372	-200,000	0,022	-0,075
-324,358	-150,782	-0,107	0,006
-323,343	-75,640	0,012	-0,003
-322,329	800,000	-0,028	0,067
-321,314	-151,405	-0,082	-0,004
-320,299	-200,000	0,007	0,029
-319,285	-200,000	0,011	0,050
-318,270	-44,315	-0,069	-0,025
-317,256	11,221	0,072	-0,040
-316,241	566,801	0,045	0,080
-315,226	-200,000	0,003	0,097
-314,212	204,835	0,090	0,102
-313,197	800,000	-0,025	0,059
-312,183	-200,000	0,002	0,031
-311,168	-58,692	-0,075	0,024
-310,153	-112,637	-0,087	0,013
-309,139	-200,000	0,003	-0,163
-308,124	-200,000	0,032	-0,111
-307,110	800,000	0,037	0,103
-306,095	-200,000	0,007	0,074
-305,080	-10,979	0,114	-0,055
-304,066	800,000	-0,042	-0,090
-303,051	623,103	0,095	0,175
-302,037	123,789	-0,067	0,062
-301,022	515,525	-0,027	0,046
-300,008	-43,839	-0,058	0,021
-298,993	-60,181	0,085	0,026
-297,978	-200,000	0,001	0,012
-296,964	-200,000	-0,010	-0,120
-295,949	249,275	0,062	-0,077
-294,935	152,807	0,070	-0,070
-293,920	177,433	-0,058	0,061
-292,905	-190,585	0,097	-0,001
-291,891	489,848	-0,041	-0,069
-290,876	8,127	-0,047	-0,026
-289,862	800,000	-0,022	0,045
-288,847	-36,392	-0,039	0,015
-287,832	-92,199	0,126	0,026
-286,818	26,981	-0,068	0,042
-285,803	-116,597	-0,016	-0,002
-284,789	-200,000	0,005	0,105
-283,774	-69,682	0,071	-0,020
-282,759	-183,870	0,109	0,001
-281,745	-200,000	-0,013	0,044
-280,730	-200,000	-0,040	-0,166
-279,716	390,848	-0,121	-0,185
-278,701	-174,826	-0,156	0,003
-277,686	778,335	-0,013	0,025
-276,672	-43,220	0,096	-0,035
-275,657	128,156	0,037	0,034
-274,643	753,439	-0,084	0,167
-273,628	-44,345	-0,101	0,037
-272,613	321,387	0,023	-0,032
-271,599	-58,067	0,093	0,029
-270,584	153,478	0,097	0,097
-269,570	800,000	0,046	0,097
-268,555	389,590	0,012	0,018
-267,540	459,160	0,028	0,045
-266,526	-64,187	-0,062	0,018
-265,511	-186,908	0,071	-0,001
-264,497	54,104	0,083	0,058
-263,482	-13,114	0,173	0,082
-262,467	647,033	-0,039	0,073
-261,453	666,544	0,008	-0,015
-260,438	-200,000	0,013	-0,157
-259,424	-200,000	-0,009	0,068
-258,409	-118,029	-0,049	0,006
-257,395	800,000	0,048	0,110
-256,380	-200,000	0,018	0,146
-255,365	410,759	-0,093	0,145
-254,351	-200,000	0,013	0,073
-253,336	308,480	-0,025	0,035
-252,322	134,548	-0,037	-0,036
-251,307	33,578	-0,131	-0,083
-250,292	800,000	-0,042	-0,102
-249,278	-200,000	-0,004	0,063
-248,263	519,175	0,098	0,168
-247,249	80,214	-0,077	-0,060
-246,234	266,226	-0,018	0,023
-245,219	-147,435	0,136	0,008
-244,205	-129,588	-0,080	-0,008
-243,190	-23,477	0,034	0,015
-242,176	55,583	0,055	0,039
-241,161	-50,120	0,068	0,023
-240,146	800,000	0,019	-0,043
-239,132	94,160	-0,085	0,071
-238,117	800,000	-0,028	-0,073
-237,103	-200,000	0,004	0,066
-236,088	48,737	0,058	-0,040
-235,073	743,253	-0,072	0,142
-234,059	-200,000	-0,023	0,089
-233,044	-200,000	-0,007	0,040
-232,030	287,936	-0,066	0,087
-231,015	-200,000	-0,024	-0,120
-230,000	66,537	-0,086	-0,064
-228,986	131,905	-0,021	0,020
-227,971	-71,049	0,166	-0,045
-226,957	294,183	-0,058	-0,077
-225,942	-8,459	0,123	0,060
-224,927	-16,535	0,137	-0,063
-223,913	78,222	-0,065	-0,051
-222,898	52,388	0,082	0,057
-221,884	242,229	-0,034	0,042
-220,869	470,782	0,030	-0,049
-219,855	800,000	-0,069	0,145
-218,840	-37,566	0,056	0,022
-217,825	290,468	-0,047	-0,062
-216,811	-18,869	-0,108	0,049
-215,796	-200,000	-0,008	-0,098
-214,782	-41,990	0,039	0,014
-213,767	264,386	-0,003	0,003
-212,752	13,328	0,055	0,031
-211,738	-200,000	-0,004	0,025
-210,723	668,606	0,046	0,086
-209,709	41,423	-0,087	-0,057
-208,694	746,202	0,054	-0,107
-207,679	-200,000	-0,001	-0,085
-206,665	-74,378	-0,102	0,027
-205,650	236,828	-0,004	0,005
-204,636	-200,000	-0,016	0,142
-203,621	127,276	-0,088	-0,081
-202,606	5,113	0,077	-0,041
-201,592	-200,000	-0,129	0,000
-200,577	-186,650	0,080	-0,001
-199,563	-141,925	-0,014	0,001
-198,548	-200,000	0,027	0,174
-197,533	16,622	0,038	0,022
-196,519	493,894	-0,023	0,038
-195,504	146,058	-0,103	-0,101
-194,490	-58,224	-0,100	-0,032
-193,475	445,183	-0,062	0,100
-192,460	-130,315	0,015	-0,001
-191,446	34,111	0,023	0,015
-190,431	28,449	0,123	0,075
-189,417	-42,353	-0,028	-0,010
-188,402	-86,104	-0,111	0,025
-187,387	322,980	-0,060	-0,083
-186,373	-39,746	-0,129	-0,049
-185,358	-157,091	0,080	0,003
-184,344	-9,739	0,067	0,033
-183,329	173,697	-0,052	0,054
-182,315	155,039	0,019	0,019
-181,300	-200,000	-0,004	-0,113
-180,285	-200,000	0,017	-0,055
-179,271	-45,997	-0,055	-0,020
-178,256	171,865	-0,049	-0,052
-177,242	406,146	-0,018	-0,027
-176,227	800,000	0,035	-0,087
-175,212	800,000	-0,011	0,032
-174,198	220,413	-0,042	-0,049
-173,183	166,765	-0,061	0,063
-172,169	-200,000	-0,006	-0,062
-171,154	319,560	-0,111	-0,154
-170,139	264,057	0,079	-0,101
-169,125	94,268	-0,060	-0,049
-168,110	-200,000	0,002	0,155
-167,096	43,727	0,145	-0,096
-166,081	376,341	0,032	-0,048
-165,066	4,372	0,033	0,017
-164,052	-68,809	-0,079	-0,022
-163,037	-200,000	0,003	-0,031
-162,023	172,256	0,105	-0,110
-161,008	221,481	-0,031	0,036
-159,993	-200,000	-0,020	-0,092
-158,979	234,235	0,048	0,057
-157,964	52,806	0,067	0,046
-156,950	-142,250	0,026	0,002
-155,935	-15,549	-0,021	-0,010
-154,920	-200,000	0,008	-0,046
-153,906	60,915	0,065	-0,047
-152,891	165,175	0,034	-0,035
-151,877	-161,100	-0,010	0,000
-150,862	-106,464	-0,018	0,003
-149,847	271,003	-0,099	0,128
-148,833	800,000	0,102	0,242
-147,818	-168,399	-0,290	-0,008
-146,804	-47,512	0,168	0,059
-145,789	51,776	0,037	-0,025
-144,775	800,000	0,023	-0,058
-143,760	-200,000	0,015	0,117
-142,745	-103,717	-0,204	-0,034
-141,731	-16,728	-0,029	0,013
-140,716	499,732	0,063	0,106
-139,702	180,690	0,079	0,085
-138,687	71,320	0,113	0,085
-137,672	-153,279	0,059	0,003
-136,658	75,252	-0,118	-0,091
-135,643	-200,000	0,013	-0,164
-134,629	-15,599	0,080	0,037
-133,614	-200,000	-0,010	-0,067
-132,599	16,226	-0,014	-0,008
-131,585	458,045	0,063	0,102
-130,570	-200,000	0,013	0,145
-129,556	52,210	0,098	-0,068
-128,541	-130,845	0,087	-0,008
-127,526	-170,011	-0,040	-0,001
-126,512	591,751	-0,031	-0,056
-125,497	210,113	0,112	0,128
-124,483	12,082	0,148	-0,083
-123,468	-53,895	-0,214	0,071
-122,453	800,000	-0,044	-0,095
-121,439	166,311	-0,086	-0,089
-120,424	-9,280	0,135	-0,065
-119,410	-200,000	-0,001	0,033
