DTS Sentinel unit serial number:	SN410029Multiplexer serial number:	ORYXHardware model number:	OX2-SRSoftware version number:	ORYX F/W v4,00 Oryx Data Collector v3.7.2.0data status	okinstallation	B6 Nyhavnadifferential loss correction	single-endedforward channel	channel 2reverse channel	N/Adate	2023/12/08time	13:10:08forward acquisition time	300,00reverse acquisition time	0,00gamma	499,1914k internal	0,3159k external	0,3159temperature offset calibration	1,0000default loss term (dB/km)	0,3820temperature slope calibration	1,0000multiplexer offset coefficient	1,0000multiplexer slope coefficient	1,0000fibre end	0,00T internal ref (°C)	15,06T ext. ref 1 (°C)	-1,53T ext. ref 2 (°C)	-1,53length (m)	temperature (°C)	Stokes	anti-Stokes-744,400	72,068	0,090	0,069
-743,385	-80,304	-0,301	0,074
-742,371	4,737	0,056	0,030
-741,356	-56,211	-0,287	0,093
-740,342	-149,914	0,203	-0,011
-739,327	-74,190	-0,404	-0,107
-738,312	-31,834	0,099	0,041
-737,298	-87,457	-0,296	-0,065
-736,283	-200,000	-0,022	0,093
-735,269	-110,881	-0,270	-0,041
-734,254	-108,356	0,125	0,020
-733,239	-38,411	-0,512	-0,198
-732,225	-200,000	0,007	-0,139
-731,210	150,313	0,021	-0,021
-730,196	338,353	0,050	-0,072
-729,181	-200,000	0,013	-0,084
-728,167	-200,000	0,004	-0,049
-727,152	-200,000	-0,044	0,199
-726,137	97,555	-0,101	-0,085
-725,123	34,066	0,035	-0,022
-724,108	800,000	-0,042	0,128
-723,094	-62,911	-0,262	-0,079
-722,079	355,630	-0,122	-0,180
-721,064	179,701	-0,060	-0,065
-720,050	-53,747	0,175	0,058
-719,035	800,000	-0,024	0,074
-718,021	248,330	-0,024	0,030
-717,006	4,182	-0,052	-0,028
-715,991	226,609	0,030	-0,036
-714,977	-200,000	0,007	0,052
-713,962	-46,036	-0,115	0,041
-712,948	130,972	0,082	-0,078
-711,933	-200,000	0,014	-0,105
-710,918	800,000	0,085	-0,251
-709,904	800,000	-0,063	-0,136
-708,889	-200,000	-0,004	-0,069
-707,875	301,981	-0,016	-0,022
-706,860	7,726	-0,041	-0,022
-705,845	-115,734	0,062	-0,008
-704,831	42,089	0,060	-0,040
-703,816	-200,000	0,004	0,039
-702,802	-139,175	-0,272	-0,021
-701,787	43,943	-0,086	-0,058
-700,772	800,000	0,029	-0,079
-699,758	-200,000	0,022	-0,112
-698,743	800,000	0,026	-0,082
-697,729	-200,000	0,002	-0,127
-696,714	-200,000	0,003	0,060
-695,699	131,912	-0,058	0,055
-694,685	459,940	-0,102	-0,167
-693,670	231,529	-0,016	0,020
-692,656	-200,000	0,004	0,068
-691,641	285,596	0,082	-0,109
-690,627	-81,779	0,141	0,034
-689,612	-200,000	0,029	0,100
-688,597	800,000	-0,025	-0,063
-687,583	-200,000	0,029	-0,150
-686,568	800,000	-0,060	-0,132
-685,554	-161,822	0,151	-0,006
-684,539	249,527	-0,051	0,064
-683,524	-32,410	0,040	0,016
-682,510	-200,000	0,005	-0,170
-681,495	800,000	-0,036	-0,108
-680,481	205,062	-0,054	-0,061
-679,466	-200,000	0,023	-0,147
-678,451	-168,937	0,113	-0,003
-677,437	4,222	0,096	0,052
-676,422	25,176	-0,028	-0,017
-675,408	800,000	-0,017	0,035
-674,393	-32,187	0,060	-0,025
-673,378	389,840	-0,108	-0,165
-672,364	-27,168	-0,080	-0,034
-671,349	-200,000	-0,002	-0,148
-670,335	209,427	0,017	0,020
-669,320	800,000	-0,023	0,059
-668,305	-31,317	0,096	0,039
-667,291	231,373	0,045	-0,055
-666,276	-90,534	-0,105	-0,022
-665,262	-200,000	0,011	-0,099
-664,247	136,532	-0,026	-0,025
-663,232	421,537	-0,024	-0,039
-662,218	-126,526	0,092	-0,010
-661,203	-152,705	-0,190	-0,010
-660,189	-99,149	0,066	0,012
-659,174	381,783	0,051	-0,078
-658,159	86,296	-0,012	-0,010
-657,145	-149,324	-0,164	-0,009
-656,130	129,785	0,023	-0,022
-655,116	-4,789	0,082	0,042
-654,101	91,672	0,082	-0,068
-653,086	-200,000	-0,001	0,012
-652,072	800,000	-0,023	0,060
-651,057	800,000	-0,038	-0,112
-650,043	93,417	-0,092	0,076
-649,028	-200,000	0,011	0,164
-648,014	-74,264	-0,131	0,035
-646,999	-80,175	0,052	0,013
-645,984	-200,000	0,023	0,082
-644,970	-37,536	-0,015	-0,006
-643,955	-123,087	-0,038	0,004
-642,941	31,703	-0,137	-0,086
-641,926	800,000	-0,037	0,085
-640,911	-200,000	-0,001	0,081
-639,897	-200,000	-0,004	-0,231
-638,882	-189,567	-0,060	0,000
-637,868	-10,081	0,032	0,015
-636,853	-180,029	-0,175	0,003
-635,838	207,493	0,079	0,090
-634,824	800,000	0,058	-0,153
-633,809	-151,687	-0,057	0,003
-632,795	-200,000	-0,002	-0,101
-631,780	800,000	-0,039	0,112
-630,765	800,000	-0,033	-0,069
-629,751	-149,708	0,085	0,005
-628,736	-68,080	-0,101	-0,029
-627,722	587,492	0,054	-0,099
-626,707	-132,993	0,156	0,014
-625,692	-200,000	0,033	0,115
-624,678	105,818	-0,059	0,051
-623,663	153,234	-0,070	0,070
-622,649	126,594	-0,083	-0,077
-621,634	-150,197	-0,089	0,005
-620,619	31,195	-0,048	0,030
-619,605	103,827	0,046	0,040
-618,590	-71,431	0,069	-0,019
-617,576	-200,000	-0,035	0,141
-616,561	800,000	0,063	0,142
-615,546	-0,998	-0,053	0,027
-614,532	800,000	-0,033	-0,082
-613,517	-50,238	-0,111	-0,038
-612,503	27,734	-0,076	-0,047
-611,488	403,180	0,038	0,059
-610,474	-29,811	-0,095	-0,039
-609,459	159,666	0,064	0,066
-608,444	161,358	0,048	0,049
-607,430	417,641	0,078	-0,123
-606,415	-86,639	-0,138	0,031
-605,401	-200,000	-0,017	0,107
-604,386	611,740	0,043	-0,080
-603,371	-130,568	0,052	0,005
-602,357	800,000	-0,011	-0,026
-601,342	-184,265	-0,102	-0,001
-600,328	-74,591	0,078	0,020
-599,313	-39,464	-0,085	-0,033
-598,298	-3,753	-0,076	0,039
-597,284	800,000	0,053	0,139
-596,269	-200,000	0,014	0,138
-595,255	-200,000	-0,029	0,194
-594,240	-148,386	-0,130	-0,008
-593,225	195,353	-0,043	-0,047
-592,211	-200,000	0,009	-0,170
-591,196	164,527	0,063	0,065
-590,182	-200,000	-0,024	0,086
-589,167	283,715	-0,046	-0,061
-588,152	-118,006	-0,054	-0,007
-587,138	364,082	-0,127	-0,187
-586,123	-200,000	0,002	-0,080
-585,109	800,000	-0,016	0,048
-584,094	645,004	0,060	-0,112
-583,079	55,489	-0,029	-0,021
-582,065	-170,814	-0,073	0,002
-581,050	-200,000	-0,006	0,027
-580,036	135,103	0,068	0,065
-579,021	-15,354	-0,119	0,055
-578,006	-79,895	-0,044	-0,011
-576,992	43,106	0,048	-0,032
-575,977	-200,000	0,017	0,084
-574,963	-200,000	-0,001	-0,055
-573,948	-200,000	-0,023	-0,131
-572,934	-200,000	0,001	0,086
-571,919	23,806	-0,034	-0,021
-570,904	23,934	0,129	0,078
-569,890	34,434	0,067	-0,043
-568,875	253,816	0,044	-0,056
-567,861	-21,293	-0,161	0,072
-566,846	367,722	0,060	-0,089
-565,831	-200,000	-0,001	-0,025
-564,817	270,600	-0,031	0,040
-563,802	264,334	0,068	0,087
-562,788	56,199	0,147	-0,104
-561,773	134,300	0,060	0,057
-560,758	-200,000	0,019	0,097
-559,744	541,227	0,072	0,127
-558,729	149,513	-0,088	-0,088
-557,715	54,988	0,087	0,061
-556,700	133,716	0,049	0,047
-555,685	85,046	0,039	-0,031
-554,671	-200,000	0,015	-0,076
-553,656	-200,000	0,001	0,084
-552,642	-200,000	0,006	0,022
-551,627	-200,000	-0,031	0,102
-550,612	408,016	-0,068	-0,105
-549,598	-200,000	-0,004	-0,138
-548,583	800,000	-0,063	0,130
-547,569	-148,689	-0,071	0,004
-546,554	26,849	0,115	-0,071
-545,539	-200,000	0,014	-0,049
-544,525	183,843	-0,075	0,082
-543,510	-80,861	-0,116	0,028
-542,496	-200,000	-0,022	-0,096
-541,481	800,000	0,018	0,041
-540,466	7,453	0,093	-0,051
-539,452	88,124	0,040	-0,033
-538,437	142,706	-0,047	0,045
-537,423	-41,586	0,082	0,031
-536,408	-200,000	0,044	-0,197
-535,393	120,409	-0,041	-0,037
-534,379	-135,222	-0,050	-0,004
-533,364	3,163	-0,060	0,032
-532,350	28,885	0,094	-0,058
-531,335	52,351	0,113	-0,079
-530,321	-200,000	0,004	-0,181
-529,306	79,096	-0,025	0,020
-528,291	249,371	-0,072	-0,090
-527,277	719,847	-0,082	-0,160
-526,262	17,236	-0,047	0,027
-525,248	234,097	-0,076	0,092
-524,233	-200,000	-0,012	0,094
-523,218	-60,355	-0,112	-0,035
-522,204	28,331	-0,098	-0,061
-521,189	29,356	0,060	-0,037
-520,175	800,000	-0,036	-0,086
-519,160	-19,599	-0,116	0,052
-518,145	135,022	-0,044	-0,042
-517,131	360,883	-0,056	-0,082
-516,116	-200,000	0,012	-0,062
-515,102	-38,953	-0,026	-0,010
-514,087	117,220	-0,148	-0,133
-513,072	800,000	0,068	-0,142
-512,058	152,548	0,053	-0,053
-511,043	-200,000	-0,005	-0,083
-510,029	144,114	0,082	0,080
-509,014	205,873	0,087	0,099
-507,999	800,000	-0,052	0,113
-506,985	-172,550	-0,136	-0,003
-505,970	-91,307	-0,095	0,020
-504,956	-200,000	0,005	0,052
-503,941	732,190	-0,031	-0,060
-502,926	145,676	0,039	-0,038
-501,912	32,800	0,216	0,136
-500,897	-144,021	0,041	-0,003
-499,883	241,166	0,044	-0,054
-498,868	649,630	-0,036	-0,067
-497,853	-104,974	-0,055	-0,009
-496,839	-159,528	-0,116	0,005
-495,824	116,515	-0,048	0,043
-494,810	-32,897	0,185	-0,075
-493,795	800,000	-0,069	-0,164
-492,781	800,000	-0,016	-0,047
-491,766	-200,000	-0,001	0,151
-490,751	41,132	-0,105	-0,069
-489,737	-69,415	-0,080	-0,022
-488,722	-200,000	0,007	0,028
-487,708	-200,000	0,025	0,132
-486,693	-200,000	0,029	0,183
-485,678	51,966	0,056	0,039
-484,664	-200,000	-0,002	-0,089
-483,649	-94,488	0,039	-0,008
-482,635	128,524	-0,019	0,018
-481,620	-118,293	0,146	0,019
-480,605	-200,000	0,009	0,070
-479,591	-200,000	-0,016	0,127
-478,576	-200,000	-0,157	-0,000
-477,562	-140,062	0,158	0,012
-476,547	800,000	0,020	-0,059
-475,532	800,000	0,019	-0,043
-474,518	-10,977	0,144	-0,069
-473,503	-200,000	0,019	0,124
-472,489	-200,000	0,020	0,123
-471,474	-200,000	-0,009	0,150
-470,459	-66,279	-0,128	0,037
-469,445	800,000	0,040	-0,106
-468,430	47,095	-0,040	0,027
-467,416	800,000	0,043	-0,091
-466,401	420,427	-0,052	0,081
-465,386	-29,581	-0,057	-0,024
-464,372	162,941	0,108	0,111
-463,357	170,080	-0,097	-0,101
-462,343	197,293	-0,028	0,031
-461,328	223,742	-0,119	-0,140
-460,313	-200,000	-0,008	0,072
-459,299	-127,425	0,132	-0,014
-458,284	-200,000	0,004	0,033
-457,270	-80,247	0,059	0,014
-456,255	-200,000	0,000	0,057
-455,241	200,225	-0,006	0,007
-454,226	143,485	0,110	-0,107
-453,211	-200,000	0,007	0,036
-452,197	-200,000	-0,028	0,096
-451,182	30,485	0,043	-0,027
-450,168	800,000	0,025	-0,058
-449,153	-15,779	-0,036	-0,016
-448,138	36,073	0,134	-0,086
-447,124	800,000	0,025	0,074
-446,109	731,394	0,039	-0,076
-445,095	-150,347	-0,008	-0,000
-444,080	-119,793	-0,045	0,006
-443,065	800,000	-0,024	0,076
-442,051	7,692	-0,089	-0,048
-441,036	-48,609	-0,028	0,010
-440,022	800,000	0,039	0,125
-439,007	309,723	-0,061	-0,083
-437,992	234,266	0,031	0,038
-436,978	-200,000	0,103	-0,000
-435,963	265,804	-0,078	-0,099
-434,949	452,379	-0,077	-0,124
-433,934	-27,955	-0,139	-0,058
-432,919	710,077	0,033	0,065
-431,905	536,491	-0,021	0,037
-430,890	-31,091	0,035	0,014
-429,876	-53,143	0,045	0,015
-428,861	-82,166	0,057	0,013
-427,846	202,017	-0,065	0,073
-426,832	800,000	0,030	0,084
-425,817	-110,143	-0,151	0,023
-424,803	-200,000	-0,003	-0,053
-423,788	14,623	0,043	-0,025
-422,773	168,386	0,104	-0,108
-421,759	51,396	0,089	-0,061
-420,744	-84,922	-0,088	0,020
-419,730	800,000	-0,085	-0,216
-418,715	-200,000	-0,008	0,051
-417,701	-57,569	0,134	0,042
-416,686	14,362	0,120	0,068
-415,671	356,750	0,029	-0,042
-414,657	-200,000	-0,008	-0,098
-413,642	49,225	0,109	0,074
-412,628	-23,756	-0,074	0,032
-411,613	-200,000	0,021	-0,094
-410,598	-25,104	-0,173	0,074
-409,584	-55,658	0,019	0,006
-408,569	49,125	0,178	0,121
-407,555	345,260	-0,057	0,081
-406,540	-200,000	-0,003	-0,027
-405,525	-200,000	-0,036	0,196
-404,511	-118,412	0,064	-0,008
-403,496	47,849	0,143	-0,097
-402,482	187,148	0,051	-0,055
-401,467	276,823	-0,024	0,031
-400,452	-74,668	0,086	-0,022
-399,438	121,330	-0,066	0,060
-398,423	-200,000	0,004	-0,063
-397,409	40,140	0,121	-0,079
-396,394	195,012	-0,016	0,018
-395,379	-31,973	0,152	0,062
-394,365	800,000	-0,052	0,142
-393,350	-200,000	0,013	0,119
-392,336	246,331	-0,099	0,122
-391,321	-9,537	0,026	-0,013
-390,306	18,024	-0,041	0,024
-389,292	-200,000	0,027	-0,114
-388,277	62,994	0,085	0,062
-387,263	-200,000	-0,009	0,155
-386,248	800,000	0,016	0,035
-385,233	67,076	0,049	-0,036
-384,219	-200,000	0,005	0,022
-383,204	-200,000	0,017	-0,078
-382,190	-160,210	-0,073	-0,003
-381,175	143,267	0,048	-0,047
-380,160	280,927	0,064	0,083
-379,146	212,970	0,076	0,087
-378,131	360,370	0,069	0,100
-377,117	571,992	0,032	0,056
-376,102	-200,000	0,017	-0,069
-375,088	568,745	0,029	0,052
-374,073	279,311	0,100	-0,130
-373,058	-200,000	0,005	0,029
-372,044	20,435	0,126	0,074
-371,029	-200,000	-0,020	0,127
-370,015	-200,000	0,005	0,052
-369,000	285,303	0,031	-0,041
-367,985	-200,000	0,013	-0,130
-366,971	-200,000	-0,007	0,102
-365,956	143,224	0,068	-0,066
-364,942	-49,855	0,088	-0,030
-363,927	-200,000	0,007	0,065
-362,912	176,637	-0,009	0,009
-361,898	460,803	0,030	0,049
-360,883	22,619	-0,100	-0,059
-359,869	130,805	-0,065	0,060
-358,854	-63,194	0,087	-0,026
-357,839	348,486	-0,028	0,040
-356,825	517,967	-0,014	0,023
-355,810	800,000	-0,024	0,075
-354,796	53,219	-0,173	-0,120
-353,781	-200,000	0,014	0,052
-352,766	-168,272	-0,049	-0,001
-351,752	-123,375	-0,038	-0,004
-350,737	-167,531	-0,075	0,002
-349,723	60,235	0,047	0,034
-348,708	39,557	0,085	0,055
-347,693	224,441	0,021	-0,025
-346,679	319,711	-0,080	-0,110
-345,664	-200,000	-0,007	-0,086
-344,650	696,629	-0,064	0,122
-343,635	84,135	0,116	0,092
-342,620	-200,000	-0,034	0,137
-341,606	196,071	0,026	-0,028
-340,591	61,998	-0,072	0,052
-339,577	277,632	0,014	-0,019
-338,562	-200,000	0,012	0,101
-337,548	-200,000	0,037	-0,149
-336,533	507,717	0,023	0,039
-335,518	-200,000	-0,007	-0,080
-334,504	-200,000	0,017	-0,082
-333,489	-17,399	-0,123	0,056
-332,475	-19,014	-0,139	-0,063
-331,460	-200,000	-0,024	-0,251
-330,445	750,849	0,027	0,053
-329,431	79,347	0,094	-0,073
-328,416	40,998	-0,083	0,054
-327,402	604,837	0,043	0,078
-326,387	41,073	-0,047	-0,031
-325,372	-200,000	-0,009	0,061
-324,358	-200,000	-0,002	-0,099
-323,343	263,349	-0,065	-0,082
-322,329	-168,943	0,107	-0,003
-321,314	289,123	0,053	-0,070
-320,299	-66,012	0,143	0,041
-319,285	-94,463	-0,144	0,028
-318,270	-124,093	0,174	0,020
-317,256	463,854	-0,089	0,144
-316,241	54,752	0,023	0,016
-315,226	-200,000	0,016	-0,063
-314,212	800,000	0,050	0,105
-313,197	-102,791	-0,200	0,034
-312,183	-200,000	0,005	-0,076
-311,168	28,981	0,016	-0,010
-310,153	413,552	-0,036	-0,055
-309,139	86,909	-0,044	0,035
-308,124	-21,845	0,089	-0,039
-307,110	13,069	0,127	0,071
-306,095	75,443	0,028	0,021
-305,080	-200,000	0,011	-0,058
-304,066	213,346	-0,103	-0,118
-303,051	-20,599	-0,141	-0,063
-302,037	800,000	-0,049	-0,110
-301,022	-65,677	-0,064	-0,018
-300,008	-8,808	0,170	0,082
-298,993	393,790	0,103	0,156
-297,978	227,596	-0,048	0,056
-296,964	-174,513	0,095	0,002
-295,949	800,000	-0,048	-0,097
-294,935	800,000	-0,055	-0,114
-293,920	800,000	0,037	-0,094
-292,905	-183,340	0,054	-0,001
-291,891	-200,000	0,017	0,131
-290,876	-200,000	-0,000	-0,047
-289,862	800,000	0,023	-0,047
-288,847	-200,000	-0,011	-0,142
-287,832	215,887	0,111	0,128
-286,818	444,784	-0,029	-0,047
-285,803	170,403	-0,103	0,107
-284,789	-9,670	0,104	0,050
-283,774	-200,000	-0,031	-0,106
-282,759	213,833	-0,104	0,119
-281,745	-75,851	-0,092	-0,023
-280,730	800,000	-0,053	-0,164
-279,716	19,371	0,030	-0,018
-278,701	-50,717	0,104	0,035
-277,686	-30,853	0,069	-0,028
-276,672	-68,386	-0,053	-0,015
-275,657	31,787	0,143	-0,089
-274,643	-49,728	-0,109	-0,037
-273,628	56,642	-0,077	-0,054
-272,613	649,457	0,052	-0,097
-271,599	-200,000	0,021	-0,068
-270,584	43,017	0,016	-0,011
-269,570	-38,063	0,059	-0,023
-268,555	-145,894	0,156	-0,010
-267,540	-38,681	-0,123	0,047
-266,526	800,000	-0,046	-0,120
-265,511	82,639	0,102	0,080
-264,497	-90,218	0,082	0,017
-263,482	33,678	0,052	-0,033
-262,467	-200,000	0,037	0,158
-261,453	800,000	0,033	0,089
-260,438	349,527	0,015	0,022
-259,424	145,189	-0,056	0,054
-258,409	68,810	-0,014	-0,010
-257,395	-200,000	0,012	-0,111
-256,380	-59,862	-0,116	-0,036
-255,365	419,864	0,030	0,046
-254,351	800,000	-0,033	-0,100
-253,336	800,000	-0,020	-0,051
-252,322	216,665	-0,039	0,045
-251,307	-200,000	0,034	0,115
-250,292	-200,000	-0,007	-0,056
-249,278	800,000	0,089	0,192
-248,263	-30,819	0,204	0,083
-247,249	-105,488	0,168	-0,027
-246,234	-40,424	-0,098	0,037
-245,219	361,098	-0,058	0,084
-244,205	-2,679	-0,051	0,026
-243,190	-200,000	-0,018	-0,126
-242,176	-129,658	-0,126	-0,012
-241,161	450,100	0,086	0,138
-240,146	-13,849	0,106	-0,049
-239,132	-157,866	-0,063	0,003
-238,117	-200,000	-0,012	-0,074
-237,103	-146,021	0,034	0,002
-236,088	800,000	-0,013	-0,029
-235,073	-72,325	0,029	-0,008
-234,059	16,324	0,039	0,022
-233,044	706,582	-0,050	-0,096
-232,030	-55,643	0,083	-0,027
-231,015	-65,566	0,133	0,038
-230,000	77,170	-0,124	-0,095
-228,986	800,000	0,054	-0,132
-227,971	-200,000	-0,002	-0,033
-226,957	516,313	-0,086	0,146
-225,942	-200,000	-0,012	-0,071
-224,927	-79,766	-0,088	-0,021
-223,913	-200,000	-0,023	-0,090
-222,898	621,134	-0,031	-0,056
-221,884	605,765	0,039	0,070
-220,869	-55,665	0,092	0,030
-219,855	800,000	0,038	0,076
-218,840	-39,232	0,093	0,035
-217,825	-200,000	-0,011	0,060
-216,811	588,794	-0,063	-0,113
-215,796	800,000	-0,053	-0,162
-214,782	599,801	0,050	0,090
-213,767	-50,815	-0,074	0,025
-212,752	800,000	0,039	-0,101
-211,738	55,617	0,146	0,102
-210,723	800,000	0,017	0,047
-209,709	371,259	-0,066	0,097
-208,694	49,192	-0,014	-0,009
-207,679	-200,000	-0,003	0,038
-206,665	8,297	0,098	-0,053
-205,650	-200,000	-0,005	0,059
-204,636	671,174	-0,048	0,090
-203,621	354,087	0,069	0,099
-202,606	-90,140	-0,089	0,019
-201,592	13,533	-0,051	-0,029
-200,577	59,995	-0,084	0,060
-199,563	182,843	-0,162	0,173
-198,548	-141,771	-0,075	0,005
-197,533	-7,502	-0,043	-0,021
-196,519	-200,000	-0,022	-0,093
-195,504	-200,000	0,001	-0,043
-194,490	-200,000	0,027	-0,125
-193,475	127,317	0,014	-0,013
-192,460	-115,330	0,052	-0,007
-191,446	402,078	0,072	-0,109
-190,431	90,665	0,069	-0,056
-189,417	-200,000	0,043	0,151
-188,402	800,000	-0,041	-0,097
-187,387	31,103	-0,083	-0,051
-186,373	-200,000	0,041	-0,184
-185,358	-184,713	-0,190	0,002
-184,344	800,000	-0,029	-0,069
-183,329	-200,000	-0,016	-0,099
-182,315	14,781	0,049	-0,028
-181,300	-47,505	-0,027	-0,010
-180,285	95,851	-0,037	0,030
-179,271	18,327	0,067	0,038
-178,256	-20,587	0,047	-0,021
-177,242	665,732	0,041	0,077
-176,227	-200,000	0,025	0,081
-175,212	-46,526	-0,077	-0,027
-174,198	-200,000	-0,001	0,021
-173,183	-54,367	0,045	0,015
-172,169	-19,204	-0,103	0,046
-171,154	175,358	-0,057	-0,060
-170,139	-120,018	-0,015	0,002
-169,125	36,881	-0,006	-0,004
-168,110	-200,000	0,016	-0,074
-167,096	461,127	0,082	-0,131
-166,081	360,283	0,059	-0,085
-165,066	-200,000	0,039	-0,156
-164,052	-85,954	-0,045	0,010
-163,037	-69,202	0,022	0,006
-162,023	-200,000	0,049	0,166
-161,008	270,345	0,039	0,050
-159,993	-83,114	-0,064	-0,015
-158,979	-200,000	-0,018	-0,068
-157,964	72,661	-0,015	-0,011
-156,950	11,756	0,136	0,075
-155,935	302,156	-0,072	-0,096
-154,920	-200,000	0,010	0,108
-153,906	-200,000	0,018	0,154
-152,891	0,600	-0,104	0,053
-151,877	800,000	-0,020	-0,063
-150,862	17,106	-0,108	-0,061
-149,847	679,672	0,057	0,108
-148,833	-200,000	0,010	0,106
-147,818	-200,000	0,002	0,024
-146,804	-200,000	-0,012	0,047
-145,789	293,956	0,031	0,041
-144,775	-200,000	0,021	-0,103
-143,760	-43,394	-0,121	-0,044
-142,745	800,000	-0,072	-0,215
-141,731	92,820	-0,038	-0,031
-140,716	73,417	0,113	0,085
-139,702	-200,000	-0,024	0,166
-138,687	-100,809	0,053	0,009
-137,672	182,733	0,058	0,061
-136,658	-0,131	-0,055	0,028
-135,643	-200,000	0,009	0,102
-134,629	16,571	0,045	0,025
-133,614	-200,000	-0,032	0,105
-132,599	380,740	0,025	-0,037
-131,585	105,418	0,123	-0,105
-130,570	-200,000	0,013	-0,047
-129,556	66,517	-0,068	0,050
-128,541	490,692	0,037	0,061
-127,526	-200,000	-0,031	0,175
-126,512	-70,640	0,075	0,020
-125,497	-200,000	-0,022	0,131
-124,483	-200,000	-0,007	0,106
-123,468	392,802	0,051	-0,076
-122,453	800,000	-0,048	-0,119
-121,439	778,279	-0,073	-0,145
-120,424	-200,000	-0,013	-0,074
-119,410	169,674	0,024	-0,025
