DTS Sentinel unit serial number:	SN410029Multiplexer serial number:	ORYXHardware model number:	OX2-SRSoftware version number:	ORYX F/W v4,00 Oryx Data Collector v3.7.2.0data status	okinstallation	B6 Nyhavnadifferential loss correction	single-endedforward channel	channel 2reverse channel	N/Adate	2023/12/09time	10:00:08forward acquisition time	300,00reverse acquisition time	0,00gamma	499,1914k internal	0,3139k external	0,3139temperature offset calibration	1,0000default loss term (dB/km)	0,3820temperature slope calibration	1,0000multiplexer offset coefficient	1,0000multiplexer slope coefficient	1,0000fibre end	0,00T internal ref (°C)	18,50T ext. ref 1 (°C)	2,14T ext. ref 2 (°C)	2,14length (m)	temperature (°C)	Stokes	anti-Stokes-744,400	-200,000	-0,015	0,050
-743,385	-80,588	-0,199	0,049
-742,371	-14,717	0,077	0,037
-741,356	-105,240	-0,230	0,039
-740,342	205,431	0,052	0,060
-739,327	-58,294	-0,139	-0,045
-738,312	-58,806	0,100	0,032
-737,298	-48,522	-0,252	-0,089
-736,283	-200,000	-0,022	-0,094
-735,269	-25,391	-0,295	0,129
-734,254	574,598	0,082	0,149
-733,239	-44,604	-0,502	-0,185
-732,225	164,719	0,017	-0,018
-731,210	-200,000	0,029	-0,108
-730,196	800,000	0,037	-0,087
-729,181	-91,278	0,133	-0,028
-728,167	-200,000	0,023	-0,093
-727,152	-200,000	-0,006	-0,039
-726,137	800,000	0,049	-0,122
-725,123	786,870	-0,100	-0,204
-724,108	-200,000	-0,043	-0,146
-723,094	-161,125	-0,089	0,003
-722,079	-29,164	-0,163	-0,069
-721,064	-142,169	-0,032	0,002
-720,050	82,783	-0,107	-0,086
-719,035	-200,000	0,003	-0,041
-718,021	2,742	-0,149	0,080
-717,006	-51,665	-0,121	-0,042
-715,991	-40,115	-0,081	-0,031
-714,977	86,114	0,039	-0,032
-713,962	-200,000	0,023	-0,137
-712,948	-124,060	0,066	0,008
-711,933	-200,000	-0,008	-0,075
-710,918	145,853	-0,107	0,106
-709,904	-200,000	-0,004	-0,028
-708,889	137,198	-0,059	-0,057
-707,875	414,080	-0,073	-0,115
-706,860	41,107	-0,113	0,076
-705,845	-85,848	0,117	0,027
-704,831	213,112	0,064	0,075
-703,816	-6,881	-0,156	0,078
-702,802	800,000	-0,037	-0,121
-701,787	-200,000	-0,002	-0,058
-700,772	-200,000	0,022	-0,107
-699,758	1,295	-0,043	-0,023
-698,743	16,043	0,058	0,034
-697,729	8,726	0,077	0,043
-696,714	-200,000	-0,002	0,161
-695,699	3,935	-0,118	-0,064
-694,685	74,390	-0,025	-0,020
-693,670	-164,833	-0,166	0,005
-692,656	13,007	0,119	-0,068
-691,641	800,000	0,063	0,146
-690,627	734,472	-0,011	0,022
-689,612	321,025	-0,047	-0,067
-688,597	-200,000	0,009	0,061
-687,583	4,276	-0,156	-0,084
-686,568	579,970	-0,043	-0,078
-685,554	-146,410	-0,161	-0,010
-684,539	42,875	0,068	0,046
-683,524	-200,000	0,003	-0,048
-682,510	214,804	0,084	-0,099
-681,495	800,000	-0,001	0,004
-680,481	800,000	0,020	0,047
-679,466	-30,195	-0,182	-0,076
-678,451	-47,840	0,012	0,004
-677,437	-22,620	-0,081	0,036
-676,422	-41,022	-0,051	-0,019
-675,408	-50,352	-0,109	-0,038
-674,393	-200,000	0,001	0,119
-673,378	-103,309	-0,023	0,004
-672,364	381,066	0,011	0,017
-671,349	274,842	-0,057	-0,075
-670,335	-95,354	-0,019	0,004
-669,320	30,755	0,122	0,077
-668,305	-200,000	-0,010	0,081
-667,291	-169,962	0,108	-0,003
-666,276	-200,000	-0,010	0,040
-665,262	30,719	-0,097	-0,061
-664,247	70,717	-0,040	-0,031
-663,232	-149,274	0,073	0,004
-662,218	-200,000	0,022	0,195
-661,203	-13,670	-0,072	-0,034
-660,189	93,204	-0,073	-0,061
-659,174	-126,453	0,165	-0,018
-658,159	-12,674	-0,135	-0,065
-657,145	792,256	-0,032	-0,065
-656,130	712,822	-0,059	0,116
-655,116	350,511	0,053	-0,077
-654,101	-6,289	0,097	-0,049
-653,086	-17,673	0,069	0,032
-652,072	-116,327	-0,202	-0,027
-651,057	351,429	0,085	-0,125
-650,043	8,880	-0,115	0,064
-649,028	96,116	-0,043	0,037
-648,014	-185,554	0,162	0,002
-646,999	53,024	-0,026	0,018
-645,984	800,000	0,038	0,107
-644,970	-200,000	-0,005	-0,078
-643,955	-200,000	-0,012	-0,091
-642,941	476,027	-0,030	0,050
-641,926	-200,000	-0,008	0,083
-640,911	-101,076	0,030	-0,005
-639,897	300,240	-0,015	-0,020
-638,882	191,282	0,018	-0,020
-637,868	-140,186	-0,097	0,007
-636,853	-20,151	-0,069	-0,031
-635,838	-200,000	-0,008	-0,051
-634,824	642,196	-0,087	-0,164
-633,809	7,763	-0,035	0,019
-632,795	-64,576	0,210	-0,063
-631,780	-45,445	0,024	-0,009
-630,765	-187,800	-0,022	-0,000
-629,751	247,653	0,074	0,092
-628,736	-31,567	-0,161	0,066
-627,722	-200,000	-0,033	-0,116
-626,707	156,439	-0,067	-0,068
-625,692	119,672	0,020	0,019
-624,678	124,350	0,054	-0,050
-623,663	171,959	-0,066	-0,070
-622,649	-75,318	-0,173	-0,045
-621,634	198,355	-0,103	0,117
-620,619	-200,000	0,006	-0,043
-619,605	444,549	0,107	0,174
-618,590	-9,770	-0,062	-0,030
-617,576	96,898	-0,021	-0,018
-616,561	576,391	-0,044	0,080
-615,546	-200,000	-0,013	-0,050
-614,532	-200,000	-0,030	0,122
-613,517	311,073	0,036	-0,050
-612,503	-200,000	-0,011	-0,057
-611,488	-200,000	0,005	0,116
-610,474	-200,000	-0,001	0,100
-609,459	444,438	-0,043	-0,069
-608,444	800,000	0,031	-0,092
-607,430	-200,000	-0,026	0,103
-606,415	800,000	-0,040	-0,126
-605,401	150,000	-0,157	0,157
-604,386	-52,930	0,037	-0,012
-603,371	-15,607	0,129	0,061
-602,357	-200,000	-0,004	0,040
-601,342	800,000	-0,041	0,107
-600,328	-177,600	-0,086	-0,002
-599,313	356,324	0,063	-0,093
-598,298	800,000	-0,021	-0,050
-597,284	-71,051	0,139	0,038
-596,269	-200,000	-0,003	0,088
-595,255	-200,000	-0,034	-0,310
-594,240	-200,000	0,007	-0,045
-593,225	136,324	-0,037	-0,036
-592,211	65,580	-0,084	-0,063
-591,196	115,129	-0,052	0,047
-590,182	238,287	0,020	0,025
-589,167	41,190	-0,025	0,017
-588,152	94,520	-0,064	-0,054
-587,138	-39,424	0,171	0,066
-586,123	800,000	0,014	0,045
-585,109	177,673	-0,170	-0,183
-584,094	31,524	0,092	0,058
-583,079	800,000	-0,045	0,092
-582,065	57,210	-0,054	0,039
-581,050	800,000	0,047	0,100
-580,036	-200,000	0,027	0,115
-579,021	452,218	-0,090	-0,148
-578,006	76,805	0,049	0,038
-576,992	-195,094	0,147	0,001
-575,977	25,555	0,113	-0,069
-574,963	-200,000	-0,007	-0,080
-573,948	562,407	0,042	0,074
-572,934	-106,854	0,032	0,005
-571,919	6,376	-0,099	-0,054
-570,904	141,932	-0,020	0,020
-569,890	188,360	0,036	0,040
-568,875	-46,779	0,069	-0,025
-567,861	93,917	0,042	0,035
-566,846	30,441	-0,051	0,032
-565,831	79,193	0,074	-0,059
-564,817	268,821	-0,055	0,072
-563,802	-200,000	0,036	-0,226
-562,788	-200,000	-0,003	-0,144
-561,773	519,128	-0,016	0,028
-560,758	800,000	-0,080	0,177
-559,744	-200,000	-0,028	0,106
-558,729	417,701	0,021	0,033
-557,715	76,310	0,081	0,063
-556,700	420,470	-0,103	-0,163
-555,685	-200,000	-0,021	-0,128
-554,671	-200,000	0,008	-0,028
-553,656	-99,729	-0,154	0,028
-552,642	-70,354	-0,012	0,003
-551,627	-77,026	0,093	-0,024
-550,612	-46,103	-0,122	0,044
-549,598	-47,004	-0,061	-0,022
-548,583	-53,653	0,065	0,022
-547,569	-11,187	-0,076	0,037
-546,554	-99,648	0,127	0,023
-545,539	70,637	-0,095	-0,072
-544,525	-114,492	-0,059	0,008
-543,510	-200,000	0,022	0,117
-542,496	-73,240	0,082	0,022
-541,481	-143,731	0,027	-0,002
-540,466	504,123	0,073	-0,125
-539,452	-60,107	-0,018	-0,006
-538,437	-200,000	0,003	0,129
-537,423	-55,716	-0,114	-0,037
-536,408	575,305	0,073	-0,132
-535,393	-200,000	-0,016	-0,135
-534,379	50,970	-0,140	-0,098
-533,364	800,000	-0,045	0,092
-532,350	-200,000	-0,020	0,086
-531,335	74,016	-0,047	-0,036
-530,321	-200,000	-0,027	-0,126
-529,306	-94,952	0,054	0,011
-528,291	322,876	-0,066	-0,092
-527,277	-109,290	0,190	0,029
-526,262	-73,466	0,121	0,032
-525,248	-50,854	-0,102	0,035
-524,233	292,168	0,033	0,045
-523,218	-200,000	-0,013	0,084
-522,204	-200,000	0,004	0,093
-521,189	92,844	-0,084	0,070
-520,175	26,758	0,046	0,028
-519,160	-33,217	0,112	-0,045
-518,145	327,252	0,100	-0,141
-517,131	-16,053	0,099	-0,046
-516,116	242,912	0,077	0,095
-515,102	800,000	-0,035	0,088
-514,087	800,000	0,026	-0,070
-513,072	800,000	0,045	-0,096
-512,058	-200,000	0,005	-0,021
-511,043	22,350	0,103	-0,062
-510,029	-200,000	-0,017	0,113
-509,014	800,000	0,029	0,072
-507,999	274,300	-0,034	-0,044
-506,985	102,547	0,065	-0,056
-505,970	-200,000	0,002	-0,161
-504,956	800,000	-0,015	0,046
-503,941	-96,227	0,114	0,022
-502,926	191,023	-0,025	-0,027
-501,912	800,000	0,046	0,141
-500,897	-40,461	0,099	-0,038
-499,883	-36,109	-0,060	-0,024
-498,868	800,000	0,050	-0,127
-497,853	800,000	-0,024	-0,069
-496,839	768,804	-0,008	-0,017
-495,824	-200,000	0,006	0,026
-494,810	-200,000	0,011	-0,113
-493,795	-152,314	0,040	0,002
-492,781	-3,966	-0,072	-0,037
-491,766	-12,126	-0,079	0,038
-490,751	225,369	0,062	-0,074
-489,737	800,000	-0,049	-0,125
-488,722	-14,473	0,056	-0,027
-487,708	800,000	-0,038	0,085
-486,693	-4,729	0,071	-0,036
-485,678	154,553	0,086	-0,086
-484,664	53,089	-0,107	-0,075
-483,649	272,815	0,012	0,015
-482,635	-200,000	-0,008	0,088
-481,620	195,503	0,076	0,084
-480,605	-28,818	-0,087	0,037
-479,591	82,060	-0,077	0,061
-478,576	532,921	-0,031	0,054
-477,562	318,305	0,070	0,097
-476,547	-89,099	-0,053	-0,011
-475,532	-200,000	-0,040	-0,188
-474,518	800,000	0,007	-0,015
-473,503	10,489	0,111	-0,062
-472,489	-200,000	0,015	0,085
-471,474	-45,141	0,050	-0,018
-470,459	800,000	-0,051	-0,113
-469,445	-51,557	0,102	-0,035
-468,430	623,367	-0,042	-0,079
-467,416	-27,034	-0,044	-0,019
-466,401	-200,000	0,001	0,098
-465,386	-153,382	0,089	0,004
-464,372	-27,086	-0,067	0,029
-463,357	46,850	-0,050	-0,034
-462,343	-4,674	-0,101	0,051
-461,328	-200,000	-0,010	-0,034
-460,313	-186,185	0,032	0,000
-459,299	800,000	0,004	-0,011
-458,284	5,294	0,037	0,020
-457,270	52,178	0,027	0,019
-456,255	-155,760	0,176	0,008
-455,241	-105,531	0,074	-0,012
-454,226	-200,000	-0,006	0,127
-453,211	561,683	-0,042	-0,075
-452,197	-122,700	0,096	0,011
-451,182	800,000	0,015	0,043
-450,168	800,000	-0,046	0,117
-449,153	-83,965	0,045	0,010
-448,138	213,349	-0,047	-0,055
-447,124	-200,000	-0,008	-0,092
-446,109	54,013	-0,060	0,042
-445,095	-98,705	0,119	0,022
-444,080	-200,000	-0,005	-0,020
-443,065	718,577	-0,044	0,087
-442,051	-200,000	-0,001	0,092
-441,036	-114,104	-0,092	-0,013
-440,022	782,564	0,026	-0,053
-439,007	-200,000	-0,004	0,014
-437,992	-200,000	0,002	-0,055
-436,978	389,672	0,065	0,099
-435,963	300,699	-0,008	0,010
-434,949	-91,061	0,074	0,015
-433,934	28,375	-0,088	-0,054
-432,919	244,006	-0,084	-0,103
-431,905	-31,655	-0,051	-0,021
-430,890	800,000	-0,007	0,019
-429,876	40,587	0,077	0,051
-428,861	800,000	0,054	0,158
-427,846	800,000	-0,011	0,032
-426,832	-31,382	-0,112	0,046
-425,817	-107,928	0,123	0,019
-424,803	-200,000	-0,002	-0,076
-423,788	270,562	-0,071	-0,092
-422,773	33,080	0,139	0,088
-421,759	-200,000	-0,009	0,070
-420,744	-200,000	-0,003	-0,052
-419,730	800,000	0,016	0,045
-418,715	-200,000	0,032	-0,127
-417,701	73,741	-0,112	-0,086
-416,686	800,000	-0,022	0,047
-415,671	-200,000	-0,014	-0,066
-414,657	-18,379	0,141	0,064
-413,642	-93,248	-0,131	0,026
-412,628	800,000	-0,054	0,171
-411,613	-45,970	-0,095	-0,034
-410,598	800,000	0,100	-0,214
-409,584	-79,186	0,078	0,019
-408,569	193,022	-0,079	0,087
-407,555	-200,000	0,049	0,211
-406,540	800,000	-0,033	0,075
-405,525	-66,665	-0,105	-0,030
-404,511	-200,000	-0,004	0,100
-403,496	262,897	0,071	-0,090
-402,482	338,571	0,065	-0,092
-401,467	-166,183	0,139	0,004
-400,452	800,000	0,017	0,045
-399,438	-85,174	0,020	0,005
-398,423	-107,414	-0,089	-0,014
-397,409	-200,000	-0,015	0,063
-396,394	800,000	-0,029	-0,068
-395,379	-200,000	0,027	-0,130
-394,365	-154,787	-0,094	0,004
-393,350	54,277	0,057	-0,040
-392,336	-36,396	0,063	-0,025
-391,321	-101,551	-0,156	-0,027
-390,306	-175,381	-0,147	-0,003
-389,292	223,630	0,043	0,051
-388,277	-200,000	0,012	-0,048
-387,263	464,815	0,064	0,105
-386,248	-126,677	-0,052	-0,006
-385,233	-23,042	0,158	0,069
-384,219	78,522	-0,072	0,056
-383,204	800,000	-0,060	-0,159
-382,190	-2,652	0,126	0,064
-381,175	-200,000	-0,007	-0,143
-380,160	479,392	0,063	-0,105
-379,146	90,644	0,096	0,079
-378,131	447,319	-0,050	0,080
-377,117	601,458	-0,036	-0,067
-376,102	-200,000	0,024	-0,078
-375,088	-146,290	-0,091	-0,006
-374,073	-200,000	0,002	-0,126
-373,058	372,268	0,026	0,038
-372,044	800,000	-0,047	0,133
-371,029	800,000	0,028	0,066
-370,015	-13,357	0,064	0,030
-369,000	-200,000	-0,005	-0,049
-367,985	389,328	-0,038	-0,057
-366,971	-200,000	-0,043	-0,182
-365,956	10,038	-0,068	-0,038
-364,942	7,870	0,024	-0,013
-363,927	-200,000	-0,011	0,069
-362,912	-36,631	0,049	0,019
-361,898	-200,000	-0,020	-0,069
-360,883	-63,044	0,126	-0,038
-359,869	701,062	0,137	0,265
-358,854	-33,414	0,211	-0,085
-357,839	159,675	0,024	0,025
-356,825	91,299	0,081	-0,067
-355,810	-89,776	0,084	-0,018
-354,796	-23,219	0,029	-0,013
-353,781	21,562	0,046	-0,027
-352,766	-26,875	0,049	-0,021
-351,752	144,108	-0,035	-0,034
-350,737	229,225	0,075	0,090
-349,723	45,364	-0,064	0,043
-348,708	94,257	-0,053	-0,044
-347,693	15,769	0,145	0,083
-346,679	-152,563	-0,040	0,002
-345,664	-200,000	-0,040	0,162
-344,650	10,331	0,015	-0,009
-343,635	139,088	-0,038	-0,037
-342,620	-200,000	0,028	-0,098
-341,606	395,787	0,057	-0,087
-340,591	104,490	-0,017	-0,015
-339,577	257,621	-0,089	-0,111
-338,562	-44,214	-0,043	0,016
-337,548	-200,000	0,034	-0,189
-336,533	407,132	0,051	0,079
-335,518	800,000	0,020	0,043
-334,504	-200,000	0,013	-0,126
-333,489	181,525	-0,045	-0,048
-332,475	-35,837	-0,131	0,051
-331,460	-79,980	0,094	0,023
-330,445	-24,747	0,025	0,011
-329,431	-96,655	0,101	0,019
-328,416	56,029	-0,095	0,067
-327,402	-200,000	0,002	0,055
-326,387	-200,000	0,022	0,147
-325,372	-152,574	-0,060	0,003
-324,358	73,221	-0,095	0,072
-323,343	-57,187	0,175	0,056
-322,329	-153,928	-0,157	0,008
-321,314	-200,000	-0,014	0,053
-320,299	-200,000	0,014	0,063
-319,285	-30,528	-0,054	0,022
-318,270	316,370	0,024	-0,033
-317,256	800,000	0,037	-0,085
-316,241	399,084	-0,025	-0,038
-315,226	-200,000	0,003	0,065
-314,212	-53,968	0,048	0,016
-313,197	486,169	-0,053	0,089
-312,183	132,198	0,013	0,012
-311,168	301,391	-0,099	-0,133
-310,153	-200,000	0,010	-0,118
-309,139	-200,000	0,002	0,073
-308,124	-145,061	-0,021	-0,001
-307,110	673,394	0,026	0,050
-306,095	-48,060	0,084	0,029
-305,080	500,869	0,055	0,093
-304,066	-200,000	0,011	0,063
-303,051	141,398	-0,054	0,052
-302,037	-200,000	0,150	-0,000
-301,022	-200,000	0,002	-0,138
-300,008	800,000	0,020	0,051
-298,993	93,268	0,146	0,120
-297,978	708,212	-0,122	0,236
-296,964	-200,000	-0,013	0,070
-295,949	-200,000	-0,004	-0,048
-294,935	800,000	-0,042	-0,128
-293,920	-91,859	0,048	-0,010
-292,905	-19,933	-0,059	0,027
-291,891	-105,068	0,113	0,019
-290,876	-130,537	0,152	-0,015
-289,862	160,774	0,062	-0,063
-288,847	264,362	-0,031	0,040
-287,832	-200,000	-0,016	0,077
-286,818	-200,000	0,020	-0,106
-285,803	769,563	-0,018	0,035
-284,789	-75,145	0,048	0,012
-283,774	-123,508	-0,065	0,007
-282,759	-200,000	0,015	0,051
-281,745	-56,118	-0,069	-0,022
-280,730	-200,000	-0,013	0,122
-279,716	796,539	-0,004	-0,009
-278,701	-76,652	0,031	-0,008
-277,686	-200,000	0,013	0,142
-276,672	179,447	0,061	-0,066
-275,657	2,196	0,102	0,054
-274,643	238,535	-0,152	0,184
-273,628	598,680	-0,033	0,060
-272,613	-88,754	-0,053	0,011
-271,599	13,767	0,081	0,046
-270,584	-99,428	0,178	-0,032
-269,570	-10,234	-0,113	-0,054
-268,555	160,486	-0,026	-0,026
-267,540	-200,000	0,021	-0,249
-266,526	-88,950	-0,156	-0,033
-265,511	800,000	-0,019	0,055
-264,497	273,320	0,095	-0,122
-263,482	-200,000	-0,014	-0,089
-262,467	-200,000	0,030	0,218
-261,453	544,571	0,120	0,209
-260,438	360,831	-0,045	0,065
-259,424	-85,213	-0,100	0,023
-258,409	136,338	0,105	0,100
-257,395	484,309	-0,040	0,067
-256,380	47,645	0,114	0,077
-255,365	-92,622	-0,028	-0,006
-254,351	74,651	0,103	0,079
-253,336	7,222	0,076	0,041
-252,322	-28,941	-0,047	0,019
-251,307	2,228	-0,148	0,078
-250,292	530,095	-0,089	0,154
-249,278	-97,847	0,014	-0,003
-248,263	-64,450	0,146	0,043
-247,249	-200,000	0,037	0,137
-246,234	-84,952	0,063	-0,014
-245,219	-200,000	-0,022	-0,118
-244,205	217,480	-0,121	-0,141
-243,190	-200,000	0,000	-0,028
-242,176	57,323	0,014	-0,010
-241,161	-200,000	0,005	-0,058
-240,146	136,589	0,113	-0,107
-239,132	-200,000	-0,032	-0,134
-238,117	364,005	-0,130	-0,190
-237,103	-140,086	0,030	-0,002
-236,088	529,424	0,024	0,041
-235,073	43,899	0,135	0,090
-234,059	49,841	-0,100	-0,069
-233,044	-200,000	0,011	0,098
-232,030	105,048	0,067	-0,058
-231,015	-200,000	0,012	-0,057
-230,000	-67,282	-0,131	-0,037
-228,986	-63,549	-0,040	-0,012
-227,971	179,401	0,055	-0,059
-226,957	205,305	0,046	0,052
-225,942	122,685	-0,093	-0,085
-224,927	-33,246	0,028	-0,011
-223,913	-3,779	-0,083	-0,042
-222,898	67,813	-0,105	-0,078
-221,884	-3,892	-0,067	0,034
-220,869	-79,278	0,052	-0,013
-219,855	61,199	0,121	-0,088
-218,840	-200,000	-0,035	0,115
-217,825	320,538	-0,054	-0,075
-216,811	-200,000	-0,004	-0,159
-215,796	800,000	-0,062	-0,132
-214,782	-200,000	-0,003	-0,023
-213,767	237,900	-0,014	0,017
-212,752	-99,223	0,048	0,009
-211,738	-200,000	-0,013	0,137
-210,723	-63,549	-0,083	0,025
-209,709	-21,567	-0,045	0,020
-208,694	-200,000	0,001	0,045
-207,679	412,275	-0,025	-0,039
-206,665	-119,188	0,057	0,007
-205,650	-46,163	0,057	-0,020
-204,636	-169,245	0,083	0,002
-203,621	-11,743	-0,056	0,027
-202,606	-7,153	-0,080	0,039
-201,592	800,000	0,009	-0,025
-200,577	43,784	-0,059	0,039
-199,563	481,679	-0,044	-0,072
-198,548	-200,000	-0,013	0,045
-197,533	57,893	0,090	0,064
-196,519	800,000	-0,040	-0,125
-195,504	288,398	-0,057	-0,075
-194,490	13,394	0,056	-0,031
-193,475	199,984	0,078	-0,088
-192,460	284,750	-0,024	-0,032
-191,446	425,409	-0,046	-0,072
-190,431	524,615	0,015	0,026
-189,417	-45,441	-0,101	0,036
-188,402	800,000	-0,036	-0,093
-187,387	800,000	-0,016	-0,042
-186,373	489,534	0,018	0,030
-185,358	800,000	-0,010	-0,031
-184,344	45,539	0,092	-0,061
-183,329	-117,788	-0,052	-0,007
-182,315	25,460	0,066	-0,040
-181,300	45,581	-0,113	-0,076
-180,285	303,957	-0,141	0,190
-179,271	46,128	-0,147	0,099
-178,256	-200,000	0,010	0,041
-177,242	-58,789	-0,087	0,027
-176,227	55,360	-0,020	0,014
-175,212	800,000	0,058	0,167
-174,198	-133,692	0,090	0,008
-173,183	-79,294	-0,107	-0,026
-172,169	-200,000	0,010	0,059
-171,154	-81,298	-0,101	0,024
-170,139	800,000	0,008	0,016
-169,125	334,130	-0,099	0,140
-168,110	563,722	-0,004	0,007
-167,096	247,749	0,077	-0,094
-166,081	-12,390	-0,041	0,020
-165,066	-53,509	-0,150	0,049
-164,052	-78,708	0,061	-0,015
-163,037	-200,000	0,004	0,024
-162,023	55,359	-0,083	0,058
-161,008	129,158	-0,060	-0,055
-159,993	-90,413	0,124	-0,026
-158,979	-73,024	-0,129	-0,034
-157,964	-151,861	-0,072	-0,004
-156,950	-25,732	-0,108	-0,046
-155,935	439,402	0,029	-0,046
-154,920	-17,739	0,097	-0,044
-153,906	78,757	-0,056	0,044
-152,891	202,314	0,039	-0,044
-151,877	66,590	0,030	-0,022
-150,862	-148,454	-0,091	0,005
-149,847	-76,319	0,056	0,014
-148,833	-200,000	-0,011	-0,039
-147,818	-76,520	0,115	-0,029
-146,804	-200,000	-0,017	-0,128
-145,789	-19,222	-0,143	0,064
-144,775	60,831	0,098	-0,070
-143,760	47,464	-0,069	-0,046
-142,745	-200,000	-0,008	-0,051
-141,731	-63,906	0,040	-0,012
-140,716	-200,000	0,008	0,096
-139,702	-49,309	0,081	0,028
-138,687	-200,000	0,004	0,074
-137,672	-200,000	0,028	-0,203
-136,658	193,358	0,095	-0,104
-135,643	178,438	-0,058	-0,061
-134,629	32,889	-0,074	-0,046
-133,614	499,615	0,045	-0,075
-132,599	-45,865	0,128	-0,046
-131,585	59,806	0,078	-0,056
-130,570	-200,000	0,041	0,171
-129,556	-30,147	0,160	-0,065
-128,541	3,563	-0,112	-0,059
-127,526	-200,000	0,033	0,124
-126,512	-200,000	0,011	0,099
-125,497	-67,004	0,083	0,024
-124,483	588,546	-0,052	0,093
-123,468	-200,000	-0,004	0,051
-122,453	325,713	-0,047	0,065
-121,439	-88,608	-0,193	-0,041
-120,424	427,453	-0,060	-0,095
-119,410	-24,843	0,138	0,059
