DTS Sentinel unit serial number:	SN410029Multiplexer serial number:	ORYXHardware model number:	OX2-SRSoftware version number:	ORYX F/W v4,00 Oryx Data Collector v3.7.2.0data status	okinstallation	B6 Nyhavnadifferential loss correction	single-endedforward channel	channel 2reverse channel	N/Adate	2023/12/09time	16:00:08forward acquisition time	300,00reverse acquisition time	0,00gamma	499,1914k internal	0,3132k external	0,3132temperature offset calibration	1,0000default loss term (dB/km)	0,3820temperature slope calibration	1,0000multiplexer offset coefficient	1,0000multiplexer slope coefficient	1,0000fibre end	0,00T internal ref (°C)	20,78T ext. ref 1 (°C)	4,70T ext. ref 2 (°C)	4,69length (m)	temperature (°C)	Stokes	anti-Stokes-744,400	-36,275	0,158	-0,063
-743,385	-105,943	-0,243	0,040
-742,371	-200,000	0,044	-0,158
-741,356	-17,225	-0,121	0,056
-740,342	-32,745	-0,072	0,030
-739,327	-161,860	-0,209	0,008
-738,312	800,000	-0,032	-0,093
-737,298	17,152	-0,255	0,150
-736,283	-200,000	-0,006	-0,046
-735,269	1,197	-0,338	0,180
-734,254	525,047	0,045	-0,079
-733,239	-162,368	-0,321	-0,012
-732,225	181,922	0,121	0,132
-731,210	-167,348	-0,068	-0,002
-730,196	-135,164	-0,015	-0,001
-729,181	129,848	-0,042	0,040
-728,167	-64,199	0,038	0,011
-727,152	174,267	-0,033	0,035
-726,137	800,000	0,033	-0,079
-725,123	62,371	-0,147	-0,109
-724,108	16,176	0,074	-0,043
-723,094	800,000	0,053	-0,113
-722,079	71,563	-0,148	-0,114
-721,064	-115,275	0,074	0,010
-720,050	9,227	-0,083	-0,046
-719,035	-94,751	-0,147	-0,029
-718,021	-51,358	-0,053	0,018
-717,006	185,627	-0,044	-0,049
-715,991	-92,441	0,083	0,017
-714,977	-184,500	0,143	-0,002
-713,962	-154,636	0,048	-0,002
-712,948	-21,076	-0,073	-0,033
-711,933	-144,483	-0,092	-0,006
-710,918	103,744	-0,015	-0,013
-709,904	-200,000	-0,007	0,038
-708,889	-14,928	-0,100	0,047
-707,875	800,000	0,009	-0,019
-706,860	-200,000	0,019	-0,096
-705,845	-200,000	-0,015	-0,094
-704,831	476,191	0,032	-0,054
-703,816	27,215	-0,079	-0,049
-702,802	-129,809	-0,095	-0,010
-701,787	-200,000	0,009	0,148
-700,772	800,000	-0,033	-0,078
-699,758	-24,042	-0,074	-0,033
-698,743	-200,000	-0,040	0,133
-697,729	800,000	0,036	0,098
-696,714	-200,000	0,003	0,074
-695,699	5,337	0,064	0,035
-694,685	-200,000	0,026	-0,163
-693,670	800,000	-0,026	-0,071
-692,656	393,071	0,043	0,067
-691,641	99,699	-0,031	-0,027
-690,627	-200,000	-0,015	-0,055
-689,612	-165,383	-0,120	-0,004
-688,597	-107,211	0,151	0,024
-687,583	-83,717	0,053	0,012
-686,568	-35,240	-0,174	-0,070
-685,554	137,491	0,042	0,041
-684,539	422,560	0,040	-0,064
-683,524	-200,000	-0,006	0,105
-682,510	-64,006	0,074	-0,022
-681,495	0,928	-0,080	-0,042
-680,481	-200,000	0,041	-0,241
-679,466	-123,143	-0,174	-0,020
-678,451	-200,000	-0,014	0,086
-677,437	800,000	-0,018	0,041
-676,422	-28,926	-0,079	-0,034
-675,408	74,033	-0,074	0,057
-674,393	253,572	-0,084	0,106
-673,378	218,885	-0,052	0,061
-672,364	121,004	0,025	-0,023
-671,349	-154,938	-0,026	-0,001
-670,335	39,213	0,084	-0,056
-669,320	117,327	0,080	0,073
-668,305	-200,000	-0,001	-0,111
-667,291	-83,540	-0,009	0,002
-666,276	-200,000	0,021	-0,178
-665,262	199,724	-0,127	-0,144
-664,247	145,727	-0,085	-0,084
-663,232	-52,868	-0,092	-0,031
-662,218	-36,365	0,088	-0,035
-661,203	-34,195	0,031	-0,012
-660,189	726,039	-0,020	0,039
-659,174	364,258	0,022	-0,032
-658,159	199,227	-0,059	-0,067
-657,145	124,549	0,055	-0,051
-656,130	-184,961	0,061	0,001
-655,116	800,000	-0,068	0,156
-654,101	-72,515	-0,121	0,033
-653,086	-92,205	-0,171	-0,035
-652,072	-70,186	0,052	0,014
-651,057	-3,218	-0,075	0,039
-650,043	40,394	-0,100	-0,067
-649,028	-11,573	0,029	-0,014
-648,014	-58,002	-0,046	0,015
-646,999	-200,000	0,011	-0,083
-645,984	405,827	-0,081	0,127
-644,970	-200,000	0,011	0,042
-643,955	44,904	0,065	-0,044
-642,941	-106,861	-0,036	-0,006
-641,926	640,621	0,061	0,115
-640,911	-106,178	0,124	-0,020
-639,897	250,118	0,059	0,075
-638,882	339,922	0,059	0,085
-637,868	30,438	0,068	-0,043
-636,853	49,375	-0,050	0,035
-635,838	-200,000	-0,002	0,026
-634,824	52,438	-0,050	0,035
-633,809	-2,311	-0,111	-0,057
-632,795	800,000	-0,028	-0,064
-631,780	154,714	-0,031	-0,031
-630,765	161,835	-0,135	-0,140
-629,751	54,859	0,027	0,020
-628,736	5,740	-0,088	-0,048
-627,722	-131,966	-0,040	-0,004
-626,707	-71,914	-0,139	-0,038
-625,692	117,006	0,115	0,104
-624,678	-200,000	0,007	-0,072
-623,663	-146,584	0,023	0,001
-622,649	55,848	-0,061	0,044
-621,634	-25,957	-0,156	-0,068
-620,619	67,336	0,044	0,034
-619,605	-200,000	-0,013	0,065
-618,590	-154,261	0,054	-0,003
-617,576	800,000	-0,023	0,062
-616,561	208,775	-0,084	0,097
-615,546	-200,000	-0,001	-0,214
-614,532	-77,114	-0,089	0,023
-613,517	178,797	-0,063	0,068
-612,503	610,903	-0,061	-0,112
-611,488	-200,000	0,026	0,090
-610,474	154,427	-0,071	-0,072
-609,459	276,678	0,054	-0,071
-608,444	800,000	-0,047	-0,126
-607,430	-0,372	0,070	-0,037
-606,415	-200,000	0,004	-0,070
-605,401	147,339	-0,082	0,082
-604,386	128,242	-0,021	0,020
-603,371	-75,855	0,160	-0,042
-602,357	9,032	-0,076	-0,042
-601,342	639,392	-0,073	-0,138
-600,328	85,101	-0,094	0,076
-599,313	55,683	0,038	-0,027
-598,298	-128,425	-0,218	-0,023
-597,284	-97,621	-0,074	0,014
-596,269	-200,000	0,006	0,039
-595,255	88,710	-0,069	-0,057
-594,240	135,980	0,069	-0,066
-593,225	-200,000	0,011	-0,141
-592,211	-200,000	0,012	-0,058
-591,196	210,839	-0,082	0,095
-590,182	-200,000	-0,004	0,045
-589,167	-95,171	0,088	-0,017
-588,152	148,487	0,038	-0,038
-587,138	-9,765	-0,174	0,085
-586,123	-23,091	-0,179	0,079
-585,109	23,588	-0,080	-0,048
-584,094	632,093	-0,012	0,023
-583,079	800,000	0,013	0,036
-582,065	-83,307	-0,052	-0,012
-581,050	-200,000	-0,021	0,163
-580,036	-88,165	-0,116	0,026
-579,021	369,418	0,027	0,040
-578,006	-144,126	0,088	-0,006
-576,992	707,555	-0,050	0,099
-575,977	-200,000	-0,007	0,108
-574,963	-200,000	-0,001	0,007
-573,948	18,717	0,022	-0,013
-572,934	-23,821	-0,093	0,041
-571,919	560,634	-0,075	0,135
-570,904	-104,071	-0,065	-0,011
-569,890	-200,000	0,013	-0,068
-568,875	-200,000	-0,020	0,108
-567,861	139,618	0,096	0,093
-566,846	-200,000	0,003	-0,021
-565,831	-26,890	-0,089	0,038
-564,817	151,272	0,045	-0,045
-563,802	766,148	0,058	-0,116
-562,788	-200,000	-0,011	-0,037
-561,773	536,292	0,049	-0,086
-560,758	-50,124	-0,082	-0,028
-559,744	128,177	0,132	0,124
-558,729	-14,368	-0,135	0,064
-557,715	129,664	0,028	0,026
-556,700	305,722	-0,065	-0,090
-555,685	332,597	-0,080	0,114
-554,671	5,332	-0,056	0,030
-553,656	-81,813	0,091	-0,022
-552,642	-140,803	-0,181	0,014
-551,627	257,325	-0,104	0,132
-550,612	-88,925	-0,124	0,027
-549,598	800,000	0,023	0,048
-548,583	800,000	0,030	0,068
-547,569	-200,000	0,004	0,036
-546,554	-200,000	0,030	-0,120
-545,539	97,343	-0,101	-0,085
-544,525	800,000	0,027	0,085
-543,510	-108,825	-0,038	-0,006
-542,496	354,312	0,038	0,055
-541,481	800,000	0,011	-0,030
-540,466	69,170	0,097	0,073
-539,452	731,480	0,030	0,060
-538,437	94,166	-0,086	0,072
-537,423	75,931	-0,059	0,046
-536,408	800,000	0,019	0,049
-535,393	3,583	-0,099	0,053
-534,379	226,498	-0,022	0,027
-533,364	-200,000	0,004	-0,114
-532,350	51,890	0,106	-0,074
-531,335	800,000	0,061	0,152
-530,321	-20,788	0,057	0,026
-529,306	-78,026	0,063	-0,016
-528,291	-100,187	-0,040	-0,007
-527,277	617,860	-0,025	0,047
-526,262	117,691	0,057	-0,052
-525,248	-108,572	0,082	-0,013
-524,233	-200,000	-0,017	0,062
-523,218	800,000	-0,053	0,132
-522,204	494,924	0,040	0,068
-521,189	700,801	0,037	-0,072
-520,175	800,000	0,013	0,035
-519,160	4,896	-0,101	0,054
-518,145	-200,000	-0,010	-0,106
-517,131	-26,682	0,128	0,055
-516,116	-95,175	0,127	-0,025
-515,102	800,000	-0,081	-0,177
-514,087	-128,879	-0,020	-0,002
-513,072	800,000	0,014	0,039
-512,058	274,130	-0,018	-0,024
-511,043	734,170	0,026	-0,052
-510,029	410,892	-0,027	-0,042
-509,014	-4,620	0,050	0,025
-507,999	-195,900	-0,137	0,001
-506,985	-200,000	-0,002	-0,027
-505,970	-11,275	0,020	-0,010
-504,956	-1,639	-0,107	-0,055
-503,941	800,000	-0,015	0,049
-502,926	117,295	-0,027	-0,024
-501,912	378,921	0,039	0,060
-500,897	-124,664	-0,130	0,015
-499,883	-200,000	-0,025	-0,114
-498,868	800,000	-0,023	0,053
-497,853	402,892	-0,076	-0,118
-496,839	623,046	0,050	-0,093
-495,824	14,116	0,118	0,067
-494,810	-200,000	0,029	0,198
-493,795	84,624	-0,064	-0,051
-492,781	-16,996	0,118	-0,055
-491,766	-112,063	0,019	0,003
-490,751	207,605	-0,087	-0,100
-489,737	589,118	0,043	-0,078
-488,722	-152,697	-0,062	-0,003
-487,708	800,000	-0,027	-0,074
-486,693	800,000	-0,066	-0,152
-485,678	800,000	0,019	-0,059
-484,664	-200,000	-0,006	-0,098
-483,649	-200,000	0,000	0,039
-482,635	17,726	0,232	0,136
-481,620	62,923	0,071	0,053
-480,605	-200,000	0,020	0,117
-479,591	-141,080	-0,194	0,014
-478,576	-83,926	0,117	-0,027
-477,562	158,395	-0,095	-0,097
-476,547	-200,000	0,004	-0,015
-475,532	-130,994	-0,036	0,004
-474,518	-200,000	0,016	-0,113
-473,503	327,554	0,073	0,104
-472,489	-200,000	0,012	0,123
-471,474	258,071	-0,048	-0,061
-470,459	800,000	-0,026	-0,073
-469,445	800,000	0,037	-0,106
-468,430	-200,000	0,000	-0,147
-467,416	168,008	-0,073	0,076
-466,401	-96,286	0,080	-0,015
-465,386	35,651	-0,093	0,060
-464,372	-63,241	-0,041	0,012
-463,357	-104,115	-0,012	-0,002
-462,343	-200,000	0,006	0,022
-461,328	236,654	-0,034	0,042
-460,313	-200,000	0,013	0,064
-459,299	-200,000	-0,000	-0,018
-458,284	-152,033	0,137	0,007
-457,270	-52,496	0,194	-0,065
-456,255	78,211	-0,155	-0,121
-455,241	235,706	-0,064	-0,078
-454,226	247,533	0,066	0,082
-453,211	-64,096	-0,090	-0,027
-452,197	-200,000	-0,017	0,147
-451,182	-200,000	0,033	0,128
-450,168	-200,000	0,005	-0,125
-449,153	90,948	-0,072	0,060
-448,138	800,000	0,021	-0,064
-447,124	616,011	-0,059	-0,109
-446,109	-93,298	0,020	0,004
-445,095	800,000	0,061	0,168
-444,080	158,452	0,061	-0,062
-443,065	-149,507	0,071	-0,004
-442,051	199,052	-0,060	-0,068
-441,036	-62,873	-0,097	-0,029
-440,022	206,059	0,095	-0,109
-439,007	338,738	0,052	-0,074
-437,992	494,401	0,043	-0,072
-436,978	167,951	0,029	-0,030
-435,963	-46,963	0,079	0,028
-434,949	-82,630	-0,079	0,019
-433,934	-168,044	-0,052	-0,001
-432,919	-36,677	-0,131	-0,051
-431,905	98,435	0,083	-0,070
-430,890	-200,000	0,007	-0,047
-429,876	84,942	0,010	0,008
-428,861	12,450	-0,072	0,041
-427,846	336,037	-0,027	-0,038
-426,832	102,420	0,011	-0,010
-425,817	33,567	0,019	0,012
-424,803	-200,000	0,020	0,137
-423,788	11,137	0,160	0,089
-422,773	604,920	0,028	0,051
-421,759	-94,255	0,085	0,017
-420,744	218,244	0,004	-0,005
-419,730	390,262	-0,034	-0,051
-418,715	98,857	-0,054	-0,045
-417,701	800,000	-0,053	0,123
-416,686	-42,885	0,090	0,034
-415,671	-21,570	0,028	0,012
-414,657	-60,817	-0,044	0,014
-413,642	88,919	-0,054	-0,044
-412,628	108,847	-0,037	0,032
-411,613	-15,738	-0,074	0,035
-410,598	457,739	-0,043	-0,070
-409,584	47,104	0,061	-0,042
-408,569	-200,000	0,014	0,054
-407,555	2,329	0,125	0,066
-406,540	-200,000	-0,035	-0,202
-405,525	356,472	-0,051	-0,074
-404,511	-87,150	0,067	-0,015
-403,496	-200,000	0,007	0,060
-402,482	-65,569	-0,150	0,044
-401,467	-81,426	0,072	0,017
-400,452	-35,186	0,080	0,032
-399,438	-200,000	0,000	-0,017
-398,423	-78,604	-0,099	-0,025
-397,409	-200,000	0,019	-0,107
-396,394	17,452	0,062	-0,036
-395,379	51,366	-0,041	-0,028
-394,365	-164,354	0,011	0,000
-393,350	87,399	-0,074	0,060
-392,336	-25,962	0,072	0,031
-391,321	-200,000	-0,001	-0,034
-390,306	474,685	-0,031	-0,051
-389,292	534,544	-0,046	-0,081
-388,277	-43,634	0,129	0,047
-387,263	581,426	0,024	0,043
-386,248	800,000	0,019	-0,047
-385,233	-200,000	-0,016	0,059
-384,219	800,000	-0,033	-0,105
-383,204	-179,265	-0,064	-0,001
-382,190	-200,000	-0,046	0,174
-381,175	800,000	0,046	0,126
-380,160	169,624	0,124	0,130
-379,146	29,071	-0,070	-0,044
-378,131	800,000	0,016	0,042
-377,117	140,353	0,087	0,084
-376,102	318,993	0,039	-0,054
-375,088	324,221	0,060	-0,084
-374,073	396,031	0,006	0,009
-373,058	-77,402	0,050	-0,013
-372,044	800,000	-0,032	-0,082
-371,029	-106,509	-0,093	-0,015
-370,015	-102,394	-0,148	-0,026
-369,000	276,309	-0,020	-0,027
-367,985	-200,000	-0,004	-0,115
-366,971	-200,000	0,006	-0,035
-365,956	136,151	-0,140	0,133
-364,942	152,507	0,079	0,079
-363,927	-200,000	-0,002	0,050
-362,912	-200,000	-0,028	0,149
-361,898	-121,630	0,174	-0,021
-360,883	-200,000	-0,023	-0,184
-359,869	110,429	-0,082	-0,072
-358,854	88,793	0,102	-0,083
-357,839	21,969	0,196	0,117
-356,825	76,294	-0,054	0,042
-355,810	-200,000	-0,012	-0,085
-354,796	332,841	0,036	-0,051
-353,781	-48,273	0,055	0,019
-352,766	492,597	-0,077	-0,130
-351,752	800,000	0,005	-0,012
-350,737	800,000	0,056	-0,180
-349,723	734,399	0,022	0,043
-348,708	-46,295	0,082	-0,030
-347,693	30,397	-0,008	0,005
-346,679	-42,044	0,061	-0,023
-345,664	-200,000	0,001	0,136
-344,650	153,362	0,073	0,073
-343,635	-176,504	0,062	-0,001
-342,620	800,000	0,005	0,014
-341,606	-64,608	0,099	0,029
-340,591	-115,190	-0,148	0,020
-339,577	116,283	-0,156	-0,140
-338,562	-153,212	-0,046	0,002
-337,548	339,516	-0,040	-0,057
-336,533	270,518	0,033	-0,042
-335,518	-88,394	0,081	0,018
-334,504	220,184	-0,028	0,032
-333,489	56,516	0,023	0,017
-332,475	377,688	0,028	-0,042
-331,460	-200,000	0,011	-0,192
-330,445	462,672	-0,014	0,024
-329,431	-51,145	0,048	0,016
-328,416	-200,000	0,012	0,101
-327,402	75,652	-0,108	-0,084
-326,387	-6,900	0,158	-0,078
-325,372	-200,000	-0,008	0,072
-324,358	800,000	-0,093	0,192
-323,343	229,816	-0,024	-0,029
-322,329	202,565	0,020	0,022
-321,314	153,468	0,065	0,065
-320,299	-200,000	-0,014	0,067
-319,285	-200,000	-0,013	0,056
-318,270	57,377	-0,074	-0,053
-317,256	-200,000	-0,007	-0,049
-316,241	134,130	0,124	-0,118
-315,226	-200,000	-0,006	0,033
-314,212	-60,202	0,216	-0,067
-313,197	66,197	-0,026	-0,019
-312,183	-74,972	0,075	-0,020
-311,168	63,837	-0,096	-0,070
-310,153	-200,000	-0,025	0,088
-309,139	-73,916	0,061	0,016
-308,124	-97,555	0,093	0,018
-307,110	-200,000	0,027	-0,183
-306,095	-121,415	-0,012	0,001
-305,080	-145,892	0,160	0,010
-304,066	-115,266	0,017	0,002
-303,051	800,000	-0,036	-0,096
-302,037	800,000	0,023	-0,064
-301,022	-200,000	-0,019	0,153
-300,008	-99,086	0,071	0,013
-298,993	83,852	0,067	0,054
-297,978	-102,075	0,105	0,018
-296,964	492,222	0,005	-0,008
-295,949	-123,627	-0,089	-0,010
-294,935	102,492	0,052	-0,045
-293,920	-22,824	0,095	0,042
-292,905	-72,828	0,147	0,039
-291,891	800,000	-0,030	0,067
-290,876	-200,000	-0,016	0,120
-289,862	-155,632	-0,078	-0,004
-288,847	197,808	-0,088	-0,098
-287,832	-22,897	-0,121	-0,053
-286,818	-16,311	0,063	0,029
-285,803	-91,106	0,070	-0,015
-284,789	7,387	0,085	0,046
-283,774	-200,000	-0,013	0,157
-282,759	800,000	-0,009	-0,021
-281,745	-66,947	-0,075	0,022
-280,730	649,428	-0,091	-0,171
-279,716	25,374	0,133	0,081
-278,701	-114,845	0,149	0,020
-277,686	-134,257	-0,120	0,011
-276,672	-142,623	0,059	0,004
-275,657	377,034	0,009	0,014
-274,643	-67,464	0,154	-0,044
-273,628	-200,000	-0,034	-0,177
-272,613	-92,014	0,067	0,014
-271,599	-66,201	-0,046	0,013
-270,584	-159,313	-0,074	-0,003
-269,570	-148,963	0,150	-0,009
-268,555	105,709	-0,080	-0,069
-267,540	-122,631	0,179	-0,021
-266,526	216,204	-0,057	0,066
-265,511	-200,000	0,032	-0,114
-264,497	149,189	0,025	-0,025
-263,482	-72,301	0,056	-0,015
-262,467	-200,000	-0,026	0,189
-261,453	-200,000	-0,011	-0,037
-260,438	-142,435	-0,068	0,005
-259,424	54,128	-0,107	0,075
-258,409	174,458	0,051	-0,054
-257,395	81,684	0,051	0,040
-256,380	124,115	0,041	0,038
-255,365	800,000	0,025	0,077
-254,351	-200,000	0,012	0,053
-253,336	800,000	-0,053	-0,124
-252,322	615,444	-0,115	-0,212
-251,307	800,000	0,030	-0,066
-250,292	-102,659	0,069	0,012
-249,278	-200,000	0,006	0,081
-248,263	347,623	-0,043	-0,062
-247,249	-85,220	-0,100	0,023
-246,234	-200,000	0,001	-0,004
-245,219	-200,000	0,004	-0,195
-244,205	-200,000	-0,035	-0,144
-243,190	-200,000	0,018	-0,178
-242,176	-17,954	0,083	-0,038
-241,161	23,226	0,083	0,050
-240,146	800,000	0,026	-0,069
-239,132	311,948	0,028	-0,038
-238,117	-200,000	-0,010	0,057
-237,103	-200,000	0,009	-0,061
-236,088	89,316	-0,135	0,109
-235,073	696,638	0,072	0,138
-234,059	-200,000	-0,041	0,156
-233,044	-200,000	-0,010	0,057
-232,030	-143,151	-0,073	0,005
-231,015	-200,000	0,000	0,055
-230,000	390,741	-0,076	0,115
-228,986	-86,949	-0,062	0,014
-227,971	27,289	0,093	-0,057
-226,957	7,412	0,104	0,056
-225,942	-200,000	0,006	-0,041
-224,927	121,941	-0,085	0,077
-223,913	17,739	0,089	-0,051
-222,898	102,558	-0,103	-0,088
-221,884	-200,000	-0,021	0,103
-220,869	800,000	0,028	-0,077
-219,855	105,259	0,061	-0,052
-218,840	129,119	-0,057	0,053
-217,825	-38,588	-0,146	-0,056
-216,811	-8,829	0,027	0,013
-215,796	800,000	0,036	-0,116
-214,782	-130,741	-0,110	0,011
-213,767	187,980	-0,029	-0,032
-212,752	-200,000	0,013	0,076
-211,738	145,009	-0,038	0,037
-210,723	-200,000	-0,005	0,053
-209,709	-200,000	0,005	-0,101
-208,694	529,821	-0,115	-0,198
-207,679	-133,244	-0,173	-0,016
-206,665	800,000	0,025	-0,067
-205,650	800,000	0,067	0,212
-204,636	-200,000	0,020	0,096
-203,621	501,040	0,053	-0,089
-202,606	-39,828	-0,123	-0,046
-201,592	-200,000	0,009	0,041
-200,577	800,000	0,059	0,137
-199,563	338,162	0,086	0,122
-198,548	-200,000	-0,005	0,128
-197,533	35,043	0,074	-0,047
-196,519	-134,258	-0,047	0,004
-195,504	327,652	0,071	-0,099
-194,490	-200,000	-0,011	-0,070
-193,475	111,830	-0,038	-0,034
-192,460	-119,202	-0,049	0,006
-191,446	15,509	0,068	0,039
-190,431	800,000	0,057	0,133
-189,417	-6,492	0,047	-0,023
-188,402	460,210	0,082	-0,133
-187,387	-71,815	-0,099	0,027
-186,373	-200,000	0,028	-0,129
-185,358	43,903	-0,034	-0,022
-184,344	-200,000	0,006	0,095
-183,329	-200,000	0,014	0,106
-182,315	-200,000	0,003	0,032
-181,300	151,149	-0,086	-0,085
-180,285	-81,196	0,085	0,020
-179,271	130,715	0,021	-0,019
-178,256	-42,834	-0,112	0,041
-177,242	-51,215	0,154	-0,052
-176,227	616,652	-0,077	0,141
-175,212	-84,668	0,045	-0,010
-174,198	154,424	-0,110	0,110
-173,183	800,000	0,043	-0,109
-172,169	168,647	0,028	0,029
-171,154	-200,000	-0,017	0,150
-170,139	800,000	-0,012	-0,034
-169,125	588,384	0,034	-0,061
-168,110	-24,226	0,158	0,068
-167,096	-200,000	-0,027	0,093
-166,081	76,814	-0,046	0,036
-165,066	-10,903	0,072	-0,035
-164,052	800,000	-0,022	0,045
-163,037	-38,664	0,092	-0,035
-162,023	474,997	-0,059	-0,097
-161,008	-40,813	0,078	-0,029
-159,993	704,828	-0,048	0,093
-158,979	-9,512	0,150	0,072
-157,964	170,777	-0,048	-0,049
-156,950	-57,816	0,158	0,050
-155,935	-200,000	-0,010	0,048
-154,920	40,112	-0,069	0,045
-153,906	183,532	0,054	0,058
-152,891	-76,127	0,146	0,037
-151,877	290,441	-0,046	-0,060
-150,862	123,412	0,104	-0,094
-149,847	42,899	-0,188	-0,124
-148,833	-114,650	0,090	-0,012
-147,818	231,985	0,049	-0,058
-146,804	800,000	0,016	-0,042
-145,789	-24,846	0,117	0,050
-144,775	104,461	-0,074	-0,063
-143,760	2,482	-0,013	-0,007
-142,745	157,560	-0,052	0,052
-141,731	112,348	-0,034	0,030
-140,716	293,882	0,065	-0,087
-139,702	393,938	-0,046	0,070
-138,687	86,866	0,112	-0,089
-137,672	39,843	-0,023	0,015
-136,658	295,573	-0,094	-0,125
-135,643	482,657	-0,048	-0,079
-134,629	39,255	0,085	0,055
-133,614	-157,543	0,161	0,007
-132,599	172,149	0,110	-0,115
-131,585	-15,837	-0,028	-0,013
-130,570	148,482	0,061	0,060
-129,556	35,709	-0,079	-0,051
-128,541	-129,564	-0,126	0,012
-127,526	-26,696	-0,029	0,012
-126,512	153,848	-0,068	-0,068
-125,497	428,606	0,094	0,147
-124,483	-200,000	-0,089	-0,000
-123,468	-52,808	-0,107	-0,035
-122,453	-59,301	0,146	-0,045
-121,439	800,000	-0,057	-0,142
-120,424	-200,000	-0,004	-0,079
-119,410	236,223	-0,033	-0,040
