DTS Sentinel unit serial number:	SN410029Multiplexer serial number:	ORYXHardware model number:	OX2-SRSoftware version number:	ORYX F/W v4,00 Oryx Data Collector v3.7.2.0data status	okinstallation	B6 Nyhavnadifferential loss correction	single-endedforward channel	channel 2reverse channel	N/Adate	2023/12/10time	23:50:08forward acquisition time	300,00reverse acquisition time	0,00gamma	499,1914k internal	0,3122k external	0,3122temperature offset calibration	1,0000default loss term (dB/km)	0,3820temperature slope calibration	1,0000multiplexer offset coefficient	1,0000multiplexer slope coefficient	1,0000fibre end	0,00T internal ref (°C)	22,37T ext. ref 1 (°C)	6,06T ext. ref 2 (°C)	6,08length (m)	temperature (°C)	Stokes	anti-Stokes-744,400	-200,000	0,009	0,042
-743,385	-173,214	-0,234	-0,005
-742,371	455,057	0,064	0,105
-741,356	23,149	-0,242	0,148
-740,342	-174,082	0,103	-0,002
-739,327	567,752	-0,168	0,306
-738,312	-200,000	-0,025	0,122
-737,298	162,722	-0,208	0,217
-736,283	96,190	0,066	-0,056
-735,269	246,737	-0,083	0,105
-734,254	175,731	0,035	0,038
-733,239	-96,477	-0,474	-0,092
-732,225	3,622	0,160	-0,087
-731,210	-29,819	-0,219	0,093
-730,196	-200,000	0,008	0,040
-729,181	98,343	0,002	0,001
-728,167	-200,000	-0,006	0,085
-727,152	134,692	-0,004	0,004
-726,137	0,591	-0,078	-0,041
-725,123	-152,179	-0,171	-0,009
-724,108	228,836	-0,030	-0,037
-723,094	45,894	-0,025	-0,017
-722,079	800,000	-0,041	-0,128
-721,064	-103,287	0,066	0,012
-720,050	800,000	0,025	-0,072
-719,035	-200,000	0,012	-0,040
-718,021	-200,000	0,025	-0,087
-717,006	769,286	-0,076	-0,154
-715,991	-200,000	-0,019	-0,259
-714,977	-136,433	-0,065	0,006
-713,962	105,114	0,075	-0,066
-712,948	-200,000	-0,009	0,121
-711,933	800,000	-0,031	-0,095
-710,918	99,530	-0,068	0,059
-709,904	-200,000	0,004	-0,046
-708,889	312,635	0,063	0,088
-707,875	303,348	0,032	-0,045
-706,860	256,931	-0,039	-0,050
-705,845	-200,000	0,013	0,074
-704,831	800,000	-0,039	0,110
-703,816	33,565	0,079	-0,051
-702,802	-200,000	0,019	-0,093
-701,787	-200,000	-0,016	-0,189
-700,772	8,848	-0,158	-0,088
-699,758	232,890	0,062	-0,076
-698,743	-116,346	-0,123	-0,017
-697,729	-200,000	-0,027	-0,119
-696,714	-107,968	0,053	-0,008
-695,699	-200,000	0,022	0,078
-694,685	-123,021	-0,040	0,005
-693,670	-183,103	0,089	0,001
-692,656	-200,000	-0,002	0,028
-691,641	-102,571	-0,098	-0,017
-690,627	-200,000	-0,006	0,060
-689,612	-200,000	0,014	0,052
-688,597	-200,000	0,001	-0,063
-687,583	-36,336	0,029	0,012
-686,568	-200,000	0,006	-0,084
-685,554	-200,000	0,002	-0,043
-684,539	275,941	0,052	-0,068
-683,524	-200,000	0,002	0,016
-682,510	-129,263	-0,169	-0,017
-681,495	-200,000	0,015	0,065
-680,481	800,000	0,014	-0,045
-679,466	328,855	0,094	-0,134
-678,451	66,255	-0,186	-0,140
-677,437	434,468	-0,052	-0,085
-676,422	-45,220	0,085	0,031
-675,408	-111,128	-0,217	0,033
-674,393	304,625	-0,057	-0,079
-673,378	445,006	0,043	-0,070
-672,364	-200,000	0,021	-0,093
-671,349	-73,659	-0,009	0,003
-670,335	-55,515	0,099	0,033
-669,320	-200,000	0,020	0,076
-668,305	52,874	0,137	0,097
-667,291	800,000	-0,029	-0,093
-666,276	-119,096	-0,085	-0,011
-665,262	800,000	0,015	-0,039
-664,247	800,000	0,017	0,041
-663,232	-200,000	0,001	-0,021
-662,218	113,647	-0,032	-0,029
-661,203	283,995	0,064	0,085
-660,189	-200,000	0,021	0,197
-659,174	-200,000	0,010	0,067
-658,159	800,000	0,038	-0,109
-657,145	800,000	-0,024	-0,067
-656,130	55,686	0,029	-0,021
-655,116	-200,000	-0,002	-0,041
-654,101	181,574	-0,056	-0,062
-653,086	-73,498	0,116	-0,031
-652,072	442,800	0,022	-0,036
-651,057	-200,000	0,008	-0,158
-650,043	-200,000	0,012	-0,094
-649,028	-21,560	0,078	0,035
-648,014	-200,000	0,107	0,000
-646,999	800,000	0,035	-0,098
-645,984	-55,182	-0,035	-0,011
-644,970	379,804	-0,019	0,030
-643,955	214,937	0,045	-0,053
-642,941	464,911	-0,119	-0,199
-641,926	115,199	-0,111	-0,101
-640,911	164,721	0,003	0,003
-639,897	41,575	0,056	0,038
-638,882	-119,756	0,049	0,006
-637,868	-200,000	-0,018	0,156
-636,853	-200,000	-0,017	-0,088
-635,838	-200,000	0,010	-0,066
-634,824	-79,643	-0,025	0,006
-633,809	-107,548	0,080	0,013
-632,795	258,836	0,049	-0,063
-631,780	796,775	0,033	-0,069
-630,765	800,000	-0,050	0,121
-629,751	-129,863	-0,043	0,004
-628,736	-97,956	0,099	-0,019
-627,722	-124,254	0,119	0,014
-626,707	66,914	-0,095	-0,071
-625,692	800,000	-0,021	0,047
-624,678	112,453	-0,113	-0,101
-623,663	800,000	-0,052	-0,109
-622,649	-200,000	-0,030	-0,116
-621,634	-200,000	0,004	-0,096
-620,619	-200,000	0,013	-0,072
-619,605	388,999	-0,058	0,089
-618,590	-25,086	0,041	0,018
-617,576	209,028	-0,116	-0,135
-616,561	-200,000	-0,002	0,151
-615,546	-196,365	-0,148	0,001
-614,532	-70,325	-0,098	0,027
-613,517	-200,000	-0,005	-0,046
-612,503	-103,047	-0,147	0,026
-611,488	-114,712	0,150	-0,021
-610,474	280,118	-0,074	0,098
-609,459	-200,000	-0,005	0,074
-608,444	82,273	-0,068	0,055
-607,430	-88,649	0,045	-0,010
-606,415	201,759	0,054	-0,062
-605,401	800,000	0,061	-0,160
-604,386	203,229	0,045	0,052
-603,371	48,330	-0,127	0,088
-602,357	-200,000	-0,028	0,112
-601,342	223,075	-0,051	0,061
-600,328	-37,695	-0,130	0,051
-599,313	2,067	0,034	0,018
-598,298	186,305	0,092	-0,102
-597,284	-28,371	-0,030	-0,013
-596,269	-22,012	0,050	-0,022
-595,255	800,000	-0,009	0,019
-594,240	160,335	-0,040	0,041
-593,225	206,807	-0,096	0,111
-592,211	178,845	-0,109	-0,118
-591,196	-77,725	0,079	-0,020
-590,182	-164,469	0,115	-0,004
-589,167	270,523	-0,033	0,044
-588,152	-70,018	-0,066	0,019
-587,138	-93,339	0,150	-0,031
-586,123	800,000	-0,105	-0,233
-585,109	-105,761	0,117	-0,019
-584,094	181,047	0,053	0,058
-583,079	800,000	-0,043	-0,106
-582,065	35,224	-0,086	0,056
-581,050	41,219	-0,137	0,092
-580,036	-83,771	-0,085	-0,020
-579,021	65,414	-0,068	-0,051
-578,006	800,000	0,037	-0,096
-576,992	-200,000	0,027	0,097
-575,977	73,853	-0,032	-0,025
-574,963	264,605	0,007	0,009
-573,948	-200,000	0,002	-0,056
-572,934	-19,381	-0,146	-0,067
-571,919	-200,000	-0,002	-0,118
-570,904	5,640	-0,082	0,045
-569,890	-180,802	-0,152	0,002
-568,875	42,090	0,113	0,076
-567,861	297,912	0,055	0,075
-566,846	773,174	-0,029	0,058
-565,831	394,742	0,057	-0,088
-564,817	800,000	0,015	0,030
-563,802	81,673	-0,077	-0,062
-562,788	114,216	0,112	-0,101
-561,773	513,668	-0,025	0,044
-560,758	68,826	0,118	0,089
-559,744	461,607	0,045	0,074
-558,729	-58,302	0,058	-0,018
-557,715	-33,585	0,030	-0,012
-556,700	800,000	-0,025	-0,059
-555,685	-78,973	-0,164	-0,041
-554,671	81,876	-0,014	0,011
-553,656	158,937	-0,109	-0,112
-552,642	-95,320	0,150	-0,030
-551,627	-25,087	0,101	0,044
-550,612	661,467	-0,055	0,106
-549,598	62,337	0,040	0,030
-548,583	-161,639	0,039	-0,001
-547,569	-91,129	-0,187	0,039
-546,554	-157,555	0,122	-0,005
-545,539	184,116	-0,059	-0,064
-544,525	23,045	-0,032	-0,019
-543,510	205,241	0,050	-0,058
-542,496	-111,389	-0,133	-0,020
-541,481	417,012	0,023	-0,037
-540,466	89,716	0,102	-0,084
-539,452	-48,120	0,129	0,046
-538,437	240,060	0,075	-0,092
-537,423	-200,000	0,003	-0,018
-536,408	-200,000	0,003	0,080
-535,393	-200,000	0,002	-0,017
-534,379	18,720	-0,142	-0,084
-533,364	423,238	0,052	0,083
-532,350	550,995	0,013	0,024
-531,335	-200,000	0,012	-0,048
-530,321	-200,000	-0,008	-0,037
-529,306	18,881	-0,112	0,066
-528,291	-200,000	-0,001	-0,019
-527,277	14,230	0,052	-0,030
-526,262	-27,458	0,165	-0,071
-525,248	181,348	0,064	0,070
-524,233	154,739	-0,031	0,031
-523,218	745,621	-0,034	0,068
-522,204	-103,855	-0,063	0,011
-521,189	-200,000	-0,026	-0,108
-520,175	-136,542	-0,104	-0,009
-519,160	299,226	-0,069	-0,094
-518,145	800,000	0,043	0,092
-517,131	-24,775	-0,042	0,018
-516,116	-200,000	0,007	0,112
-515,102	-37,827	-0,085	0,033
-514,087	-1,695	-0,065	-0,034
-513,072	-134,691	-0,038	-0,003
-512,058	-81,297	-0,063	0,015
-511,043	-5,216	0,035	0,018
-510,029	-29,408	0,024	-0,010
-509,014	800,000	0,021	-0,049
-507,999	800,000	-0,045	-0,124
-506,985	-49,511	-0,095	0,033
-505,970	5,842	0,070	-0,038
-504,956	-82,690	-0,049	0,012
-503,941	-65,412	-0,032	0,009
-502,926	2,726	-0,045	0,024
-501,912	-200,000	0,000	-0,015
-500,897	-26,384	-0,037	0,016
-499,883	82,692	0,052	0,042
-498,868	800,000	-0,042	0,125
-497,853	800,000	-0,029	0,064
-496,839	43,045	0,071	0,048
-495,824	-200,000	0,013	-0,047
-494,810	-35,316	0,107	-0,043
-493,795	289,601	0,060	-0,080
-492,781	-97,068	-0,141	-0,027
-491,766	-200,000	-0,018	-0,154
-490,751	115,611	-0,095	-0,086
-489,737	-70,853	0,099	0,027
-488,722	-75,375	0,097	0,025
-487,708	-152,864	0,036	-0,002
-486,693	800,000	-0,049	0,142
-485,678	-200,000	0,028	0,096
-484,664	316,848	-0,042	0,058
-483,649	-185,078	-0,031	-0,000
-482,635	50,906	-0,113	-0,079
-481,620	157,208	0,083	0,085
-480,605	-200,000	0,012	0,138
-479,591	-200,000	0,020	0,065
-478,576	270,704	0,031	-0,040
-477,562	-200,000	-0,005	-0,087
-476,547	-101,995	-0,137	-0,024
-475,532	-140,840	0,088	0,007
-474,518	60,256	0,126	0,092
-473,503	-200,000	-0,019	0,091
-472,489	-45,855	-0,065	0,023
-471,474	-200,000	0,056	-0,242
-470,459	-25,604	-0,147	-0,064
-469,445	-38,226	-0,040	0,016
-468,430	-200,000	0,003	0,117
-467,416	-15,194	-0,036	0,017
-466,401	183,606	0,062	0,067
-465,386	131,372	0,113	0,107
-464,372	95,256	-0,051	-0,043
-463,357	78,249	0,037	-0,029
-462,343	-81,522	0,135	0,032
-461,328	158,991	0,083	0,085
-460,313	222,787	-0,087	-0,104
-459,299	-200,000	-0,017	-0,062
-458,284	800,000	0,011	-0,024
-457,270	-159,990	-0,066	-0,003
-456,255	-200,000	-0,001	0,048
-455,241	-98,603	-0,095	-0,018
-454,226	800,000	0,011	-0,033
-453,211	74,239	0,010	-0,008
-452,197	-200,000	0,010	0,051
-451,182	-200,000	-0,001	0,066
-450,168	44,436	0,270	0,183
-449,153	585,712	0,066	-0,120
-448,138	-200,000	-0,018	-0,158
-447,124	44,326	-0,105	-0,071
-446,109	800,000	-0,023	-0,075
-445,095	-92,822	-0,125	0,025
-444,080	-8,239	0,134	0,066
-443,065	598,183	-0,098	0,180
-442,051	641,211	0,061	0,114
-441,036	-128,407	0,034	-0,003
-440,022	-111,688	-0,064	0,009
-439,007	448,044	0,040	0,065
-437,992	122,140	-0,021	-0,019
-436,978	-59,002	0,056	0,018
-435,963	-200,000	-0,002	0,048
-434,949	37,570	-0,115	-0,075
-433,934	-152,017	-0,050	-0,003
-432,919	-116,722	-0,068	0,009
-431,905	81,155	0,046	-0,036
-430,890	203,822	0,097	-0,111
-429,876	-189,344	0,056	-0,000
-428,861	369,076	0,090	0,134
-427,846	-200,000	-0,015	-0,051
-426,832	727,711	-0,055	-0,108
-425,817	-139,711	-0,037	-0,003
-424,803	90,282	-0,051	-0,042
-423,788	100,014	-0,050	-0,043
-422,773	-43,392	0,222	0,082
-421,759	800,000	-0,008	-0,019
-420,744	-152,418	0,068	0,004
-419,730	-87,359	-0,018	-0,004
-418,715	-108,329	-0,100	-0,016
-417,701	-200,000	0,017	-0,086
-416,686	-200,000	-0,025	0,093
-415,671	51,628	0,069	0,048
-414,657	-99,912	0,080	-0,014
-413,642	39,556	-0,057	0,038
-412,628	-183,336	-0,153	0,002
-411,613	800,000	0,032	-0,082
-410,598	800,000	-0,020	-0,051
-409,584	-116,753	0,110	-0,015
-408,569	-108,334	0,098	0,015
-407,555	93,096	0,149	0,124
-406,540	768,002	0,016	0,032
-405,525	-200,000	-0,004	0,054
-404,511	129,237	-0,096	-0,090
-403,496	325,025	0,027	-0,038
-402,482	15,336	0,064	-0,037
-401,467	-200,000	0,002	0,157
-400,452	241,132	-0,036	0,045
-399,438	21,776	-0,077	-0,046
-398,423	-7,459	0,036	0,018
-397,409	-104,063	-0,027	-0,005
-396,394	-200,000	-0,033	-0,145
-395,379	219,053	0,119	0,140
-394,365	-200,000	-0,002	0,072
-393,350	383,410	0,045	-0,068
-392,336	46,030	0,140	-0,095
-391,321	-200,000	-0,003	-0,036
-390,306	-17,785	0,107	-0,049
-389,292	355,418	0,032	0,047
-388,277	55,677	0,017	-0,012
-387,263	131,407	0,072	0,068
-386,248	800,000	-0,047	0,142
-385,233	538,137	0,048	-0,085
-384,219	7,351	0,048	-0,026
-383,204	-200,000	0,009	0,059
-382,190	-200,000	0,007	-0,105
-381,175	3,960	0,079	0,042
-380,160	-200,000	0,004	0,052
-379,146	-129,052	0,025	-0,003
-378,131	-88,129	0,080	0,017
-377,117	800,000	-0,049	0,145
-376,102	-200,000	0,012	-0,082
-375,088	-7,257	-0,148	0,073
-374,073	655,365	0,044	0,083
-373,058	800,000	0,019	0,039
-372,044	-101,809	0,052	0,009
-371,029	-200,000	0,009	-0,118
-370,015	-45,591	-0,081	-0,029
-369,000	-67,536	0,066	-0,019
-367,985	-121,837	-0,225	0,027
-366,971	-151,134	0,119	0,006
-365,956	374,275	-0,054	-0,080
-364,942	106,194	0,072	-0,063
-363,927	-6,120	-0,100	0,050
-362,912	-200,000	0,002	0,030
-361,898	-6,863	-0,056	-0,028
-360,883	322,660	-0,039	-0,055
-359,869	-112,123	0,110	0,016
-358,854	49,315	-0,108	-0,075
-357,839	-78,391	0,023	0,006
-356,825	136,042	0,072	0,069
-355,810	-39,508	-0,120	-0,046
-354,796	-200,000	0,030	-0,111
-353,781	-200,000	0,002	0,093
-352,766	-200,000	-0,016	-0,060
-351,752	165,661	0,140	-0,146
-350,737	800,000	-0,046	0,095
-349,723	-66,593	0,048	-0,014
-348,708	-29,754	0,081	0,034
-347,693	800,000	0,005	0,012
-346,679	-38,778	-0,047	-0,018
-345,664	39,404	0,053	-0,035
-344,650	-125,190	-0,049	0,005
-343,635	-35,531	0,021	0,008
-342,620	705,276	0,043	0,084
-341,606	593,649	-0,025	0,046
-340,591	-200,000	0,000	0,027
-339,577	45,664	0,056	0,038
-338,562	800,000	0,057	-0,130
-337,548	691,580	-0,056	0,107
-336,533	800,000	0,025	0,064
-335,518	-113,191	-0,149	0,021
-334,504	9,729	0,054	0,030
-333,489	-53,945	0,042	-0,014
-332,475	179,876	0,018	0,019
-331,460	-200,000	0,024	0,117
-330,445	-65,626	0,029	-0,008
-329,431	1,187	-0,083	-0,044
-328,416	43,557	-0,060	0,040
-327,402	235,115	0,085	0,103
-326,387	-122,611	0,071	-0,008
-325,372	305,376	-0,003	0,005
-324,358	-200,000	0,010	-0,094
-323,343	-172,793	-0,194	-0,004
-322,329	247,164	0,054	0,066
-321,314	171,499	0,084	0,088
-320,299	-200,000	0,023	0,127
-319,285	-94,327	-0,051	0,010
-318,270	42,439	0,048	-0,032
-317,256	-200,000	-0,044	0,184
-316,241	508,114	-0,049	-0,084
-315,226	118,663	-0,028	0,025
-314,212	512,069	0,045	0,078
-313,197	157,356	0,026	0,027
-312,183	20,293	-0,066	0,039
-311,168	767,751	-0,020	0,040
-310,153	-200,000	-0,006	-0,099
-309,139	-200,000	0,003	-0,066
-308,124	-200,000	-0,003	0,013
-307,110	68,514	0,089	0,067
-306,095	-63,505	-0,065	-0,019
-305,080	136,814	0,042	0,040
-304,066	141,397	-0,179	-0,173
-303,051	-200,000	-0,015	-0,242
-302,037	321,866	0,089	-0,125
-301,022	-123,013	-0,044	-0,005
-300,008	-200,000	-0,026	0,107
-298,993	800,000	-0,024	0,058
-297,978	-200,000	-0,006	0,040
-296,964	475,364	0,035	0,058
-295,949	478,780	-0,078	-0,130
-294,935	-34,298	-0,175	-0,070
-293,920	546,546	0,038	0,067
-292,905	-55,509	0,115	-0,038
-291,891	-200,000	0,015	0,082
-290,876	17,491	0,087	0,051
-289,862	-129,088	-0,107	0,011
-288,847	-98,503	-0,068	-0,013
-287,832	31,122	0,062	0,039
-286,818	-200,000	-0,006	0,049
-285,803	-121,121	0,062	-0,007
-284,789	125,925	-0,080	0,074
-283,774	-200,000	-0,008	-0,028
-282,759	-127,599	-0,091	0,010
-281,745	-151,530	-0,122	-0,007
-280,730	158,466	-0,065	-0,066
-279,716	-68,303	-0,073	0,021
-278,701	281,682	-0,074	0,097
-277,686	192,251	-0,021	0,023
-276,672	-81,848	-0,031	-0,007
-275,657	-200,000	0,027	-0,161
-274,643	-200,000	0,024	-0,204
-273,628	226,174	-0,048	-0,057
-272,613	-0,053	-0,092	-0,048
-271,599	251,691	0,025	0,031
-270,584	432,464	0,063	0,101
-269,570	800,000	0,023	0,070
-268,555	-200,000	-0,025	0,151
-267,540	112,564	0,082	0,073
-266,526	-4,802	0,010	-0,005
-265,511	5,585	-0,073	-0,039
-264,497	276,478	0,052	0,068
-263,482	-119,979	0,083	0,010
-262,467	-84,283	-0,178	0,041
-261,453	-17,417	-0,048	0,022
-260,438	-62,463	-0,081	-0,025
-259,424	-51,364	-0,111	-0,038
-258,409	-200,000	-0,020	-0,102
-257,395	36,676	-0,078	0,050
-256,380	-196,115	-0,060	0,000
-255,365	-136,948	0,108	-0,009
-254,351	-135,569	-0,052	-0,004
-253,336	-12,865	-0,070	-0,033
-252,322	800,000	0,017	0,036
-251,307	-200,000	0,010	0,062
-250,292	800,000	0,029	0,073
-249,278	-158,289	-0,076	0,003
-248,263	800,000	0,066	0,142
-247,249	152,517	-0,048	0,048
-246,234	-34,708	0,092	-0,037
-245,219	21,018	0,037	0,022
-244,205	531,658	0,070	-0,121
-243,190	-79,479	-0,082	0,020
-242,176	800,000	0,022	0,046
-241,161	-27,713	0,037	0,016
-240,146	-200,000	-0,002	-0,057
-239,132	-102,642	0,148	-0,026
-238,117	-50,750	-0,102	-0,035
-237,103	166,652	0,047	-0,049
-236,088	443,544	0,020	0,032
-235,073	800,000	-0,024	0,060
-234,059	446,699	-0,063	0,102
-233,044	-200,000	-0,016	-0,126
-232,030	184,706	-0,097	-0,105
-231,015	-200,000	-0,002	-0,107
-230,000	59,016	-0,042	0,030
-228,986	163,643	-0,033	0,034
-227,971	800,000	0,012	0,029
-226,957	340,083	0,063	-0,090
-225,942	800,000	0,021	0,044
-224,927	78,724	0,037	0,029
-223,913	356,130	0,010	-0,014
-222,898	-200,000	0,012	0,080
-221,884	-200,000	-0,035	-0,183
-220,869	415,200	-0,031	-0,048
-219,855	36,505	0,125	0,081
-218,840	800,000	0,057	-0,173
-217,825	-146,488	0,118	0,007
-216,811	184,219	-0,027	-0,029
-215,796	-86,456	0,072	0,016
-214,782	-200,000	0,029	-0,094
-213,767	7,301	-0,062	-0,034
-212,752	-200,000	0,019	-0,113
-211,738	129,923	0,080	0,074
-210,723	136,551	-0,024	0,023
-209,709	-12,519	0,059	-0,028
-208,694	166,885	0,039	-0,040
-207,679	-14,394	-0,073	0,034
-206,665	-200,000	0,004	0,084
-205,650	242,920	0,054	-0,066
-204,636	77,900	0,056	0,043
-203,621	228,174	0,089	0,106
-202,606	107,636	0,058	0,050
-201,592	-200,000	-0,037	-0,129
-200,577	-30,322	0,051	0,021
-199,563	155,297	-0,047	-0,047
-198,548	-152,288	0,049	-0,003
-197,533	-200,000	-0,005	0,017
-196,519	82,393	0,062	0,049
-195,504	-8,327	0,134	0,065
-194,490	211,526	-0,041	0,048
-193,475	800,000	0,015	-0,041
-192,460	-200,000	-0,016	-0,217
-191,446	-88,438	0,128	0,028
-190,431	42,321	0,074	0,049
-189,417	30,907	-0,144	0,090
-188,402	48,250	0,069	0,047
-187,387	71,202	-0,104	0,079
-186,373	-100,085	0,091	0,016
-185,358	349,933	-0,040	-0,058
-184,344	800,000	0,029	0,065
-183,329	105,791	-0,066	0,057
-182,315	566,324	-0,100	0,177
-181,300	-200,000	0,005	-0,067
-180,285	-200,000	0,021	-0,110
-179,271	140,337	-0,031	-0,030
-178,256	-36,529	-0,104	0,041
-177,242	-200,000	0,028	-0,095
-176,227	-92,427	0,030	-0,006
-175,212	49,459	0,103	0,071
-174,198	-200,000	0,039	0,152
-173,183	589,357	0,049	-0,089
-172,169	184,730	-0,055	-0,059
-171,154	-106,722	-0,041	-0,007
-170,139	127,488	0,064	-0,059
-169,125	-9,407	0,164	-0,079
-168,110	-200,000	0,014	0,109
-167,096	35,960	-0,010	-0,006
-166,081	93,555	-0,075	0,062
-165,066	131,734	-0,085	-0,080
-164,052	-83,465	0,164	-0,038
-163,037	-200,000	-0,013	-0,047
-162,023	180,676	0,154	0,165
-161,008	-24,317	-0,079	0,034
-159,993	-141,010	0,065	0,005
-158,979	-70,675	0,013	-0,003
-157,964	800,000	0,019	-0,057
-156,950	345,865	-0,085	-0,122
-155,935	-200,000	-0,012	-0,041
-154,920	148,787	-0,070	0,069
-153,906	-92,307	0,085	0,017
-152,891	23,167	0,125	0,074
-151,877	324,694	0,032	-0,045
-150,862	20,034	-0,065	-0,038
-149,847	74,621	0,010	0,008
-148,833	2,457	0,148	0,078
-147,818	-100,813	0,040	-0,007
-146,804	-129,463	0,110	-0,011
-145,789	-45,770	0,070	0,025
-144,775	-52,334	-0,074	0,025
-143,760	-45,159	-0,116	0,042
-142,745	610,634	0,044	0,080
-141,731	190,117	0,048	0,053
-140,716	148,968	0,035	-0,035
-139,702	-200,000	-0,003	-0,020
-138,687	382,520	0,048	-0,072
-137,672	-200,000	-0,017	-0,092
-136,658	205,077	-0,046	0,052
-135,643	800,000	0,076	-0,179
-134,629	-200,000	0,001	-0,030
-133,614	94,933	0,107	0,088
-132,599	78,767	0,017	0,013
-131,585	-200,000	0,021	0,106
-130,570	385,117	0,042	0,063
-129,556	122,754	-0,082	0,074
-128,541	800,000	0,056	-0,114
-127,526	191,597	-0,143	-0,157
-126,512	89,169	0,076	0,062
-125,497	-79,833	-0,051	0,012
-124,483	-104,860	-0,147	0,024
-123,468	57,729	0,105	0,074
-122,453	127,250	-0,104	-0,096
-121,439	-200,000	-0,028	0,102
-120,424	-117,567	-0,083	0,011
-119,410	-104,288	0,022	0,004
-118,395	160,296	0,116	0,118
