DTS Sentinel unit serial number:	SN410029Multiplexer serial number:	ORYXHardware model number:	OX2-SRSoftware version number:	ORYX F/W v4,00 Oryx Data Collector v3.7.2.0data status	okinstallation	B6 Nyhavnadifferential loss correction	single-endedforward channel	channel 2reverse channel	N/Adate	2023/12/10time	10:25:08forward acquisition time	300,00reverse acquisition time	0,00gamma	499,1914k internal	0,3123k external	0,3123temperature offset calibration	1,0000default loss term (dB/km)	0,3820temperature slope calibration	1,0000multiplexer offset coefficient	1,0000multiplexer slope coefficient	1,0000fibre end	0,00T internal ref (°C)	22,56T ext. ref 1 (°C)	6,42T ext. ref 2 (°C)	6,43length (m)	temperature (°C)	Stokes	anti-Stokes-744,400	5,903	0,075	0,041
-743,385	-23,268	-0,136	0,061
-742,371	-200,000	0,005	-0,081
-741,356	800,000	-0,050	0,132
-740,342	800,000	-0,026	0,086
-739,327	-200,000	-0,215	-0,000
-738,312	-200,000	0,014	-0,186
-737,298	17,007	-0,117	0,069
-736,283	-200,000	0,004	-0,199
-735,269	-19,542	-0,182	-0,084
-734,254	550,374	0,038	0,069
-733,239	-146,287	-0,508	0,033
-732,225	359,922	0,043	-0,065
-731,210	-200,000	0,003	-0,132
-730,196	12,340	-0,065	0,037
-729,181	800,000	-0,020	-0,045
-728,167	800,000	0,020	-0,063
-727,152	-39,176	-0,062	-0,024
-726,137	-200,000	-0,004	-0,190
-725,123	-80,572	-0,106	-0,026
-724,108	800,000	-0,021	-0,060
-723,094	-200,000	-0,034	-0,198
-722,079	734,343	0,011	-0,022
-721,064	-78,543	0,040	-0,010
-720,050	99,806	0,030	0,026
-719,035	-22,718	-0,085	0,038
-718,021	76,386	-0,123	-0,097
-717,006	-200,000	0,008	-0,030
-715,991	-32,983	-0,073	-0,030
-714,977	-200,000	-0,015	-0,183
-713,962	-200,000	0,003	-0,141
-712,948	-18,754	0,056	0,026
-711,933	800,000	0,044	0,095
-710,918	800,000	0,006	-0,015
-709,904	-200,000	-0,036	-0,214
-708,889	133,588	-0,092	-0,089
-707,875	73,103	0,066	-0,051
-706,860	800,000	0,010	0,030
-705,845	-104,891	0,089	-0,015
-704,831	-58,438	0,162	0,052
-703,816	-147,092	-0,035	0,002
-702,802	-200,000	-0,004	-0,130
-701,787	331,729	-0,059	-0,085
-700,772	540,174	0,069	-0,123
-699,758	1,777	-0,056	0,030
-698,743	-200,000	0,007	0,107
-697,729	16,913	0,093	0,055
-696,714	-67,628	0,080	0,023
-695,699	-200,000	0,006	-0,075
-694,685	800,000	-0,068	-0,155
-693,670	-200,000	-0,040	-0,158
-692,656	496,554	-0,041	0,070
-691,641	-200,000	0,029	0,102
-690,627	-7,227	-0,091	0,046
-689,612	-63,998	-0,047	-0,014
-688,597	-45,146	-0,015	-0,006
-687,583	800,000	-0,051	-0,106
-686,568	-96,645	-0,096	0,019
-685,554	158,672	0,096	-0,099
-684,539	32,919	-0,092	-0,059
-683,524	194,664	-0,057	0,065
-682,510	800,000	-0,015	0,034
-681,495	-200,000	-0,004	0,052
-680,481	36,792	-0,039	0,026
-679,466	715,078	-0,047	-0,092
-678,451	27,717	-0,028	-0,018
-677,437	332,107	0,145	-0,209
-676,422	187,743	0,060	-0,067
-675,408	194,479	-0,025	-0,028
-674,393	84,593	-0,075	0,061
-673,378	498,818	-0,042	-0,073
-672,364	749,848	0,090	-0,182
-671,349	-200,000	-0,030	0,112
-670,335	311,015	0,032	0,045
-669,320	273,986	-0,015	0,020
-668,305	-200,000	0,004	0,020
-667,291	424,229	-0,049	0,079
-666,276	83,909	0,048	0,039
-665,262	-8,285	-0,068	-0,034
-664,247	-163,943	-0,132	0,004
-663,232	800,000	-0,016	0,048
-662,218	-200,000	-0,016	-0,114
-661,203	800,000	0,021	-0,060
-660,189	-200,000	-0,007	-0,096
-659,174	800,000	-0,043	-0,118
-658,159	191,626	0,049	0,055
-657,145	51,451	-0,065	-0,046
-656,130	35,734	0,140	0,092
-655,116	-121,270	-0,056	-0,007
-654,101	-111,295	-0,087	0,013
-653,086	99,341	-0,029	0,025
-652,072	420,364	0,024	0,039
-651,057	-58,018	-0,108	0,035
-650,043	136,707	-0,033	-0,032
-649,028	181,992	-0,100	-0,110
-648,014	-200,000	-0,001	0,063
-646,999	478,460	-0,007	0,012
-645,984	272,493	-0,060	-0,079
-644,970	-200,000	0,004	-0,045
-643,955	800,000	0,070	-0,177
-642,941	800,000	-0,093	-0,210
-641,926	-200,000	-0,039	-0,167
-640,911	82,030	0,037	0,030
-639,897	800,000	0,018	-0,050
-638,882	-62,669	-0,056	-0,017
-637,868	336,998	0,051	-0,073
-636,853	389,574	-0,092	-0,142
-635,838	-200,000	-0,013	-0,155
-634,824	588,852	-0,030	0,055
-633,809	-140,806	-0,014	0,001
-632,795	137,079	-0,033	0,032
-631,780	-160,959	0,055	0,002
-630,765	-15,183	0,083	-0,039
-629,751	-4,009	-0,060	-0,031
-628,736	45,229	-0,157	-0,108
-627,722	253,673	0,054	0,069
-626,707	2,590	-0,105	0,056
-625,692	226,212	0,079	0,095
-624,678	289,078	-0,051	0,069
-623,663	800,000	-0,033	0,098
-622,649	-21,407	0,036	-0,016
-621,634	49,133	-0,091	-0,063
-620,619	357,586	-0,076	0,112
-619,605	109,897	0,019	0,017
-618,590	20,559	0,086	0,051
-617,576	274,543	0,056	0,074
-616,561	-200,000	0,013	-0,077
-615,546	658,866	0,062	0,118
-614,532	-87,193	-0,164	-0,037
-613,517	800,000	0,051	-0,131
-612,503	240,159	-0,073	0,091
-611,488	-88,530	0,116	0,025
-610,474	800,000	0,043	-0,097
-609,459	-33,026	0,036	0,015
-608,444	2,972	0,036	0,020
-607,430	55,790	-0,121	-0,087
-606,415	41,708	0,033	-0,022
-605,401	-98,906	0,140	-0,026
-604,386	238,246	-0,047	0,058
-603,371	6,687	-0,077	-0,042
-602,357	800,000	0,066	0,143
-601,342	-200,000	0,029	0,131
-600,328	800,000	0,025	-0,074
-599,313	-200,000	-0,001	-0,130
-598,298	-200,000	-0,005	-0,077
-597,284	-200,000	-0,059	0,000
-596,269	-16,280	0,061	-0,029
-595,255	800,000	0,089	0,209
-594,240	-170,431	-0,071	-0,002
-593,225	-34,739	-0,151	0,061
-592,211	186,488	-0,029	0,032
-591,196	239,990	0,110	-0,136
-590,182	800,000	-0,023	0,050
-589,167	800,000	-0,050	-0,148
-588,152	-200,000	0,003	-0,037
-587,138	329,656	-0,064	-0,092
-586,123	-200,000	-0,001	-0,024
-585,109	800,000	0,024	-0,070
-584,094	-200,000	-0,010	0,072
-583,079	9,183	0,097	0,054
-582,065	-200,000	-0,032	0,161
-581,050	800,000	0,017	0,039
-580,036	397,484	-0,006	-0,010
-579,021	-109,302	-0,030	-0,005
-578,006	-109,780	-0,113	0,017
-576,992	207,121	0,062	0,072
-575,977	338,081	-0,008	-0,011
-574,963	145,789	-0,065	0,065
-573,948	-20,691	-0,092	0,042
-572,934	466,411	0,029	0,048
-571,919	331,732	-0,024	-0,034
-570,904	800,000	-0,071	-0,151
-569,890	74,273	0,095	-0,074
-568,875	108,661	-0,064	-0,056
-567,861	800,000	-0,023	-0,052
-566,846	-27,476	0,143	0,061
-565,831	800,000	0,028	-0,075
-564,817	800,000	0,041	-0,128
-563,802	-200,000	0,035	-0,119
-562,788	44,435	0,068	0,046
-561,773	332,136	-0,083	0,119
-560,758	-200,000	-0,012	0,070
-559,744	-200,000	0,009	0,046
-558,729	-133,112	-0,058	0,005
-557,715	-86,546	-0,153	-0,034
-556,700	135,904	-0,043	-0,041
-555,685	-200,000	-0,016	-0,055
-554,671	-200,000	-0,006	-0,069
-553,656	-200,000	-0,003	-0,063
-552,642	-58,640	0,009	0,003
-551,627	-57,639	0,038	0,012
-550,612	36,385	-0,103	-0,067
-549,598	536,381	-0,025	-0,043
-548,583	322,341	0,058	-0,082
-547,569	310,096	-0,105	-0,146
-546,554	141,091	0,051	-0,050
-545,539	192,445	0,023	0,026
-544,525	-98,691	-0,102	-0,019
-543,510	-24,129	0,061	-0,027
-542,496	99,885	-0,108	0,092
-541,481	-123,628	-0,004	-0,001
-540,466	27,309	0,026	0,016
-539,452	800,000	0,007	-0,016
-538,437	800,000	0,047	-0,113
-537,423	-200,000	0,047	-0,174
-536,408	86,955	0,063	-0,051
-535,393	134,267	-0,054	-0,052
-534,379	153,458	-0,015	-0,015
-533,364	-143,046	0,128	0,009
-532,350	-116,052	0,040	0,005
-531,335	-88,661	0,053	-0,012
-530,321	-152,756	0,116	0,006
-529,306	-200,000	-0,018	0,116
-528,291	117,722	0,044	0,040
-527,277	800,000	0,028	-0,060
-526,262	214,063	-0,104	-0,122
-525,248	-59,417	0,089	-0,028
-524,233	-187,141	-0,061	0,001
-523,218	800,000	-0,016	-0,051
-522,204	-200,000	0,020	-0,074
-521,189	-86,848	-0,083	-0,019
-520,175	61,486	0,068	0,050
-519,160	363,562	-0,061	0,090
-518,145	440,028	-0,050	-0,081
-517,131	800,000	-0,016	0,037
-516,116	-200,000	0,001	0,055
-515,102	-139,422	0,107	0,008
-514,087	177,290	0,027	0,029
-513,072	51,841	-0,019	0,013
-512,058	-45,604	-0,090	0,033
-511,043	800,000	0,022	0,047
-510,029	311,949	0,069	-0,095
-509,014	450,046	-0,051	0,083
-507,999	800,000	-0,029	0,091
-506,985	-44,583	-0,121	-0,044
-505,970	365,270	-0,054	-0,081
-504,956	-159,527	0,105	0,004
-503,941	800,000	-0,004	-0,014
-502,926	190,571	0,089	0,099
-501,912	27,454	-0,007	0,004
-500,897	-200,000	0,021	0,119
-499,883	40,630	-0,193	0,128
-498,868	-200,000	-0,007	-0,083
-497,853	-93,963	-0,122	0,025
-496,839	-200,000	-0,019	0,224
-495,824	800,000	-0,032	0,073
-494,810	102,187	0,065	0,056
-493,795	-166,153	0,048	0,001
-492,781	-163,444	0,081	-0,003
-491,766	-200,000	-0,028	-0,238
-490,751	791,545	0,022	0,045
-489,737	-111,462	-0,090	0,013
-488,722	717,513	0,028	0,055
-487,708	-200,000	-0,002	-0,014
-486,693	-200,000	0,002	-0,064
-485,678	99,793	-0,086	-0,074
-484,664	-200,000	-0,002	0,007
-483,649	-123,177	-0,022	0,003
-482,635	800,000	-0,039	0,106
-481,620	800,000	-0,038	-0,088
-480,605	-86,395	0,064	0,014
-479,591	257,502	0,047	0,060
-478,576	-88,908	-0,069	0,015
-477,562	-200,000	-0,024	-0,147
-476,547	800,000	0,035	0,084
-475,532	294,393	-0,037	-0,050
-474,518	-106,950	0,155	0,025
-473,503	800,000	0,027	-0,075
-472,489	-42,198	-0,057	-0,022
-471,474	-74,096	0,084	0,022
-470,459	-68,264	0,047	-0,013
-469,445	510,470	0,077	-0,133
-468,430	399,459	0,023	-0,036
-467,416	-126,379	0,152	-0,016
-466,401	54,607	-0,051	-0,036
-465,386	391,482	-0,024	0,037
-464,372	278,479	0,031	0,040
-463,357	44,900	0,145	-0,099
-462,343	-24,080	0,060	-0,026
-461,328	497,419	0,067	-0,114
-460,313	143,177	-0,057	-0,055
-459,299	105,301	-0,064	-0,056
-458,284	800,000	0,037	0,097
-457,270	800,000	-0,038	-0,102
-456,255	-49,352	0,117	-0,041
-455,241	-34,791	-0,151	-0,060
-454,226	-156,262	-0,157	0,007
-453,211	-200,000	0,024	0,093
-452,197	-171,650	0,024	0,001
-451,182	80,058	0,099	0,078
-450,168	-200,000	-0,011	-0,129
-449,153	28,692	0,043	0,027
-448,138	-63,378	-0,070	0,021
-447,124	106,636	-0,069	-0,060
-446,109	-28,736	-0,097	0,041
-445,095	800,000	0,032	-0,072
-444,080	32,363	-0,062	0,039
-443,065	-133,034	-0,053	-0,005
-442,051	436,206	-0,124	-0,199
-441,036	138,815	0,075	-0,073
-440,022	278,047	-0,034	-0,045
-439,007	800,000	-0,042	-0,099
-437,992	800,000	0,008	0,024
-436,978	138,860	-0,130	0,126
-435,963	464,564	0,035	0,059
-434,949	211,414	-0,029	-0,034
-433,934	-159,397	0,058	-0,002
-432,919	-200,000	-0,036	0,162
-431,905	700,421	-0,056	-0,108
-430,890	798,296	-0,073	0,148
-429,876	800,000	-0,080	0,171
-428,861	800,000	0,056	0,129
-427,846	800,000	0,050	-0,129
-426,832	-27,958	-0,021	-0,009
-425,817	232,844	0,031	0,038
-424,803	421,267	0,037	-0,059
-423,788	-148,570	-0,045	-0,003
-422,773	-51,188	0,087	0,030
-421,759	166,990	0,106	0,110
-420,744	-200,000	0,012	0,044
-419,730	351,710	-0,028	-0,041
-418,715	201,929	-0,060	-0,068
-417,701	800,000	0,020	-0,052
-416,686	-200,000	0,003	0,046
-415,671	-71,672	0,230	0,063
-414,657	800,000	0,040	-0,115
-413,642	137,124	-0,006	0,006
-412,628	-200,000	-0,009	0,084
-411,613	800,000	-0,003	-0,010
-410,598	554,280	0,042	0,074
-409,584	322,216	0,027	0,038
-408,569	-69,833	0,170	0,047
-407,555	158,257	0,044	0,045
-406,540	248,207	0,099	0,123
-405,525	108,208	-0,022	-0,019
-404,511	-200,000	0,034	0,158
-403,496	-110,577	-0,041	0,006
-402,482	-123,158	0,117	0,014
-401,467	274,695	0,060	-0,078
-400,452	-193,210	-0,111	-0,001
-399,438	111,577	-0,077	0,068
-398,423	614,666	-0,036	-0,067
-397,409	90,723	-0,111	-0,092
-396,394	-106,630	-0,019	-0,003
-395,379	-29,197	-0,046	0,019
-394,365	136,647	-0,033	0,032
-393,350	127,072	0,044	0,041
-392,336	529,542	-0,036	0,064
-391,321	-90,625	0,130	-0,027
-390,306	497,005	-0,030	-0,051
-389,292	-19,614	0,088	0,040
-388,277	-12,287	0,129	0,062
-387,263	28,843	0,050	-0,031
-386,248	660,562	0,045	-0,087
-385,233	84,676	0,039	0,032
-384,219	45,206	-0,081	0,055
-383,204	-200,000	-0,021	-0,135
-382,190	520,297	0,012	0,020
-381,175	-171,251	0,092	-0,002
-380,160	-200,000	0,000	0,006
-379,146	214,416	0,104	-0,121
-378,131	-105,381	0,084	0,014
-377,117	-95,475	-0,080	-0,016
-376,102	-131,414	0,073	-0,007
-375,088	414,109	-0,039	-0,061
-374,073	84,225	-0,007	-0,006
-373,058	140,013	-0,067	0,065
-372,044	-200,000	-0,020	0,092
-371,029	-200,000	0,001	0,140
-370,015	274,827	0,034	0,044
-369,000	257,758	0,159	-0,202
-367,985	725,156	-0,135	-0,265
-366,971	-107,537	0,113	0,018
-365,956	110,908	0,023	-0,021
-364,942	-200,000	0,001	0,091
-363,927	-54,790	-0,052	-0,017
-362,912	-37,268	-0,145	-0,057
-361,898	16,564	-0,104	-0,060
-360,883	732,578	0,069	-0,137
-359,869	-200,000	-0,119	-0,000
-358,854	-200,000	-0,031	-0,138
-357,839	-9,461	0,066	0,032
-356,825	-200,000	0,024	0,083
-355,810	639,547	-0,074	0,139
-354,796	-100,732	-0,093	-0,017
-353,781	131,278	-0,165	-0,155
-352,766	271,282	0,032	0,042
-351,752	-144,864	0,141	0,009
-350,737	-62,669	0,070	0,021
-349,723	-200,000	0,004	-0,037
-348,708	800,000	0,070	0,182
-347,693	-200,000	-0,019	0,141
-346,679	287,457	-0,055	0,073
-345,664	800,000	-0,022	0,061
-344,650	800,000	-0,057	-0,120
-343,635	-65,744	0,074	0,022
-342,620	118,398	-0,037	0,033
-341,606	800,000	-0,004	0,010
-340,591	-51,922	-0,142	0,048
-339,577	114,203	0,039	0,035
-338,562	-200,000	-0,011	0,084
-337,548	8,501	0,101	0,056
-336,533	-104,172	0,036	-0,006
-335,518	-5,651	-0,013	-0,007
-334,504	-200,000	-0,009	0,030
-333,489	-200,000	-0,019	0,125
-332,475	110,804	-0,112	0,099
-331,460	800,000	-0,007	0,018
-330,445	41,233	0,086	0,057
-329,431	34,374	0,024	-0,015
-328,416	-114,994	-0,019	0,003
-327,402	271,342	0,091	-0,118
-326,387	800,000	0,020	-0,066
-325,372	65,360	-0,072	0,053
-324,358	-200,000	0,019	-0,097
-323,343	-200,000	0,006	-0,023
-322,329	800,000	0,047	0,135
-321,314	-200,000	-0,024	0,104
-320,299	-170,252	-0,067	-0,002
-319,285	278,968	0,024	0,031
-318,270	50,177	-0,021	-0,014
-317,256	-200,000	0,049	-0,202
-316,241	209,262	0,044	0,051
-315,226	800,000	0,028	-0,073
-314,212	16,752	0,039	0,022
-313,197	78,045	0,103	0,080
-312,183	361,807	0,105	-0,155
-311,168	261,138	0,038	0,048
-310,153	-200,000	0,017	0,125
-309,139	260,520	-0,023	0,029
-308,124	-18,980	0,126	0,057
-307,110	490,852	0,048	0,081
-306,095	-99,959	0,129	0,023
-305,080	-76,403	0,107	-0,027
-304,066	800,000	0,008	0,025
-303,051	132,306	0,045	-0,042
-302,037	329,622	0,085	-0,120
-301,022	-200,000	0,007	-0,028
-300,008	-200,000	0,022	-0,118
-298,993	401,954	-0,065	0,100
-297,978	-200,000	0,002	0,064
-296,964	-200,000	0,001	-0,064
-295,949	-51,763	-0,112	0,038
-294,935	-62,473	-0,058	0,018
-293,920	12,271	-0,175	-0,098
-292,905	-107,575	-0,029	-0,005
-291,891	-121,606	0,125	-0,015
-290,876	-30,918	-0,100	-0,041
-289,862	8,597	-0,016	-0,009
-288,847	-200,000	-0,011	0,073
-287,832	44,613	-0,088	-0,059
-286,818	-200,000	0,022	-0,159
-285,803	-0,458	0,165	0,085
-284,789	135,841	0,072	0,069
-283,774	-200,000	0,019	0,068
-282,759	121,726	-0,050	0,046
-281,745	485,763	0,008	0,013
-280,730	-200,000	0,019	-0,154
-279,716	-200,000	-0,005	0,027
-278,701	274,204	-0,032	0,041
-277,686	-200,000	0,029	-0,119
-276,672	228,790	-0,046	-0,055
-275,657	-200,000	0,011	-0,060
-274,643	-9,620	-0,089	-0,043
-273,628	-200,000	-0,008	-0,037
-272,613	-49,709	-0,062	0,022
-271,599	27,119	-0,024	-0,015
-270,584	-200,000	-0,000	0,028
-269,570	800,000	0,024	0,071
-268,555	800,000	-0,011	-0,024
-267,540	-14,358	-0,077	0,036
-266,526	-77,453	-0,081	-0,020
-265,511	-25,301	0,014	0,006
-264,497	187,520	0,062	0,067
-263,482	166,872	0,152	0,158
-262,467	169,296	-0,040	-0,042
-261,453	-200,000	0,003	0,046
-260,438	-91,460	0,113	-0,023
-259,424	602,851	-0,008	-0,015
-258,409	21,119	0,037	0,022
-257,395	-17,497	0,100	0,046
-256,380	-13,669	0,064	0,030
-255,365	-37,459	0,082	-0,032
-254,351	-43,650	0,020	0,007
-253,336	184,128	-0,036	-0,039
-252,322	130,486	-0,088	-0,083
-251,307	-200,000	0,003	0,068
-250,292	-200,000	-0,021	0,089
-249,278	360,406	-0,042	-0,062
-248,263	-130,974	-0,067	-0,006
-247,249	-200,000	-0,008	-0,081
-246,234	-141,609	0,066	-0,005
-245,219	800,000	0,015	0,033
-244,205	151,102	-0,072	-0,072
-243,190	8,412	0,062	-0,034
-242,176	-158,913	-0,123	0,005
-241,161	134,304	-0,040	0,038
-240,146	-32,452	-0,067	0,027
-239,132	-200,000	0,021	-0,070
-238,117	-115,806	-0,152	-0,021
-237,103	-170,895	-0,109	-0,003
-236,088	100,025	-0,057	0,048
-235,073	800,000	0,021	0,056
-234,059	-119,958	0,100	0,012
-233,044	800,000	0,015	0,040
-232,030	308,935	0,049	-0,067
-231,015	-200,000	0,011	0,087
-230,000	-200,000	0,004	-0,013
-228,986	761,428	-0,025	-0,051
-227,971	373,555	-0,063	0,094
-226,957	800,000	-0,036	-0,085
-225,942	278,751	-0,078	-0,102
-224,927	-200,000	0,004	-0,117
-223,913	800,000	-0,046	0,130
-222,898	-200,000	-0,015	-0,161
-221,884	-100,446	0,036	-0,007
-220,869	-78,675	-0,053	-0,013
-219,855	276,878	-0,047	0,061
-218,840	-200,000	-0,003	0,093
-217,825	-200,000	0,005	0,073
-216,811	800,000	-0,061	0,132
-215,796	-79,072	-0,155	0,038
-214,782	-200,000	-0,034	0,121
-213,767	255,921	0,065	0,081
-212,752	-200,000	0,022	-0,091
-211,738	206,708	0,082	0,094
-210,723	-57,058	0,045	-0,014
-209,709	253,880	0,073	-0,092
-208,694	206,595	0,032	-0,036
-207,679	-3,553	-0,056	-0,029
-206,665	800,000	-0,069	0,199
-205,650	-200,000	-0,006	0,241
-204,636	-200,000	0,004	0,025
-203,621	55,068	-0,014	-0,010
-202,606	-149,976	-0,074	0,004
-201,592	58,691	0,061	0,044
-200,577	-35,544	-0,189	0,074
-199,563	333,968	-0,028	-0,040
-198,548	-200,000	0,003	-0,029
-197,533	163,628	0,071	0,073
-196,519	-113,573	-0,121	-0,017
-195,504	-18,664	0,049	0,022
-194,490	30,625	-0,080	-0,050
-193,475	745,720	0,039	-0,076
-192,460	-83,638	0,055	0,013
-191,446	221,774	0,095	0,111
-190,431	-10,778	-0,106	-0,051
-189,417	-39,138	-0,087	0,033
-188,402	8,393	-0,105	-0,057
-187,387	102,186	-0,063	-0,053
-186,373	354,258	-0,061	-0,089
-185,358	8,200	0,068	0,037
-184,344	-43,794	0,086	-0,031
-183,329	-88,882	0,096	0,021
-182,315	144,632	0,139	0,136
-181,300	-200,000	-0,004	0,166
-180,285	270,181	-0,071	0,091
-179,271	177,510	0,020	-0,022
-178,256	-200,000	0,012	-0,159
-177,242	-73,384	0,053	0,014
-176,227	-200,000	-0,005	0,071
-175,212	93,774	0,055	0,046
-174,198	-200,000	0,008	-0,064
-173,183	-41,472	-0,095	0,035
-172,169	641,703	0,063	-0,118
-171,154	-4,609	-0,076	-0,038
-170,139	-57,940	0,078	0,025
-169,125	-200,000	-0,005	0,038
-168,110	202,899	0,075	0,084
-167,096	-200,000	0,011	0,082
-166,081	54,553	0,085	-0,060
-165,066	-200,000	0,001	-0,033
-164,052	-195,282	-0,136	-0,001
-163,037	765,058	0,085	0,170
-162,023	712,395	0,022	-0,043
-161,008	-200,000	0,006	-0,086
-159,993	133,885	0,060	0,057
-158,979	-181,508	-0,067	0,001
-157,964	354,338	0,062	0,090
-156,950	433,694	-0,009	0,014
-155,935	631,356	0,074	0,137
-154,920	-113,274	0,075	0,011
-153,906	-0,477	0,065	-0,033
-152,891	-200,000	-0,013	0,119
-151,877	-78,840	-0,053	0,013
-150,862	-200,000	0,023	-0,185
-149,847	123,073	-0,083	0,075
-148,833	202,603	0,051	0,057
-147,818	800,000	-0,070	-0,149
-146,804	411,646	-0,030	0,046
-145,789	-106,584	0,091	-0,015
-144,775	-5,897	-0,057	0,028
-143,760	142,715	-0,048	0,046
-142,745	631,387	0,084	-0,155
-141,731	-114,443	0,113	0,016
-140,716	-54,311	0,177	0,058
-139,702	800,000	-0,028	0,085
-138,687	-200,000	-0,023	0,144
-137,672	-89,931	-0,152	-0,032
-136,658	800,000	-0,059	-0,149
-135,643	-200,000	-0,016	-0,078
-134,629	56,459	-0,048	-0,034
-133,614	-200,000	0,002	0,043
-132,599	168,661	-0,096	0,099
-131,585	23,752	-0,053	0,032
-130,570	457,660	-0,003	0,004
-129,556	548,239	0,057	-0,100
-128,541	-200,000	0,015	0,076
-127,526	-200,000	0,021	0,074
-126,512	-103,689	0,099	-0,017
-125,497	800,000	0,043	-0,122
-124,483	-101,459	-0,073	0,013
-123,468	-53,862	0,088	-0,029
-122,453	152,422	0,034	0,034
-121,439	86,210	-0,070	-0,056
-120,424	-200,000	0,015	-0,082
-119,410	220,071	0,130	0,152
