DTS Sentinel unit serial number:	SN410029Multiplexer serial number:	ORYXHardware model number:	OX2-SRSoftware version number:	ORYX F/W v4,00 Oryx Data Collector v3.7.2.0data status	okinstallation	B6 Nyhavnadifferential loss correction	single-endedforward channel	channel 2reverse channel	N/Adate	2023/12/10time	02:40:09forward acquisition time	300,00reverse acquisition time	0,00gamma	499,1914k internal	0,3125k external	0,3125temperature offset calibration	1,0000default loss term (dB/km)	0,3820temperature slope calibration	1,0000multiplexer offset coefficient	1,0000multiplexer slope coefficient	1,0000fibre end	0,00T internal ref (°C)	21,95T ext. ref 1 (°C)	5,81T ext. ref 2 (°C)	5,78length (m)	temperature (°C)	Stokes	anti-Stokes-744,400	74,601	0,112	-0,087
-743,385	367,945	-0,125	0,189
-742,371	-94,689	0,072	-0,014
-741,356	-30,913	-0,272	0,114
-740,342	-32,615	0,083	-0,034
-739,327	22,462	-0,207	0,126
-738,312	645,998	-0,023	0,044
-737,298	-130,813	-0,208	0,021
-736,283	-200,000	0,007	0,042
-735,269	78,271	-0,245	0,195
-734,254	14,120	0,160	-0,093
-733,239	-73,584	-0,431	-0,116
-732,225	-16,344	0,039	0,018
-731,210	-58,690	-0,048	0,015
-730,196	-124,150	0,030	-0,003
-729,181	-115,516	-0,052	-0,007
-728,167	-28,728	-0,087	0,037
-727,152	219,672	-0,049	0,059
-726,137	82,761	-0,193	-0,156
-725,123	5,056	-0,089	-0,049
-724,108	52,832	-0,078	-0,055
-723,094	800,000	-0,023	-0,062
-722,079	-200,000	-0,002	-0,120
-721,064	47,266	0,005	-0,003
-720,050	175,827	0,005	-0,005
-719,035	-200,000	-0,021	-0,077
-718,021	130,518	0,103	-0,098
-717,006	69,340	-0,178	-0,136
-715,991	800,000	0,073	-0,179
-714,977	-106,381	0,075	0,012
-713,962	744,351	-0,046	0,093
-712,948	489,293	-0,017	0,028
-711,933	291,481	-0,039	0,054
-710,918	162,494	0,025	0,026
-709,904	-33,651	-0,169	0,069
-708,889	800,000	-0,031	-0,101
-707,875	-200,000	-0,004	-0,158
-706,860	1,130	0,214	-0,114
-705,845	26,710	-0,086	0,053
-704,831	62,887	0,037	0,027
-703,816	-91,310	0,128	-0,027
-702,802	-61,888	-0,118	-0,037
-701,787	-200,000	-0,009	-0,058
-700,772	188,913	0,074	-0,083
-699,758	800,000	-0,061	-0,151
-698,743	91,668	0,154	0,128
-697,729	-200,000	0,011	0,105
-696,714	56,565	-0,108	-0,078
-695,699	-200,000	0,001	-0,154
-694,685	235,016	-0,049	-0,060
-693,670	93,723	-0,052	-0,044
-692,656	-162,267	0,018	-0,001
-691,641	-200,000	0,023	-0,138
-690,627	800,000	-0,052	0,134
-689,612	131,378	0,106	-0,101
-688,597	360,811	0,025	-0,038
-687,583	-137,501	-0,133	0,011
-686,568	-128,079	0,104	0,011
-685,554	228,170	-0,045	-0,054
-684,539	-13,543	0,145	-0,069
-683,524	800,000	0,011	-0,030
-682,510	800,000	-0,021	0,056
-681,495	-200,000	-0,024	0,103
-680,481	800,000	0,019	0,063
-679,466	136,154	-0,065	-0,063
-678,451	25,089	-0,032	0,020
-677,437	106,585	0,054	-0,048
-676,422	-82,360	0,173	0,041
-675,408	41,574	-0,009	0,006
-674,393	418,184	-0,034	0,054
-673,378	800,000	0,023	-0,060
-672,364	124,083	-0,061	0,057
-671,349	-200,000	-0,032	0,107
-670,335	399,317	0,015	-0,023
-669,320	-69,170	0,089	0,025
-668,305	-200,000	-0,010	0,056
-667,291	140,849	0,014	0,014
-666,276	-99,608	-0,021	-0,004
-665,262	373,497	0,052	0,079
-664,247	800,000	0,050	-0,128
-663,232	-72,040	-0,076	-0,021
-662,218	-200,000	-0,009	-0,094
-661,203	-200,000	-0,047	-0,181
-660,189	237,962	-0,008	-0,009
-659,174	405,282	-0,082	-0,128
-658,159	-200,000	-0,013	-0,121
-657,145	403,740	-0,065	-0,102
-656,130	-200,000	-0,008	-0,036
-655,116	-100,360	-0,111	0,020
-654,101	264,128	-0,056	0,073
-653,086	-200,000	-0,021	0,192
-652,072	795,206	-0,033	0,068
-651,057	36,837	-0,103	-0,067
-650,043	-200,000	0,013	0,063
-649,028	800,000	-0,016	-0,046
-648,014	1,204	0,060	-0,032
-646,999	-200,000	0,012	0,110
-645,984	250,173	-0,099	-0,125
-644,970	-200,000	-0,030	-0,098
-643,955	578,902	-0,048	-0,088
-642,941	800,000	-0,056	-0,150
-641,926	-7,938	0,078	0,039
-640,911	-200,000	-0,029	-0,109
-639,897	0,261	-0,134	-0,071
-638,882	-200,000	-0,009	-0,053
-637,868	-200,000	-0,108	0,000
-636,853	-200,000	0,013	-0,072
-635,838	79,649	-0,151	-0,121
-634,824	-200,000	-0,010	-0,130
-633,809	63,262	-0,053	0,039
-632,795	-200,000	0,028	0,149
-631,780	-200,000	-0,025	0,212
-630,765	-2,072	-0,179	-0,093
-629,751	-134,722	-0,140	-0,012
-628,736	-133,112	-0,149	-0,014
-627,722	-56,240	-0,060	-0,020
-626,707	53,222	0,114	0,081
-625,692	-145,294	0,048	-0,003
-624,678	-60,335	0,247	0,077
-623,663	16,529	-0,048	-0,028
-622,649	-200,000	-0,030	-0,137
-621,634	-200,000	-0,004	-0,069
-620,619	-200,000	-0,009	0,091
-619,605	165,622	0,038	0,040
-618,590	565,568	-0,032	0,057
-617,576	-200,000	-0,038	0,200
-616,561	79,133	-0,083	-0,066
-615,546	58,176	0,120	-0,087
-614,532	-200,000	0,039	-0,132
-613,517	12,502	-0,098	-0,056
-612,503	348,438	-0,066	0,096
-611,488	800,000	-0,037	0,093
-610,474	651,489	0,061	0,117
-609,459	-200,000	0,019	0,090
-608,444	187,393	-0,025	-0,027
-607,430	-85,689	-0,144	0,033
-606,415	800,000	0,030	-0,080
-605,401	-21,962	-0,009	-0,004
-604,386	-200,000	0,004	0,162
-603,371	-67,011	0,099	0,029
-602,357	64,281	0,099	0,074
-601,342	800,000	-0,036	-0,075
-600,328	-200,000	0,032	-0,187
-599,313	800,000	0,044	-0,129
-598,298	548,465	-0,038	-0,068
-597,284	800,000	-0,021	-0,058
-596,269	10,427	-0,019	-0,011
-595,255	-200,000	0,022	-0,084
-594,240	800,000	-0,047	-0,110
-593,225	19,740	0,025	0,015
-592,211	277,010	-0,026	0,035
-591,196	405,761	0,026	0,041
-590,182	800,000	-0,057	0,144
-589,167	332,402	-0,089	-0,128
-588,152	-28,385	-0,103	-0,044
-587,138	-200,000	0,006	-0,099
-586,123	61,187	-0,018	-0,013
-585,109	800,000	-0,052	-0,139
-584,094	180,981	0,092	0,100
-583,079	376,195	-0,023	-0,035
-582,065	-200,000	0,019	-0,080
-581,050	-47,253	-0,147	0,053
-580,036	232,115	0,063	-0,077
-579,021	-125,874	-0,051	0,006
-578,006	286,712	-0,155	-0,208
-576,992	81,119	-0,104	-0,083
-575,977	-200,000	0,014	0,078
-574,963	26,391	0,077	0,048
-573,948	-42,773	0,099	0,037
-572,934	800,000	0,097	-0,218
-571,919	-170,448	0,039	0,001
-570,904	-140,745	-0,102	-0,008
-569,890	508,073	-0,085	-0,147
-568,875	59,382	0,118	0,086
-567,861	-2,035	-0,032	0,016
-566,846	-178,300	-0,018	0,000
-565,831	-200,000	0,020	0,088
-564,817	800,000	-0,034	-0,099
-563,802	800,000	-0,017	0,044
-562,788	292,720	-0,078	0,106
-561,773	153,021	-0,038	-0,038
-560,758	326,220	0,093	0,132
-559,744	554,438	0,045	-0,080
-558,729	-13,677	0,031	-0,015
-557,715	791,871	-0,010	0,020
-556,700	-11,562	-0,115	-0,056
-555,685	101,488	-0,049	-0,042
-554,671	346,110	-0,035	-0,052
-553,656	-107,027	0,023	-0,004
-552,642	67,434	-0,081	0,061
-551,627	514,473	-0,065	0,112
-550,612	96,978	-0,039	0,033
-549,598	800,000	-0,037	-0,108
-548,583	-112,136	0,054	-0,008
-547,569	425,376	0,069	-0,110
-546,554	636,526	-0,040	0,075
-545,539	303,982	-0,027	-0,037
-544,525	117,134	0,065	-0,059
-543,510	-2,537	-0,068	-0,035
-542,496	-140,006	-0,094	0,007
-541,481	-46,355	-0,059	-0,021
-540,466	255,184	0,080	-0,102
-539,452	-69,657	0,077	0,022
-538,437	165,601	0,118	0,124
-537,423	-155,716	-0,181	-0,008
-536,408	-56,941	0,099	-0,032
-535,393	-97,207	-0,078	0,015
-534,379	393,883	0,070	-0,109
-533,364	-84,918	-0,035	0,008
-532,350	-31,466	0,071	0,029
-531,335	-85,829	0,159	0,036
-530,321	-200,000	0,015	0,078
-529,306	472,806	-0,033	0,055
-528,291	210,535	0,088	-0,102
-527,277	481,979	-0,022	0,037
-526,262	117,587	-0,045	0,041
-525,248	345,107	-0,034	0,049
-524,233	450,313	0,108	0,177
-523,218	800,000	0,018	0,047
-522,204	3,158	-0,048	-0,026
-521,189	-93,319	-0,069	0,014
-520,175	48,067	-0,044	0,030
-519,160	103,065	0,007	-0,006
-518,145	800,000	0,019	0,063
-517,131	782,729	0,048	0,097
-516,116	800,000	0,048	0,119
-515,102	-103,979	-0,067	0,011
-514,087	800,000	0,023	-0,061
-513,072	-25,869	-0,054	-0,023
-512,058	-74,052	-0,065	-0,017
-511,043	-200,000	0,011	0,144
-510,029	1,272	0,069	-0,037
-509,014	310,075	-0,008	-0,011
-507,999	-200,000	0,024	0,144
-506,985	-162,860	-0,061	-0,002
-505,970	255,647	-0,040	0,051
-504,956	136,587	0,023	-0,022
-503,941	-200,000	-0,000	-0,092
-502,926	-114,978	-0,078	-0,011
-501,912	29,644	-0,107	0,067
-500,897	-200,000	-0,011	-0,081
-499,883	55,932	-0,065	0,047
-498,868	-200,000	0,014	-0,129
-497,853	357,865	0,095	0,141
-496,839	66,312	-0,145	-0,108
-495,824	56,719	-0,088	0,063
-494,810	322,737	-0,069	0,098
-493,795	-39,219	-0,081	0,031
-492,781	284,664	0,006	0,008
-491,766	-135,824	-0,138	0,012
-490,751	588,475	0,062	-0,114
-489,737	593,387	0,055	-0,100
-488,722	-112,232	-0,116	-0,017
-487,708	-64,888	0,091	-0,027
-486,693	-60,837	0,039	-0,012
-485,678	-200,000	-0,019	-0,100
-484,664	578,658	-0,033	0,059
-483,649	800,000	-0,030	-0,090
-482,635	-154,392	0,040	0,002
-481,620	-200,000	0,011	0,143
-480,605	344,452	0,036	0,053
-479,591	118,568	-0,046	-0,042
-478,576	-143,389	0,098	0,007
-477,562	-146,819	-0,100	0,006
-476,547	-35,149	-0,032	0,013
-475,532	-127,192	0,121	0,013
-474,518	189,442	-0,049	0,055
-473,503	-12,914	-0,027	0,013
-472,489	-200,000	-0,012	-0,095
-471,474	-121,308	0,119	0,014
-470,459	88,467	0,125	-0,102
-469,445	800,000	0,026	-0,084
-468,430	117,723	0,033	-0,030
-467,416	-91,851	0,059	0,012
-466,401	60,558	-0,071	0,052
-465,386	-200,000	0,016	0,137
-464,372	477,669	0,048	0,081
-463,357	800,000	0,015	-0,049
-462,343	800,000	-0,030	-0,089
-461,328	-200,000	0,003	0,161
-460,313	-59,556	0,083	-0,026
-459,299	-200,000	-0,037	-0,177
-458,284	427,503	0,069	0,110
-457,270	-15,846	0,079	0,037
-456,255	-34,431	-0,017	0,007
-455,241	-39,600	-0,116	-0,044
-454,226	-119,505	-0,191	-0,024
-453,211	-5,788	0,096	-0,048
-452,197	131,743	0,079	0,075
-451,182	234,575	0,006	0,008
-450,168	148,812	0,045	-0,044
-449,153	198,437	-0,066	-0,075
-448,138	38,649	-0,071	-0,047
-447,124	495,055	0,036	0,062
-446,109	18,229	0,128	0,075
-445,095	-0,994	-0,065	0,034
-444,080	-160,499	0,044	-0,002
-443,065	-200,000	0,018	0,127
-442,051	-80,611	-0,120	-0,029
-441,036	800,000	0,013	-0,039
-440,022	-111,741	0,181	-0,027
-439,007	-38,655	-0,158	0,061
-437,992	289,900	0,076	0,101
-436,978	149,615	0,082	0,082
-435,963	345,597	0,096	0,139
-434,949	318,302	-0,073	0,101
-433,934	-200,000	-0,002	0,101
-432,919	-200,000	-0,013	-0,100
-431,905	-200,000	-0,001	-0,008
-430,890	800,000	0,038	0,096
-429,876	311,008	0,056	0,078
-428,861	78,747	0,143	0,112
-427,846	378,774	-0,085	-0,129
-426,832	800,000	-0,101	-0,231
-425,817	194,428	-0,039	-0,044
-424,803	-200,000	0,002	0,050
-423,788	9,087	0,050	-0,028
-422,773	-147,796	0,085	0,005
-421,759	13,567	0,021	-0,012
-420,744	-117,227	0,031	-0,004
-419,730	-200,000	0,012	0,074
-418,715	470,728	-0,075	-0,125
-417,701	562,588	-0,011	-0,020
-416,686	-14,048	0,092	-0,044
-415,671	688,680	0,040	0,077
-414,657	-68,214	0,080	0,023
-413,642	439,233	0,063	0,102
-412,628	181,682	-0,090	-0,097
-411,613	586,569	0,046	0,083
-410,598	800,000	-0,024	-0,057
-409,584	-200,000	-0,008	0,141
-408,569	35,768	-0,038	0,024
-407,555	125,670	0,044	0,041
-406,540	205,577	0,061	0,070
-405,525	-7,115	-0,165	-0,082
-404,511	-200,000	0,008	-0,043
-403,496	376,583	-0,020	-0,031
-402,482	-200,000	0,015	0,161
-401,467	-200,000	-0,009	0,118
-400,452	-200,000	-0,036	0,133
-399,438	-108,659	0,040	0,006
-398,423	-39,719	0,063	0,024
-397,409	166,925	-0,107	-0,112
-396,394	800,000	-0,035	-0,097
-395,379	-124,060	-0,153	0,018
-394,365	283,511	-0,077	-0,101
-393,350	-25,116	0,070	-0,030
-392,336	185,673	-0,039	-0,043
-391,321	800,000	0,009	0,021
-390,306	-200,000	-0,017	-0,078
-389,292	-200,000	0,011	-0,166
-388,277	-26,495	-0,027	-0,011
-387,263	557,370	0,021	0,038
-386,248	60,129	0,076	0,055
-385,233	-200,000	-0,003	0,014
-384,219	186,301	0,044	0,048
-383,204	-200,000	0,029	-0,105
-382,190	21,177	0,053	-0,031
-381,175	58,120	0,190	-0,137
-380,160	18,763	0,024	0,014
-379,146	-73,285	-0,090	-0,024
-378,131	-105,642	0,084	0,014
-377,117	800,000	0,035	-0,108
-376,102	136,204	0,083	0,080
-375,088	-145,988	-0,108	-0,007
-374,073	22,891	0,141	-0,084
-373,058	211,667	0,044	0,050
-372,044	282,995	0,028	-0,037
-371,029	-12,899	-0,063	-0,030
-370,015	194,012	0,079	-0,088
-369,000	172,450	-0,115	-0,122
-367,985	33,200	-0,079	-0,050
-366,971	-200,000	-0,002	0,055
-365,956	800,000	0,016	0,033
-364,942	154,570	0,079	-0,079
-363,927	-151,443	-0,057	-0,003
-362,912	39,446	-0,057	-0,038
-361,898	-171,047	0,088	0,002
-360,883	-200,000	-0,004	-0,135
-359,869	-15,679	-0,078	0,036
-358,854	-23,649	-0,146	0,064
-357,839	-121,178	0,050	0,006
-356,825	-200,000	-0,004	0,059
-355,810	344,481	-0,072	0,104
-354,796	-86,817	-0,095	0,021
-353,781	107,918	-0,048	0,042
-352,766	800,000	-0,085	0,208
-351,752	-200,000	0,012	0,071
-350,737	157,038	-0,011	0,011
-349,723	-122,376	0,112	-0,013
-348,708	800,000	0,012	-0,025
-347,693	-200,000	-0,001	0,063
-346,679	247,310	0,075	-0,094
-345,664	20,828	0,053	-0,031
-344,650	584,216	0,032	-0,057
-343,635	-200,000	-0,009	-0,037
-342,620	184,235	0,069	0,075
-341,606	800,000	0,028	-0,057
-340,591	-200,000	0,002	-0,064
-339,577	-151,570	-0,055	-0,003
-338,562	410,233	0,048	0,075
-337,548	163,829	-0,017	0,018
-336,533	257,754	0,095	-0,120
-335,518	800,000	0,034	0,070
-334,504	181,168	0,015	0,016
-333,489	-17,126	-0,044	-0,020
-332,475	800,000	-0,022	-0,046
-331,460	67,506	-0,038	0,028
-330,445	-17,029	0,056	0,026
-329,431	-128,614	-0,033	0,003
-328,416	-74,167	0,156	-0,041
-327,402	161,459	0,072	0,074
-326,387	308,059	-0,044	0,060
-325,372	227,351	-0,061	0,073
-324,358	101,997	-0,043	-0,037
-323,343	-1,615	-0,094	-0,048
-322,329	800,000	0,063	0,148
-321,314	800,000	0,054	0,173
-320,299	800,000	0,015	0,044
-319,285	-200,000	-0,000	-0,083
-318,270	461,367	0,033	-0,054
-317,256	-143,758	0,109	0,007
-316,241	-200,000	-0,006	-0,042
-315,226	28,175	-0,104	0,064
-314,212	-200,000	0,017	0,156
-313,197	7,774	0,136	0,074
-312,183	-200,000	0,020	0,097
-311,168	800,000	0,055	-0,113
-310,153	5,099	0,117	0,063
-309,139	-3,930	0,020	0,010
-308,124	800,000	-0,023	0,061
-307,110	-87,613	0,093	0,021
-306,095	210,457	0,033	0,038
-305,080	654,092	-0,036	-0,069
-304,066	239,886	-0,018	-0,022
-303,051	65,753	-0,105	-0,078
-302,037	800,000	-0,064	-0,157
-301,022	63,459	0,041	0,030
-300,008	-200,000	-0,007	0,135
-298,993	-136,683	0,057	-0,005
-297,978	800,000	0,027	0,075
-296,964	-121,424	-0,016	-0,002
-295,949	-103,338	0,012	-0,002
-294,935	522,017	-0,065	0,112
-293,920	-85,157	0,029	-0,007
-292,905	800,000	0,056	0,139
-291,891	54,742	0,110	0,078
-290,876	-129,651	0,074	-0,007
-289,862	800,000	0,043	0,120
-288,847	800,000	-0,026	-0,068
-287,832	-28,309	0,073	0,031
-286,818	233,552	0,046	0,056
-285,803	57,833	-0,087	-0,063
-284,789	-200,000	0,026	0,092
-283,774	-61,718	0,119	-0,036
-282,759	-111,836	-0,037	-0,005
-281,745	800,000	-0,052	-0,140
-280,730	800,000	-0,068	-0,158
-279,716	-24,903	-0,109	-0,047
-278,701	-119,146	0,056	0,007
-277,686	91,128	0,087	0,072
-276,672	-17,753	-0,121	-0,055
-275,657	-128,163	0,091	-0,009
-274,643	800,000	-0,040	-0,114
-273,628	-17,581	-0,117	-0,053
-272,613	340,184	0,024	0,034
-271,599	54,697	-0,073	-0,051
-270,584	12,110	0,181	0,102
-269,570	36,523	0,082	0,053
-268,555	86,202	-0,098	-0,079
-267,540	627,262	-0,052	0,096
-266,526	152,554	-0,083	-0,083
-265,511	-63,224	0,131	0,039
-264,497	24,108	0,021	0,013
-263,482	781,544	0,059	-0,119
-262,467	-111,276	0,092	-0,014
-261,453	152,460	0,033	0,033
-260,438	-16,229	0,072	-0,033
-259,424	-140,612	-0,081	0,006
-258,409	-200,000	0,002	0,096
-257,395	-200,000	-0,013	0,055
-256,380	247,695	0,058	0,072
-255,365	183,653	-0,013	0,014
-254,351	43,443	-0,048	-0,032
-253,336	800,000	0,027	0,072
-252,322	-200,000	-0,005	-0,050
-251,307	170,253	-0,061	-0,064
-250,292	169,170	0,012	-0,012
-249,278	-200,000	0,008	0,057
-248,263	426,093	-0,061	0,096
-247,249	147,767	-0,064	-0,063
-246,234	800,000	0,035	-0,082
-245,219	-0,773	-0,232	-0,120
-244,205	57,356	-0,197	-0,140
-243,190	-93,068	0,053	0,011
-242,176	218,046	0,064	-0,075
-241,161	-57,133	-0,088	-0,028
-240,146	-60,781	0,060	-0,018
-239,132	-200,000	-0,005	-0,053
-238,117	-168,382	0,071	-0,002
-237,103	-110,446	-0,100	0,015
-236,088	800,000	-0,064	-0,134
-235,073	-160,298	0,125	-0,005
-234,059	-200,000	0,000	-0,029
-233,044	-189,841	0,065	-0,001
-232,030	-160,592	0,084	0,003
-231,015	800,000	-0,037	-0,080
-230,000	-200,000	-0,021	0,081
-228,986	23,540	0,150	0,090
-227,971	-200,000	-0,017	-0,089
-226,957	-200,000	-0,005	-0,023
-225,942	-200,000	-0,021	0,101
-224,927	78,301	0,113	0,088
-223,913	-50,749	-0,100	-0,034
-222,898	-200,000	0,010	0,077
-221,884	-200,000	0,020	0,080
-220,869	389,487	-0,067	0,102
-219,855	-4,540	0,137	0,069
-218,840	464,139	-0,049	0,079
-217,825	21,695	0,054	0,032
-216,811	-168,239	-0,140	-0,004
-215,796	4,002	-0,036	0,019
-214,782	76,179	-0,038	0,029
-213,767	-200,000	-0,015	-0,057
-212,752	173,236	0,029	-0,031
-211,738	51,763	-0,040	0,028
-210,723	-200,000	0,010	0,112
-209,709	396,356	-0,109	-0,167
-208,694	297,181	0,023	-0,031
-207,679	-75,990	-0,053	0,013
-206,665	-200,000	0,010	-0,062
-205,650	-99,741	0,144	-0,026
-204,636	-74,033	0,125	0,033
-203,621	125,396	0,052	0,048
-202,606	-200,000	0,048	-0,162
-201,592	-33,714	-0,029	-0,012
-200,577	5,165	0,065	-0,035
-199,563	-128,886	-0,052	-0,005
-198,548	-23,959	0,177	0,077
-197,533	-61,309	0,136	0,042
-196,519	112,185	0,090	0,079
-195,504	-115,586	-0,087	0,012
-194,490	-200,000	-0,020	-0,162
-193,475	-200,000	-0,034	-0,128
-192,460	502,937	0,063	0,106
-191,446	-87,445	0,033	0,007
-190,431	-200,000	0,002	0,021
-189,417	-83,431	-0,143	0,033
-188,402	-8,880	0,097	-0,047
-187,387	-63,139	0,035	-0,011
-186,373	800,000	-0,063	-0,147
-185,358	-200,000	0,010	0,034
-184,344	-200,000	0,001	-0,057
-183,329	-32,798	0,111	-0,045
-182,315	552,261	-0,062	-0,109
-181,300	84,119	0,032	0,025
-180,285	-200,000	-0,037	0,147
-179,271	-200,000	0,004	-0,095
-178,256	800,000	-0,030	0,062
-177,242	-100,800	0,029	0,005
-176,227	-200,000	-0,008	0,077
-175,212	800,000	-0,041	0,124
-174,198	-200,000	-0,014	-0,078
-173,183	385,508	-0,022	0,032
-172,169	800,000	-0,052	0,121
-171,154	574,299	0,012	0,021
-170,139	-200,000	-0,006	0,099
-169,125	562,006	0,087	0,153
-168,110	58,643	-0,006	0,004
-167,096	278,614	-0,010	0,013
-166,081	294,415	-0,003	0,005
-165,066	95,478	-0,092	-0,076
-164,052	-72,720	-0,080	0,021
-163,037	-71,439	0,201	0,054
-162,023	418,676	0,039	0,060
-161,008	-62,309	0,172	0,052
-159,993	-200,000	-0,002	-0,070
-158,979	-190,263	-0,154	-0,001
-157,964	-200,000	0,007	-0,037
-156,950	-200,000	-0,044	-0,194
-155,935	101,378	0,034	-0,029
-154,920	800,000	0,039	0,099
-153,906	308,886	0,049	0,066
-152,891	-52,332	-0,132	-0,044
-151,877	800,000	-0,024	0,051
-150,862	-200,000	-0,024	-0,081
-149,847	53,657	0,185	0,129
-148,833	-200,000	0,012	-0,041
-147,818	800,000	0,074	0,162
-146,804	309,203	0,082	0,112
-145,789	800,000	0,033	-0,072
-144,775	66,714	0,031	-0,023
-143,760	800,000	-0,019	0,044
-142,745	-200,000	0,012	0,106
-141,731	515,416	-0,047	-0,081
-140,716	5,702	-0,153	0,082
-139,702	687,463	-0,068	0,129
-138,687	800,000	0,040	0,128
-137,672	-84,247	-0,157	0,036
-136,658	354,565	0,048	0,070
-135,643	-91,911	0,151	0,031
-134,629	-200,000	0,033	0,149
-133,614	800,000	-0,019	0,061
-132,599	-37,353	0,055	-0,021
-131,585	-200,000	0,005	0,100
-130,570	-73,411	0,037	-0,010
-129,556	-135,456	0,130	0,011
-128,541	-200,000	-0,003	0,027
-127,526	-95,197	-0,181	-0,035
-126,512	-200,000	-0,011	-0,090
-125,497	-83,520	0,094	-0,022
-124,483	52,547	-0,064	0,044
-123,468	-200,000	0,001	0,104
-122,453	777,147	-0,061	0,121
-121,439	386,391	-0,018	-0,028
-120,424	-108,646	-0,062	0,010
-119,410	-26,441	0,112	0,048
-118,395	-43,820	0,018	-0,006
