DTS Sentinel unit serial number:	SN410029Multiplexer serial number:	ORYXHardware model number:	OX2-SRSoftware version number:	ORYX F/W v4,00 Oryx Data Collector v3.7.2.0data status	okinstallation	B6 Nyhavnadifferential loss correction	single-endedforward channel	channel 2reverse channel	N/Adate	2023/12/09time	10:10:08forward acquisition time	300,00reverse acquisition time	0,00gamma	499,1914k internal	0,3139k external	0,3139temperature offset calibration	1,0000default loss term (dB/km)	0,3820temperature slope calibration	1,0000multiplexer offset coefficient	1,0000multiplexer slope coefficient	1,0000fibre end	0,00T internal ref (°C)	18,52T ext. ref 1 (°C)	2,16T ext. ref 2 (°C)	2,15length (m)	temperature (°C)	Stokes	anti-Stokes-744,400	18,831	0,044	0,026
-743,385	-92,626	-0,246	0,051
-742,371	22,544	0,137	0,083
-741,356	78,863	-0,170	0,135
-740,342	-91,754	0,199	0,042
-739,327	-135,471	-0,105	-0,009
-738,312	-85,936	-0,088	0,020
-737,298	-126,355	-0,285	-0,031
-736,283	1,630	0,040	-0,021
-735,269	33,708	-0,175	0,112
-734,254	700,311	0,032	0,064
-733,239	7,070	-0,433	-0,239
-732,225	-34,942	0,232	0,094
-731,210	16,660	-0,101	0,059
-730,196	-200,000	-0,026	-0,141
-729,181	53,891	-0,066	-0,047
-728,167	800,000	0,052	0,117
-727,152	155,856	-0,094	-0,096
-726,137	-106,465	-0,142	0,023
-725,123	-103,022	-0,142	0,025
-724,108	-200,000	-0,027	-0,135
-723,094	198,768	-0,080	-0,090
-722,079	800,000	-0,058	-0,145
-721,064	-109,654	-0,146	0,023
-720,050	-200,000	-0,010	-0,079
-719,035	-200,000	-0,007	-0,083
-718,021	485,290	-0,074	0,126
-717,006	800,000	-0,065	-0,188
-715,991	295,849	-0,061	-0,083
-714,977	-104,236	-0,142	0,024
-713,962	65,545	-0,214	-0,160
-712,948	-158,968	-0,031	-0,001
-711,933	566,881	-0,026	0,046
-710,918	800,000	-0,020	0,063
-709,904	112,610	-0,074	-0,067
-708,889	166,794	-0,010	0,010
-707,875	113,787	-0,082	-0,074
-706,860	-126,602	-0,123	-0,013
-705,845	-200,000	-0,007	0,035
-704,831	-39,625	0,092	0,035
-703,816	-2,984	0,130	-0,067
-702,802	214,436	-0,011	0,013
-701,787	-48,516	0,090	-0,032
-700,772	-6,752	-0,113	-0,057
-699,758	686,034	-0,017	-0,033
-698,743	-200,000	0,010	0,137
-697,729	22,189	0,063	-0,038
-696,714	-63,110	-0,139	0,042
-695,699	-200,000	0,005	0,038
-694,685	57,282	-0,089	-0,065
-693,670	102,145	0,108	-0,093
-692,656	9,405	0,118	0,066
-691,641	-200,000	0,022	-0,077
-690,627	676,993	0,048	0,092
-689,612	95,939	-0,132	-0,111
-688,597	306,939	-0,057	-0,079
-687,583	693,814	-0,089	-0,173
-686,568	-45,905	-0,157	-0,057
-685,554	-200,000	-0,006	-0,162
-684,539	658,284	-0,046	-0,087
-683,524	614,761	0,018	-0,033
-682,510	-200,000	0,018	0,091
-681,495	-9,075	-0,055	0,027
-680,481	707,427	0,027	-0,054
-679,466	-98,175	0,085	0,016
-678,451	665,971	-0,042	-0,081
-677,437	98,274	0,099	-0,084
-676,422	800,000	0,034	0,110
-675,408	-200,000	-0,008	0,073
-674,393	-200,000	0,002	-0,056
-673,378	-34,348	-0,188	-0,076
-672,364	33,662	0,137	-0,088
-671,349	-200,000	-0,008	-0,131
-670,335	-200,000	0,006	0,022
-669,320	-200,000	0,019	-0,097
-668,305	251,072	0,013	-0,016
-667,291	-80,818	0,060	-0,015
-666,276	280,481	-0,056	-0,074
-665,262	146,814	0,074	0,073
-664,247	-79,236	-0,209	-0,052
-663,232	-169,965	-0,119	0,003
-662,218	-200,000	-0,037	0,126
-661,203	-200,000	0,026	0,188
-660,189	-200,000	-0,005	-0,047
-659,174	465,803	0,010	-0,016
-658,159	-50,645	-0,131	-0,045
-657,145	28,232	-0,113	-0,070
-656,130	-92,847	0,124	-0,025
-655,116	-200,000	0,010	-0,165
-654,101	-200,000	-0,030	-0,105
-653,086	-44,531	-0,117	-0,043
-652,072	218,229	0,058	-0,069
-651,057	70,768	-0,100	-0,076
-650,043	254,578	0,044	-0,055
-649,028	-62,695	-0,082	0,025
-648,014	-200,000	0,010	-0,114
-646,999	-200,000	0,006	-0,152
-645,984	163,452	-0,053	0,056
-644,970	-34,128	0,053	0,021
-643,955	800,000	0,037	0,076
-642,941	728,807	-0,061	-0,120
-641,926	473,433	-0,009	0,015
-640,911	-105,442	-0,076	0,013
-639,897	800,000	0,039	-0,091
-638,882	567,195	0,022	0,039
-637,868	800,000	-0,039	0,102
-636,853	800,000	0,012	0,030
-635,838	89,383	-0,014	0,012
-634,824	-154,763	0,046	-0,002
-633,809	214,730	0,037	-0,044
-632,795	-51,224	0,042	0,014
-631,780	-106,309	0,079	0,013
-630,765	-200,000	-0,006	-0,119
-629,751	-200,000	-0,017	-0,067
-628,736	44,456	-0,117	-0,079
-627,722	-72,819	-0,081	0,022
-626,707	-68,330	-0,041	-0,012
-625,692	75,829	-0,051	0,040
-624,678	381,847	0,032	0,048
-623,663	-58,434	-0,102	-0,032
-622,649	-53,623	-0,064	-0,022
-621,634	732,142	-0,051	0,102
-620,619	227,850	-0,038	-0,045
-619,605	-200,000	-0,036	0,134
-618,590	533,799	-0,056	0,099
-617,576	296,921	0,029	-0,039
-616,561	-200,000	-0,008	0,043
-615,546	-200,000	-0,025	-0,140
-614,532	-73,197	0,120	0,032
-613,517	56,691	0,036	-0,026
-612,503	-200,000	-0,002	0,028
-611,488	-200,000	-0,017	0,148
-610,474	800,000	0,026	-0,063
-609,459	197,147	0,007	0,008
-608,444	-200,000	0,016	-0,064
-607,430	308,380	-0,072	-0,099
-606,415	-200,000	0,012	-0,094
-605,401	800,000	0,031	-0,092
-604,386	182,165	-0,035	0,038
-603,371	800,000	-0,040	0,122
-602,357	-200,000	-0,029	-0,096
-601,342	-200,000	-0,015	-0,109
-600,328	34,516	-0,118	-0,076
-599,313	-200,000	-0,005	0,067
-598,298	659,667	-0,022	0,042
-597,284	-25,650	0,105	-0,046
-596,269	263,326	-0,106	0,137
-595,255	-200,000	0,003	-0,066
-594,240	-52,515	0,183	-0,062
-593,225	-192,586	-0,069	0,000
-592,211	-116,738	-0,071	-0,009
-591,196	-107,101	-0,134	-0,022
-590,182	240,166	0,057	0,070
-589,167	-101,684	0,050	-0,009
-588,152	-200,000	-0,022	-0,111
-587,138	-188,621	-0,112	0,001
-586,123	56,878	-0,110	-0,079
-585,109	477,492	-0,042	0,070
-584,094	-200,000	0,018	0,131
-583,079	-39,736	-0,029	-0,011
-582,065	-200,000	0,025	0,094
-581,050	-123,980	0,061	-0,007
-580,036	273,987	-0,124	0,162
-579,021	177,393	0,018	0,020
-578,006	-200,000	0,113	0,000
-576,992	-200,000	-0,008	-0,069
-575,977	6,192	0,026	0,014
-574,963	125,101	0,164	0,153
-573,948	-44,181	0,091	0,034
-572,934	138,039	-0,071	0,069
-571,919	-36,970	-0,089	0,035
-570,904	49,786	-0,185	0,128
-569,890	28,560	0,090	0,056
-568,875	273,431	0,038	0,050
-567,861	204,146	0,144	0,164
-566,846	-200,000	0,004	-0,030
-565,831	-200,000	0,007	0,132
-564,817	65,334	0,080	-0,060
-563,802	-200,000	0,020	-0,102
-562,788	-143,916	-0,128	-0,009
-561,773	-35,460	-0,058	-0,023
-560,758	-200,000	0,001	0,098
-559,744	-154,683	0,057	-0,003
-558,729	800,000	-0,028	0,066
-557,715	-200,000	-0,002	0,042
-556,700	-55,456	-0,029	-0,009
-555,685	30,528	-0,148	-0,093
-554,671	280,638	0,018	-0,023
-553,656	-200,000	0,028	0,131
-552,642	-200,000	0,010	-0,121
-551,627	-160,991	-0,124	-0,005
-550,612	59,999	-0,051	0,037
-549,598	42,492	-0,039	-0,026
-548,583	303,435	-0,057	-0,077
-547,569	667,955	0,040	-0,077
-546,554	443,030	-0,055	-0,089
-545,539	-200,000	0,003	0,014
-544,525	-200,000	-0,017	0,143
-543,510	-100,076	-0,104	0,019
-542,496	800,000	-0,046	-0,118
-541,481	-200,000	0,009	-0,103
-540,466	-30,278	-0,027	-0,011
-539,452	-94,899	-0,062	-0,012
-538,437	-200,000	0,006	-0,136
-537,423	-100,214	0,058	0,011
-536,408	-97,238	-0,067	-0,013
-535,393	81,623	-0,073	0,058
-534,379	-73,212	-0,175	0,047
-533,364	297,232	-0,068	-0,092
-532,350	215,754	0,114	0,133
-531,335	-200,000	0,005	0,135
-530,321	-200,000	-0,009	0,100
-529,306	-9,932	0,061	-0,030
-528,291	-24,430	-0,087	0,038
-527,277	-72,538	0,033	-0,009
-526,262	-70,413	-0,117	-0,032
-525,248	-105,962	-0,079	-0,013
-524,233	-200,000	0,011	0,041
-523,218	27,553	-0,066	-0,041
-522,204	145,287	0,045	0,044
-521,189	18,906	0,037	0,022
-520,175	-155,489	-0,148	-0,007
-519,160	-169,757	-0,098	0,003
-518,145	443,735	-0,041	0,067
-517,131	800,000	-0,045	0,137
-516,116	63,933	-0,076	-0,056
-515,102	-200,000	-0,013	-0,060
-514,087	706,689	-0,054	0,104
-513,072	800,000	0,014	0,040
-512,058	43,074	0,031	-0,021
-511,043	-200,000	-0,019	0,128
-510,029	-200,000	0,009	0,108
-509,014	-200,000	-0,018	0,108
-507,999	282,648	0,039	-0,052
-506,985	451,324	-0,053	0,086
-505,970	-128,461	-0,045	-0,005
-504,956	-200,000	-0,059	-0,206
-503,941	571,555	0,094	-0,169
-502,926	-152,875	-0,069	0,004
-501,912	150,281	0,118	0,117
-500,897	18,087	-0,058	0,034
-499,883	-200,000	0,002	-0,065
-498,868	-77,091	0,037	-0,009
-497,853	800,000	-0,041	-0,102
-496,839	174,648	0,055	0,058
-495,824	172,266	-0,048	-0,050
-494,810	-42,103	0,097	-0,036
-493,795	128,485	-0,068	-0,064
-492,781	800,000	-0,053	-0,128
-491,766	207,263	0,094	-0,108
-490,751	-200,000	-0,052	-0,256
-489,737	691,292	0,050	-0,096
-488,722	171,219	-0,005	-0,006
-487,708	-58,205	0,077	-0,024
-486,693	-102,396	-0,114	-0,020
-485,678	214,714	0,068	0,080
-484,664	-142,574	0,100	0,007
-483,649	-200,000	-0,002	-0,091
-482,635	-200,000	-0,031	-0,165
-481,620	-150,815	0,094	-0,005
-480,605	-111,283	0,099	0,015
-479,591	800,000	-0,029	0,076
-478,576	-57,166	-0,106	-0,034
-477,562	1,844	0,084	-0,044
-476,547	-200,000	-0,001	-0,047
-475,532	115,469	0,027	0,024
-474,518	58,668	-0,059	0,043
-473,503	81,278	-0,037	0,029
-472,489	421,820	-0,034	0,054
-471,474	118,774	0,068	-0,062
-470,459	-35,957	-0,094	-0,037
-469,445	57,731	-0,084	-0,061
-468,430	-24,498	0,098	0,043
-467,416	-103,836	-0,033	0,006
-466,401	-200,000	0,021	0,137
-465,386	292,007	0,052	0,070
-464,372	-200,000	0,014	0,054
-463,357	24,904	0,087	-0,053
-462,343	-49,862	-0,068	-0,024
-461,328	-31,638	0,056	-0,023
-460,313	-200,000	0,023	0,156
-459,299	-51,082	0,095	0,033
-458,284	800,000	0,035	-0,112
-457,270	-200,000	0,017	0,096
-456,255	-200,000	-0,001	0,007
-455,241	32,833	-0,044	-0,028
-454,226	-200,000	0,010	-0,037
-453,211	87,319	0,065	-0,053
-452,197	-57,214	-0,038	0,012
-451,182	51,613	0,118	-0,082
-450,168	-200,000	0,009	0,219
-449,153	-134,698	-0,124	0,011
-448,138	537,887	-0,059	-0,103
-447,124	212,255	-0,113	-0,131
-446,109	318,128	0,051	0,070
-445,095	197,007	0,039	0,043
-444,080	-200,000	-0,011	-0,058
-443,065	-69,497	-0,118	0,033
-442,051	-88,799	0,058	0,012
-441,036	344,950	-0,039	-0,056
-440,022	-49,152	-0,044	0,015
-439,007	2,317	-0,131	-0,069
-437,992	442,656	0,009	0,015
-436,978	31,764	-0,043	0,027
-435,963	-41,374	0,039	0,015
-434,949	-200,000	-0,009	-0,072
-433,934	800,000	-0,023	-0,058
-432,919	-200,000	-0,025	-0,145
-431,905	129,423	-0,077	0,072
-430,890	0,677	0,072	0,037
-429,876	800,000	0,042	-0,116
-428,861	349,107	0,127	0,184
-427,846	-140,271	0,151	-0,011
-426,832	260,972	0,030	-0,038
-425,817	-177,058	-0,136	0,002
-424,803	800,000	0,020	0,062
-423,788	-200,000	-0,005	0,044
-422,773	356,491	0,077	0,113
-421,759	653,377	0,035	-0,066
-420,744	-200,000	-0,010	0,047
-419,730	299,355	0,084	0,113
-418,715	6,911	-0,090	0,049
-417,701	-200,000	0,009	-0,073
-416,686	88,745	0,042	0,034
-415,671	652,533	0,039	-0,073
-414,657	215,828	-0,105	0,123
-413,642	-1,621	0,060	0,031
-412,628	96,759	-0,047	-0,039
-411,613	52,190	-0,103	-0,072
-410,598	800,000	-0,034	-0,094
-409,584	348,132	0,020	0,029
-408,569	-36,959	-0,038	0,015
-407,555	-200,000	0,001	-0,076
-406,540	284,103	-0,041	-0,054
-405,525	-101,570	-0,017	0,003
-404,511	-191,357	-0,182	0,001
-403,496	-49,978	-0,033	0,011
-402,482	244,294	-0,071	0,087
-401,467	-53,943	-0,099	0,033
-400,452	80,126	0,054	0,043
-399,438	32,996	0,051	-0,032
-398,423	-40,573	-0,128	-0,048
-397,409	97,438	-0,086	-0,072
-396,394	261,768	0,120	-0,153
-395,379	-200,000	-0,014	-0,108
-394,365	718,469	0,016	-0,032
-393,350	-200,000	0,001	0,012
-392,336	85,087	0,048	-0,039
-391,321	-89,848	-0,134	-0,028
-390,306	800,000	-0,023	-0,071
-389,292	800,000	-0,029	-0,078
-388,277	-200,000	0,008	-0,080
-387,263	604,505	0,047	0,085
-386,248	800,000	-0,064	0,158
-385,233	214,253	0,037	-0,043
-384,219	29,218	0,070	-0,043
-383,204	-200,000	-0,027	0,104
-382,190	-73,584	0,058	-0,015
-381,175	-169,710	0,035	-0,001
-380,160	-200,000	0,006	-0,081
-379,146	683,624	-0,089	0,170
-378,131	-82,745	0,100	0,023
-377,117	-91,247	0,024	-0,005
-376,102	75,386	-0,045	-0,035
-375,088	-200,000	-0,008	-0,041
-374,073	-200,000	0,009	0,035
-373,058	-200,000	0,014	0,090
-372,044	173,827	-0,073	-0,077
-371,029	-49,206	0,201	0,070
-370,015	-127,998	0,132	0,014
-369,000	774,384	-0,026	-0,051
-367,985	69,165	-0,087	0,065
-366,971	-144,414	-0,041	0,003
-365,956	800,000	0,064	0,149
-364,942	285,452	0,070	0,092
-363,927	800,000	0,051	0,122
-362,912	45,042	0,095	0,064
-361,898	800,000	-0,100	-0,220
-360,883	-200,000	0,033	-0,109
-359,869	-152,086	-0,135	0,007
-358,854	277,712	0,020	-0,026
-357,839	-93,687	0,172	-0,034
-356,825	800,000	-0,043	0,103
-355,810	-14,256	-0,038	0,018
-354,796	45,828	0,117	0,079
-353,781	800,000	0,003	0,007
-352,766	64,359	0,039	-0,028
-351,752	-83,185	-0,031	0,007
-350,737	-92,439	0,055	0,011
-349,723	-200,000	-0,001	0,059
-348,708	800,000	0,023	0,050
-347,693	130,572	-0,143	0,134
-346,679	-200,000	-0,027	-0,096
-345,664	43,030	-0,094	-0,062
-344,650	-29,586	0,115	-0,048
-343,635	800,000	0,034	-0,081
-342,620	-24,125	-0,121	0,053
-341,606	-49,599	0,173	0,060
-340,591	-200,000	-0,008	0,039
-339,577	800,000	0,003	-0,007
-338,562	58,349	-0,033	0,023
-337,548	358,316	0,017	0,025
-336,533	239,636	0,046	-0,056
-335,518	602,384	0,018	-0,032
-334,504	-200,000	0,009	0,081
-333,489	64,884	0,114	-0,084
-332,475	-164,875	0,029	0,001
-331,460	-200,000	0,030	-0,116
-330,445	377,135	0,019	-0,029
-329,431	-76,435	0,038	-0,010
-328,416	-200,000	0,008	0,088
-327,402	-86,008	-0,048	0,011
-326,387	80,307	0,076	-0,059
-325,372	173,252	-0,141	-0,149
-324,358	363,398	-0,059	0,087
-323,343	87,524	-0,084	-0,068
-322,329	263,969	0,055	-0,069
-321,314	-87,158	0,145	0,032
-320,299	-200,000	-0,020	0,093
-319,285	539,143	-0,015	-0,026
-318,270	114,668	-0,068	-0,061
-317,256	-200,000	0,000	-0,108
-316,241	148,353	0,042	0,041
-315,226	-200,000	0,005	0,045
-314,212	-1,399	0,053	0,027
-313,197	604,642	0,099	0,180
-312,183	-200,000	0,008	-0,086
-311,168	800,000	-0,038	-0,089
-310,153	720,610	0,010	-0,020
-309,139	429,532	0,060	-0,095
-308,124	107,950	0,077	0,067
-307,110	573,781	-0,041	0,074
-306,095	207,566	0,154	0,176
-305,080	250,542	0,074	0,092
-304,066	-200,000	-0,014	-0,088
-303,051	800,000	-0,060	-0,134
-302,037	-18,455	-0,168	-0,076
-301,022	-51,436	0,046	-0,016
-300,008	157,013	0,004	-0,004
-298,993	37,152	0,015	-0,010
-297,978	-200,000	-0,028	0,128
-296,964	232,974	0,110	0,132
-295,949	513,791	0,063	-0,107
-294,935	51,600	-0,095	0,066
-293,920	-200,000	0,016	0,088
-292,905	800,000	-0,008	0,021
-291,891	170,949	-0,047	0,049
-290,876	566,600	-0,032	0,057
-289,862	-200,000	0,021	-0,127
-288,847	225,600	0,033	-0,039
-287,832	-129,835	-0,069	0,007
-286,818	-3,560	0,032	0,016
-285,803	9,504	0,158	-0,087
-284,789	-113,570	0,164	0,023
-283,774	312,895	-0,038	0,052
-282,759	703,378	0,022	-0,042
-281,745	89,954	-0,038	0,031
-280,730	-200,000	0,016	-0,116
-279,716	-52,103	0,119	0,040
-278,701	-134,727	0,036	0,003
-277,686	-109,735	0,153	0,023
-276,672	-164,602	-0,101	0,003
-275,657	-165,475	-0,033	0,001
-274,643	34,988	-0,091	-0,058
-273,628	-200,000	-0,007	-0,177
-272,613	217,049	0,049	-0,057
-271,599	-2,877	0,168	0,085
-270,584	110,937	-0,012	0,010
-269,570	800,000	-0,043	-0,129
-268,555	-68,593	0,067	-0,019
-267,540	-78,197	0,085	-0,021
-266,526	479,477	0,041	-0,067
-265,511	-200,000	-0,032	0,124
-264,497	800,000	0,038	-0,079
-263,482	269,738	-0,009	-0,012
-262,467	264,685	0,036	0,046
-261,453	627,538	0,036	-0,066
-260,438	1,963	0,076	-0,040
-259,424	210,062	-0,078	-0,089
-258,409	113,093	-0,025	-0,022
-257,395	-200,000	0,002	-0,042
-256,380	-200,000	0,003	0,047
-255,365	345,084	-0,165	-0,237
-254,351	15,823	0,058	0,033
-253,336	800,000	-0,037	0,115
-252,322	-44,125	-0,115	-0,042
-251,307	-200,000	0,006	-0,082
-250,292	-26,574	0,117	0,050
-249,278	-200,000	0,007	-0,024
-248,263	800,000	-0,035	0,098
-247,249	315,534	0,041	-0,056
-246,234	-59,630	-0,040	-0,013
-245,219	17,149	-0,057	0,033
-244,205	104,796	0,105	0,090
-243,190	-143,475	-0,156	0,011
-242,176	259,579	0,088	0,110
-241,161	157,573	0,075	0,075
-240,146	478,909	-0,030	-0,050
-239,132	-200,000	0,005	-0,113
-238,117	-122,364	-0,061	-0,007
-237,103	58,688	0,100	0,072
-236,088	140,653	0,067	0,064
-235,073	800,000	-0,072	-0,185
-234,059	-200,000	0,003	-0,027
-233,044	-138,173	0,137	-0,011
-232,030	-174,867	-0,112	-0,002
-231,015	163,906	0,050	0,051
-230,000	-200,000	0,008	0,091
-228,986	781,770	-0,021	-0,041
-227,971	800,000	-0,067	0,146
-226,957	132,711	-0,035	-0,033
-225,942	-102,721	0,103	0,018
-224,927	-21,302	0,023	-0,010
-223,913	-28,903	-0,036	-0,015
-222,898	357,995	0,055	-0,080
-221,884	-109,915	0,086	0,013
-220,869	159,351	0,049	0,050
-219,855	348,857	0,040	0,058
-218,840	-200,000	-0,009	-0,077
-217,825	-40,464	0,055	-0,021
-216,811	167,570	-0,028	0,029
-215,796	-123,190	-0,105	-0,012
-214,782	-200,000	0,020	-0,155
-213,767	238,071	0,056	-0,067
-212,752	800,000	0,037	0,075
-211,738	131,537	0,084	0,079
-210,723	628,372	0,103	0,191
-209,709	800,000	-0,021	0,054
-208,694	-131,548	0,113	0,011
-207,679	71,781	-0,077	0,058
-206,665	394,619	0,077	0,117
-205,650	656,802	0,074	0,139
-204,636	-200,000	-0,002	0,098
-203,621	-200,000	0,037	0,141
-202,606	-4,638	-0,099	0,049
-201,592	-3,351	-0,093	0,047
-200,577	-15,997	-0,145	0,067
-199,563	26,099	-0,110	-0,066
-198,548	8,407	0,054	0,030
-197,533	-52,133	0,091	0,030
-196,519	74,356	0,074	0,057
-195,504	155,232	0,067	0,067
-194,490	800,000	-0,053	-0,111
-193,475	-43,758	0,099	-0,036
-192,460	-200,000	0,038	0,130
-191,446	-16,257	-0,136	0,062
-190,431	-200,000	0,007	0,064
-189,417	-200,000	0,001	0,030
-188,402	-54,335	-0,080	-0,026
-187,387	-160,024	0,066	-0,003
-186,373	-200,000	-0,012	-0,182
-185,358	244,555	0,054	0,066
-184,344	421,528	0,054	-0,084
-183,329	371,657	0,059	-0,087
-182,315	-78,683	0,108	-0,027
-181,300	82,812	-0,056	0,044
-180,285	207,458	-0,034	0,038
-179,271	-200,000	-0,000	-0,061
-178,256	800,000	-0,013	-0,040
-177,242	-28,186	0,110	-0,046
-176,227	135,487	-0,074	0,070
-175,212	-103,159	0,127	0,022
-174,198	-23,494	0,109	0,047
-173,183	-91,735	-0,106	-0,022
-172,169	-200,000	-0,026	-0,089
-171,154	-146,910	-0,017	-0,001
-170,139	-200,000	-0,010	-0,041
-169,125	800,000	-0,021	-0,057
-168,110	97,708	-0,051	0,042
-167,096	-200,000	-0,026	-0,161
-166,081	800,000	-0,030	-0,076
-165,066	40,267	0,165	-0,108
-164,052	-48,033	0,123	-0,043
-163,037	-44,200	0,132	-0,048
-162,023	-200,000	-0,014	0,152
-161,008	-170,793	-0,063	0,002
-159,993	496,146	0,038	0,063
-158,979	-147,032	0,063	-0,004
-157,964	-50,882	-0,185	-0,063
-156,950	93,066	0,093	0,076
-155,935	-57,688	0,036	-0,011
-154,920	-122,888	-0,134	-0,016
-153,906	512,703	0,018	-0,031
-152,891	182,755	-0,050	0,054
-151,877	86,878	-0,064	-0,051
-150,862	-70,358	-0,058	-0,016
-149,847	-200,000	-0,029	-0,095
-148,833	792,911	-0,008	0,015
-147,818	41,462	0,036	-0,023
-146,804	-200,000	-0,006	-0,048
-145,789	288,474	0,082	0,108
-144,775	-14,423	0,015	0,007
-143,760	117,097	0,017	-0,015
-142,745	55,399	0,134	-0,094
-141,731	800,000	-0,014	0,043
-140,716	203,060	0,124	0,140
-139,702	-200,000	-0,016	0,182
-138,687	-167,887	-0,057	-0,002
-137,672	547,675	0,046	-0,080
-136,658	-103,086	0,063	-0,011
-135,643	99,881	0,052	-0,044
-134,629	319,452	0,041	-0,057
-133,614	4,190	0,198	-0,105
-132,599	-133,593	-0,031	-0,003
-131,585	-200,000	-0,006	-0,078
-130,570	126,867	-0,065	-0,060
-129,556	483,560	0,091	-0,150
-128,541	78,250	-0,069	-0,053
-127,526	69,383	0,022	-0,017
-126,512	271,448	0,039	0,050
-125,497	126,178	-0,155	0,142
-124,483	732,451	0,033	0,065
-123,468	32,317	0,040	-0,025
-122,453	-200,000	-0,006	-0,112
-121,439	324,852	-0,025	-0,035
-120,424	20,588	-0,098	-0,057
-119,410	-70,840	-0,050	0,014
