DTS Sentinel unit serial number:	SN410029Multiplexer serial number:	ORYXHardware model number:	OX2-SRSoftware version number:	ORYX F/W v4,00 Oryx Data Collector v3.7.2.0data status	okinstallation	B6 Nyhavnadifferential loss correction	single-endedforward channel	channel 2reverse channel	N/Adate	2023/12/08time	10:20:08forward acquisition time	300,00reverse acquisition time	0,00gamma	499,1914k internal	0,3164k external	0,3164temperature offset calibration	1,0000default loss term (dB/km)	0,3820temperature slope calibration	1,0000multiplexer offset coefficient	1,0000multiplexer slope coefficient	1,0000fibre end	0,00T internal ref (°C)	14,27T ext. ref 1 (°C)	-1,33T ext. ref 2 (°C)	-1,30length (m)	temperature (°C)	Stokes	anti-Stokes-744,400	-57,493	0,120	-0,039
-743,385	-110,911	-0,392	-0,059
-742,371	-84,936	0,202	0,046
-741,356	-93,066	-0,455	-0,092
-740,342	13,389	0,182	0,103
-739,327	-161,358	-0,297	0,011
-738,312	482,573	-0,016	-0,028
-737,298	-56,832	-0,322	0,104
-736,283	-6,825	0,101	0,051
-735,269	-87,812	-0,233	0,051
-734,254	152,123	0,129	0,129
-733,239	44,222	-0,486	-0,327
-732,225	53,457	0,110	0,077
-731,210	-95,993	-0,041	0,008
-730,196	-6,985	-0,044	0,022
-729,181	-61,601	-0,046	-0,014
-728,167	439,030	0,087	-0,141
-727,152	800,000	-0,030	0,081
-726,137	-200,000	-0,008	0,048
-725,123	-200,000	-0,010	-0,187
-724,108	221,065	-0,113	-0,133
-723,094	-200,000	-0,032	-0,121
-722,079	-77,140	-0,090	0,023
-721,064	-16,561	-0,076	0,035
-720,050	-46,677	0,061	-0,022
-719,035	800,000	-0,033	0,067
-718,021	-125,250	-0,086	0,010
-717,006	800,000	-0,063	0,160
-715,991	-105,223	-0,138	0,023
-714,977	216,704	0,082	0,096
-713,962	25,863	-0,076	0,046
-712,948	-113,138	0,088	0,013
-711,933	16,126	-0,104	-0,060
-710,918	86,960	-0,107	-0,087
-709,904	-74,829	-0,118	-0,031
-708,889	-200,000	-0,025	-0,092
-707,875	87,249	0,032	0,026
-706,860	-19,159	-0,021	-0,009
-705,845	800,000	-0,019	-0,056
-704,831	60,216	-0,067	-0,049
-703,816	800,000	0,052	-0,112
-702,802	-71,805	-0,070	-0,019
-701,787	-194,055	0,111	0,001
-700,772	-200,000	-0,033	-0,148
-699,758	4,490	0,127	-0,068
-698,743	-200,000	-0,009	0,070
-697,729	172,463	0,035	-0,037
-696,714	159,702	-0,132	0,135
-695,699	376,742	-0,063	-0,095
-694,685	226,443	-0,095	-0,113
-693,670	293,522	-0,039	0,053
-692,656	28,918	0,059	0,037
-691,641	-65,244	-0,125	-0,037
-690,627	-48,456	-0,069	-0,024
-689,612	639,338	-0,045	-0,085
-688,597	-101,793	0,161	0,028
-687,583	197,385	-0,023	-0,026
-686,568	800,000	-0,011	-0,023
-685,554	-200,000	-0,000	-0,065
-684,539	-200,000	0,017	0,110
-683,524	-21,445	-0,100	0,045
-682,510	265,252	-0,081	0,104
-681,495	332,571	0,054	0,076
-680,481	-200,000	0,001	-0,122
-679,466	-200,000	-0,036	-0,148
-678,451	189,613	0,086	0,095
-677,437	180,346	-0,039	0,042
-676,422	-149,491	0,074	-0,004
-675,408	-75,731	0,099	0,026
-674,393	130,455	-0,039	0,036
-673,378	116,047	-0,057	-0,052
-672,364	13,918	-0,019	0,011
-671,349	441,429	0,025	0,040
-670,335	-47,173	-0,088	-0,031
-669,320	800,000	0,032	0,084
-668,305	-200,000	-0,011	0,183
-667,291	-200,000	-0,001	-0,058
-666,276	-200,000	0,041	-0,155
-665,262	-80,952	-0,102	-0,025
-664,247	506,898	0,067	-0,114
-663,232	145,770	0,020	0,020
-662,218	171,995	0,105	0,111
-661,203	800,000	0,030	0,063
-660,189	-27,825	-0,008	0,003
-659,174	-200,000	0,012	-0,043
-658,159	-112,981	0,026	-0,004
-657,145	265,855	0,024	-0,030
-656,130	-46,393	-0,090	-0,032
-655,116	27,247	0,048	0,029
-654,101	24,219	0,073	-0,044
-653,086	-200,000	-0,037	-0,165
-652,072	-200,000	-0,001	-0,054
-651,057	359,770	0,028	0,041
-650,043	446,039	-0,049	0,079
-649,028	38,075	0,120	-0,078
-648,014	161,099	0,071	0,072
-646,999	-148,273	-0,093	0,006
-645,984	-34,385	0,125	0,050
-644,970	-89,593	-0,103	0,022
-643,955	91,531	0,081	-0,066
-642,941	-200,000	0,012	-0,144
-641,926	-200,000	0,004	-0,039
-640,911	-200,000	-0,012	0,059
-639,897	800,000	0,044	0,093
-638,882	-200,000	-0,002	0,137
-637,868	-200,000	0,026	-0,158
-636,853	800,000	0,034	-0,079
-635,838	800,000	0,023	-0,052
-634,824	-78,430	0,095	0,024
-633,809	21,139	0,028	-0,017
-632,795	218,889	-0,021	-0,024
-631,780	666,657	0,022	0,041
-630,765	195,018	-0,052	-0,058
-629,751	-24,235	0,047	-0,021
-628,736	800,000	-0,055	0,123
-627,722	-110,664	0,070	0,011
-626,707	-200,000	0,036	0,177
-625,692	-27,599	0,096	0,041
-624,678	-31,990	0,086	0,035
-623,663	717,713	-0,038	0,074
-622,649	-38,542	-0,138	-0,053
-621,634	70,090	-0,081	-0,061
-620,619	-200,000	0,007	0,084
-619,605	121,859	0,067	0,061
-618,590	25,161	0,104	-0,063
-617,576	239,886	-0,069	-0,085
-616,561	-200,000	-0,039	-0,147
-615,546	-200,000	-0,025	-0,084
-614,532	401,765	0,033	0,050
-613,517	463,575	-0,009	0,015
-612,503	44,129	0,051	0,034
-611,488	-200,000	-0,013	-0,128
-610,474	90,674	0,055	0,045
-609,459	53,858	0,006	-0,004
-608,444	-37,591	0,105	-0,041
-607,430	767,249	0,052	-0,103
-606,415	-200,000	0,013	-0,097
-605,401	-200,000	0,010	-0,046
-604,386	-200,000	0,039	0,133
-603,371	461,747	0,022	-0,037
-602,357	-35,261	-0,027	0,011
-601,342	-40,848	0,093	0,035
-600,328	-200,000	-0,017	-0,078
-599,313	679,459	-0,081	0,155
-598,298	-14,467	0,149	-0,070
-597,284	-50,755	0,039	-0,013
-596,269	782,842	-0,041	0,083
-595,255	-200,000	-0,010	0,092
-594,240	290,117	0,021	0,028
-593,225	328,563	-0,068	0,096
-592,211	34,125	0,083	0,053
-591,196	-40,775	-0,150	-0,056
-590,182	-2,654	-0,021	-0,011
-589,167	190,241	0,053	0,058
-588,152	-117,128	0,178	0,023
-587,138	242,333	-0,138	0,170
-586,123	-73,876	-0,075	-0,020
-585,109	800,000	0,030	0,080
-584,094	-16,099	0,121	0,056
-583,079	38,598	0,106	0,069
-582,065	800,000	0,015	0,035
-581,050	86,334	0,075	-0,060
-580,036	86,066	-0,084	-0,068
-579,021	800,000	0,015	-0,043
-578,006	71,051	-0,039	-0,029
-576,992	800,000	0,041	-0,120
-575,977	-53,296	-0,060	-0,020
-574,963	800,000	-0,016	-0,037
-573,948	7,521	0,023	-0,012
-572,934	432,854	0,041	0,066
-571,919	400,300	-0,056	0,086
-570,904	800,000	-0,004	0,009
-569,890	-200,000	0,016	-0,127
-568,875	162,933	0,084	-0,087
-567,861	800,000	-0,046	0,107
-566,846	-200,000	0,018	0,145
-565,831	-37,028	-0,039	0,015
-564,817	-200,000	0,024	-0,178
-563,802	26,491	-0,055	-0,034
-562,788	-107,552	-0,112	-0,018
-561,773	-155,974	-0,007	0,000
-560,758	0,218	-0,032	-0,017
-559,744	401,530	-0,018	-0,028
-558,729	-145,648	-0,139	0,009
-557,715	170,324	-0,116	-0,122
-556,700	-29,423	-0,166	-0,069
-555,685	-200,000	-0,022	-0,162
-554,671	-67,176	-0,037	0,011
-553,656	-82,790	0,096	-0,023
-552,642	24,979	-0,019	0,011
-551,627	44,969	-0,116	0,078
-550,612	480,111	-0,035	-0,059
-549,598	800,000	-0,076	-0,193
-548,583	-97,122	-0,086	-0,016
-547,569	114,903	-0,059	-0,053
-546,554	-55,092	0,056	-0,018
-545,539	-200,000	-0,005	0,077
-544,525	12,708	-0,097	-0,054
-543,510	112,711	0,125	-0,110
-542,496	489,262	-0,046	-0,078
-541,481	309,527	0,104	-0,142
-540,466	18,607	-0,063	-0,037
-539,452	800,000	-0,062	-0,132
-538,437	-200,000	0,008	-0,029
-537,423	-200,000	-0,010	-0,110
-536,408	-200,000	-0,008	0,032
-535,393	-200,000	0,006	-0,115
-534,379	6,627	-0,068	-0,037
-533,364	11,981	0,049	-0,027
-532,350	160,443	0,012	-0,013
-531,335	40,920	0,094	0,062
-530,321	-52,265	0,184	-0,062
-529,306	-65,767	-0,125	0,036
-528,291	9,115	-0,045	-0,025
-527,277	59,884	0,094	-0,067
-526,262	-200,000	0,030	0,134
-525,248	-141,680	0,042	0,003
-524,233	420,980	-0,041	0,065
-523,218	212,084	0,046	-0,052
-522,204	73,750	-0,138	0,106
-521,189	4,258	0,079	-0,042
-520,175	61,494	0,102	-0,074
-519,160	-69,387	0,019	0,005
-518,145	-60,193	0,069	0,021
-517,131	432,978	0,089	0,142
-516,116	16,534	0,048	0,028
-515,102	-200,000	-0,022	0,078
-514,087	13,935	-0,112	0,063
-513,072	-146,159	-0,130	-0,008
-512,058	-200,000	-0,014	0,091
-511,043	-161,329	0,032	0,001
-510,029	-200,000	0,002	-0,051
-509,014	192,810	-0,066	0,073
-507,999	-200,000	-0,013	0,063
-506,985	-48,000	-0,152	0,053
-505,970	-61,365	-0,126	0,038
-504,956	800,000	0,023	0,047
-503,941	55,109	-0,046	0,033
-502,926	3,447	0,022	0,012
-501,912	71,389	-0,122	0,092
-500,897	-62,633	-0,086	-0,026
-499,883	373,211	-0,048	-0,072
-498,868	-7,722	-0,051	0,025
-497,853	-181,802	-0,010	-0,000
-496,839	27,545	0,108	-0,066
-495,824	-167,483	-0,092	-0,003
-494,810	-200,000	-0,012	0,060
-493,795	-173,007	0,033	0,001
-492,781	800,000	0,053	-0,162
-491,766	-22,910	-0,134	-0,058
-490,751	-96,504	-0,081	-0,015
-489,737	-128,207	-0,158	0,016
-488,722	-200,000	-0,009	0,110
-487,708	21,046	0,103	0,061
-486,693	-200,000	-0,020	-0,124
-485,678	-24,888	-0,071	-0,031
-484,664	-200,000	0,023	-0,148
-483,649	-30,522	-0,134	-0,055
-482,635	226,538	-0,029	0,035
-481,620	-106,931	0,115	-0,018
-480,605	-200,000	-0,011	0,075
-479,591	258,617	0,039	0,049
-478,576	108,014	0,038	-0,033
-477,562	-200,000	0,029	0,094
-476,547	800,000	-0,032	-0,069
-475,532	-200,000	-0,022	-0,143
-474,518	-87,327	-0,122	0,027
-473,503	-200,000	-0,007	0,091
-472,489	22,673	0,048	0,029
-471,474	-11,343	0,079	0,038
-470,459	-2,824	0,083	0,042
-469,445	-12,363	0,068	-0,032
-468,430	-200,000	0,010	-0,054
-467,416	-82,360	-0,072	-0,017
-466,401	-124,556	0,089	0,010
-465,386	-200,000	-0,008	0,133
-464,372	163,053	0,018	-0,018
-463,357	800,000	0,028	-0,063
-462,343	-9,755	-0,091	0,044
-461,328	55,186	-0,008	-0,006
-460,313	-200,000	-0,039	0,160
-459,299	800,000	-0,027	0,055
-458,284	76,386	0,055	0,042
-457,270	-26,335	0,154	0,066
-456,255	-118,375	-0,058	0,007
-455,241	-45,628	0,156	0,056
-454,226	-91,786	-0,090	0,018
-453,211	31,109	-0,069	0,043
-452,197	800,000	0,010	0,030
-451,182	-85,519	-0,100	0,022
-450,168	75,102	0,021	-0,016
-449,153	-58,930	0,124	-0,039
-448,138	800,000	0,048	-0,126
-447,124	-29,295	0,104	0,043
-446,109	704,290	-0,034	0,065
-445,095	122,508	-0,103	0,093
-444,080	-200,000	0,022	0,097
-443,065	121,413	0,009	0,008
-442,051	261,886	0,024	-0,030
-441,036	511,187	-0,021	-0,035
-440,022	800,000	-0,033	0,095
-439,007	606,482	0,060	0,110
-437,992	-200,000	0,042	0,173
-436,978	-116,532	-0,073	-0,010
-435,963	-200,000	-0,003	0,099
-434,949	210,126	-0,060	-0,069
-433,934	134,497	0,044	0,041
-432,919	-62,440	0,086	0,026
-431,905	-200,000	-0,014	-0,045
-430,890	-200,000	0,006	0,034
-429,876	-200,000	0,018	0,103
-428,861	-200,000	-0,002	0,030
-427,846	-19,037	0,102	0,046
-426,832	800,000	-0,066	0,168
-425,817	217,547	0,125	-0,145
-424,803	-99,928	-0,098	0,018
-423,788	800,000	-0,028	-0,063
-422,773	-43,947	-0,104	-0,038
-421,759	-57,286	-0,080	0,025
-420,744	220,714	0,059	-0,069
-419,730	38,410	-0,088	-0,057
-418,715	64,478	0,050	0,037
-417,701	-49,789	0,028	-0,010
-416,686	174,440	-0,051	-0,054
-415,671	-200,000	-0,015	-0,086
-414,657	82,187	0,087	-0,069
-413,642	-200,000	0,012	0,103
-412,628	-88,103	-0,099	-0,021
-411,613	705,121	-0,007	-0,014
-410,598	281,026	-0,029	0,038
-409,584	302,728	-0,063	0,085
-408,569	-106,458	0,102	0,016
-407,555	-142,351	0,024	-0,002
-406,540	556,197	0,027	-0,047
-405,525	105,698	0,037	-0,032
-404,511	-138,967	-0,056	-0,004
-403,496	-90,713	-0,074	-0,015
-402,482	0,913	0,013	-0,007
-401,467	21,574	0,060	0,036
-400,452	-84,557	0,154	-0,035
-399,438	800,000	0,018	-0,041
-398,423	262,090	-0,053	0,067
-397,409	-132,091	-0,070	-0,006
-396,394	83,266	-0,047	-0,037
-395,379	-121,101	-0,103	0,012
-394,365	310,949	0,078	0,107
-393,350	-200,000	0,002	-0,030
-392,336	27,816	0,068	-0,042
-391,321	800,000	-0,003	-0,006
-390,306	416,554	0,056	-0,088
-389,292	65,676	-0,036	-0,027
-388,277	-170,870	0,148	-0,004
-387,263	-161,840	0,149	-0,005
-386,248	-33,652	0,100	0,040
-385,233	-23,774	-0,082	0,035
-384,219	-87,985	-0,029	0,006
-383,204	65,474	-0,131	-0,096
-382,190	-123,421	-0,069	-0,008
-381,175	-200,000	-0,001	0,061
-380,160	-200,000	0,002	0,155
-379,146	800,000	-0,003	-0,007
-378,131	-52,449	0,107	-0,036
-377,117	-90,843	0,056	-0,012
-376,102	-200,000	-0,030	0,099
-375,088	800,000	0,016	0,041
-374,073	800,000	-0,063	-0,150
-373,058	-142,086	-0,067	-0,005
-372,044	-125,633	0,035	-0,004
-371,029	-200,000	-0,014	0,074
-370,015	110,235	0,146	0,127
-369,000	272,680	-0,061	0,078
-367,985	45,671	-0,069	0,046
-366,971	575,892	0,102	0,181
-365,956	-128,360	0,069	-0,007
-364,942	-58,371	-0,044	0,014
-363,927	221,160	0,049	0,057
-362,912	-150,565	-0,143	0,008
-361,898	-200,000	-0,026	-0,093
-360,883	5,980	-0,104	-0,056
-359,869	8,799	0,036	0,020
-358,854	-68,014	0,030	-0,008
-357,839	362,468	0,047	-0,069
-356,825	59,016	0,068	0,049
-355,810	-51,993	-0,141	-0,047
-354,796	205,956	-0,008	-0,009
-353,781	40,526	-0,114	-0,074
-352,766	800,000	0,068	-0,156
-351,752	-200,000	0,008	-0,063
-350,737	-43,659	-0,181	-0,066
-349,723	-200,000	0,025	0,082
-348,708	-200,000	0,021	0,156
-347,693	-68,715	-0,067	0,019
-346,679	28,230	0,106	-0,065
-345,664	4,457	-0,049	-0,026
-344,650	-76,771	-0,050	0,013
-343,635	-200,000	-0,009	-0,040
-342,620	800,000	0,039	0,083
-341,606	7,756	0,128	0,069
-340,591	-127,377	-0,009	-0,001
-339,577	-200,000	0,008	-0,124
-338,562	122,401	-0,092	-0,084
-337,548	-200,000	-0,007	-0,043
-336,533	234,429	-0,045	0,053
-335,518	-200,000	-0,021	0,106
-334,504	-99,621	0,139	-0,025
-333,489	253,893	-0,052	-0,064
-332,475	61,644	-0,164	0,118
-331,460	800,000	-0,025	-0,066
-330,445	-200,000	-0,016	-0,071
-329,431	-47,349	-0,025	-0,009
-328,416	469,092	0,036	0,059
-327,402	797,254	0,052	0,104
-326,387	-2,873	-0,078	-0,039
-325,372	693,044	0,032	-0,062
-324,358	713,609	0,057	-0,109
-323,343	-119,389	-0,090	0,011
-322,329	313,492	0,024	-0,032
-321,314	-200,000	0,002	0,101
-320,299	193,557	-0,072	-0,079
-319,285	-200,000	0,015	-0,081
-318,270	98,534	-0,058	0,048
-317,256	-3,310	-0,100	0,050
-316,241	-200,000	0,006	0,038
-315,226	20,079	0,155	-0,090
-314,212	800,000	-0,030	-0,060
-313,197	655,177	0,030	0,056
-312,183	-153,166	0,067	-0,003
-311,168	168,191	0,071	-0,073
-310,153	46,957	-0,145	-0,098
-309,139	-109,132	-0,161	0,024
-308,124	799,753	-0,041	0,081
-307,110	800,000	0,021	0,067
-306,095	521,385	-0,054	0,091
-305,080	800,000	0,038	0,097
-304,066	65,501	-0,068	-0,050
-303,051	53,477	-0,050	0,035
-302,037	224,706	0,063	-0,074
-301,022	118,087	0,130	-0,116
-300,008	229,143	-0,020	-0,024
-298,993	383,346	0,057	-0,085
-297,978	-161,852	-0,114	0,004
-296,964	165,726	-0,075	-0,077
-295,949	-200,000	-0,006	-0,029
-294,935	-85,982	-0,147	-0,033
-293,920	-200,000	0,016	-0,118
-292,905	-200,000	-0,058	-0,226
-291,891	44,981	0,072	0,048
-290,876	397,552	-0,053	-0,080
-289,862	264,809	0,049	-0,061
-288,847	-77,298	0,049	-0,012
-287,832	-200,000	0,014	0,069
-286,818	-132,309	0,155	-0,014
-285,803	442,068	-0,040	0,064
-284,789	-79,224	-0,048	0,012
-283,774	75,223	0,073	0,056
-282,759	800,000	0,019	-0,049
-281,745	46,409	-0,059	-0,040
-280,730	-75,495	-0,081	0,021
-279,716	175,252	-0,040	-0,042
-278,701	-120,118	0,037	-0,005
-277,686	206,999	0,036	-0,041
-276,672	-200,000	0,008	0,052
-275,657	-200,000	-0,025	0,088
-274,643	-200,000	-0,007	-0,153
-273,628	467,473	0,031	0,050
-272,613	-0,715	0,008	-0,004
-271,599	250,082	-0,050	0,061
-270,584	-17,610	0,089	-0,040
-269,570	-200,000	-0,017	-0,110
-268,555	45,422	0,036	0,024
-267,540	279,889	-0,058	0,075
-266,526	800,000	-0,020	0,043
-265,511	-10,342	0,038	0,018
-264,497	21,885	-0,068	0,040
-263,482	577,385	0,039	0,068
-262,467	606,673	-0,021	0,038
-261,453	-200,000	-0,020	-0,070
-260,438	211,692	0,062	-0,070
-259,424	173,997	-0,054	-0,056
-258,409	-8,179	0,041	0,020
-257,395	286,495	-0,052	-0,068
-256,380	133,769	0,151	0,141
-255,365	-200,000	0,026	0,167
-254,351	-128,894	-0,087	0,009
-253,336	800,000	-0,023	-0,063
-252,322	800,000	0,018	0,057
-251,307	-200,000	-0,022	-0,138
-250,292	800,000	0,032	0,069
-249,278	191,713	-0,077	-0,083
-248,263	800,000	-0,021	-0,052
-247,249	-200,000	0,026	0,119
-246,234	800,000	-0,033	-0,099
-245,219	-152,576	0,096	0,005
-244,205	800,000	-0,048	-0,125
-243,190	224,789	0,083	-0,097
-242,176	-168,061	0,056	-0,002
-241,161	41,164	0,079	0,052
-240,146	800,000	0,037	-0,093
-239,132	-1,230	-0,068	0,035
-238,117	471,527	-0,016	0,026
-237,103	-200,000	0,008	-0,042
-236,088	18,304	-0,113	0,065
-235,073	-105,945	0,136	0,022
-234,059	-200,000	-0,042	0,148
-233,044	84,199	0,026	0,021
-232,030	205,982	-0,049	-0,055
-231,015	58,666	0,034	0,024
-230,000	145,067	-0,047	0,046
-228,986	-31,991	0,085	0,034
-227,971	216,259	0,061	-0,070
-226,957	-99,791	0,064	0,011
-225,942	-6,090	0,150	0,074
-224,927	55,469	-0,047	0,033
-223,913	606,911	-0,059	-0,106
-222,898	81,097	0,017	-0,013
-221,884	800,000	0,022	0,050
-220,869	32,019	0,090	0,056
-219,855	-58,534	-0,162	0,050
-218,840	-200,000	0,004	0,044
-217,825	-4,902	-0,027	0,013
-216,811	800,000	-0,038	-0,080
-215,796	87,390	-0,080	-0,063
-214,782	-200,000	-0,002	-0,016
-213,767	-63,264	0,011	-0,003
-212,752	-200,000	-0,013	0,176
-211,738	599,468	0,045	0,080
-210,723	-4,978	0,062	-0,031
-209,709	800,000	0,033	0,102
-208,694	158,718	0,070	0,070
-207,679	-200,000	-0,001	0,026
-206,665	800,000	-0,034	0,092
-205,650	-200,000	-0,034	0,119
-204,636	-32,578	0,032	0,013
-203,621	-24,759	-0,137	0,059
-202,606	695,222	0,085	-0,162
-201,592	179,565	-0,026	-0,027
-200,577	441,639	0,096	-0,152
-199,563	395,435	0,073	0,110
-198,548	-16,584	0,093	-0,042
-197,533	-76,328	0,109	-0,027
-196,519	800,000	-0,053	0,148
-195,504	644,540	-0,054	-0,099
-194,490	-23,632	0,107	-0,046
-193,475	-200,000	0,007	-0,116
-192,460	800,000	-0,021	-0,057
-191,446	-200,000	0,035	-0,115
-190,431	-104,751	0,174	-0,029
-189,417	-14,510	0,142	0,066
-188,402	177,168	-0,042	0,044
-187,387	-66,337	-0,110	0,031
-186,373	137,927	0,040	0,038
-185,358	-91,421	0,103	-0,021
-184,344	-200,000	0,014	-0,069
-183,329	800,000	0,031	0,068
-182,315	6,859	0,065	-0,035
-181,300	-12,432	-0,180	-0,084
-180,285	-113,510	-0,051	0,007
-179,271	217,692	-0,092	-0,106
-178,256	71,201	-0,148	0,110
-177,242	-145,622	0,097	0,006
-176,227	239,361	0,105	0,126
-175,212	800,000	0,028	-0,062
-174,198	-127,765	-0,092	0,009
-173,183	14,149	-0,054	0,030
-172,169	-148,859	0,017	0,001
-171,154	-200,000	-0,012	0,111
-170,139	-69,334	0,170	-0,047
-169,125	-50,788	0,032	-0,011
-168,110	800,000	-0,042	0,130
-167,096	65,605	0,078	0,057
-166,081	48,294	-0,085	-0,057
-165,066	800,000	0,035	-0,110
-164,052	-57,090	-0,065	-0,021
-163,037	800,000	-0,018	-0,050
-162,023	117,945	-0,102	-0,091
-161,008	161,892	0,056	-0,056
-159,993	-117,957	-0,049	0,006
-158,979	9,624	0,087	0,047
-157,964	800,000	-0,040	0,089
-156,950	-38,059	-0,053	0,020
-155,935	-200,000	-0,022	-0,199
-154,920	-200,000	-0,005	0,071
-153,906	703,006	0,099	0,188
-152,891	86,077	0,072	-0,057
-151,877	-200,000	-0,021	0,101
-150,862	132,343	-0,010	-0,009
-149,847	-69,641	0,080	-0,022
-148,833	41,219	-0,082	-0,053
-147,818	-200,000	-0,001	0,105
-146,804	-97,194	0,087	-0,016
-145,789	433,990	0,054	0,085
-144,775	-200,000	0,010	0,082
-143,760	37,175	0,061	0,039
-142,745	152,628	-0,059	-0,058
-141,731	21,880	0,105	0,061
-140,716	-200,000	-0,005	0,076
-139,702	720,040	0,066	0,126
-138,687	-200,000	0,008	0,103
-137,672	122,336	-0,086	-0,077
-136,658	800,000	-0,035	0,083
-135,643	30,531	-0,069	-0,042
-134,629	-32,793	-0,055	-0,022
-133,614	702,645	0,051	0,097
-132,599	-200,000	-0,008	-0,077
-131,585	-5,606	-0,023	0,011
-130,570	165,089	-0,052	-0,053
-129,556	55,395	-0,159	-0,110
-128,541	800,000	-0,023	0,051
-127,526	4,323	0,144	-0,075
-126,512	800,000	-0,022	0,049
-125,497	-200,000	0,029	0,127
-124,483	-52,794	-0,153	0,050
-123,468	-187,186	0,114	0,001
-122,453	-0,667	-0,131	0,066
-121,439	-111,852	-0,051	0,007
-120,424	800,000	0,029	0,071
-119,410	-68,890	-0,056	-0,016
-118,395	223,787	0,092	0,107
