DTS Sentinel unit serial number:	SN410029Multiplexer serial number:	ORYXHardware model number:	OX2-SRSoftware version number:	ORYX F/W v4,00 Oryx Data Collector v3.7.2.0data status	okinstallation	B6 Nyhavnadifferential loss correction	single-endedforward channel	channel 2reverse channel	N/Adate	2023/12/07time	15:00:08forward acquisition time	300,00reverse acquisition time	0,00gamma	499,1914k internal	0,3144k external	0,3144temperature offset calibration	1,0000default loss term (dB/km)	0,3820temperature slope calibration	1,0000multiplexer offset coefficient	1,0000multiplexer slope coefficient	1,0000fibre end	0,00T internal ref (°C)	14,15T ext. ref 1 (°C)	-1,81T ext. ref 2 (°C)	-1,80length (m)	temperature (°C)	Stokes	anti-Stokes-744,400	-59,533	0,049	0,015
-743,385	-103,351	-0,167	0,029
-742,371	41,176	0,130	-0,087
-741,356	-99,628	-0,221	-0,041
-740,342	-200,000	-0,007	0,074
-739,327	-126,650	-0,329	0,036
-738,312	-10,994	0,128	0,062
-737,298	-132,225	-0,302	-0,029
-736,283	-64,918	0,190	0,056
-735,269	-150,159	-0,343	-0,019
-734,254	800,000	-0,018	0,054
-733,239	-91,046	-0,520	-0,110
-732,225	-68,432	0,230	0,066
-731,210	-72,900	-0,093	-0,025
-730,196	-140,212	0,098	0,007
-729,181	151,595	-0,056	-0,057
-728,167	-135,656	-0,160	0,014
-727,152	-200,000	0,002	-0,027
-726,137	6,479	0,112	0,061
-725,123	2,245	0,062	0,033
-724,108	-59,462	-0,145	0,046
-723,094	-200,000	0,029	0,109
-722,079	24,178	0,073	-0,044
-721,064	334,209	0,078	0,112
-720,050	-64,625	-0,070	0,021
-719,035	800,000	0,050	-0,103
-718,021	-64,358	-0,183	0,055
-717,006	406,860	0,063	-0,098
-715,991	442,542	-0,071	-0,115
-714,977	800,000	-0,049	-0,143
-713,962	-93,616	0,094	-0,019
-712,948	293,405	-0,027	0,036
-711,933	-75,469	-0,129	0,034
-710,918	454,986	0,072	-0,119
-709,904	148,469	-0,096	-0,096
-708,889	-72,813	-0,107	0,029
-707,875	-200,000	0,020	-0,109
-706,860	-200,000	-0,013	-0,061
-705,845	32,508	-0,076	0,048
-704,831	-157,822	-0,077	0,003
-703,816	-97,087	-0,095	0,018
-702,802	-200,000	0,006	-0,043
-701,787	-84,027	-0,185	-0,043
-700,772	800,000	0,041	-0,095
-699,758	-64,283	-0,018	-0,005
-698,743	800,000	-0,034	0,103
-697,729	36,442	0,124	0,081
-696,714	771,311	0,064	0,129
-695,699	-33,103	-0,076	0,031
-694,685	136,430	0,046	-0,045
-693,670	24,682	0,082	-0,050
-692,656	800,000	-0,016	-0,044
-691,641	-90,613	-0,026	0,005
-690,627	-85,020	-0,085	0,020
-689,612	-200,000	0,007	-0,121
-688,597	717,249	0,054	-0,106
-687,583	-27,034	0,051	0,022
-686,568	484,276	-0,034	0,058
-685,554	-27,737	0,115	-0,049
-684,539	111,875	0,068	0,060
-683,524	-158,363	0,109	-0,005
-682,510	198,397	-0,061	0,069
-681,495	800,000	0,038	0,106
-680,481	160,063	0,039	-0,040
-679,466	-31,109	-0,044	-0,018
-678,451	-97,929	0,087	0,016
-677,437	-197,368	0,082	0,000
-676,422	-200,000	0,016	0,132
-675,408	253,770	-0,083	-0,106
-674,393	-21,105	-0,071	-0,032
-673,378	-200,000	0,011	-0,083
-672,364	-100,294	0,034	0,006
-671,349	-153,470	-0,106	0,005
-670,335	-200,000	0,001	0,127
-669,320	-200,000	0,041	0,143
-668,305	-27,530	0,088	0,038
-667,291	-46,382	-0,160	-0,058
-666,276	-200,000	0,001	-0,021
-665,262	524,851	0,116	-0,202
-664,247	-138,542	-0,052	0,004
-663,232	-50,137	-0,045	-0,016
-662,218	-200,000	-0,005	-0,170
-661,203	-200,000	0,006	-0,035
-660,189	6,523	0,078	0,043
-659,174	800,000	-0,056	-0,128
-658,159	-200,000	-0,015	0,052
-657,145	434,041	-0,074	-0,120
-656,130	149,894	-0,053	-0,053
-655,116	-54,967	0,003	-0,001
-654,101	-38,712	0,063	-0,024
-653,086	-200,000	0,008	-0,080
-652,072	34,392	-0,056	-0,036
-651,057	-200,000	0,009	-0,099
-650,043	-200,000	-0,027	-0,113
-649,028	-200,000	0,001	0,058
-648,014	-102,050	-0,047	0,008
-646,999	571,347	0,040	0,072
-645,984	65,525	-0,121	0,090
-644,970	24,854	0,060	-0,037
-643,955	800,000	0,060	-0,128
-642,941	-200,000	-0,013	-0,085
-641,926	-64,753	-0,104	0,031
-640,911	438,115	0,022	-0,035
-639,897	-4,999	0,107	-0,054
-638,882	-2,828	-0,176	0,090
-637,868	-200,000	-0,011	-0,116
-636,853	606,826	-0,014	-0,027
-635,838	13,395	-0,102	0,058
-634,824	388,008	0,042	-0,064
-633,809	156,221	0,089	-0,091
-632,795	67,726	0,029	0,022
-631,780	-9,612	0,036	-0,018
-630,765	182,318	-0,091	0,099
-629,751	410,402	-0,034	0,053
-628,736	-163,054	-0,116	-0,004
-627,722	62,384	0,064	-0,047
-626,707	673,567	-0,043	-0,083
-625,692	-200,000	0,103	0,000
-624,678	1,367	-0,180	0,095
-623,663	-28,491	0,017	0,007
-622,649	-165,775	-0,175	0,005
-621,634	34,595	-0,020	0,013
-620,619	297,618	0,055	0,075
-619,605	22,857	0,077	-0,047
-618,590	800,000	-0,026	0,078
-617,576	632,787	0,067	-0,126
-616,561	-86,067	-0,165	-0,037
-615,546	-9,739	0,127	-0,062
-614,532	-173,592	-0,177	0,004
-613,517	-101,094	-0,104	0,019
-612,503	-200,000	-0,003	-0,025
-611,488	165,323	-0,030	-0,031
-610,474	-65,362	0,112	0,033
-609,459	-88,873	-0,137	0,030
-608,444	48,960	-0,043	-0,030
-607,430	-200,000	-0,031	0,103
-606,415	-178,930	-0,109	0,002
-605,401	-200,000	-0,030	0,125
-604,386	104,326	0,084	0,073
-603,371	-75,450	0,166	0,043
-602,357	-200,000	0,005	0,084
-601,342	-3,353	0,040	-0,020
-600,328	16,165	-0,130	0,075
-599,313	285,878	-0,023	0,031
-598,298	268,763	-0,052	0,067
-597,284	-200,000	0,019	0,066
-596,269	112,432	0,024	-0,021
-595,255	800,000	0,038	0,086
-594,240	521,549	0,033	-0,058
-593,225	34,393	-0,099	0,064
-592,211	20,810	0,024	0,014
-591,196	-200,000	-0,002	0,051
-590,182	800,000	0,049	0,128
-589,167	316,322	0,074	-0,104
-588,152	800,000	0,017	-0,038
-587,138	800,000	0,043	0,101
-586,123	64,575	-0,064	-0,047
-585,109	-88,652	-0,097	-0,021
-584,094	-200,000	-0,007	-0,029
-583,079	186,134	-0,101	0,111
-582,065	629,253	0,074	0,137
-581,050	-154,501	0,006	0,000
-580,036	472,244	0,068	-0,113
-579,021	-103,127	-0,128	-0,022
-578,006	-200,000	-0,005	-0,093
-576,992	68,879	-0,113	-0,086
-575,977	-79,573	0,081	-0,020
-574,963	3,043	0,105	0,056
-573,948	-200,000	-0,033	0,129
-572,934	-85,462	-0,112	-0,026
-571,919	-164,985	-0,083	-0,003
-570,904	-200,000	-0,008	0,053
-569,890	-200,000	0,006	-0,055
-568,875	-200,000	0,001	-0,127
-567,861	-12,969	0,044	0,021
-566,846	31,930	0,080	-0,051
-565,831	-20,041	-0,118	0,053
-564,817	-200,000	0,008	-0,096
-563,802	164,381	-0,022	-0,022
-562,788	614,362	-0,050	-0,093
-561,773	26,746	0,057	-0,035
-560,758	-2,685	-0,038	-0,019
-559,744	-200,000	-0,007	0,034
-558,729	-200,000	0,033	0,140
-557,715	56,896	-0,159	-0,114
-556,700	5,487	-0,192	-0,104
-555,685	-58,851	-0,094	-0,030
-554,671	-106,679	-0,196	-0,032
-553,656	-200,000	-0,012	-0,153
-552,642	800,000	-0,011	-0,026
-551,627	-19,857	-0,024	0,011
-550,612	-200,000	-0,004	-0,060
-549,598	-46,541	-0,137	-0,049
-548,583	-200,000	-0,041	0,138
-547,569	-200,000	0,007	0,037
-546,554	800,000	0,024	0,056
-545,539	-66,338	-0,060	-0,017
-544,525	-200,000	0,024	0,143
-543,510	-200,000	0,028	-0,123
-542,496	-18,689	-0,090	-0,041
-541,481	154,110	-0,146	-0,147
-540,466	217,049	-0,058	-0,068
-539,452	22,109	0,115	-0,069
-538,437	-200,000	-0,011	-0,076
-537,423	800,000	-0,055	0,161
-536,408	-142,755	-0,047	0,003
-535,393	-200,000	0,053	-0,182
-534,379	-200,000	0,013	-0,104
-533,364	-200,000	-0,012	-0,091
-532,350	-200,000	0,018	0,141
-531,335	800,000	0,020	-0,044
-530,321	722,998	-0,058	-0,114
-529,306	305,147	-0,047	0,064
-528,291	-200,000	-0,047	-0,214
-527,277	-200,000	0,023	-0,098
-526,262	6,914	0,072	-0,039
-525,248	56,602	0,030	0,021
-524,233	-200,000	-0,010	0,042
-523,218	-200,000	0,022	-0,087
-522,204	-102,977	-0,034	-0,006
-521,189	-9,104	-0,047	0,023
-520,175	-200,000	-0,023	-0,083
-519,160	800,000	-0,019	0,044
-518,145	299,737	0,047	0,064
-517,131	-200,000	0,005	-0,051
-516,116	-200,000	-0,039	0,139
-515,102	-120,379	0,170	-0,021
-514,087	20,169	-0,046	-0,027
-513,072	-200,000	0,011	-0,165
-512,058	-100,286	-0,076	-0,014
-511,043	684,503	0,023	-0,044
-510,029	800,000	0,030	0,079
-509,014	-60,341	0,088	-0,027
-507,999	800,000	0,030	0,078
-506,985	567,646	0,064	0,115
-505,970	-136,002	-0,144	-0,012
-504,956	800,000	-0,011	0,024
-503,941	-110,467	-0,015	0,002
-502,926	-200,000	-0,010	0,033
-501,912	488,161	-0,032	0,054
-500,897	-97,139	0,149	-0,028
-499,883	23,599	0,061	0,037
-498,868	115,873	-0,130	-0,117
-497,853	-200,000	0,008	0,046
-496,839	280,629	-0,055	-0,073
-495,824	-149,109	0,041	0,002
-494,810	253,908	0,105	0,132
-493,795	710,968	-0,094	0,182
-492,781	-200,000	-0,007	0,092
-491,766	-200,000	-0,015	-0,056
-490,751	78,950	0,079	0,062
-489,737	-15,913	0,037	0,017
-488,722	-36,267	0,124	-0,049
-487,708	-114,584	0,077	0,011
-486,693	-113,397	0,050	-0,007
-485,678	228,308	0,068	-0,081
-484,664	445,842	-0,035	0,056
-483,649	-75,197	-0,120	0,031
-482,635	167,101	0,056	-0,059
-481,620	-88,414	0,107	0,023
-480,605	-200,000	-0,001	0,037
-479,591	-108,711	0,106	0,016
-478,576	-171,780	-0,053	-0,001
-477,562	-200,000	0,007	0,045
-476,547	-200,000	-0,022	-0,073
-475,532	-98,923	0,017	-0,003
-474,518	-74,443	-0,067	0,018
-473,503	-125,947	0,115	-0,013
-472,489	-92,641	0,011	-0,002
-471,474	141,449	-0,049	-0,047
-470,459	10,966	0,127	-0,071
-469,445	112,612	-0,081	-0,072
-468,430	800,000	0,030	-0,061
-467,416	800,000	-0,012	-0,034
-466,401	32,987	-0,071	0,045
-465,386	637,283	0,051	0,096
-464,372	-200,000	-0,044	0,159
-463,357	48,308	-0,061	0,041
-462,343	108,402	0,059	0,051
-461,328	43,771	-0,079	0,053
-460,313	-114,593	0,144	-0,020
-459,299	63,759	0,056	0,041
-458,284	-200,000	0,008	0,134
-457,270	568,987	0,027	0,048
-456,255	-72,799	-0,083	-0,022
-455,241	167,054	-0,063	-0,066
-454,226	-119,656	-0,056	0,007
-453,211	229,604	0,073	0,088
-452,197	-12,091	0,181	-0,086
-451,182	294,748	0,087	-0,117
-450,168	172,328	-0,095	-0,100
-449,153	37,378	-0,095	0,062
-448,138	100,218	0,035	0,029
-447,124	-164,040	-0,116	0,004
-446,109	525,979	0,040	0,069
-445,095	39,567	0,131	-0,086
-444,080	800,000	0,009	0,020
-443,065	800,000	0,045	0,107
-442,051	51,357	-0,050	-0,034
-441,036	-82,589	-0,101	0,024
-440,022	-200,000	-0,003	-0,111
-439,007	325,555	0,047	-0,066
-437,992	-162,687	-0,109	0,004
-436,978	76,600	0,115	-0,089
-435,963	-52,975	0,063	0,021
-434,949	-93,486	-0,119	0,024
-433,934	650,501	-0,067	0,127
-432,919	-52,711	0,078	0,026
-431,905	280,088	0,029	0,038
-430,890	-200,000	-0,010	0,105
-429,876	800,000	-0,001	-0,003
-428,861	-200,000	-0,006	0,027
-427,846	336,789	-0,039	-0,055
-426,832	-30,810	0,125	-0,052
-425,817	-109,940	0,227	-0,034
-424,803	-200,000	-0,012	-0,049
-423,788	117,689	-0,020	0,018
-422,773	170,217	0,048	-0,050
-421,759	601,034	0,028	0,052
-420,744	-200,000	-0,056	0,000
-419,730	-200,000	-0,004	0,114
-418,715	105,583	-0,040	0,035
-417,701	-200,000	0,014	-0,050
-416,686	144,855	0,082	0,080
-415,671	46,261	-0,076	-0,051
-414,657	141,557	0,040	0,039
-413,642	-30,032	0,024	-0,010
-412,628	-200,000	0,006	-0,101
-411,613	800,000	0,005	-0,011
-410,598	242,815	0,062	-0,076
-409,584	56,867	0,080	-0,057
-408,569	25,288	-0,069	0,042
-407,555	-172,060	0,133	0,003
-406,540	514,654	-0,053	0,090
-405,525	800,000	0,037	-0,102
-404,511	52,627	-0,073	-0,051
-403,496	-66,318	-0,060	0,017
-402,482	172,625	0,077	-0,081
-401,467	3,127	0,035	-0,019
-400,452	17,248	0,111	-0,064
-399,438	800,000	0,034	0,093
-398,423	478,377	0,026	0,044
-397,409	-136,893	-0,046	-0,004
-396,394	-200,000	0,010	0,069
-395,379	118,528	0,134	0,120
-394,365	224,266	0,078	-0,092
-393,350	28,779	0,106	0,066
-392,336	-36,417	-0,104	0,041
-391,321	456,705	-0,014	-0,023
-390,306	-64,041	-0,107	0,032
-389,292	17,086	0,062	0,036
-388,277	162,557	-0,062	-0,064
-387,263	612,686	0,030	0,055
-386,248	273,671	0,040	0,051
-385,233	54,921	-0,023	0,016
-384,219	-200,000	-0,021	-0,071
-383,204	800,000	0,026	-0,069
-382,190	9,614	0,128	0,070
-381,175	-37,720	-0,079	-0,031
-380,160	-164,901	-0,018	-0,001
-379,146	-200,000	0,031	-0,110
-378,131	21,310	0,094	0,056
-377,117	-35,165	-0,041	-0,016
-376,102	462,561	0,034	-0,056
-375,088	-62,381	-0,113	-0,034
-374,073	-200,000	-0,006	-0,023
-373,058	17,975	-0,090	-0,052
-372,044	122,441	-0,068	0,062
-371,029	149,031	-0,058	-0,057
-370,015	-200,000	0,004	-0,166
-369,000	2,887	0,125	-0,066
-367,985	-42,289	-0,048	0,018
-366,971	762,874	-0,030	0,059
-365,956	44,475	0,101	-0,068
-364,942	441,286	0,031	0,050
-363,927	235,628	-0,070	0,084
-362,912	-40,827	0,085	0,032
-361,898	-137,701	-0,094	-0,008
-360,883	793,401	0,042	-0,085
-359,869	100,883	-0,017	-0,014
-358,854	328,814	0,056	-0,079
-357,839	618,853	0,059	0,108
-356,825	-60,475	-0,084	0,026
-355,810	-10,989	0,122	0,059
-354,796	-200,000	-0,029	0,112
-353,781	-200,000	-0,016	-0,083
-352,766	-33,968	0,040	-0,016
-351,752	-200,000	-0,042	-0,139
-350,737	82,059	0,041	0,033
-349,723	162,673	0,055	0,056
-348,708	352,743	0,070	0,102
-347,693	-13,250	0,068	-0,032
-346,679	-200,000	-0,022	-0,098
-345,664	-200,000	-0,014	-0,074
-344,650	-200,000	-0,025	-0,100
-343,635	-200,000	-0,001	0,025
-342,620	153,403	0,117	-0,117
-341,606	55,744	-0,092	-0,065
-340,591	-200,000	-0,004	-0,025
-339,577	42,865	0,205	-0,136
-338,562	-200,000	0,013	0,041
-337,548	258,665	-0,054	0,068
-336,533	-200,000	-0,011	0,097
-335,518	50,202	0,219	-0,150
-334,504	-110,691	0,106	0,016
-333,489	-38,234	-0,071	-0,027
-332,475	163,144	0,025	-0,025
-331,460	37,486	0,113	-0,073
-330,445	-200,000	0,015	-0,093
-329,431	39,862	-0,048	-0,032
-328,416	72,137	-0,135	0,103
-327,402	56,522	-0,180	-0,128
-326,387	-200,000	0,009	-0,115
-325,372	-124,333	-0,056	-0,006
-324,358	-165,673	-0,106	0,003
-323,343	800,000	-0,018	-0,050
-322,329	-200,000	0,021	0,202
-321,314	100,275	0,055	0,047
-320,299	2,163	0,036	-0,019
-319,285	43,838	0,115	0,077
-318,270	-200,000	0,007	-0,056
-317,256	-200,000	-0,022	-0,100
-316,241	800,000	-0,003	0,009
-315,226	18,152	0,070	-0,041
-314,212	213,055	-0,044	0,051
-313,197	118,713	0,113	0,102
-312,183	-200,000	-0,008	0,186
-311,168	436,803	-0,050	-0,080
-310,153	-200,000	-0,026	-0,087
-309,139	-200,000	-0,017	-0,097
-308,124	-200,000	-0,022	0,073
-307,110	-109,067	-0,072	0,011
-306,095	-93,589	0,038	-0,008
-305,080	85,175	0,111	0,088
-304,066	-23,246	-0,109	-0,047
-303,051	-200,000	-0,006	0,084
-302,037	-134,582	0,076	-0,007
-301,022	800,000	-0,017	0,036
-300,008	-62,944	0,215	0,064
-298,993	45,656	-0,046	0,031
-297,978	-126,687	0,033	0,004
-296,964	800,000	0,034	0,089
-295,949	20,614	0,123	-0,072
-294,935	720,103	0,049	-0,095
-293,920	-200,000	0,000	0,084
-292,905	-52,736	0,170	-0,057
-291,891	800,000	-0,020	-0,050
-290,876	727,788	-0,096	0,187
-289,862	-200,000	-0,001	-0,015
-288,847	248,017	0,099	0,122
-287,832	-200,000	-0,009	-0,154
-286,818	800,000	0,050	-0,114
-285,803	-129,912	0,095	0,009
-284,789	-200,000	-0,000	-0,027
-283,774	-139,875	0,026	0,002
-282,759	-136,823	0,136	0,011
-281,745	-200,000	0,005	-0,018
-280,730	800,000	-0,058	-0,159
-279,716	373,167	-0,074	-0,110
-278,701	558,003	0,077	-0,135
-277,686	-17,139	0,051	0,023
-276,672	-50,475	0,085	-0,029
-275,657	23,729	0,031	0,019
-274,643	800,000	0,024	-0,070
-273,628	425,670	-0,068	-0,107
-272,613	204,822	0,065	0,074
-271,599	-200,000	0,013	0,067
-270,584	-200,000	0,028	0,145
-269,570	10,381	-0,059	-0,033
-268,555	-200,000	0,000	-0,063
-267,540	445,113	-0,064	-0,103
-266,526	-99,274	-0,089	-0,016
-265,511	-81,173	-0,145	-0,035
-264,497	96,977	0,081	0,068
-263,482	-200,000	-0,005	0,057
-262,467	-106,449	0,113	0,018
-261,453	800,000	0,006	0,018
-260,438	-89,394	0,056	0,012
-259,424	143,463	-0,050	0,048
-258,409	-118,394	-0,078	0,010
-257,395	215,475	-0,039	-0,045
-256,380	104,204	0,043	-0,037
-255,365	442,440	-0,044	0,071
-254,351	-29,652	-0,049	0,020
-253,336	320,300	0,059	-0,081
-252,322	427,988	0,032	0,050
-251,307	-26,954	-0,145	0,061
-250,292	800,000	0,041	0,129
-249,278	90,160	0,086	0,070
-248,263	-115,744	-0,096	-0,013
-247,249	95,696	0,106	-0,088
-246,234	-200,000	-0,025	0,086
-245,219	-200,000	-0,012	-0,091
-244,205	-26,642	-0,063	-0,027
-243,190	-91,377	0,097	-0,020
-242,176	2,427	0,106	0,056
-241,161	-200,000	0,021	0,078
-240,146	8,401	0,032	0,017
-239,132	90,188	0,051	-0,042
-238,117	219,770	0,048	-0,056
-237,103	16,415	-0,123	-0,070
-236,088	440,182	-0,012	0,019
-235,073	23,567	-0,049	0,029
-234,059	-16,620	0,136	0,062
-233,044	-32,758	-0,096	0,039
-232,030	58,202	0,084	0,060
-231,015	581,760	-0,019	-0,033
-230,000	227,712	-0,026	-0,030
-228,986	196,238	-0,063	0,070
-227,971	-200,000	-0,020	-0,087
-226,957	-200,000	-0,003	0,027
-225,942	800,000	0,045	0,094
-224,927	-200,000	0,016	0,095
-223,913	-154,971	-0,093	-0,004
-222,898	144,140	-0,078	0,075
-221,884	-3,513	-0,087	-0,044
-220,869	-39,298	0,160	0,061
-219,855	800,000	0,013	-0,041
-218,840	-137,910	-0,063	0,005
-217,825	-200,000	0,003	0,057
-216,811	800,000	0,026	0,057
-215,796	800,000	-0,028	-0,087
-214,782	52,013	0,097	-0,067
-213,767	-200,000	0,052	0,185
-212,752	-43,089	0,047	0,017
-211,738	-200,000	0,006	0,039
-210,723	-200,000	0,004	0,041
-209,709	642,059	0,038	-0,070
-208,694	-200,000	0,000	-0,016
-207,679	-43,699	-0,059	-0,021
-206,665	-4,136	0,082	0,041
-205,650	-15,561	0,047	0,022
-204,636	-200,000	-0,017	0,062
-203,621	-92,451	-0,120	-0,024
-202,606	435,424	0,101	0,159
-201,592	-200,000	0,011	0,070
-200,577	278,446	-0,067	-0,087
-199,563	-47,702	0,017	0,006
-198,548	-200,000	0,027	0,167
-197,533	709,247	0,077	0,148
-196,519	175,839	0,042	0,044
-195,504	481,817	-0,027	0,045
-194,490	277,395	-0,079	-0,102
-193,475	-145,091	-0,121	0,008
-192,460	800,000	0,044	0,093
-191,446	572,413	-0,064	-0,113
-190,431	50,327	0,064	0,044
-189,417	-44,881	-0,066	-0,024
-188,402	-135,356	-0,075	-0,006
-187,387	-113,896	-0,058	-0,008
-186,373	-200,000	-0,001	0,046
-185,358	-200,000	0,001	0,008
-184,344	-200,000	0,004	0,029
-183,329	109,096	-0,016	-0,014
-182,315	-81,100	0,146	0,035
-181,300	5,129	-0,064	-0,034
-180,285	-120,622	-0,138	-0,017
-179,271	393,545	-0,096	-0,146
-178,256	420,983	0,014	0,022
-177,242	800,000	-0,024	-0,061
-176,227	281,242	-0,022	0,029
-175,212	-200,000	0,003	0,049
-174,198	800,000	-0,062	-0,148
-173,183	800,000	-0,026	0,062
-172,169	-75,660	-0,105	0,027
-171,154	60,480	-0,109	0,078
-170,139	-14,623	-0,055	-0,025
-169,125	-124,290	0,144	-0,016
-168,110	-200,000	-0,021	0,154
-167,096	-10,867	-0,113	0,054
-166,081	800,000	0,010	0,029
-165,066	33,937	-0,129	-0,081
-164,052	-200,000	0,009	-0,129
-163,037	-27,199	-0,119	0,050
-162,023	31,886	0,030	0,018
-161,008	-200,000	0,008	0,057
-159,993	-107,675	0,031	0,005
-158,979	286,325	0,063	-0,082
-157,964	800,000	-0,012	-0,032
-156,950	285,298	-0,019	-0,025
-155,935	-200,000	0,020	-0,076
-154,920	114,437	0,081	0,071
-153,906	800,000	0,008	0,024
-152,891	-200,000	-0,012	0,063
-151,877	102,424	0,052	-0,044
-150,862	800,000	-0,034	-0,087
-149,847	102,459	-0,051	-0,043
-148,833	800,000	0,012	0,030
-147,818	105,204	0,074	0,063
-146,804	-200,000	-0,011	0,076
-145,789	-53,746	-0,084	0,028
-144,775	21,278	-0,060	-0,035
-143,760	470,423	-0,080	-0,131
-142,745	-152,036	-0,033	0,002
-141,731	-200,000	-0,001	-0,111
-140,716	-125,227	0,059	0,006
-139,702	800,000	-0,037	0,111
-138,687	121,946	0,061	0,055
-137,672	65,772	0,027	0,020
-136,658	-200,000	-0,006	0,069
-135,643	-200,000	0,010	-0,039
-134,629	-200,000	-0,006	0,033
-133,614	-109,083	0,067	0,010
-132,599	-87,645	0,122	0,026
-131,585	-27,308	0,073	-0,030
-130,570	-200,000	0,000	0,032
-129,556	800,000	-0,054	-0,112
-128,541	32,380	-0,115	-0,072
-127,526	89,671	0,059	0,048
-126,512	800,000	0,082	0,260
-125,497	-200,000	-0,004	0,091
-124,483	529,360	-0,059	0,100
-123,468	-117,239	0,135	-0,018
-122,453	166,682	-0,066	-0,067
-121,439	31,661	-0,029	0,018
-120,424	524,298	-0,100	-0,171
-119,410	800,000	0,066	0,145
