DTS Sentinel unit serial number:	SN410029Multiplexer serial number:	ORYXHardware model number:	OX2-SRSoftware version number:	ORYX F/W v4,00 Oryx Data Collector v3.7.2.0data status	okinstallation	B6 Nyhavnadifferential loss correction	single-endedforward channel	channel 2reverse channel	N/Adate	2023/12/09time	06:35:08forward acquisition time	300,00reverse acquisition time	0,00gamma	499,1914k internal	0,3140k external	0,3140temperature offset calibration	1,0000default loss term (dB/km)	0,3820temperature slope calibration	1,0000multiplexer offset coefficient	1,0000multiplexer slope coefficient	1,0000fibre end	0,00T internal ref (°C)	18,47T ext. ref 1 (°C)	2,25T ext. ref 2 (°C)	2,27length (m)	temperature (°C)	Stokes	anti-Stokes-744,400	-200,000	-0,011	-0,055
-743,385	-81,775	-0,265	0,064
-742,371	-162,993	0,216	-0,008
-741,356	5,051	-0,221	0,121
-740,342	-144,187	0,105	-0,007
-739,327	-175,911	-0,328	-0,006
-738,312	-39,181	0,053	0,020
-737,298	59,037	-0,122	0,089
-736,283	800,000	0,031	0,093
-735,269	-12,279	-0,280	0,135
-734,254	-65,035	0,180	0,053
-733,239	-74,003	-0,445	-0,119
-732,225	-68,515	0,104	-0,030
-731,210	-200,000	-0,005	0,026
-730,196	800,000	0,022	0,059
-729,181	-149,410	-0,121	-0,007
-728,167	-89,273	0,118	0,026
-727,152	493,877	0,033	-0,056
-726,137	128,269	-0,143	-0,135
-725,123	-120,234	-0,045	0,006
-724,108	-135,879	-0,131	0,011
-723,094	399,429	-0,072	-0,112
-722,079	-14,138	-0,162	-0,077
-721,064	-200,000	0,014	0,053
-720,050	-40,833	-0,109	0,041
-719,035	95,853	-0,090	-0,076
-718,021	268,527	-0,055	-0,071
-717,006	367,944	-0,071	-0,107
-715,991	82,617	-0,088	0,070
-714,977	73,201	-0,077	-0,060
-713,962	248,954	-0,031	0,039
-712,948	124,097	-0,046	-0,043
-711,933	-47,072	0,031	-0,011
-710,918	185,509	-0,049	0,054
-709,904	3,492	-0,080	-0,043
-708,889	254,503	0,026	-0,034
-707,875	800,000	-0,029	-0,073
-706,860	-102,760	-0,071	0,012
-705,845	380,177	0,067	-0,103
-704,831	-25,994	0,061	-0,027
-703,816	48,729	0,061	-0,042
-702,802	243,890	-0,136	-0,169
-701,787	-64,586	-0,128	-0,038
-700,772	-39,203	-0,149	-0,058
-699,758	-200,000	-0,011	-0,104
-698,743	-27,673	0,111	0,048
-697,729	-127,119	0,022	0,002
-696,714	8,376	-0,118	0,066
-695,699	800,000	-0,036	-0,080
-694,685	-96,567	-0,039	0,007
-693,670	-200,000	0,013	-0,189
-692,656	155,824	-0,023	-0,024
-691,641	40,648	0,071	-0,047
-690,627	173,560	-0,031	-0,033
-689,612	-200,000	-0,003	0,049
-688,597	2,079	0,049	0,026
-687,583	-100,751	0,060	0,011
-686,568	-200,000	-0,017	-0,165
-685,554	-102,721	-0,109	-0,019
-684,539	-200,000	0,001	0,016
-683,524	-141,730	-0,069	0,005
-682,510	280,048	0,033	-0,044
-681,495	-200,000	-0,035	0,145
-680,481	120,160	-0,035	-0,032
-679,466	690,439	-0,007	0,013
-678,451	-200,000	0,002	-0,037
-677,437	-3,952	-0,027	0,014
-676,422	402,707	0,092	0,143
-675,408	-116,886	-0,127	0,017
-674,393	267,994	-0,034	0,044
-673,378	206,496	-0,056	-0,064
-672,364	-122,906	0,035	-0,004
-671,349	-200,000	-0,006	-0,096
-670,335	-200,000	-0,021	-0,161
-669,320	-200,000	-0,002	-0,077
-668,305	-133,408	0,092	0,008
-667,291	55,823	0,097	-0,069
-666,276	-38,329	-0,025	0,010
-665,262	72,141	-0,086	-0,066
-664,247	-86,147	-0,074	0,017
-663,232	-200,000	-0,009	-0,111
-662,218	-25,621	-0,097	0,042
-661,203	800,000	-0,026	-0,054
-660,189	675,323	-0,029	0,055
-659,174	0,903	-0,068	-0,036
-658,159	800,000	0,049	0,155
-657,145	800,000	0,010	-0,031
-656,130	-40,248	-0,050	-0,019
-655,116	593,742	-0,040	0,073
-654,101	153,608	-0,101	0,102
-653,086	-200,000	0,027	-0,097
-652,072	-200,000	-0,018	-0,098
-651,057	-29,260	0,063	0,026
-650,043	155,566	0,077	-0,079
-649,028	-200,000	-0,003	-0,109
-648,014	800,000	0,035	-0,081
-646,999	111,771	0,086	0,076
-645,984	-65,318	-0,057	0,017
-644,970	-73,040	0,100	0,027
-643,955	-19,566	-0,123	-0,056
-642,941	90,643	-0,011	-0,009
-641,926	-25,087	-0,137	-0,060
-640,911	-71,116	0,034	0,009
-639,897	-92,541	0,073	-0,015
-638,882	98,584	-0,071	-0,061
-637,868	108,083	-0,090	-0,079
-636,853	61,606	-0,129	-0,094
-635,838	800,000	0,055	0,151
-634,824	-200,000	0,031	-0,149
-633,809	100,416	0,147	0,126
-632,795	-60,649	-0,026	0,008
-631,780	-200,000	-0,003	0,041
-630,765	800,000	0,048	-0,139
-629,751	-200,000	0,005	-0,028
-628,736	-38,721	-0,153	0,059
-627,722	800,000	-0,019	0,041
-626,707	-96,093	0,159	-0,031
-625,692	177,722	0,083	0,090
-624,678	114,578	-0,022	0,020
-623,663	686,703	-0,029	-0,056
-622,649	-41,280	-0,125	0,047
-621,634	-200,000	-0,003	-0,127
-620,619	138,350	0,066	-0,064
-619,605	-102,406	0,061	-0,011
-618,590	-5,700	-0,088	-0,044
-617,576	53,413	0,082	-0,058
-616,561	-200,000	-0,003	0,013
-615,546	800,000	-0,041	-0,083
-614,532	96,837	-0,046	0,039
-613,517	350,990	-0,029	0,042
-612,503	119,454	0,065	-0,059
-611,488	226,672	-0,081	0,097
-610,474	47,353	-0,096	0,066
-609,459	-127,136	0,049	0,005
-608,444	-22,169	-0,169	-0,076
-607,430	132,976	0,064	-0,061
-606,415	-200,000	-0,013	-0,062
-605,401	113,440	-0,039	0,035
-604,386	-200,000	-0,013	0,114
-603,371	-200,000	0,004	0,077
-602,357	800,000	0,065	-0,154
-601,342	800,000	0,037	-0,113
-600,328	-200,000	-0,020	-0,201
-599,313	106,780	-0,082	-0,071
-598,298	-64,479	0,085	0,025
-597,284	-200,000	-0,030	0,103
-596,269	-131,016	0,117	-0,011
-595,255	765,525	-0,040	0,081
-594,240	249,110	0,037	-0,046
-593,225	-62,097	-0,288	-0,088
-592,211	-200,000	-0,030	-0,134
-591,196	-133,918	0,044	-0,004
-590,182	-200,000	-0,001	0,018
-589,167	-35,619	0,173	0,069
-588,152	147,102	0,043	-0,042
-587,138	50,162	-0,099	-0,069
-586,123	-147,089	-0,090	0,006
-585,109	269,592	-0,037	0,048
-584,094	697,867	-0,066	0,129
-583,079	127,146	0,115	0,108
-582,065	222,592	0,040	0,048
-581,050	382,264	0,029	0,045
-580,036	-200,000	-0,017	-0,130
-579,021	197,623	-0,114	-0,128
-578,006	-200,000	0,000	-0,067
-576,992	98,024	-0,051	-0,043
-575,977	-6,306	0,094	0,047
-574,963	-141,648	-0,079	-0,006
-573,948	-119,366	-0,033	-0,004
-572,934	9,240	-0,099	-0,055
-571,919	126,577	-0,018	-0,017
-570,904	32,058	-0,148	0,094
-569,890	434,779	-0,051	-0,082
-568,875	-47,726	0,155	0,055
-567,861	-66,798	0,092	-0,027
-566,846	-10,306	0,098	0,048
-565,831	110,225	0,054	0,048
-564,817	390,148	-0,037	-0,056
-563,802	172,649	0,039	0,041
-562,788	-200,000	-0,030	0,124
-561,773	-0,963	-0,046	0,024
-560,758	172,081	0,065	-0,069
-559,744	-200,000	0,048	-0,189
-558,729	-98,646	-0,085	-0,016
-557,715	70,508	0,023	-0,018
-556,700	431,545	0,065	-0,104
-555,685	22,607	-0,099	0,059
-554,671	140,260	0,081	0,079
-553,656	71,209	0,036	0,027
-552,642	26,801	0,057	-0,035
-551,627	190,301	-0,088	0,098
-550,612	218,563	-0,038	-0,045
-549,598	-76,914	-0,098	-0,025
-548,583	-70,642	0,040	0,011
-547,569	-140,386	-0,143	-0,011
-546,554	-130,616	0,025	0,002
-545,539	175,110	-0,057	-0,060
-544,525	800,000	0,094	0,250
-543,510	-22,178	0,033	0,015
-542,496	-200,000	0,010	-0,200
-541,481	-142,117	0,106	-0,008
-540,466	-6,930	0,032	0,016
-539,452	-200,000	-0,008	0,074
-538,437	370,995	0,027	-0,041
-537,423	271,443	-0,046	-0,060
-536,408	-164,322	-0,102	0,003
-535,393	-200,000	0,006	-0,022
-534,379	-200,000	-0,009	-0,039
-533,364	180,483	0,095	-0,103
-532,350	-147,528	0,126	0,008
-531,335	-114,322	-0,087	0,012
-530,321	60,057	-0,055	-0,040
-529,306	443,476	-0,094	0,152
-528,291	-200,000	-0,001	0,018
-527,277	164,067	0,042	0,043
-526,262	536,540	0,040	-0,070
-525,248	-200,000	0,024	0,087
-524,233	-78,310	0,135	-0,034
-523,218	-126,022	-0,123	-0,013
-522,204	401,902	0,037	-0,058
-521,189	303,955	-0,025	-0,035
-520,175	-166,317	-0,044	0,001
-519,160	-200,000	0,012	-0,178
-518,145	4,377	0,149	-0,080
-517,131	-75,218	-0,064	-0,017
-516,116	517,800	0,081	0,140
-515,102	27,237	-0,031	-0,019
-514,087	-187,604	0,072	0,001
-513,072	-169,989	-0,078	0,002
-512,058	-200,000	-0,007	-0,089
-511,043	-94,786	0,084	0,017
-510,029	800,000	-0,010	-0,027
-509,014	-200,000	0,028	0,099
-507,999	-200,000	-0,002	0,132
-506,985	-86,460	0,052	-0,012
-505,970	164,602	0,023	-0,024
-504,956	800,000	-0,067	-0,175
-503,941	-46,087	-0,099	-0,035
-502,926	229,839	0,076	0,092
-501,912	-36,507	-0,082	0,032
-500,897	-200,000	0,024	0,087
-499,883	149,469	0,070	-0,070
-498,868	-131,228	0,062	0,006
-497,853	98,992	-0,039	0,033
-496,839	-28,569	-0,049	-0,021
-495,824	178,724	0,032	-0,034
-494,810	66,310	-0,022	0,017
-493,795	800,000	-0,066	0,177
-492,781	527,057	-0,017	0,030
-491,766	-47,038	-0,068	0,024
-490,751	224,752	0,011	0,013
-489,737	26,650	0,069	-0,042
-488,722	-58,211	0,187	0,059
-487,708	196,989	0,112	0,126
-486,693	-200,000	-0,019	0,088
-485,678	-200,000	-0,022	0,105
-484,664	30,244	0,071	-0,045
-483,649	-115,576	-0,091	0,012
-482,635	-200,000	-0,018	-0,083
-481,620	-200,000	-0,001	0,059
-480,605	34,821	0,136	-0,087
-479,591	800,000	-0,043	-0,091
-478,576	800,000	0,032	-0,102
-477,562	-122,310	0,056	0,007
-476,547	-200,000	-0,004	-0,113
-475,532	541,027	0,031	-0,054
-474,518	800,000	0,043	-0,120
-473,503	268,116	-0,050	-0,064
-472,489	-24,673	0,077	0,033
-471,474	62,093	0,136	0,099
-470,459	152,064	0,004	0,004
-469,445	-200,000	-0,002	-0,016
-468,430	51,496	-0,080	0,055
-467,416	-200,000	-0,041	0,169
-466,401	422,336	0,045	-0,072
-465,386	68,728	0,039	0,030
-464,372	-200,000	0,023	0,113
-463,357	71,733	0,078	-0,060
-462,343	-36,998	-0,113	-0,044
-461,328	129,014	0,031	0,029
-460,313	133,984	-0,084	-0,080
-459,299	-4,293	0,074	0,038
-458,284	800,000	0,029	-0,067
-457,270	497,562	-0,038	-0,064
-456,255	90,291	-0,071	-0,058
-455,241	-200,000	0,016	-0,067
-454,226	-171,257	-0,181	-0,004
-453,211	266,762	-0,041	-0,052
-452,197	359,674	-0,085	0,126
-451,182	230,143	-0,093	0,111
-450,168	-72,937	-0,085	-0,023
-449,153	105,796	0,179	-0,155
-448,138	359,730	-0,028	0,041
-447,124	39,760	0,027	0,018
-446,109	-0,938	0,089	-0,046
-445,095	-200,000	-0,001	0,057
-444,080	40,150	0,067	-0,044
-443,065	-200,000	-0,000	0,092
-442,051	800,000	-0,036	-0,090
-441,036	108,380	0,036	-0,032
-440,022	-160,092	-0,029	0,001
-439,007	166,068	-0,099	0,103
-437,992	30,186	0,067	0,042
-436,978	325,098	0,051	-0,071
-435,963	800,000	0,057	0,180
-434,949	-200,000	0,001	-0,035
-433,934	-200,000	-0,001	-0,050
-432,919	70,408	0,070	-0,053
-431,905	-200,000	0,013	-0,059
-430,890	34,832	0,066	0,042
-429,876	52,648	0,107	-0,075
-428,861	-200,000	0,015	0,158
-427,846	566,060	0,074	0,131
-426,832	147,553	-0,072	-0,071
-425,817	-44,903	-0,061	-0,022
-424,803	-200,000	0,013	-0,162
-423,788	-14,446	-0,097	-0,045
-422,773	5,100	0,011	-0,006
-421,759	680,220	0,043	-0,082
-420,744	-200,000	0,002	-0,072
-419,730	42,996	-0,055	0,037
-418,715	211,308	-0,027	0,032
-417,701	88,123	0,088	-0,071
-416,686	-103,887	-0,122	-0,021
-415,671	168,746	0,012	0,013
-414,657	209,895	-0,063	0,073
-413,642	129,231	-0,035	-0,033
-412,628	-200,000	-0,009	-0,125
-411,613	216,763	0,038	-0,045
-410,598	-200,000	-0,003	0,052
-409,584	-60,970	-0,060	-0,018
-408,569	800,000	0,030	0,093
-407,555	-6,832	0,073	-0,036
-406,540	800,000	0,011	0,028
-405,525	800,000	0,025	-0,054
-404,511	-200,000	0,060	-0,222
-403,496	550,389	-0,070	-0,123
-402,482	-200,000	-0,002	-0,032
-401,467	-200,000	0,013	0,100
-400,452	94,304	0,033	-0,028
-399,438	161,666	-0,043	-0,044
-398,423	509,524	0,013	-0,022
-397,409	515,840	0,020	0,034
-396,394	800,000	0,042	-0,098
-395,379	23,550	-0,035	-0,021
-394,365	800,000	-0,021	-0,054
-393,350	-200,000	-0,004	0,064
-392,336	307,489	-0,047	0,064
-391,321	8,304	0,133	0,073
-390,306	271,802	-0,086	-0,111
-389,292	60,916	0,017	-0,012
-388,277	-81,356	0,128	0,031
-387,263	-22,082	0,112	0,050
-386,248	-200,000	0,003	-0,061
-385,233	-96,423	0,068	0,013
-384,219	210,503	-0,045	-0,052
-383,204	800,000	-0,006	0,014
-382,190	-69,047	-0,086	0,024
-381,175	64,087	0,065	-0,048
-380,160	-200,000	-0,011	0,223
-379,146	-102,324	0,123	0,021
-378,131	800,000	-0,020	-0,043
-377,117	765,534	-0,039	-0,079
-376,102	-187,919	-0,085	0,001
-375,088	32,426	-0,111	-0,070
-374,073	-200,000	0,008	-0,069
-373,058	-200,000	-0,010	0,034
-372,044	23,793	0,099	-0,059
-371,029	-200,000	0,000	0,039
-370,015	200,885	-0,026	0,029
-369,000	15,407	0,052	0,030
-367,985	-132,716	-0,092	-0,008
-366,971	-200,000	-0,008	-0,081
-365,956	224,561	-0,049	0,058
-364,942	185,395	0,024	-0,026
-363,927	-33,099	0,061	0,025
-362,912	-200,000	-0,023	0,124
-361,898	800,000	-0,022	-0,062
-360,883	800,000	0,030	-0,076
-359,869	-127,680	-0,158	-0,016
-358,854	-200,000	-0,005	0,128
-357,839	667,598	-0,017	0,032
-356,825	-42,371	-0,089	-0,033
-355,810	-200,000	-0,006	0,105
-354,796	110,446	-0,090	0,079
-353,781	-200,000	0,022	-0,107
-352,766	800,000	-0,029	0,068
-351,752	-48,073	-0,083	0,029
-350,737	800,000	0,029	0,066
-349,723	-105,856	0,063	-0,010
-348,708	-107,885	-0,021	-0,003
-347,693	331,052	-0,109	0,154
-346,679	800,000	0,007	-0,014
-345,664	505,576	-0,063	0,107
-344,650	-200,000	-0,004	-0,036
-343,635	-42,161	0,153	0,057
-342,620	195,077	0,037	0,042
-341,606	-67,915	-0,056	-0,016
-340,591	800,000	-0,036	-0,084
-339,577	800,000	0,054	-0,141
-338,562	-179,279	-0,023	-0,000
-337,548	344,637	0,061	0,087
-336,533	150,364	0,050	0,049
-335,518	-27,377	0,187	0,079
-334,504	348,979	0,046	0,066
-333,489	193,152	-0,074	0,082
-332,475	674,829	0,085	-0,162
-331,460	800,000	0,031	-0,080
-330,445	125,683	-0,088	0,081
-329,431	75,622	-0,017	0,013
-328,416	617,495	0,052	0,096
-327,402	-200,000	-0,022	0,218
-326,387	521,404	-0,098	-0,168
-325,372	-200,000	-0,021	0,090
-324,358	77,408	-0,025	0,020
-323,343	800,000	-0,022	-0,068
-322,329	480,417	-0,035	-0,058
-321,314	16,924	-0,033	-0,019
-320,299	234,035	0,031	-0,037
-319,285	-17,670	0,041	0,019
-318,270	800,000	0,016	-0,048
-317,256	800,000	-0,038	-0,105
-316,241	-200,000	-0,004	-0,054
-315,226	-35,129	-0,171	-0,068
-314,212	81,741	0,113	0,089
-313,197	75,928	0,055	-0,042
-312,183	-200,000	0,008	0,261
-311,168	-200,000	0,004	-0,012
-310,153	565,157	0,070	-0,125
-309,139	15,297	-0,039	0,022
-308,124	800,000	-0,073	0,194
-307,110	-120,910	0,123	0,015
-306,095	483,076	-0,022	-0,037
-305,080	800,000	-0,016	0,042
-304,066	-200,000	0,024	0,118
-303,051	-2,196	0,010	0,005
-302,037	70,545	0,034	0,025
-301,022	-200,000	-0,001	-0,046
-300,008	-200,000	0,009	-0,047
-298,993	789,796	0,035	0,070
-297,978	-200,000	-0,023	0,124
-296,964	-137,316	-0,039	-0,003
-295,949	-200,000	0,013	0,069
-294,935	-51,404	-0,079	0,027
-293,920	-200,000	0,012	0,099
-292,905	-200,000	-0,023	0,086
-291,891	554,350	0,050	0,087
-290,876	-67,388	-0,080	0,023
-289,862	-200,000	-0,001	0,104
-288,847	-65,009	-0,117	0,034
-287,832	255,360	0,029	0,036
-286,818	-25,074	0,066	0,028
-285,803	460,558	0,054	-0,088
-284,789	-200,000	-0,001	-0,056
-283,774	-128,072	-0,088	-0,009
-282,759	-200,000	-0,014	-0,138
-281,745	601,585	0,101	-0,184
-280,730	523,431	-0,020	-0,035
-279,716	-200,000	0,019	-0,105
-278,701	-31,316	0,137	-0,056
-277,686	466,286	0,033	-0,054
-276,672	357,590	0,060	0,087
-275,657	-200,000	-0,033	0,120
-274,643	55,272	-0,029	0,020
-273,628	317,902	0,035	-0,049
-272,613	-200,000	-0,018	-0,063
-271,599	-69,613	-0,173	0,048
-270,584	-200,000	0,009	0,137
-269,570	-200,000	0,013	0,088
-268,555	-200,000	0,019	-0,113
-267,540	800,000	-0,031	-0,076
-266,526	-72,207	-0,108	0,029
-265,511	20,550	0,077	0,045
-264,497	-104,624	0,070	0,012
-263,482	235,083	0,038	0,046
-262,467	-150,820	0,161	-0,009
-261,453	12,841	-0,088	0,050
-260,438	-200,000	-0,000	0,028
-259,424	221,523	-0,083	-0,097
-258,409	-200,000	-0,004	-0,025
-257,395	-117,670	-0,041	-0,005
-256,380	-200,000	0,014	-0,066
-255,365	-200,000	0,015	0,063
-254,351	472,403	-0,089	-0,146
-253,336	49,731	-0,128	0,087
-252,322	326,729	0,015	-0,020
-251,307	720,131	0,035	0,068
-250,292	-133,649	0,193	0,017
-249,278	-200,000	0,025	0,122
-248,263	13,759	-0,064	-0,036
-247,249	800,000	0,019	0,041
-246,234	94,118	-0,055	-0,045
-245,219	263,455	-0,075	0,096
-244,205	317,783	-0,059	0,082
-243,190	381,078	0,060	0,089
-242,176	325,375	-0,083	0,116
-241,161	301,457	0,097	0,130
-240,146	366,009	-0,071	0,104
-239,132	488,412	-0,038	-0,064
-238,117	11,494	0,047	-0,026
-237,103	68,378	-0,054	-0,041
-236,088	-200,000	-0,038	0,000
-235,073	-68,844	0,098	0,027
-234,059	800,000	-0,017	0,039
-233,044	-200,000	-0,007	0,117
-232,030	-4,241	0,032	0,016
-231,015	-11,177	0,018	0,008
-230,000	116,481	0,018	-0,016
-228,986	53,759	0,012	-0,008
-227,971	0,640	0,148	0,077
-226,957	41,005	-0,091	-0,060
-225,942	199,703	0,074	0,082
-224,927	60,417	-0,075	0,054
-223,913	-200,000	-0,010	-0,092
-222,898	44,746	-0,090	-0,060
-221,884	-184,850	0,051	0,001
-220,869	800,000	0,053	-0,153
-219,855	199,964	-0,038	-0,043
-218,840	-200,000	-0,012	0,074
-217,825	392,340	-0,053	-0,081
-216,811	-120,163	-0,221	0,027
-215,796	71,010	0,078	-0,059
-214,782	580,968	0,036	-0,064
-213,767	138,198	0,054	0,051
-212,752	-93,123	0,142	0,028
-211,738	250,999	0,073	0,090
-210,723	-137,654	-0,037	-0,003
-209,709	-200,000	0,006	0,024
-208,694	-107,409	-0,089	-0,014
-207,679	231,765	-0,042	-0,050
-206,665	-94,896	0,137	0,027
-205,650	-200,000	0,002	0,062
-204,636	185,177	0,108	0,117
-203,621	111,845	-0,101	0,088
-202,606	135,696	0,134	0,127
-201,592	239,778	-0,116	-0,141
-200,577	800,000	-0,072	0,149
-199,563	-152,655	0,092	0,005
-198,548	-200,000	0,016	-0,059
-197,533	-200,000	-0,008	-0,047
-196,519	230,148	-0,156	-0,186
-195,504	-200,000	-0,012	-0,097
-194,490	-200,000	-0,019	0,094
-193,475	800,000	-0,018	0,053
-192,460	-93,343	-0,062	-0,012
-191,446	800,000	0,028	0,077
-190,431	-200,000	-0,016	-0,115
-189,417	176,022	0,024	-0,025
-188,402	-200,000	0,008	0,097
-187,387	213,947	0,030	-0,034
-186,373	-200,000	0,012	-0,038
-185,358	-91,039	0,025	-0,005
-184,344	638,069	0,045	0,083
-183,329	-200,000	0,036	0,152
-182,315	19,519	0,022	0,013
-181,300	394,256	-0,050	-0,075
-180,285	-61,410	-0,075	-0,023
-179,271	-200,000	0,006	0,038
-178,256	-200,000	0,006	0,048
-177,242	-116,481	-0,093	-0,012
-176,227	-43,415	0,038	-0,014
-175,212	800,000	0,032	-0,082
-174,198	-200,000	-0,008	0,030
-173,183	-23,133	-0,055	-0,024
-172,169	-200,000	-0,015	0,050
-171,154	800,000	-0,012	-0,026
-170,139	110,784	0,100	0,087
-169,125	-88,204	0,019	-0,004
-168,110	136,993	0,062	0,059
-167,096	800,000	-0,049	-0,129
-166,081	53,344	-0,089	-0,062
-165,066	-20,191	-0,042	-0,019
-164,052	89,136	-0,067	-0,054
-163,037	-200,000	-0,014	0,067
-162,023	558,365	0,070	-0,123
-161,008	800,000	-0,053	-0,136
-159,993	420,701	0,069	0,107
-158,979	800,000	-0,018	0,042
-157,964	129,411	0,076	-0,070
-156,950	800,000	-0,029	0,072
-155,935	-3,855	0,058	-0,029
-154,920	688,791	-0,048	-0,092
-153,906	-200,000	0,000	0,118
-152,891	4,643	0,090	0,048
-151,877	202,607	-0,065	0,073
-150,862	-200,000	-0,001	0,058
-149,847	366,202	0,085	-0,124
-148,833	492,678	0,108	-0,180
-147,818	74,396	-0,097	-0,074
-146,804	800,000	0,045	0,113
-145,789	-200,000	0,027	0,099
-144,775	465,416	-0,032	-0,052
-143,760	800,000	-0,008	-0,023
-142,745	-85,989	-0,100	-0,022
-141,731	603,751	-0,024	-0,044
-140,716	-170,542	-0,134	-0,003
-139,702	-88,198	0,117	-0,025
-138,687	429,708	-0,032	0,050
-137,672	18,090	0,064	-0,037
-136,658	-157,580	-0,106	-0,005
-135,643	-200,000	0,006	0,024
-134,629	-21,545	-0,056	-0,025
-133,614	-103,607	0,056	-0,009
-132,599	-69,342	0,183	-0,050
-131,585	-10,182	-0,040	-0,019
-130,570	-42,447	-0,167	0,061
-129,556	33,835	-0,040	-0,025
-128,541	-200,000	-0,014	0,083
-127,526	641,328	0,066	-0,122
-126,512	-126,092	-0,040	-0,004
-125,497	-161,816	-0,112	0,004
-124,483	341,626	0,037	-0,053
-123,468	-200,000	-0,008	0,084
-122,453	59,651	-0,099	-0,071
-121,439	430,058	0,042	-0,066
-120,424	652,241	-0,034	0,063
