DTS Sentinel unit serial number:	SN410029Multiplexer serial number:	ORYXHardware model number:	OX2-SRSoftware version number:	ORYX F/W v4,00 Oryx Data Collector v3.7.2.0data status	okinstallation	B6 Nyhavnadifferential loss correction	single-endedforward channel	channel 2reverse channel	N/Adate	2023/12/09time	21:40:08forward acquisition time	300,00reverse acquisition time	0,00gamma	499,1914k internal	0,3127k external	0,3127temperature offset calibration	1,0000default loss term (dB/km)	0,3820temperature slope calibration	1,0000multiplexer offset coefficient	1,0000multiplexer slope coefficient	1,0000fibre end	0,00T internal ref (°C)	21,58T ext. ref 1 (°C)	5,43T ext. ref 2 (°C)	5,43length (m)	temperature (°C)	Stokes	anti-Stokes-744,400	167,310	0,123	-0,130
-743,385	-104,871	-0,238	0,040
-742,371	-114,253	-0,077	-0,011
-741,356	95,272	-0,224	0,190
-740,342	800,000	-0,046	0,104
-739,327	-167,572	-0,246	0,007
-738,312	87,990	-0,097	-0,080
-737,298	189,223	-0,134	0,150
-736,283	800,000	0,051	0,117
-735,269	111,942	-0,211	0,190
-734,254	6,335	0,042	-0,023
-733,239	-109,723	-0,360	0,056
-732,225	58,549	0,114	0,083
-731,210	15,285	-0,116	-0,068
-730,196	217,694	-0,034	0,040
-729,181	-41,178	-0,097	-0,037
-728,167	-200,000	-0,012	-0,046
-727,152	800,000	0,039	0,081
-726,137	77,994	-0,095	-0,075
-725,123	800,000	-0,024	0,070
-724,108	-146,694	-0,160	0,010
-723,094	-200,000	0,024	-0,210
-722,079	187,196	0,045	-0,049
-721,064	-200,000	-0,000	-0,005
-720,050	33,792	-0,112	-0,072
-719,035	132,075	-0,077	-0,074
-718,021	-200,000	0,006	-0,036
-717,006	-93,024	-0,247	-0,051
-715,991	482,177	-0,044	0,074
-714,977	800,000	0,063	-0,147
-713,962	-161,569	-0,072	-0,003
-712,948	-73,054	0,049	0,013
-711,933	-103,103	-0,228	0,040
-710,918	79,968	-0,081	0,064
-709,904	-101,911	-0,104	-0,018
-708,889	-43,516	-0,056	0,021
-707,875	-154,569	-0,077	0,004
-706,860	609,079	0,032	0,060
-705,845	-145,420	-0,098	-0,006
-704,831	-200,000	-0,006	-0,026
-703,816	-200,000	-0,002	0,031
-702,802	-4,820	0,131	-0,067
-701,787	-178,703	-0,110	0,002
-700,772	-200,000	-0,027	-0,180
-699,758	800,000	-0,025	0,055
-698,743	249,404	0,026	-0,033
-697,729	175,072	0,073	-0,079
-696,714	-44,027	0,059	0,022
-695,699	776,451	-0,050	-0,101
-694,685	-105,054	-0,074	0,012
-693,670	-128,882	-0,017	0,002
-692,656	-42,439	-0,085	0,032
-691,641	91,460	0,021	0,017
-690,627	-17,868	0,061	0,029
-689,612	119,194	-0,110	0,101
-688,597	800,000	-0,054	-0,154
-687,583	-155,348	-0,064	-0,003
-686,568	21,074	0,025	0,015
-685,554	-200,000	-0,019	-0,173
-684,539	-20,617	-0,088	0,040
-683,524	30,393	-0,050	-0,032
-682,510	-200,000	-0,023	0,114
-681,495	552,214	-0,117	-0,209
-680,481	138,228	-0,173	-0,169
-679,466	800,000	-0,021	-0,045
-678,451	375,132	-0,058	-0,088
-677,437	800,000	-0,034	0,077
-676,422	97,220	-0,046	0,039
-675,408	52,054	-0,039	-0,028
-674,393	191,731	0,008	0,009
-673,378	-63,119	0,131	-0,040
-672,364	138,405	-0,123	-0,120
-671,349	-200,000	0,007	-0,026
-670,335	75,680	0,087	0,068
-669,320	538,211	0,041	-0,073
-668,305	566,632	-0,021	-0,038
-667,291	184,087	0,042	0,046
-666,276	-176,146	-0,157	-0,003
-665,262	-200,000	0,013	-0,203
-664,247	-200,000	0,012	-0,074
-663,232	800,000	-0,037	-0,107
-662,218	68,974	-0,107	0,081
-661,203	-200,000	0,026	0,108
-660,189	-43,040	-0,046	-0,017
-659,174	-87,878	-0,025	0,006
-658,159	-55,615	-0,067	0,022
-657,145	52,321	-0,066	-0,046
-656,130	64,966	0,120	0,090
-655,116	-19,385	0,024	0,011
-654,101	-200,000	0,002	-0,031
-653,086	800,000	-0,010	0,031
-652,072	-147,644	-0,125	0,008
-651,057	-200,000	0,001	-0,101
-650,043	-112,996	-0,044	-0,006
-649,028	133,767	-0,097	0,093
-648,014	-200,000	-0,008	0,053
-646,999	-109,811	0,089	0,014
-645,984	47,992	0,019	-0,013
-644,970	-28,245	-0,083	0,035
-643,955	77,386	-0,099	-0,078
-642,941	730,032	0,080	-0,160
-641,926	19,592	-0,123	-0,073
-640,911	-88,648	-0,073	0,016
-639,897	258,631	-0,056	0,072
-638,882	109,310	0,105	0,093
-637,868	98,170	-0,142	-0,121
-636,853	800,000	-0,089	-0,182
-635,838	457,833	-0,053	-0,087
-634,824	97,735	0,019	-0,016
-633,809	-133,925	-0,091	0,008
-632,795	800,000	0,015	-0,045
-631,780	-200,000	-0,003	0,122
-630,765	10,940	-0,088	0,050
-629,751	-200,000	-0,011	-0,121
-628,736	-200,000	0,003	-0,014
-627,722	529,253	0,044	0,077
-626,707	-103,554	-0,160	-0,028
-625,692	363,399	-0,020	0,031
-624,678	37,789	-0,093	-0,061
-623,663	-114,935	-0,095	0,013
-622,649	-200,000	0,005	0,061
-621,634	-125,687	-0,085	0,009
-620,619	518,698	0,081	-0,141
-619,605	-200,000	0,035	-0,168
-618,590	121,070	-0,135	0,125
-617,576	-119,089	0,105	0,013
-616,561	-200,000	0,020	-0,231
-615,546	-53,706	-0,112	0,037
-614,532	-200,000	-0,001	-0,055
-613,517	303,742	-0,037	-0,051
-612,503	-200,000	0,020	-0,078
-611,488	800,000	-0,030	0,095
-610,474	462,715	0,043	0,071
-609,459	-200,000	0,003	0,064
-608,444	-72,550	-0,092	0,025
-607,430	370,100	-0,074	0,111
-606,415	-138,931	-0,082	-0,006
-605,401	-67,454	0,088	-0,025
-604,386	156,230	-0,060	0,062
-603,371	-200,000	-0,010	-0,088
-602,357	568,985	-0,048	0,087
-601,342	-13,471	-0,104	-0,050
-600,328	-200,000	0,022	-0,173
-599,313	23,007	0,087	-0,053
-598,298	-40,181	-0,087	0,033
-597,284	272,077	-0,091	-0,120
-596,269	219,551	-0,085	0,101
-595,255	-200,000	0,006	-0,089
-594,240	-200,000	-0,003	-0,070
-593,225	-158,838	-0,195	-0,008
-592,211	-9,705	-0,151	-0,074
-591,196	380,143	-0,013	-0,020
-590,182	-200,000	0,028	0,185
-589,167	27,886	-0,056	0,035
-588,152	29,845	-0,013	-0,008
-587,138	-116,143	-0,080	0,011
-586,123	-137,984	0,061	-0,005
-585,109	800,000	-0,024	-0,062
-584,094	800,000	0,031	-0,074
-583,079	800,000	-0,043	-0,114
-582,065	-129,350	-0,131	-0,013
-581,050	501,689	0,059	-0,101
-580,036	-200,000	-0,021	0,077
-579,021	-200,000	-0,005	-0,040
-578,006	153,676	-0,088	-0,090
-576,992	241,578	0,034	-0,042
-575,977	800,000	-0,013	0,030
-574,963	51,088	0,096	0,067
-573,948	-38,713	-0,084	0,033
-572,934	92,476	0,054	0,045
-571,919	226,574	0,125	-0,150
-570,904	-182,997	-0,090	-0,001
-569,890	800,000	-0,045	-0,111
-568,875	-30,193	-0,039	-0,016
-567,861	-200,000	0,007	0,139
-566,846	-200,000	-0,055	0,211
-565,831	-200,000	-0,024	0,142
-564,817	-127,700	-0,094	0,010
-563,802	20,428	-0,090	-0,053
-562,788	315,259	0,089	-0,125
-561,773	196,468	-0,054	0,061
-560,758	233,170	0,057	-0,069
-559,744	550,737	0,055	-0,097
-558,729	247,917	-0,076	0,095
-557,715	-105,781	-0,042	-0,007
-556,700	-69,867	-0,106	-0,030
-555,685	-79,951	-0,141	-0,035
-554,671	-200,000	-0,004	-0,083
-553,656	-124,750	-0,039	0,004
-552,642	-3,123	0,087	0,045
-551,627	800,000	0,012	0,029
-550,612	-200,000	-0,024	-0,130
-549,598	-80,609	-0,068	0,017
-548,583	800,000	0,063	-0,163
-547,569	-200,000	-0,009	-0,074
-546,554	454,097	0,045	-0,073
-545,539	-56,812	0,081	0,026
-544,525	411,043	-0,011	0,017
-543,510	130,876	0,088	0,084
-542,496	-102,567	0,114	0,020
-541,481	-200,000	0,015	-0,080
-540,466	-200,000	-0,012	0,107
-539,452	-66,776	0,052	-0,015
-538,437	474,847	0,053	-0,089
-537,423	-200,000	-0,018	0,080
-536,408	333,000	-0,053	-0,076
-535,393	244,139	0,052	-0,065
-534,379	153,411	-0,056	-0,057
-533,364	-27,998	-0,046	-0,020
-532,350	-113,629	-0,042	-0,006
-531,335	351,298	0,041	-0,061
-530,321	415,664	0,051	-0,081
-529,306	300,023	-0,024	-0,033
-528,291	329,805	-0,082	-0,117
-527,277	-200,000	-0,015	-0,108
-526,262	800,000	0,057	-0,179
-525,248	-69,948	-0,014	-0,004
-524,233	-31,352	-0,114	-0,047
-523,218	-79,799	-0,071	-0,018
-522,204	800,000	-0,025	0,080
-521,189	2,842	-0,130	-0,069
-520,175	-200,000	0,004	-0,039
-519,160	-75,920	0,065	0,017
-518,145	800,000	-0,028	0,076
-517,131	800,000	0,069	0,149
-516,116	270,006	-0,022	0,029
-515,102	196,040	0,037	0,041
-514,087	109,111	-0,092	-0,081
-513,072	337,844	-0,021	0,030
-512,058	-126,761	0,030	0,003
-511,043	-200,000	-0,011	0,074
-510,029	15,089	-0,076	0,044
-509,014	-53,319	-0,127	0,043
-507,999	-129,168	0,110	-0,011
-506,985	-188,814	-0,073	0,001
-505,970	305,812	0,058	0,080
-504,956	-198,332	-0,103	0,000
-503,941	57,599	0,069	0,050
-502,926	140,982	0,047	0,045
-501,912	-140,187	0,107	0,008
-500,897	-200,000	-0,021	-0,119
-499,883	55,169	0,042	-0,030
-498,868	800,000	-0,025	-0,066
-497,853	221,300	-0,090	-0,107
-496,839	-200,000	-0,003	-0,112
-495,824	-8,427	0,106	-0,052
-494,810	-200,000	-0,002	0,110
-493,795	276,611	0,036	0,048
-492,781	148,319	0,088	-0,088
-491,766	-22,989	0,018	0,008
-490,751	262,271	-0,097	0,124
-489,737	-100,008	-0,050	-0,009
-488,722	48,155	-0,036	0,025
-487,708	239,867	0,133	0,163
-486,693	145,502	0,057	0,057
-485,678	111,770	0,059	0,052
-484,664	-40,419	0,115	-0,044
-483,649	-140,052	-0,120	-0,009
-482,635	-114,273	-0,101	-0,014
-481,620	800,000	-0,066	0,191
-480,605	800,000	0,073	0,161
-479,591	162,621	-0,095	0,098
-478,576	800,000	-0,008	-0,016
-477,562	-26,536	0,051	0,022
-476,547	800,000	0,006	0,015
-475,532	-200,000	-0,026	-0,157
-474,518	-116,141	0,053	0,007
-473,503	-200,000	-0,040	0,159
-472,489	-200,000	0,015	0,241
-471,474	65,518	-0,110	-0,082
-470,459	-14,286	0,066	-0,031
-469,445	-200,000	-0,010	0,045
-468,430	-25,524	0,071	-0,031
-467,416	-200,000	-0,006	-0,076
-466,401	121,884	0,041	-0,037
-465,386	48,655	-0,098	0,067
-464,372	-200,000	-0,006	0,074
-463,357	-14,388	-0,078	0,037
-462,343	-200,000	0,001	-0,072
-461,328	-91,936	-0,084	0,017
-460,313	196,143	0,076	0,085
-459,299	-109,843	0,090	0,014
-458,284	-200,000	-0,014	-0,066
-457,270	-156,359	0,103	0,005
-456,255	800,000	0,031	0,091
-455,241	800,000	0,026	0,076
-454,226	-200,000	-0,002	-0,073
-453,211	194,992	0,138	-0,155
-452,197	-200,000	-0,018	-0,062
-451,182	84,542	0,045	-0,036
-450,168	-122,805	-0,039	0,005
-449,153	209,688	0,076	0,088
-448,138	41,406	-0,051	-0,034
-447,124	-200,000	-0,021	-0,098
-446,109	-200,000	-0,020	-0,089
-445,095	301,951	0,068	0,092
-444,080	-39,946	-0,021	0,008
-443,065	-35,584	0,155	-0,061
-442,051	-200,000	-0,014	-0,062
-441,036	76,062	0,021	-0,016
-440,022	627,028	0,040	0,075
-439,007	-115,120	-0,050	0,007
-437,992	38,040	-0,085	0,056
-436,978	95,366	0,071	0,059
-435,963	-200,000	0,029	0,108
-434,949	800,000	-0,041	0,092
-433,934	800,000	0,042	-0,104
-432,919	179,886	0,022	-0,024
-431,905	199,839	0,026	-0,030
-430,890	15,239	-0,064	0,037
-429,876	-98,950	0,098	-0,018
-428,861	-200,000	-0,006	0,038
-427,846	-16,176	-0,015	0,007
-426,832	-128,439	-0,087	0,009
-425,817	-83,330	-0,181	0,042
-424,803	88,444	-0,088	0,072
-423,788	-21,984	0,124	0,055
-422,773	128,891	-0,030	0,028
-421,759	-102,757	0,093	-0,016
-420,744	116,105	-0,078	-0,070
-419,730	-59,953	0,129	0,040
-418,715	800,000	-0,024	-0,058
-417,701	-200,000	0,002	0,086
-416,686	-178,442	-0,063	-0,001
-415,671	-50,219	0,140	0,048
-414,657	207,830	0,045	0,051
-413,642	800,000	-0,031	-0,087
-412,628	-36,769	-0,052	-0,021
-411,613	604,463	-0,008	-0,015
-410,598	800,000	-0,041	0,118
-409,584	-63,741	0,128	0,038
-408,569	-8,057	0,083	-0,041
-407,555	-200,000	0,018	0,249
-406,540	676,400	-0,053	0,101
-405,525	-200,000	-0,028	-0,175
-404,511	54,238	-0,082	0,058
-403,496	800,000	0,044	-0,132
-402,482	-127,042	-0,039	-0,004
-401,467	160,651	0,076	0,078
-400,452	177,540	-0,048	0,051
-399,438	476,312	-0,097	-0,161
-398,423	-57,185	0,126	0,040
-397,409	-11,370	0,063	-0,030
-396,394	-79,607	0,082	-0,020
-395,379	147,478	0,057	-0,056
-394,365	-21,145	0,114	0,051
-393,350	82,576	-0,046	0,036
-392,336	-200,000	0,040	0,185
-391,321	-55,138	-0,137	0,045
-390,306	-28,600	-0,266	0,112
-389,292	-200,000	-0,002	0,021
-388,277	33,504	0,040	0,026
-387,263	-40,052	-0,026	-0,010
-386,248	49,097	-0,066	0,046
-385,233	-70,462	0,015	-0,004
-384,219	-112,700	-0,044	-0,006
-383,204	88,769	-0,076	-0,062
-382,190	-101,953	-0,055	0,010
-381,175	789,417	0,042	-0,085
-380,160	502,100	0,012	-0,020
-379,146	63,415	-0,094	0,069
-378,131	800,000	-0,025	-0,074
-377,117	235,695	0,034	0,042
-376,102	183,868	-0,052	-0,057
-375,088	166,563	0,054	0,056
-374,073	11,017	0,035	0,019
-373,058	800,000	-0,022	0,062
-372,044	-200,000	-0,037	0,176
-371,029	-200,000	-0,011	0,059
-370,015	43,939	0,102	-0,068
-369,000	148,244	0,040	-0,040
-367,985	800,000	-0,059	-0,149
-366,971	-200,000	-0,016	-0,091
-365,956	-200,000	0,006	0,080
-364,942	56,718	0,120	0,086
-363,927	191,162	-0,068	-0,075
-362,912	-200,000	0,014	-0,064
-361,898	800,000	0,003	0,008
-360,883	-141,533	0,127	-0,009
-359,869	69,302	-0,044	0,033
-358,854	255,365	0,035	-0,044
-357,839	-200,000	0,000	-0,011
-356,825	24,456	0,059	-0,036
-355,810	66,087	0,069	-0,051
-354,796	35,787	-0,048	-0,031
-353,781	-78,140	-0,104	-0,026
-352,766	-200,000	0,010	-0,065
-351,752	800,000	0,031	0,090
-350,737	372,026	0,026	-0,039
-349,723	-200,000	-0,004	-0,049
-348,708	530,116	-0,013	-0,022
-347,693	-99,822	0,044	0,008
-346,679	400,131	-0,046	-0,071
-345,664	-166,470	-0,103	-0,003
-344,650	16,270	0,100	-0,058
-343,635	139,653	0,093	-0,090
-342,620	800,000	0,037	0,078
-341,606	800,000	0,016	-0,035
-340,591	105,741	0,080	-0,069
-339,577	-200,000	0,032	0,105
-338,562	21,540	0,118	-0,070
-337,548	309,587	-0,026	-0,036
-336,533	-200,000	-0,019	-0,105
-335,518	-45,442	0,034	0,012
-334,504	359,667	0,021	0,031
-333,489	-119,181	-0,053	0,007
-332,475	622,148	-0,073	-0,135
-331,460	800,000	0,029	-0,062
-330,445	29,597	0,103	-0,064
-329,431	-70,576	-0,085	0,023
-328,416	-143,065	0,087	-0,006
-327,402	-102,251	0,164	0,029
-326,387	-110,785	-0,061	-0,009
-325,372	-200,000	-0,003	-0,081
-324,358	-200,000	-0,007	-0,034
-323,343	800,000	0,009	0,019
-322,329	442,462	-0,037	0,060
-321,314	235,350	0,035	-0,042
-320,299	47,811	0,020	0,014
-319,285	389,168	0,096	-0,146
-318,270	30,300	0,039	0,024
-317,256	-200,000	-0,011	-0,063
-316,241	-200,000	-0,008	-0,238
-315,226	8,408	-0,058	-0,032
-314,212	-40,818	0,073	-0,028
-313,197	-200,000	-0,025	0,086
-312,183	218,241	0,133	0,156
-311,168	571,082	0,035	-0,063
-310,153	800,000	-0,107	-0,232
-309,139	710,242	-0,041	-0,079
-308,124	-7,027	0,041	0,020
-307,110	103,874	0,122	0,105
-306,095	-103,700	0,097	-0,016
-305,080	398,804	0,036	0,055
-304,066	-200,000	0,023	0,086
-303,051	-39,252	0,060	-0,023
-302,037	-87,623	-0,076	-0,017
-301,022	141,505	0,134	0,130
-300,008	-119,700	0,114	0,014
-298,993	-115,038	0,124	0,017
-297,978	-200,000	0,001	0,083
-296,964	294,823	0,075	-0,101
-295,949	290,620	-0,039	-0,052
-294,935	225,417	-0,019	-0,022
-293,920	-36,457	0,036	0,014
-292,905	168,350	-0,018	-0,019
-291,891	38,715	0,058	0,038
-290,876	-92,401	0,123	0,025
-289,862	196,766	0,046	-0,051
-288,847	-55,968	0,060	-0,020
-287,832	-200,000	-0,014	0,083
-286,818	-200,000	0,011	0,109
-285,803	383,032	0,065	-0,098
-284,789	-69,597	0,246	-0,068
-283,774	-82,571	-0,093	0,022
-282,759	582,399	-0,058	-0,105
-281,745	57,028	-0,234	-0,166
-280,730	-67,629	-0,081	-0,023
-279,716	203,457	0,050	-0,057
-278,701	105,125	-0,040	0,034
-277,686	-6,369	0,076	-0,038
-276,672	800,000	0,043	-0,135
-275,657	-200,000	-0,011	0,071
-274,643	-11,399	-0,073	0,035
-273,628	599,920	-0,035	-0,064
-272,613	51,875	-0,015	-0,011
-271,599	198,162	0,076	-0,085
-270,584	46,218	0,074	0,050
-269,570	-49,892	-0,032	0,011
-268,555	257,775	-0,082	0,103
-267,540	36,505	0,017	0,011
-266,526	220,184	0,047	0,055
-265,511	391,523	-0,030	-0,046
-264,497	210,552	-0,053	0,061
-263,482	-200,000	0,009	0,130
-262,467	201,411	0,021	-0,023
-261,453	34,849	-0,122	-0,078
-260,438	-200,000	0,014	-0,050
-259,424	210,266	-0,099	0,114
-258,409	-200,000	-0,032	0,115
-257,395	800,000	-0,039	0,110
-256,380	193,473	-0,060	-0,066
-255,365	-200,000	-0,029	0,102
-254,351	-87,632	0,087	0,019
-253,336	-200,000	-0,021	0,111
-252,322	-200,000	-0,032	-0,174
-251,307	-200,000	-0,015	0,111
-250,292	216,195	0,108	0,126
-249,278	-200,000	0,028	0,099
-248,263	800,000	0,072	0,172
-247,249	-90,823	-0,156	0,032
-246,234	800,000	-0,012	0,030
-245,219	527,413	-0,012	-0,020
-244,205	-120,950	-0,095	-0,012
-243,190	596,556	-0,021	0,037
-242,176	800,000	-0,027	-0,084
-241,161	-28,713	0,034	0,014
-240,146	-21,669	-0,110	0,049
-239,132	-47,067	-0,077	-0,027
-238,117	-200,000	0,019	-0,123
-237,103	136,795	-0,013	0,012
-236,088	-72,703	0,077	-0,020
-235,073	-144,735	0,149	0,010
-234,059	-91,596	0,121	-0,025
-233,044	-200,000	0,020	0,219
-232,030	-200,000	-0,012	0,104
-231,015	181,420	-0,059	-0,063
-230,000	-200,000	0,042	-0,144
-228,986	729,476	0,033	-0,065
-227,971	-29,689	0,049	0,020
-226,957	59,020	0,050	0,036
-225,942	-23,072	0,053	0,023
-224,927	279,068	-0,091	0,119
-223,913	53,293	0,141	0,099
-222,898	-200,000	0,020	0,071
-221,884	45,586	0,085	0,057
-220,869	-200,000	0,021	0,148
-219,855	-200,000	-0,021	-0,081
-218,840	291,610	0,119	0,159
-217,825	232,625	0,037	0,045
-216,811	7,551	0,084	-0,046
-215,796	-64,511	-0,019	0,006
-214,782	-131,403	-0,027	0,003
-213,767	96,011	0,015	-0,012
-212,752	-111,164	0,048	-0,007
-211,738	-109,897	0,148	-0,022
-210,723	113,769	0,015	0,013
-209,709	717,983	-0,059	0,116
-208,694	759,808	-0,044	-0,088
-207,679	-83,044	0,145	0,034
-206,665	-49,053	-0,047	-0,016
-205,650	-29,776	0,163	-0,067
-204,636	-200,000	-0,020	0,099
-203,621	81,612	0,027	0,021
-202,606	-28,747	0,017	-0,007
-201,592	800,000	-0,020	-0,057
-200,577	289,575	-0,058	-0,077
-199,563	-200,000	0,054	0,175
-198,548	132,457	0,091	-0,085
-197,533	-23,166	0,039	0,017
-196,519	-200,000	0,000	0,041
-195,504	-200,000	0,045	-0,154
-194,490	800,000	0,051	-0,108
-193,475	207,938	0,132	-0,150
-192,460	-200,000	0,010	-0,048
-191,446	-200,000	-0,009	0,075
-190,431	497,350	-0,074	0,124
-189,417	-143,395	0,125	-0,009
-188,402	309,766	0,054	-0,074
-187,387	55,413	0,029	-0,021
-186,373	132,973	-0,048	-0,045
-185,358	-200,000	0,000	0,040
-184,344	217,708	0,035	0,041
-183,329	-175,148	-0,149	0,003
-182,315	-135,802	0,097	0,008
-181,300	2,909	-0,125	0,066
-180,285	183,959	-0,036	-0,039
-179,271	-94,566	-0,196	-0,038
-178,256	-136,401	-0,074	0,006
-177,242	-126,289	0,103	0,011
-176,227	-200,000	0,039	0,149
-175,212	800,000	-0,072	0,148
-174,198	-200,000	-0,001	0,009
-173,183	-200,000	0,014	0,058
-172,169	-111,160	0,067	0,010
-171,154	-47,960	0,027	0,009
-170,139	419,488	-0,008	-0,013
-169,125	-69,697	-0,073	0,020
-168,110	433,612	-0,035	0,055
-167,096	-5,434	-0,084	0,042
-166,081	-86,252	-0,144	-0,032
-165,066	232,798	-0,039	-0,046
-164,052	-68,290	-0,054	0,015
-163,037	346,715	-0,055	-0,080
-162,023	98,094	0,144	0,120
-161,008	146,171	0,057	0,055
-159,993	-141,945	0,101	-0,007
-158,979	-200,000	0,006	0,078
-157,964	-115,032	-0,058	-0,008
-156,950	787,571	0,026	0,052
-155,935	-121,394	0,105	0,013
-154,920	-200,000	0,022	-0,101
-153,906	79,318	0,054	0,042
-152,891	353,461	-0,039	0,056
-151,877	-200,000	0,003	-0,087
-150,862	147,340	-0,083	0,081
-149,847	160,434	-0,101	-0,102
-148,833	25,895	0,084	-0,051
-147,818	800,000	0,009	0,024
-146,804	233,820	0,104	0,125
-145,789	445,312	0,026	-0,041
-144,775	800,000	-0,056	0,136
-143,760	-200,000	-0,014	-0,071
-142,745	-200,000	0,003	0,099
-141,731	-200,000	-0,023	-0,093
-140,716	751,440	-0,022	-0,043
-139,702	-99,491	-0,045	0,008
-138,687	-21,113	0,015	0,007
-137,672	-96,826	-0,123	-0,023
-136,658	-72,715	-0,053	-0,014
-135,643	800,000	0,044	-0,116
-134,629	455,243	0,032	-0,052
-133,614	9,505	-0,068	-0,037
-132,599	-200,000	0,019	0,145
-131,585	46,218	-0,043	0,029
-130,570	800,000	-0,025	0,058
-129,556	-200,000	-0,006	0,133
-128,541	421,541	0,042	0,066
-127,526	97,216	0,109	0,091
-126,512	800,000	0,057	0,160
-125,497	91,037	0,150	0,122
-124,483	606,111	-0,039	-0,071
-123,468	19,693	0,052	-0,030
-122,453	422,517	-0,060	-0,094
-121,439	133,327	-0,169	-0,158
-120,424	-200,000	0,023	0,145
