DTS Sentinel unit serial number:	SN410029Multiplexer serial number:	ORYXHardware model number:	OX2-SRSoftware version number:	ORYX F/W v4,00 Oryx Data Collector v3.7.2.0data status	okinstallation	B6 Nyhavnadifferential loss correction	single-endedforward channel	channel 2reverse channel	N/Adate	2023/12/08time	03:50:08forward acquisition time	300,00reverse acquisition time	0,00gamma	499,1914k internal	0,3165k external	0,3165temperature offset calibration	1,0000default loss term (dB/km)	0,3820temperature slope calibration	1,0000multiplexer offset coefficient	1,0000multiplexer slope coefficient	1,0000fibre end	0,00T internal ref (°C)	13,08T ext. ref 1 (°C)	-3,79T ext. ref 2 (°C)	-3,78length (m)	temperature (°C)	Stokes	anti-Stokes-744,400	-200,000	0,015	0,089
-743,385	-139,326	-0,365	-0,028
-742,371	-133,104	0,194	-0,018
-741,356	119,120	-0,088	-0,080
-740,342	-115,352	0,115	-0,016
-739,327	-69,188	-0,280	-0,079
-738,312	800,000	-0,037	-0,100
-737,298	-2,251	-0,222	0,114
-736,283	137,228	0,106	0,102
-735,269	-124,518	-0,351	0,040
-734,254	800,000	0,031	-0,072
-733,239	-33,668	-0,515	-0,208
-732,225	-46,870	0,154	0,055
-731,210	-200,000	0,007	0,071
-730,196	522,812	0,040	0,069
-729,181	-200,000	-0,006	0,088
-728,167	800,000	-0,006	-0,013
-727,152	226,451	-0,032	0,038
-726,137	800,000	-0,020	0,043
-725,123	-200,000	0,007	-0,070
-724,108	-71,725	-0,125	0,034
-723,094	-102,281	-0,054	-0,009
-722,079	-129,939	-0,126	-0,013
-721,064	800,000	0,054	-0,142
-720,050	-18,436	-0,041	-0,019
-719,035	228,947	0,094	0,113
-718,021	129,926	-0,070	-0,066
-717,006	247,432	-0,034	-0,042
-715,991	-25,082	-0,101	-0,044
-714,977	-44,240	0,050	0,018
-713,962	233,603	-0,040	-0,049
-712,948	-68,396	-0,126	-0,036
-711,933	155,600	0,101	0,102
-710,918	-89,655	-0,036	0,008
-709,904	-37,347	-0,062	0,024
-708,889	45,284	-0,110	-0,074
-707,875	557,058	-0,078	-0,140
-706,860	-25,840	0,046	0,020
-705,845	149,028	0,079	-0,078
-704,831	-200,000	-0,003	0,025
-703,816	322,558	0,063	-0,088
-702,802	-164,556	-0,091	-0,003
-701,787	-200,000	0,049	-0,215
-700,772	200,512	0,030	-0,034
-699,758	261,151	0,039	-0,050
-698,743	-200,000	-0,009	-0,045
-697,729	68,283	0,023	-0,017
-696,714	-200,000	-0,004	-0,111
-695,699	12,059	0,049	0,027
-694,685	800,000	0,015	-0,038
-693,670	-93,253	-0,012	-0,002
-692,656	-100,351	0,117	-0,021
-691,641	800,000	0,025	0,063
-690,627	-36,496	-0,075	-0,029
-689,612	349,936	-0,081	-0,118
-688,597	-160,355	0,076	-0,003
-687,583	235,820	0,040	-0,049
-686,568	474,754	-0,046	-0,077
-685,554	-101,165	-0,050	0,009
-684,539	800,000	-0,013	0,029
-683,524	-200,000	0,015	-0,175
-682,510	7,843	-0,082	0,045
-681,495	70,308	-0,072	0,055
-680,481	6,026	-0,164	-0,089
-679,466	167,581	-0,065	-0,067
-678,451	286,348	-0,022	0,030
-677,437	336,902	0,032	-0,046
-676,422	453,419	0,087	-0,142
-675,408	-51,306	0,124	-0,042
-674,393	615,394	-0,030	-0,056
-673,378	800,000	0,054	-0,111
-672,364	-42,871	-0,129	0,048
-671,349	90,347	0,091	-0,075
-670,335	-191,655	0,176	0,001
-669,320	-200,000	0,002	-0,018
-668,305	-91,814	-0,073	-0,015
-667,291	-135,355	0,082	0,007
-666,276	-75,306	-0,066	0,017
-665,262	-99,478	0,123	-0,023
-664,247	800,000	-0,044	-0,130
-663,232	-200,000	0,005	0,031
-662,218	-200,000	0,014	-0,150
-661,203	82,801	-0,036	0,029
-660,189	-79,158	0,159	-0,039
-659,174	-200,000	0,007	0,073
-658,159	-38,298	-0,117	-0,045
-657,145	167,620	-0,076	0,079
-656,130	800,000	-0,055	0,173
-655,116	66,822	0,069	0,052
-654,101	72,864	-0,018	-0,014
-653,086	-33,052	0,053	0,022
-652,072	-200,000	0,009	-0,105
-651,057	-200,000	-0,027	-0,113
-650,043	230,096	0,041	-0,050
-649,028	84,208	0,099	0,079
-648,014	-40,909	0,086	-0,032
-646,999	-123,870	0,093	0,011
-645,984	61,006	-0,028	0,021
-644,970	-200,000	0,007	0,132
-643,955	-200,000	0,000	-0,037
-642,941	-9,012	0,044	0,022
-641,926	-34,318	-0,029	0,012
-640,911	800,000	-0,014	-0,041
-639,897	800,000	0,033	-0,094
-638,882	-11,299	0,088	-0,042
-637,868	-200,000	0,002	-0,141
-636,853	44,777	-0,120	0,081
-635,838	65,612	0,139	-0,103
-634,824	146,808	-0,108	-0,106
-633,809	8,292	0,093	0,051
-632,795	-16,657	0,020	0,009
-631,780	-200,000	0,042	0,137
-630,765	-200,000	0,018	-0,155
-629,751	-142,722	-0,045	-0,003
-628,736	-92,087	-0,055	0,011
-627,722	-161,324	-0,114	-0,004
-626,707	-128,113	-0,023	0,002
-625,692	83,129	0,014	-0,011
-624,678	800,000	-0,015	0,043
-623,663	159,132	-0,093	-0,095
-622,649	-43,562	-0,150	0,055
-621,634	280,816	-0,048	0,064
-620,619	800,000	-0,017	0,047
-619,605	73,844	-0,157	-0,120
-618,590	-16,066	-0,075	-0,035
-617,576	-0,266	0,079	0,041
-616,561	216,967	0,047	-0,055
-615,546	-110,028	0,090	-0,014
-614,532	4,857	-0,062	-0,033
-613,517	-200,000	0,004	0,048
-612,503	800,000	0,010	0,026
-611,488	-106,395	0,053	-0,009
-610,474	800,000	-0,034	-0,079
-609,459	-200,000	0,011	-0,121
-608,444	800,000	-0,062	-0,148
-607,430	351,648	-0,024	-0,035
-606,415	110,041	0,037	0,033
-605,401	-200,000	0,002	-0,053
-604,386	69,259	0,081	0,061
-603,371	-41,681	-0,039	0,015
-602,357	188,989	-0,011	-0,013
-601,342	27,491	-0,025	0,015
-600,328	13,130	0,053	0,030
-599,313	30,591	-0,064	0,040
-598,298	-200,000	-0,020	-0,147
-597,284	-200,000	-0,016	-0,074
-596,269	148,240	-0,112	-0,111
-595,255	-200,000	0,027	0,100
-594,240	192,084	-0,024	-0,027
-593,225	-138,096	-0,081	-0,007
-592,211	-200,000	-0,014	-0,142
-591,196	161,509	0,104	0,106
-590,182	-200,000	-0,016	-0,106
-589,167	-4,659	0,063	0,032
-588,152	-108,117	0,090	0,014
-587,138	-200,000	-0,006	-0,127
-586,123	-129,384	-0,069	0,007
-585,109	20,939	-0,047	0,028
-584,094	178,237	-0,064	-0,068
-583,079	-200,000	-0,006	-0,034
-582,065	220,271	-0,117	-0,137
-581,050	16,097	0,085	0,049
-580,036	4,991	0,082	0,044
-579,021	-200,000	-0,011	0,047
-578,006	-14,020	0,102	-0,048
-576,992	-169,737	-0,032	0,001
-575,977	192,422	-0,034	0,038
-574,963	220,979	0,039	-0,046
-573,948	-200,000	0,018	-0,124
-572,934	260,743	-0,090	-0,113
-571,919	201,135	-0,040	0,045
-570,904	-161,062	-0,076	0,003
-569,890	-200,000	0,008	-0,163
-568,875	-133,650	-0,026	0,002
-567,861	800,000	0,026	-0,080
-566,846	-110,354	0,098	0,015
-565,831	-62,000	-0,154	0,047
-564,817	61,959	-0,069	-0,050
-563,802	-200,000	-0,005	0,047
-562,788	-200,000	0,060	0,000
-561,773	800,000	0,024	-0,057
-560,758	800,000	-0,043	0,128
-559,744	-200,000	0,003	0,141
-558,729	-200,000	-0,007	-0,066
-557,715	-119,347	0,045	0,006
-556,700	800,000	-0,042	-0,111
-555,685	-82,098	-0,220	-0,052
-554,671	58,787	-0,070	-0,050
-553,656	7,424	0,024	0,013
-552,642	274,569	0,037	-0,048
-551,627	-200,000	0,018	-0,063
-550,612	-126,389	0,087	-0,009
-549,598	221,315	-0,024	-0,029
-548,583	-34,903	0,032	-0,013
-547,569	172,313	0,082	0,086
-546,554	-85,719	0,086	0,019
-545,539	-49,887	-0,133	0,046
-544,525	800,000	-0,035	0,094
-543,510	-60,370	-0,040	0,012
-542,496	126,266	-0,086	-0,079
-541,481	12,111	-0,104	0,058
-540,466	-83,826	0,148	-0,034
-539,452	-200,000	0,011	0,198
-538,437	-200,000	-0,002	0,038
-537,423	261,819	-0,011	0,014
-536,408	-200,000	-0,008	0,046
-535,393	-200,000	0,024	-0,079
-534,379	-18,751	-0,102	0,046
-533,364	72,528	-0,050	-0,038
-532,350	0,061	0,004	0,002
-531,335	114,419	-0,032	-0,028
-530,321	-157,433	-0,026	-0,001
-529,306	253,307	-0,048	-0,060
-528,291	-40,357	0,157	-0,059
-527,277	-98,019	-0,053	0,010
-526,262	-200,000	-0,011	-0,121
-525,248	800,000	-0,028	-0,085
-524,233	800,000	0,016	-0,038
-523,218	800,000	0,025	0,073
-522,204	-200,000	-0,042	-0,153
-521,189	-58,574	-0,034	0,011
-520,175	-200,000	0,009	-0,036
-519,160	-200,000	0,014	-0,118
-518,145	800,000	0,054	-0,148
-517,131	93,514	0,009	-0,008
-516,116	-59,517	-0,057	-0,018
-515,102	800,000	-0,046	-0,125
-514,087	-55,456	-0,080	0,026
-513,072	-200,000	-0,004	-0,103
-512,058	12,146	-0,191	-0,107
-511,043	100,510	0,032	-0,027
-510,029	583,502	-0,076	0,136
-509,014	-200,000	0,011	0,050
-507,999	-200,000	0,004	0,018
-506,985	522,645	-0,017	-0,030
-505,970	119,740	-0,083	0,075
-504,956	11,181	0,079	0,044
-503,941	43,679	0,073	-0,049
-502,926	174,241	0,105	-0,111
-501,912	139,069	0,034	0,033
-500,897	-200,000	-0,012	0,060
-499,883	800,000	0,033	0,073
-498,868	-200,000	-0,003	-0,028
-497,853	-28,339	-0,124	-0,052
-496,839	800,000	-0,052	-0,119
-495,824	-173,534	0,124	0,003
-494,810	65,409	-0,071	0,052
-493,795	139,007	0,039	0,037
-492,781	19,589	-0,093	0,055
-491,766	800,000	0,015	0,038
-490,751	163,962	-0,107	0,110
-489,737	-200,000	-0,018	-0,083
-488,722	76,957	0,055	-0,042
-487,708	399,635	0,080	0,122
-486,693	-200,000	0,001	0,114
-485,678	-200,000	0,019	0,090
-484,664	-200,000	0,004	-0,035
-483,649	-200,000	-0,010	-0,174
-482,635	22,106	0,107	-0,064
-481,620	800,000	0,019	0,054
-480,605	-200,000	0,019	0,063
-479,591	493,662	-0,013	-0,023
-478,576	-146,085	-0,079	0,005
-477,562	-200,000	0,011	0,095
-476,547	-200,000	0,017	0,138
-475,532	-118,084	0,053	-0,007
-474,518	20,480	0,132	-0,077
-473,503	-200,000	-0,015	-0,073
-472,489	504,223	-0,052	-0,088
-471,474	-163,918	0,099	-0,003
-470,459	-50,990	-0,012	-0,004
-469,445	-200,000	-0,022	-0,112
-468,430	-200,000	0,005	-0,029
-467,416	-91,839	0,169	0,035
-466,401	90,225	-0,074	0,061
-465,386	-200,000	-0,001	0,111
-464,372	19,392	-0,057	0,033
-463,357	110,678	-0,053	0,047
-462,343	29,998	-0,013	-0,008
-461,328	347,354	0,114	-0,164
-460,313	-135,489	0,200	0,017
-459,299	-127,024	-0,154	-0,016
-458,284	-200,000	0,012	0,052
-457,270	410,190	0,044	0,068
-456,255	-19,239	-0,058	0,026
-455,241	198,581	-0,040	-0,044
-454,226	-200,000	0,011	-0,043
-453,211	44,964	0,081	0,054
-452,197	152,448	-0,064	0,064
-451,182	800,000	-0,031	0,077
-450,168	245,045	0,043	-0,053
-449,153	-134,644	-0,120	-0,011
-448,138	800,000	-0,037	0,093
-447,124	138,816	-0,124	0,118
-446,109	-3,769	-0,055	0,028
-445,095	-200,000	0,028	0,090
-444,080	10,150	0,074	0,041
-443,065	-200,000	0,008	0,027
-442,051	800,000	0,041	0,096
-441,036	222,977	0,068	-0,080
-440,022	-200,000	0,006	0,022
-439,007	86,378	-0,015	0,012
-437,992	214,659	-0,049	-0,057
-436,978	145,066	0,052	0,051
-435,963	-67,389	-0,062	0,018
-434,949	363,081	0,066	0,097
-433,934	800,000	-0,023	0,051
-432,919	-113,725	-0,165	0,023
-431,905	96,199	0,110	-0,092
-430,890	-98,057	0,049	0,009
-429,876	800,000	0,043	0,114
-428,861	-200,000	0,000	0,093
-427,846	299,171	-0,051	-0,068
-426,832	800,000	0,005	-0,012
-425,817	508,913	-0,017	-0,029
-424,803	416,326	-0,018	-0,027
-423,788	800,000	0,020	-0,041
-422,773	198,966	0,040	-0,045
-421,759	-200,000	-0,015	0,100
-420,744	-200,000	-0,023	0,125
-419,730	800,000	-0,062	-0,196
-418,715	193,117	0,078	-0,086
-417,701	35,325	0,107	-0,068
-416,686	-90,422	0,004	-0,001
-415,671	136,071	0,041	0,039
-414,657	410,223	0,061	0,094
-413,642	147,572	-0,045	0,044
-412,628	-111,679	-0,129	0,019
-411,613	413,733	0,010	-0,015
-410,598	-200,000	0,000	0,005
-409,584	-200,000	0,042	0,198
-408,569	-200,000	-0,008	-0,073
-407,555	58,179	0,087	-0,062
-406,540	163,474	-0,055	-0,056
-405,525	47,645	-0,040	0,027
-404,511	-200,000	0,016	-0,136
-403,496	408,619	-0,111	-0,171
-402,482	-54,178	-0,057	0,019
-401,467	-30,606	-0,062	0,025
-400,452	800,000	-0,021	-0,062
-399,438	462,448	0,077	0,125
-398,423	573,579	-0,040	0,071
-397,409	-200,000	0,017	-0,125
-396,394	-33,503	-0,021	0,008
-395,379	800,000	-0,070	-0,142
-394,365	-142,343	-0,111	-0,008
-393,350	366,209	0,056	-0,082
-392,336	-16,628	-0,065	0,030
-391,321	97,808	-0,175	-0,146
-390,306	-57,945	0,136	-0,043
-389,292	-119,775	-0,116	-0,014
-388,277	-181,541	-0,043	-0,001
-387,263	-50,034	0,033	0,011
-386,248	53,683	0,096	0,067
-385,233	-200,000	0,005	0,108
-384,219	235,240	-0,053	-0,063
-383,204	-6,276	0,043	-0,021
-382,190	4,476	-0,097	-0,051
-381,175	-14,027	-0,033	0,016
-380,160	246,510	0,108	-0,132
-379,146	630,816	0,069	-0,128
-378,131	-77,584	-0,109	-0,027
-377,117	88,437	0,107	-0,086
-376,102	-200,000	-0,032	-0,173
-375,088	-200,000	0,015	-0,055
-374,073	800,000	-0,015	0,031
-373,058	800,000	0,037	-0,077
-372,044	-200,000	-0,003	-0,015
-371,029	-200,000	-0,028	0,128
-370,015	194,846	0,049	-0,054
-369,000	800,000	0,017	0,045
-367,985	58,303	0,053	-0,037
-366,971	-19,788	0,136	-0,061
-365,956	-200,000	0,012	0,104
-364,942	9,084	0,135	0,074
-363,927	-200,000	0,016	0,087
-362,912	-200,000	0,007	0,044
-361,898	800,000	0,057	0,131
-360,883	5,691	-0,031	0,016
-359,869	-12,542	-0,093	-0,044
-358,854	99,215	0,110	0,092
-357,839	38,829	0,112	0,072
-356,825	38,720	0,103	0,066
-355,810	353,549	0,092	0,132
-354,796	-115,913	-0,096	-0,013
-353,781	800,000	0,030	-0,069
-352,766	-200,000	-0,003	-0,099
-351,752	-200,000	0,005	-0,060
-350,737	24,529	0,173	0,103
-349,723	52,502	0,046	0,032
-348,708	112,800	0,123	0,108
-347,693	-139,010	-0,097	-0,007
-346,679	800,000	-0,039	-0,091
-345,664	51,953	-0,043	0,029
-344,650	144,392	0,051	-0,049
-343,635	193,320	-0,067	0,074
-342,620	188,059	-0,002	-0,002
-341,606	-200,000	-0,024	0,082
-340,591	-21,952	-0,068	-0,030
-339,577	104,863	-0,164	0,140
-338,562	26,835	-0,023	-0,014
-337,548	177,389	-0,045	0,048
-336,533	-110,684	0,072	0,011
-335,518	-91,042	0,085	0,017
-334,504	-200,000	0,057	0,208
-333,489	-200,000	-0,001	-0,003
-332,475	356,337	0,074	-0,107
-331,460	-77,639	0,126	-0,031
-330,445	-136,492	-0,070	-0,006
-329,431	-200,000	-0,001	-0,116
-328,416	-74,775	-0,088	0,023
-327,402	-131,253	-0,037	-0,004
-326,387	137,217	-0,046	0,044
-325,372	-108,462	-0,059	0,009
-324,358	800,000	0,057	0,155
-323,343	65,642	-0,019	0,014
-322,329	-50,238	0,025	0,008
-321,314	-200,000	-0,005	0,158
-320,299	-51,994	0,180	0,060
-319,285	-140,832	0,085	0,006
-318,270	-200,000	-0,032	0,112
-317,256	-118,680	-0,073	-0,009
-316,241	65,638	-0,137	0,100
-315,226	29,528	0,093	0,057
-314,212	-200,000	0,028	-0,156
-313,197	-200,000	0,023	0,139
-312,183	407,772	-0,075	-0,115
-311,168	22,020	0,036	0,021
-310,153	-82,296	-0,123	-0,029
-309,139	-200,000	0,008	0,066
-308,124	-200,000	-0,005	-0,213
-307,110	-200,000	0,008	-0,031
-306,095	-5,737	-0,015	-0,008
-305,080	105,505	0,081	-0,069
-304,066	8,088	0,125	0,067
-303,051	337,486	0,016	0,023
-302,037	414,126	0,044	-0,069
-301,022	62,769	0,138	0,100
-300,008	-15,590	0,125	-0,057
-298,993	-200,000	-0,007	0,059
-297,978	-89,527	0,055	0,012
-296,964	-50,511	-0,059	0,020
-295,949	600,870	-0,040	0,073
-294,935	242,332	-0,068	-0,083
-293,920	-200,000	0,009	0,044
-292,905	17,098	0,101	-0,058
-291,891	800,000	-0,040	-0,117
-290,876	317,710	0,098	0,134
-289,862	132,806	-0,082	0,076
-288,847	54,091	-0,121	0,084
-287,832	-52,704	0,082	-0,027
-286,818	-76,816	0,099	0,025
-285,803	-132,438	0,020	0,002
-284,789	800,000	0,062	0,175
-283,774	0,791	0,044	0,023
-282,759	-200,000	-0,011	0,050
-281,745	-200,000	0,031	-0,117
-280,730	800,000	0,046	-0,134
-279,716	-200,000	-0,006	-0,042
-278,701	-200,000	-0,005	0,059
-277,686	-95,668	0,082	0,016
-276,672	-82,147	0,183	0,043
-275,657	-200,000	-0,010	0,090
-274,643	800,000	-0,037	0,096
-273,628	222,774	0,120	0,140
-272,613	-14,341	-0,085	-0,039
-271,599	-6,624	-0,112	-0,055
-270,584	99,286	0,087	0,073
-269,570	-94,090	0,030	0,006
-268,555	-68,359	0,097	-0,027
-267,540	-140,977	-0,200	0,015
-266,526	-153,668	-0,092	0,004
-265,511	376,781	-0,042	-0,061
-264,497	-155,337	0,139	-0,006
-263,482	800,000	0,018	-0,045
-262,467	-149,260	-0,151	-0,009
-261,453	-134,360	0,089	0,008
-260,438	-40,178	-0,032	-0,012
-259,424	311,138	0,050	-0,068
-258,409	-24,207	-0,029	0,012
-257,395	800,000	-0,033	0,083
-256,380	130,811	-0,089	0,082
-255,365	-200,000	0,064	0,226
-254,351	738,364	-0,034	0,066
-253,336	-125,241	0,081	0,009
-252,322	-200,000	0,014	0,103
-251,307	-197,551	0,025	0,000
-250,292	-11,944	-0,106	-0,050
-249,278	-200,000	-0,035	-0,144
-248,263	115,254	0,033	0,029
-247,249	-200,000	-0,015	0,104
-246,234	12,833	0,071	-0,039
-245,219	407,683	0,018	0,028
-244,205	800,000	0,053	-0,114
-243,190	341,633	0,021	0,029
-242,176	-200,000	-0,003	-0,036
-241,161	-120,001	0,087	-0,011
-240,146	-73,018	0,019	-0,005
-239,132	25,117	0,150	-0,089
-238,117	800,000	0,035	-0,098
-237,103	370,255	0,039	0,057
-236,088	-200,000	0,004	0,017
-235,073	-102,082	0,079	-0,014
-234,059	-9,041	0,116	-0,056
-233,044	439,784	0,066	0,104
-232,030	-200,000	0,005	-0,055
-231,015	-105,113	-0,112	0,018
-230,000	-200,000	0,014	0,069
-228,986	9,003	0,081	0,044
-227,971	-200,000	0,006	0,080
-226,957	-109,448	0,181	-0,027
-225,942	177,628	-0,071	-0,075
-224,927	800,000	0,028	0,080
-223,913	4,195	-0,088	-0,046
-222,898	-181,282	0,116	-0,002
-221,884	94,541	-0,054	-0,044
-220,869	-200,000	-0,010	0,054
-219,855	-121,050	-0,044	0,005
-218,840	-3,508	0,044	-0,022
-217,825	32,741	-0,059	-0,036
-216,811	376,056	0,019	0,027
-215,796	800,000	-0,055	-0,121
-214,782	-65,663	-0,046	0,013
-213,767	-200,000	-0,002	0,113
-212,752	355,116	-0,069	0,099
-211,738	-200,000	0,015	0,088
-210,723	409,696	-0,086	0,131
-209,709	122,009	-0,040	-0,036
-208,694	-200,000	0,018	-0,074
-207,679	187,669	-0,092	-0,099
-206,665	-200,000	-0,027	0,110
-205,650	-91,153	0,127	0,026
-204,636	298,974	-0,025	-0,034
-203,621	666,842	-0,027	0,051
-202,606	-124,954	-0,143	-0,016
-201,592	150,565	-0,081	-0,080
-200,577	124,025	-0,055	0,050
-199,563	-99,245	-0,071	-0,013
-198,548	275,683	0,021	-0,027
-197,533	-68,180	0,097	-0,027
-196,519	800,000	-0,029	-0,089
-195,504	106,683	0,047	0,040
-194,490	-200,000	0,013	0,069
-193,475	-9,411	0,138	-0,066
-192,460	-81,597	-0,089	0,021
-191,446	-54,160	-0,004	-0,001
-190,431	-200,000	-0,007	-0,084
-189,417	-200,000	-0,001	0,042
-188,402	800,000	-0,039	0,079
-187,387	-31,337	-0,037	-0,015
-186,373	800,000	-0,039	0,080
-185,358	754,252	-0,015	0,029
-184,344	800,000	0,018	0,052
-183,329	-62,103	0,011	-0,003
-182,315	27,560	-0,051	0,031
-181,300	154,414	0,059	-0,058
-180,285	-135,832	-0,174	-0,015
-179,271	800,000	-0,049	0,117
-178,256	-113,550	0,043	0,006
-177,242	800,000	-0,033	-0,100
-176,227	267,756	0,028	-0,035
-175,212	-43,941	0,048	-0,017
-174,198	-154,655	-0,064	0,003
-173,183	15,950	-0,110	-0,062
-172,169	-73,552	0,126	0,033
-171,154	-200,000	0,004	0,031
-170,139	-200,000	-0,021	0,200
-169,125	-25,920	-0,047	0,020
-168,110	129,829	0,064	0,059
-167,096	-200,000	0,019	-0,115
-166,081	-147,002	-0,137	0,008
-165,066	24,507	-0,089	-0,053
-164,052	800,000	-0,036	-0,104
-163,037	-35,259	0,049	-0,019
-162,023	-200,000	0,011	0,069
-161,008	157,449	0,112	-0,112
-159,993	743,193	-0,067	-0,130
-158,979	-94,508	-0,061	0,012
-157,964	-200,000	-0,011	0,047
-156,950	800,000	-0,015	0,031
-155,935	800,000	-0,005	0,016
-154,920	502,750	0,028	-0,046
-153,906	10,955	0,088	0,048
-152,891	261,853	-0,091	0,113
-151,877	108,544	-0,112	-0,096
-150,862	-46,418	0,085	0,030
-149,847	-200,000	-0,009	0,087
-148,833	-39,728	0,137	-0,051
-147,818	-69,143	0,048	0,013
-146,804	-131,520	0,066	0,006
-145,789	561,386	0,058	-0,101
-144,775	144,944	-0,181	-0,174
-143,760	199,368	0,083	0,091
-142,745	-200,000	-0,007	-0,081
-141,731	140,772	0,093	-0,088
-140,716	-200,000	-0,006	-0,066
-139,702	800,000	-0,019	0,049
-138,687	-200,000	0,006	-0,107
-137,672	-200,000	-0,014	-0,049
-136,658	800,000	-0,010	-0,022
-135,643	-51,377	-0,072	0,024
-134,629	95,053	-0,066	0,054
-133,614	-171,069	0,199	-0,005
-132,599	-200,000	0,004	-0,015
-131,585	-200,000	0,024	0,136
-130,570	141,598	0,011	0,011
-129,556	800,000	-0,057	-0,150
-128,541	141,427	-0,057	-0,054
-127,526	49,558	0,041	-0,027
-126,512	-200,000	-0,004	-0,042
-125,497	-200,000	0,012	0,075
-124,483	-34,627	-0,027	-0,011
-123,468	-200,000	0,013	0,051
-122,453	-200,000	0,010	-0,041
-121,439	-200,000	-0,015	0,098
-120,424	-124,379	-0,055	0,006
-119,410	-200,000	0,004	0,020
