DTS Sentinel unit serial number:	SN410029Multiplexer serial number:	ORYXHardware model number:	OX2-SRSoftware version number:	ORYX F/W v4,00 Oryx Data Collector v3.7.2.0data status	okinstallation	B6 Nyhavnadifferential loss correction	single-endedforward channel	channel 2reverse channel	N/Adate	2023/12/08time	20:05:08forward acquisition time	300,00reverse acquisition time	0,00gamma	499,1914k internal	0,3158k external	0,3158temperature offset calibration	1,0000default loss term (dB/km)	0,3820temperature slope calibration	1,0000multiplexer offset coefficient	1,0000multiplexer slope coefficient	1,0000fibre end	0,00T internal ref (°C)	15,21T ext. ref 1 (°C)	-1,40T ext. ref 2 (°C)	-1,42length (m)	temperature (°C)	Stokes	anti-Stokes-744,400	255,051	0,081	-0,103
-743,385	-56,922	-0,300	-0,097
-742,371	-103,005	0,257	0,045
-741,356	-46,472	-0,238	0,085
-740,342	472,631	0,068	0,113
-739,327	-108,710	-0,341	-0,053
-738,312	101,660	0,034	-0,029
-737,298	-141,398	-0,350	0,026
-736,283	-121,880	0,127	-0,015
-735,269	-61,178	-0,386	0,119
-734,254	800,000	0,034	0,094
-733,239	-57,429	-0,449	-0,145
-732,225	301,291	0,079	-0,108
-731,210	23,575	-0,079	-0,048
-730,196	-17,561	0,033	0,015
-729,181	-99,536	-0,044	-0,008
-728,167	118,750	-0,038	-0,035
-727,152	-123,735	0,103	0,012
-726,137	4,756	-0,055	-0,030
-725,123	800,000	-0,025	-0,072
-724,108	-200,000	-0,044	-0,158
-723,094	490,436	-0,074	-0,125
-722,079	-125,362	-0,044	-0,005
-721,064	-200,000	-0,014	0,134
-720,050	-200,000	-0,019	-0,113
-719,035	-200,000	0,055	-0,191
-718,021	165,223	0,056	-0,058
-717,006	-200,000	-0,002	-0,038
-715,991	388,004	-0,092	-0,141
-714,977	732,454	-0,014	-0,028
-713,962	53,618	-0,073	-0,051
-712,948	72,724	0,011	-0,009
-711,933	-200,000	-0,027	-0,118
-710,918	34,599	-0,161	-0,103
-709,904	30,597	-0,114	-0,072
-708,889	23,607	-0,068	-0,041
-707,875	-88,914	-0,101	-0,022
-706,860	800,000	-0,034	-0,101
-705,845	103,584	-0,095	-0,082
-704,831	-94,837	0,101	0,020
-703,816	-32,095	0,032	-0,013
-702,802	800,000	-0,037	0,110
-701,787	-200,000	-0,044	-0,196
-700,772	-137,108	-0,213	-0,018
-699,758	800,000	-0,022	-0,057
-698,743	-200,000	-0,060	0,215
-697,729	-142,611	0,150	0,011
-696,714	-200,000	-0,040	0,153
-695,699	800,000	0,055	-0,163
-694,685	-22,689	-0,169	-0,075
-693,670	25,238	-0,028	0,017
-692,656	-66,404	0,110	-0,032
-691,641	-159,942	-0,165	0,007
-690,627	602,447	-0,031	0,057
-689,612	-200,000	0,006	-0,138
-688,597	-200,000	0,006	0,020
-687,583	-32,459	-0,189	-0,077
-686,568	-7,452	-0,106	0,053
-685,554	-17,009	-0,071	-0,033
-684,539	220,801	0,075	-0,088
-683,524	37,360	-0,059	-0,038
-682,510	-200,000	0,012	0,194
-681,495	-52,729	-0,131	0,044
-680,481	258,099	-0,038	0,048
-679,466	70,179	-0,214	-0,163
-678,451	440,290	0,033	-0,053
-677,437	-119,584	0,101	-0,013
-676,422	-16,974	-0,025	0,012
-675,408	-200,000	0,041	0,167
-674,393	309,053	0,077	-0,106
-673,378	75,637	-0,165	-0,128
-672,364	-83,190	-0,174	-0,041
-671,349	-48,552	-0,026	0,009
-670,335	499,682	-0,047	-0,080
-669,320	-72,792	-0,106	0,029
-668,305	671,780	-0,035	0,066
-667,291	-100,234	0,127	0,023
-666,276	360,059	-0,090	-0,132
-665,262	402,630	-0,079	-0,122
-664,247	-200,000	-0,045	-0,172
-663,232	-200,000	0,034	-0,128
-662,218	-200,000	0,012	-0,092
-661,203	-56,457	-0,073	0,024
-660,189	-27,502	-0,096	0,041
-659,174	15,789	-0,097	-0,056
-658,159	-76,886	-0,118	0,030
-657,145	-176,713	-0,110	-0,002
-656,130	-200,000	-0,023	-0,151
-655,116	712,377	-0,042	-0,082
-654,101	226,577	0,071	-0,085
-653,086	-200,000	-0,002	-0,034
-652,072	800,000	-0,037	-0,085
-651,057	-200,000	-0,017	-0,095
-650,043	-200,000	-0,075	-0,246
-649,028	-121,782	0,047	0,006
-648,014	-200,000	0,010	-0,068
-646,999	37,062	0,167	0,108
-645,984	-109,753	-0,085	0,013
-644,970	751,944	-0,058	0,115
-643,955	800,000	-0,035	-0,077
-642,941	-200,000	0,011	-0,071
-641,926	-33,454	-0,161	-0,065
-640,911	-200,000	0,002	0,051
-639,897	70,206	0,068	0,051
-638,882	800,000	0,015	-0,037
-637,868	53,965	0,075	-0,053
-636,853	140,026	0,105	-0,102
-635,838	663,576	-0,032	-0,061
-634,824	39,462	-0,111	-0,073
-633,809	-200,000	0,022	0,115
-632,795	56,526	-0,023	0,016
-631,780	71,565	0,097	0,074
-630,765	-200,000	0,014	0,092
-629,751	-200,000	0,020	0,091
-628,736	800,000	0,069	-0,189
-627,722	-200,000	-0,212	0,000
-626,707	800,000	-0,038	0,091
-625,692	88,645	0,033	-0,027
-624,678	-200,000	0,022	-0,173
-623,663	800,000	-0,033	-0,067
-622,649	-200,000	0,048	-0,194
-621,634	508,621	0,042	-0,071
-620,619	-179,394	-0,046	-0,001
-619,605	800,000	-0,011	-0,033
-618,590	71,137	0,038	0,029
-617,576	800,000	-0,044	-0,091
-616,561	361,324	-0,048	-0,071
-615,546	21,216	0,075	-0,045
-614,532	800,000	-0,070	-0,185
-613,517	67,805	0,049	-0,036
-612,503	-200,000	0,027	-0,106
-611,488	-200,000	0,001	0,062
-610,474	-44,286	0,170	0,062
-609,459	-32,493	0,031	0,013
-608,444	463,090	-0,054	0,088
-607,430	-200,000	-0,001	0,047
-606,415	124,173	-0,072	0,067
-605,401	-200,000	-0,006	0,096
-604,386	215,518	-0,045	0,052
-603,371	103,976	0,086	-0,074
-602,357	590,828	0,021	-0,038
-601,342	800,000	0,038	0,089
-600,328	-200,000	-0,001	-0,059
-599,313	30,690	0,178	-0,111
-598,298	52,293	-0,044	-0,031
-597,284	-200,000	-0,008	0,056
-596,269	-13,159	0,031	0,015
-595,255	-81,019	0,109	0,026
-594,240	-85,803	-0,203	-0,046
-593,225	181,723	-0,025	-0,027
-592,211	-74,205	-0,113	-0,030
-591,196	333,179	0,052	0,074
-590,182	476,013	-0,015	-0,025
-589,167	346,241	0,085	-0,123
-588,152	-70,502	-0,115	0,032
-587,138	800,000	-0,052	-0,166
-586,123	-200,000	0,010	-0,125
-585,109	560,864	-0,072	0,129
-584,094	-14,419	0,082	-0,039
-583,079	800,000	-0,008	0,019
-582,065	-28,805	-0,050	-0,021
-581,050	800,000	0,054	0,110
-580,036	-60,583	0,107	0,033
-579,021	179,391	-0,087	0,093
-578,006	-10,512	-0,046	-0,022
-576,992	187,820	-0,041	0,045
-575,977	329,167	0,124	-0,176
-574,963	800,000	-0,032	0,067
-573,948	800,000	0,055	-0,163
-572,934	-200,000	0,013	0,142
-571,919	-200,000	0,011	-0,054
-570,904	439,752	-0,067	-0,108
-569,890	800,000	-0,019	-0,059
-568,875	223,650	0,077	0,091
-567,861	12,159	-0,118	0,067
-566,846	286,034	0,104	0,138
-565,831	25,523	0,060	0,036
-564,817	-200,000	0,011	0,066
-563,802	111,340	-0,075	0,066
-562,788	-129,959	0,096	-0,010
-561,773	-46,697	-0,050	0,018
-560,758	800,000	-0,031	-0,067
-559,744	422,568	-0,016	-0,026
-558,729	57,259	0,119	0,085
-557,715	-200,000	0,019	-0,140
-556,700	-200,000	0,008	0,042
-555,685	800,000	0,072	-0,153
-554,671	-167,016	-0,190	-0,006
-553,656	51,337	0,085	0,059
-552,642	33,537	0,057	0,036
-551,627	80,536	0,097	-0,076
-550,612	-200,000	-0,001	-0,014
-549,598	-167,399	-0,076	0,002
-548,583	44,721	-0,053	0,036
-547,569	-200,000	0,003	-0,086
-546,554	-132,751	0,016	-0,001
-545,539	-111,031	-0,055	0,008
-544,525	88,186	0,073	-0,059
-543,510	199,649	-0,043	-0,048
-542,496	-17,026	-0,090	-0,041
-541,481	246,545	0,062	-0,077
-540,466	18,483	0,132	0,077
-539,452	270,648	0,021	-0,027
-538,437	-200,000	0,051	0,197
-537,423	227,268	0,127	0,152
-536,408	72,977	-0,091	-0,069
-535,393	506,206	0,041	0,070
-534,379	-200,000	0,032	-0,141
-533,364	86,230	0,069	-0,056
-532,350	800,000	-0,021	0,055
-531,335	762,416	0,076	0,151
-530,321	-88,565	-0,140	-0,030
-529,306	800,000	0,034	-0,079
-528,291	-34,407	-0,178	-0,071
-527,277	-28,799	-0,035	-0,015
-526,262	9,385	-0,131	0,072
-525,248	-162,535	0,063	-0,002
-524,233	499,809	0,027	-0,046
-523,218	800,000	-0,063	-0,142
-522,204	434,667	0,031	-0,050
-521,189	634,135	-0,105	-0,195
-520,175	717,175	-0,080	-0,157
-519,160	85,018	-0,057	-0,046
-518,145	94,080	0,120	-0,099
-517,131	226,029	0,045	-0,053
-516,116	-200,000	-0,024	0,091
-515,102	354,566	-0,089	0,129
-514,087	800,000	-0,052	-0,113
-513,072	193,022	-0,029	0,032
-512,058	334,447	0,073	0,104
-511,043	-97,931	0,011	-0,002
-510,029	43,964	0,173	0,115
-509,014	-48,003	-0,059	-0,021
-507,999	392,795	0,061	-0,094
-506,985	-95,607	0,010	-0,002
-505,970	3,020	0,081	-0,043
-504,956	-69,849	-0,060	-0,016
-503,941	-200,000	-0,002	-0,131
-502,926	474,546	-0,015	0,024
-501,912	-200,000	-0,011	0,112
-500,897	-35,605	0,077	0,030
-499,883	-142,041	-0,025	0,002
-498,868	-115,961	-0,003	0,000
-497,853	-35,052	0,056	0,022
-496,839	800,000	-0,030	0,064
-495,824	800,000	-0,022	0,061
-494,810	-200,000	0,016	0,098
-493,795	247,873	0,042	-0,051
-492,781	-71,039	-0,124	0,034
-491,766	35,913	0,046	-0,029
-490,751	438,159	0,055	-0,088
-489,737	-22,180	-0,044	-0,019
-488,722	21,601	-0,074	-0,044
-487,708	28,289	-0,060	0,037
-486,693	-84,249	0,060	0,014
-485,678	-200,000	-0,026	0,179
-484,664	9,642	-0,150	0,083
-483,649	-200,000	0,016	0,057
-482,635	-45,092	-0,086	-0,031
-481,620	30,084	0,115	-0,072
-480,605	553,439	0,046	0,082
-479,591	408,768	0,063	0,098
-478,576	-200,000	0,024	0,097
-477,562	149,597	0,018	0,018
-476,547	-30,320	-0,065	0,027
-475,532	-14,395	-0,030	-0,014
-474,518	800,000	-0,055	0,145
-473,503	800,000	-0,026	-0,080
-472,489	690,705	-0,011	0,020
-471,474	-100,980	-0,120	0,021
-470,459	359,703	-0,014	-0,020
-469,445	117,671	-0,040	-0,036
-468,430	-28,695	-0,155	-0,065
-467,416	-13,236	0,139	0,065
-466,401	-200,000	0,011	-0,038
-465,386	-200,000	0,000	0,077
-464,372	800,000	-0,025	-0,059
-463,357	444,376	-0,054	-0,087
-462,343	-125,311	-0,127	0,014
-461,328	-89,471	-0,088	0,019
-460,313	43,423	0,095	0,063
-459,299	800,000	0,024	0,060
-458,284	-75,906	-0,066	-0,017
-457,270	800,000	-0,050	0,143
-456,255	-159,120	0,089	0,004
-455,241	-93,378	-0,166	-0,033
-454,226	800,000	-0,062	-0,171
-453,211	589,925	-0,042	0,077
-452,197	800,000	0,032	0,068
-451,182	748,471	-0,049	-0,097
-450,168	527,389	0,048	0,083
-449,153	-81,762	0,029	0,007
-448,138	800,000	-0,024	-0,064
-447,124	-200,000	0,031	-0,099
-446,109	800,000	-0,017	-0,051
-445,095	-200,000	0,005	0,139
-444,080	213,188	0,036	0,042
-443,065	-5,183	0,054	-0,027
-442,051	-78,113	-0,043	-0,011
-441,036	81,632	-0,048	-0,038
-440,022	-200,000	-0,022	-0,078
-439,007	-113,042	0,103	0,015
-437,992	-72,571	-0,106	0,028
-436,978	182,125	0,046	-0,050
-435,963	-200,000	0,017	0,119
-434,949	374,412	-0,062	-0,092
-433,934	-88,999	-0,058	0,012
-432,919	82,281	-0,050	-0,039
-431,905	-200,000	0,000	-0,097
-430,890	-127,273	-0,064	-0,007
-429,876	106,269	0,023	-0,020
-428,861	484,517	-0,020	-0,034
-427,846	-200,000	-0,048	0,195
-426,832	-200,000	0,025	-0,093
-425,817	-8,602	-0,105	0,051
-424,803	-200,000	-0,003	-0,037
-423,788	800,000	0,031	0,068
-422,773	-145,510	0,159	0,010
-421,759	-11,088	0,087	0,042
-420,744	10,769	0,094	0,052
-419,730	-175,886	-0,059	0,001
-418,715	373,093	0,030	-0,044
-417,701	-26,179	0,042	-0,018
-416,686	800,000	0,023	0,073
-415,671	-200,000	0,038	0,146
-414,657	96,217	-0,029	-0,024
-413,642	-82,533	0,107	-0,025
-412,628	99,945	-0,027	-0,023
-411,613	-21,745	-0,053	-0,023
-410,598	-28,780	0,083	-0,035
-409,584	-15,736	0,058	0,027
-408,569	-2,194	0,070	0,035
-407,555	58,670	-0,052	0,037
-406,540	-200,000	-0,017	-0,094
-405,525	800,000	-0,043	0,100
-404,511	-80,378	-0,043	0,010
-403,496	-200,000	-0,002	0,056
-402,482	162,704	0,040	0,041
-401,467	800,000	0,053	0,123
-400,452	-200,000	0,006	0,062
-399,438	-132,247	-0,101	0,009
-398,423	-200,000	-0,010	-0,117
-397,409	-200,000	0,006	0,021
-396,394	-54,470	-0,083	-0,027
-395,379	800,000	0,041	-0,111
-394,365	-200,000	-0,009	0,043
-393,350	800,000	0,073	0,195
-392,336	-135,289	-0,103	0,009
-391,321	-200,000	0,004	0,062
-390,306	-200,000	-0,043	-0,200
-389,292	800,000	0,053	-0,170
-388,277	150,163	0,100	0,099
-387,263	93,732	-0,062	-0,051
-386,248	366,193	-0,034	-0,051
-385,233	800,000	0,041	-0,105
-384,219	-136,937	-0,108	0,009
-383,204	-32,364	-0,031	0,012
-382,190	-150,487	-0,166	-0,009
-381,175	-89,767	0,081	0,017
-380,160	60,770	-0,029	-0,021
-379,146	-200,000	0,004	0,044
-378,131	-200,000	0,027	0,172
-377,117	-49,999	-0,167	0,057
-376,102	-200,000	0,017	-0,191
-375,088	-200,000	0,010	-0,043
-374,073	-200,000	-0,014	0,081
-373,058	-200,000	-0,024	-0,165
-372,044	-54,661	-0,090	0,029
-371,029	-27,539	-0,085	0,036
-370,015	-164,493	-0,088	-0,003
-369,000	559,592	0,011	0,019
-367,985	-33,116	-0,096	-0,039
-366,971	800,000	-0,016	-0,036
-365,956	520,117	0,063	0,107
-364,942	-3,325	0,103	0,052
-363,927	-116,857	0,133	0,017
-362,912	800,000	0,053	-0,135
-361,898	-200,000	-0,003	0,053
-360,883	-120,440	-0,068	0,008
-359,869	-200,000	0,024	0,084
-358,854	469,933	0,015	0,025
-357,839	131,523	0,093	0,087
-356,825	-200,000	0,033	0,106
-355,810	800,000	-0,005	0,015
-354,796	192,618	0,037	-0,040
-353,781	-200,000	0,014	-0,135
-352,766	408,436	-0,026	-0,039
-351,752	-80,342	-0,012	0,003
-350,737	-57,534	0,057	0,018
-349,723	255,618	0,064	0,080
-348,708	65,484	-0,045	0,033
-347,693	186,047	-0,102	0,110
-346,679	-200,000	0,007	-0,024
-345,664	253,206	-0,020	-0,024
-344,650	20,062	0,027	0,015
-343,635	-101,031	-0,101	0,018
-342,620	98,060	-0,100	-0,084
-341,606	199,078	-0,046	-0,052
-340,591	-200,000	0,029	-0,097
-339,577	38,916	0,021	-0,014
-338,562	-200,000	-0,001	-0,019
-337,548	14,958	0,094	-0,053
-336,533	800,000	-0,045	-0,095
-335,518	527,614	0,073	-0,125
-334,504	-200,000	-0,001	0,050
-333,489	-200,000	0,003	-0,092
-332,475	115,194	0,099	0,088
-331,460	-57,264	-0,014	-0,004
-330,445	508,663	-0,068	0,115
-329,431	-97,068	-0,059	-0,011
-328,416	-64,560	0,131	-0,038
-327,402	413,050	-0,031	-0,048
-326,387	-200,000	-0,013	0,065
-325,372	451,379	-0,045	-0,073
-324,358	-200,000	0,019	-0,071
-323,343	331,561	0,032	0,044
-322,329	-142,440	0,114	0,008
-321,314	219,320	0,102	0,119
-320,299	800,000	0,085	0,172
-319,285	-200,000	-0,009	0,071
-318,270	150,149	-0,051	0,050
-317,256	49,865	-0,055	0,038
-316,241	73,784	0,108	-0,082
-315,226	29,230	0,125	0,077
-314,212	449,240	0,019	0,030
-313,197	117,221	-0,056	-0,050
-312,183	-200,000	0,008	0,071
-311,168	267,982	-0,072	0,091
-310,153	-200,000	-0,000	0,042
-309,139	-31,547	0,057	-0,023
-308,124	711,250	-0,007	0,014
-307,110	96,408	0,069	-0,057
-306,095	281,259	-0,024	0,031
-305,080	-47,405	-0,117	0,041
-304,066	409,994	0,095	-0,147
-303,051	31,571	-0,120	-0,075
-302,037	800,000	-0,015	-0,043
-301,022	-41,864	0,160	-0,059
-300,008	-200,000	-0,008	0,042
-298,993	716,140	0,027	0,053
-297,978	-200,000	0,035	-0,198
-296,964	45,012	-0,031	0,020
-295,949	800,000	-0,008	-0,020
-294,935	-22,607	-0,106	0,046
-293,920	-200,000	-0,004	0,067
-292,905	-200,000	-0,016	0,094
-291,891	-200,000	0,009	0,053
-290,876	65,655	0,077	0,057
-289,862	190,247	-0,063	0,068
-288,847	800,000	0,010	0,026
-287,832	800,000	0,041	0,105
-286,818	265,850	0,050	-0,063
-285,803	-25,148	-0,023	-0,010
-284,789	-200,000	-0,028	-0,144
-283,774	-200,000	0,003	-0,149
-282,759	89,321	-0,042	-0,034
-281,745	-200,000	-0,001	-0,080
-280,730	394,409	-0,086	0,130
-279,716	184,198	-0,010	-0,011
-278,701	110,129	0,131	0,114
-277,686	-200,000	0,002	-0,047
-276,672	0,134	0,074	0,038
-275,657	15,246	0,081	-0,046
-274,643	325,401	-0,036	-0,050
-273,628	30,135	-0,055	-0,034
-272,613	-200,000	-0,019	-0,062
-271,599	-200,000	0,009	-0,099
-270,584	-200,000	0,003	0,052
-269,570	-37,503	0,074	0,028
-268,555	-60,932	-0,075	0,023
-267,540	-70,221	-0,022	0,006
-266,526	-86,552	-0,088	-0,019
-265,511	-11,446	-0,040	0,019
-264,497	485,206	-0,071	-0,117
-263,482	116,328	0,109	0,096
-262,467	800,000	-0,037	0,105
-261,453	58,642	0,025	0,018
-260,438	-200,000	0,025	-0,084
-259,424	255,662	-0,037	0,046
-258,409	800,000	-0,019	0,057
-257,395	504,577	0,060	0,101
-256,380	-90,164	0,068	0,014
-255,365	69,654	0,088	0,066
-254,351	-200,000	-0,003	0,099
-253,336	-200,000	0,007	0,081
-252,322	800,000	-0,057	-0,116
-251,307	-12,681	-0,068	0,032
-250,292	-200,000	-0,003	0,060
-249,278	-200,000	-0,008	-0,064
-248,263	-7,507	0,107	-0,052
-247,249	-14,719	-0,077	0,035
-246,234	-145,728	-0,089	-0,006
-245,219	230,958	-0,051	-0,061
-244,205	-6,526	-0,145	0,071
-243,190	-200,000	-0,010	0,121
-242,176	29,599	0,111	0,068
-241,161	-56,756	0,096	0,031
-240,146	-200,000	-0,011	0,096
-239,132	158,635	-0,041	0,041
-238,117	-200,000	0,009	-0,116
-237,103	-65,481	-0,057	0,016
-236,088	-200,000	-0,007	-0,090
-235,073	61,351	-0,091	0,065
-234,059	397,763	0,039	0,059
-233,044	-200,000	-0,043	-0,176
-232,030	-200,000	0,016	-0,079
-231,015	-200,000	-0,042	-0,142
-230,000	-200,000	0,001	-0,134
-228,986	-87,191	0,111	0,024
-227,971	-87,455	-0,096	-0,021
-226,957	-200,000	-0,004	0,142
-225,942	-200,000	0,002	-0,081
-224,927	341,193	0,021	0,029
-223,913	382,501	0,043	0,064
-222,898	800,000	0,048	-0,151
-221,884	133,369	0,044	-0,041
-220,869	-200,000	-0,010	0,119
-219,855	-200,000	0,018	0,127
-218,840	66,700	0,188	0,138
-217,825	-200,000	0,005	0,048
-216,811	-37,898	-0,022	0,009
-215,796	-35,098	0,062	-0,024
-214,782	-200,000	0,003	-0,145
-213,767	-200,000	-0,029	0,094
-212,752	45,583	0,033	-0,022
-211,738	-200,000	0,012	0,088
-210,723	-74,015	-0,097	0,025
-209,709	-9,457	-0,051	-0,024
-208,694	201,226	-0,077	-0,085
-207,679	-200,000	0,013	-0,075
-206,665	-200,000	-0,000	0,023
-205,650	13,867	-0,020	0,011
-204,636	-136,626	0,143	-0,012
-203,621	252,869	-0,086	0,107
-202,606	190,741	-0,088	0,096
-201,592	800,000	-0,031	-0,069
-200,577	-200,000	0,000	0,078
-199,563	-1,831	-0,098	-0,050
-198,548	-200,000	-0,002	0,150
-197,533	-200,000	-0,009	-0,088
-196,519	282,975	-0,039	-0,050
-195,504	-193,189	-0,077	-0,000
-194,490	309,762	0,052	-0,070
-193,475	800,000	-0,011	-0,027
-192,460	406,848	0,039	-0,060
-191,446	299,979	0,011	0,014
-190,431	-58,361	0,037	-0,012
-189,417	-116,920	0,269	0,035
-188,402	-186,337	-0,039	-0,000
-187,387	243,567	0,061	0,073
-186,373	-84,794	-0,122	-0,027
-185,358	245,661	-0,064	-0,077
-184,344	-69,839	0,065	0,018
-183,329	-200,000	0,010	-0,096
-182,315	-200,000	0,018	0,105
-181,300	-11,162	0,112	-0,053
-180,285	-135,324	-0,041	0,003
-179,271	-34,294	-0,028	-0,011
-178,256	2,238	-0,040	-0,021
-177,242	307,047	0,041	-0,056
-176,227	800,000	0,046	0,118
-175,212	350,889	-0,032	-0,046
-174,198	-200,000	-0,025	0,167
-173,183	307,654	-0,089	-0,120
-172,169	-37,020	0,031	0,012
-171,154	-200,000	0,026	0,142
-170,139	27,845	0,086	0,052
-169,125	187,070	-0,091	0,098
-168,110	-145,725	0,072	0,005
-167,096	-122,375	0,117	0,014
-166,081	-200,000	-0,023	0,094
-165,066	-200,000	-0,023	-0,149
-164,052	3,047	-0,063	0,033
-163,037	65,798	0,086	0,063
-162,023	-94,806	-0,075	0,015
-161,008	-161,550	0,121	0,004
-159,993	-161,680	0,070	0,003
-158,979	573,439	0,031	-0,055
-157,964	768,329	0,029	-0,058
-156,950	-200,000	-0,003	-0,126
-155,935	59,377	-0,035	0,025
-154,920	156,391	-0,048	-0,047
-153,906	-110,215	0,098	-0,015
-152,891	455,856	0,009	-0,015
-151,877	96,001	-0,026	0,021
-150,862	-24,769	-0,079	-0,034
-149,847	800,000	-0,041	-0,085
-148,833	-49,370	0,044	0,015
-147,818	159,992	0,079	-0,079
-146,804	125,247	0,068	-0,062
-145,789	-35,629	-0,032	0,012
-144,775	-151,069	0,119	0,006
-143,760	-200,000	0,002	0,019
-142,745	18,482	0,151	0,087
-141,731	-200,000	0,032	-0,119
-140,716	67,825	0,044	0,033
-139,702	143,984	0,050	0,048
-138,687	-200,000	0,011	0,069
-137,672	-200,000	0,007	0,122
-136,658	-97,617	-0,194	0,036
-135,643	334,604	-0,043	0,060
-134,629	281,354	0,066	0,086
-133,614	453,412	-0,031	-0,050
-132,599	-31,240	-0,116	0,047
-131,585	800,000	0,067	0,157
-130,570	-142,113	-0,028	-0,002
-129,556	800,000	-0,044	-0,097
-128,541	-200,000	-0,002	0,012
-127,526	-200,000	-0,007	-0,048
-126,512	551,009	-0,070	0,122
-125,497	-48,084	0,016	0,006
-124,483	350,147	-0,027	-0,039
-123,468	20,558	-0,150	0,087
-122,453	735,213	-0,114	-0,220
-121,439	-200,000	0,007	0,141
-120,424	325,173	-0,023	0,032
