DTS Sentinel unit serial number:	SN410029Multiplexer serial number:	ORYXHardware model number:	OX2-SRSoftware version number:	ORYX F/W v4,00 Oryx Data Collector v3.7.2.0data status	okinstallation	B6 Nyhavnadifferential loss correction	single-endedforward channel	channel 2reverse channel	N/Adate	2023/12/10time	05:45:08forward acquisition time	300,00reverse acquisition time	0,00gamma	499,1914k internal	0,3124k external	0,3124temperature offset calibration	1,0000default loss term (dB/km)	0,3820temperature slope calibration	1,0000multiplexer offset coefficient	1,0000multiplexer slope coefficient	1,0000fibre end	0,00T internal ref (°C)	22,50T ext. ref 1 (°C)	6,49T ext. ref 2 (°C)	6,46length (m)	temperature (°C)	Stokes	anti-Stokes-744,400	110,461	-0,074	-0,067
-743,385	2,775	-0,261	0,141
-742,371	-107,131	-0,115	-0,019
-741,356	-50,747	-0,232	0,081
-740,342	-169,244	0,148	-0,004
-739,327	295,848	-0,069	0,094
-738,312	-200,000	0,046	-0,199
-737,298	-35,281	-0,179	0,072
-736,283	-141,213	-0,084	-0,006
-735,269	-69,469	-0,299	0,085
-734,254	60,734	-0,082	-0,060
-733,239	-50,490	-0,437	-0,153
-732,225	-16,840	0,149	-0,070
-731,210	-200,000	-0,039	-0,160
-730,196	-200,000	-0,039	-0,133
-729,181	-136,810	-0,151	-0,013
-728,167	-13,833	-0,178	-0,085
-727,152	-200,000	-0,027	0,109
-726,137	32,574	-0,154	-0,099
-725,123	81,527	-0,063	-0,051
-724,108	-200,000	0,006	-0,144
-723,094	-45,652	0,081	-0,030
-722,079	423,526	-0,049	0,079
-721,064	-70,048	-0,013	-0,004
-720,050	-144,582	-0,145	0,010
-719,035	426,309	0,055	0,088
-718,021	263,386	-0,025	0,033
-717,006	800,000	-0,058	-0,127
-715,991	800,000	0,037	0,079
-714,977	800,000	0,019	0,050
-713,962	502,691	-0,122	0,211
-712,948	3,887	0,111	0,060
-711,933	77,403	0,066	0,052
-710,918	-64,664	-0,090	-0,027
-709,904	800,000	-0,023	0,051
-708,889	800,000	0,029	-0,085
-707,875	-108,116	0,099	-0,016
-706,860	41,205	0,084	-0,056
-705,845	414,183	-0,020	-0,032
-704,831	800,000	0,016	0,039
-703,816	595,689	0,046	-0,086
-702,802	329,061	-0,033	0,047
-701,787	-31,566	-0,163	-0,068
-700,772	563,359	-0,069	-0,125
-699,758	-200,000	0,032	-0,189
-698,743	-12,606	0,056	-0,027
-697,729	-200,000	0,031	0,134
-696,714	-63,029	-0,047	0,014
-695,699	-200,000	-0,003	-0,019
-694,685	9,321	-0,071	0,040
-693,670	231,131	0,076	-0,093
-692,656	-3,391	-0,018	0,009
-691,641	32,629	-0,075	-0,048
-690,627	130,140	-0,039	0,037
-689,612	800,000	-0,028	-0,075
-688,597	-200,000	-0,009	0,061
-687,583	-66,009	-0,187	-0,055
-686,568	-55,174	-0,089	0,030
-685,554	-90,620	0,128	-0,027
-684,539	419,140	-0,023	0,037
-683,524	-200,000	0,001	0,047
-682,510	179,223	0,045	0,049
-681,495	-74,824	0,082	-0,022
-680,481	486,431	-0,053	-0,091
-679,466	-168,441	-0,120	-0,003
-678,451	-54,058	-0,036	-0,012
-677,437	-80,725	-0,080	-0,020
-676,422	-27,852	0,141	0,060
-675,408	-200,000	0,005	-0,022
-674,393	220,114	-0,050	0,059
-673,378	80,752	0,055	-0,044
-672,364	-173,385	-0,145	-0,003
-671,349	217,499	0,070	0,083
-670,335	-82,451	-0,101	-0,024
-669,320	107,834	-0,109	0,096
-668,305	-156,050	-0,190	0,009
-667,291	800,000	0,065	-0,176
-666,276	425,428	-0,037	-0,059
-665,262	179,262	-0,061	-0,067
-664,247	274,641	-0,066	-0,088
-663,232	-200,000	-0,017	-0,093
-662,218	-23,263	0,050	0,022
-661,203	800,000	-0,076	-0,182
-660,189	-77,458	-0,066	0,017
-659,174	-104,785	-0,144	-0,024
-658,159	15,020	0,065	-0,038
-657,145	-101,475	-0,056	-0,010
-656,130	-26,816	0,072	-0,031
-655,116	-26,898	0,191	-0,082
-654,101	-18,686	0,150	-0,069
-653,086	56,087	-0,128	0,092
-652,072	-200,000	0,024	-0,100
-651,057	-158,446	0,041	-0,002
-650,043	459,300	-0,055	-0,091
-649,028	-200,000	-0,012	-0,065
-648,014	154,734	0,058	0,059
-646,999	270,224	0,063	0,083
-645,984	-20,850	-0,090	0,041
-644,970	-145,236	0,110	0,007
-643,955	193,686	0,072	0,081
-642,941	464,376	0,076	-0,127
-641,926	13,918	0,065	-0,037
-640,911	800,000	-0,075	0,157
-639,897	379,522	-0,051	0,078
-638,882	-164,789	0,086	0,003
-637,868	-200,000	-0,008	-0,046
-636,853	15,614	-0,092	0,053
-635,838	515,450	-0,060	-0,104
-634,824	-200,000	-0,037	0,121
-633,809	-200,000	0,002	-0,019
-632,795	94,547	0,064	0,054
-631,780	-200,000	-0,021	0,111
-630,765	-137,135	0,036	-0,003
-629,751	-200,000	0,011	-0,045
-628,736	-165,141	0,054	0,002
-627,722	88,533	-0,047	0,038
-626,707	-135,886	-0,233	-0,020
-625,692	-200,000	0,048	0,184
-624,678	-134,777	-0,063	0,006
-623,663	168,793	0,024	-0,026
-622,649	-85,719	0,051	0,012
-621,634	-154,963	-0,069	-0,003
-620,619	420,290	0,033	-0,052
-619,605	-200,000	0,004	-0,172
-618,590	208,987	0,094	-0,109
-617,576	800,000	0,021	-0,056
-616,561	-4,922	-0,059	-0,030
-615,546	768,037	-0,065	-0,131
-614,532	-200,000	0,007	-0,048
-613,517	281,808	-0,044	-0,058
-612,503	504,573	0,023	0,039
-611,488	-47,446	-0,093	-0,033
-610,474	800,000	-0,012	-0,031
-609,459	-59,076	0,116	-0,037
-608,444	52,959	-0,017	-0,012
-607,430	-200,000	0,003	-0,268
-606,415	800,000	0,023	-0,057
-605,401	-116,052	0,061	-0,008
-604,386	771,106	0,029	0,059
-603,371	78,452	0,028	-0,022
-602,357	-14,719	-0,121	-0,058
-601,342	800,000	0,029	-0,072
-600,328	-200,000	-0,022	-0,145
-599,313	-200,000	-0,004	-0,021
-598,298	-200,000	-0,023	0,086
-597,284	-97,632	0,018	0,003
-596,269	-19,948	-0,027	-0,012
-595,255	-200,000	0,003	-0,053
-594,240	-200,000	0,022	-0,111
-593,225	-123,334	0,068	-0,008
-592,211	524,417	-0,042	0,073
-591,196	744,990	0,029	0,058
-590,182	789,984	0,033	0,067
-589,167	12,401	-0,055	0,032
-588,152	800,000	0,042	-0,097
-587,138	800,000	-0,026	-0,083
-586,123	176,929	0,087	-0,094
-585,109	-200,000	0,017	-0,059
-584,094	-31,590	0,063	0,026
-583,079	-98,070	-0,214	-0,040
-582,065	-97,119	0,060	0,011
-581,050	-200,000	0,012	0,083
-580,036	-155,679	0,115	-0,005
-579,021	104,602	-0,057	-0,049
-578,006	800,000	0,028	-0,089
-576,992	274,527	0,068	-0,089
-575,977	800,000	0,066	-0,156
-574,963	800,000	-0,050	-0,119
-573,948	-200,000	0,024	-0,082
-572,934	763,435	0,084	-0,169
-571,919	-200,000	-0,003	0,059
-570,904	-200,000	0,018	-0,096
-569,890	135,018	-0,085	-0,082
-568,875	-166,940	0,038	-0,001
-567,861	-24,370	-0,147	0,064
-566,846	-200,000	0,029	-0,113
-565,831	8,599	0,054	0,030
-564,817	-200,000	0,002	0,009
-563,802	647,152	0,061	-0,115
-562,788	-126,747	0,083	-0,009
-561,773	-200,000	-0,012	0,168
-560,758	-200,000	-0,002	0,067
-559,744	313,593	-0,036	0,050
-558,729	213,121	0,044	0,051
-557,715	704,837	-0,035	-0,069
-556,700	-138,287	-0,057	0,005
-555,685	800,000	0,025	-0,065
-554,671	-103,560	-0,042	-0,007
-553,656	63,398	-0,081	-0,060
-552,642	150,061	-0,076	0,076
-551,627	143,437	0,052	0,051
-550,612	225,538	-0,053	0,063
-549,598	-200,000	-0,008	0,059
-548,583	622,714	0,033	-0,062
-547,569	800,000	0,020	-0,060
-546,554	-126,252	-0,061	-0,007
-545,539	459,895	-0,047	-0,077
-544,525	-155,512	0,153	-0,007
-543,510	-45,983	-0,075	-0,027
-542,496	146,617	0,120	-0,120
-541,481	-148,497	0,054	-0,003
-540,466	-102,980	0,096	0,017
-539,452	78,436	0,046	-0,036
-538,437	-200,000	-0,022	0,148
-537,423	-200,000	-0,027	0,157
-536,408	128,899	0,075	0,071
-535,393	53,517	0,039	-0,027
-534,379	3,385	-0,174	0,093
-533,364	-200,000	-0,035	0,166
-532,350	-55,272	-0,069	0,023
-531,335	393,665	0,079	0,122
-530,321	513,401	0,144	0,250
-529,306	800,000	-0,052	0,134
-528,291	164,539	-0,103	-0,107
-527,277	800,000	-0,028	0,090
-526,262	98,001	-0,089	-0,076
-525,248	-163,651	-0,041	0,001
-524,233	308,343	0,034	0,048
-523,218	76,538	-0,006	0,005
-522,204	-66,484	0,108	0,031
-521,189	190,007	0,010	0,011
-520,175	-200,000	-0,025	-0,086
-519,160	347,451	-0,116	-0,169
-518,145	-200,000	0,014	0,087
-517,131	-49,501	0,083	-0,029
-516,116	-87,132	0,137	0,031
-515,102	517,067	0,055	-0,095
-514,087	-101,181	0,091	-0,016
-513,072	-200,000	0,007	0,053
-512,058	-200,000	-0,005	-0,076
-511,043	407,573	0,046	0,073
-510,029	-200,000	-0,013	0,073
-509,014	800,000	-0,050	0,146
-507,999	-31,502	0,051	0,021
-506,985	-65,169	-0,154	-0,046
-505,970	-39,892	-0,108	-0,042
-504,956	-118,275	-0,062	-0,008
-503,941	19,623	-0,074	0,044
-502,926	176,960	0,034	-0,037
-501,912	800,000	-0,034	0,090
-500,897	56,084	0,024	0,017
-499,883	-200,000	-0,005	-0,042
-498,868	256,533	-0,030	-0,039
-497,853	0,838	-0,027	0,014
-496,839	-7,516	0,089	0,045
-495,824	553,678	0,025	0,045
-494,810	217,007	0,043	0,051
-493,795	12,568	0,090	0,051
-492,781	38,073	0,107	0,070
-491,766	-37,870	0,052	0,020
-490,751	-200,000	0,008	0,048
-489,737	-200,000	0,005	-0,019
-488,722	-37,261	-0,024	-0,009
-487,708	-200,000	0,030	-0,121
-486,693	800,000	-0,024	-0,066
-485,678	30,500	0,095	-0,060
-484,664	-200,000	-0,005	-0,094
-483,649	-85,023	0,016	0,004
-482,635	35,819	0,047	0,030
-481,620	-200,000	0,001	0,042
-480,605	569,252	0,030	-0,054
-479,591	283,774	0,167	0,222
-478,576	4,647	-0,149	-0,080
-477,562	9,265	-0,079	0,044
-476,547	-142,903	-0,095	-0,007
-475,532	-200,000	0,015	0,124
-474,518	-84,903	0,072	0,017
-473,503	3,658	0,051	0,028
-472,489	658,332	0,060	0,115
-471,474	-200,000	-0,019	0,068
-470,459	155,765	0,057	-0,058
-469,445	-92,138	-0,022	0,005
-468,430	800,000	0,041	-0,091
-467,416	81,635	0,019	-0,015
-466,401	-200,000	0,002	0,022
-465,386	-115,266	0,036	-0,005
-464,372	-200,000	-0,007	0,044
-463,357	-200,000	0,000	0,044
-462,343	299,366	-0,043	-0,058
-461,328	226,425	-0,049	-0,059
-460,313	-80,576	0,066	0,016
-459,299	223,912	0,018	0,021
-458,284	800,000	-0,051	0,122
-457,270	-200,000	0,015	0,074
-456,255	212,127	0,075	-0,087
-455,241	-55,427	-0,085	0,028
-454,226	105,336	0,076	0,067
-453,211	329,086	0,085	0,121
-452,197	96,566	0,018	0,015
-451,182	482,387	-0,079	-0,132
-450,168	-143,812	-0,076	0,005
-449,153	-162,281	-0,064	0,002
-448,138	-200,000	0,030	-0,147
-447,124	-200,000	-0,000	0,023
-446,109	206,245	0,053	-0,061
-445,095	264,498	-0,020	0,026
-444,080	-200,000	0,007	0,164
-443,065	-69,655	0,067	-0,019
-442,051	-200,000	0,014	-0,125
-441,036	-200,000	0,006	-0,162
-440,022	-72,626	-0,061	-0,017
-439,007	159,716	-0,032	0,033
-437,992	-200,000	-0,032	0,110
-436,978	-145,005	-0,047	0,003
-435,963	160,314	0,078	0,080
-434,949	243,300	-0,101	0,125
-433,934	-94,629	0,090	0,018
-432,919	-23,180	0,017	-0,007
-431,905	143,381	0,052	-0,051
-430,890	-200,000	0,027	0,180
-429,876	-200,000	-0,015	-0,089
-428,861	395,527	0,084	0,129
-427,846	392,179	0,051	0,078
-426,832	800,000	-0,029	0,062
-425,817	800,000	-0,049	-0,117
-424,803	-149,188	-0,169	-0,010
-423,788	-9,325	0,058	0,029
-422,773	419,360	0,060	-0,095
-421,759	272,175	-0,062	0,080
-420,744	258,333	-0,061	0,078
-419,730	28,487	0,052	-0,032
-418,715	-77,704	-0,105	0,027
-417,701	-8,442	0,063	-0,031
-416,686	206,518	-0,045	-0,052
-415,671	92,171	0,106	0,088
-414,657	399,383	-0,015	-0,023
-413,642	363,502	0,031	-0,046
-412,628	800,000	-0,041	-0,109
-411,613	800,000	-0,047	-0,124
-410,598	13,695	-0,099	-0,057
-409,584	-200,000	0,014	-0,081
-408,569	141,915	0,061	-0,059
-407,555	-200,000	-0,032	0,144
-406,540	-200,000	-0,004	0,033
-405,525	20,325	0,058	0,035
-404,511	-200,000	0,003	-0,142
-403,496	-122,339	-0,205	0,024
-402,482	800,000	0,036	0,114
-401,467	-129,007	0,111	-0,011
-400,452	155,621	0,050	0,050
-399,438	135,116	0,069	-0,066
-398,423	-68,108	-0,070	-0,020
-397,409	-200,000	-0,027	0,106
-396,394	258,633	-0,072	0,092
-395,379	-45,954	0,028	0,010
-394,365	-200,000	0,019	-0,126
-393,350	774,191	0,054	-0,109
-392,336	-154,747	-0,003	0,000
-391,321	800,000	-0,023	-0,048
-390,306	568,996	-0,048	-0,085
-389,292	-99,048	-0,140	-0,026
-388,277	5,635	0,056	0,030
-387,263	291,452	0,034	0,046
-386,248	314,047	-0,062	0,086
-385,233	-197,459	0,076	0,000
-384,219	773,368	0,063	-0,127
-383,204	-10,571	0,139	-0,067
-382,190	-200,000	-0,013	0,067
-381,175	800,000	-0,054	-0,144
-380,160	770,506	-0,032	-0,065
-379,146	-14,420	0,080	0,038
-378,131	236,931	0,038	0,046
-377,117	129,142	-0,047	-0,044
-376,102	-32,816	0,080	0,033
-375,088	800,000	-0,044	-0,093
-374,073	-3,252	0,041	-0,021
-373,058	-61,334	-0,064	0,020
-372,044	-200,000	0,018	0,082
-371,029	176,421	-0,065	-0,069
-370,015	785,560	-0,024	-0,048
-369,000	25,981	-0,019	-0,012
-367,985	311,514	-0,031	-0,043
-366,971	161,732	0,006	-0,007
-365,956	800,000	0,030	-0,090
-364,942	800,000	0,026	0,064
-363,927	-200,000	0,019	0,065
-362,912	-114,610	-0,103	0,014
-361,898	-11,976	0,014	0,007
-360,883	85,746	0,041	-0,033
-359,869	800,000	-0,020	-0,050
-358,854	70,357	-0,059	0,045
-357,839	-68,496	0,079	0,022
-356,825	233,281	-0,091	-0,110
-355,810	-147,586	-0,093	-0,006
-354,796	-200,000	0,009	0,119
-353,781	-125,737	-0,133	0,015
-352,766	252,317	-0,029	-0,037
-351,752	-4,520	-0,074	0,038
-350,737	-55,715	0,029	0,010
-349,723	518,454	-0,032	-0,056
-348,708	347,779	-0,020	-0,029
-347,693	73,693	-0,098	0,075
-346,679	-63,255	0,042	-0,013
-345,664	-200,000	-0,003	-0,037
-344,650	20,092	-0,020	-0,012
-343,635	-200,000	0,024	0,082
-342,620	24,689	0,068	0,041
-341,606	-200,000	-0,002	-0,026
-340,591	261,875	0,082	0,104
-339,577	800,000	-0,062	-0,145
-338,562	-200,000	0,018	-0,108
-337,548	211,415	0,049	-0,056
-336,533	144,412	0,038	0,037
-335,518	540,501	0,113	0,198
-334,504	-44,035	-0,048	0,018
-333,489	-200,000	-0,038	-0,161
-332,475	6,325	-0,051	0,028
-331,460	418,460	-0,057	-0,089
-330,445	82,702	0,046	-0,037
-329,431	-56,608	0,103	0,033
-328,416	320,903	0,073	0,101
-327,402	29,251	-0,052	0,032
-326,387	-200,000	-0,037	0,159
-325,372	776,858	0,016	0,033
-324,358	800,000	-0,024	-0,053
-323,343	199,420	-0,092	-0,104
-322,329	-78,835	0,101	-0,025
-321,314	154,880	0,107	0,108
-320,299	-200,000	-0,010	0,076
-319,285	-43,162	-0,124	0,046
-318,270	-35,962	0,124	-0,049
-317,256	70,538	0,084	-0,063
-316,241	-125,768	-0,097	-0,011
-315,226	800,000	-0,055	0,138
-314,212	-91,395	0,007	0,001
-313,197	169,643	0,039	0,041
-312,183	-200,000	-0,011	0,115
-311,168	-200,000	0,029	0,143
-310,153	578,848	-0,080	-0,144
-309,139	142,350	-0,061	0,059
-308,124	-143,120	0,049	-0,003
-307,110	-101,966	0,104	-0,018
-306,095	800,000	0,050	-0,106
-305,080	-200,000	0,016	-0,104
-304,066	135,497	0,022	-0,021
-303,051	-200,000	-0,007	-0,050
-302,037	505,286	-0,082	-0,139
-301,022	-200,000	0,012	-0,161
-300,008	409,377	0,049	0,076
-298,993	800,000	0,010	0,030
-297,978	-73,410	-0,110	-0,029
-296,964	-72,478	-0,008	-0,002
-295,949	27,674	0,028	-0,017
-294,935	334,342	0,049	-0,069
-293,920	-44,082	-0,098	0,036
-292,905	800,000	0,034	-0,081
-291,891	99,329	-0,156	0,132
-290,876	-148,759	-0,093	0,005
-289,862	-173,035	-0,068	-0,001
-288,847	192,838	0,052	-0,057
-287,832	-106,913	-0,094	-0,015
-286,818	-200,000	0,006	-0,148
-285,803	-162,477	0,173	-0,006
-284,789	-17,383	0,081	0,037
-283,774	260,612	0,064	0,081
-282,759	800,000	-0,022	-0,049
-281,745	-200,000	-0,026	-0,087
-280,730	-45,007	-0,064	0,023
-279,716	259,593	-0,036	0,046
-278,701	347,996	0,082	-0,118
-277,686	-104,699	-0,087	0,015
-276,672	800,000	-0,031	-0,079
-275,657	211,638	-0,034	-0,039
-274,643	445,093	-0,131	0,211
-273,628	84,757	0,047	-0,038
-272,613	537,998	-0,029	-0,050
-271,599	-68,674	0,076	0,022
-270,584	-200,000	-0,016	0,073
-269,570	-200,000	0,015	0,129
-268,555	-200,000	0,103	-0,000
-267,540	-76,502	0,076	0,019
-266,526	-30,274	0,089	-0,037
-265,511	36,648	-0,096	-0,062
-264,497	-44,337	0,086	0,031
-263,482	-114,065	0,116	-0,016
-262,467	120,707	-0,039	-0,036
-261,453	265,642	-0,021	-0,027
-260,438	11,845	-0,123	-0,069
-259,424	310,123	-0,048	0,065
-258,409	800,000	0,011	-0,031
-257,395	344,267	-0,019	0,027
-256,380	-123,454	0,117	0,013
-255,365	421,316	-0,054	0,085
-254,351	-200,000	0,046	0,151
-253,336	800,000	-0,026	0,059
-252,322	-200,000	0,014	-0,078
-251,307	-200,000	0,036	-0,201
-250,292	172,042	-0,010	0,011
-249,278	-61,361	0,125	-0,038
-248,263	-200,000	0,018	0,079
-247,249	-200,000	-0,023	0,080
-246,234	-97,422	-0,079	0,015
-245,219	128,693	-0,067	0,063
-244,205	21,410	-0,132	-0,078
-243,190	12,576	-0,121	0,068
-242,176	220,194	-0,076	-0,089
-241,161	800,000	0,030	-0,078
-240,146	579,123	-0,040	-0,072
-239,132	-121,525	-0,150	-0,018
-238,117	-200,000	0,015	-0,068
-237,103	-59,653	-0,072	-0,022
-236,088	-12,517	0,040	0,019
-235,073	383,950	-0,005	0,007
-234,059	-200,000	0,011	0,041
-233,044	554,739	0,046	0,081
-232,030	129,087	-0,004	0,003
-231,015	-121,272	-0,069	0,008
-230,000	-29,449	-0,138	-0,058
-228,986	86,209	-0,052	0,041
-227,971	276,865	-0,078	0,102
-226,957	5,411	-0,104	-0,056
-225,942	800,000	0,023	0,068
-224,927	800,000	0,046	0,127
-223,913	-200,000	-0,002	0,128
-222,898	-200,000	-0,038	-0,131
-221,884	800,000	0,030	-0,091
-220,869	308,702	-0,065	0,089
-219,855	-200,000	0,017	0,089
-218,840	-92,460	0,101	-0,021
-217,825	-62,049	0,047	0,014
-216,811	276,648	-0,061	-0,080
-215,796	800,000	0,029	-0,068
-214,782	8,379	-0,038	-0,021
-213,767	449,523	-0,011	0,018
-212,752	-108,679	0,181	0,028
-211,738	351,647	-0,063	0,092
-210,723	-170,777	0,131	-0,003
-209,709	44,008	-0,144	-0,096
-208,694	-200,000	0,006	0,042
-207,679	-143,125	0,119	0,008
-206,665	-71,229	-0,093	-0,025
-205,650	181,130	0,069	0,074
-204,636	-167,453	0,083	0,002
-203,621	214,804	0,070	0,082
-202,606	52,885	0,082	-0,057
-201,592	-60,910	-0,080	0,024
-200,577	-35,915	-0,042	0,017
-199,563	127,418	0,098	0,091
-198,548	58,604	0,136	0,097
-197,533	61,516	0,047	0,034
-196,519	-24,809	-0,047	-0,020
-195,504	800,000	0,026	0,060
-194,490	122,561	0,085	-0,078
-193,475	174,547	0,008	-0,009
-192,460	-13,825	0,064	0,030
-191,446	-105,237	-0,063	0,010
-190,431	86,338	0,054	-0,043
-189,417	84,060	0,150	0,119
-188,402	432,823	-0,026	0,041
-187,387	-3,158	-0,043	-0,022
-186,373	-108,509	-0,095	-0,015
-185,358	54,555	-0,071	-0,050
-184,344	800,000	-0,049	0,116
-183,329	314,229	0,030	0,042
-182,315	19,769	-0,169	0,099
-181,300	-51,761	0,060	0,020
-180,285	-113,925	0,099	0,014
-179,271	-154,221	-0,068	0,003
-178,256	800,000	0,017	0,036
-177,242	-102,322	0,052	-0,009
-176,227	70,907	0,012	0,009
-175,212	-83,886	0,103	-0,024
-174,198	-40,262	-0,123	-0,046
-173,183	800,000	-0,034	-0,100
-172,169	-96,288	-0,100	0,019
-171,154	-200,000	-0,009	-0,041
-170,139	-132,687	0,056	-0,005
-169,125	214,560	0,071	-0,082
-168,110	-133,606	0,014	-0,001
-167,096	-200,000	-0,008	0,037
-166,081	-33,423	-0,115	0,046
-165,066	-72,109	-0,043	-0,012
-164,052	-128,892	0,048	-0,005
-163,037	-200,000	0,038	0,288
-162,023	446,432	-0,105	-0,169
-161,008	-21,772	-0,062	0,028
-159,993	800,000	-0,046	0,145
-158,979	168,391	0,051	-0,053
-157,964	-74,213	-0,119	-0,031
-156,950	-83,289	-0,036	0,008
-155,935	417,749	0,024	0,038
-154,920	800,000	-0,033	-0,101
-153,906	-71,311	0,082	-0,022
-152,891	-200,000	0,005	-0,043
-151,877	468,919	0,081	-0,132
-150,862	18,153	-0,098	-0,057
-149,847	-200,000	0,013	-0,047
-148,833	800,000	-0,024	-0,062
-147,818	-200,000	-0,003	0,025
-146,804	91,609	0,031	0,026
-145,789	-200,000	0,028	0,096
-144,775	122,144	-0,031	-0,028
-143,760	671,682	0,050	-0,094
-142,745	500,270	-0,071	-0,120
-141,731	290,988	-0,026	0,034
-140,716	-200,000	-0,011	-0,063
-139,702	-46,015	-0,044	-0,016
-138,687	800,000	-0,063	-0,151
-137,672	-68,237	0,070	0,020
-136,658	-133,494	-0,111	0,010
-135,643	8,044	-0,182	0,099
-134,629	52,714	0,065	-0,045
-133,614	-200,000	0,005	-0,050
-132,599	26,668	0,032	-0,020
-131,585	-200,000	0,041	0,153
-130,570	-133,323	-0,101	-0,009
-129,556	-30,471	-0,048	-0,020
-128,541	81,855	-0,031	-0,024
-127,526	-146,130	0,102	-0,006
-126,512	69,055	-0,025	-0,019
-125,497	-200,000	-0,026	-0,092
-124,483	800,000	0,016	0,037
-123,468	-200,000	-0,045	0,228
-122,453	-20,029	-0,027	0,012
-121,439	-200,000	0,002	-0,051
-120,424	-200,000	0,021	0,092
-119,410	103,371	0,042	-0,036
