DTS Sentinel unit serial number:	SN410029Multiplexer serial number:	ORYXHardware model number:	OX2-SRSoftware version number:	ORYX F/W v4,00 Oryx Data Collector v3.7.2.0data status	okinstallation	B6 Nyhavnadifferential loss correction	single-endedforward channel	channel 2reverse channel	N/Adate	2023/12/10time	11:35:08forward acquisition time	300,00reverse acquisition time	0,00gamma	499,1914k internal	0,3123k external	0,3123temperature offset calibration	1,0000default loss term (dB/km)	0,3820temperature slope calibration	1,0000multiplexer offset coefficient	1,0000multiplexer slope coefficient	1,0000fibre end	0,00T internal ref (°C)	22,67T ext. ref 1 (°C)	6,59T ext. ref 2 (°C)	6,59length (m)	temperature (°C)	Stokes	anti-Stokes-744,400	800,000	-0,025	-0,055
-743,385	422,331	-0,108	0,174
-742,371	14,189	-0,018	0,011
-741,356	444,737	-0,175	0,287
-740,342	154,459	-0,057	-0,058
-739,327	-52,661	-0,106	-0,036
-738,312	50,424	-0,034	-0,024
-737,298	-43,335	-0,255	0,096
-736,283	273,500	0,088	-0,116
-735,269	-12,881	-0,261	0,126
-734,254	252,681	0,064	0,082
-733,239	-97,003	-0,416	-0,081
-732,225	-67,755	0,129	-0,037
-731,210	546,211	-0,077	0,138
-730,196	-78,055	-0,102	-0,026
-729,181	-69,082	-0,093	0,026
-728,167	800,000	-0,034	0,072
-727,152	43,276	-0,048	0,032
-726,137	10,644	-0,106	0,060
-725,123	-142,683	-0,059	0,004
-724,108	253,970	-0,118	-0,151
-723,094	165,239	-0,126	-0,133
-722,079	-63,175	0,032	-0,010
-721,064	-53,429	0,095	0,032
-720,050	-146,103	-0,045	-0,003
-719,035	-101,236	-0,070	-0,013
-718,021	346,090	0,025	0,036
-717,006	64,063	-0,141	-0,105
-715,991	800,000	-0,085	-0,209
-714,977	83,762	-0,120	-0,097
-713,962	307,964	-0,019	-0,027
-712,948	-100,538	-0,019	-0,004
-711,933	-31,761	-0,016	0,007
-710,918	128,601	-0,079	0,075
-709,904	-190,940	-0,143	0,001
-708,889	-200,000	-0,011	-0,302
-707,875	-4,183	-0,089	-0,046
-706,860	92,748	-0,189	0,158
-705,845	-104,554	0,094	0,016
-704,831	25,494	0,047	0,029
-703,816	-200,000	0,005	-0,113
-702,802	23,537	-0,087	-0,053
-701,787	-200,000	0,010	-0,050
-700,772	185,191	0,105	-0,116
-699,758	-95,066	-0,092	-0,018
-698,743	214,568	0,120	-0,142
-697,729	145,277	0,091	-0,091
-696,714	94,169	-0,036	-0,030
-695,699	-14,315	-0,046	0,022
-694,685	3,156	-0,078	-0,042
-693,670	591,184	-0,068	-0,126
-692,656	-200,000	0,001	-0,019
-691,641	-200,000	-0,018	0,116
-690,627	800,000	-0,033	-0,086
-689,612	-41,577	-0,068	0,026
-688,597	-200,000	-0,014	0,128
-687,583	112,426	-0,023	-0,021
-686,568	-200,000	-0,036	-0,119
-685,554	550,525	0,037	-0,067
-684,539	-200,000	0,038	-0,160
-683,524	-43,849	-0,017	0,006
-682,510	462,817	-0,053	0,088
-681,495	1,455	-0,083	0,044
-680,481	800,000	0,027	0,061
-679,466	118,092	-0,082	-0,075
-678,451	355,951	-0,015	0,022
-677,437	217,210	-0,119	0,141
-676,422	88,786	-0,055	-0,045
-675,408	-16,518	0,077	-0,036
-674,393	781,683	0,051	0,104
-673,378	800,000	0,024	0,066
-672,364	-15,054	-0,157	-0,074
-671,349	131,797	-0,148	-0,142
-670,335	-28,820	-0,090	0,038
-669,320	-200,000	-0,002	-0,040
-668,305	653,588	0,026	0,050
-667,291	-41,973	-0,131	0,050
-666,276	800,000	-0,032	-0,095
-665,262	-44,869	0,069	0,025
-664,247	800,000	0,019	0,045
-663,232	222,469	0,055	0,066
-662,218	-69,074	0,093	-0,026
-661,203	141,480	-0,064	0,063
-660,189	188,865	0,029	-0,032
-659,174	800,000	-0,049	-0,151
-658,159	800,000	-0,032	-0,101
-657,145	251,161	-0,032	-0,040
-656,130	511,005	0,046	0,079
-655,116	800,000	-0,014	-0,042
-654,101	-189,534	-0,061	-0,001
-653,086	39,145	-0,046	0,031
-652,072	-35,308	-0,087	-0,035
-651,057	-200,000	0,021	-0,147
-650,043	-200,000	0,011	-0,036
-649,028	189,841	0,089	-0,099
-648,014	61,526	-0,064	0,048
-646,999	-200,000	-0,004	0,019
-645,984	-200,000	-0,021	0,076
-644,970	-200,000	-0,002	-0,148
-643,955	147,258	-0,113	-0,113
-642,941	-172,902	-0,100	-0,002
-641,926	800,000	-0,061	-0,176
-640,911	-19,161	0,114	-0,052
-639,897	800,000	0,051	0,154
-638,882	137,730	-0,021	-0,020
-637,868	-200,000	-0,015	-0,074
-636,853	55,973	-0,091	-0,066
-635,838	-56,087	0,096	-0,031
-634,824	452,364	-0,041	0,067
-633,809	-62,494	-0,133	0,041
-632,795	124,636	-0,063	-0,059
-631,780	38,768	0,077	0,051
-630,765	-200,000	0,026	0,121
-629,751	800,000	0,029	0,070
-628,736	-33,718	-0,065	-0,027
-627,722	-200,000	0,004	-0,095
-626,707	800,000	-0,031	-0,066
-625,692	0,834	-0,031	0,016
-624,678	494,508	-0,045	0,077
-623,663	219,104	0,032	-0,038
-622,649	-200,000	-0,028	-0,121
-621,634	-200,000	-0,009	0,090
-620,619	192,483	-0,089	0,100
-619,605	800,000	-0,029	-0,090
-618,590	-200,000	0,005	-0,050
-617,576	102,227	0,119	0,103
-616,561	-16,462	-0,036	-0,017
-615,546	800,000	-0,035	-0,096
-614,532	-200,000	-0,005	-0,074
-613,517	63,330	0,051	-0,038
-612,503	-200,000	0,070	-0,237
-611,488	371,264	0,059	-0,089
-610,474	-152,478	-0,031	0,002
-609,459	387,325	0,044	-0,068
-608,444	-200,000	0,002	0,010
-607,430	143,528	-0,071	-0,071
-606,415	-81,828	-0,117	0,028
-605,401	174,184	0,075	-0,080
-604,386	211,999	0,071	0,083
-603,371	-200,000	-0,036	0,127
-602,357	111,678	0,040	-0,036
-601,342	148,325	0,165	-0,165
-600,328	303,597	-0,045	-0,062
-599,313	-200,000	-0,028	-0,135
-598,298	-200,000	0,009	-0,261
-597,284	339,694	0,047	0,068
-596,269	-94,341	-0,149	-0,030
-595,255	-200,000	-0,018	0,166
-594,240	290,058	0,104	0,140
-593,225	99,739	-0,042	0,036
-592,211	-200,000	-0,001	-0,031
-591,196	-83,815	-0,111	0,026
-590,182	52,065	0,137	-0,097
-589,167	652,669	-0,035	-0,066
-588,152	800,000	0,053	0,143
-587,138	-162,590	-0,060	-0,002
-586,123	141,297	-0,047	-0,046
-585,109	768,875	0,036	-0,074
-584,094	800,000	-0,032	0,066
-583,079	332,255	0,091	0,130
-582,065	180,271	0,040	0,043
-581,050	5,695	0,124	0,068
-580,036	24,436	-0,045	-0,028
-579,021	-116,205	-0,080	0,011
-578,006	52,477	-0,070	-0,049
-576,992	382,200	-0,064	0,098
-575,977	321,007	-0,111	0,157
-574,963	-124,891	0,141	0,016
-573,948	-155,163	-0,048	0,002
-572,934	230,308	-0,037	-0,044
-571,919	-200,000	0,022	-0,165
-570,904	-200,000	-0,017	-0,112
-569,890	-101,610	-0,171	-0,030
-568,875	-91,300	0,112	-0,024
-567,861	-200,000	0,011	0,085
-566,846	-200,000	0,006	0,075
-565,831	180,990	-0,033	0,035
-564,817	-96,511	-0,133	-0,026
-563,802	-109,813	0,112	-0,017
-562,788	80,288	0,078	-0,062
-561,773	470,659	-0,055	0,091
-560,758	212,350	0,066	0,078
-559,744	-200,000	-0,014	-0,078
-558,729	73,366	-0,056	-0,043
-557,715	-42,453	-0,200	0,075
-556,700	800,000	-0,044	-0,100
-555,685	-200,000	-0,002	0,007
-554,671	532,860	-0,036	0,064
-553,656	134,142	-0,024	0,023
-552,642	54,452	-0,092	0,065
-551,627	500,388	-0,062	-0,106
-550,612	800,000	-0,056	0,122
-549,598	-195,247	0,160	-0,001
-548,583	376,533	-0,046	0,069
-547,569	-200,000	-0,001	0,007
-546,554	-47,685	-0,076	-0,027
-545,539	-200,000	0,002	-0,071
-544,525	-200,000	-0,014	0,121
-543,510	-200,000	0,009	0,103
-542,496	681,759	0,022	-0,043
-541,481	800,000	-0,026	-0,074
-540,466	137,076	-0,101	-0,098
-539,452	787,729	0,031	0,063
-538,437	-138,859	0,028	-0,002
-537,423	-9,192	-0,113	0,056
-536,408	-190,932	-0,039	-0,000
-535,393	50,277	-0,090	0,063
-534,379	19,623	-0,083	-0,049
-533,364	102,132	0,030	-0,026
-532,350	6,025	0,081	-0,044
-531,335	-111,845	0,173	-0,026
-530,321	-200,000	0,001	0,003
-529,306	-200,000	0,013	-0,058
-528,291	126,630	-0,096	0,090
-527,277	-200,000	-0,035	-0,210
-526,262	-200,000	0,015	-0,094
-525,248	-105,968	0,048	-0,008
-524,233	290,510	0,093	0,125
-523,218	198,374	0,057	-0,065
-522,204	-57,121	-0,061	-0,020
-521,189	-3,282	-0,032	0,016
-520,175	168,074	-0,093	-0,097
-519,160	-200,000	-0,033	-0,131
-518,145	-62,273	0,190	0,058
-517,131	-23,351	0,033	0,015
-516,116	-200,000	-0,009	-0,078
-515,102	25,057	-0,069	0,042
-514,087	-4,044	-0,093	0,047
-513,072	800,000	-0,037	-0,100
-512,058	123,058	-0,080	0,074
-511,043	35,225	-0,050	-0,033
-510,029	-109,163	0,056	0,009
-509,014	-17,168	0,085	0,040
-507,999	508,770	0,095	-0,163
-506,985	105,707	0,094	0,082
-505,970	800,000	0,052	0,115
-504,956	-173,769	-0,100	-0,002
-503,941	501,014	0,029	0,049
-502,926	-200,000	0,035	0,138
-501,912	470,472	0,083	0,138
-500,897	-200,000	-0,082	0,000
-499,883	216,048	-0,074	0,087
-498,868	52,356	-0,106	-0,075
-497,853	-139,550	-0,091	0,007
-496,839	-129,506	-0,018	-0,002
-495,824	440,016	-0,091	0,147
-494,810	800,000	-0,066	-0,138
-493,795	-178,677	0,077	-0,001
-492,781	111,170	-0,040	0,036
-491,766	-200,000	-0,044	-0,152
-490,751	256,439	0,040	-0,051
-489,737	-200,000	-0,021	-0,140
-488,722	-200,000	-0,001	-0,081
-487,708	290,035	-0,027	0,037
-486,693	50,850	0,102	0,071
-485,678	130,543	0,065	0,061
-484,664	-200,000	-0,033	-0,142
-483,649	148,490	0,028	-0,028
-482,635	-106,070	-0,099	-0,016
-481,620	71,363	-0,072	-0,055
-480,605	395,765	0,067	0,104
-479,591	-35,227	-0,145	0,058
-478,576	480,870	0,008	-0,013
-477,562	-200,000	0,006	-0,091
-476,547	-77,618	-0,065	-0,017
-475,532	-200,000	-0,025	-0,137
-474,518	-200,000	-0,010	0,101
-473,503	-200,000	0,007	0,073
-472,489	-28,360	0,108	0,046
-471,474	77,064	-0,066	-0,051
-470,459	-88,763	-0,026	-0,006
-469,445	-200,000	-0,003	-0,060
-468,430	67,990	0,040	0,030
-467,416	170,125	-0,061	0,064
-466,401	-108,461	0,092	0,014
-465,386	123,428	0,043	0,040
-464,372	-98,601	0,025	-0,005
-463,357	-165,306	0,035	0,001
-462,343	-200,000	-0,012	0,042
-461,328	384,167	-0,085	0,129
-460,313	162,478	0,071	-0,074
-459,299	53,488	-0,069	-0,049
-458,284	-24,247	-0,174	0,076
-457,270	183,276	-0,133	-0,145
-456,255	119,042	-0,021	0,019
-455,241	188,244	0,025	-0,028
-454,226	-136,547	0,105	0,009
-453,211	-42,706	0,029	0,011
-452,197	-139,024	0,071	0,006
-451,182	-148,997	0,197	-0,012
-450,168	-83,329	0,024	-0,006
-449,153	-200,000	0,025	0,141
-448,138	-122,917	0,058	-0,007
-447,124	-143,801	0,243	0,017
-446,109	25,090	0,035	0,022
-445,095	-200,000	-0,041	0,236
-444,080	-55,923	0,049	-0,016
-443,065	-200,000	0,037	-0,128
-442,051	-200,000	0,018	0,078
-441,036	-147,300	0,042	-0,003
-440,022	71,517	-0,140	-0,107
-439,007	578,747	0,045	-0,082
-437,992	-43,141	-0,056	0,021
-436,978	8,155	-0,024	-0,013
-435,963	332,046	-0,103	0,146
-434,949	-145,779	0,102	0,007
-433,934	-200,000	0,025	-0,166
-432,919	-200,000	-0,023	-0,129
-431,905	92,818	0,081	-0,067
-430,890	184,420	-0,032	-0,035
-429,876	-54,239	0,074	0,025
-428,861	153,441	-0,062	-0,063
-427,846	-200,000	-0,018	0,094
-426,832	310,677	-0,063	-0,087
-425,817	72,774	-0,022	-0,017
-424,803	355,749	-0,035	-0,051
-423,788	198,676	0,051	-0,058
-422,773	-81,658	0,181	0,043
-421,759	800,000	-0,041	0,099
-420,744	115,857	-0,094	0,085
-419,730	800,000	-0,018	0,040
-418,715	181,443	0,072	-0,078
-417,701	-200,000	0,000	0,014
-416,686	-200,000	-0,005	-0,095
-415,671	800,000	0,046	0,099
-414,657	355,665	0,110	0,162
-413,642	534,463	-0,068	0,120
-412,628	172,399	-0,035	-0,037
-411,613	203,130	-0,008	-0,009
-410,598	-16,727	0,028	0,013
-409,584	-200,000	-0,021	-0,074
-408,569	129,944	0,020	-0,019
-407,555	-74,441	0,161	-0,042
-406,540	800,000	0,049	-0,100
-405,525	410,096	0,047	0,073
-404,511	-100,533	-0,090	-0,016
-403,496	471,734	-0,062	-0,103
-402,482	800,000	-0,019	-0,049
-401,467	800,000	-0,015	0,049
-400,452	-90,856	0,129	-0,027
-399,438	428,369	-0,088	0,141
-398,423	115,521	-0,053	0,047
-397,409	-159,928	0,082	0,003
-396,394	-200,000	-0,016	-0,113
-395,379	-51,512	0,085	0,029
-394,365	31,359	-0,054	0,034
-393,350	130,103	0,051	0,048
-392,336	311,552	0,089	0,123
-391,321	-200,000	-0,002	-0,023
-390,306	219,734	-0,081	0,096
-389,292	15,770	0,020	0,011
-388,277	625,074	0,045	0,084
-387,263	-141,035	-0,070	0,005
-386,248	-200,000	0,036	0,120
-385,233	28,013	0,124	0,077
-384,219	16,709	-0,067	-0,039
-383,204	-111,413	-0,088	-0,013
-382,190	-200,000	-0,027	-0,114
-381,175	800,000	0,037	0,104
-380,160	-200,000	-0,011	0,055
-379,146	-200,000	0,035	0,237
-378,131	113,418	0,055	0,049
-377,117	-200,000	-0,006	0,037
-376,102	-200,000	0,006	-0,161
-375,088	28,409	-0,086	0,053
-374,073	-67,522	0,073	0,021
-373,058	156,718	0,097	0,099
-372,044	324,892	-0,053	-0,075
-371,029	157,490	-0,077	-0,079
-370,015	71,074	-0,066	0,050
-369,000	587,558	-0,031	0,056
-367,985	455,736	-0,051	-0,084
-366,971	-24,361	-0,114	-0,050
-365,956	-17,617	0,036	0,017
-364,942	-98,293	-0,036	0,007
-363,927	-200,000	-0,023	0,090
-362,912	-200,000	0,003	0,049
-361,898	449,296	-0,110	-0,178
-360,883	81,045	0,110	-0,087
-359,869	329,874	-0,047	0,067
-358,854	-60,654	0,069	0,021
-357,839	474,414	0,053	0,088
-356,825	-14,990	0,015	0,007
-355,810	-200,000	0,020	0,173
-354,796	-35,084	0,047	-0,019
-353,781	-123,851	-0,152	0,017
-352,766	-200,000	-0,022	-0,224
-351,752	-46,759	0,096	0,034
-350,737	800,000	-0,037	0,105
-349,723	652,622	0,021	0,040
-348,708	59,212	-0,068	0,049
-347,693	-200,000	-0,018	-0,113
-346,679	-32,354	-0,105	0,043
-345,664	-200,000	-0,035	-0,207
-344,650	1,089	0,065	0,034
-343,635	-98,312	0,136	0,025
-342,620	536,188	-0,032	0,056
-341,606	800,000	-0,026	0,054
-340,591	17,138	-0,152	-0,088
-339,577	-200,000	-0,011	-0,129
-338,562	120,959	0,042	-0,038
-337,548	377,418	0,092	0,139
-336,533	180,192	0,081	0,088
-335,518	390,339	-0,131	0,200
-334,504	-200,000	-0,004	0,100
-333,489	-200,000	-0,008	0,139
-332,475	555,266	0,044	0,077
-331,460	-183,208	-0,092	-0,001
-330,445	-200,000	-0,002	-0,009
-329,431	-41,148	0,136	0,051
-328,416	103,092	0,072	0,062
-327,402	54,348	0,100	-0,070
-326,387	-200,000	0,008	-0,026
-325,372	-200,000	-0,047	-0,158
-324,358	194,273	0,117	-0,130
-323,343	-200,000	0,011	-0,064
-322,329	800,000	-0,058	0,125
-321,314	-150,135	-0,058	0,003
-320,299	175,271	0,024	-0,026
-319,285	-63,101	0,161	0,048
-318,270	321,357	-0,064	-0,090
-317,256	113,368	-0,066	-0,059
-316,241	800,000	0,059	-0,132
-315,226	-44,449	0,038	0,014
-314,212	466,426	0,060	0,099
-313,197	-200,000	-0,020	0,069
-312,183	-30,864	-0,091	-0,038
-311,168	800,000	-0,030	-0,085
-310,153	-10,978	0,132	0,064
-309,139	-24,261	0,024	-0,011
-308,124	-23,730	-0,041	-0,018
-307,110	-18,109	0,049	0,022
-306,095	-9,457	0,055	0,027
-305,080	305,778	-0,053	-0,072
-304,066	-62,008	0,040	0,012
-303,051	-154,179	-0,150	-0,007
-302,037	-200,000	-0,020	-0,071
-301,022	54,145	0,075	0,053
-300,008	224,419	0,078	0,093
-298,993	448,188	0,040	0,065
-297,978	688,551	0,060	0,115
-296,964	159,841	-0,090	0,091
-295,949	-200,000	-0,017	-0,110
-294,935	-200,000	-0,067	-0,343
-293,920	800,000	0,017	0,050
-292,905	128,786	0,051	0,048
-291,891	304,812	0,071	0,097
-290,876	657,221	0,025	0,048
-289,862	160,548	-0,074	0,076
-288,847	289,103	-0,073	-0,097
-287,832	-22,188	-0,063	0,028
-286,818	122,312	0,045	-0,042
-285,803	800,000	0,060	0,180
-284,789	-39,537	0,114	0,043
-283,774	-15,400	0,124	-0,058
-282,759	800,000	-0,070	0,172
-281,745	800,000	-0,031	-0,066
-280,730	111,664	-0,113	-0,100
-279,716	-200,000	0,012	0,104
-278,701	-200,000	-0,021	0,106
-277,686	-102,819	0,041	0,007
-276,672	-200,000	-0,024	0,091
-275,657	-200,000	0,012	-0,041
-274,643	800,000	0,019	-0,041
-273,628	800,000	-0,015	-0,039
-272,613	800,000	-0,008	0,026
-271,599	-200,000	0,019	-0,208
-270,584	130,116	0,067	0,063
-269,570	67,139	0,041	0,031
-268,555	-47,165	0,036	0,013
-267,540	-49,727	-0,045	0,016
-266,526	-200,000	-0,018	-0,063
-265,511	-200,000	-0,007	0,061
-264,497	-19,356	0,092	0,042
-263,482	-200,000	-0,010	-0,040
-262,467	-200,000	-0,006	0,135
-261,453	-77,603	0,125	-0,032
-260,438	-200,000	-0,012	-0,070
-259,424	341,416	0,069	-0,099
-258,409	-10,505	-0,041	0,020
-257,395	-200,000	-0,005	0,100
-256,380	-200,000	-0,009	0,068
-255,365	1,952	-0,047	0,025
-254,351	233,533	0,059	0,071
-253,336	-26,095	-0,065	-0,028
-252,322	-166,303	-0,063	-0,002
-251,307	81,294	-0,049	0,039
-250,292	-200,000	-0,070	0,241
-249,278	800,000	-0,029	0,075
-248,263	-117,532	-0,035	0,005
-247,249	82,250	-0,031	0,024
-246,234	-75,808	-0,061	0,016
-245,219	800,000	-0,030	-0,064
-244,205	-200,000	-0,008	0,062
-243,190	-200,000	-0,000	0,007
-242,176	-98,176	-0,029	0,005
-241,161	-200,000	0,030	-0,164
-240,146	800,000	-0,038	0,095
-239,132	-200,000	-0,005	-0,056
-238,117	77,296	0,115	0,089
-237,103	-200,000	-0,011	0,060
-236,088	310,233	0,061	0,084
-235,073	800,000	-0,074	0,166
-234,059	46,823	0,050	0,034
-233,044	-132,737	0,071	0,007
-232,030	-4,095	0,059	-0,030
-231,015	380,097	0,072	-0,108
-230,000	228,936	-0,047	-0,057
-228,986	192,861	0,076	0,084
-227,971	800,000	0,038	0,099
-226,957	-127,005	0,173	-0,018
-225,942	800,000	0,033	-0,087
-224,927	-45,436	0,046	0,017
-223,913	-200,000	-0,009	-0,040
-222,898	-105,986	0,037	-0,006
-221,884	150,432	-0,099	-0,098
-220,869	-157,770	0,056	0,002
-219,855	-200,000	-0,005	-0,086
-218,840	800,000	0,026	-0,054
-217,825	257,855	-0,034	-0,043
-216,811	-60,355	-0,096	-0,030
-215,796	800,000	-0,052	-0,110
-214,782	800,000	-0,016	-0,052
-213,767	-54,702	-0,109	0,036
-212,752	81,071	0,041	-0,032
-211,738	524,029	-0,062	0,108
-210,723	0,796	-0,104	0,054
-209,709	-120,530	0,107	-0,013
-208,694	800,000	0,006	-0,015
-207,679	204,210	-0,101	-0,114
-206,665	-160,361	0,034	0,001
-205,650	-146,393	0,101	-0,006
-204,636	-92,318	-0,033	0,007
-203,621	192,190	-0,019	0,021
-202,606	-115,176	0,053	-0,007
-201,592	60,813	-0,099	-0,072
-200,577	-97,339	-0,110	0,021
-199,563	0,378	0,150	0,078
-198,548	8,589	0,101	-0,055
-197,533	-37,301	-0,011	0,004
-196,519	-26,950	0,097	-0,041
-195,504	-55,021	0,113	0,037
-194,490	-10,634	-0,015	-0,007
-193,475	-58,279	-0,066	-0,021
-192,460	98,419	-0,073	-0,062
-191,446	-200,000	-0,009	-0,112
-190,431	-118,527	0,125	0,016
-189,417	-55,013	0,074	0,024
-188,402	-136,242	-0,134	-0,011
-187,387	-113,011	0,080	-0,011
-186,373	-121,100	-0,110	0,013
-185,358	-109,978	0,090	0,014
-184,344	-200,000	0,015	-0,071
-183,329	800,000	0,096	-0,201
-182,315	322,058	0,087	-0,121
-181,300	800,000	-0,049	-0,102
-180,285	79,507	-0,063	-0,049
-179,271	-200,000	0,006	0,084
-178,256	800,000	0,069	-0,144
-177,242	-121,150	0,113	0,014
-176,227	10,530	0,047	0,026
-175,212	-2,518	0,090	0,046
-174,198	800,000	-0,051	0,145
-173,183	40,885	-0,063	0,041
-172,169	193,735	-0,111	0,122
-171,154	-200,000	0,044	-0,225
-170,139	118,584	0,007	0,007
-169,125	449,371	0,060	-0,097
-168,110	2,446	0,094	-0,049
-167,096	-200,000	-0,011	-0,104
-166,081	-200,000	0,005	-0,038
-165,066	697,339	-0,042	0,082
-164,052	263,153	-0,030	0,039
-163,037	32,717	-0,081	0,051
-162,023	99,687	-0,030	-0,025
-161,008	217,274	-0,071	-0,083
-159,993	324,820	-0,048	0,067
-158,979	69,870	-0,048	0,036
-157,964	-132,576	-0,046	-0,004
-156,950	17,254	0,092	-0,053
-155,935	120,055	-0,036	-0,033
-154,920	-200,000	-0,011	0,130
-153,906	-13,328	0,046	0,022
-152,891	800,000	0,034	0,074
-151,877	-200,000	0,005	-0,121
-150,862	-84,351	-0,061	-0,014
-149,847	800,000	0,017	-0,045
-148,833	-200,000	0,010	0,056
-147,818	800,000	-0,025	0,076
-146,804	800,000	-0,052	0,165
-145,789	-77,708	0,161	0,040
-144,775	94,930	0,047	-0,039
-143,760	13,794	-0,081	-0,046
-142,745	800,000	0,050	-0,139
-141,731	334,772	-0,029	0,042
-140,716	-143,687	0,111	-0,008
-139,702	538,889	0,032	0,056
-138,687	236,785	-0,053	-0,064
-137,672	153,016	-0,035	0,035
-136,658	-200,000	-0,005	-0,144
-135,643	401,270	-0,069	0,105
-134,629	1,371	-0,077	-0,040
-133,614	359,984	-0,036	-0,052
-132,599	-123,623	-0,146	-0,017
-131,585	800,000	-0,060	0,142
-130,570	-200,000	0,020	0,087
-129,556	484,959	-0,036	-0,059
-128,541	-178,712	-0,101	0,002
-127,526	-26,444	-0,022	0,010
-126,512	95,126	-0,016	0,013
-125,497	-140,060	0,226	0,017
-124,483	141,248	-0,041	-0,039
-123,468	12,468	-0,098	-0,055
-122,453	800,000	0,043	0,102
-121,439	234,087	0,111	-0,134
-120,424	166,236	0,061	0,063
