DTS Sentinel unit serial number:	SN410029Multiplexer serial number:	ORYXHardware model number:	OX2-SRSoftware version number:	ORYX F/W v4,00 Oryx Data Collector v3.7.2.0data status	okinstallation	B6 Nyhavnadifferential loss correction	single-endedforward channel	channel 2reverse channel	N/Adate	2023/12/07time	20:15:08forward acquisition time	300,00reverse acquisition time	0,00gamma	499,1914k internal	0,3165k external	0,3165temperature offset calibration	1,0000default loss term (dB/km)	0,3820temperature slope calibration	1,0000multiplexer offset coefficient	1,0000multiplexer slope coefficient	1,0000fibre end	0,00T internal ref (°C)	13,87T ext. ref 1 (°C)	-3,11T ext. ref 2 (°C)	-3,11length (m)	temperature (°C)	Stokes	anti-Stokes-744,400	107,769	0,117	0,102
-743,385	-167,536	-0,311	-0,009
-742,371	358,645	0,121	0,178
-741,356	-74,226	-0,420	0,111
-740,342	190,695	0,093	0,103
-739,327	-177,223	-0,314	-0,006
-738,312	-200,000	0,022	0,169
-737,298	-134,876	-0,335	-0,029
-736,283	181,469	-0,079	0,085
-735,269	-114,293	-0,253	-0,035
-734,254	-28,313	0,147	0,062
-733,239	-18,925	-0,481	-0,219
-732,225	-45,827	0,176	0,064
-731,210	-200,000	-0,001	-0,005
-730,196	-200,000	0,005	0,038
-729,181	-117,977	-0,048	0,006
-728,167	400,931	-0,094	-0,145
-727,152	-200,000	-0,009	0,085
-726,137	-169,528	-0,077	-0,002
-725,123	65,231	0,019	-0,014
-724,108	-54,513	-0,111	-0,037
-723,094	27,551	-0,073	-0,045
-722,079	-144,180	-0,115	0,008
-721,064	70,016	-0,049	-0,037
-720,050	-200,000	-0,024	0,108
-719,035	39,067	0,121	-0,080
-718,021	190,632	-0,034	-0,037
-717,006	34,441	-0,056	-0,036
-715,991	-188,316	-0,122	0,001
-714,977	-200,000	0,005	-0,099
-713,962	62,788	0,133	0,098
-712,948	-200,000	0,027	0,091
-711,933	-90,265	-0,141	-0,030
-710,918	1,517	-0,195	-0,103
-709,904	780,075	-0,068	-0,138
-708,889	-200,000	-0,002	0,015
-707,875	-16,094	-0,167	0,077
-706,860	182,213	0,035	-0,038
-705,845	100,463	0,098	0,084
-704,831	-72,478	0,123	0,033
-703,816	800,000	-0,065	-0,134
-702,802	-84,177	-0,053	0,012
-701,787	-200,000	-0,016	-0,062
-700,772	23,540	-0,103	0,062
-699,758	-200,000	0,003	-0,086
-698,743	-24,447	-0,086	0,038
-697,729	8,889	0,110	-0,061
-696,714	-200,000	-0,007	-0,028
-695,699	364,300	0,004	0,006
-694,685	-80,551	-0,178	-0,043
-693,670	284,834	0,030	-0,040
-692,656	-200,000	-0,022	-0,101
-691,641	-56,462	0,206	0,067
-690,627	85,862	0,072	0,058
-689,612	408,319	0,089	-0,139
-688,597	-200,000	0,004	0,133
-687,583	125,740	-0,122	0,114
-686,568	681,040	-0,026	-0,051
-685,554	-173,701	-0,120	-0,003
-684,539	90,275	0,092	-0,076
-683,524	-51,135	0,216	0,074
-682,510	478,712	0,049	0,081
-681,495	38,626	-0,050	-0,032
-680,481	-200,000	0,007	-0,133
-679,466	800,000	-0,036	-0,110
-678,451	515,860	-0,028	-0,049
-677,437	531,776	0,069	0,120
-676,422	-96,338	0,181	0,035
-675,408	272,769	0,046	0,059
-674,393	800,000	0,028	-0,061
-673,378	247,440	-0,025	0,031
-672,364	-200,000	-0,013	0,054
-671,349	-108,102	-0,091	0,014
-670,335	-200,000	0,009	0,063
-669,320	-68,161	0,136	-0,039
-668,305	-130,915	-0,051	-0,005
-667,291	-200,000	0,022	0,101
-666,276	-200,000	0,022	-0,071
-665,262	-87,088	-0,051	-0,011
-664,247	-200,000	0,001	0,082
-663,232	-156,351	-0,130	0,006
-662,218	89,428	-0,063	0,052
-661,203	-129,948	0,111	-0,011
-660,189	392,160	0,080	0,122
-659,174	474,324	-0,011	0,018
-658,159	-47,157	-0,116	-0,041
-657,145	111,019	0,101	-0,089
-656,130	221,387	0,030	0,036
-655,116	-132,796	0,115	-0,011
-654,101	130,094	-0,110	-0,103
-653,086	131,965	0,058	0,055
-652,072	492,202	0,045	0,076
-651,057	-59,922	-0,036	0,011
-650,043	-200,000	-0,001	0,016
-649,028	-5,145	-0,149	-0,075
-648,014	225,289	0,006	0,008
-646,999	800,000	0,031	-0,095
-645,984	586,939	-0,057	-0,103
-644,970	-138,108	-0,058	-0,005
-643,955	800,000	-0,019	-0,044
-642,941	-66,570	-0,205	-0,059
-641,926	-10,055	-0,138	0,067
-640,911	-78,695	-0,061	0,015
-639,897	1,986	-0,076	0,040
-638,882	-33,701	-0,101	-0,040
-637,868	-200,000	-0,007	-0,147
-636,853	-92,407	-0,122	0,025
-635,838	-114,421	-0,115	-0,016
-634,824	116,733	-0,061	-0,055
-633,809	94,602	0,193	-0,160
-632,795	-200,000	-0,030	0,108
-631,780	800,000	0,044	0,126
-630,765	-200,000	-0,004	-0,060
-629,751	192,458	-0,050	-0,056
-628,736	-200,000	0,000	0,053
-627,722	127,116	0,035	-0,033
-626,707	295,417	0,070	0,095
-625,692	-63,609	-0,035	0,010
-624,678	-200,000	0,002	0,083
-623,663	-97,283	-0,100	-0,019
-622,649	800,000	-0,021	0,056
-621,634	623,895	-0,072	-0,133
-620,619	-200,000	-0,002	-0,134
-619,605	-126,316	0,106	0,011
-618,590	155,942	-0,088	-0,089
-617,576	-87,469	0,079	0,017
-616,561	540,516	-0,033	-0,057
-615,546	-200,000	0,002	-0,010
-614,532	33,612	0,092	0,058
-613,517	-15,019	-0,078	-0,037
-612,503	710,295	-0,035	-0,068
-611,488	-20,811	0,096	0,043
-610,474	245,147	0,106	-0,131
-609,459	384,030	0,036	0,054
-608,444	-40,093	-0,066	0,025
-607,430	65,525	-0,005	0,003
-606,415	287,649	-0,040	-0,054
-605,401	-200,000	0,015	-0,090
-604,386	-71,621	-0,041	-0,011
-603,371	-91,916	0,131	0,027
-602,357	-137,319	-0,185	0,015
-601,342	-10,552	-0,071	0,034
-600,328	-200,000	-0,016	-0,219
-599,313	-130,602	-0,093	-0,009
-598,298	100,423	-0,067	-0,057
-597,284	386,950	0,113	0,171
-596,269	800,000	0,050	0,127
-595,255	-53,540	-0,082	-0,027
-594,240	181,763	-0,083	-0,090
-593,225	508,426	-0,051	-0,086
-592,211	-19,858	-0,020	-0,009
-591,196	800,000	0,032	0,077
-590,182	45,944	-0,146	-0,099
-589,167	-28,014	0,055	-0,023
-588,152	158,608	-0,071	0,072
-587,138	352,812	-0,077	0,112
-586,123	800,000	0,090	-0,196
-585,109	375,438	0,056	-0,083
-584,094	-42,464	-0,077	-0,029
-583,079	201,907	-0,019	0,022
-582,065	195,416	0,074	0,082
-581,050	-200,000	0,009	-0,096
-580,036	90,365	-0,099	-0,081
-579,021	61,576	-0,098	-0,071
-578,006	77,395	0,114	-0,088
-576,992	502,483	-0,072	-0,122
-575,977	56,055	0,104	-0,074
-574,963	800,000	0,035	-0,108
-573,948	30,530	0,107	0,067
-572,934	-200,000	0,011	0,057
-571,919	-200,000	-0,006	-0,050
-570,904	520,683	-0,057	-0,098
-569,890	-200,000	-0,020	-0,126
-568,875	-200,000	0,013	-0,104
-567,861	-1,964	-0,040	-0,020
-566,846	-200,000	0,020	0,071
-565,831	-11,717	0,066	0,031
-564,817	800,000	0,038	-0,113
-563,802	206,328	0,055	0,063
-562,788	16,566	-0,086	-0,049
-561,773	-61,951	0,074	0,022
-560,758	-122,144	-0,029	-0,003
-559,744	-200,000	-0,018	0,103
-558,729	-15,766	-0,018	0,008
-557,715	74,286	-0,160	-0,123
-556,700	460,778	0,021	-0,035
-555,685	621,614	0,050	-0,093
-554,671	231,309	0,048	-0,057
-553,656	223,298	0,114	0,134
-552,642	800,000	-0,036	-0,090
-551,627	800,000	-0,062	0,134
-550,612	800,000	0,038	0,109
-549,598	-107,052	-0,103	-0,016
-548,583	27,919	-0,021	-0,013
-547,569	-33,811	0,033	0,013
-546,554	107,099	0,062	0,054
-545,539	-156,025	-0,156	-0,007
-544,525	476,633	0,079	0,130
-543,510	-200,000	0,001	0,097
-542,496	-200,000	-0,018	0,089
-541,481	800,000	-0,014	0,038
-540,466	9,460	0,018	-0,010
-539,452	800,000	0,047	-0,129
-538,437	-148,088	-0,053	0,003
-537,423	800,000	0,004	0,011
-536,408	-20,417	-0,061	-0,027
-535,393	121,501	-0,127	0,115
-534,379	-31,666	-0,101	-0,041
-533,364	-82,129	-0,109	0,026
-532,350	800,000	-0,022	0,062
-531,335	-200,000	0,010	0,057
-530,321	-99,253	-0,040	-0,007
-529,306	800,000	0,032	-0,101
-528,291	691,963	0,015	-0,028
-527,277	-84,186	0,042	0,010
-526,262	800,000	-0,038	-0,084
-525,248	30,213	0,024	0,015
-524,233	800,000	-0,090	0,207
-523,218	-88,081	0,072	0,016
-522,204	-200,000	0,009	0,043
-521,189	-200,000	-0,020	-0,112
-520,175	431,825	0,063	-0,101
-519,160	-105,016	-0,057	-0,009
-518,145	418,339	-0,072	-0,112
-517,131	-200,000	0,005	-0,049
-516,116	83,192	0,069	0,055
-515,102	164,169	-0,081	-0,083
-514,087	-6,983	-0,020	-0,010
-513,072	-172,750	0,098	0,002
-512,058	158,777	-0,094	-0,096
-511,043	264,065	0,019	0,024
-510,029	102,030	-0,036	-0,031
-509,014	616,233	0,042	-0,077
-507,999	337,949	0,050	0,071
-506,985	200,135	0,070	-0,079
-505,970	800,000	0,022	-0,070
-504,956	-200,000	0,013	-0,075
-503,941	-13,975	-0,034	0,016
-502,926	-38,982	-0,117	-0,044
-501,912	800,000	0,088	0,191
-500,897	800,000	-0,034	-0,079
-499,883	660,537	0,041	-0,078
-498,868	-13,331	0,037	-0,017
-497,853	17,390	-0,067	0,038
-496,839	-200,000	-0,028	0,096
-495,824	800,000	-0,043	0,104
-494,810	-73,846	0,081	0,021
-493,795	-171,441	-0,155	0,004
-492,781	-91,804	-0,094	-0,019
-491,766	-200,000	-0,003	-0,071
-490,751	-107,459	-0,038	0,006
-489,737	-116,194	0,181	0,024
-488,722	4,920	-0,060	0,032
-487,708	-21,082	0,078	0,035
-486,693	156,634	-0,041	0,042
-485,678	144,780	-0,117	-0,114
-484,664	-107,680	0,052	-0,008
-483,649	730,462	-0,022	0,043
-482,635	800,000	-0,011	0,029
-481,620	70,053	-0,033	-0,024
-480,605	800,000	0,102	0,225
-479,591	-200,000	0,023	0,108
-478,576	-200,000	-0,005	0,062
-477,562	168,028	-0,096	-0,099
-476,547	608,499	0,047	-0,086
-475,532	26,450	0,098	-0,059
-474,518	44,298	-0,087	-0,058
-473,503	31,925	-0,052	-0,032
-472,489	343,955	-0,012	-0,018
-471,474	800,000	-0,031	-0,065
-470,459	531,043	0,043	-0,074
-469,445	157,417	0,080	-0,081
-468,430	-34,940	0,167	-0,066
-467,416	-16,839	-0,088	0,040
-466,401	800,000	0,020	0,044
-465,386	-30,674	0,121	-0,050
-464,372	-200,000	0,026	0,158
-463,357	-200,000	0,018	0,119
-462,343	282,213	-0,044	0,057
-461,328	179,816	0,009	0,009
-460,313	-200,000	0,034	0,157
-459,299	-62,559	-0,092	0,028
-458,284	-119,171	-0,029	0,004
-457,270	-200,000	-0,009	0,128
-456,255	-200,000	-0,040	-0,130
-455,241	-125,745	0,065	0,007
-454,226	-136,533	-0,090	0,007
-453,211	14,869	0,100	0,057
-452,197	-200,000	-0,012	0,081
-451,182	-79,361	0,148	0,036
-450,168	-89,617	0,151	0,032
-449,153	-76,189	-0,032	0,008
-448,138	-200,000	0,004	-0,012
-447,124	14,672	-0,057	0,032
-446,109	191,550	0,046	-0,051
-445,095	181,399	-0,014	0,015
-444,080	14,426	0,084	0,047
-443,065	-106,188	-0,035	0,006
-442,051	163,464	-0,142	0,145
-441,036	111,949	0,090	-0,079
-440,022	-200,000	-0,005	-0,070
-439,007	-200,000	0,005	-0,019
-437,992	800,000	0,016	-0,047
-436,978	10,730	0,175	-0,097
-435,963	800,000	-0,031	-0,078
-434,949	446,858	-0,019	0,031
-433,934	-48,006	-0,052	-0,018
-432,919	-200,000	-0,011	-0,035
-431,905	-200,000	0,012	-0,045
-430,890	579,894	-0,037	-0,067
-429,876	171,979	0,017	0,017
-428,861	569,538	0,040	0,070
-427,846	-200,000	-0,001	0,050
-426,832	-200,000	0,036	0,117
-425,817	85,820	-0,106	-0,084
-424,803	-10,471	-0,078	-0,037
-423,788	-200,000	0,029	-0,123
-422,773	800,000	-0,048	-0,103
-421,759	243,919	-0,080	0,098
-420,744	208,099	0,102	-0,116
-419,730	60,567	0,053	-0,038
-418,715	449,801	-0,071	0,114
-417,701	-200,000	-0,015	0,060
-416,686	-24,728	0,070	-0,030
-415,671	-49,242	-0,074	0,026
-414,657	350,989	0,061	0,088
-413,642	-0,045	0,137	0,070
-412,628	-200,000	0,003	-0,023
-411,613	-200,000	-0,004	0,025
-410,598	-155,591	0,157	-0,007
-409,584	-131,984	0,048	-0,005
-408,569	304,185	0,064	0,086
-407,555	193,640	0,054	0,059
-406,540	-110,681	0,128	0,019
-405,525	-200,000	0,003	-0,020
-404,511	800,000	0,040	-0,121
-403,496	-200,000	0,001	0,083
-402,482	128,888	-0,099	0,092
-401,467	10,668	0,097	0,053
-400,452	-75,316	0,071	-0,018
-399,438	-45,896	-0,094	0,034
-398,423	518,353	-0,038	0,064
-397,409	800,000	0,018	0,054
-396,394	-15,003	-0,079	0,037
-395,379	92,535	0,013	0,011
-394,365	124,278	-0,061	-0,055
-393,350	106,327	0,121	-0,104
-392,336	-45,409	-0,105	-0,037
-391,321	800,000	-0,036	0,078
-390,306	14,997	-0,084	0,047
-389,292	-139,547	-0,085	0,007
-388,277	349,631	-0,040	0,057
-387,263	42,295	0,162	-0,106
-386,248	60,492	-0,094	-0,067
-385,233	-73,169	0,188	0,049
-384,219	84,992	-0,035	0,028
-383,204	-136,043	-0,122	0,010
-382,190	112,238	0,095	-0,083
-381,175	-98,882	-0,054	0,010
-380,160	-200,000	-0,010	-0,079
-379,146	-64,064	-0,077	0,023
-378,131	-200,000	0,005	0,064
-377,117	800,000	-0,005	-0,012
-376,102	8,268	-0,113	0,061
-375,088	243,667	-0,120	-0,146
-374,073	235,012	0,090	-0,107
-373,058	800,000	-0,024	0,075
-372,044	1,606	0,169	0,088
-371,029	-10,194	-0,149	0,071
-370,015	-200,000	-0,052	0,245
-369,000	658,874	-0,074	0,140
-367,985	-42,193	-0,040	0,015
-366,971	44,319	0,043	0,029
-365,956	-200,000	0,008	-0,119
-364,942	-133,641	0,126	0,011
-363,927	-200,000	-0,006	0,036
-362,912	800,000	-0,045	0,138
-361,898	-200,000	0,001	0,023
-360,883	-49,795	-0,111	0,038
-359,869	42,028	0,157	0,103
-358,854	468,253	-0,076	-0,124
-357,839	138,044	-0,095	0,091
-356,825	85,286	0,082	0,065
-355,810	445,294	-0,035	-0,055
-354,796	-114,090	-0,078	0,011
-353,781	-16,210	-0,085	-0,039
-352,766	582,970	0,062	-0,111
-351,752	-16,705	0,077	0,035
-350,737	189,246	0,126	0,137
-349,723	107,279	-0,021	0,018
-348,708	-7,548	0,114	-0,056
-347,693	149,477	-0,072	-0,071
-346,679	80,833	-0,047	0,036
-345,664	-200,000	0,005	-0,086
-344,650	143,712	0,102	-0,099
-343,635	-200,000	-0,010	0,041
-342,620	-153,977	0,081	0,004
-341,606	-200,000	0,015	0,096
-340,591	-200,000	-0,024	0,099
-339,577	-30,667	0,036	-0,015
-338,562	244,144	-0,060	0,073
-337,548	-104,999	-0,134	0,022
-336,533	-122,866	0,150	-0,017
-335,518	-15,095	0,060	0,028
-334,504	-200,000	-0,016	-0,076
-333,489	338,152	-0,036	0,051
-332,475	800,000	-0,052	-0,140
-331,460	99,416	-0,041	-0,034
-330,445	-28,501	0,080	-0,033
-329,431	800,000	-0,050	0,114
-328,416	-51,382	0,023	-0,008
-327,402	-45,604	-0,101	-0,036
-326,387	55,704	0,053	-0,037
-325,372	-55,564	0,030	-0,010
-324,358	-200,000	0,041	-0,145
-323,343	800,000	0,039	-0,123
-322,329	227,999	0,094	-0,111
-321,314	511,691	0,057	-0,096
-320,299	94,336	0,100	-0,082
-319,285	-30,331	-0,033	0,014
-318,270	-180,033	-0,214	-0,003
-317,256	800,000	-0,016	0,036
-316,241	800,000	-0,012	-0,027
-315,226	-144,526	0,088	-0,006
-314,212	208,961	-0,057	0,064
-313,197	-20,666	0,049	0,022
-312,183	-116,540	-0,062	-0,008
-311,168	-55,706	-0,085	-0,027
-310,153	16,888	0,132	-0,075
-309,139	104,911	0,051	-0,043
-308,124	353,235	0,024	0,035
-307,110	64,397	0,065	0,048
-306,095	240,514	0,067	0,081
-305,080	-104,318	-0,058	-0,010
-304,066	-200,000	0,020	-0,095
-303,051	-15,233	-0,146	0,067
-302,037	337,061	0,056	-0,079
-301,022	33,339	0,053	0,033
-300,008	-200,000	0,018	0,063
-298,993	-112,812	0,065	-0,009
-297,978	-18,703	-0,084	0,038
-296,964	26,542	-0,040	0,024
-295,949	93,549	0,032	-0,026
-294,935	800,000	0,030	-0,085
-293,920	22,638	-0,009	0,005
-292,905	-200,000	0,022	-0,081
-291,891	-200,000	0,012	0,112
-290,876	800,000	-0,013	0,039
-289,862	91,705	-0,064	0,052
-288,847	-200,000	-0,011	-0,098
-287,832	142,922	0,080	-0,076
-286,818	-106,802	-0,048	0,008
-285,803	88,666	0,067	0,054
-284,789	-32,144	0,085	0,034
-283,774	-200,000	0,007	0,080
-282,759	301,628	-0,041	-0,055
-281,745	-200,000	-0,018	-0,187
-280,730	-12,745	-0,172	0,081
-279,716	800,000	0,026	-0,072
-278,701	-200,000	0,006	0,054
-277,686	-200,000	0,006	-0,021
-276,672	332,701	0,033	0,046
-275,657	289,600	0,072	-0,095
-274,643	261,859	-0,049	0,061
-273,628	8,818	-0,086	0,047
-272,613	-200,000	0,003	-0,126
-271,599	34,817	0,051	0,032
-270,584	243,248	0,048	0,059
-269,570	-129,635	0,040	0,004
-268,555	49,300	0,050	-0,034
-267,540	-200,000	-0,016	0,067
-266,526	800,000	-0,022	-0,059
-265,511	800,000	0,049	-0,098
-264,497	-92,370	-0,154	0,031
-263,482	71,908	0,128	0,096
-262,467	-200,000	0,008	0,037
-261,453	-92,694	0,131	0,026
-260,438	-200,000	0,001	-0,109
-259,424	-200,000	0,019	-0,077
-258,409	229,738	0,046	-0,054
-257,395	273,950	0,093	-0,119
-256,380	504,082	0,073	0,122
-255,365	-94,757	-0,097	0,019
-254,351	-48,815	0,061	-0,021
-253,336	-63,906	0,090	-0,026
-252,322	-200,000	-0,028	-0,171
-251,307	-200,000	0,000	0,018
-250,292	335,614	0,027	-0,038
-249,278	667,716	0,037	-0,069
-248,263	-76,273	0,066	0,017
-247,249	800,000	0,059	-0,139
-246,234	109,999	0,058	0,050
-245,219	-26,475	-0,042	0,018
-244,205	506,538	-0,057	-0,096
-243,190	265,386	0,096	0,121
-242,176	-200,000	0,052	0,182
-241,161	-200,000	0,010	0,160
-240,146	410,717	0,068	0,104
-239,132	146,272	-0,119	0,115
-238,117	300,289	0,005	0,006
-237,103	52,693	-0,013	-0,009
-236,088	455,989	-0,075	-0,121
-235,073	-131,968	0,060	0,006
-234,059	-109,249	0,145	-0,022
-233,044	145,787	0,087	-0,084
-232,030	-200,000	0,016	0,075
-231,015	499,913	-0,031	0,051
-230,000	-99,136	0,042	-0,008
-228,986	-200,000	0,001	0,048
-227,971	-151,668	0,042	0,002
-226,957	642,536	0,104	0,193
-225,942	-181,385	0,085	-0,001
-224,927	-160,850	-0,074	-0,003
-223,913	-144,045	-0,102	-0,007
-222,898	267,722	-0,047	-0,059
-221,884	151,245	-0,082	0,080
-220,869	-200,000	-0,005	0,039
-219,855	800,000	-0,010	0,027
-218,840	-122,579	-0,041	0,005
-217,825	-200,000	-0,001	0,130
-216,811	-6,939	-0,081	0,040
-215,796	196,785	0,075	0,082
-214,782	-118,467	-0,069	0,009
-213,767	800,000	0,056	0,119
-212,752	-200,000	0,039	0,143
-211,738	265,641	0,071	0,090
-210,723	277,178	0,072	0,093
-209,709	118,845	0,048	-0,043
-208,694	-109,431	-0,042	-0,006
-207,679	800,000	0,042	-0,117
-206,665	-200,000	-0,095	0,000
-205,650	-166,485	0,135	-0,004
-204,636	130,525	0,073	-0,067
-203,621	303,990	0,068	0,091
-202,606	-86,521	-0,065	-0,014
-201,592	405,301	0,045	0,069
-200,577	-61,355	-0,104	0,031
-199,563	800,000	0,085	0,205
-198,548	1,166	0,050	-0,026
-197,533	-23,544	-0,025	0,011
-196,519	-2,825	-0,059	0,030
-195,504	-17,580	-0,153	-0,069
-194,490	-70,552	0,163	0,044
-193,475	-102,037	-0,103	0,018
-192,460	-200,000	0,014	-0,069
-191,446	39,145	0,115	-0,074
-190,431	654,981	-0,019	-0,036
-189,417	306,945	-0,079	-0,106
-188,402	-200,000	0,020	-0,066
-187,387	284,430	0,058	-0,075
-186,373	353,569	0,037	-0,052
-185,358	583,530	0,050	0,089
-184,344	-191,388	0,149	-0,001
-183,329	-88,590	0,124	-0,026
-182,315	-20,335	0,098	0,043
-181,300	-29,979	-0,106	-0,043
-180,285	-200,000	-0,023	0,221
-179,271	295,989	-0,114	0,151
-178,256	121,110	0,022	-0,020
-177,242	759,216	-0,022	-0,043
-176,227	-142,077	0,197	-0,014
-175,212	364,669	-0,059	-0,085
-174,198	-45,382	-0,137	0,049
-173,183	-165,007	-0,145	0,005
-172,169	-200,000	-0,003	0,041
-171,154	384,549	-0,032	-0,047
-170,139	-200,000	0,032	0,125
-169,125	-182,270	0,032	-0,000
-168,110	-200,000	-0,006	-0,217
-167,096	-200,000	0,018	0,067
-166,081	137,089	-0,005	0,004
-165,066	-200,000	-0,002	-0,025
-164,052	51,857	-0,096	-0,066
-163,037	230,847	-0,046	0,054
-162,023	-200,000	0,015	0,195
-161,008	800,000	0,014	0,040
-159,993	-200,000	0,007	0,110
-158,979	-95,527	0,089	0,017
-157,964	-85,019	-0,090	0,020
-156,950	800,000	-0,047	-0,109
-155,935	-0,651	-0,044	0,022
-154,920	66,438	0,054	-0,039
-153,906	800,000	-0,028	0,075
-152,891	479,419	-0,016	-0,026
-151,877	-196,450	-0,188	0,001
-150,862	119,763	-0,052	-0,046
-149,847	196,633	-0,063	0,069
-148,833	-200,000	-0,010	0,111
-147,818	-20,806	0,089	0,039
-146,804	-200,000	-0,034	-0,121
-145,789	106,323	0,053	-0,045
-144,775	-200,000	0,032	-0,126
-143,760	214,979	-0,081	-0,093
-142,745	36,439	-0,092	-0,058
-141,731	-200,000	-0,005	-0,080
-140,716	-200,000	0,020	-0,081
-139,702	-200,000	-0,025	0,000
-138,687	73,496	-0,051	-0,039
-137,672	-200,000	0,007	-0,177
-136,658	800,000	-0,017	-0,048
-135,643	-15,662	-0,057	-0,026
-134,629	62,992	-0,012	-0,009
-133,614	-33,776	-0,096	0,038
-132,599	-200,000	0,033	0,113
-131,585	616,091	0,069	0,124
-130,570	104,950	0,039	0,033
-129,556	-80,593	0,069	-0,016
-128,541	700,577	-0,037	-0,070
-127,526	800,000	0,063	-0,143
-126,512	121,985	-0,094	0,084
-125,497	-137,403	0,127	0,010
-124,483	-115,461	-0,057	0,008
-123,468	-30,676	0,081	-0,033
-122,453	286,814	-0,076	-0,098
-121,439	-123,445	-0,087	0,010
-120,424	-200,000	-0,010	0,170
-119,410	27,778	0,135	0,082
