DTS Sentinel unit serial number:	SN410029Multiplexer serial number:	ORYXHardware model number:	OX2-SRSoftware version number:	ORYX F/W v4,00 Oryx Data Collector v3.7.2.0data status	okinstallation	B6 Nyhavnadifferential loss correction	single-endedforward channel	channel 2reverse channel	N/Adate	2023/12/09time	19:45:08forward acquisition time	300,00reverse acquisition time	0,00gamma	499,1914k internal	0,3129k external	0,3129temperature offset calibration	1,0000default loss term (dB/km)	0,3820temperature slope calibration	1,0000multiplexer offset coefficient	1,0000multiplexer slope coefficient	1,0000fibre end	0,00T internal ref (°C)	21,14T ext. ref 1 (°C)	5,13T ext. ref 2 (°C)	5,10length (m)	temperature (°C)	Stokes	anti-Stokes-744,400	396,372	-0,011	-0,017
-743,385	-105,931	-0,188	-0,031
-742,371	-103,825	-0,016	-0,003
-741,356	-95,995	-0,237	0,046
-740,342	-108,270	0,227	-0,036
-739,327	-140,091	-0,185	0,014
-738,312	-92,943	0,121	-0,025
-737,298	-77,233	-0,258	0,066
-736,283	-16,984	0,058	0,027
-735,269	-165,447	-0,149	0,005
-734,254	513,807	0,082	-0,143
-733,239	-36,562	-0,326	-0,130
-732,225	58,678	0,053	-0,039
-731,210	-114,799	0,121	0,017
-730,196	-173,387	0,034	-0,001
-729,181	-200,000	-0,018	-0,092
-728,167	271,474	-0,047	-0,061
-727,152	-70,906	-0,130	-0,036
-726,137	-200,000	0,011	-0,168
-725,123	-200,000	0,027	-0,094
-724,108	800,000	-0,021	-0,055
-723,094	322,498	0,056	-0,079
-722,079	-200,000	-0,100	-0,000
-721,064	-98,898	0,149	-0,028
-720,050	413,150	-0,077	-0,122
-719,035	-200,000	0,014	-0,125
-718,021	-97,074	0,105	-0,020
-717,006	-63,056	-0,153	0,047
-715,991	-101,176	-0,246	-0,044
-714,977	-71,527	0,108	-0,030
-713,962	-200,000	0,056	-0,237
-712,948	-200,000	0,014	-0,067
-711,933	38,091	-0,106	-0,070
-710,918	30,552	-0,148	-0,094
-709,904	-121,933	0,058	0,007
-708,889	800,000	-0,023	-0,053
-707,875	1,275	-0,212	-0,113
-706,860	595,060	-0,029	-0,054
-705,845	800,000	0,087	-0,210
-704,831	-87,337	-0,047	0,011
-703,816	111,541	0,049	0,044
-702,802	-108,832	-0,066	0,010
-701,787	800,000	-0,046	-0,125
-700,772	213,882	0,065	0,076
-699,758	800,000	0,011	-0,025
-698,743	394,825	-0,046	0,072
-697,729	800,000	0,054	-0,127
-696,714	773,910	-0,006	0,012
-695,699	74,202	-0,086	-0,067
-694,685	-200,000	0,014	-0,127
-693,670	30,397	-0,077	-0,049
-692,656	25,668	0,071	-0,044
-691,641	128,246	0,051	-0,048
-690,627	-25,983	-0,030	-0,013
-689,612	9,832	-0,099	-0,055
-688,597	-109,627	-0,142	-0,022
-687,583	187,246	0,056	-0,062
-686,568	389,117	-0,112	-0,172
-685,554	125,046	-0,067	-0,063
-684,539	-7,216	-0,019	-0,009
-683,524	27,409	-0,038	0,024
-682,510	424,850	-0,012	0,020
-681,495	-75,941	-0,080	0,021
-680,481	-170,979	-0,135	0,003
-679,466	110,283	0,099	-0,088
-678,451	-200,000	0,004	0,015
-677,437	394,621	-0,061	0,095
-676,422	-200,000	-0,007	0,093
-675,408	-11,556	-0,066	0,032
-674,393	58,905	0,088	0,064
-673,378	62,433	-0,056	-0,041
-672,364	-136,695	0,116	0,010
-671,349	-200,000	-0,007	-0,066
-670,335	-22,320	0,013	-0,006
-669,320	-78,354	0,034	-0,009
-668,305	86,800	-0,035	-0,029
-667,291	185,106	-0,060	-0,066
-666,276	-200,000	0,026	0,104
-665,262	-18,680	-0,055	-0,025
-664,247	-200,000	-0,004	0,125
-663,232	32,788	0,089	0,057
-662,218	456,612	-0,007	0,011
-661,203	800,000	-0,085	-0,199
-660,189	314,518	-0,015	0,021
-659,174	36,796	-0,115	0,075
-658,159	-200,000	-0,003	0,037
-657,145	56,020	-0,026	0,019
-656,130	-200,000	0,009	0,035
-655,116	-200,000	-0,011	-0,087
-654,101	-200,000	0,024	0,084
-653,086	5,839	0,070	-0,039
-652,072	126,535	-0,082	-0,077
-651,057	233,534	-0,079	-0,096
-650,043	273,061	0,047	-0,062
-649,028	-200,000	-0,002	-0,079
-648,014	800,000	-0,019	0,043
-646,999	-117,627	-0,141	-0,019
-645,984	-90,754	0,063	-0,013
-644,970	732,056	-0,079	-0,157
-643,955	800,000	-0,030	0,062
-642,941	-152,858	-0,105	0,005
-641,926	-200,000	0,007	0,052
-640,911	147,159	0,126	0,126
-639,897	8,734	-0,047	-0,026
-638,882	359,769	-0,054	0,081
-637,868	33,862	-0,093	0,060
-636,853	169,695	-0,145	0,153
-635,838	-200,000	-0,020	-0,136
-634,824	-13,113	0,061	-0,029
-633,809	-53,280	0,046	-0,015
-632,795	12,060	-0,070	-0,040
-631,780	-96,803	0,049	-0,010
-630,765	800,000	0,028	-0,086
-629,751	450,437	-0,075	-0,123
-628,736	245,912	0,026	-0,032
-627,722	800,000	0,011	-0,025
-626,707	-200,000	-0,010	0,105
-625,692	-8,147	-0,045	-0,023
-624,678	93,855	-0,054	0,046
-623,663	154,924	-0,061	-0,062
-622,649	81,410	-0,082	0,065
-621,634	470,526	-0,084	-0,140
-620,619	-93,247	-0,055	-0,011
-619,605	485,312	0,015	0,025
-618,590	-166,440	0,153	0,005
-617,576	251,105	-0,065	-0,083
-616,561	-200,000	0,013	0,105
-615,546	-25,607	-0,116	-0,050
-614,532	99,201	-0,103	-0,088
-613,517	189,873	0,117	-0,130
-612,503	-16,136	0,036	-0,017
-611,488	-146,916	0,102	0,006
-610,474	182,781	0,125	-0,137
-609,459	-112,581	-0,144	0,021
-608,444	800,000	-0,041	-0,098
-607,430	-35,309	0,153	0,061
-606,415	-63,639	0,045	-0,014
-605,401	34,694	0,088	0,057
-604,386	-200,000	-0,005	-0,161
-603,371	-200,000	-0,007	0,098
-602,357	64,371	-0,041	-0,030
-601,342	135,935	0,047	0,045
-600,328	-171,107	-0,225	-0,006
-599,313	-22,571	-0,147	-0,066
-598,298	-102,726	0,174	0,030
-597,284	33,875	0,104	0,067
-596,269	-200,000	0,036	0,158
-595,255	369,046	0,030	0,044
-594,240	-200,000	0,005	-0,025
-593,225	800,000	0,051	-0,120
-592,211	-67,333	-0,119	-0,034
-591,196	123,866	0,063	-0,058
-590,182	-102,790	-0,098	0,017
-589,167	485,604	-0,035	-0,059
-588,152	-200,000	-0,002	-0,095
-587,138	-129,077	-0,086	-0,009
-586,123	800,000	0,075	-0,171
-585,109	192,191	0,039	0,044
-584,094	119,748	-0,098	0,090
-583,079	-68,326	0,081	0,023
-582,065	118,013	0,019	0,017
-581,050	261,089	0,047	-0,060
-580,036	-61,951	0,016	-0,005
-579,021	-112,836	-0,034	-0,005
-578,006	-37,667	-0,095	-0,037
-576,992	-200,000	0,007	-0,139
-575,977	173,270	0,044	0,047
-574,963	-11,784	0,053	0,026
-573,948	-100,128	0,009	-0,002
-572,934	800,000	0,035	0,102
-571,919	357,663	0,065	0,096
-570,904	110,358	0,054	-0,048
-569,890	81,211	-0,006	-0,005
-568,875	800,000	-0,052	-0,148
-567,861	800,000	0,014	0,034
-566,846	800,000	-0,040	0,096
-565,831	35,177	-0,104	-0,067
-564,817	-200,000	0,007	-0,092
-563,802	263,568	0,065	0,084
-562,788	-200,000	-0,023	-0,076
-561,773	39,574	0,048	0,032
-560,758	654,967	-0,032	0,061
-559,744	-126,683	-0,152	-0,016
-558,729	100,583	0,038	0,032
-557,715	410,443	0,043	-0,067
-556,700	-200,000	-0,005	-0,036
-555,685	440,274	-0,036	-0,058
-554,671	607,895	-0,048	-0,089
-553,656	456,582	0,032	0,052
-552,642	-200,000	0,006	-0,219
-551,627	9,642	-0,056	-0,031
-550,612	50,317	-0,148	-0,103
-549,598	160,716	-0,078	0,080
-548,583	702,755	0,031	0,060
-547,569	-200,000	0,006	0,089
-546,554	800,000	0,049	0,123
-545,539	800,000	-0,039	0,091
-544,525	-73,476	0,141	0,038
-543,510	175,639	0,088	-0,094
-542,496	21,869	-0,055	0,033
-541,481	-200,000	0,009	-0,088
-540,466	-200,000	0,001	-0,059
-539,452	149,184	-0,028	0,028
-538,437	308,477	0,075	0,104
-537,423	51,139	0,072	0,050
-536,408	235,355	0,044	0,053
-535,393	425,268	0,066	0,105
-534,379	800,000	0,035	0,072
-533,364	800,000	0,020	-0,048
-532,350	800,000	0,052	-0,115
-531,335	-200,000	-0,012	-0,184
-530,321	-200,000	0,000	-0,083
-529,306	-85,710	0,092	-0,021
-528,291	-143,701	-0,179	-0,012
-527,277	261,835	0,035	-0,044
-526,262	800,000	-0,077	0,165
-525,248	47,433	0,046	0,032
-524,233	124,511	0,116	0,108
-523,218	317,846	0,025	0,035
-522,204	-159,045	-0,116	0,005
-521,189	800,000	-0,049	-0,105
-520,175	-200,000	-0,000	-0,095
-519,160	-138,242	0,103	-0,008
-518,145	266,483	0,025	0,033
-517,131	-53,087	0,093	-0,031
-516,116	-200,000	-0,001	0,121
-515,102	-200,000	0,002	0,083
-514,087	68,416	-0,024	0,018
-513,072	800,000	-0,069	-0,207
-512,058	224,008	0,022	-0,026
-511,043	-176,643	0,158	0,003
-510,029	0,410	-0,057	0,030
-509,014	137,944	0,109	0,105
-507,999	-2,468	-0,039	-0,020
-506,985	-153,588	0,047	-0,002
-505,970	665,607	-0,036	-0,068
-504,956	-38,630	-0,041	-0,016
-503,941	45,584	0,042	-0,029
-502,926	-200,000	-0,011	0,060
-501,912	-87,264	-0,046	0,010
-500,897	53,900	-0,103	0,073
-499,883	-40,148	0,090	-0,034
-498,868	93,369	-0,099	-0,083
-497,853	-54,231	0,138	0,046
-496,839	-31,413	0,125	-0,051
-495,824	181,096	-0,052	0,056
-494,810	361,433	-0,050	-0,075
-493,795	515,520	0,084	0,144
-492,781	325,890	0,050	-0,070
-491,766	11,820	0,048	-0,027
-490,751	301,351	-0,010	-0,013
-489,737	-200,000	0,002	0,051
-488,722	-2,115	0,049	-0,025
-487,708	-200,000	0,070	0,000
-486,693	800,000	0,023	0,072
-485,678	241,203	-0,027	0,033
-484,664	-200,000	-0,010	-0,045
-483,649	434,823	0,072	-0,116
-482,635	9,097	-0,119	-0,066
-481,620	-52,211	0,074	-0,025
-480,605	-155,414	0,092	0,004
-479,591	500,974	0,077	0,131
-478,576	-103,121	-0,058	-0,010
-477,562	743,816	0,030	-0,060
-476,547	-200,000	-0,183	-0,000
-475,532	-106,569	-0,156	-0,025
-474,518	15,697	-0,083	-0,048
-473,503	237,729	-0,085	0,104
-472,489	-200,000	0,001	0,035
-471,474	70,618	0,103	-0,078
-470,459	486,897	-0,084	0,142
-469,445	-79,637	-0,135	-0,033
-468,430	74,045	0,087	-0,067
-467,416	-123,594	0,100	-0,012
-466,401	351,624	-0,120	0,175
-465,386	-200,000	-0,015	-0,070
-464,372	-200,000	-0,002	-0,088
-463,357	125,923	-0,056	-0,052
-462,343	-200,000	-0,004	0,077
-461,328	735,569	-0,022	-0,044
-460,313	-76,937	-0,067	0,017
-459,299	335,675	0,085	0,122
-458,284	-200,000	0,006	0,029
-457,270	-200,000	0,040	-0,152
-456,255	-200,000	0,017	0,141
-455,241	-49,685	-0,108	-0,037
-454,226	330,148	0,064	-0,090
-453,211	-125,438	0,067	0,007
-452,197	66,418	0,123	-0,092
-451,182	-200,000	0,000	0,095
-450,168	-200,000	0,028	0,090
-449,153	517,216	-0,008	0,014
-448,138	340,390	-0,040	0,057
-447,124	-200,000	0,000	0,092
-446,109	800,000	-0,020	0,044
-445,095	-94,986	0,076	-0,015
-444,080	-200,000	-0,002	0,042
-443,065	342,603	-0,075	0,108
-442,051	-178,544	-0,137	-0,002
-441,036	19,382	-0,129	-0,076
-440,022	64,330	-0,063	0,047
-439,007	754,861	0,037	0,074
-437,992	29,571	0,052	-0,032
-436,978	-43,700	0,095	0,035
-435,963	12,691	0,026	-0,015
-434,949	-150,083	0,029	0,002
-433,934	-4,579	0,057	-0,029
-432,919	48,737	-0,067	0,046
-431,905	800,000	0,087	-0,183
-430,890	-200,000	-0,027	0,142
-429,876	-155,085	0,048	0,002
-428,861	152,333	0,073	0,073
-427,846	340,869	0,061	-0,087
-426,832	-194,721	-0,078	-0,000
-425,817	134,187	-0,025	-0,024
-424,803	-200,000	0,016	0,161
-423,788	-117,132	0,113	-0,015
-422,773	67,204	-0,055	-0,041
-421,759	422,626	0,101	0,160
-420,744	-200,000	0,020	-0,111
-419,730	478,016	0,069	-0,116
-418,715	-200,000	-0,007	0,078
-417,701	102,430	-0,023	-0,020
-416,686	-174,411	-0,084	-0,002
-415,671	106,990	0,172	0,150
-414,657	72,003	-0,069	0,052
-413,642	227,622	0,019	-0,022
-412,628	2,576	-0,063	0,033
-411,613	183,154	-0,069	0,075
-410,598	800,000	-0,046	-0,104
-409,584	29,272	-0,102	-0,063
-408,569	214,596	0,089	0,103
-407,555	800,000	-0,033	0,100
-406,540	599,541	-0,034	0,062
-405,525	-74,431	-0,102	-0,027
-404,511	12,918	-0,058	-0,033
-403,496	-21,222	0,098	-0,044
-402,482	80,948	-0,024	0,019
-401,467	-200,000	0,007	0,111
-400,452	-200,000	-0,023	0,170
-399,438	-11,714	0,155	0,074
-398,423	50,757	0,095	0,066
-397,409	89,603	0,072	-0,059
-396,394	-3,789	-0,134	-0,068
-395,379	800,000	-0,039	0,095
-394,365	-200,000	0,010	0,089
-393,350	344,973	0,077	0,111
-392,336	-123,039	0,030	0,003
-391,321	-5,388	-0,095	0,048
-390,306	-183,415	0,034	0,000
-389,292	800,000	0,019	0,055
-388,277	-43,873	-0,057	0,021
-387,263	800,000	-0,018	0,056
-386,248	-96,655	0,140	-0,027
-385,233	-92,760	-0,079	-0,016
-384,219	274,273	-0,024	0,031
-383,204	-73,521	-0,115	-0,031
-382,190	394,183	-0,037	0,056
-381,175	-134,474	-0,107	0,010
-380,160	137,712	0,065	-0,062
-379,146	75,767	0,056	0,043
-378,131	-200,000	0,000	-0,044
-377,117	236,718	0,041	-0,050
-376,102	11,671	-0,052	0,029
-375,088	-106,395	-0,086	-0,014
-374,073	155,464	0,048	0,048
-373,058	-89,560	0,061	0,013
-372,044	800,000	-0,015	-0,042
-371,029	-143,938	0,089	0,006
-370,015	12,017	0,040	-0,022
-369,000	-200,000	-0,013	-0,056
-367,985	-170,778	0,088	-0,002
-366,971	74,798	-0,099	-0,076
-365,956	-136,048	0,186	-0,016
-364,942	-159,968	0,107	0,004
-363,927	229,452	0,046	0,056
-362,912	12,019	-0,118	0,066
-361,898	13,818	-0,011	0,006
-360,883	249,286	-0,049	-0,061
-359,869	295,434	0,082	-0,110
-358,854	-200,000	0,007	-0,152
-357,839	165,994	0,061	-0,063
-356,825	-134,634	-0,121	0,011
-355,810	99,083	0,040	-0,034
-354,796	540,979	-0,082	0,143
-353,781	283,178	-0,032	-0,043
-352,766	-73,661	0,055	0,014
-351,752	800,000	0,048	0,147
-350,737	307,055	-0,050	0,068
-349,723	800,000	-0,052	-0,165
-348,708	363,991	0,042	0,062
-347,693	267,665	-0,034	-0,044
-346,679	-186,496	-0,095	-0,001
-345,664	217,704	-0,129	-0,151
-344,650	15,814	0,158	0,091
-343,635	2,838	0,117	0,062
-342,620	800,000	-0,017	0,044
-341,606	-200,000	0,014	-0,071
-340,591	221,429	0,051	-0,060
-339,577	-200,000	-0,027	-0,097
-338,562	800,000	0,030	-0,069
-337,548	-160,920	-0,154	0,006
-336,533	-82,773	0,092	0,022
-335,518	518,609	0,025	-0,043
-334,504	100,894	0,186	-0,158
-333,489	-48,738	-0,081	0,028
-332,475	800,000	-0,051	-0,118
-331,460	-187,307	-0,112	-0,001
-330,445	99,253	-0,063	0,053
-329,431	357,473	-0,053	0,077
-328,416	-200,000	0,040	0,135
-327,402	-101,563	0,147	-0,026
-326,387	-19,436	0,152	-0,069
-325,372	787,101	-0,042	-0,084
-324,358	-200,000	0,011	-0,176
-323,343	237,681	0,046	-0,056
-322,329	106,945	0,004	0,003
-321,314	-200,000	0,048	0,155
-320,299	262,335	-0,038	-0,049
-319,285	20,470	-0,082	0,049
-318,270	426,593	0,013	0,021
-317,256	-16,797	-0,067	0,031
-316,241	800,000	-0,059	-0,153
-315,226	204,945	0,094	0,107
-314,212	-200,000	0,009	0,067
-313,197	-81,180	-0,086	0,021
-312,183	10,419	-0,089	0,050
-311,168	-29,929	0,045	0,019
-310,153	-97,143	0,116	-0,022
-309,139	544,987	0,072	0,126
-308,124	124,456	0,039	0,036
-307,110	-200,000	0,014	-0,084
-306,095	-7,519	0,108	-0,053
-305,080	51,960	-0,105	-0,073
-304,066	196,631	0,028	0,031
-303,051	-38,624	0,037	0,014
-302,037	-200,000	0,037	0,133
-301,022	-66,943	0,206	0,059
-300,008	479,615	0,033	-0,054
-298,993	-200,000	-0,030	0,097
-297,978	800,000	0,039	0,088
-296,964	482,414	-0,031	-0,051
-295,949	770,719	-0,091	-0,182
-294,935	138,170	-0,091	-0,087
-293,920	376,665	0,044	-0,066
-292,905	800,000	0,026	0,077
-291,891	-200,000	-0,028	0,141
-290,876	-72,271	0,106	0,029
-289,862	386,163	-0,030	0,045
-288,847	-200,000	-0,015	0,127
-287,832	329,458	-0,086	0,121
-286,818	60,601	0,049	0,035
-285,803	800,000	-0,034	-0,079
-284,789	588,368	0,099	0,178
-283,774	-44,825	0,050	0,018
-282,759	-31,562	-0,072	0,030
-281,745	80,487	-0,053	-0,042
-280,730	-200,000	0,005	0,074
-279,716	800,000	0,042	-0,086
-278,701	461,307	-0,039	0,064
-277,686	-24,992	0,067	-0,029
-276,672	177,155	-0,061	0,065
-275,657	141,543	-0,027	-0,026
-274,643	255,958	-0,072	-0,090
-273,628	-200,000	0,004	-0,034
-272,613	-166,455	0,015	-0,000
-271,599	-200,000	0,015	0,076
-270,584	-200,000	0,001	0,017
-269,570	210,500	0,108	0,124
-268,555	126,324	0,089	-0,082
-267,540	800,000	-0,043	-0,118
-266,526	-200,000	0,015	-0,149
-265,511	-53,283	0,070	-0,023
-264,497	372,241	-0,067	-0,099
-263,482	356,838	0,023	0,034
-262,467	80,491	0,140	-0,110
-261,453	216,110	0,113	-0,132
-260,438	-77,342	-0,068	-0,017
-259,424	-107,597	-0,109	-0,017
-258,409	-74,760	-0,127	-0,033
-257,395	-31,827	0,076	-0,031
-256,380	800,000	0,033	0,081
-255,365	-49,569	0,109	-0,038
-254,351	-96,650	-0,099	0,019
-253,336	-95,772	0,053	-0,010
-252,322	762,656	0,053	-0,105
-251,307	110,052	0,095	0,083
-250,292	145,088	-0,053	-0,052
-249,278	111,929	-0,049	-0,043
-248,263	32,825	0,030	-0,019
-247,249	197,018	0,081	-0,091
-246,234	-41,832	-0,038	0,014
-245,219	-85,664	-0,194	-0,044
-244,205	365,825	0,046	0,068
-243,190	159,051	0,089	0,090
-242,176	-39,988	-0,036	-0,014
-241,161	606,231	0,085	0,154
-240,146	552,154	-0,040	-0,071
-239,132	800,000	-0,065	-0,142
-238,117	-83,086	-0,110	-0,026
-237,103	311,105	0,026	-0,036
-236,088	-200,000	-0,012	0,040
-235,073	398,630	0,028	0,043
-234,059	13,069	0,128	0,072
-233,044	3,995	0,125	-0,067
-232,030	302,567	-0,037	0,049
-231,015	-200,000	-0,020	-0,083
-230,000	322,220	0,055	0,076
-228,986	215,227	-0,091	0,106
-227,971	-136,183	0,148	-0,012
-226,957	800,000	-0,023	-0,074
-225,942	800,000	-0,023	0,059
-224,927	-142,945	-0,191	-0,013
-223,913	-66,127	-0,081	0,023
-222,898	220,596	-0,082	0,096
-221,884	-161,032	-0,115	-0,004
-220,869	505,090	0,088	-0,149
-219,855	-200,000	-0,004	0,022
-218,840	538,807	0,070	-0,122
-217,825	-41,354	-0,030	-0,011
-216,811	-200,000	-0,025	0,086
-215,796	-109,617	-0,070	-0,011
-214,782	-28,322	0,084	-0,035
-213,767	800,000	-0,051	-0,134
-212,752	-124,411	-0,122	-0,014
-211,738	457,518	0,057	-0,093
-210,723	800,000	0,033	0,091
-209,709	-46,871	-0,011	0,004
-208,694	-139,338	0,167	-0,013
-207,679	32,910	-0,053	0,034
-206,665	-200,000	0,001	0,014
-205,650	320,475	-0,093	0,129
-204,636	357,822	0,069	0,100
-203,621	-200,000	0,044	-0,185
-202,606	-200,000	0,012	-0,212
-201,592	-19,360	0,084	0,038
-200,577	113,967	-0,060	-0,053
-199,563	-31,891	0,116	0,047
-198,548	424,921	0,081	-0,127
-197,533	398,354	0,082	0,125
-196,519	800,000	-0,028	0,066
-195,504	110,106	-0,074	-0,065
-194,490	174,518	-0,091	-0,096
-193,475	-13,456	-0,015	-0,007
-192,460	32,589	-0,100	0,063
-191,446	133,448	0,038	-0,036
-190,431	172,391	0,121	0,127
-189,417	-13,980	-0,050	0,024
-188,402	-78,445	-0,089	-0,022
-187,387	-105,176	-0,041	0,007
-186,373	114,602	0,072	-0,064
-185,358	45,824	-0,047	0,031
-184,344	-85,397	-0,071	-0,016
-183,329	98,588	0,132	-0,111
-182,315	-200,000	-0,004	0,188
-181,300	70,897	0,058	0,044
-180,285	-3,956	0,039	0,020
-179,271	-129,530	-0,059	-0,006
-178,256	234,700	-0,076	0,092
-177,242	390,561	0,032	0,049
-176,227	3,723	-0,047	0,025
-175,212	1,032	0,122	0,063
-174,198	463,763	-0,069	0,112
-173,183	327,104	-0,048	-0,067
-172,169	-2,091	-0,080	-0,041
-171,154	144,685	-0,030	0,029
-170,139	476,382	-0,084	0,139
-169,125	24,792	0,113	-0,068
-168,110	471,131	-0,037	0,060
-167,096	800,000	-0,023	0,056
-166,081	-119,548	-0,118	-0,015
-165,066	127,039	0,015	-0,013
-164,052	-82,365	-0,069	-0,016
-163,037	-145,578	-0,069	-0,004
-162,023	158,369	-0,076	0,076
-161,008	593,302	-0,009	0,017
-159,993	-34,036	0,072	-0,029
-158,979	-86,546	-0,148	-0,033
-157,964	-200,000	-0,018	0,072
-156,950	-200,000	0,015	-0,232
-155,935	-200,000	0,024	0,122
-154,920	800,000	-0,016	0,045
-153,906	-164,313	-0,092	0,003
-152,891	254,506	-0,054	-0,067
-151,877	-200,000	0,010	-0,052
-150,862	671,352	-0,078	-0,147
-149,847	800,000	-0,022	0,068
-148,833	129,705	0,074	0,069
-147,818	39,166	0,040	0,026
-146,804	100,839	0,084	0,071
-145,789	73,654	0,047	-0,036
-144,775	800,000	-0,036	-0,090
-143,760	29,233	0,106	-0,065
-142,745	800,000	-0,008	0,025
-141,731	-104,744	0,142	-0,023
-140,716	-16,960	0,100	-0,046
-139,702	-129,419	-0,138	0,014
-138,687	74,775	0,095	0,073
-137,672	-200,000	-0,009	0,098
-136,658	525,595	-0,025	0,043
-135,643	240,470	-0,064	-0,077
-134,629	277,941	0,034	0,044
-133,614	554,684	0,062	0,109
-132,599	800,000	-0,029	-0,076
-131,585	342,700	0,074	-0,105
-130,570	64,601	0,156	-0,114
-129,556	-200,000	0,014	-0,125
-128,541	-200,000	0,012	-0,322
-127,526	-200,000	0,024	-0,128
-126,512	800,000	0,070	-0,161
-125,497	-200,000	0,010	0,053
-124,483	800,000	0,023	-0,069
-123,468	800,000	-0,010	-0,025
-122,453	-171,153	0,081	0,002
-121,439	-200,000	0,004	-0,096
-120,424	-135,053	0,040	0,003
-119,410	123,079	0,103	-0,094
-118,395	-200,000	-0,041	0,000
