DTS Sentinel unit serial number:	SN410029Multiplexer serial number:	ORYXHardware model number:	OX2-SRSoftware version number:	ORYX F/W v4,00 Oryx Data Collector v3.7.2.0data status	okinstallation	B6 Nyhavnadifferential loss correction	single-endedforward channel	channel 2reverse channel	N/Adate	2023/12/07time	10:40:08forward acquisition time	300,00reverse acquisition time	0,00gamma	499,1914k internal	0,3201k external	0,3201temperature offset calibration	1,0000default loss term (dB/km)	0,3820temperature slope calibration	1,0000multiplexer offset coefficient	1,0000multiplexer slope coefficient	1,0000fibre end	0,00T internal ref (°C)	7,16T ext. ref 1 (°C)	-6,95T ext. ref 2 (°C)	-7,02length (m)	temperature (°C)	Stokes	anti-Stokes-744,400	35,768	0,090	0,057
-743,385	-56,407	-0,266	-0,086
-742,371	102,799	0,178	0,151
-741,356	-97,574	-0,404	-0,075
-740,342	-144,771	0,198	-0,013
-739,327	-122,302	-0,415	-0,049
-738,312	-4,150	0,076	0,038
-737,298	-103,401	-0,315	-0,053
-736,283	-117,883	0,086	0,011
-735,269	-41,462	-0,411	-0,153
-734,254	-158,293	0,196	-0,008
-733,239	-12,748	-0,604	-0,285
-732,225	-42,977	0,278	0,102
-731,210	-18,794	-0,078	0,035
-730,196	-200,000	-0,022	-0,100
-729,181	44,118	-0,067	-0,045
-728,167	11,128	-0,152	0,084
-727,152	800,000	-0,018	0,048
-726,137	-145,616	-0,069	0,004
-725,123	42,563	-0,147	-0,097
-724,108	698,601	0,089	-0,171
-723,094	-56,352	-0,089	-0,028
-722,079	-3,863	-0,127	-0,064
-721,064	-186,378	-0,095	0,001
-720,050	800,000	-0,050	0,113
-719,035	-9,104	0,019	0,009
-718,021	57,945	-0,101	-0,072
-717,006	-200,000	-0,014	-0,079
-715,991	-174,957	-0,214	-0,004
-714,977	-200,000	-0,019	0,072
-713,962	-200,000	-0,063	0,000
-712,948	-200,000	-0,004	-0,107
-711,933	-200,000	-0,015	-0,087
-710,918	492,201	0,020	-0,033
-709,904	-37,581	-0,214	-0,082
-708,889	-200,000	0,005	-0,093
-707,875	-200,000	-0,011	0,056
-706,860	-81,494	-0,045	-0,011
-705,845	56,195	-0,033	0,023
-704,831	800,000	0,021	0,052
-703,816	324,829	0,093	-0,130
-702,802	195,999	-0,014	0,015
-701,787	800,000	0,011	-0,035
-700,772	-135,063	-0,046	0,004
-699,758	183,491	0,036	-0,038
-698,743	-200,000	0,040	0,252
-697,729	34,969	0,008	0,005
-696,714	329,657	0,016	0,022
-695,699	-180,589	-0,027	0,000
-694,685	-141,952	-0,085	0,006
-693,670	-79,534	-0,109	-0,027
-692,656	800,000	-0,063	0,163
-691,641	18,651	0,118	-0,068
-690,627	8,679	0,156	-0,085
-689,612	69,941	0,162	0,121
-688,597	-200,000	-0,004	0,097
-687,583	-100,283	-0,019	-0,003
-686,568	-200,000	0,003	-0,132
-685,554	23,875	0,036	0,022
-684,539	-2,659	-0,119	0,060
-683,524	-200,000	0,005	0,018
-682,510	800,000	-0,042	0,114
-681,495	-65,910	-0,113	-0,032
-680,481	86,305	-0,191	0,153
-679,466	-200,000	-0,014	-0,117
-678,451	468,063	0,063	-0,102
-677,437	-106,440	-0,173	-0,028
-676,422	441,528	0,012	-0,019
-675,408	-39,313	-0,008	0,003
-674,393	58,487	0,109	0,078
-673,378	800,000	-0,029	-0,067
-672,364	-200,000	-0,064	-0,235
-671,349	57,846	0,097	-0,069
-670,335	-76,038	-0,021	-0,005
-669,320	-200,000	0,025	0,119
-668,305	800,000	-0,045	0,141
-667,291	123,916	-0,110	0,100
-666,276	142,113	-0,139	0,134
-665,262	-52,630	-0,110	-0,037
-664,247	92,971	0,054	-0,045
-663,232	-35,070	0,118	-0,047
-662,218	73,494	0,016	-0,012
-661,203	334,008	-0,155	-0,218
-660,189	333,662	-0,052	0,073
-659,174	482,002	-0,033	0,055
-658,159	102,584	-0,181	-0,154
-657,145	-154,524	0,017	0,001
-656,130	-117,116	-0,149	0,019
-655,116	-200,000	0,012	0,047
-654,101	11,403	0,131	0,073
-653,086	800,000	0,017	0,047
-652,072	261,931	0,025	-0,031
-651,057	185,303	0,027	0,029
-650,043	481,796	-0,027	-0,044
-649,028	126,038	-0,019	0,017
-648,014	627,284	0,063	0,116
-646,999	322,740	-0,029	-0,040
-645,984	800,000	-0,059	0,120
-644,970	123,158	0,102	0,092
-643,955	183,460	-0,119	0,128
-642,941	172,177	0,023	0,024
-641,926	172,598	0,058	0,061
-640,911	140,215	0,077	-0,074
-639,897	423,043	-0,029	-0,045
-638,882	465,731	-0,080	0,130
-637,868	-156,309	0,070	-0,003
-636,853	-200,000	0,012	-0,092
-635,838	-200,000	0,048	-0,267
-634,824	134,787	0,095	-0,089
-633,809	0,516	0,016	-0,008
-632,795	-200,000	0,009	-0,105
-631,780	104,087	-0,061	0,052
-630,765	47,426	-0,067	0,045
-629,751	-111,281	-0,209	-0,031
-628,736	800,000	0,058	-0,160
-627,722	-81,997	0,031	0,007
-626,707	-200,000	-0,028	0,126
-625,692	-12,312	0,063	0,030
-624,678	-77,497	0,049	-0,012
-623,663	373,203	0,023	-0,034
-622,649	109,221	-0,067	-0,058
-621,634	95,797	-0,065	0,054
-620,619	60,924	-0,135	0,097
-619,605	-68,224	-0,078	0,022
-618,590	348,861	0,086	0,123
-617,576	88,682	-0,099	0,079
-616,561	800,000	-0,008	0,024
-615,546	-200,000	-0,012	-0,052
-614,532	254,267	-0,076	-0,094
-613,517	73,276	0,086	-0,065
-612,503	403,907	-0,023	0,035
-611,488	-81,593	0,240	0,057
-610,474	800,000	-0,066	0,136
-609,459	-200,000	-0,008	-0,081
-608,444	78,305	-0,098	-0,075
-607,430	-29,457	-0,051	-0,021
-606,415	-200,000	0,011	-0,172
-605,401	-200,000	0,032	0,132
-604,386	-112,661	0,058	0,008
-603,371	145,042	0,123	0,119
-602,357	-104,611	0,054	0,009
-601,342	-200,000	-0,000	-0,041
-600,328	216,596	-0,016	0,018
-599,313	-200,000	0,009	0,072
-598,298	217,003	0,130	0,150
-597,284	442,582	0,090	0,143
-596,269	501,859	-0,029	-0,048
-595,255	800,000	-0,047	0,106
-594,240	-200,000	0,054	0,179
-593,225	19,494	-0,071	-0,041
-592,211	68,225	0,054	-0,040
-591,196	16,358	-0,053	0,030
-590,182	270,821	0,013	0,016
-589,167	-200,000	-0,004	0,020
-588,152	-200,000	-0,003	0,072
-587,138	134,391	0,034	0,032
-586,123	5,417	-0,212	-0,113
-585,109	800,000	-0,051	-0,121
-584,094	210,321	0,048	-0,055
-583,079	-41,090	0,070	-0,026
-582,065	-200,000	0,010	-0,046
-581,050	395,905	0,057	-0,086
-580,036	-36,609	-0,020	-0,008
-579,021	42,688	-0,023	-0,015
-578,006	800,000	-0,067	0,193
-576,992	-139,820	0,024	-0,002
-575,977	-82,253	-0,114	-0,027
-574,963	455,195	0,071	-0,114
-573,948	800,000	-0,061	0,124
-572,934	-200,000	-0,025	-0,084
-571,919	-119,705	-0,117	0,014
-570,904	-52,662	-0,073	0,024
-569,890	288,174	0,034	0,045
-568,875	395,026	-0,054	0,082
-567,861	32,120	0,055	-0,034
-566,846	25,446	0,094	-0,057
-565,831	-0,390	0,028	-0,014
-564,817	-200,000	-0,012	-0,053
-563,802	105,119	-0,124	-0,106
-562,788	800,000	0,019	-0,048
-561,773	-57,099	-0,060	0,019
-560,758	-178,382	0,105	0,002
-559,744	-200,000	-0,012	0,061
-558,729	-162,843	0,163	-0,006
-557,715	800,000	-0,065	-0,169
-556,700	160,401	-0,112	0,113
-555,685	-74,910	-0,015	-0,004
-554,671	-98,293	0,193	0,035
-553,656	-14,921	-0,008	0,004
-552,642	-105,071	0,111	-0,018
-551,627	-200,000	0,002	0,073
-550,612	112,659	-0,032	0,028
-549,598	3,341	-0,108	0,057
-548,583	-41,533	-0,080	0,030
-547,569	311,196	-0,057	-0,077
-546,554	-200,000	-0,036	0,136
-545,539	-30,312	0,047	0,019
-544,525	800,000	-0,059	0,122
-543,510	142,118	0,018	0,017
-542,496	800,000	0,023	0,057
-541,481	-80,573	-0,095	0,023
-540,466	-118,401	-0,132	0,017
-539,452	225,805	0,097	0,114
-538,437	-127,911	-0,051	-0,005
-537,423	-95,889	0,221	0,042
-536,408	-200,000	-0,002	-0,031
-535,393	800,000	-0,024	0,048
-534,379	-71,925	0,075	-0,020
-533,364	-117,898	0,071	0,009
-532,350	-126,979	0,121	0,013
-531,335	800,000	0,015	0,045
-530,321	-23,998	0,133	0,057
-529,306	800,000	0,033	0,090
-528,291	-86,807	-0,040	-0,009
-527,277	103,616	0,086	-0,073
-526,262	783,192	-0,023	-0,046
-525,248	-146,939	0,074	0,005
-524,233	21,347	0,113	0,066
-523,218	705,429	0,007	0,013
-522,204	-200,000	0,004	0,065
-521,189	800,000	0,032	-0,073
-520,175	-80,738	-0,063	-0,015
-519,160	66,071	0,164	-0,120
-518,145	4,707	0,019	-0,010
-517,131	21,132	0,085	0,050
-516,116	-87,376	0,095	0,021
-515,102	-109,033	0,068	-0,010
-514,087	78,300	-0,055	0,043
-513,072	665,906	-0,065	-0,121
-512,058	800,000	-0,035	0,098
-511,043	373,714	0,086	-0,126
-510,029	574,906	-0,024	-0,043
-509,014	-200,000	-0,004	0,054
-507,999	-55,235	-0,075	-0,024
-506,985	54,792	-0,034	0,024
-505,970	68,987	-0,122	-0,090
-504,956	469,493	-0,040	0,065
-503,941	-200,000	0,001	0,013
-502,926	110,681	-0,082	-0,071
-501,912	-89,206	-0,005	0,001
-500,897	787,469	0,040	-0,080
-499,883	-200,000	0,004	0,014
-498,868	209,593	0,134	0,151
-497,853	5,202	-0,141	-0,075
-496,839	-200,000	-0,001	-0,032
-495,824	-124,070	-0,173	0,019
-494,810	-38,495	-0,032	0,012
-493,795	800,000	0,026	0,068
-492,781	-100,698	-0,107	0,019
-491,766	116,063	-0,029	-0,025
-490,751	-200,000	-0,008	0,048
-489,737	219,506	0,073	0,084
-488,722	800,000	-0,021	0,057
-487,708	160,391	0,074	-0,075
-486,693	708,814	-0,032	0,061
-485,678	-200,000	-0,004	0,137
-484,664	173,924	-0,091	0,094
-483,649	-17,498	-0,023	-0,010
-482,635	-200,000	-0,039	-0,145
-481,620	74,786	0,083	-0,063
-480,605	441,891	-0,031	-0,049
-479,591	188,075	0,089	0,096
-478,576	104,165	-0,069	0,058
-477,562	-16,774	-0,085	0,039
-476,547	115,305	-0,035	-0,031
-475,532	-90,837	0,033	0,007
-474,518	360,841	0,040	0,059
-473,503	-164,907	-0,106	0,003
-472,489	-200,000	-0,006	0,025
-471,474	298,567	-0,031	0,042
-470,459	-200,000	-0,007	0,048
-469,445	345,629	-0,057	-0,081
-468,430	281,928	0,091	-0,118
-467,416	214,544	0,067	-0,076
-466,401	-16,588	0,054	0,025
-465,386	-18,332	-0,058	-0,026
-464,372	2,207	0,056	-0,029
-463,357	800,000	-0,029	-0,061
-462,343	129,947	-0,105	-0,097
-461,328	69,324	0,115	0,085
-460,313	188,145	-0,054	0,058
-459,299	-29,625	0,071	0,029
-458,284	394,695	-0,030	0,046
-457,270	-200,000	0,016	0,069
-456,255	81,901	-0,076	-0,059
-455,241	462,071	0,054	-0,087
-454,226	237,375	0,039	0,047
-453,211	-200,000	0,026	-0,121
-452,197	800,000	-0,065	0,160
-451,182	2,388	0,031	0,016
-450,168	-135,590	-0,070	-0,006
-449,153	-200,000	0,008	0,064
-448,138	-192,863	0,012	0,000
-447,124	-108,274	-0,029	0,004
-446,109	-82,443	0,067	0,016
-445,095	174,678	-0,116	0,121
-444,080	183,330	-0,034	-0,036
-443,065	-200,000	-0,012	0,065
-442,051	214,482	0,070	0,080
-441,036	800,000	-0,073	-0,183
-440,022	800,000	-0,048	-0,102
-439,007	-200,000	-0,016	0,058
-437,992	-200,000	-0,000	-0,008
-436,978	61,365	0,079	0,056
-435,963	115,816	-0,114	0,100
-434,949	219,182	-0,032	0,037
-433,934	93,105	-0,071	-0,057
-432,919	-62,678	-0,038	0,011
-431,905	-89,949	-0,016	0,003
-430,890	163,422	0,026	-0,026
-429,876	568,709	-0,021	-0,036
-428,861	59,388	0,065	0,046
-427,846	0,361	0,013	0,007
-426,832	192,094	0,044	0,048
-425,817	-200,000	-0,016	0,109
-424,803	-200,000	0,031	0,112
-423,788	331,431	0,046	0,064
-422,773	105,166	0,063	-0,054
-421,759	-200,000	0,018	-0,088
-420,744	800,000	-0,045	0,095
-419,730	-100,695	-0,042	-0,007
-418,715	-23,544	-0,053	0,023
-417,701	-154,354	0,031	0,001
-416,686	-182,576	0,059	-0,001
-415,671	27,273	0,077	0,047
-414,657	800,000	0,032	-0,066
-413,642	540,992	-0,061	0,104
-412,628	800,000	0,018	-0,038
-411,613	185,328	-0,042	-0,045
-410,598	-200,000	-0,010	0,064
-409,584	-200,000	-0,004	-0,084
-408,569	480,105	0,026	0,043
-407,555	175,472	0,065	0,068
-406,540	-147,799	0,084	0,005
-405,525	437,818	-0,033	-0,052
-404,511	-191,270	0,076	0,001
-403,496	-200,000	0,002	-0,053
-402,482	-200,000	-0,013	0,058
-401,467	-88,211	0,080	0,017
-400,452	-8,233	-0,098	-0,047
-399,438	-200,000	0,033	0,148
-398,423	51,388	-0,116	0,079
-397,409	84,131	-0,110	-0,086
-396,394	-96,212	-0,088	-0,017
-395,379	73,360	0,094	-0,071
-394,365	-200,000	-0,017	0,132
-393,350	-200,000	0,010	0,102
-392,336	658,691	0,080	0,148
-391,321	14,982	-0,039	-0,022
-390,306	-107,502	-0,017	0,003
-389,292	-200,000	0,017	-0,113
-388,277	-200,000	-0,005	-0,031
-387,263	303,053	-0,053	0,071
-386,248	-200,000	0,009	0,172
-385,233	800,000	-0,025	-0,053
-384,219	24,886	0,079	-0,047
-383,204	435,991	0,055	-0,087
-382,190	-55,154	0,075	0,024
-381,175	-47,701	-0,068	-0,023
-380,160	481,641	0,049	0,079
-379,146	-200,000	0,037	-0,146
-378,131	355,886	-0,074	-0,106
-377,117	2,269	0,118	0,061
-376,102	800,000	-0,023	0,069
-375,088	-35,433	0,057	-0,022
-374,073	-157,847	-0,078	-0,003
-373,058	80,237	0,043	0,033
-372,044	-11,345	-0,083	-0,039
-371,029	-95,905	0,049	0,009
-370,015	-162,384	-0,133	-0,005
-369,000	445,392	-0,077	-0,121
-367,985	705,082	0,085	-0,161
-366,971	-200,000	-0,015	0,053
-365,956	-200,000	0,023	-0,121
-364,942	542,968	-0,016	0,028
-363,927	-129,285	-0,104	0,010
-362,912	800,000	-0,024	-0,061
-361,898	-41,117	0,070	0,026
-360,883	17,695	-0,127	-0,072
-359,869	106,191	0,122	-0,104
-358,854	800,000	0,031	0,079
-357,839	-200,000	-0,004	-0,037
-356,825	-127,086	-0,135	0,014
-355,810	-13,528	-0,056	0,026
-354,796	97,906	-0,064	-0,053
-353,781	800,000	-0,027	-0,064
-352,766	800,000	0,046	0,112
-351,752	-28,035	0,045	0,018
-350,737	800,000	-0,055	0,132
-349,723	-200,000	-0,004	-0,064
-348,708	-200,000	-0,014	-0,133
-347,693	-200,000	-0,004	0,024
-346,679	486,889	-0,011	-0,017
-345,664	443,853	-0,054	-0,085
-344,650	-200,000	0,001	0,086
-343,635	800,000	0,022	0,061
-342,620	-200,000	-0,009	0,050
-341,606	-200,000	-0,002	0,147
-340,591	-51,108	-0,120	-0,040
-339,577	352,553	-0,055	-0,078
-338,562	505,436	0,077	0,129
-337,548	-200,000	0,029	-0,244
-336,533	79,442	0,066	-0,051
-335,518	331,044	0,018	-0,024
-334,504	81,470	0,062	-0,048
-333,489	-200,000	0,031	-0,119
-332,475	-200,000	0,036	-0,157
-331,460	-200,000	-0,021	-0,146
-330,445	235,755	0,120	-0,142
-329,431	800,000	-0,052	0,162
-328,416	-200,000	-0,013	0,060
-327,402	800,000	0,051	0,117
-326,387	-200,000	0,012	0,119
-325,372	-200,000	0,011	0,126
-324,358	125,992	0,087	0,079
-323,343	800,000	-0,041	-0,110
-322,329	112,749	0,052	0,045
-321,314	-57,836	-0,051	-0,016
-320,299	448,713	0,052	0,082
-319,285	294,496	-0,102	0,134
-318,270	800,000	-0,047	0,109
-317,256	133,688	-0,125	-0,116
-316,241	733,027	0,095	-0,183
-315,226	-56,994	0,052	0,016
-314,212	642,874	0,041	-0,075
-313,197	-24,521	0,113	0,048
-312,183	-108,163	-0,092	-0,014
-311,168	-14,827	0,079	-0,036
-310,153	-200,000	-0,031	-0,165
-309,139	469,927	0,027	-0,044
-308,124	-48,680	0,119	-0,041
-307,110	193,875	-0,070	-0,076
-306,095	6,158	0,089	-0,047
-305,080	41,053	-0,074	0,048
-304,066	-85,492	0,083	0,018
-303,051	-80,763	-0,037	0,009
-302,037	94,481	0,075	-0,061
-301,022	441,212	0,029	-0,045
-300,008	-200,000	0,011	-0,073
-298,993	800,000	0,025	0,075
-297,978	-191,870	0,091	0,001
-296,964	-200,000	0,001	0,015
-295,949	-62,907	-0,059	-0,017
-294,935	800,000	-0,051	-0,120
-293,920	80,862	0,023	0,017
-292,905	-38,467	0,099	0,037
-291,891	-34,809	0,128	0,050
-290,876	-13,037	0,129	-0,060
-289,862	800,000	-0,031	-0,072
-288,847	-134,943	-0,095	-0,008
-287,832	-200,000	-0,002	0,056
-286,818	-3,343	-0,034	-0,017
-285,803	-200,000	0,057	-0,000
-284,789	-200,000	0,028	0,097
-283,774	-127,283	-0,017	-0,002
-282,759	800,000	-0,018	-0,048
-281,745	-200,000	0,005	-0,119
-280,730	-135,213	-0,070	-0,006
-279,716	105,937	-0,059	-0,050
-278,701	800,000	0,033	-0,069
-277,686	-9,405	-0,087	0,041
-276,672	29,686	-0,033	0,020
-275,657	39,798	0,018	-0,011
-274,643	-200,000	-0,013	-0,176
-273,628	-200,000	0,023	-0,126
-272,613	96,308	0,047	0,038
-271,599	311,483	-0,054	-0,072
-270,584	-41,858	0,059	0,021
-269,570	-200,000	0,003	-0,015
-268,555	-200,000	-0,030	0,121
-267,540	-137,553	0,106	0,008
-266,526	470,780	-0,004	-0,006
-265,511	-200,000	-0,003	0,131
-264,497	-163,375	0,123	-0,004
-263,482	-145,436	-0,023	-0,001
-262,467	280,711	0,169	0,217
-261,453	-200,000	-0,057	0,209
-260,438	380,668	-0,043	-0,063
-259,424	800,000	0,043	0,093
-258,409	-200,000	-0,027	-0,132
-257,395	-154,869	0,071	-0,003
-256,380	-13,489	0,104	0,048
-255,365	-70,005	-0,120	0,032
-254,351	-44,527	-0,087	0,031
-253,336	76,700	-0,065	-0,049
-252,322	-90,946	0,216	-0,044
-251,307	-165,734	-0,081	0,002
-250,292	65,099	0,053	0,038
-249,278	-32,837	-0,009	0,004
-248,263	-95,707	-0,135	-0,025
-247,249	60,247	0,059	-0,042
-246,234	-29,930	-0,134	0,054
-245,219	-200,000	-0,019	0,061
-244,205	301,235	-0,092	-0,121
-243,190	800,000	0,025	0,062
-242,176	-200,000	0,011	0,081
-241,161	43,678	0,107	0,070
-240,146	2,286	-0,205	-0,105
-239,132	-200,000	0,001	-0,023
-238,117	-53,486	-0,148	-0,048
-237,103	-94,965	-0,134	-0,026
-236,088	-68,795	0,085	-0,023
-235,073	-186,886	0,086	0,001
-234,059	132,585	0,009	-0,008
-233,044	52,908	-0,063	-0,043
-232,030	111,931	0,038	0,033
-231,015	-141,200	-0,124	-0,009
-230,000	38,555	-0,125	-0,079
-228,986	-167,314	0,099	0,003
-227,971	448,736	0,022	0,034
-226,957	307,787	0,030	-0,041
-225,942	125,262	-0,037	-0,033
-224,927	788,326	-0,034	-0,066
-223,913	-78,484	0,084	-0,020
-222,898	800,000	-0,025	-0,073
-221,884	-148,562	-0,072	0,004
-220,869	469,498	0,032	-0,051
-219,855	-42,724	0,112	-0,040
-218,840	275,935	0,041	0,052
-217,825	-200,000	-0,013	0,067
-216,811	-200,000	0,016	-0,056
-215,796	800,000	-0,058	-0,162
-214,782	21,532	0,066	0,038
-213,767	392,932	0,045	-0,067
-212,752	-200,000	0,007	0,046
-211,738	29,697	-0,124	0,075
-210,723	-115,420	-0,056	-0,007
-209,709	-40,594	-0,068	0,025
-208,694	-20,137	-0,047	0,021
-207,679	97,353	0,173	-0,141
-206,665	-200,000	-0,025	0,082
-205,650	800,000	-0,031	0,069
-204,636	361,119	0,077	0,111
-203,621	-200,000	0,039	-0,136
-202,606	800,000	-0,054	-0,114
-201,592	-34,058	-0,076	0,030
-200,577	-200,000	0,012	0,051
-199,563	-200,000	0,009	-0,060
-198,548	251,876	-0,045	0,055
-197,533	800,000	0,021	-0,045
-196,519	390,487	0,036	-0,053
-195,504	20,961	0,154	-0,089
-194,490	3,095	-0,088	0,046
-193,475	41,332	0,045	-0,029
-192,460	41,902	0,090	-0,058
-191,446	-23,121	-0,103	-0,044
-190,431	-98,808	0,064	-0,011
-189,417	-47,673	0,035	-0,012
-188,402	177,555	-0,079	-0,082
-187,387	-36,701	-0,049	0,019
-186,373	162,384	-0,093	-0,093
-185,358	173,821	0,090	0,092
-184,344	-27,769	0,056	-0,023
-183,329	-162,895	-0,070	0,002
-182,315	800,000	0,048	-0,142
-181,300	-57,827	-0,079	-0,024
-180,285	-200,000	-0,006	-0,083
-179,271	207,795	0,124	-0,138
-178,256	199,023	0,051	-0,055
-177,242	-145,228	-0,170	-0,011
-176,227	140,356	0,058	0,055
-175,212	-5,701	0,172	0,084
-174,198	242,193	0,031	-0,037
-173,183	-200,000	-0,009	-0,041
-172,169	-200,000	0,010	0,050
-171,154	581,282	0,048	-0,083
-170,139	-25,436	-0,078	0,032
-169,125	61,752	0,029	0,020
-168,110	361,367	0,037	0,053
-167,096	133,198	-0,088	0,081
-166,081	800,000	-0,055	-0,120
-165,066	-200,000	-0,039	-0,135
-164,052	-75,620	-0,013	0,003
-163,037	-190,166	0,183	-0,001
-162,023	442,773	-0,123	0,193
-161,008	464,823	-0,069	-0,111
-159,993	41,125	0,041	-0,026
-158,979	228,710	-0,094	0,109
-157,964	624,015	-0,031	0,055
-156,950	197,337	0,062	-0,067
-155,935	-46,454	-0,073	0,025
-154,920	-11,807	0,085	-0,039
-153,906	70,554	0,067	0,050
-152,891	-131,952	-0,181	0,017
-151,877	800,000	-0,024	0,068
-150,862	800,000	0,047	-0,110
-149,847	-112,801	0,039	-0,005
-148,833	103,890	-0,120	-0,100
-147,818	-35,057	-0,029	-0,011
-146,804	-200,000	-0,030	-0,156
-145,789	229,068	-0,137	0,159
-144,775	-53,589	-0,120	-0,039
-143,760	-200,000	0,020	-0,083
-142,745	117,082	-0,070	-0,061
-141,731	-199,596	-0,070	-0,000
-140,716	389,962	-0,134	-0,198
-139,702	-37,437	0,086	0,033
-138,687	-200,000	0,015	-0,087
-137,672	-200,000	-0,030	-0,160
-136,658	800,000	-0,046	-0,114
-135,643	-84,601	-0,053	0,012
-134,629	800,000	0,014	0,041
-133,614	489,950	0,025	-0,040
-132,599	437,519	0,066	0,102
-131,585	150,480	0,047	-0,046
-130,570	-200,000	-0,014	-0,119
-129,556	133,111	-0,062	0,057
-128,541	-200,000	0,003	0,143
-127,526	-200,000	-0,011	0,073
-126,512	506,968	-0,054	0,089
-125,497	-50,928	0,056	-0,019
-124,483	-92,716	0,077	0,015
-123,468	-200,000	0,049	0,171
-122,453	305,036	-0,014	0,019
-121,439	183,779	0,082	-0,086
-120,424	-200,000	-0,034	0,141
-119,410	800,000	-0,037	0,075
