DTS Sentinel unit serial number:	SN410029Multiplexer serial number:	ORYXHardware model number:	OX2-SRSoftware version number:	ORYX F/W v4,00 Oryx Data Collector v3.7.2.0data status	okinstallation	B6 Nyhavnadifferential loss correction	single-endedforward channel	channel 2reverse channel	N/Adate	2023/12/10time	03:50:08forward acquisition time	300,00reverse acquisition time	0,00gamma	499,1914k internal	0,3125k external	0,3125temperature offset calibration	1,0000default loss term (dB/km)	0,3820temperature slope calibration	1,0000multiplexer offset coefficient	1,0000multiplexer slope coefficient	1,0000fibre end	0,00T internal ref (°C)	22,06T ext. ref 1 (°C)	6,02T ext. ref 2 (°C)	5,99length (m)	temperature (°C)	Stokes	anti-Stokes-744,400	393,712	0,022	-0,034
-743,385	-67,919	-0,178	0,051
-742,371	-200,000	-0,001	0,016
-741,356	63,694	-0,161	0,120
-740,342	-41,141	0,073	0,028
-739,327	-93,698	-0,298	0,061
-738,312	-87,748	-0,105	0,023
-737,298	-111,783	-0,356	-0,053
-736,283	14,005	0,112	0,065
-735,269	140,784	-0,131	0,129
-734,254	80,186	-0,031	-0,025
-733,239	-38,927	-0,391	-0,153
-732,225	-77,930	0,186	0,047
-731,210	202,426	0,072	0,083
-730,196	-200,000	-0,026	-0,106
-729,181	749,681	0,019	0,039
-728,167	-152,594	-0,028	-0,001
-727,152	-75,294	-0,163	0,043
-726,137	-94,279	-0,081	-0,016
-725,123	245,918	-0,068	0,086
-724,108	740,945	0,031	-0,062
-723,094	-97,597	-0,105	0,020
-722,079	270,283	-0,090	0,119
-721,064	89,111	0,078	-0,064
-720,050	-120,144	-0,195	0,025
-719,035	800,000	-0,050	0,113
-718,021	-45,115	-0,089	-0,033
-717,006	45,804	-0,204	-0,140
-715,991	800,000	0,037	-0,112
-714,977	15,492	-0,092	-0,054
-713,962	384,145	-0,091	-0,140
-712,948	192,792	-0,032	-0,036
-711,933	403,644	-0,026	0,041
-710,918	-200,000	0,001	0,037
-709,904	30,014	0,078	0,050
-708,889	-21,191	-0,069	-0,031
-707,875	129,971	-0,086	-0,082
-706,860	-87,360	0,078	-0,017
-705,845	-123,685	-0,135	0,016
-704,831	-33,395	0,100	-0,041
-703,816	747,632	-0,048	-0,098
-702,802	-115,047	0,061	-0,009
-701,787	-200,000	-0,005	0,055
-700,772	-200,000	0,001	-0,095
-699,758	-73,365	-0,042	-0,011
-698,743	121,129	-0,061	0,056
-697,729	-45,427	-0,109	0,040
-696,714	-200,000	0,018	0,168
-695,699	-165,515	-0,128	0,004
-694,685	403,982	-0,026	0,040
-693,670	288,263	-0,060	0,080
-692,656	800,000	0,011	0,027
-691,641	-75,315	0,049	-0,013
-690,627	-81,102	0,049	-0,012
-689,612	800,000	0,024	-0,072
-688,597	14,168	-0,198	-0,114
-687,583	-200,000	-0,002	-0,136
-686,568	-200,000	-0,005	0,068
-685,554	176,212	0,058	-0,062
-684,539	100,912	0,026	-0,023
-683,524	-200,000	-0,016	-0,075
-682,510	-86,077	0,057	-0,013
-681,495	314,833	-0,044	-0,062
-680,481	800,000	0,020	-0,063
-679,466	140,413	0,022	0,022
-678,451	712,352	-0,020	-0,039
-677,437	-96,352	-0,083	0,016
-676,422	346,016	-0,060	0,089
-675,408	-200,000	0,007	-0,026
-674,393	591,925	0,018	0,032
-673,378	-200,000	-0,003	0,050
-672,364	285,635	0,043	-0,058
-671,349	-72,152	0,104	-0,028
-670,335	-81,467	0,097	0,024
-669,320	800,000	0,018	-0,054
-668,305	236,145	0,092	0,114
-667,291	-63,496	-0,055	-0,017
-666,276	64,751	-0,137	-0,102
-665,262	800,000	-0,060	-0,127
-664,247	56,479	0,014	-0,010
-663,232	76,181	0,093	-0,073
-662,218	-197,855	0,078	-0,000
-661,203	243,930	0,095	0,119
-660,189	59,739	0,036	0,027
-659,174	-26,426	-0,067	0,029
-658,159	-200,000	0,005	0,048
-657,145	-36,881	-0,149	0,059
-656,130	-200,000	0,003	0,037
-655,116	119,827	0,056	-0,051
-654,101	75,095	0,051	0,040
-653,086	-200,000	-0,003	0,044
-652,072	-66,977	-0,093	-0,027
-651,057	-7,099	-0,071	0,036
-650,043	159,539	0,046	0,048
-649,028	800,000	0,022	0,070
-648,014	65,131	-0,085	0,063
-646,999	323,033	0,038	0,055
-645,984	-66,801	-0,041	0,012
-644,970	-80,313	-0,125	-0,031
-643,955	537,227	0,034	-0,061
-642,941	-10,053	-0,030	-0,015
-641,926	56,910	0,123	0,089
-640,911	-200,000	0,040	0,153
-639,897	142,390	0,033	0,032
-638,882	800,000	0,050	-0,119
-637,868	350,577	-0,026	-0,038
-636,853	-200,000	-0,019	0,088
-635,838	-18,144	-0,091	0,042
-634,824	252,907	0,068	-0,086
-633,809	172,836	-0,119	-0,127
-632,795	-200,000	0,010	0,152
-631,780	232,371	0,062	-0,076
-630,765	-60,349	0,091	0,028
-629,751	75,144	-0,109	-0,085
-628,736	-176,233	-0,088	-0,002
-627,722	229,303	-0,046	0,056
-626,707	-200,000	0,026	-0,105
-625,692	-74,652	-0,224	-0,059
-624,678	-45,871	-0,066	0,024
-623,663	95,254	-0,089	-0,075
-622,649	-200,000	-0,002	-0,088
-621,634	-177,562	0,019	-0,000
-620,619	-129,485	0,096	0,010
-619,605	-200,000	0,003	-0,014
-618,590	144,328	0,033	-0,032
-617,576	496,155	0,071	0,122
-616,561	38,900	-0,047	0,031
-615,546	800,000	-0,023	0,058
-614,532	75,271	0,056	0,043
-613,517	-200,000	-0,029	-0,116
-612,503	-123,237	-0,102	-0,012
-611,488	224,801	0,036	0,044
-610,474	-64,756	-0,112	-0,033
-609,459	-200,000	-0,028	-0,118
-608,444	-140,696	-0,089	-0,007
-607,430	800,000	-0,012	-0,040
-606,415	-60,870	-0,085	-0,026
-605,401	299,275	-0,079	0,108
-604,386	-139,667	0,176	0,014
-603,371	87,214	0,081	-0,066
-602,357	-32,906	-0,086	-0,035
-601,342	-200,000	-0,193	-0,000
-600,328	800,000	0,038	-0,106
-599,313	800,000	-0,025	-0,073
-598,298	168,982	-0,038	0,040
-597,284	-200,000	-0,022	0,102
-596,269	-200,000	0,021	-0,098
-595,255	-21,252	0,138	-0,062
-594,240	67,474	-0,158	-0,120
-593,225	800,000	-0,072	-0,221
-592,211	-19,898	0,171	-0,078
-591,196	-20,165	-0,052	-0,023
-590,182	-17,207	0,029	-0,013
-589,167	-200,000	0,017	0,071
-588,152	-200,000	0,009	-0,049
-587,138	-200,000	-0,007	-0,093
-586,123	562,003	-0,038	-0,068
-585,109	-62,963	-0,055	0,017
-584,094	624,746	-0,020	-0,037
-583,079	-20,695	-0,051	0,023
-582,065	-26,010	0,114	-0,050
-581,050	101,547	0,047	0,040
-580,036	-200,000	0,024	0,132
-579,021	418,839	-0,017	-0,026
-578,006	-200,000	-0,007	-0,082
-576,992	-38,618	0,053	0,021
-575,977	-12,875	-0,089	-0,043
-574,963	75,028	0,153	0,119
-573,948	107,149	0,071	0,062
-572,934	-57,055	-0,048	0,016
-571,919	119,995	0,146	-0,134
-570,904	800,000	0,019	0,058
-569,890	97,264	0,167	-0,141
-568,875	800,000	0,016	-0,051
-567,861	-200,000	0,013	-0,086
-566,846	-200,000	-0,029	0,108
-565,831	-200,000	-0,008	-0,043
-564,817	-43,388	0,084	0,031
-563,802	800,000	-0,059	-0,149
-562,788	-200,000	-0,013	0,136
-561,773	33,028	-0,085	-0,054
-560,758	139,803	0,096	-0,094
-559,744	230,983	-0,050	0,060
-558,729	-86,874	-0,067	0,015
-557,715	-200,000	-0,024	-0,145
-556,700	800,000	-0,058	-0,128
-555,685	-78,449	-0,051	0,013
-554,671	-36,807	-0,025	-0,010
-553,656	800,000	0,043	0,122
-552,642	-81,523	0,061	0,015
-551,627	800,000	0,059	-0,133
-550,612	800,000	-0,048	0,150
-549,598	-10,311	-0,065	-0,032
-548,583	-200,000	0,002	-0,102
-547,569	203,022	-0,040	0,046
-546,554	126,805	-0,176	0,165
-545,539	-200,000	0,015	0,060
-544,525	260,332	-0,063	0,081
-543,510	-200,000	0,015	-0,218
-542,496	451,743	0,040	-0,065
-541,481	17,350	-0,054	0,032
-540,466	-44,618	0,103	0,038
-539,452	-155,465	-0,070	0,003
-538,437	-192,595	0,014	0,000
-537,423	-23,374	-0,062	-0,028
-536,408	-200,000	-0,004	0,021
-535,393	800,000	-0,044	0,128
-534,379	-200,000	-0,006	-0,039
-533,364	229,842	-0,015	0,018
-532,350	-62,258	0,022	0,007
-531,335	45,033	0,035	-0,024
-530,321	-69,206	0,056	-0,016
-529,306	308,734	-0,112	0,155
-528,291	630,533	-0,063	-0,118
-527,277	-129,348	-0,066	0,007
-526,262	-200,000	0,002	-0,066
-525,248	-128,054	-0,024	0,003
-524,233	-159,517	-0,057	-0,002
-523,218	149,156	0,065	-0,065
-522,204	800,000	-0,018	-0,039
-521,189	-200,000	-0,011	-0,234
-520,175	707,875	0,050	-0,099
-519,160	-200,000	0,020	-0,073
-518,145	-200,000	-0,001	-0,152
-517,131	-200,000	-0,021	0,073
-516,116	18,495	-0,034	0,020
-515,102	132,393	-0,117	0,111
-514,087	368,942	-0,066	0,099
-513,072	-200,000	0,011	0,071
-512,058	-29,016	-0,068	0,029
-511,043	-200,000	0,015	-0,058
-510,029	139,470	-0,072	-0,070
-509,014	800,000	-0,034	-0,095
-507,999	-200,000	0,012	-0,070
-506,985	-200,000	-0,010	0,073
-505,970	-200,000	-0,001	-0,040
-504,956	227,417	0,006	-0,007
-503,941	20,136	-0,053	-0,031
-502,926	-8,172	0,117	0,058
-501,912	-101,033	0,117	0,021
-500,897	800,000	-0,035	0,084
-499,883	91,105	0,029	0,024
-498,868	-200,000	-0,013	-0,156
-497,853	228,776	-0,058	0,069
-496,839	-200,000	0,003	-0,014
-495,824	800,000	0,002	0,005
-494,810	292,547	0,050	0,067
-493,795	685,758	0,036	0,070
-492,781	-200,000	-0,004	-0,123
-491,766	101,112	-0,104	-0,089
-490,751	-106,646	-0,077	-0,013
-489,737	-200,000	0,018	-0,099
-488,722	-35,640	0,054	-0,021
-487,708	-200,000	-0,044	0,153
-486,693	724,245	-0,053	0,104
-485,678	-200,000	-0,012	-0,067
-484,664	-42,287	0,065	0,024
-483,649	800,000	-0,025	0,073
-482,635	-200,000	0,011	0,073
-481,620	-200,000	-0,004	0,242
-480,605	800,000	0,030	0,083
-479,591	-200,000	-0,025	0,139
-478,576	243,381	0,053	-0,065
-477,562	-115,889	0,079	-0,011
-476,547	277,612	-0,057	-0,075
-475,532	561,697	0,062	0,111
-474,518	55,791	0,049	-0,035
-473,503	-200,000	0,000	0,012
-472,489	-132,320	-0,108	-0,010
-471,474	-130,568	0,084	-0,008
-470,459	-172,455	0,097	0,002
-469,445	573,997	-0,039	-0,071
-468,430	248,268	0,051	-0,064
-467,416	-200,000	-0,008	-0,053
-466,401	71,889	0,058	0,045
-465,386	-185,214	-0,115	0,001
-464,372	-200,000	0,009	0,178
-463,357	-200,000	-0,005	-0,058
-462,343	83,961	0,008	-0,006
-461,328	800,000	-0,020	-0,042
-460,313	641,285	-0,039	-0,074
-459,299	-46,799	-0,063	0,023
-458,284	36,931	0,119	0,077
-457,270	-200,000	-0,027	0,168
-456,255	91,036	-0,100	0,083
-455,241	800,000	0,031	0,093
-454,226	-200,000	-0,019	-0,111
-453,211	41,061	0,083	0,055
-452,197	-84,058	0,065	0,015
-451,182	151,932	0,056	0,056
-450,168	-143,654	0,142	0,010
-449,153	-13,707	0,079	-0,038
-448,138	187,417	-0,033	-0,037
-447,124	203,980	-0,030	-0,034
-446,109	263,405	-0,024	-0,031
-445,095	144,120	0,127	-0,125
-444,080	81,981	0,067	0,053
-443,065	800,000	0,047	0,150
-442,051	122,650	0,053	0,049
-441,036	800,000	0,016	-0,041
-440,022	800,000	-0,035	0,081
-439,007	82,280	-0,034	0,027
-437,992	-20,289	-0,017	0,008
-436,978	5,048	-0,022	-0,012
-435,963	-143,813	0,072	0,005
-434,949	510,169	0,066	0,114
-433,934	-151,671	-0,066	0,004
-432,919	-118,557	0,083	-0,011
-431,905	-200,000	0,009	-0,056
-430,890	-26,271	0,123	-0,053
-429,876	-200,000	-0,008	0,100
-428,861	800,000	0,063	-0,134
-427,846	-200,000	-0,092	0,000
-426,832	-44,818	0,036	-0,013
-425,817	-200,000	0,002	-0,023
-424,803	-11,930	0,075	-0,036
-423,788	119,170	0,062	0,057
-422,773	270,463	0,040	-0,052
-421,759	-53,283	0,108	0,036
-420,744	-200,000	-0,009	-0,094
-419,730	-39,559	-0,070	0,027
-418,715	-92,723	-0,061	0,012
-417,701	314,361	0,017	-0,023
-416,686	22,780	0,127	-0,076
-415,671	70,976	-0,086	-0,065
-414,657	-155,848	0,099	-0,005
-413,642	118,669	0,043	0,039
-412,628	-75,351	0,085	0,022
-411,613	433,451	0,028	0,045
-410,598	800,000	-0,023	0,048
-409,584	-200,000	-0,022	-0,099
-408,569	96,610	-0,038	-0,032
-407,555	-2,794	-0,082	0,042
-406,540	378,182	0,088	0,133
-405,525	-105,720	0,097	0,016
-404,511	80,161	-0,033	-0,026
-403,496	639,762	-0,022	0,041
-402,482	-200,000	-0,014	0,049
-401,467	313,805	0,090	0,125
-400,452	-95,522	0,013	-0,002
-399,438	-83,472	0,031	0,007
-398,423	-200,000	-0,012	-0,041
-397,409	800,000	0,021	0,058
-396,394	630,669	-0,047	0,088
-395,379	513,978	0,035	-0,060
-394,365	800,000	0,023	0,073
-393,350	-200,000	-0,015	0,100
-392,336	-200,000	-0,001	0,006
-391,321	-32,938	0,036	0,015
-390,306	-57,785	-0,146	0,047
-389,292	-200,000	0,019	-0,088
-388,277	379,214	0,048	-0,073
-387,263	-135,687	0,125	0,011
-386,248	-147,117	0,096	0,006
-385,233	340,119	0,019	-0,028
-384,219	114,657	0,025	-0,022
-383,204	-63,944	-0,068	-0,020
-382,190	-200,000	-0,012	0,055
-381,175	-200,000	0,016	-0,130
-380,160	-9,196	-0,048	-0,023
-379,146	147,813	-0,069	0,069
-378,131	608,392	-0,017	0,032
-377,117	-200,000	0,001	0,100
-376,102	-200,000	0,032	-0,126
-375,088	105,795	0,016	-0,014
-374,073	5,630	-0,079	0,043
-373,058	-200,000	0,029	0,108
-372,044	-200,000	-0,003	0,098
-371,029	800,000	0,040	0,125
-370,015	-200,000	0,019	0,074
-369,000	-200,000	0,006	-0,062
-367,985	-200,000	-0,020	-0,216
-366,971	-200,000	0,001	-0,111
-365,956	87,065	-0,014	-0,011
-364,942	-200,000	0,007	0,047
-363,927	53,643	0,008	0,005
-362,912	412,438	0,054	-0,084
-361,898	-200,000	0,032	-0,108
-360,883	558,152	-0,047	0,084
-359,869	181,333	-0,070	-0,076
-358,854	-96,155	0,104	0,020
-357,839	386,507	-0,061	0,093
-356,825	-200,000	-0,004	0,180
-355,810	412,386	0,012	0,018
-354,796	147,869	-0,065	-0,065
-353,781	17,425	0,073	0,043
-352,766	-131,032	-0,139	0,013
-351,752	233,002	-0,028	0,033
-350,737	92,561	0,081	-0,067
-349,723	-200,000	-0,004	-0,119
-348,708	168,039	-0,065	0,068
-347,693	-74,558	-0,097	0,025
-346,679	260,077	-0,109	0,138
-345,664	626,642	0,016	-0,029
-344,650	173,788	0,098	0,103
-343,635	161,592	-0,037	0,038
-342,620	6,474	-0,048	-0,026
-341,606	98,544	0,118	0,100
-340,591	-28,305	0,020	0,008
-339,577	-200,000	-0,097	0,000
-338,562	31,414	0,050	0,032
-337,548	-200,000	-0,001	0,037
-336,533	362,646	0,067	-0,099
-335,518	381,041	0,042	-0,063
-334,504	-137,535	-0,034	0,003
-333,489	200,973	-0,102	-0,115
-332,475	800,000	-0,051	-0,121
-331,460	-200,000	-0,034	-0,135
-330,445	-125,335	-0,047	0,005
-329,431	400,983	-0,093	0,144
-328,416	253,211	0,135	0,169
-327,402	-200,000	-0,019	0,085
-326,387	6,789	0,032	-0,018
-325,372	651,539	0,070	-0,131
-324,358	800,000	-0,029	-0,089
-323,343	-118,117	0,043	-0,006
-322,329	-200,000	0,000	-0,027
-321,314	-200,000	0,003	0,181
-320,299	-9,399	0,074	0,036
-319,285	-200,000	-0,004	0,036
-318,270	-106,821	0,099	0,016
-317,256	62,592	-0,057	-0,042
-316,241	-200,000	0,017	0,097
-315,226	800,000	0,050	-0,107
-314,212	-200,000	0,001	0,005
-313,197	-200,000	-0,003	0,029
-312,183	-200,000	0,001	0,103
-311,168	-200,000	0,015	0,136
-310,153	-10,213	-0,034	-0,016
-309,139	154,526	0,109	0,110
-308,124	800,000	-0,041	-0,112
-307,110	-141,302	-0,063	0,005
-306,095	86,018	-0,049	0,040
-305,080	17,903	-0,031	-0,018
-304,066	-25,335	-0,153	0,066
-303,051	-200,000	0,029	-0,119
-302,037	-163,043	-0,126	0,004
-301,022	800,000	-0,054	0,143
-300,008	281,920	0,053	0,070
-298,993	-103,593	0,143	0,024
-297,978	319,657	0,052	-0,072
-296,964	-92,148	-0,129	-0,026
-295,949	302,954	0,023	0,031
-294,935	-200,000	-0,009	-0,085
-293,920	309,419	-0,073	0,100
-292,905	2,809	0,120	0,063
-291,891	-200,000	-0,017	0,127
-290,876	-76,552	-0,073	-0,019
-289,862	399,412	0,059	0,091
-288,847	-74,604	-0,063	0,017
-287,832	570,608	-0,057	0,103
-286,818	-200,000	0,023	-0,128
-285,803	-26,315	0,036	-0,015
-284,789	77,523	-0,188	0,146
-283,774	-200,000	-0,023	0,100
-282,759	-96,760	0,066	-0,013
-281,745	-63,306	0,055	0,016
-280,730	-200,000	0,013	-0,044
-279,716	26,795	0,065	0,040
-278,701	-117,730	0,195	0,025
-277,686	-18,963	0,114	0,052
-276,672	-129,410	0,193	-0,019
-275,657	800,000	-0,011	-0,034
-274,643	-200,000	-0,021	-0,090
-273,628	800,000	-0,043	-0,112
-272,613	301,285	-0,009	0,012
-271,599	-116,825	0,057	-0,008
-270,584	109,376	0,016	0,014
-269,570	800,000	0,020	-0,054
-268,555	36,139	-0,065	-0,042
-267,540	800,000	-0,038	0,088
-266,526	-79,143	-0,170	0,042
-265,511	6,793	-0,050	0,027
-264,497	23,589	0,030	0,018
-263,482	-200,000	0,031	-0,167
-262,467	181,488	0,036	0,039
-261,453	261,914	-0,035	-0,045
-260,438	800,000	0,021	0,049
-259,424	175,160	-0,052	0,055
-258,409	800,000	-0,056	-0,160
-257,395	61,266	0,055	-0,040
-256,380	800,000	0,032	0,064
-255,365	374,309	0,097	0,144
-254,351	-200,000	-0,015	0,087
-253,336	213,855	-0,104	-0,120
-252,322	235,874	0,075	-0,091
-251,307	-200,000	-0,020	-0,141
-250,292	196,386	-0,031	0,035
-249,278	-200,000	0,009	0,118
-248,263	-200,000	-0,027	-0,158
-247,249	5,097	0,100	0,054
-246,234	-70,166	-0,211	-0,058
-245,219	-200,000	0,020	-0,200
-244,205	800,000	-0,040	-0,111
-243,190	647,530	-0,066	-0,123
-242,176	-148,125	0,006	-0,000
-241,161	-141,166	-0,048	0,004
-240,146	-60,545	-0,062	-0,019
-239,132	-152,770	-0,075	0,004
-238,117	-200,000	0,021	-0,211
-237,103	-112,064	0,105	-0,015
-236,088	-200,000	-0,016	-0,190
-235,073	-200,000	-0,008	-0,116
-234,059	723,424	0,022	-0,044
-233,044	-123,748	-0,065	-0,007
-232,030	-100,618	0,105	-0,019
-231,015	-61,023	-0,107	0,033
-230,000	64,362	0,029	-0,021
-228,986	-103,659	0,233	-0,039
-227,971	-177,482	0,118	-0,002
-226,957	761,644	-0,038	0,076
-225,942	-10,495	0,106	0,051
-224,927	-20,929	-0,082	-0,036
-223,913	177,462	0,078	0,083
-222,898	-200,000	-0,003	-0,108
-221,884	-107,143	0,048	-0,008
-220,869	232,972	-0,050	0,060
-219,855	-200,000	-0,006	-0,025
-218,840	47,626	0,011	0,007
-217,825	70,232	0,120	0,091
-216,811	-13,638	-0,077	-0,036
-215,796	233,875	0,032	-0,038
-214,782	55,657	0,097	-0,068
-213,767	-134,440	0,099	-0,009
-212,752	-200,000	-0,009	-0,076
-211,738	36,495	0,099	0,063
-210,723	800,000	-0,045	-0,120
-209,709	800,000	0,061	-0,150
-208,694	800,000	-0,021	0,047
-207,679	-124,634	-0,099	0,011
-206,665	462,958	-0,074	-0,121
-205,650	-111,180	-0,149	-0,022
-204,636	-200,000	0,014	0,116
-203,621	-200,000	0,014	0,187
-202,606	255,475	-0,047	0,058
-201,592	93,502	-0,013	0,011
-200,577	-200,000	0,009	-0,033
-199,563	-200,000	0,004	0,013
-198,548	115,198	-0,033	-0,029
-197,533	-150,247	0,021	0,001
-196,519	800,000	0,023	0,048
-195,504	53,656	-0,037	0,026
-194,490	28,084	-0,122	0,075
-193,475	322,211	-0,100	0,139
-192,460	21,278	0,040	-0,024
-191,446	260,601	0,082	0,104
-190,431	-200,000	0,008	0,199
-189,417	-87,113	0,136	0,030
-188,402	800,000	0,034	0,085
-187,387	198,138	0,017	-0,018
-186,373	-200,000	-0,012	-0,104
-185,358	74,305	0,078	0,060
-184,344	-200,000	-0,007	-0,077
-183,329	-200,000	0,001	-0,017
-182,315	800,000	0,068	0,170
-181,300	800,000	-0,035	0,096
-180,285	39,816	-0,096	-0,063
-179,271	800,000	0,035	-0,072
-178,256	-96,646	-0,122	-0,023
-177,242	-130,279	-0,150	-0,015
-176,227	-75,599	0,161	-0,042
-175,212	-60,314	0,084	0,026
-174,198	102,133	-0,032	0,027
-173,183	-200,000	0,002	-0,056
-172,169	47,645	-0,058	-0,039
-171,154	311,250	0,092	-0,126
-170,139	132,520	0,075	-0,071
-169,125	800,000	0,038	0,110
-168,110	256,049	0,040	0,050
-167,096	800,000	-0,041	-0,104
-166,081	732,582	-0,124	0,242
-165,066	-98,449	-0,177	-0,033
-164,052	708,317	0,084	-0,162
-163,037	-73,041	0,106	0,028
-162,023	-200,000	-0,015	0,057
-161,008	85,128	-0,050	0,040
-159,993	-200,000	0,006	0,039
-158,979	333,069	0,027	0,039
-157,964	-149,908	-0,113	-0,006
-156,950	-30,082	0,008	0,003
-155,935	-59,361	0,078	0,024
-154,920	800,000	-0,037	0,085
-153,906	136,206	-0,037	-0,035
-152,891	59,691	-0,116	0,083
-151,877	133,416	-0,054	0,050
-150,862	-200,000	-0,013	0,049
-149,847	416,649	-0,031	-0,048
-148,833	-200,000	0,001	-0,019
-147,818	800,000	-0,033	0,067
-146,804	151,287	-0,081	-0,080
-145,789	800,000	-0,027	-0,064
-144,775	2,517	0,077	0,041
-143,760	112,581	0,083	0,073
-142,745	800,000	-0,033	-0,078
-141,731	-39,947	0,050	0,019
-140,716	-200,000	-0,021	0,074
-139,702	-200,000	-0,001	0,090
-138,687	-200,000	-0,007	-0,027
-137,672	800,000	0,048	0,129
-136,658	-200,000	-0,005	-0,030
-135,643	-45,403	-0,057	0,020
-134,629	-200,000	-0,001	-0,045
-133,614	-111,205	0,055	-0,008
-132,599	-57,488	-0,095	-0,030
-131,585	-111,741	0,062	-0,009
-130,570	-200,000	0,036	0,116
-129,556	131,755	-0,164	-0,153
-128,541	-54,471	-0,174	0,057
-127,526	79,827	-0,043	0,033
-126,512	288,149	0,023	-0,031
-125,497	-97,759	0,127	0,024
-124,483	-200,000	0,008	0,067
-123,468	31,149	-0,072	-0,045
-122,453	515,576	0,017	-0,028
-121,439	-200,000	-0,004	0,110
-120,424	-169,971	0,064	-0,002
