DTS Sentinel unit serial number:	SN410029Multiplexer serial number:	ORYXHardware model number:	OX2-SRSoftware version number:	ORYX F/W v4,00 Oryx Data Collector v3.7.2.0data status	okinstallation	B6 Nyhavnadifferential loss correction	single-endedforward channel	channel 2reverse channel	N/Adate	2023/12/08time	23:15:08forward acquisition time	300,00reverse acquisition time	0,00gamma	499,1914k internal	0,3157k external	0,3157temperature offset calibration	1,0000default loss term (dB/km)	0,3820temperature slope calibration	1,0000multiplexer offset coefficient	1,0000multiplexer slope coefficient	1,0000fibre end	0,00T internal ref (°C)	15,42T ext. ref 1 (°C)	-1,01T ext. ref 2 (°C)	-1,00length (m)	temperature (°C)	Stokes	anti-Stokes-744,400	341,983	0,062	0,090
-743,385	-133,777	-0,388	0,035
-742,371	26,199	0,231	0,142
-741,356	12,369	-0,103	0,058
-740,342	365,584	-0,023	0,034
-739,327	-117,053	-0,323	0,043
-738,312	-82,369	0,071	-0,017
-737,298	-84,794	-0,372	0,085
-736,283	-200,000	0,016	0,128
-735,269	-184,917	-0,350	-0,004
-734,254	-163,818	0,175	-0,006
-733,239	-96,890	-0,575	-0,110
-732,225	-124,282	0,205	0,023
-731,210	410,817	0,053	0,083
-730,196	-132,981	0,068	0,006
-729,181	116,960	-0,072	-0,065
-728,167	116,678	0,060	0,054
-727,152	562,208	0,078	0,140
-726,137	40,755	-0,189	-0,126
-725,123	88,948	-0,066	-0,054
-724,108	-200,000	-0,012	-0,063
-723,094	-200,000	-0,021	-0,170
-722,079	-79,235	-0,075	0,019
-721,064	-0,795	-0,040	0,021
-720,050	-123,392	0,020	0,002
-719,035	-200,000	-0,014	-0,048
-718,021	67,735	-0,114	-0,086
-717,006	800,000	0,038	-0,108
-715,991	-39,259	0,084	-0,032
-714,977	305,296	-0,034	-0,046
-713,962	-200,000	-0,013	-0,053
-712,948	225,958	-0,039	-0,046
-711,933	423,457	-0,046	-0,073
-710,918	800,000	-0,018	0,043
-709,904	68,160	-0,074	-0,056
-708,889	-200,000	-0,019	-0,137
-707,875	800,000	-0,046	-0,099
-706,860	-35,573	-0,033	0,013
-705,845	-200,000	0,009	-0,141
-704,831	32,599	-0,075	-0,047
-703,816	205,598	-0,054	-0,061
-702,802	-200,000	-0,004	-0,066
-701,787	130,521	-0,049	-0,047
-700,772	250,718	-0,010	0,012
-699,758	800,000	-0,059	-0,138
-698,743	43,669	-0,019	0,013
-697,729	2,418	0,010	0,005
-696,714	52,551	0,018	-0,013
-695,699	-35,099	-0,126	-0,050
-694,685	179,824	-0,025	-0,027
-693,670	-200,000	-0,035	-0,183
-692,656	-5,168	0,060	-0,030
-691,641	706,391	0,014	-0,027
-690,627	800,000	-0,078	0,204
-689,612	27,682	0,057	-0,035
-688,597	-23,391	-0,061	0,027
-687,583	-200,000	-0,007	-0,069
-686,568	-200,000	0,004	0,026
-685,554	696,307	-0,033	0,064
-684,539	-67,068	0,145	-0,042
-683,524	467,269	-0,022	0,037
-682,510	-166,817	0,026	0,001
-681,495	91,083	0,020	-0,017
-680,481	181,440	-0,081	-0,088
-679,466	-200,000	-0,023	-0,096
-678,451	79,562	-0,085	-0,067
-677,437	51,000	-0,110	0,077
-676,422	53,454	0,081	-0,057
-675,408	-106,578	0,122	-0,020
-674,393	118,009	-0,112	-0,102
-673,378	800,000	-0,057	-0,154
-672,364	800,000	0,050	-0,140
-671,349	283,115	-0,155	-0,205
-670,335	-200,000	0,008	-0,043
-669,320	800,000	0,025	-0,051
-668,305	-113,046	-0,141	-0,020
-667,291	306,381	-0,064	0,088
-666,276	800,000	-0,062	-0,148
-665,262	162,630	0,085	-0,087
-664,247	-200,000	-0,021	-0,093
-663,232	800,000	0,080	0,206
-662,218	62,586	-0,045	0,033
-661,203	-61,944	-0,161	-0,049
-660,189	800,000	-0,042	-0,130
-659,174	-157,235	0,061	-0,003
-658,159	25,295	-0,023	-0,014
-657,145	-200,000	0,020	-0,078
-656,130	4,397	0,052	-0,028
-655,116	397,463	0,052	0,080
-654,101	54,297	-0,196	0,139
-653,086	-200,000	-0,026	0,166
-652,072	-200,000	0,013	-0,044
-651,057	-161,382	-0,063	-0,002
-650,043	15,678	-0,054	-0,031
-649,028	283,301	0,035	-0,047
-648,014	800,000	0,028	0,088
-646,999	-200,000	-0,002	-0,010
-645,984	199,799	-0,112	-0,126
-644,970	-1,120	-0,048	0,025
-643,955	800,000	0,054	-0,148
-642,941	559,311	-0,077	-0,137
-641,926	335,931	0,035	-0,050
-640,911	-83,674	0,135	0,031
-639,897	-175,226	-0,034	0,001
-638,882	246,599	0,051	-0,064
-637,868	304,492	0,045	-0,062
-636,853	-50,537	-0,078	-0,027
-635,838	121,820	0,047	-0,043
-634,824	22,306	0,107	0,064
-633,809	-200,000	0,017	0,077
-632,795	-200,000	-0,004	-0,096
-631,780	-112,078	-0,090	-0,013
-630,765	-60,519	-0,028	0,009
-629,751	256,301	-0,055	-0,069
-628,736	71,679	-0,036	0,027
-627,722	-190,837	0,040	-0,000
-626,707	505,882	-0,098	-0,168
-625,692	-200,000	0,004	-0,065
-624,678	-200,000	-0,001	0,068
-623,663	91,717	0,056	0,047
-622,649	105,427	-0,105	0,091
-621,634	97,795	-0,026	0,022
-620,619	-3,082	0,053	-0,027
-619,605	-142,884	0,041	-0,003
-618,590	-200,000	0,003	-0,019
-617,576	143,204	-0,122	0,119
-616,561	231,998	0,094	0,114
-615,546	16,077	0,076	0,044
-614,532	800,000	-0,045	-0,094
-613,517	121,267	-0,111	0,102
-612,503	84,080	0,099	0,080
-611,488	800,000	0,035	0,081
-610,474	-159,967	-0,014	0,001
-609,459	-115,656	0,048	-0,007
-608,444	800,000	-0,039	-0,104
-607,430	-87,948	-0,090	0,020
-606,415	-200,000	-0,015	-0,169
-605,401	-155,591	-0,028	0,001
-604,386	448,447	0,072	0,117
-603,371	-200,000	-0,031	0,197
-602,357	-173,031	0,089	0,002
-601,342	800,000	-0,009	0,023
-600,328	-163,752	-0,081	0,003
-599,313	-36,209	-0,092	-0,036
-598,298	-11,636	-0,073	0,035
-597,284	389,348	0,096	0,146
-596,269	-146,346	-0,105	0,007
-595,255	628,270	-0,047	0,087
-594,240	-8,220	0,065	-0,032
-593,225	72,217	0,027	0,021
-592,211	-91,009	-0,045	-0,009
-591,196	526,354	0,009	-0,016
-590,182	-77,087	0,104	0,026
-589,167	-38,211	-0,066	-0,025
-588,152	-200,000	-0,017	-0,117
-587,138	7,206	0,072	-0,040
-586,123	-164,703	-0,061	0,002
-585,109	329,424	-0,059	-0,083
-584,094	-39,590	-0,083	-0,032
-583,079	800,000	0,015	-0,038
-582,065	405,830	-0,064	-0,099
-581,050	800,000	0,034	0,091
-580,036	38,102	-0,127	-0,083
-579,021	-9,320	-0,043	-0,021
-578,006	395,744	-0,032	0,049
-576,992	368,139	-0,057	0,084
-575,977	-200,000	0,014	-0,099
-574,963	-12,840	-0,039	0,019
-573,948	-21,336	-0,085	0,038
-572,934	-54,745	0,044	-0,014
-571,919	157,465	0,042	0,043
-570,904	-200,000	-0,001	-0,044
-569,890	-200,000	-0,013	-0,141
-568,875	274,262	0,037	-0,048
-567,861	-200,000	-0,007	-0,036
-566,846	160,143	-0,059	0,060
-565,831	315,667	-0,039	0,053
-564,817	-54,225	0,014	0,005
-563,802	-200,000	-0,048	0,166
-562,788	-23,821	0,105	-0,046
-561,773	201,372	0,078	-0,088
-560,758	-52,561	-0,037	-0,012
-559,744	105,449	-0,094	-0,081
-558,729	248,732	-0,066	0,083
-557,715	309,012	-0,018	-0,025
-556,700	-200,000	-0,012	0,072
-555,685	116,778	-0,044	-0,040
-554,671	800,000	0,015	0,047
-553,656	-146,329	-0,094	0,006
-552,642	-148,060	0,082	0,005
-551,627	39,889	0,055	0,036
-550,612	92,599	-0,070	-0,057
-549,598	103,347	0,046	-0,040
-548,583	-36,465	-0,122	-0,048
-547,569	800,000	0,062	-0,140
-546,554	-200,000	-0,002	-0,057
-545,539	-81,535	0,052	0,012
-544,525	431,364	-0,024	0,038
-543,510	-200,000	-0,034	-0,209
-542,496	106,149	-0,088	-0,077
-541,481	633,907	-0,010	-0,019
-540,466	-200,000	0,023	-0,081
-539,452	-162,377	-0,037	0,001
-538,437	56,951	0,071	0,051
-537,423	466,676	-0,056	-0,093
-536,408	341,001	0,040	-0,058
-535,393	-98,689	-0,143	-0,026
-534,379	-107,907	0,025	-0,004
-533,364	800,000	-0,031	0,099
-532,350	-62,254	-0,098	-0,030
-531,335	158,521	0,059	0,060
-530,321	-24,257	0,087	0,038
-529,306	-50,447	-0,062	0,021
-528,291	107,335	-0,060	-0,052
-527,277	124,312	-0,046	0,042
-526,262	-200,000	0,004	-0,035
-525,248	565,081	0,038	-0,068
-524,233	-200,000	-0,033	0,117
-523,218	-161,158	-0,112	-0,004
-522,204	195,475	0,092	-0,103
-521,189	800,000	0,051	-0,135
-520,175	119,020	-0,100	-0,091
-519,160	-151,468	0,077	0,004
-518,145	-200,000	-0,010	-0,063
-517,131	800,000	0,050	0,142
-516,116	-200,000	-0,001	-0,060
-515,102	229,484	-0,023	-0,027
-514,087	-23,705	-0,151	0,066
-513,072	15,718	-0,083	0,048
-512,058	2,198	0,112	0,059
-511,043	-200,000	-0,026	0,105
-510,029	8,621	0,025	0,014
-509,014	800,000	0,048	-0,102
-507,999	-88,090	-0,048	-0,010
-506,985	-200,000	0,003	-0,047
-505,970	-200,000	0,032	-0,120
-504,956	316,026	-0,056	-0,077
-503,941	-74,328	0,067	-0,017
-502,926	-200,000	0,017	-0,093
-501,912	-27,003	0,065	-0,028
-500,897	-7,944	-0,095	-0,047
-499,883	28,694	0,104	0,064
-498,868	-115,845	-0,167	0,023
-497,853	-200,000	-0,008	-0,072
-496,839	328,210	0,082	0,115
-495,824	54,485	-0,060	0,042
-494,810	-56,953	-0,150	0,048
-493,795	94,704	-0,117	-0,097
-492,781	142,915	-0,110	0,107
-491,766	534,108	0,012	-0,020
-490,751	-87,348	0,047	0,010
-489,737	-179,567	0,189	0,003
-488,722	186,586	-0,020	-0,022
-487,708	-144,637	0,121	0,008
-486,693	14,689	-0,152	0,086
-485,678	-84,180	-0,114	-0,026
-484,664	800,000	-0,041	0,129
-483,649	78,697	-0,102	0,079
-482,635	-200,000	0,013	0,167
-481,620	395,029	-0,025	0,038
-480,605	-58,412	0,052	-0,016
-479,591	348,340	0,071	0,103
-478,576	-170,047	0,139	-0,004
-477,562	800,000	0,008	0,024
-476,547	-57,367	-0,040	-0,013
-475,532	-99,515	-0,079	0,014
-474,518	1,603	0,141	0,074
-473,503	-88,939	0,071	0,015
-472,489	800,000	-0,014	0,030
-471,474	-164,028	-0,107	-0,004
-470,459	-95,339	-0,119	0,023
-469,445	-52,368	0,142	-0,048
-468,430	800,000	0,027	-0,070
-467,416	277,463	-0,034	-0,045
-466,401	323,432	0,032	0,045
-465,386	-200,000	-0,011	0,036
-464,372	107,166	-0,078	-0,068
-463,357	6,861	-0,111	0,060
-462,343	72,465	0,141	0,107
-461,328	-200,000	-0,021	-0,123
-460,313	173,949	0,076	-0,080
-459,299	-90,680	0,045	0,009
-458,284	290,662	0,053	0,070
-457,270	-200,000	-0,013	0,081
-456,255	183,033	0,052	0,056
-455,241	461,523	0,068	-0,111
-454,226	-71,365	0,056	0,015
-453,211	800,000	0,026	0,055
-452,197	-200,000	-0,015	-0,055
-451,182	-33,944	0,046	0,018
-450,168	-45,677	0,064	-0,023
-449,153	-200,000	-0,008	0,036
-448,138	-58,933	-0,007	-0,002
-447,124	389,650	0,012	-0,019
-446,109	168,352	-0,042	-0,044
-445,095	-200,000	-0,007	0,023
-444,080	136,997	0,061	-0,058
-443,065	124,615	0,041	0,038
-442,051	-131,033	0,034	0,003
-441,036	14,867	-0,124	-0,070
-440,022	-10,810	0,126	-0,060
-439,007	800,000	-0,017	-0,044
-437,992	-53,493	0,020	-0,007
-436,978	-200,000	-0,034	-0,142
-435,963	-159,245	-0,161	-0,006
-434,949	-57,025	-0,033	-0,011
-433,934	-200,000	-0,025	-0,193
-432,919	800,000	-0,076	-0,193
-431,905	800,000	0,020	-0,054
-430,890	-200,000	-0,028	0,113
-429,876	123,626	0,105	0,096
-428,861	-117,793	-0,074	-0,010
-427,846	800,000	-0,014	0,040
-426,832	115,095	-0,056	0,049
-425,817	-76,847	-0,045	-0,011
-424,803	-200,000	-0,016	-0,086
-423,788	103,714	0,051	-0,044
-422,773	430,737	-0,100	0,159
-421,759	128,827	-0,043	0,040
-420,744	-200,000	-0,017	-0,157
-419,730	-200,000	0,003	0,024
-418,715	165,788	-0,118	0,122
-417,701	-53,240	-0,059	0,020
-416,686	-25,610	0,164	-0,070
-415,671	280,928	0,054	-0,070
-414,657	51,007	0,063	0,043
-413,642	103,422	0,065	-0,055
-412,628	-200,000	-0,001	0,006
-411,613	199,537	-0,072	-0,080
-410,598	-200,000	-0,004	-0,073
-409,584	800,000	0,019	-0,039
-408,569	537,819	-0,019	0,032
-407,555	790,425	-0,087	-0,175
-406,540	307,048	-0,027	-0,036
-405,525	15,523	-0,127	-0,072
-404,511	-200,000	-0,015	-0,057
-403,496	-117,386	0,069	-0,009
-402,482	-151,088	0,143	0,008
-401,467	-200,000	0,008	-0,069
-400,452	-52,825	0,091	0,030
-399,438	203,943	0,050	0,057
-398,423	-122,204	-0,065	0,008
-397,409	-19,863	0,053	0,024
-396,394	-103,247	0,110	-0,019
-395,379	-200,000	-0,000	-0,080
-394,365	81,810	0,069	0,054
-393,350	-111,711	0,121	-0,018
-392,336	-80,233	0,068	-0,017
-391,321	-119,919	0,150	0,018
-390,306	698,516	0,057	-0,109
-389,292	477,671	0,064	-0,106
-388,277	-59,252	-0,060	0,019
-387,263	103,316	-0,072	-0,062
-386,248	-200,000	0,004	-0,066
-385,233	71,872	-0,114	0,086
-384,219	-65,736	0,096	-0,028
-383,204	800,000	0,023	-0,072
-382,190	182,745	0,107	-0,115
-381,175	86,616	-0,026	0,021
-380,160	15,182	0,051	-0,029
-379,146	-200,000	-0,002	0,095
-378,131	800,000	0,071	0,153
-377,117	375,383	0,060	0,089
-376,102	324,909	-0,068	-0,094
-375,088	-185,281	0,091	0,001
-374,073	-148,487	-0,061	-0,004
-373,058	-17,208	0,079	-0,036
-372,044	332,456	0,031	0,043
-371,029	-200,000	-0,031	0,154
-370,015	-30,189	-0,144	-0,059
-369,000	-200,000	-0,021	-0,124
-367,985	-200,000	0,026	-0,121
-366,971	-200,000	0,007	-0,026
-365,956	800,000	0,031	-0,089
-364,942	6,805	0,069	0,037
-363,927	239,270	-0,048	0,058
-362,912	-200,000	-0,014	0,046
-361,898	273,005	0,025	-0,033
-360,883	800,000	0,011	0,025
-359,869	-122,085	0,062	0,007
-358,854	92,605	-0,071	-0,058
-357,839	9,716	0,130	-0,071
-356,825	-130,352	-0,036	-0,004
-355,810	800,000	0,024	0,069
-354,796	110,078	-0,053	-0,046
-353,781	800,000	0,033	-0,078
-352,766	15,600	-0,096	-0,055
-351,752	275,675	-0,036	-0,046
-350,737	-54,932	-0,188	0,061
-349,723	480,216	0,033	0,055
-348,708	747,760	-0,048	-0,095
-347,693	90,226	0,083	0,067
-346,679	-40,932	0,092	0,034
-345,664	-92,435	-0,042	-0,008
-344,650	800,000	-0,056	0,151
-343,635	-88,312	-0,041	-0,009
-342,620	-200,000	0,036	-0,143
-341,606	-8,785	0,076	-0,037
-340,591	296,958	-0,067	0,089
-339,577	142,503	-0,077	-0,074
-338,562	-51,440	-0,138	0,047
-337,548	-200,000	0,020	0,090
-336,533	800,000	-0,011	0,029
-335,518	58,955	0,070	0,050
-334,504	748,911	0,041	0,080
-333,489	246,819	-0,020	-0,025
-332,475	-154,599	-0,048	0,002
-331,460	-200,000	0,040	-0,144
-330,445	39,462	-0,058	-0,037
-329,431	37,131	0,049	0,031
-328,416	800,000	0,055	0,111
-327,402	31,191	0,054	-0,033
-326,387	8,791	0,111	-0,061
-325,372	-139,503	-0,029	0,002
-324,358	97,274	0,058	0,048
-323,343	678,031	-0,038	0,073
-322,329	800,000	-0,015	0,048
-321,314	-200,000	-0,017	-0,146
-320,299	99,135	0,071	0,060
-319,285	-19,299	0,146	0,065
-318,270	800,000	0,018	0,052
-317,256	317,673	0,020	-0,028
-316,241	800,000	0,009	-0,019
-315,226	-176,530	0,043	0,001
-314,212	-32,685	0,093	0,037
-313,197	-200,000	0,008	0,083
-312,183	800,000	-0,015	-0,045
-311,168	-161,551	0,024	0,001
-310,153	280,402	0,074	-0,096
-309,139	-94,135	0,144	-0,028
-308,124	800,000	0,008	0,023
-307,110	-98,715	0,126	0,023
-306,095	-20,245	0,167	0,074
-305,080	300,169	-0,079	0,106
-304,066	210,264	-0,099	-0,113
-303,051	188,024	0,064	0,069
-302,037	-200,000	-0,012	-0,112
-301,022	180,716	-0,096	0,102
-300,008	19,433	0,020	0,012
-298,993	-45,798	0,104	0,037
-297,978	-200,000	0,003	0,042
-296,964	364,684	-0,082	-0,120
-295,949	-105,542	0,141	-0,023
-294,935	60,702	-0,167	-0,120
-293,920	-147,883	-0,024	0,001
-292,905	331,400	0,106	0,149
-291,891	463,860	-0,065	0,105
-290,876	-200,000	0,018	0,150
-289,862	-200,000	-0,003	0,097
-288,847	289,224	-0,053	0,070
-287,832	-200,000	0,046	0,173
-286,818	361,679	-0,079	0,116
-285,803	129,507	-0,041	0,038
-284,789	-117,333	0,119	0,015
-283,774	180,353	0,062	0,066
-282,759	500,835	0,010	0,018
-281,745	510,227	0,038	0,064
-280,730	40,662	-0,065	-0,042
-279,716	591,898	0,024	-0,044
-278,701	-46,655	0,037	0,013
-277,686	-200,000	0,020	-0,110
-276,672	-200,000	-0,043	0,141
-275,657	-26,021	-0,085	-0,036
-274,643	-200,000	0,000	-0,057
-273,628	-200,000	-0,013	0,069
-272,613	-38,318	0,118	0,045
-271,599	-200,000	0,016	0,095
-270,584	112,601	0,065	0,057
-269,570	25,197	0,102	-0,061
-268,555	-82,959	0,064	-0,015
-267,540	-200,000	-0,010	-0,059
-266,526	204,114	-0,152	-0,170
-265,511	38,024	0,166	0,106
-264,497	525,867	-0,059	0,101
-263,482	-115,928	0,204	0,027
-262,467	-200,000	-0,037	0,139
-261,453	0,241	0,134	-0,069
-260,438	-101,297	-0,056	0,010
-259,424	154,677	0,047	0,047
-258,409	418,040	-0,088	-0,136
-257,395	-200,000	0,016	0,098
-256,380	-200,000	-0,013	-0,043
-255,365	-71,835	-0,043	0,012
-254,351	-93,110	-0,128	0,026
-253,336	800,000	-0,041	0,125
-252,322	-16,293	-0,059	-0,027
-251,307	63,503	0,093	-0,067
-250,292	120,900	0,040	0,036
-249,278	-200,000	-0,007	-0,032
-248,263	800,000	0,014	-0,038
-247,249	-200,000	0,009	-0,078
-246,234	37,529	-0,109	0,070
-245,219	157,989	0,012	-0,012
-244,205	61,103	-0,033	-0,023
-243,190	-200,000	-0,031	-0,101
-242,176	283,065	0,027	0,035
-241,161	-115,085	-0,093	0,013
-240,146	-200,000	0,000	-0,083
-239,132	-200,000	-0,005	-0,062
-238,117	74,867	-0,041	0,031
-237,103	-72,269	0,057	-0,015
-236,088	-105,188	0,138	-0,023
-235,073	-200,000	-0,006	0,025
-234,059	-22,363	-0,026	-0,011
-233,044	-200,000	0,011	0,221
-232,030	140,818	0,029	-0,028
-231,015	304,166	-0,068	-0,092
-230,000	753,627	-0,048	-0,095
-228,986	261,755	0,104	-0,130
-227,971	94,777	0,132	0,109
-226,957	780,332	0,030	0,060
-225,942	-27,464	-0,005	-0,002
-224,927	696,367	-0,034	-0,064
-223,913	-200,000	0,013	-0,105
-222,898	-69,741	-0,086	-0,024
-221,884	-97,496	-0,180	-0,033
-220,869	58,450	0,044	0,031
-219,855	524,426	0,082	0,140
-218,840	-200,000	0,056	0,270
-217,825	-170,114	-0,083	0,002
-216,811	800,000	-0,033	-0,072
-215,796	-200,000	0,014	-0,105
-214,782	-115,796	-0,080	-0,011
-213,767	-96,262	0,171	-0,032
-212,752	-52,766	0,111	0,037
-211,738	522,340	-0,062	-0,106
-210,723	-28,386	-0,071	0,030
-209,709	330,004	-0,031	0,044
-208,694	-200,000	-0,004	-0,081
-207,679	80,240	0,068	0,053
-206,665	-200,000	-0,001	-0,167
-205,650	89,376	0,108	0,087
-204,636	-200,000	-0,025	0,109
-203,621	-200,000	0,021	0,184
-202,606	-45,252	-0,173	0,062
-201,592	-189,123	-0,067	0,001
-200,577	90,512	0,028	0,022
-199,563	799,873	-0,011	-0,021
-198,548	512,843	-0,045	0,077
-197,533	-200,000	-0,015	-0,071
-196,519	-72,640	-0,073	-0,019
-195,504	68,523	-0,033	0,025
-194,490	9,817	-0,073	-0,040
-193,475	-85,320	0,086	0,019
-192,460	51,705	-0,082	-0,056
-191,446	-200,000	0,002	0,056
-190,431	124,126	0,066	-0,060
-189,417	-200,000	0,033	0,173
-188,402	-175,415	-0,074	0,001
-187,387	-90,830	-0,119	0,025
-186,373	-67,589	0,093	-0,026
-185,358	-200,000	0,014	-0,150
-184,344	-35,858	-0,042	-0,016
-183,329	399,862	-0,052	0,079
-182,315	800,000	0,021	0,047
-181,300	-160,915	-0,182	-0,007
-180,285	-52,185	-0,152	0,051
-179,271	-76,642	0,028	0,007
-178,256	-110,523	-0,062	-0,009
-177,242	140,410	-0,072	-0,068
-176,227	40,184	0,090	0,058
-175,212	800,000	0,019	0,053
-174,198	800,000	0,022	0,067
-173,183	1,049	-0,077	-0,040
-172,169	-134,502	0,110	-0,010
-171,154	207,487	-0,085	0,096
-170,139	800,000	-0,015	0,031
-169,125	-53,861	-0,066	-0,021
-168,110	-200,000	-0,004	0,061
-167,096	-14,698	-0,029	-0,013
-166,081	-200,000	0,019	0,153
-165,066	800,000	0,068	-0,144
-164,052	518,775	0,041	-0,070
-163,037	800,000	0,069	0,151
-162,023	-10,111	0,245	0,117
-161,008	7,788	0,093	0,050
-159,993	21,991	0,114	0,067
-158,979	-37,721	-0,110	0,042
-157,964	139,629	-0,082	0,078
-156,950	160,750	-0,014	0,014
-155,935	-4,130	0,018	-0,009
-154,920	37,774	0,079	-0,050
-153,906	120,490	-0,089	0,080
-152,891	187,106	0,092	-0,099
-151,877	-200,000	-0,005	0,053
-150,862	276,909	-0,056	0,072
-149,847	-200,000	-0,016	-0,106
-148,833	-200,000	0,016	-0,103
-147,818	-45,560	0,235	-0,083
-146,804	-19,138	-0,092	0,041
-145,789	-200,000	-0,023	0,079
-144,775	496,980	0,022	-0,037
-143,760	71,273	0,039	-0,029
-142,745	-112,290	0,036	-0,005
-141,731	316,550	0,088	0,120
-140,716	3,350	0,092	-0,048
-139,702	23,347	-0,104	0,061
-138,687	381,216	0,117	-0,174
-137,672	264,774	-0,046	0,058
-136,658	23,937	0,006	0,003
-135,643	21,040	0,216	-0,126
-134,629	800,000	0,027	-0,083
-133,614	800,000	0,036	0,084
-132,599	-157,085	0,108	0,005
-131,585	-186,591	-0,100	0,001
-130,570	24,222	-0,101	0,060
-129,556	-38,773	-0,028	0,011
-128,541	16,498	-0,119	-0,068
-127,526	-44,065	-0,037	0,013
-126,512	-21,943	0,079	0,034
-125,497	-35,274	-0,074	0,029
-124,483	-200,000	-0,041	0,159
-123,468	-129,164	-0,110	-0,011
-122,453	-200,000	0,016	-0,160
-121,439	-200,000	0,033	0,118
-120,424	800,000	-0,008	-0,016
-119,410	153,528	0,107	-0,105
