DTS Sentinel unit serial number:	SN410029Multiplexer serial number:	ORYXHardware model number:	OX2-SRSoftware version number:	ORYX F/W v4,00 Oryx Data Collector v3.7.2.0data status	okinstallation	B6 Nyhavnadifferential loss correction	single-endedforward channel	channel 2reverse channel	N/Adate	2023/12/10time	19:30:08forward acquisition time	300,00reverse acquisition time	0,00gamma	499,1914k internal	0,3122k external	0,3122temperature offset calibration	1,0000default loss term (dB/km)	0,3820temperature slope calibration	1,0000multiplexer offset coefficient	1,0000multiplexer slope coefficient	1,0000fibre end	0,00T internal ref (°C)	22,31T ext. ref 1 (°C)	6,00T ext. ref 2 (°C)	6,01length (m)	temperature (°C)	Stokes	anti-Stokes-744,400	-200,000	0,037	-0,172
-743,385	255,684	-0,133	0,171
-742,371	33,706	0,107	-0,070
-741,356	28,264	-0,196	0,123
-740,342	-200,000	0,025	0,090
-739,327	161,305	-0,177	0,185
-738,312	291,056	-0,091	-0,124
-737,298	-8,965	-0,276	0,137
-736,283	140,865	0,085	-0,084
-735,269	-31,421	-0,210	0,088
-734,254	585,918	0,014	-0,026
-733,239	1,657	-0,303	-0,162
-732,225	178,262	0,142	-0,154
-731,210	-64,713	-0,111	0,033
-730,196	-40,356	0,102	0,040
-729,181	156,809	-0,022	0,023
-728,167	701,492	-0,054	-0,106
-727,152	-108,572	-0,030	-0,005
-726,137	800,000	-0,043	-0,109
-725,123	364,900	0,028	-0,042
-724,108	-110,911	0,135	0,021
-723,094	-200,000	-0,022	-0,100
-722,079	-200,000	0,007	-0,038
-721,064	10,460	0,064	-0,036
-720,050	-93,176	-0,053	0,011
-719,035	180,857	0,052	0,056
-718,021	32,343	0,094	0,060
-717,006	83,723	-0,081	-0,066
-715,991	800,000	-0,057	-0,136
-714,977	800,000	-0,003	0,008
-713,962	800,000	0,025	0,064
-712,948	-145,140	0,083	-0,006
-711,933	-49,001	-0,096	-0,034
-710,918	712,354	-0,088	-0,174
-709,904	-80,817	-0,118	-0,029
-708,889	-151,378	-0,097	-0,005
-707,875	-200,000	-0,044	0,000
-706,860	-126,487	-0,068	-0,007
-705,845	-91,004	0,111	0,024
-704,831	366,145	0,071	-0,106
-703,816	167,680	-0,079	0,083
-702,802	-144,672	0,088	0,006
-701,787	79,083	-0,098	0,078
-700,772	-200,000	0,022	-0,119
-699,758	21,165	-0,139	0,084
-698,743	230,973	-0,017	0,020
-697,729	-130,667	0,123	-0,012
-696,714	-200,000	-0,040	0,151
-695,699	-61,361	0,009	0,003
-694,685	106,150	0,080	-0,071
-693,670	48,768	-0,169	-0,118
-692,656	-87,636	-0,060	-0,013
-691,641	398,536	-0,038	0,059
-690,627	82,612	0,156	0,126
-689,612	-200,000	0,049	-0,000
-688,597	90,558	0,047	-0,039
-687,583	800,000	0,049	-0,147
-686,568	54,403	0,090	-0,064
-685,554	154,077	0,152	-0,156
-684,539	176,027	0,090	0,097
-683,524	-200,000	0,015	-0,075
-682,510	-108,424	-0,118	0,019
-681,495	-106,547	-0,051	-0,008
-680,481	714,280	-0,052	-0,103
-679,466	-200,000	-0,002	-0,248
-678,451	-28,892	0,077	-0,033
-677,437	41,713	-0,065	-0,044
-676,422	-60,473	0,039	0,012
-675,408	279,090	0,041	-0,055
-674,393	-41,460	-0,149	-0,057
-673,378	263,111	0,030	-0,038
-672,364	77,764	-0,093	0,074
-671,349	-106,775	-0,143	0,023
-670,335	-200,000	0,001	0,131
-669,320	-88,583	-0,013	0,003
-668,305	-124,760	-0,107	-0,012
-667,291	-200,000	-0,002	0,016
-666,276	-119,246	-0,140	0,018
-665,262	-114,244	-0,204	-0,029
-664,247	-200,000	0,006	-0,172
-663,232	-60,308	-0,096	-0,030
-662,218	-200,000	-0,005	0,053
-661,203	-200,000	0,011	0,052
-660,189	-200,000	-0,001	0,065
-659,174	343,110	-0,101	0,147
-658,159	379,476	0,037	-0,056
-657,145	228,026	-0,061	-0,074
-656,130	327,319	0,053	0,076
-655,116	385,188	0,044	0,067
-654,101	262,053	-0,030	-0,039
-653,086	648,778	-0,081	-0,155
-652,072	-200,000	0,010	-0,059
-651,057	-182,192	0,023	0,000
-650,043	-200,000	-0,004	-0,145
-649,028	-34,594	-0,148	-0,060
-648,014	58,025	-0,059	-0,043
-646,999	-160,421	0,091	0,004
-645,984	800,000	-0,016	0,049
-644,970	-42,721	0,090	0,034
-643,955	-178,773	-0,136	0,002
-642,941	406,284	-0,066	-0,104
-641,926	-79,056	0,072	-0,018
-640,911	-114,951	0,073	0,010
-639,897	-15,943	0,211	-0,099
-638,882	-12,929	-0,127	-0,061
-637,868	-50,997	-0,076	0,026
-636,853	72,375	-0,044	0,034
-635,838	-200,000	0,012	-0,096
-634,824	-200,000	0,014	-0,077
-633,809	-200,000	-0,004	-0,041
-632,795	238,800	-0,031	0,038
-631,780	244,599	-0,134	-0,168
-630,765	396,240	-0,084	-0,130
-629,751	800,000	0,050	-0,116
-628,736	479,214	-0,051	0,087
-627,722	-56,813	0,089	0,029
-626,707	-200,000	0,011	-0,169
-625,692	-200,000	-0,015	-0,101
-624,678	-31,423	0,075	0,031
-623,663	329,519	0,079	-0,113
-622,649	270,329	-0,075	-0,098
-621,634	-130,742	-0,077	0,008
-620,619	313,512	0,091	0,127
-619,605	-62,369	-0,098	-0,030
-618,590	-152,216	-0,051	-0,003
-617,576	-62,928	-0,028	-0,009
-616,561	5,892	-0,037	-0,020
-615,546	-8,043	-0,230	0,115
-614,532	107,396	-0,056	-0,049
-613,517	457,751	-0,047	-0,078
-612,503	-21,673	0,085	-0,038
-611,488	236,331	0,060	0,073
-610,474	-67,399	-0,113	0,033
-609,459	-86,855	0,108	-0,024
-608,444	-200,000	-0,022	-0,089
-607,430	-76,936	-0,070	0,018
-606,415	-200,000	0,009	-0,073
-605,401	-83,022	-0,075	-0,018
-604,386	-200,000	-0,005	0,058
-603,371	-200,000	0,006	-0,099
-602,357	608,673	-0,009	0,016
-601,342	15,957	0,094	0,055
-600,328	33,332	-0,035	0,022
-599,313	70,155	-0,080	-0,061
-598,298	545,918	0,059	-0,105
-597,284	-200,000	-0,013	0,050
-596,269	-152,013	0,085	0,005
-595,255	-64,483	0,034	-0,010
-594,240	-3,661	-0,065	0,033
-593,225	-200,000	0,016	-0,210
-592,211	-177,084	-0,066	-0,001
-591,196	766,419	0,023	0,046
-590,182	800,000	-0,026	0,071
-589,167	800,000	0,037	0,103
-588,152	75,111	0,072	0,057
-587,138	504,623	-0,054	-0,094
-586,123	-21,853	-0,092	-0,041
-585,109	800,000	-0,054	0,120
-584,094	71,894	-0,118	-0,091
-583,079	738,038	-0,018	0,036
-582,065	532,123	-0,033	0,057
-581,050	-39,421	-0,024	0,009
-580,036	-200,000	0,023	0,109
-579,021	800,000	0,026	-0,068
-578,006	34,622	0,099	-0,064
-576,992	-78,141	-0,140	-0,035
-575,977	800,000	0,045	-0,126
-574,963	-69,110	-0,070	0,020
-573,948	-57,657	0,082	0,026
-572,934	207,354	0,065	-0,075
-571,919	-200,000	-0,024	-0,204
-570,904	-200,000	-0,014	-0,110
-569,890	350,188	0,061	-0,089
-568,875	800,000	-0,032	0,090
-567,861	-112,326	0,137	0,020
-566,846	-96,851	-0,094	-0,018
-565,831	-200,000	-0,000	-0,100
-564,817	800,000	-0,030	0,063
-563,802	-40,771	-0,107	0,041
-562,788	-97,093	-0,062	0,012
-561,773	38,510	0,114	0,075
-560,758	800,000	-0,023	-0,049
-559,744	-62,889	-0,087	-0,027
-558,729	473,736	-0,038	0,064
-557,715	-87,088	-0,052	-0,012
-556,700	-55,462	-0,096	0,032
-555,685	-60,232	-0,089	-0,028
-554,671	-44,188	-0,096	0,035
-553,656	149,663	-0,043	-0,044
-552,642	-200,000	-0,003	0,178
-551,627	-90,874	-0,238	0,050
-550,612	-200,000	-0,008	-0,045
-549,598	518,613	-0,082	-0,142
-548,583	-200,000	0,004	-0,055
-547,569	-130,502	0,131	-0,013
-546,554	800,000	0,080	0,186
-545,539	-13,004	-0,126	0,060
-544,525	-150,526	0,128	0,007
-543,510	-114,679	-0,097	-0,014
-542,496	135,178	-0,068	0,065
-541,481	127,992	-0,065	-0,061
-540,466	-113,438	-0,115	0,017
-539,452	211,018	0,074	0,087
-538,437	-200,000	-0,008	0,104
-537,423	-130,748	0,118	0,012
-536,408	-200,000	-0,015	-0,083
-535,393	-122,326	-0,097	-0,012
-534,379	-146,441	0,034	0,002
-533,364	303,964	0,020	-0,027
-532,350	100,695	-0,216	0,185
-531,335	-200,000	-0,007	-0,023
-530,321	59,144	0,031	0,023
-529,306	-200,000	0,016	-0,094
-528,291	-179,813	-0,078	-0,001
-527,277	164,166	0,017	-0,018
-526,262	-200,000	0,019	-0,124
-525,248	9,346	0,080	-0,045
-524,233	800,000	0,026	-0,065
-523,218	-88,500	0,120	-0,026
-522,204	285,577	0,049	0,066
-521,189	393,357	0,051	0,079
-520,175	168,835	0,009	0,009
-519,160	130,091	-0,025	-0,024
-518,145	175,597	-0,068	0,073
-517,131	-200,000	0,020	0,213
-516,116	110,887	-0,073	0,065
-515,102	-134,510	0,168	0,015
-514,087	-161,070	-0,122	0,005
-513,072	-200,000	-0,016	-0,073
-512,058	-200,000	0,026	-0,122
-511,043	-92,985	-0,064	-0,013
-510,029	-200,000	-0,003	0,089
-509,014	722,062	-0,032	0,064
-507,999	-200,000	0,014	-0,065
-506,985	-200,000	-0,009	-0,082
-505,970	-166,428	-0,092	0,003
-504,956	173,567	-0,044	-0,047
-503,941	800,000	-0,018	0,038
-502,926	67,388	0,084	-0,064
-501,912	-77,691	0,136	-0,034
-500,897	800,000	-0,015	0,038
-499,883	-63,639	-0,146	-0,044
-498,868	31,506	-0,040	-0,025
-497,853	655,823	-0,032	0,062
-496,839	299,154	-0,038	0,052
-495,824	12,607	-0,019	0,011
-494,810	-7,428	-0,053	0,026
-493,795	265,221	0,041	-0,053
-492,781	800,000	0,008	-0,017
-491,766	800,000	-0,028	-0,067
-490,751	613,213	-0,017	-0,031
-489,737	94,563	0,052	-0,043
-488,722	800,000	0,051	0,116
-487,708	248,775	-0,025	-0,031
-486,693	-200,000	-0,020	-0,097
-485,678	-200,000	-0,021	0,141
-484,664	16,578	-0,075	0,044
-483,649	-26,595	0,142	0,061
-482,635	800,000	-0,032	-0,069
-481,620	491,876	0,072	-0,123
-480,605	38,862	0,136	0,089
-479,591	5,166	0,149	0,081
-478,576	-200,000	0,003	0,067
-477,562	-8,371	-0,092	-0,046
-476,547	-30,064	0,111	0,046
-475,532	439,923	0,032	0,052
-474,518	-105,715	0,150	-0,025
-473,503	-200,000	0,030	0,129
-472,489	114,026	-0,053	-0,048
-471,474	148,321	0,067	-0,067
-470,459	379,843	0,029	0,044
-469,445	209,724	0,066	-0,076
-468,430	-200,000	-0,038	-0,194
-467,416	-38,736	0,065	0,025
-466,401	330,245	0,109	0,155
-465,386	1,590	-0,014	-0,007
-464,372	800,000	-0,072	-0,162
-463,357	800,000	-0,079	-0,178
-462,343	-149,661	-0,221	0,013
-461,328	-162,504	0,109	-0,004
-460,313	154,404	-0,035	0,036
-459,299	-34,640	0,045	-0,018
-458,284	800,000	0,037	0,078
-457,270	-200,000	-0,010	-0,041
-456,255	-200,000	-0,024	-0,090
-455,241	201,892	0,041	-0,047
-454,226	82,764	-0,067	0,054
-453,211	655,263	-0,016	-0,029
-452,197	-132,750	-0,114	-0,011
-451,182	233,691	0,092	0,112
-450,168	105,886	0,104	0,091
-449,153	-54,918	-0,126	-0,042
-448,138	-95,510	-0,121	0,024
-447,124	-32,111	-0,054	-0,022
-446,109	-79,626	0,099	-0,024
-445,095	22,721	0,146	0,088
-444,080	-138,642	-0,111	-0,009
-443,065	84,224	-0,029	0,023
-442,051	-200,000	0,006	0,095
-441,036	77,084	-0,031	-0,025
-440,022	-200,000	-0,044	-0,159
-439,007	-200,000	0,026	-0,119
-437,992	800,000	0,023	0,055
-436,978	-200,000	-0,007	0,060
-435,963	-151,298	0,084	0,005
-434,949	170,704	-0,078	-0,082
-433,934	-74,085	0,010	0,003
-432,919	-2,647	0,049	0,025
-431,905	-200,000	0,027	0,121
-430,890	181,905	-0,062	-0,068
-429,876	-169,993	-0,055	-0,001
-428,861	-129,278	0,098	0,010
-427,846	238,684	0,038	0,047
-426,832	-115,716	-0,113	0,015
-425,817	19,318	-0,094	-0,055
-424,803	112,394	-0,065	-0,058
-423,788	-200,000	-0,005	-0,119
-422,773	-137,971	0,146	-0,012
-421,759	-200,000	0,008	0,092
-420,744	800,000	0,005	0,012
-419,730	230,000	-0,019	0,023
-418,715	-200,000	-0,019	-0,093
-417,701	-7,137	0,081	0,040
-416,686	-45,341	0,061	0,022
-415,671	800,000	0,035	0,114
-414,657	-112,210	-0,052	0,008
-413,642	438,093	0,045	-0,072
-412,628	-200,000	-0,017	0,061
-411,613	-17,321	0,078	0,036
-410,598	128,667	0,105	-0,099
-409,584	223,463	0,077	0,091
-408,569	-200,000	-0,006	-0,085
-407,555	789,405	0,074	0,150
-406,540	51,397	-0,042	0,029
-405,525	125,139	0,087	-0,081
-404,511	373,556	0,091	-0,137
-403,496	-200,000	0,011	-0,140
-402,482	-200,000	-0,002	0,037
-401,467	459,634	-0,016	-0,026
-400,452	-200,000	-0,001	0,016
-399,438	-47,315	0,076	0,027
-398,423	129,214	0,017	0,016
-397,409	-42,911	0,010	0,004
-396,394	518,228	-0,013	0,022
-395,379	800,000	-0,081	-0,216
-394,365	214,082	0,081	0,095
-393,350	-118,587	0,074	-0,010
-392,336	87,519	0,116	0,094
-391,321	800,000	0,098	0,220
-390,306	800,000	0,049	-0,108
-389,292	388,922	-0,075	-0,114
-388,277	-200,000	-0,010	-0,056
-387,263	441,531	0,093	0,150
-386,248	-200,000	-0,018	0,117
-385,233	-200,000	0,017	0,176
-384,219	-200,000	-0,024	-0,093
-383,204	187,033	0,106	0,117
-382,190	800,000	-0,025	-0,069
-381,175	286,688	0,117	0,155
-380,160	-199,801	0,155	-0,001
-379,146	-21,123	-0,035	0,016
-378,131	95,391	0,065	0,055
-377,117	-70,135	0,190	-0,053
-376,102	99,635	-0,014	0,012
-375,088	-98,848	-0,082	-0,015
-374,073	345,353	0,063	-0,091
-373,058	95,554	0,085	-0,072
-372,044	31,496	0,171	0,108
-371,029	-109,421	-0,091	0,014
-370,015	18,143	-0,071	-0,041
-369,000	-103,256	0,078	0,013
-367,985	-149,055	-0,124	0,007
-366,971	800,000	-0,026	0,065
-365,956	-200,000	0,019	0,107
-364,942	101,006	0,014	0,012
-363,927	572,773	-0,058	0,105
-362,912	-73,405	0,160	0,043
-361,898	-200,000	-0,003	0,110
-360,883	-200,000	0,018	-0,116
-359,869	90,070	-0,055	0,045
-358,854	-25,691	-0,036	0,016
-357,839	147,967	0,051	-0,050
-356,825	285,091	-0,017	-0,023
-355,810	752,116	0,027	0,053
-354,796	322,858	-0,071	-0,100
-353,781	-200,000	0,029	-0,125
-352,766	-107,095	-0,118	0,019
-351,752	800,000	0,041	0,101
-350,737	800,000	0,016	-0,051
-349,723	-17,682	0,154	0,071
-348,708	-65,932	0,096	-0,028
-347,693	800,000	0,021	0,059
-346,679	-46,467	-0,061	0,022
-345,664	326,358	0,051	-0,071
-344,650	114,358	0,058	-0,052
-343,635	800,000	0,043	-0,130
-342,620	92,693	0,059	0,049
-341,606	-52,473	-0,077	-0,026
-340,591	730,679	-0,038	-0,075
-339,577	-200,000	-0,002	-0,049
-338,562	15,507	-0,134	-0,077
-337,548	-92,193	0,030	-0,006
-336,533	263,790	-0,050	0,064
-335,518	-200,000	-0,003	-0,018
-334,504	-200,000	-0,021	0,159
-333,489	7,986	-0,093	0,051
-332,475	800,000	0,062	0,153
-331,460	-28,960	-0,058	0,024
-330,445	-200,000	0,007	0,102
-329,431	-68,107	0,080	-0,023
-328,416	-16,667	0,123	0,057
-327,402	31,030	0,125	0,078
-326,387	499,454	-0,042	0,070
-325,372	-89,025	-0,098	-0,021
-324,358	-200,000	0,051	-0,244
-323,343	31,053	0,068	0,043
-322,329	-200,000	0,004	0,043
-321,314	784,757	0,033	0,067
-320,299	-200,000	-0,004	0,016
-319,285	-200,000	-0,033	-0,130
-318,270	-189,650	-0,065	0,001
-317,256	-50,562	0,121	-0,042
-316,241	-200,000	0,027	0,102
-315,226	370,894	0,014	0,021
-314,212	800,000	0,056	-0,135
-313,197	-94,266	-0,015	-0,003
-312,183	-106,897	0,017	0,003
-311,168	693,073	0,080	-0,155
-310,153	6,501	-0,084	-0,046
-309,139	-72,785	0,117	0,031
-308,124	165,150	0,083	-0,086
-307,110	-47,827	-0,025	-0,009
-306,095	212,254	-0,101	0,117
-305,080	800,000	0,017	-0,040
-304,066	-200,000	-0,004	-0,104
-303,051	-76,125	-0,114	-0,029
-302,037	674,457	0,013	0,025
-301,022	263,116	0,098	-0,125
-300,008	78,497	0,060	0,047
-298,993	74,789	-0,079	-0,061
-297,978	13,853	-0,093	-0,053
-296,964	626,566	-0,055	-0,102
-295,949	277,936	-0,120	0,157
-294,935	347,195	0,018	0,025
-293,920	-200,000	0,026	-0,111
-292,905	-162,592	-0,109	0,004
-291,891	596,001	-0,038	0,070
-290,876	-200,000	0,024	-0,138
-289,862	271,786	-0,025	-0,033
-288,847	83,509	0,055	-0,044
-287,832	-200,000	0,015	-0,093
-286,818	-149,745	-0,093	0,005
-285,803	800,000	-0,040	0,090
-284,789	-150,703	0,063	-0,003
-283,774	-200,000	0,015	0,099
-282,759	-145,459	-0,126	0,008
-281,745	216,578	0,048	-0,056
-280,730	-113,160	-0,077	-0,011
-279,716	248,340	0,053	0,065
-278,701	187,490	0,025	0,027
-277,686	48,385	-0,077	-0,053
-276,672	-112,913	-0,034	0,005
-275,657	371,990	-0,049	0,073
-274,643	-5,756	-0,073	-0,036
-273,628	-49,643	-0,191	0,066
-272,613	122,145	0,108	0,098
-271,599	235,109	-0,072	-0,087
-270,584	66,049	0,081	0,060
-269,570	-200,000	0,005	-0,125
-268,555	-148,309	0,062	-0,004
-267,540	-149,596	-0,038	0,002
-266,526	-49,402	-0,039	0,013
-265,511	-200,000	-0,011	-0,105
-264,497	-55,876	0,209	0,068
-263,482	402,627	0,082	-0,127
-262,467	-100,864	0,068	-0,012
-261,453	638,098	-0,024	0,045
-260,438	-69,282	-0,055	0,015
-259,424	424,049	0,023	-0,036
-258,409	91,051	-0,103	0,084
-257,395	-200,000	0,004	0,055
-256,380	73,209	0,016	0,012
-255,365	-200,000	-0,033	0,115
-254,351	-155,419	-0,118	0,005
-253,336	-5,355	0,115	0,058
-252,322	201,101	0,014	-0,016
-251,307	388,307	-0,059	0,089
-250,292	-200,000	0,029	0,166
-249,278	-38,756	0,060	0,023
-248,263	322,915	0,018	0,025
-247,249	-200,000	0,013	0,167
-246,234	800,000	0,009	0,018
-245,219	800,000	0,019	-0,045
-244,205	-80,504	-0,098	0,024
-243,190	245,852	0,107	0,132
-242,176	-99,019	0,060	-0,011
-241,161	-114,917	0,103	0,014
-240,146	167,608	0,035	-0,036
-239,132	-48,799	-0,063	0,022
-238,117	193,362	-0,025	-0,027
-237,103	-200,000	0,048	-0,173
-236,088	22,899	-0,126	0,076
-235,073	118,002	-0,010	-0,009
-234,059	-99,265	0,079	-0,014
-233,044	107,481	-0,027	0,024
-232,030	83,689	-0,067	0,053
-231,015	-200,000	0,005	-0,155
-230,000	202,190	0,051	0,057
-228,986	800,000	-0,028	-0,087
-227,971	508,390	-0,034	0,059
-226,957	-168,541	0,023	0,001
-225,942	-39,361	0,141	0,054
-224,927	60,493	0,057	0,041
-223,913	103,423	-0,068	-0,058
-222,898	100,088	-0,122	-0,103
-221,884	69,582	0,088	-0,066
-220,869	482,543	-0,108	0,180
-219,855	-53,759	-0,041	0,014
-218,840	800,000	-0,017	0,039
-217,825	-200,000	-0,001	0,058
-216,811	800,000	-0,027	0,084
-215,796	34,284	-0,118	0,075
-214,782	-200,000	0,002	-0,068
-213,767	203,693	0,073	0,083
-212,752	-108,311	0,061	-0,010
-211,738	-200,000	0,036	0,128
-210,723	-166,152	0,092	0,003
-209,709	10,256	0,060	-0,033
-208,694	-200,000	0,011	-0,156
-207,679	-144,955	0,140	0,009
-206,665	-83,581	-0,109	-0,025
-205,650	-200,000	0,097	-0,000
-204,636	-115,950	0,111	-0,015
-203,621	173,349	0,070	-0,074
-202,606	800,000	-0,055	-0,130
-201,592	-2,982	0,050	0,025
-200,577	36,794	0,069	-0,044
-199,563	-200,000	-0,044	-0,176
-198,548	107,214	-0,049	-0,042
-197,533	800,000	0,029	0,060
-196,519	800,000	-0,030	0,063
-195,504	800,000	-0,088	-0,184
-194,490	296,125	-0,130	-0,174
-193,475	-200,000	0,007	0,092
-192,460	162,149	0,100	-0,102
-191,446	-100,837	0,132	-0,023
-190,431	800,000	0,047	0,130
-189,417	-55,337	0,158	0,051
-188,402	35,235	0,194	0,124
-187,387	800,000	-0,046	0,145
-186,373	197,357	0,010	-0,011
-185,358	117,997	-0,028	0,025
-184,344	-200,000	0,006	0,214
-183,329	-109,752	-0,097	0,015
-182,315	102,125	-0,060	-0,051
-181,300	-35,541	0,039	-0,015
-180,285	-200,000	-0,004	0,018
-179,271	-200,000	0,003	-0,089
-178,256	355,188	0,046	0,066
-177,242	800,000	-0,022	-0,049
-176,227	144,757	-0,077	0,075
-175,212	583,249	-0,016	0,029
-174,198	-120,926	-0,033	0,004
-173,183	-141,595	-0,079	0,006
-172,169	151,195	-0,041	0,041
-171,154	-4,251	0,037	-0,018
-170,139	-46,064	0,062	0,022
-169,125	-200,000	0,043	0,177
-168,110	800,000	-0,025	0,052
-167,096	116,437	-0,117	0,104
-166,081	38,662	-0,044	-0,028
-165,066	69,382	-0,113	-0,085
-164,052	480,643	0,049	-0,081
-163,037	81,046	-0,044	-0,034
-162,023	-200,000	-0,012	0,141
-161,008	90,730	0,048	0,039
-159,993	481,527	-0,043	-0,071
-158,979	516,683	-0,078	0,133
-157,964	189,965	-0,051	0,056
-156,950	-106,698	-0,090	-0,014
-155,935	-127,692	-0,034	0,004
-154,920	425,990	-0,048	0,076
-153,906	-131,962	0,062	0,006
-152,891	-16,941	-0,019	-0,009
-151,877	-69,926	-0,143	0,040
-150,862	-200,000	-0,009	0,035
-149,847	397,173	-0,020	-0,030
-148,833	-62,907	-0,127	-0,038
-147,818	569,344	0,037	0,066
-146,804	221,438	0,032	0,037
-145,789	-10,832	0,038	0,018
-144,775	54,771	-0,047	0,033
-143,760	248,662	-0,052	-0,064
-142,745	800,000	-0,022	-0,069
-141,731	100,706	-0,071	-0,060
-140,716	-107,719	0,193	-0,030
-139,702	-175,377	-0,061	-0,001
-138,687	199,578	0,055	-0,061
-137,672	-57,425	0,159	0,051
-136,658	41,155	-0,065	0,043
-135,643	150,841	0,048	-0,048
-134,629	522,409	0,064	0,110
-133,614	44,424	0,108	-0,072
-132,599	-83,723	-0,058	0,013
-131,585	-200,000	-0,048	0,167
-130,570	431,433	0,041	-0,064
-129,556	297,056	0,036	-0,048
-128,541	506,855	-0,032	-0,055
-127,526	269,923	-0,096	-0,123
-126,512	17,701	0,190	0,109
-125,497	-53,518	-0,045	0,015
-124,483	512,340	-0,027	0,045
-123,468	800,000	-0,011	-0,024
-122,453	8,019	0,077	0,042
-121,439	-155,964	-0,076	0,003
-120,424	404,966	0,080	-0,123
-119,410	800,000	0,058	0,131
