DTS Sentinel unit serial number:	SN410029Multiplexer serial number:	ORYXHardware model number:	OX2-SRSoftware version number:	ORYX F/W v4,00 Oryx Data Collector v3.7.2.0data status	okinstallation	B6 Nyhavnadifferential loss correction	single-endedforward channel	channel 2reverse channel	N/Adate	2023/12/09time	19:05:08forward acquisition time	300,00reverse acquisition time	0,00gamma	499,1914k internal	0,3130k external	0,3130temperature offset calibration	1,0000default loss term (dB/km)	0,3820temperature slope calibration	1,0000multiplexer offset coefficient	1,0000multiplexer slope coefficient	1,0000fibre end	0,00T internal ref (°C)	21,06T ext. ref 1 (°C)	4,80T ext. ref 2 (°C)	4,79length (m)	temperature (°C)	Stokes	anti-Stokes-744,400	516,142	0,071	-0,124
-743,385	-28,644	-0,178	0,076
-742,371	-48,557	0,076	0,027
-741,356	133,953	-0,144	0,139
-740,342	39,481	0,089	0,059
-739,327	-19,810	-0,296	0,136
-738,312	800,000	0,049	-0,130
-737,298	1,113	-0,176	-0,094
-736,283	292,084	-0,083	-0,113
-735,269	105,206	-0,213	0,187
-734,254	-32,094	0,099	0,041
-733,239	1,168	-0,333	-0,177
-732,225	510,690	0,094	-0,163
-731,210	-200,000	0,002	0,068
-730,196	-17,315	0,065	0,030
-729,181	210,969	-0,143	-0,168
-728,167	100,707	0,030	-0,026
-727,152	-28,282	-0,041	-0,017
-726,137	-200,000	0,002	-0,171
-725,123	800,000	0,044	-0,096
-724,108	3,138	-0,207	-0,111
-723,094	119,932	-0,022	-0,020
-722,079	-43,793	-0,062	-0,023
-721,064	113,460	-0,005	0,005
-720,050	-57,789	-0,116	0,037
-719,035	-200,000	-0,015	-0,068
-718,021	-119,640	-0,161	0,020
-717,006	90,268	-0,095	-0,079
-715,991	-200,000	0,018	-0,226
-714,977	294,992	0,056	-0,076
-713,962	306,566	-0,044	-0,062
-712,948	16,023	-0,092	-0,054
-711,933	-200,000	0,014	0,066
-710,918	-119,032	-0,021	0,003
-709,904	-200,000	-0,043	-0,243
-708,889	93,774	0,059	-0,050
-707,875	300,348	-0,121	-0,167
-706,860	-200,000	-0,052	-0,195
-705,845	-85,642	-0,162	-0,037
-704,831	-7,339	-0,044	0,022
-703,816	800,000	0,056	0,152
-702,802	-17,184	0,111	0,052
-701,787	199,760	-0,035	0,040
-700,772	-49,663	-0,048	0,017
-699,758	0,961	0,056	-0,030
-698,743	89,941	-0,059	-0,049
-697,729	-130,044	-0,067	0,007
-696,714	202,145	-0,099	0,113
-695,699	263,871	0,114	-0,148
-694,685	-131,309	-0,195	-0,019
-693,670	-84,250	-0,019	-0,004
-692,656	-200,000	0,014	0,077
-691,641	-32,647	0,168	0,069
-690,627	-52,301	0,087	0,030
-689,612	-115,717	0,040	-0,006
-688,597	688,388	-0,007	-0,015
-687,583	800,000	0,017	-0,041
-686,568	-200,000	0,033	-0,220
-685,554	136,844	-0,048	0,046
-684,539	800,000	-0,016	0,037
-683,524	104,101	-0,076	0,066
-682,510	-200,000	0,008	0,046
-681,495	-6,906	-0,057	-0,029
-680,481	142,409	-0,030	-0,030
-679,466	252,713	-0,012	-0,015
-678,451	-55,969	0,129	-0,042
-677,437	800,000	-0,077	-0,211
-676,422	-171,081	0,122	0,003
-675,408	-200,000	-0,005	0,056
-674,393	-200,000	-0,019	0,135
-673,378	-131,068	-0,089	0,009
-672,364	467,408	-0,030	-0,050
-671,349	788,735	0,036	-0,073
-670,335	257,268	-0,084	-0,107
-669,320	-165,523	0,059	-0,002
-668,305	143,040	-0,017	-0,017
-667,291	800,000	-0,006	-0,018
-666,276	-200,000	-0,009	0,105
-665,262	-200,000	-0,021	-0,145
-664,247	800,000	-0,071	-0,223
-663,232	77,353	-0,080	0,063
-662,218	-191,146	0,091	-0,001
-661,203	240,767	-0,083	-0,103
-660,189	174,539	-0,025	-0,027
-659,174	-200,000	0,013	-0,069
-658,159	-2,856	-0,127	-0,065
-657,145	-46,073	-0,113	0,041
-656,130	-141,819	-0,085	0,006
-655,116	311,326	0,045	0,062
-654,101	-125,182	0,068	-0,008
-653,086	-200,000	-0,027	0,099
-652,072	601,799	-0,081	-0,151
-651,057	272,373	-0,109	-0,143
-650,043	-200,000	-0,024	-0,118
-649,028	-200,000	0,003	0,012
-648,014	97,606	-0,009	-0,007
-646,999	-84,163	0,091	-0,021
-645,984	139,627	0,072	0,070
-644,970	-200,000	0,012	-0,105
-643,955	-200,000	-0,030	-0,100
-642,941	474,379	0,017	-0,028
-641,926	-70,475	0,062	-0,017
-640,911	-200,000	0,058	0,000
-639,897	-200,000	-0,003	0,072
-638,882	800,000	-0,020	-0,047
-637,868	-125,027	-0,196	-0,022
-636,853	-200,000	0,003	-0,088
-635,838	-3,752	-0,073	-0,038
-634,824	-72,005	0,036	-0,010
-633,809	-200,000	0,007	0,057
-632,795	-200,000	-0,017	0,175
-631,780	116,243	0,062	0,056
-630,765	-200,000	0,013	-0,066
-629,751	-200,000	-0,006	-0,047
-628,736	-200,000	0,003	-0,183
-627,722	-115,739	-0,118	-0,016
-626,707	450,111	-0,045	-0,074
-625,692	178,044	-0,066	-0,072
-624,678	-37,111	-0,056	-0,022
-623,663	-200,000	-0,010	0,095
-622,649	-21,737	0,034	0,015
-621,634	-200,000	-0,020	-0,095
-620,619	-42,878	-0,085	0,032
-619,605	463,893	-0,050	-0,084
-618,590	-57,840	-0,071	-0,023
-617,576	800,000	0,054	0,146
-616,561	-200,000	-0,078	-0,000
-615,546	800,000	0,034	-0,071
-614,532	-154,076	-0,061	0,003
-613,517	322,578	0,070	0,098
-612,503	-121,576	0,068	-0,008
-611,488	218,532	-0,101	0,120
-610,474	170,348	0,066	0,070
-609,459	163,103	-0,037	-0,039
-608,444	-200,000	0,000	0,009
-607,430	317,101	0,089	-0,125
-606,415	289,491	-0,043	0,058
-605,401	-70,885	-0,045	-0,012
-604,386	-112,409	0,094	-0,014
-603,371	-152,598	0,141	0,007
-602,357	800,000	0,027	-0,075
-601,342	334,030	0,020	0,029
-600,328	-200,000	0,009	-0,147
-599,313	-11,287	0,034	0,016
-598,298	800,000	0,016	0,043
-597,284	207,398	0,055	-0,063
-596,269	15,832	0,076	-0,044
-595,255	800,000	0,060	-0,130
-594,240	576,537	-0,098	-0,178
-593,225	800,000	-0,064	-0,153
-592,211	800,000	0,025	0,052
-591,196	800,000	-0,036	0,095
-590,182	103,494	-0,022	0,019
-589,167	434,746	0,038	-0,062
-588,152	159,552	-0,092	-0,094
-587,138	-113,312	-0,146	0,021
-586,123	252,326	-0,046	-0,058
-585,109	198,162	0,069	0,078
-584,094	499,630	-0,039	-0,067
-583,079	-200,000	0,031	0,159
-582,065	-22,809	0,090	-0,040
-581,050	195,780	0,067	0,076
-580,036	-200,000	0,011	0,099
-579,021	-165,991	-0,128	0,004
-578,006	397,467	-0,085	-0,132
-576,992	-200,000	-0,024	0,089
-575,977	-139,362	-0,085	-0,007
-574,963	120,492	0,116	0,106
-573,948	58,530	-0,062	-0,045
-572,934	-56,488	0,012	0,004
-571,919	-90,409	0,126	0,027
-570,904	800,000	-0,058	-0,135
-569,890	-134,852	0,072	0,006
-568,875	-200,000	-0,002	-0,067
-567,861	800,000	-0,019	0,052
-566,846	171,557	0,070	0,075
-565,831	-109,199	0,134	-0,021
-564,817	-42,899	-0,113	-0,042
-563,802	-200,000	-0,033	-0,125
-562,788	43,476	-0,045	-0,030
-561,773	-193,916	0,078	-0,000
-560,758	-200,000	0,017	0,189
-559,744	-29,324	0,102	0,043
-558,729	-99,043	0,040	-0,007
-557,715	-101,456	-0,096	-0,017
-556,700	243,036	-0,056	-0,069
-555,685	-41,548	-0,092	-0,035
-554,671	800,000	0,013	-0,037
-553,656	-200,000	-0,022	0,201
-552,642	315,899	0,091	0,127
-551,627	800,000	-0,037	-0,083
-550,612	210,536	0,062	-0,072
-549,598	-82,410	0,043	0,010
-548,583	-72,506	-0,101	-0,027
-547,569	-45,096	0,016	-0,006
-546,554	44,475	0,044	-0,030
-545,539	-200,000	0,002	0,082
-544,525	-60,296	-0,084	0,026
-543,510	-80,105	-0,064	-0,016
-542,496	14,193	-0,013	0,007
-541,481	-123,326	-0,133	-0,015
-540,466	287,823	-0,036	0,048
-539,452	-31,184	-0,066	0,027
-538,437	-200,000	-0,013	0,113
-537,423	800,000	-0,034	-0,077
-536,408	596,773	0,025	0,045
-535,393	123,803	-0,096	-0,089
-534,379	320,127	-0,096	-0,135
-533,364	80,356	0,038	-0,030
-532,350	306,640	0,059	-0,081
-531,335	16,021	0,095	-0,055
-530,321	544,228	-0,079	-0,140
-529,306	6,288	-0,024	0,013
-528,291	-34,342	-0,089	0,036
-527,277	-56,373	0,097	0,032
-526,262	-103,151	-0,059	0,010
-525,248	800,000	-0,029	0,061
-524,233	614,126	0,086	0,160
-523,218	800,000	-0,042	0,107
-522,204	800,000	0,056	0,118
-521,189	272,812	-0,119	-0,155
-520,175	28,956	-0,050	-0,031
-519,160	206,932	-0,073	-0,084
-518,145	-84,418	-0,096	-0,022
-517,131	-10,983	0,120	0,058
-516,116	-96,685	0,070	0,013
-515,102	-40,120	-0,133	-0,051
-514,087	677,188	0,047	-0,091
-513,072	800,000	-0,014	-0,039
-512,058	300,365	0,072	-0,098
-511,043	-200,000	-0,011	-0,080
-510,029	-200,000	-0,012	0,099
-509,014	-200,000	-0,011	-0,080
-507,999	285,680	0,032	0,043
-506,985	460,281	0,095	-0,157
-505,970	-200,000	0,014	-0,099
-504,956	-125,456	0,097	0,011
-503,941	40,480	0,054	-0,036
-502,926	-200,000	-0,016	-0,122
-501,912	-200,000	-0,022	0,123
-500,897	-200,000	0,006	-0,029
-499,883	196,950	0,049	-0,055
-498,868	779,851	-0,023	-0,046
-497,853	436,517	0,023	-0,037
-496,839	5,855	-0,054	-0,029
-495,824	186,523	0,075	0,082
-494,810	76,631	0,026	-0,020
-493,795	49,875	0,085	-0,059
-492,781	-200,000	0,020	-0,113
-491,766	44,840	-0,083	-0,056
-490,751	218,974	-0,017	0,020
-489,737	800,000	0,015	0,043
-488,722	-200,000	-0,027	-0,122
-487,708	-69,329	-0,036	0,010
-486,693	291,509	-0,089	0,119
-485,678	-46,701	0,044	-0,016
-484,664	800,000	0,066	-0,163
-483,649	723,081	-0,025	0,049
-482,635	-54,711	-0,068	0,023
-481,620	-67,078	-0,061	0,018
-480,605	-200,000	-0,006	-0,024
-479,591	85,801	0,012	0,010
-478,576	53,605	-0,068	0,048
-477,562	-4,869	0,057	-0,029
-476,547	-200,000	0,015	-0,186
-475,532	800,000	0,017	0,037
-474,518	-200,000	0,001	-0,044
-473,503	-19,737	-0,125	0,056
-472,489	-200,000	0,010	-0,117
-471,474	-84,612	-0,070	-0,016
-470,459	-200,000	0,014	0,061
-469,445	-200,000	0,006	-0,046
-468,430	521,112	0,048	-0,084
-467,416	134,444	-0,032	0,031
-466,401	-200,000	0,026	0,154
-465,386	-138,801	-0,067	0,005
-464,372	-137,917	0,036	-0,003
-463,357	800,000	0,029	0,075
-462,343	91,104	-0,007	-0,006
-461,328	-200,000	-0,013	0,067
-460,313	-200,000	-0,055	0,212
-459,299	122,463	0,104	-0,095
-458,284	240,326	-0,033	0,040
-457,270	-91,936	0,139	-0,029
-456,255	273,251	0,171	0,223
-455,241	427,165	-0,047	0,074
-454,226	358,933	0,036	0,054
-453,211	100,454	0,040	0,035
-452,197	4,829	0,106	0,057
-451,182	9,270	0,026	0,014
-450,168	800,000	-0,019	0,061
-449,153	-83,792	-0,048	-0,011
-448,138	23,119	-0,194	-0,117
-447,124	285,348	-0,065	-0,087
-446,109	800,000	-0,029	0,086
-445,095	63,311	0,033	-0,024
-444,080	-23,085	-0,151	-0,067
-443,065	-144,531	0,086	-0,006
-442,051	48,197	-0,051	-0,035
-441,036	143,832	0,035	-0,034
-440,022	498,018	-0,055	-0,093
-439,007	98,082	0,069	0,058
-437,992	-200,000	0,024	0,154
-436,978	-200,000	-0,011	0,055
-435,963	-200,000	0,011	0,086
-434,949	800,000	-0,023	-0,059
-433,934	-69,642	-0,101	-0,028
-432,919	-112,826	0,076	0,011
-431,905	-150,092	0,154	-0,009
-430,890	-200,000	0,001	0,026
-429,876	40,410	0,099	0,066
-428,861	-200,000	0,011	-0,064
-427,846	72,635	0,039	0,030
-426,832	-73,364	-0,063	0,017
-425,817	-67,275	0,152	-0,044
-424,803	71,042	0,044	0,033
-423,788	800,000	0,013	0,035
-422,773	-200,000	0,018	-0,075
-421,759	-23,355	0,013	-0,006
-420,744	791,753	0,050	0,101
-419,730	330,702	-0,041	-0,058
-418,715	538,405	0,109	0,190
-417,701	800,000	0,026	-0,066
-416,686	-200,000	-0,003	0,055
-415,671	343,417	-0,065	-0,093
-414,657	-200,000	0,013	0,063
-413,642	486,395	-0,061	0,102
-412,628	308,873	0,020	0,028
-411,613	115,992	-0,108	0,097
-410,598	344,145	0,013	0,019
-409,584	343,362	0,072	0,103
-408,569	-200,000	-0,072	0,000
-407,555	-78,219	-0,062	0,016
-406,540	-200,000	0,038	-0,139
-405,525	-87,672	-0,022	0,005
-404,511	24,342	-0,202	0,122
-403,496	800,000	0,020	0,043
-402,482	76,081	0,072	-0,056
-401,467	-17,504	-0,057	0,026
-400,452	-63,162	0,132	-0,040
-399,438	41,684	-0,060	0,039
-398,423	308,690	0,024	0,033
-397,409	433,050	-0,027	0,043
-396,394	-68,625	-0,030	-0,008
-395,379	9,668	0,136	0,075
-394,365	-200,000	0,029	0,129
-393,350	74,539	0,008	0,006
-392,336	-200,000	-0,011	-0,044
-391,321	39,083	-0,106	-0,070
-390,306	353,575	0,026	-0,039
-389,292	14,434	0,049	-0,028
-388,277	45,841	0,111	-0,075
-387,263	-53,871	0,081	-0,027
-386,248	236,853	-0,085	-0,103
-385,233	179,882	-0,053	-0,057
-384,219	-200,000	0,007	0,108
-383,204	-200,000	-0,014	-0,156
-382,190	-17,914	-0,134	-0,061
-381,175	15,597	-0,065	0,038
-380,160	-200,000	-0,018	0,081
-379,146	207,135	0,037	-0,043
-378,131	800,000	-0,058	-0,123
-377,117	-60,843	-0,061	-0,019
-376,102	82,858	-0,104	0,083
-375,088	-59,738	-0,015	0,005
-374,073	800,000	-0,047	-0,098
-373,058	145,313	0,079	0,077
-372,044	117,409	0,073	0,066
-371,029	800,000	0,030	0,095
-370,015	5,613	0,028	-0,015
-369,000	-200,000	0,010	-0,035
-367,985	800,000	-0,017	-0,046
-366,971	-125,033	-0,024	0,003
-365,956	-200,000	0,022	-0,075
-364,942	800,000	0,034	0,076
-363,927	135,486	0,053	0,051
-362,912	266,560	-0,042	-0,053
-361,898	0,493	-0,126	-0,066
-360,883	386,713	-0,057	0,087
-359,869	11,012	-0,124	-0,069
-358,854	63,288	0,091	0,067
-357,839	144,205	-0,092	0,090
-356,825	-119,173	0,221	-0,028
-355,810	800,000	0,041	-0,091
-354,796	49,594	-0,029	-0,020
-353,781	800,000	0,005	0,012
-352,766	11,796	0,103	0,058
-351,752	-200,000	0,016	-0,084
-350,737	-50,372	0,135	0,047
-349,723	181,822	0,051	-0,055
-348,708	-8,175	-0,079	-0,039
-347,693	-125,718	-0,130	-0,014
-346,679	800,000	-0,027	0,087
-345,664	800,000	0,015	-0,033
-344,650	-136,011	0,108	0,009
-343,635	800,000	0,037	0,098
-342,620	88,864	-0,063	0,051
-341,606	-5,429	0,051	-0,026
-340,591	110,455	0,052	-0,046
-339,577	-200,000	-0,006	-0,129
-338,562	-86,951	-0,114	0,025
-337,548	39,542	0,090	-0,059
-336,533	-181,080	0,055	-0,001
-335,518	-200,000	-0,016	0,062
-334,504	-14,949	0,056	0,026
-333,489	-200,000	-0,001	0,062
-332,475	396,445	0,035	0,053
-331,460	-64,641	0,110	-0,033
-330,445	645,461	-0,065	-0,123
-329,431	66,021	-0,003	-0,003
-328,416	-200,000	-0,015	0,128
-327,402	617,608	0,046	0,085
-326,387	-32,655	0,155	-0,063
-325,372	800,000	-0,031	0,087
-324,358	-107,398	0,102	0,016
-323,343	-200,000	-0,022	-0,072
-322,329	123,110	-0,107	-0,098
-321,314	-22,739	0,209	-0,092
-320,299	147,109	0,030	0,030
-319,285	223,583	-0,112	0,133
-318,270	800,000	-0,034	0,093
-317,256	110,069	-0,119	-0,105
-316,241	-200,000	0,006	0,085
-315,226	-4,332	-0,039	0,020
-314,212	30,054	0,186	-0,116
-313,197	56,907	-0,052	-0,037
-312,183	-200,000	0,041	-0,145
-311,168	-69,197	0,030	-0,008
-310,153	249,012	-0,083	-0,103
-309,139	-200,000	0,005	-0,110
-308,124	-200,000	-0,010	-0,049
-307,110	30,636	0,139	-0,087
-306,095	-112,062	-0,090	0,013
-305,080	-200,000	-0,009	-0,033
-304,066	800,000	0,011	-0,025
-303,051	33,856	-0,026	-0,017
-302,037	-200,000	0,010	-0,041
-301,022	-200,000	0,035	0,000
-300,008	-200,000	0,020	-0,066
-298,993	190,553	0,033	0,036
-297,978	357,883	-0,081	-0,119
-296,964	-23,500	-0,016	-0,007
-295,949	-76,336	0,110	-0,028
-294,935	800,000	-0,022	0,061
-293,920	443,039	-0,028	-0,045
-292,905	43,288	0,039	-0,026
-291,891	52,466	0,151	0,105
-290,876	-140,177	0,118	-0,009
-289,862	-200,000	0,042	-0,159
-288,847	-200,000	-0,001	-0,056
-287,832	54,971	0,047	-0,033
-286,818	60,215	0,050	0,036
-285,803	-200,000	-0,019	0,141
-284,789	-194,775	0,122	-0,001
-283,774	444,847	0,046	0,074
-282,759	109,440	-0,113	-0,099
-281,745	-200,000	-0,023	0,093
-280,730	-200,000	-0,008	0,140
-279,716	-140,727	0,043	-0,003
-278,701	612,119	0,031	-0,056
-277,686	-200,000	0,039	0,194
-276,672	-103,309	0,072	0,012
-275,657	800,000	0,045	0,124
-274,643	-90,977	-0,037	-0,008
-273,628	143,904	-0,085	0,082
-272,613	338,860	0,020	0,029
-271,599	-32,604	0,067	-0,027
-270,584	800,000	-0,016	0,044
-269,570	800,000	-0,027	0,072
-268,555	-200,000	0,004	-0,017
-267,540	44,922	-0,048	-0,033
-266,526	-200,000	-0,027	0,115
-265,511	-142,852	-0,055	-0,004
-264,497	-200,000	0,021	0,170
-263,482	-34,055	0,105	-0,042
-262,467	-200,000	0,012	-0,138
-261,453	27,226	-0,075	-0,046
-260,438	800,000	-0,030	0,083
-259,424	800,000	-0,031	0,071
-258,409	-75,778	-0,050	-0,013
-257,395	-108,618	0,145	0,023
-256,380	-200,000	-0,023	0,181
-255,365	-200,000	-0,030	0,114
-254,351	-200,000	0,022	0,218
-253,336	-155,636	0,020	0,001
-252,322	800,000	0,039	0,089
-251,307	-200,000	-0,008	-0,077
-250,292	-200,000	0,014	-0,126
-249,278	226,131	-0,064	-0,076
-248,263	-200,000	0,020	-0,079
-247,249	250,278	-0,106	0,132
-246,234	595,628	0,024	-0,044
-245,219	228,747	0,050	-0,059
-244,205	-59,864	0,046	0,014
-243,190	-200,000	-0,006	-0,039
-242,176	-70,631	0,153	0,042
-241,161	-94,747	0,082	0,016
-240,146	-72,527	-0,078	-0,021
-239,132	41,262	-0,038	0,025
-238,117	94,843	-0,094	-0,078
-237,103	366,516	-0,041	0,060
-236,088	40,336	-0,066	0,043
-235,073	544,572	-0,017	-0,030
-234,059	118,966	-0,042	0,038
-233,044	800,000	-0,108	0,265
-232,030	101,056	0,124	-0,105
-231,015	223,522	0,105	-0,124
-230,000	800,000	0,026	-0,072
-228,986	14,864	0,040	0,023
-227,971	44,217	0,132	-0,088
-226,957	-200,000	-0,002	0,034
-225,942	-200,000	-0,003	-0,033
-224,927	691,015	-0,031	-0,060
-223,913	-110,168	0,041	-0,006
-222,898	-200,000	0,002	-0,014
-221,884	363,926	0,054	0,080
-220,869	-200,000	0,026	0,102
-219,855	-6,593	0,110	0,054
-218,840	-57,380	0,074	0,023
-217,825	-200,000	0,008	-0,071
-216,811	205,645	-0,055	-0,062
-215,796	544,222	-0,068	-0,119
-214,782	-200,000	0,031	-0,105
-213,767	-5,583	0,106	-0,053
-212,752	514,030	0,046	0,078
-211,738	-200,000	-0,028	-0,097
-210,723	116,681	0,098	-0,088
-209,709	68,742	-0,094	-0,070
-208,694	-137,230	-0,041	-0,003
-207,679	-200,000	-0,009	-0,100
-206,665	-200,000	0,008	0,237
-205,650	-116,286	0,153	-0,020
-204,636	-200,000	0,024	0,151
-203,621	-105,253	0,098	0,016
-202,606	800,000	-0,024	0,051
-201,592	-84,471	-0,150	-0,034
-200,577	-200,000	-0,023	-0,127
-199,563	-200,000	-0,005	-0,070
-198,548	-41,622	-0,056	-0,021
-197,533	51,461	-0,020	-0,014
-196,519	-200,000	0,000	-0,100
-195,504	-179,113	-0,063	-0,001
-194,490	-154,479	-0,071	0,003
-193,475	476,554	0,007	0,012
-192,460	588,528	-0,008	0,014
-191,446	204,184	0,038	0,043
-190,431	86,569	0,091	0,073
-189,417	-59,570	-0,058	0,018
-188,402	-33,465	0,148	0,059
-187,387	295,949	0,069	-0,092
-186,373	223,056	0,062	0,072
-185,358	-200,000	0,006	-0,083
-184,344	-95,163	-0,119	0,023
-183,329	33,484	-0,129	0,081
-182,315	-111,033	-0,170	-0,025
-181,300	800,000	-0,025	-0,062
-180,285	-81,262	-0,105	-0,025
-179,271	-73,511	-0,172	0,045
-178,256	-200,000	-0,001	0,081
-177,242	-124,494	0,141	0,016
-176,227	78,150	-0,032	0,025
-175,212	-200,000	0,032	0,106
-174,198	-35,832	-0,135	0,053
-173,183	82,666	-0,057	-0,045
-172,169	-200,000	0,030	0,138
-171,154	-115,247	-0,173	0,024
-170,139	800,000	0,048	-0,142
-169,125	88,452	0,155	0,125
-168,110	-46,092	-0,132	0,047
-167,096	671,257	-0,030	-0,056
-166,081	93,827	0,052	0,043
-165,066	-95,920	-0,168	-0,032
-164,052	-200,000	-0,018	-0,097
-163,037	95,940	-0,088	0,073
-162,023	359,082	0,057	0,082
-161,008	800,000	-0,014	0,043
-159,993	223,251	-0,141	0,165
-158,979	800,000	-0,004	-0,010
-157,964	-187,207	0,053	0,001
-156,950	67,174	-0,159	0,118
-155,935	324,853	0,013	0,018
-154,920	93,836	-0,090	-0,074
-153,906	19,844	-0,028	0,016
-152,891	-200,000	-0,007	0,110
-151,877	-17,087	0,117	-0,053
-150,862	800,000	-0,034	0,097
-149,847	181,135	0,074	0,080
-148,833	800,000	0,016	-0,033
-147,818	19,738	0,032	-0,019
-146,804	800,000	-0,009	0,019
-145,789	-53,401	0,163	-0,054
-144,775	-200,000	0,031	0,112
-143,760	126,223	-0,060	-0,055
-142,745	154,301	0,112	-0,112
-141,731	800,000	0,026	0,056
-140,716	-200,000	-0,006	0,080
-139,702	800,000	-0,010	0,030
-138,687	-102,217	-0,044	-0,008
-137,672	477,799	-0,057	0,095
-136,658	-22,874	0,040	0,017
-135,643	-170,529	-0,095	0,002
-134,629	149,338	0,059	0,058
-133,614	403,739	0,036	-0,056
-132,599	625,796	-0,035	0,065
-131,585	-161,959	-0,073	-0,003
-130,570	-173,959	-0,100	-0,002
-129,556	-120,358	-0,113	0,014
-128,541	185,906	0,068	0,074
-127,526	180,263	-0,024	0,026
-126,512	800,000	0,036	0,082
-125,497	800,000	-0,055	0,126
-124,483	-129,539	0,117	0,012
-123,468	-138,430	-0,075	0,006
-122,453	292,973	-0,094	0,125
-121,439	-53,980	-0,191	-0,063
-120,424	-200,000	-0,004	-0,130
