DTS Sentinel unit serial number:	SN410029Multiplexer serial number:	ORYXHardware model number:	OX2-SRSoftware version number:	ORYX F/W v4,00 Oryx Data Collector v3.7.2.0data status	okinstallation	B6 Nyhavnadifferential loss correction	single-endedforward channel	channel 2reverse channel	N/Adate	2023/12/08time	04:05:08forward acquisition time	300,00reverse acquisition time	0,00gamma	499,1914k internal	0,3165k external	0,3165temperature offset calibration	1,0000default loss term (dB/km)	0,3820temperature slope calibration	1,0000multiplexer offset coefficient	1,0000multiplexer slope coefficient	1,0000fibre end	0,00T internal ref (°C)	13,06T ext. ref 1 (°C)	-3,82T ext. ref 2 (°C)	-3,81length (m)	temperature (°C)	Stokes	anti-Stokes-744,400	-125,470	-0,053	0,006
-743,385	-123,280	-0,252	-0,029
-742,371	800,000	0,057	0,131
-741,356	215,732	-0,147	-0,172
-740,342	53,161	0,119	0,084
-739,327	-105,682	-0,301	0,050
-738,312	-200,000	0,004	0,016
-737,298	-70,082	-0,326	-0,091
-736,283	-200,000	0,020	0,142
-735,269	-166,680	-0,254	0,008
-734,254	366,293	0,116	0,172
-733,239	-38,047	-0,476	-0,185
-732,225	-138,706	0,261	0,021
-731,210	-133,400	0,081	0,007
-730,196	763,633	0,039	-0,079
-729,181	-200,000	0,032	-0,125
-728,167	-91,259	0,076	-0,016
-727,152	395,580	-0,080	0,124
-726,137	800,000	-0,023	0,048
-725,123	-200,000	0,035	-0,159
-724,108	800,000	-0,027	-0,080
-723,094	-200,000	-0,013	-0,069
-722,079	-200,000	-0,004	0,083
-721,064	33,808	0,032	-0,020
-720,050	212,613	-0,120	-0,140
-719,035	-69,675	-0,093	0,026
-718,021	44,790	-0,090	-0,061
-717,006	215,404	-0,098	-0,115
-715,991	543,598	-0,045	-0,079
-714,977	-49,327	-0,134	0,047
-713,962	800,000	0,043	-0,111
-712,948	351,880	0,100	0,146
-711,933	164,732	0,078	0,081
-710,918	-13,919	0,122	0,058
-709,904	-97,669	0,094	0,018
-708,889	-151,098	-0,071	-0,004
-707,875	-147,224	-0,138	0,009
-706,860	47,587	-0,052	0,036
-705,845	728,361	0,088	0,173
-704,831	800,000	-0,053	0,136
-703,816	-13,079	0,082	-0,039
-702,802	36,519	-0,097	-0,063
-701,787	-60,823	-0,137	-0,042
-700,772	800,000	0,048	-0,104
-699,758	800,000	-0,021	-0,062
-698,743	800,000	0,001	0,003
-697,729	-200,000	-0,018	0,121
-696,714	232,051	0,081	0,097
-695,699	-151,952	-0,113	-0,006
-694,685	-200,000	0,002	0,073
-693,670	-67,637	-0,125	0,036
-692,656	800,000	-0,062	0,134
-691,641	800,000	-0,051	0,155
-690,627	259,389	-0,016	-0,021
-689,612	73,918	-0,046	0,035
-688,597	100,305	-0,034	0,029
-687,583	57,034	-0,121	-0,086
-686,568	-53,639	-0,033	-0,011
-685,554	558,298	0,065	-0,116
-684,539	-200,000	0,026	0,112
-683,524	405,326	-0,072	-0,112
-682,510	-200,000	0,011	-0,095
-681,495	-34,856	-0,031	-0,013
-680,481	-24,612	-0,124	-0,054
-679,466	-39,298	-0,245	-0,094
-678,451	800,000	0,038	-0,084
-677,437	-70,235	0,114	-0,032
-676,422	800,000	0,103	0,222
-675,408	-47,009	-0,116	0,041
-674,393	-170,324	0,039	0,001
-673,378	800,000	-0,008	-0,025
-672,364	-27,979	-0,068	-0,029
-671,349	78,333	-0,044	-0,035
-670,335	163,351	-0,050	0,052
-669,320	272,913	0,121	0,157
-668,305	264,491	0,015	0,019
-667,291	-154,698	0,076	0,004
-666,276	-42,339	-0,241	-0,090
-665,262	238,669	0,068	-0,083
-664,247	-52,860	0,039	-0,013
-663,232	257,506	0,075	0,094
-662,218	800,000	-0,059	0,125
-661,203	50,105	0,070	-0,048
-660,189	480,790	0,035	-0,058
-659,174	-8,541	-0,140	-0,069
-658,159	54,546	-0,076	-0,054
-657,145	-80,585	-0,040	0,010
-656,130	-200,000	0,005	-0,031
-655,116	-0,121	-0,116	0,060
-654,101	-10,755	-0,094	0,046
-653,086	439,552	0,041	0,066
-652,072	304,719	-0,046	0,063
-651,057	-10,775	-0,094	-0,045
-650,043	-200,000	0,021	0,094
-649,028	-85,820	0,059	-0,013
-648,014	780,746	0,078	0,157
-646,999	-161,111	0,055	-0,002
-645,984	-200,000	0,008	0,090
-644,970	43,151	-0,095	0,063
-643,955	-161,090	-0,086	-0,003
-642,941	311,685	-0,110	-0,152
-641,926	10,638	0,041	0,023
-640,911	-103,263	-0,039	-0,007
-639,897	800,000	0,046	-0,097
-638,882	153,247	-0,061	-0,061
-637,868	281,130	-0,075	-0,099
-636,853	127,530	-0,085	0,079
-635,838	110,004	-0,059	-0,052
-634,824	204,766	-0,050	-0,057
-633,809	58,233	-0,063	-0,045
-632,795	228,002	0,039	-0,047
-631,780	-200,000	0,044	-0,200
-630,765	216,485	-0,139	-0,162
-629,751	800,000	0,048	-0,109
-628,736	-200,000	0,040	-0,141
-627,722	-200,000	0,025	-0,123
-626,707	-200,000	0,019	-0,139
-625,692	-200,000	-0,007	0,140
-624,678	87,319	-0,074	0,060
-623,663	362,010	0,055	-0,081
-622,649	-153,239	-0,037	-0,002
-621,634	-12,296	-0,048	-0,023
-620,619	800,000	-0,016	0,033
-619,605	538,103	0,023	-0,041
-618,590	800,000	0,015	-0,038
-617,576	-200,000	0,010	0,052
-616,561	-200,000	-0,017	-0,131
-615,546	582,233	-0,054	-0,097
-614,532	250,583	0,026	-0,032
-613,517	253,522	-0,063	-0,078
-612,503	800,000	0,023	0,063
-611,488	44,157	0,074	-0,050
-610,474	-61,122	0,141	0,043
-609,459	-200,000	0,012	-0,094
-608,444	-151,506	-0,150	-0,008
-607,430	306,280	0,045	-0,061
-606,415	-86,377	0,052	0,012
-605,401	-99,279	-0,168	0,031
-604,386	-62,551	0,020	-0,006
-603,371	-200,000	-0,016	0,140
-602,357	61,131	-0,028	-0,020
-601,342	718,207	-0,047	-0,092
-600,328	-200,000	-0,016	-0,058
-599,313	228,937	-0,060	-0,071
-598,298	-200,000	0,010	0,187
-597,284	103,032	0,024	0,021
-596,269	62,002	0,010	-0,007
-595,255	-200,000	0,020	0,101
-594,240	-67,645	-0,122	0,035
-593,225	164,238	-0,034	0,035
-592,211	15,616	-0,125	-0,072
-591,196	-21,463	0,063	0,028
-590,182	210,819	0,109	0,125
-589,167	327,803	-0,063	-0,089
-588,152	-200,000	0,019	0,174
-587,138	204,496	-0,070	-0,079
-586,123	552,188	0,031	-0,055
-585,109	-141,266	-0,037	-0,003
-584,094	-33,555	0,079	0,032
-583,079	32,123	-0,070	0,044
-582,065	-37,340	-0,021	0,008
-581,050	231,362	0,030	-0,036
-580,036	91,660	-0,069	-0,057
-579,021	-111,474	0,014	-0,002
-578,006	486,599	0,034	-0,057
-576,992	398,241	-0,053	-0,082
-575,977	123,597	0,079	0,072
-574,963	-29,782	0,115	-0,048
-573,948	-200,000	0,006	0,032
-572,934	-200,000	0,006	-0,083
-571,919	80,394	-0,003	0,002
-570,904	-200,000	0,020	-0,107
-569,890	-151,011	0,016	0,001
-568,875	158,416	0,093	0,094
-567,861	107,783	0,081	-0,070
-566,846	235,332	0,050	0,061
-565,831	-200,000	-0,011	0,163
-564,817	-133,111	0,039	0,004
-563,802	439,965	-0,091	0,146
-562,788	64,497	-0,087	-0,064
-561,773	-200,000	-0,003	-0,069
-560,758	217,149	-0,063	0,074
-559,744	-200,000	0,035	0,115
-558,729	550,494	0,054	0,095
-557,715	173,453	0,125	0,132
-556,700	-65,338	-0,065	-0,019
-555,685	-200,000	0,037	-0,124
-554,671	508,991	-0,079	0,135
-553,656	-121,639	-0,119	0,014
-552,642	705,195	0,006	-0,012
-551,627	-82,543	0,055	0,013
-550,612	129,792	0,068	-0,064
-549,598	-122,884	0,124	-0,014
-548,583	-65,926	-0,087	-0,025
-547,569	-77,634	0,111	0,028
-546,554	97,244	0,085	-0,071
-545,539	-84,941	-0,051	0,012
-544,525	-200,000	-0,034	-0,188
-543,510	-200,000	0,007	-0,047
-542,496	123,785	-0,059	-0,054
-541,481	-200,000	-0,004	-0,129
-540,466	800,000	0,052	0,135
-539,452	800,000	-0,059	0,125
-538,437	39,500	0,008	-0,005
-537,423	-41,662	-0,092	-0,034
-536,408	-64,355	0,159	0,047
-535,393	-200,000	-0,007	0,075
-534,379	-88,059	-0,035	0,008
-533,364	-200,000	-0,003	0,084
-532,350	-94,519	0,054	0,011
-531,335	307,129	0,072	-0,098
-530,321	-200,000	-0,009	0,201
-529,306	98,182	-0,080	-0,067
-528,291	-200,000	0,024	-0,135
-527,277	34,383	-0,106	-0,067
-526,262	140,641	0,035	-0,034
-525,248	-61,329	0,008	-0,002
-524,233	225,884	0,059	-0,070
-523,218	694,996	0,038	-0,072
-522,204	198,899	0,121	0,135
-521,189	3,582	0,102	0,054
-520,175	220,521	-0,104	-0,122
-519,160	-51,703	0,140	0,047
-518,145	-149,300	0,032	-0,002
-517,131	-38,986	-0,055	0,021
-516,116	-52,988	-0,099	0,033
-515,102	9,751	0,076	-0,042
-514,087	-9,455	-0,064	0,031
-513,072	90,774	-0,067	0,055
-512,058	299,240	-0,065	-0,088
-511,043	800,000	-0,025	-0,059
-510,029	-200,000	0,000	0,137
-509,014	-200,000	0,013	-0,095
-507,999	800,000	0,026	0,077
-506,985	-200,000	-0,097	0,000
-505,970	170,843	-0,033	0,035
-504,956	-124,283	0,054	0,006
-503,941	45,717	0,069	-0,046
-502,926	-200,000	0,027	-0,171
-501,912	-121,012	-0,033	-0,004
-500,897	-75,179	0,075	0,019
-499,883	41,961	-0,048	0,031
-498,868	-2,921	-0,045	-0,023
-497,853	100,232	0,020	0,017
-496,839	-123,702	0,183	0,021
-495,824	348,628	-0,041	0,059
-494,810	-200,000	0,014	-0,162
-493,795	-200,000	-0,042	-0,151
-492,781	89,358	-0,068	-0,055
-491,766	204,261	-0,032	-0,036
-490,751	-200,000	-0,047	-0,171
-489,737	-200,000	0,008	-0,054
-488,722	-200,000	-0,001	-0,075
-487,708	360,077	0,045	0,065
-486,693	-200,000	0,003	-0,045
-485,678	285,214	-0,059	-0,077
-484,664	125,351	0,042	-0,038
-483,649	144,953	0,075	-0,073
-482,635	266,298	-0,064	-0,082
-481,620	-200,000	-0,037	0,249
-480,605	-71,847	0,131	-0,035
-479,591	-65,806	0,212	0,061
-478,576	-32,244	-0,100	0,041
-477,562	-142,744	0,076	0,005
-476,547	-200,000	-0,006	0,122
-475,532	-69,153	0,080	0,022
-474,518	-28,367	-0,114	0,048
-473,503	204,299	-0,086	-0,097
-472,489	145,423	0,090	0,088
-471,474	84,211	-0,039	0,031
-470,459	800,000	-0,024	-0,065
-469,445	800,000	0,025	-0,074
-468,430	220,978	-0,061	-0,072
-467,416	1,015	0,043	-0,022
-466,401	-54,742	0,159	-0,052
-465,386	9,706	-0,119	-0,065
-464,372	560,263	-0,038	0,067
-463,357	-105,531	0,025	0,004
-462,343	39,147	-0,076	-0,049
-461,328	-149,087	-0,022	-0,001
-460,313	359,211	-0,090	-0,131
-459,299	-200,000	-0,019	0,072
-458,284	241,404	-0,059	0,072
-457,270	-84,220	-0,038	-0,009
-456,255	-80,121	0,049	-0,012
-455,241	800,000	-0,006	-0,012
-454,226	-94,109	-0,050	0,010
-453,211	99,056	0,023	-0,019
-452,197	-170,869	0,094	-0,002
-451,182	250,138	0,019	-0,024
-450,168	-173,882	-0,081	0,002
-449,153	302,271	-0,025	0,033
-448,138	61,585	0,038	-0,028
-447,124	68,499	0,043	0,032
-446,109	95,557	-0,053	-0,044
-445,095	800,000	0,020	0,043
-444,080	800,000	0,049	0,101
-443,065	-128,816	0,066	0,007
-442,051	-200,000	0,013	0,113
-441,036	236,993	-0,034	0,042
-440,022	499,888	-0,053	-0,089
-439,007	-130,873	-0,128	-0,012
-437,992	137,830	0,050	0,047
-436,978	-200,000	-0,010	0,047
-435,963	-41,019	-0,050	0,019
-434,949	-200,000	-0,004	0,079
-433,934	-78,356	-0,099	-0,024
-432,919	800,000	-0,010	-0,030
-431,905	-30,399	0,089	0,036
-430,890	-200,000	0,025	-0,150
-429,876	131,262	0,141	0,132
-428,861	485,514	-0,034	0,056
-427,846	-200,000	0,030	0,183
-426,832	146,441	-0,120	-0,117
-425,817	-200,000	-0,042	-0,179
-424,803	-65,824	0,031	0,009
-423,788	-200,000	0,024	0,160
-422,773	15,015	-0,021	-0,012
-421,759	-200,000	0,008	0,034
-420,744	800,000	-0,053	0,119
-419,730	347,490	-0,021	-0,030
-418,715	-99,553	0,065	-0,012
-417,701	-200,000	0,023	0,088
-416,686	583,010	0,016	0,028
-415,671	520,748	-0,054	-0,092
-414,657	397,454	0,055	-0,084
-413,642	112,446	-0,026	-0,023
-412,628	449,013	-0,055	0,089
-411,613	108,228	0,074	-0,064
-410,598	-200,000	0,066	0,000
-409,584	800,000	-0,015	0,032
-408,569	39,231	0,040	-0,026
-407,555	-137,940	0,021	-0,002
-406,540	-20,763	0,097	-0,043
-405,525	-200,000	-0,000	-0,091
-404,511	-51,158	-0,176	-0,060
-403,496	-200,000	-0,030	-0,172
-402,482	342,655	-0,027	0,038
-401,467	-37,390	0,032	-0,012
-400,452	48,597	-0,081	0,055
-399,438	92,915	-0,129	-0,106
-398,423	345,544	0,049	0,070
-397,409	-200,000	-0,020	-0,098
-396,394	-31,633	0,057	0,023
-395,379	-180,318	-0,137	0,002
-394,365	800,000	-0,030	0,089
-393,350	800,000	0,028	0,065
-392,336	-123,987	0,090	-0,010
-391,321	-100,949	-0,059	0,010
-390,306	440,147	0,006	-0,010
-389,292	87,502	-0,070	0,056
-388,277	144,170	0,075	-0,073
-387,263	-158,564	-0,044	0,002
-386,248	88,843	0,076	-0,062
-385,233	-200,000	0,001	0,045
-384,219	-38,527	0,055	0,021
-383,204	123,202	-0,033	0,030
-382,190	31,299	-0,108	0,067
-381,175	800,000	0,045	-0,103
-380,160	-105,257	0,095	0,016
-379,146	340,030	0,088	0,125
-378,131	-200,000	-0,003	0,109
-377,117	800,000	0,050	0,113
-376,102	-60,518	-0,039	-0,012
-375,088	800,000	0,031	-0,069
-374,073	-200,000	0,018	0,080
-373,058	-156,418	0,083	-0,004
-372,044	-132,873	0,061	0,006
-371,029	711,573	0,018	-0,034
-370,015	290,598	0,062	0,081
-369,000	800,000	0,044	-0,125
-367,985	20,777	-0,068	0,040
-366,971	-19,009	-0,065	0,029
-365,956	66,142	0,080	-0,059
-364,942	800,000	0,080	-0,198
-363,927	-200,000	-0,014	0,048
-362,912	800,000	0,018	0,058
-361,898	23,492	-0,065	-0,038
-360,883	-200,000	0,005	0,054
-359,869	-140,730	-0,174	-0,013
-358,854	-89,598	0,073	-0,015
-357,839	30,323	0,077	0,048
-356,825	320,751	0,059	-0,082
-355,810	-200,000	-0,003	-0,071
-354,796	-13,112	0,075	0,035
-353,781	-200,000	0,001	0,081
-352,766	-183,740	-0,070	0,001
-351,752	-198,584	0,049	-0,000
-350,737	615,710	0,015	-0,028
-349,723	-19,979	0,051	-0,023
-348,708	202,672	-0,056	-0,062
-347,693	-200,000	-0,001	-0,132
-346,679	-89,112	-0,107	-0,023
-345,664	-12,009	0,070	-0,033
-344,650	-107,983	-0,150	0,023
-343,635	-200,000	0,017	0,177
-342,620	-200,000	-0,018	-0,069
-341,606	-200,000	0,001	-0,042
-340,591	-123,455	0,019	-0,002
-339,577	-128,306	0,089	-0,009
-338,562	522,908	0,072	-0,123
-337,548	-200,000	-0,001	0,073
-336,533	800,000	0,021	0,064
-335,518	395,777	0,039	0,060
-334,504	-15,381	0,069	0,032
-333,489	66,948	0,046	-0,034
-332,475	-188,581	0,139	-0,001
-331,460	204,173	0,041	-0,046
-330,445	152,923	-0,063	0,062
-329,431	225,318	-0,106	-0,124
-328,416	57,030	0,058	0,041
-327,402	217,964	0,087	0,100
-326,387	103,840	-0,029	0,024
-325,372	211,823	0,034	-0,038
-324,358	-200,000	-0,002	0,013
-323,343	715,541	0,067	0,128
-322,329	2,689	-0,040	0,021
-321,314	-94,068	0,123	-0,024
-320,299	-200,000	0,001	0,183
-319,285	-200,000	-0,030	0,112
-318,270	176,607	0,045	0,048
-317,256	-105,017	-0,065	-0,011
-316,241	387,195	0,043	0,064
-315,226	-200,000	0,035	-0,112
-314,212	-200,000	-0,025	0,092
-313,197	568,503	0,030	-0,052
-312,183	761,168	0,003	-0,007
-311,168	-200,000	-0,018	-0,111
-310,153	-200,000	-0,002	-0,085
-309,139	-139,938	0,135	-0,010
-308,124	20,216	-0,041	-0,024
-307,110	379,573	0,049	0,073
-306,095	-200,000	0,001	-0,036
-305,080	-68,982	-0,180	0,050
-304,066	103,926	0,087	0,074
-303,051	-200,000	0,015	-0,101
-302,037	-8,987	0,098	0,047
-301,022	488,688	-0,013	-0,021
-300,008	686,493	0,074	0,140
-298,993	337,864	-0,047	0,066
-297,978	81,073	-0,023	0,018
-296,964	127,485	-0,058	0,053
-295,949	784,171	0,033	-0,066
-294,935	-17,685	0,104	-0,047
-293,920	800,000	0,046	-0,098
-292,905	-65,104	0,102	-0,030
-291,891	-3,995	-0,090	-0,045
-290,876	-65,939	-0,149	-0,043
-289,862	27,613	-0,063	-0,038
-288,847	618,406	-0,065	-0,119
-287,832	384,530	-0,074	-0,110
-286,818	-64,466	-0,066	0,019
-285,803	791,057	0,060	0,120
-284,789	-200,000	-0,015	0,178
-283,774	42,603	0,035	0,023
-282,759	-200,000	0,007	-0,061
-281,745	800,000	0,028	0,062
-280,730	718,394	0,008	-0,016
-279,716	-53,420	0,170	-0,056
-278,701	268,115	0,077	-0,098
-277,686	-200,000	0,033	0,113
-276,672	-61,163	-0,109	-0,033
-275,657	-200,000	0,009	0,072
-274,643	24,633	-0,141	0,084
-273,628	800,000	0,079	-0,181
-272,613	-200,000	0,021	-0,074
-271,599	44,639	0,045	0,030
-270,584	-200,000	-0,026	-0,098
-269,570	-41,290	0,030	0,011
-268,555	94,405	-0,025	-0,020
-267,540	10,905	0,046	0,026
-266,526	733,712	-0,045	0,088
-265,511	318,982	0,054	0,074
-264,497	-183,188	0,085	-0,001
-263,482	508,060	0,118	0,198
-262,467	-52,701	-0,031	-0,010
-261,453	800,000	-0,009	-0,027
-260,438	800,000	-0,075	0,188
-259,424	800,000	-0,039	-0,088
-258,409	800,000	0,004	0,010
-257,395	-138,426	-0,077	-0,006
-256,380	-200,000	-0,002	0,017
-255,365	-200,000	-0,041	-0,166
-254,351	433,731	-0,075	-0,118
-253,336	-115,931	-0,124	0,016
-252,322	382,315	0,020	0,030
-251,307	-200,000	0,007	-0,040
-250,292	-37,829	-0,076	0,029
-249,278	-123,153	0,013	0,001
-248,263	-46,352	0,162	-0,057
-247,249	-200,000	0,000	0,110
-246,234	269,249	-0,042	0,053
-245,219	242,667	-0,067	-0,081
-244,205	-86,141	-0,083	-0,018
-243,190	15,206	0,051	0,029
-242,176	307,472	0,103	0,138
-241,161	55,071	0,039	-0,027
-240,146	246,181	0,074	0,090
-239,132	800,000	0,029	-0,091
-238,117	-200,000	0,059	-0,191
-237,103	304,579	-0,062	-0,084
-236,088	-150,600	0,085	-0,005
-235,073	53,621	0,192	0,133
-234,059	-200,000	-0,022	0,134
-233,044	-200,000	-0,002	-0,028
-232,030	-112,879	-0,068	-0,010
-231,015	-115,774	0,075	-0,010
-230,000	-200,000	-0,014	0,061
-228,986	-64,645	-0,174	-0,051
-227,971	-200,000	-0,016	0,113
-226,957	-139,248	0,095	-0,007
-225,942	581,388	-0,025	-0,045
-224,927	-125,591	-0,084	0,009
-223,913	-200,000	-0,018	0,089
-222,898	-200,000	0,023	-0,144
-221,884	-200,000	-0,004	0,023
-220,869	-200,000	-0,026	0,088
-219,855	-4,110	0,074	0,037
-218,840	-200,000	0,001	-0,024
-217,825	179,702	-0,058	-0,061
-216,811	61,500	-0,024	-0,017
-215,796	800,000	-0,045	-0,142
-214,782	465,250	-0,027	-0,044
-213,767	-200,000	-0,014	0,084
-212,752	-200,000	0,001	0,014
-211,738	800,000	-0,052	-0,122
-210,723	-200,000	0,021	-0,071
-209,709	-25,549	-0,032	0,014
-208,694	-113,919	-0,007	0,001
-207,679	-97,374	0,123	-0,023
-206,665	-190,396	-0,046	-0,000
-205,650	235,150	0,073	0,087
-204,636	246,139	-0,011	0,014
-203,621	-15,063	-0,072	-0,033
-202,606	126,879	0,053	-0,048
-201,592	-7,783	-0,122	-0,059
-200,577	-61,116	-0,137	0,041
-199,563	-65,276	0,100	0,029
-198,548	-84,171	-0,148	0,033
-197,533	48,043	0,090	0,060
-196,519	196,373	0,042	-0,046
-195,504	39,354	-0,050	0,032
-194,490	156,914	-0,042	0,042
-193,475	-1,498	-0,029	-0,015
-192,460	114,727	0,014	-0,013
-191,446	800,000	-0,008	-0,023
-190,431	551,503	0,016	0,028
-189,417	32,531	0,041	0,026
-188,402	-200,000	0,064	0,211
-187,387	-92,266	0,060	0,012
-186,373	220,192	-0,073	0,085
-185,358	-37,285	-0,110	-0,042
-184,344	800,000	-0,017	-0,038
-183,329	-112,018	0,105	-0,015
-182,315	-200,000	-0,003	0,035
-181,300	288,088	-0,048	-0,062
-180,285	-200,000	-0,004	0,070
-179,271	-74,056	-0,070	-0,018
-178,256	800,000	0,016	0,045
-177,242	191,462	-0,088	0,095
-176,227	800,000	-0,083	0,171
-175,212	318,463	0,050	0,069
-174,198	-200,000	-0,037	0,121
-173,183	29,137	0,031	0,019
-172,169	494,826	-0,049	0,082
-171,154	-200,000	-0,006	-0,168
-170,139	800,000	0,041	0,096
-169,125	-76,194	-0,096	0,024
-168,110	-200,000	0,091	0,000
-167,096	-200,000	0,005	0,100
-166,081	-102,217	-0,099	-0,017
-165,066	-123,511	0,138	-0,016
-164,052	-200,000	-0,012	-0,133
-163,037	457,529	0,054	-0,087
-162,023	435,633	0,113	0,177
-161,008	-200,000	-0,005	0,094
-159,993	14,530	-0,206	0,115
-158,979	-8,531	-0,083	0,040
-157,964	-90,284	-0,066	0,014
-156,950	-35,999	-0,058	0,022
-155,935	-96,455	0,016	0,003
-154,920	569,359	0,059	0,104
-153,906	191,641	0,041	-0,044
-152,891	-50,278	-0,089	0,030
-151,877	151,409	-0,053	-0,052
-150,862	-52,741	-0,094	-0,031
-149,847	-34,828	-0,023	0,009
-148,833	53,507	-0,086	0,059
-147,818	-6,048	0,135	0,066
-146,804	396,157	0,016	-0,024
-145,789	-200,000	0,003	0,038
-144,775	2,168	-0,081	-0,042
-143,760	800,000	0,026	-0,077
-142,745	-200,000	0,006	0,044
-141,731	-200,000	0,013	-0,099
-140,716	193,828	0,097	0,106
-139,702	-101,876	-0,070	-0,012
-138,687	-200,000	0,011	0,080
-137,672	741,466	0,061	0,118
-136,658	-99,660	-0,014	-0,003
-135,643	322,693	0,041	-0,056
-134,629	652,210	-0,032	0,059
-133,614	-200,000	0,024	-0,079
-132,599	373,432	0,049	-0,072
-131,585	800,000	-0,041	0,106
-130,570	-200,000	-0,024	-0,114
-129,556	156,228	0,030	-0,029
-128,541	-200,000	-0,020	0,068
-127,526	49,528	0,018	0,012
-126,512	-72,323	0,077	0,020
-125,497	279,795	-0,012	-0,015
-124,483	406,888	0,104	0,158
-123,468	-132,713	-0,070	0,006
-122,453	44,207	0,129	0,085
-121,439	-200,000	-0,008	0,138
-120,424	-111,453	-0,011	-0,002
-119,410	80,622	0,060	0,047
