DTS Sentinel unit serial number:	SN410029Multiplexer serial number:	ORYXHardware model number:	OX2-SRSoftware version number:	ORYX F/W v4,00 Oryx Data Collector v3.7.2.0data status	okinstallation	B6 Nyhavnadifferential loss correction	single-endedforward channel	channel 2reverse channel	N/Adate	2023/12/11time	00:10:08forward acquisition time	300,00reverse acquisition time	0,00gamma	499,1914k internal	0,3122k external	0,3122temperature offset calibration	1,0000default loss term (dB/km)	0,3820temperature slope calibration	1,0000multiplexer offset coefficient	1,0000multiplexer slope coefficient	1,0000fibre end	0,00T internal ref (°C)	22,37T ext. ref 1 (°C)	5,92T ext. ref 2 (°C)	5,94length (m)	temperature (°C)	Stokes	anti-Stokes-744,400	800,000	-0,006	0,013
-743,385	21,132	-0,227	0,137
-742,371	62,230	0,083	-0,061
-741,356	2,097	-0,241	0,129
-740,342	39,082	0,079	-0,052
-739,327	143,865	-0,187	0,186
-738,312	800,000	-0,016	-0,047
-737,298	-24,813	-0,247	0,109
-736,283	800,000	0,050	-0,130
-735,269	-5,466	-0,077	0,039
-734,254	800,000	-0,024	-0,063
-733,239	-64,903	-0,372	-0,111
-732,225	95,066	0,132	-0,112
-731,210	-200,000	-0,029	0,106
-730,196	-157,521	0,047	-0,002
-729,181	-137,056	0,086	-0,007
-728,167	-125,702	-0,038	0,004
-727,152	-179,358	0,107	0,002
-726,137	-200,000	-0,014	-0,142
-725,123	713,450	-0,073	-0,145
-724,108	75,158	-0,136	-0,107
-723,094	800,000	-0,026	-0,074
-722,079	451,430	-0,060	-0,099
-721,064	5,829	0,083	-0,045
-720,050	800,000	-0,020	-0,044
-719,035	-31,513	0,107	-0,045
-718,021	-200,000	-0,010	0,096
-717,006	-200,000	-0,012	0,048
-715,991	-200,000	-0,009	-0,092
-714,977	325,209	0,012	-0,017
-713,962	68,306	-0,083	-0,063
-712,948	-97,334	-0,157	0,030
-711,933	259,845	-0,014	0,018
-710,918	-58,260	-0,097	0,031
-709,904	-22,088	-0,081	0,036
-708,889	55,214	-0,063	-0,045
-707,875	-200,000	0,025	0,101
-706,860	800,000	-0,028	-0,076
-705,845	-104,119	-0,133	-0,023
-704,831	800,000	0,051	0,131
-703,816	800,000	0,028	0,071
-702,802	389,275	0,015	-0,023
-701,787	800,000	-0,062	-0,138
-700,772	-57,234	-0,173	-0,056
-699,758	-200,000	0,013	0,071
-698,743	-10,947	0,092	0,045
-697,729	-61,822	-0,086	-0,027
-696,714	237,774	0,071	0,088
-695,699	-35,237	-0,063	-0,026
-694,685	-191,136	-0,027	0,000
-693,670	82,827	-0,159	-0,128
-692,656	800,000	0,096	0,265
-691,641	311,723	0,042	-0,059
-690,627	800,000	-0,056	-0,142
-689,612	667,654	0,054	-0,104
-688,597	96,599	-0,080	0,068
-687,583	-200,000	0,003	-0,124
-686,568	-200,000	0,024	-0,171
-685,554	-24,603	0,098	-0,043
-684,539	800,000	0,028	0,064
-683,524	800,000	-0,018	0,041
-682,510	-200,000	0,023	-0,080
-681,495	800,000	-0,066	-0,148
-680,481	-53,011	-0,143	-0,049
-679,466	-101,604	-0,120	0,021
-678,451	252,401	-0,141	-0,179
-677,437	-155,876	-0,091	0,004
-676,422	-10,720	0,022	-0,011
-675,408	-38,493	-0,067	0,026
-674,393	-146,253	0,069	-0,004
-673,378	-61,933	-0,087	-0,027
-672,364	-90,034	0,092	-0,020
-671,349	800,000	-0,056	-0,143
-670,335	-200,000	-0,004	-0,070
-669,320	68,229	-0,077	0,058
-668,305	800,000	-0,011	0,030
-667,291	-164,407	0,146	0,005
-666,276	800,000	0,028	-0,061
-665,262	283,447	0,060	-0,080
-664,247	800,000	0,038	0,093
-663,232	64,470	-0,116	0,087
-662,218	51,439	0,020	0,014
-661,203	-200,000	0,007	-0,063
-660,189	449,339	0,025	0,040
-659,174	800,000	-0,086	-0,262
-658,159	467,338	-0,048	-0,080
-657,145	800,000	0,009	0,028
-656,130	66,151	0,137	-0,103
-655,116	-39,260	0,108	-0,042
-654,101	-200,000	0,010	-0,042
-653,086	445,987	-0,020	0,033
-652,072	219,549	-0,018	0,022
-651,057	-126,752	-0,116	0,013
-650,043	224,255	0,074	0,089
-649,028	-200,000	-0,008	-0,140
-648,014	22,240	-0,057	-0,034
-646,999	206,207	0,059	0,068
-645,984	131,498	0,056	-0,053
-644,970	142,301	-0,131	0,129
-643,955	503,767	-0,019	0,033
-642,941	-38,590	-0,038	-0,015
-641,926	631,702	0,051	-0,096
-640,911	-40,799	0,082	0,031
-639,897	-200,000	0,007	-0,063
-638,882	-135,344	0,067	0,006
-637,868	-200,000	-0,004	0,093
-636,853	-81,685	-0,139	0,034
-635,838	800,000	0,023	-0,070
-634,824	432,279	0,029	-0,046
-633,809	117,170	0,065	0,059
-632,795	-18,570	-0,019	0,009
-631,780	-200,000	-0,015	-0,084
-630,765	-60,416	0,057	0,018
-629,751	800,000	0,044	0,107
-628,736	-71,498	-0,023	-0,006
-627,722	557,683	0,049	-0,088
-626,707	-122,706	-0,101	0,012
-625,692	-103,976	0,087	0,015
-624,678	105,618	0,035	0,031
-623,663	800,000	-0,010	-0,030
-622,649	142,758	-0,160	-0,158
-621,634	-200,000	0,022	-0,111
-620,619	-5,138	-0,081	-0,041
-619,605	34,938	0,076	-0,050
-618,590	800,000	0,040	0,103
-617,576	212,342	0,049	0,058
-616,561	-200,000	0,015	-0,064
-615,546	-200,000	-0,004	-0,103
-614,532	83,548	-0,100	-0,080
-613,517	218,346	-0,058	0,068
-612,503	313,178	-0,073	0,102
-611,488	-193,359	0,071	-0,000
-610,474	94,363	-0,093	0,078
-609,459	-143,969	-0,101	-0,007
-608,444	-200,000	-0,002	0,055
-607,430	-200,000	-0,002	-0,080
-606,415	-151,136	-0,047	0,003
-605,401	219,336	-0,012	0,014
-604,386	-144,556	0,032	-0,002
-603,371	-126,432	0,103	-0,011
-602,357	32,748	0,094	-0,060
-601,342	-200,000	0,007	-0,052
-600,328	228,575	-0,043	0,052
-599,313	7,710	-0,076	-0,042
-598,298	-200,000	-0,038	0,164
-597,284	61,643	-0,077	-0,057
-596,269	-156,020	-0,056	0,003
-595,255	-90,714	0,140	0,030
-594,240	556,937	0,038	-0,067
-593,225	-200,000	-0,017	-0,135
-592,211	-17,676	0,087	0,040
-591,196	-26,379	-0,029	0,013
-590,182	43,316	0,099	-0,067
-589,167	44,921	-0,035	-0,024
-588,152	11,081	0,035	-0,020
-587,138	124,728	-0,033	-0,031
-586,123	36,494	-0,090	0,059
-585,109	800,000	-0,016	0,041
-584,094	-10,955	-0,107	-0,052
-583,079	-138,475	-0,114	-0,009
-582,065	283,131	0,024	0,032
-581,050	800,000	-0,024	0,071
-580,036	744,353	-0,062	0,123
-579,021	396,043	-0,070	0,109
-578,006	-200,000	-0,003	0,013
-576,992	-130,008	0,098	0,010
-575,977	-123,125	-0,075	0,009
-574,963	-42,704	0,082	-0,031
-573,948	40,434	-0,081	0,054
-572,934	287,271	0,072	0,096
-571,919	322,649	-0,055	-0,077
-570,904	-114,902	-0,072	0,010
-569,890	-200,000	-0,005	0,027
-568,875	800,000	0,042	-0,121
-567,861	-97,994	0,109	0,021
-566,846	170,680	0,007	-0,007
-565,831	-3,147	-0,068	0,035
-564,817	327,583	-0,163	-0,232
-563,802	-89,600	0,129	-0,028
-562,788	647,528	0,022	-0,043
-561,773	59,995	-0,036	0,026
-560,758	57,153	-0,033	0,024
-559,744	765,706	0,023	0,046
-558,729	-49,549	-0,044	0,015
-557,715	88,718	0,040	0,033
-556,700	-41,587	0,038	0,014
-555,685	-200,000	-0,015	-0,119
-554,671	-168,391	-0,191	-0,005
-553,656	800,000	-0,041	0,122
-552,642	209,097	0,057	0,067
-551,627	-117,247	-0,028	-0,004
-550,612	178,094	-0,057	-0,061
-549,598	488,663	-0,034	-0,057
-548,583	-30,257	0,128	-0,053
-547,569	65,269	0,015	0,012
-546,554	-84,668	0,107	0,025
-545,539	215,031	-0,083	0,097
-544,525	89,391	-0,221	0,182
-543,510	-200,000	-0,014	0,075
-542,496	30,778	0,029	-0,019
-541,481	102,785	-0,094	-0,081
-540,466	342,877	-0,131	-0,191
-539,452	-106,146	0,070	0,011
-538,437	-200,000	0,019	0,092
-537,423	800,000	-0,028	-0,068
-536,408	-35,257	-0,097	-0,039
-535,393	10,697	-0,023	-0,013
-534,379	-50,900	-0,079	-0,027
-533,364	-65,820	-0,015	0,004
-532,350	788,411	-0,034	0,069
-531,335	148,842	-0,067	-0,067
-530,321	-141,016	-0,091	-0,007
-529,306	210,355	-0,111	-0,129
-528,291	307,204	-0,041	-0,057
-527,277	-200,000	0,005	-0,106
-526,262	-11,430	-0,082	-0,040
-525,248	-133,803	0,155	-0,014
-524,233	-61,941	0,008	-0,002
-523,218	314,844	-0,091	0,127
-522,204	-200,000	0,007	0,153
-521,189	486,392	-0,012	-0,020
-520,175	-200,000	0,026	0,102
-519,160	-37,780	-0,078	0,030
-518,145	48,262	0,074	-0,051
-517,131	-71,541	0,087	-0,024
-516,116	-137,003	0,039	-0,003
-515,102	-200,000	0,008	0,028
-514,087	50,576	0,145	-0,101
-513,072	2,177	-0,096	0,051
-512,058	61,105	-0,024	-0,018
-511,043	-112,958	0,099	0,014
-510,029	-200,000	0,025	-0,093
-509,014	133,680	0,087	-0,084
-507,999	514,854	-0,023	-0,040
-506,985	58,646	-0,013	-0,010
-505,970	-200,000	0,012	0,091
-504,956	800,000	-0,040	-0,088
-503,941	380,427	0,053	-0,081
-502,926	-200,000	-0,003	-0,075
-501,912	114,902	-0,054	0,049
-500,897	-31,115	0,163	-0,067
-499,883	-15,219	0,146	-0,069
-498,868	-101,831	0,123	0,022
-497,853	-200,000	-0,021	-0,088
-496,839	314,819	0,057	-0,080
-495,824	-173,783	0,090	0,002
-494,810	-94,050	-0,097	0,019
-493,795	321,571	-0,045	-0,063
-492,781	201,302	-0,056	-0,064
-491,766	-12,558	-0,120	-0,058
-490,751	-200,000	-0,012	-0,159
-489,737	800,000	-0,003	-0,009
-488,722	-200,000	0,037	0,212
-487,708	193,423	0,053	0,060
-486,693	-200,000	-0,029	0,139
-485,678	-200,000	0,017	0,101
-484,664	-4,652	0,046	-0,023
-483,649	460,416	-0,139	-0,230
-482,635	-104,886	0,123	-0,021
-481,620	798,397	-0,056	0,115
-480,605	292,251	-0,067	-0,091
-479,591	-168,075	-0,104	-0,003
-478,576	464,985	0,073	0,122
-477,562	60,710	0,020	0,015
-476,547	97,103	-0,117	-0,099
-475,532	-200,000	0,051	-0,216
-474,518	-189,546	0,066	0,001
-473,503	307,291	0,044	-0,060
-472,489	-200,000	0,036	0,173
-471,474	-92,354	0,129	-0,026
-470,459	-65,446	-0,044	0,013
-469,445	800,000	-0,029	-0,074
-468,430	-200,000	0,001	-0,015
-467,416	-93,031	0,137	0,028
-466,401	-92,625	0,009	0,002
-465,386	84,467	0,095	0,076
-464,372	800,000	-0,017	0,036
-463,357	68,030	-0,060	-0,045
-462,343	-200,000	-0,028	-0,096
-461,328	349,550	-0,057	-0,083
-460,313	-62,126	0,089	0,027
-459,299	709,214	0,036	0,071
-458,284	426,064	0,022	0,035
-457,270	-94,630	-0,073	0,014
-456,255	39,338	0,027	-0,018
-455,241	-200,000	0,020	0,119
-454,226	185,642	-0,068	-0,075
-453,211	-59,335	0,093	-0,029
-452,197	-53,379	0,051	-0,017
-451,182	-200,000	-0,002	-0,042
-450,168	-94,977	0,088	0,017
-449,153	-200,000	-0,017	0,109
-448,138	17,643	-0,132	-0,077
-447,124	61,141	0,009	0,007
-446,109	-121,970	0,100	0,012
-445,095	800,000	-0,018	0,044
-444,080	217,676	0,019	0,022
-443,065	43,457	0,024	0,016
-442,051	800,000	-0,045	-0,120
-441,036	-200,000	-0,027	-0,099
-440,022	-49,668	-0,032	0,011
-439,007	800,000	0,030	-0,066
-437,992	-200,000	-0,004	-0,029
-436,978	800,000	-0,022	-0,065
-435,963	-106,896	-0,082	0,013
-434,949	-200,000	-0,016	-0,079
-433,934	325,618	-0,031	-0,043
-432,919	-48,782	0,070	0,024
-431,905	-200,000	0,018	-0,062
-430,890	60,612	0,094	-0,068
-429,876	-86,130	0,072	0,016
-428,861	74,778	-0,088	0,068
-427,846	76,146	0,054	0,042
-426,832	-200,000	-0,001	-0,073
-425,817	450,456	-0,108	-0,176
-424,803	68,864	0,097	-0,073
-423,788	-51,229	-0,076	-0,026
-422,773	423,173	0,008	0,012
-421,759	800,000	-0,028	0,085
-420,744	-133,977	0,084	-0,008
-419,730	800,000	-0,025	0,060
-418,715	52,742	0,058	0,041
-417,701	800,000	-0,011	-0,028
-416,686	800,000	0,033	0,070
-415,671	-200,000	-0,005	0,022
-414,657	-2,186	0,099	0,051
-413,642	-16,139	-0,031	0,014
-412,628	-81,394	0,025	-0,006
-411,613	103,321	0,066	0,057
-410,598	-69,853	-0,066	0,018
-409,584	31,367	-0,173	0,109
-408,569	-200,000	0,024	0,082
-407,555	-200,000	0,007	0,162
-406,540	91,944	-0,020	0,017
-405,525	-200,000	-0,013	-0,057
-404,511	280,299	-0,065	0,085
-403,496	-200,000	-0,010	-0,087
-402,482	-200,000	-0,001	-0,158
-401,467	5,025	0,035	0,019
-400,452	-200,000	-0,024	0,144
-399,438	-99,891	-0,109	0,020
-398,423	-120,499	-0,176	-0,022
-397,409	220,040	0,111	-0,131
-396,394	-200,000	0,009	0,033
-395,379	-200,000	-0,018	-0,099
-394,365	-111,350	0,070	0,010
-393,350	800,000	0,047	0,111
-392,336	-87,183	0,090	0,020
-391,321	-200,000	0,013	0,090
-390,306	-200,000	0,024	-0,135
-389,292	800,000	-0,044	-0,097
-388,277	175,178	-0,043	-0,046
-387,263	-200,000	0,009	0,050
-386,248	46,626	0,107	0,073
-385,233	739,472	0,029	-0,058
-384,219	-200,000	0,002	-0,044
-383,204	125,007	0,081	-0,075
-382,190	-200,000	-0,037	0,124
-381,175	-56,784	0,085	0,027
-380,160	-157,730	-0,017	0,001
-379,146	800,000	0,007	0,018
-378,131	-112,045	-0,080	0,012
-377,117	361,387	0,048	0,070
-376,102	-61,910	-0,140	-0,043
-375,088	434,476	-0,046	-0,074
-374,073	-97,033	0,048	-0,009
-373,058	55,844	0,107	0,076
-372,044	800,000	0,046	0,107
-371,029	25,410	0,087	0,053
-370,015	347,657	0,084	0,123
-369,000	-200,000	-0,007	-0,075
-367,985	266,083	0,071	0,091
-366,971	-49,615	0,081	-0,028
-365,956	-134,519	-0,051	0,005
-364,942	646,934	0,015	-0,028
-363,927	-25,133	0,082	0,036
-362,912	459,447	0,048	-0,079
-361,898	196,871	-0,089	0,100
-360,883	-19,168	0,077	0,035
-359,869	579,580	0,036	0,065
-358,854	-127,797	0,133	0,014
-357,839	0,498	0,078	0,041
-356,825	-200,000	0,002	-0,074
-355,810	-148,942	-0,095	-0,006
-354,796	333,126	-0,055	0,078
-353,781	-200,000	-0,006	0,045
-352,766	150,280	-0,067	0,067
-351,752	-64,130	0,093	-0,028
-350,737	-200,000	-0,015	0,093
-349,723	70,356	0,106	0,080
-348,708	-200,000	0,014	-0,112
-347,693	-85,165	-0,135	0,031
-346,679	-200,000	0,005	-0,050
-345,664	199,931	-0,109	-0,123
-344,650	134,929	0,097	-0,092
-343,635	-1,832	0,022	-0,011
-342,620	-122,747	-0,091	0,011
-341,606	359,132	0,070	-0,103
-340,591	289,624	-0,057	0,076
-339,577	-84,557	0,009	-0,002
-338,562	-68,436	-0,092	-0,026
-337,548	-200,000	-0,069	0,241
-336,533	264,690	0,116	0,148
-335,518	269,717	0,086	0,111
-334,504	189,478	-0,022	0,024
-333,489	-200,000	0,000	-0,084
-332,475	800,000	-0,044	-0,120
-331,460	-93,481	-0,118	-0,024
-330,445	12,039	0,059	0,033
-329,431	-200,000	0,003	0,059
-328,416	-168,104	-0,143	0,004
-327,402	-33,350	-0,071	0,029
-326,387	-85,740	-0,112	-0,025
-325,372	355,086	-0,066	0,097
-324,358	31,329	-0,087	-0,054
-323,343	-97,651	-0,014	0,003
-322,329	-200,000	-0,016	0,050
-321,314	145,772	0,054	-0,053
-320,299	-200,000	0,000	-0,187
-319,285	-77,149	-0,104	-0,026
-318,270	800,000	-0,020	-0,053
-317,256	259,541	-0,008	-0,010
-316,241	800,000	0,036	-0,104
-315,226	-50,666	-0,097	0,033
-314,212	-36,536	0,116	-0,046
-313,197	-118,102	-0,019	0,002
-312,183	-200,000	-0,003	0,042
-311,168	426,563	0,059	0,094
-310,153	-133,496	0,058	-0,005
-309,139	58,366	-0,077	-0,055
-308,124	-67,411	0,056	0,016
-307,110	-200,000	-0,006	0,029
-306,095	677,467	-0,036	-0,069
-305,080	-200,000	0,009	-0,128
-304,066	-54,439	0,104	0,034
-303,051	-200,000	-0,026	-0,147
-302,037	-175,249	0,022	0,000
-301,022	-100,504	-0,130	0,023
-300,008	800,000	0,061	0,194
-298,993	90,552	0,054	-0,044
-297,978	216,705	0,061	0,071
-296,964	-63,065	-0,141	-0,042
-295,949	-85,365	-0,098	0,022
-294,935	151,076	-0,100	-0,099
-293,920	125,639	0,064	-0,059
-292,905	-71,692	0,096	-0,026
-291,891	-82,136	-0,128	0,030
-290,876	42,273	0,051	0,034
-289,862	380,362	-0,037	-0,056
-288,847	-134,392	-0,047	0,004
-287,832	193,449	-0,056	0,062
-286,818	-200,000	-0,025	0,114
-285,803	46,672	0,061	0,041
-284,789	236,860	0,068	0,082
-283,774	-200,000	0,007	-0,094
-282,759	-159,220	-0,019	-0,001
-281,745	-113,637	0,159	0,022
-280,730	800,000	-0,022	-0,065
-279,716	-200,000	0,022	-0,077
-278,701	-200,000	-0,025	0,094
-277,686	365,989	0,049	0,072
-276,672	-200,000	0,022	0,121
-275,657	800,000	0,022	0,070
-274,643	800,000	0,034	-0,073
-273,628	162,517	0,011	0,011
-272,613	-43,180	0,076	0,028
-271,599	-131,235	-0,078	-0,007
-270,584	-34,834	0,051	-0,020
-269,570	76,132	-0,024	0,018
-268,555	-97,223	-0,089	-0,017
-267,540	-200,000	0,013	0,097
-266,526	70,914	0,113	-0,085
-265,511	-200,000	-0,006	-0,048
-264,497	800,000	-0,005	-0,015
-263,482	-37,868	0,057	0,022
-262,467	-200,000	0,018	0,236
-261,453	-200,000	-0,007	0,104
-260,438	316,040	0,055	0,076
-259,424	85,663	-0,141	-0,113
-258,409	-200,000	0,008	-0,031
-257,395	-151,148	0,110	0,006
-256,380	-200,000	-0,014	-0,061
-255,365	-13,100	0,040	-0,019
-254,351	-200,000	0,018	0,137
-253,336	-200,000	0,001	0,022
-252,322	-57,367	0,052	-0,017
-251,307	-200,000	0,020	-0,162
-250,292	231,953	-0,064	-0,077
-249,278	-200,000	0,006	0,038
-248,263	82,215	0,068	-0,054
-247,249	800,000	0,041	-0,095
-246,234	238,745	-0,044	-0,053
-245,219	-150,348	-0,086	-0,005
-244,205	46,776	-0,094	-0,064
-243,190	735,422	0,059	-0,117
-242,176	800,000	-0,021	-0,056
-241,161	23,172	0,046	0,027
-240,146	-105,337	0,083	-0,014
-239,132	800,000	0,021	0,066
-238,117	-200,000	-0,003	0,032
-237,103	800,000	-0,013	0,029
-236,088	156,673	-0,109	-0,111
-235,073	-41,900	0,172	-0,064
-234,059	-147,942	-0,112	-0,007
-233,044	122,704	-0,048	-0,044
-232,030	-200,000	-0,019	0,147
-231,015	-120,077	-0,174	-0,021
-230,000	-200,000	0,005	-0,070
-228,986	59,057	-0,082	-0,059
-227,971	800,000	-0,035	-0,078
-226,957	800,000	0,010	-0,026
-225,942	-68,993	-0,037	0,010
-224,927	237,118	0,014	-0,016
-223,913	117,793	0,062	0,056
-222,898	25,631	-0,026	0,016
-221,884	661,174	-0,071	0,135
-220,869	-150,686	0,152	-0,008
-219,855	163,248	0,050	-0,052
-218,840	-200,000	0,003	0,022
-217,825	-200,000	0,025	-0,100
-216,811	51,161	0,049	-0,034
-215,796	-200,000	0,028	0,109
-214,782	800,000	-0,030	0,071
-213,767	-148,730	0,039	-0,002
-212,752	800,000	0,107	0,246
-211,738	226,654	0,027	-0,032
-210,723	-200,000	0,005	0,059
-209,709	61,097	0,066	0,048
-208,694	-51,529	-0,067	0,023
-207,679	-200,000	0,029	-0,110
-206,665	-200,000	0,025	0,094
-205,650	800,000	-0,043	0,102
-204,636	-200,000	-0,005	-0,024
-203,621	-44,667	0,078	0,028
-202,606	-122,025	-0,046	-0,005
-201,592	-130,310	0,080	-0,008
-200,577	71,862	0,045	-0,034
-199,563	45,363	0,087	-0,059
-198,548	-200,000	-0,006	-0,032
-197,533	-200,000	-0,023	0,106
-196,519	-200,000	-0,016	-0,054
-195,504	144,796	-0,103	0,100
-194,490	-91,317	-0,096	-0,020
-193,475	19,021	-0,026	0,015
-192,460	-200,000	0,000	0,035
-191,446	-200,000	-0,013	0,061
-190,431	-40,843	0,107	-0,040
-189,417	800,000	0,026	0,077
-188,402	135,316	0,060	-0,057
-187,387	233,953	0,039	-0,046
-186,373	-146,962	-0,068	0,004
-185,358	-200,000	-0,004	-0,013
-184,344	-38,654	0,080	-0,031
-183,329	-67,175	0,079	0,023
-182,315	-15,529	0,083	-0,038
-181,300	-115,959	0,167	0,022
-180,285	800,000	0,001	-0,002
-179,271	800,000	0,013	0,028
-178,256	30,203	-0,036	-0,022
-177,242	160,957	-0,056	0,057
-176,227	83,233	-0,035	0,028
-175,212	-111,178	-0,091	0,013
-174,198	71,385	-0,087	-0,066
-173,183	197,371	-0,062	-0,069
-172,169	224,898	0,085	0,100
-171,154	-200,000	-0,006	-0,113
-170,139	-18,085	0,023	0,010
-169,125	12,581	0,112	0,063
-168,110	-9,589	0,056	0,027
-167,096	326,294	-0,080	0,112
-166,081	800,000	-0,061	-0,123
-165,066	800,000	0,031	-0,066
-164,052	387,202	-0,086	0,130
-163,037	800,000	-0,017	-0,038
-162,023	-52,041	0,099	0,033
-161,008	800,000	-0,026	0,054
-159,993	800,000	-0,038	0,116
-158,979	-200,000	0,014	0,049
-157,964	-110,517	-0,105	-0,016
-156,950	475,709	-0,051	0,084
-155,935	800,000	-0,009	0,027
-154,920	675,247	0,013	-0,024
-153,906	400,432	0,069	0,106
-152,891	680,766	0,041	0,079
-151,877	98,925	0,105	-0,088
-150,862	-33,912	-0,084	0,033
-149,847	85,170	-0,069	-0,055
-148,833	800,000	0,026	0,075
-147,818	800,000	0,022	-0,054
-146,804	-119,106	-0,053	-0,007
-145,789	-200,000	0,016	-0,089
-144,775	-165,063	-0,047	0,001
-143,760	800,000	-0,005	-0,016
-142,745	299,224	-0,115	0,154
-141,731	-200,000	-0,021	0,091
-140,716	243,809	0,058	0,071
-139,702	-200,000	0,018	0,108
-138,687	-200,000	0,007	-0,098
-137,672	51,091	-0,125	-0,086
-136,658	800,000	-0,042	-0,097
-135,643	130,815	-0,095	-0,089
-134,629	-200,000	0,008	-0,095
-133,614	-139,932	0,084	-0,006
-132,599	-127,396	0,049	0,005
-131,585	-112,845	0,162	0,023
-130,570	800,000	0,065	0,159
-129,556	247,303	0,072	-0,088
-128,541	125,088	0,047	-0,044
-127,526	-101,493	-0,078	0,014
-126,512	800,000	-0,021	0,060
-125,497	-83,422	0,114	-0,026
-124,483	84,752	0,127	0,101
-123,468	-74,481	-0,095	0,025
-122,453	-86,122	-0,120	-0,027
-121,439	368,924	-0,047	-0,069
-120,424	800,000	0,056	-0,145
-119,410	60,457	-0,068	-0,049
