DTS Sentinel unit serial number:	SN410029Multiplexer serial number:	ORYXHardware model number:	OX2-SRSoftware version number:	ORYX F/W v4,00 Oryx Data Collector v3.7.2.0data status	okinstallation	B6 Nyhavnadifferential loss correction	single-endedforward channel	channel 2reverse channel	N/Adate	2023/12/10time	11:20:08forward acquisition time	300,00reverse acquisition time	0,00gamma	499,1914k internal	0,3123k external	0,3123temperature offset calibration	1,0000default loss term (dB/km)	0,3820temperature slope calibration	1,0000multiplexer offset coefficient	1,0000multiplexer slope coefficient	1,0000fibre end	0,00T internal ref (°C)	22,64T ext. ref 1 (°C)	6,54T ext. ref 2 (°C)	6,54length (m)	temperature (°C)	Stokes	anti-Stokes-744,400	104,146	-0,005	-0,005
-743,385	26,691	-0,262	0,163
-742,371	18,001	0,148	0,088
-741,356	-200,000	-0,030	0,183
-740,342	171,539	0,131	-0,140
-739,327	-9,720	-0,095	0,047
-738,312	118,922	0,061	-0,057
-737,298	121,565	-0,212	0,197
-736,283	468,169	0,034	-0,058
-735,269	8,754	-0,193	0,108
-734,254	76,625	0,038	-0,030
-733,239	-20,109	-0,419	-0,192
-732,225	-200,000	0,002	0,065
-731,210	503,274	0,033	-0,058
-730,196	-115,757	-0,063	-0,009
-729,181	-200,000	0,032	-0,112
-728,167	49,509	-0,109	-0,076
-727,152	519,920	0,026	0,046
-726,137	-173,725	-0,035	-0,001
-725,123	-200,000	-0,043	-0,170
-724,108	-200,000	0,044	-0,194
-723,094	-200,000	-0,026	-0,103
-722,079	151,469	-0,149	-0,151
-721,064	74,852	0,078	-0,061
-720,050	800,000	-0,017	0,039
-719,035	-57,800	-0,074	-0,024
-718,021	-104,254	-0,176	-0,030
-717,006	87,798	-0,057	0,047
-715,991	-133,754	-0,105	-0,010
-714,977	800,000	-0,054	-0,120
-713,962	29,740	0,104	-0,066
-712,948	-137,520	-0,114	0,009
-711,933	471,175	-0,045	-0,075
-710,918	-200,000	-0,001	0,068
-709,904	-63,892	-0,249	-0,075
-708,889	221,313	0,050	-0,060
-707,875	39,692	0,167	-0,111
-706,860	-200,000	0,007	-0,046
-705,845	725,767	-0,044	-0,088
-704,831	-200,000	0,013	-0,064
-703,816	241,388	-0,051	0,063
-702,802	-111,066	0,036	-0,005
-701,787	562,753	-0,032	0,059
-700,772	-36,308	-0,022	-0,009
-699,758	4,253	-0,110	0,060
-698,743	-127,805	0,102	0,011
-697,729	-200,000	0,018	0,072
-696,714	329,550	-0,066	0,095
-695,699	-118,060	-0,073	-0,010
-694,685	800,000	-0,030	-0,077
-693,670	-200,000	0,026	-0,101
-692,656	69,753	-0,050	-0,038
-691,641	-200,000	0,032	0,124
-690,627	-84,651	-0,037	-0,009
-689,612	41,489	-0,102	-0,069
-688,597	-53,969	0,041	-0,014
-687,583	-171,285	-0,146	0,004
-686,568	-200,000	-0,011	0,038
-685,554	-128,095	0,109	0,011
-684,539	6,098	0,075	0,041
-683,524	800,000	-0,019	0,050
-682,510	-105,073	0,162	0,027
-681,495	-200,000	-0,007	-0,121
-680,481	800,000	-0,058	-0,138
-679,466	-91,575	-0,094	-0,020
-678,451	800,000	-0,028	0,068
-677,437	-72,207	-0,079	-0,022
-676,422	754,325	-0,068	-0,136
-675,408	63,067	0,084	-0,063
-674,393	152,535	-0,120	-0,122
-673,378	213,675	0,024	-0,029
-672,364	309,032	-0,027	-0,038
-671,349	560,832	0,032	-0,057
-670,335	800,000	-0,030	-0,078
-669,320	530,195	0,093	0,164
-668,305	443,783	-0,020	0,032
-667,291	-110,406	0,110	-0,017
-666,276	-50,908	-0,162	-0,056
-665,262	-25,926	-0,105	-0,046
-664,247	800,000	0,062	-0,158
-663,232	312,631	-0,057	-0,080
-662,218	340,881	-0,023	-0,033
-661,203	-200,000	-0,010	0,165
-660,189	9,524	-0,125	-0,070
-659,174	242,140	-0,074	-0,093
-658,159	365,868	-0,060	0,090
-657,145	-46,024	0,061	-0,022
-656,130	-200,000	-0,028	-0,106
-655,116	-57,604	-0,023	0,008
-654,101	654,577	0,024	-0,046
-653,086	12,392	-0,139	-0,079
-652,072	74,807	0,094	-0,073
-651,057	297,351	-0,062	0,084
-650,043	-200,000	-0,016	-0,106
-649,028	800,000	0,020	-0,051
-648,014	-200,000	0,002	-0,024
-646,999	-4,557	0,078	-0,040
-645,984	454,400	0,081	0,133
-644,970	-63,982	0,039	0,012
-643,955	-200,000	-0,008	-0,092
-642,941	63,156	0,072	-0,054
-641,926	-200,000	-0,004	-0,036
-640,911	-200,000	0,007	-0,027
-639,897	201,796	-0,034	0,039
-638,882	-24,579	-0,018	-0,008
-637,868	-200,000	-0,020	0,108
-636,853	-165,333	-0,071	0,002
-635,838	168,513	0,076	-0,081
-634,824	-200,000	-0,002	-0,033
-633,809	-56,525	-0,093	0,030
-632,795	-200,000	0,027	0,157
-631,780	267,809	0,025	0,033
-630,765	-200,000	0,016	-0,066
-629,751	-111,315	-0,088	-0,013
-628,736	107,946	-0,083	0,074
-627,722	176,587	0,032	-0,034
-626,707	417,688	0,027	-0,042
-625,692	556,843	-0,040	0,072
-624,678	-200,000	-0,002	0,060
-623,663	-123,914	-0,042	0,005
-622,649	-13,670	-0,043	-0,021
-621,634	-164,825	0,042	-0,001
-620,619	-88,237	-0,142	-0,031
-619,605	-83,158	-0,042	0,010
-618,590	-114,597	0,061	0,009
-617,576	800,000	0,018	-0,041
-616,561	800,000	-0,049	-0,130
-615,546	329,250	-0,072	-0,103
-614,532	-200,000	0,016	-0,081
-613,517	-131,837	-0,127	-0,012
-612,503	47,058	-0,072	-0,050
-611,488	257,883	-0,070	0,089
-610,474	270,381	0,050	0,065
-609,459	53,979	-0,122	0,087
-608,444	17,412	-0,141	0,083
-607,430	250,098	-0,078	-0,099
-606,415	749,935	-0,028	-0,056
-605,401	516,423	0,003	-0,005
-604,386	-40,590	0,048	0,018
-603,371	-200,000	-0,007	0,025
-602,357	44,977	-0,021	-0,014
-601,342	-0,559	-0,061	0,032
-600,328	763,029	-0,091	0,185
-599,313	2,531	-0,223	0,119
-598,298	800,000	-0,034	0,089
-597,284	-121,475	-0,079	-0,010
-596,269	383,497	0,056	-0,086
-595,255	278,636	-0,063	-0,083
-594,240	51,769	0,050	0,035
-593,225	-200,000	0,010	0,107
-592,211	38,817	-0,080	0,053
-591,196	-29,965	-0,033	-0,014
-590,182	-135,904	-0,028	0,002
-589,167	669,233	0,078	-0,149
-588,152	151,842	-0,038	0,038
-587,138	-88,905	0,051	-0,011
-586,123	158,168	-0,056	0,058
-585,109	-199,400	0,122	0,000
-584,094	56,395	0,032	-0,023
-583,079	-116,959	-0,064	-0,009
-582,065	-200,000	0,029	-0,123
-581,050	-200,000	-0,006	-0,099
-580,036	-73,544	-0,105	0,028
-579,021	457,895	0,060	-0,100
-578,006	-200,000	0,032	-0,133
-576,992	800,000	-0,039	0,103
-575,977	94,025	-0,031	-0,026
-574,963	800,000	-0,045	0,132
-573,948	-200,000	0,021	0,142
-572,934	-118,989	0,019	-0,002
-571,919	-200,000	-0,014	0,081
-570,904	-28,168	-0,164	-0,070
-569,890	800,000	-0,062	-0,135
-568,875	-72,419	-0,100	0,027
-567,861	800,000	0,068	0,181
-566,846	-200,000	-0,008	0,097
-565,831	23,620	0,010	0,006
-564,817	800,000	-0,026	0,067
-563,802	-69,365	-0,129	0,036
-562,788	-29,964	-0,144	0,060
-561,773	800,000	-0,019	0,044
-560,758	156,329	0,102	0,104
-559,744	-90,794	-0,046	-0,010
-558,729	680,046	-0,038	-0,074
-557,715	-69,583	-0,098	0,028
-556,700	-109,675	-0,233	0,036
-555,685	-200,000	0,017	-0,114
-554,671	-200,000	-0,011	-0,068
-553,656	463,528	0,029	-0,048
-552,642	181,487	-0,091	0,099
-551,627	56,002	-0,137	-0,098
-550,612	414,976	-0,023	0,036
-549,598	458,211	0,104	-0,172
-548,583	-200,000	0,003	-0,048
-547,569	-17,604	-0,079	0,037
-546,554	22,454	0,067	-0,040
-545,539	-20,341	0,131	-0,059
-544,525	276,512	0,122	-0,161
-543,510	-200,000	-0,003	-0,089
-542,496	-200,000	-0,007	-0,043
-541,481	-4,586	-0,028	0,014
-540,466	-200,000	-0,022	-0,158
-539,452	-46,543	-0,124	0,045
-538,437	7,124	0,119	0,065
-537,423	-200,000	-0,002	-0,040
-536,408	-200,000	0,022	-0,137
-535,393	141,489	-0,022	-0,022
-534,379	-24,556	-0,109	0,048
-533,364	528,124	-0,069	-0,120
-532,350	-99,338	0,073	-0,013
-531,335	-37,726	0,090	0,035
-530,321	800,000	-0,035	0,107
-529,306	-78,255	-0,050	0,013
-528,291	621,249	-0,092	0,171
-527,277	107,973	0,059	-0,052
-526,262	53,785	-0,065	-0,046
-525,248	127,678	0,048	-0,045
-524,233	-1,746	0,087	0,045
-523,218	-3,431	0,052	0,026
-522,204	-200,000	-0,009	-0,132
-521,189	800,000	0,046	-0,114
-520,175	-200,000	0,018	0,058
-519,160	-107,009	-0,113	-0,018
-518,145	-200,000	0,002	-0,019
-517,131	584,232	-0,017	-0,032
-516,116	-200,000	0,015	0,196
-515,102	320,090	-0,056	0,078
-514,087	-169,383	-0,103	0,003
-513,072	209,929	-0,044	-0,051
-512,058	800,000	0,039	-0,081
-511,043	41,485	-0,112	0,075
-510,029	800,000	0,048	0,109
-509,014	-200,000	-0,000	-0,072
-507,999	-200,000	0,016	-0,057
-506,985	-200,000	-0,012	0,131
-505,970	800,000	-0,050	-0,132
-504,956	-121,010	0,150	0,018
-503,941	800,000	0,025	0,060
-502,926	-64,523	0,103	-0,031
-501,912	28,154	0,110	0,069
-500,897	-24,148	0,007	-0,003
-499,883	-104,509	0,096	-0,016
-498,868	12,283	-0,054	-0,030
-497,853	-64,064	-0,056	-0,017
-496,839	-81,675	-0,023	0,006
-495,824	-108,067	0,087	0,014
-494,810	194,136	0,011	-0,012
-493,795	-200,000	0,044	0,189
-492,781	800,000	0,042	-0,101
-491,766	800,000	0,033	-0,077
-490,751	-112,607	-0,166	-0,024
-489,737	-200,000	0,019	0,136
-488,722	-163,718	0,044	0,002
-487,708	-200,000	0,007	0,027
-486,693	-200,000	0,020	0,072
-485,678	-87,707	0,091	-0,020
-484,664	-149,235	-0,101	-0,006
-483,649	800,000	0,012	-0,032
-482,635	800,000	0,051	-0,119
-481,620	84,251	0,080	-0,064
-480,605	-200,000	-0,032	0,117
-479,591	-200,000	-0,013	-0,057
-478,576	-200,000	-0,015	0,125
-477,562	176,673	-0,088	0,095
-476,547	800,000	0,029	-0,061
-475,532	-0,567	-0,066	0,035
-474,518	61,274	0,066	0,048
-473,503	-34,049	0,081	-0,033
-472,489	-69,863	0,017	0,005
-471,474	-200,000	0,006	-0,072
-470,459	-196,601	-0,022	0,000
-469,445	-39,362	-0,115	-0,044
-468,430	-200,000	-0,018	-0,193
-467,416	-151,708	0,144	0,008
-466,401	-200,000	-0,024	0,095
-465,386	215,399	-0,119	0,139
-464,372	401,154	0,037	-0,058
-463,357	-200,000	-0,002	-0,153
-462,343	420,366	0,035	0,056
-461,328	-137,535	-0,123	-0,010
-460,313	-91,092	-0,032	0,007
-459,299	800,000	0,037	0,086
-458,284	645,041	0,039	-0,073
-457,270	547,083	0,089	0,158
-456,255	-43,254	0,040	0,015
-455,241	-200,000	0,018	-0,072
-454,226	-50,994	0,041	-0,014
-453,211	184,272	-0,038	0,041
-452,197	-4,497	0,144	-0,073
-451,182	-200,000	-0,022	-0,105
-450,168	14,211	0,089	-0,051
-449,153	708,720	-0,055	-0,107
-448,138	800,000	-0,036	-0,104
-447,124	-120,400	-0,046	0,006
-446,109	25,931	0,079	-0,048
-445,095	-200,000	-0,000	-0,058
-444,080	800,000	-0,052	-0,159
-443,065	425,911	0,061	0,098
-442,051	200,300	0,020	0,023
-441,036	128,120	-0,102	-0,096
-440,022	-200,000	0,018	-0,156
-439,007	-46,708	0,079	-0,028
-437,992	800,000	0,082	0,226
-436,978	332,980	0,029	0,041
-435,963	800,000	-0,020	-0,055
-434,949	84,787	0,029	-0,024
-433,934	53,489	0,024	0,017
-432,919	506,847	-0,057	-0,097
-431,905	-119,246	0,052	-0,007
-430,890	232,915	0,080	-0,098
-429,876	-160,391	0,133	-0,005
-428,861	12,960	0,058	-0,033
-427,846	800,000	0,056	0,160
-426,832	800,000	0,046	-0,105
-425,817	-200,000	0,033	-0,160
-424,803	12,883	0,091	0,052
-423,788	-200,000	0,003	0,099
-422,773	-200,000	-0,013	-0,064
-421,759	28,390	-0,059	0,037
-420,744	-51,024	0,131	-0,045
-419,730	441,757	0,029	0,047
-418,715	152,468	-0,028	0,029
-417,701	311,893	0,034	-0,048
-416,686	70,788	-0,110	-0,084
-415,671	-105,315	0,079	0,013
-414,657	-200,000	0,008	-0,039
-413,642	800,000	-0,036	-0,091
-412,628	-200,000	0,013	-0,110
-411,613	-200,000	-0,008	0,040
-410,598	210,624	-0,084	-0,097
-409,584	41,802	0,118	-0,079
-408,569	386,387	0,051	-0,077
-407,555	225,168	-0,094	0,113
-406,540	-156,276	0,041	0,002
-405,525	157,997	-0,098	0,101
-404,511	-112,833	0,104	-0,015
-403,496	800,000	0,017	0,047
-402,482	-21,198	0,068	-0,031
-401,467	283,330	0,049	-0,065
-400,452	59,187	-0,044	-0,032
-399,438	300,609	0,020	0,027
-398,423	800,000	-0,014	-0,042
-397,409	-95,694	-0,044	0,009
-396,394	-200,000	0,007	0,051
-395,379	-90,759	0,051	-0,011
-394,365	2,899	0,124	-0,066
-393,350	-195,829	0,233	-0,001
-392,336	194,392	-0,104	-0,116
-391,321	-131,851	-0,081	0,008
-390,306	-98,404	-0,107	0,020
-389,292	262,351	0,087	0,112
-388,277	-200,000	0,013	0,095
-387,263	-81,905	0,123	-0,029
-386,248	244,628	0,023	0,029
-385,233	800,000	0,035	-0,086
-384,219	409,424	-0,010	0,015
-383,204	-200,000	-0,007	-0,074
-382,190	89,429	0,057	-0,047
-381,175	-126,013	-0,096	-0,010
-380,160	-200,000	0,031	-0,108
-379,146	66,734	0,051	0,038
-378,131	243,156	0,072	-0,089
-377,117	-0,663	-0,088	-0,046
-376,102	48,395	-0,036	0,025
-375,088	800,000	-0,033	-0,069
-374,073	0,310	0,050	-0,026
-373,058	-200,000	-0,008	-0,028
-372,044	263,366	-0,019	0,024
-371,029	-117,479	-0,071	0,009
-370,015	-200,000	-0,020	-0,164
-369,000	-200,000	0,009	0,040
-367,985	-200,000	-0,001	-0,120
-366,971	-200,000	0,004	0,095
-365,956	143,910	0,057	-0,056
-364,942	356,722	-0,078	0,114
-363,927	14,595	-0,028	-0,016
-362,912	93,251	-0,104	0,086
-361,898	800,000	-0,048	0,109
-360,883	800,000	0,033	0,089
-359,869	-200,000	0,050	0,172
-358,854	54,204	0,115	-0,081
-357,839	-146,411	-0,077	-0,005
-356,825	-124,156	-0,092	-0,010
-355,810	-200,000	0,018	0,066
-354,796	-41,977	-0,054	-0,020
-353,781	800,000	-0,041	-0,097
-352,766	214,270	-0,081	-0,094
-351,752	-49,269	0,110	-0,038
-350,737	169,336	0,086	0,090
-349,723	103,743	-0,070	-0,060
-348,708	-76,322	-0,036	-0,009
-347,693	-147,184	0,033	-0,002
-346,679	-200,000	0,027	-0,100
-345,664	-101,534	-0,153	0,027
-344,650	-18,478	0,022	-0,010
-343,635	-89,960	-0,019	-0,004
-342,620	-110,413	-0,058	-0,009
-341,606	-87,196	0,072	0,016
-340,591	-11,358	-0,125	-0,060
-339,577	800,000	-0,040	-0,082
-338,562	781,040	-0,058	-0,117
-337,548	199,599	0,062	-0,069
-336,533	-33,924	0,078	0,031
-335,518	359,295	-0,018	-0,027
-334,504	62,789	0,125	0,092
-333,489	-154,760	0,076	-0,004
-332,475	-107,718	0,013	0,002
-331,460	-173,579	-0,127	0,003
-330,445	-50,831	0,031	-0,011
-329,431	-152,731	0,183	-0,009
-328,416	91,620	0,081	0,067
-327,402	136,556	0,045	-0,043
-326,387	800,000	0,024	-0,060
-325,372	800,000	-0,024	-0,070
-324,358	-143,507	-0,077	0,005
-323,343	498,029	-0,044	-0,075
-322,329	-74,115	0,123	0,032
-321,314	800,000	-0,045	-0,121
-320,299	5,727	-0,033	0,018
-319,285	86,014	-0,088	0,071
-318,270	9,271	0,051	-0,028
-317,256	602,650	0,027	-0,049
-316,241	292,051	-0,079	-0,106
-315,226	-200,000	0,011	-0,037
-314,212	-26,648	0,150	-0,064
-313,197	800,000	0,037	0,111
-312,183	85,716	0,136	0,110
-311,168	224,475	-0,120	-0,142
-310,153	-16,249	-0,078	0,036
-309,139	800,000	-0,061	-0,140
-308,124	14,992	0,086	-0,049
-307,110	800,000	-0,021	0,060
-306,095	-200,000	0,015	0,172
-305,080	-200,000	-0,012	-0,047
-304,066	460,339	-0,058	-0,096
-303,051	-17,697	0,041	0,019
-302,037	-200,000	0,012	-0,106
-301,022	-200,000	0,013	0,064
-300,008	-200,000	-0,020	0,162
-298,993	-121,929	0,094	0,011
-297,978	248,169	-0,058	0,073
-296,964	-200,000	0,007	0,074
-295,949	107,456	-0,147	-0,128
-294,935	91,840	-0,064	-0,053
-293,920	-200,000	-0,002	0,023
-292,905	-200,000	0,002	-0,078
-291,891	150,872	0,086	0,086
-290,876	-200,000	-0,002	0,143
-289,862	131,804	-0,087	0,082
-288,847	-37,864	-0,037	0,014
-287,832	180,471	0,010	0,011
-286,818	-200,000	-0,005	-0,030
-285,803	725,438	0,035	-0,069
-284,789	800,000	-0,021	-0,060
-283,774	28,692	0,071	-0,044
-282,759	-50,061	-0,014	-0,005
-281,745	672,978	-0,032	0,061
-280,730	187,542	0,044	0,048
-279,716	-200,000	-0,010	0,061
-278,701	-200,000	-0,059	0,239
-277,686	-200,000	-0,003	0,034
-276,672	-200,000	0,001	0,045
-275,657	800,000	-0,033	0,086
-274,643	-41,888	0,061	-0,023
-273,628	800,000	-0,007	-0,016
-272,613	142,393	-0,108	-0,105
-271,599	-47,578	-0,032	0,011
-270,584	-200,000	0,013	0,106
-269,570	-122,928	0,131	-0,015
-268,555	-165,113	-0,181	0,006
-267,540	207,692	-0,076	0,087
-266,526	-105,210	-0,139	0,023
-265,511	16,334	0,053	0,031
-264,497	303,231	0,056	0,076
-263,482	165,516	0,047	0,048
-262,467	-67,075	-0,061	0,017
-261,453	613,297	0,039	0,072
-260,438	-59,608	0,049	-0,015
-259,424	800,000	0,041	0,098
-258,409	-164,954	-0,072	0,002
-257,395	-125,118	-0,045	-0,005
-256,380	800,000	0,045	0,145
-255,365	-200,000	0,033	0,148
-254,351	-148,414	-0,141	0,008
-253,336	-200,000	-0,019	-0,074
-252,322	-105,378	0,008	-0,001
-251,307	-200,000	-0,025	0,094
-250,292	800,000	0,029	0,090
-249,278	-71,068	0,058	-0,016
-248,263	-57,330	0,182	-0,058
-247,249	-137,721	-0,064	-0,005
-246,234	211,172	0,098	0,113
-245,219	49,491	-0,142	0,097
-244,205	697,330	0,014	0,028
-243,190	583,204	-0,075	0,135
-242,176	41,041	0,020	-0,013
-241,161	387,237	0,140	0,212
-240,146	151,855	0,116	0,116
-239,132	-33,457	-0,197	0,079
-238,117	-200,000	0,004	-0,032
-237,103	-200,000	-0,028	-0,095
-236,088	-200,000	-0,002	0,118
-235,073	-155,483	0,063	0,003
-234,059	-159,952	0,061	0,002
-233,044	-78,814	-0,071	-0,017
-232,030	499,692	-0,039	-0,066
-231,015	800,000	0,040	-0,103
-230,000	170,563	-0,018	-0,019
-228,986	-1,785	0,027	-0,014
-227,971	249,352	-0,025	0,031
-226,957	93,305	0,077	0,064
-225,942	60,343	0,011	-0,008
-224,927	-18,282	-0,094	-0,043
-223,913	-95,480	0,015	0,003
-222,898	-73,499	-0,036	0,010
-221,884	800,000	0,039	0,108
-220,869	-200,000	0,040	-0,137
-219,855	-200,000	0,052	0,212
-218,840	-23,569	0,080	-0,035
-217,825	-200,000	-0,026	0,148
-216,811	442,466	-0,084	0,135
-215,796	-62,784	-0,169	-0,051
-214,782	-75,102	0,154	0,040
-213,767	421,808	-0,123	0,194
-212,752	-14,854	-0,127	0,059
-211,738	800,000	0,022	0,048
-210,723	-200,000	0,031	-0,143
-209,709	-50,482	-0,067	0,023
-208,694	-91,194	-0,107	-0,022
-207,679	-11,096	0,106	-0,051
-206,665	67,021	-0,025	-0,019
-205,650	-91,611	-0,096	-0,020
-204,636	107,411	-0,078	0,068
-203,621	-200,000	-0,024	-0,116
-202,606	-87,788	-0,062	-0,013
-201,592	-54,966	0,017	-0,006
-200,577	748,057	0,044	-0,087
-199,563	-27,205	-0,056	-0,024
-198,548	-87,327	0,043	0,009
-197,533	-75,818	0,083	-0,021
-196,519	-200,000	-0,006	0,065
-195,504	65,420	0,050	-0,037
-194,490	-200,000	0,017	0,066
-193,475	-158,628	0,121	0,005
-192,460	-76,427	0,104	0,027
-191,446	266,200	0,078	0,100
-190,431	-108,921	0,033	0,005
-189,417	-200,000	0,022	0,134
-188,402	-17,485	-0,081	-0,037
-187,387	305,548	-0,024	-0,033
-186,373	372,162	0,059	-0,088
-185,358	-200,000	0,002	-0,155
-184,344	105,440	0,060	0,052
-183,329	-9,203	0,122	-0,059
-182,315	800,000	0,035	-0,077
-181,300	800,000	0,047	0,122
-180,285	-200,000	0,012	-0,058
-179,271	592,794	0,021	-0,039
-178,256	37,947	-0,061	-0,040
-177,242	397,653	0,054	0,082
-176,227	-43,309	0,107	0,039
-175,212	-109,521	0,138	-0,021
-174,198	-100,461	0,028	0,005
-173,183	140,700	-0,065	-0,063
-172,169	670,457	0,078	-0,148
-171,154	-24,048	0,011	0,005
-170,139	-200,000	-0,034	-0,136
-169,125	-200,000	-0,002	0,127
-168,110	-200,000	-0,004	0,018
-167,096	71,740	0,024	0,018
-166,081	-123,823	-0,092	-0,010
-165,066	-57,782	0,100	0,032
-164,052	-200,000	-0,003	0,015
-163,037	-10,607	0,075	0,036
-162,023	-6,792	0,113	0,056
-161,008	-200,000	-0,020	0,110
-159,993	-200,000	0,010	0,185
-158,979	67,063	0,104	-0,077
-157,964	48,778	-0,077	-0,052
-156,950	-200,000	-0,006	-0,141
-155,935	47,246	-0,063	0,042
-154,920	-176,847	0,199	0,004
-153,906	800,000	-0,041	-0,121
-152,891	26,472	0,130	0,079
-151,877	-200,000	-0,019	-0,066
-150,862	165,573	-0,089	0,092
-149,847	539,395	-0,044	0,077
-148,833	-39,527	0,062	0,023
-147,818	477,171	0,138	0,228
-146,804	-56,193	-0,053	-0,017
-145,789	11,551	0,097	0,054
-144,775	554,277	-0,018	0,032
-143,760	-200,000	-0,029	-0,104
-142,745	800,000	0,030	0,088
-141,731	800,000	-0,015	0,033
-140,716	237,237	0,038	-0,047
-139,702	-175,265	-0,033	0,001
-138,687	-200,000	0,015	-0,105
-137,672	529,564	0,047	-0,081
-136,658	800,000	0,047	-0,123
-135,643	18,498	-0,100	-0,058
-134,629	800,000	0,016	0,039
-133,614	13,283	-0,178	0,100
-132,599	394,178	-0,047	0,071
-131,585	-19,927	0,053	-0,024
-130,570	69,257	-0,053	0,040
-129,556	-67,932	-0,041	-0,012
-128,541	3,307	0,146	0,077
-127,526	-36,163	-0,080	-0,031
-126,512	-5,108	0,045	-0,022
-125,497	-132,886	0,129	-0,012
-124,483	-200,000	-0,017	0,056
-123,468	800,000	0,015	-0,036
-122,453	295,025	-0,045	-0,060
-121,439	-71,056	-0,072	-0,020
-120,424	800,000	-0,059	-0,119
