DTS Sentinel unit serial number:	SN410029Multiplexer serial number:	ORYXHardware model number:	OX2-SRSoftware version number:	ORYX F/W v4,00 Oryx Data Collector v3.7.2.0data status	okinstallation	B6 Nyhavnadifferential loss correction	single-endedforward channel	channel 2reverse channel	N/Adate	2023/12/10time	12:30:08forward acquisition time	300,00reverse acquisition time	0,00gamma	499,1914k internal	0,3123k external	0,3123temperature offset calibration	1,0000default loss term (dB/km)	0,3820temperature slope calibration	1,0000multiplexer offset coefficient	1,0000multiplexer slope coefficient	1,0000fibre end	0,00T internal ref (°C)	22,79T ext. ref 1 (°C)	6,64T ext. ref 2 (°C)	6,67length (m)	temperature (°C)	Stokes	anti-Stokes-744,400	800,000	0,052	-0,123
-743,385	2,050	-0,175	0,094
-742,371	-200,000	0,028	0,109
-741,356	-6,265	-0,226	0,115
-740,342	-200,000	0,010	0,048
-739,327	-82,760	-0,175	0,042
-738,312	63,823	-0,135	-0,101
-737,298	-184,015	-0,208	-0,003
-736,283	-200,000	0,007	-0,143
-735,269	176,530	-0,189	0,205
-734,254	624,096	0,062	-0,117
-733,239	-65,772	-0,436	-0,129
-732,225	-200,000	0,140	0,000
-731,210	-109,762	-0,093	-0,014
-730,196	548,549	-0,046	0,082
-729,181	59,371	-0,089	0,065
-728,167	800,000	-0,032	0,069
-727,152	-37,809	-0,028	0,011
-726,137	800,000	-0,052	-0,150
-725,123	800,000	0,010	0,032
-724,108	-200,000	-0,002	-0,142
-723,094	-85,007	0,038	0,009
-722,079	800,000	-0,019	-0,049
-721,064	146,945	-0,045	0,045
-720,050	-148,994	-0,068	0,004
-719,035	63,500	0,073	0,054
-718,021	390,424	0,077	0,119
-717,006	-64,660	-0,093	-0,028
-715,991	-97,725	0,078	0,015
-714,977	-200,000	-0,025	-0,201
-713,962	81,518	-0,064	0,051
-712,948	-4,000	0,032	-0,016
-711,933	-51,711	0,053	-0,018
-710,918	62,983	-0,101	-0,075
-709,904	800,000	-0,086	-0,214
-708,889	33,603	0,101	-0,065
-707,875	45,559	-0,022	0,015
-706,860	-46,545	0,075	-0,027
-705,845	17,247	-0,066	0,039
-704,831	-115,490	0,018	0,003
-703,816	-32,910	-0,050	-0,021
-702,802	-200,000	-0,017	-0,074
-701,787	217,308	-0,079	-0,094
-700,772	400,289	-0,019	-0,029
-699,758	61,873	-0,005	-0,003
-698,743	-100,629	-0,066	-0,012
-697,729	612,583	0,042	0,078
-696,714	-136,122	0,144	-0,012
-695,699	469,781	-0,030	-0,051
-694,685	800,000	-0,088	-0,209
-693,670	-200,000	-0,023	-0,105
-692,656	800,000	-0,055	0,126
-691,641	93,703	-0,062	-0,052
-690,627	137,576	-0,038	0,037
-689,612	141,030	0,096	0,094
-688,597	-161,700	0,045	-0,002
-687,583	-84,292	-0,067	-0,016
-686,568	-200,000	0,006	-0,095
-685,554	242,492	0,100	-0,125
-684,539	108,575	-0,044	-0,039
-683,524	148,091	0,028	-0,028
-682,510	28,816	-0,139	-0,088
-681,495	290,061	0,061	-0,083
-680,481	-87,685	-0,047	-0,011
-679,466	-96,801	-0,066	-0,013
-678,451	146,291	-0,105	-0,105
-677,437	503,977	0,028	0,048
-676,422	-3,490	-0,137	0,071
-675,408	32,313	0,066	0,043
-674,393	-200,000	0,022	0,077
-673,378	139,687	-0,058	-0,057
-672,364	154,844	0,005	-0,005
-671,349	71,720	-0,033	-0,025
-670,335	257,969	-0,031	0,040
-669,320	-200,000	-0,021	-0,078
-668,305	-117,979	0,173	0,023
-667,291	800,000	-0,062	-0,153
-666,276	-180,797	-0,129	0,002
-665,262	-200,000	-0,007	0,114
-664,247	-114,591	-0,135	0,019
-663,232	362,859	-0,034	0,051
-662,218	-144,864	0,036	0,002
-661,203	10,559	0,119	-0,067
-660,189	458,859	0,068	0,113
-659,174	800,000	-0,043	-0,089
-658,159	-89,197	-0,159	-0,034
-657,145	-200,000	-0,024	-0,163
-656,130	23,516	0,029	0,018
-655,116	800,000	0,018	-0,051
-654,101	-142,390	0,128	0,009
-653,086	-200,000	0,011	0,131
-652,072	116,020	0,036	-0,032
-651,057	800,000	0,055	-0,121
-650,043	800,000	-0,029	-0,082
-649,028	44,205	-0,055	0,038
-648,014	-27,191	-0,115	0,050
-646,999	-200,000	0,003	0,058
-645,984	17,046	-0,048	-0,028
-644,970	142,500	-0,065	0,064
-643,955	-9,878	-0,034	-0,017
-642,941	-200,000	-0,046	-0,237
-641,926	350,064	-0,105	-0,155
-640,911	507,907	0,078	-0,134
-639,897	-200,000	-0,007	0,039
-638,882	422,191	-0,027	-0,043
-637,868	109,835	-0,044	-0,039
-636,853	-43,761	0,083	0,031
-635,838	-7,251	-0,189	-0,095
-634,824	157,380	-0,054	-0,056
-633,809	-55,144	0,066	0,022
-632,795	31,495	-0,096	0,061
-631,780	-200,000	0,017	0,097
-630,765	300,623	0,097	0,133
-629,751	-32,178	-0,093	-0,039
-628,736	-200,000	0,010	-0,049
-627,722	-200,000	0,020	-0,198
-626,707	-30,725	0,046	-0,019
-625,692	-200,000	0,016	0,216
-624,678	-4,297	-0,120	0,061
-623,663	800,000	0,030	0,076
-622,649	-200,000	-0,000	0,046
-621,634	-74,791	0,047	0,012
-620,619	108,539	-0,046	-0,041
-619,605	195,675	-0,062	0,071
-618,590	276,801	-0,094	0,125
-617,576	-173,417	0,199	-0,004
-616,561	544,375	0,031	-0,056
-615,546	156,232	-0,120	-0,123
-614,532	-55,552	-0,167	0,055
-613,517	319,886	-0,092	-0,130
-612,503	53,342	-0,115	-0,082
-611,488	381,920	0,036	-0,055
-610,474	-98,480	-0,017	0,003
-609,459	-113,162	-0,073	-0,011
-608,444	103,349	-0,064	-0,056
-607,430	-200,000	0,027	-0,105
-606,415	522,035	0,040	0,070
-605,401	-200,000	-0,007	-0,138
-604,386	-200,000	0,005	-0,063
-603,371	129,150	0,040	-0,038
-602,357	-64,371	-0,216	-0,065
-601,342	-200,000	-0,005	0,140
-600,328	-148,397	-0,085	0,005
-599,313	56,289	-0,138	-0,099
-598,298	-139,629	0,126	0,010
-597,284	800,000	0,015	0,048
-596,269	97,461	0,052	-0,044
-595,255	539,028	-0,025	0,045
-594,240	-200,000	-0,032	-0,106
-593,225	-200,000	-0,013	-0,117
-592,211	-133,849	0,146	-0,013
-591,196	-105,256	0,063	0,011
-590,182	149,186	0,060	0,060
-589,167	-58,924	-0,066	-0,021
-588,152	-19,948	0,107	0,049
-587,138	183,634	-0,036	0,039
-586,123	-176,535	-0,121	0,002
-585,109	-2,685	-0,090	0,046
-584,094	-175,916	0,190	0,004
-583,079	523,829	-0,042	0,073
-582,065	450,207	-0,034	0,056
-581,050	129,577	-0,062	-0,058
-580,036	-200,000	0,026	-0,091
-579,021	-200,000	0,026	-0,178
-578,006	-74,922	0,068	-0,018
-576,992	800,000	-0,010	0,022
-575,977	-27,777	-0,114	0,049
-574,963	800,000	-0,060	-0,176
-573,948	800,000	0,028	0,079
-572,934	-138,965	0,065	-0,005
-571,919	35,049	-0,064	-0,042
-570,904	-200,000	-0,009	-0,035
-569,890	-200,000	0,003	0,043
-568,875	-64,220	0,136	-0,041
-567,861	-27,606	0,137	0,059
-566,846	92,785	0,091	0,076
-565,831	800,000	0,080	0,179
-564,817	-200,000	0,007	0,184
-563,802	-110,083	-0,126	-0,019
-562,788	180,167	-0,043	-0,047
-561,773	170,981	0,083	-0,089
-560,758	125,035	0,056	0,052
-559,744	75,881	-0,088	-0,068
-558,729	-110,728	0,046	0,007
-557,715	-58,566	-0,159	-0,051
-556,700	162,074	-0,071	0,074
-555,685	37,762	-0,136	0,089
-554,671	-106,019	0,038	-0,006
-553,656	275,954	-0,042	0,056
-552,642	-200,000	0,000	0,144
-551,627	356,366	0,047	-0,070
-550,612	218,156	0,098	-0,116
-549,598	-200,000	-0,009	0,071
-548,583	-76,857	-0,031	0,008
-547,569	237,975	0,054	-0,066
-546,554	-200,000	-0,026	-0,126
-545,539	40,653	-0,054	-0,036
-544,525	800,000	0,026	-0,067
-543,510	-200,000	-0,009	-0,069
-542,496	-42,450	-0,081	-0,030
-541,481	-200,000	0,012	-0,055
-540,466	5,421	0,063	-0,034
-539,452	-200,000	-0,018	0,112
-538,437	222,023	0,094	0,112
-537,423	48,100	-0,028	-0,019
-536,408	800,000	-0,037	-0,102
-535,393	800,000	-0,073	-0,210
-534,379	23,533	-0,069	-0,042
-533,364	-200,000	0,057	-0,282
-532,350	306,952	0,049	-0,068
-531,335	-140,254	0,065	0,005
-530,321	142,984	-0,061	-0,060
-529,306	-46,230	-0,064	0,023
-528,291	800,000	-0,039	0,081
-527,277	9,660	-0,131	-0,073
-526,262	-181,408	-0,150	0,002
-525,248	-200,000	-0,014	-0,045
-524,233	-116,915	-0,034	0,005
-523,218	800,000	0,087	0,188
-522,204	-46,674	-0,055	0,020
-521,189	103,333	-0,018	-0,015
-520,175	-200,000	-0,003	-0,102
-519,160	-84,489	0,119	-0,028
-518,145	121,113	-0,101	-0,093
-517,131	46,527	-0,093	-0,064
-516,116	800,000	0,016	0,041
-515,102	100,766	0,132	0,113
-514,087	-84,646	-0,116	0,027
-513,072	222,288	-0,101	-0,121
-512,058	800,000	-0,040	-0,087
-511,043	-119,635	0,037	0,005
-510,029	-200,000	-0,025	-0,091
-509,014	800,000	0,066	0,139
-507,999	800,000	0,021	0,067
-506,985	-200,000	-0,011	0,147
-505,970	-104,653	-0,055	-0,009
-504,956	512,123	-0,037	-0,063
-503,941	368,166	-0,082	-0,123
-502,926	86,867	-0,034	0,028
-501,912	-200,000	0,002	-0,034
-500,897	-142,895	0,095	0,007
-499,883	-16,474	0,074	-0,035
-498,868	-200,000	0,002	-0,049
-497,853	-69,268	-0,057	-0,016
-496,839	-7,511	-0,070	-0,035
-495,824	800,000	-0,056	-0,175
-494,810	39,989	-0,028	-0,019
-493,795	289,751	0,051	0,069
-492,781	202,035	0,037	-0,042
-491,766	-123,218	-0,132	0,015
-490,751	248,197	-0,040	-0,050
-489,737	31,342	-0,101	0,064
-488,722	800,000	0,054	-0,115
-487,708	-62,888	0,048	-0,015
-486,693	-200,000	0,027	0,119
-485,678	-9,440	0,132	-0,065
-484,664	-200,000	-0,024	-0,099
-483,649	-200,000	-0,003	0,036
-482,635	-78,568	-0,204	0,051
-481,620	327,852	0,054	0,077
-480,605	-16,886	0,170	0,079
-479,591	342,332	-0,054	0,077
-478,576	-200,000	0,003	0,119
-477,562	315,544	0,019	-0,026
-476,547	146,858	-0,055	-0,055
-475,532	-200,000	0,022	-0,194
-474,518	800,000	0,031	0,100
-473,503	600,954	0,016	-0,030
-472,489	81,077	0,074	0,059
-471,474	679,573	0,011	0,020
-470,459	31,853	0,016	0,010
-469,445	-200,000	0,002	0,100
-468,430	-92,602	0,096	0,020
-467,416	800,000	0,030	0,062
-466,401	0,078	-0,081	0,043
-465,386	116,465	-0,078	0,070
-464,372	536,945	0,077	-0,135
-463,357	800,000	-0,016	0,048
-462,343	402,519	-0,053	0,082
-461,328	800,000	-0,017	0,053
-460,313	-65,349	-0,089	-0,026
-459,299	-6,904	0,148	0,074
-458,284	138,922	-0,144	-0,139
-457,270	68,256	0,085	0,064
-456,255	94,378	-0,097	0,081
-455,241	419,811	0,041	0,066
-454,226	-125,018	-0,083	-0,009
-453,211	70,779	-0,102	-0,078
-452,197	-200,000	0,004	-0,026
-451,182	-23,928	0,100	0,044
-450,168	-200,000	-0,019	0,167
-449,153	113,062	0,095	0,085
-448,138	96,201	0,037	-0,031
-447,124	100,171	0,039	-0,034
-446,109	-200,000	0,000	-0,087
-445,095	257,522	0,046	0,058
-444,080	-200,000	0,009	0,047
-443,065	117,916	0,067	-0,060
-442,051	531,735	-0,084	-0,146
-441,036	-200,000	-0,016	-0,131
-440,022	-21,666	-0,093	-0,042
-439,007	10,027	-0,088	0,049
-437,992	-109,194	0,049	0,008
-436,978	-41,291	0,146	-0,055
-435,963	800,000	-0,058	-0,122
-434,949	757,560	0,023	-0,046
-433,934	15,716	-0,052	-0,030
-432,919	800,000	0,029	-0,072
-431,905	-200,000	0,014	-0,095
-430,890	305,380	-0,100	-0,137
-429,876	-21,901	0,206	0,092
-428,861	380,244	0,027	0,041
-427,846	800,000	-0,030	-0,064
-426,832	-89,014	-0,031	0,007
-425,817	-200,000	0,016	-0,143
-424,803	373,684	-0,081	-0,121
-423,788	-177,700	0,068	0,001
-422,773	-200,000	-0,005	0,030
-421,759	168,708	-0,084	0,088
-420,744	-93,708	-0,143	0,029
-419,730	800,000	-0,032	-0,077
-418,715	-200,000	-0,003	0,055
-417,701	47,695	0,067	0,046
-416,686	-17,378	-0,029	-0,014
-415,671	49,682	-0,163	0,113
-414,657	365,999	-0,031	0,046
-413,642	800,000	-0,058	-0,167
-412,628	209,687	-0,075	-0,086
-411,613	15,437	-0,114	-0,065
-410,598	-63,683	0,082	0,025
-409,584	-200,000	0,000	0,049
-408,569	-200,000	-0,011	-0,060
-407,555	66,924	0,033	-0,025
-406,540	-200,000	0,033	-0,121
-405,525	-200,000	-0,006	-0,074
-404,511	32,501	-0,149	0,094
-403,496	366,321	-0,071	-0,105
-402,482	-200,000	-0,006	-0,057
-401,467	-74,892	-0,042	-0,011
-400,452	51,362	0,139	0,097
-399,438	-159,790	0,076	0,003
-398,423	800,000	0,048	-0,124
-397,409	-200,000	0,020	0,096
-396,394	-72,995	0,116	0,031
-395,379	-182,085	0,136	-0,002
-394,365	157,518	-0,023	0,023
-393,350	-200,000	0,001	0,026
-392,336	724,568	0,052	0,101
-391,321	-200,000	0,009	-0,148
-390,306	-200,000	-0,002	0,154
-389,292	-200,000	-0,016	0,070
-388,277	68,815	-0,084	-0,063
-387,263	-101,957	0,082	-0,014
-386,248	-200,000	0,013	0,134
-385,233	-76,024	0,123	-0,032
-384,219	-176,010	0,043	0,001
-383,204	32,726	0,023	0,014
-382,190	800,000	0,015	-0,033
-381,175	-116,829	-0,082	0,011
-380,160	-33,835	0,096	0,039
-379,146	-200,000	0,062	0,000
-378,131	8,803	-0,023	0,013
-377,117	-46,878	0,081	0,029
-376,102	-200,000	0,000	0,004
-375,088	-51,195	-0,032	0,011
-374,073	-200,000	-0,025	-0,081
-373,058	-12,114	0,070	-0,034
-372,044	-55,150	0,023	-0,008
-371,029	-200,000	-0,005	0,025
-370,015	-200,000	0,005	0,020
-369,000	-121,651	-0,137	0,017
-367,985	143,948	-0,022	0,022
-366,971	-200,000	0,005	0,094
-365,956	108,542	0,052	0,045
-364,942	-200,000	0,038	0,178
-363,927	-97,942	0,152	0,029
-362,912	23,596	-0,091	0,055
-361,898	-147,274	0,071	-0,004
-360,883	-200,000	-0,004	0,101
-359,869	54,859	0,052	-0,037
-358,854	52,900	-0,016	-0,011
-357,839	-200,000	-0,037	0,160
-356,825	-200,000	0,002	-0,098
-355,810	-200,000	0,023	0,170
-354,796	263,387	0,043	0,055
-353,781	-200,000	0,009	0,052
-352,766	800,000	0,060	0,132
-351,752	51,479	0,111	0,077
-350,737	61,096	-0,030	-0,022
-349,723	-25,046	-0,103	0,044
-348,708	114,278	0,073	-0,065
-347,693	200,650	-0,026	0,029
-346,679	-7,965	-0,095	-0,047
-345,664	-154,353	-0,028	-0,001
-344,650	800,000	0,042	-0,127
-343,635	-67,133	0,115	0,033
-342,620	-31,850	0,167	0,068
-341,606	71,815	-0,023	0,017
-340,591	800,000	-0,037	0,108
-339,577	-122,627	-0,083	0,010
-338,562	324,951	-0,010	0,015
-337,548	-58,016	0,041	-0,013
-336,533	127,215	0,069	0,064
-335,518	-200,000	-0,041	0,236
-334,504	-106,343	0,203	0,033
-333,489	800,000	-0,025	0,056
-332,475	216,147	0,022	0,025
-331,460	213,808	-0,104	0,121
-330,445	52,612	0,138	-0,096
-329,431	800,000	0,015	-0,032
-328,416	-200,000	0,012	0,106
-327,402	-48,346	-0,068	-0,024
-326,387	491,446	-0,080	0,134
-325,372	363,866	-0,065	-0,096
-324,358	-121,974	-0,022	-0,003
-323,343	747,575	-0,015	-0,029
-322,329	-200,000	-0,007	0,047
-321,314	55,927	-0,025	-0,018
-320,299	-200,000	0,008	0,051
-319,285	-200,000	0,001	-0,029
-318,270	-27,519	-0,072	-0,030
-317,256	-112,057	0,034	0,005
-316,241	800,000	0,027	-0,059
-315,226	-51,684	0,044	-0,015
-314,212	171,894	0,053	0,056
-313,197	-200,000	0,007	-0,033
-312,183	202,006	0,034	-0,038
-311,168	-139,364	-0,047	-0,004
-310,153	800,000	0,011	0,030
-309,139	800,000	-0,033	-0,100
-308,124	43,366	0,043	-0,029
-307,110	-25,152	0,187	0,081
-306,095	433,645	-0,040	0,063
-305,080	-95,258	0,050	0,010
-304,066	-26,112	0,065	-0,028
-303,051	-106,668	-0,132	0,021
-302,037	800,000	0,034	-0,087
-301,022	-200,000	0,022	0,148
-300,008	-200,000	-0,005	0,030
-298,993	181,634	0,015	0,017
-297,978	-32,619	-0,082	0,033
-296,964	800,000	0,060	0,130
-295,949	800,000	-0,017	-0,054
-294,935	-200,000	0,022	-0,167
-293,920	-65,432	0,042	-0,012
-292,905	-15,526	-0,109	-0,051
-291,891	-200,000	0,004	0,081
-290,876	-200,000	-0,008	0,065
-289,862	-200,000	0,030	0,116
-288,847	-200,000	0,025	-0,118
-287,832	184,486	-0,190	-0,207
-286,818	800,000	-0,050	-0,106
-285,803	63,308	0,077	0,056
-284,789	86,383	0,168	0,136
-283,774	-200,000	0,005	0,086
-282,759	-200,000	-0,016	0,058
-281,745	-101,990	-0,107	-0,019
-280,730	70,941	-0,072	-0,055
-279,716	-97,389	-0,104	-0,020
-278,701	-84,090	0,087	0,020
-277,686	377,249	-0,068	-0,102
-276,672	409,274	0,057	-0,088
-275,657	551,511	-0,038	0,067
-274,643	369,572	0,023	0,034
-273,628	469,748	-0,026	-0,042
-272,613	-200,000	0,013	0,109
-271,599	157,291	-0,042	-0,042
-270,584	-11,796	0,109	-0,052
-269,570	-25,437	-0,041	0,018
-268,555	800,000	0,025	0,069
-267,540	-42,452	-0,082	-0,030
-266,526	-200,000	0,043	-0,153
-265,511	8,933	0,061	0,033
-264,497	-143,697	0,012	-0,001
-263,482	800,000	0,063	0,139
-262,467	800,000	0,047	-0,130
-261,453	-200,000	0,020	-0,108
-260,438	82,398	-0,054	-0,043
-259,424	-184,878	0,039	-0,000
-258,409	306,005	0,068	-0,093
-257,395	49,373	-0,166	0,114
-256,380	-200,000	-0,012	-0,054
-255,365	-200,000	0,025	0,087
-254,351	-139,281	0,072	0,006
-253,336	-200,000	-0,001	-0,022
-252,322	-58,245	0,014	0,004
-251,307	800,000	-0,015	-0,048
-250,292	395,618	0,034	0,052
-249,278	-127,180	0,143	-0,015
-248,263	31,939	-0,072	0,046
-247,249	-107,709	0,185	-0,029
-246,234	-200,000	0,029	0,246
-245,219	-37,626	-0,034	0,013
-244,205	-133,919	-0,127	-0,011
-243,190	-90,890	0,161	0,034
-242,176	-140,998	0,106	-0,008
-241,161	193,837	0,054	0,060
-240,146	129,281	-0,052	0,049
-239,132	800,000	-0,009	0,021
-238,117	-118,342	-0,077	0,010
-237,103	417,421	0,098	-0,153
-236,088	800,000	0,034	0,087
-235,073	286,988	0,040	-0,053
-234,059	143,061	0,065	0,064
-233,044	-198,746	0,135	0,001
-232,030	-19,339	-0,093	-0,042
-231,015	800,000	0,013	-0,028
-230,000	28,824	0,047	-0,029
-228,986	-200,000	0,014	-0,057
-227,971	11,921	0,093	0,052
-226,957	-200,000	0,016	0,071
-225,942	800,000	0,036	0,076
-224,927	-200,000	-0,005	-0,074
-223,913	-200,000	-0,001	-0,015
-222,898	28,157	0,065	0,040
-221,884	-70,633	-0,077	-0,021
-220,869	207,502	0,032	0,036
-219,855	343,219	0,043	0,061
-218,840	-136,828	-0,085	0,007
-217,825	-130,851	0,049	-0,005
-216,811	-89,147	-0,202	-0,043
-215,796	11,098	0,047	-0,026
-214,782	800,000	0,024	0,058
-213,767	800,000	0,040	0,086
-212,752	86,236	0,066	0,053
-211,738	-200,000	-0,025	0,132
-210,723	36,616	-0,049	-0,032
-209,709	481,989	-0,064	-0,107
-208,694	281,655	0,048	-0,063
-207,679	758,771	0,042	0,083
-206,665	-103,270	-0,143	0,024
-205,650	800,000	-0,043	0,104
-204,636	-23,570	-0,032	-0,014
-203,621	168,272	0,057	0,060
-202,606	-200,000	-0,010	0,047
-201,592	-200,000	0,015	-0,154
-200,577	-200,000	-0,000	-0,047
-199,563	265,265	-0,069	-0,088
-198,548	-86,499	-0,081	0,018
-197,533	-200,000	-0,004	0,049
-196,519	453,017	0,028	-0,045
-195,504	-98,521	0,070	0,013
-194,490	165,563	0,073	-0,075
-193,475	22,333	-0,062	-0,037
-192,460	111,381	-0,059	0,052
-191,446	-39,255	-0,120	0,046
-190,431	254,979	0,048	-0,061
-189,417	50,828	0,030	-0,021
-188,402	-200,000	0,009	0,108
-187,387	800,000	-0,029	-0,068
-186,373	100,242	0,083	-0,071
-185,358	-200,000	-0,014	0,096
-184,344	-200,000	0,056	0,226
-183,329	523,060	0,060	-0,102
-182,315	800,000	0,037	0,082
-181,300	800,000	-0,035	0,076
-180,285	72,692	-0,043	-0,033
-179,271	-58,475	0,103	-0,032
-178,256	-187,917	0,071	-0,001
-177,242	-200,000	-0,002	0,009
-176,227	243,518	-0,025	0,031
-175,212	312,471	0,032	0,043
-174,198	-151,185	0,121	-0,006
-173,183	800,000	0,019	-0,039
-172,169	-200,000	0,021	-0,074
-171,154	-3,931	0,053	0,027
-170,139	6,958	0,062	-0,034
-169,125	61,229	-0,049	-0,035
-168,110	153,151	0,056	0,056
-167,096	-160,526	0,018	-0,001
-166,081	-62,713	0,036	-0,011
-165,066	-200,000	-0,014	-0,091
-164,052	800,000	-0,024	-0,076
-163,037	598,379	-0,050	-0,091
-162,023	543,694	-0,057	0,100
-161,008	-54,979	0,039	0,013
-159,993	213,042	0,101	0,117
-158,979	130,798	0,053	-0,049
-157,964	-43,930	-0,107	-0,039
-156,950	694,125	0,027	0,052
-155,935	-200,000	0,016	-0,055
-154,920	-200,000	-0,020	0,096
-153,906	-200,000	0,002	0,081
-152,891	14,553	0,043	-0,024
-151,877	-164,267	-0,036	0,001
-150,862	800,000	-0,028	-0,083
-149,847	800,000	-0,062	-0,127
-148,833	322,380	0,033	-0,046
-147,818	42,159	-0,017	0,012
-146,804	-59,193	0,195	0,061
-145,789	96,900	-0,063	0,053
-144,775	800,000	-0,061	0,155
-143,760	44,841	-0,090	0,060
-142,745	491,281	0,039	0,065
-141,731	501,545	0,037	0,062
-140,716	106,488	0,039	0,034
-139,702	718,361	-0,059	0,114
-138,687	-108,888	0,063	-0,010
-137,672	-58,280	0,016	0,005
-136,658	633,664	-0,083	-0,153
-135,643	-200,000	0,006	0,029
-134,629	-51,799	0,087	-0,029
-133,614	-19,936	-0,049	-0,022
-132,599	-200,000	-0,020	-0,097
-131,585	-32,261	0,072	-0,029
-130,570	457,288	0,010	-0,016
-129,556	554,578	0,053	-0,093
-128,541	-200,000	-0,011	-0,092
-127,526	121,341	0,052	-0,047
-126,512	-55,690	0,093	-0,030
-125,497	707,500	-0,042	-0,081
-124,483	-200,000	-0,004	0,033
-123,468	64,702	-0,018	0,013
-122,453	800,000	0,012	-0,034
-121,439	56,277	-0,153	-0,108
-120,424	800,000	0,049	0,117
-119,410	-95,231	-0,028	-0,006
