DTS Sentinel unit serial number:	SN410029Multiplexer serial number:	ORYXHardware model number:	OX2-SRSoftware version number:	ORYX F/W v4,00 Oryx Data Collector v3.7.2.0data status	okinstallation	B6 Nyhavnadifferential loss correction	single-endedforward channel	channel 2reverse channel	N/Adate	2023/12/09time	08:00:08forward acquisition time	300,00reverse acquisition time	0,00gamma	499,1914k internal	0,3138k external	0,3138temperature offset calibration	1,0000default loss term (dB/km)	0,3820temperature slope calibration	1,0000multiplexer offset coefficient	1,0000multiplexer slope coefficient	1,0000fibre end	0,00T internal ref (°C)	18,51T ext. ref 1 (°C)	1,91T ext. ref 2 (°C)	1,89length (m)	temperature (°C)	Stokes	anti-Stokes-744,400	800,000	-0,047	-0,133
-743,385	-164,628	-0,225	0,007
-742,371	110,769	0,207	0,185
-741,356	312,728	-0,147	0,206
-740,342	-200,000	-0,006	-0,054
-739,327	-44,557	-0,169	0,062
-738,312	283,431	0,038	0,050
-737,298	-123,822	-0,375	-0,043
-736,283	800,000	0,035	-0,072
-735,269	14,152	-0,161	-0,093
-734,254	800,000	0,014	0,041
-733,239	-101,586	-0,458	-0,082
-732,225	-122,160	0,182	-0,022
-731,210	-200,000	0,009	0,066
-730,196	29,468	-0,043	0,027
-729,181	502,964	0,050	0,086
-728,167	-200,000	-0,014	0,064
-727,152	21,249	-0,135	0,081
-726,137	302,021	-0,070	-0,097
-725,123	56,061	0,043	-0,031
-724,108	270,414	0,052	-0,068
-723,094	35,554	-0,140	-0,091
-722,079	-55,470	-0,097	-0,032
-721,064	663,576	-0,049	0,094
-720,050	213,976	-0,067	-0,079
-719,035	-200,000	0,010	0,098
-718,021	-70,227	-0,013	0,004
-717,006	-200,000	-0,022	-0,075
-715,991	24,209	-0,092	0,056
-714,977	369,457	-0,080	0,121
-713,962	2,399	-0,014	-0,008
-712,948	29,795	0,062	0,039
-711,933	135,138	-0,075	-0,073
-710,918	84,194	-0,036	-0,030
-709,904	212,032	0,060	0,071
-708,889	489,194	-0,082	-0,140
-707,875	-200,000	0,001	-0,021
-706,860	-125,804	0,026	0,003
-705,845	97,021	-0,111	0,094
-704,831	78,796	0,085	0,068
-703,816	731,128	-0,082	-0,162
-702,802	800,000	0,048	-0,099
-701,787	-200,000	-0,014	-0,049
-700,772	100,089	-0,117	-0,100
-699,758	-113,044	-0,009	-0,001
-698,743	-34,707	0,122	0,049
-697,729	118,368	-0,046	0,042
-696,714	105,416	-0,093	-0,081
-695,699	800,000	0,009	0,026
-694,685	800,000	0,028	-0,066
-693,670	-146,838	-0,217	0,014
-692,656	549,584	-0,079	0,141
-691,641	800,000	0,027	0,069
-690,627	95,294	-0,062	-0,052
-689,612	210,760	-0,039	0,046
-688,597	-200,000	-0,044	-0,171
-687,583	31,824	-0,111	-0,070
-686,568	107,565	-0,049	-0,043
-685,554	268,566	-0,040	-0,052
-684,539	-66,925	0,155	0,045
-683,524	800,000	0,027	-0,070
-682,510	219,166	-0,052	-0,062
-681,495	-107,522	0,093	0,015
-680,481	264,795	0,066	0,086
-679,466	11,651	-0,159	-0,090
-678,451	-200,000	0,026	-0,170
-677,437	-200,000	0,003	-0,131
-676,422	33,371	0,051	0,033
-675,408	-200,000	0,007	0,052
-674,393	-147,716	0,051	0,003
-673,378	-111,714	0,093	0,014
-672,364	800,000	0,030	-0,065
-671,349	98,666	-0,097	-0,083
-670,335	11,811	-0,069	-0,039
-669,320	269,320	0,040	0,052
-668,305	-200,000	0,002	0,204
-667,291	-200,000	0,025	0,191
-666,276	-200,000	-0,006	-0,108
-665,262	-200,000	-0,004	0,026
-664,247	393,764	0,011	-0,017
-663,232	130,788	0,115	0,109
-662,218	230,468	-0,088	-0,107
-661,203	-70,326	-0,066	-0,018
-660,189	-200,000	-0,002	-0,046
-659,174	800,000	-0,034	-0,103
-658,159	-200,000	0,008	-0,040
-657,145	54,016	0,074	0,052
-656,130	114,769	-0,133	0,120
-655,116	-58,180	-0,114	-0,037
-654,101	63,846	0,156	-0,116
-653,086	-200,000	-0,010	-0,069
-652,072	-63,858	-0,086	-0,026
-651,057	330,604	0,103	-0,147
-650,043	800,000	-0,015	-0,042
-649,028	401,618	0,040	-0,063
-648,014	-41,506	0,056	-0,021
-646,999	-32,237	-0,074	0,030
-645,984	44,787	0,058	0,040
-644,970	232,183	-0,034	0,041
-643,955	115,224	-0,089	-0,080
-642,941	800,000	-0,059	-0,167
-641,926	20,835	-0,094	0,056
-640,911	458,412	0,072	-0,118
-639,897	409,807	-0,050	0,078
-638,882	32,101	0,116	0,074
-637,868	264,045	0,069	-0,089
-636,853	-200,000	-0,004	-0,015
-635,838	-17,712	-0,099	0,046
-634,824	-200,000	-0,022	-0,095
-633,809	-200,000	0,003	0,057
-632,795	800,000	-0,034	0,073
-631,780	-158,508	-0,087	0,004
-630,765	779,473	-0,042	0,085
-629,751	286,196	0,079	-0,106
-628,736	82,553	-0,020	-0,016
-627,722	247,342	0,027	-0,034
-626,707	800,000	0,009	0,028
-625,692	8,723	0,095	0,053
-624,678	117,647	-0,100	-0,091
-623,663	-54,273	0,031	-0,010
-622,649	431,998	-0,045	-0,072
-621,634	-200,000	0,028	0,093
-620,619	-200,000	-0,111	-0,000
-619,605	250,596	-0,002	0,002
-618,590	9,185	0,070	0,039
-617,576	136,814	-0,061	0,059
-616,561	59,850	0,076	0,055
-615,546	-36,486	-0,098	-0,039
-614,532	-200,000	-0,025	-0,127
-613,517	800,000	-0,080	-0,205
-612,503	195,580	0,082	-0,093
-611,488	-10,329	0,120	-0,059
-610,474	80,919	-0,014	-0,011
-609,459	-75,367	0,204	-0,053
-608,444	-65,502	-0,113	0,033
-607,430	-200,000	-0,031	-0,126
-606,415	-200,000	-0,035	-0,118
-605,401	0,763	-0,121	0,064
-604,386	88,290	0,025	0,021
-603,371	-121,213	0,062	-0,008
-602,357	-7,735	-0,112	0,056
-601,342	561,276	0,012	0,022
-600,328	49,947	0,128	-0,089
-599,313	348,170	-0,065	-0,094
-598,298	252,165	-0,071	-0,089
-597,284	216,428	0,046	0,054
-596,269	405,074	0,027	0,042
-595,255	173,400	-0,078	0,083
-594,240	-1,552	-0,175	0,091
-593,225	800,000	-0,044	-0,102
-592,211	562,271	0,084	-0,150
-591,196	-200,000	0,011	-0,037
-590,182	-130,052	0,087	0,009
-589,167	-200,000	-0,011	0,150
-588,152	599,455	-0,036	0,065
-587,138	800,000	-0,036	0,108
-586,123	-200,000	0,004	-0,147
-585,109	-200,000	0,001	0,028
-584,094	-30,496	0,046	0,019
-583,079	800,000	-0,032	0,077
-582,065	7,906	0,081	-0,045
-581,050	-34,851	0,100	0,040
-580,036	-124,617	0,042	-0,005
-579,021	-10,502	-0,084	-0,041
-578,006	55,632	-0,099	-0,071
-576,992	12,585	0,051	-0,029
-575,977	-81,939	0,054	0,013
-574,963	-200,000	0,036	0,180
-573,948	118,393	-0,091	-0,083
-572,934	311,086	0,033	0,046
-571,919	-200,000	0,016	-0,080
-570,904	130,378	0,065	-0,062
-569,890	-60,873	-0,021	0,007
-568,875	-200,000	0,013	0,092
-567,861	136,757	0,074	-0,071
-566,846	-200,000	0,025	-0,117
-565,831	-200,000	0,021	0,082
-564,817	31,490	-0,097	-0,061
-563,802	312,640	-0,059	-0,081
-562,788	436,302	-0,050	-0,080
-561,773	644,535	-0,030	-0,056
-560,758	-200,000	0,018	-0,090
-559,744	260,215	0,022	0,028
-558,729	-165,548	0,085	0,003
-557,715	177,954	0,030	-0,033
-556,700	-126,108	0,041	-0,004
-555,685	234,439	-0,095	-0,115
-554,671	143,893	-0,074	0,073
-553,656	-125,316	0,134	0,015
-552,642	-4,272	0,093	-0,047
-551,627	371,033	-0,041	-0,062
-550,612	769,747	0,061	-0,123
-549,598	70,977	-0,078	0,059
-548,583	-200,000	-0,007	-0,026
-547,569	-200,000	-0,005	-0,121
-546,554	-183,723	-0,074	-0,001
-545,539	-97,429	-0,146	0,028
-544,525	-108,475	0,088	-0,014
-543,510	800,000	-0,067	-0,141
-542,496	-73,358	-0,061	-0,016
-541,481	-32,652	-0,140	-0,057
-540,466	-100,986	-0,096	-0,017
-539,452	743,288	-0,024	0,048
-538,437	87,983	-0,066	-0,054
-537,423	323,057	0,053	0,075
-536,408	-6,425	-0,160	-0,080
-535,393	78,172	0,030	0,023
-534,379	287,496	-0,088	0,118
-533,364	189,832	0,032	-0,035
-532,350	83,956	0,048	-0,039
-531,335	-200,000	0,016	0,097
-530,321	364,395	0,013	-0,020
-529,306	603,399	-0,094	-0,173
-528,291	-200,000	0,031	-0,132
-527,277	58,271	-0,072	-0,052
-526,262	307,058	0,018	0,025
-525,248	-200,000	-0,016	0,124
-524,233	800,000	-0,055	0,129
-523,218	502,243	-0,071	0,122
-522,204	-200,000	0,008	-0,063
-521,189	800,000	-0,075	-0,195
-520,175	-32,278	0,082	0,033
-519,160	-146,410	0,111	-0,007
-518,145	-76,374	0,053	0,014
-517,131	-91,176	-0,031	0,006
-516,116	-34,470	0,066	0,027
-515,102	-101,356	-0,082	0,015
-514,087	-116,425	-0,042	-0,006
-513,072	504,921	-0,053	0,090
-512,058	-200,000	0,016	-0,063
-511,043	-27,389	0,106	0,045
-510,029	-64,696	-0,105	-0,031
-509,014	-69,685	-0,050	0,014
-507,999	220,046	-0,037	0,043
-506,985	110,320	-0,090	-0,079
-505,970	-59,486	0,087	-0,027
-504,956	37,391	0,105	-0,068
-503,941	244,086	0,094	0,116
-502,926	223,293	-0,051	0,060
-501,912	-200,000	0,033	0,156
-500,897	-76,744	-0,106	0,027
-499,883	-101,213	0,099	0,018
-498,868	800,000	-0,005	-0,015
-497,853	-200,000	0,006	-0,088
-496,839	13,805	0,049	0,028
-495,824	-66,792	0,098	-0,028
-494,810	379,641	0,043	-0,065
-493,795	-56,235	-0,092	0,030
-492,781	269,454	-0,020	-0,025
-491,766	2,423	0,050	-0,026
-490,751	45,430	-0,059	-0,040
-489,737	30,697	0,068	0,043
-488,722	724,166	0,023	-0,046
-487,708	-29,592	-0,113	-0,047
-486,693	-200,000	-0,012	0,110
-485,678	606,254	-0,019	-0,035
-484,664	800,000	-0,005	0,013
-483,649	287,954	-0,032	-0,043
-482,635	800,000	-0,054	-0,125
-481,620	517,880	0,064	0,110
-480,605	-40,000	-0,007	-0,003
-479,591	-111,080	0,034	-0,005
-478,576	-118,453	0,116	0,015
-477,562	-97,839	-0,111	0,021
-476,547	800,000	-0,036	-0,110
-475,532	70,399	0,034	0,026
-474,518	22,368	0,042	-0,025
-473,503	108,950	-0,095	0,084
-472,489	27,419	0,083	0,051
-471,474	189,812	-0,072	-0,080
-470,459	800,000	-0,018	-0,053
-469,445	-133,253	-0,046	0,004
-468,430	800,000	0,016	0,042
-467,416	800,000	0,055	0,146
-466,401	-8,564	-0,078	-0,038
-465,386	-100,776	0,067	0,012
-464,372	403,415	0,034	-0,052
-463,357	31,100	-0,067	-0,042
-462,343	-200,000	0,004	0,085
-461,328	800,000	-0,050	-0,124
-460,313	10,953	-0,078	0,044
-459,299	-116,225	0,055	0,007
-458,284	-72,611	0,038	0,010
-457,270	142,723	0,102	0,100
-456,255	180,815	0,099	0,106
-455,241	-17,267	-0,060	-0,028
-454,226	52,952	0,063	0,044
-453,211	36,622	-0,100	-0,065
-452,197	154,242	0,010	0,010
-451,182	800,000	0,036	0,113
-450,168	164,594	0,057	0,059
-449,153	800,000	-0,045	-0,103
-448,138	-97,082	-0,077	0,015
-447,124	456,766	-0,055	-0,090
-446,109	185,229	0,019	0,021
-445,095	83,453	0,103	0,082
-444,080	87,370	0,095	0,077
-443,065	216,632	0,056	0,065
-442,051	154,975	-0,054	-0,055
-441,036	193,830	-0,120	-0,133
-440,022	430,249	0,047	-0,075
-439,007	-200,000	-0,001	-0,018
-437,992	90,165	0,084	0,069
-436,978	-6,573	0,062	0,031
-435,963	374,080	-0,041	-0,062
-434,949	-200,000	0,003	-0,034
-433,934	85,617	-0,069	0,055
-432,919	-85,470	-0,121	0,027
-431,905	-119,712	0,062	0,008
-430,890	-200,000	-0,030	0,145
-429,876	203,826	0,135	0,153
-428,861	23,148	0,057	-0,034
-427,846	-200,000	0,003	-0,038
-426,832	800,000	-0,015	-0,037
-425,817	-19,914	-0,075	-0,034
-424,803	-82,922	-0,084	-0,020
-423,788	800,000	0,063	0,137
-422,773	102,881	0,091	0,078
-421,759	76,588	-0,035	0,027
-420,744	655,028	-0,024	-0,045
-419,730	172,640	-0,050	0,053
-418,715	800,000	0,017	-0,049
-417,701	-142,403	0,158	-0,011
-416,686	309,385	0,054	0,075
-415,671	-109,985	0,145	0,022
-414,657	-34,181	0,172	0,069
-413,642	81,441	0,042	0,033
-412,628	-14,595	0,048	0,023
-411,613	800,000	0,018	-0,044
-410,598	-116,534	-0,094	-0,013
-409,584	-146,390	0,108	0,007
-408,569	-13,688	0,071	0,034
-407,555	261,675	0,110	0,140
-406,540	-200,000	0,002	0,103
-405,525	-200,000	0,013	-0,154
-404,511	-200,000	-0,011	-0,039
-403,496	800,000	-0,028	-0,061
-402,482	-117,854	-0,075	-0,010
-401,467	800,000	-0,023	-0,051
-400,452	-52,228	0,062	-0,021
-399,438	-33,505	-0,105	-0,042
-398,423	-200,000	0,025	0,087
-397,409	-200,000	0,007	0,049
-396,394	742,356	0,041	-0,081
-395,379	-200,000	-0,013	-0,064
-394,365	800,000	-0,016	0,048
-393,350	17,733	0,198	0,115
-392,336	36,304	0,144	0,092
-391,321	800,000	0,054	-0,130
-390,306	-35,415	-0,082	0,032
-389,292	-200,000	0,010	-0,041
-388,277	31,354	0,097	0,061
-387,263	800,000	0,008	0,023
-386,248	-20,930	0,097	0,043
-385,233	800,000	0,056	0,121
-384,219	571,852	-0,012	0,022
-383,204	-75,292	-0,082	-0,021
-382,190	107,746	-0,080	0,070
-381,175	800,000	0,056	-0,119
-380,160	-25,932	-0,130	-0,056
-379,146	800,000	0,018	0,052
-378,131	-99,514	-0,012	0,002
-377,117	-48,220	0,109	0,038
-376,102	-200,000	0,008	-0,050
-375,088	-89,730	-0,080	0,017
-374,073	202,480	0,027	-0,030
-373,058	380,707	0,068	0,102
-372,044	-87,604	0,006	0,001
-371,029	87,108	-0,021	0,017
-370,015	800,000	0,015	-0,042
-369,000	-200,000	-0,001	0,067
-367,985	-33,164	-0,136	-0,055
-366,971	47,305	-0,103	-0,070
-365,956	800,000	0,015	-0,038
-364,942	269,890	-0,021	0,027
-363,927	-132,780	0,097	0,009
-362,912	-85,980	-0,095	-0,021
-361,898	-200,000	0,008	-0,088
-360,883	-95,159	0,113	0,022
-359,869	-200,000	-0,002	-0,015
-358,854	239,604	0,043	-0,052
-357,839	361,758	0,077	0,113
-356,825	109,806	0,049	-0,043
-355,810	800,000	0,040	0,106
-354,796	-95,920	-0,041	-0,008
-353,781	45,213	-0,040	-0,027
-352,766	94,585	-0,036	0,030
-351,752	-77,000	0,088	-0,022
-350,737	800,000	-0,089	0,193
-349,723	-200,000	0,004	0,080
-348,708	800,000	-0,017	0,050
-347,693	800,000	-0,014	-0,032
-346,679	192,503	-0,040	0,045
-345,664	800,000	-0,007	-0,022
-344,650	449,766	-0,003	-0,005
-343,635	-14,435	-0,062	0,029
-342,620	-1,208	-0,026	0,014
-341,606	-52,642	-0,041	0,014
-340,591	30,955	-0,110	0,069
-339,577	-102,140	-0,174	-0,030
-338,562	271,715	-0,015	0,019
-337,548	-72,333	0,062	0,017
-336,533	-200,000	-0,003	0,022
-335,518	584,458	0,015	0,027
-334,504	23,255	-0,151	0,090
-333,489	9,644	-0,038	0,021
-332,475	91,455	-0,094	0,077
-331,460	66,862	0,068	-0,050
-330,445	-200,000	-0,008	0,046
-329,431	-54,453	0,152	0,050
-328,416	219,130	-0,050	0,058
-327,402	173,353	0,108	0,114
-326,387	-200,000	-0,023	0,077
-325,372	464,237	-0,076	-0,125
-324,358	266,778	-0,126	0,161
-323,343	270,454	-0,031	-0,040
-322,329	-16,603	-0,011	0,005
-321,314	800,000	0,011	0,035
-320,299	6,808	0,064	-0,034
-319,285	-40,804	0,039	-0,015
-318,270	800,000	-0,035	0,072
-317,256	-16,673	0,109	0,050
-316,241	131,759	-0,073	-0,069
-315,226	800,000	0,008	0,027
-314,212	-200,000	0,042	0,140
-313,197	63,746	-0,037	0,027
-312,183	132,682	0,044	-0,041
-311,168	-85,905	-0,138	-0,031
-310,153	-173,858	-0,083	0,002
-309,139	800,000	-0,018	-0,038
-308,124	181,611	0,048	-0,052
-307,110	800,000	0,029	-0,074
-306,095	-200,000	0,033	0,146
-305,080	92,200	0,062	0,051
-304,066	8,622	0,095	0,052
-303,051	-67,910	0,121	0,034
-302,037	-148,357	0,008	0,000
-301,022	-141,523	0,060	-0,004
-300,008	800,000	0,029	-0,084
-298,993	695,690	0,053	0,101
-297,978	395,924	-0,072	-0,110
-296,964	-123,128	-0,082	0,009
-295,949	-200,000	-0,021	0,071
-294,935	793,581	0,063	-0,126
-293,920	800,000	-0,032	-0,098
-292,905	-106,776	-0,050	0,008
-291,891	378,610	0,032	0,048
-290,876	98,545	0,064	0,054
-289,862	0,044	-0,034	0,018
-288,847	-200,000	-0,002	0,058
-287,832	800,000	0,031	-0,071
-286,818	-200,000	-0,023	0,140
-285,803	236,281	0,070	0,085
-284,789	124,930	0,138	0,126
-283,774	4,608	0,081	-0,043
-282,759	-50,779	0,091	0,031
-281,745	89,639	-0,101	0,082
-280,730	-0,019	0,011	-0,006
-279,716	8,512	0,111	-0,061
-278,701	716,429	0,050	-0,098
-277,686	-200,000	-0,003	0,062
-276,672	-200,000	-0,007	0,036
-275,657	-89,033	-0,042	0,009
-274,643	-137,108	-0,077	-0,006
-273,628	-151,182	-0,129	0,007
-272,613	164,712	0,031	-0,032
-271,599	-200,000	0,043	0,171
-270,584	-200,000	-0,005	0,119
-269,570	120,066	0,009	0,008
-268,555	105,335	-0,061	-0,053
-267,540	800,000	0,018	-0,055
-266,526	426,162	-0,082	-0,129
-265,511	-154,920	0,057	-0,003
-264,497	-99,275	-0,046	-0,008
-263,482	-90,984	-0,068	0,014
-262,467	-200,000	0,006	0,183
-261,453	-200,000	0,038	0,151
-260,438	143,813	0,033	-0,032
-259,424	800,000	0,041	-0,083
-258,409	800,000	-0,036	0,074
-257,395	61,509	0,073	-0,053
-256,380	340,624	-0,086	-0,123
-255,365	-140,552	0,100	-0,007
-254,351	-56,617	-0,075	0,024
-253,336	800,000	-0,046	-0,147
-252,322	-53,810	-0,062	-0,021
-251,307	-104,750	-0,062	0,010
-250,292	618,630	0,035	-0,064
-249,278	8,537	0,082	0,045
-248,263	-200,000	-0,011	0,165
-247,249	-200,000	-0,002	-0,066
-246,234	40,860	-0,024	-0,016
-245,219	-136,181	0,164	0,014
-244,205	252,433	-0,028	-0,035
-243,190	-200,000	-0,010	-0,065
-242,176	132,444	-0,108	0,102
-241,161	-196,026	0,039	-0,000
-240,146	800,000	-0,040	-0,102
-239,132	800,000	0,056	-0,118
-238,117	-3,230	-0,123	-0,062
-237,103	-200,000	-0,000	-0,042
-236,088	435,681	0,086	-0,136
-235,073	800,000	-0,017	-0,047
-234,059	-58,829	0,134	-0,042
-233,044	250,606	-0,058	0,072
-232,030	-65,448	0,024	-0,007
-231,015	-200,000	-0,024	-0,132
-230,000	800,000	-0,057	-0,176
-228,986	-161,727	-0,051	0,002
-227,971	-136,397	0,203	0,017
-226,957	-200,000	0,003	0,148
-225,942	231,553	-0,108	-0,129
-224,927	306,283	0,053	0,071
-223,913	-200,000	0,011	-0,093
-222,898	800,000	0,017	0,043
-221,884	-200,000	0,031	0,116
-220,869	138,825	-0,131	0,125
-219,855	-200,000	-0,030	0,166
-218,840	424,689	-0,014	-0,022
-217,825	517,446	-0,039	-0,066
-216,811	-96,397	0,103	0,020
-215,796	-200,000	-0,027	-0,087
-214,782	800,000	0,030	-0,065
-213,767	-200,000	-0,020	-0,126
-212,752	249,142	0,011	-0,014
-211,738	5,876	-0,164	0,088
-210,723	800,000	0,035	0,091
-209,709	502,109	-0,030	-0,050
-208,694	800,000	0,028	-0,080
-207,679	151,070	0,046	-0,046
-206,665	-200,000	0,003	-0,068
-205,650	108,411	-0,034	0,030
-204,636	800,000	-0,060	0,155
-203,621	-200,000	0,006	0,116
-202,606	800,000	-0,025	0,063
-201,592	-32,012	0,172	-0,070
-200,577	-200,000	-0,004	0,040
-199,563	800,000	-0,033	0,080
-198,548	-152,694	0,174	-0,009
-197,533	-77,836	-0,055	0,014
-196,519	800,000	-0,023	-0,054
-195,504	-186,249	-0,123	0,001
-194,490	-85,479	-0,090	0,020
-193,475	-148,502	-0,014	0,001
-192,460	800,000	0,015	0,040
-191,446	130,023	-0,119	0,111
-190,431	800,000	0,030	-0,070
-189,417	-176,402	-0,109	0,002
-188,402	-19,975	-0,037	-0,016
-187,387	-136,241	-0,124	0,010
-186,373	800,000	-0,061	-0,129
-185,358	56,765	0,132	-0,093
-184,344	400,577	0,068	-0,104
-183,329	29,601	-0,034	-0,021
-182,315	800,000	-0,063	0,184
-181,300	-156,295	-0,163	0,007
-180,285	67,494	-0,036	-0,026
-179,271	6,945	-0,023	-0,013
-178,256	800,000	-0,027	0,084
-177,242	-114,184	-0,034	0,005
-176,227	54,903	-0,073	0,051
-175,212	800,000	-0,023	0,056
-174,198	30,545	0,028	0,017
-173,183	-131,413	-0,093	0,009
-172,169	800,000	0,074	-0,170
-171,154	-76,410	0,159	-0,040
-170,139	-175,022	-0,072	0,001
-169,125	-59,476	0,219	-0,068
-168,110	58,129	0,075	0,053
-167,096	-1,743	-0,084	-0,043
-166,081	-91,402	0,057	-0,012
-165,066	-53,547	0,102	-0,034
-164,052	685,790	-0,053	0,100
-163,037	184,419	0,022	0,024
-162,023	-200,000	0,007	-0,046
-161,008	-200,000	0,035	-0,147
-159,993	800,000	0,008	0,017
-158,979	-117,911	-0,095	0,012
-157,964	800,000	0,033	-0,085
-156,950	-200,000	0,031	-0,116
-155,935	-27,913	0,028	-0,012
-154,920	80,547	0,101	-0,079
-153,906	-59,538	0,089	-0,027
-152,891	800,000	0,064	0,149
-151,877	-10,521	-0,109	-0,052
-150,862	263,276	-0,060	0,075
-149,847	96,052	0,042	0,034
-148,833	38,492	0,017	0,011
-147,818	-105,829	-0,072	-0,012
-146,804	42,645	-0,052	0,034
-145,789	-200,000	-0,001	-0,018
-144,775	157,143	-0,019	-0,019
-143,760	72,928	0,080	-0,061
-142,745	148,821	-0,176	-0,173
-141,731	-200,000	-0,025	-0,178
-140,716	-200,000	-0,022	0,090
-139,702	36,327	0,082	-0,053
-138,687	171,962	0,063	0,065
-137,672	-8,875	-0,066	0,032
-136,658	-171,230	-0,047	-0,001
-135,643	-109,702	0,125	0,019
-134,629	-129,954	0,098	0,010
-133,614	695,073	0,044	0,084
-132,599	800,000	0,017	-0,038
-131,585	-117,735	0,185	0,024
-130,570	-62,381	0,054	0,016
-129,556	-200,000	-0,012	0,169
-128,541	-39,240	-0,010	0,004
-127,526	104,333	0,085	0,072
-126,512	36,626	-0,022	-0,014
-125,497	40,245	0,084	0,054
-124,483	210,447	-0,084	0,096
-123,468	-200,000	0,002	0,056
-122,453	-200,000	-0,009	-0,160
-121,439	-200,000	0,008	0,089
-120,424	-200,000	-0,014	-0,111
-119,410	-161,102	0,180	-0,007
-118,395	114,283	-0,149	0,131
-117,380	76,879	0,098	-0,075
