DTS Sentinel unit serial number:	SN410029Multiplexer serial number:	ORYXHardware model number:	OX2-SRSoftware version number:	ORYX F/W v4,00 Oryx Data Collector v3.7.2.0data status	okinstallation	B6 Nyhavnadifferential loss correction	single-endedforward channel	channel 2reverse channel	N/Adate	2023/12/10time	13:35:08forward acquisition time	300,00reverse acquisition time	0,00gamma	499,1914k internal	0,3122k external	0,3122temperature offset calibration	1,0000default loss term (dB/km)	0,3820temperature slope calibration	1,0000multiplexer offset coefficient	1,0000multiplexer slope coefficient	1,0000fibre end	0,00T internal ref (°C)	22,75T ext. ref 1 (°C)	6,33T ext. ref 2 (°C)	6,35length (m)	temperature (°C)	Stokes	anti-Stokes-744,400	800,000	0,048	-0,137
-743,385	-95,127	-0,238	0,047
-742,371	-36,989	0,128	-0,051
-741,356	-74,255	-0,188	0,050
-740,342	-118,359	0,076	0,010
-739,327	-34,429	-0,249	0,101
-738,312	-200,000	0,016	-0,102
-737,298	-22,924	-0,238	0,106
-736,283	41,900	0,075	-0,051
-735,269	33,993	-0,208	0,135
-734,254	-146,413	0,080	0,005
-733,239	-79,012	-0,323	-0,081
-732,225	206,395	0,088	-0,102
-731,210	800,000	-0,015	-0,048
-730,196	185,110	-0,051	-0,056
-729,181	175,946	-0,032	-0,034
-728,167	-200,000	-0,010	-0,098
-727,152	-80,264	0,079	0,020
-726,137	-200,000	0,010	-0,104
-725,123	-113,955	-0,112	-0,016
-724,108	-122,026	-0,060	-0,007
-723,094	133,871	0,034	-0,033
-722,079	-93,819	0,052	-0,011
-721,064	-73,064	-0,068	0,018
-720,050	-123,136	0,027	0,003
-719,035	178,093	-0,032	-0,035
-718,021	47,404	-0,149	0,103
-717,006	800,000	-0,076	-0,165
-715,991	23,418	-0,140	-0,086
-714,977	23,892	-0,065	-0,040
-713,962	52,869	0,056	-0,040
-712,948	-200,000	-0,030	0,126
-711,933	196,629	-0,037	0,042
-710,918	-35,220	-0,035	0,014
-709,904	800,000	-0,034	-0,099
-708,889	-200,000	-0,006	-0,089
-707,875	800,000	-0,038	0,091
-706,860	4,006	-0,116	0,063
-705,845	190,876	-0,042	-0,047
-704,831	-200,000	0,000	0,081
-703,816	-200,000	-0,017	-0,085
-702,802	800,000	-0,042	-0,102
-701,787	371,272	-0,036	0,054
-700,772	-51,531	0,083	-0,029
-699,758	152,794	-0,020	-0,020
-698,743	81,785	0,032	-0,026
-697,729	-200,000	0,011	-0,056
-696,714	800,000	0,068	0,157
-695,699	486,992	0,064	0,108
-694,685	388,579	0,026	-0,040
-693,670	-17,687	-0,207	0,096
-692,656	158,099	0,098	0,101
-691,641	800,000	-0,045	0,111
-690,627	314,453	-0,039	-0,054
-689,612	800,000	0,057	-0,123
-688,597	19,632	0,030	-0,018
-687,583	138,584	-0,026	0,026
-686,568	-200,000	-0,006	-0,057
-685,554	-200,000	-0,004	-0,178
-684,539	-200,000	0,006	0,047
-683,524	431,890	-0,015	0,024
-682,510	380,636	-0,040	-0,061
-681,495	800,000	-0,081	-0,183
-680,481	-200,000	-0,010	-0,118
-679,466	800,000	-0,035	-0,076
-678,451	151,092	-0,095	0,096
-677,437	-8,318	0,085	-0,043
-676,422	653,195	-0,078	-0,149
-675,408	800,000	-0,042	0,133
-674,393	-200,000	0,015	-0,059
-673,378	-43,622	-0,173	0,064
-672,364	59,505	-0,048	-0,035
-671,349	310,821	-0,074	-0,104
-670,335	555,571	-0,068	-0,122
-669,320	-61,480	0,063	0,020
-668,305	702,797	-0,016	0,032
-667,291	-156,752	0,102	-0,005
-666,276	-123,634	-0,163	0,019
-665,262	-96,424	-0,091	-0,018
-664,247	-200,000	-0,004	-0,040
-663,232	554,303	0,039	-0,070
-662,218	-70,247	-0,048	0,013
-661,203	800,000	0,043	-0,135
-660,189	42,397	0,014	0,010
-659,174	345,386	-0,056	0,082
-658,159	-200,000	-0,003	-0,040
-657,145	50,180	-0,032	-0,022
-656,130	-58,729	-0,030	-0,010
-655,116	-139,113	0,037	-0,003
-654,101	-200,000	-0,002	-0,025
-653,086	-168,789	-0,038	0,001
-652,072	800,000	-0,064	-0,142
-651,057	66,162	0,069	0,052
-650,043	68,978	-0,024	0,018
-649,028	-98,334	-0,105	-0,020
-648,014	-20,294	-0,104	-0,047
-646,999	61,121	-0,065	0,048
-645,984	-116,072	0,035	0,005
-644,970	194,412	-0,066	-0,075
-643,955	589,133	-0,054	-0,099
-642,941	-99,520	-0,025	-0,005
-641,926	63,351	-0,084	-0,063
-640,911	167,777	-0,012	0,013
-639,897	-200,000	0,003	-0,021
-638,882	800,000	0,042	0,120
-637,868	-73,643	-0,119	0,032
-636,853	55,973	-0,042	-0,030
-635,838	479,871	0,071	-0,120
-634,824	800,000	0,060	-0,149
-633,809	-97,670	0,067	0,013
-632,795	276,698	-0,143	-0,189
-631,780	-36,968	0,085	-0,034
-630,765	-43,851	-0,017	-0,006
-629,751	-200,000	0,038	-0,147
-628,736	514,887	-0,063	-0,110
-627,722	-200,000	-0,004	-0,147
-626,707	-43,514	0,040	-0,015
-625,692	18,962	0,032	-0,019
-624,678	-200,000	0,018	-0,095
-623,663	800,000	0,025	-0,074
-622,649	211,035	-0,017	0,020
-621,634	374,484	0,024	0,036
-620,619	570,799	0,031	0,057
-619,605	-135,621	0,066	0,006
-618,590	-70,587	0,080	0,022
-617,576	-109,101	0,099	0,015
-616,561	28,320	-0,086	0,054
-615,546	102,623	-0,072	-0,063
-614,532	68,916	-0,041	0,031
-613,517	198,793	0,103	-0,117
-612,503	22,370	-0,034	0,021
-611,488	-200,000	-0,021	-0,071
-610,474	-200,000	0,010	0,044
-609,459	-200,000	0,017	-0,064
-608,444	112,512	-0,009	-0,008
-607,430	800,000	0,030	-0,062
-606,415	-23,791	0,070	-0,031
-605,401	-60,871	-0,178	-0,056
-604,386	47,267	0,085	0,059
-603,371	158,255	0,084	-0,086
-602,357	800,000	-0,027	-0,066
-601,342	-33,509	-0,093	0,038
-600,328	800,000	-0,054	0,130
-599,313	-38,765	-0,104	0,041
-598,298	800,000	0,002	0,006
-597,284	-15,055	-0,087	0,041
-596,269	621,585	-0,018	0,035
-595,255	414,349	-0,090	0,143
-594,240	183,257	-0,061	0,067
-593,225	74,048	-0,102	-0,079
-592,211	18,042	-0,138	-0,081
-591,196	270,048	0,047	-0,062
-590,182	446,779	0,016	0,026
-589,167	-200,000	-0,007	-0,132
-588,152	131,619	-0,074	-0,070
-587,138	341,891	0,013	-0,019
-586,123	401,748	-0,054	-0,084
-585,109	150,634	0,113	-0,114
-584,094	-200,000	0,012	0,087
-583,079	330,871	0,123	0,177
-582,065	-157,542	-0,068	-0,003
-581,050	-200,000	-0,046	-0,162
-580,036	38,976	-0,065	0,043
-579,021	157,205	-0,069	-0,071
-578,006	2,178	-0,026	0,014
-576,992	59,940	-0,147	0,107
-575,977	800,000	0,003	0,008
-574,963	71,850	-0,085	0,066
-573,948	-155,504	-0,143	-0,007
-572,934	-84,651	-0,078	0,018
-571,919	-3,040	-0,087	-0,045
-570,904	-200,000	0,019	0,095
-569,890	-50,127	0,024	-0,008
-568,875	-146,302	0,094	0,006
-567,861	172,094	-0,081	-0,086
-566,846	-109,631	0,078	-0,012
-565,831	32,848	0,034	-0,022
-564,817	16,176	-0,055	-0,032
-563,802	-200,000	0,007	-0,103
-562,788	187,039	0,119	-0,132
-561,773	800,000	-0,038	0,081
-560,758	2,398	-0,013	0,007
-559,744	89,410	-0,103	0,085
-558,729	-200,000	-0,025	-0,106
-557,715	-36,201	-0,029	-0,012
-556,700	-200,000	-0,009	-0,076
-555,685	-46,017	0,085	0,031
-554,671	394,126	0,039	-0,060
-553,656	60,400	0,135	-0,099
-552,642	-200,000	0,002	-0,019
-551,627	1,837	-0,106	-0,056
-550,612	800,000	-0,050	-0,113
-549,598	121,700	-0,155	-0,143
-548,583	-5,453	-0,056	-0,028
-547,569	-60,110	0,139	-0,044
-546,554	292,471	0,043	0,058
-545,539	590,761	0,077	0,140
-544,525	715,217	-0,006	-0,011
-543,510	214,778	0,137	-0,161
-542,496	-121,684	-0,151	-0,018
-541,481	-200,000	0,005	-0,045
-540,466	155,472	-0,030	-0,030
-539,452	-200,000	0,021	-0,228
-538,437	-138,815	0,081	0,006
-537,423	800,000	0,014	0,046
-536,408	-56,444	-0,027	0,009
-535,393	-200,000	-0,014	0,063
-534,379	-21,160	-0,126	-0,057
-533,364	-200,000	0,023	-0,078
-532,350	-41,492	-0,082	0,031
-531,335	265,799	-0,090	-0,116
-530,321	-48,456	0,100	0,035
-529,306	220,419	0,112	-0,133
-528,291	-200,000	-0,005	-0,081
-527,277	59,160	-0,092	-0,067
-526,262	480,284	-0,056	-0,094
-525,248	-200,000	0,010	0,046
-524,233	18,169	0,041	0,024
-523,218	-107,528	-0,066	0,011
-522,204	-200,000	0,005	-0,034
-521,189	-117,696	-0,074	0,010
-520,175	-200,000	-0,013	-0,082
-519,160	360,429	-0,043	-0,064
-518,145	800,000	0,059	0,159
-517,131	800,000	-0,027	0,076
-516,116	800,000	0,045	0,105
-515,102	-76,035	0,103	0,027
-514,087	116,662	-0,137	0,124
-513,072	800,000	-0,041	-0,110
-512,058	224,408	-0,079	-0,095
-511,043	-200,000	-0,016	0,089
-510,029	-90,637	0,091	-0,019
-509,014	372,729	-0,034	0,051
-507,999	221,380	-0,024	-0,028
-506,985	298,712	-0,052	0,071
-505,970	-85,394	-0,045	-0,010
-504,956	800,000	0,086	-0,186
-503,941	-200,000	-0,012	0,107
-502,926	-200,000	0,020	0,080
-501,912	-200,000	-0,023	0,144
-500,897	-200,000	-0,017	0,065
-499,883	-27,133	-0,163	0,070
-498,868	20,000	0,065	-0,038
-497,853	-200,000	-0,017	0,156
-496,839	120,427	0,067	-0,062
-495,824	-200,000	-0,034	0,145
-494,810	43,803	0,030	0,020
-493,795	-200,000	0,002	0,056
-492,781	800,000	0,044	-0,119
-491,766	95,748	-0,109	-0,092
-490,751	-161,824	0,074	-0,003
-489,737	-82,997	-0,049	0,012
-488,722	504,406	0,031	0,054
-487,708	-65,257	0,079	0,023
-486,693	-165,059	-0,046	0,001
-485,678	-6,488	-0,137	-0,069
-484,664	-41,677	-0,097	0,036
-483,649	-28,091	-0,024	0,010
-482,635	-197,175	0,180	0,001
-481,620	-200,000	-0,007	0,097
-480,605	54,817	0,124	0,088
-479,591	-49,564	0,099	-0,034
-478,576	10,356	-0,021	0,012
-477,562	229,634	-0,090	0,108
-476,547	-200,000	0,015	0,050
-475,532	-167,689	-0,076	-0,002
-474,518	225,316	0,051	-0,061
-473,503	89,047	0,107	-0,088
-472,489	-200,000	-0,025	-0,087
-471,474	-200,000	0,010	-0,120
-470,459	37,373	0,079	-0,052
-469,445	-111,495	-0,126	-0,019
-468,430	-24,151	0,109	-0,048
-467,416	-107,922	0,060	-0,010
-466,401	-200,000	-0,004	0,029
-465,386	1,025	0,046	0,024
-464,372	-200,000	-0,001	0,054
-463,357	-47,769	-0,100	0,036
-462,343	-22,676	0,041	0,018
-461,328	-200,000	-0,001	-0,088
-460,313	800,000	-0,062	0,129
-459,299	-134,230	0,070	-0,006
-458,284	-22,772	-0,057	0,025
-457,270	45,539	0,118	-0,080
-456,255	11,494	-0,025	-0,014
-455,241	-33,639	-0,151	-0,061
-454,226	-200,000	-0,005	0,087
-453,211	71,231	0,121	0,093
-452,197	29,525	0,055	-0,034
-451,182	-200,000	0,014	0,173
-450,168	800,000	0,036	0,077
-449,153	800,000	-0,019	0,040
-448,138	-200,000	0,005	-0,033
-447,124	53,097	-0,032	0,023
-446,109	352,955	0,040	-0,059
-445,095	-58,824	-0,073	0,023
-444,080	800,000	-0,029	0,060
-443,065	-87,302	0,098	0,022
-442,051	-200,000	0,018	-0,084
-441,036	169,862	0,045	0,047
-440,022	-200,000	-0,026	0,176
-439,007	-200,000	-0,031	-0,174
-437,992	800,000	0,021	0,059
-436,978	-200,000	-0,001	0,015
-435,963	-84,409	0,072	0,017
-434,949	-200,000	0,013	-0,051
-433,934	-85,928	-0,097	-0,022
-432,919	-163,421	0,144	0,005
-431,905	800,000	0,012	-0,025
-430,890	148,880	0,043	0,042
-429,876	-200,000	0,033	0,172
-428,861	-200,000	0,017	-0,179
-427,846	-3,765	-0,061	0,031
-426,832	-200,000	-0,005	-0,074
-425,817	-101,952	-0,033	0,006
-424,803	672,430	-0,048	-0,092
-423,788	495,692	-0,015	-0,026
-422,773	6,112	0,108	-0,059
-421,759	-116,909	0,138	0,018
-420,744	800,000	-0,009	0,024
-419,730	800,000	0,080	-0,197
-418,715	-200,000	-0,017	0,077
-417,701	401,112	-0,019	-0,029
-416,686	-200,000	-0,008	-0,093
-415,671	800,000	0,042	-0,088
-414,657	17,036	-0,091	0,053
-413,642	-200,000	-0,028	0,124
-412,628	-72,137	0,102	0,028
-411,613	800,000	-0,027	0,074
-410,598	26,341	0,141	-0,087
-409,584	-200,000	-0,009	-0,070
-408,569	385,294	0,048	0,073
-407,555	800,000	-0,025	0,063
-406,540	18,180	-0,073	-0,043
-405,525	800,000	0,038	-0,118
-404,511	-200,000	0,005	-0,041
-403,496	800,000	-0,032	-0,072
-402,482	123,193	0,066	0,060
-401,467	426,140	-0,048	0,076
-400,452	103,257	-0,018	-0,015
-399,438	12,442	0,033	0,019
-398,423	-176,126	0,075	-0,001
-397,409	-47,631	-0,124	-0,044
-396,394	-88,411	0,073	0,016
-395,379	-85,403	-0,053	0,012
-394,365	6,466	0,123	0,067
-393,350	91,087	0,104	0,086
-392,336	23,388	0,092	0,055
-391,321	356,311	0,033	0,048
-390,306	182,425	0,053	-0,057
-389,292	-145,229	-0,147	-0,010
-388,277	-92,006	0,112	0,023
-387,263	800,000	0,041	-0,129
-386,248	-22,200	0,049	0,022
-385,233	-200,000	0,016	0,059
-384,219	800,000	-0,042	0,117
-383,204	-153,831	-0,134	0,007
-382,190	5,423	-0,082	0,044
-381,175	30,428	-0,030	0,019
-380,160	-38,759	0,115	0,044
-379,146	521,003	-0,049	0,085
-378,131	-23,811	-0,139	0,061
-377,117	800,000	-0,028	0,068
-376,102	51,369	-0,084	-0,059
-375,088	800,000	0,055	-0,142
-374,073	79,910	-0,059	-0,047
-373,058	-126,282	0,100	-0,011
-372,044	163,152	0,063	0,065
-371,029	27,838	0,039	-0,024
-370,015	800,000	-0,035	-0,090
-369,000	133,969	-0,064	0,061
-367,985	-2,865	-0,112	-0,058
-366,971	800,000	-0,010	-0,033
-365,956	-63,094	0,147	0,044
-364,942	672,631	-0,011	-0,021
-363,927	800,000	0,040	0,104
-362,912	800,000	-0,044	0,098
-361,898	171,963	-0,054	-0,057
-360,883	42,233	-0,114	0,076
-359,869	-200,000	0,011	0,120
-358,854	-86,015	0,154	0,035
-357,839	-200,000	0,019	0,141
-356,825	-28,485	-0,042	0,018
-355,810	240,944	0,023	-0,028
-354,796	-200,000	-0,015	-0,060
-353,781	-95,402	-0,201	0,039
-352,766	800,000	0,015	-0,046
-351,752	-21,333	0,076	0,034
-350,737	-200,000	0,007	0,120
-349,723	675,819	0,015	0,028
-348,708	-125,368	0,156	0,017
-347,693	-200,000	0,004	-0,071
-346,679	204,312	-0,068	0,077
-345,664	-123,430	0,054	-0,006
-344,650	59,714	0,010	-0,007
-343,635	186,997	0,014	-0,015
-342,620	112,723	0,036	-0,032
-341,606	-1,323	0,128	0,066
-340,591	-105,838	0,131	0,022
-339,577	107,511	0,105	0,092
-338,562	-200,000	-0,013	-0,071
-337,548	758,012	-0,054	-0,109
-336,533	-200,000	-0,018	-0,065
-335,518	55,515	0,123	-0,088
-334,504	95,391	0,013	0,011
-333,489	-155,240	-0,167	0,008
-332,475	-200,000	-0,010	-0,044
-331,460	654,491	0,031	-0,059
-330,445	138,913	0,041	-0,040
-329,431	-200,000	-0,002	-0,015
-328,416	97,773	0,100	-0,085
-327,402	-95,319	-0,069	-0,014
-326,387	172,131	0,129	0,136
-325,372	-200,000	-0,032	-0,204
-324,358	443,306	-0,005	-0,008
-323,343	17,693	-0,058	-0,033
-322,329	-134,629	0,024	-0,002
-321,314	95,376	0,098	0,081
-320,299	31,100	0,080	0,050
-319,285	800,000	-0,059	0,158
-318,270	-31,245	-0,090	0,037
-317,256	297,406	0,043	-0,057
-316,241	41,727	0,022	0,014
-315,226	297,727	0,010	0,014
-314,212	-74,027	0,028	-0,007
-313,197	-6,589	-0,094	0,047
-312,183	397,507	-0,017	0,026
-311,168	-200,000	0,022	0,089
-310,153	-51,435	-0,049	-0,017
-309,139	-15,440	-0,111	-0,052
-308,124	349,943	0,105	0,152
-307,110	-200,000	0,037	0,148
-306,095	13,896	-0,056	0,032
-305,080	-200,000	0,010	0,138
-304,066	-200,000	-0,030	0,108
-303,051	116,170	-0,043	0,039
-302,037	-200,000	0,001	-0,005
-301,022	37,733	0,105	0,068
-300,008	206,145	0,121	-0,138
-298,993	800,000	-0,014	0,035
-297,978	260,627	-0,082	0,104
-296,964	24,698	-0,079	0,048
-295,949	-200,000	-0,020	-0,093
-294,935	628,296	-0,016	-0,029
-293,920	-200,000	0,010	-0,111
-292,905	-188,173	0,093	0,001
-291,891	-55,506	-0,064	0,021
-290,876	-10,442	-0,067	0,032
-289,862	406,997	0,075	0,117
-288,847	-25,401	-0,186	0,080
-287,832	122,060	0,093	-0,085
-286,818	-136,075	0,060	-0,005
-285,803	-200,000	0,036	0,117
-284,789	-200,000	0,005	0,068
-283,774	794,229	-0,048	0,096
-282,759	-200,000	-0,006	-0,059
-281,745	22,183	-0,083	-0,049
-280,730	-200,000	0,024	-0,109
-279,716	156,896	-0,055	0,056
-278,701	-200,000	-0,020	0,070
-277,686	-19,385	0,140	0,063
-276,672	-200,000	0,007	0,060
-275,657	-42,323	0,071	-0,026
-274,643	545,709	-0,071	0,124
-273,628	-28,261	0,075	-0,032
-272,613	42,920	-0,097	-0,065
-271,599	167,837	0,056	0,058
-270,584	634,062	-0,020	-0,038
-269,570	600,340	0,042	0,077
-268,555	-200,000	-0,001	0,039
-267,540	89,032	-0,040	0,032
-266,526	102,527	-0,065	0,056
-265,511	36,394	-0,060	0,039
-264,497	-200,000	0,026	-0,108
-263,482	-90,743	0,225	0,047
-262,467	-112,296	0,068	0,010
-261,453	-41,100	-0,039	0,015
-260,438	-200,000	-0,014	-0,127
-259,424	-12,884	-0,071	-0,034
-258,409	20,719	-0,029	0,017
-257,395	146,684	-0,050	0,049
-256,380	-71,822	0,058	0,016
-255,365	-200,000	0,017	0,064
-254,351	800,000	0,037	0,076
-253,336	298,202	-0,059	0,080
-252,322	-59,592	-0,100	-0,031
-251,307	800,000	-0,034	-0,094
-250,292	74,910	0,019	-0,015
-249,278	-99,477	0,106	-0,019
-248,263	85,485	-0,111	-0,089
-247,249	-200,000	0,035	0,188
-246,234	-8,841	0,093	-0,046
-245,219	-93,613	-0,077	-0,015
-244,205	-31,008	0,028	-0,012
-243,190	-200,000	0,085	0,000
-242,176	557,837	0,046	0,081
-241,161	-200,000	-0,022	0,071
-240,146	-200,000	-0,008	0,125
-239,132	214,268	-0,030	-0,035
-238,117	59,354	-0,119	-0,085
-237,103	800,000	-0,049	-0,119
-236,088	-37,975	0,041	-0,016
-235,073	800,000	0,049	0,109
-234,059	-200,000	-0,001	0,140
-233,044	-118,774	-0,043	-0,005
-232,030	412,318	0,039	0,061
-231,015	320,660	-0,047	0,065
-230,000	800,000	0,026	0,077
-228,986	7,484	-0,118	-0,064
-227,971	-41,089	-0,081	-0,030
-226,957	47,550	0,068	0,046
-225,942	-200,000	0,013	0,116
-224,927	19,932	0,117	-0,069
-223,913	800,000	-0,028	0,062
-222,898	-200,000	-0,021	-0,126
-221,884	-108,624	0,131	0,020
-220,869	-100,389	-0,064	-0,011
-219,855	-200,000	-0,003	0,011
-218,840	-200,000	-0,005	0,084
-217,825	772,090	-0,035	0,070
-216,811	-65,649	0,074	-0,021
-215,796	-200,000	0,027	0,095
-214,782	143,178	-0,065	-0,063
-213,767	-86,978	-0,042	0,009
-212,752	596,515	0,054	0,097
-211,738	691,629	0,045	-0,086
-210,723	20,063	0,027	0,016
-209,709	225,306	-0,033	0,039
-208,694	230,774	-0,063	-0,076
-207,679	-200,000	-0,014	-0,079
-206,665	-85,990	-0,265	0,059
-205,650	-200,000	-0,002	-0,045
-204,636	-131,793	0,044	-0,004
-203,621	-157,650	-0,079	-0,003
-202,606	723,961	-0,058	-0,114
-201,592	111,628	-0,065	0,057
-200,577	-200,000	0,002	-0,036
-199,563	-82,352	0,102	-0,024
-198,548	24,160	0,140	0,084
-197,533	-64,319	0,027	0,008
-196,519	-116,291	0,118	-0,016
-195,504	-56,847	0,045	-0,014
-194,490	-200,000	0,027	-0,088
-193,475	-101,813	0,025	-0,004
-192,460	800,000	0,045	-0,101
-191,446	41,079	-0,038	0,025
-190,431	787,086	0,016	0,032
-189,417	368,138	0,091	0,135
-188,402	250,375	-0,097	-0,120
-187,387	-162,265	-0,088	-0,003
-186,373	-200,000	-0,014	0,070
-185,358	-5,421	0,102	0,051
-184,344	-141,400	0,024	-0,002
-183,329	-73,029	0,174	0,046
-182,315	169,816	0,046	-0,048
-181,300	800,000	0,054	-0,171
-180,285	-189,861	-0,153	-0,001
-179,271	544,572	-0,070	0,123
-178,256	59,981	-0,043	-0,031
-177,242	800,000	-0,009	0,023
-176,227	80,749	0,056	-0,044
-175,212	131,734	0,112	-0,105
-174,198	-200,000	0,009	-0,092
-173,183	800,000	-0,034	-0,104
-172,169	-6,217	-0,055	0,027
-171,154	391,232	-0,030	0,045
-170,139	169,697	0,037	0,039
-169,125	298,382	0,043	0,057
-168,110	-200,000	-0,023	0,077
-167,096	-148,075	0,032	0,002
-166,081	-37,792	0,098	0,038
-165,066	-200,000	-0,056	-0,182
-164,052	-200,000	0,022	-0,075
-163,037	111,651	0,111	0,097
-162,023	-160,933	0,076	0,003
-161,008	-127,352	-0,064	0,007
-159,993	285,095	-0,097	0,127
-158,979	27,347	0,078	-0,048
-157,964	800,000	-0,030	-0,091
-156,950	205,133	0,085	-0,096
-155,935	800,000	0,011	0,035
-154,920	780,158	-0,043	0,086
-153,906	-79,242	-0,054	0,013
-152,891	-60,650	0,122	0,037
-151,877	-27,463	-0,070	0,030
-150,862	800,000	0,023	-0,068
-149,847	535,131	0,028	-0,048
-148,833	207,771	-0,037	-0,042
-147,818	800,000	-0,051	-0,108
-146,804	391,423	0,075	-0,115
-145,789	-200,000	-0,022	-0,087
-144,775	800,000	-0,036	0,101
-143,760	-200,000	0,003	-0,032
-142,745	-200,000	0,010	0,036
-141,731	-112,584	0,123	-0,018
-140,716	-57,912	-0,094	-0,030
-139,702	389,807	0,043	0,065
-138,687	-78,860	0,064	0,016
-137,672	297,570	0,041	-0,055
-136,658	-128,054	0,061	-0,006
-135,643	-78,741	-0,101	0,025
-134,629	-3,069	-0,072	-0,036
-133,614	-131,802	0,174	0,016
-132,599	800,000	0,007	0,016
-131,585	239,568	-0,013	0,016
-130,570	92,461	-0,061	-0,050
-129,556	800,000	-0,015	0,045
-128,541	1,557	-0,244	-0,127
-127,526	48,033	-0,130	0,088
-126,512	-118,478	0,125	-0,016
-125,497	1,249	0,093	0,048
-124,483	-148,739	0,080	0,005
-123,468	55,465	0,036	-0,025
-122,453	67,786	-0,075	-0,056
-121,439	102,804	0,048	-0,041
-120,424	40,845	0,054	0,035
-119,410	800,000	0,039	-0,086
-118,395	379,061	0,023	-0,034
