DTS Sentinel unit serial number:	SN410029Multiplexer serial number:	ORYXHardware model number:	OX2-SRSoftware version number:	ORYX F/W v4,00 Oryx Data Collector v3.7.2.0data status	okinstallation	B6 Nyhavnadifferential loss correction	single-endedforward channel	channel 2reverse channel	N/Adate	2023/12/09time	18:05:08forward acquisition time	300,00reverse acquisition time	0,00gamma	499,1914k internal	0,3130k external	0,3130temperature offset calibration	1,0000default loss term (dB/km)	0,3820temperature slope calibration	1,0000multiplexer offset coefficient	1,0000multiplexer slope coefficient	1,0000fibre end	0,00T internal ref (°C)	21,03T ext. ref 1 (°C)	4,75T ext. ref 2 (°C)	4,76length (m)	temperature (°C)	Stokes	anti-Stokes-744,400	195,853	0,105	-0,119
-743,385	-31,303	-0,267	0,111
-742,371	101,688	0,076	-0,065
-741,356	-74,631	-0,261	0,069
-740,342	800,000	0,059	0,135
-739,327	-74,269	-0,324	0,086
-738,312	800,000	-0,047	-0,124
-737,298	-21,870	-0,359	0,162
-736,283	276,234	0,083	0,110
-735,269	40,578	-0,161	0,108
-734,254	-8,815	-0,022	-0,011
-733,239	-173,859	-0,410	0,009
-732,225	-66,624	0,137	-0,040
-731,210	-63,988	-0,032	-0,010
-730,196	800,000	0,011	-0,028
-729,181	60,544	-0,088	0,064
-728,167	-200,000	0,001	-0,004
-727,152	-28,786	-0,054	0,023
-726,137	-200,000	-0,008	-0,063
-725,123	-200,000	0,002	-0,035
-724,108	-200,000	-0,001	-0,136
-723,094	369,425	0,033	0,050
-722,079	336,211	-0,054	-0,079
-721,064	800,000	-0,007	0,021
-720,050	361,242	-0,046	0,068
-719,035	7,961	-0,140	0,078
-718,021	127,916	-0,119	-0,113
-717,006	182,251	-0,120	-0,132
-715,991	-18,324	-0,133	-0,062
-714,977	204,143	0,018	0,021
-713,962	124,502	-0,076	-0,071
-712,948	260,691	0,058	-0,074
-711,933	800,000	0,054	-0,124
-710,918	-200,000	0,023	-0,084
-709,904	800,000	-0,047	-0,130
-708,889	-200,000	0,019	-0,073
-707,875	-200,000	-0,002	-0,068
-706,860	243,171	0,041	0,051
-705,845	-105,638	-0,024	-0,004
-704,831	-200,000	0,008	0,031
-703,816	800,000	0,006	0,017
-702,802	-61,317	0,034	-0,011
-701,787	800,000	-0,031	-0,081
-700,772	-96,343	-0,159	-0,031
-699,758	-10,060	-0,061	0,030
-698,743	-115,241	-0,031	0,004
-697,729	620,880	0,034	-0,063
-696,714	-103,166	-0,081	0,014
-695,699	-200,000	0,007	-0,171
-694,685	-36,110	-0,109	-0,044
-693,670	137,658	-0,086	0,083
-692,656	-200,000	-0,023	-0,130
-691,641	-134,797	-0,162	0,014
-690,627	-200,000	-0,043	0,183
-689,612	800,000	-0,028	0,085
-688,597	-14,479	0,084	-0,040
-687,583	588,699	-0,059	0,108
-686,568	-200,000	-0,031	-0,185
-685,554	240,607	-0,058	0,071
-684,539	-200,000	0,019	0,079
-683,524	-58,866	0,080	-0,025
-682,510	-24,216	-0,181	-0,080
-681,495	-200,000	-0,008	-0,194
-680,481	49,800	-0,090	-0,063
-679,466	-200,000	0,028	-0,101
-678,451	163,758	-0,043	-0,045
-677,437	28,224	0,077	-0,048
-676,422	-109,715	0,089	-0,014
-675,408	17,499	-0,192	0,113
-674,393	92,338	-0,099	-0,082
-673,378	-200,000	-0,012	-0,049
-672,364	-59,493	-0,186	-0,059
-671,349	-36,149	-0,109	0,043
-670,335	18,329	0,054	-0,032
-669,320	-200,000	0,003	-0,031
-668,305	12,634	0,106	-0,061
-667,291	800,000	-0,064	0,176
-666,276	714,138	-0,045	-0,088
-665,262	464,962	0,026	-0,043
-664,247	36,381	-0,125	0,082
-663,232	-100,601	0,028	-0,005
-662,218	13,122	-0,076	-0,043
-661,203	649,890	0,050	-0,096
-660,189	202,513	-0,045	0,051
-659,174	186,138	-0,057	-0,063
-658,159	-150,567	-0,028	-0,002
-657,145	-126,553	0,140	0,015
-656,130	57,428	-0,083	-0,060
-655,116	-16,434	0,037	0,017
-654,101	800,000	-0,078	0,183
-653,086	-119,185	0,127	0,016
-652,072	-129,624	-0,097	0,010
-651,057	-200,000	-0,007	0,043
-650,043	79,680	-0,151	-0,120
-649,028	50,108	0,025	0,018
-648,014	257,078	0,013	-0,016
-646,999	-50,023	-0,043	-0,015
-645,984	308,704	0,071	0,099
-644,970	-200,000	0,010	0,123
-643,955	-142,670	-0,095	0,007
-642,941	-34,479	0,039	0,016
-641,926	129,135	0,030	0,028
-640,911	-200,000	-0,009	-0,049
-639,897	135,039	0,119	0,114
-638,882	-127,537	0,030	0,003
-637,868	800,000	-0,030	-0,080
-636,853	-12,279	-0,165	-0,080
-635,838	222,078	-0,032	-0,038
-634,824	204,406	0,072	-0,083
-633,809	800,000	0,022	0,055
-632,795	-119,113	-0,038	0,005
-631,780	216,539	-0,016	-0,018
-630,765	-200,000	-0,009	0,098
-629,751	86,478	-0,124	-0,101
-628,736	800,000	0,083	-0,261
-627,722	696,498	-0,101	-0,198
-626,707	99,367	-0,042	0,036
-625,692	37,551	-0,035	0,023
-624,678	146,345	-0,057	0,057
-623,663	192,003	0,132	0,148
-622,649	40,012	-0,130	-0,087
-621,634	-65,851	-0,071	-0,021
-620,619	-121,641	-0,133	0,016
-619,605	800,000	0,041	0,108
-618,590	487,170	0,162	0,275
-617,576	-200,000	-0,014	0,119
-616,561	89,257	-0,093	0,077
-615,546	-200,000	-0,026	-0,084
-614,532	85,286	0,052	0,042
-613,517	153,361	-0,102	-0,104
-612,503	800,000	-0,028	0,080
-611,488	219,081	0,123	0,146
-610,474	-102,277	0,159	0,028
-609,459	-21,451	-0,085	0,038
-608,444	143,570	0,070	-0,069
-607,430	264,407	0,047	-0,061
-606,415	333,626	-0,049	-0,070
-605,401	600,889	0,048	0,088
-604,386	308,473	-0,027	-0,037
-603,371	-82,853	-0,145	0,034
-602,357	800,000	-0,026	0,059
-601,342	-76,272	0,071	-0,018
-600,328	719,385	-0,049	-0,096
-599,313	-13,811	0,118	0,056
-598,298	-85,966	-0,128	0,029
-597,284	800,000	-0,028	0,065
-596,269	-165,014	0,139	-0,004
-595,255	-25,877	-0,062	-0,027
-594,240	-37,209	-0,045	0,018
-593,225	20,360	-0,120	-0,072
-592,211	208,959	-0,103	-0,119
-591,196	-200,000	-0,003	0,020
-590,182	265,688	0,003	-0,004
-589,167	314,292	0,072	0,101
-588,152	-21,004	0,052	-0,023
-587,138	79,105	0,009	-0,007
-586,123	129,657	-0,063	-0,059
-585,109	31,275	-0,122	0,077
-584,094	-200,000	0,005	0,034
-583,079	-80,357	0,049	0,012
-582,065	97,062	0,135	-0,115
-581,050	-200,000	0,021	0,098
-580,036	-111,950	-0,116	0,017
-579,021	-200,000	0,008	0,137
-578,006	10,823	-0,154	-0,087
-576,992	-200,000	-0,021	-0,123
-575,977	136,348	0,021	-0,020
-574,963	789,965	0,057	-0,117
-573,948	-55,949	0,196	-0,064
-572,934	800,000	-0,018	-0,046
-571,919	-172,263	-0,026	-0,001
-570,904	-200,000	-0,003	0,034
-569,890	-21,819	0,063	-0,028
-568,875	-37,670	-0,069	-0,027
-567,861	71,215	-0,028	-0,021
-566,846	66,860	0,038	0,029
-565,831	266,052	-0,012	-0,016
-564,817	284,583	-0,107	-0,143
-563,802	-106,994	-0,146	0,024
-562,788	560,376	0,020	-0,035
-561,773	187,425	0,028	0,031
-560,758	-145,782	0,074	0,005
-559,744	-200,000	-0,024	0,130
-558,729	-200,000	-0,004	-0,050
-557,715	50,801	-0,039	0,027
-556,700	115,625	0,023	0,021
-555,685	417,748	0,046	-0,074
-554,671	254,706	0,114	-0,145
-553,656	-200,000	-0,007	-0,076
-552,642	-200,000	-0,002	0,091
-551,627	346,195	0,012	0,018
-550,612	-93,511	-0,048	-0,010
-549,598	-108,411	0,081	-0,013
-548,583	-83,829	-0,131	-0,031
-547,569	-86,076	0,044	0,010
-546,554	-17,659	0,046	0,021
-545,539	-70,804	-0,149	0,041
-544,525	364,964	0,070	0,104
-543,510	-78,228	-0,045	-0,011
-542,496	-200,000	-0,002	-0,138
-541,481	800,000	0,050	-0,104
-540,466	40,780	0,050	0,033
-539,452	-200,000	0,008	0,072
-538,437	-200,000	0,005	0,029
-537,423	144,692	-0,070	-0,069
-536,408	196,895	0,055	-0,062
-535,393	-17,485	0,051	-0,023
-534,379	691,268	-0,057	0,111
-533,364	99,409	0,086	0,073
-532,350	-200,000	-0,003	0,035
-531,335	-5,350	0,123	0,062
-530,321	219,064	0,048	-0,057
-529,306	331,071	-0,049	0,071
-528,291	-1,958	-0,049	-0,025
-527,277	110,189	-0,164	-0,145
-526,262	-200,000	-0,016	-0,101
-525,248	54,034	0,055	-0,039
-524,233	387,527	0,045	0,069
-523,218	-200,000	0,014	-0,073
-522,204	-88,251	0,114	-0,025
-521,189	83,014	-0,092	0,074
-520,175	-34,999	-0,103	-0,041
-519,160	297,576	-0,064	-0,087
-518,145	-103,843	-0,067	-0,011
-517,131	161,964	-0,132	0,137
-516,116	-36,511	0,054	0,021
-515,102	-29,801	0,063	0,027
-514,087	109,908	-0,059	-0,052
-513,072	800,000	-0,037	-0,090
-512,058	10,821	-0,193	0,108
-511,043	69,133	0,089	0,068
-510,029	14,921	0,089	-0,051
-509,014	-71,664	0,048	-0,013
-507,999	-200,000	-0,024	0,219
-506,985	-128,956	-0,125	-0,013
-505,970	-200,000	-0,006	-0,046
-504,956	-200,000	0,039	-0,130
-503,941	800,000	0,028	-0,058
-502,926	105,570	0,052	0,045
-501,912	-200,000	-0,039	-0,170
-500,897	57,971	0,071	-0,051
-499,883	-35,987	0,084	0,033
-498,868	252,306	-0,095	-0,120
-497,853	-147,492	-0,152	-0,009
-496,839	-174,730	0,130	-0,003
-495,824	723,499	0,044	-0,087
-494,810	449,950	-0,033	-0,054
-493,795	-200,000	-0,036	-0,129
-492,781	-200,000	-0,003	-0,033
-491,766	410,362	0,058	-0,090
-490,751	-157,355	-0,090	-0,004
-489,737	244,309	-0,029	-0,036
-488,722	-200,000	0,032	0,165
-487,708	800,000	0,026	0,067
-486,693	-22,816	-0,083	-0,037
-485,678	-105,356	-0,114	0,019
-484,664	-21,657	0,075	0,033
-483,649	-200,000	0,002	-0,010
-482,635	-200,000	0,011	-0,068
-481,620	-75,946	0,207	0,054
-480,605	-140,947	0,131	-0,010
-479,591	800,000	-0,064	-0,140
-478,576	191,470	-0,040	0,045
-477,562	800,000	0,060	-0,161
-476,547	383,915	-0,044	0,068
-475,532	106,812	0,031	-0,027
-474,518	187,299	-0,032	0,035
-473,503	-200,000	-0,005	-0,115
-472,489	-188,780	0,142	-0,001
-471,474	166,517	0,063	-0,066
-470,459	35,501	-0,086	0,055
-469,445	-112,635	0,089	0,013
-468,430	-49,017	-0,117	-0,041
-467,416	800,000	0,047	0,126
-466,401	-132,949	-0,128	0,012
-465,386	-25,492	0,035	-0,015
-464,372	-200,000	0,000	0,032
-463,357	-125,752	-0,082	0,009
-462,343	60,054	0,031	-0,023
-461,328	800,000	-0,048	0,111
-460,313	-45,432	0,099	-0,036
-459,299	77,467	0,059	-0,046
-458,284	-116,418	0,096	-0,013
-457,270	-123,894	0,124	-0,014
-456,255	-200,000	-0,011	-0,107
-455,241	-200,000	-0,006	0,079
-454,226	800,000	0,027	0,083
-453,211	-200,000	0,015	-0,085
-452,197	-41,936	-0,041	0,015
-451,182	-200,000	0,004	0,074
-450,168	9,456	0,083	0,046
-449,153	-200,000	0,009	-0,067
-448,138	149,598	0,067	-0,067
-447,124	39,657	-0,122	0,080
-446,109	-34,308	-0,198	0,079
-445,095	-192,689	0,138	-0,001
-444,080	-200,000	0,034	0,128
-443,065	-22,490	0,126	-0,056
-442,051	-93,186	0,009	-0,002
-441,036	-200,000	-0,069	0,000
-440,022	-200,000	0,026	-0,094
-439,007	800,000	-0,054	-0,135
-437,992	-22,945	0,063	-0,028
-436,978	561,513	0,026	0,047
-435,963	-200,000	-0,028	0,140
-434,949	121,054	0,076	0,069
-433,934	-165,947	-0,174	-0,005
-432,919	260,799	-0,021	-0,027
-431,905	-200,000	0,013	0,057
-430,890	698,805	0,049	-0,095
-429,876	172,888	-0,037	-0,039
-428,861	502,201	-0,073	0,125
-427,846	800,000	-0,033	0,078
-426,832	-49,103	-0,066	-0,023
-425,817	800,000	0,023	-0,052
-424,803	-35,470	-0,129	0,051
-423,788	-14,021	0,189	0,089
-422,773	-28,344	0,065	0,027
-421,759	-200,000	-0,009	0,054
-420,744	38,132	-0,092	0,060
-419,730	800,000	-0,040	-0,110
-418,715	624,563	-0,055	-0,102
-417,701	-2,762	0,029	0,015
-416,686	320,971	-0,076	-0,107
-415,671	-200,000	0,039	-0,132
-414,657	81,646	0,080	-0,064
-413,642	494,744	-0,022	0,036
-412,628	800,000	-0,047	0,151
-411,613	-200,000	-0,012	0,050
-410,598	34,401	0,049	-0,031
-409,584	-200,000	-0,044	0,258
-408,569	-200,000	0,004	0,046
-407,555	-191,014	0,081	-0,001
-406,540	-200,000	-0,004	-0,014
-405,525	800,000	0,022	0,064
-404,511	-178,582	0,068	-0,001
-403,496	800,000	0,034	-0,071
-402,482	35,903	-0,043	0,028
-401,467	-200,000	-0,026	0,113
-400,452	800,000	-0,037	0,116
-399,438	621,772	0,050	0,093
-398,423	-200,000	0,003	0,058
-397,409	-75,082	0,087	0,023
-396,394	530,839	-0,078	0,135
-395,379	52,488	-0,026	-0,018
-394,365	-200,000	-0,031	-0,119
-393,350	-93,372	0,108	-0,022
-392,336	-200,000	-0,012	-0,120
-391,321	800,000	-0,054	-0,127
-390,306	-200,000	0,021	0,072
-389,292	224,873	-0,042	0,050
-388,277	9,026	-0,109	-0,060
-387,263	-157,872	0,039	0,002
-386,248	-145,280	0,115	0,008
-385,233	-40,837	0,104	-0,039
-384,219	-83,659	-0,104	0,024
-383,204	-133,013	0,064	-0,006
-382,190	-14,803	-0,046	-0,022
-381,175	215,304	0,117	0,136
-380,160	474,540	0,078	0,130
-379,146	800,000	0,044	0,109
-378,131	130,733	-0,027	-0,026
-377,117	-85,325	-0,077	0,017
-376,102	-200,000	-0,007	0,057
-375,088	-200,000	0,004	-0,047
-374,073	-200,000	-0,008	-0,237
-373,058	-97,155	0,067	-0,013
-372,044	800,000	0,057	0,122
-371,029	139,805	0,077	-0,074
-370,015	-118,703	-0,048	0,006
-369,000	800,000	0,072	-0,147
-367,985	145,903	-0,045	-0,045
-366,971	-13,501	0,059	-0,028
-365,956	800,000	0,032	0,075
-364,942	158,842	0,074	0,075
-363,927	-200,000	-0,004	0,138
-362,912	800,000	-0,076	0,226
-361,898	196,773	-0,039	0,044
-360,883	800,000	0,042	-0,101
-359,869	351,080	-0,072	-0,105
-358,854	-48,413	0,098	-0,035
-357,839	800,000	-0,084	0,227
-356,825	-200,000	0,039	0,131
-355,810	759,546	0,032	0,064
-354,796	800,000	-0,036	0,088
-353,781	19,508	0,128	-0,075
-352,766	800,000	0,027	-0,080
-351,752	-200,000	0,004	0,083
-350,737	-200,000	0,030	0,131
-349,723	-148,102	-0,091	-0,005
-348,708	-90,520	-0,160	-0,034
-347,693	210,246	0,025	0,029
-346,679	-134,986	0,044	0,004
-345,664	609,495	0,063	-0,115
-344,650	800,000	-0,017	-0,045
-343,635	226,850	0,034	-0,041
-342,620	-176,979	0,027	0,000
-341,606	2,377	-0,057	0,030
-340,591	-138,953	-0,079	-0,006
-339,577	-105,078	-0,048	-0,008
-338,562	262,968	-0,101	-0,128
-337,548	249,797	-0,084	-0,104
-336,533	800,000	0,013	-0,034
-335,518	213,479	0,018	-0,021
-334,504	243,466	0,028	0,035
-333,489	-200,000	0,020	-0,140
-332,475	5,183	-0,040	-0,021
-331,460	298,915	0,065	0,087
-330,445	35,167	0,061	0,039
-329,431	-33,166	0,021	-0,009
-328,416	-15,855	0,111	0,052
-327,402	-200,000	0,013	0,104
-326,387	800,000	0,055	0,119
-325,372	-0,943	-0,074	-0,038
-324,358	-2,624	-0,030	-0,015
-323,343	752,198	-0,011	-0,021
-322,329	800,000	0,044	-0,092
-321,314	-200,000	0,035	-0,132
-320,299	-122,945	0,117	0,014
-319,285	28,684	0,075	-0,046
-318,270	-200,000	0,012	-0,061
-317,256	-70,206	-0,096	0,026
-316,241	-200,000	-0,004	-0,085
-315,226	186,414	0,061	-0,066
-314,212	-95,261	0,098	-0,019
-313,197	-200,000	-0,019	-0,077
-312,183	72,787	-0,121	-0,092
-311,168	151,726	0,077	0,076
-310,153	-99,621	-0,051	-0,009
-309,139	166,691	-0,017	-0,018
-308,124	-106,291	0,023	0,004
-307,110	319,834	0,103	0,143
-306,095	436,273	-0,126	0,202
-305,080	353,305	-0,141	0,204
-304,066	315,574	-0,047	0,064
-303,051	192,082	-0,092	0,101
-302,037	-200,000	0,011	-0,092
-301,022	800,000	-0,009	-0,024
-300,008	-200,000	-0,006	-0,033
-298,993	-111,943	0,071	0,010
-297,978	72,572	0,037	0,028
-296,964	-52,518	-0,094	-0,031
-295,949	-163,220	0,093	-0,003
-294,935	436,323	0,019	-0,031
-293,920	499,876	0,012	-0,021
-292,905	56,570	0,084	-0,060
-291,891	-69,747	0,020	0,006
-290,876	36,088	0,038	-0,025
-289,862	-86,735	-0,082	0,018
-288,847	22,532	0,065	-0,038
-287,832	11,297	0,107	0,060
-286,818	207,143	-0,078	-0,089
-285,803	-113,858	-0,095	-0,013
-284,789	124,328	0,047	-0,043
-283,774	188,717	-0,033	-0,036
-282,759	-24,268	-0,043	0,019
-281,745	-123,077	0,089	-0,010
-280,730	800,000	0,031	0,091
-279,716	104,023	0,060	-0,052
-278,701	-200,000	-0,003	-0,028
-277,686	-200,000	0,010	0,113
-276,672	743,537	-0,022	-0,044
-275,657	-200,000	0,018	0,116
-274,643	63,311	0,022	-0,016
-273,628	-52,123	0,060	-0,020
-272,613	517,452	0,087	0,149
-271,599	800,000	0,017	-0,055
-270,584	125,827	-0,069	0,064
-269,570	-200,000	-0,010	-0,077
-268,555	717,286	-0,023	-0,046
-267,540	-92,351	-0,036	-0,007
-266,526	-163,392	-0,091	0,003
-265,511	-200,000	-0,034	-0,228
-264,497	-200,000	-0,026	0,122
-263,482	-109,262	-0,026	0,004
-262,467	-200,000	-0,019	0,091
-261,453	800,000	0,022	0,058
-260,438	182,490	0,032	0,035
-259,424	800,000	-0,075	-0,215
-258,409	570,603	-0,038	0,068
-257,395	59,872	-0,053	-0,038
-256,380	-45,243	0,088	0,032
-255,365	800,000	0,044	0,111
-254,351	-200,000	-0,004	0,234
-253,336	52,032	0,084	0,059
-252,322	-64,217	0,118	-0,035
-251,307	-200,000	0,042	-0,169
-250,292	800,000	0,054	-0,117
-249,278	-200,000	0,012	0,050
-248,263	-186,827	0,069	-0,001
-247,249	483,599	0,035	-0,058
-246,234	-7,030	-0,076	0,037
-245,219	264,843	-0,076	-0,097
-244,205	800,000	-0,049	-0,159
-243,190	800,000	0,042	0,088
-242,176	-84,633	-0,111	-0,025
-241,161	408,585	-0,024	0,038
-240,146	241,682	0,041	0,050
-239,132	184,929	-0,051	0,055
-238,117	-200,000	0,002	0,020
-237,103	86,629	0,095	-0,077
-236,088	168,568	0,016	0,017
-235,073	800,000	-0,034	0,070
-234,059	-20,051	0,071	0,032
-233,044	49,454	-0,117	-0,080
-232,030	38,786	0,088	0,057
-231,015	800,000	-0,039	-0,096
-230,000	-200,000	0,022	-0,133
-228,986	800,000	-0,043	-0,103
-227,971	58,418	0,062	-0,044
-226,957	29,174	-0,096	0,059
-225,942	800,000	-0,037	0,088
-224,927	-200,000	0,006	0,097
-223,913	800,000	0,008	0,024
-222,898	-158,714	0,025	-0,001
-221,884	-200,000	0,008	-0,073
-220,869	152,465	0,080	0,079
-219,855	74,239	-0,075	0,057
-218,840	-200,000	-0,010	0,075
-217,825	-200,000	-0,007	-0,136
-216,811	-200,000	-0,031	0,115
-215,796	-77,298	0,018	0,004
-214,782	71,951	-0,010	0,007
-213,767	-200,000	0,010	-0,175
-212,752	414,758	0,025	-0,039
-211,738	-200,000	-0,001	-0,015
-210,723	10,009	-0,172	0,095
-209,709	800,000	0,018	-0,038
-208,694	339,722	-0,058	-0,082
-207,679	800,000	0,036	-0,084
-206,665	-7,991	-0,053	-0,026
-205,650	-158,441	0,059	0,002
-204,636	-104,614	-0,205	-0,034
-203,621	-200,000	0,008	-0,044
-202,606	-200,000	0,013	-0,057
-201,592	-200,000	0,005	-0,141
-200,577	-200,000	0,009	-0,134
-199,563	800,000	-0,019	-0,048
-198,548	-19,267	-0,082	-0,037
-197,533	423,171	0,076	0,119
-196,519	-19,287	0,068	0,030
-195,504	-91,634	0,078	0,016
-194,490	42,262	-0,035	-0,023
-193,475	341,099	-0,051	-0,072
-192,460	248,028	0,064	-0,079
-191,446	-200,000	-0,021	0,071
-190,431	-67,017	0,035	0,010
-189,417	132,686	0,009	0,008
-188,402	-200,000	0,008	-0,089
-187,387	-200,000	-0,012	-0,048
-186,373	32,663	-0,064	0,040
-185,358	119,528	0,072	0,065
-184,344	-84,516	0,053	-0,012
-183,329	-9,965	0,018	-0,009
-182,315	-9,761	-0,052	0,025
-181,300	-97,449	0,046	-0,009
-180,285	294,983	-0,068	0,090
-179,271	201,262	-0,067	-0,075
-178,256	-65,862	0,051	0,015
-177,242	224,223	0,058	0,069
-176,227	149,306	0,053	0,052
-175,212	-11,937	0,087	0,042
-174,198	-200,000	0,021	-0,090
-173,183	-51,793	-0,048	0,016
-172,169	314,043	-0,032	-0,044
-171,154	-169,383	0,052	0,001
-170,139	572,654	-0,010	0,018
-169,125	-200,000	-0,007	0,117
-168,110	-101,442	0,161	0,028
-167,096	-55,213	-0,036	0,012
-166,081	-200,000	-0,044	0,144
-165,066	-200,000	-0,017	0,084
-164,052	-200,000	0,010	0,122
-163,037	309,798	0,064	-0,087
-162,023	312,883	-0,084	0,115
-161,008	-139,066	-0,065	0,005
-159,993	-200,000	0,017	-0,135
-158,979	207,596	-0,116	-0,131
-157,964	14,538	-0,028	-0,016
-156,950	800,000	-0,015	-0,032
-155,935	-45,567	0,052	0,019
-154,920	-200,000	0,012	0,069
-153,906	-77,513	-0,068	0,017
-152,891	359,485	-0,057	0,084
-151,877	66,497	-0,089	0,065
-150,862	-94,793	-0,119	-0,023
-149,847	5,731	-0,039	-0,021
-148,833	-200,000	0,003	0,066
-147,818	-5,457	-0,083	0,041
-146,804	79,198	0,056	-0,043
-145,789	800,000	0,062	0,127
-144,775	59,065	-0,108	-0,077
-143,760	-200,000	0,002	-0,128
-142,745	222,317	-0,116	-0,136
-141,731	23,981	0,049	-0,030
-140,716	312,021	0,054	0,074
-139,702	800,000	0,053	0,157
-138,687	800,000	-0,084	0,190
-137,672	512,209	0,011	0,018
-136,658	285,335	0,011	-0,014
-135,643	-200,000	-0,003	-0,083
-134,629	130,880	0,022	0,021
-133,614	-63,897	0,012	0,003
-132,599	-200,000	0,040	0,192
-131,585	-200,000	0,027	0,127
-130,570	-60,627	-0,101	0,031
-129,556	800,000	-0,044	-0,117
-128,541	-153,825	-0,021	-0,001
-127,526	-185,183	-0,103	-0,001
-126,512	-10,177	0,113	0,054
-125,497	-33,527	0,102	0,041
-124,483	-200,000	-0,016	0,085
-123,468	-200,000	0,003	-0,043
-122,453	435,792	-0,032	0,050
-121,439	-65,411	-0,055	-0,016
-120,424	56,810	-0,019	-0,014
