DTS Sentinel unit serial number:	SN410029Multiplexer serial number:	ORYXHardware model number:	OX2-SRSoftware version number:	ORYX F/W v4,00 Oryx Data Collector v3.7.2.0data status	okinstallation	B6 Nyhavnadifferential loss correction	single-endedforward channel	channel 2reverse channel	N/Adate	2023/12/09time	23:45:08forward acquisition time	300,00reverse acquisition time	0,00gamma	499,1914k internal	0,3126k external	0,3126temperature offset calibration	1,0000default loss term (dB/km)	0,3820temperature slope calibration	1,0000multiplexer offset coefficient	1,0000multiplexer slope coefficient	1,0000fibre end	0,00T internal ref (°C)	21,75T ext. ref 1 (°C)	5,62T ext. ref 2 (°C)	5,60length (m)	temperature (°C)	Stokes	anti-Stokes-744,400	800,000	0,027	-0,059
-743,385	5,833	-0,186	0,102
-742,371	485,891	0,025	0,043
-741,356	70,655	-0,170	0,131
-740,342	-14,973	0,061	-0,029
-739,327	-54,394	-0,294	-0,099
-738,312	331,350	0,121	-0,175
-737,298	-110,665	-0,280	0,043
-736,283	-200,000	-0,002	0,033
-735,269	-24,240	-0,246	0,109
-734,254	167,876	-0,057	-0,060
-733,239	-106,563	-0,390	-0,064
-732,225	-22,570	0,110	-0,049
-731,210	75,068	-0,107	0,084
-730,196	-26,925	-0,090	-0,039
-729,181	-64,998	-0,201	0,060
-728,167	-36,619	-0,065	0,026
-727,152	-200,000	0,015	0,071
-726,137	-200,000	-0,030	0,116
-725,123	267,935	0,045	0,059
-724,108	60,415	-0,126	0,093
-723,094	800,000	-0,013	0,037
-722,079	-47,703	-0,065	0,023
-721,064	-62,124	0,101	-0,031
-720,050	-29,406	-0,102	0,043
-719,035	21,353	-0,108	0,065
-718,021	-150,656	0,092	-0,005
-717,006	800,000	0,044	-0,128
-715,991	-31,136	-0,104	-0,043
-714,977	171,072	-0,086	-0,092
-713,962	41,858	-0,088	-0,059
-712,948	-200,000	-0,002	-0,130
-711,933	238,375	0,052	0,065
-710,918	380,285	-0,046	-0,071
-709,904	-177,044	-0,133	0,002
-708,889	-7,438	0,090	0,045
-707,875	25,524	0,074	0,046
-706,860	-200,000	0,013	-0,210
-705,845	82,443	-0,079	-0,064
-704,831	-50,813	0,021	0,007
-703,816	-132,994	-0,056	-0,005
-702,802	800,000	0,030	-0,079
-701,787	10,541	-0,072	0,041
-700,772	-200,000	0,016	-0,092
-699,758	-200,000	-0,009	-0,045
-698,743	190,241	0,072	0,080
-697,729	-35,497	0,096	0,039
-696,714	-36,751	0,194	-0,077
-695,699	-200,000	0,025	-0,126
-694,685	313,345	-0,015	-0,021
-693,670	760,848	-0,056	-0,114
-692,656	-121,386	-0,096	-0,012
-691,641	328,502	0,038	0,054
-690,627	-100,335	0,106	0,019
-689,612	192,219	0,052	-0,058
-688,597	-170,384	-0,016	0,000
-687,583	-57,258	0,047	-0,015
-686,568	-200,000	0,047	-0,208
-685,554	-39,792	-0,095	-0,037
-684,539	431,471	-0,033	-0,053
-683,524	-12,786	0,099	-0,048
-682,510	-95,229	0,079	0,016
-681,495	45,595	-0,119	0,081
-680,481	-79,078	-0,138	0,035
-679,466	3,916	-0,014	-0,008
-678,451	800,000	0,040	0,094
-677,437	-5,262	-0,016	0,008
-676,422	-200,000	-0,030	-0,113
-675,408	-120,238	-0,061	-0,008
-674,393	-200,000	0,002	-0,070
-673,378	800,000	-0,018	-0,058
-672,364	-73,011	-0,101	-0,027
-671,349	7,747	-0,075	0,042
-670,335	-139,861	0,158	0,012
-669,320	333,834	0,135	0,194
-668,305	84,730	-0,093	0,075
-667,291	800,000	0,049	0,133
-666,276	-1,363	0,087	0,045
-665,262	800,000	-0,019	0,041
-664,247	-110,431	0,113	-0,017
-663,232	-200,000	-0,017	0,106
-662,218	-95,324	0,204	0,040
-661,203	800,000	-0,029	0,083
-660,189	-131,854	0,198	-0,019
-659,174	-45,458	-0,007	0,002
-658,159	800,000	0,051	-0,144
-657,145	-200,000	-0,035	-0,125
-656,130	110,783	0,071	0,064
-655,116	37,377	-0,045	-0,030
-654,101	-25,798	-0,020	-0,009
-653,086	90,626	-0,161	0,134
-652,072	-43,144	0,019	-0,007
-651,057	800,000	-0,018	0,042
-650,043	68,678	-0,043	0,032
-649,028	42,255	0,028	0,019
-648,014	435,559	0,031	0,049
-646,999	-200,000	-0,020	0,067
-645,984	800,000	-0,048	0,128
-644,970	-75,893	-0,111	-0,029
-643,955	800,000	-0,043	0,130
-642,941	64,677	-0,104	-0,077
-641,926	113,523	0,026	-0,024
-640,911	-47,807	0,040	0,014
-639,897	100,306	0,046	-0,039
-638,882	18,467	-0,048	0,029
-637,868	-200,000	-0,018	-0,118
-636,853	800,000	-0,030	0,064
-635,838	747,909	0,041	-0,083
-634,824	83,376	0,051	0,041
-633,809	-200,000	-0,000	-0,018
-632,795	800,000	0,017	-0,042
-631,780	800,000	-0,014	0,046
-630,765	541,879	0,034	0,060
-629,751	-200,000	0,014	-0,166
-628,736	-200,000	-0,022	-0,163
-627,722	-151,049	0,088	0,005
-626,707	53,895	0,075	-0,054
-625,692	800,000	0,029	0,066
-624,678	157,271	0,094	-0,097
-623,663	374,058	-0,026	-0,039
-622,649	564,052	-0,077	-0,138
-621,634	327,887	-0,062	-0,088
-620,619	-200,000	0,007	-0,027
-619,605	384,445	0,056	-0,086
-618,590	-63,070	0,235	-0,072
-617,576	517,378	-0,055	-0,096
-616,561	-200,000	0,021	-0,153
-615,546	536,175	0,043	-0,076
-614,532	62,781	0,085	0,063
-613,517	-200,000	-0,013	-0,057
-612,503	-89,510	-0,076	-0,016
-611,488	127,715	-0,072	-0,068
-610,474	-86,146	-0,025	0,006
-609,459	111,968	-0,123	-0,110
-608,444	83,382	-0,063	-0,051
-607,430	54,227	0,070	-0,050
-606,415	102,647	-0,064	-0,056
-605,401	773,804	0,040	-0,081
-604,386	-86,266	0,078	-0,018
-603,371	800,000	0,061	0,146
-602,357	-200,000	-0,016	0,193
-601,342	-21,668	0,071	-0,032
-600,328	-200,000	0,008	-0,085
-599,313	195,813	-0,084	-0,095
-598,298	-150,196	-0,037	-0,002
-597,284	800,000	0,016	0,047
-596,269	-21,303	-0,031	-0,014
-595,255	-200,000	0,004	0,088
-594,240	71,632	0,061	0,047
-593,225	-145,500	-0,221	-0,014
-592,211	-135,788	-0,045	-0,004
-591,196	800,000	-0,046	0,098
-590,182	535,701	-0,037	0,064
-589,167	428,129	0,116	0,186
-588,152	133,442	-0,114	0,109
-587,138	223,060	-0,047	0,056
-586,123	800,000	-0,045	-0,135
-585,109	265,490	-0,091	-0,118
-584,094	-85,909	-0,079	-0,018
-583,079	-77,437	-0,102	-0,026
-582,065	183,594	-0,066	0,072
-581,050	-200,000	-0,003	0,045
-580,036	315,237	0,034	-0,048
-579,021	30,949	0,050	0,032
-578,006	195,126	-0,079	0,089
-576,992	-51,687	0,069	-0,024
-575,977	-84,131	0,115	0,027
-574,963	-200,000	-0,006	0,034
-573,948	68,540	0,108	-0,081
-572,934	-200,000	-0,035	0,220
-571,919	-62,189	-0,051	0,016
-570,904	75,775	-0,129	-0,101
-569,890	95,219	0,048	-0,040
-568,875	139,923	0,026	0,025
-567,861	-166,017	-0,089	-0,003
-566,846	753,829	-0,020	-0,040
-565,831	-200,000	0,014	-0,064
-564,817	-200,000	0,023	-0,117
-563,802	-164,093	-0,201	-0,007
-562,788	800,000	-0,047	0,112
-561,773	-200,000	0,011	0,142
-560,758	-74,708	0,129	0,034
-559,744	-54,518	-0,071	0,023
-558,729	543,893	0,044	0,078
-557,715	-127,096	-0,126	-0,013
-556,700	-200,000	-0,001	-0,091
-555,685	83,453	0,070	0,056
-554,671	473,047	0,027	-0,045
-553,656	800,000	-0,015	-0,046
-552,642	-60,652	0,039	0,012
-551,627	138,157	-0,042	0,041
-550,612	-78,941	0,034	-0,009
-549,598	-71,636	-0,035	-0,010
-548,583	-200,000	-0,011	0,039
-547,569	-200,000	-0,001	0,088
-546,554	800,000	-0,019	0,059
-545,539	13,092	0,043	-0,024
-544,525	373,961	-0,046	0,070
-543,510	-29,803	0,037	-0,016
-542,496	800,000	-0,054	-0,151
-541,481	-136,487	-0,028	-0,002
-540,466	-200,000	-0,030	-0,134
-539,452	800,000	-0,010	0,029
-538,437	-18,342	-0,055	0,025
-537,423	-200,000	-0,006	0,127
-536,408	-200,000	-0,007	0,160
-535,393	-110,431	0,173	0,026
-534,379	800,000	0,015	0,042
-533,364	476,587	-0,038	-0,063
-532,350	-22,755	-0,088	0,039
-531,335	647,810	-0,012	-0,024
-530,321	-200,000	0,022	0,146
-529,306	800,000	-0,053	0,141
-528,291	800,000	0,045	0,132
-527,277	-200,000	-0,033	0,126
-526,262	-40,227	0,055	0,021
-525,248	-115,398	-0,097	0,013
-524,233	170,279	0,098	0,103
-523,218	0,717	0,123	0,065
-522,204	350,329	-0,005	-0,008
-521,189	495,267	-0,055	-0,094
-520,175	-200,000	-0,018	0,000
-519,160	-15,398	-0,056	0,026
-518,145	-68,891	0,153	0,043
-517,131	-57,503	-0,125	-0,040
-516,116	101,828	-0,133	-0,115
-515,102	-200,000	-0,018	-0,085
-514,087	800,000	-0,052	-0,138
-513,072	-200,000	-0,065	-0,323
-512,058	-69,485	-0,063	0,018
-511,043	800,000	-0,021	0,051
-510,029	-17,814	0,046	-0,021
-509,014	800,000	0,008	0,025
-507,999	-144,250	-0,125	0,008
-506,985	-87,564	-0,158	0,035
-505,970	-58,736	-0,122	-0,039
-504,956	108,820	-0,083	-0,073
-503,941	8,632	-0,110	0,061
-502,926	-172,998	-0,118	0,003
-501,912	186,118	-0,043	0,047
-500,897	105,222	-0,023	0,020
-499,883	-200,000	0,024	0,084
-498,868	800,000	-0,011	-0,031
-497,853	800,000	0,023	0,053
-496,839	38,573	-0,104	0,068
-495,824	-3,749	0,066	0,034
-494,810	263,386	0,036	-0,046
-493,795	781,111	-0,025	-0,051
-492,781	-200,000	-0,015	-0,075
-491,766	-91,664	-0,168	0,035
-490,751	-156,286	-0,091	0,004
-489,737	314,623	-0,009	-0,013
-488,722	-44,782	0,079	0,029
-487,708	800,000	0,058	0,127
-486,693	249,951	-0,041	0,052
-485,678	800,000	-0,036	-0,110
-484,664	-200,000	0,028	0,124
-483,649	-118,120	-0,102	-0,013
-482,635	-102,187	-0,027	-0,005
-481,620	-200,000	0,047	0,174
-480,605	143,901	0,015	0,015
-479,591	122,210	0,063	-0,058
-478,576	38,957	-0,121	0,080
-477,562	-200,000	-0,002	-0,106
-476,547	229,865	-0,149	-0,180
-475,532	735,963	0,080	-0,159
-474,518	800,000	-0,026	0,053
-473,503	559,983	0,030	-0,053
-472,489	114,635	0,050	0,045
-471,474	81,360	0,060	0,048
-470,459	-148,970	-0,112	-0,007
-469,445	800,000	-0,042	-0,133
-468,430	-200,000	0,040	-0,191
-467,416	81,818	0,116	0,093
-466,401	-70,730	0,140	-0,039
-465,386	-119,158	0,161	-0,020
-464,372	-200,000	0,016	0,065
-463,357	98,921	-0,131	0,111
-462,343	800,000	0,051	-0,104
-461,328	140,069	-0,019	-0,019
-460,313	-77,562	-0,082	-0,021
-459,299	264,813	0,066	0,085
-458,284	71,892	0,129	0,099
-457,270	523,114	0,094	0,164
-456,255	-200,000	0,018	-0,081
-455,241	-132,236	0,078	0,007
-454,226	8,301	0,052	-0,028
-453,211	-200,000	-0,025	-0,092
-452,197	73,010	-0,016	0,012
-451,182	107,097	0,031	-0,027
-450,168	29,663	-0,077	0,048
-449,153	-200,000	0,013	-0,063
-448,138	800,000	-0,037	0,092
-447,124	-8,865	-0,064	0,031
-446,109	-200,000	-0,029	-0,138
-445,095	215,660	-0,031	0,037
-444,080	800,000	0,034	0,071
-443,065	580,608	0,060	0,108
-442,051	-200,000	0,016	-0,071
-441,036	13,628	-0,199	-0,114
-440,022	-65,007	0,125	0,037
-439,007	-143,056	-0,097	0,007
-437,992	19,176	0,089	-0,052
-436,978	-200,000	0,026	0,119
-435,963	-200,000	0,026	0,110
-434,949	197,589	-0,064	-0,072
-433,934	323,802	0,047	-0,067
-432,919	143,588	0,055	0,054
-431,905	-120,731	-0,066	-0,008
-430,890	-182,445	0,157	-0,002
-429,876	-141,401	0,168	-0,012
-428,861	-108,081	0,024	-0,004
-427,846	157,191	-0,097	-0,099
-426,832	424,011	0,074	-0,117
-425,817	-96,177	-0,123	-0,024
-424,803	-200,000	-0,127	0,000
-423,788	527,596	0,014	-0,025
-422,773	-164,296	0,100	0,003
-421,759	-200,000	-0,001	0,085
-420,744	46,405	0,117	0,080
-419,730	350,053	-0,036	-0,053
-418,715	-121,943	-0,090	-0,011
-417,701	635,902	-0,021	0,039
-416,686	-200,000	0,024	0,097
-415,671	-52,515	-0,047	0,016
-414,657	32,330	0,042	-0,027
-413,642	-200,000	-0,030	0,126
-412,628	-56,205	0,150	0,049
-411,613	-200,000	0,013	-0,047
-410,598	-200,000	-0,004	-0,022
-409,584	-200,000	-0,018	-0,084
-408,569	800,000	0,042	0,119
-407,555	-112,766	-0,068	0,010
-406,540	-125,114	-0,047	0,005
-405,525	147,054	0,061	-0,060
-404,511	-23,823	-0,086	0,038
-403,496	454,993	-0,019	-0,030
-402,482	68,398	-0,031	0,024
-401,467	800,000	0,003	-0,009
-400,452	-16,325	-0,129	-0,060
-399,438	-200,000	0,013	-0,119
-398,423	-69,143	-0,124	-0,035
-397,409	-200,000	0,007	0,031
-396,394	-33,151	-0,081	0,033
-395,379	-200,000	-0,021	-0,069
-394,365	296,634	-0,013	-0,018
-393,350	-200,000	-0,001	0,010
-392,336	374,488	0,078	0,117
-391,321	26,786	-0,126	0,077
-390,306	-200,000	-0,028	-0,115
-389,292	-30,705	0,136	-0,056
-388,277	-200,000	0,007	0,034
-387,263	800,000	-0,029	0,069
-386,248	-28,036	0,130	-0,055
-385,233	800,000	0,023	0,059
-384,219	-144,295	0,156	-0,011
-383,204	268,518	-0,068	0,088
-382,190	-200,000	-0,002	-0,085
-381,175	233,541	0,051	-0,062
-380,160	-57,133	0,066	-0,021
-379,146	-20,976	-0,066	-0,030
-378,131	-200,000	-0,028	-0,122
-377,117	111,835	0,129	0,115
-376,102	800,000	-0,032	-0,068
-375,088	-65,174	-0,157	-0,046
-374,073	-200,000	-0,017	0,154
-373,058	620,248	0,085	0,157
-372,044	15,409	0,072	0,042
-371,029	800,000	-0,020	-0,060
-370,015	-200,000	0,005	0,068
-369,000	96,147	-0,014	-0,012
-367,985	102,469	0,132	-0,113
-366,971	800,000	0,056	-0,132
-365,956	-116,456	-0,184	0,025
-364,942	23,601	0,078	0,047
-363,927	132,417	0,134	0,127
-362,912	-65,486	-0,089	0,026
-361,898	-111,624	0,036	0,005
-360,883	150,573	0,006	-0,006
-359,869	244,738	-0,084	-0,104
-358,854	800,000	-0,053	0,123
-357,839	86,762	0,083	0,067
-356,825	55,635	0,122	0,087
-355,810	800,000	-0,020	0,046
-354,796	-100,710	-0,112	0,020
-353,781	48,371	0,116	-0,079
-352,766	-93,613	0,032	-0,006
-351,752	450,537	0,059	-0,096
-350,737	-200,000	0,016	0,064
-349,723	-92,307	-0,143	-0,029
-348,708	-25,442	-0,095	-0,041
-347,693	-84,607	0,200	-0,046
-346,679	-45,575	0,099	0,036
-345,664	800,000	-0,072	-0,152
-344,650	800,000	0,005	-0,015
-343,635	-125,434	0,047	0,005
-342,620	179,705	0,079	0,085
-341,606	151,191	-0,064	-0,064
-340,591	-200,000	-0,036	0,138
-339,577	36,489	-0,042	-0,027
-338,562	206,920	0,128	0,146
-337,548	5,034	-0,097	0,052
-336,533	306,425	0,061	0,084
-335,518	-29,786	0,008	0,004
-334,504	358,313	-0,013	-0,019
-333,489	-159,042	-0,157	-0,006
-332,475	14,975	-0,105	0,060
-331,460	-160,976	0,153	0,006
-330,445	-14,200	0,113	-0,053
-329,431	447,624	-0,028	-0,046
-328,416	-110,851	0,192	-0,029
-327,402	7,721	0,096	0,053
-326,387	-98,143	0,103	-0,019
-325,372	64,627	-0,054	0,040
-324,358	174,934	-0,156	-0,166
-323,343	-200,000	-0,004	-0,190
-322,329	36,693	0,055	-0,035
-321,314	-171,762	0,038	-0,001
-320,299	-9,525	-0,076	0,037
-319,285	800,000	-0,066	0,170
-318,270	163,972	0,046	0,047
-317,256	-200,000	0,002	-0,228
-316,241	-200,000	-0,010	0,099
-315,226	228,655	0,006	-0,007
-314,212	-178,859	-0,109	0,002
-313,197	-200,000	-0,006	-0,038
-312,183	1,450	-0,117	-0,061
-311,168	-68,125	0,057	-0,016
-310,153	184,582	-0,088	-0,096
-309,139	-74,222	0,145	0,038
-308,124	-200,000	0,015	-0,051
-307,110	436,419	-0,027	-0,044
-306,095	-10,283	-0,138	-0,067
-305,080	800,000	-0,009	0,019
-304,066	-55,349	-0,105	-0,034
-303,051	47,260	0,036	-0,024
-302,037	60,376	-0,020	-0,014
-301,022	-200,000	0,024	-0,093
-300,008	-200,000	0,007	0,106
-298,993	7,558	0,189	0,103
-297,978	-200,000	-0,035	0,145
-296,964	18,584	0,144	0,084
-295,949	194,228	-0,102	-0,113
-294,935	800,000	-0,030	-0,073
-293,920	800,000	-0,051	-0,123
-292,905	-83,035	-0,095	0,022
-291,891	-23,555	0,136	0,059
-290,876	-41,393	-0,098	0,037
-289,862	-157,566	0,132	0,006
-288,847	436,557	0,006	-0,009
-287,832	371,463	-0,063	0,094
-286,818	-112,736	-0,078	-0,011
-285,803	21,213	-0,100	-0,059
-284,789	-200,000	0,008	0,032
-283,774	-200,000	0,017	0,104
-282,759	-200,000	0,011	0,044
-281,745	800,000	0,059	0,148
-280,730	-110,337	-0,110	0,017
-279,716	-200,000	0,006	-0,103
-278,701	239,472	-0,020	0,025
-277,686	141,229	0,071	-0,069
-276,672	-115,503	0,092	-0,013
-275,657	800,000	0,065	-0,161
-274,643	-125,723	-0,095	-0,010
-273,628	-200,000	-0,009	0,038
-272,613	-200,000	0,020	0,115
-271,599	-126,858	0,187	-0,020
-270,584	800,000	-0,047	-0,096
-269,570	-200,000	0,028	0,096
-268,555	-18,273	0,092	0,042
-267,540	-200,000	-0,007	0,074
-266,526	223,366	0,076	-0,089
-265,511	454,527	0,022	-0,035
-264,497	-200,000	0,005	-0,136
-263,482	-200,000	-0,008	-0,067
-262,467	-10,334	-0,082	0,040
-261,453	-76,898	0,088	-0,022
-260,438	9,290	-0,058	-0,032
-259,424	800,000	-0,049	-0,115
-258,409	77,382	0,017	-0,013
-257,395	264,969	0,020	-0,025
-256,380	-64,951	-0,152	0,045
-255,365	787,856	0,008	-0,016
-254,351	68,887	-0,054	-0,041
-253,336	219,465	-0,029	0,033
-252,322	-94,273	-0,030	0,006
-251,307	110,687	0,060	-0,052
-250,292	800,000	0,027	-0,057
-249,278	-134,017	0,042	-0,004
-248,263	-200,000	-0,013	0,107
-247,249	219,977	0,036	0,042
-246,234	110,557	0,052	0,046
-245,219	222,918	-0,077	0,091
-244,205	-200,000	-0,001	-0,050
-243,190	-200,000	-0,018	0,092
-242,176	245,895	0,061	0,076
-241,161	-14,341	0,024	0,011
-240,146	-110,644	0,119	0,018
-239,132	-200,000	-0,008	-0,057
-238,117	533,467	-0,053	-0,093
-237,103	226,101	-0,052	-0,061
-236,088	-142,024	0,107	-0,008
-235,073	83,013	0,120	0,096
-234,059	-89,852	0,054	-0,011
-233,044	261,020	0,057	-0,072
-232,030	-32,130	-0,034	0,014
-231,015	34,432	0,076	-0,048
-230,000	80,161	0,106	0,083
-228,986	-88,545	0,061	-0,013
-227,971	-200,000	0,009	-0,058
-226,957	62,747	-0,043	0,031
-225,942	45,165	0,072	-0,048
-224,927	245,552	0,021	-0,026
-223,913	-186,526	0,061	0,001
-222,898	800,000	0,043	0,113
-221,884	800,000	-0,087	-0,211
-220,869	-80,818	0,123	0,030
-219,855	-101,302	-0,090	-0,016
-218,840	-200,000	-0,015	0,053
-217,825	-200,000	-0,011	-0,050
-216,811	-28,861	-0,022	-0,009
-215,796	-118,354	-0,128	-0,016
-214,782	672,347	0,065	0,123
-213,767	18,307	-0,118	-0,069
-212,752	640,874	-0,022	-0,042
-211,738	800,000	0,046	-0,143
-210,723	237,934	0,089	0,108
-209,709	-200,000	0,035	-0,178
-208,694	-200,000	-0,015	-0,057
-207,679	-200,000	-0,021	0,119
-206,665	-71,237	0,092	0,025
-205,650	800,000	0,048	-0,142
-204,636	-200,000	0,028	0,113
-203,621	-187,048	0,081	-0,001
-202,606	-12,047	-0,045	-0,021
-201,592	83,778	-0,085	0,068
-200,577	388,655	-0,102	-0,154
-199,563	503,818	0,104	-0,176
-198,548	800,000	0,017	-0,043
-197,533	-6,770	0,065	0,032
-196,519	800,000	0,034	-0,083
-195,504	-65,712	-0,146	0,042
-194,490	-115,780	0,024	-0,003
-193,475	200,675	-0,052	-0,058
-192,460	211,660	0,049	0,056
-191,446	-60,229	0,017	0,005
-190,431	7,839	0,130	-0,071
-189,417	-161,643	-0,099	0,004
-188,402	160,736	-0,007	0,007
-187,387	299,743	-0,072	0,098
-186,373	143,487	0,126	-0,122
-185,358	-92,726	-0,175	0,035
-184,344	-49,708	0,057	0,019
-183,329	-200,000	0,021	0,073
-182,315	-200,000	-0,006	0,140
-181,300	509,370	0,071	0,121
-180,285	536,154	0,035	-0,062
-179,271	-200,000	0,005	0,140
-178,256	-200,000	-0,019	0,075
-177,242	97,231	0,055	-0,046
-176,227	-65,175	0,056	0,016
-175,212	-200,000	-0,003	0,065
-174,198	546,728	-0,037	0,066
-173,183	800,000	-0,008	-0,016
-172,169	-5,828	-0,059	0,029
-171,154	373,764	0,033	0,049
-170,139	-129,848	-0,078	-0,008
-169,125	-200,000	-0,002	0,052
-168,110	359,606	0,031	0,045
-167,096	-200,000	-0,048	0,000
-166,081	-200,000	-0,043	-0,159
-165,066	561,340	-0,033	0,058
-164,052	-200,000	0,012	-0,080
-163,037	-200,000	-0,018	0,100
-162,023	29,122	0,205	0,126
-161,008	-89,424	0,166	0,035
-159,993	106,232	-0,026	-0,023
-158,979	-9,102	-0,044	0,021
-157,964	483,731	-0,004	-0,007
-156,950	-200,000	0,026	0,092
-155,935	37,750	0,133	-0,086
-154,920	-200,000	-0,012	0,187
-153,906	505,113	0,042	0,072
-152,891	-200,000	0,022	-0,124
-151,877	153,672	-0,038	0,038
-150,862	-68,384	0,010	0,003
-149,847	-139,395	0,109	-0,008
-148,833	-132,042	-0,087	0,008
-147,818	106,395	-0,108	0,093
-146,804	-93,373	0,041	-0,008
-145,789	800,000	0,068	-0,156
-144,775	0,853	-0,128	-0,067
-143,760	540,384	0,052	0,090
-142,745	-83,429	0,026	0,006
-141,731	566,548	0,055	-0,097
-140,716	-59,585	0,054	0,017
-139,702	-102,824	0,057	0,010
-138,687	800,000	0,016	-0,041
-137,672	72,331	0,066	-0,050
-136,658	179,275	-0,048	-0,051
-135,643	-55,250	-0,083	-0,027
-134,629	800,000	0,031	-0,086
-133,614	-26,851	0,015	0,006
-132,599	-137,951	0,258	-0,021
-131,585	-200,000	0,017	-0,069
-130,570	800,000	-0,031	-0,072
-129,556	-92,424	-0,054	0,011
-128,541	96,026	-0,066	-0,055
-127,526	421,374	-0,039	0,061
-126,512	-95,542	0,138	-0,027
-125,497	11,599	0,030	0,017
-124,483	800,000	0,026	-0,081
-123,468	800,000	0,044	-0,105
-122,453	-180,807	-0,050	0,001
-121,439	-200,000	0,017	0,056
-120,424	14,009	0,018	-0,010
-119,410	94,381	-0,088	-0,073
