DTS Sentinel unit serial number:	SN410029Multiplexer serial number:	ORYXHardware model number:	OX2-SRSoftware version number:	ORYX F/W v4,00 Oryx Data Collector v3.7.2.0data status	okinstallation	B6 Nyhavnadifferential loss correction	single-endedforward channel	channel 2reverse channel	N/Adate	2023/12/08time	01:50:08forward acquisition time	300,00reverse acquisition time	0,00gamma	499,1914k internal	0,3165k external	0,3165temperature offset calibration	1,0000default loss term (dB/km)	0,3820temperature slope calibration	1,0000multiplexer offset coefficient	1,0000multiplexer slope coefficient	1,0000fibre end	0,00T internal ref (°C)	13,22T ext. ref 1 (°C)	-3,65T ext. ref 2 (°C)	-3,65length (m)	temperature (°C)	Stokes	anti-Stokes-744,400	-136,055	0,108	0,009
-743,385	-188,894	-0,214	0,002
-742,371	-44,112	0,059	0,022
-741,356	191,539	-0,142	-0,157
-740,342	-200,000	-0,008	0,066
-739,327	-71,738	-0,108	0,029
-738,312	800,000	0,055	0,152
-737,298	-81,081	-0,276	-0,067
-736,283	-2,681	0,181	0,093
-735,269	-151,624	-0,437	0,023
-734,254	9,595	0,174	0,097
-733,239	-34,008	-0,504	-0,203
-732,225	-77,479	0,155	0,039
-731,210	-6,123	-0,036	-0,018
-730,196	299,629	-0,045	0,061
-729,181	43,234	0,169	-0,113
-728,167	14,048	-0,012	0,007
-727,152	-200,000	0,028	0,103
-726,137	-80,345	-0,061	-0,015
-725,123	349,002	-0,086	-0,126
-724,108	207,735	-0,085	-0,097
-723,094	800,000	-0,014	-0,033
-722,079	69,889	-0,088	-0,067
-721,064	147,429	-0,034	0,034
-720,050	127,133	-0,082	0,076
-719,035	688,854	-0,014	-0,026
-718,021	-200,000	-0,035	-0,169
-717,006	223,959	-0,094	-0,111
-715,991	113,147	-0,050	-0,045
-714,977	-77,238	0,047	-0,012
-713,962	-11,926	0,081	-0,039
-712,948	-29,542	-0,074	-0,031
-711,933	-200,000	-0,001	0,033
-710,918	-33,172	0,132	-0,054
-709,904	-200,000	-0,013	-0,139
-708,889	793,240	-0,018	-0,038
-707,875	40,207	0,073	-0,048
-706,860	-101,434	-0,118	-0,021
-705,845	73,569	-0,015	0,012
-704,831	800,000	0,056	0,122
-703,816	-115,487	0,121	0,017
-702,802	607,469	-0,055	0,101
-701,787	800,000	-0,053	-0,157
-700,772	-88,664	-0,088	-0,019
-699,758	-200,000	0,015	-0,145
-698,743	-14,937	0,112	-0,052
-697,729	-75,885	0,024	0,006
-696,714	29,797	0,127	0,079
-695,699	132,649	-0,119	-0,112
-694,685	-200,000	-0,020	-0,143
-693,670	524,109	0,013	-0,023
-692,656	677,317	0,022	-0,042
-691,641	-72,375	-0,033	0,009
-690,627	-200,000	0,041	0,137
-689,612	-200,000	-0,011	0,089
-688,597	-29,413	-0,137	-0,057
-687,583	-200,000	-0,068	-0,272
-686,568	-200,000	-0,029	-0,116
-685,554	-15,346	0,055	0,026
-684,539	-128,978	0,033	0,003
-683,524	-12,127	-0,010	-0,005
-682,510	-44,657	0,089	-0,032
-681,495	-200,000	-0,001	-0,032
-680,481	168,847	-0,068	-0,071
-679,466	800,000	-0,018	-0,037
-678,451	-92,780	-0,133	0,027
-677,437	-200,000	0,007	-0,024
-676,422	18,020	0,068	0,040
-675,408	23,541	0,025	0,015
-674,393	800,000	0,041	-0,105
-673,378	126,879	-0,087	0,081
-672,364	70,221	-0,047	0,035
-671,349	-31,139	-0,079	-0,033
-670,335	-200,000	-0,057	-0,285
-669,320	800,000	0,046	-0,095
-668,305	-44,786	-0,080	-0,029
-667,291	285,239	0,052	-0,068
-666,276	-81,348	-0,122	-0,029
-665,262	-36,363	-0,145	-0,057
-664,247	-104,933	-0,034	0,006
-663,232	-200,000	0,011	0,041
-662,218	709,681	-0,035	-0,068
-661,203	-200,000	0,004	-0,014
-660,189	111,770	-0,027	-0,024
-659,174	16,811	-0,071	-0,041
-658,159	-4,998	-0,024	-0,012
-657,145	800,000	-0,033	0,069
-656,130	-57,685	-0,035	-0,011
-655,116	-200,000	-0,003	0,037
-654,101	323,139	-0,088	0,123
-653,086	-15,671	0,105	-0,049
-652,072	-200,000	-0,048	-0,193
-651,057	-29,199	-0,169	-0,071
-650,043	63,561	0,127	-0,094
-649,028	-200,000	0,006	-0,061
-648,014	-101,700	0,093	-0,016
-646,999	156,848	0,051	-0,051
-645,984	-149,850	-0,059	-0,003
-644,970	-128,054	0,036	-0,004
-643,955	216,507	0,089	-0,104
-642,941	-10,673	0,063	-0,031
-641,926	-24,920	0,075	-0,032
-640,911	-200,000	0,030	0,185
-639,897	102,843	-0,012	-0,010
-638,882	-3,764	-0,107	0,054
-637,868	-35,020	-0,042	0,017
-636,853	90,363	-0,079	-0,064
-635,838	-155,637	-0,014	-0,001
-634,824	252,152	-0,093	0,117
-633,809	800,000	-0,015	0,037
-632,795	70,098	0,159	0,120
-631,780	-66,965	-0,087	0,025
-630,765	-170,899	-0,083	-0,002
-629,751	-110,920	-0,238	-0,036
-628,736	33,041	-0,007	0,004
-627,722	-83,853	-0,014	-0,003
-626,707	118,234	-0,020	-0,018
-625,692	159,586	-0,070	0,071
-624,678	-200,000	-0,010	0,043
-623,663	-200,000	-0,013	-0,144
-622,649	-200,000	0,024	-0,082
-621,634	-200,000	0,004	-0,089
-620,619	-133,083	-0,012	0,001
-619,605	-122,452	0,058	-0,007
-618,590	28,719	-0,066	-0,041
-617,576	10,884	0,101	0,056
-616,561	800,000	-0,036	0,103
-615,546	-200,000	-0,023	-0,075
-614,532	112,624	-0,145	-0,128
-613,517	-108,647	0,081	-0,013
-612,503	126,483	-0,013	-0,012
-611,488	-176,986	0,077	-0,001
-610,474	353,193	-0,029	-0,043
-609,459	125,557	-0,147	-0,135
-608,444	-34,295	0,121	-0,048
-607,430	-200,000	-0,021	-0,214
-606,415	-88,964	0,144	0,031
-605,401	-200,000	-0,001	0,042
-604,386	-200,000	-0,009	-0,107
-603,371	359,771	-0,041	-0,059
-602,357	800,000	-0,060	-0,158
-601,342	-200,000	-0,029	-0,166
-600,328	-200,000	0,025	-0,109
-599,313	-55,714	0,032	-0,010
-598,298	-36,340	0,042	0,017
-597,284	585,785	0,033	0,060
-596,269	800,000	-0,023	-0,048
-595,255	102,118	-0,017	-0,015
-594,240	413,540	-0,032	0,050
-593,225	800,000	-0,023	-0,048
-592,211	71,437	-0,073	-0,055
-591,196	-200,000	-0,006	0,083
-590,182	-120,093	0,121	-0,015
-589,167	306,629	-0,052	0,071
-588,152	-200,000	-0,001	0,134
-587,138	267,381	-0,010	-0,013
-586,123	192,199	-0,119	-0,132
-585,109	-123,758	0,011	0,001
-584,094	308,497	0,044	0,060
-583,079	-200,000	0,018	0,075
-582,065	-200,000	-0,003	0,053
-581,050	-200,000	-0,005	-0,082
-580,036	-116,295	-0,160	-0,021
-579,021	45,730	0,088	-0,059
-578,006	660,550	-0,118	-0,222
-576,992	14,308	-0,060	-0,034
-575,977	800,000	0,044	0,102
-574,963	800,000	0,020	-0,061
-573,948	800,000	-0,044	-0,131
-572,934	-25,945	0,069	-0,030
-571,919	4,889	-0,116	-0,062
-570,904	800,000	-0,029	-0,090
-569,890	-200,000	0,012	-0,101
-568,875	-200,000	0,026	-0,096
-567,861	-200,000	-0,003	0,118
-566,846	-39,592	-0,089	0,034
-565,831	122,486	0,027	-0,025
-564,817	-128,956	-0,102	-0,010
-563,802	800,000	-0,097	-0,201
-562,788	138,794	-0,047	-0,045
-561,773	17,240	0,120	-0,070
-560,758	800,000	-0,034	-0,075
-559,744	-13,280	-0,039	-0,018
-558,729	800,000	-0,050	0,110
-557,715	355,474	-0,076	-0,111
-556,700	-200,000	-0,028	-0,161
-555,685	800,000	0,044	-0,096
-554,671	-118,160	0,108	0,014
-553,656	623,012	0,035	0,065
-552,642	7,162	-0,106	-0,057
-551,627	-104,126	0,069	0,012
-550,612	241,433	-0,044	-0,054
-549,598	-200,000	0,003	-0,040
-548,583	-41,222	-0,003	-0,001
-547,569	-42,618	-0,122	0,045
-546,554	236,013	0,032	0,038
-545,539	-200,000	-0,032	-0,119
-544,525	77,226	0,105	0,081
-543,510	800,000	-0,027	0,082
-542,496	-7,093	-0,013	-0,007
-541,481	14,306	0,061	0,035
-540,466	-154,117	0,020	-0,001
-539,452	27,038	-0,061	0,037
-538,437	-99,655	0,036	0,006
-537,423	-73,138	-0,119	-0,032
-536,408	-200,000	-0,053	-0,174
-535,393	-182,916	-0,091	-0,001
-534,379	-150,813	0,080	0,004
-533,364	-18,207	0,018	-0,008
-532,350	800,000	-0,072	0,157
-531,335	800,000	0,046	0,123
-530,321	-200,000	-0,015	0,072
-529,306	361,673	-0,036	-0,053
-528,291	-126,251	-0,048	-0,005
-527,277	-200,000	0,024	-0,175
-526,262	-67,337	-0,062	-0,018
-525,248	153,850	0,076	-0,076
-524,233	325,271	-0,088	0,124
-523,218	-200,000	-0,011	-0,040
-522,204	-200,000	-0,004	-0,029
-521,189	-30,087	-0,087	0,036
-520,175	15,565	-0,040	-0,023
-519,160	-82,009	0,063	0,015
-518,145	-15,696	0,093	0,043
-517,131	-90,824	-0,069	-0,014
-516,116	-200,000	0,019	0,085
-515,102	800,000	0,044	0,102
-514,087	642,606	-0,045	-0,084
-513,072	389,138	-0,055	0,083
-512,058	755,584	-0,065	0,129
-511,043	78,880	-0,186	0,145
-510,029	-138,516	0,230	-0,018
-509,014	800,000	0,036	-0,087
-507,999	266,164	0,051	0,065
-506,985	-80,768	-0,148	-0,036
-505,970	-200,000	-0,024	-0,081
-504,956	-90,823	0,020	-0,004
-503,941	271,903	-0,031	0,040
-502,926	800,000	-0,040	0,093
-501,912	262,142	0,095	0,120
-500,897	263,190	-0,040	0,051
-499,883	12,963	0,070	-0,040
-498,868	38,382	-0,065	-0,042
-497,853	-19,737	0,093	-0,042
-496,839	116,136	-0,068	-0,061
-495,824	63,927	0,070	-0,051
-494,810	66,402	0,055	-0,040
-493,795	-200,000	0,027	-0,174
-492,781	-107,823	-0,157	-0,025
-491,766	-35,858	-0,050	0,020
-490,751	-200,000	-0,016	-0,113
-489,737	221,513	0,041	-0,049
-488,722	473,731	0,024	-0,039
-487,708	-17,939	0,070	-0,032
-486,693	-200,000	-0,015	0,212
-485,678	-31,236	-0,073	0,030
-484,664	-1,407	0,084	0,043
-483,649	357,569	0,050	-0,072
-482,635	800,000	-0,061	-0,160
-481,620	800,000	-0,010	0,028
-480,605	17,912	0,045	0,026
-479,591	26,875	0,065	0,039
-478,576	-200,000	0,004	0,034
-477,562	-200,000	0,019	-0,067
-476,547	-66,847	-0,049	-0,014
-475,532	800,000	-0,034	-0,078
-474,518	674,722	-0,025	-0,047
-473,503	-99,418	0,059	-0,011
-472,489	36,451	-0,048	0,031
-471,474	-200,000	-0,012	0,118
-470,459	49,187	-0,109	-0,075
-469,445	800,000	0,041	-0,084
-468,430	-82,379	-0,079	0,018
-467,416	-127,447	0,018	-0,002
-466,401	-200,000	-0,014	0,061
-465,386	89,599	-0,138	0,112
-464,372	800,000	0,034	-0,089
-463,357	55,485	-0,067	-0,047
-462,343	-30,587	0,063	0,026
-461,328	392,187	0,032	0,049
-460,313	-143,568	0,063	-0,004
-459,299	-200,000	0,011	0,152
-458,284	91,536	-0,071	-0,058
-457,270	142,505	-0,021	-0,020
-456,255	109,026	-0,053	-0,046
-455,241	3,310	-0,109	0,057
-454,226	-200,000	0,018	0,129
-453,211	522,057	-0,090	0,155
-452,197	-13,703	0,061	0,029
-451,182	-74,771	0,026	0,007
-450,168	-105,540	-0,072	0,012
-449,153	-20,611	-0,129	-0,057
-448,138	-200,000	0,002	-0,105
-447,124	-58,403	-0,044	0,014
-446,109	436,978	-0,027	-0,042
-445,095	-141,728	0,177	0,013
-444,080	800,000	-0,034	0,071
-443,065	800,000	0,029	0,061
-442,051	800,000	0,042	0,088
-441,036	-200,000	0,016	-0,071
-440,022	274,414	-0,027	0,034
-439,007	800,000	0,024	-0,055
-437,992	84,985	0,105	-0,083
-436,978	-200,000	0,006	0,037
-435,963	283,215	-0,072	0,095
-434,949	-40,628	-0,034	-0,013
-433,934	681,072	0,102	-0,195
-432,919	9,667	-0,079	-0,044
-431,905	254,671	-0,037	-0,046
-430,890	800,000	0,034	-0,085
-429,876	-172,883	0,055	0,001
-428,861	73,808	0,092	0,070
-427,846	-200,000	0,011	0,098
-426,832	476,112	0,052	0,085
-425,817	-200,000	-0,023	-0,127
-424,803	726,254	-0,066	-0,128
-423,788	-200,000	-0,005	-0,018
-422,773	-200,000	0,002	0,015
-421,759	77,997	0,050	0,039
-420,744	-99,034	0,092	0,017
-419,730	58,843	-0,059	-0,042
-418,715	561,840	-0,066	-0,116
-417,701	-149,323	0,074	-0,004
-416,686	-39,341	0,089	-0,034
-415,671	495,190	0,028	0,047
-414,657	170,350	-0,026	-0,027
-413,642	-200,000	-0,006	0,035
-412,628	9,648	-0,005	-0,003
-411,613	132,146	-0,128	-0,120
-410,598	-200,000	-0,006	0,050
-409,584	225,332	0,099	-0,116
-408,569	-6,748	-0,034	0,017
-407,555	-127,065	0,114	0,012
-406,540	800,000	-0,017	-0,053
-405,525	800,000	0,016	-0,041
-404,511	-166,550	-0,212	0,006
-403,496	-200,000	0,004	-0,078
-402,482	-200,000	0,017	-0,066
-401,467	137,611	0,031	0,030
-400,452	-200,000	-0,006	0,110
-399,438	-68,676	-0,210	0,059
-398,423	-82,446	-0,052	-0,012
-397,409	-200,000	-0,037	-0,124
-396,394	406,922	-0,047	-0,072
-395,379	800,000	0,024	0,069
-394,365	4,309	0,077	-0,041
-393,350	-129,084	0,023	-0,002
-392,336	-7,568	-0,137	0,067
-391,321	789,727	0,045	0,091
-390,306	477,855	0,004	-0,007
-389,292	800,000	0,019	-0,040
-388,277	-200,000	0,008	-0,078
-387,263	32,066	0,043	0,027
-386,248	800,000	0,028	-0,060
-385,233	214,008	0,144	0,165
-384,219	-178,067	-0,033	0,001
-383,204	285,643	-0,085	-0,112
-382,190	16,332	-0,034	-0,019
-381,175	800,000	0,051	0,127
-380,160	147,849	-0,115	0,112
-379,146	26,519	-0,100	0,061
-378,131	-76,018	-0,045	0,011
-377,117	136,569	-0,027	0,026
-376,102	240,317	-0,026	0,032
-375,088	12,774	-0,097	-0,054
-374,073	-135,881	-0,052	-0,004
-373,058	-59,404	0,165	-0,051
-372,044	99,643	0,065	-0,055
-371,029	-54,509	-0,083	-0,027
-370,015	376,555	0,041	0,061
-369,000	800,000	0,028	0,083
-367,985	430,489	0,071	-0,112
-366,971	5,110	0,034	-0,018
-365,956	181,991	-0,012	-0,013
-364,942	241,443	0,053	-0,064
-363,927	136,294	-0,099	0,094
-362,912	-200,000	-0,005	0,071
-361,898	-200,000	-0,019	-0,061
-360,883	-43,402	-0,005	0,002
-359,869	800,000	0,026	-0,066
-358,854	-127,234	0,104	0,011
-357,839	-200,000	0,005	0,057
-356,825	-200,000	-0,001	0,013
-355,810	-200,000	-0,037	0,189
-354,796	318,837	0,036	0,050
-353,781	75,748	0,020	-0,015
-352,766	265,977	0,045	-0,057
-351,752	59,639	0,021	-0,015
-350,737	-200,000	-0,004	-0,118
-349,723	800,000	-0,044	0,118
-348,708	405,326	0,027	0,041
-347,693	125,769	0,092	0,084
-346,679	304,480	-0,022	0,030
-345,664	800,000	-0,037	-0,086
-344,650	800,000	0,023	0,061
-343,635	-133,250	0,027	0,002
-342,620	82,669	-0,100	0,078
-341,606	800,000	-0,025	0,062
-340,591	53,838	-0,125	-0,087
-339,577	-27,628	0,011	0,005
-338,562	267,916	0,016	-0,021
-337,548	800,000	-0,026	-0,058
-336,533	800,000	0,023	0,072
-335,518	-39,635	0,091	0,034
-334,504	713,205	0,059	0,113
-333,489	-27,702	-0,064	-0,027
-332,475	-16,474	0,020	-0,009
-331,460	-200,000	-0,006	-0,190
-330,445	-39,141	0,073	0,027
-329,431	81,714	0,154	0,121
-328,416	-1,282	-0,051	0,026
-327,402	-117,976	-0,018	0,002
-326,387	25,260	-0,047	0,028
-325,372	42,038	-0,042	-0,028
-324,358	183,638	-0,075	-0,080
-323,343	-200,000	-0,004	0,145
-322,329	-200,000	-0,005	-0,056
-321,314	-47,425	-0,044	0,015
-320,299	60,726	-0,016	-0,012
-319,285	715,712	0,048	-0,092
-318,270	-200,000	0,002	0,043
-317,256	-116,171	-0,114	-0,015
-316,241	230,539	-0,021	0,025
-315,226	800,000	-0,065	0,135
-314,212	800,000	0,055	0,124
-313,197	330,598	0,014	-0,020
-312,183	-200,000	0,002	-0,019
-311,168	108,838	-0,057	0,049
-310,153	259,012	-0,044	-0,055
-309,139	2,054	0,028	0,014
-308,124	74,535	0,063	-0,048
-307,110	204,067	-0,054	0,061
-306,095	244,655	-0,094	0,114
-305,080	368,647	0,027	-0,039
-304,066	436,895	-0,015	-0,024
-303,051	-34,381	0,213	-0,084
-302,037	-12,607	0,023	0,011
-301,022	49,729	0,098	0,067
-300,008	-71,486	0,080	-0,021
-298,993	42,295	0,086	0,056
-297,978	-200,000	0,002	0,131
-296,964	20,411	-0,095	-0,055
-295,949	28,409	0,053	0,032
-294,935	448,736	0,065	0,104
-293,920	363,667	0,112	-0,164
-292,905	-7,042	-0,096	-0,047
-291,891	800,000	-0,032	-0,070
-290,876	-200,000	-0,012	0,073
-289,862	130,976	0,026	0,024
-288,847	-126,159	-0,099	0,011
-287,832	214,699	-0,102	-0,117
-286,818	41,436	0,054	0,035
-285,803	-40,054	0,104	0,039
-284,789	-72,978	0,073	-0,019
-283,774	-120,584	-0,064	0,008
-282,759	-13,382	0,081	0,038
-281,745	-181,762	0,070	-0,001
-280,730	-200,000	-0,005	-0,042
-279,716	-66,052	0,086	-0,025
-278,701	-104,690	0,128	0,021
-277,686	-200,000	-0,007	-0,113
-276,672	617,614	-0,056	0,102
-275,657	-200,000	0,008	-0,055
-274,643	800,000	0,009	-0,026
-273,628	-129,629	0,153	0,015
-272,613	498,307	-0,041	0,068
-271,599	800,000	0,050	0,101
-270,584	-33,437	0,157	-0,062
-269,570	-130,776	-0,086	0,008
-268,555	134,598	0,128	0,120
-267,540	-200,000	0,005	-0,070
-266,526	-200,000	0,016	-0,067
-265,511	-200,000	-0,003	0,031
-264,497	430,731	-0,045	0,070
-263,482	139,352	0,055	0,052
-262,467	-200,000	-0,021	0,094
-261,453	-200,000	0,001	-0,135
-260,438	-200,000	0,006	-0,040
-259,424	-60,077	0,105	-0,032
-258,409	-200,000	-0,019	0,091
-257,395	-45,755	0,009	0,003
-256,380	-124,366	0,083	-0,009
-255,365	800,000	0,022	0,060
-254,351	-42,209	0,093	0,034
-253,336	-44,791	-0,083	0,030
-252,322	-91,803	-0,048	-0,010
-251,307	170,841	0,033	0,034
-250,292	343,543	0,078	-0,111
-249,278	-200,000	0,008	0,074
-248,263	-200,000	-0,007	-0,085
-247,249	-200,000	0,003	-0,040
-246,234	4,914	-0,036	-0,019
-245,219	-136,502	0,056	-0,005
-244,205	-81,748	-0,068	-0,016
-243,190	-43,983	0,188	-0,068
-242,176	206,102	0,112	0,126
-241,161	37,124	0,081	0,052
-240,146	-128,906	-0,079	-0,008
-239,132	263,699	-0,030	0,038
-238,117	-33,230	-0,109	-0,043
-237,103	800,000	0,038	0,096
-236,088	190,623	0,083	0,090
-235,073	-200,000	0,013	-0,050
-234,059	21,611	-0,044	0,026
-233,044	-56,197	0,117	0,037
-232,030	-200,000	0,022	0,162
-231,015	800,000	-0,049	0,113
-230,000	315,555	-0,064	-0,087
-228,986	141,922	-0,072	0,069
-227,971	-200,000	0,039	0,194
-226,957	-46,781	-0,138	-0,048
-225,942	10,460	0,026	0,014
-224,927	47,235	0,081	0,054
-223,913	800,000	0,015	-0,034
-222,898	92,163	0,020	-0,017
-221,884	189,076	0,036	-0,039
-220,869	108,490	0,080	0,069
-219,855	800,000	-0,043	0,133
-218,840	-18,335	-0,060	0,027
-217,825	-130,736	-0,076	-0,007
-216,811	-200,000	-0,002	-0,022
-215,796	86,635	0,035	0,028
-214,782	-200,000	-0,022	0,116
-213,767	40,550	0,127	0,082
-212,752	-133,254	0,048	-0,004
-211,738	-200,000	-0,016	-0,137
-210,723	-200,000	-0,029	0,093
-209,709	-163,521	-0,059	0,002
-208,694	-200,000	-0,008	-0,086
-207,679	623,010	-0,051	0,093
-206,665	206,514	0,064	0,072
-205,650	-200,000	-0,001	0,034
-204,636	800,000	0,035	0,105
-203,621	-115,459	0,035	0,005
-202,606	-87,421	-0,065	0,014
-201,592	-200,000	0,010	-0,116
-200,577	-16,996	0,062	0,028
-199,563	-200,000	0,025	-0,110
-198,548	-200,000	-0,006	0,124
-197,533	584,273	0,098	0,173
-196,519	-200,000	-0,000	0,178
-195,504	98,454	-0,050	0,042
-194,490	-200,000	-0,003	-0,098
-193,475	-25,224	0,101	0,043
-192,460	-99,421	0,012	0,002
-191,446	800,000	0,032	-0,076
-190,431	-93,407	0,137	0,027
-189,417	-5,949	0,058	-0,029
-188,402	-200,000	0,003	-0,122
-187,387	-200,000	0,001	-0,034
-186,373	209,886	0,120	0,136
-185,358	-53,858	-0,049	0,016
-184,344	800,000	0,034	0,080
-183,329	-140,533	0,101	0,007
-182,315	-85,486	0,062	-0,014
-181,300	-200,000	-0,001	0,048
-180,285	-181,202	-0,076	-0,001
-179,271	96,712	-0,048	-0,040
-178,256	-56,422	0,027	0,009
-177,242	-150,471	0,041	-0,002
-176,227	800,000	0,041	0,103
-175,212	-200,000	0,000	0,014
-174,198	-200,000	-0,014	-0,095
-173,183	410,459	0,051	-0,078
-172,169	165,652	-0,043	-0,044
-171,154	117,220	-0,125	0,110
-170,139	-78,904	0,112	0,027
-169,125	40,449	0,075	0,048
-168,110	800,000	-0,029	0,073
-167,096	-200,000	0,002	0,077
-166,081	144,762	-0,041	-0,040
-165,066	-200,000	0,007	-0,112
-164,052	-64,952	-0,153	-0,044
-163,037	-82,884	-0,119	0,027
-162,023	-10,952	0,090	-0,043
-161,008	800,000	-0,029	0,093
-159,993	-104,554	-0,041	0,007
-158,979	-200,000	0,032	-0,124
-157,964	-200,000	-0,028	0,105
-156,950	-200,000	0,025	-0,120
-155,935	800,000	0,013	0,027
-154,920	774,536	-0,038	0,076
-153,906	-60,238	0,159	0,048
-152,891	19,743	-0,108	-0,062
-151,877	-23,275	-0,033	0,014
-150,862	-124,951	-0,138	0,015
-149,847	-48,729	-0,140	0,048
-148,833	629,181	0,073	-0,132
-147,818	-200,000	0,010	0,034
-146,804	-200,000	0,013	-0,052
-145,789	-144,361	0,062	-0,004
-144,775	-161,044	0,059	0,002
-143,760	-200,000	-0,020	-0,068
-142,745	124,409	0,056	-0,051
-141,731	800,000	0,047	0,096
-140,716	243,706	0,048	-0,058
-139,702	303,583	0,014	0,018
-138,687	-126,785	-0,092	0,010
-137,672	-200,000	-0,001	-0,092
-136,658	-200,000	0,012	-0,057
-135,643	246,541	-0,057	0,069
-134,629	-200,000	0,001	0,030
-133,614	-12,957	-0,036	0,017
-132,599	-200,000	0,010	0,043
-131,585	63,331	0,080	-0,058
-130,570	144,737	0,051	-0,049
-129,556	-105,837	0,043	-0,007
-128,541	-200,000	0,001	-0,071
-127,526	27,570	0,018	-0,011
-126,512	-61,701	0,092	0,027
-125,497	208,580	0,111	0,124
-124,483	-116,655	0,088	-0,011
-123,468	-185,111	-0,107	-0,001
-122,453	573,898	-0,061	0,107
-121,439	163,389	-0,114	0,115
-120,424	-200,000	0,025	-0,090
