DTS Sentinel unit serial number:	SN410029Multiplexer serial number:	ORYXHardware model number:	OX2-SRSoftware version number:	ORYX F/W v4,00 Oryx Data Collector v3.7.2.0data status	okinstallation	B6 Nyhavnadifferential loss correction	single-endedforward channel	channel 2reverse channel	N/Adate	2023/12/08time	00:15:08forward acquisition time	300,00reverse acquisition time	0,00gamma	499,1914k internal	0,3165k external	0,3165temperature offset calibration	1,0000default loss term (dB/km)	0,3820temperature slope calibration	1,0000multiplexer offset coefficient	1,0000multiplexer slope coefficient	1,0000fibre end	0,00T internal ref (°C)	13,37T ext. ref 1 (°C)	-3,59T ext. ref 2 (°C)	-3,58length (m)	temperature (°C)	Stokes	anti-Stokes-744,400	-200,000	-0,010	0,115
-743,385	-75,356	-0,278	0,072
-742,371	477,268	0,106	0,177
-741,356	-173,786	-0,407	-0,009
-740,342	-90,588	0,189	0,040
-739,327	-190,812	-0,307	-0,002
-738,312	38,304	0,141	0,092
-737,298	-100,699	-0,409	-0,073
-736,283	59,671	0,208	0,151
-735,269	-176,313	-0,343	-0,006
-734,254	70,452	0,134	0,102
-733,239	-100,368	-0,493	-0,089
-732,225	800,000	0,017	-0,041
-731,210	87,328	0,008	0,006
-730,196	-200,000	0,005	-0,043
-729,181	4,720	-0,067	-0,036
-728,167	-21,101	0,041	-0,019
-727,152	-200,000	0,005	0,040
-726,137	592,920	-0,038	-0,070
-725,123	-20,363	-0,186	-0,084
-724,108	-109,477	-0,253	-0,039
-723,094	-83,951	-0,085	0,020
-722,079	-200,000	0,021	0,101
-721,064	-9,982	0,072	-0,035
-720,050	33,308	0,018	-0,012
-719,035	-115,260	-0,071	0,010
-718,021	178,040	0,083	-0,090
-717,006	205,991	-0,063	-0,073
-715,991	304,475	-0,035	-0,047
-714,977	485,315	-0,060	-0,101
-713,962	226,878	0,082	-0,097
-712,948	-200,000	0,007	-0,104
-711,933	800,000	-0,006	-0,014
-710,918	-87,752	-0,109	-0,024
-709,904	-200,000	-0,014	-0,097
-708,889	160,775	-0,028	-0,029
-707,875	62,131	0,022	0,016
-706,860	-200,000	-0,007	-0,066
-705,845	-200,000	-0,016	-0,121
-704,831	-94,667	0,130	-0,026
-703,816	800,000	0,027	-0,064
-702,802	-59,246	-0,119	-0,038
-701,787	81,226	-0,064	-0,051
-700,772	267,222	-0,078	-0,100
-699,758	-48,871	0,246	-0,086
-698,743	-200,000	-0,009	-0,070
-697,729	-200,000	0,002	-0,051
-696,714	-65,518	-0,077	-0,022
-695,699	-64,296	-0,259	-0,077
-694,685	167,082	-0,088	-0,092
-693,670	512,806	-0,011	-0,019
-692,656	-33,509	-0,050	0,020
-691,641	800,000	0,023	-0,059
-690,627	733,657	-0,040	0,078
-689,612	654,960	0,021	0,039
-688,597	800,000	-0,015	-0,032
-687,583	179,105	-0,066	-0,071
-686,568	450,769	-0,065	-0,105
-685,554	58,549	0,077	-0,055
-684,539	-200,000	-0,004	0,021
-683,524	19,752	0,210	0,123
-682,510	398,289	-0,081	0,124
-681,495	17,755	-0,042	0,024
-680,481	76,027	-0,129	-0,100
-679,466	-64,096	-0,050	0,015
-678,451	-200,000	-0,015	0,061
-677,437	-25,544	0,080	-0,035
-676,422	86,560	0,081	-0,065
-675,408	-200,000	-0,005	0,129
-674,393	-108,335	-0,080	-0,013
-673,378	-40,450	-0,086	-0,033
-672,364	-100,713	0,017	-0,003
-671,349	-124,220	-0,058	0,007
-670,335	-68,659	-0,093	-0,026
-669,320	-84,457	0,025	-0,006
-668,305	18,300	-0,031	0,018
-667,291	-79,972	-0,063	0,015
-666,276	-78,765	0,040	0,010
-665,262	126,941	-0,061	-0,057
-664,247	120,676	-0,087	0,079
-663,232	126,217	0,140	0,130
-662,218	-43,532	0,076	-0,028
-661,203	800,000	-0,029	0,071
-660,189	-200,000	0,001	0,062
-659,174	0,334	-0,032	-0,017
-658,159	-200,000	-0,006	-0,034
-657,145	-32,741	-0,174	0,071
-656,130	-70,907	0,108	0,030
-655,116	-200,000	0,002	0,008
-654,101	-28,974	-0,140	-0,059
-653,086	-200,000	0,008	-0,084
-652,072	-200,000	-0,002	0,025
-651,057	200,739	-0,085	-0,096
-650,043	-113,711	-0,081	0,012
-649,028	196,255	-0,064	0,071
-648,014	-106,632	-0,150	0,024
-646,999	359,080	0,063	0,092
-645,984	90,959	-0,074	0,061
-644,970	-145,172	0,011	-0,001
-643,955	9,938	0,046	-0,025
-642,941	-200,000	0,001	0,044
-641,926	-200,000	-0,010	0,116
-640,911	330,857	-0,035	0,049
-639,897	12,274	0,102	-0,057
-638,882	554,034	0,061	0,108
-637,868	800,000	-0,019	-0,042
-636,853	756,610	-0,047	-0,094
-635,838	247,969	-0,064	-0,080
-634,824	660,136	0,073	-0,138
-633,809	207,696	0,055	-0,063
-632,795	183,925	0,011	0,012
-631,780	221,354	-0,077	0,091
-630,765	306,966	0,067	-0,091
-629,751	17,845	-0,131	-0,076
-628,736	-100,681	-0,152	0,027
-627,722	139,857	-0,047	0,045
-626,707	-154,379	-0,124	-0,006
-625,692	800,000	0,052	0,154
-624,678	39,641	-0,056	-0,036
-623,663	336,033	-0,025	0,035
-622,649	25,636	-0,108	-0,066
-621,634	69,851	-0,055	-0,041
-620,619	800,000	-0,048	-0,118
-619,605	-200,000	0,003	0,023
-618,590	800,000	0,018	-0,048
-617,576	-170,993	-0,064	0,002
-616,561	800,000	0,029	-0,085
-615,546	-200,000	-0,014	-0,065
-614,532	187,022	-0,043	0,047
-613,517	-94,925	0,130	-0,025
-612,503	-200,000	-0,004	0,090
-611,488	-41,475	0,196	0,073
-610,474	-56,248	0,122	-0,039
-609,459	-200,000	-0,007	-0,169
-608,444	-115,257	0,092	0,013
-607,430	83,690	-0,057	0,045
-606,415	-106,788	0,067	0,011
-605,401	170,406	0,016	-0,016
-604,386	-21,171	-0,108	-0,048
-603,371	495,681	0,059	0,099
-602,357	800,000	0,013	0,027
-601,342	800,000	0,016	0,043
-600,328	299,248	-0,077	0,104
-599,313	-200,000	-0,012	0,092
-598,298	-46,583	-0,161	0,057
-597,284	361,092	-0,006	0,009
-596,269	-200,000	-0,006	0,053
-595,255	248,326	-0,012	0,015
-594,240	-191,560	0,023	-0,000
-593,225	143,695	-0,103	-0,101
-592,211	-72,049	0,086	0,023
-591,196	30,551	-0,046	-0,029
-590,182	-92,647	0,096	0,020
-589,167	-200,000	-0,012	0,100
-588,152	-200,000	-0,000	0,046
-587,138	-112,774	-0,146	-0,021
-586,123	-71,706	-0,063	0,017
-585,109	63,213	0,122	-0,090
-584,094	-200,000	0,045	-0,223
-583,079	800,000	0,045	0,096
-582,065	-130,438	0,035	-0,003
-581,050	-75,812	-0,073	-0,019
-580,036	173,445	0,069	-0,073
-579,021	330,216	-0,032	-0,045
-578,006	40,297	-0,083	0,054
-576,992	33,486	-0,052	0,033
-575,977	800,000	0,072	-0,187
-574,963	149,324	-0,075	-0,074
-573,948	-27,066	0,088	-0,038
-572,934	22,613	-0,186	-0,111
-571,919	379,546	0,036	0,054
-570,904	-89,367	-0,084	-0,018
-569,890	232,470	0,039	0,047
-568,875	362,718	0,042	0,062
-567,861	-200,000	0,020	0,074
-566,846	261,125	-0,062	0,079
-565,831	-73,368	-0,032	-0,009
-564,817	-200,000	0,022	-0,075
-563,802	-2,204	-0,148	-0,075
-562,788	91,188	0,087	0,072
-561,773	-200,000	0,002	0,120
-560,758	-200,000	-0,017	0,134
-559,744	-200,000	-0,037	0,131
-558,729	-71,126	-0,080	0,022
-557,715	-34,977	-0,072	0,029
-556,700	-200,000	-0,001	-0,104
-555,685	0,482	0,142	0,074
-554,671	800,000	0,037	0,076
-553,656	-118,307	-0,165	0,021
-552,642	68,261	0,107	-0,080
-551,627	-176,757	-0,110	0,002
-550,612	76,066	-0,056	0,043
-549,598	-106,841	-0,103	-0,016
-548,583	206,800	-0,102	-0,117
-547,569	-200,000	0,045	-0,205
-546,554	25,039	0,076	-0,046
-545,539	-64,916	-0,047	-0,014
-544,525	67,436	-0,007	0,005
-543,510	800,000	0,025	0,071
-542,496	-200,000	-0,027	-0,093
-541,481	178,631	0,060	-0,064
-540,466	-200,000	-0,005	-0,076
-539,452	-200,000	0,004	-0,036
-538,437	236,244	-0,113	0,137
-537,423	-31,523	-0,112	-0,046
-536,408	-200,000	0,037	0,173
-535,393	800,000	-0,036	-0,111
-534,379	-200,000	0,004	-0,095
-533,364	222,885	-0,038	-0,045
-532,350	800,000	-0,007	0,017
-531,335	765,704	0,102	0,204
-530,321	254,116	0,057	0,071
-529,306	-56,058	-0,073	0,023
-528,291	-200,000	-0,051	-0,169
-527,277	591,864	-0,072	-0,131
-526,262	142,748	-0,004	0,003
-525,248	-67,861	-0,063	0,018
-524,233	412,347	0,060	0,093
-523,218	434,839	0,038	-0,061
-522,204	800,000	0,027	0,058
-521,189	800,000	0,082	-0,180
-520,175	461,464	0,042	-0,068
-519,160	44,949	0,064	0,043
-518,145	176,827	-0,051	-0,054
-517,131	800,000	0,023	-0,063
-516,116	-117,590	0,084	0,011
-515,102	756,269	-0,045	-0,090
-514,087	-200,000	0,004	0,015
-513,072	39,401	0,143	0,093
-512,058	-14,081	-0,116	-0,054
-511,043	-47,202	0,067	0,024
-510,029	321,029	0,036	-0,050
-509,014	-200,000	0,001	0,057
-507,999	800,000	0,059	0,162
-506,985	-200,000	0,031	0,104
-505,970	-200,000	-0,017	-0,065
-504,956	560,709	-0,091	-0,161
-503,941	-46,934	0,081	-0,029
-502,926	129,120	-0,084	-0,078
-501,912	-76,682	0,111	-0,028
-500,897	103,205	-0,078	0,067
-499,883	-23,712	0,024	-0,011
-498,868	-160,068	-0,087	0,003
-497,853	108,454	-0,123	0,107
-496,839	-86,255	0,043	0,010
-495,824	800,000	-0,028	-0,061
-494,810	-200,000	0,002	-0,063
-493,795	18,799	0,069	-0,040
-492,781	34,722	-0,067	-0,042
-491,766	412,055	0,038	0,059
-490,751	-55,262	0,129	0,042
-489,737	-97,978	-0,054	-0,010
-488,722	48,973	0,061	0,042
-487,708	800,000	0,030	0,068
-486,693	-142,702	0,092	0,006
-485,678	800,000	0,059	-0,158
-484,664	59,436	-0,048	-0,034
-483,649	-200,000	0,005	-0,042
-482,635	177,680	-0,077	-0,082
-481,620	-12,395	0,099	-0,047
-480,605	58,356	0,048	0,035
-479,591	43,267	-0,042	-0,028
-478,576	-98,925	-0,134	0,025
-477,562	-54,108	0,145	-0,048
-476,547	85,180	-0,073	-0,058
-475,532	-47,698	0,051	0,018
-474,518	69,119	0,063	-0,047
-473,503	73,484	0,091	0,070
-472,489	-200,000	0,007	-0,025
-471,474	154,302	0,004	-0,004
-470,459	35,351	-0,035	-0,022
-469,445	-120,065	0,081	-0,010
-468,430	85,228	0,055	-0,044
-467,416	-145,187	-0,051	0,003
-466,401	164,853	0,130	0,133
-465,386	60,310	0,065	0,047
-464,372	-98,842	-0,060	-0,011
-463,357	-200,000	0,006	-0,024
-462,343	-200,000	0,025	0,108
-461,328	800,000	-0,071	-0,177
-460,313	-40,472	-0,146	0,055
-459,299	-200,000	0,003	-0,019
-458,284	-200,000	0,011	-0,094
-457,270	-37,541	-0,090	0,035
-456,255	137,359	-0,075	-0,072
-455,241	-200,000	0,039	-0,160
-454,226	-15,808	-0,149	-0,069
-453,211	-200,000	-0,034	0,187
-452,197	79,774	-0,110	0,085
-451,182	15,072	0,115	0,066
-450,168	-37,621	0,067	0,026
-449,153	764,935	-0,039	-0,078
-448,138	800,000	-0,036	-0,096
-447,124	387,631	0,068	0,103
-446,109	800,000	0,057	0,172
-445,095	-200,000	0,003	0,012
-444,080	-44,785	0,016	0,006
-443,065	-200,000	-0,017	-0,058
-442,051	-65,626	-0,090	-0,026
-441,036	800,000	-0,046	-0,123
-440,022	800,000	0,079	-0,160
-439,007	-148,508	0,058	-0,003
-437,992	-200,000	-0,001	0,136
-436,978	-200,000	-0,002	-0,019
-435,963	-156,912	0,070	-0,003
-434,949	153,117	-0,084	0,084
-433,934	115,500	0,089	-0,079
-432,919	-52,744	0,006	-0,002
-431,905	-200,000	0,009	0,100
-430,890	-200,000	0,024	0,118
-429,876	-200,000	-0,010	0,102
-428,861	139,569	0,146	0,140
-427,846	-35,085	0,083	0,033
-426,832	-26,524	-0,149	-0,063
-425,817	-200,000	0,006	-0,089
-424,803	-55,708	0,038	-0,012
-423,788	800,000	-0,068	0,136
-422,773	-97,365	0,167	0,031
-421,759	87,873	-0,115	0,093
-420,744	-26,942	0,096	-0,040
-419,730	-30,710	0,032	0,013
-418,715	-200,000	0,009	0,134
-417,701	285,595	0,038	-0,050
-416,686	52,514	-0,117	0,081
-415,671	-200,000	0,030	0,117
-414,657	-200,000	0,001	0,115
-413,642	70,888	0,058	0,044
-412,628	-200,000	0,014	-0,069
-411,613	-13,251	-0,150	-0,070
-410,598	-200,000	-0,021	-0,072
-409,584	22,702	0,118	0,070
-408,569	800,000	-0,021	0,044
-407,555	590,691	0,015	-0,026
-406,540	-100,391	0,097	-0,017
-405,525	-160,459	-0,018	0,001
-404,511	64,378	-0,138	-0,101
-403,496	-200,000	0,009	0,126
-402,482	154,322	0,035	0,035
-401,467	800,000	-0,020	-0,046
-400,452	-170,390	0,089	-0,002
-399,438	-119,683	-0,046	-0,006
-398,423	-69,974	-0,078	-0,022
-397,409	8,647	-0,113	-0,062
-396,394	-200,000	-0,002	-0,079
-395,379	-87,214	0,101	-0,022
-394,365	-130,374	0,095	0,009
-393,350	464,802	0,070	-0,113
-392,336	-141,706	0,047	-0,003
-391,321	-175,874	-0,066	-0,001
-390,306	-99,932	0,019	0,003
-389,292	95,277	-0,092	-0,076
-388,277	-37,964	-0,141	0,054
-387,263	-200,000	-0,003	-0,052
-386,248	-106,522	-0,089	0,014
-385,233	-107,484	-0,026	0,004
-384,219	56,820	0,058	0,041
-383,204	800,000	0,025	-0,065
-382,190	-144,414	-0,038	-0,003
-381,175	147,246	0,086	0,084
-380,160	800,000	0,040	0,095
-379,146	164,584	-0,052	0,053
-378,131	-46,826	0,063	-0,022
-377,117	-41,929	0,023	0,009
-376,102	-123,410	0,043	-0,005
-375,088	492,416	0,054	-0,090
-374,073	340,360	0,017	0,024
-373,058	-69,962	0,012	-0,003
-372,044	-147,042	0,086	-0,005
-371,029	226,097	-0,042	0,049
-370,015	461,656	0,061	-0,100
-369,000	628,893	-0,055	0,100
-367,985	-58,662	-0,036	-0,011
-366,971	451,382	-0,039	-0,062
-365,956	-87,453	-0,158	0,034
-364,942	-33,827	-0,088	-0,035
-363,927	-98,350	-0,104	0,019
-362,912	169,289	0,108	-0,112
-361,898	18,105	-0,029	0,017
-360,883	-51,312	-0,137	-0,046
-359,869	-200,000	-0,001	0,042
-358,854	-31,039	0,035	0,014
-357,839	-200,000	-0,001	0,014
-356,825	-149,267	-0,062	-0,004
-355,810	-70,530	0,141	-0,038
-354,796	93,583	-0,149	-0,122
-353,781	-31,231	-0,136	-0,055
-352,766	-200,000	0,020	-0,094
-351,752	618,631	0,020	0,037
-350,737	123,644	0,067	0,061
-349,723	-52,561	0,062	0,021
-348,708	-28,978	0,045	0,019
-347,693	5,451	0,055	0,029
-346,679	-200,000	-0,015	-0,097
-345,664	-200,000	0,025	0,085
-344,650	-200,000	0,002	0,045
-343,635	48,035	-0,006	-0,004
-342,620	-2,813	0,168	0,085
-341,606	200,896	0,070	-0,078
-340,591	-200,000	-0,014	0,111
-339,577	-37,230	0,023	-0,009
-338,562	552,181	-0,050	0,088
-337,548	584,265	0,042	-0,074
-336,533	75,617	0,104	0,080
-335,518	131,257	0,025	0,023
-334,504	-200,000	0,007	0,053
-333,489	152,872	-0,066	0,066
-332,475	41,308	-0,086	0,056
-331,460	-200,000	0,001	0,017
-330,445	92,555	-0,050	-0,041
-329,431	-174,587	0,136	0,003
-328,416	205,312	-0,095	0,107
-327,402	-200,000	0,004	0,028
-326,387	-142,461	-0,135	-0,009
-325,372	-200,000	-0,006	-0,037
-324,358	31,950	-0,074	0,046
-323,343	-55,687	0,050	-0,016
-322,329	-21,476	-0,070	-0,031
-321,314	-168,283	-0,061	-0,002
-320,299	61,381	0,126	0,090
-319,285	-96,968	0,098	0,018
-318,270	-200,000	0,004	-0,065
-317,256	800,000	0,044	0,094
-316,241	493,331	0,093	0,156
-315,226	-29,999	0,094	-0,039
-314,212	-200,000	0,006	0,068
-313,197	800,000	-0,025	0,074
-312,183	217,623	0,069	-0,080
-311,168	-200,000	-0,012	0,071
-310,153	31,617	-0,077	0,048
-309,139	-74,285	-0,104	-0,027
-308,124	-27,032	0,109	-0,046
-307,110	-65,341	0,081	0,023
-306,095	-200,000	-0,039	0,137
-305,080	-200,000	-0,014	-0,070
-304,066	667,972	0,029	0,054
-303,051	-30,052	-0,132	0,054
-302,037	-40,847	0,046	0,017
-301,022	13,858	-0,080	0,045
-300,008	-88,878	-0,012	0,003
-298,993	-41,474	0,207	0,077
-297,978	800,000	-0,086	0,212
-296,964	-49,831	-0,125	0,043
-295,949	-119,575	-0,162	-0,020
-294,935	-200,000	-0,025	-0,095
-293,920	-169,026	0,096	0,003
-292,905	-200,000	-0,025	0,122
-291,891	-26,246	0,082	-0,035
-290,876	-200,000	-0,029	0,108
-289,862	214,554	0,064	-0,073
-288,847	76,644	-0,114	-0,087
-287,832	-200,000	0,013	0,124
-286,818	-29,452	-0,113	-0,046
-285,803	-92,570	0,111	0,022
-284,789	-200,000	0,026	0,083
-283,774	-200,000	0,009	0,038
-282,759	-29,740	0,009	-0,004
-281,745	800,000	0,031	-0,070
-280,730	-100,271	-0,046	0,008
-279,716	-46,117	0,066	-0,023
-278,701	540,672	-0,041	0,070
-277,686	242,489	-0,018	-0,022
-276,672	-200,000	0,010	-0,156
-275,657	-91,603	0,035	0,007
-274,643	112,294	0,127	-0,111
-273,628	-99,887	-0,111	0,020
-272,613	586,623	-0,042	0,075
-271,599	428,401	0,023	0,036
-270,584	58,518	0,041	0,029
-269,570	-43,544	0,158	0,057
-268,555	197,201	0,074	-0,082
-267,540	130,567	-0,175	-0,162
-266,526	-200,000	-0,008	0,049
-265,511	-200,000	-0,019	-0,061
-264,497	800,000	-0,040	-0,106
-263,482	227,694	0,136	0,159
-262,467	-200,000	0,004	0,223
-261,453	28,804	0,074	-0,045
-260,438	-200,000	-0,017	0,070
-259,424	136,099	-0,036	-0,034
-258,409	-87,505	0,073	0,016
-257,395	-200,000	-0,010	0,039
-256,380	280,519	-0,044	-0,057
-255,365	-81,829	0,143	-0,033
-254,351	-200,000	0,002	-0,041
-253,336	47,809	-0,141	-0,095
-252,322	800,000	-0,042	-0,101
-251,307	-200,000	0,000	-0,043
-250,292	-200,000	-0,005	-0,027
-249,278	-73,314	0,056	0,015
-248,263	-38,075	0,097	-0,037
-247,249	40,996	0,135	0,088
-246,234	-150,608	-0,029	-0,002
-245,219	583,705	0,041	-0,072
-244,205	-200,000	-0,003	-0,101
-243,190	95,111	0,061	-0,050
-242,176	-69,398	-0,135	0,037
-241,161	169,776	-0,008	0,008
-240,146	-200,000	-0,009	-0,115
-239,132	-200,000	-0,004	-0,035
-238,117	338,044	0,058	-0,081
-237,103	18,572	0,083	0,047
-236,088	423,154	0,049	0,076
-235,073	800,000	0,023	0,052
-234,059	56,898	-0,058	0,041
-233,044	-200,000	0,010	0,061
-232,030	-200,000	0,002	0,103
-231,015	800,000	-0,068	-0,197
-230,000	-200,000	0,001	-0,061
-228,986	422,116	-0,059	-0,091
-227,971	89,019	-0,036	-0,029
-226,957	800,000	0,016	0,035
-225,942	372,827	0,015	0,022
-224,927	800,000	-0,022	-0,059
-223,913	40,235	-0,017	0,011
-222,898	120,700	-0,018	0,016
-221,884	-200,000	0,007	-0,068
-220,869	-8,651	0,078	0,038
-219,855	53,485	0,135	0,093
-218,840	-200,000	0,003	0,074
-217,825	-37,384	-0,079	0,030
-216,811	390,680	-0,023	-0,034
-215,796	366,506	-0,029	-0,042
-214,782	140,159	-0,001	-0,001
-213,767	-200,000	0,004	0,041
-212,752	-145,146	0,034	-0,002
-211,738	193,515	0,059	-0,064
-210,723	-89,159	-0,125	-0,026
-209,709	130,783	-0,084	-0,078
-208,694	91,252	-0,047	0,038
-207,679	-178,672	-0,137	0,002
-206,665	-129,053	-0,107	-0,011
-205,650	500,661	0,061	0,101
-204,636	20,843	-0,089	0,052
-203,621	406,864	0,034	-0,052
-202,606	-92,075	0,151	0,031
-201,592	-99,348	-0,069	0,012
-200,577	-40,897	0,137	0,051
-199,563	39,775	0,059	0,038
-198,548	-200,000	0,004	0,104
-197,533	800,000	0,002	0,004
-196,519	800,000	0,024	0,059
-195,504	-75,204	-0,064	0,016
-194,490	-200,000	-0,019	-0,151
-193,475	510,921	-0,065	0,109
-192,460	-200,000	-0,000	-0,226
-191,446	-49,801	0,069	-0,024
-190,431	58,157	-0,047	0,033
-189,417	-200,000	-0,027	-0,143
-188,402	-200,000	-0,004	-0,102
-187,387	-2,697	-0,133	-0,067
-186,373	-43,894	-0,034	-0,012
-185,358	800,000	0,077	-0,170
-184,344	379,010	0,061	0,091
-183,329	-200,000	-0,015	0,209
-182,315	-119,332	0,169	0,021
-181,300	438,790	-0,110	-0,173
-180,285	-200,000	0,014	-0,120
-179,271	-18,362	-0,086	-0,039
-178,256	-74,708	0,131	0,034
-177,242	-200,000	-0,017	-0,136
-176,227	800,000	-0,023	0,058
-175,212	184,167	0,059	-0,062
-174,198	31,158	0,054	-0,033
-173,183	89,415	-0,114	-0,092
-172,169	291,917	0,057	-0,075
-171,154	-200,000	0,008	0,092
-170,139	-200,000	0,007	0,048
-169,125	-200,000	0,037	0,136
-168,110	-163,336	0,027	0,001
-167,096	39,068	-0,018	0,012
-166,081	-43,761	-0,110	-0,040
-165,066	6,284	0,109	-0,058
-164,052	17,126	-0,082	-0,046
-163,037	16,863	0,019	-0,011
-162,023	-200,000	0,018	-0,102
-161,008	61,167	-0,043	0,031
-159,993	219,242	0,098	0,113
-158,979	-200,000	-0,004	-0,068
-157,964	800,000	0,017	-0,039
-156,950	-29,086	0,032	0,013
-155,935	800,000	0,031	0,083
-154,920	-140,458	0,217	0,016
-153,906	800,000	-0,008	0,024
-152,891	507,188	0,019	0,032
-151,877	-13,965	0,160	-0,074
-150,862	-131,965	-0,101	0,009
-149,847	130,686	-0,086	-0,080
-148,833	-160,325	0,089	-0,003
-147,818	32,269	0,047	0,029
-146,804	-107,709	-0,144	0,022
-145,789	-14,732	-0,034	0,015
-144,775	-200,000	0,015	-0,124
-143,760	276,791	0,035	-0,044
-142,745	800,000	0,047	-0,121
-141,731	294,753	-0,028	0,037
-140,716	5,422	-0,139	0,073
-139,702	800,000	0,070	0,170
-138,687	-58,940	0,128	-0,039
-137,672	-200,000	-0,027	0,111
-136,658	156,151	0,026	-0,025
-135,643	-173,363	-0,028	-0,001
-134,629	-9,179	-0,112	-0,054
-133,614	-200,000	-0,012	-0,054
-132,599	225,411	0,162	0,188
-131,585	31,812	-0,054	-0,033
-130,570	-58,554	-0,201	0,062
-129,556	-200,000	0,028	-0,151
-128,541	-200,000	-0,005	0,031
-127,526	447,661	-0,042	0,067
-126,512	-168,849	-0,129	-0,003
-125,497	-60,846	0,124	-0,038
-124,483	-103,431	-0,189	-0,032
-123,468	-200,000	0,015	0,104
-122,453	-159,672	0,071	-0,003
-121,439	-94,723	0,075	0,015
-120,424	64,456	0,024	-0,017
-119,410	29,422	-0,074	0,045
