DTS Sentinel unit serial number:	SN410029Multiplexer serial number:	ORYXHardware model number:	OX2-SRSoftware version number:	ORYX F/W v4,00 Oryx Data Collector v3.7.2.0data status	okinstallation	B6 Nyhavnadifferential loss correction	single-endedforward channel	channel 2reverse channel	N/Adate	2023/12/10time	14:40:08forward acquisition time	300,00reverse acquisition time	0,00gamma	499,1914k internal	0,3122k external	0,3122temperature offset calibration	1,0000default loss term (dB/km)	0,3820temperature slope calibration	1,0000multiplexer offset coefficient	1,0000multiplexer slope coefficient	1,0000fibre end	0,00T internal ref (°C)	22,57T ext. ref 1 (°C)	6,06T ext. ref 2 (°C)	6,05length (m)	temperature (°C)	Stokes	anti-Stokes-744,400	581,235	-0,029	0,053
-743,385	42,246	-0,146	0,099
-742,371	62,055	0,112	0,083
-741,356	121,590	-0,138	0,128
-740,342	-200,000	0,007	0,049
-739,327	60,748	-0,196	0,145
-738,312	-200,000	0,019	0,102
-737,298	-63,780	-0,211	-0,064
-736,283	-200,000	-0,026	-0,157
-735,269	-121,852	-0,273	0,033
-734,254	-86,411	0,139	0,031
-733,239	-64,321	-0,439	-0,132
-732,225	-21,969	0,101	0,046
-731,210	300,904	0,055	0,076
-730,196	-65,210	-0,143	0,043
-729,181	-200,000	0,010	0,074
-728,167	-36,423	0,078	-0,031
-727,152	-200,000	0,004	-0,026
-726,137	-19,725	-0,052	0,024
-725,123	-44,337	-0,156	-0,058
-724,108	649,600	-0,041	-0,078
-723,094	117,374	-0,148	-0,135
-722,079	752,162	0,034	0,069
-721,064	800,000	-0,020	-0,061
-720,050	-72,934	-0,018	-0,005
-719,035	354,369	-0,079	0,117
-718,021	12,027	-0,071	0,041
-717,006	-200,000	0,005	0,018
-715,991	249,082	-0,127	-0,160
-714,977	-18,188	0,118	-0,055
-713,962	80,711	-0,133	0,107
-712,948	217,739	0,063	-0,075
-711,933	219,674	-0,059	0,071
-710,918	196,024	-0,159	0,180
-709,904	-72,237	-0,074	-0,020
-708,889	-195,424	-0,137	-0,001
-707,875	37,886	-0,140	-0,093
-706,860	112,931	0,022	0,019
-705,845	-200,000	-0,006	-0,063
-704,831	-200,000	0,011	-0,115
-703,816	370,443	-0,045	0,069
-702,802	-200,000	-0,001	-0,018
-701,787	-2,237	0,079	-0,041
-700,772	-191,334	-0,084	-0,001
-699,758	-50,381	0,117	-0,041
-698,743	45,690	0,057	-0,039
-697,729	77,985	-0,066	-0,052
-696,714	519,406	0,032	0,056
-695,699	-51,679	-0,035	-0,012
-694,685	-200,000	0,018	-0,059
-693,670	508,524	-0,057	-0,098
-692,656	-200,000	0,010	0,070
-691,641	-162,206	-0,214	0,008
-690,627	-39,437	-0,018	-0,007
-689,612	-102,873	-0,129	0,023
-688,597	-11,290	0,047	0,023
-687,583	71,394	-0,109	-0,084
-686,568	-190,295	-0,139	0,001
-685,554	-67,521	0,065	0,019
-684,539	119,083	-0,006	-0,006
-683,524	361,249	-0,029	-0,044
-682,510	-151,098	0,011	-0,001
-681,495	360,163	0,028	-0,041
-680,481	800,000	-0,038	-0,115
-679,466	-129,283	-0,061	0,006
-678,451	124,820	-0,063	0,059
-677,437	167,614	0,035	-0,037
-676,422	18,821	0,086	-0,051
-675,408	-200,000	-0,022	0,073
-674,393	-59,545	-0,035	0,011
-673,378	104,453	-0,084	0,073
-672,364	-200,000	-0,016	-0,074
-671,349	104,846	0,070	0,062
-670,335	-200,000	-0,026	0,119
-669,320	-200,000	-0,004	-0,108
-668,305	-200,000	-0,001	0,073
-667,291	-0,584	-0,106	0,056
-666,276	39,343	-0,110	0,073
-665,262	81,114	0,085	-0,068
-664,247	-129,245	0,047	-0,005
-663,232	800,000	0,013	0,041
-662,218	118,280	-0,064	-0,059
-661,203	128,005	0,134	-0,126
-660,189	-65,469	-0,052	-0,015
-659,174	53,803	-0,068	-0,048
-658,159	800,000	-0,038	0,084
-657,145	49,491	0,051	-0,036
-656,130	-164,764	-0,151	-0,005
-655,116	69,755	0,050	0,038
-654,101	175,328	0,019	-0,021
-653,086	800,000	-0,044	0,098
-652,072	-200,000	-0,002	-0,052
-651,057	800,000	-0,016	-0,035
-650,043	800,000	0,029	-0,065
-649,028	131,163	-0,058	-0,056
-648,014	-200,000	0,013	0,078
-646,999	-119,990	0,132	0,017
-645,984	-19,664	-0,069	0,031
-644,970	324,566	0,058	-0,082
-643,955	163,535	-0,046	-0,048
-642,941	-200,000	0,013	-0,102
-641,926	224,365	-0,015	0,018
-640,911	-200,000	0,005	0,035
-639,897	-200,000	0,035	0,162
-638,882	-92,779	0,050	-0,010
-637,868	-88,304	0,070	-0,016
-636,853	800,000	-0,052	-0,111
-635,838	95,604	0,037	0,031
-634,824	-70,019	0,041	-0,011
-633,809	244,864	-0,026	0,032
-632,795	-138,787	-0,043	0,003
-631,780	-8,048	-0,075	0,037
-630,765	149,586	-0,124	-0,125
-629,751	-200,000	-0,009	-0,120
-628,736	-200,000	-0,002	-0,134
-627,722	181,278	0,004	0,004
-626,707	152,339	0,028	0,029
-625,692	52,917	-0,053	-0,037
-624,678	28,941	0,008	0,005
-623,663	-200,000	0,013	-0,051
-622,649	157,920	0,021	-0,022
-621,634	-108,345	-0,083	-0,013
-620,619	800,000	-0,031	0,083
-619,605	152,770	0,076	0,077
-618,590	-43,330	0,106	-0,040
-617,576	297,747	0,018	0,025
-616,561	390,358	-0,053	-0,083
-615,546	800,000	0,025	-0,073
-614,532	-200,000	-0,013	-0,081
-613,517	362,689	-0,020	-0,031
-612,503	163,709	0,021	0,022
-611,488	-161,968	0,133	0,005
-610,474	18,850	0,147	-0,087
-609,459	-113,478	-0,188	0,027
-608,444	-109,972	-0,022	-0,003
-607,430	-112,237	-0,019	0,003
-606,415	538,060	-0,046	-0,081
-605,401	-26,991	0,028	0,012
-604,386	355,073	0,080	0,118
-603,371	-68,045	-0,135	-0,039
-602,357	285,040	-0,012	-0,016
-601,342	-200,000	-0,000	-0,007
-600,328	-45,399	-0,052	-0,019
-599,313	-200,000	-0,007	-0,047
-598,298	42,237	0,037	-0,025
-597,284	800,000	-0,027	-0,075
-596,269	-118,661	0,061	-0,008
-595,255	-84,133	-0,090	-0,021
-594,240	-62,052	-0,070	0,021
-593,225	800,000	-0,059	0,140
-592,211	800,000	-0,024	-0,064
-591,196	64,882	-0,040	-0,030
-590,182	-200,000	0,002	0,019
-589,167	88,376	-0,028	-0,023
-588,152	77,343	0,065	0,051
-587,138	-65,857	0,095	-0,028
-586,123	389,095	-0,025	-0,039
-585,109	-200,000	-0,012	0,091
-584,094	-139,485	-0,128	-0,010
-583,079	-200,000	-0,008	-0,032
-582,065	800,000	0,011	0,031
-581,050	639,073	0,073	-0,139
-580,036	-63,134	0,067	0,020
-579,021	-93,903	0,104	0,021
-578,006	-200,000	-0,004	-0,078
-576,992	-200,000	0,020	-0,088
-575,977	124,777	0,092	0,086
-574,963	22,252	0,021	-0,013
-573,948	-196,597	-0,100	0,000
-572,934	-139,691	-0,086	-0,007
-571,919	800,000	-0,063	-0,151
-570,904	-37,310	0,073	-0,029
-569,890	149,772	0,136	-0,136
-568,875	-200,000	-0,011	-0,075
-567,861	-200,000	0,012	0,097
-566,846	-54,989	0,180	0,060
-565,831	6,536	-0,131	-0,072
-564,817	269,432	-0,103	-0,134
-563,802	199,278	-0,108	0,123
-562,788	-200,000	0,049	-0,164
-561,773	800,000	0,038	0,098
-560,758	-200,000	0,004	0,115
-559,744	-3,515	0,090	0,046
-558,729	-200,000	-0,019	0,068
-557,715	-110,415	-0,026	-0,004
-556,700	-200,000	-0,018	-0,077
-555,685	172,174	-0,073	-0,078
-554,671	62,197	0,044	0,033
-553,656	22,343	-0,051	-0,031
-552,642	-108,954	0,151	0,024
-551,627	106,444	0,027	-0,023
-550,612	337,471	-0,041	-0,059
-549,598	-57,058	-0,079	0,026
-548,583	-90,453	0,039	-0,008
-547,569	151,550	0,058	0,059
-546,554	-200,000	-0,001	0,042
-545,539	99,976	0,115	0,099
-544,525	-121,308	0,058	0,007
-543,510	366,014	-0,034	-0,051
-542,496	9,916	0,043	-0,024
-541,481	-48,908	0,079	0,028
-540,466	213,293	0,089	-0,104
-539,452	-136,610	-0,079	-0,007
-538,437	55,631	-0,060	-0,043
-537,423	39,928	-0,030	0,020
-536,408	100,298	0,040	0,034
-535,393	-56,851	-0,131	0,042
-534,379	-200,000	0,053	-0,199
-533,364	101,844	-0,065	0,056
-532,350	-26,286	-0,021	0,009
-531,335	-200,000	0,043	-0,158
-530,321	17,144	-0,047	-0,028
-529,306	253,837	-0,038	0,048
-528,291	-88,491	-0,098	-0,021
-527,277	-200,000	0,000	-0,078
-526,262	-8,546	-0,040	0,020
-525,248	-200,000	0,007	0,045
-524,233	-200,000	-0,019	0,135
-523,218	-200,000	-0,011	-0,065
-522,204	-200,000	0,028	-0,100
-521,189	800,000	0,035	0,091
-520,175	220,101	0,078	0,092
-519,160	217,151	-0,008	0,009
-518,145	99,235	-0,057	-0,049
-517,131	-75,754	-0,041	0,011
-516,116	-51,772	-0,060	-0,021
-515,102	-121,093	-0,039	0,005
-514,087	-30,961	-0,140	0,058
-513,072	-138,726	-0,177	-0,014
-512,058	-79,571	-0,091	-0,022
-511,043	-200,000	0,006	0,024
-510,029	29,903	0,078	0,049
-509,014	-200,000	0,010	0,045
-507,999	-200,000	-0,005	0,064
-506,985	106,548	0,062	0,054
-505,970	555,600	-0,066	-0,118
-504,956	-153,232	-0,120	0,006
-503,941	-200,000	-0,015	0,051
-502,926	-200,000	0,052	0,169
-501,912	-82,594	0,108	-0,026
-500,897	154,826	0,059	0,060
-499,883	513,938	-0,016	0,027
-498,868	-63,748	-0,146	-0,044
-497,853	622,302	0,014	-0,027
-496,839	577,013	-0,037	-0,068
-495,824	-129,106	0,217	0,022
-494,810	349,195	0,006	-0,009
-493,795	505,020	-0,068	0,117
-492,781	84,588	-0,036	-0,029
-491,766	291,431	-0,091	0,122
-490,751	182,995	-0,108	-0,118
-489,737	263,915	-0,094	0,121
-488,722	260,438	-0,087	0,111
-487,708	-90,432	-0,082	0,017
-486,693	-89,761	0,033	-0,007
-485,678	-200,000	0,007	-0,056
-484,664	-72,256	-0,122	-0,033
-483,649	174,655	-0,068	-0,073
-482,635	-168,895	0,113	0,003
-481,620	800,000	-0,028	0,076
-480,605	44,960	0,033	0,022
-479,591	800,000	0,032	0,082
-478,576	0,041	-0,078	-0,041
-477,562	432,201	-0,030	-0,047
-476,547	287,523	-0,050	-0,066
-475,532	52,425	-0,070	-0,049
-474,518	-151,766	-0,098	-0,005
-473,503	-155,971	0,213	-0,010
-472,489	-200,000	-0,010	0,055
-471,474	134,298	0,082	-0,079
-470,459	-110,720	-0,038	-0,006
-469,445	386,208	-0,027	0,041
-468,430	35,081	0,057	0,037
-467,416	-177,832	-0,095	0,002
-466,401	178,935	-0,041	-0,044
-465,386	-84,628	-0,041	-0,009
-464,372	553,353	0,047	-0,083
-463,357	-94,447	-0,081	-0,016
-462,343	-200,000	-0,063	-0,260
-461,328	90,540	-0,053	-0,044
-460,313	800,000	-0,035	-0,088
-459,299	21,709	0,045	0,027
-458,284	-200,000	0,015	0,074
-457,270	-141,882	0,055	0,004
-456,255	-200,000	-0,015	-0,125
-455,241	144,452	0,040	0,039
-454,226	21,829	-0,124	-0,074
-453,211	-67,017	0,081	0,023
-452,197	415,779	0,046	0,072
-451,182	132,091	-0,048	-0,046
-450,168	-200,000	-0,070	0,275
-449,153	-143,415	-0,103	0,007
-448,138	-200,000	0,014	-0,112
-447,124	-46,518	-0,068	-0,025
-446,109	800,000	0,025	-0,059
-445,095	-200,000	0,003	0,032
-444,080	18,847	0,159	0,093
-443,065	-90,437	0,157	0,033
-442,051	-79,062	0,074	0,018
-441,036	54,373	0,014	0,010
-440,022	-200,000	0,031	0,133
-439,007	-190,826	0,139	-0,001
-437,992	-117,177	0,088	-0,012
-436,978	309,990	0,098	0,135
-435,963	-200,000	-0,024	0,099
-434,949	124,654	-0,034	-0,031
-433,934	-200,000	-0,000	0,018
-432,919	-9,096	-0,200	-0,098
-431,905	276,126	-0,021	-0,027
-430,890	-24,536	0,063	0,028
-429,876	332,537	-0,093	0,133
-428,861	87,514	0,101	0,082
-427,846	-159,639	-0,109	0,004
-426,832	344,906	-0,047	0,068
-425,817	-46,775	-0,091	-0,033
-424,803	800,000	0,050	-0,122
-423,788	206,480	0,048	-0,055
-422,773	-5,717	0,071	0,036
-421,759	800,000	-0,042	0,123
-420,744	800,000	-0,014	0,032
-419,730	112,811	0,076	-0,068
-418,715	-38,418	0,108	-0,042
-417,701	31,022	-0,120	-0,076
-416,686	346,860	0,016	0,023
-415,671	-200,000	-0,008	-0,140
-414,657	-200,000	0,004	-0,078
-413,642	706,142	-0,038	0,075
-412,628	-63,431	-0,087	-0,026
-411,613	72,959	-0,025	-0,019
-410,598	800,000	-0,042	-0,096
-409,584	-200,000	0,006	-0,032
-408,569	288,709	-0,097	0,130
-407,555	-14,507	-0,033	0,015
-406,540	32,547	-0,013	0,008
-405,525	27,774	-0,118	-0,073
-404,511	-200,000	0,002	0,045
-403,496	-36,203	-0,138	-0,054
-402,482	-38,854	0,243	0,094
-401,467	-200,000	-0,009	0,085
-400,452	-200,000	-0,012	0,050
-399,438	99,414	-0,020	-0,017
-398,423	370,409	0,021	-0,031
-397,409	800,000	0,038	0,088
-396,394	-200,000	-0,027	0,109
-395,379	-200,000	-0,000	-0,130
-394,365	-175,426	0,065	-0,001
-393,350	800,000	-0,075	0,203
-392,336	-200,000	-0,008	0,031
-391,321	800,000	0,028	0,067
-390,306	546,536	0,045	-0,079
-389,292	-200,000	0,024	-0,106
-388,277	-114,839	-0,078	-0,011
-387,263	291,290	0,067	0,090
-386,248	2,925	-0,010	0,006
-385,233	4,247	0,111	0,060
-384,219	-200,000	0,035	0,117
-383,204	-50,902	-0,086	0,029
-382,190	-79,370	0,051	-0,012
-381,175	799,176	-0,032	-0,065
-380,160	800,000	0,050	0,108
-379,146	-168,461	0,045	0,001
-378,131	-158,215	0,066	-0,003
-377,117	-200,000	-0,007	0,075
-376,102	800,000	0,037	-0,092
-375,088	302,304	0,064	-0,088
-374,073	108,332	0,133	-0,117
-373,058	-200,000	0,005	0,049
-372,044	-200,000	-0,006	-0,067
-371,029	-29,784	0,132	-0,055
-370,015	-84,321	0,015	0,003
-369,000	-200,000	0,003	0,112
-367,985	-32,037	-0,114	0,046
-366,971	240,126	0,079	-0,097
-365,956	-200,000	-0,009	0,054
-364,942	273,927	0,102	-0,132
-363,927	-200,000	0,015	0,052
-362,912	266,588	-0,034	0,044
-361,898	98,833	-0,103	-0,087
-360,883	-57,903	0,023	-0,007
-359,869	-7,146	-0,059	-0,029
-358,854	208,556	-0,030	-0,035
-357,839	800,000	0,026	-0,081
-356,825	-75,736	0,072	-0,019
-355,810	107,824	0,015	0,013
-354,796	141,569	0,078	-0,075
-353,781	-200,000	0,002	-0,091
-352,766	708,337	0,013	-0,026
-351,752	450,122	0,096	-0,156
-350,737	-73,616	0,082	-0,022
-349,723	226,355	-0,059	-0,070
-348,708	183,656	-0,076	-0,083
-347,693	-130,458	-0,121	0,012
-346,679	315,140	-0,032	-0,045
-345,664	800,000	0,007	-0,022
-344,650	-170,175	-0,108	0,003
-343,635	800,000	-0,069	0,143
-342,620	-101,416	0,014	0,002
-341,606	-136,177	0,079	0,007
-340,591	258,302	0,065	-0,083
-339,577	147,460	0,049	-0,049
-338,562	26,787	-0,088	-0,054
-337,548	-29,419	0,058	-0,024
-336,533	-23,022	0,117	0,051
-335,518	31,217	0,047	0,030
-334,504	-200,000	0,008	0,073
-333,489	-200,000	-0,012	0,045
-332,475	210,274	0,065	0,075
-331,460	-200,000	-0,016	0,062
-330,445	-200,000	0,005	0,028
-329,431	552,854	0,006	-0,011
-328,416	-95,299	0,075	-0,015
-327,402	800,000	0,022	0,046
-326,387	-107,277	0,081	0,013
-325,372	-59,469	-0,102	-0,032
-324,358	342,129	0,030	-0,044
-323,343	234,405	-0,106	-0,128
-322,329	-200,000	-0,006	-0,108
-321,314	800,000	0,014	0,036
-320,299	295,157	0,034	-0,045
-319,285	299,444	-0,020	0,027
-318,270	-1,929	-0,096	-0,049
-317,256	233,538	-0,061	-0,073
-316,241	383,840	-0,035	-0,054
-315,226	-56,553	0,061	-0,020
-314,212	-200,000	0,018	0,104
-313,197	-200,000	0,025	-0,162
-312,183	362,065	0,021	-0,030
-311,168	179,745	-0,007	0,008
-310,153	-200,000	0,001	0,035
-309,139	-54,740	0,062	0,020
-308,124	-26,951	-0,177	-0,075
-307,110	115,203	0,093	0,083
-306,095	54,447	-0,069	0,049
-305,080	-50,681	0,089	-0,031
-304,066	96,501	0,046	0,039
-303,051	-71,223	-0,043	0,012
-302,037	800,000	0,014	-0,042
-301,022	40,420	-0,030	0,020
-300,008	-200,000	-0,004	0,166
-298,993	532,990	0,024	-0,042
-297,978	-112,337	0,144	0,021
-296,964	77,532	-0,079	0,062
-295,949	147,107	-0,116	-0,115
-294,935	-17,619	-0,060	-0,027
-293,920	143,832	-0,031	-0,031
-292,905	800,000	-0,032	0,074
-291,891	730,674	0,024	-0,046
-290,876	177,826	-0,071	-0,076
-289,862	-67,851	0,055	-0,015
-288,847	-200,000	0,004	-0,016
-287,832	400,169	-0,040	-0,062
-286,818	402,357	0,024	0,038
-285,803	103,959	0,122	0,105
-284,789	69,425	0,126	-0,095
-283,774	261,988	-0,010	0,012
-282,759	455,332	0,064	0,105
-281,745	101,639	0,046	0,039
-280,730	-84,092	-0,180	0,042
-279,716	459,558	0,020	-0,034
-278,701	-96,351	0,190	-0,036
-277,686	800,000	-0,017	0,035
-276,672	502,059	0,011	-0,019
-275,657	59,647	0,076	-0,055
-274,643	-59,707	-0,048	-0,015
-273,628	560,325	0,009	-0,015
-272,613	-43,759	-0,036	0,013
-271,599	75,577	0,060	-0,046
-270,584	800,000	0,030	0,090
-269,570	-46,137	0,042	0,015
-268,555	-51,821	-0,049	0,017
-267,540	268,802	-0,041	-0,053
-266,526	194,081	-0,081	-0,090
-265,511	-90,542	0,047	0,010
-264,497	-47,528	0,072	-0,025
-263,482	41,904	0,038	0,025
-262,467	742,100	0,039	-0,078
-261,453	212,928	-0,011	-0,013
-260,438	188,796	-0,017	0,018
-259,424	-108,877	0,031	-0,005
-258,409	112,972	0,033	0,029
-257,395	117,969	-0,050	0,045
-256,380	-80,814	-0,052	-0,012
-255,365	-44,879	0,052	0,019
-254,351	186,336	0,013	0,014
-253,336	2,066	0,055	0,029
-252,322	241,841	0,052	0,064
-251,307	800,000	-0,025	0,059
-250,292	-200,000	-0,004	0,016
-249,278	800,000	-0,025	0,066
-248,263	-72,839	-0,091	0,024
-247,249	-200,000	0,027	0,134
-246,234	10,377	0,061	-0,034
-245,219	385,691	-0,109	-0,166
-244,205	-61,032	0,043	-0,013
-243,190	287,578	0,063	-0,084
-242,176	496,548	-0,048	0,081
-241,161	-118,027	0,165	0,021
-240,146	107,126	-0,075	0,065
-239,132	121,819	0,061	0,055
-238,117	18,748	-0,049	-0,029
-237,103	-200,000	-0,014	0,074
-236,088	263,888	-0,056	0,071
-235,073	-86,006	-0,124	-0,028
-234,059	-200,000	-0,020	0,068
-233,044	800,000	-0,034	0,077
-232,030	27,820	0,045	0,027
-231,015	116,690	0,030	0,027
-230,000	130,739	0,136	0,127
-228,986	87,513	0,029	-0,023
-227,971	-48,643	-0,075	-0,026
-226,957	-200,000	-0,005	0,023
-225,942	-107,309	-0,049	0,008
-224,927	528,376	-0,022	0,037
-223,913	169,231	-0,119	-0,125
-222,898	23,234	-0,070	0,042
-221,884	800,000	0,047	0,095
-220,869	-162,443	0,129	0,005
-219,855	-58,039	0,068	0,021
-218,840	-31,408	0,056	0,023
-217,825	-97,864	0,091	-0,017
-216,811	-200,000	0,008	0,043
-215,796	31,790	-0,041	0,026
-214,782	247,794	-0,058	0,072
-213,767	-51,203	0,186	-0,063
-212,752	-47,690	-0,135	0,048
-211,738	512,941	0,055	0,093
-210,723	-38,028	0,107	0,041
-209,709	279,206	0,101	-0,132
-208,694	43,027	-0,036	-0,024
-207,679	246,089	-0,065	0,080
-206,665	29,369	-0,068	-0,042
-205,650	98,204	0,017	-0,014
-204,636	800,000	0,021	0,062
-203,621	-61,376	-0,030	0,009
-202,606	4,634	-0,056	0,030
-201,592	264,934	-0,048	-0,061
-200,577	800,000	0,032	-0,070
-199,563	-126,928	-0,160	0,017
-198,548	-59,523	0,184	0,057
-197,533	114,430	-0,014	0,012
-196,519	-145,805	0,148	0,009
-195,504	-74,172	-0,010	0,003
-194,490	-131,358	0,063	0,006
-193,475	776,159	-0,096	-0,193
-192,460	64,248	-0,109	-0,080
-191,446	-200,000	-0,001	0,147
-190,431	-2,965	0,118	0,060
-189,417	-25,776	-0,024	-0,010
-188,402	-120,716	0,091	0,011
-187,387	800,000	-0,046	0,103
-186,373	93,042	0,032	0,027
-185,358	800,000	0,013	0,029
-184,344	-10,296	0,021	0,010
-183,329	-98,758	-0,157	0,029
-182,315	396,266	-0,055	0,084
-181,300	429,163	0,011	0,017
-180,285	-75,032	-0,087	0,023
-179,271	32,334	-0,164	-0,103
-178,256	231,023	0,041	0,049
-177,242	-106,609	-0,063	0,010
-176,227	-200,000	0,009	0,041
-175,212	80,127	-0,114	0,090
-174,198	220,638	-0,090	-0,105
-173,183	-71,072	-0,111	0,030
-172,169	103,429	-0,083	0,071
-171,154	-135,475	0,099	-0,009
-170,139	212,063	0,068	0,078
-169,125	800,000	-0,030	-0,067
-168,110	-200,000	0,007	-0,033
-167,096	438,312	-0,047	0,075
-166,081	-166,316	-0,059	0,002
-165,066	-48,631	0,029	0,010
-164,052	-43,327	0,138	-0,050
-163,037	-200,000	0,001	-0,011
-162,023	800,000	0,032	0,096
-161,008	-173,984	0,171	0,004
-159,993	146,665	-0,074	0,072
-158,979	-200,000	0,020	-0,093
-157,964	330,298	0,021	-0,030
-156,950	27,114	-0,076	-0,046
-155,935	-200,000	0,016	0,125
-154,920	-92,745	0,170	0,034
-153,906	221,118	-0,019	0,022
-152,891	-172,618	0,189	0,004
-151,877	-200,000	-0,011	0,048
-150,862	411,240	-0,038	0,058
-149,847	-27,562	0,096	-0,040
-148,833	-10,578	0,076	0,036
-147,818	325,888	-0,053	0,074
-146,804	800,000	0,051	-0,107
-145,789	158,036	0,028	-0,028
-144,775	-109,001	0,070	0,011
-143,760	-81,079	-0,072	-0,017
-142,745	-200,000	-0,012	-0,055
-141,731	800,000	-0,035	-0,086
-140,716	-63,885	-0,063	-0,019
-139,702	242,723	0,092	0,113
-138,687	800,000	0,046	0,107
-137,672	375,859	-0,068	-0,101
-136,658	-30,750	-0,066	0,027
-135,643	-77,937	-0,084	0,021
-134,629	-200,000	-0,005	-0,074
-133,614	-19,130	-0,022	-0,010
-132,599	800,000	0,091	0,231
-131,585	-60,589	-0,049	-0,015
-130,570	-145,174	-0,082	0,005
-129,556	-84,272	-0,151	0,035
-128,541	471,552	-0,055	-0,090
-127,526	800,000	-0,021	0,061
-126,512	-200,000	0,019	-0,068
-125,497	-37,806	-0,047	-0,018
-124,483	265,441	0,024	0,030
-123,468	-91,465	-0,139	0,029
-122,453	-200,000	-0,024	-0,152
-121,439	101,321	0,082	0,070
-120,424	193,052	-0,037	0,041
-119,410	800,000	0,021	-0,054
-118,395	-127,529	0,086	-0,009
