DTS Sentinel unit serial number:	SN410029Multiplexer serial number:	ORYXHardware model number:	OX2-SRSoftware version number:	ORYX F/W v4,00 Oryx Data Collector v3.7.2.0data status	okinstallation	B6 Nyhavnadifferential loss correction	single-endedforward channel	channel 2reverse channel	N/Adate	2023/12/08time	14:55:08forward acquisition time	300,00reverse acquisition time	0,00gamma	499,1914k internal	0,3159k external	0,3159temperature offset calibration	1,0000default loss term (dB/km)	0,3820temperature slope calibration	1,0000multiplexer offset coefficient	1,0000multiplexer slope coefficient	1,0000fibre end	0,00T internal ref (°C)	15,06T ext. ref 1 (°C)	-1,49T ext. ref 2 (°C)	-1,50length (m)	temperature (°C)	Stokes	anti-Stokes-744,400	800,000	0,019	-0,042
-743,385	-72,932	-0,265	0,071
-742,371	-100,751	0,213	-0,038
-741,356	-107,661	-0,331	0,053
-740,342	-58,664	0,091	0,029
-739,327	-73,642	-0,335	-0,089
-738,312	139,227	0,073	-0,070
-737,298	-77,647	-0,264	0,067
-736,283	667,914	-0,025	0,048
-735,269	-34,619	-0,340	0,136
-734,254	-133,646	0,151	0,014
-733,239	-27,045	-0,456	-0,195
-732,225	194,849	-0,059	0,066
-731,210	-200,000	-0,017	0,060
-730,196	-33,707	0,067	0,027
-729,181	-200,000	-0,002	-0,092
-728,167	-15,736	0,126	-0,059
-727,152	800,000	0,006	0,015
-726,137	151,962	-0,071	0,071
-725,123	-200,000	-0,003	-0,075
-724,108	800,000	-0,093	-0,260
-723,094	124,527	-0,105	-0,098
-722,079	-200,000	0,005	-0,127
-721,064	27,146	-0,031	0,019
-720,050	-115,286	-0,098	0,013
-719,035	169,612	-0,034	-0,035
-718,021	800,000	-0,027	-0,060
-717,006	-200,000	0,008	0,034
-715,991	52,179	-0,146	-0,102
-714,977	293,400	-0,121	-0,163
-713,962	-117,967	-0,205	-0,027
-712,948	128,717	-0,099	-0,093
-711,933	800,000	-0,044	0,103
-710,918	-130,126	0,081	-0,008
-709,904	-200,000	-0,012	0,095
-708,889	313,146	0,069	-0,096
-707,875	-200,000	-0,011	-0,070
-706,860	5,172	0,068	-0,037
-705,845	-111,507	-0,088	-0,013
-704,831	-166,296	0,081	0,002
-703,816	-143,933	-0,083	-0,006
-702,802	-200,000	-0,005	-0,116
-701,787	800,000	-0,109	-0,282
-700,772	800,000	-0,028	-0,067
-699,758	-9,660	0,052	-0,026
-698,743	385,618	0,078	0,119
-697,729	-200,000	-0,004	-0,051
-696,714	-21,696	0,121	-0,054
-695,699	-12,161	-0,024	-0,011
-694,685	-200,000	0,012	-0,065
-693,670	642,968	-0,019	-0,036
-692,656	-200,000	-0,010	-0,049
-691,641	-80,463	0,094	-0,023
-690,627	416,223	0,003	-0,004
-689,612	-58,228	-0,075	0,024
-688,597	-200,000	0,003	-0,100
-687,583	-149,353	-0,028	0,002
-686,568	-142,150	-0,065	-0,005
-685,554	246,187	0,029	-0,036
-684,539	77,564	0,039	0,030
-683,524	35,756	-0,049	-0,031
-682,510	16,165	-0,082	0,047
-681,495	558,097	-0,035	0,062
-680,481	255,179	-0,045	-0,057
-679,466	48,295	-0,092	-0,063
-678,451	-122,406	-0,087	-0,010
-677,437	487,595	-0,039	0,066
-676,422	-134,105	0,083	-0,007
-675,408	171,395	0,028	-0,030
-674,393	103,558	-0,048	-0,042
-673,378	32,518	0,085	0,054
-672,364	-200,000	-0,007	-0,216
-671,349	556,313	-0,061	-0,109
-670,335	-183,617	0,103	0,001
-669,320	1,080	-0,032	-0,017
-668,305	162,717	-0,048	-0,050
-667,291	63,378	-0,112	-0,082
-666,276	-22,881	-0,125	-0,055
-665,262	-129,132	-0,120	-0,012
-664,247	709,374	0,044	0,086
-663,232	-36,454	-0,160	-0,063
-662,218	153,898	0,096	-0,097
-661,203	163,290	-0,101	0,104
-660,189	-61,589	0,156	0,048
-659,174	-109,789	-0,007	-0,001
-658,159	-48,734	-0,069	0,024
-657,145	-62,832	0,106	0,032
-656,130	-42,284	-0,032	-0,012
-655,116	-200,000	0,025	0,096
-654,101	-200,000	0,026	-0,101
-653,086	5,924	-0,086	0,047
-652,072	664,602	-0,036	-0,069
-651,057	-200,000	0,011	-0,110
-650,043	7,931	-0,120	0,066
-649,028	-47,302	0,218	0,078
-648,014	-115,220	0,077	0,011
-646,999	170,755	-0,092	0,097
-645,984	79,751	0,095	0,075
-644,970	1,199	0,112	-0,059
-643,955	-33,723	-0,084	-0,034
-642,941	-200,000	0,006	0,129
-641,926	-200,000	0,030	-0,101
-640,911	-200,000	-0,021	-0,138
-639,897	-13,037	-0,089	0,042
-638,882	628,952	0,103	-0,192
-637,868	356,977	0,090	-0,133
-636,853	392,926	0,018	-0,028
-635,838	-200,000	0,027	-0,091
-634,824	56,788	-0,074	-0,053
-633,809	-200,000	0,032	0,137
-632,795	-200,000	0,012	0,121
-631,780	17,311	0,091	0,053
-630,765	374,804	-0,111	-0,166
-629,751	-200,000	-0,005	-0,152
-628,736	-200,000	0,039	0,151
-627,722	-16,706	-0,057	-0,026
-626,707	-48,474	-0,043	-0,015
-625,692	-200,000	-0,005	0,245
-624,678	-104,559	-0,055	0,009
-623,663	43,900	-0,125	0,084
-622,649	-200,000	0,019	0,131
-621,634	-26,852	-0,175	-0,075
-620,619	-127,540	-0,130	0,014
-619,605	800,000	-0,006	0,019
-618,590	491,603	0,066	0,112
-617,576	73,627	-0,116	0,089
-616,561	-100,187	-0,124	0,022
-615,546	209,788	-0,056	-0,064
-614,532	7,935	-0,041	-0,023
-613,517	13,136	0,049	0,028
-612,503	-27,060	-0,067	-0,029
-611,488	7,365	-0,038	-0,021
-610,474	-200,000	0,004	0,184
-609,459	-200,000	-0,002	-0,045
-608,444	-55,453	-0,178	0,058
-607,430	-200,000	-0,011	0,049
-606,415	16,780	-0,025	-0,015
-605,401	-200,000	-0,008	0,035
-604,386	463,418	0,072	0,119
-603,371	-200,000	-0,049	0,196
-602,357	581,221	0,081	-0,145
-601,342	110,307	-0,106	-0,093
-600,328	-130,110	0,007	0,001
-599,313	415,373	-0,089	-0,140
-598,298	237,350	0,045	0,055
-597,284	-11,686	0,150	-0,072
-596,269	4,822	0,023	-0,012
-595,255	92,521	-0,034	-0,028
-594,240	-200,000	0,002	-0,025
-593,225	-97,902	0,061	0,011
-592,211	67,261	-0,119	-0,089
-591,196	-200,000	-0,008	-0,044
-590,182	-130,588	-0,030	0,003
-589,167	-0,458	0,073	0,038
-588,152	98,698	-0,013	0,011
-587,138	-83,295	-0,095	-0,022
-586,123	140,077	-0,026	-0,026
-585,109	294,743	0,083	-0,112
-584,094	800,000	0,010	0,027
-583,079	-200,000	-0,023	-0,117
-582,065	800,000	0,009	0,028
-581,050	-200,000	0,008	0,088
-580,036	222,926	0,039	0,046
-579,021	800,000	-0,019	-0,042
-578,006	-200,000	0,022	-0,102
-576,992	-121,257	0,128	0,016
-575,977	800,000	-0,041	0,124
-574,963	9,857	0,054	-0,030
-573,948	800,000	0,016	0,037
-572,934	-179,829	0,047	0,001
-571,919	-16,938	-0,074	0,034
-570,904	-3,202	0,095	0,048
-569,890	-200,000	0,003	-0,168
-568,875	-120,364	0,061	0,008
-567,861	295,067	0,068	-0,091
-566,846	-200,000	-0,009	-0,121
-565,831	800,000	0,023	0,061
-564,817	-200,000	-0,027	-0,153
-563,802	572,333	0,035	0,062
-562,788	-200,000	-0,007	-0,062
-561,773	-200,000	-0,004	-0,027
-560,758	-200,000	0,016	-0,087
-559,744	-32,662	-0,036	0,015
-558,729	237,683	-0,032	-0,039
-557,715	76,284	-0,069	-0,053
-556,700	190,324	0,040	-0,044
-555,685	49,348	0,096	-0,066
-554,671	-21,460	-0,079	0,035
-553,656	116,360	-0,103	0,093
-552,642	-200,000	-0,002	0,139
-551,627	-5,335	-0,069	0,035
-550,612	-113,264	-0,086	-0,012
-549,598	406,867	-0,036	-0,055
-548,583	196,658	0,062	0,069
-547,569	36,548	-0,079	-0,051
-546,554	-12,874	0,246	0,117
-545,539	-28,433	-0,088	0,037
-544,525	-107,003	-0,047	0,008
-543,510	-200,000	0,008	0,077
-542,496	-129,016	0,202	-0,020
-541,481	1,108	-0,136	0,071
-540,466	-53,828	-0,071	0,024
-539,452	-200,000	-0,038	0,163
-538,437	163,120	-0,004	0,004
-537,423	-0,877	0,081	0,042
-536,408	-37,510	-0,031	0,012
-535,393	800,000	0,079	-0,164
-534,379	677,963	0,053	-0,101
-533,364	-76,557	-0,055	0,014
-532,350	581,020	0,092	-0,166
-531,335	128,497	-0,049	-0,046
-530,321	64,497	0,119	0,088
-529,306	800,000	-0,017	-0,036
-528,291	-49,531	-0,225	0,078
-527,277	-52,330	-0,066	0,022
-526,262	-200,000	-0,010	0,037
-525,248	-14,018	0,108	0,051
-524,233	-200,000	0,002	0,029
-523,218	132,239	0,068	0,064
-522,204	560,706	0,010	-0,018
-521,189	65,414	0,030	-0,022
-520,175	-176,767	0,049	-0,001
-519,160	-200,000	0,014	-0,049
-518,145	-5,493	-0,044	-0,022
-517,131	495,710	0,109	-0,183
-516,116	-64,932	-0,023	-0,007
-515,102	-2,375	-0,151	0,077
-514,087	556,583	-0,016	-0,029
-513,072	554,082	0,045	-0,079
-512,058	94,426	-0,079	-0,065
-511,043	-25,538	0,028	0,012
-510,029	240,792	-0,133	0,163
-509,014	800,000	0,030	0,078
-507,999	-200,000	-0,052	0,194
-506,985	-200,000	-0,045	0,158
-505,970	-160,957	0,100	0,004
-504,956	-200,000	-0,007	0,041
-503,941	188,117	-0,104	-0,114
-502,926	800,000	0,014	-0,033
-501,912	123,237	0,056	-0,051
-500,897	800,000	0,075	-0,173
-499,883	646,506	0,031	-0,058
-498,868	-200,000	0,017	-0,215
-497,853	-119,596	0,121	0,015
-496,839	60,351	-0,005	-0,004
-495,824	305,734	-0,082	0,111
-494,810	-200,000	0,007	0,108
-493,795	43,157	-0,061	-0,041
-492,781	-101,554	0,131	-0,023
-491,766	55,404	-0,142	-0,100
-490,751	-200,000	-0,028	0,146
-489,737	52,819	0,030	0,021
-488,722	-200,000	-0,010	-0,155
-487,708	-200,000	0,000	-0,007
-486,693	-112,894	-0,143	-0,020
-485,678	-46,012	-0,091	-0,033
-484,664	32,249	0,159	0,100
-483,649	273,534	-0,110	-0,142
-482,635	63,453	-0,167	0,122
-481,620	150,718	0,143	0,141
-480,605	1,289	-0,113	-0,059
-479,591	26,961	0,007	0,004
-478,576	-200,000	0,005	0,241
-477,562	800,000	0,018	0,053
-476,547	-200,000	-0,015	-0,071
-475,532	-99,057	-0,142	-0,026
-474,518	-200,000	-0,010	-0,098
-473,503	800,000	-0,052	0,131
-472,489	-63,172	0,099	0,030
-471,474	202,077	0,075	0,084
-470,459	800,000	-0,007	0,021
-469,445	164,130	-0,104	0,107
-468,430	-141,402	0,054	-0,004
-467,416	-29,147	-0,092	0,038
-466,401	-132,479	-0,081	0,008
-465,386	-48,914	-0,095	0,033
-464,372	88,015	0,069	-0,056
-463,357	70,537	0,172	-0,129
-462,343	227,104	-0,069	-0,082
-461,328	-45,852	-0,105	-0,038
-460,313	292,022	0,020	-0,027
-459,299	-78,955	-0,112	-0,027
-458,284	800,000	-0,032	0,097
-457,270	800,000	0,027	0,073
-456,255	13,651	-0,143	-0,081
-455,241	141,225	-0,066	-0,064
-454,226	96,084	-0,041	-0,034
-453,211	-83,659	0,101	-0,023
-452,197	483,029	-0,036	0,060
-451,182	68,285	0,091	0,068
-450,168	42,378	0,066	0,043
-449,153	250,617	-0,056	-0,069
-448,138	-10,859	-0,064	-0,030
-447,124	252,033	0,041	-0,051
-446,109	498,110	0,004	-0,007
-445,095	-200,000	0,026	-0,085
-444,080	-37,426	-0,087	-0,034
-443,065	-200,000	-0,011	-0,094
-442,051	172,016	0,042	-0,044
-441,036	-25,692	-0,052	-0,022
-440,022	-200,000	-0,013	0,107
-439,007	222,641	-0,015	-0,018
-437,992	-38,549	-0,006	0,002
-436,978	172,733	-0,072	0,075
-435,963	-200,000	0,015	-0,057
-434,949	-37,569	0,134	0,052
-433,934	-93,975	-0,091	-0,018
-432,919	207,457	0,037	-0,042
-431,905	-73,480	-0,034	0,009
-430,890	-160,381	0,085	-0,003
-429,876	-87,261	0,084	-0,018
-428,861	-200,000	0,026	-0,113
-427,846	800,000	0,045	0,143
-426,832	-102,217	0,023	-0,004
-425,817	167,472	0,079	-0,081
-424,803	800,000	0,037	-0,093
-423,788	77,186	0,127	0,098
-422,773	141,359	0,054	-0,052
-421,759	-200,000	0,007	0,102
-420,744	5,849	0,072	-0,039
-419,730	800,000	0,004	0,009
-418,715	-54,132	-0,098	-0,032
-417,701	495,498	-0,045	-0,075
-416,686	145,305	0,108	0,105
-415,671	-200,000	-0,005	-0,110
-414,657	-26,564	-0,069	0,029
-413,642	-100,878	-0,024	0,004
-412,628	133,578	-0,130	-0,123
-411,613	-200,000	-0,007	-0,066
-410,598	6,572	-0,078	0,042
-409,584	800,000	0,013	0,025
-408,569	-200,000	-0,026	0,103
-407,555	147,681	-0,032	0,031
-406,540	-2,574	-0,155	-0,079
-405,525	43,659	0,028	0,019
-404,511	800,000	-0,023	-0,073
-403,496	-200,000	0,011	0,069
-402,482	-200,000	0,004	-0,142
-401,467	-200,000	-0,014	0,046
-400,452	-43,807	0,111	0,040
-399,438	241,444	-0,030	0,037
-398,423	126,462	-0,050	0,046
-397,409	81,072	-0,094	-0,074
-396,394	-200,000	0,025	0,106
-395,379	-200,000	-0,011	0,063
-394,365	-200,000	-0,019	-0,135
-393,350	7,604	-0,052	0,028
-392,336	-68,403	0,053	-0,015
-391,321	-200,000	0,007	-0,063
-390,306	770,664	0,012	-0,024
-389,292	-200,000	0,031	-0,159
-388,277	730,733	-0,041	-0,080
-387,263	-79,589	0,228	0,055
-386,248	108,380	-0,010	0,009
-385,233	546,461	-0,046	0,081
-384,219	-200,000	0,005	0,195
-383,204	24,340	0,023	0,014
-382,190	105,340	-0,072	0,062
-381,175	800,000	0,016	0,048
-380,160	-22,699	0,119	0,052
-379,146	365,384	-0,028	0,042
-378,131	-200,000	-0,003	-0,023
-377,117	800,000	0,016	0,040
-376,102	-154,479	-0,027	0,001
-375,088	122,086	-0,021	0,019
-374,073	275,159	-0,106	-0,136
-373,058	-59,861	-0,045	-0,014
-372,044	368,829	0,083	0,122
-371,029	122,869	0,105	-0,096
-370,015	339,335	-0,097	0,138
-369,000	2,713	0,077	0,041
-367,985	-146,620	0,091	-0,006
-366,971	-44,535	-0,111	0,040
-365,956	187,068	-0,060	0,066
-364,942	-200,000	0,002	0,015
-363,927	745,963	0,039	0,076
-362,912	28,469	-0,084	0,052
-361,898	-59,392	-0,034	0,010
-360,883	-89,926	-0,066	0,014
-359,869	-144,630	0,043	-0,003
-358,854	591,166	-0,057	-0,102
-357,839	531,020	0,085	0,146
-356,825	-96,628	0,030	-0,006
-355,810	388,506	-0,081	-0,123
-354,796	149,312	0,034	-0,034
-353,781	-156,081	0,087	-0,004
-352,766	78,522	-0,099	-0,076
-351,752	122,453	0,042	-0,038
-350,737	281,128	0,068	0,089
-349,723	800,000	0,034	-0,082
-348,708	347,457	0,071	-0,102
-347,693	-200,000	0,011	-0,045
-346,679	-200,000	0,033	-0,151
-345,664	-30,088	-0,070	-0,029
-344,650	41,542	-0,134	0,088
-343,635	589,898	0,030	-0,054
-342,620	-44,259	0,129	0,047
-341,606	24,190	0,114	0,068
-340,591	38,481	-0,050	0,033
-339,577	437,524	-0,015	-0,024
-338,562	-124,271	0,007	-0,001
-337,548	312,358	-0,057	-0,077
-336,533	-153,590	0,084	-0,004
-335,518	-38,735	0,099	0,038
-334,504	110,040	-0,030	0,026
-333,489	-200,000	0,020	0,074
-332,475	38,558	-0,048	-0,031
-331,460	463,061	-0,098	-0,160
-330,445	-200,000	-0,036	0,125
-329,431	-67,135	-0,081	-0,023
-328,416	149,910	0,083	-0,081
-327,402	346,641	0,008	0,011
-326,387	39,454	0,074	-0,048
-325,372	-157,122	-0,033	-0,001
-324,358	-124,599	-0,117	0,013
-323,343	91,359	-0,037	-0,030
-322,329	-19,265	-0,050	-0,022
-321,314	99,670	0,080	0,067
-320,299	617,678	-0,068	0,125
-319,285	330,696	-0,045	-0,063
-318,270	-200,000	-0,002	-0,093
-317,256	-115,444	0,068	-0,009
-316,241	180,761	-0,111	0,118
-315,226	92,539	0,079	0,064
-314,212	800,000	0,023	0,061
-313,197	708,106	0,039	0,076
-312,183	-41,810	-0,147	0,054
-311,168	-170,077	0,020	0,001
-310,153	-200,000	-0,020	0,129
-309,139	-200,000	-0,020	0,089
-308,124	-80,837	0,087	0,021
-307,110	123,679	-0,125	0,114
-306,095	800,000	0,026	0,065
-305,080	-200,000	-0,021	-0,199
-304,066	273,285	0,031	-0,040
-303,051	800,000	0,074	0,181
-302,037	26,591	-0,043	-0,026
-301,022	0,961	-0,069	0,036
-300,008	-92,820	0,008	0,002
-298,993	-37,953	0,057	0,022
-297,978	388,740	-0,051	-0,077
-296,964	-28,592	-0,128	0,053
-295,949	-200,000	0,000	-0,108
-294,935	800,000	-0,049	-0,117
-293,920	400,057	0,016	0,024
-292,905	-200,000	0,012	0,041
-291,891	-74,842	0,042	-0,011
-290,876	185,962	-0,098	-0,105
-289,862	-11,256	-0,157	-0,075
-288,847	-7,128	-0,156	0,077
-287,832	800,000	-0,026	0,053
-286,818	-135,985	-0,157	-0,013
-285,803	800,000	0,019	-0,049
-284,789	307,247	0,044	0,059
-283,774	-31,731	0,148	-0,060
-282,759	800,000	-0,011	0,024
-281,745	6,592	-0,124	-0,067
-280,730	-200,000	0,022	0,080
-279,716	83,772	0,116	-0,091
-278,701	-70,840	-0,094	-0,026
-277,686	289,511	-0,076	0,100
-276,672	731,457	0,077	0,149
-275,657	761,662	-0,032	0,063
-274,643	-44,189	-0,135	0,049
-273,628	-8,978	0,076	-0,037
-272,613	800,000	-0,056	-0,127
-271,599	-200,000	0,021	0,071
-270,584	284,267	0,060	0,078
-269,570	800,000	0,033	-0,076
-268,555	-200,000	-0,005	-0,032
-267,540	-119,912	0,119	0,015
-266,526	578,290	0,032	0,057
-265,511	250,652	-0,030	0,036
-264,497	425,196	-0,031	0,049
-263,482	-200,000	0,001	0,040
-262,467	-136,534	0,016	-0,001
-261,453	800,000	0,017	-0,050
-260,438	81,404	-0,061	-0,048
-259,424	142,485	-0,075	-0,072
-258,409	-164,434	-0,109	0,004
-257,395	-7,326	0,074	0,036
-256,380	800,000	0,016	0,046
-255,365	556,110	0,043	-0,075
-254,351	95,065	0,084	-0,069
-253,336	800,000	-0,030	-0,083
-252,322	-200,000	0,009	-0,078
-251,307	99,881	0,030	0,025
-250,292	800,000	0,049	-0,102
-249,278	301,137	0,097	-0,130
-248,263	-123,154	0,187	0,021
-247,249	116,544	-0,065	0,058
-246,234	-74,056	0,048	0,012
-245,219	112,010	-0,033	-0,028
-244,205	-200,000	-0,013	0,125
-243,190	-116,381	-0,015	0,002
-242,176	-19,429	0,137	-0,061
-241,161	-128,981	0,035	0,004
-240,146	800,000	0,039	0,094
-239,132	153,763	0,117	0,116
-238,117	-118,704	-0,075	-0,009
-237,103	-42,043	-0,056	-0,021
-236,088	69,640	0,024	-0,018
-235,073	-200,000	-0,003	0,057
-234,059	-200,000	-0,028	0,117
-233,044	-45,271	0,034	-0,012
-232,030	-200,000	0,064	0,244
-231,015	800,000	0,052	-0,133
-230,000	-25,306	-0,029	-0,012
-228,986	-27,512	0,097	-0,041
-227,971	-193,084	0,108	-0,001
-226,957	198,594	0,031	0,034
-225,942	162,567	-0,087	-0,089
-224,927	-200,000	0,025	-0,157
-223,913	800,000	0,036	-0,075
-222,898	-169,415	0,199	0,005
-221,884	-200,000	0,014	0,081
-220,869	118,423	0,058	-0,052
-219,855	159,365	-0,029	-0,030
-218,840	-200,000	-0,016	0,064
-217,825	198,982	0,029	-0,032
-216,811	206,178	0,066	-0,074
-215,796	257,226	0,039	-0,049
-214,782	-63,210	-0,080	-0,024
-213,767	-139,825	0,218	-0,016
-212,752	600,809	0,056	-0,101
-211,738	-116,124	0,193	-0,026
-210,723	73,571	0,077	-0,058
-209,709	-151,412	-0,122	0,006
-208,694	109,168	0,084	-0,073
-207,679	18,843	-0,046	-0,027
-206,665	-171,622	-0,017	0,000
-205,650	-200,000	0,047	0,181
-204,636	73,476	0,079	-0,060
-203,621	-10,507	-0,089	-0,043
-202,606	800,000	-0,023	-0,057
-201,592	-47,031	0,058	-0,020
-200,577	-200,000	0,005	-0,128
-199,563	134,533	0,036	0,034
-198,548	800,000	0,042	0,113
-197,533	-200,000	0,006	-0,098
-196,519	151,923	0,109	0,107
-195,504	-166,771	0,040	0,001
-194,490	800,000	0,021	0,056
-193,475	-200,000	0,008	-0,156
-192,460	-131,767	-0,055	-0,005
-191,446	79,426	0,083	0,064
-190,431	800,000	-0,015	-0,037
-189,417	179,684	-0,035	-0,037
-188,402	-200,000	-0,023	-0,179
-187,387	-200,000	0,002	-0,085
-186,373	-14,278	0,034	-0,016
-185,358	-200,000	-0,010	0,050
-184,344	369,481	-0,169	0,247
-183,329	-49,237	0,024	0,008
-182,315	-200,000	-0,025	0,140
-181,300	453,460	-0,054	-0,086
-180,285	-122,920	0,071	-0,008
-179,271	-200,000	0,005	0,019
-178,256	800,000	-0,033	-0,095
-177,242	800,000	-0,034	-0,078
-176,227	800,000	-0,022	-0,046
-175,212	598,601	0,086	0,155
-174,198	160,661	-0,012	-0,012
-173,183	7,593	0,135	-0,073
-172,169	-200,000	0,006	-0,030
-171,154	-200,000	-0,001	0,062
-170,139	-16,126	0,151	0,069
-169,125	-200,000	0,013	0,058
-168,110	-200,000	-0,001	-0,041
-167,096	-200,000	0,017	0,129
-166,081	-124,239	0,016	0,002
-165,066	-200,000	0,033	-0,120
-164,052	434,690	-0,065	-0,102
-163,037	287,503	-0,006	-0,008
-162,023	-64,514	-0,116	-0,034
-161,008	405,631	0,013	0,020
-159,993	-85,921	0,057	0,012
-158,979	123,083	0,008	-0,007
-157,964	800,000	0,037	0,101
-156,950	-200,000	-0,026	0,191
-155,935	-200,000	0,006	0,045
-154,920	127,030	-0,071	-0,064
-153,906	800,000	0,045	0,109
-152,891	-200,000	-0,012	-0,113
-151,877	-200,000	0,002	-0,073
-150,862	-8,439	-0,090	-0,043
-149,847	-32,268	0,157	-0,063
-148,833	19,736	0,083	-0,048
-147,818	800,000	-0,023	-0,056
-146,804	-200,000	-0,018	0,059
-145,789	653,190	-0,039	-0,073
-144,775	800,000	0,035	-0,100
-143,760	-200,000	-0,005	0,049
-142,745	800,000	0,037	-0,101
-141,731	-14,604	-0,059	0,027
-140,716	166,719	0,047	0,048
-139,702	451,327	0,038	0,061
-138,687	-43,676	0,137	0,049
-137,672	-200,000	0,018	-0,096
-136,658	-156,190	-0,159	0,007
-135,643	-14,098	-0,100	-0,046
-134,629	-98,364	-0,178	-0,033
-133,614	-138,619	0,076	0,006
-132,599	-88,892	0,066	0,014
-131,585	-138,865	-0,077	-0,006
-130,570	800,000	0,046	-0,122
-129,556	29,885	0,061	-0,037
-128,541	-91,344	-0,120	0,024
-127,526	33,929	0,008	-0,005
-126,512	141,980	-0,012	0,011
-125,497	218,527	0,163	0,188
-124,483	-103,045	-0,055	0,009
-123,468	-200,000	0,018	-0,059
-122,453	-76,904	-0,114	0,028
-121,439	10,886	0,063	0,035
-120,424	497,059	-0,076	0,126
-119,410	-21,209	0,033	-0,014
