DTS Sentinel unit serial number:	SN410029Multiplexer serial number:	ORYXHardware model number:	OX2-SRSoftware version number:	ORYX F/W v4,00 Oryx Data Collector v3.7.2.0data status	okinstallation	B6 Nyhavnadifferential loss correction	single-endedforward channel	channel 2reverse channel	N/Adate	2023/12/08time	16:50:08forward acquisition time	300,00reverse acquisition time	0,00gamma	499,1914k internal	0,3159k external	0,3159temperature offset calibration	1,0000default loss term (dB/km)	0,3820temperature slope calibration	1,0000multiplexer offset coefficient	1,0000multiplexer slope coefficient	1,0000fibre end	0,00T internal ref (°C)	15,13T ext. ref 1 (°C)	-1,39T ext. ref 2 (°C)	-1,38length (m)	temperature (°C)	Stokes	anti-Stokes-744,400	-180,678	0,214	-0,003
-743,385	18,028	-0,251	0,147
-742,371	202,592	0,108	0,123
-741,356	-90,855	-0,356	0,075
-740,342	411,674	0,093	0,147
-739,327	-149,851	-0,329	0,019
-738,312	800,000	-0,011	-0,027
-737,298	-185,174	-0,184	-0,002
-736,283	-33,714	0,024	0,010
-735,269	125,708	-0,110	-0,102
-734,254	313,632	0,061	0,085
-733,239	-94,329	-0,539	-0,108
-732,225	51,057	0,186	-0,130
-731,210	359,566	-0,032	-0,048
-730,196	-90,605	0,033	-0,007
-729,181	138,300	-0,034	-0,033
-728,167	-200,000	-0,004	-0,032
-727,152	47,131	0,081	0,056
-726,137	125,861	0,091	0,084
-725,123	800,000	-0,034	-0,082
-724,108	398,511	-0,083	-0,129
-723,094	-200,000	0,009	-0,044
-722,079	800,000	0,068	-0,208
-721,064	-60,635	-0,040	-0,012
-720,050	614,935	-0,034	0,063
-719,035	800,000	-0,038	0,088
-718,021	-200,000	-0,032	-0,108
-717,006	135,777	-0,025	-0,024
-715,991	-64,649	-0,114	-0,034
-714,977	-200,000	0,001	-0,077
-713,962	27,723	-0,074	-0,045
-712,948	-200,000	-0,008	0,161
-711,933	130,877	-0,028	0,026
-710,918	150,806	0,056	-0,056
-709,904	800,000	-0,068	-0,166
-708,889	26,068	-0,118	-0,072
-707,875	168,987	-0,023	0,024
-706,860	166,327	-0,103	0,107
-705,845	-200,000	-0,004	0,062
-704,831	701,739	-0,059	0,116
-703,816	-141,458	-0,120	0,009
-702,802	50,274	-0,038	-0,027
-701,787	141,192	-0,077	-0,075
-700,772	-39,014	0,084	-0,033
-699,758	-200,000	0,017	-0,081
-698,743	230,115	0,103	-0,124
-697,729	-132,771	0,068	0,006
-696,714	-81,077	-0,038	0,009
-695,699	-0,373	-0,171	-0,089
-694,685	-200,000	0,040	0,163
-693,670	28,383	-0,127	-0,079
-692,656	19,597	0,108	-0,064
-691,641	118,284	-0,029	0,027
-690,627	230,631	0,019	0,022
-689,612	800,000	0,065	-0,138
-688,597	34,407	-0,140	0,090
-687,583	-80,644	-0,121	-0,029
-686,568	54,343	-0,092	0,065
-685,554	265,521	0,124	-0,159
-684,539	128,999	0,027	-0,025
-683,524	-200,000	0,007	0,055
-682,510	-97,933	0,097	-0,018
-681,495	-200,000	-0,034	-0,121
-680,481	609,758	0,019	-0,034
-679,466	122,645	-0,019	0,017
-678,451	4,092	-0,069	-0,037
-677,437	-116,216	-0,119	-0,016
-676,422	6,122	0,045	-0,024
-675,408	12,922	-0,051	0,029
-674,393	12,246	0,047	0,027
-673,378	800,000	-0,056	-0,124
-672,364	-29,742	-0,053	-0,022
-671,349	163,208	-0,075	-0,077
-670,335	153,499	-0,070	-0,070
-669,320	-200,000	0,020	-0,073
-668,305	-59,694	-0,017	0,005
-667,291	-183,089	0,075	0,001
-666,276	-149,600	0,015	-0,001
-665,262	164,127	-0,091	-0,094
-664,247	194,292	-0,050	-0,056
-663,232	-58,654	-0,055	0,017
-662,218	30,012	0,045	-0,028
-661,203	338,534	-0,077	-0,110
-660,189	338,200	0,037	0,053
-659,174	61,122	-0,108	-0,079
-658,159	-112,905	-0,103	0,015
-657,145	552,398	-0,020	-0,036
-656,130	126,138	-0,090	-0,084
-655,116	-111,631	-0,015	-0,002
-654,101	-200,000	0,004	0,059
-653,086	-125,893	-0,031	0,003
-652,072	-200,000	0,024	0,125
-651,057	-200,000	0,025	-0,108
-650,043	800,000	-0,033	-0,081
-649,028	-200,000	-0,020	-0,137
-648,014	23,252	-0,103	0,062
-646,999	-89,128	-0,133	0,029
-645,984	-200,000	-0,003	0,017
-644,970	-160,198	-0,067	-0,003
-643,955	-200,000	-0,027	0,179
-642,941	34,595	-0,070	-0,045
-641,926	-200,000	-0,028	-0,115
-640,911	242,253	-0,017	-0,020
-639,897	-200,000	-0,018	0,156
-638,882	-200,000	0,019	-0,093
-637,868	-129,370	-0,137	-0,014
-636,853	-98,440	-0,057	0,011
-635,838	7,367	-0,205	0,112
-634,824	124,120	-0,072	-0,066
-633,809	-73,648	-0,130	0,035
-632,795	0,178	-0,094	0,049
-631,780	-200,000	0,032	0,109
-630,765	800,000	0,009	0,027
-629,751	120,555	-0,120	-0,110
-628,736	-59,224	-0,022	0,007
-627,722	288,486	-0,032	0,042
-626,707	430,200	0,047	-0,075
-625,692	-70,060	-0,028	-0,008
-624,678	187,429	-0,042	0,046
-623,663	-200,000	0,024	-0,090
-622,649	-147,178	-0,073	0,005
-621,634	800,000	-0,062	-0,134
-620,619	135,742	-0,055	-0,053
-619,605	-200,000	0,007	0,105
-618,590	-200,000	0,006	-0,112
-617,576	-124,788	-0,088	-0,010
-616,561	62,583	-0,086	-0,063
-615,546	800,000	0,040	-0,116
-614,532	2,858	0,082	0,044
-613,517	800,000	-0,021	-0,048
-612,503	552,153	-0,018	-0,032
-611,488	394,336	-0,050	0,077
-610,474	69,583	-0,045	0,034
-609,459	800,000	-0,024	0,075
-608,444	-84,725	-0,136	0,031
-607,430	359,345	-0,045	0,066
-606,415	-200,000	0,011	-0,199
-605,401	386,143	-0,043	0,065
-604,386	800,000	-0,015	-0,047
-603,371	48,060	0,118	-0,081
-602,357	-200,000	0,007	0,082
-601,342	-39,590	-0,060	-0,023
-600,328	395,110	-0,060	0,092
-599,313	800,000	-0,011	0,023
-598,298	-138,639	-0,101	0,008
-597,284	-75,038	-0,107	0,028
-596,269	246,750	-0,032	0,040
-595,255	-137,673	-0,024	-0,002
-594,240	-200,000	-0,013	-0,197
-593,225	87,433	-0,120	-0,098
-592,211	-200,000	0,002	-0,015
-591,196	142,424	0,062	-0,060
-590,182	-173,364	0,036	-0,001
-589,167	-92,140	0,105	0,022
-588,152	-200,000	-0,004	-0,034
-587,138	-105,751	-0,106	-0,017
-586,123	-45,975	-0,081	0,029
-585,109	185,442	0,019	-0,021
-584,094	626,632	-0,088	0,163
-583,079	548,940	0,023	-0,040
-582,065	168,690	0,086	0,090
-581,050	505,723	-0,042	0,072
-580,036	16,458	-0,013	-0,007
-579,021	144,825	0,081	-0,079
-578,006	-200,000	-0,009	-0,061
-576,992	800,000	0,025	-0,073
-575,977	-200,000	0,017	-0,084
-574,963	-200,000	0,004	0,136
-573,948	-200,000	0,030	0,136
-572,934	-200,000	-0,001	-0,016
-571,919	-200,000	0,021	0,074
-570,904	-169,198	-0,146	0,004
-569,890	-200,000	-0,005	-0,104
-568,875	15,077	0,095	-0,054
-567,861	800,000	0,010	-0,026
-566,846	-200,000	0,036	0,119
-565,831	-200,000	-0,018	0,069
-564,817	-200,000	0,008	0,065
-563,802	188,186	-0,054	-0,059
-562,788	-200,000	0,066	-0,236
-561,773	-66,341	-0,090	0,026
-560,758	-134,640	-0,042	-0,004
-559,744	-200,000	-0,036	0,143
-558,729	-135,894	-0,043	-0,004
-557,715	98,839	-0,104	0,088
-556,700	-200,000	0,011	-0,062
-555,685	-200,000	-0,012	0,146
-554,671	51,586	-0,049	0,034
-553,656	-200,000	0,035	0,127
-552,642	638,086	0,064	0,120
-551,627	-13,897	0,027	0,013
-550,612	49,613	-0,047	0,032
-549,598	-115,034	-0,046	0,006
-548,583	465,464	-0,026	-0,043
-547,569	10,067	0,156	-0,086
-546,554	-17,498	-0,020	0,009
-545,539	-126,656	-0,065	0,007
-544,525	-29,870	0,091	0,038
-543,510	-32,930	-0,120	-0,049
-542,496	-200,000	0,008	-0,197
-541,481	-100,422	0,065	-0,012
-540,466	27,946	0,084	-0,052
-539,452	-2,089	0,039	0,020
-538,437	6,794	0,065	0,035
-537,423	125,105	-0,040	-0,037
-536,408	101,769	0,057	0,048
-535,393	199,105	-0,106	-0,119
-534,379	-200,000	0,016	0,095
-533,364	-67,931	-0,157	0,044
-532,350	211,087	0,065	0,074
-531,335	-36,678	0,073	0,029
-530,321	-87,040	0,046	0,010
-529,306	119,161	-0,095	-0,086
-528,291	800,000	-0,052	-0,105
-527,277	7,998	-0,075	-0,041
-526,262	-200,000	0,002	0,059
-525,248	86,981	0,102	0,083
-524,233	165,049	0,094	0,097
-523,218	46,221	-0,155	0,105
-522,204	324,280	0,018	-0,026
-521,189	159,317	-0,037	0,038
-520,175	-43,356	0,069	-0,025
-519,160	112,795	-0,065	-0,058
-518,145	800,000	0,031	-0,077
-517,131	155,610	-0,052	-0,052
-516,116	-82,344	-0,090	0,021
-515,102	800,000	0,008	-0,017
-514,087	-73,582	-0,122	-0,032
-513,072	269,491	0,034	-0,044
-512,058	32,077	0,044	0,028
-511,043	-31,238	0,108	-0,044
-510,029	-39,611	-0,111	0,042
-509,014	464,099	0,049	-0,080
-507,999	458,239	0,086	-0,140
-506,985	-200,000	0,025	-0,221
-505,970	-107,360	-0,084	-0,013
-504,956	-200,000	0,006	-0,040
-503,941	107,513	-0,049	-0,042
-502,926	-2,668	-0,110	0,056
-501,912	534,135	-0,043	0,075
-500,897	193,546	0,062	0,068
-499,883	178,416	-0,031	-0,034
-498,868	91,452	-0,075	-0,061
-497,853	106,764	0,047	0,041
-496,839	-200,000	-0,010	0,041
-495,824	200,640	-0,034	0,038
-494,810	241,695	0,025	0,031
-493,795	800,000	-0,027	-0,074
-492,781	221,365	0,018	0,021
-491,766	-200,000	0,010	0,047
-490,751	-200,000	0,004	-0,015
-489,737	5,475	-0,086	0,046
-488,722	-93,461	-0,174	0,035
-487,708	-60,740	0,050	-0,015
-486,693	82,810	0,050	0,039
-485,678	292,916	0,033	-0,044
-484,664	48,516	-0,045	0,030
-483,649	99,772	0,099	-0,084
-482,635	56,963	-0,119	0,085
-481,620	-153,104	0,214	0,011
-480,605	-100,106	0,106	0,019
-479,591	15,670	0,054	0,031
-478,576	-162,634	-0,168	0,006
-477,562	-200,000	0,007	0,125
-476,547	-65,658	-0,047	-0,014
-475,532	166,732	0,063	-0,065
-474,518	55,746	0,107	-0,076
-473,503	-30,821	0,193	0,079
-472,489	800,000	0,005	0,015
-471,474	-24,699	-0,127	-0,055
-470,459	-92,233	-0,072	0,015
-469,445	800,000	-0,049	0,131
-468,430	800,000	-0,005	-0,016
-467,416	-65,129	0,040	0,012
-466,401	800,000	-0,015	0,032
-465,386	405,241	-0,051	-0,078
-464,372	800,000	-0,033	-0,075
-463,357	-200,000	0,029	-0,123
-462,343	-13,132	-0,032	-0,015
-461,328	197,957	0,105	-0,118
-460,313	-200,000	0,010	0,039
-459,299	-40,198	0,032	0,012
-458,284	800,000	0,034	0,105
-457,270	-200,000	0,001	0,065
-456,255	-149,606	0,072	0,004
-455,241	228,369	0,021	-0,025
-454,226	800,000	-0,026	-0,067
-453,211	-160,161	0,184	0,007
-452,197	-11,059	0,068	0,032
-451,182	-200,000	-0,015	0,103
-450,168	-200,000	-0,028	0,128
-449,153	-153,454	0,050	0,002
-448,138	-200,000	-0,004	0,016
-447,124	748,716	0,094	0,185
-446,109	246,124	0,097	-0,120
-445,095	-12,976	-0,053	-0,025
-444,080	-101,491	-0,132	0,023
-443,065	-200,000	0,021	0,070
-442,051	562,955	-0,050	0,089
-441,036	19,260	0,065	-0,038
-440,022	8,546	0,092	0,050
-439,007	491,524	-0,065	0,109
-437,992	371,101	0,023	-0,034
-436,978	274,374	-0,056	0,072
-435,963	-200,000	0,002	-0,019
-434,949	-200,000	-0,006	-0,187
-433,934	-66,744	-0,065	-0,018
-432,919	-151,446	-0,124	0,007
-431,905	-27,827	0,150	-0,063
-430,890	-18,658	0,062	-0,028
-429,876	313,802	0,068	0,093
-428,861	-158,769	0,127	-0,005
-427,846	785,595	-0,042	-0,085
-426,832	800,000	0,048	0,097
-425,817	-91,198	-0,070	-0,014
-424,803	-200,000	0,002	0,028
-423,788	98,711	0,077	-0,064
-422,773	-200,000	0,034	-0,167
-421,759	156,958	-0,084	-0,085
-420,744	15,609	0,078	-0,045
-419,730	-83,923	-0,076	0,017
-418,715	-200,000	0,018	0,154
-417,701	324,358	0,072	-0,101
-416,686	124,945	-0,063	-0,058
-415,671	-8,313	0,099	0,048
-414,657	-200,000	0,025	0,135
-413,642	234,732	0,048	-0,057
-412,628	-200,000	-0,041	-0,134
-411,613	-200,000	0,002	0,129
-410,598	208,229	-0,017	0,020
-409,584	-140,995	-0,057	0,004
-408,569	451,080	-0,065	0,105
-407,555	218,574	0,039	0,045
-406,540	5,360	-0,100	-0,053
-405,525	126,628	0,065	0,060
-404,511	-100,289	-0,143	-0,026
-403,496	800,000	-0,017	-0,038
-402,482	393,124	0,035	0,052
-401,467	35,131	-0,096	0,061
-400,452	132,460	0,067	0,063
-399,438	104,630	0,060	0,051
-398,423	483,499	0,068	-0,113
-397,409	163,350	-0,034	-0,035
-396,394	-200,000	0,003	-0,016
-395,379	-97,740	0,163	0,030
-394,365	74,608	0,116	0,089
-393,350	32,467	0,163	0,102
-392,336	-200,000	-0,008	0,082
-391,321	800,000	-0,038	-0,102
-390,306	800,000	-0,014	-0,038
-389,292	310,824	-0,053	-0,072
-388,277	2,317	-0,037	-0,020
-387,263	78,354	0,156	0,121
-386,248	-79,972	-0,070	-0,017
-385,233	800,000	-0,060	0,124
-384,219	-200,000	-0,030	0,126
-383,204	-200,000	0,019	-0,076
-382,190	66,323	0,119	0,087
-381,175	272,628	0,039	0,050
-380,160	-200,000	-0,052	0,177
-379,146	513,589	-0,010	0,017
-378,131	95,182	0,065	-0,053
-377,117	494,809	0,047	-0,079
-376,102	15,470	-0,107	-0,061
-375,088	-99,108	0,109	-0,020
-374,073	178,486	0,104	-0,110
-373,058	14,369	-0,030	0,017
-372,044	-200,000	0,002	0,190
-371,029	101,790	0,010	-0,009
-370,015	-94,183	-0,083	-0,016
-369,000	178,693	-0,040	-0,043
-367,985	-132,357	0,063	-0,006
-366,971	209,308	-0,037	-0,042
-365,956	41,140	0,168	-0,110
-364,942	289,039	0,050	-0,067
-363,927	273,683	-0,123	0,159
-362,912	349,979	0,100	-0,143
-361,898	207,110	-0,152	-0,173
-360,883	-200,000	0,020	-0,144
-359,869	-133,543	0,137	0,012
-358,854	55,243	0,117	0,082
-357,839	469,270	0,035	0,057
-356,825	-142,732	0,201	0,014
-355,810	-200,000	0,019	-0,090
-354,796	800,000	0,009	-0,022
-353,781	-93,303	0,196	0,039
-352,766	-200,000	0,023	-0,146
-351,752	-200,000	0,014	-0,112
-350,737	-200,000	-0,023	0,153
-349,723	72,085	-0,053	0,040
-348,708	105,797	-0,009	-0,008
-347,693	-110,547	0,055	-0,008
-346,679	566,557	-0,060	-0,106
-345,664	-144,525	-0,096	0,006
-344,650	800,000	0,010	0,027
-343,635	34,820	0,071	-0,045
-342,620	800,000	0,076	0,184
-341,606	-95,655	-0,015	-0,003
-340,591	4,548	0,054	0,028
-339,577	268,219	0,061	0,077
-338,562	-86,082	0,048	-0,011
-337,548	201,861	-0,067	-0,075
-336,533	262,292	0,110	-0,138
-335,518	-42,930	0,127	-0,046
-334,504	-200,000	0,022	0,096
-333,489	-147,701	0,179	-0,011
-332,475	-131,858	0,049	-0,005
-331,460	-86,478	0,020	-0,004
-330,445	-159,200	0,111	-0,004
-329,431	3,021	0,061	-0,032
-328,416	-63,222	0,236	0,070
-327,402	-200,000	0,044	0,143
-326,387	-134,922	0,115	-0,010
-325,372	-159,194	-0,038	0,002
-324,358	-200,000	0,003	-0,076
-323,343	-200,000	-0,003	0,050
-322,329	182,552	0,046	0,049
-321,314	800,000	-0,048	0,128
-320,299	31,763	0,140	0,087
-319,285	800,000	-0,003	-0,007
-318,270	72,913	-0,034	-0,025
-317,256	800,000	-0,044	-0,107
-316,241	2,864	0,147	0,077
-315,226	-117,960	-0,123	0,016
-314,212	-131,370	-0,034	0,003
-313,197	-175,253	0,094	-0,002
-312,183	800,000	0,016	0,050
-311,168	-200,000	-0,019	0,076
-310,153	55,405	0,043	0,030
-309,139	610,778	0,057	-0,103
-308,124	58,214	-0,080	-0,057
-307,110	137,975	0,085	0,081
-306,095	-200,000	0,006	0,034
-305,080	-200,000	0,017	0,074
-304,066	-200,000	-0,019	0,090
-303,051	-200,000	0,004	-0,032
-302,037	-96,295	-0,011	-0,002
-301,022	-173,249	0,155	-0,003
-300,008	25,759	0,020	0,012
-298,993	-127,002	0,155	0,016
-297,978	-200,000	-0,040	0,136
-296,964	-167,621	0,130	0,004
-295,949	36,112	-0,031	-0,020
-294,935	-73,812	0,103	0,027
-293,920	700,131	-0,022	-0,043
-292,905	800,000	0,019	0,050
-291,891	82,616	0,072	0,057
-290,876	494,712	0,049	-0,082
-289,862	378,481	-0,040	0,059
-288,847	-200,000	-0,016	-0,118
-287,832	800,000	0,088	-0,198
-286,818	-34,054	-0,027	-0,011
-285,803	123,854	0,064	0,059
-284,789	400,899	-0,014	0,021
-283,774	-200,000	0,012	0,061
-282,759	333,510	-0,060	0,085
-281,745	-200,000	-0,003	0,078
-280,730	-126,918	0,134	-0,014
-279,716	-200,000	0,003	0,038
-278,701	-54,997	0,032	-0,010
-277,686	-200,000	0,005	-0,032
-276,672	280,362	-0,043	0,056
-275,657	-200,000	-0,001	-0,003
-274,643	51,778	-0,129	0,089
-273,628	312,387	-0,129	-0,176
-272,613	-200,000	0,016	-0,056
-271,599	66,966	0,055	0,040
-270,584	401,652	-0,030	-0,046
-269,570	143,866	-0,053	0,051
-268,555	-14,324	0,090	0,042
-267,540	238,972	-0,018	0,022
-266,526	114,677	0,065	-0,057
-265,511	-200,000	0,006	-0,126
-264,497	-73,150	0,116	-0,031
-263,482	-200,000	0,006	-0,105
-262,467	-200,000	0,007	-0,047
-261,453	473,090	0,061	0,101
-260,438	376,929	-0,045	-0,067
-259,424	800,000	0,051	0,108
-258,409	187,555	0,107	-0,115
-257,395	432,076	0,011	0,017
-256,380	46,508	-0,106	-0,071
-255,365	-144,492	0,099	-0,007
-254,351	165,461	0,007	0,007
-253,336	18,888	-0,070	-0,040
-252,322	-200,000	0,003	-0,094
-251,307	-81,328	0,034	0,008
-250,292	-23,058	-0,081	0,035
-249,278	-114,110	0,053	-0,007
-248,263	-200,000	0,012	0,105
-247,249	237,268	-0,035	0,042
-246,234	-62,526	-0,117	0,035
-245,219	282,084	0,013	-0,017
-244,205	312,240	-0,077	-0,104
-243,190	104,540	0,097	0,082
-242,176	-72,959	0,051	-0,014
-241,161	-125,117	0,076	-0,008
-240,146	-101,381	-0,152	0,027
-239,132	-200,000	0,019	0,110
-238,117	65,251	-0,112	-0,082
-237,103	6,211	-0,056	0,030
-236,088	-200,000	-0,041	-0,175
-235,073	-24,329	0,075	-0,032
-234,059	202,652	-0,097	0,109
-233,044	-200,000	0,095	0,000
-232,030	16,683	0,051	0,029
-231,015	19,501	-0,113	-0,065
-230,000	159,993	0,053	-0,053
-228,986	-10,803	0,025	0,012
-227,971	-77,455	0,173	0,043
-226,957	125,099	0,109	0,099
-225,942	746,305	-0,045	0,088
-224,927	124,428	0,123	0,112
-223,913	-200,000	-0,024	-0,189
-222,898	16,637	-0,089	-0,051
-221,884	64,292	-0,062	-0,045
-220,869	-175,767	-0,013	-0,000
-219,855	13,290	0,106	0,059
-218,840	-62,443	-0,130	0,039
-217,825	-43,643	0,050	0,018
-216,811	-200,000	0,018	-0,073
-215,796	-16,427	-0,142	-0,065
-214,782	-43,498	0,066	-0,024
-213,767	-60,374	0,104	0,032
-212,752	-200,000	-0,033	0,130
-211,738	-200,000	0,010	-0,056
-210,723	-23,891	-0,067	0,029
-209,709	332,464	0,044	-0,061
-208,694	224,931	0,023	-0,027
-207,679	-33,635	-0,216	-0,086
-206,665	14,608	0,013	0,007
-205,650	-69,909	0,025	-0,007
-204,636	-88,889	0,071	-0,015
-203,621	800,000	0,038	0,097
-202,606	-64,665	-0,068	0,020
-201,592	150,530	-0,098	0,096
-200,577	-11,175	-0,118	0,056
-199,563	-200,000	0,001	-0,053
-198,548	-103,069	-0,051	-0,009
-197,533	-42,239	-0,107	0,039
-196,519	471,949	0,011	0,017
-195,504	37,399	-0,026	-0,017
-194,490	-187,464	-0,060	-0,001
-193,475	-47,481	-0,137	0,048
-192,460	70,221	-0,054	0,040
-191,446	-200,000	-0,019	-0,070
-190,431	-200,000	-0,014	-0,061
-189,417	41,539	-0,051	0,033
-188,402	56,793	-0,085	0,059
-187,387	-25,354	0,071	-0,030
-186,373	-200,000	0,013	-0,208
-185,358	-60,702	-0,092	0,028
-184,344	123,142	-0,037	-0,033
-183,329	78,233	0,094	0,072
-182,315	613,351	0,055	-0,100
-181,300	-69,555	-0,045	0,012
-180,285	168,626	-0,016	-0,017
-179,271	-112,588	-0,062	-0,009
-178,256	32,688	-0,011	-0,007
-177,242	-200,000	0,027	0,112
-176,227	714,850	-0,025	0,047
-175,212	-92,181	-0,101	0,020
-174,198	-200,000	0,017	-0,068
-173,183	774,244	-0,103	-0,203
-172,169	38,151	-0,094	-0,060
-171,154	172,984	-0,076	-0,079
-170,139	9,909	-0,058	0,032
-169,125	3,131	-0,068	0,036
-168,110	162,518	0,035	0,035
-167,096	800,000	0,022	-0,047
-166,081	-200,000	-0,020	-0,207
-165,066	634,188	-0,017	-0,031
-164,052	-40,908	0,066	0,024
-163,037	60,303	-0,065	-0,046
-162,023	-200,000	-0,022	0,093
-161,008	-87,500	0,089	-0,019
-159,993	83,454	0,089	-0,070
-158,979	277,951	-0,030	0,038
-157,964	-81,688	-0,041	0,010
-156,950	164,321	-0,078	-0,079
-155,935	-200,000	-0,004	-0,086
-154,920	-62,142	0,045	0,013
-153,906	86,814	-0,075	0,059
-152,891	143,186	-0,030	0,029
-151,877	173,795	-0,080	-0,084
-150,862	-200,000	0,000	0,060
-149,847	71,580	0,071	-0,053
-148,833	-36,338	0,050	-0,019
-147,818	-86,999	0,137	0,030
-146,804	16,913	0,058	0,033
-145,789	-78,367	0,043	0,010
-144,775	-200,000	-0,000	-0,066
-143,760	87,293	-0,075	0,059
-142,745	-200,000	0,029	-0,130
-141,731	183,914	0,126	-0,134
-140,716	55,945	0,098	-0,068
-139,702	95,598	0,107	0,088
-138,687	-200,000	0,002	0,017
-137,672	-145,586	-0,056	-0,004
-136,658	-200,000	-0,016	0,126
-135,643	-200,000	0,011	0,079
-134,629	-37,778	-0,062	-0,024
-133,614	86,332	0,124	-0,098
-132,599	578,323	0,045	0,079
-131,585	-200,000	0,002	0,130
-130,570	-86,877	0,114	0,025
-129,556	171,111	0,040	-0,041
-128,541	26,731	-0,032	-0,019
-127,526	-109,777	-0,175	0,026
-126,512	-200,000	-0,039	0,159
-125,497	63,242	0,171	0,123
-124,483	27,059	-0,049	0,030
-123,468	-113,004	-0,177	0,025
-122,453	235,098	-0,117	-0,139
-121,439	800,000	0,015	-0,036
-120,424	408,989	0,007	-0,011
-119,410	800,000	0,038	0,117
-118,395	-200,000	-0,027	0,101
