DTS Sentinel unit serial number:	SN410029Multiplexer serial number:	ORYXHardware model number:	OX2-SRSoftware version number:	ORYX F/W v4,00 Oryx Data Collector v3.7.2.0data status	okinstallation	B6 Nyhavnadifferential loss correction	single-endedforward channel	channel 2reverse channel	N/Adate	2023/12/09time	07:05:08forward acquisition time	300,00reverse acquisition time	0,00gamma	499,1914k internal	0,3139k external	0,3139temperature offset calibration	1,0000default loss term (dB/km)	0,3820temperature slope calibration	1,0000multiplexer offset coefficient	1,0000multiplexer slope coefficient	1,0000fibre end	0,00T internal ref (°C)	18,56T ext. ref 1 (°C)	2,08T ext. ref 2 (°C)	2,07length (m)	temperature (°C)	Stokes	anti-Stokes-744,400	29,615	0,186	-0,117
-743,385	-83,910	-0,277	-0,065
-742,371	-52,243	0,104	-0,036
-741,356	0,565	-0,224	0,118
-740,342	800,000	0,081	0,193
-739,327	-77,579	-0,329	0,084
-738,312	-179,258	0,123	0,002
-737,298	-67,927	-0,283	0,081
-736,283	-200,000	0,003	-0,054
-735,269	8,244	-0,268	-0,149
-734,254	197,160	0,066	0,075
-733,239	21,199	-0,366	-0,220
-732,225	-187,259	0,212	0,002
-731,210	-156,601	-0,055	-0,002
-730,196	142,451	-0,069	0,068
-729,181	42,246	0,118	0,079
-728,167	800,000	-0,057	-0,127
-727,152	-131,289	-0,050	-0,005
-726,137	-160,967	-0,119	0,005
-725,123	-44,304	-0,139	-0,051
-724,108	15,957	0,064	-0,037
-723,094	800,000	-0,030	-0,072
-722,079	-25,313	-0,046	-0,020
-721,064	12,730	-0,035	-0,020
-720,050	377,879	-0,047	0,072
-719,035	380,493	0,034	0,051
-718,021	263,187	-0,044	-0,057
-717,006	61,374	-0,101	-0,074
-715,991	171,513	-0,046	-0,049
-714,977	-200,000	0,005	-0,139
-713,962	800,000	-0,009	-0,025
-712,948	177,159	0,111	-0,120
-711,933	-136,685	-0,073	-0,006
-710,918	299,794	-0,055	0,075
-709,904	293,954	-0,121	-0,165
-708,889	123,254	-0,045	0,042
-707,875	-147,345	-0,095	0,006
-706,860	-53,180	-0,138	0,047
-705,845	250,751	-0,085	-0,107
-704,831	378,201	0,037	0,056
-703,816	-200,000	-0,041	0,223
-702,802	-136,261	-0,072	0,006
-701,787	-200,000	0,012	-0,090
-700,772	800,000	0,021	-0,049
-699,758	800,000	-0,041	-0,128
-698,743	-200,000	0,012	-0,063
-697,729	457,047	-0,049	0,081
-696,714	-200,000	0,010	0,045
-695,699	52,175	-0,119	0,084
-694,685	-97,100	-0,140	0,027
-693,670	562,362	0,040	-0,071
-692,656	-89,291	0,038	-0,008
-691,641	-200,000	0,000	-0,062
-690,627	11,568	0,032	0,018
-689,612	-59,226	-0,032	-0,010
-688,597	-108,645	-0,031	-0,005
-687,583	-72,903	-0,157	0,042
-686,568	100,672	-0,091	0,078
-685,554	96,885	0,030	-0,025
-684,539	496,502	0,059	0,101
-683,524	-200,000	-0,020	-0,136
-682,510	-123,341	0,063	0,007
-681,495	6,310	-0,085	0,046
-680,481	-123,771	-0,123	0,014
-679,466	800,000	0,042	-0,121
-678,451	800,000	0,032	-0,080
-677,437	-170,251	-0,092	-0,002
-676,422	26,060	-0,114	0,070
-675,408	-200,000	0,050	-0,207
-674,393	800,000	-0,026	0,074
-673,378	-166,759	-0,127	0,004
-672,364	73,887	-0,037	0,029
-671,349	-29,337	-0,114	0,048
-670,335	240,774	0,017	-0,021
-669,320	69,245	0,083	-0,063
-668,305	-200,000	0,008	-0,084
-667,291	800,000	0,012	0,033
-666,276	-200,000	-0,026	-0,143
-665,262	-119,812	-0,043	0,005
-664,247	566,096	-0,060	-0,108
-663,232	-110,737	0,115	0,017
-662,218	-25,131	-0,165	-0,072
-661,203	492,939	0,026	0,045
-660,189	-52,789	-0,082	-0,028
-659,174	-200,000	0,003	0,030
-658,159	-200,000	-0,019	0,089
-657,145	-200,000	0,007	0,035
-656,130	284,275	0,044	-0,058
-655,116	237,868	0,086	-0,106
-654,101	-200,000	0,008	-0,051
-653,086	23,024	0,069	0,042
-652,072	281,923	-0,036	-0,048
-651,057	143,967	-0,052	0,052
-650,043	16,833	-0,163	0,095
-649,028	371,375	0,097	0,145
-648,014	-5,825	0,126	0,063
-646,999	800,000	-0,042	0,118
-645,984	800,000	-0,024	0,065
-644,970	800,000	0,011	-0,036
-643,955	-200,000	-0,020	-0,118
-642,941	123,688	-0,078	-0,072
-641,926	-200,000	0,034	-0,169
-640,911	334,600	0,022	-0,031
-639,897	-200,000	0,003	0,124
-638,882	-84,032	-0,080	0,019
-637,868	-200,000	-0,023	-0,099
-636,853	-80,926	-0,039	0,009
-635,838	800,000	0,030	-0,081
-634,824	416,760	0,074	-0,117
-633,809	-200,000	-0,054	0,179
-632,795	-169,812	0,136	-0,004
-631,780	-55,524	-0,029	-0,010
-630,765	-200,000	0,011	-0,213
-629,751	-200,000	0,028	-0,095
-628,736	290,660	-0,093	-0,125
-627,722	12,076	-0,133	-0,075
-626,707	44,061	-0,058	0,039
-625,692	50,027	0,136	-0,094
-624,678	800,000	0,032	0,094
-623,663	777,818	0,022	-0,046
-622,649	-200,000	-0,015	-0,179
-621,634	-200,000	0,012	-0,136
-620,619	-142,015	-0,035	-0,003
-619,605	144,312	-0,096	-0,094
-618,590	-140,802	0,162	0,012
-617,576	-200,000	0,036	0,129
-616,561	-200,000	-0,013	-0,089
-615,546	-200,000	-0,007	-0,024
-614,532	434,733	-0,050	-0,080
-613,517	-84,281	-0,054	-0,013
-612,503	32,362	-0,107	-0,068
-611,488	412,987	0,072	0,113
-610,474	51,793	0,088	0,062
-609,459	-38,223	-0,245	0,095
-608,444	-200,000	-0,003	0,063
-607,430	230,063	-0,066	0,080
-606,415	99,930	0,095	-0,081
-605,401	800,000	-0,028	0,070
-604,386	800,000	0,030	0,082
-603,371	800,000	-0,022	-0,049
-602,357	-134,599	0,106	-0,009
-601,342	-200,000	-0,002	-0,063
-600,328	-39,676	-0,068	0,026
-599,313	45,784	0,083	0,056
-598,298	38,110	-0,148	0,097
-597,284	-28,424	-0,111	0,047
-596,269	-64,545	-0,045	-0,013
-595,255	-65,534	0,089	-0,026
-594,240	800,000	-0,055	-0,123
-593,225	-88,620	-0,197	0,043
-592,211	261,361	0,098	0,125
-591,196	214,017	-0,023	-0,026
-590,182	-142,720	-0,118	0,008
-589,167	800,000	0,011	0,034
-588,152	104,625	0,073	0,063
-587,138	-109,891	-0,071	-0,011
-586,123	800,000	-0,017	-0,037
-585,109	23,590	0,054	0,033
-584,094	429,389	-0,012	0,019
-583,079	800,000	0,032	-0,094
-582,065	-31,578	0,099	0,041
-581,050	-34,915	0,086	0,035
-580,036	-36,819	-0,129	-0,051
-579,021	800,000	0,036	0,088
-578,006	-49,918	-0,007	0,002
-576,992	800,000	0,038	0,099
-575,977	-131,629	-0,084	-0,008
-574,963	77,487	0,083	-0,065
-573,948	-200,000	-0,016	-0,116
-572,934	-200,000	0,009	-0,040
-571,919	522,916	0,035	-0,061
-570,904	-103,803	-0,203	-0,035
-569,890	352,324	0,065	-0,095
-568,875	800,000	-0,059	-0,130
-567,861	377,063	-0,037	-0,055
-566,846	-200,000	0,013	0,050
-565,831	70,854	-0,081	0,061
-564,817	-200,000	-0,024	0,117
-563,802	-51,029	-0,034	0,012
-562,788	161,631	0,075	-0,077
-561,773	595,207	-0,059	0,108
-560,758	82,386	-0,064	0,051
-559,744	749,917	0,015	0,030
-558,729	-91,904	0,041	-0,008
-557,715	-65,540	-0,092	-0,027
-556,700	-9,579	-0,093	-0,045
-555,685	260,227	-0,048	-0,061
-554,671	800,000	0,041	0,110
-553,656	-153,739	0,141	-0,007
-552,642	480,581	-0,017	-0,028
-551,627	-200,000	0,010	0,035
-550,612	-108,728	-0,091	-0,014
-549,598	-11,558	-0,071	-0,034
-548,583	-97,137	0,024	0,005
-547,569	183,185	-0,085	-0,093
-546,554	-106,963	-0,112	0,018
-545,539	800,000	-0,009	0,018
-544,525	428,636	-0,041	-0,065
-543,510	-200,000	0,007	0,028
-542,496	-69,014	-0,110	-0,031
-541,481	235,438	0,015	0,018
-540,466	-104,213	0,123	0,021
-539,452	95,863	-0,139	0,117
-538,437	278,971	0,047	-0,062
-537,423	416,188	0,043	0,068
-536,408	-179,785	0,042	-0,001
-535,393	297,721	-0,045	-0,061
-534,379	89,893	-0,072	-0,059
-533,364	-81,023	0,064	0,016
-532,350	392,779	-0,105	0,162
-531,335	-200,000	0,007	0,052
-530,321	226,085	0,045	-0,054
-529,306	-33,517	0,039	-0,016
-528,291	56,191	-0,048	0,034
-527,277	213,255	-0,092	-0,107
-526,262	-119,004	-0,102	-0,013
-525,248	-200,000	-0,010	-0,150
-524,233	-200,000	0,001	0,077
-523,218	29,191	-0,071	0,044
-522,204	82,980	0,015	-0,012
-521,189	140,282	-0,078	-0,076
-520,175	800,000	-0,051	-0,164
-519,160	-57,032	-0,090	-0,029
-518,145	-26,465	0,027	-0,011
-517,131	337,680	0,023	-0,033
-516,116	218,566	0,060	0,071
-515,102	141,663	-0,091	0,089
-514,087	-121,116	0,052	0,006
-513,072	-63,867	0,054	-0,016
-512,058	-100,399	-0,072	0,013
-511,043	-32,937	0,084	-0,034
-510,029	60,979	-0,073	0,053
-509,014	-200,000	-0,016	0,152
-507,999	-56,879	-0,083	-0,027
-506,985	-154,584	0,125	-0,006
-505,970	135,195	-0,140	-0,134
-504,956	-200,000	-0,006	0,093
-503,941	-90,306	0,030	-0,006
-502,926	114,423	0,063	-0,056
-501,912	78,976	0,141	0,111
-500,897	-142,199	0,043	0,003
-499,883	-60,948	0,030	0,009
-498,868	24,366	-0,088	-0,053
-497,853	-62,522	-0,103	-0,031
-496,839	252,456	-0,033	-0,041
-495,824	-200,000	-0,014	0,063
-494,810	-188,630	-0,107	-0,001
-493,795	45,574	0,102	-0,069
-492,781	5,376	0,154	-0,083
-491,766	-50,264	0,029	0,010
-490,751	-163,946	-0,183	-0,006
-489,737	800,000	-0,047	-0,098
-488,722	-11,029	0,105	-0,051
-487,708	-123,215	-0,117	-0,014
-486,693	-101,438	-0,066	-0,012
-485,678	-43,868	-0,064	0,024
-484,664	36,047	-0,140	-0,090
-483,649	800,000	-0,033	-0,107
-482,635	733,820	0,059	-0,117
-481,620	800,000	-0,048	-0,111
-480,605	-65,725	0,026	0,008
-479,591	12,931	-0,047	0,027
-478,576	226,700	-0,058	-0,070
-477,562	-75,486	-0,030	-0,008
-476,547	-96,768	-0,076	0,014
-475,532	-79,111	0,030	-0,007
-474,518	373,144	0,069	-0,103
-473,503	-9,752	0,014	0,007
-472,489	-200,000	-0,011	0,167
-471,474	78,440	0,093	0,073
-470,459	800,000	0,067	0,146
-469,445	800,000	-0,033	-0,099
-468,430	-200,000	0,009	-0,032
-467,416	289,986	-0,003	-0,004
-466,401	-200,000	-0,017	0,118
-465,386	133,427	0,070	0,067
-464,372	800,000	0,036	-0,093
-463,357	-200,000	-0,026	0,087
-462,343	-72,962	0,065	0,017
-461,328	800,000	0,076	0,159
-460,313	-13,914	0,165	0,078
-459,299	89,596	-0,136	0,111
-458,284	800,000	0,016	0,039
-457,270	237,066	-0,099	0,121
-456,255	-111,881	-0,047	-0,007
-455,241	-154,219	-0,038	0,002
-454,226	800,000	-0,019	-0,051
-453,211	-94,971	-0,101	0,020
-452,197	-200,000	0,013	-0,184
-451,182	800,000	0,052	-0,117
-450,168	129,800	-0,151	0,142
-449,153	580,192	-0,005	0,009
-448,138	-154,436	0,054	0,003
-447,124	-200,000	0,003	-0,150
-446,109	148,660	-0,041	-0,040
-445,095	65,044	0,047	0,035
-444,080	-102,903	-0,067	0,011
-443,065	-116,501	0,134	-0,018
-442,051	-151,179	0,071	-0,004
-441,036	800,000	0,050	-0,143
-440,022	800,000	-0,058	-0,152
-439,007	396,009	0,100	0,154
-437,992	-200,000	0,014	-0,108
-436,978	83,746	0,124	0,099
-435,963	-200,000	-0,016	0,077
-434,949	-200,000	-0,019	0,108
-433,934	364,621	-0,028	-0,041
-432,919	619,766	0,044	-0,082
-431,905	800,000	0,019	0,044
-430,890	-200,000	-0,012	0,074
-429,876	-66,272	-0,096	0,028
-428,861	-83,139	0,111	0,026
-427,846	-71,437	-0,108	-0,029
-426,832	-200,000	-0,020	-0,085
-425,817	-200,000	-0,016	0,056
-424,803	-200,000	-0,025	-0,089
-423,788	-38,714	0,061	0,023
-422,773	242,446	-0,066	-0,081
-421,759	-200,000	-0,019	0,081
-420,744	-53,973	0,101	-0,033
-419,730	-52,802	0,087	-0,029
-418,715	-200,000	0,008	-0,138
-417,701	-191,811	0,043	-0,000
-416,686	227,578	0,055	0,065
-415,671	-162,351	-0,096	-0,003
-414,657	-44,681	0,169	-0,061
-413,642	-200,000	0,028	0,108
-412,628	-63,110	0,040	0,012
-411,613	-200,000	-0,005	-0,060
-410,598	-200,000	0,006	-0,112
-409,584	800,000	-0,056	0,122
-408,569	86,646	-0,068	-0,055
-407,555	800,000	0,063	0,171
-406,540	514,089	0,027	-0,046
-405,525	260,084	-0,067	0,085
-404,511	-131,410	-0,110	-0,010
-403,496	800,000	0,025	-0,058
-402,482	-200,000	0,005	-0,015
-401,467	-200,000	-0,007	0,056
-400,452	-200,000	0,039	0,137
-399,438	-200,000	0,003	-0,083
-398,423	53,682	0,075	0,053
-397,409	672,005	0,039	0,075
-396,394	-200,000	0,039	0,152
-395,379	-64,685	-0,068	-0,020
-394,365	47,383	0,062	-0,042
-393,350	368,346	0,105	0,155
-392,336	-200,000	-0,041	-0,134
-391,321	-57,366	0,063	0,020
-390,306	-200,000	0,031	-0,152
-389,292	596,176	-0,079	0,144
-388,277	-200,000	0,001	-0,135
-387,263	311,664	-0,044	0,061
-386,248	39,329	0,084	0,055
-385,233	-142,553	0,132	0,009
-384,219	-200,000	0,023	0,134
-383,204	-5,389	-0,046	0,023
-382,190	-200,000	-0,007	0,048
-381,175	-68,710	-0,093	-0,026
-380,160	314,195	0,027	0,037
-379,146	-200,000	0,005	-0,042
-378,131	800,000	0,017	-0,047
-377,117	-200,000	-0,031	0,144
-376,102	302,141	0,015	-0,021
-375,088	-16,687	-0,081	-0,037
-374,073	-148,828	0,130	0,008
-373,058	-81,543	-0,038	0,009
-372,044	-95,250	0,166	-0,032
-371,029	-141,494	-0,037	-0,003
-370,015	258,759	0,066	0,083
-369,000	509,718	-0,068	0,116
-367,985	-200,000	0,003	-0,142
-366,971	35,820	0,073	-0,047
-365,956	25,128	-0,062	-0,038
-364,942	-36,128	0,028	0,011
-363,927	-48,181	0,069	0,024
-362,912	-200,000	-0,092	0,000
-361,898	-200,000	0,001	-0,029
-360,883	114,859	0,060	0,054
-359,869	-28,283	0,064	-0,027
-358,854	29,205	-0,058	0,036
-357,839	-44,831	0,130	0,047
-356,825	800,000	-0,032	0,091
-355,810	800,000	-0,060	-0,123
-354,796	-200,000	-0,008	-0,167
-353,781	292,776	-0,118	-0,158
-352,766	118,094	-0,061	-0,055
-351,752	-7,486	-0,028	0,014
-350,737	-133,515	0,079	-0,007
-349,723	29,122	0,115	0,071
-348,708	-2,026	0,215	-0,110
-347,693	-86,034	-0,092	0,021
-346,679	20,069	-0,010	-0,006
-345,664	87,559	0,037	-0,030
-344,650	70,036	0,130	-0,098
-343,635	-200,000	0,003	0,145
-342,620	-86,243	0,214	-0,048
-341,606	23,311	0,085	0,051
-340,591	236,953	0,054	-0,065
-339,577	-138,206	-0,083	-0,007
-338,562	-131,063	-0,113	-0,011
-337,548	145,672	-0,105	-0,102
-336,533	51,772	0,051	0,035
-335,518	400,400	0,030	0,047
-334,504	800,000	0,016	-0,034
-333,489	-84,641	-0,063	0,014
-332,475	-200,000	0,003	0,059
-331,460	800,000	0,062	-0,181
-330,445	-200,000	0,005	-0,050
-329,431	-200,000	0,004	0,039
-328,416	-200,000	0,019	-0,128
-327,402	-83,379	-0,135	-0,031
-326,387	-200,000	-0,024	0,156
-325,372	-124,146	0,066	-0,007
-324,358	10,233	-0,047	-0,026
-323,343	129,963	-0,044	0,041
-322,329	110,273	0,032	-0,028
-321,314	800,000	-0,008	0,026
-320,299	-200,000	-0,006	0,019
-319,285	-61,574	-0,066	0,020
-318,270	-98,064	-0,197	0,037
-317,256	-200,000	0,018	-0,106
-316,241	393,258	0,045	-0,069
-315,226	-156,737	0,130	-0,006
-314,212	61,327	0,052	-0,038
-313,197	-200,000	0,007	-0,098
-312,183	-200,000	0,013	0,140
-311,168	-200,000	0,021	0,105
-310,153	-200,000	0,011	-0,069
-309,139	-48,263	-0,104	-0,036
-308,124	24,762	-0,107	0,064
-307,110	162,877	0,060	0,062
-306,095	117,250	0,130	0,116
-305,080	-200,000	-0,005	0,150
-304,066	98,939	-0,071	0,060
-303,051	-200,000	-0,015	-0,101
-302,037	-200,000	-0,009	-0,202
-301,022	800,000	-0,006	0,016
-300,008	-54,243	-0,070	0,023
-298,993	213,591	0,108	0,124
-297,978	-200,000	-0,023	-0,082
-296,964	155,292	-0,065	0,065
-295,949	-177,069	0,101	-0,002
-294,935	800,000	-0,016	-0,051
-293,920	205,706	0,074	0,084
-292,905	-26,691	0,106	0,045
-291,891	11,140	0,133	-0,074
-290,876	-6,253	0,104	0,052
-289,862	-200,000	-0,012	0,052
-288,847	19,463	-0,104	-0,060
-287,832	49,238	-0,055	-0,037
-286,818	586,929	0,055	0,099
-285,803	-16,736	0,041	0,019
-284,789	-200,000	-0,018	-0,077
-283,774	-200,000	0,010	-0,127
-282,759	-200,000	0,010	-0,104
-281,745	677,338	0,029	-0,055
-280,730	796,216	0,097	-0,195
-279,716	800,000	-0,038	0,090
-278,701	-131,578	0,040	0,004
-277,686	-99,836	0,116	0,021
-276,672	-15,836	0,077	0,036
-275,657	-200,000	0,003	-0,043
-274,643	-147,474	-0,052	0,003
-273,628	-121,652	0,035	0,004
-272,613	795,870	0,046	-0,094
-271,599	564,571	-0,029	0,052
-270,584	-77,144	0,211	-0,053
-269,570	-200,000	-0,015	0,087
-268,555	299,089	0,049	0,066
-267,540	800,000	0,039	-0,093
-266,526	800,000	0,006	-0,015
-265,511	100,507	0,042	-0,035
-264,497	-138,625	-0,080	-0,006
-263,482	-200,000	0,008	0,070
-262,467	-41,215	0,186	-0,069
-261,453	-200,000	0,025	0,158
-260,438	424,269	0,063	0,099
-259,424	-190,625	-0,110	-0,001
-258,409	-200,000	-0,007	-0,084
-257,395	-200,000	0,020	0,112
-256,380	26,823	-0,016	-0,010
-255,365	-29,247	0,087	0,036
-254,351	11,587	-0,111	0,062
-253,336	-40,386	-0,074	0,028
-252,322	800,000	0,024	-0,063
-251,307	800,000	-0,008	-0,025
-250,292	427,627	-0,023	0,037
-249,278	-7,499	-0,078	0,038
-248,263	800,000	0,062	0,157
-247,249	-200,000	-0,010	0,032
-246,234	-200,000	-0,030	0,154
-245,219	139,393	-0,020	0,019
-244,205	-200,000	-0,032	0,123
-243,190	276,966	-0,062	0,080
-242,176	800,000	-0,089	0,194
-241,161	-200,000	0,031	0,101
-240,146	18,699	-0,156	0,091
-239,132	52,770	-0,091	0,063
-238,117	-57,398	-0,091	0,029
-237,103	-200,000	0,017	0,074
-236,088	-12,248	0,089	0,042
-235,073	-7,782	0,103	-0,050
-234,059	-6,204	0,021	-0,011
-233,044	-120,644	-0,091	-0,011
-232,030	-200,000	-0,008	0,032
-231,015	-111,075	0,044	-0,007
-230,000	-83,100	0,069	-0,016
-228,986	-200,000	-0,026	-0,225
-227,971	-200,000	0,007	-0,048
-226,957	332,894	-0,059	-0,083
-225,942	-144,977	-0,109	-0,007
-224,927	-108,362	0,071	-0,011
-223,913	-200,000	-0,023	0,090
-222,898	-21,477	-0,050	-0,022
-221,884	800,000	-0,016	-0,039
-220,869	-194,459	0,091	-0,001
-219,855	-200,000	0,002	-0,036
-218,840	800,000	0,012	0,030
-217,825	-200,000	0,001	0,166
-216,811	-109,133	0,070	-0,011
-215,796	87,363	-0,062	-0,050
-214,782	703,750	-0,042	-0,081
-213,767	117,261	-0,022	-0,020
-212,752	-200,000	-0,007	0,031
-211,738	-186,021	0,115	-0,001
-210,723	61,028	0,085	-0,061
-209,709	-200,000	0,002	-0,098
-208,694	111,404	-0,055	-0,048
-207,679	347,685	-0,031	-0,044
-206,665	-71,260	-0,084	-0,023
-205,650	-10,571	0,121	-0,058
-204,636	22,636	0,082	0,048
-203,621	-96,391	-0,146	-0,028
-202,606	-67,912	0,166	0,047
-201,592	217,855	-0,079	-0,092
-200,577	-133,214	0,006	0,001
-199,563	250,166	-0,054	0,067
-198,548	689,180	-0,065	0,123
-197,533	-56,575	0,012	0,004
-196,519	-66,038	0,092	-0,027
-195,504	800,000	-0,030	0,071
-194,490	-164,909	0,045	0,001
-193,475	-18,877	-0,081	0,036
-192,460	221,779	-0,007	-0,009
-191,446	-160,691	-0,091	0,003
-190,431	800,000	-0,031	0,086
-189,417	-117,096	-0,044	0,006
-188,402	-104,764	0,097	0,016
-187,387	28,766	0,015	0,009
-186,373	-200,000	0,019	-0,077
-185,358	-60,269	0,070	-0,021
-184,344	683,510	0,003	-0,006
-183,329	-200,000	0,002	0,036
-182,315	-77,319	0,161	-0,040
-181,300	-128,012	-0,062	-0,006
-180,285	800,000	0,016	-0,047
-179,271	-122,944	-0,152	0,018
-178,256	-95,180	0,079	0,015
-177,242	-145,892	0,084	-0,005
-176,227	800,000	-0,010	-0,021
-175,212	-95,735	0,106	-0,020
-174,198	-200,000	-0,000	-0,064
-173,183	313,631	0,030	-0,041
-172,169	-200,000	-0,010	-0,071
-171,154	131,641	-0,032	0,030
-170,139	-200,000	-0,015	0,058
-169,125	51,483	0,148	0,101
-168,110	-200,000	-0,022	0,108
-167,096	800,000	0,025	0,054
-166,081	279,002	0,065	0,084
-165,066	-200,000	0,011	-0,041
-164,052	320,105	-0,035	-0,049
-163,037	-38,113	0,036	-0,014
-162,023	-38,227	-0,110	0,042
-161,008	-200,000	0,024	0,093
-159,993	15,567	0,042	-0,024
-158,979	-57,223	-0,090	-0,029
-157,964	-99,081	-0,106	0,019
-156,950	-200,000	-0,017	0,144
-155,935	-120,743	0,103	-0,013
-154,920	-17,075	-0,048	-0,022
-153,906	594,237	0,023	-0,041
-152,891	56,237	-0,074	-0,052
-151,877	74,315	-0,030	-0,023
-150,862	-200,000	-0,028	-0,121
-149,847	-32,350	0,130	-0,052
-148,833	-200,000	0,007	0,135
-147,818	707,363	-0,006	0,011
-146,804	-200,000	0,034	0,152
-145,789	73,520	0,096	0,073
-144,775	415,628	-0,047	-0,072
-143,760	233,619	-0,056	0,066
-142,745	-6,873	0,093	-0,046
-141,731	-200,000	-0,006	0,037
-140,716	193,672	0,025	0,028
-139,702	308,078	0,096	-0,131
-138,687	481,897	-0,050	-0,082
-137,672	90,040	-0,098	0,080
-136,658	-37,041	-0,099	-0,038
-135,643	-9,255	0,114	-0,055
-134,629	-8,020	-0,044	0,021
-133,614	-39,983	-0,045	-0,017
-132,599	-200,000	0,007	0,033
-131,585	180,509	-0,088	0,094
-130,570	131,489	0,072	0,067
-129,556	-52,047	-0,093	0,031
-128,541	-110,528	0,133	-0,020
-127,526	-111,180	0,147	0,022
-126,512	88,664	-0,018	0,014
-125,497	-6,061	-0,075	0,037
-124,483	-9,991	-0,063	0,030
-123,468	50,782	0,018	0,012
-122,453	-88,639	-0,015	-0,003
-121,439	48,220	-0,177	-0,120
-120,424	-88,383	0,023	0,005
