DTS Sentinel unit serial number:	SN410029Multiplexer serial number:	ORYXHardware model number:	OX2-SRSoftware version number:	ORYX F/W v4,00 Oryx Data Collector v3.7.2.0data status	okinstallation	B6 Nyhavnadifferential loss correction	single-endedforward channel	channel 2reverse channel	N/Adate	2023/12/09time	11:45:08forward acquisition time	300,00reverse acquisition time	0,00gamma	499,1914k internal	0,3139k external	0,3139temperature offset calibration	1,0000default loss term (dB/km)	0,3820temperature slope calibration	1,0000multiplexer offset coefficient	1,0000multiplexer slope coefficient	1,0000fibre end	0,00T internal ref (°C)	18,95T ext. ref 1 (°C)	3,01T ext. ref 2 (°C)	3,00length (m)	temperature (°C)	Stokes	anti-Stokes-744,400	-200,000	-0,013	-0,118
-743,385	-107,119	-0,313	0,051
-742,371	118,654	0,039	-0,036
-741,356	-8,302	-0,369	0,184
-740,342	45,346	0,109	-0,075
-739,327	-36,730	-0,252	0,100
-738,312	-37,125	0,085	-0,034
-737,298	-171,619	-0,280	-0,007
-736,283	-47,997	0,166	-0,059
-735,269	40,293	-0,252	0,168
-734,254	-167,653	0,162	-0,005
-733,239	-9,423	-0,485	-0,239
-732,225	-141,415	0,181	-0,013
-731,210	7,751	0,022	-0,012
-730,196	426,100	-0,040	-0,063
-729,181	98,086	-0,021	0,018
-728,167	800,000	-0,076	-0,174
-727,152	-82,942	-0,084	0,020
-726,137	-7,405	-0,037	-0,019
-725,123	-160,602	-0,094	0,004
-724,108	-50,125	-0,047	-0,016
-723,094	-73,272	-0,079	0,021
-722,079	-200,000	-0,009	-0,123
-721,064	-200,000	-0,001	-0,037
-720,050	-72,194	0,076	0,021
-719,035	30,885	0,031	-0,020
-718,021	-114,838	-0,113	0,016
-717,006	800,000	0,035	-0,115
-715,991	45,518	-0,080	-0,054
-714,977	-200,000	-0,006	-0,023
-713,962	-30,659	-0,150	-0,063
-712,948	800,000	-0,005	-0,012
-711,933	-1,687	0,035	-0,018
-710,918	-200,000	-0,008	0,092
-709,904	5,758	0,081	0,044
-708,889	-65,178	-0,015	0,005
-707,875	211,681	0,067	-0,079
-706,860	-13,074	-0,162	0,078
-705,845	689,120	0,062	-0,121
-704,831	207,700	0,029	-0,034
-703,816	-200,000	-0,053	-0,187
-702,802	-61,007	-0,090	-0,028
-701,787	165,125	-0,146	-0,153
-700,772	358,157	-0,049	0,073
-699,758	61,375	-0,015	0,011
-698,743	451,989	-0,063	0,103
-697,729	-200,000	-0,071	-0,000
-696,714	-200,000	0,021	0,117
-695,699	-26,689	-0,167	0,072
-694,685	-200,000	0,018	0,075
-693,670	46,467	0,066	-0,045
-692,656	800,000	0,063	-0,133
-691,641	-200,000	-0,009	0,082
-690,627	-152,662	-0,025	-0,001
-689,612	467,732	-0,046	-0,077
-688,597	124,665	-0,038	0,035
-687,583	-200,000	-0,031	-0,124
-686,568	265,546	-0,075	-0,097
-685,554	800,000	0,013	-0,043
-684,539	152,690	-0,027	0,028
-683,524	800,000	-0,017	0,038
-682,510	-5,097	-0,093	-0,047
-681,495	278,100	0,045	-0,059
-680,481	45,409	0,057	-0,039
-679,466	270,503	-0,108	-0,140
-678,451	281,250	-0,034	-0,045
-677,437	-101,161	0,057	-0,010
-676,422	143,671	-0,093	0,092
-675,408	-200,000	0,000	-0,207
-674,393	729,410	-0,084	0,167
-673,378	-200,000	-0,004	-0,099
-672,364	41,180	-0,082	-0,055
-671,349	-200,000	-0,030	-0,121
-670,335	569,819	0,058	-0,105
-669,320	-200,000	0,022	0,110
-668,305	178,865	-0,032	0,034
-667,291	24,124	-0,131	-0,080
-666,276	441,314	-0,050	0,082
-665,262	800,000	-0,047	-0,122
-664,247	-59,929	-0,028	-0,009
-663,232	591,051	0,023	0,043
-662,218	2,588	0,039	0,021
-661,203	-87,660	-0,162	0,036
-660,189	800,000	-0,098	0,232
-659,174	-177,493	-0,078	0,001
-658,159	-56,303	-0,103	0,034
-657,145	-4,829	-0,036	0,018
-656,130	296,226	0,013	-0,018
-655,116	166,729	0,047	0,049
-654,101	333,151	-0,055	-0,079
-653,086	53,490	0,074	-0,052
-652,072	-78,234	0,052	-0,013
-651,057	91,153	-0,183	0,152
-650,043	34,846	-0,115	-0,074
-649,028	800,000	0,070	-0,188
-648,014	-200,000	0,039	0,222
-646,999	-96,603	-0,115	0,022
-645,984	-34,453	-0,070	-0,028
-644,970	-83,574	-0,042	0,010
-643,955	-200,000	-0,013	-0,082
-642,941	-146,803	-0,089	0,006
-641,926	229,480	-0,065	-0,079
-640,911	0,325	0,084	0,044
-639,897	-200,000	0,030	0,119
-638,882	-183,874	0,051	0,001
-637,868	-200,000	-0,030	0,120
-636,853	651,255	0,073	-0,140
-635,838	799,658	-0,033	-0,068
-634,824	800,000	0,055	-0,150
-633,809	291,723	0,088	-0,119
-632,795	-200,000	-0,003	-0,038
-631,780	132,667	-0,067	0,063
-630,765	-200,000	0,026	-0,115
-629,751	180,171	-0,077	-0,083
-628,736	-52,163	0,096	-0,033
-627,722	542,633	0,066	-0,116
-626,707	800,000	0,033	0,069
-625,692	-56,421	0,065	0,021
-624,678	-126,218	-0,101	0,011
-623,663	-200,000	0,016	0,063
-622,649	-200,000	0,022	-0,174
-621,634	-69,025	-0,044	0,013
-620,619	115,394	0,037	-0,033
-619,605	-200,000	0,030	0,101
-618,590	353,104	0,046	0,068
-617,576	-168,208	0,140	-0,004
-616,561	-73,078	-0,021	0,006
-615,546	-124,574	0,052	-0,006
-614,532	-35,645	-0,071	0,028
-613,517	213,847	-0,004	-0,005
-612,503	94,808	-0,089	-0,074
-611,488	-200,000	0,026	0,101
-610,474	383,349	0,014	0,021
-609,459	60,868	0,076	0,056
-608,444	69,527	0,068	0,052
-607,430	-102,488	-0,103	-0,018
-606,415	167,082	0,073	0,076
-605,401	-200,000	0,021	0,100
-604,386	419,033	0,076	-0,120
-603,371	-13,266	0,192	0,091
-602,357	392,434	-0,093	0,142
-601,342	-182,596	-0,092	-0,001
-600,328	116,906	0,058	0,053
-599,313	150,188	0,091	-0,092
-598,298	-41,787	0,104	0,039
-597,284	29,132	0,061	-0,038
-596,269	-200,000	-0,003	0,097
-595,255	174,863	-0,035	-0,038
-594,240	77,770	-0,021	-0,016
-593,225	800,000	-0,033	-0,073
-592,211	-29,358	-0,133	-0,056
-591,196	6,625	0,112	0,061
-590,182	-200,000	0,010	0,165
-589,167	-162,789	0,056	-0,002
-588,152	-98,201	-0,128	-0,024
-587,138	-200,000	-0,012	-0,056
-586,123	512,421	-0,027	0,047
-585,109	93,274	-0,155	-0,129
-584,094	210,436	-0,112	-0,130
-583,079	78,935	0,067	-0,053
-582,065	26,747	0,079	0,049
-581,050	-200,000	0,004	0,062
-580,036	-111,057	0,133	-0,020
-579,021	-166,192	-0,117	-0,004
-578,006	800,000	0,044	-0,101
-576,992	-25,271	-0,080	-0,035
-575,977	72,721	-0,095	-0,073
-574,963	49,060	0,178	0,123
-573,948	-200,000	0,017	0,112
-572,934	140,230	-0,047	0,046
-571,919	117,168	0,109	-0,098
-570,904	-200,000	0,002	-0,041
-569,890	-200,000	-0,007	0,112
-568,875	-17,099	0,088	-0,041
-567,861	-200,000	-0,011	0,098
-566,846	-73,441	0,179	-0,048
-565,831	-44,908	-0,179	0,065
-564,817	800,000	0,026	0,073
-563,802	-179,304	-0,073	0,001
-562,788	-200,000	-0,022	-0,083
-561,773	277,669	-0,067	-0,088
-560,758	88,037	-0,059	-0,048
-559,744	3,165	-0,098	0,052
-558,729	-200,000	0,008	-0,040
-557,715	800,000	-0,031	-0,072
-556,700	-93,674	-0,126	0,025
-555,685	74,631	0,071	-0,055
-554,671	401,840	-0,025	-0,039
-553,656	-150,412	-0,040	0,002
-552,642	800,000	-0,004	0,010
-551,627	86,540	-0,009	-0,007
-550,612	4,283	-0,115	-0,062
-549,598	37,386	0,069	0,045
-548,583	-200,000	0,004	0,075
-547,569	82,364	-0,091	0,073
-546,554	606,869	0,043	0,079
-545,539	147,410	-0,015	-0,015
-544,525	-94,568	0,105	0,021
-543,510	-76,238	-0,056	-0,014
-542,496	-87,448	0,069	0,015
-541,481	-200,000	0,008	-0,185
-540,466	800,000	0,014	-0,031
-539,452	113,814	0,103	-0,092
-538,437	128,241	-0,085	0,080
-537,423	800,000	0,046	-0,101
-536,408	213,819	0,067	0,078
-535,393	-143,614	-0,103	0,007
-534,379	90,469	-0,058	-0,048
-533,364	-200,000	-0,021	-0,102
-532,350	-200,000	0,006	0,035
-531,335	572,685	0,025	-0,045
-530,321	315,834	0,117	0,162
-529,306	-27,149	-0,100	0,043
-528,291	187,807	-0,061	0,067
-527,277	-55,548	-0,135	0,044
-526,262	191,618	-0,039	0,043
-525,248	800,000	0,031	-0,090
-524,233	182,031	-0,072	-0,078
-523,218	79,037	-0,045	0,035
-522,204	-87,798	0,085	0,019
-521,189	-200,000	0,030	0,102
-520,175	84,941	-0,066	-0,053
-519,160	507,749	0,036	0,062
-518,145	-12,786	0,098	0,047
-517,131	31,548	-0,121	0,076
-516,116	-132,555	-0,046	0,004
-515,102	62,768	0,032	0,024
-514,087	79,226	-0,072	-0,057
-513,072	390,200	0,074	-0,113
-512,058	-83,122	0,097	-0,023
-511,043	-28,831	-0,046	-0,019
-510,029	29,132	0,110	0,069
-509,014	-200,000	-0,012	-0,102
-507,999	-134,469	0,060	-0,005
-506,985	271,753	-0,066	-0,086
-505,970	44,301	0,074	-0,050
-504,956	-19,782	-0,059	-0,027
-503,941	85,485	-0,043	-0,035
-502,926	173,716	-0,075	0,079
-501,912	15,418	-0,170	-0,098
-500,897	-200,000	-0,015	-0,080
-499,883	133,170	-0,053	0,051
-498,868	-50,346	-0,129	0,044
-497,853	141,836	-0,094	-0,091
-496,839	26,448	0,110	0,067
-495,824	-136,167	-0,100	-0,008
-494,810	170,883	0,107	0,113
-493,795	-200,000	0,006	-0,022
-492,781	800,000	-0,037	0,095
-491,766	-59,729	0,139	0,043
-490,751	-200,000	0,003	0,071
-489,737	55,975	0,097	0,069
-488,722	-200,000	-0,002	0,087
-487,708	-200,000	-0,005	0,045
-486,693	-200,000	-0,018	0,075
-485,678	-41,403	0,082	-0,031
-484,664	-95,651	-0,103	-0,020
-483,649	3,854	-0,121	-0,065
-482,635	-200,000	-0,031	-0,108
-481,620	800,000	-0,049	-0,118
-480,605	-200,000	-0,020	-0,099
-479,591	-200,000	-0,003	0,052
-478,576	-200,000	-0,006	-0,019
-477,562	-157,988	-0,099	0,004
-476,547	-144,158	-0,069	-0,005
-475,532	-200,000	-0,001	-0,078
-474,518	-79,609	0,099	-0,024
-473,503	-200,000	0,025	-0,094
-472,489	367,786	0,051	-0,075
-471,474	-147,687	0,039	0,002
-470,459	316,939	0,018	0,025
-469,445	-41,007	-0,090	0,034
-468,430	-49,161	-0,073	-0,025
-467,416	-200,000	-0,009	0,041
-466,401	-46,716	-0,079	-0,028
-465,386	-37,376	0,083	-0,032
-464,372	53,515	0,046	-0,032
-463,357	-200,000	0,020	0,136
-462,343	-140,971	-0,157	0,012
-461,328	412,818	-0,048	-0,075
-460,313	-179,000	-0,022	-0,000
-459,299	-28,464	-0,100	0,042
-458,284	-200,000	0,008	0,112
-457,270	-53,318	0,164	0,055
-456,255	-127,625	-0,114	-0,012
-455,241	31,697	-0,087	-0,055
-454,226	-71,774	0,026	-0,007
-453,211	-200,000	0,023	-0,125
-452,197	-200,000	0,037	0,169
-451,182	539,370	-0,027	0,047
-450,168	-146,909	-0,014	-0,001
-449,153	-200,000	-0,005	0,017
-448,138	-164,041	0,166	-0,006
-447,124	-18,591	0,120	-0,054
-446,109	396,906	-0,033	-0,051
-445,095	1,131	-0,055	0,029
-444,080	-29,940	-0,052	-0,022
-443,065	-13,198	0,098	-0,046
-442,051	-17,030	-0,190	-0,088
-441,036	697,245	-0,019	-0,037
-440,022	9,533	-0,045	-0,025
-439,007	101,313	0,058	-0,049
-437,992	723,470	0,063	-0,124
-436,978	-200,000	-0,003	0,054
-435,963	-66,825	-0,180	-0,052
-434,949	800,000	-0,044	0,104
-433,934	139,253	0,010	-0,010
-432,919	-69,273	-0,134	0,037
-431,905	-200,000	0,006	0,018
-430,890	-176,088	0,142	0,003
-429,876	-200,000	-0,002	-0,018
-428,861	220,711	0,056	-0,066
-427,846	-200,000	-0,026	0,186
-426,832	-200,000	0,014	-0,088
-425,817	98,628	0,037	0,031
-424,803	17,263	-0,142	0,082
-423,788	-39,493	0,113	-0,043
-422,773	800,000	0,058	0,170
-421,759	417,754	0,060	-0,094
-420,744	-90,814	-0,097	-0,020
-419,730	15,550	-0,054	-0,031
-418,715	156,330	0,137	-0,138
-417,701	-109,675	0,169	-0,026
-416,686	144,523	-0,050	0,049
-415,671	353,936	0,051	0,074
-414,657	-200,000	0,015	0,000
-413,642	-200,000	0,009	-0,074
-412,628	800,000	0,052	-0,111
-411,613	800,000	0,048	-0,099
-410,598	-200,000	-0,015	0,084
-409,584	28,284	0,049	-0,030
-408,569	-65,487	0,042	-0,012
-407,555	39,542	0,169	0,111
-406,540	-200,000	-0,029	0,246
-405,525	245,686	0,018	-0,022
-404,511	-200,000	-0,015	-0,083
-403,496	128,768	0,070	-0,065
-402,482	312,091	0,025	0,035
-401,467	118,282	-0,098	-0,088
-400,452	696,009	-0,029	0,056
-399,438	100,578	0,041	0,035
-398,423	39,592	-0,037	0,024
-397,409	328,613	0,066	-0,092
-396,394	688,663	0,009	0,017
-395,379	-91,413	-0,122	0,025
-394,365	-80,238	-0,140	-0,034
-393,350	800,000	0,044	0,114
-392,336	800,000	-0,036	0,090
-391,321	-200,000	-0,016	-0,069
-390,306	82,538	-0,139	-0,110
-389,292	-139,022	0,043	-0,003
-388,277	-45,266	-0,132	-0,048
-387,263	-113,346	0,078	0,011
-386,248	377,987	0,010	-0,015
-385,233	-133,478	-0,080	-0,007
-384,219	800,000	0,062	0,157
-383,204	32,523	-0,067	-0,042
-382,190	-200,000	-0,034	0,124
-381,175	218,062	0,086	0,101
-380,160	-54,034	-0,086	-0,029
-379,146	800,000	0,010	-0,028
-378,131	-176,556	-0,051	0,001
-377,117	-111,977	-0,095	0,014
-376,102	424,482	0,037	0,058
-375,088	107,791	0,047	0,041
-374,073	110,067	-0,038	0,033
-373,058	800,000	0,035	0,102
-372,044	-128,970	0,068	0,007
-371,029	149,944	-0,034	0,034
-370,015	-96,144	-0,066	-0,013
-369,000	-123,603	-0,009	0,001
-367,985	-200,000	-0,013	-0,114
-366,971	-89,740	0,200	-0,042
-365,956	800,000	-0,077	-0,169
-364,942	137,452	0,049	0,047
-363,927	800,000	-0,026	0,066
-362,912	382,466	0,056	0,085
-361,898	36,234	0,039	0,025
-360,883	-200,000	0,012	-0,045
-359,869	48,148	0,069	-0,047
-358,854	-200,000	0,021	-0,082
-357,839	-54,556	-0,117	-0,039
-356,825	318,287	-0,082	-0,114
-355,810	-60,112	0,052	-0,016
-354,796	-71,322	0,027	-0,007
-353,781	-200,000	0,001	0,040
-352,766	23,885	-0,134	-0,081
-351,752	-200,000	0,000	-0,020
-350,737	134,508	0,072	0,068
-349,723	366,747	0,039	0,057
-348,708	137,815	-0,099	0,095
-347,693	-200,000	0,017	-0,095
-346,679	800,000	-0,033	0,089
-345,664	800,000	0,038	-0,115
-344,650	-98,457	0,137	-0,025
-343,635	252,072	0,039	0,049
-342,620	-116,837	0,138	-0,018
-341,606	-37,790	-0,170	-0,066
-340,591	449,051	-0,062	-0,100
-339,577	359,580	0,071	-0,104
-338,562	343,863	0,037	0,053
-337,548	266,086	0,124	-0,159
-336,533	178,684	0,079	-0,085
-335,518	-200,000	-0,013	0,070
-334,504	47,324	0,138	0,094
-333,489	231,209	-0,117	0,141
-332,475	73,547	0,061	0,046
-331,460	-84,051	0,056	-0,013
-330,445	-74,158	0,119	0,031
-329,431	385,676	0,075	0,113
-328,416	345,681	-0,059	0,085
-327,402	800,000	0,027	0,084
-326,387	201,389	0,104	-0,117
-325,372	-200,000	-0,025	0,127
-324,358	180,382	-0,030	-0,032
-323,343	-153,038	0,052	-0,003
-322,329	-200,000	-0,000	0,031
-321,314	145,871	0,047	0,046
-320,299	-200,000	0,002	0,024
-319,285	-105,114	-0,062	-0,010
-318,270	-102,322	0,026	-0,005
-317,256	-200,000	-0,006	-0,076
-316,241	-16,820	0,121	-0,056
-315,226	-200,000	-0,020	-0,083
-314,212	44,971	0,146	0,098
-313,197	-200,000	0,007	0,193
-312,183	-200,000	-0,018	0,074
-311,168	-9,409	-0,041	-0,020
-310,153	-55,055	0,041	-0,013
-309,139	-200,000	0,009	-0,039
-308,124	139,140	-0,045	-0,044
-307,110	221,670	-0,053	0,062
-306,095	-57,348	-0,075	0,024
-305,080	181,893	-0,031	-0,033
-304,066	398,965	-0,016	0,025
-303,051	800,000	-0,042	-0,100
-302,037	-102,452	0,069	-0,012
-301,022	-124,885	0,130	-0,014
-300,008	-113,761	0,076	-0,011
-298,993	-140,870	0,174	0,013
-297,978	114,154	-0,028	0,025
-296,964	-200,000	-0,014	0,094
-295,949	278,840	-0,053	-0,070
-294,935	-200,000	0,012	-0,167
-293,920	-22,009	0,109	0,048
-292,905	-200,000	0,017	0,074
-291,891	-127,415	0,118	0,012
-290,876	800,000	0,021	-0,052
-289,862	-80,587	-0,106	0,025
-288,847	-67,909	-0,010	-0,003
-287,832	-84,666	0,064	0,015
-286,818	77,688	0,066	0,051
-285,803	608,937	0,019	-0,034
-284,789	-200,000	-0,006	-0,120
-283,774	-3,472	0,168	0,085
-282,759	-106,207	-0,059	0,009
-281,745	-48,873	-0,072	0,025
-280,730	-3,886	-0,039	-0,020
-279,716	185,599	-0,082	-0,088
-278,701	122,430	0,025	-0,023
-277,686	800,000	-0,053	0,132
-276,672	46,707	-0,051	-0,034
-275,657	655,961	0,008	0,016
-274,643	-200,000	-0,012	-0,098
-273,628	-200,000	-0,014	-0,061
-272,613	80,133	0,093	-0,073
-271,599	-39,200	0,068	-0,026
-270,584	-200,000	0,005	-0,123
-269,570	-49,530	0,132	-0,045
-268,555	-200,000	-0,020	-0,067
-267,540	800,000	0,043	0,107
-266,526	-87,256	-0,054	0,012
-265,511	-61,459	0,043	0,013
-264,497	-14,811	0,096	-0,045
-263,482	800,000	-0,042	0,093
-262,467	-143,439	0,085	0,006
-261,453	-200,000	0,024	-0,124
-260,438	-200,000	0,017	-0,099
-259,424	100,585	-0,130	-0,110
-258,409	-72,342	-0,065	-0,017
-257,395	25,333	-0,039	-0,023
-256,380	-200,000	-0,005	0,071
-255,365	-200,000	-0,002	0,140
-254,351	50,435	0,019	-0,013
-253,336	-41,148	0,051	0,019
-252,322	-200,000	-0,016	0,056
-251,307	-200,000	0,022	-0,109
-250,292	264,933	0,069	0,088
-249,278	353,357	-0,081	0,117
-248,263	138,798	0,038	0,036
-247,249	485,590	-0,045	-0,075
-246,234	800,000	0,040	0,099
-245,219	-65,015	-0,111	-0,033
-244,205	16,363	0,070	-0,040
-243,190	427,636	0,039	0,062
-242,176	9,432	0,019	0,011
-241,161	472,567	0,097	0,160
-240,146	-200,000	-0,011	0,046
-239,132	45,147	-0,024	0,016
-238,117	-127,401	-0,096	0,010
-237,103	176,949	-0,073	-0,077
-236,088	-200,000	-0,001	-0,139
-235,073	800,000	-0,041	0,099
-234,059	-138,424	-0,132	0,010
-233,044	78,589	-0,058	0,045
-232,030	176,875	0,015	-0,016
-231,015	-153,029	-0,094	0,005
-230,000	10,841	-0,136	-0,075
-228,986	63,977	0,098	0,071
-227,971	-200,000	0,009	0,030
-226,957	-73,401	0,035	0,009
-225,942	800,000	-0,052	0,145
-224,927	-31,486	0,133	-0,054
-223,913	-68,249	-0,049	-0,014
-222,898	239,923	0,047	-0,057
-221,884	-68,718	-0,140	-0,039
-220,869	-115,506	-0,159	-0,022
-219,855	-49,208	0,029	-0,010
-218,840	-200,000	0,018	-0,122
-217,825	19,650	-0,070	0,041
-216,811	67,867	-0,086	-0,064
-215,796	-182,871	0,108	0,001
-214,782	58,392	0,071	0,051
-213,767	396,030	0,064	0,098
-212,752	-200,000	0,027	-0,089
-211,738	-37,857	0,021	-0,008
-210,723	800,000	-0,016	0,048
-209,709	111,845	0,022	0,020
-208,694	800,000	0,035	-0,084
-207,679	119,344	-0,047	-0,042
-206,665	-200,000	-0,021	-0,080
-205,650	-28,328	-0,008	-0,003
-204,636	800,000	0,033	0,072
-203,621	-200,000	0,009	0,045
-202,606	264,748	-0,054	-0,069
-201,592	-70,949	-0,047	-0,013
-200,577	4,656	-0,060	0,032
-199,563	180,901	-0,016	0,017
-198,548	-106,084	0,069	0,011
-197,533	306,376	0,063	-0,086
-196,519	-200,000	-0,010	0,091
-195,504	549,722	-0,048	-0,083
-194,490	73,657	-0,099	-0,075
-193,475	305,610	-0,070	-0,094
-192,460	0,976	0,124	-0,064
-191,446	-43,556	-0,103	0,037
-190,431	800,000	0,025	-0,058
-189,417	453,594	0,046	0,074
-188,402	800,000	0,006	-0,017
-187,387	-200,000	-0,001	-0,015
-186,373	800,000	-0,037	0,090
-185,358	-200,000	-0,014	-0,159
-184,344	-200,000	0,030	0,167
-183,329	483,280	-0,059	0,098
-182,315	-200,000	-0,007	-0,038
-181,300	1,113	0,098	0,051
-180,285	-139,299	-0,141	-0,011
-179,271	169,615	-0,050	-0,052
-178,256	163,020	-0,046	0,047
-177,242	-123,102	-0,078	-0,009
-176,227	353,729	-0,062	0,089
-175,212	-176,233	0,115	0,002
-174,198	-95,221	-0,127	-0,025
-173,183	-200,000	-0,020	-0,092
-172,169	-58,842	-0,058	-0,018
-171,154	-200,000	0,031	0,108
-170,139	682,350	-0,021	-0,040
-169,125	-200,000	-0,007	0,044
-168,110	800,000	-0,067	0,193
-167,096	800,000	-0,017	-0,047
-166,081	-200,000	-0,003	-0,083
-165,066	-36,515	-0,020	0,008
-164,052	310,038	-0,004	-0,006
-163,037	0,018	0,045	0,023
-162,023	415,952	0,057	0,088
-161,008	88,007	0,078	0,062
-159,993	404,747	-0,052	0,080
-158,979	-200,000	0,002	-0,037
-157,964	-169,774	0,151	0,004
-156,950	763,668	-0,059	-0,117
-155,935	555,472	-0,079	0,139
-154,920	95,253	0,115	0,095
-153,906	-200,000	0,010	0,064
-152,891	800,000	-0,034	0,105
-151,877	800,000	0,035	0,107
-150,862	-3,314	0,165	-0,083
-149,847	-200,000	0,013	0,065
-148,833	459,921	-0,061	0,099
-147,818	8,329	0,053	-0,029
-146,804	-153,266	0,129	-0,006
-145,789	-59,864	-0,069	-0,021
-144,775	-200,000	0,003	-0,037
-143,760	749,266	0,029	-0,057
-142,745	-200,000	0,010	0,058
-141,731	391,067	0,056	-0,084
-140,716	111,295	0,082	0,071
-139,702	53,367	-0,059	0,041
-138,687	-200,000	0,001	0,125
-137,672	-106,388	-0,121	-0,019
-136,658	452,328	0,041	-0,066
-135,643	800,000	0,016	0,049
-134,629	-200,000	-0,002	-0,028
-133,614	-144,711	0,109	-0,007
-132,599	800,000	0,039	0,117
-131,585	-200,000	0,010	0,103
-130,570	-200,000	0,011	0,104
-129,556	431,756	-0,031	0,050
-128,541	-144,578	0,075	0,005
-127,526	-200,000	-0,022	-0,107
-126,512	-88,062	0,032	-0,007
-125,497	438,225	0,008	0,013
-124,483	-92,286	0,134	-0,027
-123,468	44,636	-0,109	-0,072
-122,453	160,892	-0,114	-0,115
-121,439	-200,000	0,012	0,089
-120,424	800,000	-0,039	0,095
-119,410	284,429	0,058	0,075
