DTS Sentinel unit serial number:	SN410029Multiplexer serial number:	ORYXHardware model number:	OX2-SRSoftware version number:	ORYX F/W v4,00 Oryx Data Collector v3.7.2.0data status	okinstallation	B6 Nyhavnadifferential loss correction	single-endedforward channel	channel 2reverse channel	N/Adate	2023/12/08time	15:55:08forward acquisition time	300,00reverse acquisition time	0,00gamma	499,1914k internal	0,3159k external	0,3159temperature offset calibration	1,0000default loss term (dB/km)	0,3820temperature slope calibration	1,0000multiplexer offset coefficient	1,0000multiplexer slope coefficient	1,0000fibre end	0,00T internal ref (°C)	15,09T ext. ref 1 (°C)	-1,52T ext. ref 2 (°C)	-1,51length (m)	temperature (°C)	Stokes	anti-Stokes-744,400	-80,975	0,102	0,025
-743,385	-146,441	-0,381	-0,024
-742,371	800,000	0,030	0,097
-741,356	123,245	-0,164	0,151
-740,342	-20,322	0,181	-0,082
-739,327	-124,352	-0,362	-0,041
-738,312	17,177	0,079	0,046
-737,298	-64,969	-0,341	-0,101
-736,283	-59,584	0,125	-0,039
-735,269	-191,246	-0,218	0,002
-734,254	87,676	0,069	-0,057
-733,239	-54,834	-0,514	-0,170
-732,225	-87,328	0,227	0,050
-731,210	-200,000	0,001	0,081
-730,196	8,780	0,081	0,045
-729,181	461,284	0,061	0,100
-728,167	-200,000	0,006	-0,067
-727,152	-52,131	-0,049	0,017
-726,137	800,000	0,027	-0,071
-725,123	-88,673	-0,140	0,030
-724,108	-200,000	-0,003	-0,037
-723,094	-96,246	-0,213	-0,041
-722,079	-200,000	0,055	-0,197
-721,064	-200,000	-0,004	0,040
-720,050	170,884	-0,074	0,078
-719,035	800,000	-0,006	-0,014
-718,021	-149,575	-0,086	0,005
-717,006	333,606	-0,065	-0,092
-715,991	575,932	-0,065	-0,117
-714,977	-58,902	-0,028	0,009
-713,962	347,653	-0,091	-0,133
-712,948	172,116	-0,034	-0,036
-711,933	139,639	0,045	0,044
-710,918	-200,000	0,002	0,034
-709,904	-200,000	-0,011	-0,041
-708,889	-47,595	-0,046	-0,016
-707,875	-43,445	0,054	0,020
-706,860	-119,068	-0,081	0,010
-705,845	-200,000	0,006	-0,038
-704,831	235,879	-0,139	0,170
-703,816	318,247	-0,019	0,027
-702,802	800,000	0,019	0,044
-701,787	-200,000	0,007	0,105
-700,772	-8,816	0,056	0,027
-699,758	32,033	-0,178	-0,113
-698,743	280,438	0,022	0,028
-697,729	1,711	-0,090	-0,047
-696,714	-200,000	0,033	0,137
-695,699	-81,003	-0,157	0,038
-694,685	600,550	-0,038	-0,069
-693,670	800,000	-0,047	-0,142
-692,656	-121,317	-0,062	-0,007
-691,641	-200,000	-0,001	-0,116
-690,627	796,983	0,039	0,079
-689,612	116,529	0,019	0,017
-688,597	-136,712	-0,156	-0,013
-687,583	252,614	-0,031	-0,038
-686,568	-96,953	-0,093	-0,018
-685,554	199,533	0,011	0,013
-684,539	800,000	-0,026	0,068
-683,524	800,000	-0,025	0,078
-682,510	-200,000	0,004	-0,041
-681,495	510,547	-0,060	0,104
-680,481	800,000	-0,053	-0,143
-679,466	800,000	-0,059	-0,132
-678,451	800,000	0,025	0,072
-677,437	-13,074	0,050	0,024
-676,422	41,736	0,086	-0,057
-675,408	557,290	-0,099	0,176
-674,393	24,352	-0,085	0,052
-673,378	-200,000	0,020	0,083
-672,364	-16,760	0,063	-0,029
-671,349	-88,463	0,083	-0,018
-670,335	2,742	0,104	0,055
-669,320	-200,000	-0,024	0,084
-668,305	187,462	0,017	0,019
-667,291	193,565	-0,061	-0,067
-666,276	77,999	-0,115	-0,090
-665,262	-53,055	0,034	0,011
-664,247	-23,034	-0,035	0,015
-663,232	-200,000	-0,011	-0,036
-662,218	-200,000	-0,023	0,084
-661,203	93,202	-0,104	0,086
-660,189	-57,742	-0,084	-0,027
-659,174	-102,558	-0,071	-0,012
-658,159	773,350	0,013	-0,026
-657,145	-17,292	-0,144	-0,066
-656,130	448,114	-0,096	0,156
-655,116	-117,760	-0,096	0,013
-654,101	800,000	0,014	0,040
-653,086	655,313	0,019	-0,036
-652,072	-25,666	-0,069	0,030
-651,057	-170,918	0,064	0,002
-650,043	-81,454	-0,077	-0,018
-649,028	116,404	0,044	0,039
-648,014	-200,000	-0,002	0,049
-646,999	800,000	0,030	0,080
-645,984	-200,000	-0,010	-0,107
-644,970	131,210	-0,096	0,091
-643,955	793,203	-0,065	-0,132
-642,941	118,846	0,083	-0,075
-641,926	-55,723	-0,144	0,047
-640,911	1,258	0,065	0,034
-639,897	546,523	0,024	-0,043
-638,882	68,095	0,044	0,033
-637,868	114,603	-0,061	0,055
-636,853	-200,000	-0,027	-0,131
-635,838	800,000	-0,030	-0,085
-634,824	-156,770	-0,055	0,002
-633,809	800,000	0,021	0,055
-632,795	341,327	0,051	-0,074
-631,780	752,450	0,048	0,096
-630,765	-160,856	-0,087	-0,003
-629,751	477,242	0,079	0,131
-628,736	-200,000	0,023	0,084
-627,722	234,075	0,048	0,059
-626,707	360,293	-0,072	-0,105
-625,692	421,374	-0,017	-0,028
-624,678	-35,807	-0,013	0,005
-623,663	491,587	-0,013	-0,023
-622,649	-123,988	-0,083	-0,009
-621,634	-39,010	-0,091	0,035
-620,619	290,475	-0,021	0,028
-619,605	444,147	0,006	-0,010
-618,590	-200,000	0,014	0,152
-617,576	-13,876	-0,117	0,055
-616,561	-200,000	0,037	0,170
-615,546	344,151	-0,021	-0,030
-614,532	49,674	-0,079	-0,055
-613,517	463,632	-0,059	-0,097
-612,503	-103,466	0,089	0,015
-611,488	800,000	0,056	0,141
-610,474	-200,000	0,008	0,087
-609,459	-200,000	-0,009	-0,103
-608,444	-86,795	0,053	0,012
-607,430	-7,301	-0,079	-0,039
-606,415	48,094	-0,037	0,026
-605,401	-23,843	0,030	-0,013
-604,386	-200,000	-0,026	0,128
-603,371	6,562	0,110	0,060
-602,357	12,110	0,111	-0,062
-601,342	63,073	-0,105	-0,077
-600,328	-43,966	-0,051	0,019
-599,313	299,104	-0,060	0,081
-598,298	36,459	-0,093	-0,060
-597,284	-61,516	0,031	-0,010
-596,269	360,738	0,070	0,103
-595,255	-71,914	0,029	-0,008
-594,240	-74,532	-0,068	-0,018
-593,225	591,258	-0,058	-0,104
-592,211	-200,000	-0,008	-0,173
-591,196	-4,815	-0,079	0,040
-590,182	-61,674	0,110	0,034
-589,167	0,643	-0,065	-0,034
-588,152	709,175	-0,037	0,072
-587,138	130,703	0,096	0,090
-586,123	76,637	-0,059	-0,046
-585,109	-44,062	0,163	-0,060
-584,094	151,263	-0,061	-0,061
-583,079	599,212	0,022	-0,040
-582,065	446,800	0,079	0,128
-581,050	-48,999	-0,028	0,010
-580,036	243,719	-0,032	-0,039
-579,021	189,226	-0,082	-0,090
-578,006	-200,000	0,000	-0,075
-576,992	-200,000	-0,009	0,055
-575,977	80,186	0,041	0,033
-574,963	-200,000	0,011	0,084
-573,948	573,048	-0,035	0,062
-572,934	-200,000	0,012	-0,057
-571,919	-86,851	-0,167	-0,037
-570,904	-200,000	-0,003	0,028
-569,890	-200,000	-0,023	0,167
-568,875	800,000	0,043	0,131
-567,861	-200,000	0,028	-0,093
-566,846	81,804	0,030	-0,024
-565,831	-200,000	0,004	-0,054
-564,817	800,000	-0,030	-0,070
-563,802	142,869	-0,042	-0,041
-562,788	613,097	-0,017	-0,031
-561,773	215,048	-0,038	-0,045
-560,758	786,973	-0,052	0,106
-559,744	-20,773	-0,095	0,042
-558,729	43,469	0,063	0,042
-557,715	-200,000	0,007	-0,078
-556,700	47,364	0,026	-0,018
-555,685	-43,743	0,014	-0,005
-554,671	392,430	0,011	-0,017
-553,656	-200,000	0,010	-0,047
-552,642	800,000	0,039	0,110
-551,627	244,323	-0,025	-0,031
-550,612	-200,000	-0,005	-0,060
-549,598	59,379	0,062	-0,045
-548,583	3,567	0,055	0,029
-547,569	305,277	-0,024	0,033
-546,554	-200,000	0,003	0,186
-545,539	355,032	0,075	0,109
-544,525	-67,043	-0,039	-0,011
-543,510	-1,836	-0,093	-0,048
-542,496	351,617	-0,015	0,022
-541,481	335,005	-0,039	-0,056
-540,466	570,053	0,011	-0,019
-539,452	-200,000	-0,028	-0,132
-538,437	-154,321	-0,128	-0,006
-537,423	-200,000	-0,007	0,099
-536,408	800,000	-0,039	-0,113
-535,393	378,885	0,006	-0,009
-534,379	131,574	-0,056	0,052
-533,364	-200,000	-0,029	-0,130
-532,350	800,000	0,016	-0,043
-531,335	710,116	0,040	0,078
-530,321	173,564	0,032	0,034
-529,306	-200,000	-0,007	-0,026
-528,291	-3,026	-0,095	-0,048
-527,277	-127,083	-0,111	-0,012
-526,262	-200,000	0,001	0,005
-525,248	-75,113	0,157	0,041
-524,233	-200,000	0,016	0,094
-523,218	268,631	-0,091	0,117
-522,204	-122,969	0,026	0,003
-521,189	-46,724	-0,113	-0,040
-520,175	130,237	-0,008	0,008
-519,160	-39,189	-0,052	-0,020
-518,145	-118,777	0,008	-0,001
-517,131	-200,000	-0,010	0,052
-516,116	-127,410	0,174	0,018
-515,102	-70,795	-0,117	0,032
-514,087	800,000	-0,019	-0,049
-513,072	258,055	0,067	0,084
-512,058	491,469	-0,034	-0,057
-511,043	120,639	0,036	0,032
-510,029	22,197	-0,147	0,087
-509,014	-66,987	-0,074	-0,021
-507,999	-200,000	-0,023	-0,090
-506,985	148,653	-0,089	0,088
-505,970	-28,892	-0,104	0,043
-504,956	-100,410	-0,115	-0,021
-503,941	74,604	0,133	-0,102
-502,926	110,539	0,054	-0,048
-501,912	-63,983	-0,071	0,021
-500,897	686,236	-0,043	0,082
-499,883	683,121	-0,066	0,126
-498,868	571,141	-0,064	-0,114
-497,853	-106,278	-0,069	-0,011
-496,839	-18,610	-0,087	-0,039
-495,824	348,278	0,062	0,090
-494,810	119,123	-0,152	0,137
-493,795	4,124	0,105	0,056
-492,781	-137,241	-0,119	0,010
-491,766	800,000	0,041	0,113
-490,751	16,007	-0,033	-0,019
-489,737	118,503	-0,065	-0,058
-488,722	800,000	0,038	-0,103
-487,708	800,000	0,046	0,132
-486,693	-200,000	-0,000	-0,007
-485,678	800,000	0,040	0,111
-484,664	323,204	-0,091	-0,127
-483,649	-200,000	0,019	-0,076
-482,635	542,766	-0,011	0,019
-481,620	-110,268	0,233	0,035
-480,605	537,759	-0,061	0,107
-479,591	-200,000	0,002	0,065
-478,576	40,078	0,139	0,091
-477,562	-181,274	-0,052	0,001
-476,547	800,000	0,058	-0,132
-475,532	800,000	0,025	-0,056
-474,518	71,544	-0,019	0,015
-473,503	-58,566	0,131	-0,041
-472,489	-200,000	0,006	0,068
-471,474	800,000	0,023	-0,060
-470,459	258,759	0,035	-0,044
-469,445	-87,379	0,053	0,012
-468,430	282,723	0,043	-0,057
-467,416	-72,213	-0,038	-0,010
-466,401	-200,000	-0,008	0,065
-465,386	240,329	-0,031	0,038
-464,372	-200,000	-0,015	0,059
-463,357	-61,617	0,044	0,013
-462,343	-72,216	-0,092	-0,025
-461,328	32,950	-0,097	-0,061
-460,313	269,931	-0,022	-0,028
-459,299	800,000	-0,008	-0,024
-458,284	-74,852	0,047	0,012
-457,270	-67,091	0,051	0,015
-456,255	5,885	-0,074	0,040
-455,241	-200,000	0,037	-0,120
-454,226	469,075	0,020	0,033
-453,211	800,000	0,018	0,046
-452,197	-131,687	0,169	0,016
-451,182	-200,000	0,003	-0,049
-450,168	161,021	-0,072	-0,073
-449,153	-34,928	-0,032	0,013
-448,138	-155,942	-0,089	-0,004
-447,124	-200,000	0,006	-0,122
-446,109	-200,000	-0,012	-0,096
-445,095	-32,406	-0,047	0,019
-444,080	-76,697	0,030	0,008
-443,065	109,079	0,096	0,084
-442,051	-87,477	-0,076	-0,017
-441,036	735,543	0,053	-0,104
-440,022	-122,414	-0,037	-0,004
-439,007	-44,939	0,157	0,057
-437,992	48,594	0,089	0,060
-436,978	75,396	0,054	-0,042
-435,963	-188,751	0,018	0,000
-434,949	-32,079	-0,115	-0,047
-433,934	800,000	-0,034	-0,080
-432,919	141,822	-0,068	0,066
-431,905	-200,000	-0,043	-0,185
-430,890	-200,000	-0,001	0,132
-429,876	-200,000	0,009	-0,033
-428,861	6,742	-0,064	-0,035
-427,846	800,000	0,038	0,094
-426,832	-200,000	0,003	-0,013
-425,817	-200,000	-0,011	-0,130
-424,803	-200,000	0,012	0,114
-423,788	800,000	-0,026	-0,075
-422,773	-200,000	-0,004	0,075
-421,759	-41,244	0,167	0,062
-420,744	-112,584	-0,025	0,004
-419,730	751,493	-0,068	-0,135
-418,715	-200,000	0,139	-0,000
-417,701	-109,573	0,048	0,007
-416,686	-54,923	-0,071	0,023
-415,671	-200,000	0,019	0,070
-414,657	173,894	0,062	0,065
-413,642	-121,536	-0,171	0,020
-412,628	404,979	-0,044	0,068
-411,613	25,577	-0,031	-0,019
-410,598	568,433	0,062	0,110
-409,584	449,923	0,032	0,051
-408,569	-150,220	-0,123	-0,007
-407,555	-200,000	-0,007	0,026
-406,540	-119,744	0,161	-0,020
-405,525	183,009	-0,133	-0,143
-404,511	800,000	-0,016	-0,038
-403,496	73,104	-0,068	0,051
-402,482	616,244	0,063	-0,116
-401,467	160,010	0,102	0,104
-400,452	159,155	0,032	0,032
-399,438	-62,596	-0,033	-0,010
-398,423	100,186	-0,037	-0,031
-397,409	800,000	0,079	-0,243
-396,394	-70,118	0,141	-0,039
-395,379	293,237	0,110	-0,147
-394,365	-200,000	-0,046	0,157
-393,350	88,034	0,025	-0,020
-392,336	-162,343	-0,068	-0,002
-391,321	154,282	0,034	0,034
-390,306	-200,000	-0,027	-0,092
-389,292	23,131	0,060	-0,035
-388,277	-200,000	-0,029	-0,112
-387,263	-26,048	0,068	-0,029
-386,248	269,586	-0,015	-0,020
-385,233	800,000	-0,016	-0,032
-384,219	-200,000	0,001	-0,020
-383,204	-90,575	0,055	0,011
-382,190	-121,743	-0,075	0,009
-381,175	27,439	-0,058	-0,035
-380,160	-114,189	0,102	0,014
-379,146	53,653	0,046	0,032
-378,131	380,889	-0,053	-0,079
-377,117	456,812	-0,027	-0,044
-376,102	-200,000	0,056	-0,211
-375,088	215,327	-0,037	-0,043
-374,073	-182,109	0,015	0,000
-373,058	800,000	0,026	0,056
-372,044	-83,153	0,219	0,051
-371,029	100,541	-0,012	0,010
-370,015	-200,000	-0,031	-0,202
-369,000	-35,017	-0,119	-0,047
-367,985	-60,588	-0,065	-0,020
-366,971	-200,000	0,013	0,072
-365,956	-126,088	0,113	0,012
-364,942	177,129	-0,038	0,040
-363,927	-6,073	0,129	-0,064
-362,912	61,805	0,081	0,059
-361,898	-200,000	-0,015	-0,113
-360,883	-200,000	0,012	0,088
-359,869	43,704	-0,084	0,055
-358,854	227,746	-0,041	0,048
-357,839	800,000	0,030	0,092
-356,825	51,229	-0,019	0,013
-355,810	-200,000	-0,038	-0,182
-354,796	800,000	0,036	-0,113
-353,781	355,685	-0,089	-0,130
-352,766	41,326	-0,089	-0,058
-351,752	70,995	0,079	-0,059
-350,737	52,727	0,068	-0,047
-349,723	-35,292	-0,022	-0,009
-348,708	462,161	0,083	-0,135
-347,693	480,260	-0,060	-0,098
-346,679	-200,000	-0,032	-0,172
-345,664	-200,000	0,003	0,021
-344,650	143,371	0,072	0,070
-343,635	492,048	0,035	0,059
-342,620	35,679	-0,084	0,053
-341,606	-200,000	0,007	0,129
-340,591	800,000	-0,037	-0,093
-339,577	-69,501	0,133	-0,037
-338,562	28,654	-0,087	-0,053
-337,548	800,000	0,050	0,105
-336,533	800,000	-0,023	0,062
-335,518	-200,000	-0,001	0,120
-334,504	300,612	-0,067	0,090
-333,489	234,701	0,013	0,015
-332,475	-143,594	-0,152	0,010
-331,460	-200,000	0,003	-0,111
-330,445	-18,635	0,097	-0,044
-329,431	-82,703	0,030	0,007
-328,416	43,896	-0,083	-0,055
-327,402	91,421	0,024	-0,019
-326,387	354,108	-0,026	-0,038
-325,372	-60,097	-0,097	-0,030
-324,358	247,793	-0,060	0,074
-323,343	587,409	0,008	0,015
-322,329	800,000	-0,025	-0,057
-321,314	59,732	-0,029	0,021
-320,299	-198,980	-0,041	0,000
-319,285	-200,000	-0,028	0,201
-318,270	-85,191	-0,131	0,029
-317,256	-195,957	-0,017	0,000
-316,241	481,753	0,043	0,071
-315,226	800,000	0,029	-0,079
-314,212	-138,067	0,196	-0,016
-313,197	28,024	-0,074	-0,045
-312,183	259,639	0,057	0,072
-311,168	-43,513	-0,080	0,029
-310,153	-51,523	0,043	-0,015
-309,139	264,647	0,111	0,140
-308,124	-109,765	-0,079	-0,012
-307,110	286,288	0,104	-0,137
-306,095	-200,000	0,006	0,045
-305,080	-50,831	0,155	0,052
-304,066	-85,168	-0,148	-0,033
-303,051	-15,984	0,091	0,042
-302,037	561,055	-0,071	-0,125
-301,022	-147,334	-0,059	-0,004
-300,008	-200,000	-0,001	0,109
-298,993	-132,698	-0,112	-0,010
-297,978	-93,370	-0,163	-0,032
-296,964	-90,469	-0,190	-0,039
-295,949	-200,000	0,002	-0,082
-294,935	-52,055	0,071	0,024
-293,920	-200,000	0,085	-0,000
-292,905	671,117	-0,027	0,050
-291,891	-182,985	-0,072	0,001
-290,876	415,440	-0,050	-0,077
-289,862	-200,000	0,017	0,055
-288,847	-113,834	-0,104	0,014
-287,832	-200,000	-0,004	-0,114
-286,818	743,002	0,057	-0,112
-285,803	-200,000	0,006	-0,055
-284,789	2,139	0,140	0,073
-283,774	14,575	0,125	0,071
-282,759	800,000	-0,029	-0,092
-281,745	800,000	-0,040	0,094
-280,730	147,618	0,042	0,041
-279,716	800,000	0,022	0,055
-278,701	42,770	0,088	-0,058
-277,686	107,673	0,065	0,056
-276,672	658,739	0,031	-0,058
-275,657	483,063	0,080	0,133
-274,643	-4,379	-0,085	0,042
-273,628	37,082	0,031	0,020
-272,613	-40,816	-0,054	-0,020
-271,599	800,000	0,045	0,118
-270,584	-96,231	-0,052	0,010
-269,570	-141,420	0,195	-0,014
-268,555	-16,859	-0,128	-0,058
-267,540	-78,084	0,214	-0,053
-266,526	66,230	-0,095	-0,069
-265,511	-140,408	0,101	-0,008
-264,497	201,362	0,051	0,057
-263,482	666,224	0,096	0,181
-262,467	800,000	0,032	0,072
-261,453	-200,000	-0,010	-0,061
-260,438	-87,725	-0,130	-0,028
-259,424	-109,348	0,111	0,017
-258,409	762,811	-0,064	0,126
-257,395	-146,747	0,180	-0,011
-256,380	245,813	-0,045	0,055
-255,365	-200,000	-0,005	0,091
-254,351	432,422	-0,042	0,066
-253,336	-81,299	0,050	-0,012
-252,322	74,618	-0,045	0,034
-251,307	800,000	0,048	-0,116
-250,292	71,517	-0,119	-0,089
-249,278	652,503	0,053	0,098
-248,263	-49,202	-0,042	-0,014
-247,249	800,000	0,040	0,116
-246,234	-150,453	0,042	-0,002
-245,219	-120,923	0,077	-0,009
-244,205	663,978	0,050	-0,093
-243,190	405,105	0,048	-0,073
-242,176	146,596	-0,086	0,084
-241,161	777,080	0,030	0,060
-240,146	629,216	-0,033	-0,061
-239,132	126,234	-0,058	-0,053
-238,117	-130,929	-0,020	0,002
-237,103	383,718	0,094	-0,140
-236,088	-200,000	-0,010	-0,038
-235,073	133,348	-0,053	0,050
-234,059	112,057	0,056	-0,049
-233,044	-200,000	0,000	0,150
-232,030	-88,559	-0,097	0,021
-231,015	46,358	0,043	0,029
-230,000	165,498	0,027	0,027
-228,986	761,446	0,022	0,044
-227,971	-84,192	-0,130	-0,030
-226,957	-174,605	-0,018	0,000
-225,942	58,781	0,050	0,036
-224,927	-104,710	-0,118	0,019
-223,913	800,000	-0,022	0,053
-222,898	-103,808	0,083	0,014
-221,884	-7,421	0,050	-0,025
-220,869	-200,000	0,024	-0,094
-219,855	-28,590	0,084	-0,035
-218,840	-63,232	0,082	-0,024
-217,825	649,333	0,114	0,211
-216,811	-7,546	0,044	-0,021
-215,796	800,000	-0,016	-0,045
-214,782	-200,000	-0,007	-0,061
-213,767	800,000	0,009	-0,028
-212,752	-90,178	0,152	-0,032
-211,738	-68,483	0,041	-0,011
-210,723	-75,582	-0,082	-0,021
-209,709	129,725	-0,110	-0,102
-208,694	-19,575	-0,063	0,028
-207,679	-200,000	-0,044	-0,180
-206,665	-131,873	-0,078	-0,007
-205,650	207,879	0,031	-0,035
-204,636	26,565	0,019	0,012
-203,621	19,537	-0,022	-0,013
-202,606	-74,564	-0,098	0,025
-201,592	800,000	-0,008	-0,024
-200,577	-200,000	0,013	-0,043
-199,563	-121,238	0,140	0,017
-198,548	-50,611	0,120	-0,041
-197,533	800,000	0,014	-0,037
-196,519	291,994	0,027	-0,035
-195,504	-44,659	-0,106	-0,038
-194,490	61,945	0,054	-0,039
-193,475	762,455	-0,043	-0,084
-192,460	-108,686	0,050	-0,008
-191,446	629,805	0,055	0,101
-190,431	251,000	-0,115	0,141
-189,417	-200,000	0,001	-0,027
-188,402	800,000	-0,047	0,123
-187,387	-2,635	-0,090	0,045
-186,373	-23,013	-0,188	-0,081
-185,358	-164,924	0,113	-0,004
-184,344	-99,543	0,051	-0,009
-183,329	427,231	0,070	-0,110
-182,315	84,501	0,089	0,070
-181,300	-62,506	-0,036	-0,011
-180,285	279,562	0,021	-0,027
-179,271	-20,254	-0,041	-0,018
-178,256	-76,664	0,179	0,045
-177,242	122,413	-0,109	0,098
-176,227	155,630	0,076	0,075
-175,212	-200,000	0,014	0,063
-174,198	700,850	-0,034	0,065
-173,183	87,105	0,057	-0,045
-172,169	-200,000	-0,033	-0,115
-171,154	-123,563	0,076	-0,009
-170,139	-142,522	0,049	-0,003
-169,125	800,000	0,021	-0,060
-168,110	-200,000	-0,008	-0,057
-167,096	-200,000	-0,012	-0,090
-166,081	-200,000	0,017	0,054
-165,066	-8,838	0,028	0,013
-164,052	-200,000	-0,005	-0,051
-163,037	-99,416	-0,082	-0,015
-162,023	4,095	0,127	-0,067
-161,008	-200,000	0,014	0,136
-159,993	800,000	0,015	0,048
-158,979	224,277	-0,063	0,074
-157,964	800,000	-0,025	0,052
-156,950	274,738	-0,036	0,046
-155,935	-18,778	-0,050	0,022
-154,920	19,836	0,107	0,062
-153,906	-47,317	0,106	0,037
-152,891	20,875	0,128	0,075
-151,877	57,877	-0,096	-0,067
-150,862	426,782	-0,090	-0,141
-149,847	265,353	-0,022	0,028
-148,833	800,000	0,117	0,248
-147,818	800,000	0,064	0,141
-146,804	800,000	0,021	-0,062
-145,789	126,090	-0,023	-0,021
-144,775	109,773	-0,042	-0,036
-143,760	135,943	-0,050	-0,047
-142,745	-55,066	-0,033	0,011
-141,731	-200,000	-0,019	-0,082
-140,716	800,000	0,038	0,108
-139,702	-200,000	0,002	0,139
-138,687	395,066	0,064	0,096
-137,672	-200,000	0,016	0,096
-136,658	800,000	0,049	-0,131
-135,643	-200,000	-0,009	0,118
-134,629	-200,000	0,016	0,132
-133,614	-200,000	-0,025	0,082
-132,599	29,190	-0,036	-0,022
-131,585	-200,000	-0,013	-0,045
-130,570	59,462	0,036	0,026
-129,556	-200,000	0,018	-0,077
-128,541	-200,000	0,013	-0,178
-127,526	800,000	-0,030	0,076
-126,512	222,082	0,083	-0,096
-125,497	-200,000	-0,028	0,180
-124,483	45,640	0,037	0,025
-123,468	-111,141	-0,037	0,005
-122,453	-200,000	-0,024	-0,146
-121,439	-46,095	-0,064	-0,022
-120,424	-135,710	0,052	-0,004
-119,410	-94,398	-0,005	-0,001
