DTS Sentinel unit serial number:	SN410029Multiplexer serial number:	ORYXHardware model number:	OX2-SRSoftware version number:	ORYX F/W v4,00 Oryx Data Collector v3.7.2.0data status	okinstallation	B6 Nyhavnadifferential loss correction	single-endedforward channel	channel 2reverse channel	N/Adate	2023/12/09time	05:50:08forward acquisition time	300,00reverse acquisition time	0,00gamma	499,1914k internal	0,3142k external	0,3142temperature offset calibration	1,0000default loss term (dB/km)	0,3820temperature slope calibration	1,0000multiplexer offset coefficient	1,0000multiplexer slope coefficient	1,0000fibre end	0,00T internal ref (°C)	18,15T ext. ref 1 (°C)	2,35T ext. ref 2 (°C)	2,38length (m)	temperature (°C)	Stokes	anti-Stokes-744,400	680,719	0,091	-0,176
-743,385	34,956	-0,196	0,127
-742,371	-139,206	0,082	0,006
-741,356	-112,979	-0,296	-0,043
-740,342	451,536	0,018	-0,030
-739,327	-46,538	-0,192	0,069
-738,312	252,645	-0,081	-0,103
-737,298	-161,835	-0,229	-0,008
-736,283	150,784	0,081	0,082
-735,269	-144,511	-0,284	0,019
-734,254	-144,563	0,166	-0,011
-733,239	-76,680	-0,582	-0,150
-732,225	-72,812	0,215	0,058
-731,210	692,770	-0,056	0,110
-730,196	-73,892	-0,105	-0,028
-729,181	134,131	-0,081	-0,077
-728,167	148,916	0,036	0,036
-727,152	-85,266	-0,071	-0,016
-726,137	223,814	-0,107	-0,128
-725,123	-83,842	-0,072	0,017
-724,108	226,418	-0,128	-0,153
-723,094	-126,554	-0,084	0,009
-722,079	-200,000	0,019	-0,062
-721,064	800,000	0,035	0,090
-720,050	93,299	-0,083	-0,070
-719,035	800,000	-0,020	0,064
-718,021	18,134	-0,096	0,057
-717,006	-118,415	-0,068	-0,009
-715,991	674,036	0,035	-0,067
-714,977	-82,809	0,040	0,010
-713,962	-33,842	0,080	-0,032
-712,948	-35,312	-0,074	-0,030
-711,933	-87,787	0,047	-0,010
-710,918	-200,000	-0,004	0,030
-709,904	800,000	-0,040	-0,091
-708,889	55,944	0,050	0,036
-707,875	-76,882	-0,039	0,010
-706,860	-200,000	0,009	0,082
-705,845	-25,201	-0,070	0,031
-704,831	-113,311	0,034	0,005
-703,816	-23,431	-0,087	-0,038
-702,802	311,494	0,078	0,109
-701,787	225,286	-0,016	-0,019
-700,772	-39,991	0,154	-0,059
-699,758	380,589	0,056	-0,084
-698,743	-159,674	-0,187	-0,007
-697,729	-13,914	-0,098	-0,047
-696,714	800,000	0,025	0,069
-695,699	-104,397	0,056	-0,009
-694,685	800,000	-0,035	-0,090
-693,670	-56,145	-0,094	0,031
-692,656	798,760	0,004	-0,008
-691,641	257,718	-0,023	0,029
-690,627	-25,071	0,093	0,041
-689,612	-200,000	0,007	0,057
-688,597	202,962	-0,061	-0,070
-687,583	141,049	-0,161	-0,158
-686,568	-200,000	0,006	-0,081
-685,554	-200,000	-0,008	-0,112
-684,539	-200,000	0,012	-0,275
-683,524	-200,000	-0,010	0,039
-682,510	187,814	0,045	-0,049
-681,495	349,442	-0,036	-0,053
-680,481	181,092	-0,008	0,009
-679,466	33,794	-0,167	-0,107
-678,451	174,257	-0,091	0,097
-677,437	800,000	-0,020	0,052
-676,422	-38,711	-0,081	0,032
-675,408	800,000	-0,020	0,051
-674,393	398,847	0,113	0,175
-673,378	-200,000	0,012	-0,141
-672,364	51,089	-0,149	0,104
-671,349	69,185	0,081	-0,062
-670,335	125,212	0,076	0,071
-669,320	800,000	-0,018	0,051
-668,305	800,000	-0,024	0,055
-667,291	-129,013	0,035	-0,004
-666,276	-200,000	0,023	-0,086
-665,262	-200,000	0,005	-0,018
-664,247	134,730	0,048	0,046
-663,232	800,000	-0,035	-0,087
-662,218	-172,853	-0,093	-0,002
-661,203	49,747	-0,108	0,075
-660,189	-200,000	-0,008	-0,063
-659,174	680,528	0,008	-0,015
-658,159	559,305	-0,054	-0,097
-657,145	-122,895	-0,041	0,005
-656,130	-200,000	-0,014	-0,190
-655,116	-88,885	0,017	-0,004
-654,101	-73,313	0,089	0,024
-653,086	82,946	-0,103	0,083
-652,072	731,838	-0,026	0,051
-651,057	511,812	0,035	0,061
-650,043	181,728	-0,089	-0,096
-649,028	-200,000	0,001	0,021
-648,014	107,423	0,116	0,102
-646,999	149,046	0,043	0,043
-645,984	50,324	-0,036	-0,025
-644,970	-200,000	-0,037	0,195
-643,955	40,704	-0,051	0,034
-642,941	128,273	-0,080	-0,075
-641,926	-108,760	0,149	-0,023
-640,911	-133,636	0,051	0,005
-639,897	-200,000	-0,009	0,204
-638,882	-200,000	0,002	0,101
-637,868	-90,873	-0,037	0,008
-636,853	762,312	-0,068	-0,137
-635,838	116,303	0,115	-0,104
-634,824	-42,531	0,021	-0,008
-633,809	310,558	-0,017	0,023
-632,795	57,048	0,075	0,054
-631,780	-78,323	0,099	-0,025
-630,765	-127,999	-0,070	-0,007
-629,751	800,000	0,063	-0,173
-628,736	-134,675	-0,064	0,006
-627,722	-40,245	-0,068	-0,026
-626,707	154,086	-0,050	0,051
-625,692	575,201	-0,065	0,117
-624,678	-103,518	0,061	-0,010
-623,663	800,000	0,007	-0,018
-622,649	-200,000	-0,017	-0,069
-621,634	52,103	0,076	0,053
-620,619	24,452	-0,120	0,073
-619,605	192,664	0,028	0,031
-618,590	-157,376	0,058	-0,003
-617,576	86,439	0,082	0,066
-616,561	-200,000	-0,003	-0,013
-615,546	-37,721	0,087	-0,034
-614,532	800,000	-0,019	0,045
-613,517	650,421	-0,037	-0,069
-612,503	-200,000	-0,024	-0,080
-611,488	-200,000	-0,019	-0,209
-610,474	120,600	-0,092	-0,084
-609,459	-200,000	-0,052	0,205
-608,444	800,000	0,074	-0,175
-607,430	-200,000	-0,007	0,023
-606,415	-200,000	-0,011	-0,130
-605,401	-59,677	0,062	0,020
-604,386	45,709	0,067	-0,046
-603,371	-200,000	-0,019	-0,125
-602,357	800,000	0,030	0,084
-601,342	-200,000	-0,024	0,108
-600,328	30,795	-0,052	0,033
-599,313	-17,389	-0,092	0,043
-598,298	-200,000	-0,013	-0,101
-597,284	38,651	-0,097	-0,064
-596,269	750,748	0,063	0,127
-595,255	-200,000	0,026	0,090
-594,240	65,809	-0,065	0,049
-593,225	-163,199	-0,074	0,003
-592,211	360,372	-0,060	-0,088
-591,196	-200,000	0,006	-0,128
-590,182	110,409	0,075	-0,066
-589,167	534,198	-0,069	0,121
-588,152	712,170	0,033	0,064
-587,138	5,650	0,114	0,062
-586,123	-200,000	0,019	-0,130
-585,109	-200,000	-0,006	0,044
-584,094	10,494	-0,075	-0,042
-583,079	800,000	0,008	-0,022
-582,065	-29,235	0,022	0,009
-581,050	-86,762	0,121	0,027
-580,036	-34,500	-0,042	-0,017
-579,021	129,007	-0,062	-0,059
-578,006	-22,875	0,074	-0,033
-576,992	-200,000	-0,011	-0,162
-575,977	-148,857	0,034	0,002
-574,963	-200,000	-0,004	0,035
-573,948	-200,000	0,014	0,054
-572,934	-44,633	-0,040	-0,015
-571,919	-24,053	-0,067	-0,030
-570,904	-200,000	0,046	-0,169
-569,890	800,000	0,016	-0,047
-568,875	-107,172	-0,015	0,002
-567,861	598,533	0,077	0,141
-566,846	-200,000	-0,005	0,091
-565,831	68,698	-0,068	0,051
-564,817	-200,000	0,021	0,113
-563,802	15,770	0,047	0,027
-562,788	800,000	-0,005	0,011
-561,773	-88,458	-0,047	0,010
-560,758	-64,858	0,106	0,031
-559,744	376,249	-0,099	-0,149
-558,729	800,000	-0,037	-0,082
-557,715	-60,010	0,119	0,037
-556,700	-74,391	-0,072	-0,019
-555,685	776,821	-0,066	-0,133
-554,671	121,789	0,024	0,022
-553,656	-8,754	0,047	-0,023
-552,642	-200,000	0,015	0,117
-551,627	-73,712	-0,113	0,030
-550,612	-122,490	0,161	0,019
-549,598	-200,000	0,015	-0,053
-548,583	-142,388	-0,100	-0,007
-547,569	19,992	0,069	0,041
-546,554	-76,542	0,125	0,032
-545,539	11,740	0,121	0,068
-544,525	726,544	0,062	-0,122
-543,510	-170,841	-0,146	-0,004
-542,496	-120,961	0,034	0,004
-541,481	-67,311	0,077	-0,022
-540,466	800,000	-0,031	0,083
-539,452	800,000	0,035	0,110
-538,437	-120,910	0,021	0,003
-537,423	-129,148	-0,032	0,003
-536,408	800,000	-0,008	0,020
-535,393	-118,896	-0,244	-0,031
-534,379	119,962	-0,020	0,018
-533,364	189,282	-0,094	0,103
-532,350	-200,000	-0,038	0,234
-531,335	-200,000	-0,021	0,120
-530,321	-200,000	-0,018	0,061
-529,306	73,294	-0,141	0,108
-528,291	6,113	-0,052	-0,028
-527,277	-94,780	-0,048	0,010
-526,262	25,698	-0,049	0,030
-525,248	-144,417	-0,103	-0,007
-524,233	-200,000	0,026	0,104
-523,218	-85,030	0,096	-0,022
-522,204	-8,838	-0,028	0,014
-521,189	-14,985	-0,086	0,041
-520,175	-5,379	-0,141	0,071
-519,160	235,177	0,019	0,024
-518,145	-106,965	0,027	0,004
-517,131	92,927	0,067	0,055
-516,116	-40,241	0,106	0,040
-515,102	-17,778	0,063	0,029
-514,087	571,323	0,018	-0,032
-513,072	391,444	0,046	0,070
-512,058	-23,644	-0,072	-0,032
-511,043	-127,785	-0,041	-0,004
-510,029	279,306	0,075	-0,099
-509,014	800,000	-0,039	0,079
-507,999	-200,000	0,006	0,136
-506,985	-95,988	0,138	0,027
-505,970	-200,000	-0,003	-0,047
-504,956	800,000	-0,039	-0,088
-503,941	800,000	0,042	-0,119
-502,926	134,773	0,071	-0,068
-501,912	-200,000	0,031	0,119
-500,897	197,827	0,030	0,034
-499,883	-200,000	-0,023	-0,098
-498,868	-200,000	0,006	0,082
-497,853	229,959	0,052	-0,063
-496,839	162,512	0,090	-0,093
-495,824	-200,000	-0,003	0,119
-494,810	256,827	-0,053	0,067
-493,795	-123,427	0,064	0,007
-492,781	613,579	0,087	-0,160
-491,766	-200,000	-0,007	0,024
-490,751	251,448	-0,015	-0,019
-489,737	609,266	0,039	-0,072
-488,722	-74,070	0,176	0,047
-487,708	-200,000	0,012	0,080
-486,693	60,839	-0,168	0,122
-485,678	-200,000	-0,011	-0,138
-484,664	409,716	-0,022	-0,034
-483,649	-187,713	-0,077	0,001
-482,635	-74,627	0,156	-0,041
-481,620	-65,920	0,060	0,018
-480,605	-103,558	-0,102	0,017
-479,591	41,004	0,016	-0,010
-478,576	800,000	-0,065	-0,154
-477,562	73,374	0,085	0,065
-476,547	-115,701	-0,055	-0,007
-475,532	-200,000	-0,007	-0,085
-474,518	800,000	0,037	-0,109
-473,503	-200,000	0,005	0,174
-472,489	92,745	-0,035	0,029
-471,474	-91,996	-0,075	0,016
-470,459	-54,125	-0,037	-0,012
-469,445	-175,685	0,127	0,002
-468,430	-104,806	-0,106	-0,018
-467,416	-56,642	0,097	0,031
-466,401	-200,000	0,004	0,106
-465,386	443,577	-0,052	0,083
-464,372	-155,506	0,101	-0,005
-463,357	103,177	-0,060	-0,052
-462,343	-200,000	-0,007	0,024
-461,328	7,110	-0,113	0,062
-460,313	281,191	-0,050	0,066
-459,299	-129,686	0,187	0,019
-458,284	-200,000	0,006	0,037
-457,270	-200,000	0,008	0,124
-456,255	271,338	-0,038	-0,049
-455,241	167,164	0,104	-0,108
-454,226	9,372	-0,100	-0,055
-453,211	92,631	0,114	-0,094
-452,197	-69,879	-0,046	-0,013
-451,182	538,438	-0,029	-0,050
-450,168	-59,043	-0,092	-0,029
-449,153	800,000	-0,040	0,081
-448,138	-107,063	-0,131	0,021
-447,124	-200,000	0,028	-0,146
-446,109	-98,761	-0,063	0,012
-445,095	507,251	0,015	-0,026
-444,080	-200,000	-0,047	0,219
-443,065	-200,000	-0,032	0,182
-442,051	-18,463	-0,132	-0,060
-441,036	800,000	-0,027	-0,064
-440,022	-200,000	0,029	0,126
-439,007	17,725	0,145	0,084
-437,992	-163,042	0,032	-0,001
-436,978	-46,716	-0,011	0,004
-435,963	-108,173	-0,165	-0,026
-434,949	348,727	0,104	-0,151
-433,934	-166,894	-0,126	-0,004
-432,919	180,218	-0,043	-0,047
-431,905	368,379	-0,080	-0,119
-430,890	-74,397	0,088	0,023
-429,876	94,255	0,141	0,117
-428,861	-136,977	-0,137	0,011
-427,846	-96,560	0,172	-0,033
-426,832	1,055	-0,016	0,009
-425,817	-200,000	-0,011	-0,054
-424,803	-56,749	-0,119	0,038
-423,788	-103,943	-0,074	-0,013
-422,773	-116,353	0,188	0,025
-421,759	800,000	-0,054	0,122
-420,744	346,930	-0,142	0,205
-419,730	-62,181	0,040	0,012
-418,715	-72,653	-0,165	-0,044
-417,701	-200,000	0,005	0,066
-416,686	800,000	0,037	0,107
-415,671	-200,000	-0,030	0,105
-414,657	58,963	0,146	0,105
-413,642	-97,890	0,021	0,004
-412,628	-152,749	-0,083	-0,004
-411,613	645,852	-0,017	0,031
-410,598	-200,000	-0,013	-0,113
-409,584	147,022	0,037	0,036
-408,569	517,250	0,080	0,137
-407,555	-200,000	-0,001	-0,024
-406,540	-29,301	0,117	-0,049
-405,525	-200,000	0,018	-0,057
-404,511	92,055	-0,099	-0,082
-403,496	-200,000	-0,054	-0,191
-402,482	-48,428	-0,061	-0,022
-401,467	-142,114	0,109	-0,008
-400,452	121,447	0,064	-0,058
-399,438	-107,726	0,125	0,020
-398,423	68,151	0,051	0,038
-397,409	-200,000	0,004	-0,069
-396,394	425,851	-0,018	-0,029
-395,379	-200,000	-0,003	-0,029
-394,365	-124,828	-0,096	0,011
-393,350	-200,000	-0,001	-0,008
-392,336	-200,000	-0,020	0,075
-391,321	48,214	0,086	-0,058
-390,306	-181,458	0,033	-0,000
-389,292	766,609	-0,047	-0,093
-388,277	-60,848	0,077	-0,024
-387,263	800,000	0,044	-0,114
-386,248	800,000	-0,015	-0,040
-385,233	-200,000	-0,017	0,139
-384,219	-200,000	-0,017	0,104
-383,204	-200,000	0,001	-0,078
-382,190	-10,646	-0,162	0,078
-381,175	800,000	-0,045	-0,118
-380,160	-200,000	0,002	0,051
-379,146	562,551	0,083	-0,147
-378,131	323,336	0,113	-0,157
-377,117	202,481	-0,089	0,101
-376,102	650,058	-0,062	-0,117
-375,088	52,301	-0,077	-0,054
-374,073	627,767	-0,062	-0,114
-373,058	130,455	-0,053	-0,050
-372,044	-200,000	0,002	0,149
-371,029	-200,000	-0,036	0,130
-370,015	606,847	0,017	0,032
-369,000	-154,840	-0,143	0,007
-367,985	159,153	-0,068	-0,069
-366,971	-200,000	-0,012	-0,066
-365,956	-24,006	0,072	0,031
-364,942	279,630	0,077	-0,100
-363,927	-200,000	-0,006	0,104
-362,912	607,162	0,120	-0,219
-361,898	800,000	-0,083	-0,175
-360,883	-200,000	-0,009	0,114
-359,869	-104,727	-0,077	-0,013
-358,854	-33,842	0,051	-0,020
-357,839	800,000	-0,014	0,035
-356,825	-100,605	0,103	0,018
-355,810	397,921	0,021	0,032
-354,796	-200,000	0,008	0,069
-353,781	543,892	0,101	-0,176
-352,766	-29,423	0,059	-0,025
-351,752	-87,213	0,042	0,009
-350,737	-200,000	-0,006	0,022
-349,723	479,194	0,047	-0,077
-348,708	-41,147	-0,225	0,084
-347,693	-73,561	-0,075	-0,020
-346,679	800,000	-0,054	-0,145
-345,664	-107,270	-0,077	-0,012
-344,650	235,606	0,027	0,032
-343,635	800,000	0,024	0,071
-342,620	800,000	0,056	-0,154
-341,606	800,000	0,018	-0,045
-340,591	800,000	0,034	-0,076
-339,577	800,000	0,021	0,050
-338,562	-7,821	0,067	0,033
-337,548	246,417	0,096	-0,118
-336,533	-200,000	0,006	-0,092
-335,518	14,288	0,067	0,038
-334,504	301,108	-0,048	-0,065
-333,489	-98,087	-0,038	-0,007
-332,475	336,405	-0,051	-0,072
-331,460	481,292	-0,067	-0,111
-330,445	191,457	-0,081	-0,089
-329,431	34,033	-0,071	-0,045
-328,416	78,451	0,070	-0,054
-327,402	445,432	0,024	-0,039
-326,387	-200,000	0,003	0,058
-325,372	591,497	-0,038	0,069
-324,358	3,597	-0,091	0,048
-323,343	158,858	-0,060	0,061
-322,329	245,494	0,183	0,225
-321,314	-101,948	0,086	0,015
-320,299	-200,000	-0,005	0,102
-319,285	800,000	0,032	0,103
-318,270	289,297	0,041	0,055
-317,256	800,000	-0,091	-0,201
-316,241	800,000	0,044	-0,134
-315,226	-72,167	0,092	0,025
-314,212	-162,323	0,068	-0,002
-313,197	-48,131	0,035	0,012
-312,183	-118,351	0,081	0,010
-311,168	-37,411	-0,088	-0,034
-310,153	-177,744	-0,067	0,001
-309,139	-200,000	-0,012	-0,140
-308,124	-99,369	0,046	-0,008
-307,110	320,594	0,104	0,144
-306,095	-67,202	0,042	0,012
-305,080	72,764	0,167	-0,127
-304,066	-55,614	-0,078	-0,025
-303,051	-86,604	-0,048	0,011
-302,037	3,415	0,072	-0,038
-301,022	-166,383	0,012	-0,000
-300,008	-200,000	-0,004	-0,035
-298,993	348,773	0,064	0,092
-297,978	664,322	0,015	0,028
-296,964	77,615	-0,042	-0,033
-295,949	-136,175	-0,095	0,008
-294,935	401,695	0,061	-0,093
-293,920	-34,303	0,139	-0,055
-292,905	-103,448	-0,113	0,019
-291,891	-11,279	0,113	-0,054
-290,876	-200,000	0,026	-0,161
-289,862	-172,458	0,059	-0,001
-288,847	146,117	0,076	0,074
-287,832	56,694	-0,054	-0,038
-286,818	63,634	-0,031	0,023
-285,803	80,319	0,060	0,047
-284,789	-66,275	-0,154	0,044
-283,774	-10,345	-0,019	0,009
-282,759	98,635	-0,027	-0,022
-281,745	110,765	-0,128	0,112
-280,730	203,259	-0,031	0,035
-279,716	-200,000	-0,003	-0,077
-278,701	-200,000	-0,010	-0,119
-277,686	583,417	0,054	0,097
-276,672	-200,000	-0,033	0,258
-275,657	56,347	0,117	0,083
-274,643	85,365	-0,077	0,062
-273,628	-116,045	-0,092	0,012
-272,613	-45,124	-0,160	-0,058
-271,599	-16,623	0,079	0,036
-270,584	369,808	0,052	-0,076
-269,570	-127,291	0,160	-0,017
-268,555	255,395	-0,061	0,076
-267,540	-134,913	-0,068	-0,006
-266,526	436,061	-0,083	-0,132
-265,511	800,000	0,025	0,051
-264,497	41,807	0,044	0,029
-263,482	-200,000	0,015	0,105
-262,467	-93,739	0,069	-0,014
-261,453	-98,518	0,044	-0,008
-260,438	621,005	-0,030	-0,055
-259,424	-200,000	0,010	-0,145
-258,409	-200,000	0,021	0,080
-257,395	-66,256	0,131	-0,038
-256,380	165,770	-0,038	0,039
-255,365	-200,000	0,006	0,063
-254,351	296,808	-0,061	-0,081
-253,336	114,048	-0,032	-0,029
-252,322	-28,406	-0,044	0,019
-251,307	-37,007	0,093	0,036
-250,292	-200,000	0,009	-0,030
-249,278	-65,802	0,023	0,007
-248,263	29,010	0,038	0,023
-247,249	59,806	0,040	0,028
-246,234	-71,051	0,049	-0,013
-245,219	800,000	0,008	-0,018
-244,205	-200,000	-0,049	-0,170
-243,190	-159,960	-0,017	-0,001
-242,176	-200,000	0,002	-0,048
-241,161	172,961	-0,070	0,073
-240,146	44,897	0,095	0,064
-239,132	-32,906	0,061	-0,025
-238,117	769,934	-0,071	-0,142
-237,103	-200,000	0,001	0,125
-236,088	8,895	-0,064	-0,035
-235,073	234,286	0,071	0,085
-234,059	-21,260	0,067	0,030
-233,044	-200,000	0,001	0,069
-232,030	259,274	-0,081	-0,101
-231,015	377,938	-0,027	-0,041
-230,000	-200,000	-0,011	-0,089
-228,986	-200,000	0,014	-0,076
-227,971	-200,000	0,002	0,063
-226,957	-200,000	0,005	0,035
-225,942	148,068	0,109	0,107
-224,927	-200,000	-0,019	0,093
-223,913	-107,560	-0,138	0,022
-222,898	-200,000	0,023	-0,127
-221,884	-200,000	-0,000	-0,013
-220,869	229,485	-0,036	0,043
-219,855	-66,176	0,060	0,017
-218,840	398,016	-0,056	0,086
-217,825	-73,757	0,104	0,027
-216,811	-93,006	-0,129	-0,026
-215,796	-200,000	-0,003	0,014
-214,782	137,522	-0,093	-0,088
-213,767	135,803	0,064	-0,061
-212,752	800,000	-0,087	0,199
-211,738	48,441	-0,035	-0,023
-210,723	49,027	0,091	-0,062
-209,709	-60,140	-0,013	0,004
-208,694	-4,819	-0,022	0,011
-207,679	-33,466	-0,050	-0,020
-206,665	800,000	-0,018	0,042
-205,650	533,187	-0,039	0,067
-204,636	220,918	-0,070	0,082
-203,621	800,000	-0,074	0,155
-202,606	-103,359	0,053	-0,009
-201,592	-15,957	0,011	-0,005
-200,577	-130,133	0,055	-0,005
-199,563	17,725	-0,117	-0,067
-198,548	-34,695	0,105	-0,041
-197,533	-200,000	-0,002	0,041
-196,519	360,032	-0,071	-0,103
-195,504	-200,000	-0,004	-0,121
-194,490	-55,700	-0,029	0,009
-193,475	-200,000	-0,007	-0,078
-192,460	-23,778	0,081	0,035
-191,446	-200,000	-0,026	-0,159
-190,431	149,392	-0,057	0,056
-189,417	-200,000	0,024	0,128
-188,402	-200,000	0,009	-0,051
-187,387	537,234	-0,115	-0,198
-186,373	229,190	0,053	0,063
-185,358	210,155	0,036	0,041
-184,344	-120,490	0,135	-0,016
-183,329	121,321	-0,096	-0,086
-182,315	-66,549	-0,041	0,012
-181,300	51,748	-0,065	0,045
-180,285	432,029	0,066	0,104
-179,271	-200,000	-0,003	0,013
-178,256	199,767	0,007	-0,008
-177,242	-35,162	0,060	0,024
-176,227	575,870	0,037	0,066
-175,212	19,391	0,155	0,090
-174,198	-78,892	-0,052	-0,013
-173,183	-107,401	0,111	-0,017
-172,169	52,957	0,111	-0,077
-171,154	-2,241	-0,073	0,037
-170,139	-200,000	0,009	-0,049
-169,125	583,626	-0,010	0,017
-168,110	-200,000	0,006	0,068
-167,096	-109,256	-0,022	0,003
-166,081	-70,257	0,031	-0,008
-165,066	-155,517	-0,072	0,003
-164,052	128,610	-0,047	-0,044
-163,037	761,829	0,030	-0,059
-162,023	13,235	0,038	-0,021
-161,008	800,000	0,046	0,108
-159,993	467,948	0,090	-0,146
-158,979	-66,925	-0,136	0,039
-157,964	678,172	-0,026	-0,048
-156,950	-200,000	-0,009	-0,037
-155,935	180,488	0,054	0,057
-154,920	295,878	-0,040	0,053
-153,906	86,395	-0,100	0,080
-152,891	281,098	-0,107	-0,138
-151,877	800,000	-0,010	0,025
-150,862	-200,000	-0,025	0,089
-149,847	40,719	0,076	-0,050
-148,833	624,248	-0,045	0,083
-147,818	-90,912	0,024	0,005
-146,804	484,187	0,115	0,189
-145,789	-12,469	0,079	-0,037
-144,775	93,280	-0,133	-0,108
-143,760	-200,000	-0,016	0,097
-142,745	-80,499	0,034	-0,008
-141,731	2,338	-0,058	-0,030
-140,716	800,000	0,037	-0,093
-139,702	56,526	0,133	0,094
-138,687	-12,681	0,016	-0,008
-137,672	159,027	0,005	-0,005
-136,658	-30,283	-0,064	-0,026
-135,643	35,438	-0,034	0,021
-134,629	800,000	0,018	-0,046
-133,614	800,000	0,057	0,135
-132,599	-200,000	0,013	-0,072
-131,585	800,000	0,050	0,117
-130,570	-31,211	0,102	-0,041
-129,556	-135,904	-0,075	0,006
-128,541	45,336	-0,117	-0,078
-127,526	-58,714	0,049	0,015
-126,512	384,045	0,053	0,080
-125,497	-30,762	-0,064	0,026
-124,483	320,249	-0,062	0,085
-123,468	-37,954	0,037	0,014
-122,453	-21,949	-0,037	0,016
-121,439	-32,015	-0,126	0,051
-120,424	771,811	0,020	0,041
-119,410	51,652	-0,096	-0,066
