DTS Sentinel unit serial number:	SN410029Multiplexer serial number:	ORYXHardware model number:	OX2-SRSoftware version number:	ORYX F/W v4,00 Oryx Data Collector v3.7.2.0data status	okinstallation	B6 Nyhavnadifferential loss correction	single-endedforward channel	channel 2reverse channel	N/Adate	2023/12/10time	18:30:08forward acquisition time	300,00reverse acquisition time	0,00gamma	499,1914k internal	0,3123k external	0,3123temperature offset calibration	1,0000default loss term (dB/km)	0,3820temperature slope calibration	1,0000multiplexer offset coefficient	1,0000multiplexer slope coefficient	1,0000fibre end	0,00T internal ref (°C)	22,36T ext. ref 1 (°C)	5,99T ext. ref 2 (°C)	6,00length (m)	temperature (°C)	Stokes	anti-Stokes-744,400	-38,186	0,090	-0,036
-743,385	-15,303	-0,282	0,134
-742,371	265,743	0,041	-0,054
-741,356	497,497	-0,123	0,211
-740,342	-200,000	0,036	0,170
-739,327	-72,048	-0,238	0,065
-738,312	8,571	0,095	-0,053
-737,298	578,222	-0,103	0,189
-736,283	-97,765	-0,042	0,008
-735,269	300,056	-0,140	0,193
-734,254	-95,451	0,120	-0,024
-733,239	-49,715	-0,393	-0,139
-732,225	-200,000	-0,011	-0,102
-731,210	800,000	-0,069	0,159
-730,196	-200,000	-0,014	-0,122
-729,181	13,504	-0,051	0,030
-728,167	-200,000	0,010	0,035
-727,152	256,025	-0,032	0,041
-726,137	800,000	-0,046	-0,096
-725,123	106,700	-0,107	-0,094
-724,108	198,192	-0,074	-0,084
-723,094	341,518	-0,027	-0,040
-722,079	800,000	-0,027	-0,071
-721,064	2,082	-0,066	0,035
-720,050	-155,437	-0,073	0,003
-719,035	800,000	0,027	0,069
-718,021	26,897	-0,112	0,070
-717,006	-200,000	-0,028	-0,159
-715,991	257,565	-0,027	-0,035
-714,977	-83,371	-0,103	0,024
-713,962	57,605	-0,101	-0,074
-712,948	-89,754	0,098	0,021
-711,933	-200,000	0,026	-0,085
-710,918	79,982	0,113	-0,091
-709,904	-100,341	-0,092	0,017
-708,889	259,329	-0,034	0,044
-707,875	199,378	-0,057	-0,065
-706,860	107,158	0,061	0,054
-705,845	800,000	-0,038	0,114
-704,831	-187,950	-0,047	-0,000
-703,816	-200,000	-0,009	0,083
-702,802	-118,227	0,119	0,016
-701,787	473,152	-0,036	-0,061
-700,772	9,303	-0,066	0,037
-699,758	-169,643	0,057	-0,002
-698,743	-20,941	0,008	0,003
-697,729	-200,000	0,015	0,076
-696,714	445,141	-0,086	0,141
-695,699	800,000	0,030	-0,097
-694,685	98,156	-0,074	0,064
-693,670	22,444	-0,069	0,042
-692,656	-52,138	-0,096	-0,033
-691,641	-200,000	-0,024	-0,139
-690,627	-200,000	0,006	0,044
-689,612	-83,144	0,047	0,011
-688,597	-200,000	-0,018	0,101
-687,583	-102,962	-0,123	-0,021
-686,568	-200,000	-0,001	-0,075
-685,554	800,000	0,014	0,044
-684,539	46,385	0,115	-0,079
-683,524	-73,568	-0,077	-0,021
-682,510	-138,900	0,087	-0,007
-681,495	35,091	-0,022	0,015
-680,481	-116,965	-0,006	0,001
-679,466	27,266	0,123	-0,077
-678,451	96,313	-0,029	0,025
-677,437	-200,000	-0,001	-0,154
-676,422	178,567	0,048	-0,052
-675,408	800,000	0,031	-0,079
-674,393	-100,780	0,048	-0,009
-673,378	62,459	0,033	-0,024
-672,364	120,228	-0,097	-0,090
-671,349	-10,915	0,042	-0,021
-670,335	55,114	-0,138	0,099
-669,320	-200,000	-0,003	0,055
-668,305	-200,000	0,013	0,138
-667,291	106,354	-0,061	-0,053
-666,276	-91,932	-0,090	-0,019
-665,262	-200,000	0,004	-0,084
-664,247	-8,697	-0,079	-0,039
-663,232	64,885	-0,119	-0,089
-662,218	604,502	-0,053	0,098
-661,203	-139,770	-0,065	0,005
-660,189	-200,000	-0,016	0,134
-659,174	185,953	0,067	0,074
-658,159	-33,446	-0,098	-0,040
-657,145	-200,000	-0,022	0,076
-656,130	800,000	-0,045	0,144
-655,116	-200,000	0,011	-0,062
-654,101	800,000	0,031	0,064
-653,086	800,000	0,009	-0,026
-652,072	-200,000	-0,047	-0,158
-651,057	57,392	0,030	0,022
-650,043	11,533	-0,107	-0,061
-649,028	800,000	0,012	-0,034
-648,014	-155,185	0,213	-0,010
-646,999	-200,000	-0,015	0,098
-645,984	-114,495	-0,059	-0,008
-644,970	-200,000	0,002	0,008
-643,955	800,000	-0,028	-0,061
-642,941	-200,000	-0,023	-0,118
-641,926	-200,000	-0,042	0,178
-640,911	-200,000	-0,021	0,108
-639,897	-200,000	0,021	-0,107
-638,882	136,063	-0,104	-0,101
-637,868	741,502	-0,015	-0,031
-636,853	192,739	-0,139	-0,156
-635,838	447,229	0,064	-0,105
-634,824	47,589	0,025	-0,017
-633,809	-173,123	-0,068	-0,002
-632,795	-175,571	-0,028	0,001
-631,780	-36,524	0,017	-0,007
-630,765	281,679	-0,024	-0,032
-629,751	-200,000	-0,003	-0,056
-628,736	-92,848	0,055	-0,011
-627,722	89,973	-0,055	-0,046
-626,707	800,000	-0,005	-0,011
-625,692	21,916	-0,033	-0,020
-624,678	-72,384	0,059	-0,016
-623,663	-171,961	-0,065	-0,002
-622,649	-41,665	-0,141	0,053
-621,634	438,119	0,028	-0,045
-620,619	-80,416	-0,191	-0,047
-619,605	203,355	0,032	-0,037
-618,590	800,000	-0,021	-0,056
-617,576	800,000	0,020	0,046
-616,561	44,087	-0,133	0,091
-615,546	283,496	-0,038	0,050
-614,532	347,268	-0,062	0,090
-613,517	78,910	0,079	0,062
-612,503	-200,000	0,007	-0,043
-611,488	480,503	-0,016	-0,027
-610,474	34,305	0,041	0,027
-609,459	13,189	-0,025	0,014
-608,444	-200,000	-0,020	0,067
-607,430	800,000	-0,015	0,030
-606,415	-200,000	-0,005	-0,046
-605,401	-200,000	-0,006	-0,053
-604,386	130,896	-0,113	0,108
-603,371	-7,243	0,157	0,079
-602,357	-47,235	0,067	0,024
-601,342	-200,000	-0,014	0,084
-600,328	113,165	0,045	-0,041
-599,313	-200,000	0,014	-0,048
-598,298	-200,000	0,005	-0,095
-597,284	-200,000	0,007	-0,027
-596,269	-200,000	0,007	-0,047
-595,255	-200,000	0,037	0,131
-594,240	-96,366	-0,138	0,027
-593,225	-200,000	-0,003	0,118
-592,211	-169,270	-0,101	0,003
-591,196	-128,896	-0,047	0,005
-590,182	-66,607	-0,066	0,019
-589,167	800,000	0,024	0,072
-588,152	622,996	0,044	-0,083
-587,138	800,000	-0,047	-0,132
-586,123	394,982	-0,059	-0,092
-585,109	-134,547	0,008	0,001
-584,094	-200,000	0,038	-0,135
-583,079	800,000	0,060	0,185
-582,065	800,000	0,035	0,096
-581,050	44,066	0,031	-0,021
-580,036	-20,842	-0,115	-0,052
-579,021	-120,008	-0,116	-0,015
-578,006	588,774	0,078	-0,143
-576,992	-16,111	0,074	0,035
-575,977	-200,000	-0,009	-0,062
-574,963	800,000	0,070	0,215
-573,948	121,827	-0,024	-0,022
-572,934	-54,582	-0,013	0,004
-571,919	800,000	-0,025	-0,077
-570,904	800,000	-0,046	-0,117
-569,890	-200,000	-0,003	-0,051
-568,875	281,258	-0,041	0,054
-567,861	489,813	0,048	0,081
-566,846	395,919	0,039	-0,061
-565,831	71,852	0,097	0,075
-564,817	150,816	-0,141	0,142
-563,802	57,468	-0,043	0,031
-562,788	169,752	-0,059	0,062
-561,773	17,266	-0,082	-0,048
-560,758	-119,929	0,036	0,005
-559,744	356,995	0,114	0,169
-558,729	245,476	-0,076	-0,095
-557,715	-59,611	-0,067	-0,021
-556,700	-69,799	-0,049	0,014
-555,685	174,128	0,143	0,153
-554,671	141,336	0,077	0,075
-553,656	74,078	-0,134	0,104
-552,642	154,935	0,046	0,047
-551,627	33,373	-0,077	-0,049
-550,612	47,843	-0,081	0,056
-549,598	-200,000	0,014	-0,074
-548,583	-200,000	-0,021	-0,079
-547,569	204,452	0,072	-0,082
-546,554	800,000	-0,027	-0,058
-545,539	800,000	-0,078	0,206
-544,525	433,818	-0,028	0,045
-543,510	-200,000	-0,005	-0,123
-542,496	800,000	0,041	0,103
-541,481	20,104	-0,059	0,035
-540,466	-200,000	0,013	0,138
-539,452	-23,210	0,038	0,017
-538,437	349,668	0,100	0,147
-537,423	258,169	0,090	0,115
-536,408	-49,779	0,087	-0,031
-535,393	-200,000	0,039	0,147
-534,379	-200,000	-0,014	-0,157
-533,364	-39,109	-0,113	0,044
-532,350	-106,854	0,060	0,010
-531,335	-200,000	-0,050	-0,187
-530,321	54,265	0,087	-0,062
-529,306	115,928	-0,027	-0,025
-528,291	91,040	-0,062	0,051
-527,277	354,226	0,089	-0,132
-526,262	324,053	-0,015	0,021
-525,248	52,335	0,133	0,093
-524,233	1,652	0,154	0,082
-523,218	-200,000	0,001	0,054
-522,204	-200,000	0,004	0,040
-521,189	169,983	-0,034	-0,036
-520,175	196,704	-0,036	0,041
-519,160	-23,266	-0,126	0,056
-518,145	-54,911	0,016	-0,005
-517,131	-92,180	0,248	0,051
-516,116	-8,629	0,029	-0,014
-515,102	4,890	-0,158	0,086
-514,087	-69,654	0,066	-0,019
-513,072	350,782	-0,081	-0,119
-512,058	800,000	-0,027	-0,060
-511,043	-200,000	0,003	0,013
-510,029	-200,000	0,027	0,097
-509,014	-146,714	-0,108	0,007
-507,999	-80,915	-0,035	0,009
-506,985	52,063	0,062	-0,044
-505,970	-70,324	0,160	-0,044
-504,956	-115,772	-0,093	0,013
-503,941	-21,694	-0,066	-0,029
-502,926	371,477	0,026	0,038
-501,912	56,396	0,134	-0,096
-500,897	583,626	0,017	0,031
-499,883	-61,014	0,060	-0,019
-498,868	-200,000	0,033	-0,155
-497,853	-200,000	-0,005	-0,049
-496,839	547,923	-0,019	0,034
-495,824	23,157	-0,134	-0,081
-494,810	-200,000	0,032	0,126
-493,795	-50,944	-0,024	-0,008
-492,781	742,743	-0,045	0,090
-491,766	-104,147	-0,054	-0,009
-490,751	158,546	0,105	-0,107
-489,737	45,992	-0,036	0,024
-488,722	727,855	0,050	-0,098
-487,708	604,073	-0,008	0,015
-486,693	-32,844	-0,139	0,057
-485,678	689,149	0,053	0,103
-484,664	-102,893	0,052	-0,009
-483,649	432,138	-0,084	0,135
-482,635	27,027	0,056	0,035
-481,620	70,319	0,039	-0,029
-480,605	-161,572	0,079	0,003
-479,591	19,811	-0,128	-0,076
-478,576	-200,000	-0,035	-0,155
-477,562	193,098	0,025	-0,028
-476,547	75,596	0,046	-0,036
-475,532	-85,876	0,021	-0,005
-474,518	36,638	0,108	-0,070
-473,503	-200,000	-0,009	-0,126
-472,489	-200,000	-0,002	0,083
-471,474	376,650	0,102	0,154
-470,459	100,734	-0,017	-0,015
-469,445	195,457	-0,043	0,049
-468,430	-200,000	0,028	-0,133
-467,416	57,041	0,105	-0,075
-466,401	-22,668	0,058	0,026
-465,386	-141,911	0,150	0,011
-464,372	17,012	-0,075	-0,044
-463,357	59,052	-0,149	-0,108
-462,343	193,419	0,021	-0,023
-461,328	360,391	-0,012	0,018
-460,313	531,517	-0,092	0,162
-459,299	-200,000	0,005	0,073
-458,284	-200,000	-0,011	0,040
-457,270	-200,000	0,014	-0,115
-456,255	507,058	-0,029	0,050
-455,241	-200,000	-0,000	-0,054
-454,226	-200,000	-0,006	-0,051
-453,211	721,061	0,074	0,145
-452,197	290,751	0,017	0,022
-451,182	-40,189	-0,059	0,023
-450,168	-87,465	-0,140	-0,031
-449,153	-78,831	0,026	0,007
-448,138	-200,000	-0,002	-0,073
-447,124	-47,178	-0,049	-0,018
-446,109	-200,000	0,014	-0,112
-445,095	304,940	0,091	-0,125
-444,080	-200,000	-0,024	0,119
-443,065	-42,072	-0,114	-0,043
-442,051	313,635	-0,059	-0,082
-441,036	-12,627	0,026	-0,012
-440,022	332,532	0,037	0,053
-439,007	267,417	-0,050	0,064
-437,992	-200,000	0,011	0,073
-436,978	-59,920	0,111	-0,035
-435,963	-75,344	0,079	-0,021
-434,949	34,351	0,025	0,016
-433,934	-80,134	-0,097	0,024
-432,919	-86,150	0,110	-0,025
-431,905	-200,000	0,000	0,077
-430,890	160,458	-0,031	0,032
-429,876	3,482	0,125	0,067
-428,861	-200,000	0,031	-0,115
-427,846	-111,205	0,043	-0,006
-426,832	56,175	-0,098	0,070
-425,817	-5,331	0,073	-0,037
-424,803	-155,658	-0,214	-0,010
-423,788	199,106	0,108	0,122
-422,773	266,649	-0,011	0,014
-421,759	-146,900	0,069	-0,004
-420,744	-200,000	-0,009	0,042
-419,730	373,407	0,035	-0,053
-418,715	52,460	-0,067	-0,047
-417,701	800,000	0,019	-0,055
-416,686	22,031	-0,100	-0,060
-415,671	543,216	-0,035	0,061
-414,657	734,144	-0,040	0,080
-413,642	-200,000	-0,002	-0,080
-412,628	-69,097	-0,144	0,041
-411,613	-197,134	0,022	0,000
-410,598	48,567	0,097	-0,067
-409,584	-33,566	-0,063	-0,026
-408,569	110,180	0,153	0,135
-407,555	278,625	-0,052	0,068
-406,540	800,000	0,050	0,147
-405,525	-200,000	0,033	-0,143
-404,511	800,000	-0,042	0,092
-403,496	586,690	0,042	-0,077
-402,482	114,102	0,024	-0,021
-401,467	-200,000	-0,007	-0,138
-400,452	390,768	-0,072	0,110
-399,438	-2,277	0,113	0,058
-398,423	27,670	-0,015	-0,009
-397,409	800,000	-0,020	-0,061
-396,394	800,000	-0,049	-0,113
-395,379	10,473	0,083	-0,046
-394,365	-200,000	-0,012	-0,052
-393,350	185,650	-0,060	0,066
-392,336	337,364	-0,090	0,129
-391,321	-200,000	0,015	-0,063
-390,306	-4,539	0,127	0,064
-389,292	35,930	0,057	0,037
-388,277	122,657	-0,099	0,091
-387,263	24,299	0,146	0,088
-386,248	-133,445	0,030	0,003
-385,233	-200,000	0,012	0,044
-384,219	285,077	0,108	0,143
-383,204	-200,000	-0,008	-0,063
-382,190	75,691	0,131	0,102
-381,175	-99,264	-0,185	-0,034
-380,160	90,440	0,037	-0,030
-379,146	-101,565	0,101	0,018
-378,131	800,000	-0,021	0,064
-377,117	-45,441	-0,069	0,025
-376,102	-200,000	0,009	-0,142
-375,088	-200,000	0,015	-0,066
-374,073	249,035	-0,111	0,138
-373,058	-200,000	0,001	-0,083
-372,044	-57,435	-0,172	-0,055
-371,029	-49,818	0,022	-0,008
-370,015	31,124	0,069	0,044
-369,000	30,065	0,008	-0,005
-367,985	379,217	-0,047	-0,071
-366,971	-200,000	0,012	0,043
-365,956	-200,000	0,016	0,065
-364,942	800,000	0,030	0,073
-363,927	800,000	0,061	0,132
-362,912	-200,000	-0,000	0,036
-361,898	125,783	0,086	-0,079
-360,883	-153,901	-0,059	-0,003
-359,869	-162,647	0,076	0,003
-358,854	-200,000	-0,006	0,157
-357,839	168,492	-0,053	0,056
-356,825	-200,000	-0,002	-0,015
-355,810	-29,449	-0,036	-0,015
-354,796	369,366	-0,053	0,079
-353,781	-84,671	0,068	-0,016
-352,766	800,000	0,067	-0,164
-351,752	-63,306	0,134	-0,040
-350,737	-200,000	-0,024	0,107
-349,723	-61,263	-0,075	-0,023
-348,708	6,604	-0,052	0,028
-347,693	4,944	0,052	-0,028
-346,679	-27,693	0,076	-0,032
-345,664	-29,585	-0,092	-0,038
-344,650	-200,000	0,011	0,040
-343,635	-200,000	-0,001	0,097
-342,620	443,565	0,049	0,079
-341,606	636,112	0,055	-0,103
-340,591	496,816	-0,073	-0,123
-339,577	-200,000	-0,005	-0,097
-338,562	-50,601	-0,078	-0,027
-337,548	51,243	0,160	0,111
-336,533	-200,000	0,031	0,132
-335,518	-200,000	-0,038	0,135
-334,504	-200,000	0,014	0,080
-333,489	692,612	-0,034	-0,065
-332,475	-16,496	0,162	-0,075
-331,460	-137,178	-0,122	-0,010
-330,445	-200,000	-0,001	0,120
-329,431	92,985	-0,119	0,098
-328,416	118,243	-0,054	0,049
-327,402	-200,000	-0,006	-0,085
-326,387	142,847	-0,051	0,050
-325,372	52,154	0,140	-0,098
-324,358	437,327	0,016	-0,025
-323,343	-200,000	-0,008	-0,063
-322,329	-200,000	0,012	-0,140
-321,314	-200,000	0,022	-0,109
-320,299	-134,750	0,107	-0,009
-319,285	327,969	-0,057	-0,081
-318,270	-19,307	-0,136	-0,061
-317,256	-45,069	-0,056	-0,020
-316,241	492,678	0,045	0,076
-315,226	30,823	0,098	0,061
-314,212	800,000	0,038	0,104
-313,197	-5,885	0,048	-0,024
-312,183	624,883	-0,056	-0,104
-311,168	-200,000	-0,033	-0,189
-310,153	-200,000	-0,015	-0,053
-309,139	-14,619	-0,061	-0,029
-308,124	-131,687	0,046	0,004
-307,110	-100,108	-0,119	0,022
-306,095	712,283	0,033	-0,065
-305,080	-200,000	0,034	-0,116
-304,066	340,255	-0,098	-0,140
-303,051	615,207	-0,039	-0,072
-302,037	197,748	-0,105	-0,117
-301,022	26,481	0,077	-0,047
-300,008	-85,855	0,160	0,036
-298,993	-200,000	-0,023	0,165
-297,978	-200,000	-0,002	-0,068
-296,964	-200,000	-0,047	-0,173
-295,949	155,745	-0,079	0,080
-294,935	-125,267	0,103	-0,011
-293,920	-30,955	0,110	-0,045
-292,905	-144,084	0,062	0,004
-291,891	-157,605	-0,163	0,007
-290,876	93,241	0,107	0,089
-289,862	-200,000	-0,011	0,112
-288,847	-200,000	-0,001	0,166
-287,832	-95,381	0,116	-0,023
-286,818	34,791	-0,093	-0,060
-285,803	-90,339	-0,088	-0,019
-284,789	-6,515	0,078	-0,039
-283,774	-200,000	-0,029	0,119
-282,759	75,988	-0,085	0,066
-281,745	-70,383	-0,089	-0,025
-280,730	-108,797	0,179	-0,028
-279,716	152,855	-0,098	0,098
-278,701	-137,756	0,192	0,016
-277,686	56,898	0,080	0,057
-276,672	-99,114	0,021	-0,004
-275,657	800,000	-0,008	-0,019
-274,643	422,512	-0,007	-0,011
-273,628	671,126	-0,057	0,109
-272,613	-81,812	-0,072	0,017
-271,599	-30,260	0,184	0,076
-270,584	-200,000	0,031	0,104
-269,570	-41,761	-0,152	0,057
-268,555	-200,000	-0,007	0,029
-267,540	71,168	-0,149	-0,113
-266,526	-200,000	-0,023	-0,163
-265,511	506,653	0,034	0,057
-264,497	-84,149	-0,043	0,010
-263,482	-200,000	0,044	-0,206
-262,467	4,785	-0,109	0,059
-261,453	219,613	-0,046	-0,054
-260,438	-200,000	-0,010	0,035
-259,424	7,065	-0,079	0,043
-258,409	-36,783	-0,146	-0,057
-257,395	193,879	0,032	0,035
-256,380	22,387	0,092	-0,055
-255,365	-102,957	0,070	0,012
-254,351	111,076	-0,044	0,039
-253,336	11,218	0,027	0,015
-252,322	-15,592	0,105	-0,049
-251,307	-47,452	0,071	0,025
-250,292	670,381	0,060	-0,114
-249,278	431,246	0,088	-0,140
-248,263	265,277	0,108	0,139
-247,249	800,000	-0,044	0,117
-246,234	-56,633	-0,108	-0,035
-245,219	-70,454	-0,097	0,027
-244,205	468,799	-0,063	-0,105
-243,190	-200,000	-0,004	-0,049
-242,176	-200,000	-0,025	-0,158
-241,161	800,000	-0,047	0,102
-240,146	-200,000	-0,026	-0,087
-239,132	800,000	-0,026	-0,073
-238,117	-61,615	-0,140	-0,043
-237,103	126,445	-0,047	-0,044
-236,088	-147,312	0,074	-0,005
-235,073	-8,579	-0,029	-0,014
-234,059	355,490	0,070	0,102
-233,044	-200,000	0,003	0,038
-232,030	-200,000	-0,003	0,087
-231,015	800,000	0,038	0,089
-230,000	348,052	0,106	-0,154
-228,986	-200,000	-0,029	-0,100
-227,971	-200,000	0,012	0,072
-226,957	-46,138	-0,010	-0,004
-225,942	-200,000	-0,006	0,034
-224,927	51,680	-0,042	0,029
-223,913	51,489	0,070	0,048
-222,898	-58,497	-0,066	0,021
-221,884	-27,147	-0,020	0,008
-220,869	218,787	-0,046	0,054
-219,855	388,773	-0,016	-0,024
-218,840	800,000	-0,035	0,096
-217,825	800,000	-0,060	0,180
-216,811	205,895	-0,008	-0,009
-215,796	130,098	0,022	-0,020
-214,782	28,501	0,101	-0,062
-213,767	-200,000	-0,016	0,078
-212,752	-200,000	-0,008	0,116
-211,738	64,003	0,052	0,038
-210,723	15,404	0,071	-0,040
-209,709	-67,252	-0,034	-0,010
-208,694	149,735	0,145	-0,143
-207,679	-47,877	-0,117	0,041
-206,665	20,239	0,041	-0,024
-205,650	214,426	-0,143	-0,166
-204,636	800,000	0,039	-0,089
-203,621	-104,936	0,031	-0,005
-202,606	101,784	0,115	0,098
-201,592	800,000	-0,063	0,143
-200,577	-200,000	0,007	0,103
-199,563	800,000	0,027	-0,057
-198,548	-56,949	0,141	-0,045
-197,533	-200,000	-0,001	-0,009
-196,519	-137,871	-0,031	-0,002
-195,504	800,000	0,046	-0,120
-194,490	9,700	-0,053	-0,029
-193,475	-125,554	0,024	-0,003
-192,460	271,241	0,026	-0,034
-191,446	-200,000	-0,001	0,049
-190,431	-31,086	0,063	0,026
-189,417	800,000	0,032	-0,069
-188,402	-200,000	0,021	0,072
-187,387	-158,861	0,074	-0,003
-186,373	167,679	0,005	0,006
-185,358	800,000	-0,074	-0,185
-184,344	18,208	0,066	0,038
-183,329	766,546	-0,034	-0,068
-182,315	751,670	-0,017	0,034
-181,300	-162,935	-0,062	-0,002
-180,285	-106,341	0,110	0,018
-179,271	-6,526	-0,044	0,022
-178,256	-200,000	-0,009	0,111
-177,242	469,167	-0,033	-0,054
-176,227	-200,000	0,028	-0,145
-175,212	-200,000	-0,014	-0,068
-174,198	105,727	-0,129	0,111
-173,183	800,000	0,016	0,042
-172,169	178,756	0,090	-0,096
-171,154	-200,000	0,023	-0,248
-170,139	-3,072	0,109	0,055
-169,125	27,337	0,015	-0,009
-168,110	249,198	-0,014	0,018
-167,096	-165,028	-0,108	0,003
-166,081	-200,000	0,013	-0,082
-165,066	-18,247	0,064	0,029
-164,052	800,000	0,022	-0,053
-163,037	668,301	-0,042	-0,079
-162,023	800,000	0,015	0,036
-161,008	-102,950	-0,119	0,020
-159,993	209,505	-0,043	0,049
-158,979	105,687	-0,015	-0,013
-157,964	-200,000	-0,004	0,027
-156,950	-200,000	-0,018	0,081
-155,935	245,389	0,026	0,032
-154,920	619,542	-0,030	-0,056
-153,906	-22,565	0,192	-0,084
-152,891	800,000	-0,019	-0,040
-151,877	800,000	0,016	0,042
-150,862	-139,850	-0,124	-0,009
-149,847	320,453	-0,037	-0,051
-148,833	800,000	0,033	0,078
-147,818	800,000	-0,022	-0,053
-146,804	29,766	0,107	0,067
-145,789	-153,619	0,052	-0,003
-144,775	-130,939	-0,105	-0,010
-143,760	800,000	0,050	-0,116
-142,745	24,179	-0,119	-0,071
-141,731	-200,000	-0,005	-0,054
-140,716	-136,487	-0,104	0,009
-139,702	-54,399	0,181	0,059
-138,687	71,953	0,052	0,039
-137,672	295,606	-0,037	0,049
-136,658	150,890	-0,109	-0,108
-135,643	-200,000	0,024	-0,140
-134,629	-165,517	-0,121	0,004
-133,614	256,774	0,023	-0,029
-132,599	-119,154	0,174	-0,022
-131,585	105,310	0,072	0,061
-130,570	12,467	0,115	0,065
-129,556	136,389	0,112	-0,107
-128,541	-153,490	-0,061	0,003
-127,526	-117,206	-0,055	0,007
-126,512	561,176	0,024	-0,043
-125,497	157,752	0,048	0,048
-124,483	544,186	-0,085	0,149
-123,468	-17,398	0,057	-0,026
-122,453	15,354	-0,066	0,038
-121,439	67,870	-0,058	-0,043
-120,424	-200,000	0,003	0,166
