DTS Sentinel unit serial number:	SN410029Multiplexer serial number:	ORYXHardware model number:	OX2-SRSoftware version number:	ORYX F/W v4,00 Oryx Data Collector v3.7.2.0data status	okinstallation	B6 Nyhavnadifferential loss correction	single-endedforward channel	channel 2reverse channel	N/Adate	2023/12/08time	17:20:08forward acquisition time	300,00reverse acquisition time	0,00gamma	499,1914k internal	0,3158k external	0,3158temperature offset calibration	1,0000default loss term (dB/km)	0,3820temperature slope calibration	1,0000multiplexer offset coefficient	1,0000multiplexer slope coefficient	1,0000fibre end	0,00T internal ref (°C)	15,16T ext. ref 1 (°C)	-1,39T ext. ref 2 (°C)	-1,40length (m)	temperature (°C)	Stokes	anti-Stokes-744,400	800,000	0,032	-0,074
-743,385	-3,948	-0,288	0,147
-742,371	-4,550	0,173	-0,088
-741,356	-77,595	-0,302	0,077
-740,342	800,000	0,101	0,242
-739,327	-59,934	-0,288	-0,090
-738,312	-134,331	0,079	-0,007
-737,298	-43,889	-0,345	-0,127
-736,283	-29,502	0,159	0,067
-735,269	-66,981	-0,227	-0,066
-734,254	-200,000	0,045	0,171
-733,239	-115,835	-0,362	-0,049
-732,225	-90,839	0,245	0,052
-731,210	-128,288	0,075	-0,008
-730,196	77,156	0,076	0,059
-729,181	-61,038	-0,140	0,043
-728,167	-36,820	0,094	0,037
-727,152	-200,000	0,032	-0,131
-726,137	99,700	-0,045	0,039
-725,123	-34,258	-0,116	0,047
-724,108	54,364	-0,109	-0,078
-723,094	-145,963	0,139	-0,009
-722,079	54,320	-0,111	-0,079
-721,064	317,192	-0,063	-0,088
-720,050	-116,316	-0,094	0,013
-719,035	-24,722	0,045	-0,019
-718,021	91,413	-0,122	-0,101
-717,006	119,815	-0,075	0,068
-715,991	-83,409	-0,144	-0,034
-714,977	159,597	-0,104	0,106
-713,962	-34,497	-0,056	-0,023
-712,948	-200,000	0,001	-0,048
-711,933	-110,116	-0,070	0,011
-710,918	-200,000	0,010	0,118
-709,904	-81,028	0,107	0,026
-708,889	-68,687	-0,149	-0,042
-707,875	800,000	0,029	-0,088
-706,860	41,163	-0,112	0,074
-705,845	29,019	-0,059	-0,037
-704,831	800,000	0,033	-0,096
-703,816	211,134	-0,106	0,123
-702,802	-99,064	-0,116	0,022
-701,787	189,786	0,030	-0,034
-700,772	-80,895	0,088	0,021
-699,758	291,908	-0,045	0,061
-698,743	517,426	0,037	-0,063
-697,729	-140,469	-0,142	0,011
-696,714	696,655	-0,025	-0,048
-695,699	8,687	0,047	-0,026
-694,685	513,581	0,056	-0,097
-693,670	-105,381	-0,070	-0,012
-692,656	-176,527	-0,077	0,001
-691,641	-200,000	0,016	-0,115
-690,627	800,000	-0,021	-0,052
-689,612	46,079	-0,181	-0,123
-688,597	-99,468	-0,188	-0,034
-687,583	31,678	-0,114	0,072
-686,568	433,499	0,042	-0,067
-685,554	-22,621	-0,111	-0,049
-684,539	-34,945	-0,071	-0,028
-683,524	330,539	-0,030	0,042
-682,510	-83,312	-0,123	-0,029
-681,495	-55,260	-0,086	0,028
-680,481	348,276	-0,008	0,012
-679,466	197,509	-0,060	-0,068
-678,451	13,349	0,125	-0,071
-677,437	-94,390	-0,034	0,007
-676,422	-161,601	0,056	0,002
-675,408	131,564	-0,021	0,020
-674,393	54,169	-0,031	-0,022
-673,378	128,985	-0,074	0,070
-672,364	785,263	-0,012	-0,024
-671,349	800,000	-0,019	-0,058
-670,335	108,993	-0,047	-0,041
-669,320	72,570	-0,003	0,002
-668,305	-82,141	-0,077	0,018
-667,291	-200,000	-0,001	0,064
-666,276	-34,994	-0,042	-0,017
-665,262	-200,000	0,025	-0,129
-664,247	800,000	-0,006	0,012
-663,232	-200,000	0,009	-0,053
-662,218	-115,740	0,162	0,022
-661,203	-133,305	-0,072	-0,007
-660,189	49,169	0,124	-0,086
-659,174	-24,660	-0,136	0,059
-658,159	-200,000	-0,034	-0,113
-657,145	-200,000	0,000	0,028
-656,130	471,631	-0,040	0,066
-655,116	-167,757	-0,099	0,003
-654,101	112,951	0,040	0,035
-653,086	-154,533	-0,132	-0,006
-652,072	103,543	0,105	-0,091
-651,057	153,794	-0,049	-0,050
-650,043	763,728	-0,051	-0,101
-649,028	-200,000	-0,012	-0,101
-648,014	800,000	0,028	0,074
-646,999	76,378	0,133	0,104
-645,984	229,163	0,041	0,049
-644,970	483,276	-0,053	0,089
-643,955	-200,000	0,029	-0,163
-642,941	-200,000	-0,004	-0,070
-641,926	800,000	0,035	0,080
-640,911	-0,509	0,055	-0,028
-639,897	-63,962	-0,060	0,018
-638,882	-11,882	-0,103	-0,049
-637,868	-81,535	0,024	-0,006
-636,853	800,000	-0,054	-0,147
-635,838	229,223	-0,032	0,039
-634,824	156,695	-0,061	0,062
-633,809	800,000	0,011	0,032
-632,795	-200,000	0,001	0,054
-631,780	800,000	0,018	0,051
-630,765	800,000	0,028	0,059
-629,751	-128,178	-0,126	0,013
-628,736	-47,280	-0,209	-0,074
-627,722	-127,956	-0,014	-0,001
-626,707	-83,040	0,119	-0,028
-625,692	5,991	0,141	0,076
-624,678	-123,319	0,076	0,009
-623,663	56,745	-0,085	0,061
-622,649	-200,000	-0,004	-0,128
-621,634	-97,455	-0,070	0,013
-620,619	-19,999	0,157	0,071
-619,605	9,140	0,042	0,023
-618,590	-35,365	-0,024	0,010
-617,576	180,692	0,016	0,018
-616,561	-200,000	0,017	0,059
-615,546	-148,291	-0,052	-0,003
-614,532	-200,000	0,025	-0,094
-613,517	520,204	-0,037	0,064
-612,503	-200,000	0,001	0,089
-611,488	35,526	-0,051	0,033
-610,474	-200,000	0,004	0,063
-609,459	800,000	-0,076	-0,198
-608,444	610,213	-0,056	-0,103
-607,430	122,017	-0,023	0,021
-606,415	217,209	-0,018	0,021
-605,401	607,256	0,031	-0,057
-604,386	800,000	0,034	0,108
-603,371	-200,000	0,001	-0,019
-602,357	210,704	-0,067	-0,077
-601,342	-200,000	-0,036	-0,144
-600,328	160,966	-0,066	-0,068
-599,313	-200,000	0,011	-0,124
-598,298	-88,951	-0,081	0,017
-597,284	-67,875	0,051	0,015
-596,269	174,790	0,057	-0,061
-595,255	800,000	-0,036	0,109
-594,240	474,020	-0,039	0,065
-593,225	-70,999	-0,063	-0,017
-592,211	-200,000	0,006	-0,128
-591,196	311,043	0,106	-0,146
-590,182	61,852	0,083	-0,061
-589,167	-85,039	0,081	-0,019
-588,152	-200,000	-0,049	0,000
-587,138	56,164	-0,216	0,153
-586,123	-200,000	-0,003	0,019
-585,109	-87,884	-0,106	0,023
-584,094	800,000	-0,043	0,091
-583,079	48,264	-0,054	-0,037
-582,065	-200,000	-0,037	-0,165
-581,050	336,890	-0,060	0,085
-580,036	668,450	0,030	-0,056
-579,021	-49,890	0,087	-0,030
-578,006	328,282	-0,095	-0,135
-576,992	419,873	-0,060	-0,094
-575,977	181,969	-0,052	-0,056
-574,963	127,397	0,059	-0,055
-573,948	97,301	-0,090	-0,076
-572,934	800,000	-0,016	-0,043
-571,919	296,262	0,023	0,031
-570,904	424,609	0,069	-0,109
-569,890	417,059	-0,009	-0,013
-568,875	-34,467	-0,030	0,012
-567,861	6,625	0,197	0,107
-566,846	-79,770	0,023	0,006
-565,831	-200,000	-0,006	-0,111
-564,817	-112,085	-0,130	0,019
-563,802	96,664	-0,048	0,041
-562,788	-58,496	-0,109	0,034
-561,773	800,000	-0,065	0,138
-560,758	227,890	-0,014	-0,016
-559,744	735,192	0,048	0,095
-558,729	152,747	-0,037	-0,037
-557,715	-5,690	0,070	0,035
-556,700	800,000	-0,011	-0,035
-555,685	250,031	-0,078	0,098
-554,671	800,000	0,017	-0,051
-553,656	215,090	-0,086	0,100
-552,642	800,000	0,061	0,158
-551,627	25,570	-0,052	0,032
-550,612	343,854	0,033	0,048
-549,598	403,492	-0,063	-0,097
-548,583	167,303	-0,036	-0,037
-547,569	-21,826	0,074	-0,033
-546,554	-200,000	0,002	0,148
-545,539	84,464	-0,116	0,093
-544,525	-42,443	-0,061	0,023
-543,510	405,836	0,030	-0,047
-542,496	39,997	-0,021	0,014
-541,481	-200,000	-0,157	-0,000
-540,466	-35,619	0,107	0,042
-539,452	-151,054	-0,082	-0,004
-538,437	800,000	0,043	-0,122
-537,423	85,570	-0,046	0,037
-536,408	138,224	0,103	-0,098
-535,393	61,995	-0,053	-0,038
-534,379	215,792	0,040	-0,047
-533,364	187,240	0,040	0,043
-532,350	-144,817	0,147	-0,010
-531,335	53,702	0,028	-0,020
-530,321	240,727	-0,056	0,069
-529,306	-1,576	0,035	0,018
-528,291	105,361	-0,076	-0,065
-527,277	-158,963	-0,114	0,005
-526,262	238,230	0,140	0,170
-525,248	122,394	0,025	-0,023
-524,233	684,195	0,059	-0,113
-523,218	-200,000	0,000	-0,047
-522,204	122,590	-0,064	-0,058
-521,189	-51,881	0,059	0,020
-520,175	-200,000	-0,012	-0,084
-519,160	-200,000	0,065	0,000
-518,145	122,017	-0,123	0,112
-517,131	800,000	0,024	0,074
-516,116	-41,207	0,114	0,043
-515,102	503,202	-0,054	0,091
-514,087	-64,517	0,091	0,027
-513,072	59,785	-0,052	-0,037
-512,058	26,417	-0,019	-0,012
-511,043	-200,000	0,013	0,113
-510,029	42,075	-0,079	0,052
-509,014	135,851	0,090	0,086
-507,999	59,235	0,036	0,026
-506,985	-126,150	0,044	-0,005
-505,970	-183,593	-0,037	0,000
-504,956	-200,000	0,003	0,019
-503,941	-98,716	0,096	0,018
-502,926	101,014	0,027	0,023
-501,912	-188,714	0,096	-0,001
-500,897	18,966	-0,043	0,025
-499,883	-200,000	0,019	-0,109
-498,868	101,289	-0,068	-0,058
-497,853	-131,182	-0,137	0,013
-496,839	455,934	0,092	-0,149
-495,824	105,366	0,059	0,051
-494,810	-174,888	0,016	-0,000
-493,795	-148,125	-0,179	-0,011
-492,781	800,000	0,008	0,019
-491,766	20,224	0,045	-0,026
-490,751	-112,446	-0,189	0,027
-489,737	-88,728	0,081	0,017
-488,722	83,590	-0,066	-0,052
-487,708	-200,000	0,007	0,123
-486,693	139,200	-0,073	0,070
-485,678	-200,000	0,012	-0,059
-484,664	592,567	-0,045	0,081
-483,649	-200,000	-0,019	-0,102
-482,635	-18,293	0,069	-0,031
-481,620	-44,668	0,151	-0,055
-480,605	-200,000	0,004	0,015
-479,591	57,110	0,052	0,037
-478,576	-81,295	-0,127	-0,030
-477,562	-200,000	-0,019	-0,197
-476,547	143,759	0,084	-0,082
-475,532	-88,387	-0,141	0,030
-474,518	-55,917	0,052	-0,017
-473,503	-50,568	0,105	-0,036
-472,489	56,056	0,101	-0,071
-471,474	-87,835	-0,145	-0,032
-470,459	-33,185	-0,106	-0,043
-469,445	21,807	-0,076	-0,045
-468,430	127,549	0,030	-0,028
-467,416	288,653	0,125	0,165
-466,401	-129,210	-0,012	-0,001
-465,386	236,214	-0,028	-0,034
-464,372	-138,911	0,046	0,004
-463,357	-5,924	-0,058	0,029
-462,343	31,843	0,099	-0,062
-461,328	-109,792	-0,043	-0,006
-460,313	-52,062	0,075	-0,025
-459,299	-69,199	0,020	-0,005
-458,284	265,250	-0,055	0,070
-457,270	-26,772	-0,193	-0,082
-456,255	150,609	0,110	0,109
-455,241	191,763	0,074	-0,081
-454,226	-6,055	-0,072	0,036
-453,211	86,491	-0,034	0,027
-452,197	-200,000	0,003	-0,035
-451,182	105,028	0,024	0,021
-450,168	71,087	0,112	0,084
-449,153	49,237	-0,109	0,075
-448,138	777,692	0,076	-0,151
-447,124	140,509	0,024	0,023
-446,109	179,200	0,053	-0,056
-445,095	-74,300	0,090	-0,024
-444,080	-200,000	-0,001	0,045
-443,065	-26,802	-0,061	0,026
-442,051	-57,079	-0,149	0,048
-441,036	173,056	-0,041	-0,043
-440,022	-200,000	0,044	0,154
-439,007	46,739	0,036	0,024
-437,992	-118,453	0,139	-0,018
-436,978	-64,221	0,121	0,036
-435,963	62,363	0,051	-0,037
-434,949	298,013	0,041	-0,055
-433,934	-9,204	-0,046	-0,022
-432,919	-200,000	0,013	-0,158
-431,905	713,947	-0,080	-0,156
-430,890	800,000	0,097	0,203
-429,876	-200,000	-0,012	0,072
-428,861	-100,655	-0,050	0,009
-427,846	-200,000	-0,020	-0,088
-426,832	-200,000	-0,018	-0,256
-425,817	263,876	0,080	-0,101
-424,803	59,503	-0,144	-0,103
-423,788	161,179	0,057	-0,058
-422,773	-200,000	-0,004	0,057
-421,759	498,241	0,019	0,032
-420,744	681,885	-0,086	-0,164
-419,730	-77,911	-0,126	-0,031
-418,715	41,052	0,025	0,016
-417,701	100,857	-0,110	0,093
-416,686	519,200	-0,088	-0,150
-415,671	-200,000	0,015	0,175
-414,657	800,000	0,050	0,121
-413,642	-200,000	0,004	0,000
-412,628	278,219	0,052	-0,068
-411,613	499,435	0,084	-0,142
-410,598	-159,447	-0,158	0,006
-409,584	800,000	0,057	0,166
-408,569	152,439	-0,151	0,150
-407,555	-200,000	-0,012	0,131
-406,540	-200,000	0,014	0,095
-405,525	413,816	0,038	0,059
-404,511	293,208	-0,080	-0,106
-403,496	-200,000	-0,029	-0,120
-402,482	800,000	0,021	0,068
-401,467	-200,000	-0,016	0,074
-400,452	435,381	-0,091	0,145
-399,438	62,974	0,061	0,045
-398,423	234,771	-0,072	-0,087
-397,409	-50,552	-0,157	0,054
-396,394	800,000	0,021	0,048
-395,379	248,632	-0,070	-0,087
-394,365	-200,000	-0,005	0,015
-393,350	-200,000	-0,002	-0,017
-392,336	-82,518	0,117	-0,027
-391,321	-83,650	0,197	0,045
-390,306	42,419	0,044	0,029
-389,292	800,000	-0,025	-0,078
-388,277	-200,000	0,021	-0,128
-387,263	-200,000	0,001	-0,018
-386,248	-200,000	0,010	-0,094
-385,233	800,000	0,035	0,072
-384,219	381,989	-0,051	-0,077
-383,204	-200,000	-0,016	-0,057
-382,190	-15,830	0,133	-0,061
-381,175	-200,000	0,015	0,080
-380,160	16,324	0,100	0,057
-379,146	-200,000	0,017	-0,092
-378,131	104,895	0,042	0,036
-377,117	-44,472	0,072	-0,026
-376,102	-103,411	0,125	-0,021
-375,088	268,672	0,046	0,059
-374,073	-84,314	-0,057	-0,013
-373,058	614,225	0,048	0,088
-372,044	800,000	0,018	0,050
-371,029	-130,552	-0,107	0,010
-370,015	59,352	0,115	0,082
-369,000	-123,662	-0,079	0,009
-367,985	151,034	-0,140	-0,138
-366,971	-200,000	-0,018	0,125
-365,956	401,537	0,063	0,096
-364,942	-132,464	0,112	0,010
-363,927	687,895	0,050	0,095
-362,912	140,723	-0,048	-0,046
-361,898	23,380	-0,109	0,065
-360,883	-170,850	-0,022	-0,001
-359,869	-72,995	-0,091	-0,024
-358,854	-95,230	0,043	-0,008
-357,839	717,083	0,074	0,144
-356,825	-200,000	0,000	0,018
-355,810	-200,000	0,013	0,177
-354,796	-101,258	-0,065	0,011
-353,781	149,251	-0,133	-0,131
-352,766	-200,000	-0,001	-0,135
-351,752	-184,284	0,063	-0,001
-350,737	800,000	0,028	0,065
-349,723	-117,125	-0,052	0,007
-348,708	-200,000	-0,020	-0,086
-347,693	-200,000	0,030	-0,125
-346,679	-121,851	0,068	-0,008
-345,664	-41,746	-0,043	-0,016
-344,650	511,464	-0,029	-0,049
-343,635	244,234	0,046	0,056
-342,620	800,000	-0,037	0,105
-341,606	356,532	0,037	0,053
-340,591	-200,000	0,014	-0,045
-339,577	233,205	0,022	-0,026
-338,562	-200,000	0,023	-0,162
-337,548	-102,988	-0,142	0,024
-336,533	56,206	0,035	0,025
-335,518	710,311	0,059	-0,113
-334,504	-200,000	0,027	-0,167
-333,489	384,351	-0,012	0,018
-332,475	31,720	-0,099	0,062
-331,460	-150,397	0,133	-0,007
-330,445	-200,000	-0,011	-0,142
-329,431	-200,000	-0,001	0,126
-328,416	-91,968	-0,084	0,017
-327,402	59,844	-0,051	0,036
-326,387	-61,387	-0,138	-0,042
-325,372	-200,000	-0,002	-0,066
-324,358	-98,458	-0,086	0,016
-323,343	22,838	0,046	0,027
-322,329	-22,555	0,045	0,020
-321,314	486,188	0,032	-0,053
-320,299	-86,874	0,077	-0,017
-319,285	454,900	-0,087	-0,141
-318,270	-200,000	0,005	-0,017
-317,256	543,391	-0,012	0,021
-316,241	-39,282	0,027	-0,010
-315,226	29,956	-0,050	-0,031
-314,212	-37,218	0,113	0,044
-313,197	165,210	-0,055	0,057
-312,183	14,542	0,147	-0,083
-311,168	-200,000	-0,014	0,083
-310,153	800,000	-0,015	0,035
-309,139	800,000	-0,015	0,044
-308,124	-21,274	0,035	0,015
-307,110	-127,042	0,070	0,007
-306,095	-200,000	0,010	0,119
-305,080	-51,953	-0,042	-0,014
-304,066	330,923	0,066	-0,093
-303,051	-200,000	-0,001	0,030
-302,037	-200,000	0,000	0,021
-301,022	-12,405	0,099	0,047
-300,008	-200,000	0,016	0,144
-298,993	85,825	-0,024	-0,019
-297,978	-30,417	0,094	0,038
-296,964	407,252	0,034	-0,052
-295,949	-68,913	-0,164	-0,045
-294,935	-200,000	0,007	-0,044
-293,920	446,946	0,007	0,011
-292,905	143,825	0,027	-0,026
-291,891	157,465	0,059	0,059
-290,876	-200,000	0,007	0,048
-289,862	-89,846	0,028	-0,006
-288,847	-21,207	-0,109	-0,048
-287,832	12,074	0,044	-0,024
-286,818	-159,427	0,174	-0,007
-285,803	306,678	0,020	-0,026
-284,789	-200,000	-0,041	0,150
-283,774	12,092	0,034	-0,019
-282,759	36,021	-0,040	0,026
-281,745	181,487	-0,043	0,046
-280,730	-200,000	-0,015	-0,124
-279,716	6,601	0,031	-0,016
-278,701	388,503	-0,055	-0,082
-277,686	-200,000	0,030	-0,111
-276,672	-200,000	0,003	-0,065
-275,657	626,415	0,041	-0,076
-274,643	-127,262	-0,125	0,013
-273,628	-155,112	-0,093	-0,004
-272,613	13,636	-0,071	0,040
-271,599	800,000	-0,016	-0,049
-270,584	734,384	0,066	0,129
-269,570	-110,171	0,127	0,019
-268,555	169,677	0,045	-0,046
-267,540	-200,000	0,017	-0,089
-266,526	-142,671	-0,028	-0,002
-265,511	-200,000	0,006	0,163
-264,497	-200,000	-0,024	0,137
-263,482	-200,000	-0,037	0,144
-262,467	800,000	-0,019	-0,053
-261,453	-66,322	0,046	0,013
-260,438	800,000	-0,060	0,138
-259,424	7,994	0,043	0,023
-258,409	-69,955	0,019	0,005
-257,395	-200,000	0,003	-0,050
-256,380	-72,846	-0,076	-0,020
-255,365	-32,781	0,041	0,017
-254,351	284,297	0,098	0,128
-253,336	86,274	-0,082	-0,066
-252,322	-9,262	-0,079	0,038
-251,307	-200,000	0,002	-0,112
-250,292	88,986	-0,108	-0,087
-249,278	444,044	-0,012	-0,019
-248,263	-7,780	0,080	0,039
-247,249	91,705	-0,060	0,049
-246,234	72,939	-0,044	0,033
-245,219	-200,000	-0,007	-0,122
-244,205	277,938	-0,059	0,076
-243,190	800,000	-0,066	-0,179
-242,176	-61,974	0,113	0,034
-241,161	-200,000	0,013	0,265
-240,146	800,000	0,028	0,082
-239,132	-200,000	0,015	-0,072
-238,117	-119,245	-0,062	-0,008
-237,103	-47,121	-0,246	-0,086
-236,088	121,535	0,107	-0,097
-235,073	516,189	0,013	0,023
-234,059	-200,000	-0,003	0,009
-233,044	9,656	-0,044	0,024
-232,030	-200,000	-0,009	-0,256
-231,015	147,906	-0,089	-0,086
-230,000	171,150	-0,015	-0,016
-228,986	588,102	-0,036	0,065
-227,971	313,141	-0,025	0,034
-226,957	-16,920	0,110	0,050
-225,942	-115,524	0,083	-0,011
-224,927	-82,086	0,069	0,016
-223,913	-200,000	0,016	0,054
-222,898	39,720	-0,085	-0,055
-221,884	-85,578	-0,024	-0,005
-220,869	-110,805	0,065	-0,010
-219,855	-200,000	-0,021	0,165
-218,840	-54,648	0,088	0,029
-217,825	718,298	-0,018	-0,035
-216,811	215,297	0,026	0,030
-215,796	151,019	-0,008	0,008
-214,782	451,925	-0,019	0,031
-213,767	82,993	0,082	-0,064
-212,752	-4,201	0,068	0,034
-211,738	122,322	0,113	0,102
-210,723	657,002	0,076	0,143
-209,709	274,469	0,034	-0,043
-208,694	1,863	0,048	0,025
-207,679	333,711	-0,075	-0,104
-206,665	-200,000	-0,009	-0,068
-205,650	-58,243	0,161	0,050
-204,636	-200,000	0,010	0,046
-203,621	-190,248	0,045	0,000
-202,606	159,092	-0,061	0,062
-201,592	1,495	-0,127	-0,066
-200,577	71,306	0,077	-0,057
-199,563	-51,218	0,106	-0,036
-198,548	60,395	-0,113	-0,081
-197,533	165,934	-0,038	0,038
-196,519	-200,000	-0,008	-0,118
-195,504	-200,000	0,018	-0,122
-194,490	-200,000	0,026	-0,167
-193,475	38,211	0,029	-0,018
-192,460	800,000	0,005	-0,014
-191,446	42,054	0,068	-0,044
-190,431	-200,000	-0,030	0,196
-189,417	-96,321	0,055	-0,010
-188,402	181,828	-0,057	0,061
-187,387	-200,000	0,002	-0,029
-186,373	-200,000	-0,007	-0,067
-185,358	800,000	-0,021	-0,045
-184,344	-53,282	0,026	-0,009
-183,329	-200,000	-0,003	0,025
-182,315	-50,608	-0,034	-0,012
-181,300	-136,691	-0,094	0,008
-180,285	164,653	0,058	0,059
-179,271	-200,000	-0,024	-0,119
-178,256	-200,000	-0,002	-0,053
-177,242	274,260	0,071	-0,091
-176,227	-18,675	0,161	0,072
-175,212	72,300	0,117	0,088
-174,198	55,289	-0,076	-0,053
-173,183	188,341	0,132	-0,142
-172,169	672,526	-0,049	0,092
-171,154	800,000	0,032	0,082
-170,139	-134,717	0,101	-0,009
-169,125	-40,053	-0,049	-0,018
-168,110	224,484	-0,119	0,139
-167,096	240,596	0,073	0,088
-166,081	-17,781	-0,075	0,034
-165,066	-145,142	0,059	0,004
-164,052	-200,000	-0,005	-0,063
-163,037	-200,000	-0,004	0,135
-162,023	196,333	0,056	0,061
-161,008	800,000	0,038	0,103
-159,993	-172,481	0,087	0,002
-158,979	159,967	-0,062	0,062
-157,964	-93,704	-0,048	0,010
-156,950	31,323	0,110	0,068
-155,935	473,720	0,037	0,060
-154,920	-200,000	-0,006	-0,114
-153,906	65,670	0,048	0,035
-152,891	-200,000	-0,036	0,212
-151,877	92,154	0,057	-0,046
-150,862	800,000	0,044	-0,099
-149,847	-200,000	0,011	-0,068
-148,833	-105,104	-0,071	0,012
-147,818	731,852	-0,072	0,139
-146,804	555,167	-0,044	0,077
-145,789	-37,437	-0,094	-0,036
-144,775	209,479	0,048	-0,055
-143,760	388,245	0,039	0,058
-142,745	-200,000	-0,012	0,086
-141,731	-164,535	-0,081	0,003
-140,716	38,296	0,135	-0,087
-139,702	56,074	0,108	0,075
-138,687	240,542	-0,045	0,054
-137,672	-200,000	0,005	-0,052
-136,658	270,023	-0,068	0,087
-135,643	-200,000	-0,016	0,097
-134,629	-200,000	-0,024	0,117
-133,614	800,000	0,037	0,094
-132,599	165,449	-0,067	-0,068
-131,585	-144,410	0,077	0,005
-130,570	85,452	-0,034	-0,027
-129,556	-200,000	-0,022	0,082
-128,541	-53,712	-0,043	0,014
-127,526	253,108	-0,108	-0,133
-126,512	-200,000	0,008	-0,071
-125,497	-200,000	0,010	0,120
-124,483	140,704	0,139	0,132
-123,468	507,198	0,018	0,031
-122,453	564,257	0,013	-0,022
-121,439	-81,003	0,127	-0,030
-120,424	-10,533	-0,041	0,019
-119,410	-200,000	0,000	0,028
-118,395	1,169	0,088	0,045
