DTS Sentinel unit serial number:	SN410029Multiplexer serial number:	ORYXHardware model number:	OX2-SRSoftware version number:	ORYX F/W v4,00 Oryx Data Collector v3.7.2.0data status	okinstallation	B6 Nyhavnadifferential loss correction	single-endedforward channel	channel 2reverse channel	N/Adate	2023/12/07time	12:45:08forward acquisition time	300,00reverse acquisition time	0,00gamma	499,1914k internal	0,3203k external	0,3203temperature offset calibration	1,0000default loss term (dB/km)	0,3820temperature slope calibration	1,0000multiplexer offset coefficient	1,0000multiplexer slope coefficient	1,0000fibre end	0,00T internal ref (°C)	10,62T ext. ref 1 (°C)	-2,92T ext. ref 2 (°C)	-2,89length (m)	temperature (°C)	Stokes	anti-Stokes-744,400	99,646	0,125	0,105
-743,385	-41,515	-0,307	-0,114
-742,371	-70,679	0,217	0,059
-741,356	-115,624	-0,481	-0,065
-740,342	-51,426	0,287	0,097
-739,327	-43,188	-0,351	-0,128
-738,312	-72,334	0,173	0,046
-737,298	-100,917	-0,339	0,060
-736,283	137,842	0,121	0,115
-735,269	-75,899	-0,370	-0,095
-734,254	176,002	0,177	0,187
-733,239	-53,390	-0,664	-0,220
-732,225	73,120	0,170	0,129
-731,210	-52,625	-0,102	0,034
-730,196	58,177	0,041	-0,029
-729,181	800,000	-0,058	-0,180
-728,167	-9,228	0,073	-0,035
-727,152	147,443	0,082	0,080
-726,137	-200,000	-0,008	-0,170
-725,123	274,086	-0,096	-0,123
-724,108	3,818	0,028	-0,015
-723,094	611,076	-0,046	-0,085
-722,079	800,000	-0,031	-0,076
-721,064	800,000	-0,059	-0,130
-720,050	-85,756	-0,131	-0,029
-719,035	800,000	-0,057	0,172
-718,021	2,987	-0,073	-0,038
-717,006	800,000	-0,038	-0,080
-715,991	-23,458	-0,111	0,048
-714,977	800,000	-0,026	-0,079
-713,962	-200,000	0,144	0,000
-712,948	-134,536	-0,052	-0,005
-711,933	-200,000	-0,006	0,039
-710,918	71,706	-0,070	0,053
-709,904	-73,443	0,034	-0,009
-708,889	-3,926	-0,056	0,028
-707,875	297,418	-0,081	-0,108
-706,860	85,390	0,072	0,058
-705,845	-200,000	-0,006	0,026
-704,831	-200,000	0,036	0,142
-703,816	-200,000	-0,040	0,171
-702,802	-170,361	-0,089	-0,002
-701,787	29,079	-0,112	-0,069
-700,772	800,000	0,031	-0,071
-699,758	22,534	-0,049	-0,029
-698,743	800,000	-0,050	0,117
-697,729	222,090	0,054	-0,063
-696,714	108,903	-0,169	0,146
-695,699	800,000	0,044	0,120
-694,685	0,740	-0,036	0,019
-693,670	-10,220	0,026	-0,013
-692,656	379,159	-0,035	0,053
-691,641	-200,000	0,042	0,212
-690,627	-200,000	0,116	0,000
-689,612	125,819	0,012	0,011
-688,597	800,000	-0,013	-0,036
-687,583	36,488	0,032	-0,020
-686,568	-200,000	0,001	-0,153
-685,554	-200,000	0,001	0,037
-684,539	534,465	-0,033	-0,057
-683,524	-1,469	-0,027	0,014
-682,510	331,222	-0,015	0,021
-681,495	-19,388	-0,038	-0,017
-680,481	-39,746	-0,133	-0,050
-679,466	800,000	0,026	-0,075
-678,451	800,000	-0,029	0,072
-677,437	-114,565	-0,037	-0,005
-676,422	-200,000	0,009	-0,029
-675,408	-93,196	-0,040	-0,008
-674,393	800,000	0,025	-0,080
-673,378	-99,474	0,063	0,011
-672,364	591,702	-0,009	0,016
-671,349	-200,000	0,051	-0,202
-670,335	-159,167	0,055	-0,002
-669,320	-136,200	-0,009	-0,001
-668,305	-200,000	0,024	0,096
-667,291	-200,000	-0,012	-0,055
-666,276	800,000	0,016	0,034
-665,262	-182,431	-0,110	-0,001
-664,247	-200,000	0,002	-0,102
-663,232	-200,000	-0,005	0,036
-662,218	-67,662	-0,117	0,033
-661,203	124,346	0,022	-0,020
-660,189	-200,000	0,003	-0,041
-659,174	-32,359	-0,123	0,050
-658,159	-139,991	-0,041	0,003
-657,145	235,900	0,137	-0,165
-656,130	-51,670	-0,075	-0,025
-655,116	-200,000	0,011	-0,039
-654,101	-171,910	-0,035	-0,001
-653,086	378,896	-0,036	-0,054
-652,072	-200,000	0,021	0,102
-651,057	763,318	0,024	-0,047
-650,043	533,549	-0,010	0,017
-649,028	-79,053	-0,031	0,008
-648,014	-200,000	0,000	-0,066
-646,999	-200,000	0,012	0,075
-645,984	81,642	-0,093	0,073
-644,970	-2,572	-0,133	0,067
-643,955	-200,000	0,005	-0,140
-642,941	144,671	0,079	0,077
-641,926	55,453	-0,077	-0,054
-640,911	-200,000	0,002	0,109
-639,897	-117,370	0,097	-0,013
-638,882	237,635	0,011	-0,013
-637,868	-200,000	0,005	-0,020
-636,853	-182,346	-0,068	-0,001
-635,838	800,000	-0,037	-0,099
-634,824	-131,427	0,032	-0,003
-633,809	-200,000	-0,002	-0,038
-632,795	-106,899	-0,106	0,017
-631,780	152,664	0,044	-0,043
-630,765	254,212	-0,033	-0,041
-629,751	88,008	0,110	-0,088
-628,736	511,347	-0,028	0,048
-627,722	-84,460	-0,082	-0,019
-626,707	-68,461	-0,090	-0,025
-625,692	71,086	0,068	0,051
-624,678	800,000	-0,027	0,076
-623,663	217,435	0,086	0,100
-622,649	-200,000	-0,010	-0,187
-621,634	33,792	-0,125	-0,079
-620,619	-200,000	0,010	-0,086
-619,605	212,378	0,080	0,092
-618,590	-115,837	-0,123	-0,016
-617,576	79,330	0,041	0,032
-616,561	367,835	-0,054	-0,079
-615,546	52,570	-0,080	0,055
-614,532	582,075	-0,058	-0,104
-613,517	150,900	-0,078	0,077
-612,503	-200,000	-0,005	-0,036
-611,488	-11,682	-0,089	0,042
-610,474	257,122	-0,043	0,053
-609,459	-134,460	-0,096	-0,008
-608,444	-106,187	-0,198	-0,032
-607,430	-109,746	0,109	-0,016
-606,415	-27,615	0,097	0,040
-605,401	47,550	-0,007	0,005
-604,386	36,040	0,038	0,024
-603,371	495,583	0,061	0,101
-602,357	89,649	0,119	-0,096
-601,342	-59,703	0,092	0,028
-600,328	234,984	-0,087	-0,104
-599,313	-161,954	-0,047	0,002
-598,298	264,362	0,009	-0,011
-597,284	-200,000	0,018	-0,065
-596,269	-93,797	-0,163	-0,032
-595,255	-43,484	0,140	-0,051
-594,240	-200,000	-0,001	-0,030
-593,225	-40,122	-0,092	0,035
-592,211	139,932	-0,033	-0,031
-591,196	2,961	0,066	0,035
-590,182	37,670	0,032	-0,021
-589,167	800,000	0,050	0,131
-588,152	-61,790	0,044	-0,013
-587,138	81,949	-0,041	0,032
-586,123	800,000	0,038	-0,097
-585,109	-57,379	-0,137	-0,043
-584,094	-200,000	-0,016	0,107
-583,079	-78,237	0,169	0,042
-582,065	-200,000	0,013	0,100
-581,050	234,453	0,054	-0,065
-580,036	800,000	-0,027	-0,068
-579,021	81,235	-0,222	0,173
-578,006	-200,000	-0,026	-0,106
-576,992	23,645	-0,079	-0,047
-575,977	301,367	-0,038	-0,050
-574,963	-81,018	0,120	-0,029
-573,948	517,263	-0,054	0,092
-572,934	-74,275	0,045	-0,012
-571,919	-93,000	-0,069	-0,014
-570,904	-2,613	0,020	0,010
-569,890	4,603	-0,124	0,065
-568,875	800,000	-0,017	-0,049
-567,861	144,648	0,099	-0,095
-566,846	-200,000	-0,029	0,111
-565,831	-200,000	-0,025	0,094
-564,817	-127,714	-0,096	0,010
-563,802	359,589	0,029	-0,043
-562,788	800,000	0,036	-0,107
-561,773	-200,000	-0,013	-0,129
-560,758	800,000	-0,014	0,038
-559,744	179,948	0,052	0,055
-558,729	-200,000	-0,012	-0,041
-557,715	284,527	-0,112	-0,146
-556,700	-200,000	0,004	-0,070
-555,685	800,000	0,011	0,029
-554,671	-200,000	0,014	0,045
-553,656	-43,666	0,066	-0,024
-552,642	-68,383	-0,106	0,030
-551,627	800,000	0,049	-0,118
-550,612	-200,000	-0,033	-0,161
-549,598	-82,529	0,164	-0,038
-548,583	-200,000	-0,002	-0,014
-547,569	10,862	0,022	0,012
-546,554	359,476	0,046	0,066
-545,539	-165,910	0,154	-0,005
-544,525	243,213	-0,070	-0,085
-543,510	-11,247	-0,047	-0,022
-542,496	38,288	-0,088	0,056
-541,481	-200,000	0,010	-0,048
-540,466	-200,000	-0,000	0,015
-539,452	218,954	0,045	0,052
-538,437	153,436	0,046	0,046
-537,423	-20,930	-0,117	-0,051
-536,408	14,835	-0,176	0,099
-535,393	-129,039	0,119	-0,012
-534,379	230,086	-0,193	-0,228
-533,364	-28,696	-0,016	0,006
-532,350	-4,303	0,034	-0,017
-531,335	-200,000	0,007	-0,045
-530,321	248,084	0,058	0,071
-529,306	-200,000	0,012	-0,071
-528,291	309,035	-0,126	-0,170
-527,277	-200,000	0,005	-0,136
-526,262	800,000	0,017	0,039
-525,248	-200,000	-0,011	0,107
-524,233	36,433	0,172	0,109
-523,218	245,375	-0,063	0,077
-522,204	-30,797	-0,030	-0,012
-521,189	-58,116	-0,075	-0,023
-520,175	-200,000	-0,006	-0,084
-519,160	800,000	-0,021	0,043
-518,145	671,300	0,042	0,079
-517,131	-200,000	0,003	0,169
-516,116	42,586	-0,038	0,025
-515,102	55,929	0,100	-0,070
-514,087	800,000	0,032	-0,070
-513,072	-152,581	0,085	0,004
-512,058	-103,475	-0,104	-0,017
-511,043	800,000	0,024	-0,059
-510,029	-18,503	0,108	0,048
-509,014	-105,567	-0,135	-0,022
-507,999	-200,000	-0,008	0,069
-506,985	17,701	0,025	0,014
-505,970	-85,627	-0,062	0,014
-504,956	68,172	-0,046	-0,034
-503,941	44,393	0,034	-0,022
-502,926	-200,000	-0,007	-0,029
-501,912	35,979	0,128	0,081
-500,897	665,029	0,054	0,101
-499,883	87,020	-0,047	0,038
-498,868	-36,553	-0,061	-0,023
-497,853	-86,907	0,065	-0,014
-496,839	-3,876	-0,054	0,027
-495,824	251,227	-0,068	0,084
-494,810	3,403	-0,026	0,013
-493,795	-200,000	-0,030	0,119
-492,781	-200,000	-0,007	0,025
-491,766	-23,525	0,047	-0,020
-490,751	-45,224	-0,020	-0,007
-489,737	-88,436	-0,125	0,027
-488,722	-19,682	0,108	-0,048
-487,708	59,152	-0,029	-0,021
-486,693	800,000	0,039	-0,106
-485,678	546,516	0,011	0,019
-484,664	462,246	-0,076	-0,122
-483,649	119,344	-0,108	-0,096
-482,635	-12,118	0,107	-0,050
-481,620	-15,372	-0,050	0,023
-480,605	-94,802	0,091	-0,018
-479,591	557,550	0,029	0,050
-478,576	800,000	-0,063	0,144
-477,562	-200,000	-0,006	0,058
-476,547	-18,514	0,089	-0,040
-475,532	313,078	-0,031	0,042
-474,518	166,340	0,065	-0,066
-473,503	-200,000	-0,027	0,129
-472,489	800,000	-0,034	0,087
-471,474	-7,801	-0,078	-0,038
-470,459	-200,000	0,013	0,070
-469,445	800,000	-0,023	-0,048
-468,430	631,106	-0,067	-0,122
-467,416	-57,344	-0,041	-0,013
-466,401	-83,970	0,175	0,040
-465,386	264,839	0,050	0,063
-464,372	-107,691	0,079	-0,012
-463,357	422,605	0,062	-0,097
-462,343	800,000	-0,020	0,047
-461,328	-200,000	0,001	0,074
-460,313	2,251	-0,101	-0,052
-459,299	140,676	0,059	0,056
-458,284	-106,530	-0,043	-0,007
-457,270	-200,000	0,005	0,036
-456,255	347,934	0,082	0,116
-455,241	-181,858	0,060	-0,001
-454,226	39,226	0,135	-0,087
-453,211	-200,000	0,020	0,070
-452,197	-47,413	0,034	-0,012
-451,182	-200,000	0,002	0,040
-450,168	-200,000	-0,034	0,117
-449,153	-200,000	-0,008	-0,055
-448,138	126,479	-0,026	0,024
-447,124	-200,000	0,021	-0,128
-446,109	-200,000	0,001	-0,016
-445,095	26,617	0,023	-0,014
-444,080	800,000	-0,055	0,125
-443,065	-86,125	0,108	-0,024
-442,051	233,808	-0,099	0,118
-441,036	157,668	0,031	-0,031
-440,022	-113,067	-0,012	-0,002
-439,007	71,894	0,127	-0,094
-437,992	-78,161	0,024	-0,006
-436,978	226,226	0,076	0,088
-435,963	800,000	0,066	0,154
-434,949	-0,320	-0,152	-0,077
-433,934	14,390	0,072	-0,040
-432,919	-108,571	-0,142	-0,022
-431,905	-42,663	-0,028	0,010
-430,890	-200,000	0,002	-0,131
-429,876	-200,000	0,020	0,150
-428,861	296,530	-0,069	0,092
-427,846	-77,560	0,074	-0,018
-426,832	-200,000	0,018	-0,095
-425,817	9,521	-0,088	0,048
-424,803	-149,999	0,168	-0,009
-423,788	-1,133	-0,064	-0,032
-422,773	-43,991	0,106	0,038
-421,759	43,692	0,109	0,071
-420,744	365,521	0,056	-0,081
-419,730	-200,000	0,078	-0,251
-418,715	800,000	0,033	-0,094
-417,701	800,000	0,066	0,134
-416,686	115,221	0,069	-0,061
-415,671	64,587	0,087	0,063
-414,657	415,684	-0,087	-0,134
-413,642	172,174	0,033	-0,034
-412,628	-200,000	0,004	0,029
-411,613	4,603	-0,118	-0,062
-410,598	740,109	-0,045	-0,087
-409,584	78,557	0,032	-0,024
-408,569	10,365	0,078	0,042
-407,555	800,000	-0,018	0,057
-406,540	-55,000	0,051	0,016
-405,525	-200,000	0,018	-0,215
-404,511	-200,000	0,014	-0,102
-403,496	50,942	0,030	-0,021
-402,482	-121,406	-0,036	-0,004
-401,467	-189,948	0,052	0,000
-400,452	800,000	-0,027	0,058
-399,438	138,472	-0,121	-0,114
-398,423	322,267	-0,081	0,111
-397,409	-2,197	-0,127	-0,064
-396,394	26,372	0,065	-0,039
-395,379	324,802	-0,111	0,152
-394,365	800,000	0,036	0,091
-393,350	-115,072	0,108	0,015
-392,336	21,263	-0,163	-0,095
-391,321	-172,062	-0,027	0,001
-390,306	800,000	-0,014	0,030
-389,292	190,060	-0,059	-0,064
-388,277	252,553	0,030	-0,036
-387,263	800,000	-0,038	-0,075
-386,248	135,198	0,091	0,085
-385,233	-127,994	0,091	0,009
-384,219	-200,000	0,024	-0,084
-383,204	-10,974	-0,155	-0,073
-382,190	800,000	-0,007	-0,016
-381,175	-200,000	0,007	0,074
-380,160	-200,000	-0,006	0,039
-379,146	-97,884	0,063	0,012
-378,131	-181,961	0,036	-0,000
-377,117	-117,531	-0,107	0,014
-376,102	-111,004	-0,078	0,011
-375,088	93,495	-0,072	-0,058
-374,073	-200,000	-0,016	0,107
-373,058	213,276	0,079	0,089
-372,044	-119,590	0,051	-0,006
-371,029	-105,708	-0,024	-0,004
-370,015	800,000	-0,054	0,115
-369,000	-200,000	-0,012	0,039
-367,985	-121,095	0,096	-0,011
-366,971	367,675	-0,043	-0,062
-365,956	48,090	-0,083	0,056
-364,942	-16,730	0,092	0,041
-363,927	-45,679	-0,036	-0,013
-362,912	359,589	-0,049	-0,070
-361,898	-57,530	-0,071	-0,022
-360,883	-50,468	-0,042	-0,014
-359,869	113,934	-0,070	-0,061
-358,854	2,574	0,067	0,035
-357,839	-49,655	0,138	-0,047
-356,825	800,000	-0,051	0,143
-355,810	211,399	0,097	-0,109
-354,796	-200,000	0,007	0,029
-353,781	-200,000	0,022	-0,120
-352,766	-200,000	0,004	-0,053
-351,752	191,323	0,017	-0,019
-350,737	163,160	0,090	0,091
-349,723	800,000	0,048	0,104
-348,708	109,514	0,043	0,037
-347,693	138,033	-0,061	0,057
-346,679	800,000	-0,062	-0,164
-345,664	-200,000	0,004	-0,076
-344,650	182,280	-0,093	0,098
-343,635	138,367	-0,049	-0,046
-342,620	-60,724	0,238	-0,072
-341,606	33,585	-0,072	0,044
-340,591	-200,000	-0,003	-0,099
-339,577	-200,000	0,033	-0,106
-338,562	-18,215	0,051	0,023
-337,548	-130,912	0,059	0,006
-336,533	-200,000	0,011	0,093
-335,518	135,575	0,063	-0,059
-334,504	-200,000	-0,003	0,009
-333,489	800,000	0,013	0,033
-332,475	-77,062	-0,132	0,033
-331,460	-200,000	-0,030	0,115
-330,445	-17,587	-0,007	0,003
-329,431	-200,000	0,037	0,123
-328,416	300,807	0,087	-0,114
-327,402	-200,000	-0,024	-0,082
-326,387	43,791	-0,147	-0,096
-325,372	12,487	-0,094	-0,052
-324,358	-200,000	0,002	-0,024
-323,343	388,784	-0,075	-0,111
-322,329	800,000	0,020	0,062
-321,314	-109,922	-0,113	0,017
-320,299	152,489	0,040	0,039
-319,285	-200,000	0,041	-0,158
-318,270	-38,090	0,067	0,025
-317,256	-95,146	0,079	-0,015
-316,241	-41,768	0,043	-0,016
-315,226	450,175	0,061	0,097
-314,212	155,231	0,044	0,044
-313,197	-200,000	-0,004	0,127
-312,183	800,000	0,029	0,072
-311,168	-104,598	0,100	-0,016
-310,153	224,391	0,018	-0,021
-309,139	46,462	0,021	0,014
-308,124	800,000	0,027	0,073
-307,110	-154,860	-0,060	0,003
-306,095	-147,376	0,250	0,015
-305,080	800,000	-0,029	0,073
-304,066	1,294	-0,073	0,038
-303,051	95,319	-0,077	-0,063
-302,037	-104,425	-0,079	0,013
-301,022	-96,198	0,130	-0,024
-300,008	189,713	-0,083	0,089
-298,993	-12,381	0,069	0,032
-297,978	111,953	-0,023	0,020
-296,964	192,931	0,067	-0,072
-295,949	-155,921	0,034	-0,002
-294,935	25,838	0,074	-0,044
-293,920	76,921	-0,088	-0,067
-292,905	-117,794	-0,083	-0,011
-291,891	45,486	-0,049	-0,032
-290,876	800,000	-0,050	0,143
-289,862	-113,517	-0,104	0,014
-288,847	-200,000	0,024	0,099
-287,832	-32,786	-0,058	-0,023
-286,818	25,236	0,063	0,037
-285,803	420,025	0,041	0,062
-284,789	800,000	-0,008	-0,024
-283,774	800,000	-0,013	0,025
-282,759	281,232	0,129	-0,165
-281,745	-200,000	0,006	-0,057
-280,730	-200,000	0,010	-0,090
-279,716	-87,056	0,041	0,009
-278,701	320,431	0,061	0,083
-277,686	-54,274	0,173	0,056
-276,672	-17,081	-0,056	0,025
-275,657	-59,732	-0,097	-0,030
-274,643	75,788	0,061	0,046
-273,628	800,000	-0,038	-0,112
-272,613	223,125	-0,087	0,101
-271,599	676,577	-0,020	-0,037
-270,584	800,000	0,030	0,066
-269,570	-155,872	0,065	0,003
-268,555	-152,864	0,062	-0,003
-267,540	-200,000	0,005	0,052
-266,526	800,000	0,056	0,146
-265,511	-25,929	0,130	-0,055
-264,497	-58,824	-0,106	0,033
-263,482	-144,119	0,088	0,006
-262,467	369,520	-0,089	0,130
-261,453	216,653	-0,009	-0,010
-260,438	-200,000	0,027	-0,127
-259,424	243,022	0,039	0,046
-258,409	-200,000	-0,019	-0,111
-257,395	489,243	-0,063	0,104
-256,380	-63,764	0,077	0,022
-255,365	199,286	0,054	0,059
-254,351	-149,879	-0,072	0,004
-253,336	800,000	0,046	0,093
-252,322	36,403	-0,189	-0,119
-251,307	-200,000	-0,020	-0,091
-250,292	-48,576	-0,057	-0,020
-249,278	-30,449	0,173	-0,069
-248,263	-200,000	0,001	0,034
-247,249	712,843	0,038	0,071
-246,234	299,961	0,083	0,110
-245,219	-49,114	-0,042	0,014
-244,205	-124,568	0,114	-0,012
-243,190	309,176	0,045	-0,060
-242,176	800,000	0,087	0,192
-241,161	120,775	0,081	0,072
-240,146	-200,000	0,011	-0,123
-239,132	452,323	0,050	-0,078
-238,117	536,329	-0,021	-0,035
-237,103	33,550	-0,058	0,036
-236,088	239,270	-0,035	-0,042
-235,073	-200,000	0,019	0,065
-234,059	-200,000	0,008	0,086
-233,044	-99,929	-0,086	-0,015
-232,030	316,002	-0,079	-0,107
-231,015	76,574	-0,081	0,061
-230,000	292,623	-0,133	-0,173
-228,986	186,200	0,069	-0,073
-227,971	800,000	0,048	0,119
-226,957	509,370	-0,095	0,158
-225,942	-200,000	0,023	-0,072
-224,927	246,354	0,123	0,148
-223,913	-64,888	0,124	0,036
-222,898	-200,000	0,004	0,025
-221,884	-172,907	0,067	-0,001
-220,869	797,817	0,059	0,116
-219,855	-148,870	-0,066	0,004
-218,840	-1,726	-0,038	-0,019
-217,825	85,290	0,044	0,035
-216,811	-39,473	-0,076	-0,028
-215,796	207,357	-0,006	-0,007
-214,782	-200,000	-0,008	0,052
-213,767	800,000	0,063	0,139
-212,752	409,517	-0,006	0,009
-211,738	62,215	0,116	-0,082
-210,723	202,351	0,045	-0,050
-209,709	-95,498	-0,064	-0,012
-208,694	-51,658	-0,128	-0,042
-207,679	11,420	-0,092	-0,050
-206,665	-200,000	0,005	-0,057
-205,650	-25,644	0,138	-0,058
-204,636	-200,000	-0,015	-0,071
-203,621	-15,611	-0,049	-0,022
-202,606	-200,000	0,002	0,041
-201,592	-58,480	0,066	0,020
-200,577	800,000	-0,027	0,071
-199,563	-10,125	-0,153	-0,072
-198,548	53,186	0,128	-0,087
-197,533	800,000	-0,057	-0,135
-196,519	151,411	0,048	0,046
-195,504	-121,582	-0,061	0,007
-194,490	-24,504	-0,050	0,021
-193,475	513,447	-0,033	0,055
-192,460	183,249	-0,034	-0,036
-191,446	-122,348	0,021	0,002
-190,431	-200,000	0,022	0,194
-189,417	800,000	-0,010	-0,025
-188,402	800,000	-0,006	0,017
-187,387	173,929	-0,035	-0,036
-186,373	19,356	-0,072	0,041
-185,358	800,000	0,048	0,106
-184,344	-7,300	0,035	-0,017
-183,329	563,508	0,035	-0,061
-182,315	-200,000	-0,022	0,093
-181,300	94,823	-0,035	0,029
-180,285	54,997	0,050	0,035
-179,271	800,000	-0,018	-0,049
-178,256	-147,541	-0,117	0,007
-177,242	-200,000	-0,008	-0,029
-176,227	800,000	0,013	-0,028
-175,212	-200,000	-0,067	0,210
-174,198	800,000	-0,043	-0,087
-173,183	-71,484	0,122	0,032
-172,169	-200,000	-0,010	0,073
-171,154	103,953	0,035	0,030
-170,139	46,504	0,057	0,038
-169,125	578,774	0,046	0,080
-168,110	-125,597	-0,084	-0,009
-167,096	-158,727	-0,069	0,003
-166,081	-3,660	0,033	-0,016
-165,066	-200,000	0,008	0,073
-164,052	800,000	-0,050	-0,116
-163,037	-92,580	0,051	-0,010
-162,023	-182,326	0,052	-0,001
-161,008	800,000	0,048	0,107
-159,993	376,403	0,036	-0,053
-158,979	486,601	-0,067	-0,109
-157,964	347,966	0,037	-0,053
-156,950	-200,000	0,002	-0,022
-155,935	768,639	-0,028	-0,055
-154,920	800,000	-0,027	-0,053
-153,906	-11,120	-0,044	-0,021
-152,891	-87,305	-0,064	0,014
-151,877	-87,395	-0,155	-0,033
-150,862	37,727	-0,184	0,116
-149,847	104,837	0,024	0,020
-148,833	800,000	0,045	-0,093
-147,818	-200,000	-0,008	-0,050
-146,804	121,199	0,082	0,073
-145,789	-123,326	0,047	0,005
-144,775	153,521	-0,035	-0,034
-143,760	800,000	-0,038	-0,105
-142,745	-12,640	-0,120	-0,056
-141,731	-200,000	0,013	0,114
-140,716	560,513	-0,055	0,094
-139,702	103,858	0,035	0,030
-138,687	-200,000	-0,034	0,114
-137,672	279,466	0,079	-0,101
-136,658	-200,000	0,048	0,000
-135,643	-200,000	-0,016	0,061
-134,629	15,130	0,088	-0,049
-133,614	78,267	0,089	-0,067
-132,599	-137,937	0,060	0,005
-131,585	483,948	-0,029	-0,048
-130,570	20,341	0,105	0,060
-129,556	664,756	-0,019	-0,035
-128,541	-200,000	0,007	-0,039
-127,526	-48,708	-0,027	-0,009
-126,512	-200,000	-0,007	0,097
-125,497	-200,000	0,004	0,115
-124,483	10,259	-0,103	-0,055
-123,468	160,468	0,035	-0,035
-122,453	800,000	-0,015	-0,043
-121,439	63,233	0,106	-0,075
-120,424	95,577	-0,037	0,030
-119,410	184,812	-0,022	-0,023
