DTS Sentinel unit serial number:	SN410029Multiplexer serial number:	ORYXHardware model number:	OX2-SRSoftware version number:	ORYX F/W v4,00 Oryx Data Collector v3.7.2.0data status	okinstallation	B6 Nyhavnadifferential loss correction	single-endedforward channel	channel 2reverse channel	N/Adate	2023/12/10time	01:10:08forward acquisition time	300,00reverse acquisition time	0,00gamma	499,1914k internal	0,3125k external	0,3125temperature offset calibration	1,0000default loss term (dB/km)	0,3820temperature slope calibration	1,0000multiplexer offset coefficient	1,0000multiplexer slope coefficient	1,0000fibre end	0,00T internal ref (°C)	21,88T ext. ref 1 (°C)	5,68T ext. ref 2 (°C)	5,69length (m)	temperature (°C)	Stokes	anti-Stokes-744,400	554,479	-0,048	-0,087
-743,385	-45,188	-0,238	-0,087
-742,371	-62,349	0,135	-0,042
-741,356	-129,272	-0,313	0,032
-740,342	-116,834	0,117	0,016
-739,327	-58,921	-0,247	0,079
-738,312	310,765	-0,043	-0,060
-737,298	-76,991	-0,261	0,067
-736,283	137,841	0,056	-0,055
-735,269	-48,382	-0,285	0,102
-734,254	15,561	0,120	-0,070
-733,239	-5,495	-0,335	-0,170
-732,225	800,000	-0,046	-0,095
-731,210	-200,000	0,002	0,013
-730,196	286,932	0,014	-0,019
-729,181	-77,335	0,040	-0,010
-728,167	-52,475	-0,157	0,054
-727,152	-4,632	0,093	0,048
-726,137	710,853	0,019	0,037
-725,123	-136,778	-0,210	-0,018
-724,108	776,067	0,009	0,018
-723,094	460,492	-0,080	-0,133
-722,079	-17,269	-0,105	-0,049
-721,064	450,160	0,028	0,045
-720,050	708,830	-0,098	-0,193
-719,035	800,000	-0,056	-0,157
-718,021	137,615	-0,060	-0,058
-717,006	245,364	-0,066	-0,083
-715,991	-200,000	-0,039	-0,159
-714,977	115,507	-0,072	-0,066
-713,962	70,772	-0,070	0,054
-712,948	800,000	-0,042	-0,093
-711,933	800,000	0,056	-0,152
-710,918	109,865	-0,080	0,072
-709,904	26,397	-0,058	-0,036
-708,889	800,000	-0,048	-0,114
-707,875	-200,000	0,008	-0,044
-706,860	-5,851	-0,044	-0,022
-705,845	18,838	0,059	-0,035
-704,831	-200,000	0,005	-0,033
-703,816	-125,791	-0,166	-0,018
-702,802	224,361	0,008	-0,010
-701,787	456,156	-0,062	0,102
-700,772	-17,723	-0,156	0,072
-699,758	-148,715	0,088	-0,005
-698,743	-200,000	-0,018	-0,089
-697,729	340,696	-0,104	-0,152
-696,714	-71,925	-0,176	0,048
-695,699	800,000	0,068	-0,155
-694,685	-136,311	-0,108	-0,009
-693,670	734,120	0,055	-0,109
-692,656	-103,020	0,054	-0,009
-691,641	97,981	-0,102	0,087
-690,627	47,663	0,065	-0,045
-689,612	800,000	0,026	0,056
-688,597	50,144	-0,102	-0,071
-687,583	-181,571	-0,079	-0,001
-686,568	140,727	0,079	-0,078
-685,554	-200,000	-0,019	-0,081
-684,539	87,094	0,062	-0,051
-683,524	-158,493	0,088	-0,004
-682,510	1,885	0,085	-0,045
-681,495	100,268	-0,082	-0,071
-680,481	266,287	-0,013	-0,017
-679,466	-81,452	-0,086	-0,021
-678,451	5,114	0,055	-0,030
-677,437	310,429	-0,045	0,062
-676,422	-200,000	0,003	0,054
-675,408	-48,804	-0,051	0,018
-674,393	-0,071	0,041	-0,022
-673,378	4,478	-0,050	0,027
-672,364	-200,000	-0,007	0,126
-671,349	157,220	-0,099	-0,102
-670,335	144,698	-0,062	0,062
-669,320	-34,513	-0,056	-0,023
-668,305	286,391	-0,057	0,077
-667,291	-44,671	-0,128	0,047
-666,276	-200,000	-0,003	-0,106
-665,262	248,794	-0,066	-0,084
-664,247	-103,309	0,122	0,021
-663,232	-88,651	-0,086	-0,019
-662,218	-128,750	0,117	-0,012
-661,203	800,000	0,027	0,085
-660,189	332,249	0,054	0,078
-659,174	-86,817	0,043	-0,010
-658,159	-88,384	-0,046	0,010
-657,145	223,368	-0,052	-0,062
-656,130	800,000	-0,049	-0,143
-655,116	800,000	0,014	0,034
-654,101	10,768	0,109	0,062
-653,086	512,827	-0,022	-0,039
-652,072	-46,148	-0,047	0,017
-651,057	72,517	-0,139	-0,107
-650,043	-22,690	-0,102	-0,046
-649,028	99,450	0,016	0,014
-648,014	-200,000	0,033	0,111
-646,999	-200,000	0,020	0,093
-645,984	-200,000	0,002	0,035
-644,970	800,000	-0,053	-0,110
-643,955	-40,548	0,078	0,030
-642,941	-144,732	-0,175	0,012
-641,926	-200,000	0,003	0,080
-640,911	59,596	0,093	0,068
-639,897	-200,000	0,001	-0,039
-638,882	467,642	0,040	-0,067
-637,868	800,000	0,048	-0,141
-636,853	86,817	-0,045	-0,037
-635,838	-28,810	-0,112	-0,048
-634,824	-62,717	-0,136	0,041
-633,809	-111,421	0,064	0,010
-632,795	384,015	-0,036	0,056
-631,780	752,334	-0,061	-0,122
-630,765	-77,841	-0,050	-0,013
-629,751	800,000	-0,050	-0,112
-628,736	-200,000	-0,032	-0,174
-627,722	58,887	0,119	0,087
-626,707	256,635	-0,062	-0,079
-625,692	800,000	-0,050	-0,108
-624,678	800,000	0,043	0,090
-623,663	-200,000	-0,034	0,155
-622,649	658,359	-0,021	-0,040
-621,634	-77,561	-0,140	0,036
-620,619	599,350	0,038	0,070
-619,605	-200,000	0,020	-0,068
-618,590	800,000	0,055	-0,174
-617,576	55,756	-0,141	0,101
-616,561	30,647	-0,101	0,064
-615,546	32,275	-0,066	-0,042
-614,532	800,000	0,050	-0,116
-613,517	-60,057	-0,141	0,044
-612,503	-131,443	-0,047	0,005
-611,488	-198,949	0,064	0,000
-610,474	166,485	0,001	-0,001
-609,459	618,099	0,012	0,022
-608,444	-31,625	0,030	-0,013
-607,430	-200,000	0,013	0,064
-606,415	-200,000	0,012	0,054
-605,401	-200,000	0,053	-0,192
-604,386	-53,698	-0,053	-0,018
-603,371	-39,140	-0,007	0,003
-602,357	510,210	-0,012	0,021
-601,342	-17,121	-0,076	-0,036
-600,328	-129,731	0,043	-0,004
-599,313	-48,642	0,034	0,012
-598,298	-63,752	0,128	0,039
-597,284	-200,000	0,022	0,078
-596,269	-11,959	-0,088	0,043
-595,255	53,323	0,086	0,061
-594,240	-63,677	0,099	0,030
-593,225	800,000	-0,039	0,121
-592,211	-103,009	0,067	0,012
-591,196	125,433	0,114	-0,106
-590,182	-200,000	-0,015	-0,103
-589,167	-200,000	-0,019	-0,120
-588,152	575,456	-0,028	-0,050
-587,138	-200,000	0,006	-0,072
-586,123	-200,000	0,005	0,062
-585,109	-200,000	-0,004	-0,024
-584,094	-7,532	-0,102	-0,051
-583,079	800,000	0,070	0,151
-582,065	87,664	-0,049	0,040
-581,050	-120,475	-0,123	0,015
-580,036	150,396	0,108	-0,108
-579,021	492,999	0,045	-0,077
-578,006	-29,276	-0,077	-0,033
-576,992	-115,045	-0,086	-0,012
-575,977	299,652	-0,022	-0,030
-574,963	800,000	-0,084	0,177
-573,948	-104,102	-0,123	0,021
-572,934	-200,000	-0,006	0,045
-571,919	-50,995	0,101	0,035
-570,904	142,423	-0,060	-0,059
-569,890	-58,476	0,029	0,009
-568,875	-200,000	0,012	0,056
-567,861	-50,964	0,091	0,032
-566,846	800,000	0,016	0,038
-565,831	2,358	0,095	-0,051
-564,817	-37,505	0,038	-0,015
-563,802	615,595	0,093	0,173
-562,788	784,638	-0,047	-0,095
-561,773	192,732	0,048	-0,054
-560,758	33,510	-0,072	0,046
-559,744	182,547	0,064	-0,070
-558,729	148,700	-0,064	0,064
-557,715	-200,000	-0,020	0,121
-556,700	513,460	-0,039	-0,067
-555,685	-110,694	-0,038	-0,006
-554,671	147,339	0,063	0,063
-553,656	618,118	0,037	-0,069
-552,642	189,721	-0,050	0,055
-551,627	138,634	-0,036	0,035
-550,612	-160,055	-0,148	0,006
-549,598	800,000	0,035	0,115
-548,583	218,873	-0,091	0,108
-547,569	90,664	0,138	0,114
-546,554	50,825	0,044	-0,031
-545,539	800,000	-0,095	0,209
-544,525	800,000	0,012	-0,028
-543,510	800,000	-0,023	-0,065
-542,496	-12,131	-0,062	0,030
-541,481	800,000	-0,019	-0,053
-540,466	-200,000	0,006	-0,040
-539,452	629,031	0,064	0,120
-538,437	153,293	0,063	-0,064
-537,423	100,998	0,105	0,090
-536,408	-200,000	-0,020	-0,123
-535,393	-200,000	0,018	-0,075
-534,379	800,000	-0,029	-0,064
-533,364	-200,000	-0,011	0,042
-532,350	68,388	0,126	0,095
-531,335	164,656	-0,074	0,077
-530,321	-200,000	0,014	-0,049
-529,306	142,007	0,035	-0,034
-528,291	-59,222	-0,121	0,038
-527,277	-154,165	-0,094	0,005
-526,262	800,000	-0,046	-0,135
-525,248	196,389	-0,037	-0,041
-524,233	-157,016	0,046	-0,002
-523,218	-114,412	0,077	-0,011
-522,204	-73,020	-0,087	-0,023
-521,189	70,748	0,030	0,023
-520,175	239,778	0,074	-0,091
-519,160	103,765	0,068	-0,059
-518,145	800,000	0,019	0,042
-517,131	282,174	0,058	0,077
-516,116	199,743	0,047	0,053
-515,102	-200,000	-0,020	-0,122
-514,087	83,983	0,011	0,009
-513,072	250,143	-0,027	-0,033
-512,058	197,918	0,056	0,063
-511,043	800,000	-0,087	-0,182
-510,029	-80,811	0,101	0,024
-509,014	-200,000	-0,004	0,013
-507,999	800,000	0,019	0,049
-506,985	394,685	0,047	-0,072
-505,970	-200,000	0,017	-0,111
-504,956	800,000	-0,047	0,149
-503,941	800,000	0,027	0,072
-502,926	800,000	0,054	0,119
-501,912	-200,000	-0,013	-0,143
-500,897	75,472	-0,090	0,070
-499,883	-200,000	-0,053	0,178
-498,868	134,812	-0,049	-0,047
-497,853	238,953	0,057	-0,070
-496,839	-45,580	-0,122	0,044
-495,824	-12,852	0,167	-0,080
-494,810	-72,395	0,063	-0,017
-493,795	-26,440	0,052	-0,023
-492,781	7,254	0,086	-0,047
-491,766	-62,366	-0,122	0,037
-490,751	-200,000	-0,009	-0,051
-489,737	417,545	0,010	0,015
-488,722	800,000	-0,020	-0,050
-487,708	84,206	-0,104	0,084
-486,693	15,007	0,083	-0,048
-485,678	-200,000	-0,015	-0,051
-484,664	-77,913	-0,051	-0,013
-483,649	-200,000	0,000	-0,073
-482,635	326,481	0,011	0,015
-481,620	-59,808	-0,123	0,039
-480,605	-200,000	-0,026	0,144
-479,591	226,123	-0,042	-0,051
-478,576	-200,000	0,018	0,077
-477,562	78,332	-0,046	-0,036
-476,547	-200,000	0,008	0,037
-475,532	200,987	-0,064	-0,073
-474,518	-33,155	0,029	-0,012
-473,503	-58,745	-0,139	0,044
-472,489	148,024	-0,011	0,011
-471,474	729,010	-0,024	-0,047
-470,459	153,587	0,038	-0,038
-469,445	-166,695	-0,261	0,008
-468,430	63,648	0,136	0,100
-467,416	117,359	0,060	0,055
-466,401	-55,646	0,061	0,020
-465,386	800,000	0,037	0,090
-464,372	-158,198	0,017	0,001
-463,357	454,886	-0,048	-0,079
-462,343	15,963	-0,017	0,010
-461,328	-85,364	0,128	0,029
-460,313	119,788	-0,093	-0,085
-459,299	-21,866	0,104	-0,046
-458,284	-157,064	0,114	0,005
-457,270	-200,000	-0,000	-0,005
-456,255	-1,155	0,068	-0,035
-455,241	-200,000	0,022	-0,169
-454,226	228,105	-0,053	0,063
-453,211	98,393	-0,034	-0,029
-452,197	183,718	0,029	-0,032
-451,182	298,289	0,038	-0,052
-450,168	800,000	-0,008	-0,022
-449,153	16,988	-0,065	0,038
-448,138	757,671	-0,005	0,010
-447,124	0,960	0,051	-0,027
-446,109	49,999	0,051	-0,036
-445,095	9,558	-0,125	0,069
-444,080	800,000	-0,013	-0,033
-443,065	-200,000	0,000	0,042
-442,051	204,715	0,063	0,072
-441,036	-122,690	-0,162	-0,019
-440,022	800,000	-0,024	-0,061
-439,007	-200,000	-0,004	-0,098
-437,992	566,655	0,025	0,045
-436,978	30,509	0,103	0,065
-435,963	800,000	0,012	0,029
-434,949	800,000	0,020	0,060
-433,934	-64,865	-0,100	-0,030
-432,919	-200,000	0,026	-0,100
-431,905	-200,000	0,024	-0,097
-430,890	-200,000	0,006	0,054
-429,876	-10,354	0,079	0,038
-428,861	800,000	-0,018	0,052
-427,846	800,000	0,043	-0,106
-426,832	-200,000	0,003	-0,073
-425,817	800,000	-0,019	-0,046
-424,803	148,452	-0,037	0,036
-423,788	-109,103	0,121	0,019
-422,773	249,775	0,090	0,112
-421,759	800,000	0,035	-0,078
-420,744	98,666	-0,112	-0,095
-419,730	-44,256	-0,082	0,030
-418,715	-200,000	0,015	-0,253
-417,701	-200,000	-0,007	-0,037
-416,686	97,696	0,041	-0,035
-415,671	-200,000	0,003	0,022
-414,657	78,132	0,070	0,055
-413,642	263,280	0,065	0,083
-412,628	14,888	-0,123	0,071
-411,613	-200,000	0,003	-0,113
-410,598	-200,000	0,001	-0,058
-409,584	-175,441	-0,065	0,001
-408,569	-200,000	-0,041	0,139
-407,555	-200,000	0,006	0,101
-406,540	800,000	-0,030	0,069
-405,525	-121,371	-0,022	-0,003
-404,511	112,350	0,087	-0,077
-403,496	-95,496	-0,099	-0,019
-402,482	402,294	0,082	-0,127
-401,467	-53,045	0,070	-0,023
-400,452	-200,000	-0,014	0,075
-399,438	383,377	0,081	0,123
-398,423	-68,488	-0,098	-0,028
-397,409	-200,000	-0,033	-0,134
-396,394	-200,000	-0,129	0,000
-395,379	-200,000	0,032	0,208
-394,365	18,192	0,114	0,067
-393,350	-10,073	0,072	0,035
-392,336	45,534	-0,025	-0,017
-391,321	-175,268	0,097	0,002
-390,306	3,669	-0,159	-0,085
-389,292	-200,000	-0,027	0,104
-388,277	-99,266	0,133	0,024
-387,263	-200,000	0,044	-0,184
-386,248	-200,000	-0,002	0,017
-385,233	500,535	-0,079	-0,134
-384,219	-200,000	0,029	-0,137
-383,204	-153,721	-0,158	0,008
-382,190	380,878	0,025	-0,038
-381,175	84,680	0,036	0,029
-380,160	206,316	0,065	0,074
-379,146	-105,222	-0,042	0,007
-378,131	294,322	0,058	0,079
-377,117	-23,132	0,074	0,033
-376,102	608,038	0,038	0,069
-375,088	-200,000	-0,022	-0,091
-374,073	-200,000	-0,014	-0,115
-373,058	-93,321	0,046	0,009
-372,044	585,338	-0,013	0,024
-371,029	-200,000	0,024	0,098
-370,015	110,502	0,059	0,052
-369,000	-49,403	0,124	-0,043
-367,985	73,894	-0,065	0,050
-366,971	-71,069	-0,100	0,027
-365,956	-200,000	0,006	0,190
-364,942	-141,124	0,062	0,005
-363,927	117,751	0,006	-0,005
-362,912	-200,000	-0,003	-0,054
-361,898	163,374	-0,064	-0,066
-360,883	140,724	-0,043	-0,042
-359,869	63,691	0,045	-0,033
-358,854	-200,000	0,007	-0,082
-357,839	-200,000	-0,006	0,051
-356,825	61,083	0,031	0,023
-355,810	-200,000	-0,009	-0,042
-354,796	97,371	-0,012	-0,010
-353,781	39,650	-0,099	-0,065
-352,766	95,698	-0,062	0,052
-351,752	123,222	0,007	-0,006
-350,737	800,000	0,052	0,118
-349,723	-200,000	0,017	0,080
-348,708	123,467	0,057	-0,053
-347,693	-142,887	-0,030	0,002
-346,679	-127,920	-0,168	-0,018
-345,664	269,833	-0,020	0,026
-344,650	138,686	0,049	-0,047
-343,635	800,000	-0,052	0,133
-342,620	800,000	0,019	-0,040
-341,606	-36,967	0,053	-0,021
-340,591	-42,189	-0,049	0,018
-339,577	25,474	-0,145	-0,088
-338,562	-8,066	-0,127	-0,062
-337,548	-200,000	0,013	-0,052
-336,533	47,322	-0,110	-0,075
-335,518	-128,907	0,237	-0,024
-334,504	-19,628	-0,078	-0,035
-333,489	157,088	-0,098	0,099
-332,475	112,241	-0,020	0,018
-331,460	-200,000	-0,001	-0,205
-330,445	-200,000	-0,008	-0,041
-329,431	145,691	0,058	0,057
-328,416	-21,934	0,187	0,083
-327,402	-200,000	-0,002	-0,036
-326,387	-94,273	0,053	-0,011
-325,372	-200,000	0,018	-0,093
-324,358	237,043	0,110	-0,133
-323,343	83,016	0,069	0,055
-322,329	-200,000	0,006	0,064
-321,314	-151,147	0,108	0,006
-320,299	800,000	0,031	0,083
-319,285	-30,238	-0,050	0,021
-318,270	130,241	-0,050	0,047
-317,256	-200,000	0,021	-0,139
-316,241	432,309	-0,047	-0,075
-315,226	67,357	-0,089	-0,066
-314,212	447,788	0,040	-0,065
-313,197	-30,711	-0,073	-0,030
-312,183	-200,000	0,008	0,036
-311,168	-96,357	0,107	-0,020
-310,153	800,000	0,019	-0,041
-309,139	57,033	0,064	-0,046
-308,124	103,008	0,067	0,057
-307,110	741,171	0,028	0,055
-306,095	-200,000	-0,026	0,099
-305,080	275,542	0,051	0,066
-304,066	127,040	-0,071	-0,066
-303,051	202,494	-0,053	-0,060
-302,037	668,825	0,059	-0,112
-301,022	51,263	0,132	0,092
-300,008	-2,873	0,187	0,095
-298,993	586,164	0,012	0,022
-297,978	800,000	0,019	-0,059
-296,964	-200,000	0,053	0,202
-295,949	-200,000	-0,021	-0,134
-294,935	-82,613	0,005	-0,001
-293,920	26,735	0,096	0,059
-292,905	-200,000	0,030	0,101
-291,891	555,082	-0,036	0,064
-290,876	-29,077	0,099	-0,041
-289,862	26,555	-0,110	-0,067
-288,847	2,704	0,098	-0,052
-287,832	107,834	-0,024	-0,021
-286,818	-200,000	-0,010	-0,071
-285,803	-69,958	-0,020	0,005
-284,789	183,451	-0,007	0,007
-283,774	-78,773	0,043	-0,011
-282,759	-107,412	-0,101	0,016
-281,745	800,000	0,024	-0,049
-280,730	-29,038	-0,120	-0,050
-279,716	-200,000	0,042	-0,195
-278,701	-200,000	-0,001	0,087
-277,686	-200,000	0,007	-0,030
-276,672	-83,357	0,076	-0,018
-275,657	23,385	0,130	0,078
-274,643	-9,644	-0,041	-0,020
-273,628	-200,000	0,029	0,110
-272,613	55,323	-0,057	0,041
-271,599	532,398	-0,079	0,138
-270,584	800,000	0,035	0,081
-269,570	-200,000	0,008	0,043
-268,555	-200,000	0,005	-0,039
-267,540	-150,225	-0,104	0,006
-266,526	-200,000	0,026	0,085
-265,511	-93,607	-0,109	-0,022
-264,497	-88,573	0,104	0,022
-263,482	-8,374	-0,068	0,033
-262,467	-156,692	0,183	0,008
-261,453	-135,318	0,077	0,007
-260,438	71,480	-0,085	-0,065
-259,424	-200,000	0,003	-0,038
-258,409	685,643	0,088	-0,169
-257,395	-40,259	-0,105	-0,040
-256,380	777,300	0,052	0,104
-255,365	-127,578	-0,109	-0,011
-254,351	-200,000	-0,010	0,105
-253,336	800,000	-0,046	-0,137
-252,322	69,044	-0,136	-0,102
-251,307	610,536	-0,089	-0,162
-250,292	510,707	-0,036	-0,061
-249,278	-4,562	0,053	0,026
-248,263	-83,886	-0,061	-0,014
-247,249	-105,199	-0,125	0,021
-246,234	-200,000	-0,024	0,117
-245,219	84,824	-0,037	0,030
-244,205	-47,367	0,040	0,014
-243,190	-8,324	-0,057	-0,028
-242,176	-118,109	0,118	0,015
-241,161	-200,000	0,010	-0,039
-240,146	45,631	-0,053	0,036
-239,132	70,420	-0,033	-0,025
-238,117	-75,360	-0,029	0,007
-237,103	283,533	0,066	-0,086
-236,088	-72,485	-0,065	0,017
-235,073	-162,569	-0,080	-0,003
-234,059	188,454	-0,060	0,066
-233,044	-200,000	-0,008	0,071
-232,030	-150,058	0,119	0,007
-231,015	379,669	-0,064	0,096
-230,000	230,689	0,044	-0,053
-228,986	800,000	-0,086	-0,230
-227,971	113,817	0,052	-0,046
-226,957	660,730	0,095	0,179
-225,942	354,896	0,016	0,024
-224,927	74,128	-0,033	-0,025
-223,913	646,627	-0,048	-0,089
-222,898	800,000	-0,023	-0,066
-221,884	115,638	0,136	-0,122
-220,869	17,215	-0,045	-0,026
-219,855	-200,000	0,024	-0,146
-218,840	-200,000	-0,028	0,126
-217,825	-200,000	-0,025	0,085
-216,811	-200,000	0,006	0,088
-215,796	169,750	0,077	-0,080
-214,782	67,488	0,082	-0,061
-213,767	800,000	0,039	-0,115
-212,752	800,000	0,035	0,090
-211,738	800,000	0,032	0,079
-210,723	-68,416	-0,125	0,035
-209,709	354,723	0,007	-0,010
-208,694	-22,987	-0,053	-0,023
-207,679	-80,052	-0,129	-0,031
-206,665	10,884	0,077	0,043
-205,650	149,778	0,124	0,122
-204,636	300,198	0,045	0,060
-203,621	271,344	-0,057	0,074
-202,606	-200,000	0,019	0,081
-201,592	108,799	-0,067	0,059
-200,577	-79,983	-0,139	-0,034
-199,563	-100,470	0,035	-0,006
-198,548	-132,494	0,057	0,005
-197,533	-109,725	0,082	-0,012
-196,519	386,969	0,060	0,090
-195,504	-200,000	0,005	0,072
-194,490	-138,540	-0,054	-0,004
-193,475	468,936	-0,004	-0,006
-192,460	-200,000	-0,030	0,141
-191,446	111,313	0,121	0,107
-190,431	680,469	-0,055	0,106
-189,417	-36,851	-0,146	0,057
-188,402	-200,000	0,014	-0,108
-187,387	178,695	0,060	0,064
-186,373	800,000	0,003	-0,011
-185,358	-200,000	-0,012	0,054
-184,344	-200,000	0,013	0,118
-183,329	-200,000	-0,001	0,038
-182,315	-103,850	0,053	-0,009
-181,300	48,653	-0,076	-0,052
-180,285	-200,000	-0,003	0,027
-179,271	-132,325	-0,208	0,019
-178,256	-200,000	-0,003	0,028
-177,242	277,677	-0,040	0,052
-176,227	165,914	-0,012	0,012
-175,212	-12,896	0,144	-0,068
-174,198	127,804	0,083	0,077
-173,183	-149,484	0,212	-0,012
-172,169	84,674	-0,072	-0,057
-171,154	-200,000	0,003	0,059
-170,139	-200,000	-0,015	0,057
-169,125	-153,140	0,067	0,003
-168,110	-200,000	0,017	0,075
-167,096	-66,192	-0,069	-0,020
-166,081	436,256	-0,012	-0,019
-165,066	4,735	-0,078	-0,041
-164,052	444,486	-0,089	-0,143
-163,037	800,000	0,052	-0,137
-162,023	-35,174	-0,026	-0,010
-161,008	-4,059	0,092	0,046
-159,993	240,207	0,070	-0,086
-158,979	240,105	0,043	0,052
-157,964	34,715	0,010	-0,006
-156,950	580,079	-0,036	-0,064
-155,935	-99,555	0,067	0,012
-154,920	800,000	0,070	0,153
-153,906	-15,273	-0,079	-0,037
-152,891	-150,523	-0,025	-0,001
-151,877	-200,000	-0,013	0,070
-150,862	-200,000	0,013	-0,088
-149,847	-91,118	-0,038	0,008
-148,833	-200,000	-0,016	0,127
-147,818	221,430	0,130	0,152
-146,804	316,792	0,077	0,107
-145,789	-118,074	-0,076	0,010
-144,775	403,528	0,020	0,031
-143,760	7,387	0,078	0,042
-142,745	-87,817	-0,152	-0,033
-141,731	120,739	0,043	-0,039
-140,716	-109,110	0,204	-0,031
-139,702	-131,652	-0,072	0,007
-138,687	-133,777	-0,019	0,002
-137,672	162,828	-0,046	0,047
-136,658	187,593	-0,055	-0,060
-135,643	800,000	-0,046	-0,138
-134,629	546,803	-0,059	-0,104
-133,614	800,000	-0,014	-0,042
-132,599	104,758	0,090	0,077
-131,585	141,448	-0,022	0,021
-130,570	90,131	0,048	0,039
-129,556	90,073	-0,036	0,029
-128,541	-200,000	-0,015	0,132
-127,526	703,256	0,006	-0,012
-126,512	-91,740	0,150	-0,031
-125,497	-66,422	-0,014	-0,004
-124,483	79,784	0,135	0,105
-123,468	176,882	0,081	0,086
-122,453	44,810	0,051	0,034
-121,439	340,739	-0,060	-0,086
-120,424	-200,000	-0,003	-0,039
-119,410	400,921	0,063	-0,096
