DTS Sentinel unit serial number:	SN410029Multiplexer serial number:	ORYXHardware model number:	OX2-SRSoftware version number:	ORYX F/W v4,00 Oryx Data Collector v3.7.2.0data status	okinstallation	B6 Nyhavnadifferential loss correction	single-endedforward channel	channel 2reverse channel	N/Adate	2023/12/11time	01:00:08forward acquisition time	300,00reverse acquisition time	0,00gamma	499,1914k internal	0,3122k external	0,3122temperature offset calibration	1,0000default loss term (dB/km)	0,3820temperature slope calibration	1,0000multiplexer offset coefficient	1,0000multiplexer slope coefficient	1,0000fibre end	0,00T internal ref (°C)	22,24T ext. ref 1 (°C)	5,59T ext. ref 2 (°C)	5,62length (m)	temperature (°C)	Stokes	anti-Stokes-744,400	112,638	0,078	-0,071
-743,385	23,613	-0,165	0,101
-742,371	800,000	0,032	-0,070
-741,356	178,437	-0,160	0,174
-740,342	-61,741	0,138	-0,043
-739,327	-74,755	-0,271	0,072
-738,312	-57,463	-0,066	-0,021
-737,298	-109,091	-0,201	0,032
-736,283	800,000	-0,035	-0,087
-735,269	-171,107	-0,258	0,006
-734,254	452,208	0,102	-0,168
-733,239	-17,258	-0,473	-0,221
-732,225	-94,847	0,047	0,009
-731,210	-200,000	-0,019	-0,065
-730,196	61,724	-0,129	-0,096
-729,181	-119,326	0,083	-0,011
-728,167	-6,082	-0,092	0,046
-727,152	697,943	0,031	-0,061
-726,137	800,000	-0,038	-0,102
-725,123	-103,392	0,010	0,002
-724,108	71,217	-0,053	-0,041
-723,094	-64,885	-0,111	-0,033
-722,079	-92,066	-0,077	-0,016
-721,064	-200,000	0,004	-0,039
-720,050	-200,000	0,004	-0,058
-719,035	800,000	0,033	0,089
-718,021	800,000	-0,034	-0,088
-717,006	800,000	-0,027	-0,062
-715,991	800,000	-0,028	-0,073
-714,977	362,422	-0,042	0,063
-713,962	-200,000	0,035	-0,144
-712,948	175,637	-0,043	-0,046
-711,933	78,558	0,051	0,041
-710,918	-200,000	-0,024	-0,138
-709,904	77,245	-0,033	0,026
-708,889	202,767	0,105	-0,121
-707,875	-32,044	-0,079	0,033
-706,860	-129,648	0,137	0,014
-705,845	14,729	0,023	0,013
-704,831	-200,000	0,006	-0,173
-703,816	179,788	-0,088	-0,096
-702,802	-200,000	0,031	-0,109
-701,787	-101,582	0,130	-0,023
-700,772	-200,000	0,006	-0,095
-699,758	583,349	-0,099	-0,182
-698,743	800,000	-0,024	0,059
-697,729	190,308	0,084	0,094
-696,714	-74,453	-0,053	-0,014
-695,699	-106,958	-0,047	-0,008
-694,685	-200,000	-0,016	-0,109
-693,670	796,188	-0,054	-0,111
-692,656	-52,218	-0,023	0,008
-691,641	-200,000	-0,030	0,098
-690,627	-82,850	0,010	0,002
-689,612	-200,000	-0,010	-0,105
-688,597	48,926	-0,065	-0,045
-687,583	146,266	-0,019	-0,019
-686,568	70,152	-0,084	-0,065
-685,554	-141,710	-0,124	0,009
-684,539	-127,451	0,097	0,010
-683,524	-34,514	0,111	-0,045
-682,510	-200,000	-0,008	0,122
-681,495	800,000	-0,029	0,079
-680,481	-9,319	0,068	-0,034
-679,466	95,462	-0,046	-0,039
-678,451	50,179	0,077	-0,054
-677,437	-126,600	0,084	0,009
-676,422	-200,000	0,016	0,154
-675,408	534,249	-0,037	0,065
-674,393	-17,888	-0,041	-0,019
-673,378	271,200	-0,050	-0,066
-672,364	297,007	-0,054	-0,074
-671,349	-30,117	-0,028	-0,012
-670,335	0,417	0,093	-0,049
-669,320	-200,000	-0,033	0,131
-668,305	391,987	0,049	0,077
-667,291	-200,000	-0,049	-0,162
-666,276	-134,247	0,063	-0,006
-665,262	75,713	-0,090	-0,071
-664,247	233,588	0,067	-0,082
-663,232	514,177	0,051	-0,089
-662,218	-22,318	0,052	0,023
-661,203	16,309	-0,030	-0,018
-660,189	-147,732	-0,046	-0,003
-659,174	-110,148	-0,148	-0,023
-658,159	-58,149	-0,059	0,019
-657,145	37,098	-0,020	-0,013
-656,130	-10,074	-0,093	-0,046
-655,116	-200,000	0,036	0,154
-654,101	-20,255	0,087	0,040
-653,086	134,505	-0,058	-0,056
-652,072	-139,166	-0,086	-0,007
-651,057	-200,000	-0,035	-0,132
-650,043	271,607	-0,080	-0,105
-649,028	-27,114	-0,131	0,056
-648,014	-200,000	-0,026	-0,143
-646,999	-200,000	-0,007	0,034
-645,984	800,000	0,043	-0,109
-644,970	473,282	-0,023	0,039
-643,955	-200,000	-0,010	0,137
-642,941	366,116	0,055	-0,082
-641,926	-138,025	0,077	-0,006
-640,911	-200,000	-0,020	-0,074
-639,897	-26,461	0,028	0,012
-638,882	-37,043	0,097	-0,039
-637,868	-200,000	0,017	0,064
-636,853	-117,791	-0,085	0,011
-635,838	800,000	0,056	-0,129
-634,824	409,092	-0,029	-0,045
-633,809	800,000	0,045	0,107
-632,795	134,552	0,091	0,088
-631,780	-200,000	0,039	-0,132
-630,765	144,637	-0,050	0,049
-629,751	103,047	0,086	-0,075
-628,736	-200,000	-0,019	-0,074
-627,722	-88,169	-0,100	-0,022
-626,707	800,000	-0,014	0,035
-625,692	-112,521	0,097	-0,014
-624,678	17,791	-0,002	-0,001
-623,663	800,000	-0,006	-0,018
-622,649	-200,000	0,031	-0,120
-621,634	-15,412	-0,162	-0,076
-620,619	59,063	0,074	0,054
-619,605	-48,473	0,150	-0,053
-618,590	800,000	0,011	-0,024
-617,576	-200,000	-0,007	0,067
-616,561	198,502	-0,038	-0,043
-615,546	-200,000	-0,000	-0,105
-614,532	-200,000	0,020	-0,138
-613,517	52,614	0,041	-0,029
-612,503	519,157	-0,046	0,081
-611,488	503,111	-0,043	-0,074
-610,474	-200,000	0,006	0,050
-609,459	51,783	0,019	0,013
-608,444	741,394	0,069	-0,138
-607,430	415,339	-0,010	0,016
-606,415	192,802	-0,111	-0,124
-605,401	-200,000	-0,019	-0,103
-604,386	800,000	0,010	-0,023
-603,371	123,111	-0,013	-0,013
-602,357	591,409	0,067	0,124
-601,342	46,340	0,054	-0,037
-600,328	344,039	-0,056	-0,081
-599,313	-200,000	0,004	0,131
-598,298	-110,571	0,116	0,018
-597,284	-45,691	0,093	0,034
-596,269	-39,917	0,070	0,027
-595,255	800,000	-0,057	0,138
-594,240	-30,467	-0,047	-0,020
-593,225	516,282	-0,034	0,059
-592,211	800,000	0,026	-0,080
-591,196	-200,000	-0,010	-0,044
-590,182	538,462	-0,037	0,066
-589,167	-82,053	0,025	0,006
-588,152	11,225	0,243	0,138
-587,138	-200,000	0,015	0,197
-586,123	800,000	-0,021	-0,051
-585,109	-61,385	0,121	-0,037
-584,094	-200,000	0,007	0,033
-583,079	195,146	0,070	0,079
-582,065	123,765	-0,056	0,053
-581,050	-200,000	-0,009	0,077
-580,036	207,919	0,075	0,087
-579,021	111,207	0,094	-0,084
-578,006	-200,000	0,035	0,151
-576,992	168,642	-0,082	0,087
-575,977	-167,912	0,135	-0,004
-574,963	-160,913	0,087	0,003
-573,948	190,954	0,051	-0,057
-572,934	401,455	0,048	0,075
-571,919	-139,234	-0,131	0,010
-570,904	99,581	0,054	-0,046
-569,890	-200,000	-0,005	-0,040
-568,875	-20,075	-0,030	0,013
-567,861	250,591	0,082	-0,103
-566,846	161,067	-0,052	0,054
-565,831	-97,250	-0,094	0,018
-564,817	800,000	-0,024	0,071
-563,802	156,976	0,069	-0,071
-562,788	325,866	-0,040	0,057
-561,773	800,000	0,033	-0,084
-560,758	-115,891	0,085	0,012
-559,744	-11,970	-0,124	0,060
-558,729	48,771	0,039	-0,027
-557,715	800,000	-0,015	-0,033
-556,700	92,954	-0,112	0,094
-555,685	117,146	-0,063	0,057
-554,671	-98,923	0,075	-0,014
-553,656	800,000	-0,042	0,092
-552,642	288,208	-0,032	-0,043
-551,627	82,666	0,056	-0,045
-550,612	84,265	-0,094	0,076
-549,598	133,931	-0,060	-0,058
-548,583	800,000	-0,035	0,101
-547,569	800,000	0,010	-0,022
-546,554	800,000	-0,025	-0,059
-545,539	-177,293	0,125	-0,002
-544,525	15,999	-0,013	-0,008
-543,510	800,000	-0,034	-0,101
-542,496	-32,060	-0,210	-0,087
-541,481	-200,000	0,028	-0,103
-540,466	-134,905	0,093	0,008
-539,452	-70,419	-0,073	0,020
-538,437	800,000	0,026	0,055
-537,423	37,953	0,043	-0,028
-536,408	444,847	0,059	-0,096
-535,393	-200,000	0,031	-0,167
-534,379	-81,308	-0,124	0,030
-533,364	-50,566	-0,068	-0,024
-532,350	-22,574	0,100	0,044
-531,335	800,000	0,036	0,081
-530,321	-200,000	-0,002	-0,065
-529,306	-200,000	0,040	0,175
-528,291	800,000	0,053	-0,115
-527,277	-200,000	0,032	-0,160
-526,262	-200,000	-0,019	0,104
-525,248	-200,000	0,010	0,075
-524,233	158,325	0,102	0,105
-523,218	127,767	-0,096	0,090
-522,204	-200,000	0,001	0,137
-521,189	716,450	-0,081	-0,160
-520,175	27,180	0,050	0,031
-519,160	78,737	-0,073	-0,057
-518,145	-106,747	-0,068	0,011
-517,131	-161,658	-0,084	-0,003
-516,116	-86,874	0,093	0,021
-515,102	800,000	0,011	-0,025
-514,087	-136,989	-0,080	-0,007
-513,072	155,975	0,056	0,057
-512,058	-200,000	-0,001	-0,039
-511,043	113,396	0,072	-0,064
-510,029	319,944	-0,076	-0,106
-509,014	800,000	-0,035	-0,089
-507,999	201,036	0,090	-0,103
-506,985	-200,000	-0,002	0,020
-505,970	-4,032	-0,089	-0,046
-504,956	30,708	-0,076	0,048
-503,941	-200,000	0,023	0,128
-502,926	800,000	-0,029	-0,064
-501,912	-131,116	-0,125	-0,012
-500,897	589,804	0,045	-0,081
-499,883	401,391	-0,052	-0,080
-498,868	-200,000	0,021	-0,158
-497,853	107,320	0,099	0,087
-496,839	13,059	0,090	-0,051
-495,824	-200,000	-0,009	0,036
-494,810	800,000	-0,038	0,082
-493,795	242,501	0,018	0,022
-492,781	-5,095	-0,081	-0,041
-491,766	35,719	-0,064	-0,041
-490,751	226,310	0,066	-0,079
-489,737	223,148	-0,102	0,122
-488,722	40,255	0,021	-0,014
-487,708	-182,714	-0,066	0,001
-486,693	-34,085	0,029	0,012
-485,678	800,000	0,020	-0,048
-484,664	100,570	-0,132	-0,113
-483,649	-106,116	-0,034	0,006
-482,635	-88,151	0,126	-0,028
-481,620	-200,000	0,051	-0,170
-480,605	101,200	-0,110	-0,095
-479,591	-70,170	-0,110	-0,031
-478,576	-47,938	0,064	-0,023
-477,562	800,000	0,060	-0,165
-476,547	36,766	-0,051	0,034
-475,532	800,000	0,032	-0,069
-474,518	800,000	-0,013	0,041
-473,503	104,685	-0,118	0,102
-472,489	-200,000	-0,021	0,076
-471,474	0,276	-0,103	-0,054
-470,459	-200,000	-0,009	-0,071
-469,445	291,097	-0,034	0,046
-468,430	343,536	0,020	0,029
-467,416	-196,295	-0,044	0,000
-466,401	102,765	-0,039	0,034
-465,386	505,347	-0,013	-0,023
-464,372	-20,875	-0,112	0,050
-463,357	-200,000	0,006	-0,038
-462,343	-200,000	0,003	0,011
-461,328	195,396	-0,080	-0,090
-460,313	800,000	0,039	-0,106
-459,299	-134,211	-0,030	-0,003
-458,284	-200,000	0,008	-0,091
-457,270	-130,595	0,046	0,005
-456,255	254,551	-0,068	-0,086
-455,241	-180,513	-0,051	0,001
-454,226	-101,092	-0,004	0,001
-453,211	121,200	0,016	-0,015
-452,197	-200,000	0,005	0,104
-451,182	-200,000	-0,002	-0,013
-450,168	-98,045	-0,115	0,022
-449,153	-200,000	-0,043	-0,198
-448,138	279,794	-0,034	-0,045
-447,124	11,969	0,040	0,022
-446,109	26,349	0,094	0,057
-445,095	780,941	-0,054	0,110
-444,080	74,235	0,154	0,119
-443,065	10,393	-0,144	0,080
-442,051	-116,359	-0,108	0,015
-441,036	-200,000	0,012	0,077
-440,022	-41,123	-0,071	-0,027
-439,007	-131,374	0,054	0,005
-437,992	800,000	0,077	0,210
-436,978	370,059	0,043	0,065
-435,963	-200,000	0,003	-0,041
-434,949	800,000	0,032	0,068
-433,934	-128,389	0,079	0,008
-432,919	286,464	-0,125	-0,167
-431,905	-200,000	0,015	-0,079
-430,890	-200,000	-0,002	0,144
-429,876	360,376	0,012	0,018
-428,861	474,176	-0,039	0,064
-427,846	-200,000	0,016	0,150
-426,832	800,000	0,039	-0,083
-425,817	118,064	0,056	0,051
-424,803	800,000	-0,009	-0,029
-423,788	-97,551	0,065	0,012
-422,773	-200,000	-0,002	0,040
-421,759	-101,909	-0,108	-0,019
-420,744	-108,669	0,059	-0,009
-419,730	-14,446	0,088	0,041
-418,715	147,103	-0,094	0,094
-417,701	8,426	0,109	-0,060
-416,686	-200,000	0,044	0,167
-415,671	800,000	0,022	0,058
-414,657	51,553	0,055	-0,038
-413,642	-200,000	-0,009	0,092
-412,628	358,540	0,050	-0,073
-411,613	264,490	0,112	-0,143
-410,598	-58,144	-0,111	-0,035
-409,584	318,873	0,008	-0,011
-408,569	-200,000	0,035	-0,204
-407,555	787,498	-0,062	-0,127
-406,540	635,920	0,022	0,041
-405,525	-32,053	-0,019	-0,008
-404,511	-200,000	0,030	-0,138
-403,496	314,532	0,064	0,089
-402,482	-145,297	0,059	0,004
-401,467	371,278	0,091	0,136
-400,452	800,000	0,017	0,039
-399,438	49,177	-0,098	0,068
-398,423	-200,000	0,015	0,056
-397,409	258,027	0,036	-0,045
-396,394	800,000	0,028	-0,058
-395,379	99,145	0,055	0,047
-394,365	-51,927	-0,044	0,015
-393,350	800,000	0,046	0,149
-392,336	19,401	0,107	0,063
-391,321	38,436	-0,112	-0,073
-390,306	-200,000	-0,010	-0,034
-389,292	800,000	0,018	-0,039
-388,277	-27,107	0,049	0,021
-387,263	-87,030	-0,125	0,028
-386,248	321,039	0,048	0,068
-385,233	41,253	0,027	0,018
-384,219	134,535	-0,049	-0,047
-383,204	-179,400	-0,162	-0,003
-382,190	701,586	-0,025	0,048
-381,175	800,000	-0,061	0,198
-380,160	252,098	-0,039	0,048
-379,146	800,000	-0,069	-0,148
-378,131	-109,523	0,065	0,010
-377,117	-127,738	0,103	0,011
-376,102	-86,303	-0,158	-0,035
-375,088	-200,000	0,015	-0,062
-374,073	-37,845	-0,058	0,022
-373,058	-34,215	-0,116	0,047
-372,044	174,450	0,044	0,047
-371,029	-200,000	-0,030	0,175
-370,015	-110,439	-0,069	0,010
-369,000	19,390	0,060	-0,035
-367,985	-200,000	0,001	0,005
-366,971	-57,395	0,038	-0,012
-365,956	-46,828	0,031	-0,011
-364,942	-200,000	0,020	0,094
-363,927	353,874	0,045	0,065
-362,912	-123,843	0,152	0,017
-361,898	-15,297	-0,032	-0,015
-360,883	292,305	-0,025	-0,034
-359,869	658,681	0,066	-0,125
-358,854	-200,000	-0,006	0,035
-357,839	-200,000	-0,001	-0,038
-356,825	-200,000	-0,012	0,156
-355,810	-162,869	-0,123	-0,004
-354,796	447,929	0,037	0,061
-353,781	68,869	-0,068	-0,051
-352,766	800,000	-0,053	-0,165
-351,752	426,867	-0,060	0,096
-350,737	-93,882	0,034	-0,007
-349,723	-78,726	-0,059	0,015
-348,708	-97,788	0,163	-0,031
-347,693	-200,000	-0,001	-0,063
-346,679	1,959	-0,069	0,036
-345,664	99,672	-0,039	-0,033
-344,650	800,000	-0,008	0,016
-343,635	149,256	0,113	0,112
-342,620	-200,000	0,003	0,134
-341,606	355,857	0,084	-0,123
-340,591	-112,651	0,075	0,011
-339,577	123,381	-0,058	0,053
-338,562	-200,000	-0,002	-0,033
-337,548	372,289	-0,040	0,059
-336,533	13,324	0,098	0,056
-335,518	144,774	0,110	0,108
-334,504	115,236	0,113	0,101
-333,489	160,352	0,057	-0,059
-332,475	-94,157	0,044	0,009
-331,460	-76,028	0,043	-0,011
-330,445	275,750	-0,039	-0,051
-329,431	119,959	0,064	0,058
-328,416	87,154	0,027	0,022
-327,402	110,066	0,090	-0,079
-326,387	36,315	-0,035	0,023
-325,372	16,992	-0,091	-0,053
-324,358	106,258	0,014	-0,012
-323,343	75,268	0,037	-0,029
-322,329	-130,949	-0,073	0,007
-321,314	-39,450	0,097	0,037
-320,299	-63,830	0,120	-0,036
-319,285	-200,000	-0,004	0,016
-318,270	800,000	-0,040	0,084
-317,256	232,042	0,025	0,030
-316,241	574,275	-0,090	-0,161
-315,226	27,119	-0,028	0,017
-314,212	-200,000	0,028	0,122
-313,197	-18,567	0,093	-0,042
-312,183	-116,116	-0,055	0,007
-311,168	800,000	0,040	-0,100
-310,153	-200,000	-0,004	-0,033
-309,139	52,783	0,052	-0,036
-308,124	1,258	0,079	-0,041
-307,110	734,973	0,033	-0,064
-306,095	-170,814	0,036	0,001
-305,080	385,068	-0,063	-0,095
-304,066	257,666	-0,129	-0,162
-303,051	-200,000	-0,012	-0,072
-302,037	103,419	-0,084	0,072
-301,022	-200,000	-0,017	-0,096
-300,008	80,842	0,051	-0,040
-298,993	800,000	-0,030	0,067
-297,978	-149,207	0,185	-0,011
-296,964	-200,000	-0,006	0,118
-295,949	-86,738	-0,134	-0,030
-294,935	19,508	-0,032	0,019
-293,920	0,854	0,064	-0,033
-292,905	800,000	0,038	-0,095
-291,891	428,143	-0,040	0,063
-290,876	-109,806	-0,072	-0,011
-289,862	-200,000	0,020	0,134
-288,847	800,000	-0,054	-0,117
-287,832	800,000	0,030	0,088
-286,818	361,245	0,053	-0,079
-285,803	-200,000	0,013	0,062
-284,789	-25,594	-0,005	0,002
-283,774	312,033	0,033	-0,045
-282,759	16,848	-0,084	0,048
-281,745	800,000	-0,025	-0,072
-280,730	-103,020	0,092	-0,016
-279,716	39,344	-0,111	0,072
-278,701	194,208	-0,062	-0,069
-277,686	-130,155	-0,143	0,014
-276,672	-53,255	-0,074	0,025
-275,657	-200,000	0,007	0,051
-274,643	423,671	-0,111	0,175
-273,628	-153,743	0,133	-0,007
-272,613	131,841	0,053	0,050
-271,599	-200,000	-0,015	-0,068
-270,584	-200,000	-0,008	-0,065
-269,570	137,509	-0,014	0,014
-268,555	-200,000	0,011	0,057
-267,540	-23,374	0,119	-0,052
-266,526	-150,969	-0,181	-0,010
-265,511	-200,000	-0,001	-0,057
-264,497	800,000	0,009	-0,025
-263,482	33,164	-0,071	0,045
-262,467	213,953	0,057	0,066
-261,453	149,584	-0,020	0,020
-260,438	-200,000	-0,016	0,104
-259,424	67,947	0,098	-0,073
-258,409	200,806	0,043	-0,049
-257,395	800,000	0,050	0,105
-256,380	88,821	-0,050	0,040
-255,365	800,000	0,065	0,142
-254,351	618,044	0,082	0,152
-253,336	345,500	-0,038	0,054
-252,322	-84,385	-0,060	-0,014
-251,307	179,069	0,075	0,080
-250,292	-200,000	-0,009	0,086
-249,278	74,097	0,045	-0,035
-248,263	-200,000	0,006	0,082
-247,249	73,809	0,067	0,052
-246,234	97,348	-0,082	0,069
-245,219	-200,000	-0,012	-0,140
-244,205	-10,144	-0,120	0,058
-243,190	304,865	-0,036	-0,049
-242,176	-29,944	0,044	0,018
-241,161	-200,000	-0,008	-0,054
-240,146	-137,232	0,088	0,007
-239,132	-24,806	-0,136	-0,059
-238,117	-200,000	-0,054	-0,179
-237,103	209,078	-0,109	0,125
-236,088	800,000	0,011	-0,023
-235,073	-160,763	0,129	0,005
-234,059	-86,745	0,144	0,032
-233,044	-37,676	-0,017	-0,007
-232,030	-48,700	0,048	-0,017
-231,015	279,873	-0,063	0,082
-230,000	-17,649	-0,045	0,021
-228,986	54,506	-0,074	-0,052
-227,971	99,526	0,050	0,043
-226,957	116,085	0,055	-0,049
-225,942	-200,000	0,004	-0,077
-224,927	-200,000	0,017	0,083
-223,913	-150,565	-0,114	-0,006
-222,898	592,872	-0,048	-0,087
-221,884	-116,398	0,055	-0,007
-220,869	-200,000	0,018	0,074
-219,855	-153,018	0,184	-0,009
-218,840	143,634	0,151	0,147
-217,825	323,005	0,017	-0,024
-216,811	-176,525	0,063	-0,001
-215,796	135,042	-0,134	-0,127
-214,782	800,000	-0,027	-0,080
-213,767	-156,989	0,054	-0,002
-212,752	121,246	0,052	0,048
-211,738	-119,815	0,106	-0,013
-210,723	-169,092	0,031	-0,001
-209,709	-10,579	0,104	-0,050
-208,694	-200,000	0,010	-0,151
-207,679	-200,000	-0,009	0,037
-206,665	-200,000	-0,049	-0,214
-205,650	-4,929	0,081	0,040
-204,636	-200,000	0,026	0,110
-203,621	453,307	0,026	-0,042
-202,606	-200,000	-0,006	-0,066
-201,592	14,733	-0,109	0,062
-200,577	-85,443	-0,154	0,035
-199,563	-200,000	0,000	0,035
-198,548	-200,000	-0,026	0,127
-197,533	-200,000	0,003	-0,064
-196,519	-200,000	0,006	0,051
-195,504	55,609	0,084	-0,059
-194,490	-200,000	-0,011	0,070
-193,475	-58,940	0,031	-0,010
-192,460	-137,248	0,051	0,004
-191,446	-41,534	0,045	-0,017
-190,431	-200,000	0,019	-0,116
-189,417	396,097	-0,036	0,054
-188,402	800,000	0,028	-0,074
-187,387	302,727	-0,036	-0,049
-186,373	-112,121	-0,089	-0,013
-185,358	421,719	0,109	0,171
-184,344	-200,000	-0,036	0,173
-183,329	-200,000	-0,003	0,058
-182,315	-200,000	-0,012	0,059
-181,300	239,717	-0,058	0,070
-180,285	375,103	-0,061	-0,091
-179,271	19,354	-0,044	0,025
-178,256	10,960	-0,127	-0,070
-177,242	-42,673	-0,036	-0,013
-176,227	-9,506	-0,058	0,028
-175,212	-200,000	-0,009	-0,097
-174,198	205,031	-0,079	-0,090
-173,183	-6,726	0,020	0,010
-172,169	104,486	0,086	-0,074
-171,154	121,895	-0,043	-0,039
-170,139	-89,626	-0,048	-0,010
-169,125	37,963	0,189	-0,122
-168,110	-200,000	0,004	0,097
-167,096	-9,989	0,035	-0,017
-166,081	67,806	-0,071	-0,053
-165,066	119,862	0,025	-0,022
-164,052	14,951	-0,085	0,048
-163,037	-62,731	0,116	-0,035
-162,023	241,682	0,032	0,040
-161,008	238,268	-0,184	0,223
-159,993	40,339	-0,134	-0,087
-158,979	145,667	-0,121	0,119
-157,964	800,000	-0,021	0,052
-156,950	-122,457	-0,074	0,009
-155,935	78,930	0,062	-0,048
-154,920	406,389	-0,098	-0,151
-153,906	41,404	-0,069	-0,046
-152,891	220,584	0,042	-0,050
-151,877	528,334	-0,033	0,057
-150,862	-23,417	0,101	-0,044
-149,847	-181,683	0,113	0,002
-148,833	169,271	0,071	0,074
-147,818	82,708	-0,100	-0,079
-146,804	-86,310	-0,016	-0,003
-145,789	48,896	0,056	0,038
-144,775	800,000	0,048	-0,119
-143,760	-55,603	0,009	0,003
-142,745	-200,000	-0,008	0,028
-141,731	-87,432	-0,213	0,047
-140,716	-41,008	0,081	-0,030
-139,702	119,693	-0,114	0,103
-138,687	-121,406	0,094	0,011
-137,672	-41,554	-0,123	-0,046
-136,658	-22,218	0,055	0,024
-135,643	196,314	0,015	-0,017
-134,629	698,166	-0,016	-0,032
-133,614	52,428	0,065	-0,045
-132,599	800,000	0,033	0,088
-131,585	-200,000	0,000	-0,036
-130,570	-200,000	-0,005	-0,147
-129,556	399,461	-0,038	0,058
-128,541	-107,181	-0,056	0,009
-127,526	-200,000	0,018	0,142
-126,512	-58,103	-0,050	-0,016
-125,497	593,517	-0,063	0,114
-124,483	800,000	0,046	0,138
-123,468	800,000	-0,050	0,132
-122,453	57,984	-0,036	-0,026
-121,439	-200,000	0,003	-0,032
-120,424	-200,000	0,008	0,148
