DTS Sentinel unit serial number:	SN410029Multiplexer serial number:	ORYXHardware model number:	OX2-SRSoftware version number:	ORYX F/W v4,00 Oryx Data Collector v3.7.2.0data status	okinstallation	B6 Nyhavnadifferential loss correction	single-endedforward channel	channel 2reverse channel	N/Adate	2023/12/11time	05:50:08forward acquisition time	300,00reverse acquisition time	0,00gamma	499,1914k internal	0,3126k external	0,3126temperature offset calibration	1,0000default loss term (dB/km)	0,3820temperature slope calibration	1,0000multiplexer offset coefficient	1,0000multiplexer slope coefficient	1,0000fibre end	0,00T internal ref (°C)	19,82T ext. ref 1 (°C)	2,97T ext. ref 2 (°C)	3,00length (m)	temperature (°C)	Stokes	anti-Stokes-744,400	45,793	0,040	-0,027
-743,385	-118,426	-0,187	0,024
-742,371	-200,000	0,014	0,066
-741,356	-1,637	-0,154	0,081
-740,342	-46,174	0,111	-0,041
-739,327	-120,908	-0,166	-0,021
-738,312	-200,000	0,003	-0,063
-737,298	-73,444	-0,194	0,052
-736,283	350,255	-0,025	-0,037
-735,269	-36,091	-0,200	0,080
-734,254	-120,742	0,118	0,015
-733,239	80,850	-0,326	-0,261
-732,225	-169,531	0,180	0,005
-731,210	60,625	-0,019	0,014
-730,196	-200,000	-0,005	-0,024
-729,181	155,406	-0,050	-0,052
-728,167	-200,000	0,001	-0,080
-727,152	-151,356	-0,054	-0,003
-726,137	271,815	-0,069	-0,091
-725,123	800,000	0,071	-0,155
-724,108	33,572	-0,116	-0,075
-723,094	182,020	-0,160	-0,175
-722,079	177,894	0,034	-0,037
-721,064	-135,968	0,123	-0,011
-720,050	-5,093	-0,121	-0,062
-719,035	-73,615	-0,100	0,027
-718,021	-33,681	-0,125	0,051
-717,006	36,110	-0,071	-0,047
-715,991	-200,000	-0,007	-0,093
-714,977	-200,000	0,013	-0,131
-713,962	-200,000	0,000	-0,151
-712,948	-91,403	0,119	0,025
-711,933	65,297	-0,065	0,049
-710,918	-200,000	-0,005	-0,048
-709,904	-35,317	-0,165	-0,066
-708,889	800,000	-0,060	0,143
-707,875	800,000	-0,023	-0,069
-706,860	-23,217	-0,094	-0,042
-705,845	46,781	0,081	0,056
-704,831	696,425	-0,062	0,122
-703,816	93,112	-0,073	-0,062
-702,802	-200,000	-0,026	0,104
-701,787	-140,903	-0,068	-0,005
-700,772	-67,085	-0,034	-0,010
-699,758	-200,000	0,030	0,187
-698,743	800,000	0,050	0,144
-697,729	664,503	-0,056	0,107
-696,714	800,000	-0,062	0,155
-695,699	-139,742	-0,031	0,002
-694,685	62,620	-0,060	-0,044
-693,670	181,540	0,033	-0,036
-692,656	79,690	-0,050	0,040
-691,641	-161,348	-0,093	-0,004
-690,627	-200,000	-0,003	-0,040
-689,612	58,003	0,127	0,092
-688,597	-7,640	-0,082	-0,041
-687,583	81,108	0,066	-0,053
-686,568	368,344	-0,082	-0,124
-685,554	-200,000	0,003	0,059
-684,539	379,897	0,109	0,166
-683,524	517,935	-0,060	0,105
-682,510	-13,955	-0,054	-0,026
-681,495	120,100	-0,108	0,099
-680,481	55,617	-0,092	0,066
-679,466	614,103	0,027	-0,050
-678,451	-63,952	-0,089	0,027
-677,437	800,000	0,048	-0,126
-676,422	62,293	0,096	-0,071
-675,408	-193,291	-0,057	0,000
-674,393	-109,397	-0,038	-0,006
-673,378	279,966	-0,077	0,102
-672,364	163,847	0,043	0,045
-671,349	-200,000	-0,007	0,083
-670,335	454,123	0,023	-0,038
-669,320	169,685	-0,110	0,117
-668,305	203,139	0,023	0,026
-667,291	302,727	0,021	-0,029
-666,276	213,664	0,118	-0,139
-665,262	240,958	-0,117	-0,146
-664,247	-200,000	0,014	-0,071
-663,232	-77,745	0,085	0,022
-662,218	200,626	0,046	0,053
-661,203	-200,000	0,026	-0,145
-660,189	114,241	0,028	0,025
-659,174	-153,911	-0,051	-0,003
-658,159	107,981	0,068	-0,060
-657,145	33,825	0,086	-0,056
-656,130	103,239	0,097	-0,084
-655,116	20,078	-0,032	-0,019
-654,101	129,320	-0,036	-0,034
-653,086	20,629	-0,075	0,045
-652,072	27,872	0,050	-0,031
-651,057	573,341	0,021	0,038
-650,043	100,662	-0,120	-0,103
-649,028	426,635	0,028	0,045
-648,014	800,000	-0,038	0,103
-646,999	800,000	0,053	-0,123
-645,984	800,000	-0,019	0,058
-644,970	-15,760	-0,156	-0,074
-643,955	800,000	0,060	-0,137
-642,941	-77,112	-0,110	0,028
-641,926	179,849	-0,075	-0,081
-640,911	-144,026	-0,015	-0,001
-639,897	-81,876	0,065	0,016
-638,882	359,997	0,074	0,110
-637,868	301,397	0,100	-0,137
-636,853	800,000	-0,046	-0,100
-635,838	165,366	0,034	-0,036
-634,824	-134,691	0,119	0,011
-633,809	273,336	0,076	0,100
-632,795	-200,000	0,003	-0,012
-631,780	-33,565	0,061	0,025
-630,765	-54,512	-0,038	-0,013
-629,751	67,867	0,074	-0,056
-628,736	-5,250	-0,102	-0,052
-627,722	-71,104	-0,095	-0,026
-626,707	-5,933	0,022	0,011
-625,692	-117,698	0,081	0,011
-624,678	138,222	-0,122	0,119
-623,663	343,462	-0,025	-0,036
-622,649	263,277	0,032	-0,041
-621,634	-200,000	0,012	-0,090
-620,619	352,849	0,055	-0,081
-619,605	800,000	0,020	-0,046
-618,590	165,890	0,011	0,011
-617,576	-143,665	-0,034	-0,002
-616,561	1,126	0,004	0,002
-615,546	-78,427	0,108	-0,027
-614,532	378,261	-0,057	0,087
-613,517	-43,114	-0,134	0,050
-612,503	59,322	0,043	0,032
-611,488	23,381	0,039	0,024
-610,474	800,000	-0,047	0,128
-609,459	-200,000	-0,001	-0,094
-608,444	-96,026	-0,117	0,023
-607,430	-200,000	-0,008	0,149
-606,415	-53,135	-0,086	0,029
-605,401	-200,000	0,012	-0,178
-604,386	219,887	-0,109	-0,130
-603,371	-73,263	0,131	-0,035
-602,357	13,080	0,039	0,022
-601,342	-38,259	0,105	0,041
-600,328	-184,400	-0,097	-0,001
-599,313	800,000	0,026	0,056
-598,298	3,939	-0,119	0,064
-597,284	49,041	0,110	0,076
-596,269	194,460	-0,044	0,050
-595,255	800,000	0,017	0,043
-594,240	391,165	-0,031	0,049
-593,225	112,292	-0,145	-0,130
-592,211	671,292	0,044	0,084
-591,196	170,100	0,017	0,018
-590,182	4,197	-0,007	0,004
-589,167	-109,219	-0,112	0,017
-588,152	405,432	0,077	0,121
-587,138	800,000	-0,061	0,165
-586,123	392,274	-0,025	0,039
-585,109	364,174	-0,130	-0,194
-584,094	800,000	-0,041	0,135
-583,079	-135,390	0,021	0,002
-582,065	33,928	0,109	-0,070
-581,050	-200,000	-0,016	0,092
-580,036	800,000	0,029	0,076
-579,021	-178,364	-0,076	0,001
-578,006	800,000	0,033	-0,088
-576,992	-200,000	0,009	0,126
-575,977	235,667	-0,048	0,058
-574,963	800,000	0,041	0,097
-573,948	377,918	-0,036	0,054
-572,934	27,494	-0,215	0,133
-571,919	116,009	-0,038	-0,034
-570,904	87,300	0,029	-0,023
-569,890	-23,890	-0,033	-0,015
-568,875	-33,509	0,065	0,027
-567,861	-17,968	-0,059	0,027
-566,846	800,000	-0,007	-0,023
-565,831	44,528	0,089	-0,060
-564,817	70,762	0,137	-0,105
-563,802	-69,038	0,132	-0,037
-562,788	800,000	-0,048	0,124
-561,773	-136,302	0,111	-0,009
-560,758	118,465	0,010	-0,010
-559,744	275,500	0,165	0,217
-558,729	800,000	-0,040	0,116
-557,715	50,776	-0,095	-0,066
-556,700	-200,000	-0,005	-0,033
-555,685	42,710	-0,034	-0,023
-554,671	173,201	0,098	-0,105
-553,656	22,721	0,096	0,058
-552,642	-31,462	-0,074	-0,031
-551,627	274,500	0,051	0,067
-550,612	-200,000	-0,014	-0,098
-549,598	-78,516	-0,080	-0,020
-548,583	-57,646	0,023	-0,007
-547,569	800,000	-0,022	0,054
-546,554	-131,299	-0,043	-0,004
-545,539	-100,361	0,091	0,016
-544,525	-80,155	-0,055	-0,013
-543,510	-184,998	-0,108	0,001
-542,496	616,107	0,028	0,052
-541,481	-200,000	-0,010	-0,205
-540,466	-31,548	0,140	0,058
-539,452	-152,044	-0,080	0,004
-538,437	-200,000	0,023	0,097
-537,423	54,605	0,083	0,059
-536,408	-93,678	0,064	-0,013
-535,393	587,409	0,030	0,055
-534,379	-200,000	-0,014	-0,091
-533,364	-62,105	-0,052	0,016
-532,350	158,923	0,121	0,125
-531,335	-200,000	0,004	-0,123
-530,321	-200,000	0,008	0,156
-529,306	296,826	-0,117	-0,159
-528,291	68,340	-0,057	0,043
-527,277	-200,000	-0,008	-0,061
-526,262	800,000	-0,047	0,136
-525,248	-200,000	0,003	0,053
-524,233	-11,519	-0,035	0,017
-523,218	-13,770	-0,056	-0,027
-522,204	160,151	0,092	-0,095
-521,189	-195,765	-0,055	-0,000
-520,175	236,996	-0,157	-0,193
-519,160	800,000	0,050	-0,126
-518,145	334,821	-0,061	-0,088
-517,131	-77,631	0,074	-0,019
-516,116	-64,539	0,057	0,017
-515,102	472,622	0,024	-0,040
-514,087	-200,000	-0,002	-0,111
-513,072	800,000	0,056	-0,154
-512,058	-200,000	0,000	0,078
-511,043	132,832	0,051	0,048
-510,029	4,539	-0,042	-0,023
-509,014	-156,864	-0,140	-0,006
-507,999	121,534	0,049	-0,045
-506,985	-138,943	0,043	-0,003
-505,970	800,000	-0,011	0,032
-504,956	311,435	-0,033	0,046
-503,941	456,041	0,119	-0,195
-502,926	69,576	0,024	-0,018
-501,912	-200,000	0,039	0,137
-500,897	-200,000	0,012	-0,087
-499,883	138,743	-0,071	-0,069
-498,868	-200,000	-0,028	-0,103
-497,853	-191,060	0,042	0,000
-496,839	-22,042	0,103	-0,046
-495,824	-200,000	-0,001	-0,024
-494,810	-200,000	0,023	0,106
-493,795	475,174	-0,115	0,192
-492,781	296,165	-0,046	0,062
-491,766	-130,949	0,041	-0,004
-490,751	278,162	-0,086	0,114
-489,737	130,957	0,106	0,101
-488,722	800,000	-0,042	-0,096
-487,708	-200,000	0,014	-0,056
-486,693	-95,404	-0,148	0,029
-485,678	-74,163	0,013	0,003
-484,664	70,718	0,044	0,034
-483,649	-200,000	-0,017	-0,227
-482,635	678,869	0,034	-0,066
-481,620	71,959	0,074	-0,056
-480,605	547,949	-0,101	-0,179
-479,591	403,407	0,102	0,159
-478,576	-61,829	-0,195	0,060
-477,562	69,302	-0,041	-0,031
-476,547	132,504	-0,106	-0,101
-475,532	-200,000	-0,031	-0,120
-474,518	199,767	0,053	-0,060
-473,503	-136,917	-0,040	0,003
-472,489	630,565	0,027	0,050
-471,474	-91,191	-0,099	0,021
-470,459	-200,000	-0,001	-0,050
-469,445	800,000	0,034	0,086
-468,430	-31,701	-0,095	-0,039
-467,416	15,285	0,087	0,050
-466,401	800,000	-0,019	-0,045
-465,386	224,627	-0,075	0,089
-464,372	35,911	-0,115	0,074
-463,357	-200,000	-0,009	-0,057
-462,343	-96,273	-0,097	0,019
-461,328	427,036	0,008	0,013
-460,313	-200,000	-0,024	0,115
-459,299	-53,317	0,136	-0,046
-458,284	102,619	-0,079	0,068
-457,270	-93,324	0,067	0,014
-456,255	-46,961	0,122	-0,043
-455,241	-200,000	0,027	-0,110
-454,226	800,000	0,028	-0,066
-453,211	383,006	0,133	0,203
-452,197	-140,457	0,076	0,006
-451,182	-200,000	0,010	-0,084
-450,168	295,811	0,031	0,042
-449,153	-153,406	-0,118	0,006
-448,138	72,844	-0,061	0,046
-447,124	-54,767	0,024	0,008
-446,109	-136,378	-0,039	0,003
-445,095	-153,611	0,065	0,003
-444,080	800,000	0,022	0,055
-443,065	213,353	-0,023	0,027
-442,051	-200,000	-0,009	-0,171
-441,036	74,023	0,021	0,016
-440,022	80,784	0,121	-0,096
-439,007	-200,000	0,022	-0,157
-437,992	93,195	0,195	0,162
-436,978	-200,000	-0,004	-0,023
-435,963	-200,000	0,002	-0,083
-434,949	800,000	0,014	0,041
-433,934	-35,587	-0,056	0,022
-432,919	-152,719	0,048	0,002
-431,905	655,540	0,033	-0,063
-430,890	69,813	-0,075	0,057
-429,876	-200,000	-0,013	0,094
-428,861	800,000	-0,033	0,075
-427,846	118,136	0,093	0,084
-426,832	-25,750	-0,115	-0,050
-425,817	800,000	0,037	0,083
-424,803	-200,000	-0,025	-0,153
-423,788	800,000	0,079	-0,174
-422,773	-23,920	0,065	-0,028
-421,759	143,796	-0,093	-0,092
-420,744	64,914	-0,025	-0,018
-419,730	-200,000	-0,061	0,209
-418,715	-29,386	-0,052	0,022
-417,701	-135,105	-0,231	-0,020
-416,686	800,000	-0,008	0,021
-415,671	-87,782	-0,076	-0,017
-414,657	-183,670	-0,116	-0,001
-413,642	800,000	0,032	-0,076
-412,628	-92,625	-0,066	-0,013
-411,613	36,482	-0,080	-0,052
-410,598	800,000	-0,005	0,014
-409,584	800,000	0,012	0,028
-408,569	-200,000	-0,005	0,034
-407,555	-42,929	-0,050	0,019
-406,540	129,955	-0,053	-0,050
-405,525	800,000	-0,045	0,098
-404,511	84,439	0,066	0,053
-403,496	767,435	-0,023	-0,046
-402,482	-58,610	0,117	-0,037
-401,467	800,000	0,014	0,046
-400,452	-111,794	0,072	0,011
-399,438	-200,000	-0,004	0,212
-398,423	153,461	0,042	-0,042
-397,409	85,089	0,147	0,118
-396,394	-200,000	0,012	-0,097
-395,379	27,169	0,065	0,040
-394,365	100,632	0,014	-0,012
-393,350	38,893	0,156	0,102
-392,336	365,423	-0,079	0,118
-391,321	302,880	-0,064	-0,087
-390,306	291,229	-0,032	0,042
-389,292	-200,000	-0,002	-0,061
-388,277	3,752	-0,049	0,026
-387,263	-200,000	-0,015	0,063
-386,248	186,731	0,040	0,044
-385,233	45,003	0,102	0,069
-384,219	-170,620	-0,161	-0,004
-383,204	800,000	-0,048	-0,101
-382,190	-200,000	-0,120	-0,000
-381,175	-74,216	-0,060	-0,016
-380,160	-124,787	0,132	-0,015
-379,146	69,629	-0,069	0,052
-378,131	-200,000	0,013	0,112
-377,117	128,669	0,012	0,011
-376,102	-34,558	-0,107	-0,043
-375,088	-74,694	0,135	-0,035
-374,073	-200,000	0,006	-0,094
-373,058	775,621	0,037	-0,075
-372,044	49,817	0,010	0,007
-371,029	-50,316	0,067	-0,023
-370,015	-32,450	-0,008	-0,003
-369,000	159,819	-0,020	-0,020
-367,985	-198,016	-0,099	0,000
-366,971	42,154	0,076	-0,050
-365,956	364,407	-0,038	0,056
-364,942	87,928	0,076	0,062
-363,927	-32,934	0,101	-0,041
-362,912	-200,000	0,009	-0,037
-361,898	-146,155	-0,073	0,005
-360,883	-65,150	0,067	-0,020
-359,869	785,897	-0,055	0,112
-358,854	567,443	0,043	0,076
-357,839	571,215	0,043	0,077
-356,825	535,115	-0,027	0,047
-355,810	334,952	-0,047	0,067
-354,796	-200,000	0,000	0,074
-353,781	-14,665	-0,100	0,047
-352,766	-200,000	-0,011	-0,064
-351,752	83,199	0,026	-0,021
-350,737	-119,571	0,067	0,008
-349,723	-85,195	0,150	0,034
-348,708	-200,000	-0,024	0,120
-347,693	596,207	0,052	-0,095
-346,679	390,579	-0,059	0,090
-345,664	137,015	0,085	0,082
-344,650	512,858	0,020	0,034
-343,635	-200,000	-0,012	-0,076
-342,620	-93,423	0,088	0,018
-341,606	92,141	0,077	0,064
-340,591	178,895	-0,064	0,068
-339,577	-200,000	0,001	-0,083
-338,562	800,000	-0,056	-0,115
-337,548	-200,000	-0,000	-0,022
-336,533	-22,328	0,134	0,059
-335,518	-173,567	0,076	-0,002
-334,504	800,000	0,019	0,050
-333,489	-200,000	-0,015	-0,100
-332,475	5,319	-0,102	0,055
-331,460	269,049	-0,144	-0,185
-330,445	-170,791	0,155	0,004
-329,431	-200,000	-0,002	0,069
-328,416	16,073	0,083	0,048
-327,402	-30,275	0,089	-0,037
-326,387	264,212	-0,075	-0,096
-325,372	61,019	-0,106	-0,077
-324,358	-200,000	-0,004	-0,062
-323,343	28,260	-0,026	0,016
-322,329	-144,110	-0,073	-0,005
-321,314	213,561	-0,041	-0,048
-320,299	-88,988	-0,059	0,013
-319,285	42,866	0,076	-0,051
-318,270	441,507	0,012	0,019
-317,256	121,694	-0,114	-0,104
-316,241	272,830	0,036	-0,046
-315,226	800,000	0,038	0,081
-314,212	103,137	0,061	-0,053
-313,197	-200,000	0,026	0,139
-312,183	-200,000	-0,038	-0,236
-311,168	661,914	-0,044	-0,084
-310,153	-52,299	0,080	0,027
-309,139	800,000	0,012	-0,034
-308,124	135,809	0,051	-0,049
-307,110	-200,000	-0,000	-0,046
-306,095	216,295	0,009	0,011
-305,080	800,000	0,043	0,095
-304,066	118,908	0,018	0,017
-303,051	-57,327	-0,104	-0,033
-302,037	-200,000	-0,036	-0,125
-301,022	-98,813	-0,108	0,020
-300,008	171,687	0,041	0,043
-298,993	-200,000	0,004	-0,095
-297,978	-200,000	-0,018	-0,119
-296,964	-55,555	0,048	0,016
-295,949	-89,318	-0,004	0,001
-294,935	-200,000	-0,003	-0,072
-293,920	68,779	0,089	-0,067
-292,905	-200,000	0,000	0,120
-291,891	753,815	-0,021	0,041
-290,876	-200,000	-0,009	-0,056
-289,862	344,374	-0,061	0,088
-288,847	-168,004	-0,196	0,005
-287,832	-166,745	-0,118	0,003
-286,818	401,459	-0,086	-0,132
-285,803	-200,000	0,002	-0,041
-284,789	800,000	0,039	0,126
-283,774	-23,867	0,058	-0,025
-282,759	-200,000	-0,002	0,058
-281,745	-45,573	0,164	-0,059
-280,730	-200,000	-0,013	0,089
-279,716	-200,000	0,004	0,084
-278,701	4,505	0,089	-0,048
-277,686	-135,313	0,228	0,020
-276,672	186,414	-0,039	-0,043
-275,657	-200,000	0,007	0,038
-274,643	-200,000	-0,028	-0,167
-273,628	98,486	0,021	0,017
-272,613	373,672	-0,040	-0,060
-271,599	136,321	0,093	-0,089
-270,584	61,265	-0,152	-0,110
-269,570	161,534	-0,032	0,032
-268,555	-91,756	0,116	0,024
-267,540	-10,384	-0,147	0,071
-266,526	170,179	0,006	-0,006
-265,511	569,623	0,065	-0,117
-264,497	329,035	-0,096	-0,135
-263,482	-200,000	-0,002	0,162
-262,467	-88,977	0,066	0,014
-261,453	-200,000	-0,020	-0,077
-260,438	-107,943	0,105	0,017
-259,424	-54,327	-0,091	-0,030
-258,409	800,000	0,032	0,066
-257,395	444,936	0,037	0,060
-256,380	-171,327	0,108	0,003
-255,365	800,000	0,022	-0,058
-254,351	-19,721	-0,084	0,038
-253,336	17,498	0,009	0,005
-252,322	-0,549	0,038	-0,019
-251,307	-65,683	0,028	-0,008
-250,292	601,147	-0,047	0,085
-249,278	477,541	0,025	-0,042
-248,263	-200,000	-0,002	0,100
-247,249	-200,000	0,020	0,157
-246,234	-78,699	-0,020	0,005
-245,219	-200,000	0,026	-0,162
-244,205	-91,399	-0,101	0,021
-243,190	-129,691	-0,103	-0,010
-242,176	-200,000	-0,002	0,098
-241,161	314,605	0,099	0,136
-240,146	-58,062	-0,017	0,005
-239,132	593,745	0,025	-0,045
-238,117	-200,000	-0,017	0,137
-237,103	455,076	0,040	-0,065
-236,088	800,000	-0,015	-0,035
-235,073	-200,000	-0,013	-0,094
-234,059	222,496	0,021	0,025
-233,044	-39,359	0,050	0,019
-232,030	800,000	-0,047	-0,139
-231,015	-127,657	0,119	0,012
-230,000	-200,000	0,008	-0,068
-228,986	106,807	-0,111	-0,096
-227,971	708,664	0,017	-0,034
-226,957	-18,933	0,107	0,048
-225,942	-200,000	0,002	-0,079
-224,927	800,000	0,033	-0,071
-223,913	52,239	-0,057	0,040
-222,898	5,318	0,033	0,018
-221,884	-200,000	0,035	0,117
-220,869	-138,065	0,063	0,005
-219,855	-200,000	0,020	0,140
-218,840	800,000	-0,059	-0,150
-217,825	155,469	0,071	0,072
-216,811	593,200	0,053	0,096
-215,796	-200,000	0,006	-0,084
-214,782	773,712	-0,063	0,126
-213,767	144,462	0,113	0,110
-212,752	1,642	-0,060	0,032
-211,738	-200,000	-0,001	0,054
-210,723	-200,000	0,009	-0,053
-209,709	800,000	-0,077	0,167
-208,694	131,757	-0,143	-0,135
-207,679	-41,704	-0,103	-0,038
-206,665	322,356	0,094	-0,131
-205,650	18,756	-0,027	-0,016
-204,636	177,620	0,046	0,048
-203,621	-72,523	0,019	0,005
-202,606	8,336	-0,084	-0,046
-201,592	800,000	0,053	-0,127
-200,577	142,898	-0,028	-0,027
-199,563	-42,346	-0,161	-0,060
-198,548	310,431	0,099	0,136
-197,533	-78,176	0,085	0,021
-196,519	-1,554	-0,023	0,012
-195,504	-92,745	0,056	0,011
-194,490	162,568	0,144	-0,147
-193,475	164,119	0,081	-0,083
-192,460	192,681	-0,043	0,048
-191,446	382,489	-0,020	-0,030
-190,431	198,973	0,007	0,008
-189,417	43,468	-0,025	0,016
-188,402	-65,676	-0,133	0,038
-187,387	-200,000	0,002	0,010
-186,373	18,528	-0,095	0,055
-185,358	162,196	-0,051	0,053
-184,344	121,489	-0,080	0,072
-183,329	-200,000	0,017	0,073
-182,315	-200,000	0,065	0,000
-181,300	-182,251	-0,058	-0,001
-180,285	800,000	-0,066	-0,154
-179,271	-163,524	-0,083	-0,003
-178,256	-56,651	0,052	0,017
-177,242	-144,052	0,084	-0,006
-176,227	-200,000	-0,006	0,113
-175,212	265,202	0,093	0,119
-174,198	-200,000	-0,013	-0,155
-173,183	-125,039	0,051	-0,006
-172,169	-200,000	-0,002	0,036
-171,154	-200,000	-0,012	0,070
-170,139	-130,213	0,130	-0,013
-169,125	28,223	0,040	0,024
-168,110	34,273	-0,019	0,012
-167,096	122,669	0,039	-0,036
-166,081	-200,000	-0,094	0,000
-165,066	-200,000	0,020	-0,078
-164,052	-39,491	-0,062	-0,023
-163,037	70,059	0,039	-0,029
-162,023	800,000	0,020	-0,046
-161,008	-200,000	-0,012	-0,047
-159,993	644,029	-0,042	0,078
-158,979	-61,160	0,117	0,036
-157,964	-200,000	-0,000	0,097
-156,950	-100,042	-0,100	-0,018
-155,935	-200,000	0,010	0,038
-154,920	796,392	0,042	0,085
-153,906	235,437	0,047	0,057
-152,891	371,523	-0,063	-0,093
-151,877	799,422	-0,074	-0,149
-150,862	-200,000	0,009	-0,132
-149,847	367,679	0,049	-0,072
-148,833	114,772	-0,035	0,031
-147,818	800,000	0,029	0,083
-146,804	-86,049	0,092	-0,020
-145,789	800,000	-0,043	0,102
-144,775	-98,283	0,080	-0,015
-143,760	800,000	-0,019	-0,044
-142,745	-6,588	0,100	0,049
-141,731	720,569	-0,008	-0,016
-140,716	-200,000	-0,001	-0,013
-139,702	-86,599	0,101	0,022
-138,687	310,002	-0,047	0,064
-137,672	800,000	-0,021	-0,067
-136,658	49,238	-0,084	0,057
-135,643	-162,287	0,059	0,002
-134,629	560,272	0,046	-0,081
-133,614	800,000	0,042	-0,098
-132,599	-81,934	0,027	0,006
-131,585	800,000	0,067	0,165
-130,570	-21,772	0,048	-0,021
-129,556	-92,501	-0,056	0,011
-128,541	-200,000	0,003	0,124
-127,526	800,000	0,009	0,024
-126,512	-200,000	0,001	0,049
-125,497	-200,000	0,003	0,096
-124,483	346,747	-0,095	-0,137
-123,468	-200,000	-0,025	0,083
-122,453	-200,000	0,025	-0,157
-121,439	-62,243	0,082	-0,025
-120,424	800,000	0,023	-0,049
-119,410	-38,278	0,084	0,032
-118,395	800,000	0,052	0,109
