DTS Sentinel unit serial number:	SN410029Multiplexer serial number:	ORYXHardware model number:	OX2-SRSoftware version number:	ORYX F/W v4,00 Oryx Data Collector v3.7.2.0data status	okinstallation	B6 Nyhavnadifferential loss correction	single-endedforward channel	channel 2reverse channel	N/Adate	2023/12/08time	14:50:08forward acquisition time	300,00reverse acquisition time	0,00gamma	499,1914k internal	0,3159k external	0,3159temperature offset calibration	1,0000default loss term (dB/km)	0,3820temperature slope calibration	1,0000multiplexer offset coefficient	1,0000multiplexer slope coefficient	1,0000fibre end	0,00T internal ref (°C)	15,06T ext. ref 1 (°C)	-1,48T ext. ref 2 (°C)	-1,48length (m)	temperature (°C)	Stokes	anti-Stokes-744,400	-103,092	0,046	0,008
-743,385	-150,131	-0,304	-0,017
-742,371	-160,317	0,182	-0,007
-741,356	-69,787	-0,208	0,058
-740,342	9,184	0,123	0,068
-739,327	-151,683	-0,337	0,018
-738,312	303,430	-0,070	-0,095
-737,298	-45,437	-0,267	-0,097
-736,283	-200,000	-0,018	-0,080
-735,269	-98,821	-0,359	0,067
-734,254	-13,965	0,112	-0,053
-733,239	-71,515	-0,505	-0,138
-732,225	-113,559	0,167	0,024
-731,210	-108,254	0,144	0,023
-730,196	800,000	-0,036	-0,087
-729,181	-185,439	-0,172	0,002
-728,167	338,842	-0,015	-0,022
-727,152	-7,414	0,049	-0,024
-726,137	-200,000	-0,022	-0,370
-725,123	1,865	-0,067	-0,036
-724,108	414,315	-0,068	-0,106
-723,094	-200,000	-0,013	-0,082
-722,079	800,000	0,029	-0,083
-721,064	800,000	-0,016	-0,048
-720,050	800,000	0,044	-0,095
-719,035	147,173	0,040	-0,040
-718,021	-35,406	-0,089	-0,035
-717,006	-22,285	0,017	0,008
-715,991	-200,000	0,013	-0,170
-714,977	430,123	0,015	-0,024
-713,962	53,689	-0,122	-0,086
-712,948	-200,000	0,037	-0,190
-711,933	150,438	-0,068	-0,068
-710,918	-4,021	0,014	-0,007
-709,904	-109,907	-0,201	-0,031
-708,889	189,395	0,037	-0,041
-707,875	-200,000	-0,005	-0,100
-706,860	136,782	-0,064	-0,062
-705,845	-31,577	0,110	-0,045
-704,831	800,000	0,031	-0,064
-703,816	9,803	-0,043	-0,024
-702,802	167,434	-0,171	0,178
-701,787	102,982	-0,043	-0,037
-700,772	219,807	0,067	-0,079
-699,758	39,390	0,013	-0,009
-698,743	800,000	-0,026	0,066
-697,729	84,852	-0,036	0,029
-696,714	-97,181	0,099	0,019
-695,699	-36,887	-0,195	-0,077
-694,685	42,088	-0,057	0,038
-693,670	485,693	-0,042	-0,070
-692,656	-38,503	-0,172	0,067
-691,641	328,812	-0,045	-0,063
-690,627	141,860	0,101	0,099
-689,612	-91,628	-0,069	0,014
-688,597	-101,095	-0,059	-0,011
-687,583	-97,135	-0,232	-0,044
-686,568	-146,774	-0,146	-0,009
-685,554	309,155	0,096	0,132
-684,539	800,000	-0,012	-0,031
-683,524	-174,924	0,095	-0,002
-682,510	3,856	-0,042	-0,023
-681,495	19,655	0,070	-0,041
-680,481	-200,000	0,005	0,046
-679,466	-66,701	-0,067	-0,019
-678,451	178,032	-0,040	-0,043
-677,437	-200,000	0,024	0,116
-676,422	-200,000	0,006	0,078
-675,408	-200,000	0,016	0,067
-674,393	800,000	0,028	-0,063
-673,378	215,597	-0,029	-0,034
-672,364	-200,000	0,004	-0,142
-671,349	59,728	-0,117	0,085
-670,335	800,000	0,023	-0,068
-669,320	168,184	0,009	0,009
-668,305	-200,000	0,001	-0,066
-667,291	800,000	-0,037	-0,087
-666,276	260,110	-0,076	0,096
-665,262	800,000	0,048	-0,132
-664,247	800,000	0,013	0,028
-663,232	-2,694	0,014	0,007
-662,218	99,561	-0,057	-0,048
-661,203	-94,304	0,115	0,023
-660,189	-200,000	0,021	-0,146
-659,174	800,000	-0,044	-0,104
-658,159	-3,122	-0,004	0,002
-657,145	-153,670	-0,107	0,005
-656,130	27,862	0,105	0,065
-655,116	204,054	0,083	0,094
-654,101	-200,000	0,010	0,086
-653,086	33,772	0,031	0,020
-652,072	157,505	-0,069	-0,071
-651,057	181,075	0,058	0,062
-650,043	-14,479	0,091	0,043
-649,028	-12,547	-0,080	0,038
-648,014	416,867	0,036	-0,057
-646,999	-200,000	-0,019	0,134
-645,984	-0,055	-0,050	0,026
-644,970	-81,989	-0,055	-0,013
-643,955	-3,483	0,103	0,052
-642,941	89,790	-0,075	-0,061
-641,926	800,000	0,032	0,091
-640,911	-200,000	-0,051	0,167
-639,897	571,098	0,047	0,085
-638,882	800,000	-0,031	0,100
-637,868	178,840	-0,038	0,041
-636,853	357,318	-0,046	-0,068
-635,838	-200,000	-0,011	-0,035
-634,824	-95,588	-0,044	0,009
-633,809	-200,000	-0,018	0,136
-632,795	382,451	0,007	-0,010
-631,780	-200,000	-0,005	0,058
-630,765	-47,935	-0,023	-0,008
-629,751	800,000	0,043	-0,108
-628,736	194,700	-0,023	-0,025
-627,722	446,940	-0,082	0,132
-626,707	629,681	0,061	0,114
-625,692	201,709	0,015	-0,016
-624,678	637,817	-0,031	-0,058
-623,663	-200,000	-0,035	0,126
-622,649	-92,950	0,035	0,007
-621,634	82,542	0,016	0,013
-620,619	-11,235	-0,080	0,038
-619,605	-35,517	0,029	-0,011
-618,590	800,000	-0,020	0,048
-617,576	-200,000	-0,005	0,029
-616,561	-41,287	0,020	0,008
-615,546	96,635	-0,066	-0,055
-614,532	184,779	-0,101	-0,110
-613,517	230,348	-0,126	-0,152
-612,503	27,841	0,111	0,069
-611,488	636,160	0,051	0,096
-610,474	34,551	-0,065	0,042
-609,459	-147,963	-0,130	-0,008
-608,444	205,396	-0,040	0,045
-607,430	29,528	-0,067	0,042
-606,415	-6,286	0,027	-0,014
-605,401	32,152	-0,051	0,032
-604,386	-77,285	0,057	0,014
-603,371	-62,640	0,133	0,040
-602,357	-101,157	-0,024	0,004
-601,342	-56,655	0,031	-0,010
-600,328	22,022	-0,150	-0,089
-599,313	-200,000	0,008	-0,266
-598,298	114,800	0,059	0,053
-597,284	-129,568	0,105	-0,011
-596,269	325,289	-0,014	-0,020
-595,255	-200,000	-0,011	0,078
-594,240	662,388	0,056	-0,106
-593,225	-19,157	0,080	0,036
-592,211	783,972	0,044	-0,090
-591,196	205,445	0,042	-0,048
-590,182	-26,089	0,083	-0,035
-589,167	96,348	0,068	-0,057
-588,152	-12,641	-0,047	-0,023
-587,138	-200,000	-0,015	0,083
-586,123	-2,740	-0,086	0,044
-585,109	800,000	0,021	-0,056
-584,094	131,243	-0,081	0,077
-583,079	601,551	0,051	0,092
-582,065	800,000	0,064	0,178
-581,050	-160,506	-0,114	-0,004
-580,036	-200,000	-0,050	0,199
-579,021	-200,000	0,012	-0,105
-578,006	274,192	-0,068	0,088
-576,992	-11,510	-0,046	-0,022
-575,977	89,846	0,018	0,015
-574,963	-58,306	0,142	0,045
-573,948	-130,541	0,091	-0,009
-572,934	800,000	0,020	-0,061
-571,919	800,000	0,022	-0,066
-570,904	800,000	-0,054	-0,114
-569,890	396,203	-0,069	-0,106
-568,875	39,654	0,204	0,134
-567,861	-200,000	0,011	0,069
-566,846	-200,000	-0,017	-0,060
-565,831	92,112	0,067	-0,055
-564,817	-200,000	-0,005	0,024
-563,802	-200,000	-0,005	-0,051
-562,788	615,550	-0,054	-0,099
-561,773	-32,818	-0,115	-0,046
-560,758	679,152	0,088	0,168
-559,744	83,398	-0,056	0,045
-558,729	134,853	0,053	-0,050
-557,715	8,963	-0,073	0,040
-556,700	-49,371	0,036	-0,012
-555,685	-200,000	-0,001	-0,029
-554,671	75,725	-0,139	-0,107
-553,656	13,296	-0,067	-0,038
-552,642	-200,000	-0,001	0,032
-551,627	-200,000	-0,005	-0,028
-550,612	571,870	0,101	-0,181
-549,598	66,753	-0,089	0,066
-548,583	-6,390	-0,136	-0,068
-547,569	800,000	-0,044	-0,101
-546,554	287,462	0,042	0,056
-545,539	382,376	-0,044	0,067
-544,525	-90,319	-0,149	0,031
-543,510	17,116	0,030	-0,017
-542,496	77,454	-0,032	-0,025
-541,481	767,629	0,061	-0,122
-540,466	-150,413	-0,106	-0,006
-539,452	68,527	0,031	0,023
-538,437	-95,036	-0,039	0,008
-537,423	-200,000	-0,028	-0,108
-536,408	-200,000	-0,009	-0,099
-535,393	170,605	0,066	-0,070
-534,379	-147,540	-0,092	0,006
-533,364	82,200	-0,048	-0,038
-532,350	-182,329	-0,061	0,001
-531,335	375,675	-0,052	0,077
-530,321	196,592	0,066	-0,073
-529,306	-200,000	0,011	0,111
-528,291	800,000	-0,069	-0,156
-527,277	-200,000	0,000	-0,101
-526,262	-35,226	0,073	-0,029
-525,248	-62,030	-0,145	0,044
-524,233	-126,573	0,034	-0,004
-523,218	-143,698	0,146	0,010
-522,204	270,527	-0,066	0,086
-521,189	-118,372	-0,141	-0,018
-520,175	-200,000	-0,013	0,097
-519,160	70,095	0,158	0,119
-518,145	146,681	0,062	-0,061
-517,131	-200,000	-0,003	0,097
-516,116	198,409	-0,085	0,095
-515,102	-200,000	-0,019	0,115
-514,087	22,739	0,093	-0,055
-513,072	-200,000	-0,012	-0,164
-512,058	-200,000	-0,019	0,102
-511,043	94,050	0,043	0,035
-510,029	-84,733	0,051	0,012
-509,014	-109,799	0,057	0,009
-507,999	24,255	0,054	0,032
-506,985	-200,000	0,019	0,120
-505,970	0,613	-0,141	-0,073
-504,956	-188,228	0,050	0,000
-503,941	800,000	-0,009	0,029
-502,926	53,768	-0,022	-0,015
-501,912	280,066	0,085	0,111
-500,897	-200,000	0,004	0,037
-499,883	71,616	-0,096	0,073
-498,868	-200,000	-0,009	-0,036
-497,853	-200,000	-0,011	0,051
-496,839	-200,000	0,002	-0,029
-495,824	-57,105	0,154	-0,049
-494,810	18,873	0,191	0,112
-493,795	-43,863	-0,123	-0,045
-492,781	-88,255	0,101	-0,022
-491,766	657,313	-0,074	-0,139
-490,751	800,000	0,021	-0,063
-489,737	64,899	-0,073	-0,054
-488,722	-82,088	0,073	-0,017
-487,708	-1,420	-0,052	-0,027
-486,693	-124,924	0,021	-0,002
-485,678	-59,157	0,083	0,026
-484,664	-200,000	0,006	-0,055
-483,649	291,966	-0,039	-0,052
-482,635	-72,200	0,028	0,008
-481,620	-200,000	0,003	0,036
-480,605	16,248	0,083	-0,047
-479,591	-73,391	0,071	0,019
-478,576	-200,000	0,017	-0,131
-477,562	54,440	-0,102	-0,071
-476,547	107,945	-0,056	0,049
-475,532	34,277	0,115	-0,073
-474,518	-200,000	0,013	-0,159
-473,503	-200,000	0,009	0,053
-472,489	800,000	-0,023	0,069
-471,474	62,158	0,049	0,036
-470,459	-200,000	0,003	-0,014
-469,445	800,000	-0,042	-0,102
-468,430	-127,634	-0,214	0,022
-467,416	-65,737	0,097	0,028
-466,401	-200,000	-0,008	0,054
-465,386	530,492	-0,054	0,094
-464,372	-112,878	0,029	0,004
-463,357	342,879	-0,042	0,060
-462,343	178,180	-0,043	-0,046
-461,328	127,053	-0,103	0,095
-460,313	152,148	0,091	0,091
-459,299	-52,374	0,134	0,045
-458,284	-200,000	-0,010	0,031
-457,270	-200,000	0,002	-0,099
-456,255	-200,000	-0,017	-0,084
-455,241	-200,000	-0,029	-0,109
-454,226	14,940	0,082	-0,047
-453,211	96,616	0,061	-0,051
-452,197	-200,000	-0,022	0,128
-451,182	-141,614	0,049	0,004
-450,168	-200,000	0,011	-0,120
-449,153	-51,634	-0,050	0,017
-448,138	-200,000	-0,017	0,091
-447,124	-186,019	0,036	-0,000
-446,109	482,402	-0,060	-0,099
-445,095	-115,025	0,158	-0,022
-444,080	800,000	0,034	-0,109
-443,065	208,094	-0,097	-0,111
-442,051	88,430	0,130	0,105
-441,036	47,850	0,143	0,097
-440,022	-70,670	-0,107	-0,029
-439,007	800,000	0,074	0,153
-437,992	-134,408	0,108	-0,009
-436,978	72,977	0,118	0,089
-435,963	-200,000	0,011	0,196
-434,949	-200,000	-0,006	0,060
-433,934	-31,086	-0,129	-0,053
-432,919	-69,160	-0,080	0,022
-431,905	4,860	0,096	0,051
-430,890	6,869	0,063	-0,034
-429,876	97,945	0,097	0,081
-428,861	-200,000	0,043	0,221
-427,846	-99,371	-0,120	-0,022
-426,832	-2,523	-0,151	-0,077
-425,817	466,034	-0,055	0,089
-424,803	800,000	-0,033	0,096
-423,788	-81,604	-0,075	-0,018
-422,773	34,967	0,021	0,013
-421,759	-130,726	-0,146	-0,014
-420,744	-115,761	0,023	0,003
-419,730	800,000	-0,027	-0,054
-418,715	361,722	0,028	-0,042
-417,701	800,000	-0,017	-0,035
-416,686	283,856	0,035	-0,045
-415,671	77,195	0,073	0,057
-414,657	-110,723	0,018	-0,003
-413,642	-200,000	0,015	0,000
-412,628	-49,070	-0,062	-0,021
-411,613	48,641	-0,198	-0,135
-410,598	-52,913	-0,073	0,024
-409,584	-58,289	0,104	-0,033
-408,569	800,000	0,018	0,042
-407,555	59,944	0,191	0,137
-406,540	-200,000	0,008	0,062
-405,525	800,000	-0,025	-0,070
-404,511	800,000	0,034	-0,088
-403,496	-84,238	-0,139	-0,032
-402,482	-113,360	0,038	0,005
-401,467	-200,000	-0,008	0,034
-400,452	-165,650	0,152	0,005
-399,438	-78,465	0,053	0,013
-398,423	152,550	-0,084	-0,084
-397,409	-38,087	-0,073	-0,028
-396,394	-200,000	-0,007	-0,122
-395,379	90,784	0,067	-0,055
-394,365	-113,225	-0,078	0,011
-393,350	96,898	0,118	0,099
-392,336	-6,939	-0,030	-0,015
-391,321	800,000	0,054	-0,109
-390,306	-50,761	-0,097	-0,033
-389,292	-15,831	-0,040	-0,019
-388,277	30,493	0,116	-0,072
-387,263	-197,442	0,069	-0,000
-386,248	80,509	0,032	0,025
-385,233	800,000	-0,028	-0,080
-384,219	-200,000	-0,011	0,044
-383,204	558,248	0,013	-0,023
-382,190	59,953	-0,111	-0,080
-381,175	569,817	0,009	0,017
-380,160	-156,092	-0,039	-0,002
-379,146	-54,631	0,036	0,012
-378,131	124,194	-0,101	-0,092
-377,117	-200,000	0,012	0,043
-376,102	-200,000	0,001	0,081
-375,088	62,756	-0,014	0,010
-374,073	-164,118	0,028	0,001
-373,058	-101,412	-0,030	0,005
-372,044	58,903	-0,086	0,061
-371,029	76,535	-0,046	-0,036
-370,015	-200,000	-0,013	0,056
-369,000	713,009	0,034	-0,065
-367,985	800,000	0,038	0,115
-366,971	239,253	0,023	-0,028
-365,956	-5,128	0,122	-0,061
-364,942	566,116	0,004	-0,007
-363,927	-200,000	-0,015	0,090
-362,912	296,112	0,066	-0,089
-361,898	-129,711	-0,096	0,009
-360,883	-37,606	-0,118	0,045
-359,869	-200,000	-0,029	-0,175
-358,854	-200,000	0,036	0,220
-357,839	-200,000	-0,020	0,076
-356,825	-70,049	0,131	-0,036
-355,810	49,755	-0,143	0,097
-354,796	-200,000	-0,015	0,063
-353,781	-149,699	0,007	0,000
-352,766	377,795	0,049	-0,073
-351,752	64,199	0,062	0,046
-350,737	-66,808	0,170	-0,049
-349,723	286,254	-0,049	-0,064
-348,708	-57,501	-0,161	0,051
-347,693	-117,822	-0,072	-0,009
-346,679	220,828	0,055	0,064
-345,664	-122,180	-0,069	0,008
-344,650	-200,000	-0,044	-0,141
-343,635	-122,978	0,142	0,016
-342,620	321,232	-0,136	0,188
-341,606	402,698	0,030	0,046
-340,591	127,035	-0,055	-0,051
-339,577	14,688	-0,085	-0,048
-338,562	-82,583	-0,071	0,017
-337,548	379,455	0,029	-0,043
-336,533	36,308	0,053	0,034
-335,518	106,421	0,064	0,055
-334,504	83,761	0,038	0,030
-333,489	-200,000	-0,008	-0,102
-332,475	275,078	-0,022	-0,028
-331,460	-111,531	-0,066	-0,010
-330,445	697,567	0,048	-0,092
-329,431	-200,000	-0,004	0,120
-328,416	147,255	-0,099	0,097
-327,402	155,799	0,152	0,152
-326,387	360,282	-0,074	-0,107
-325,372	137,416	0,094	0,089
-324,358	-200,000	0,004	0,132
-323,343	466,567	0,017	0,027
-322,329	-200,000	0,060	0,201
-321,314	3,424	-0,060	-0,032
-320,299	618,433	0,079	0,144
-319,285	-200,000	-0,018	0,126
-318,270	-24,199	0,064	-0,028
-317,256	102,695	-0,076	0,064
-316,241	-200,000	0,001	-0,218
-315,226	213,507	0,114	-0,131
-314,212	-200,000	0,037	0,000
-313,197	422,298	-0,045	0,071
-312,183	728,826	0,043	0,084
-311,168	102,228	-0,059	0,050
-310,153	3,090	-0,066	0,035
-309,139	173,414	0,058	0,061
-308,124	-82,155	-0,106	-0,025
-307,110	-60,292	0,121	-0,037
-306,095	605,341	0,037	0,067
-305,080	-200,000	-0,004	0,031
-304,066	410,725	-0,089	-0,137
-303,051	745,152	0,045	-0,087
-302,037	-148,365	-0,102	0,006
-301,022	-25,251	0,054	-0,023
-300,008	-200,000	-0,014	0,103
-298,993	-200,000	-0,024	0,168
-297,978	-200,000	-0,028	0,122
-296,964	295,971	0,049	-0,066
-295,949	-24,218	0,069	0,030
-294,935	15,695	0,009	0,005
-293,920	-154,495	0,059	0,003
-292,905	-152,189	-0,099	0,005
-291,891	-200,000	-0,031	0,108
-290,876	-5,615	0,120	0,059
-289,862	308,798	0,020	0,027
-288,847	800,000	-0,039	-0,092
-287,832	218,320	-0,099	-0,115
-286,818	-200,000	-0,012	-0,178
-285,803	189,901	-0,059	0,064
-284,789	-106,956	0,103	0,016
-283,774	-116,943	-0,088	0,011
-282,759	327,029	-0,041	-0,057
-281,745	135,413	-0,102	-0,096
-280,730	304,913	-0,054	0,073
-279,716	-200,000	-0,022	-0,181
-278,701	12,197	-0,029	0,016
-277,686	-116,080	0,128	0,017
-276,672	236,296	-0,050	-0,060
-275,657	53,990	0,051	0,036
-274,643	-200,000	0,009	-0,161
-273,628	-125,102	-0,037	-0,004
-272,613	81,707	-0,032	0,025
-271,599	27,337	-0,052	0,032
-270,584	72,000	0,011	-0,008
-269,570	-200,000	-0,025	0,091
-268,555	100,063	0,098	0,082
-267,540	318,391	-0,073	0,101
-266,526	149,605	0,029	0,028
-265,511	-200,000	0,006	-0,126
-264,497	-200,000	-0,001	-0,008
-263,482	-15,071	0,104	-0,048
-262,467	300,863	0,026	-0,035
-261,453	-200,000	0,018	0,069
-260,438	469,603	-0,055	-0,090
-259,424	-200,000	-0,038	-0,128
-258,409	-200,000	-0,002	-0,151
-257,395	133,130	-0,119	0,112
-256,380	-18,478	0,090	0,040
-255,365	156,694	0,027	0,027
-254,351	-200,000	0,012	0,137
-253,336	-200,000	-0,003	-0,038
-252,322	-67,377	-0,141	-0,040
-251,307	-200,000	0,025	-0,142
-250,292	159,951	-0,096	-0,097
-249,278	-162,604	0,189	0,007
-248,263	110,792	0,139	0,120
-247,249	537,536	0,057	0,098
-246,234	132,464	-0,127	0,118
-245,219	-200,000	0,001	-0,027
-244,205	-111,588	-0,061	0,009
-243,190	-200,000	-0,002	-0,071
-242,176	-146,349	0,167	-0,010
-241,161	-200,000	0,049	-0,164
-240,146	-91,410	0,022	-0,004
-239,132	31,830	-0,082	-0,051
-238,117	-200,000	-0,020	-0,067
-237,103	296,673	0,044	-0,059
-236,088	800,000	0,052	0,146
-235,073	220,543	0,059	0,069
-234,059	-200,000	0,018	-0,067
-233,044	-115,675	0,191	0,026
-232,030	-88,295	-0,095	-0,020
-231,015	-200,000	-0,004	-0,105
-230,000	-200,000	0,005	-0,048
-228,986	-73,160	0,064	0,017
-227,971	-119,361	0,142	-0,018
-226,957	-200,000	0,000	0,095
-225,942	264,027	-0,040	-0,050
-224,927	-84,867	0,050	-0,011
-223,913	168,559	0,028	-0,029
-222,898	800,000	-0,088	-0,220
-221,884	-54,219	0,081	-0,026
-220,869	-111,707	0,178	0,026
-219,855	800,000	0,060	0,150
-218,840	-200,000	-0,002	0,113
-217,825	800,000	-0,071	0,168
-216,811	476,686	0,032	-0,052
-215,796	800,000	-0,023	-0,074
-214,782	110,093	-0,027	0,023
-213,767	800,000	-0,005	0,014
-212,752	6,326	0,147	-0,079
-211,738	2,566	0,046	-0,024
-210,723	-24,613	-0,141	-0,060
-209,709	-92,202	0,032	0,007
-208,694	115,722	0,100	0,088
-207,679	800,000	-0,061	-0,161
-206,665	-200,000	0,039	-0,160
-205,650	566,894	0,019	-0,033
-204,636	-200,000	-0,005	0,106
-203,621	164,301	-0,074	0,075
-202,606	253,071	-0,024	-0,029
-201,592	800,000	0,023	-0,065
-200,577	101,032	0,063	-0,053
-199,563	61,757	-0,081	0,058
-198,548	-200,000	-0,012	-0,062
-197,533	-53,034	-0,050	-0,016
-196,519	-59,370	-0,153	0,047
-195,504	-58,217	0,089	-0,028
-194,490	-200,000	0,038	-0,202
-193,475	165,393	-0,049	-0,050
-192,460	101,045	-0,089	-0,075
-191,446	-85,721	-0,186	-0,041
-190,431	800,000	0,031	0,086
-189,417	-107,113	0,076	0,012
-188,402	-170,173	-0,142	-0,004
-187,387	270,171	-0,014	-0,017
-186,373	-47,458	-0,086	-0,030
-185,358	-24,137	0,135	0,058
-184,344	16,819	0,243	0,139
-183,329	-63,109	0,056	0,017
-182,315	-200,000	-0,005	0,103
-181,300	58,152	-0,049	0,035
-180,285	-200,000	-0,006	0,059
-179,271	-168,353	-0,141	0,004
-178,256	-59,964	0,120	0,037
-177,242	-200,000	0,006	-0,024
-176,227	800,000	-0,039	0,091
-175,212	-132,929	0,059	-0,005
-174,198	35,094	-0,090	-0,056
-173,183	739,173	-0,040	-0,079
-172,169	-200,000	0,049	-0,198
-171,154	-200,000	-0,015	-0,153
-170,139	67,232	0,076	-0,056
-169,125	424,521	-0,070	-0,109
-168,110	-163,216	0,118	0,004
-167,096	800,000	-0,046	0,102
-166,081	42,533	-0,073	-0,048
-165,066	115,992	0,167	-0,147
-164,052	-200,000	0,003	-0,128
-163,037	-102,244	-0,051	-0,009
-162,023	204,560	0,008	-0,009
-161,008	476,231	-0,117	0,190
-159,993	-108,784	-0,104	0,016
-158,979	-30,725	0,023	-0,009
-157,964	43,534	0,071	0,047
-156,950	43,286	0,072	-0,047
-155,935	249,162	0,048	-0,059
-154,920	321,005	0,053	0,073
-153,906	394,782	0,039	0,059
-152,891	-5,049	-0,121	-0,060
-151,877	-200,000	0,003	-0,080
-150,862	6,503	-0,164	-0,087
-149,847	228,970	-0,028	0,033
-148,833	-200,000	0,020	-0,076
-147,818	171,064	0,047	-0,048
-146,804	100,763	0,133	0,111
-145,789	349,744	-0,035	-0,051
-144,775	-200,000	0,060	0,200
-143,760	-18,341	0,015	0,007
-142,745	-85,914	0,103	0,023
-141,731	89,265	-0,042	-0,034
-140,716	263,878	0,051	0,064
-139,702	437,183	0,057	-0,089
-138,687	-121,226	-0,027	0,003
-137,672	99,097	-0,057	-0,047
-136,658	88,308	0,111	0,089
-135,643	800,000	0,031	0,074
-134,629	142,933	0,036	-0,034
-133,614	-46,889	0,092	0,032
-132,599	153,043	-0,048	0,048
-131,585	-64,387	0,091	-0,027
-130,570	-200,000	-0,007	0,109
-129,556	-31,199	-0,058	-0,023
-128,541	-181,949	-0,069	0,001
-127,526	548,440	-0,044	-0,077
-126,512	-16,877	0,045	0,021
-125,497	-80,884	0,107	0,025
-124,483	-91,749	-0,091	0,019
-123,468	-30,307	0,083	-0,034
-122,453	18,015	-0,073	-0,042
-121,439	-100,420	-0,130	-0,023
-120,424	-200,000	0,001	0,027
-119,410	-200,000	0,008	-0,071
