DTS Sentinel unit serial number:	SN410029Multiplexer serial number:	ORYXHardware model number:	OX2-SRSoftware version number:	ORYX F/W v4,00 Oryx Data Collector v3.7.2.0data status	okinstallation	B6 Nyhavnadifferential loss correction	single-endedforward channel	channel 2reverse channel	N/Adate	2023/12/09time	09:40:08forward acquisition time	300,00reverse acquisition time	0,00gamma	499,1914k internal	0,3139k external	0,3139temperature offset calibration	1,0000default loss term (dB/km)	0,3820temperature slope calibration	1,0000multiplexer offset coefficient	1,0000multiplexer slope coefficient	1,0000fibre end	0,00T internal ref (°C)	18,48T ext. ref 1 (°C)	2,09T ext. ref 2 (°C)	2,10length (m)	temperature (°C)	Stokes	anti-Stokes-744,400	191,808	0,019	-0,021
-743,385	-111,152	-0,286	0,043
-742,371	-150,495	0,229	-0,013
-741,356	-129,041	-0,227	0,023
-740,342	-56,058	0,059	-0,019
-739,327	-161,912	-0,410	0,015
-738,312	145,250	-0,038	0,038
-737,298	12,195	-0,242	0,138
-736,283	36,979	0,097	-0,064
-735,269	9,876	-0,212	0,119
-734,254	-53,045	-0,064	0,022
-733,239	-76,722	-0,328	-0,084
-732,225	-200,000	0,002	0,054
-731,210	800,000	0,044	0,097
-730,196	46,603	0,116	-0,080
-729,181	800,000	0,056	0,134
-728,167	-200,000	0,009	0,052
-727,152	-200,000	-0,007	-0,046
-726,137	-115,405	-0,134	0,019
-725,123	-52,709	-0,125	0,043
-724,108	394,822	-0,027	-0,041
-723,094	127,127	-0,074	-0,069
-722,079	-94,096	-0,177	-0,036
-721,064	-53,434	-0,107	0,036
-720,050	-95,068	-0,154	0,030
-719,035	211,084	0,109	0,127
-718,021	800,000	-0,034	0,092
-717,006	443,359	-0,027	-0,044
-715,991	229,407	-0,058	-0,071
-714,977	466,455	-0,128	-0,214
-713,962	635,339	0,039	0,074
-712,948	-46,720	0,016	-0,006
-711,933	-82,432	-0,216	0,052
-710,918	-57,368	0,052	-0,017
-709,904	128,855	0,097	-0,092
-708,889	-9,738	-0,054	-0,027
-707,875	-200,000	0,014	-0,086
-706,860	-200,000	-0,012	0,075
-705,845	40,988	-0,009	-0,006
-704,831	230,645	-0,091	0,111
-703,816	170,553	-0,006	0,007
-702,802	628,453	-0,011	-0,022
-701,787	800,000	-0,086	-0,256
-700,772	-102,400	-0,127	-0,022
-699,758	800,000	-0,048	0,121
-698,743	-124,049	0,108	0,012
-697,729	-200,000	0,026	0,141
-696,714	221,195	0,117	0,139
-695,699	376,723	0,040	0,061
-694,685	-18,407	-0,149	-0,068
-693,670	-147,913	0,063	0,004
-692,656	-200,000	0,022	0,099
-691,641	-118,839	0,118	0,015
-690,627	-200,000	-0,013	-0,045
-689,612	-200,000	-0,009	0,200
-688,597	-3,211	0,108	0,055
-687,583	-27,883	-0,118	0,051
-686,568	-29,884	0,053	0,022
-685,554	613,967	0,007	-0,013
-684,539	-42,705	-0,067	0,025
-683,524	-200,000	-0,018	0,101
-682,510	-200,000	-0,002	0,139
-681,495	-164,208	-0,077	-0,003
-680,481	-200,000	-0,001	-0,130
-679,466	-53,273	0,054	-0,018
-678,451	800,000	0,010	0,023
-677,437	-27,003	-0,004	0,002
-676,422	329,430	-0,042	0,061
-675,408	136,006	0,037	0,036
-674,393	800,000	-0,037	-0,105
-673,378	40,863	-0,228	-0,152
-672,364	-22,928	-0,022	-0,010
-671,349	800,000	0,018	-0,048
-670,335	800,000	0,053	-0,121
-669,320	800,000	0,023	-0,047
-668,305	800,000	0,043	0,126
-667,291	2,504	-0,070	-0,037
-666,276	-200,000	-0,009	0,048
-665,262	21,982	-0,067	0,040
-664,247	-200,000	-0,005	0,043
-663,232	-86,862	-0,079	-0,018
-662,218	-23,384	0,060	-0,027
-661,203	30,244	0,082	-0,052
-660,189	-200,000	0,025	-0,123
-659,174	786,290	-0,059	-0,120
-658,159	-200,000	-0,011	0,055
-657,145	-129,383	-0,094	-0,009
-656,130	800,000	-0,044	-0,107
-655,116	15,505	0,111	-0,064
-654,101	800,000	0,093	-0,202
-653,086	800,000	0,008	0,020
-652,072	-25,545	-0,090	-0,039
-651,057	103,312	0,053	0,046
-650,043	110,061	-0,047	-0,041
-649,028	800,000	-0,028	-0,084
-648,014	800,000	0,006	-0,014
-646,999	132,968	0,050	0,048
-645,984	373,485	-0,073	0,110
-644,970	-200,000	-0,057	-0,186
-643,955	-43,692	-0,114	-0,042
-642,941	135,009	-0,105	-0,101
-641,926	-27,596	0,089	0,038
-640,911	-72,889	-0,094	-0,025
-639,897	-200,000	0,007	0,138
-638,882	-136,179	-0,064	0,005
-637,868	12,141	-0,038	-0,021
-636,853	-200,000	0,014	-0,069
-635,838	800,000	0,083	-0,217
-634,824	-62,734	0,055	-0,017
-633,809	-200,000	-0,047	-0,163
-632,795	-15,984	-0,030	-0,014
-631,780	44,223	0,126	0,085
-630,765	-42,209	0,009	0,003
-629,751	743,153	0,058	-0,116
-628,736	800,000	-0,038	-0,121
-627,722	-53,505	-0,082	-0,028
-626,707	-0,364	0,036	-0,019
-625,692	-114,848	0,039	0,005
-624,678	406,418	0,070	0,110
-623,663	60,156	-0,120	0,088
-622,649	800,000	-0,026	-0,080
-621,634	-51,482	-0,012	0,004
-620,619	-148,329	-0,176	0,010
-619,605	230,043	-0,071	0,086
-618,590	-200,000	0,001	0,079
-617,576	-200,000	0,036	0,147
-616,561	-200,000	0,010	-0,086
-615,546	346,592	-0,024	0,035
-614,532	-134,790	-0,036	-0,003
-613,517	11,734	-0,024	0,014
-612,503	283,191	0,043	0,057
-611,488	-67,565	-0,082	0,024
-610,474	159,104	0,048	0,049
-609,459	-90,119	-0,074	-0,016
-608,444	204,845	0,048	0,055
-607,430	57,382	0,072	0,052
-606,415	251,308	-0,097	-0,122
-605,401	-200,000	-0,002	-0,026
-604,386	487,279	0,031	-0,052
-603,371	55,730	0,112	-0,080
-602,357	-26,952	0,046	-0,020
-601,342	132,562	0,064	-0,061
-600,328	256,203	-0,006	-0,008
-599,313	-200,000	0,019	-0,082
-598,298	-200,000	-0,002	-0,095
-597,284	800,000	-0,020	0,043
-596,269	10,491	0,173	0,097
-595,255	-200,000	-0,006	0,183
-594,240	-200,000	0,026	0,106
-593,225	-107,574	-0,156	-0,025
-592,211	-37,573	0,087	-0,034
-591,196	314,243	0,024	0,034
-590,182	-103,780	-0,105	-0,018
-589,167	-54,708	0,070	-0,023
-588,152	800,000	0,033	-0,080
-587,138	-103,494	-0,118	-0,020
-586,123	-59,362	0,067	0,021
-585,109	203,469	0,029	-0,033
-584,094	-74,095	0,122	0,032
-583,079	-43,662	0,145	0,054
-582,065	-101,419	-0,028	0,005
-581,050	800,000	0,012	-0,037
-580,036	52,935	-0,136	-0,096
-579,021	-200,000	0,086	0,000
-578,006	-113,601	-0,159	0,023
-576,992	63,866	0,040	0,030
-575,977	-143,587	0,061	-0,004
-574,963	-92,096	0,174	-0,036
-573,948	-200,000	-0,020	0,146
-572,934	-141,116	0,076	-0,006
-571,919	115,171	-0,100	-0,090
-570,904	341,483	-0,030	0,043
-569,890	-28,872	0,045	0,019
-568,875	800,000	0,021	-0,047
-567,861	-200,000	-0,011	-0,089
-566,846	-83,826	0,107	0,025
-565,831	-200,000	0,024	-0,174
-564,817	-200,000	-0,007	-0,049
-563,802	800,000	0,023	0,073
-562,788	-200,000	0,030	-0,149
-561,773	-102,587	-0,056	0,010
-560,758	42,688	-0,053	0,035
-559,744	-200,000	-0,031	0,108
-558,729	-200,000	-0,022	-0,103
-557,715	-2,316	0,099	0,051
-556,700	-200,000	0,002	-0,024
-555,685	-126,295	0,061	-0,007
-554,671	-132,518	0,097	0,009
-553,656	-146,057	-0,039	-0,002
-552,642	800,000	-0,011	0,031
-551,627	-200,000	0,033	0,139
-550,612	-138,829	-0,117	0,009
-549,598	470,853	0,045	0,075
-548,583	-200,000	-0,000	-0,045
-547,569	135,264	0,051	0,049
-546,554	73,482	0,153	0,118
-545,539	800,000	-0,051	0,110
-544,525	596,602	0,037	-0,068
-543,510	179,988	0,031	0,033
-542,496	-13,150	-0,074	-0,035
-541,481	-110,328	0,098	-0,015
-540,466	447,111	-0,082	0,132
-539,452	-200,000	-0,001	-0,091
-538,437	800,000	0,040	0,083
-537,423	188,205	-0,003	-0,004
-536,408	800,000	0,029	-0,074
-535,393	-200,000	0,018	0,076
-534,379	-200,000	-0,012	-0,067
-533,364	61,872	-0,096	0,071
-532,350	800,000	0,043	0,135
-531,335	-200,000	-0,022	0,092
-530,321	800,000	0,057	0,140
-529,306	-13,554	-0,193	0,092
-528,291	-45,141	0,072	-0,026
-527,277	34,817	0,038	0,025
-526,262	316,465	0,039	-0,054
-525,248	300,911	0,065	-0,089
-524,233	-108,089	0,008	-0,001
-523,218	-200,000	-0,017	-0,084
-522,204	48,554	-0,096	-0,066
-521,189	-165,418	0,069	0,002
-520,175	-156,141	-0,151	0,007
-519,160	-144,105	-0,112	0,008
-518,145	0,351	0,112	0,059
-517,131	76,564	-0,023	-0,018
-516,116	255,458	-0,064	0,081
-515,102	-59,721	-0,075	0,023
-514,087	136,263	-0,033	-0,032
-513,072	385,105	-0,132	-0,200
-512,058	269,220	0,037	-0,048
-511,043	-200,000	-0,011	0,126
-510,029	-200,000	0,004	0,151
-509,014	-21,918	-0,026	0,011
-507,999	230,480	-0,041	-0,050
-506,985	-200,000	0,003	0,052
-505,970	-196,949	0,063	0,000
-504,956	-99,368	-0,016	-0,003
-503,941	405,970	0,079	0,123
-502,926	75,246	-0,060	0,046
-501,912	800,000	0,011	-0,029
-500,897	-117,378	0,149	-0,020
-499,883	-57,858	-0,054	-0,017
-498,868	-149,210	0,101	-0,006
-497,853	800,000	0,022	0,048
-496,839	88,229	0,082	-0,067
-495,824	78,828	0,076	-0,060
-494,810	-200,000	-0,027	0,179
-493,795	-141,620	-0,130	0,009
-492,781	-200,000	0,025	-0,083
-491,766	800,000	0,022	0,054
-490,751	187,951	-0,054	0,060
-489,737	-1,031	0,059	0,030
-488,722	92,395	0,075	-0,062
-487,708	-200,000	-0,009	-0,122
-486,693	-200,000	0,014	0,063
-485,678	353,266	-0,027	-0,040
-484,664	134,205	-0,035	0,033
-483,649	-200,000	0,002	-0,117
-482,635	153,775	-0,050	-0,051
-481,620	159,061	0,049	0,050
-480,605	-11,943	-0,143	0,068
-479,591	36,959	-0,029	-0,019
-478,576	332,541	-0,077	-0,109
-477,562	26,886	-0,129	-0,079
-476,547	-53,174	-0,080	-0,027
-475,532	219,417	-0,023	-0,028
-474,518	93,893	-0,115	0,095
-473,503	-187,783	0,038	-0,000
-472,489	-45,985	-0,127	-0,046
-471,474	-200,000	-0,007	0,041
-470,459	-46,191	-0,217	0,078
-469,445	560,375	0,081	-0,144
-468,430	-74,901	-0,127	-0,033
-467,416	54,303	0,064	-0,045
-466,401	232,023	0,038	0,046
-465,386	-73,681	0,102	0,027
-464,372	-91,986	0,053	0,011
-463,357	-118,414	-0,061	-0,008
-462,343	-77,412	-0,092	-0,023
-461,328	800,000	-0,015	-0,045
-460,313	-200,000	0,011	0,150
-459,299	800,000	-0,007	0,017
-458,284	-15,472	-0,081	0,038
-457,270	800,000	0,045	-0,116
-456,255	-151,785	0,100	0,005
-455,241	-159,386	-0,080	0,003
-454,226	551,288	-0,028	0,050
-453,211	51,353	0,099	-0,069
-452,197	-75,365	-0,030	-0,008
-451,182	800,000	0,035	0,089
-450,168	-200,000	-0,013	-0,077
-449,153	-101,907	-0,057	-0,010
-448,138	-98,309	-0,174	-0,032
-447,124	-200,000	0,002	-0,028
-446,109	-200,000	0,025	0,084
-445,095	132,783	0,019	0,018
-444,080	-200,000	0,015	0,156
-443,065	375,256	0,061	-0,092
-442,051	-111,847	0,051	-0,008
-441,036	-166,663	-0,162	0,005
-440,022	-200,000	-0,021	-0,105
-439,007	-75,841	-0,077	-0,020
-437,992	-28,309	0,160	0,068
-436,978	-200,000	-0,005	0,123
-435,963	-200,000	0,009	0,163
-434,949	-93,994	-0,021	-0,004
-433,934	-59,057	-0,108	0,034
-432,919	-200,000	-0,010	-0,147
-431,905	100,176	-0,159	-0,135
-430,890	192,756	0,078	0,086
-429,876	85,740	0,093	-0,075
-428,861	-53,558	-0,021	-0,007
-427,846	-200,000	-0,012	0,122
-426,832	698,425	-0,048	-0,093
-425,817	800,000	-0,062	-0,132
-424,803	16,732	-0,117	-0,068
-423,788	44,215	0,091	-0,061
-422,773	507,770	0,070	0,120
-421,759	16,552	0,075	0,044
-420,744	-200,000	-0,009	-0,137
-419,730	47,401	-0,018	0,012
-418,715	-126,198	-0,085	-0,009
-417,701	800,000	0,063	-0,196
-416,686	-171,552	-0,085	0,002
-415,671	32,045	0,045	0,029
-414,657	-200,000	0,004	-0,012
-413,642	-53,836	0,101	0,034
-412,628	-200,000	0,015	-0,112
-411,613	800,000	-0,008	-0,024
-410,598	800,000	0,004	0,013
-409,584	-42,113	0,025	-0,009
-408,569	-200,000	0,004	0,029
-407,555	157,627	-0,086	0,087
-406,540	-39,910	-0,053	-0,020
-405,525	52,648	-0,026	-0,018
-404,511	-94,769	0,215	-0,042
-403,496	300,052	0,019	-0,025
-402,482	131,289	-0,108	0,101
-401,467	-200,000	0,015	-0,060
-400,452	129,076	-0,102	0,095
-399,438	-200,000	0,005	0,083
-398,423	-115,781	-0,115	0,016
-397,409	295,533	-0,040	-0,054
-396,394	-33,384	-0,080	-0,032
-395,379	522,944	-0,064	-0,110
-394,365	31,293	0,063	0,040
-393,350	28,271	0,009	0,005
-392,336	152,934	0,036	-0,036
-391,321	-200,000	-0,004	0,082
-390,306	-48,606	-0,121	0,042
-389,292	-139,509	-0,084	0,006
-388,277	220,225	-0,002	0,003
-387,263	423,608	0,052	0,083
-386,248	-36,826	0,119	-0,046
-385,233	-57,668	0,099	0,031
-384,219	-41,102	-0,067	0,025
-383,204	800,000	-0,040	-0,127
-382,190	131,651	-0,088	0,083
-381,175	282,949	0,004	0,005
-380,160	-32,157	-0,067	-0,027
-379,146	-125,143	-0,038	-0,004
-378,131	-40,762	-0,056	0,021
-377,117	-200,000	-0,007	0,168
-376,102	363,661	-0,036	-0,054
-375,088	127,577	-0,061	0,057
-374,073	214,896	0,015	-0,017
-373,058	800,000	0,059	-0,138
-372,044	33,185	0,041	-0,026
-371,029	-200,000	-0,003	0,117
-370,015	-2,766	-0,059	0,030
-369,000	-105,080	0,120	-0,020
-367,985	398,537	-0,041	0,062
-366,971	-103,321	-0,029	0,005
-365,956	-57,534	-0,025	-0,008
-364,942	104,897	0,105	-0,090
-363,927	800,000	-0,045	-0,130
-362,912	-114,405	0,091	-0,013
-361,898	-200,000	-0,007	0,030
-360,883	536,059	-0,024	-0,042
-359,869	-24,894	0,079	-0,034
-358,854	-122,522	0,054	-0,006
-357,839	289,212	-0,053	0,070
-356,825	-200,000	0,001	0,080
-355,810	265,931	0,025	-0,031
-354,796	576,945	0,011	0,019
-353,781	800,000	0,016	0,034
-352,766	330,722	0,059	-0,084
-351,752	90,758	-0,096	0,078
-350,737	800,000	0,045	0,116
-349,723	-200,000	0,017	0,078
-348,708	800,000	-0,023	0,051
-347,693	214,417	-0,043	0,050
-346,679	-62,602	-0,068	-0,021
-345,664	800,000	0,078	0,186
-344,650	-200,000	-0,007	0,032
-343,635	-200,000	-0,018	0,065
-342,620	-200,000	0,003	0,134
-341,606	-68,185	0,165	-0,047
-340,591	295,325	-0,074	0,099
-339,577	-68,046	0,057	0,016
-338,562	46,324	-0,073	-0,049
-337,548	-200,000	0,002	0,018
-336,533	-200,000	-0,014	0,056
-335,518	45,788	0,021	0,014
-334,504	371,970	0,018	-0,027
-333,489	387,890	-0,009	-0,014
-332,475	-200,000	-0,019	-0,068
-331,460	-197,311	0,080	-0,000
-330,445	226,009	-0,010	0,012
-329,431	-50,354	0,113	-0,039
-328,416	50,925	0,090	0,062
-327,402	-169,472	-0,038	-0,001
-326,387	-200,000	0,000	-0,018
-325,372	-200,000	0,009	-0,048
-324,358	151,237	-0,065	-0,065
-323,343	-6,850	-0,089	-0,044
-322,329	-76,002	0,093	-0,024
-321,314	261,230	-0,056	0,071
-320,299	-111,115	0,051	0,008
-319,285	-200,000	0,019	0,065
-318,270	800,000	-0,024	-0,070
-317,256	-53,183	0,180	0,060
-316,241	105,573	-0,060	-0,052
-315,226	33,656	0,152	0,096
-314,212	15,392	0,082	-0,047
-313,197	-200,000	0,002	-0,034
-312,183	-200,000	0,003	-0,105
-311,168	-200,000	0,017	0,085
-310,153	12,958	0,072	-0,040
-309,139	-79,463	-0,065	-0,016
-308,124	-200,000	0,002	-0,029
-307,110	-30,536	0,056	-0,023
-306,095	186,192	0,114	0,124
-305,080	800,000	0,004	0,012
-304,066	91,358	-0,126	0,103
-303,051	-148,707	-0,074	0,004
-302,037	330,279	0,035	0,050
-301,022	800,000	0,028	-0,083
-300,008	-92,440	0,079	-0,016
-298,993	419,302	0,069	0,108
-297,978	13,029	-0,150	0,084
-296,964	21,149	-0,085	-0,050
-295,949	800,000	0,093	-0,213
-294,935	-200,000	0,005	-0,102
-293,920	-200,000	0,018	-0,072
-292,905	412,057	-0,013	-0,020
-291,891	313,766	-0,010	-0,013
-290,876	800,000	0,012	0,039
-289,862	-115,930	-0,071	-0,010
-288,847	-12,744	-0,035	-0,017
-287,832	388,867	-0,026	0,039
-286,818	436,251	0,042	0,067
-285,803	-66,114	0,141	0,041
-284,789	-31,370	-0,103	0,042
-283,774	-13,975	-0,113	0,053
-282,759	242,890	0,057	0,070
-281,745	-163,182	-0,160	-0,005
-280,730	800,000	-0,037	0,075
-279,716	364,905	0,075	-0,110
-278,701	800,000	0,050	0,132
-277,686	143,944	0,153	0,149
-276,672	-65,350	0,064	-0,019
-275,657	542,914	0,032	0,056
-274,643	254,752	-0,055	-0,068
-273,628	-68,909	-0,086	0,024
-272,613	265,114	0,072	-0,092
-271,599	392,890	0,004	-0,006
-270,584	253,284	-0,045	0,056
-269,570	-200,000	-0,003	0,056
-268,555	24,418	-0,050	0,030
-267,540	800,000	-0,040	-0,108
-266,526	-69,709	-0,087	-0,024
-265,511	-200,000	0,037	-0,126
-264,497	-200,000	0,020	0,080
-263,482	217,829	0,063	0,073
-262,467	800,000	-0,031	0,077
-261,453	-200,000	-0,003	0,044
-260,438	-39,913	0,097	-0,037
-259,424	142,537	0,100	-0,097
-258,409	-200,000	0,020	-0,138
-257,395	295,683	-0,066	0,088
-256,380	27,601	0,151	0,093
-255,365	81,085	-0,053	-0,041
-254,351	800,000	-0,016	-0,037
-253,336	-0,969	-0,048	0,024
-252,322	800,000	-0,040	-0,118
-251,307	260,746	0,071	-0,089
-250,292	217,629	-0,085	-0,099
-249,278	-68,090	0,126	-0,036
-248,263	-200,000	0,006	0,024
-247,249	-200,000	-0,007	-0,091
-246,234	-58,630	-0,014	0,005
-245,219	253,177	-0,104	-0,129
-244,205	-19,648	-0,038	0,017
-243,190	88,635	-0,033	0,027
-242,176	124,365	0,102	0,093
-241,161	7,520	-0,028	0,015
-240,146	-7,661	0,035	0,017
-239,132	-200,000	0,031	0,154
-238,117	80,292	-0,049	-0,038
-237,103	-200,000	0,006	-0,088
-236,088	-28,339	0,059	-0,025
-235,073	696,773	0,061	-0,117
-234,059	-188,122	0,032	0,000
-233,044	360,050	0,071	0,104
-232,030	-17,072	-0,112	-0,051
-231,015	800,000	0,020	-0,054
-230,000	-200,000	0,004	0,030
-228,986	-24,773	-0,081	0,035
-227,971	-125,017	0,061	0,007
-226,957	-200,000	0,003	0,110
-225,942	-200,000	-0,004	0,081
-224,927	28,741	0,032	0,019
-223,913	236,238	0,047	-0,057
-222,898	-21,531	-0,135	0,059
-221,884	58,533	-0,043	0,031
-220,869	-123,292	0,173	0,020
-219,855	-12,399	0,113	-0,053
-218,840	-200,000	-0,016	0,102
-217,825	19,012	0,010	0,006
-216,811	734,842	-0,029	0,057
-215,796	247,386	-0,102	0,126
-214,782	426,779	-0,019	-0,029
-213,767	194,792	-0,108	0,119
-212,752	-44,164	-0,061	-0,022
-211,738	-200,000	-0,007	-0,072
-210,723	63,326	0,115	0,083
-209,709	-28,837	-0,079	-0,033
-208,694	-200,000	0,004	-0,048
-207,679	-122,522	-0,062	-0,007
-206,665	338,167	0,012	0,016
-205,650	-200,000	0,003	-0,028
-204,636	-136,842	0,157	-0,013
-203,621	-200,000	0,002	-0,091
-202,606	-106,886	0,076	0,012
-201,592	800,000	-0,041	-0,111
-200,577	800,000	0,029	-0,070
-199,563	32,004	0,033	0,021
-198,548	-39,637	0,103	0,039
-197,533	268,246	0,036	0,045
-196,519	117,219	-0,039	-0,035
-195,504	688,920	-0,062	-0,118
-194,490	131,932	0,077	-0,072
-193,475	323,588	-0,064	-0,088
-192,460	-137,179	0,077	0,006
-191,446	43,215	-0,119	0,079
-190,431	31,953	0,153	-0,096
-189,417	-200,000	-0,002	0,096
-188,402	-200,000	0,016	-0,055
-187,387	-200,000	-0,004	0,087
-186,373	-111,289	-0,043	0,006
-185,358	-200,000	-0,012	-0,053
-184,344	-70,027	0,046	-0,013
-183,329	-200,000	-0,010	0,118
-182,315	800,000	-0,017	0,051
-181,300	550,412	0,076	0,132
-180,285	-143,699	0,073	-0,005
-179,271	-200,000	0,003	-0,247
-178,256	50,092	-0,051	0,035
-177,242	800,000	0,044	0,098
-176,227	-131,249	0,047	0,004
-175,212	-200,000	-0,010	-0,099
-174,198	467,895	-0,045	-0,073
-173,183	-200,000	0,008	-0,043
-172,169	83,427	0,031	0,024
-171,154	62,246	-0,084	-0,060
-170,139	459,461	-0,063	0,102
-169,125	26,770	0,093	0,056
-168,110	-200,000	-0,041	0,143
-167,096	-200,000	-0,006	0,040
-166,081	396,024	-0,069	-0,105
-165,066	-200,000	-0,030	-0,100
-164,052	17,924	-0,072	-0,042
-163,037	230,149	-0,061	-0,073
-162,023	-27,466	0,105	-0,044
-161,008	754,802	-0,035	-0,069
-159,993	513,152	-0,065	-0,111
-158,979	-81,312	-0,081	0,019
-157,964	-200,000	-0,001	-0,040
-156,950	-200,000	-0,029	-0,115
-155,935	-73,797	0,088	-0,023
-154,920	-75,829	0,178	0,045
-153,906	-200,000	0,015	-0,085
-152,891	-54,515	0,117	0,038
-151,877	65,467	-0,116	0,085
-150,862	142,045	-0,081	-0,078
-149,847	3,405	0,051	0,027
-148,833	800,000	0,011	0,022
-147,818	800,000	0,033	0,074
-146,804	-12,561	-0,091	0,043
-145,789	304,211	0,076	0,102
-144,775	-104,032	0,031	-0,005
-143,760	318,785	0,075	0,103
-142,745	-200,000	0,018	-0,162
-141,731	-31,184	0,058	-0,024
-140,716	-12,263	-0,121	0,057
-139,702	327,115	0,057	0,079
-138,687	523,634	-0,097	0,165
-137,672	267,909	-0,059	0,075
-136,658	-32,716	0,092	-0,037
-135,643	89,754	0,070	0,056
-134,629	212,551	-0,097	0,111
-133,614	147,854	0,045	-0,044
-132,599	-150,640	0,127	0,007
-131,585	225,467	0,031	-0,037
-130,570	-92,651	-0,165	-0,033
-129,556	516,810	0,054	-0,092
-128,541	45,783	-0,124	-0,083
-127,526	-98,648	0,097	-0,018
-126,512	48,248	-0,071	0,048
-125,497	-200,000	0,027	0,098
-124,483	800,000	-0,061	-0,135
-123,468	800,000	-0,012	0,026
-122,453	-200,000	-0,009	-0,189
-121,439	-138,609	-0,091	-0,007
-120,424	-144,320	-0,101	-0,007
-119,410	19,049	0,042	0,025
