DTS Sentinel unit serial number:	SN410029Multiplexer serial number:	ORYXHardware model number:	OX2-SRSoftware version number:	ORYX F/W v4,00 Oryx Data Collector v3.7.2.0data status	okinstallation	B6 Nyhavnadifferential loss correction	single-endedforward channel	channel 2reverse channel	N/Adate	2023/12/07time	12:00:08forward acquisition time	300,00reverse acquisition time	0,00gamma	499,1914k internal	0,3204k external	0,3204temperature offset calibration	1,0000default loss term (dB/km)	0,3820temperature slope calibration	1,0000multiplexer offset coefficient	1,0000multiplexer slope coefficient	1,0000fibre end	0,00T internal ref (°C)	9,37T ext. ref 1 (°C)	-4,45T ext. ref 2 (°C)	-4,44length (m)	temperature (°C)	Stokes	anti-Stokes-744,400	226,497	0,083	0,098
-743,385	-134,682	-0,410	0,036
-742,371	-146,720	0,212	0,013
-741,356	-161,266	-0,239	0,009
-740,342	114,081	0,170	0,150
-739,327	-48,805	-0,393	-0,136
-738,312	-158,669	0,175	-0,007
-737,298	-130,557	-0,273	-0,026
-736,283	-168,455	0,177	0,005
-735,269	-101,676	-0,236	-0,041
-734,254	41,645	0,118	-0,078
-733,239	-19,992	-0,563	-0,251
-732,225	-124,059	0,127	0,014
-731,210	186,926	-0,100	-0,108
-730,196	-200,000	-0,034	0,148
-729,181	7,377	-0,111	-0,060
-728,167	136,563	0,048	0,046
-727,152	89,036	0,004	0,003
-726,137	-139,483	-0,040	-0,003
-725,123	235,289	-0,066	-0,079
-724,108	-87,274	-0,068	-0,015
-723,094	281,106	-0,111	-0,145
-722,079	172,511	-0,155	-0,162
-721,064	-200,000	0,006	0,072
-720,050	146,927	-0,103	-0,100
-719,035	800,000	-0,030	-0,084
-718,021	521,226	-0,060	-0,103
-717,006	-200,000	0,010	-0,119
-715,991	-200,000	-0,040	-0,151
-714,977	-200,000	-0,023	0,102
-713,962	76,181	-0,104	0,080
-712,948	286,424	0,047	0,062
-711,933	-17,978	-0,100	0,045
-710,918	-200,000	0,005	0,060
-709,904	0,312	-0,092	0,047
-708,889	-12,021	-0,081	-0,038
-707,875	-77,078	0,041	-0,010
-706,860	94,308	-0,076	-0,063
-705,845	800,000	0,017	-0,053
-704,831	68,508	-0,029	0,021
-703,816	800,000	0,062	0,165
-702,802	-200,000	-0,050	-0,188
-701,787	-136,434	-0,151	-0,013
-700,772	-200,000	0,001	-0,022
-699,758	-200,000	-0,120	0,000
-698,743	800,000	-0,010	-0,020
-697,729	-157,038	-0,086	0,004
-696,714	295,333	-0,044	0,058
-695,699	-16,250	-0,070	0,032
-694,685	-28,484	-0,107	-0,045
-693,670	189,207	-0,070	-0,076
-692,656	-36,832	-0,088	-0,034
-691,641	-46,703	-0,099	0,035
-690,627	32,520	-0,047	0,030
-689,612	489,184	0,026	0,044
-688,597	177,015	-0,060	-0,063
-687,583	289,762	-0,061	-0,081
-686,568	137,342	0,051	0,049
-685,554	-200,000	-0,001	-0,031
-684,539	-122,264	0,091	0,011
-683,524	-200,000	-0,023	0,077
-682,510	47,798	0,151	-0,102
-681,495	-200,000	0,009	0,051
-680,481	800,000	0,045	0,120
-679,466	-12,411	-0,166	-0,078
-678,451	-200,000	-0,013	0,054
-677,437	288,954	0,023	0,031
-676,422	120,632	-0,127	0,115
-675,408	-200,000	-0,006	0,024
-674,393	-32,263	-0,129	-0,052
-673,378	511,527	0,044	-0,074
-672,364	341,798	0,023	-0,033
-671,349	450,957	0,030	0,048
-670,335	159,266	0,059	0,059
-669,320	-200,000	-0,008	0,026
-668,305	800,000	0,021	-0,052
-667,291	-26,083	0,054	0,023
-666,276	-13,487	-0,205	0,096
-665,262	178,919	-0,032	-0,034
-664,247	800,000	-0,022	-0,056
-663,232	20,268	-0,109	0,064
-662,218	-138,307	-0,047	-0,004
-661,203	-200,000	-0,085	-0,000
-660,189	-93,378	-0,115	-0,023
-659,174	153,705	-0,043	0,043
-658,159	107,883	-0,044	-0,038
-657,145	-200,000	-0,012	-0,121
-656,130	84,071	0,033	0,026
-655,116	208,955	0,100	0,114
-654,101	-125,981	-0,035	-0,004
-653,086	140,265	-0,024	0,023
-652,072	-200,000	-0,007	-0,042
-651,057	-168,706	-0,186	-0,005
-650,043	-200,000	-0,030	0,131
-649,028	6,151	-0,002	-0,001
-648,014	-5,453	0,040	0,020
-646,999	-123,638	-0,109	-0,012
-645,984	122,392	-0,082	-0,075
-644,970	-54,331	-0,149	-0,049
-643,955	800,000	-0,040	-0,084
-642,941	325,490	0,054	0,075
-641,926	73,971	-0,071	0,054
-640,911	-200,000	0,031	-0,137
-639,897	-152,030	0,094	-0,005
-638,882	-200,000	-0,018	-0,090
-637,868	-111,453	-0,136	0,020
-636,853	371,934	0,081	-0,119
-635,838	233,188	-0,056	-0,067
-634,824	-200,000	-0,022	-0,175
-633,809	343,672	0,115	-0,163
-632,795	-107,847	0,159	0,025
-631,780	190,017	0,103	0,112
-630,765	197,900	-0,064	-0,070
-629,751	553,494	-0,024	-0,042
-628,736	-108,601	-0,153	0,023
-627,722	-48,108	0,016	0,006
-626,707	800,000	0,019	-0,039
-625,692	-200,000	0,012	-0,050
-624,678	-89,599	0,068	-0,014
-623,663	-200,000	-0,007	-0,056
-622,649	763,219	0,067	-0,133
-621,634	38,693	-0,087	-0,056
-620,619	205,814	0,138	-0,156
-619,605	800,000	0,053	0,116
-618,590	155,566	0,009	-0,009
-617,576	347,963	-0,010	0,014
-616,561	-200,000	-0,018	-0,075
-615,546	625,157	-0,042	0,077
-614,532	-43,647	0,076	0,028
-613,517	53,175	-0,152	-0,105
-612,503	-24,716	-0,070	-0,030
-611,488	800,000	0,014	0,029
-610,474	-200,000	0,008	0,040
-609,459	362,533	0,022	-0,032
-608,444	186,284	-0,121	0,131
-607,430	208,186	-0,129	0,146
-606,415	-125,556	0,192	0,021
-605,401	147,417	-0,045	0,044
-604,386	131,524	-0,027	0,025
-603,371	-200,000	-0,002	0,058
-602,357	-96,136	-0,069	-0,013
-601,342	-30,823	0,082	-0,033
-600,328	-73,572	-0,126	0,033
-599,313	148,216	0,130	-0,126
-598,298	6,393	-0,095	-0,051
-597,284	800,000	0,089	0,193
-596,269	800,000	-0,043	0,137
-595,255	351,506	0,041	0,059
-594,240	270,566	-0,039	-0,050
-593,225	-200,000	0,010	0,058
-592,211	-57,430	-0,029	-0,009
-591,196	-200,000	0,028	-0,090
-590,182	402,481	0,013	-0,020
-589,167	-200,000	0,014	-0,051
-588,152	504,320	0,012	0,020
-587,138	-200,000	0,006	0,182
-586,123	-200,000	0,014	-0,137
-585,109	553,037	-0,075	-0,131
-584,094	268,418	0,096	0,122
-583,079	-62,576	-0,082	-0,024
-582,065	399,598	0,040	0,060
-581,050	-200,000	-0,042	0,158
-580,036	-39,388	-0,132	-0,050
-579,021	-200,000	-0,037	-0,166
-578,006	-200,000	0,012	-0,262
-576,992	-200,000	-0,017	-0,129
-575,977	-200,000	-0,002	-0,078
-574,963	-200,000	-0,018	0,112
-573,948	-57,505	0,072	0,023
-572,934	52,197	-0,084	0,058
-571,919	369,554	-0,042	-0,061
-570,904	-119,727	-0,133	-0,016
-569,890	-16,840	0,060	0,027
-568,875	-200,000	-0,008	-0,096
-567,861	800,000	0,028	0,064
-566,846	21,203	-0,047	0,027
-565,831	58,300	-0,053	-0,038
-564,817	-43,752	0,053	-0,019
-563,802	-200,000	-0,003	0,045
-562,788	-200,000	-0,001	0,066
-561,773	-200,000	-0,005	-0,038
-560,758	-200,000	0,003	0,013
-559,744	552,219	0,073	0,126
-558,729	-114,820	-0,121	0,017
-557,715	-200,000	0,001	-0,037
-556,700	40,656	0,049	0,032
-555,685	-200,000	0,004	-0,034
-554,671	800,000	0,011	-0,024
-553,656	13,583	0,017	-0,009
-552,642	45,805	0,038	-0,025
-551,627	46,571	-0,112	0,075
-550,612	-88,833	-0,115	-0,024
-549,598	-92,436	-0,089	-0,018
-548,583	559,838	0,012	-0,021
-547,569	376,343	-0,074	-0,109
-546,554	-200,000	-0,006	0,065
-545,539	158,283	-0,027	0,027
-544,525	-108,096	0,045	0,007
-543,510	-200,000	0,008	-0,081
-542,496	-200,000	0,018	0,062
-541,481	223,535	-0,055	-0,064
-540,466	148,882	0,026	-0,026
-539,452	-31,491	-0,032	-0,013
-538,437	800,000	0,019	0,043
-537,423	-200,000	0,033	0,159
-536,408	-200,000	0,003	0,023
-535,393	-64,369	-0,095	-0,028
-534,379	383,750	-0,024	-0,036
-533,364	-200,000	-0,021	-0,108
-532,350	8,415	0,053	0,028
-531,335	537,135	0,014	0,023
-530,321	83,726	-0,111	-0,087
-529,306	-200,000	-0,001	-0,027
-528,291	-172,893	-0,152	0,003
-527,277	-110,898	-0,048	0,007
-526,262	525,349	0,079	0,134
-525,248	341,076	-0,018	0,026
-524,233	-200,000	-0,030	0,117
-523,218	-200,000	0,039	0,152
-522,204	-8,955	-0,058	-0,028
-521,189	34,248	-0,088	0,055
-520,175	800,000	0,026	-0,067
-519,160	209,340	0,041	-0,047
-518,145	22,545	-0,141	-0,083
-517,131	-121,521	-0,078	0,009
-516,116	39,412	-0,110	-0,071
-515,102	-200,000	-0,031	0,109
-514,087	-200,000	-0,006	-0,035
-513,072	172,939	-0,084	-0,087
-512,058	800,000	0,022	-0,064
-511,043	-77,339	0,122	0,030
-510,029	-109,015	0,048	-0,007
-509,014	-174,352	-0,057	0,001
-507,999	192,410	-0,098	-0,107
-506,985	409,490	-0,074	0,113
-505,970	-200,000	-0,006	0,025
-504,956	-47,142	0,148	0,052
-503,941	-50,293	0,038	0,013
-502,926	29,347	-0,117	0,072
-501,912	25,773	0,057	0,034
-500,897	70,279	0,059	-0,044
-499,883	-198,589	-0,032	-0,000
-498,868	132,015	-0,078	-0,073
-497,853	153,807	-0,081	-0,080
-496,839	-200,000	0,005	0,022
-495,824	12,593	0,024	-0,013
-494,810	88,863	0,048	0,039
-493,795	-200,000	0,024	0,078
-492,781	295,033	0,068	-0,089
-491,766	-13,607	0,083	-0,038
-490,751	677,307	-0,065	0,123
-489,737	-50,657	0,101	-0,034
-488,722	800,000	0,057	-0,155
-487,708	611,651	0,036	0,065
-486,693	-200,000	-0,001	0,093
-485,678	-93,696	-0,064	0,013
-484,664	800,000	-0,015	-0,030
-483,649	648,741	0,021	-0,038
-482,635	-7,000	0,149	0,072
-481,620	-138,983	0,097	-0,007
-480,605	-148,567	0,027	-0,002
-479,591	-159,610	0,124	0,005
-478,576	-12,068	-0,068	-0,032
-477,562	800,000	-0,033	-0,078
-476,547	271,978	-0,106	0,134
-475,532	-67,298	0,082	0,023
-474,518	-19,685	-0,057	0,025
-473,503	272,142	0,053	0,068
-472,489	671,934	0,054	0,101
-471,474	-14,629	0,007	0,003
-470,459	-165,973	-0,098	-0,003
-469,445	-200,000	-0,006	-0,144
-468,430	435,599	0,029	0,046
-467,416	74,095	-0,119	-0,090
-466,401	17,961	-0,184	-0,105
-465,386	800,000	0,017	-0,034
-464,372	24,075	-0,093	-0,055
-463,357	-200,000	-0,029	-0,124
-462,343	-200,000	0,017	0,084
-461,328	-132,053	0,051	0,005
-460,313	-200,000	0,017	-0,084
-459,299	-200,000	-0,012	0,074
-458,284	119,747	-0,013	0,011
-457,270	-200,000	0,005	0,047
-456,255	-131,817	0,064	-0,006
-455,241	-200,000	-0,008	-0,129
-454,226	106,590	0,016	-0,014
-453,211	40,845	-0,035	0,023
-452,197	-55,589	0,188	-0,060
-451,182	644,713	0,016	0,029
-450,168	13,124	-0,056	0,031
-449,153	-149,583	-0,045	-0,003
-448,138	197,532	0,034	-0,037
-447,124	368,599	0,100	0,146
-446,109	-200,000	0,015	0,130
-445,095	800,000	0,099	0,300
-444,080	-38,568	-0,072	0,027
-443,065	800,000	-0,034	0,070
-442,051	199,113	0,088	-0,097
-441,036	-200,000	-0,004	-0,044
-440,022	-200,000	0,016	-0,100
-439,007	188,010	-0,052	0,056
-437,992	-54,056	0,054	0,017
-436,978	800,000	-0,030	0,064
-435,963	-60,807	0,061	-0,018
-434,949	796,218	-0,022	-0,044
-433,934	-200,000	0,037	-0,125
-432,919	-200,000	0,045	-0,168
-431,905	-200,000	0,009	-0,128
-430,890	-29,208	0,108	0,044
-429,876	-26,169	-0,057	0,024
-428,861	-200,000	0,011	0,061
-427,846	-125,679	-0,087	-0,009
-426,832	0,486	-0,064	-0,033
-425,817	21,013	-0,062	-0,036
-424,803	448,328	-0,032	-0,050
-423,788	-22,783	0,055	0,024
-422,773	734,723	-0,039	0,075
-421,759	193,552	0,066	-0,072
-420,744	-200,000	0,007	-0,084
-419,730	-200,000	0,007	0,071
-418,715	303,495	0,018	0,024
-417,701	-200,000	-0,007	0,058
-416,686	98,829	0,062	-0,051
-415,671	-200,000	0,011	0,059
-414,657	200,280	0,026	0,028
-413,642	326,247	0,047	0,065
-412,628	495,688	-0,050	0,083
-411,613	-0,420	0,083	-0,042
-410,598	800,000	0,011	-0,025
-409,584	-40,563	-0,101	-0,037
-408,569	85,640	0,088	-0,069
-407,555	215,968	-0,043	0,049
-406,540	158,140	0,030	0,030
-405,525	92,937	-0,093	-0,075
-404,511	277,655	0,020	-0,026
-403,496	-200,000	-0,024	-0,077
-402,482	60,818	-0,049	-0,035
-401,467	51,781	-0,074	0,051
-400,452	226,462	-0,033	0,038
-399,438	-14,671	0,035	-0,016
-398,423	530,057	-0,082	0,140
-397,409	-126,186	0,137	-0,015
-396,394	-200,000	-0,037	-0,191
-395,379	-55,779	0,166	-0,053
-394,365	87,442	0,059	0,046
-393,350	-127,116	0,137	-0,014
-392,336	-200,000	0,013	-0,065
-391,321	-200,000	0,028	0,105
-390,306	-155,127	0,098	0,005
-389,292	-118,371	0,090	-0,011
-388,277	-40,371	-0,159	-0,059
-387,263	-141,653	0,139	0,010
-386,248	427,452	0,009	0,013
-385,233	-200,000	-0,019	-0,116
-384,219	-200,000	0,011	0,057
-383,204	435,521	-0,020	0,032
-382,190	-90,147	-0,086	-0,018
-381,175	43,763	-0,096	-0,063
-380,160	7,541	0,052	-0,028
-379,146	9,096	-0,029	0,015
-378,131	800,000	0,033	-0,082
-377,117	-200,000	0,009	0,068
-376,102	-125,173	-0,157	-0,017
-375,088	527,733	-0,068	-0,116
-374,073	-32,933	-0,029	0,011
-373,058	-20,617	0,074	-0,032
-372,044	213,888	-0,007	0,008
-371,029	-200,000	-0,004	-0,030
-370,015	-74,448	-0,054	-0,014
-369,000	-82,842	0,017	0,004
-367,985	163,747	-0,042	-0,042
-366,971	-200,000	-0,004	-0,018
-365,956	63,781	0,094	0,067
-364,942	13,147	0,136	-0,075
-363,927	-200,000	-0,009	-0,112
-362,912	-71,837	-0,140	-0,037
-361,898	310,818	-0,023	0,031
-360,883	-22,598	-0,119	0,051
-359,869	-103,492	-0,078	0,013
-358,854	-135,574	0,045	0,004
-357,839	78,880	0,079	-0,060
-356,825	-134,099	0,071	-0,006
-355,810	86,110	-0,065	0,051
-354,796	431,813	-0,050	0,077
-353,781	23,371	-0,053	0,031
-352,766	-50,634	0,046	-0,015
-351,752	-5,522	0,126	-0,062
-350,737	260,669	0,083	0,103
-349,723	-200,000	-0,021	0,089
-348,708	-200,000	-0,020	0,075
-347,693	118,863	-0,049	0,044
-346,679	-28,607	0,047	-0,019
-345,664	304,246	0,044	-0,059
-344,650	-200,000	-0,039	-0,180
-343,635	133,133	0,068	0,063
-342,620	-200,000	-0,009	0,070
-341,606	-200,000	-0,045	0,143
-340,591	141,955	-0,069	0,066
-339,577	102,645	0,028	0,023
-338,562	-15,716	-0,133	-0,060
-337,548	-88,971	0,069	0,014
-336,533	-115,571	0,120	0,016
-335,518	3,575	0,104	0,054
-334,504	-126,393	0,064	-0,007
-333,489	21,662	-0,091	-0,053
-332,475	797,037	-0,046	-0,092
-331,460	198,970	0,045	0,050
-330,445	-200,000	0,010	-0,092
-329,431	173,178	-0,025	-0,026
-328,416	-17,623	0,035	0,016
-327,402	-200,000	0,004	0,015
-326,387	-70,325	-0,082	-0,022
-325,372	560,839	0,066	0,114
-324,358	-200,000	0,012	-0,099
-323,343	800,000	0,041	0,104
-322,329	-121,660	-0,090	-0,011
-321,314	-34,473	0,158	-0,061
-320,299	-200,000	-0,029	0,130
-319,285	77,681	-0,035	0,027
-318,270	479,299	-0,038	0,061
-317,256	449,528	-0,047	-0,074
-316,241	543,613	-0,060	-0,103
-315,226	800,000	-0,047	-0,093
-314,212	-200,000	0,001	0,014
-313,197	-200,000	-0,022	0,122
-312,183	-88,008	0,063	-0,013
-311,168	-37,716	0,073	0,028
-310,153	465,138	0,038	-0,060
-309,139	618,448	0,013	-0,024
-308,124	-200,000	0,061	0,265
-307,110	-200,000	-0,001	0,024
-306,095	-200,000	-0,007	0,105
-305,080	693,328	0,064	0,121
-304,066	-54,669	-0,062	-0,020
-303,051	800,000	-0,046	0,091
-302,037	800,000	-0,038	0,110
-301,022	242,958	0,032	0,039
-300,008	223,534	0,111	0,128
-298,993	80,170	-0,034	-0,026
-297,978	-200,000	0,005	0,078
-296,964	770,535	-0,068	-0,132
-295,949	-108,565	-0,145	0,022
-294,935	-200,000	0,014	0,126
-293,920	-200,000	0,008	0,043
-292,905	248,635	-0,056	-0,068
-291,891	23,494	0,141	0,082
-290,876	5,181	0,107	0,056
-289,862	-200,000	0,015	-0,048
-288,847	-79,995	-0,085	-0,020
-287,832	506,996	-0,040	0,066
-286,818	-185,730	-0,074	-0,001
-285,803	-137,600	-0,035	0,003
-284,789	-200,000	0,029	0,131
-283,774	41,282	0,171	0,110
-282,759	-107,006	0,138	-0,022
-281,745	-49,816	0,014	-0,005
-280,730	155,884	-0,088	-0,086
-279,716	39,618	-0,052	-0,033
-278,701	-8,181	0,093	0,045
-277,686	-29,978	0,096	0,039
-276,672	74,033	0,101	0,075
-275,657	191,246	-0,062	0,067
-274,643	800,000	-0,039	-0,087
-273,628	21,963	0,067	0,039
-272,613	-200,000	-0,010	-0,129
-271,599	800,000	-0,044	-0,089
-270,584	-100,553	0,087	-0,015
-269,570	-176,722	-0,071	0,001
-268,555	-2,811	0,097	0,048
-267,540	-200,000	-0,008	0,095
-266,526	-200,000	0,029	-0,107
-265,511	77,926	-0,056	-0,043
-264,497	414,451	0,071	0,108
-263,482	59,429	0,082	0,058
-262,467	259,056	-0,040	0,049
-261,453	-200,000	0,007	0,146
-260,438	800,000	-0,067	-0,156
-259,424	-200,000	0,000	0,013
-258,409	-31,398	-0,123	-0,049
-257,395	-200,000	0,014	0,101
-256,380	-97,867	0,169	-0,031
-255,365	440,285	0,005	-0,008
-254,351	23,169	0,099	0,058
-253,336	-200,000	0,024	-0,114
-252,322	-200,000	-0,008	0,044
-251,307	-153,874	-0,132	-0,006
-250,292	-127,879	-0,040	-0,004
-249,278	161,633	0,067	0,067
-248,263	-150,114	-0,048	-0,003
-247,249	-145,759	0,040	-0,003
-246,234	-44,844	0,049	-0,017
-245,219	800,000	0,031	-0,063
-244,205	-130,183	0,056	0,005
-243,190	-100,184	0,077	0,014
-242,176	-83,829	0,033	0,007
-241,161	-47,036	0,084	-0,029
-240,146	-200,000	0,003	-0,016
-239,132	-96,745	0,189	0,035
-238,117	51,004	-0,106	-0,071
-237,103	265,500	0,089	-0,111
-236,088	-75,128	-0,108	0,027
-235,073	158,547	0,063	0,062
-234,059	94,957	-0,034	-0,028
-233,044	-126,275	-0,132	-0,014
-232,030	25,733	-0,154	0,091
-231,015	256,830	0,137	-0,168
-230,000	136,545	-0,083	-0,077
-228,986	228,315	-0,015	0,017
-227,971	-40,416	0,073	0,027
-226,957	-200,000	-0,019	0,071
-225,942	330,026	0,079	-0,108
-224,927	800,000	-0,025	0,062
-223,913	-159,623	0,061	0,002
-222,898	-1,517	-0,043	-0,022
-221,884	-144,029	0,065	0,004
-220,869	-52,950	0,046	0,015
-219,855	350,037	-0,031	-0,044
-218,840	-200,000	0,013	0,067
-217,825	800,000	0,013	0,029
-216,811	679,929	-0,043	0,080
-215,796	82,145	0,027	-0,021
-214,782	800,000	0,034	-0,079
-213,767	-131,605	-0,144	-0,013
-212,752	-120,860	0,078	0,009
-211,738	-133,074	0,071	-0,006
-210,723	-200,000	-0,012	-0,080
-209,709	-172,128	-0,087	-0,002
-208,694	224,635	-0,071	-0,082
-207,679	-200,000	0,006	0,021
-206,665	-200,000	0,013	0,107
-205,650	266,404	0,126	0,157
-204,636	800,000	-0,020	0,055
-203,621	356,042	0,046	0,066
-202,606	-14,742	-0,066	-0,030
-201,592	-51,820	-0,075	-0,025
-200,577	187,318	-0,092	-0,097
-199,563	81,670	0,050	0,039
-198,548	-12,852	0,057	-0,026
-197,533	-105,568	-0,070	-0,011
-196,519	281,471	-0,111	0,142
-195,504	-119,634	-0,087	0,011
-194,490	-200,000	-0,042	-0,190
-193,475	-200,000	-0,009	-0,104
-192,460	-23,602	0,051	-0,022
-191,446	-66,876	-0,054	0,015
-190,431	-136,637	0,088	-0,007
-189,417	800,000	-0,006	-0,014
-188,402	-21,239	-0,100	0,043
-187,387	-56,376	-0,060	-0,019
-186,373	-200,000	-0,034	-0,108
-185,358	-130,295	0,055	-0,005
-184,344	35,898	0,122	0,076
-183,329	-200,000	0,028	0,271
-182,315	82,066	0,044	0,034
-181,300	-200,000	0,015	-0,125
-180,285	-200,000	-0,012	0,187
-179,271	3,287	-0,104	-0,054
-178,256	-200,000	-0,014	0,055
-177,242	229,796	0,089	-0,104
-176,227	800,000	0,043	-0,132
-175,212	305,959	-0,057	0,076
-174,198	800,000	-0,064	0,134
-173,183	800,000	0,018	-0,043
-172,169	20,578	0,036	0,021
-171,154	-200,000	-0,006	-0,103
-170,139	-171,232	-0,085	-0,002
-169,125	-119,045	0,109	0,013
-168,110	-200,000	0,011	0,086
-167,096	-200,000	-0,024	-0,168
-166,081	-200,000	0,001	0,021
-165,066	800,000	0,032	0,071
-164,052	800,000	-0,047	-0,134
-163,037	12,057	0,141	0,077
-162,023	174,500	-0,012	0,013
-161,008	624,969	0,061	-0,109
-159,993	-200,000	-0,011	0,058
-158,979	-200,000	-0,011	0,042
-157,964	682,887	-0,041	-0,077
-156,950	43,030	0,052	-0,034
-155,935	138,441	-0,028	0,026
-154,920	800,000	-0,004	0,008
-153,906	476,307	0,038	0,062
-152,891	49,471	0,070	0,047
-151,877	-104,665	-0,109	-0,018
-150,862	-200,000	-0,040	0,186
-149,847	743,332	0,082	-0,157
-148,833	800,000	-0,017	0,036
-147,818	800,000	0,018	0,038
-146,804	-49,103	0,143	0,048
-145,789	800,000	-0,023	-0,049
-144,775	800,000	0,041	0,098
-143,760	-139,628	0,105	-0,008
-142,745	8,906	-0,174	-0,093
-141,731	-133,633	0,051	0,004
-140,716	-200,000	0,056	-0,243
-139,702	20,449	-0,034	0,019
-138,687	-117,465	0,085	-0,011
-137,672	800,000	0,054	-0,124
-136,658	-47,856	-0,237	-0,081
-135,643	1,387	0,127	-0,065
-134,629	-18,626	0,046	0,020
-133,614	370,891	0,057	0,082
-132,599	748,340	-0,026	-0,049
-131,585	-200,000	0,009	-0,099
-130,570	15,273	0,144	0,080
-129,556	-99,222	-0,174	0,031
-128,541	169,213	0,054	0,054
-127,526	86,783	-0,099	-0,077
-126,512	42,490	0,040	-0,026
-125,497	247,068	0,054	0,064
-124,483	88,846	-0,049	-0,039
-123,468	800,000	-0,041	-0,087
-122,453	377,052	-0,078	0,114
-121,439	105,432	-0,108	-0,090
-120,424	-200,000	-0,015	-0,056
