DTS Sentinel unit serial number:	SN410029Multiplexer serial number:	ORYXHardware model number:	OX2-SRSoftware version number:	ORYX F/W v4,00 Oryx Data Collector v3.7.2.0data status	okinstallation	B6 Nyhavnadifferential loss correction	single-endedforward channel	channel 2reverse channel	N/Adate	2023/12/07time	17:10:08forward acquisition time	300,00reverse acquisition time	0,00gamma	499,1914k internal	0,3164k external	0,3164temperature offset calibration	1,0000default loss term (dB/km)	0,3820temperature slope calibration	1,0000multiplexer offset coefficient	1,0000multiplexer slope coefficient	1,0000fibre end	0,00T internal ref (°C)	14,50T ext. ref 1 (°C)	-2,35T ext. ref 2 (°C)	-2,35length (m)	temperature (°C)	Stokes	anti-Stokes-744,400	120,783	0,109	0,100
-743,385	-85,654	-0,250	0,057
-742,371	119,340	0,092	0,084
-741,356	-116,698	-0,351	-0,047
-740,342	-168,628	0,151	-0,004
-739,327	-98,754	-0,312	0,058
-738,312	497,088	0,061	0,103
-737,298	-56,954	-0,344	0,111
-736,283	400,939	0,035	0,055
-735,269	-134,667	-0,299	-0,026
-734,254	-155,141	0,069	-0,003
-733,239	-62,560	-0,651	-0,197
-732,225	-27,101	0,074	-0,032
-731,210	139,360	-0,024	0,024
-730,196	-24,959	-0,027	0,012
-729,181	-81,957	-0,072	0,017
-728,167	-6,271	0,092	-0,046
-727,152	-63,655	-0,045	0,013
-726,137	68,140	-0,129	-0,097
-725,123	-200,000	0,004	-0,122
-724,108	-103,759	0,038	-0,007
-723,094	147,781	-0,055	0,054
-722,079	99,396	0,010	-0,009
-721,064	113,719	-0,087	-0,078
-720,050	-94,527	-0,106	-0,021
-719,035	410,620	-0,058	-0,090
-718,021	-54,691	-0,088	-0,029
-717,006	146,407	-0,037	0,036
-715,991	-200,000	-0,005	-0,078
-714,977	-84,870	-0,128	-0,029
-713,962	-93,619	0,064	-0,013
-712,948	-123,756	-0,083	-0,010
-711,933	800,000	0,041	0,090
-710,918	-200,000	-0,029	0,166
-709,904	-200,000	0,021	-0,146
-708,889	27,754	0,115	-0,071
-707,875	800,000	-0,042	-0,089
-706,860	800,000	0,026	0,083
-705,845	-145,078	0,130	-0,009
-704,831	-66,260	0,127	0,037
-703,816	-42,664	0,075	-0,028
-702,802	-81,925	-0,038	-0,009
-701,787	-200,000	-0,014	-0,141
-700,772	211,524	-0,002	0,002
-699,758	9,059	-0,139	-0,077
-698,743	-200,000	0,008	0,083
-697,729	127,068	0,068	0,063
-696,714	-200,000	-0,007	0,033
-695,699	-21,026	0,017	0,008
-694,685	-37,036	0,019	0,007
-693,670	184,180	-0,136	-0,148
-692,656	800,000	-0,013	-0,035
-691,641	299,594	-0,029	0,039
-690,627	-200,000	0,006	0,052
-689,612	-200,000	0,006	0,077
-688,597	-45,475	-0,085	-0,031
-687,583	249,657	-0,069	0,086
-686,568	-86,288	-0,110	-0,025
-685,554	73,950	0,007	-0,006
-684,539	-103,686	-0,104	-0,018
-683,524	-60,677	0,107	0,033
-682,510	800,000	-0,027	0,077
-681,495	83,754	0,084	-0,068
-680,481	37,276	-0,099	-0,064
-679,466	28,254	-0,036	0,022
-678,451	21,206	-0,053	-0,031
-677,437	-101,052	0,058	0,010
-676,422	-136,696	-0,136	-0,011
-675,408	-57,097	0,157	0,050
-674,393	-133,076	-0,085	0,008
-673,378	-200,000	0,022	0,095
-672,364	-200,000	0,006	-0,069
-671,349	-49,321	-0,074	-0,026
-670,335	-48,937	0,139	-0,049
-669,320	35,229	-0,076	0,049
-668,305	800,000	-0,049	-0,119
-667,291	800,000	0,054	-0,128
-666,276	662,585	-0,003	-0,007
-665,262	68,829	-0,096	-0,072
-664,247	-200,000	-0,023	-0,209
-663,232	82,534	0,057	0,045
-662,218	155,260	0,109	-0,111
-661,203	-131,892	0,046	-0,004
-660,189	-200,000	-0,002	0,059
-659,174	69,450	-0,118	-0,089
-658,159	276,803	-0,061	0,080
-657,145	-200,000	-0,000	0,051
-656,130	-200,000	0,026	0,092
-655,116	287,903	0,103	-0,137
-654,101	289,266	0,124	-0,165
-653,086	60,105	-0,112	0,081
-652,072	179,313	-0,078	-0,084
-651,057	155,158	-0,114	-0,115
-650,043	-75,596	-0,101	0,026
-649,028	195,852	-0,028	-0,031
-648,014	800,000	-0,043	-0,091
-646,999	-200,000	0,009	-0,066
-645,984	800,000	-0,018	0,052
-644,970	-200,000	-0,014	-0,098
-643,955	235,139	-0,050	-0,061
-642,941	-89,210	0,087	-0,019
-641,926	-200,000	-0,016	0,108
-640,911	800,000	0,014	0,034
-639,897	63,426	0,062	0,046
-638,882	694,194	-0,015	-0,030
-637,868	-6,615	-0,158	-0,079
-636,853	800,000	0,011	-0,031
-635,838	564,321	0,030	-0,053
-634,824	162,799	-0,069	-0,071
-633,809	8,320	-0,080	0,044
-632,795	-48,519	0,076	0,027
-631,780	-62,579	0,090	0,027
-630,765	254,097	-0,057	-0,071
-629,751	-200,000	0,039	-0,153
-628,736	-200,000	-0,010	0,071
-627,722	189,312	-0,088	-0,097
-626,707	-200,000	-0,014	-0,060
-625,692	-200,000	-0,005	0,066
-624,678	-200,000	0,014	0,098
-623,663	-200,000	0,019	0,121
-622,649	-200,000	0,005	-0,081
-621,634	22,439	-0,103	0,061
-620,619	-130,524	-0,103	-0,010
-619,605	636,058	0,011	0,021
-618,590	-4,097	0,083	0,042
-617,576	50,735	-0,057	0,039
-616,561	-200,000	-0,003	-0,022
-615,546	84,971	-0,050	-0,040
-614,532	438,885	-0,043	-0,069
-613,517	531,509	-0,017	0,029
-612,503	23,287	-0,049	0,030
-611,488	-200,000	0,024	0,134
-610,474	680,876	0,017	0,032
-609,459	800,000	0,007	0,021
-608,444	-93,242	-0,171	-0,034
-607,430	-200,000	-0,016	-0,071
-606,415	-43,396	-0,059	-0,022
-605,401	199,244	0,041	0,046
-604,386	473,647	-0,076	0,126
-603,371	533,746	0,139	0,242
-602,357	800,000	-0,027	-0,064
-601,342	-21,743	-0,082	-0,037
-600,328	-1,593	0,045	0,023
-599,313	213,535	-0,033	0,038
-598,298	118,741	-0,055	-0,050
-597,284	-15,654	0,038	0,018
-596,269	699,426	-0,020	0,040
-595,255	-200,000	-0,014	0,047
-594,240	110,412	0,091	-0,080
-593,225	-139,241	-0,083	-0,006
-592,211	-44,557	-0,094	0,034
-591,196	-171,507	-0,057	0,001
-590,182	-160,317	0,152	0,006
-589,167	-200,000	0,005	-0,072
-588,152	800,000	-0,028	-0,060
-587,138	233,729	0,052	0,062
-586,123	-200,000	-0,007	-0,043
-585,109	-200,000	0,013	-0,057
-584,094	800,000	-0,034	0,092
-583,079	800,000	-0,057	0,121
-582,065	-22,314	0,168	-0,074
-581,050	149,912	0,011	-0,011
-580,036	139,600	-0,021	0,020
-579,021	78,038	-0,093	-0,072
-578,006	-152,416	0,037	0,002
-576,992	800,000	-0,015	-0,044
-575,977	-102,312	0,084	0,015
-574,963	-12,770	0,050	-0,024
-573,948	368,861	0,034	-0,050
-572,934	-200,000	0,016	-0,095
-571,919	800,000	-0,032	0,101
-570,904	-200,000	0,001	0,055
-569,890	385,795	-0,025	-0,038
-568,875	43,732	-0,051	-0,034
-567,861	-110,951	0,050	0,007
-566,846	-36,359	0,140	0,055
-565,831	-200,000	-0,014	-0,081
-564,817	800,000	0,030	0,079
-563,802	-44,281	0,071	-0,026
-562,788	49,374	0,078	0,053
-561,773	-58,924	0,048	-0,015
-560,758	181,879	0,071	0,076
-559,744	-200,000	-0,038	0,144
-558,729	-41,491	0,087	0,032
-557,715	243,674	-0,062	0,076
-556,700	-200,000	-0,094	0,000
-555,685	800,000	-0,037	-0,091
-554,671	739,109	-0,001	-0,001
-553,656	20,536	0,150	-0,088
-552,642	587,853	-0,053	-0,096
-551,627	666,309	-0,052	0,099
-550,612	23,284	-0,053	-0,031
-549,598	368,900	-0,110	-0,163
-548,583	800,000	0,046	-0,109
-547,569	800,000	0,007	0,023
-546,554	734,072	0,021	-0,042
-545,539	6,296	-0,028	-0,015
-544,525	-200,000	-0,013	0,060
-543,510	107,872	0,039	0,034
-542,496	-12,724	-0,237	0,112
-541,481	88,531	-0,061	-0,050
-540,466	-120,174	0,082	-0,010
-539,452	-11,137	0,186	0,089
-538,437	-200,000	0,003	-0,054
-537,423	-69,263	-0,050	0,014
-536,408	173,215	-0,038	0,040
-535,393	82,576	-0,149	0,118
-534,379	-200,000	0,020	-0,261
-533,364	381,144	0,012	-0,018
-532,350	6,712	0,150	0,081
-531,335	-107,956	-0,095	0,015
-530,321	165,870	0,023	-0,024
-529,306	-200,000	0,009	0,089
-528,291	-61,447	-0,149	0,045
-527,277	-200,000	-0,016	-0,083
-526,262	25,338	-0,085	0,051
-525,248	37,265	0,115	-0,074
-524,233	71,565	0,106	0,080
-523,218	-200,000	0,005	0,132
-522,204	800,000	-0,059	0,142
-521,189	-77,859	-0,173	0,043
-520,175	-200,000	0,021	-0,121
-519,160	573,281	-0,046	0,082
-518,145	800,000	-0,032	-0,067
-517,131	461,350	0,044	0,072
-516,116	124,541	0,034	-0,031
-515,102	800,000	0,040	-0,084
-514,087	219,663	-0,032	-0,038
-513,072	113,925	-0,120	-0,107
-512,058	800,000	0,039	-0,090
-511,043	-73,046	0,064	-0,017
-510,029	-23,835	0,130	-0,057
-509,014	131,962	-0,064	-0,060
-507,999	800,000	0,050	0,123
-506,985	218,790	-0,078	-0,091
-505,970	45,781	0,019	0,013
-504,956	-200,000	-0,001	0,065
-503,941	57,671	0,064	-0,046
-502,926	624,392	-0,085	0,157
-501,912	-200,000	-0,020	0,154
-500,897	800,000	-0,016	0,049
-499,883	-144,474	-0,119	-0,008
-498,868	-200,000	-0,009	0,047
-497,853	264,477	-0,120	-0,152
-496,839	-159,851	-0,133	-0,005
-495,824	0,388	0,144	0,074
-494,810	109,934	-0,033	-0,029
-493,795	-79,918	-0,090	0,022
-492,781	491,124	-0,055	0,093
-491,766	-21,593	-0,087	0,038
-490,751	800,000	0,006	-0,018
-489,737	-44,270	-0,164	-0,060
-488,722	558,894	0,072	0,127
-487,708	-200,000	0,003	0,040
-486,693	672,872	-0,035	0,067
-485,678	63,886	0,049	-0,036
-484,664	307,344	0,050	-0,068
-483,649	351,091	0,006	0,009
-482,635	517,467	0,058	-0,099
-481,620	162,684	0,085	-0,087
-480,605	89,324	0,069	0,056
-479,591	-103,328	-0,140	-0,024
-478,576	-34,643	-0,070	-0,028
-477,562	-200,000	0,008	-0,045
-476,547	83,807	-0,031	0,025
-475,532	41,121	0,146	-0,096
-474,518	-69,034	0,151	-0,042
-473,503	-148,260	0,043	-0,003
-472,489	-186,072	-0,077	-0,001
-471,474	448,083	-0,083	0,134
-470,459	-40,610	-0,068	-0,025
-469,445	-87,179	-0,039	-0,009
-468,430	552,955	-0,058	0,103
-467,416	-200,000	-0,036	-0,164
-466,401	792,186	0,024	-0,048
-465,386	800,000	-0,030	0,074
-464,372	-121,602	-0,023	0,003
-463,357	-85,731	-0,087	-0,020
-462,343	-91,922	-0,036	-0,007
-461,328	677,425	-0,016	0,031
-460,313	-200,000	0,012	0,054
-459,299	14,221	0,058	0,033
-458,284	58,933	-0,137	0,098
-457,270	38,125	0,013	-0,008
-456,255	612,941	0,017	0,030
-455,241	-68,072	-0,074	0,021
-454,226	80,945	-0,063	-0,050
-453,211	-60,438	0,075	0,023
-452,197	264,589	0,082	0,104
-451,182	4,148	0,052	-0,027
-450,168	202,247	-0,080	-0,090
-449,153	45,173	-0,060	-0,040
-448,138	-64,216	-0,155	-0,046
-447,124	-200,000	0,026	-0,196
-446,109	-200,000	-0,003	-0,042
-445,095	-120,939	0,133	0,016
-444,080	779,853	-0,061	0,121
-443,065	596,780	0,017	0,031
-442,051	544,856	-0,046	0,081
-441,036	243,246	0,024	0,029
-440,022	117,115	0,099	-0,089
-439,007	113,906	-0,094	0,083
-437,992	444,775	0,058	-0,092
-436,978	141,392	0,058	-0,056
-435,963	-55,610	0,030	-0,010
-434,949	800,000	0,039	-0,090
-433,934	338,380	-0,131	-0,186
-432,919	800,000	0,011	-0,033
-431,905	457,518	-0,015	-0,024
-430,890	-132,252	-0,028	-0,003
-429,876	203,026	0,061	0,069
-428,861	566,551	0,040	0,070
-427,846	-200,000	-0,013	0,104
-426,832	90,176	0,094	-0,076
-425,817	7,890	0,083	-0,045
-424,803	-125,036	0,118	0,013
-423,788	-130,269	0,131	-0,013
-422,773	-133,159	0,082	0,007
-421,759	155,983	-0,042	0,042
-420,744	-200,000	-0,017	-0,102
-419,730	-200,000	-0,005	-0,036
-418,715	-112,775	-0,061	0,009
-417,701	27,620	-0,030	0,018
-416,686	-133,949	-0,031	-0,003
-415,671	184,625	0,054	0,058
-414,657	707,669	-0,038	0,072
-413,642	238,099	0,060	0,072
-412,628	50,972	0,041	-0,028
-411,613	277,349	-0,037	-0,048
-410,598	106,697	-0,025	0,022
-409,584	-74,657	0,092	0,024
-408,569	21,621	0,047	-0,028
-407,555	-200,000	-0,001	0,106
-406,540	800,000	0,060	0,140
-405,525	800,000	0,055	-0,130
-404,511	-200,000	-0,012	-0,211
-403,496	-200,000	-0,013	-0,086
-402,482	20,577	0,035	-0,020
-401,467	614,182	0,024	0,043
-400,452	-2,975	0,072	0,036
-399,438	347,102	0,059	-0,084
-398,423	800,000	0,030	-0,079
-397,409	-200,000	-0,005	-0,118
-396,394	130,371	-0,068	0,064
-395,379	-200,000	0,019	-0,085
-394,365	622,466	0,106	0,194
-393,350	-200,000	0,018	-0,072
-392,336	197,287	-0,025	-0,028
-391,321	-72,368	-0,150	-0,040
-390,306	117,833	0,093	-0,084
-389,292	-200,000	-0,010	-0,047
-388,277	86,567	-0,045	-0,036
-387,263	-200,000	-0,008	0,029
-386,248	-200,000	-0,002	0,038
-385,233	800,000	-0,035	0,071
-384,219	800,000	-0,075	0,152
-383,204	-57,186	0,068	0,021
-382,190	79,925	0,070	0,055
-381,175	357,491	0,003	0,005
-380,160	-200,000	0,007	-0,058
-379,146	-133,866	0,204	0,018
-378,131	15,561	0,024	0,013
-377,117	800,000	0,052	-0,111
-376,102	-200,000	0,036	-0,217
-375,088	-200,000	-0,013	-0,083
-374,073	800,000	-0,022	0,061
-373,058	57,381	-0,018	-0,013
-372,044	800,000	0,038	-0,111
-371,029	581,454	0,035	0,063
-370,015	-200,000	0,016	-0,064
-369,000	439,538	-0,064	0,102
-367,985	186,532	-0,044	0,047
-366,971	574,727	0,028	-0,049
-365,956	-55,120	-0,038	-0,012
-364,942	-200,000	0,018	0,102
-363,927	800,000	0,080	0,174
-362,912	800,000	0,072	-0,163
-361,898	-200,000	-0,007	-0,073
-360,883	98,777	-0,118	-0,098
-359,869	259,554	0,058	-0,073
-358,854	270,736	-0,059	0,075
-357,839	-115,834	0,145	-0,019
-356,825	800,000	0,040	0,099
-355,810	800,000	-0,028	0,081
-354,796	-12,012	-0,111	0,053
-353,781	-133,036	-0,087	-0,008
-352,766	211,286	-0,101	0,116
-351,752	-200,000	-0,011	-0,048
-350,737	795,333	0,052	-0,104
-349,723	723,389	0,026	0,051
-348,708	24,219	0,038	-0,023
-347,693	-111,778	-0,059	0,008
-346,679	100,488	-0,079	0,066
-345,664	655,225	-0,099	-0,184
-344,650	250,875	0,058	-0,071
-343,635	131,409	-0,082	0,076
-342,620	-66,288	0,071	-0,020
-341,606	35,304	0,095	0,061
-340,591	-121,256	-0,112	0,013
-339,577	136,727	0,112	-0,106
-338,562	-200,000	0,020	0,091
-337,548	800,000	0,028	0,064
-336,533	23,324	0,119	0,070
-335,518	-200,000	0,030	0,202
-334,504	223,341	-0,041	0,048
-333,489	36,192	0,122	-0,078
-332,475	180,555	0,056	-0,059
-331,460	250,457	-0,072	-0,089
-330,445	418,087	0,070	-0,109
-329,431	-200,000	-0,031	-0,207
-328,416	378,456	-0,048	0,072
-327,402	131,527	-0,022	0,021
-326,387	-101,687	0,082	-0,014
-325,372	79,786	0,105	0,081
-324,358	69,498	-0,071	-0,053
-323,343	643,033	0,058	0,108
-322,329	104,569	0,061	-0,052
-321,314	100,575	0,125	-0,105
-320,299	407,495	0,027	-0,042
-319,285	-164,135	0,022	0,001
-318,270	-57,012	-0,127	-0,040
-317,256	-200,000	0,037	-0,139
-316,241	-29,667	-0,078	-0,032
-315,226	26,284	0,043	-0,026
-314,212	800,000	-0,044	0,124
-313,197	-127,896	0,007	0,001
-312,183	-93,512	0,019	-0,004
-311,168	212,037	-0,061	0,069
-310,153	597,768	0,007	0,013
-309,139	91,043	0,109	-0,088
-308,124	48,608	0,077	0,052
-307,110	-200,000	-0,001	0,019
-306,095	-77,017	0,133	0,033
-305,080	166,941	-0,063	0,064
-304,066	-200,000	-0,002	0,084
-303,051	132,952	0,108	-0,101
-302,037	337,170	-0,128	-0,180
-301,022	412,901	-0,017	-0,026
-300,008	-128,106	0,109	0,011
-298,993	10,157	0,082	0,045
-297,978	3,879	0,088	0,047
-296,964	-200,000	0,004	0,041
-295,949	-167,317	-0,262	-0,007
-294,935	273,807	-0,053	0,068
-293,920	-200,000	0,017	-0,056
-292,905	320,349	-0,050	0,068
-291,891	-200,000	0,015	0,159
-290,876	-106,015	-0,107	-0,017
-289,862	-127,957	-0,035	0,004
-288,847	800,000	-0,052	-0,144
-287,832	634,132	-0,065	0,120
-286,818	1,867	-0,139	0,072
-285,803	-200,000	0,006	-0,070
-284,789	-200,000	-0,016	-0,079
-283,774	-10,682	-0,038	0,018
-282,759	304,910	-0,014	0,018
-281,745	-124,806	-0,104	0,012
-280,730	485,029	-0,024	-0,039
-279,716	-200,000	0,018	-0,123
-278,701	559,041	-0,039	0,068
-277,686	-200,000	-0,004	0,033
-276,672	410,282	0,048	0,073
-275,657	-13,688	0,052	-0,024
-274,643	51,679	-0,112	-0,077
-273,628	-126,369	0,088	-0,009
-272,613	96,875	-0,113	0,093
-271,599	800,000	0,009	-0,025
-270,584	-48,633	0,102	0,035
-269,570	399,547	0,014	0,022
-268,555	-136,425	-0,102	-0,008
-267,540	-200,000	0,009	-0,066
-266,526	22,472	-0,160	-0,094
-265,511	541,513	0,039	-0,068
-264,497	-200,000	0,001	0,015
-263,482	-170,816	0,092	0,002
-262,467	-200,000	0,014	0,049
-261,453	-106,821	-0,078	-0,012
-260,438	-157,063	0,071	0,003
-259,424	800,000	-0,019	0,053
-258,409	-64,862	-0,064	0,019
-257,395	-200,000	-0,014	-0,059
-256,380	51,376	-0,059	-0,041
-255,365	-65,666	0,035	-0,010
-254,351	63,855	0,046	0,033
-253,336	800,000	0,100	-0,221
-252,322	188,436	-0,100	0,108
-251,307	-33,208	-0,034	-0,013
-250,292	-200,000	0,014	0,105
-249,278	-96,952	-0,118	0,022
-248,263	-115,557	-0,089	-0,012
-247,249	-200,000	-0,007	0,033
-246,234	800,000	-0,077	0,166
-245,219	-81,545	-0,145	0,034
-244,205	-73,767	0,167	-0,043
-243,190	369,908	-0,045	0,067
-242,176	111,980	0,067	0,058
-241,161	-53,639	0,151	-0,049
-240,146	-200,000	0,003	0,014
-239,132	800,000	0,017	0,042
-238,117	-200,000	-0,039	0,130
-237,103	-101,659	0,011	-0,002
-236,088	-200,000	-0,004	-0,017
-235,073	624,082	0,049	-0,090
-234,059	58,383	-0,079	-0,056
-233,044	50,636	0,094	0,064
-232,030	99,904	-0,046	-0,038
-231,015	-183,400	-0,207	-0,003
-230,000	55,928	0,051	0,036
-228,986	-17,567	-0,062	-0,028
-227,971	23,840	0,057	-0,034
-226,957	103,295	-0,057	0,048
-225,942	-64,387	0,070	0,020
-224,927	-20,882	-0,155	0,068
-223,913	-157,553	0,086	0,004
-222,898	-148,982	0,081	0,005
-221,884	250,403	-0,088	0,108
-220,869	-101,195	-0,013	-0,002
-219,855	129,822	0,030	0,028
-218,840	-200,000	-0,016	0,141
-217,825	800,000	-0,013	-0,034
-216,811	800,000	0,038	-0,105
-215,796	114,317	0,028	0,024
-214,782	-122,167	-0,078	-0,009
-213,767	-184,803	0,102	0,001
-212,752	-7,138	-0,091	0,044
-211,738	374,357	0,092	0,135
-210,723	-64,757	-0,114	-0,033
-209,709	-84,068	0,176	0,040
-208,694	245,181	-0,058	0,071
-207,679	184,986	0,071	-0,076
-206,665	800,000	0,044	-0,118
-205,650	-1,991	0,056	0,028
-204,636	-72,173	0,130	0,034
-203,621	-200,000	-0,004	-0,028
-202,606	445,844	0,062	-0,098
-201,592	-200,000	0,015	0,145
-200,577	800,000	-0,050	0,126
-199,563	13,464	-0,063	0,035
-198,548	-37,008	0,180	0,069
-197,533	-200,000	0,006	-0,024
-196,519	-57,105	0,053	-0,017
-195,504	-113,709	0,078	0,011
-194,490	-63,269	0,066	-0,020
-193,475	9,549	-0,163	-0,089
-192,460	565,020	0,080	0,140
-191,446	800,000	0,032	0,082
-190,431	-102,327	0,053	0,009
-189,417	-120,582	0,052	-0,006
-188,402	660,937	0,076	-0,142
-187,387	-200,000	-0,009	-0,102
-186,373	800,000	-0,025	-0,063
-185,358	421,320	0,052	0,081
-184,344	25,960	0,073	-0,044
-183,329	-200,000	0,032	-0,109
-182,315	153,025	-0,073	0,072
-181,300	173,561	-0,062	-0,064
-180,285	-200,000	0,005	-0,039
-179,271	29,324	-0,091	-0,055
-178,256	81,349	0,042	0,032
-177,242	-200,000	0,014	0,056
-176,227	208,371	0,063	0,071
-175,212	-78,947	0,022	-0,005
-174,198	9,159	0,117	0,064
-173,183	-62,314	-0,059	0,017
-172,169	-81,613	0,080	-0,019
-171,154	-200,000	0,009	0,072
-170,139	-190,392	0,133	-0,001
-169,125	188,719	0,075	0,081
-168,110	537,281	0,022	0,037
-167,096	-88,197	-0,103	-0,022
-166,081	242,630	-0,090	0,109
-165,066	298,919	-0,024	-0,031
-164,052	-104,442	0,114	-0,019
-163,037	20,725	-0,104	-0,060
-162,023	277,465	0,066	0,085
-161,008	-200,000	-0,029	-0,118
-159,993	169,369	0,077	-0,080
-158,979	285,934	-0,080	-0,104
-157,964	60,049	-0,032	-0,023
-156,950	234,472	-0,040	-0,048
-155,935	-116,758	0,115	-0,015
-154,920	-200,000	-0,005	-0,158
-153,906	-200,000	-0,018	0,106
-152,891	235,324	-0,059	0,070
-151,877	53,868	-0,193	0,133
-150,862	90,982	0,087	-0,070
-149,847	222,151	-0,060	-0,070
-148,833	-93,512	0,024	0,005
-147,818	304,550	0,058	0,078
-146,804	109,287	0,025	-0,022
-145,789	-166,710	-0,124	-0,004
-144,775	-200,000	0,006	-0,193
-143,760	-132,321	-0,038	-0,003
-142,745	-200,000	-0,032	0,109
-141,731	451,572	-0,061	0,097
-140,716	-200,000	-0,035	0,114
-139,702	228,871	0,098	0,115
-138,687	-55,712	-0,069	-0,022
-137,672	-91,809	0,043	0,009
-136,658	-157,364	-0,039	-0,002
-135,643	-130,255	-0,120	0,012
-134,629	-200,000	0,034	-0,120
-133,614	189,692	-0,055	0,059
-132,599	16,817	-0,045	-0,026
-131,585	800,000	0,033	0,078
-130,570	527,067	-0,072	0,123
-129,556	-91,344	-0,020	0,004
-128,541	-200,000	-0,015	0,056
-127,526	-89,195	-0,091	0,019
-126,512	800,000	0,010	0,027
-125,497	800,000	0,031	0,078
-124,483	173,380	-0,026	0,027
-123,468	800,000	-0,039	-0,083
-122,453	-200,000	-0,119	0,000
-121,439	-164,592	-0,062	-0,002
-120,424	-200,000	-0,025	-0,121
-119,410	-200,000	0,016	0,090
