DTS Sentinel unit serial number:	SN410029Multiplexer serial number:	ORYXHardware model number:	OX2-SRSoftware version number:	ORYX F/W v4,00 Oryx Data Collector v3.7.2.0data status	okinstallation	B6 Nyhavnadifferential loss correction	single-endedforward channel	channel 2reverse channel	N/Adate	2023/12/09time	03:20:08forward acquisition time	300,00reverse acquisition time	0,00gamma	499,1914k internal	0,3153k external	0,3153temperature offset calibration	1,0000default loss term (dB/km)	0,3820temperature slope calibration	1,0000multiplexer offset coefficient	1,0000multiplexer slope coefficient	1,0000fibre end	0,00T internal ref (°C)	16,27T ext. ref 1 (°C)	0,26T ext. ref 2 (°C)	0,25length (m)	temperature (°C)	Stokes	anti-Stokes-744,400	-151,125	0,043	0,002
-743,385	-136,523	-0,327	0,028
-742,371	189,534	0,059	0,066
-741,356	-5,926	-0,142	-0,071
-740,342	-116,969	0,141	0,019
-739,327	-116,351	-0,346	0,047
-738,312	-146,728	0,145	-0,009
-737,298	-179,135	-0,333	0,005
-736,283	-200,000	-0,005	0,052
-735,269	-35,483	-0,160	-0,064
-734,254	-79,992	0,037	-0,009
-733,239	-59,028	-0,575	-0,182
-732,225	-80,708	0,232	0,057
-731,210	-200,000	0,008	0,119
-730,196	380,637	-0,069	-0,104
-729,181	321,611	-0,078	-0,110
-728,167	339,632	0,028	-0,040
-727,152	-200,000	-0,021	-0,132
-726,137	271,461	-0,061	-0,080
-725,123	113,310	-0,026	-0,023
-724,108	280,236	-0,077	-0,102
-723,094	800,000	0,041	-0,110
-722,079	64,092	0,043	0,032
-721,064	41,995	-0,104	-0,069
-720,050	-172,136	0,134	0,003
-719,035	11,151	-0,051	0,029
-718,021	-7,035	-0,071	-0,036
-717,006	187,518	-0,066	-0,073
-715,991	519,383	-0,117	-0,203
-714,977	-200,000	0,020	0,090
-713,962	38,626	-0,100	-0,066
-712,948	-85,994	-0,118	-0,027
-711,933	661,742	0,039	-0,074
-710,918	-146,701	-0,148	-0,009
-709,904	800,000	-0,053	-0,114
-708,889	-200,000	-0,007	-0,032
-707,875	277,163	-0,096	-0,126
-706,860	-102,028	0,022	-0,004
-705,845	-200,000	-0,018	-0,236
-704,831	800,000	0,072	0,214
-703,816	645,210	0,004	-0,008
-702,802	-66,832	-0,218	0,063
-701,787	-200,000	0,021	-0,101
-700,772	123,069	0,004	-0,004
-699,758	-101,650	-0,129	-0,023
-698,743	1,832	0,067	0,036
-697,729	-200,000	0,006	0,053
-696,714	-200,000	0,018	0,103
-695,699	142,720	-0,068	0,067
-694,685	-200,000	0,036	-0,141
-693,670	125,297	0,039	0,036
-692,656	-200,000	0,011	0,041
-691,641	-36,938	0,146	0,058
-690,627	-200,000	-0,010	0,138
-689,612	650,169	-0,037	0,071
-688,597	-200,000	-0,003	-0,016
-687,583	-4,697	-0,063	-0,032
-686,568	257,781	-0,045	0,057
-685,554	200,131	-0,104	-0,118
-684,539	-200,000	-0,012	0,083
-683,524	-200,000	0,026	0,100
-682,510	27,362	-0,166	0,103
-681,495	-200,000	-0,009	-0,067
-680,481	-200,000	0,005	-0,064
-679,466	-4,269	0,083	0,042
-678,451	265,606	-0,068	-0,088
-677,437	22,505	0,134	-0,081
-676,422	61,080	0,099	0,073
-675,408	-200,000	-0,022	0,110
-674,393	325,448	-0,042	-0,059
-673,378	-200,000	-0,005	-0,104
-672,364	-2,585	0,092	-0,047
-671,349	-200,000	0,013	-0,109
-670,335	-200,000	-0,040	-0,146
-669,320	800,000	0,036	0,084
-668,305	-200,000	-0,022	0,112
-667,291	-100,513	-0,090	-0,016
-666,276	758,208	0,063	-0,127
-665,262	800,000	-0,061	-0,179
-664,247	-80,363	-0,143	0,035
-663,232	800,000	0,052	0,110
-662,218	-200,000	-0,021	-0,100
-661,203	723,976	-0,022	-0,043
-660,189	192,213	-0,086	-0,095
-659,174	-86,884	-0,091	-0,020
-658,159	-90,598	0,093	-0,020
-657,145	178,077	0,087	0,094
-656,130	204,176	-0,082	0,093
-655,116	-26,324	0,020	0,009
-654,101	-200,000	0,022	0,218
-653,086	43,263	-0,056	0,037
-652,072	800,000	0,026	-0,075
-651,057	126,190	0,057	0,053
-650,043	746,930	-0,059	0,117
-649,028	-200,000	0,006	-0,056
-648,014	-200,000	0,032	-0,106
-646,999	-166,095	0,124	-0,004
-645,984	280,047	-0,009	0,012
-644,970	-200,000	-0,015	0,131
-643,955	-21,997	-0,042	-0,019
-642,941	9,242	-0,038	0,021
-641,926	800,000	0,036	-0,098
-640,911	509,928	0,057	-0,098
-639,897	-200,000	0,060	-0,217
-638,882	138,550	0,016	-0,016
-637,868	52,330	-0,071	0,050
-636,853	142,791	-0,133	-0,130
-635,838	148,340	-0,070	-0,070
-634,824	-200,000	-0,005	-0,080
-633,809	-7,165	-0,072	-0,036
-632,795	-91,872	0,072	-0,015
-631,780	61,110	-0,104	-0,076
-630,765	800,000	0,006	0,014
-629,751	526,569	-0,076	-0,132
-628,736	572,818	0,102	-0,184
-627,722	122,328	-0,058	-0,053
-626,707	-29,644	0,027	-0,011
-625,692	-158,452	-0,065	-0,003
-624,678	-200,000	0,004	0,130
-623,663	-145,726	0,042	-0,003
-622,649	165,118	0,044	-0,046
-621,634	286,560	-0,021	-0,029
-620,619	-0,249	0,023	-0,012
-619,605	800,000	0,021	-0,066
-618,590	-200,000	-0,006	0,062
-617,576	8,971	0,184	0,102
-616,561	-109,183	-0,118	-0,018
-615,546	-139,954	-0,118	-0,009
-614,532	800,000	0,042	0,092
-613,517	693,501	-0,040	0,077
-612,503	29,906	0,043	0,027
-611,488	-200,000	0,018	-0,123
-610,474	-200,000	0,030	-0,131
-609,459	-106,963	-0,098	0,016
-608,444	-23,390	-0,084	-0,037
-607,430	800,000	0,044	0,111
-606,415	-200,000	0,023	-0,096
-605,401	182,637	0,024	0,026
-604,386	798,765	-0,049	-0,099
-603,371	35,478	0,045	0,029
-602,357	-119,267	-0,071	-0,009
-601,342	-85,653	0,025	-0,006
-600,328	800,000	0,027	-0,086
-599,313	-200,000	0,020	-0,080
-598,298	-200,000	-0,008	0,063
-597,284	-200,000	-0,025	0,080
-596,269	349,258	0,130	0,190
-595,255	-57,479	0,086	-0,028
-594,240	129,835	-0,098	-0,092
-593,225	-1,203	-0,098	-0,051
-592,211	-200,000	0,042	-0,145
-591,196	-200,000	-0,009	-0,067
-590,182	-200,000	0,001	0,058
-589,167	526,154	0,037	0,064
-588,152	146,821	0,071	0,070
-587,138	-123,081	0,095	0,011
-586,123	800,000	-0,057	-0,167
-585,109	10,735	-0,044	-0,025
-584,094	-200,000	-0,016	-0,057
-583,079	-200,000	0,010	0,085
-582,065	-83,482	0,097	0,023
-581,050	52,328	-0,013	0,009
-580,036	384,576	-0,024	-0,037
-579,021	-11,673	0,056	-0,027
-578,006	227,461	0,064	0,076
-576,992	-101,831	-0,071	-0,013
-575,977	-135,101	0,121	0,011
-574,963	20,259	-0,047	0,028
-573,948	-95,968	-0,045	0,009
-572,934	159,249	0,073	-0,075
-571,919	-191,845	-0,065	-0,000
-570,904	-38,416	-0,074	-0,029
-569,890	-200,000	0,024	-0,111
-568,875	-50,122	0,051	0,017
-567,861	800,000	-0,016	0,049
-566,846	800,000	-0,045	-0,120
-565,831	43,088	0,056	0,037
-564,817	191,797	-0,057	-0,064
-563,802	-151,703	-0,075	0,004
-562,788	800,000	0,077	0,157
-561,773	800,000	-0,019	-0,052
-560,758	19,173	0,102	-0,060
-559,744	274,454	0,009	0,011
-558,729	-200,000	-0,020	-0,110
-557,715	703,133	-0,048	-0,093
-556,700	-7,292	-0,079	0,039
-555,685	800,000	0,028	-0,059
-554,671	-200,000	0,003	0,029
-553,656	-33,522	-0,086	0,035
-552,642	-200,000	0,052	0,193
-551,627	800,000	-0,041	0,123
-550,612	-200,000	-0,009	0,072
-549,598	800,000	-0,020	0,042
-548,583	-13,141	-0,129	-0,061
-547,569	800,000	0,069	-0,162
-546,554	-56,405	0,083	0,027
-545,539	-112,100	-0,080	0,012
-544,525	732,939	0,024	0,047
-543,510	51,560	-0,154	0,107
-542,496	166,194	0,023	-0,024
-541,481	-156,750	-0,156	-0,007
-540,466	800,000	0,015	0,049
-539,452	764,174	0,076	0,152
-538,437	800,000	-0,016	0,040
-537,423	13,462	0,031	0,018
-536,408	14,508	-0,023	-0,013
-535,393	139,074	-0,044	0,042
-534,379	755,134	0,023	-0,046
-533,364	-200,000	0,011	-0,053
-532,350	-4,345	-0,044	-0,022
-531,335	264,531	0,098	0,125
-530,321	800,000	-0,077	0,165
-529,306	135,402	-0,054	-0,051
-528,291	-22,500	-0,108	-0,047
-527,277	-200,000	-0,018	-0,074
-526,262	128,330	-0,079	-0,073
-525,248	361,920	-0,067	-0,098
-524,233	-200,000	0,007	-0,025
-523,218	308,339	0,050	-0,069
-522,204	76,557	0,075	-0,058
-521,189	-200,000	0,018	-0,115
-520,175	258,259	-0,020	0,026
-519,160	800,000	-0,040	-0,083
-518,145	-168,202	-0,049	0,001
-517,131	83,397	0,049	0,039
-516,116	-15,847	0,062	0,029
-515,102	431,710	-0,061	-0,096
-514,087	800,000	-0,018	-0,051
-513,072	-200,000	0,013	-0,217
-512,058	-200,000	0,009	-0,115
-511,043	-23,312	-0,120	0,053
-510,029	-200,000	0,032	0,112
-509,014	259,079	-0,079	-0,100
-507,999	74,600	0,096	-0,074
-506,985	-145,143	-0,051	-0,003
-505,970	85,452	-0,073	-0,059
-504,956	-171,536	0,092	-0,002
-503,941	-145,888	0,094	0,006
-502,926	346,831	-0,040	-0,057
-501,912	-61,010	0,048	-0,015
-500,897	-93,579	0,109	0,022
-499,883	-200,000	-0,041	-0,134
-498,868	471,058	0,035	-0,058
-497,853	136,593	0,057	-0,055
-496,839	11,248	0,125	0,070
-495,824	-47,894	-0,056	-0,020
-494,810	800,000	0,017	-0,053
-493,795	-112,381	-0,092	0,013
-492,781	553,644	0,028	0,050
-491,766	-7,247	-0,144	0,071
-490,751	260,506	-0,047	0,060
-489,737	800,000	-0,006	0,018
-488,722	101,333	-0,069	0,059
-487,708	-68,853	0,068	0,019
-486,693	576,485	-0,071	0,128
-485,678	-97,149	0,040	-0,007
-484,664	615,907	-0,059	-0,109
-483,649	313,754	0,061	-0,083
-482,635	331,145	-0,109	0,154
-481,620	62,698	0,077	-0,056
-480,605	-200,000	-0,005	0,127
-479,591	-200,000	0,006	0,098
-478,576	-200,000	0,020	-0,085
-477,562	-65,244	0,018	-0,005
-476,547	184,706	-0,040	0,043
-475,532	-117,727	-0,166	-0,022
-474,518	-43,277	0,102	-0,037
-473,503	-34,787	0,040	0,016
-472,489	65,419	0,051	0,037
-471,474	-200,000	0,009	-0,089
-470,459	-200,000	-0,006	0,057
-469,445	-200,000	-0,021	-0,083
-468,430	174,014	0,013	-0,014
-467,416	800,000	0,022	0,053
-466,401	309,952	0,119	0,163
-465,386	-30,216	0,077	-0,032
-464,372	59,851	0,081	0,059
-463,357	34,313	-0,033	-0,021
-462,343	800,000	-0,039	-0,095
-461,328	-130,082	0,049	-0,005
-460,313	78,913	-0,114	0,089
-459,299	-5,411	0,132	0,066
-458,284	173,867	-0,112	0,118
-457,270	-200,000	-0,002	-0,064
-456,255	282,120	0,032	-0,042
-455,241	24,992	-0,090	-0,054
-454,226	170,604	0,030	-0,031
-453,211	800,000	-0,060	-0,139
-452,197	719,453	-0,017	-0,034
-451,182	547,126	-0,055	0,096
-450,168	16,207	0,031	0,018
-449,153	800,000	-0,052	0,115
-448,138	630,030	0,050	-0,093
-447,124	-40,993	0,037	0,014
-446,109	19,039	-0,062	-0,036
-445,095	-200,000	0,018	0,083
-444,080	-200,000	0,001	-0,030
-443,065	61,006	-0,108	0,078
-442,051	-124,914	-0,052	0,006
-441,036	160,410	-0,055	-0,056
-440,022	-95,448	-0,058	-0,011
-439,007	-112,105	0,174	-0,025
-437,992	-155,690	0,018	0,001
-436,978	6,641	-0,033	-0,018
-435,963	800,000	-0,051	0,109
-434,949	-200,000	-0,046	-0,158
-433,934	359,469	0,084	-0,123
-432,919	-115,902	-0,131	-0,018
-431,905	502,467	-0,026	-0,044
-430,890	-157,441	-0,047	0,002
-429,876	503,345	-0,058	0,097
-428,861	800,000	-0,005	-0,012
-427,846	-111,481	0,009	0,001
-426,832	-7,405	0,074	0,036
-425,817	115,563	0,074	-0,066
-424,803	-23,980	-0,106	-0,046
-423,788	-200,000	-0,008	0,083
-422,773	-105,736	-0,036	-0,006
-421,759	472,961	0,035	-0,058
-420,744	-31,734	-0,146	0,059
-419,730	800,000	-0,023	0,055
-418,715	-200,000	0,029	0,103
-417,701	800,000	0,036	-0,091
-416,686	152,035	0,126	-0,125
-415,671	-52,927	0,018	0,006
-414,657	309,135	0,096	0,131
-413,642	722,200	-0,034	-0,066
-412,628	38,078	-0,130	-0,084
-411,613	-200,000	0,000	-0,168
-410,598	-200,000	0,003	-0,070
-409,584	800,000	0,060	-0,140
-408,569	96,620	-0,031	0,026
-407,555	-200,000	-0,022	0,079
-406,540	-118,248	0,010	-0,001
-405,525	129,405	-0,095	0,089
-404,511	-200,000	0,048	-0,166
-403,496	800,000	0,022	0,051
-402,482	226,383	0,034	0,041
-401,467	-200,000	0,025	-0,140
-400,452	168,664	-0,055	0,057
-399,438	-3,767	0,069	0,035
-398,423	77,803	-0,044	0,034
-397,409	800,000	0,026	-0,076
-396,394	-200,000	-0,031	-0,109
-395,379	315,609	-0,025	0,035
-394,365	55,453	0,151	0,106
-393,350	15,681	-0,054	-0,031
-392,336	-63,327	0,149	-0,045
-391,321	2,725	-0,097	-0,051
-390,306	-38,498	-0,102	-0,039
-389,292	-90,403	-0,031	-0,006
-388,277	-3,501	0,060	-0,030
-387,263	-200,000	0,010	0,101
-386,248	115,734	0,087	0,078
-385,233	-37,022	0,021	0,008
-384,219	246,202	-0,058	-0,072
-383,204	-108,045	-0,062	0,010
-382,190	59,643	0,032	-0,023
-381,175	230,029	-0,037	-0,044
-380,160	-200,000	-0,003	-0,075
-379,146	-12,228	0,052	0,025
-378,131	-200,000	-0,012	-0,045
-377,117	-26,554	0,101	-0,043
-376,102	-200,000	-0,022	0,136
-375,088	157,645	0,044	0,044
-374,073	-84,117	0,140	-0,032
-373,058	137,250	0,075	-0,071
-372,044	501,230	-0,083	0,140
-371,029	76,214	0,142	-0,109
-370,015	-76,303	0,116	-0,030
-369,000	800,000	0,046	-0,111
-367,985	800,000	-0,047	-0,107
-366,971	-35,719	-0,086	-0,034
-365,956	800,000	-0,013	-0,039
-364,942	-34,611	0,135	0,053
-363,927	-0,533	-0,036	-0,019
-362,912	13,904	0,085	-0,048
-361,898	-147,510	0,069	0,004
-360,883	800,000	-0,023	-0,056
-359,869	-200,000	-0,045	0,000
-358,854	192,223	-0,048	-0,052
-357,839	417,254	-0,067	-0,104
-356,825	-200,000	0,020	0,078
-355,810	-69,232	0,153	-0,043
-354,796	352,168	-0,088	-0,127
-353,781	-200,000	0,034	-0,130
-352,766	403,922	-0,082	-0,126
-351,752	-112,412	0,121	0,017
-350,737	-200,000	-0,003	0,014
-349,723	-73,802	0,040	0,011
-348,708	-55,403	-0,116	0,037
-347,693	542,032	0,079	-0,138
-346,679	-200,000	-0,004	-0,166
-345,664	-97,738	0,074	-0,014
-344,650	-200,000	-0,010	-0,092
-343,635	-30,793	0,050	-0,020
-342,620	-95,470	0,036	0,007
-341,606	104,760	0,109	0,093
-340,591	461,363	0,027	-0,044
-339,577	-200,000	-0,032	0,129
-338,562	-22,084	-0,102	-0,045
-337,548	-25,419	0,142	-0,061
-336,533	-114,043	-0,053	-0,007
-335,518	-122,164	-0,123	0,014
-334,504	800,000	-0,047	0,106
-333,489	470,176	-0,062	0,102
-332,475	800,000	-0,027	0,064
-331,460	-17,135	-0,009	0,004
-330,445	-167,233	0,091	-0,003
-329,431	132,986	0,033	0,031
-328,416	362,401	-0,048	0,070
-327,402	-200,000	0,012	0,078
-326,387	431,507	0,031	0,049
-325,372	-44,082	-0,138	-0,050
-324,358	42,151	-0,056	-0,037
-323,343	486,444	-0,006	-0,011
-322,329	773,456	0,006	-0,012
-321,314	800,000	0,022	-0,068
-320,299	800,000	-0,027	0,067
-319,285	-11,675	0,089	0,042
-318,270	325,589	0,062	-0,087
-317,256	-200,000	-0,039	0,176
-316,241	182,781	0,059	0,063
-315,226	800,000	0,045	0,105
-314,212	76,485	0,090	0,070
-313,197	-200,000	0,011	0,140
-312,183	644,070	-0,077	0,143
-311,168	-200,000	-0,003	-0,063
-310,153	-27,772	-0,176	-0,074
-309,139	381,936	0,044	0,066
-308,124	723,684	-0,036	-0,070
-307,110	128,097	0,090	0,083
-306,095	-171,485	0,118	0,003
-305,080	-93,534	0,100	0,020
-304,066	-200,000	0,004	-0,017
-303,051	234,970	-0,134	-0,161
-302,037	-200,000	-0,020	-0,154
-301,022	170,680	-0,024	0,025
-300,008	800,000	0,052	0,118
-298,993	-200,000	0,028	0,208
-297,978	-200,000	0,003	0,171
-296,964	161,367	-0,034	0,035
-295,949	-20,806	-0,001	0,000
-294,935	-59,282	-0,117	-0,036
-293,920	106,972	0,088	0,076
-292,905	-200,000	0,001	0,013
-291,891	262,491	0,107	0,135
-290,876	-200,000	0,023	0,081
-289,862	2,980	-0,096	0,051
-288,847	-200,000	-0,016	-0,061
-287,832	-200,000	0,028	-0,179
-286,818	-200,000	-0,002	-0,061
-285,803	130,149	0,040	-0,037
-284,789	35,114	-0,089	0,056
-283,774	-200,000	-0,042	0,202
-282,759	800,000	0,020	-0,058
-281,745	-112,223	-0,050	-0,007
-280,730	-200,000	-0,001	0,005
-279,716	-200,000	0,015	-0,158
-278,701	800,000	0,029	0,078
-277,686	175,918	-0,013	-0,014
-276,672	4,574	0,132	-0,070
-275,657	132,066	-0,054	0,050
-274,643	-39,602	0,057	0,021
-273,628	-58,755	-0,091	0,028
-272,613	-200,000	0,032	0,134
-271,599	-122,288	0,112	0,013
-270,584	-41,590	0,078	-0,029
-269,570	328,862	0,089	0,124
-268,555	-200,000	0,013	0,057
-267,540	-48,166	0,077	-0,027
-266,526	-67,517	-0,073	0,020
-265,511	132,360	-0,042	0,040
-264,497	-97,563	-0,050	0,009
-263,482	279,482	0,065	0,085
-262,467	177,462	-0,072	0,076
-261,453	-119,640	0,145	0,018
-260,438	-200,000	-0,003	-0,095
-259,424	99,387	0,089	-0,075
-258,409	165,460	-0,046	-0,047
-257,395	800,000	-0,028	-0,076
-256,380	232,367	0,081	-0,096
-255,365	136,202	-0,041	0,038
-254,351	379,907	-0,038	-0,056
-253,336	51,181	0,073	-0,050
-252,322	51,765	0,146	0,100
-251,307	800,000	0,033	-0,089
-250,292	-200,000	0,031	-0,121
-249,278	-96,352	0,028	0,005
-248,263	19,193	-0,035	0,020
-247,249	541,121	0,036	0,063
-246,234	-200,000	0,018	-0,092
-245,219	-100,037	-0,181	-0,032
-244,205	116,420	0,059	-0,052
-243,190	626,122	0,011	0,020
-242,176	800,000	0,015	0,035
-241,161	-22,705	-0,084	0,036
-240,146	-76,872	-0,118	-0,030
-239,132	235,759	0,102	0,122
-238,117	-200,000	-0,008	0,051
-237,103	20,024	-0,063	-0,037
-236,088	-67,909	-0,116	-0,032
-235,073	525,108	0,066	0,113
-234,059	-200,000	0,053	0,215
-233,044	23,954	-0,046	0,028
-232,030	-71,044	-0,104	0,028
-231,015	97,517	-0,096	0,080
-230,000	-11,312	-0,052	0,025
-228,986	176,228	0,029	-0,030
-227,971	474,194	-0,038	0,062
-226,957	-200,000	-0,051	0,177
-225,942	198,681	0,077	0,085
-224,927	800,000	-0,017	0,052
-223,913	89,523	0,054	0,044
-222,898	800,000	0,046	-0,145
-221,884	215,307	-0,051	0,058
-220,869	536,135	0,083	0,143
-219,855	80,996	0,042	-0,033
-218,840	151,930	-0,078	-0,077
-217,825	800,000	0,022	0,046
-216,811	-106,859	0,105	0,017
-215,796	40,875	-0,041	0,027
-214,782	222,313	-0,133	0,155
-213,767	-200,000	0,029	0,103
-212,752	291,031	0,042	0,056
-211,738	800,000	0,054	0,151
-210,723	-54,937	-0,121	0,039
-209,709	351,380	-0,073	-0,104
-208,694	-200,000	-0,039	0,125
-207,679	67,024	-0,108	0,079
-206,665	-93,253	0,074	0,015
-205,650	-57,042	0,097	0,031
-204,636	-126,931	0,142	-0,015
-203,621	-200,000	-0,025	-0,080
-202,606	-200,000	-0,004	0,046
-201,592	292,532	0,022	0,030
-200,577	-12,334	-0,084	-0,039
-199,563	-200,000	-0,009	-0,035
-198,548	-200,000	0,003	-0,075
-197,533	-200,000	0,030	0,118
-196,519	546,091	0,058	0,100
-195,504	-40,802	-0,087	-0,032
-194,490	-200,000	0,001	0,031
-193,475	-97,148	-0,108	0,020
-192,460	800,000	-0,072	0,171
-191,446	248,550	-0,011	0,013
-190,431	800,000	0,018	0,048
-189,417	769,606	-0,051	-0,102
-188,402	44,049	0,034	0,023
-187,387	474,067	-0,031	0,050
-186,373	-191,585	-0,203	-0,001
-185,358	-34,211	0,109	0,043
-184,344	-77,675	0,152	-0,038
-183,329	-11,975	-0,058	0,027
-182,315	-50,887	-0,180	-0,061
-181,300	206,785	0,068	0,076
-180,285	-200,000	-0,017	-0,195
-179,271	-200,000	-0,001	-0,047
-178,256	60,542	0,078	-0,056
-177,242	-84,073	-0,049	0,011
-176,227	-200,000	-0,007	-0,049
-175,212	84,054	0,123	-0,097
-174,198	103,156	0,127	-0,108
-173,183	-200,000	-0,003	-0,034
-172,169	521,768	-0,037	0,062
-171,154	-123,503	-0,121	0,014
-170,139	679,724	-0,049	0,092
-169,125	634,443	0,023	0,043
-168,110	58,536	0,028	0,020
-167,096	-76,440	0,076	0,019
-166,081	-142,351	-0,149	0,010
-165,066	-200,000	0,029	-0,158
-164,052	800,000	-0,060	0,120
-163,037	288,699	-0,040	0,052
-162,023	203,131	0,078	-0,087
-161,008	228,154	-0,003	-0,003
-159,993	-200,000	0,005	0,059
-158,979	800,000	-0,053	0,127
-157,964	86,977	0,047	0,037
-156,950	370,666	0,038	-0,056
-155,935	392,539	0,059	0,089
-154,920	347,217	0,060	0,085
-153,906	800,000	0,099	0,267
-152,891	-200,000	-0,023	0,149
-151,877	800,000	-0,050	-0,124
-150,862	0,321	0,002	-0,001
-149,847	-21,164	0,058	0,026
-148,833	-55,837	0,072	0,023
-147,818	10,413	0,157	0,086
-146,804	393,407	-0,091	0,137
-145,789	-200,000	-0,013	0,056
-144,775	95,320	0,009	0,008
-143,760	-152,802	-0,067	-0,003
-142,745	-141,530	-0,161	0,012
-141,731	-120,716	-0,093	-0,011
-140,716	94,714	0,041	-0,034
-139,702	56,625	-0,018	-0,013
-138,687	164,523	0,043	-0,044
-137,672	144,937	0,062	-0,060
-136,658	373,883	0,033	-0,048
-135,643	800,000	0,079	-0,187
-134,629	800,000	0,023	-0,052
-133,614	-200,000	-0,018	-0,062
-132,599	59,785	0,064	-0,046
-131,585	-200,000	-0,009	-0,136
-130,570	-14,383	-0,105	-0,049
-129,556	-104,165	0,173	-0,029
-128,541	800,000	-0,024	-0,062
-127,526	79,654	-0,059	-0,046
-126,512	-95,133	0,135	-0,026
-125,497	52,361	0,079	0,054
-124,483	24,299	-0,058	0,034
-123,468	127,046	0,109	0,099
-122,453	800,000	0,034	0,096
-121,439	90,582	-0,130	-0,105
-120,424	-200,000	0,003	0,071
-119,410	-200,000	0,023	0,123
