DTS Sentinel unit serial number:	SN410029Multiplexer serial number:	ORYXHardware model number:	OX2-SRSoftware version number:	ORYX F/W v4,00 Oryx Data Collector v3.7.2.0data status	okinstallation	B6 Nyhavnadifferential loss correction	single-endedforward channel	channel 2reverse channel	N/Adate	2023/12/07time	17:55:08forward acquisition time	300,00reverse acquisition time	0,00gamma	499,1914k internal	0,3164k external	0,3164temperature offset calibration	1,0000default loss term (dB/km)	0,3820temperature slope calibration	1,0000multiplexer offset coefficient	1,0000multiplexer slope coefficient	1,0000fibre end	0,00T internal ref (°C)	14,37T ext. ref 1 (°C)	-2,59T ext. ref 2 (°C)	-2,59length (m)	temperature (°C)	Stokes	anti-Stokes-744,400	82,008	0,077	-0,061
-743,385	-127,523	-0,358	0,038
-742,371	409,560	0,071	0,111
-741,356	-76,114	-0,363	0,094
-740,342	204,118	0,196	0,223
-739,327	-75,066	-0,285	0,075
-738,312	-200,000	0,021	0,186
-737,298	-102,696	-0,264	-0,046
-736,283	-47,942	0,109	0,039
-735,269	-99,195	-0,267	0,049
-734,254	3,562	0,116	-0,062
-733,239	9,238	-0,441	-0,245
-732,225	31,239	0,174	0,110
-731,210	-35,138	-0,073	-0,029
-730,196	293,097	0,075	0,100
-729,181	85,254	-0,104	-0,084
-728,167	287,094	0,057	-0,076
-727,152	-200,000	0,004	-0,048
-726,137	18,086	-0,110	-0,065
-725,123	-200,000	-0,029	-0,157
-724,108	-21,243	-0,100	0,045
-723,094	800,000	-0,064	-0,135
-722,079	266,967	0,054	-0,070
-721,064	800,000	0,042	-0,122
-720,050	-19,470	-0,107	0,049
-719,035	474,775	-0,050	-0,084
-718,021	-119,876	-0,083	0,010
-717,006	218,392	0,024	-0,028
-715,991	569,712	0,051	-0,092
-714,977	-200,000	-0,020	-0,103
-713,962	800,000	0,040	-0,113
-712,948	-200,000	0,007	0,099
-711,933	272,597	-0,104	0,136
-710,918	81,284	-0,101	0,080
-709,904	-109,252	-0,078	0,012
-708,889	145,223	0,129	0,127
-707,875	800,000	-0,051	0,146
-706,860	800,000	0,042	-0,118
-705,845	211,243	-0,056	0,065
-704,831	205,498	0,089	-0,102
-703,816	-200,000	-0,035	0,136
-702,802	53,339	-0,042	-0,029
-701,787	-200,000	0,021	0,086
-700,772	-200,000	-0,022	0,094
-699,758	57,540	-0,037	0,027
-698,743	-101,884	0,084	0,015
-697,729	-26,792	-0,129	0,055
-696,714	80,518	0,207	0,164
-695,699	225,714	0,013	0,015
-694,685	-62,829	-0,004	0,001
-693,670	-128,370	0,084	0,009
-692,656	800,000	-0,007	0,016
-691,641	27,699	-0,040	0,025
-690,627	166,269	0,092	0,095
-689,612	30,515	0,138	-0,087
-688,597	406,550	-0,046	0,072
-687,583	-200,000	-0,005	0,072
-686,568	800,000	0,043	-0,101
-685,554	523,165	0,062	-0,108
-684,539	-5,661	0,052	-0,026
-683,524	800,000	-0,039	0,111
-682,510	800,000	-0,063	-0,163
-681,495	-200,000	0,029	-0,107
-680,481	-66,309	0,090	0,026
-679,466	309,743	-0,040	-0,055
-678,451	479,346	-0,054	-0,089
-677,437	514,912	0,049	-0,085
-676,422	-200,000	-0,002	0,078
-675,408	106,490	0,031	-0,027
-674,393	-111,237	-0,146	-0,022
-673,378	-26,015	-0,054	0,023
-672,364	694,411	-0,059	-0,114
-671,349	80,811	-0,033	0,026
-670,335	18,369	0,030	0,018
-669,320	-74,864	0,037	-0,010
-668,305	236,979	0,055	0,066
-667,291	509,332	0,079	0,136
-666,276	-157,675	-0,158	0,007
-665,262	800,000	-0,004	0,011
-664,247	-200,000	-0,018	-0,076
-663,232	-200,000	0,025	-0,084
-662,218	-200,000	-0,018	0,138
-661,203	-200,000	-0,007	0,078
-660,189	307,036	-0,049	0,067
-659,174	-132,528	-0,117	0,011
-658,159	99,686	-0,071	-0,061
-657,145	218,141	0,067	0,078
-656,130	800,000	-0,082	0,210
-655,116	15,089	0,095	0,054
-654,101	-200,000	0,010	0,114
-653,086	627,144	-0,007	-0,013
-652,072	-0,015	0,043	-0,022
-651,057	800,000	-0,054	0,113
-650,043	116,777	-0,113	-0,102
-649,028	618,692	-0,030	-0,056
-648,014	108,034	-0,081	0,071
-646,999	-28,725	0,128	0,054
-645,984	4,536	-0,016	0,008
-644,970	308,681	-0,076	0,105
-643,955	177,546	0,001	0,001
-642,941	218,340	-0,037	-0,043
-641,926	800,000	0,033	0,094
-640,911	800,000	-0,017	-0,050
-639,897	-4,111	-0,049	0,025
-638,882	-200,000	-0,030	0,142
-637,868	800,000	0,051	0,128
-636,853	161,096	0,017	-0,018
-635,838	35,094	-0,298	-0,191
-634,824	-148,024	0,070	-0,004
-633,809	-200,000	0,001	-0,058
-632,795	74,251	0,017	0,013
-631,780	-63,309	-0,089	0,027
-630,765	260,788	0,084	0,106
-629,751	800,000	0,044	-0,097
-628,736	-200,000	0,034	-0,129
-627,722	254,656	-0,054	-0,067
-626,707	-200,000	-0,013	0,046
-625,692	-115,817	0,197	0,027
-624,678	197,834	-0,047	0,052
-623,663	-144,903	-0,043	-0,003
-622,649	-200,000	-0,009	-0,143
-621,634	-31,645	-0,190	-0,078
-620,619	-31,335	-0,065	-0,027
-619,605	-200,000	-0,003	0,035
-618,590	14,015	0,070	-0,040
-617,576	-200,000	-0,003	0,114
-616,561	-200,000	-0,025	0,085
-615,546	228,620	-0,041	-0,049
-614,532	577,473	-0,038	-0,068
-613,517	175,008	-0,063	0,067
-612,503	77,537	0,050	-0,039
-611,488	207,791	0,084	-0,096
-610,474	220,255	-0,044	0,051
-609,459	-168,918	-0,105	-0,003
-608,444	-72,276	-0,117	0,031
-607,430	595,527	0,014	0,026
-606,415	143,314	0,034	-0,033
-605,401	-200,000	-0,005	0,031
-604,386	-183,965	-0,179	-0,002
-603,371	800,000	0,013	-0,028
-602,357	800,000	-0,038	0,083
-601,342	404,426	0,012	-0,019
-600,328	40,914	-0,048	0,032
-599,313	-200,000	0,004	0,043
-598,298	-200,000	-0,015	-0,161
-597,284	81,930	0,075	0,059
-596,269	136,637	-0,020	-0,019
-595,255	-86,423	0,169	0,038
-594,240	732,972	-0,011	-0,022
-593,225	-200,000	0,002	-0,258
-592,211	284,621	-0,067	-0,088
-591,196	-200,000	-0,005	-0,037
-590,182	-78,746	0,099	0,025
-589,167	800,000	-0,016	-0,044
-588,152	800,000	-0,039	-0,116
-587,138	-72,346	0,140	-0,038
-586,123	-2,443	0,082	0,042
-585,109	-102,274	-0,128	0,022
-584,094	-200,000	-0,011	-0,178
-583,079	-200,000	-0,005	-0,059
-582,065	-57,731	0,039	-0,012
-581,050	-134,155	-0,082	0,007
-580,036	-200,000	-0,032	0,107
-579,021	800,000	-0,026	0,062
-578,006	523,959	0,006	-0,011
-576,992	77,036	-0,131	0,101
-575,977	161,814	0,111	0,114
-574,963	-27,963	0,095	0,040
-573,948	1,456	-0,077	-0,041
-572,934	-17,879	0,104	-0,048
-571,919	-169,467	0,009	0,000
-570,904	800,000	-0,086	-0,218
-569,890	40,498	-0,011	0,007
-568,875	800,000	0,013	0,039
-567,861	800,000	0,030	-0,075
-566,846	-105,000	-0,084	0,014
-565,831	17,105	-0,080	0,046
-564,817	-200,000	0,004	0,018
-563,802	-200,000	-0,006	-0,108
-562,788	51,670	-0,100	-0,069
-561,773	-128,258	0,122	-0,013
-560,758	-200,000	-0,000	-0,050
-559,744	-70,629	-0,019	-0,005
-558,729	800,000	-0,045	0,126
-557,715	48,534	-0,043	0,030
-556,700	287,725	-0,020	0,027
-555,685	171,022	-0,028	-0,030
-554,671	800,000	0,041	-0,128
-553,656	800,000	0,059	0,121
-552,642	114,768	0,071	0,063
-551,627	-77,294	0,009	0,002
-550,612	-37,297	-0,026	0,010
-549,598	800,000	-0,018	0,054
-548,583	-118,280	-0,041	0,005
-547,569	296,707	0,084	0,112
-546,554	-59,275	0,064	-0,020
-545,539	-98,077	0,126	0,023
-544,525	-150,547	-0,006	0,000
-543,510	-33,640	-0,041	-0,016
-542,496	31,474	0,058	-0,036
-541,481	567,045	0,020	-0,035
-540,466	383,967	-0,034	-0,052
-539,452	-109,813	-0,160	-0,024
-538,437	621,662	-0,020	0,036
-537,423	800,000	-0,038	0,108
-536,408	560,037	0,040	-0,071
-535,393	781,478	-0,037	-0,074
-534,379	-200,000	0,005	0,041
-533,364	617,226	0,077	-0,141
-532,350	56,467	0,116	0,082
-531,335	800,000	-0,009	-0,025
-530,321	362,170	-0,041	0,060
-529,306	800,000	0,016	0,037
-528,291	-9,362	-0,137	-0,067
-527,277	-56,377	-0,044	0,014
-526,262	-200,000	0,002	-0,087
-525,248	-72,817	-0,066	0,018
-524,233	1,984	-0,079	0,042
-523,218	800,000	0,031	-0,070
-522,204	-93,679	0,090	0,018
-521,189	-92,965	0,042	-0,009
-520,175	-51,394	-0,103	-0,035
-519,160	-28,522	0,067	-0,028
-518,145	-57,817	0,032	-0,010
-517,131	403,968	0,068	0,105
-516,116	-87,346	0,067	-0,015
-515,102	180,602	-0,102	-0,109
-514,087	-200,000	0,057	-0,232
-513,072	126,679	-0,091	-0,084
-512,058	-200,000	0,001	-0,083
-511,043	-21,269	0,053	0,024
-510,029	610,476	-0,056	0,102
-509,014	79,880	0,107	-0,084
-507,999	-200,000	-0,020	-0,105
-506,985	762,484	-0,028	0,056
-505,970	7,954	0,108	-0,059
-504,956	161,146	0,056	0,057
-503,941	-200,000	0,005	0,033
-502,926	800,000	0,062	0,129
-501,912	252,694	-0,063	0,079
-500,897	-20,808	-0,062	0,028
-499,883	-35,841	0,151	0,059
-498,868	-200,000	-0,026	-0,157
-497,853	-100,771	-0,095	-0,017
-496,839	-200,000	0,036	-0,127
-495,824	88,421	0,060	-0,049
-494,810	-130,479	0,076	-0,007
-493,795	647,993	0,112	0,209
-492,781	-19,784	-0,116	-0,052
-491,766	-200,000	0,018	-0,072
-490,751	166,305	0,007	0,008
-489,737	262,598	0,076	-0,096
-488,722	800,000	0,020	0,062
-487,708	150,191	0,072	0,071
-486,693	-200,000	-0,043	0,000
-485,678	580,735	-0,017	-0,031
-484,664	-13,498	0,150	-0,070
-483,649	-200,000	-0,012	-0,039
-482,635	202,691	-0,067	-0,076
-481,620	8,355	0,096	0,052
-480,605	-119,578	-0,047	-0,006
-479,591	93,584	0,086	0,071
-478,576	171,678	-0,029	-0,031
-477,562	-200,000	0,020	-0,100
-476,547	136,490	0,056	0,053
-475,532	160,308	0,045	0,046
-474,518	-22,103	0,180	-0,079
-473,503	-200,000	-0,001	0,043
-472,489	19,310	0,084	0,049
-471,474	-112,100	0,013	0,002
-470,459	800,000	-0,029	-0,083
-469,445	206,741	-0,168	-0,191
-468,430	-200,000	0,001	-0,119
-467,416	133,871	0,064	0,061
-466,401	800,000	-0,034	-0,099
-465,386	-53,217	0,075	0,025
-464,372	-63,816	0,066	-0,020
-463,357	-200,000	-0,018	-0,100
-462,343	358,976	-0,079	-0,115
-461,328	-200,000	-0,054	-0,259
-460,313	121,717	0,077	0,070
-459,299	-42,632	0,063	-0,023
-458,284	-52,772	-0,065	-0,022
-457,270	585,587	-0,069	0,123
-456,255	161,481	-0,034	0,035
-455,241	761,048	-0,027	0,054
-454,226	211,655	-0,058	-0,067
-453,211	-57,428	0,047	0,015
-452,197	103,288	-0,087	0,075
-451,182	-200,000	0,035	0,132
-450,168	-28,436	0,029	0,012
-449,153	-200,000	0,016	-0,128
-448,138	53,659	0,046	0,032
-447,124	800,000	-0,019	0,046
-446,109	-200,000	0,002	0,042
-445,095	37,403	0,043	0,028
-444,080	338,198	0,028	0,039
-443,065	-57,408	0,133	0,042
-442,051	245,682	-0,049	-0,061
-441,036	141,177	-0,092	-0,088
-440,022	59,748	0,041	0,030
-439,007	-165,849	0,087	0,003
-437,992	653,521	0,026	-0,049
-436,978	-157,218	0,095	-0,004
-435,963	186,989	0,034	-0,037
-434,949	114,116	0,074	-0,065
-433,934	-200,000	0,024	-0,125
-432,919	320,048	-0,018	0,025
-431,905	-200,000	-0,032	-0,113
-430,890	681,278	0,033	-0,062
-429,876	564,493	-0,059	0,104
-428,861	48,637	0,031	-0,021
-427,846	-200,000	-0,001	0,028
-426,832	-64,180	-0,205	0,060
-425,817	-164,773	-0,064	-0,002
-424,803	800,000	-0,027	0,061
-423,788	198,792	0,037	0,041
-422,773	-200,000	-0,012	-0,052
-421,759	-62,703	0,115	0,034
-420,744	-200,000	0,013	0,071
-419,730	68,391	-0,048	0,036
-418,715	800,000	-0,008	-0,026
-417,701	800,000	-0,071	-0,161
-416,686	-39,314	0,021	-0,008
-415,671	-121,453	0,053	-0,006
-414,657	800,000	0,067	-0,157
-413,642	160,155	0,042	0,043
-412,628	-200,000	-0,010	-0,127
-411,613	-32,534	-0,106	-0,043
-410,598	197,617	-0,066	-0,074
-409,584	-49,260	0,113	0,039
-408,569	-200,000	0,038	0,132
-407,555	2,081	0,073	-0,038
-406,540	198,970	0,107	0,119
-405,525	677,722	-0,028	0,054
-404,511	-100,430	-0,065	0,012
-403,496	142,309	0,085	-0,082
-402,482	91,500	-0,048	0,039
-401,467	-133,855	0,081	-0,007
-400,452	-200,000	-0,025	0,174
-399,438	323,707	0,054	0,075
-398,423	386,537	0,038	0,057
-397,409	-108,696	-0,125	-0,019
-396,394	-200,000	0,011	-0,099
-395,379	312,270	-0,064	-0,088
-394,365	120,743	0,072	-0,065
-393,350	800,000	0,081	0,205
-392,336	800,000	0,042	0,107
-391,321	439,485	-0,054	0,086
-390,306	800,000	0,001	-0,002
-389,292	-200,000	0,019	-0,112
-388,277	-200,000	0,018	-0,082
-387,263	-6,822	0,086	-0,042
-386,248	-66,607	0,087	-0,025
-385,233	351,223	0,067	0,097
-384,219	-200,000	0,002	-0,074
-383,204	514,870	-0,065	-0,111
-382,190	800,000	-0,027	-0,074
-381,175	209,806	-0,042	-0,048
-380,160	-11,839	-0,087	-0,041
-379,146	475,037	-0,052	0,086
-378,131	214,977	0,045	0,051
-377,117	-200,000	-0,005	-0,030
-376,102	-165,249	-0,151	0,005
-375,088	800,000	-0,015	0,044
-374,073	426,102	-0,017	0,026
-373,058	-78,490	0,102	0,025
-372,044	800,000	0,044	0,122
-371,029	30,252	0,067	0,041
-370,015	206,677	-0,090	0,102
-369,000	800,000	0,005	-0,012
-367,985	1,691	-0,176	-0,091
-366,971	-48,785	0,036	0,012
-365,956	-112,403	0,046	0,007
-364,942	273,187	0,074	0,095
-363,927	-200,000	-0,001	0,002
-362,912	-200,000	-0,011	-0,053
-361,898	800,000	-0,038	-0,098
-360,883	-71,955	-0,168	-0,045
-359,869	-92,378	-0,121	-0,025
-358,854	378,681	0,050	-0,074
-357,839	-72,841	0,110	0,029
-356,825	63,290	0,016	0,011
-355,810	145,438	-0,095	0,092
-354,796	-42,718	0,099	0,036
-353,781	-64,786	0,068	0,020
-352,766	21,611	-0,112	-0,066
-351,752	-161,534	-0,059	0,002
-350,737	-106,783	0,072	-0,011
-349,723	13,926	-0,064	-0,036
-348,708	-200,000	-0,005	0,069
-347,693	-200,000	0,007	-0,107
-346,679	-68,572	-0,027	-0,008
-345,664	150,766	-0,106	0,104
-344,650	-7,176	0,045	0,022
-343,635	148,144	0,079	0,078
-342,620	-200,000	-0,010	0,060
-341,606	225,953	0,029	-0,034
-340,591	350,772	-0,007	-0,009
-339,577	373,881	-0,050	0,073
-338,562	-200,000	-0,020	-0,076
-337,548	800,000	0,014	-0,040
-336,533	800,000	0,029	0,075
-335,518	-46,319	0,063	0,022
-334,504	-200,000	0,022	-0,128
-333,489	555,462	-0,057	-0,100
-332,475	-16,347	-0,186	-0,085
-331,460	250,442	-0,108	-0,133
-330,445	-200,000	-0,004	0,102
-329,431	55,573	-0,073	0,051
-328,416	-200,000	0,013	-0,064
-327,402	-113,875	0,047	0,007
-326,387	800,000	-0,037	-0,074
-325,372	713,907	0,017	-0,033
-324,358	26,697	-0,129	-0,078
-323,343	59,146	0,068	0,048
-322,329	58,243	0,055	0,039
-321,314	-103,868	0,028	-0,005
-320,299	-35,820	-0,091	-0,036
-319,285	-39,137	0,063	0,024
-318,270	-200,000	0,028	-0,116
-317,256	-120,456	-0,029	-0,004
-316,241	-92,968	-0,191	-0,038
-315,226	226,918	0,057	0,067
-314,212	-40,917	-0,054	-0,020
-313,197	800,000	0,060	0,125
-312,183	48,720	-0,084	0,057
-311,168	405,710	0,058	0,089
-310,153	-200,000	-0,005	0,027
-309,139	558,646	-0,071	0,124
-308,124	-200,000	-0,014	0,122
-307,110	-182,247	0,125	-0,002
-306,095	-200,000	0,033	0,207
-305,080	-200,000	0,012	0,099
-304,066	317,019	0,039	0,054
-303,051	283,477	-0,062	0,081
-302,037	-129,527	0,075	-0,007
-301,022	91,856	-0,022	-0,018
-300,008	-83,440	0,098	0,023
-298,993	20,543	0,093	-0,054
-297,978	800,000	0,032	0,096
-296,964	-200,000	-0,014	-0,047
-295,949	22,262	0,068	0,040
-294,935	181,384	0,030	0,032
-293,920	-75,668	0,053	-0,013
-292,905	298,379	0,102	0,135
-291,891	-200,000	0,008	0,077
-290,876	-82,886	0,190	0,044
-289,862	-81,448	0,053	-0,013
-288,847	-200,000	-0,019	0,088
-287,832	242,962	0,118	-0,144
-286,818	123,669	0,001	0,001
-285,803	-200,000	-0,001	0,154
-284,789	-103,131	0,039	0,007
-283,774	-200,000	-0,050	0,193
-282,759	-200,000	0,022	-0,114
-281,745	-200,000	0,003	-0,211
-280,730	-71,833	0,036	-0,010
-279,716	-51,945	-0,014	0,005
-278,701	334,261	-0,051	-0,072
-277,686	-200,000	0,025	-0,109
-276,672	536,929	-0,032	-0,054
-275,657	800,000	-0,032	0,089
-274,643	-200,000	-0,032	0,190
-273,628	-83,471	0,023	-0,005
-272,613	81,071	-0,054	-0,042
-271,599	507,948	-0,044	0,075
-270,584	215,495	0,049	0,056
-269,570	-104,027	0,023	0,004
-268,555	-62,470	-0,097	0,029
-267,540	51,553	0,041	0,028
-266,526	-65,547	0,098	-0,028
-265,511	-200,000	0,012	0,090
-264,497	-9,203	0,072	0,035
-263,482	56,287	-0,054	-0,038
-262,467	164,220	0,037	-0,037
-261,453	-117,931	0,043	0,006
-260,438	-54,623	-0,069	-0,022
-259,424	-44,633	0,041	-0,015
-258,409	800,000	-0,019	-0,044
-257,395	267,801	0,042	-0,053
-256,380	46,574	0,163	0,109
-255,365	-200,000	-0,012	0,038
-254,351	263,159	-0,052	0,065
-253,336	155,799	-0,079	-0,078
-252,322	-26,745	0,156	-0,066
-251,307	-30,241	0,107	0,044
-250,292	800,000	-0,046	0,107
-249,278	-66,870	0,132	0,037
-248,263	-200,000	-0,001	-0,055
-247,249	201,260	-0,026	-0,028
-246,234	-74,902	-0,116	-0,030
-245,219	-200,000	-0,001	-0,082
-244,205	-64,140	-0,133	-0,039
-243,190	4,017	0,088	0,046
-242,176	57,175	-0,139	0,098
-241,161	-126,033	0,114	0,012
-240,146	14,012	-0,114	-0,064
-239,132	42,943	-0,053	0,035
-238,117	800,000	-0,067	-0,204
-237,103	27,304	0,075	-0,045
-236,088	-200,000	-0,026	0,098
-235,073	152,381	0,117	0,116
-234,059	288,434	-0,140	0,183
-233,044	30,909	0,123	0,076
-232,030	-200,000	0,000	0,109
-231,015	-115,762	0,015	0,002
-230,000	800,000	-0,031	0,080
-228,986	163,623	0,037	0,037
-227,971	800,000	0,023	-0,060
-226,957	-200,000	0,000	0,021
-225,942	53,528	0,119	-0,082
-224,927	-59,291	-0,066	0,020
-223,913	82,449	-0,072	-0,056
-222,898	-161,124	0,050	0,002
-221,884	250,234	-0,053	0,065
-220,869	257,873	-0,055	-0,068
-219,855	542,290	-0,034	0,059
-218,840	-16,369	0,105	0,048
-217,825	-200,000	-0,005	0,072
-216,811	-177,661	-0,216	0,004
-215,796	261,945	0,028	-0,034
-214,782	-200,000	-0,003	-0,018
-213,767	73,246	0,118	-0,089
-212,752	63,600	-0,032	-0,023
-211,738	800,000	0,044	0,109
-210,723	-42,571	-0,069	-0,025
-209,709	55,270	0,071	-0,049
-208,694	-114,318	-0,039	0,005
-207,679	-8,183	0,021	-0,010
-206,665	125,373	-0,109	0,099
-205,650	-84,745	-0,077	0,017
-204,636	-11,156	0,060	0,028
-203,621	-95,797	-0,148	0,028
-202,606	-12,474	0,049	0,023
-201,592	-0,988	-0,017	0,009
-200,577	124,801	-0,078	-0,071
-199,563	-200,000	-0,015	0,234
-198,548	284,399	-0,074	0,096
-197,533	-143,409	-0,078	-0,005
-196,519	-200,000	0,015	0,062
-195,504	800,000	-0,039	-0,093
-194,490	-200,000	-0,035	-0,148
-193,475	-45,889	-0,088	-0,031
-192,460	149,313	0,056	0,055
-191,446	-166,134	0,073	-0,002
-190,431	-70,877	-0,049	-0,013
-189,417	800,000	-0,034	-0,088
-188,402	-200,000	-0,007	0,078
-187,387	-96,050	0,055	0,010
-186,373	-200,000	0,015	-0,092
-185,358	-20,784	0,126	-0,055
-184,344	520,285	0,038	0,064
-183,329	-200,000	0,007	0,061
-182,315	587,966	0,019	-0,034
-181,300	225,673	0,068	-0,080
-180,285	-1,135	-0,113	0,057
-179,271	65,364	-0,020	0,015
-178,256	96,794	0,045	0,037
-177,242	-200,000	-0,003	0,082
-176,227	-147,835	0,086	-0,005
-175,212	-200,000	-0,014	0,050
-174,198	245,416	-0,062	-0,075
-173,183	210,110	0,099	-0,112
-172,169	-49,365	0,096	0,033
-171,154	-116,685	0,039	-0,005
-170,139	-200,000	-0,022	-0,098
-169,125	-96,916	0,243	-0,045
-168,110	24,423	-0,150	0,089
-167,096	-77,548	-0,075	0,019
-166,081	-2,793	-0,091	0,045
-165,066	381,223	0,056	-0,083
-164,052	140,664	-0,099	-0,094
-163,037	18,186	-0,077	0,044
-162,023	800,000	-0,050	0,154
-161,008	2,153	-0,049	0,026
-159,993	-151,673	-0,133	0,007
-158,979	130,831	0,046	-0,042
-157,964	-13,647	-0,064	0,030
-156,950	-97,476	-0,132	-0,024
-155,935	-71,464	-0,098	0,026
-154,920	-200,000	-0,006	-0,070
-153,906	800,000	0,047	0,131
-152,891	-200,000	0,002	0,011
-151,877	-109,322	-0,112	-0,017
-150,862	-137,080	-0,174	0,014
-149,847	-92,120	0,104	0,021
-148,833	-200,000	0,008	0,089
-147,818	664,904	0,099	0,185
-146,804	-40,118	0,122	-0,046
-145,789	51,120	-0,137	0,094
-144,775	350,239	-0,018	0,026
-143,760	104,092	0,051	0,043
-142,745	94,450	0,042	0,034
-141,731	800,000	-0,032	-0,069
-140,716	108,796	0,106	-0,091
-139,702	431,164	0,054	0,084
-138,687	-33,895	-0,114	-0,045
-137,672	161,212	-0,059	0,060
-136,658	172,023	0,074	-0,077
-135,643	800,000	-0,036	-0,075
-134,629	-200,000	-0,003	-0,014
-133,614	-198,291	0,111	0,000
-132,599	281,049	0,049	-0,064
-131,585	6,179	0,060	0,032
-130,570	-22,179	-0,054	-0,023
-129,556	82,321	0,069	0,054
-128,541	-114,082	-0,092	-0,013
-127,526	615,942	0,063	-0,113
-126,512	-62,868	0,030	-0,009
-125,497	800,000	0,078	0,167
-124,483	-105,650	-0,106	0,017
-123,468	31,255	0,119	0,073
-122,453	78,498	-0,075	-0,057
-121,439	-200,000	0,022	0,079
-120,424	-200,000	0,055	0,204
-119,410	-200,000	0,015	0,084
-118,395	317,720	0,033	0,045
-117,380	-71,705	0,060	0,016
