DTS Sentinel unit serial number:	SN410029Multiplexer serial number:	ORYXHardware model number:	OX2-SRSoftware version number:	ORYX F/W v4,00 Oryx Data Collector v3.7.2.0data status	okinstallation	B6 Nyhavnadifferential loss correction	single-endedforward channel	channel 2reverse channel	N/Adate	2023/12/08time	19:05:08forward acquisition time	300,00reverse acquisition time	0,00gamma	499,1914k internal	0,3158k external	0,3158temperature offset calibration	1,0000default loss term (dB/km)	0,3820temperature slope calibration	1,0000multiplexer offset coefficient	1,0000multiplexer slope coefficient	1,0000fibre end	0,00T internal ref (°C)	15,26T ext. ref 1 (°C)	-1,41T ext. ref 2 (°C)	-1,40length (m)	temperature (°C)	Stokes	anti-Stokes-744,400	-36,886	0,086	0,034
-743,385	-90,243	-0,263	0,056
-742,371	310,101	0,150	0,208
-741,356	-79,485	-0,277	0,068
-740,342	-177,454	0,092	0,002
-739,327	-105,551	-0,313	0,052
-738,312	130,330	0,073	-0,069
-737,298	-164,185	-0,356	-0,012
-736,283	173,745	0,044	-0,046
-735,269	-130,841	-0,263	0,026
-734,254	-22,234	-0,040	0,018
-733,239	-10,083	-0,441	-0,215
-732,225	-127,215	0,227	0,024
-731,210	13,153	0,027	0,016
-730,196	483,103	0,086	-0,144
-729,181	800,000	-0,037	0,077
-728,167	18,011	0,076	-0,045
-727,152	-162,455	0,087	-0,003
-726,137	314,555	0,058	0,080
-725,123	-14,967	-0,023	0,011
-724,108	102,426	-0,146	-0,125
-723,094	-200,000	0,023	-0,137
-722,079	-128,243	-0,079	0,008
-721,064	143,525	0,083	0,081
-720,050	5,754	-0,097	0,053
-719,035	-93,268	0,143	-0,029
-718,021	82,307	0,125	-0,100
-717,006	-200,000	-0,009	-0,079
-715,991	106,233	-0,098	-0,086
-714,977	800,000	0,023	-0,048
-713,962	305,514	0,022	0,030
-712,948	-200,000	0,004	-0,016
-711,933	-200,000	0,065	0,000
-710,918	-200,000	-0,034	-0,204
-709,904	-110,105	-0,122	0,019
-708,889	-146,807	0,121	0,008
-707,875	-200,000	0,018	-0,133
-706,860	63,074	0,022	-0,016
-705,845	130,624	-0,037	0,035
-704,831	-200,000	-0,009	-0,044
-703,816	10,022	-0,065	-0,036
-702,802	-21,670	-0,065	-0,029
-701,787	-120,197	0,151	0,019
-700,772	-200,000	-0,001	0,107
-699,758	800,000	0,010	-0,028
-698,743	-200,000	0,031	-0,110
-697,729	-176,490	-0,046	0,001
-696,714	-103,437	0,064	0,011
-695,699	-200,000	-0,006	-0,083
-694,685	66,471	-0,139	-0,104
-693,670	-200,000	-0,027	-0,168
-692,656	326,035	0,056	0,080
-691,641	-135,330	0,050	-0,004
-690,627	-200,000	-0,001	-0,066
-689,612	469,774	-0,053	0,087
-688,597	624,075	-0,036	0,068
-687,583	-200,000	-0,007	-0,090
-686,568	800,000	-0,027	-0,084
-685,554	-113,510	-0,077	-0,011
-684,539	-174,937	-0,097	0,002
-683,524	205,452	0,078	-0,089
-682,510	-200,000	0,002	0,022
-681,495	-200,000	0,038	-0,171
-680,481	36,214	-0,105	-0,068
-679,466	800,000	0,062	-0,162
-678,451	800,000	-0,008	0,025
-677,437	800,000	-0,037	0,076
-676,422	-112,059	-0,170	-0,025
-675,408	154,694	0,082	-0,083
-674,393	-92,501	-0,134	-0,027
-673,378	228,656	-0,072	-0,086
-672,364	-7,322	0,060	0,030
-671,349	469,500	-0,051	-0,085
-670,335	-146,719	-0,126	0,008
-669,320	138,110	-0,109	-0,105
-668,305	-8,340	-0,078	0,039
-667,291	-57,158	0,074	0,024
-666,276	-200,000	0,021	-0,087
-665,262	11,780	-0,036	0,020
-664,247	676,161	0,059	-0,113
-663,232	-164,891	-0,054	-0,002
-662,218	800,000	0,010	-0,026
-661,203	800,000	0,021	-0,051
-660,189	365,783	-0,061	-0,091
-659,174	-200,000	-0,013	-0,077
-658,159	-200,000	-0,069	-0,233
-657,145	-135,829	0,045	-0,004
-656,130	37,109	-0,076	-0,049
-655,116	1,165	0,135	0,071
-654,101	623,311	-0,065	0,120
-653,086	-77,545	-0,076	0,019
-652,072	201,657	-0,130	-0,148
-651,057	-123,254	-0,171	0,020
-650,043	262,053	-0,051	-0,065
-649,028	-97,514	0,067	0,013
-648,014	411,469	0,038	0,060
-646,999	299,042	-0,036	-0,049
-645,984	59,312	0,043	-0,031
-644,970	66,741	0,136	-0,101
-643,955	-200,000	-0,024	-0,117
-642,941	800,000	-0,038	-0,104
-641,926	-37,593	0,053	-0,021
-640,911	-22,478	0,109	-0,048
-639,897	-80,957	-0,095	-0,023
-638,882	267,681	0,039	0,050
-637,868	-200,000	-0,045	-0,171
-636,853	-11,499	-0,075	-0,036
-635,838	202,197	-0,065	-0,074
-634,824	37,765	-0,128	-0,083
-633,809	-116,778	0,114	-0,015
-632,795	-114,588	0,115	-0,016
-631,780	-200,000	-0,003	0,022
-630,765	20,332	-0,050	-0,030
-629,751	506,575	-0,010	-0,017
-628,736	-94,082	-0,141	0,028
-627,722	800,000	-0,026	-0,065
-626,707	800,000	-0,046	0,113
-625,692	-48,370	0,211	-0,074
-624,678	30,382	-0,062	-0,039
-623,663	101,848	-0,109	0,093
-622,649	250,060	-0,066	0,083
-621,634	368,687	0,028	-0,041
-620,619	800,000	-0,051	-0,114
-619,605	-200,000	0,011	0,150
-618,590	475,515	0,018	0,030
-617,576	-41,540	-0,079	-0,030
-616,561	-63,965	-0,044	-0,013
-615,546	-135,988	0,080	-0,007
-614,532	-200,000	0,035	-0,178
-613,517	23,056	-0,013	0,008
-612,503	-26,257	-0,090	-0,038
-611,488	-200,000	0,002	0,031
-610,474	-27,881	0,113	-0,048
-609,459	70,344	-0,073	0,055
-608,444	299,318	-0,072	-0,097
-607,430	-39,555	0,048	-0,018
-606,415	38,963	-0,062	0,040
-605,401	257,493	0,106	0,134
-604,386	56,613	0,163	-0,116
-603,371	339,465	-0,087	0,124
-602,357	39,978	-0,083	-0,055
-601,342	800,000	0,030	-0,062
-600,328	-151,862	-0,254	-0,013
-599,313	-93,081	0,038	-0,008
-598,298	-200,000	-0,035	0,156
-597,284	-69,901	-0,063	-0,018
-596,269	800,000	-0,024	-0,075
-595,255	-49,040	0,117	-0,041
-594,240	97,181	-0,103	-0,086
-593,225	126,373	-0,097	-0,090
-592,211	-22,732	-0,063	0,028
-591,196	25,420	0,084	0,051
-590,182	150,214	-0,050	0,050
-589,167	91,411	0,064	0,053
-588,152	92,756	-0,037	0,031
-587,138	221,765	-0,027	-0,032
-586,123	-85,181	-0,061	-0,014
-585,109	350,991	-0,052	-0,076
-584,094	515,583	0,037	-0,064
-583,079	-169,057	-0,049	0,001
-582,065	307,032	0,067	-0,092
-581,050	800,000	-0,013	0,041
-580,036	-200,000	0,000	-0,015
-579,021	196,072	-0,055	-0,061
-578,006	-134,965	-0,114	-0,010
-576,992	616,133	-0,038	0,070
-575,977	-84,508	0,090	0,021
-574,963	71,260	0,074	0,056
-573,948	800,000	-0,043	0,094
-572,934	32,401	-0,031	0,019
-571,919	101,565	0,079	-0,067
-570,904	35,978	-0,040	-0,025
-569,890	275,810	-0,075	-0,098
-568,875	-103,248	-0,114	0,019
-567,861	-128,696	-0,151	0,015
-566,846	-55,124	0,065	-0,021
-565,831	218,956	0,018	-0,021
-564,817	-200,000	0,006	-0,085
-563,802	-112,718	-0,180	0,026
-562,788	-43,961	-0,045	0,016
-561,773	299,444	-0,041	-0,056
-560,758	-200,000	-0,008	0,172
-559,744	800,000	0,064	-0,165
-558,729	-46,513	0,134	-0,048
-557,715	124,088	-0,077	0,071
-556,700	800,000	-0,100	-0,220
-555,685	50,330	0,052	0,036
-554,671	-70,215	0,108	-0,030
-553,656	-152,015	0,136	-0,007
-552,642	39,502	-0,020	-0,013
-551,627	92,161	0,091	0,075
-550,612	-200,000	0,005	0,029
-549,598	-56,127	-0,118	-0,038
-548,583	-200,000	0,005	-0,070
-547,569	-51,076	-0,099	0,034
-546,554	66,189	0,065	0,048
-545,539	-200,000	0,020	-0,079
-544,525	68,307	0,026	0,020
-543,510	800,000	0,065	-0,154
-542,496	-25,113	-0,111	-0,048
-541,481	426,944	-0,070	0,110
-540,466	15,010	0,082	0,047
-539,452	-128,742	0,115	-0,012
-538,437	173,993	-0,089	-0,094
-537,423	-71,644	-0,097	-0,026
-536,408	-12,470	-0,136	-0,065
-535,393	-200,000	-0,015	0,060
-534,379	-88,041	-0,102	0,022
-533,364	-107,706	0,217	0,034
-532,350	800,000	-0,034	0,100
-531,335	-72,551	0,066	0,018
-530,321	-200,000	0,031	0,162
-529,306	405,281	-0,074	0,115
-528,291	-200,000	0,000	-0,122
-527,277	-88,590	-0,102	0,022
-526,262	-200,000	-0,034	0,140
-525,248	-61,266	0,063	-0,019
-524,233	800,000	-0,014	0,039
-523,218	104,222	0,093	-0,080
-522,204	541,056	-0,066	-0,115
-521,189	118,916	0,059	-0,053
-520,175	800,000	-0,047	-0,116
-519,160	-200,000	0,008	0,069
-518,145	514,549	-0,041	-0,070
-517,131	601,303	0,025	-0,046
-516,116	103,355	0,010	-0,009
-515,102	175,066	0,055	0,058
-514,087	800,000	-0,025	-0,072
-513,072	-195,363	-0,041	-0,000
-512,058	27,761	0,064	0,040
-511,043	-200,000	0,018	0,068
-510,029	-200,000	0,000	-0,022
-509,014	-200,000	-0,015	-0,075
-507,999	337,159	0,048	0,068
-506,985	170,212	-0,065	-0,068
-505,970	131,452	-0,096	-0,090
-504,956	-200,000	-0,024	-0,162
-503,941	-200,000	0,003	0,019
-502,926	-200,000	-0,005	-0,030
-501,912	87,219	-0,060	-0,048
-500,897	800,000	0,039	0,125
-499,883	-45,133	-0,075	-0,027
-498,868	-51,720	-0,049	-0,017
-497,853	120,002	0,062	-0,056
-496,839	332,296	0,084	-0,119
-495,824	-108,313	-0,031	-0,005
-494,810	-80,170	0,153	0,037
-493,795	800,000	0,017	0,036
-492,781	132,830	-0,070	-0,066
-491,766	-200,000	0,027	0,091
-490,751	229,960	0,024	0,029
-489,737	-200,000	0,021	0,081
-488,722	800,000	0,011	0,034
-487,708	800,000	0,045	0,112
-486,693	-113,886	0,094	-0,013
-485,678	79,325	-0,008	0,006
-484,664	-200,000	0,016	-0,095
-483,649	8,241	-0,108	-0,059
-482,635	-32,497	0,074	-0,030
-481,620	800,000	0,045	0,137
-480,605	-31,443	0,055	-0,022
-479,591	-200,000	0,030	0,115
-478,576	-70,212	-0,158	0,043
-477,562	-200,000	0,020	-0,111
-476,547	20,326	0,117	-0,069
-475,532	548,995	0,072	-0,126
-474,518	391,176	-0,062	-0,094
-473,503	291,597	-0,039	0,051
-472,489	-118,390	-0,167	-0,021
-471,474	153,347	-0,086	0,085
-470,459	162,506	0,055	0,056
-469,445	72,534	-0,069	-0,052
-468,430	-200,000	-0,011	0,075
-467,416	128,691	0,091	-0,085
-466,401	-200,000	0,001	0,118
-465,386	-200,000	-0,003	-0,052
-464,372	136,820	-0,088	0,083
-463,357	580,870	-0,041	0,074
-462,343	-200,000	0,019	-0,084
-461,328	210,189	-0,036	0,041
-460,313	-200,000	-0,021	0,083
-459,299	-200,000	0,035	-0,160
-458,284	-143,604	0,122	0,008
-457,270	30,240	-0,161	0,100
-456,255	76,794	-0,102	0,079
-455,241	693,810	-0,005	-0,009
-454,226	379,123	0,045	-0,067
-453,211	481,458	0,031	0,051
-452,197	640,644	0,068	0,126
-451,182	363,007	0,022	-0,032
-450,168	-200,000	-0,026	0,105
-449,153	323,194	-0,077	-0,107
-448,138	-200,000	-0,018	-0,072
-447,124	-73,473	-0,089	0,024
-446,109	-183,464	0,053	0,001
-445,095	-5,555	0,059	0,029
-444,080	800,000	-0,024	-0,058
-443,065	-190,021	-0,053	-0,000
-442,051	-200,000	-0,021	0,106
-441,036	256,339	-0,091	0,115
-440,022	457,439	0,041	-0,066
-439,007	206,571	0,043	0,049
-437,992	53,060	-0,104	-0,072
-436,978	800,000	0,020	-0,056
-435,963	133,994	0,073	-0,068
-434,949	35,862	-0,039	0,025
-433,934	-200,000	-0,016	0,095
-432,919	128,336	0,078	0,072
-431,905	-200,000	0,019	-0,075
-430,890	-76,451	0,041	-0,010
-429,876	-200,000	-0,007	0,040
-428,861	194,666	0,045	0,049
-427,846	-124,254	0,097	-0,011
-426,832	-61,825	-0,084	-0,025
-425,817	-145,707	0,106	-0,007
-424,803	311,735	0,075	-0,102
-423,788	-39,653	0,022	0,008
-422,773	-66,522	-0,120	0,034
-421,759	-55,495	-0,073	-0,024
-420,744	800,000	0,015	0,040
-419,730	33,077	-0,063	0,040
-418,715	800,000	0,032	0,094
-417,701	774,135	-0,059	0,117
-416,686	-200,000	-0,037	0,125
-415,671	800,000	0,009	0,023
-414,657	-161,055	-0,069	-0,003
-413,642	-0,779	0,078	-0,040
-412,628	19,807	-0,079	0,046
-411,613	-84,163	-0,083	0,019
-410,598	-200,000	0,051	0,000
-409,584	73,190	0,023	0,017
-408,569	72,687	0,097	-0,073
-407,555	-200,000	-0,018	0,082
-406,540	30,179	0,054	0,033
-405,525	800,000	-0,033	-0,082
-404,511	-200,000	0,023	-0,125
-403,496	-57,148	-0,018	0,006
-402,482	339,583	-0,090	0,127
-401,467	-183,341	0,166	0,002
-400,452	-200,000	-0,008	-0,037
-399,438	667,260	0,073	0,139
-398,423	126,495	0,014	0,013
-397,409	800,000	-0,011	0,030
-396,394	-200,000	0,007	0,099
-395,379	-64,976	-0,133	0,039
-394,365	-200,000	0,007	-0,084
-393,350	234,328	0,074	0,089
-392,336	-200,000	-0,011	0,100
-391,321	133,979	-0,028	0,027
-390,306	800,000	-0,034	0,071
-389,292	800,000	0,051	-0,136
-388,277	-49,301	0,150	-0,052
-387,263	-165,476	-0,052	-0,002
-386,248	775,472	0,011	-0,022
-385,233	-6,915	0,131	0,064
-384,219	675,869	-0,053	0,100
-383,204	87,594	0,053	-0,043
-382,190	-200,000	0,003	-0,175
-381,175	-32,982	-0,064	-0,026
-380,160	-200,000	-0,026	0,110
-379,146	800,000	0,048	0,125
-378,131	79,263	-0,054	-0,042
-377,117	654,129	-0,025	0,047
-376,102	-200,000	-0,050	-0,213
-375,088	-10,520	-0,035	-0,017
-374,073	478,694	0,092	0,151
-373,058	255,604	-0,105	-0,131
-372,044	152,318	0,048	-0,048
-371,029	800,000	-0,059	-0,176
-370,015	-200,000	-0,007	0,122
-369,000	-82,828	0,153	0,036
-367,985	-200,000	-0,050	-0,174
-366,971	163,447	-0,076	0,078
-365,956	199,966	-0,042	-0,047
-364,942	-200,000	-0,011	0,054
-363,927	800,000	-0,029	0,060
-362,912	800,000	0,089	0,236
-361,898	-131,025	0,053	-0,005
-360,883	190,839	-0,023	0,025
-359,869	-200,000	0,002	-0,008
-358,854	465,941	-0,041	-0,066
-357,839	719,689	0,026	0,050
-356,825	29,281	-0,010	0,006
-355,810	-200,000	0,006	-0,143
-354,796	522,293	-0,046	-0,079
-353,781	-51,726	-0,058	-0,019
-352,766	233,000	-0,037	-0,044
-351,752	-34,779	-0,164	-0,065
-350,737	-111,860	-0,100	0,014
-349,723	-117,394	0,148	-0,019
-348,708	-200,000	0,001	-0,042
-347,693	-58,982	-0,108	-0,034
-346,679	192,361	0,042	-0,046
-345,664	800,000	0,013	-0,031
-344,650	800,000	0,031	0,085
-343,635	-145,583	-0,093	0,006
-342,620	-200,000	0,028	-0,129
-341,606	76,250	0,035	-0,027
-340,591	189,096	0,068	0,074
-339,577	800,000	-0,082	-0,174
-338,562	63,624	-0,050	-0,037
-337,548	800,000	-0,066	0,134
-336,533	-64,925	-0,102	0,030
-335,518	502,033	-0,029	-0,049
-334,504	76,370	0,059	0,046
-333,489	770,287	0,032	0,064
-332,475	2,199	-0,123	0,064
-331,460	800,000	-0,031	-0,092
-330,445	-145,545	-0,098	0,006
-329,431	72,884	0,031	-0,023
-328,416	38,692	0,045	0,029
-327,402	-200,000	-0,004	-0,015
-326,387	62,547	0,071	0,051
-325,372	221,688	-0,038	0,044
-324,358	24,951	-0,082	0,049
-323,343	800,000	-0,002	0,004
-322,329	-43,771	0,096	0,035
-321,314	-200,000	-0,004	0,140
-320,299	85,430	0,118	0,094
-319,285	161,543	-0,066	0,067
-318,270	-9,018	0,152	0,073
-317,256	-19,743	-0,029	0,013
-316,241	-200,000	-0,014	0,101
-315,226	565,436	0,059	-0,104
-314,212	-200,000	0,003	0,096
-313,197	-100,788	0,029	-0,005
-312,183	6,014	-0,061	-0,033
-311,168	0,455	0,093	0,048
-310,153	609,291	-0,038	-0,068
-309,139	-91,007	-0,026	-0,005
-308,124	-125,835	0,100	-0,011
-307,110	184,939	-0,039	0,042
-306,095	800,000	-0,045	0,092
-305,080	-151,928	-0,039	-0,002
-304,066	800,000	0,064	0,171
-303,051	-200,000	0,000	0,072
-302,037	-108,001	0,090	0,014
-301,022	-137,497	-0,173	0,014
-300,008	227,111	0,046	0,054
-298,993	305,250	-0,060	0,081
-297,978	-200,000	0,108	0,000
-296,964	668,732	0,038	0,072
-295,949	-31,747	-0,060	0,024
-294,935	258,394	-0,039	-0,049
-293,920	103,812	0,055	-0,047
-292,905	-10,981	0,151	0,072
-291,891	24,865	0,030	0,018
-290,876	-200,000	-0,029	0,137
-289,862	279,059	-0,076	0,098
-288,847	-125,054	-0,028	0,003
-287,832	144,067	-0,117	-0,113
-286,818	119,342	0,086	-0,077
-285,803	132,435	0,044	0,041
-284,789	73,728	0,048	0,037
-283,774	32,166	-0,034	0,021
-282,759	-167,084	0,097	-0,003
-281,745	187,314	-0,064	-0,069
-280,730	72,589	-0,080	-0,060
-279,716	-117,684	0,091	-0,012
-278,701	222,044	0,034	-0,039
-277,686	-45,140	0,122	0,044
-276,672	800,000	-0,046	0,127
-275,657	-200,000	-0,014	0,044
-274,643	162,198	0,048	0,049
-273,628	800,000	0,054	-0,121
-272,613	-56,517	0,068	0,022
-271,599	-107,853	-0,010	-0,002
-270,584	-200,000	0,000	-0,002
-269,570	401,990	0,031	0,047
-268,555	800,000	0,059	0,125
-267,540	-200,000	-0,014	-0,119
-266,526	153,694	-0,064	0,063
-265,511	-163,367	-0,048	-0,002
-264,497	109,521	-0,035	-0,030
-263,482	228,748	-0,051	0,060
-262,467	238,492	0,032	0,038
-261,453	-129,977	0,109	-0,011
-260,438	-51,608	0,103	-0,035
-259,424	800,000	-0,028	-0,087
-258,409	-177,606	-0,068	-0,001
-257,395	325,107	-0,041	0,057
-256,380	-11,324	0,045	0,021
-255,365	-122,527	0,060	-0,007
-254,351	800,000	0,030	0,067
-253,336	-200,000	-0,030	-0,122
-252,322	170,233	0,045	0,046
-251,307	518,741	-0,055	0,093
-250,292	-26,707	0,146	-0,061
-249,278	17,943	0,019	-0,011
-248,263	218,018	-0,045	0,052
-247,249	13,770	-0,119	-0,067
-246,234	800,000	-0,048	-0,108
-245,219	346,062	0,040	0,057
-244,205	159,266	0,080	-0,080
-243,190	-53,623	0,169	-0,056
-242,176	-200,000	0,003	0,042
-241,161	190,189	-0,028	0,031
-240,146	165,315	0,110	-0,112
-239,132	409,668	-0,051	-0,078
-238,117	-54,168	0,074	0,024
-237,103	22,393	-0,057	0,033
-236,088	-16,922	-0,115	0,053
-235,073	-23,391	0,107	-0,046
-234,059	-200,000	-0,019	0,105
-233,044	-32,850	0,177	0,071
-232,030	48,478	-0,103	-0,070
-231,015	62,486	-0,041	0,029
-230,000	-72,214	-0,052	-0,014
-228,986	800,000	-0,041	-0,118
-227,971	-69,416	0,173	-0,048
-226,957	-200,000	0,024	-0,080
-225,942	-52,524	0,133	0,044
-224,927	-200,000	0,001	-0,005
-223,913	133,635	-0,030	-0,028
-222,898	-176,581	-0,036	0,001
-221,884	617,213	0,016	-0,029
-220,869	1,942	0,178	0,092
-219,855	-10,887	0,040	0,019
-218,840	51,114	0,109	0,074
-217,825	61,137	-0,082	0,059
-216,811	3,675	0,060	0,032
-215,796	457,186	-0,019	0,030
-214,782	450,270	-0,052	-0,083
-213,767	-60,118	0,039	-0,012
-212,752	-200,000	0,020	0,064
-211,738	800,000	0,004	0,010
-210,723	283,344	0,041	-0,053
-209,709	-200,000	0,005	-0,043
-208,694	-200,000	-0,009	-0,039
-207,679	122,365	0,009	0,008
-206,665	-200,000	-0,056	0,201
-205,650	373,742	0,029	0,043
-204,636	7,096	0,053	0,029
-203,621	645,099	0,048	0,089
-202,606	-200,000	-0,004	-0,144
-201,592	800,000	-0,034	-0,090
-200,577	171,625	-0,054	0,056
-199,563	-113,285	0,139	0,019
-198,548	-200,000	-0,009	0,091
-197,533	-82,186	0,060	0,014
-196,519	-78,514	0,160	0,039
-195,504	-134,301	0,010	-0,001
-194,490	-53,126	-0,230	-0,076
-193,475	87,749	-0,052	0,041
-192,460	-200,000	-0,019	-0,082
-191,446	-119,891	-0,038	-0,005
-190,431	-1,878	0,114	-0,057
-189,417	-200,000	0,029	-0,122
-188,402	-121,439	0,055	0,006
-187,387	-25,883	0,064	0,027
-186,373	-16,221	-0,112	0,051
-185,358	800,000	0,053	0,129
-184,344	800,000	-0,027	0,082
-183,329	-200,000	0,011	0,070
-182,315	-22,982	-0,050	0,022
-181,300	-200,000	0,006	-0,050
-180,285	114,867	0,028	-0,025
-179,271	-200,000	-0,052	-0,170
-178,256	800,000	0,004	-0,011
-177,242	-200,000	-0,012	-0,077
-176,227	-200,000	-0,017	0,055
-175,212	-48,610	-0,041	-0,014
-174,198	-200,000	0,038	0,169
-173,183	106,067	0,092	0,078
-172,169	-200,000	-0,046	-0,175
-171,154	-168,597	0,060	-0,002
-170,139	22,525	-0,134	-0,079
-169,125	-7,997	-0,033	0,016
-168,110	800,000	0,011	-0,021
-167,096	55,519	0,135	-0,094
-166,081	-200,000	-0,039	-0,147
-165,066	-200,000	-0,043	-0,146
-164,052	58,977	0,031	-0,022
-163,037	-200,000	0,018	0,093
-162,023	16,038	0,030	0,017
-161,008	-200,000	-0,034	-0,153
-159,993	800,000	-0,029	0,064
-158,979	127,801	-0,033	0,030
-157,964	312,866	-0,065	0,088
-156,950	800,000	0,060	-0,150
-155,935	51,452	0,029	-0,020
-154,920	24,347	0,041	-0,024
-153,906	800,000	0,024	0,075
-152,891	306,587	0,097	0,131
-151,877	-189,214	-0,091	-0,001
-150,862	800,000	-0,048	-0,142
-149,847	800,000	0,020	0,058
-148,833	-25,935	-0,079	0,033
-147,818	621,384	0,044	-0,080
-146,804	678,705	-0,032	0,061
-145,789	357,149	0,015	0,021
-144,775	-144,873	-0,141	-0,009
-143,760	153,694	-0,045	0,044
-142,745	-59,124	-0,226	0,070
-141,731	-59,725	-0,076	0,023
-140,716	-200,000	-0,012	0,083
-139,702	44,211	-0,112	-0,074
-138,687	75,836	0,061	-0,047
-137,672	-200,000	0,050	-0,174
-136,658	-200,000	-0,038	0,000
-135,643	108,805	0,017	-0,014
-134,629	237,122	-0,035	-0,042
-133,614	-200,000	0,015	-0,056
-132,599	-200,000	0,018	0,181
-131,585	-200,000	-0,011	0,155
-130,570	191,625	-0,040	0,043
-129,556	319,619	0,064	0,088
-128,541	79,275	-0,086	0,066
-127,526	-200,000	0,011	-0,111
-126,512	-123,125	0,069	-0,008
-125,497	-101,776	0,171	-0,029
-124,483	-200,000	-0,016	-0,078
-123,468	228,746	0,069	0,081
-122,453	-106,361	-0,072	-0,011
-121,439	-21,530	-0,174	0,076
-120,424	28,165	-0,065	0,040
-119,410	-200,000	0,001	-0,097
