DTS Sentinel unit serial number:	SN410029Multiplexer serial number:	ORYXHardware model number:	OX2-SRSoftware version number:	ORYX F/W v4,00 Oryx Data Collector v3.7.2.0data status	okinstallation	B6 Nyhavnadifferential loss correction	single-endedforward channel	channel 2reverse channel	N/Adate	2023/12/08time	06:00:08forward acquisition time	300,00reverse acquisition time	0,00gamma	499,1914k internal	0,3165k external	0,3165temperature offset calibration	1,0000default loss term (dB/km)	0,3820temperature slope calibration	1,0000multiplexer offset coefficient	1,0000multiplexer slope coefficient	1,0000fibre end	0,00T internal ref (°C)	13,00T ext. ref 1 (°C)	-3,85T ext. ref 2 (°C)	-3,84length (m)	temperature (°C)	Stokes	anti-Stokes-744,400	-110,075	0,141	0,021
-743,385	-106,399	-0,296	0,048
-742,371	-106,787	0,246	-0,040
-741,356	-79,291	-0,372	-0,092
-740,342	22,588	0,167	0,100
-739,327	-110,577	-0,371	0,056
-738,312	-104,282	0,277	0,047
-737,298	7,085	-0,293	-0,160
-736,283	-200,000	-0,007	0,163
-735,269	-121,166	-0,276	-0,034
-734,254	800,000	0,060	0,154
-733,239	-54,304	-0,586	-0,194
-732,225	28,919	0,169	0,105
-731,210	800,000	0,073	0,177
-730,196	104,942	-0,088	0,076
-729,181	-200,000	-0,002	-0,073
-728,167	146,121	0,072	0,071
-727,152	-200,000	-0,025	0,092
-726,137	-155,506	-0,132	-0,006
-725,123	309,980	-0,090	-0,124
-724,108	800,000	-0,051	-0,111
-723,094	40,186	-0,055	-0,036
-722,079	-200,000	-0,027	-0,249
-721,064	175,987	0,068	-0,072
-720,050	73,465	0,097	0,074
-719,035	403,768	-0,071	-0,110
-718,021	800,000	-0,046	-0,124
-717,006	-200,000	-0,002	-0,177
-715,991	278,701	-0,170	-0,223
-714,977	56,161	0,069	0,049
-713,962	800,000	0,027	0,063
-712,948	72,714	0,068	0,052
-711,933	-200,000	-0,006	0,116
-710,918	-200,000	0,013	-0,111
-709,904	532,659	-0,029	-0,051
-708,889	-200,000	-0,014	-0,149
-707,875	800,000	0,012	-0,038
-706,860	171,136	-0,040	0,042
-705,845	234,452	0,028	-0,033
-704,831	-78,300	0,101	0,025
-703,816	92,443	-0,047	0,039
-702,802	570,518	0,046	0,083
-701,787	800,000	0,026	-0,078
-700,772	257,570	-0,019	-0,025
-699,758	-200,000	-0,018	0,126
-698,743	-17,602	0,182	0,084
-697,729	-40,551	-0,135	0,051
-696,714	673,095	0,047	0,090
-695,699	-43,353	-0,215	-0,079
-694,685	6,907	-0,095	0,052
-693,670	100,909	0,039	0,033
-692,656	-28,412	-0,060	0,025
-691,641	176,542	0,067	0,072
-690,627	-200,000	-0,020	0,081
-689,612	-200,000	0,034	0,143
-688,597	-200,000	-0,002	-0,009
-687,583	-91,347	-0,129	0,027
-686,568	154,387	-0,024	-0,024
-685,554	-200,000	-0,004	-0,079
-684,539	238,790	0,038	-0,047
-683,524	259,947	-0,083	-0,105
-682,510	209,535	-0,044	-0,051
-681,495	-137,259	0,057	-0,005
-680,481	-173,465	-0,126	0,003
-679,466	-174,391	-0,094	-0,002
-678,451	431,192	0,037	-0,059
-677,437	17,585	0,099	0,058
-676,422	-157,735	-0,171	-0,007
-675,408	375,300	0,009	0,013
-674,393	-131,325	-0,094	0,009
-673,378	40,915	0,025	-0,017
-672,364	800,000	-0,045	-0,141
-671,349	-200,000	-0,033	-0,147
-670,335	243,317	-0,181	-0,223
-669,320	-195,065	0,081	-0,000
-668,305	800,000	0,026	-0,065
-667,291	134,798	0,035	-0,034
-666,276	-75,688	-0,121	0,031
-665,262	-80,929	0,145	0,035
-664,247	-133,530	-0,143	0,013
-663,232	106,072	-0,094	-0,082
-662,218	-46,608	0,086	0,031
-661,203	800,000	-0,009	-0,020
-660,189	800,000	0,026	-0,065
-659,174	-79,050	0,074	-0,018
-658,159	-200,000	0,009	0,048
-657,145	20,336	-0,167	-0,099
-656,130	-45,311	0,080	-0,029
-655,116	426,599	-0,080	0,126
-654,101	-93,492	0,054	-0,011
-653,086	656,892	-0,046	-0,087
-652,072	70,445	-0,120	0,091
-651,057	800,000	-0,073	-0,170
-650,043	-200,000	-0,004	0,025
-649,028	-60,710	-0,096	0,030
-648,014	-95,624	-0,067	-0,013
-646,999	800,000	0,068	-0,159
-645,984	-200,000	-0,002	0,055
-644,970	800,000	-0,015	0,045
-643,955	-200,000	0,007	-0,141
-642,941	-200,000	-0,013	0,054
-641,926	-124,469	-0,056	0,006
-640,911	-122,163	0,078	0,009
-639,897	-169,430	-0,165	0,004
-638,882	-66,269	0,102	0,030
-637,868	-14,480	-0,059	-0,028
-636,853	-200,000	0,025	-0,188
-635,838	18,371	-0,152	-0,088
-634,824	-36,867	-0,117	-0,046
-633,809	542,041	0,047	-0,082
-632,795	90,698	0,068	0,056
-631,780	516,344	-0,111	0,190
-630,765	107,947	-0,094	0,082
-629,751	244,305	-0,044	-0,054
-628,736	120,484	0,100	-0,091
-627,722	-163,917	0,109	-0,004
-626,707	-200,000	0,000	-0,005
-625,692	116,967	-0,076	0,068
-624,678	-151,838	0,037	0,002
-623,663	28,660	0,072	-0,045
-622,649	663,796	0,025	-0,048
-621,634	-200,000	-0,003	0,014
-620,619	23,944	0,045	0,027
-619,605	208,518	-0,013	0,015
-618,590	-75,257	0,020	0,005
-617,576	56,073	0,029	-0,021
-616,561	800,000	-0,020	0,041
-615,546	-200,000	0,019	0,093
-614,532	-200,000	-0,008	-0,063
-613,517	102,775	0,019	0,017
-612,503	149,319	0,069	-0,069
-611,488	-138,506	0,105	-0,008
-610,474	-89,812	-0,039	-0,008
-609,459	800,000	0,079	0,177
-608,444	-79,302	0,040	0,010
-607,430	-88,634	-0,138	-0,030
-606,415	172,103	-0,132	-0,139
-605,401	54,770	-0,068	-0,048
-604,386	-144,617	0,166	0,011
-603,371	208,292	-0,057	0,066
-602,357	-200,000	0,013	0,133
-601,342	-94,598	0,015	0,003
-600,328	293,916	-0,046	-0,062
-599,313	195,399	-0,056	-0,063
-598,298	-43,347	0,090	-0,033
-597,284	-126,507	-0,032	-0,003
-596,269	82,999	0,047	0,038
-595,255	-72,084	0,077	0,021
-594,240	16,149	-0,047	-0,027
-593,225	-200,000	0,031	-0,101
-592,211	676,611	0,064	-0,123
-591,196	660,482	-0,032	-0,060
-590,182	530,920	0,050	-0,087
-589,167	19,826	-0,100	-0,059
-588,152	111,529	-0,090	-0,079
-587,138	-29,062	-0,049	0,021
-586,123	-142,519	-0,056	0,004
-585,109	800,000	-0,030	-0,082
-584,094	-18,165	0,099	-0,045
-583,079	214,211	-0,039	-0,046
-582,065	76,292	0,031	0,024
-581,050	144,582	-0,116	0,113
-580,036	578,487	0,094	0,169
-579,021	79,056	-0,135	-0,106
-578,006	192,820	-0,033	0,037
-576,992	-149,638	0,075	0,004
-575,977	48,840	-0,041	-0,028
-574,963	353,257	0,086	0,125
-573,948	-114,914	-0,170	-0,023
-572,934	-19,937	0,118	0,053
-571,919	-66,769	-0,098	0,028
-570,904	180,566	-0,110	-0,118
-569,890	468,728	-0,096	-0,158
-568,875	800,000	0,004	0,007
-567,861	-93,347	0,201	0,040
-566,846	-114,310	0,079	0,011
-565,831	-107,272	0,160	-0,025
-564,817	-143,879	-0,193	0,013
-563,802	800,000	-0,029	-0,092
-562,788	-45,065	-0,127	-0,046
-561,773	-93,338	-0,102	-0,020
-560,758	315,750	0,021	-0,029
-559,744	117,670	0,139	0,125
-558,729	124,983	0,085	0,078
-557,715	200,503	0,065	-0,073
-556,700	82,506	0,013	-0,010
-555,685	800,000	-0,025	0,070
-554,671	-200,000	-0,007	0,068
-553,656	800,000	-0,015	-0,030
-552,642	-200,000	-0,014	0,147
-551,627	106,714	-0,053	-0,046
-550,612	-101,108	-0,053	-0,009
-549,598	-63,571	-0,177	-0,053
-548,583	-200,000	-0,027	0,146
-547,569	103,560	-0,027	0,023
-546,554	800,000	0,035	0,082
-545,539	-200,000	-0,034	-0,117
-544,525	-200,000	-0,002	0,181
-543,510	-200,000	0,003	-0,025
-542,496	174,762	-0,106	0,112
-541,481	-113,845	0,082	-0,011
-540,466	-115,270	-0,073	0,010
-539,452	-200,000	-0,014	-0,065
-538,437	-88,217	0,046	-0,010
-537,423	-200,000	0,002	0,080
-536,408	743,998	-0,016	-0,031
-535,393	800,000	0,030	-0,079
-534,379	-200,000	-0,006	-0,087
-533,364	-110,140	0,082	-0,012
-532,350	-75,622	0,081	-0,021
-531,335	-180,232	0,129	0,002
-530,321	-122,119	-0,026	0,003
-529,306	-200,000	-0,001	-0,024
-528,291	130,340	-0,061	-0,057
-527,277	-53,658	0,068	0,023
-526,262	-200,000	0,032	0,149
-525,248	-200,000	-0,000	-0,021
-524,233	-200,000	-0,017	0,215
-523,218	365,951	-0,069	0,101
-522,204	-33,072	0,199	-0,080
-521,189	800,000	0,045	-0,099
-520,175	800,000	0,029	0,073
-519,160	54,421	-0,121	-0,085
-518,145	-132,957	0,022	-0,002
-517,131	386,000	0,030	-0,045
-516,116	-124,815	-0,119	0,013
-515,102	17,162	0,111	0,064
-514,087	-194,102	0,014	0,000
-513,072	483,684	-0,044	-0,073
-512,058	-200,000	0,028	0,141
-511,043	434,409	0,028	-0,044
-510,029	-200,000	0,001	0,093
-509,014	243,714	-0,045	0,055
-507,999	186,349	0,106	-0,116
-506,985	800,000	-0,055	0,144
-505,970	14,698	0,046	-0,026
-504,956	218,539	0,064	-0,075
-503,941	-150,227	0,045	0,003
-502,926	-200,000	-0,010	0,104
-501,912	800,000	0,027	-0,069
-500,897	59,022	-0,102	0,073
-499,883	97,713	0,036	0,030
-498,868	800,000	-0,031	-0,086
-497,853	-121,838	-0,024	0,003
-496,839	-82,344	0,066	-0,015
-495,824	-13,437	0,075	-0,035
-494,810	-122,659	-0,016	-0,002
-493,795	-200,000	0,000	0,034
-492,781	30,205	-0,167	-0,104
-491,766	148,266	-0,101	-0,099
-490,751	272,992	-0,072	0,093
-489,737	-200,000	-0,036	-0,165
-488,722	-200,000	0,027	-0,087
-487,708	249,201	-0,084	0,104
-486,693	-64,632	0,096	-0,028
-485,678	-95,394	0,046	0,009
-484,664	-136,174	-0,095	-0,008
-483,649	-111,412	-0,103	-0,015
-482,635	11,329	-0,106	0,059
-481,620	201,182	-0,077	-0,086
-480,605	60,111	0,052	-0,038
-479,591	53,066	0,054	0,037
-478,576	-107,109	0,085	0,013
-477,562	800,000	-0,044	-0,119
-476,547	-200,000	-0,061	-0,228
-475,532	800,000	-0,052	-0,118
-474,518	500,518	0,097	0,163
-473,503	-154,546	-0,142	-0,007
-472,489	-4,593	0,193	0,097
-471,474	410,129	-0,058	0,090
-470,459	23,728	-0,083	0,050
-469,445	800,000	-0,026	0,056
-468,430	-200,000	0,005	-0,127
-467,416	-200,000	-0,023	-0,144
-466,401	40,824	0,046	0,030
-465,386	310,266	-0,034	-0,047
-464,372	-67,826	0,128	0,036
-463,357	138,245	-0,095	0,090
-462,343	-47,807	-0,092	-0,032
-461,328	254,184	0,105	-0,131
-460,313	610,017	-0,038	0,069
-459,299	175,898	0,017	0,018
-458,284	-102,620	0,016	-0,003
-457,270	69,191	-0,067	-0,050
-456,255	641,663	0,026	0,048
-455,241	-143,232	-0,103	-0,007
-454,226	70,931	-0,070	-0,053
-453,211	-151,301	0,011	0,001
-452,197	111,173	0,143	0,125
-451,182	-44,559	0,102	-0,037
-450,168	399,790	0,043	0,065
-449,153	25,662	0,077	-0,047
-448,138	-1,348	-0,090	0,046
-447,124	8,329	-0,129	-0,070
-446,109	-59,488	-0,054	-0,017
-445,095	95,747	0,115	-0,095
-444,080	800,000	-0,034	-0,093
-443,065	101,950	-0,035	0,029
-442,051	13,844	-0,071	0,040
-441,036	800,000	-0,020	-0,053
-440,022	-84,553	-0,033	0,008
-439,007	-14,701	0,106	0,049
-437,992	-63,916	-0,078	0,023
-436,978	-200,000	-0,001	-0,008
-435,963	313,529	-0,021	0,028
-434,949	-107,472	0,172	-0,027
-433,934	-200,000	0,011	-0,142
-432,919	-200,000	-0,040	0,000
-431,905	-119,326	-0,020	0,002
-430,890	-77,056	0,166	-0,042
-429,876	800,000	0,045	0,106
-428,861	230,920	0,028	-0,033
-427,846	51,734	-0,131	-0,090
-426,832	-200,000	-0,011	-0,137
-425,817	27,606	0,094	0,057
-424,803	55,563	-0,042	0,030
-423,788	-112,001	0,069	-0,010
-422,773	-93,472	-0,036	-0,007
-421,759	-200,000	0,014	0,074
-420,744	-200,000	0,013	-0,104
-419,730	800,000	-0,018	-0,046
-418,715	211,487	0,065	-0,075
-417,701	-148,011	0,047	0,003
-416,686	-200,000	0,023	0,141
-415,671	-200,000	-0,004	0,045
-414,657	800,000	-0,021	0,065
-413,642	-16,013	-0,050	-0,023
-412,628	-128,813	0,065	-0,007
-411,613	-200,000	0,002	-0,046
-410,598	-19,920	-0,157	-0,070
-409,584	800,000	0,018	0,054
-408,569	30,096	0,220	-0,136
-407,555	800,000	0,016	0,046
-406,540	199,147	0,084	-0,094
-405,525	129,549	-0,075	-0,070
-404,511	30,062	-0,118	-0,073
-403,496	-200,000	0,013	-0,088
-402,482	-32,105	0,037	0,015
-401,467	-53,536	-0,029	0,010
-400,452	800,000	-0,031	0,099
-399,438	97,412	-0,044	0,036
-398,423	-36,784	-0,120	-0,047
-397,409	800,000	0,031	0,071
-396,394	-200,000	0,008	0,051
-395,379	-11,830	-0,059	-0,028
-394,365	-119,154	0,134	0,017
-393,350	-68,637	0,101	0,028
-392,336	239,526	0,070	-0,084
-391,321	31,265	0,096	0,060
-390,306	-162,419	-0,033	-0,001
-389,292	800,000	-0,053	-0,114
-388,277	368,892	-0,074	0,109
-387,263	548,899	0,043	0,074
-386,248	103,562	0,131	0,111
-385,233	343,443	-0,012	0,017
-384,219	134,826	-0,054	0,050
-383,204	-25,355	0,014	-0,006
-382,190	-200,000	0,028	-0,130
-381,175	-200,000	0,003	-0,054
-380,160	85,283	-0,113	-0,090
-379,146	-59,905	0,098	0,030
-378,131	112,855	0,099	0,087
-377,117	-73,896	-0,094	-0,025
-376,102	547,089	-0,042	-0,074
-375,088	-200,000	0,022	-0,071
-374,073	25,024	-0,142	-0,085
-373,058	141,888	-0,046	0,044
-372,044	216,516	-0,054	0,062
-371,029	-141,555	0,099	-0,007
-370,015	-45,346	0,164	-0,059
-369,000	-0,511	0,190	-0,097
-367,985	558,841	-0,060	-0,105
-366,971	-123,529	-0,048	0,005
-365,956	-5,047	-0,047	-0,023
-364,942	-200,000	-0,035	0,121
-363,927	-200,000	-0,013	0,064
-362,912	524,430	-0,059	-0,101
-361,898	11,405	-0,005	-0,003
-360,883	81,106	0,127	-0,099
-359,869	-200,000	0,040	0,153
-358,854	800,000	0,028	-0,071
-357,839	267,399	0,090	0,114
-356,825	-200,000	-0,018	0,069
-355,810	800,000	0,029	-0,075
-354,796	100,174	-0,060	-0,051
-353,781	-53,478	-0,174	-0,057
-352,766	800,000	-0,028	0,085
-351,752	800,000	0,053	0,109
-350,737	-200,000	0,007	-0,045
-349,723	-200,000	-0,024	0,130
-348,708	-200,000	-0,020	0,065
-347,693	-200,000	-0,041	0,188
-346,679	-200,000	0,004	-0,064
-345,664	800,000	0,026	-0,072
-344,650	-56,251	-0,135	0,043
-343,635	39,132	0,085	0,055
-342,620	475,175	0,058	0,095
-341,606	8,291	0,079	0,043
-340,591	-200,000	0,020	-0,124
-339,577	800,000	-0,054	-0,155
-338,562	-200,000	-0,004	-0,067
-337,548	-200,000	-0,004	-0,134
-336,533	5,027	0,097	0,052
-335,518	-181,814	0,066	0,001
-334,504	303,883	0,013	0,017
-333,489	155,470	0,095	-0,095
-332,475	-200,000	-0,030	-0,112
-331,460	-200,000	0,008	-0,053
-330,445	61,022	0,050	-0,036
-329,431	-200,000	-0,005	-0,098
-328,416	800,000	0,005	0,011
-327,402	-83,237	0,028	-0,006
-326,387	243,117	-0,099	0,121
-325,372	800,000	-0,025	-0,053
-324,358	66,361	-0,089	0,066
-323,343	415,294	0,011	-0,016
-322,329	79,816	0,141	-0,110
-321,314	-14,936	-0,078	-0,036
-320,299	545,914	-0,056	-0,097
-319,285	-53,457	-0,122	-0,040
-318,270	-155,611	-0,064	-0,003
-317,256	-29,502	0,187	-0,077
-316,241	336,768	-0,033	-0,046
-315,226	82,297	-0,029	0,023
-314,212	-98,975	0,059	0,011
-313,197	-200,000	0,005	0,075
-312,183	-135,814	-0,083	0,007
-311,168	-34,697	0,058	0,023
-310,153	326,972	0,067	-0,093
-309,139	330,116	0,020	-0,028
-308,124	-117,287	0,182	0,024
-307,110	800,000	0,017	0,051
-306,095	485,998	-0,102	0,169
-305,080	192,335	0,051	-0,056
-304,066	24,562	-0,054	0,032
-303,051	800,000	0,022	-0,052
-302,037	800,000	-0,039	-0,081
-301,022	-101,569	0,052	0,009
-300,008	-134,790	0,044	0,004
-298,993	128,271	-0,057	-0,053
-297,978	-115,777	0,075	-0,010
-296,964	-144,781	0,112	-0,007
-295,949	344,982	-0,106	-0,151
-294,935	-123,126	0,080	-0,009
-293,920	-200,000	0,009	0,140
-292,905	-107,763	0,065	0,010
-291,891	3,967	-0,080	-0,042
-290,876	800,000	-0,046	0,104
-289,862	-93,558	-0,166	-0,033
-288,847	-66,157	0,096	0,028
-287,832	-190,856	-0,072	0,001
-286,818	-200,000	0,006	0,170
-285,803	-86,663	0,133	0,029
-284,789	740,351	-0,076	0,148
-283,774	-200,000	0,040	0,132
-282,759	6,040	-0,065	-0,035
-281,745	247,416	0,076	-0,093
-280,730	58,271	0,093	0,065
-279,716	297,352	-0,033	-0,043
-278,701	-200,000	-0,025	0,103
-277,686	84,065	0,062	0,049
-276,672	800,000	-0,002	0,007
-275,657	6,799	-0,077	-0,041
-274,643	239,407	-0,053	-0,064
-273,628	-60,873	-0,106	-0,032
-272,613	-200,000	0,008	0,126
-271,599	-200,000	0,016	0,055
-270,584	-21,406	0,164	0,072
-269,570	-200,000	0,024	0,121
-268,555	-39,006	-0,174	-0,066
-267,540	-47,641	0,035	-0,012
-266,526	-54,627	0,060	0,019
-265,511	-200,000	-0,009	-0,051
-264,497	800,000	0,040	-0,103
-263,482	-29,782	0,057	-0,023
-262,467	-200,000	-0,006	-0,052
-261,453	151,925	0,041	0,040
-260,438	6,664	-0,094	0,050
-259,424	228,222	0,012	-0,014
-258,409	172,339	-0,072	0,075
-257,395	249,526	0,073	0,090
-256,380	-200,000	-0,035	-0,159
-255,365	-66,039	0,120	0,034
-254,351	-125,714	-0,117	0,013
-253,336	-76,984	-0,078	0,020
-252,322	-200,000	0,006	-0,028
-251,307	206,723	-0,077	0,086
-250,292	233,410	-0,087	0,103
-249,278	-129,701	0,175	-0,017
-248,263	-89,098	-0,087	0,018
-247,249	-200,000	0,004	0,075
-246,234	800,000	0,004	-0,009
-245,219	201,445	0,057	0,063
-244,205	-200,000	-0,008	-0,097
-243,190	800,000	-0,045	0,093
-242,176	30,278	0,052	-0,032
-241,161	310,243	0,059	0,080
-240,146	25,138	0,209	0,125
-239,132	20,538	-0,062	0,036
-238,117	93,029	-0,024	0,020
-237,103	-200,000	-0,023	0,173
-236,088	39,954	-0,086	0,056
-235,073	-97,333	0,162	0,030
-234,059	-84,884	0,050	0,011
-233,044	800,000	-0,052	0,120
-232,030	-200,000	-0,000	-0,009
-231,015	-200,000	0,008	-0,048
-230,000	-200,000	0,005	-0,071
-228,986	238,885	-0,059	0,071
-227,971	684,211	0,046	-0,088
-226,957	120,687	-0,012	0,011
-225,942	121,152	-0,025	0,022
-224,927	-56,869	-0,085	0,027
-223,913	374,935	0,024	-0,035
-222,898	32,965	0,039	-0,024
-221,884	-200,000	0,027	-0,177
-220,869	439,197	0,016	0,025
-219,855	800,000	0,014	0,043
-218,840	-200,000	-0,011	0,111
-217,825	800,000	-0,043	0,116
-216,811	-200,000	0,003	-0,132
-215,796	96,689	0,088	-0,073
-214,782	-68,607	-0,091	0,025
-213,767	-200,000	0,202	0,000
-212,752	36,459	0,068	-0,043
-211,738	-16,938	-0,057	0,026
-210,723	155,792	-0,071	-0,071
-209,709	800,000	0,043	0,087
-208,694	-62,576	-0,055	-0,016
-207,679	-6,891	-0,051	-0,025
-206,665	512,959	-0,031	-0,052
-205,650	-75,181	-0,153	-0,039
-204,636	-200,000	-0,005	0,057
-203,621	301,169	-0,015	0,020
-202,606	111,944	-0,093	0,081
-201,592	196,608	-0,102	-0,112
-200,577	-89,657	-0,104	-0,022
-199,563	115,678	0,115	0,101
-198,548	37,901	-0,085	0,055
-197,533	131,419	0,066	-0,061
-196,519	-109,113	-0,177	0,027
-195,504	-200,000	-0,012	-0,072
-194,490	-71,052	0,077	-0,021
-193,475	-200,000	0,010	0,125
-192,460	-11,346	-0,067	0,032
-191,446	132,192	0,024	0,022
-190,431	-200,000	0,001	-0,060
-189,417	-172,227	0,161	-0,004
-188,402	163,790	0,026	0,026
-187,387	-29,026	-0,043	0,018
-186,373	-22,028	-0,142	0,062
-185,358	-200,000	-0,024	-0,082
-184,344	244,464	-0,037	0,044
-183,329	-200,000	-0,004	0,031
-182,315	45,643	0,118	0,079
-181,300	179,676	0,090	0,095
-180,285	-117,768	-0,104	-0,013
-179,271	-200,000	0,011	0,142
-178,256	97,107	-0,077	-0,064
-177,242	-200,000	-0,013	-0,074
-176,227	617,152	0,091	0,165
-175,212	800,000	0,047	0,112
-174,198	-136,999	0,032	0,003
-173,183	800,000	0,004	-0,008
-172,169	-200,000	0,028	-0,157
-171,154	-200,000	-0,026	-0,090
-170,139	54,704	0,040	-0,028
-169,125	-200,000	0,007	0,071
-168,110	371,880	-0,038	-0,056
-167,096	-82,212	0,037	-0,009
-166,081	31,561	0,100	0,062
-165,066	-34,049	0,044	0,017
-164,052	-200,000	-0,010	0,056
-163,037	337,413	0,055	0,078
-162,023	43,408	0,067	-0,044
-161,008	80,607	0,070	0,054
-159,993	59,485	-0,121	0,086
-158,979	686,514	-0,029	0,055
-157,964	-145,272	-0,064	0,004
-156,950	-126,964	0,043	-0,005
-155,935	231,408	0,075	-0,088
-154,920	445,456	0,059	-0,093
-153,906	800,000	0,027	0,076
-152,891	-151,336	-0,120	-0,006
-151,877	81,886	0,086	0,067
-150,862	-40,928	-0,090	-0,033
-149,847	-104,954	0,067	0,011
-148,833	-200,000	0,010	0,061
-147,818	-200,000	0,002	0,114
-146,804	26,800	0,138	0,083
-145,789	439,998	0,046	0,073
-144,775	592,310	0,043	0,077
-143,760	490,940	-0,043	-0,070
-142,745	334,474	-0,043	-0,060
-141,731	-200,000	-0,014	0,069
-140,716	-200,000	0,010	0,109
-139,702	177,369	0,037	0,039
-138,687	-15,457	0,050	0,023
-137,672	122,071	0,069	0,062
-136,658	-200,000	-0,046	0,183
-135,643	86,829	0,079	-0,063
-134,629	800,000	0,019	-0,046
-133,614	-200,000	0,019	0,066
-132,599	800,000	0,028	0,069
-131,585	-140,055	0,138	-0,010
-130,570	57,280	0,051	-0,036
-129,556	60,480	-0,100	0,071
-128,541	800,000	-0,032	0,092
-127,526	800,000	0,005	-0,013
-126,512	-6,448	0,149	0,073
-125,497	-31,662	0,097	0,039
-124,483	-8,929	-0,061	0,029
-123,468	-120,702	-0,083	0,010
-122,453	-200,000	-0,007	0,100
-121,439	40,063	0,064	0,041
-120,424	-16,052	-0,078	-0,036
-119,410	-200,000	0,022	0,098
