DTS Sentinel unit serial number:	SN410029Multiplexer serial number:	ORYXHardware model number:	OX2-SRSoftware version number:	ORYX F/W v4,00 Oryx Data Collector v3.7.2.0data status	okinstallation	B6 Nyhavnadifferential loss correction	single-endedforward channel	channel 2reverse channel	N/Adate	2023/12/09time	02:25:08forward acquisition time	300,00reverse acquisition time	0,00gamma	499,1914k internal	0,3155k external	0,3155temperature offset calibration	1,0000default loss term (dB/km)	0,3820temperature slope calibration	1,0000multiplexer offset coefficient	1,0000multiplexer slope coefficient	1,0000fibre end	0,00T internal ref (°C)	15,99T ext. ref 1 (°C)	-0,23T ext. ref 2 (°C)	-0,24length (m)	temperature (°C)	Stokes	anti-Stokes-744,400	-200,000	0,020	0,075
-743,385	-101,491	-0,231	0,041
-742,371	-87,043	0,144	0,032
-741,356	-100,688	-0,278	-0,050
-740,342	-200,000	0,013	0,079
-739,327	-121,409	-0,278	0,034
-738,312	-91,119	0,040	-0,008
-737,298	-147,686	-0,363	0,022
-736,283	72,227	0,112	-0,086
-735,269	-165,833	-0,401	-0,012
-734,254	-72,439	0,093	-0,025
-733,239	-42,518	-0,533	-0,199
-732,225	-125,119	0,197	0,022
-731,210	367,312	0,061	0,091
-730,196	16,319	-0,011	-0,007
-729,181	800,000	-0,054	-0,135
-728,167	-200,000	-0,009	0,056
-727,152	-200,000	0,027	0,110
-726,137	195,670	-0,043	-0,048
-725,123	-122,832	-0,065	0,008
-724,108	-200,000	0,015	-0,082
-723,094	59,099	-0,048	0,035
-722,079	457,858	0,068	0,111
-721,064	301,460	-0,057	0,078
-720,050	-42,124	-0,080	-0,030
-719,035	-76,092	-0,078	-0,020
-718,021	424,434	-0,029	0,046
-717,006	-200,000	-0,013	-0,069
-715,991	73,843	-0,216	-0,167
-714,977	-13,142	-0,130	0,062
-713,962	181,467	0,064	-0,070
-712,948	-23,836	0,074	0,032
-711,933	-140,246	-0,093	0,007
-710,918	127,437	-0,065	-0,061
-709,904	-43,152	-0,077	0,028
-708,889	-159,791	-0,059	0,002
-707,875	43,133	-0,153	-0,103
-706,860	159,435	0,003	0,003
-705,845	-200,000	-0,022	0,088
-704,831	135,790	0,089	-0,086
-703,816	526,631	-0,022	0,038
-702,802	243,430	0,031	-0,039
-701,787	-60,687	-0,087	-0,027
-700,772	-122,989	0,105	-0,012
-699,758	302,919	-0,035	-0,048
-698,743	-131,531	0,122	-0,012
-697,729	-159,774	-0,070	-0,003
-696,714	-200,000	0,010	0,063
-695,699	800,000	0,062	0,128
-694,685	-61,816	-0,123	-0,038
-693,670	-200,000	-0,003	-0,152
-692,656	131,595	-0,018	0,017
-691,641	-200,000	-0,006	0,096
-690,627	-93,530	0,084	-0,017
-689,612	-38,909	-0,099	0,038
-688,597	334,541	0,078	-0,112
-687,583	435,087	-0,044	0,070
-686,568	117,473	-0,030	0,028
-685,554	-200,000	0,019	-0,126
-684,539	399,780	-0,013	-0,020
-683,524	-170,933	-0,116	0,003
-682,510	25,627	-0,080	0,049
-681,495	157,734	-0,082	-0,084
-680,481	192,362	-0,080	-0,089
-679,466	-49,567	-0,154	-0,054
-678,451	-185,314	0,103	0,001
-677,437	465,119	0,054	0,088
-676,422	-15,537	0,065	0,031
-675,408	800,000	0,035	0,088
-674,393	-42,734	-0,074	0,028
-673,378	98,040	-0,073	-0,062
-672,364	-35,279	0,007	-0,003
-671,349	800,000	-0,057	0,118
-670,335	800,000	0,045	-0,130
-669,320	129,093	-0,056	-0,053
-668,305	-190,499	0,064	0,000
-667,291	-70,252	0,062	0,017
-666,276	20,867	-0,095	-0,057
-665,262	-200,000	-0,004	-0,024
-664,247	-200,000	-0,028	-0,125
-663,232	-200,000	0,019	0,137
-662,218	-50,522	0,094	-0,033
-661,203	-200,000	-0,004	0,044
-660,189	-200,000	0,003	-0,013
-659,174	-60,351	-0,050	0,016
-658,159	-8,371	0,166	-0,082
-657,145	800,000	-0,034	-0,104
-656,130	-200,000	-0,016	-0,074
-655,116	107,008	0,059	-0,051
-654,101	446,617	-0,034	0,055
-653,086	-113,822	-0,143	0,020
-652,072	-68,021	-0,055	0,016
-651,057	-193,172	0,062	-0,000
-650,043	355,407	-0,007	0,011
-649,028	548,422	-0,014	-0,024
-648,014	-109,493	0,055	0,008
-646,999	-83,087	0,137	-0,032
-645,984	-67,643	-0,093	0,027
-644,970	-110,119	0,094	-0,014
-643,955	250,937	-0,079	-0,099
-642,941	800,000	0,025	-0,064
-641,926	-200,000	0,013	-0,055
-640,911	150,319	-0,035	-0,035
-639,897	-64,901	-0,041	-0,012
-638,882	800,000	-0,059	-0,167
-637,868	-19,129	-0,054	-0,025
-636,853	-76,536	-0,084	0,022
-635,838	5,627	-0,071	0,038
-634,824	23,242	0,025	0,015
-633,809	-129,541	0,064	0,006
-632,795	-200,000	-0,014	-0,060
-631,780	800,000	-0,055	-0,121
-630,765	-200,000	-0,007	-0,086
-629,751	-200,000	0,003	-0,012
-628,736	-200,000	-0,005	0,023
-627,722	162,802	-0,058	-0,060
-626,707	-31,783	-0,030	-0,012
-625,692	-3,128	-0,087	0,044
-624,678	138,157	0,087	0,084
-623,663	516,861	0,022	-0,037
-622,649	-53,431	-0,138	0,046
-621,634	-200,000	0,023	-0,101
-620,619	-200,000	0,017	-0,062
-619,605	109,288	-0,032	0,028
-618,590	388,238	0,057	0,086
-617,576	6,602	0,115	0,063
-616,561	79,921	-0,034	0,026
-615,546	462,939	0,027	-0,044
-614,532	142,564	0,107	-0,104
-613,517	800,000	-0,025	0,059
-612,503	-200,000	-0,007	-0,062
-611,488	92,078	-0,077	0,064
-610,474	187,956	0,041	-0,045
-609,459	11,557	-0,096	-0,054
-608,444	800,000	-0,065	0,133
-607,430	14,717	0,079	-0,045
-606,415	-200,000	-0,015	-0,083
-605,401	-146,291	0,149	0,009
-604,386	38,553	-0,116	-0,076
-603,371	-200,000	-0,018	0,122
-602,357	265,654	0,117	-0,150
-601,342	204,366	-0,126	-0,144
-600,328	-112,221	-0,111	0,016
-599,313	74,853	0,043	0,033
-598,298	-63,770	0,053	-0,016
-597,284	158,707	0,036	-0,037
-596,269	-200,000	0,003	-0,098
-595,255	-130,150	0,105	-0,010
-594,240	734,785	-0,040	-0,080
-593,225	-200,000	-0,004	-0,179
-592,211	-200,000	0,027	-0,131
-591,196	-200,000	0,030	-0,104
-590,182	-115,708	-0,102	0,014
-589,167	126,810	0,060	0,056
-588,152	381,661	-0,060	0,091
-587,138	47,908	-0,058	-0,040
-586,123	329,673	-0,086	-0,121
-585,109	185,590	-0,053	-0,057
-584,094	396,068	-0,054	-0,083
-583,079	31,364	0,079	-0,050
-582,065	-99,298	0,082	-0,015
-581,050	-198,760	0,066	-0,000
-580,036	162,760	-0,069	0,071
-579,021	-132,597	0,161	0,015
-578,006	183,340	0,051	-0,055
-576,992	-159,762	-0,020	-0,001
-575,977	-33,060	-0,078	-0,031
-574,963	-200,000	-0,034	-0,176
-573,948	-200,000	0,034	-0,150
-572,934	800,000	0,048	0,099
-571,919	325,830	-0,078	-0,110
-570,904	800,000	-0,058	0,141
-569,890	-87,369	0,129	0,028
-568,875	-121,691	-0,109	0,013
-567,861	186,877	0,045	0,049
-566,846	-36,431	-0,045	-0,018
-565,831	603,872	0,041	-0,075
-564,817	-200,000	-0,003	-0,129
-563,802	-200,000	-0,002	-0,021
-562,788	119,413	0,041	0,037
-561,773	273,103	-0,037	0,049
-560,758	126,200	0,099	0,092
-559,744	422,572	-0,090	0,141
-558,729	-200,000	-0,020	0,148
-557,715	131,355	-0,032	-0,031
-556,700	118,873	-0,082	-0,074
-555,685	393,278	-0,090	-0,138
-554,671	0,362	0,076	-0,040
-553,656	-200,000	0,038	-0,125
-552,642	-19,026	0,042	-0,019
-551,627	-200,000	0,008	0,127
-550,612	-7,664	0,088	-0,043
-549,598	-5,852	-0,059	0,030
-548,583	254,957	-0,067	-0,084
-547,569	-102,603	0,120	-0,021
-546,554	42,009	-0,023	-0,015
-545,539	-53,528	0,094	-0,031
-544,525	-200,000	0,009	-0,040
-543,510	-109,215	0,084	0,013
-542,496	-73,670	-0,056	-0,015
-541,481	-200,000	0,007	-0,046
-540,466	135,125	-0,044	-0,042
-539,452	800,000	0,055	0,145
-538,437	800,000	-0,072	0,152
-537,423	-62,061	0,100	0,030
-536,408	800,000	0,008	0,018
-535,393	-200,000	0,000	-0,134
-534,379	-200,000	-0,024	0,091
-533,364	-105,425	-0,122	0,020
-532,350	305,364	-0,045	-0,061
-531,335	-87,289	0,117	0,026
-530,321	800,000	-0,009	0,026
-529,306	-81,352	-0,045	-0,011
-528,291	-25,562	-0,051	-0,022
-527,277	142,712	-0,168	-0,163
-526,262	144,620	-0,063	-0,061
-525,248	-54,181	-0,040	0,013
-524,233	-42,761	0,030	-0,011
-523,218	193,362	0,099	0,109
-522,204	-200,000	0,012	0,042
-521,189	529,507	0,044	0,077
-520,175	-86,195	-0,114	-0,026
-519,160	-200,000	0,008	0,080
-518,145	101,016	-0,061	0,052
-517,131	-145,825	0,112	-0,007
-516,116	1,206	-0,034	-0,018
-515,102	68,374	0,079	0,059
-514,087	-200,000	0,009	0,045
-513,072	58,111	-0,114	0,082
-512,058	-96,649	-0,194	0,037
-511,043	-23,645	0,052	0,023
-510,029	-200,000	0,008	0,055
-509,014	-101,010	0,128	-0,023
-507,999	84,155	-0,022	-0,017
-506,985	-200,000	0,006	0,101
-505,970	-36,327	-0,130	-0,051
-504,956	659,244	-0,056	-0,107
-503,941	-103,801	-0,070	0,012
-502,926	406,284	-0,041	-0,064
-501,912	-24,685	0,082	0,036
-500,897	-200,000	0,035	0,150
-499,883	96,087	0,050	0,042
-498,868	-62,138	-0,237	-0,072
-497,853	-17,854	-0,091	0,042
-496,839	622,122	0,062	0,115
-495,824	-79,113	-0,057	0,014
-494,810	-200,000	-0,009	0,067
-493,795	170,033	-0,045	-0,047
-492,781	301,781	0,080	-0,108
-491,766	317,149	-0,038	0,052
-490,751	800,000	0,026	-0,061
-489,737	-200,000	0,014	0,060
-488,722	110,109	0,030	0,026
-487,708	-200,000	0,013	-0,057
-486,693	24,776	-0,177	0,107
-485,678	5,422	0,146	-0,078
-484,664	-200,000	-0,007	0,057
-483,649	665,459	0,051	-0,098
-482,635	268,488	0,080	-0,102
-481,620	-7,552	0,075	0,037
-480,605	-200,000	-0,004	-0,018
-479,591	27,584	0,052	0,032
-478,576	800,000	0,035	-0,085
-477,562	-74,639	-0,058	0,015
-476,547	-119,152	0,030	-0,004
-475,532	800,000	0,054	0,144
-474,518	24,460	0,069	-0,042
-473,503	-108,887	-0,081	-0,013
-472,489	800,000	0,018	0,052
-471,474	27,148	0,125	-0,077
-470,459	-200,000	0,010	-0,136
-469,445	145,904	0,128	-0,125
-468,430	721,426	-0,049	0,095
-467,416	-6,793	0,159	0,078
-466,401	-200,000	-0,004	-0,077
-465,386	-37,411	0,054	-0,021
-464,372	-200,000	-0,013	-0,046
-463,357	-18,952	-0,160	-0,072
-462,343	-91,978	-0,088	-0,018
-461,328	800,000	0,021	0,053
-460,313	-162,493	0,118	-0,004
-459,299	154,636	0,098	0,098
-458,284	-200,000	-0,018	0,164
-457,270	-200,000	-0,008	0,047
-456,255	800,000	0,026	0,061
-455,241	196,059	-0,055	-0,061
-454,226	-46,588	-0,011	-0,004
-453,211	-7,781	0,082	0,040
-452,197	62,799	-0,050	0,037
-451,182	-200,000	-0,010	0,120
-450,168	-30,944	0,119	-0,049
-449,153	133,685	-0,040	-0,038
-448,138	397,179	0,070	0,108
-447,124	-200,000	0,001	0,016
-446,109	-140,483	-0,052	0,004
-445,095	-138,645	-0,020	-0,002
-444,080	-136,302	0,091	0,008
-443,065	142,307	0,086	-0,084
-442,051	244,341	-0,047	0,057
-441,036	371,417	-0,049	0,073
-440,022	-56,647	0,049	-0,016
-439,007	-19,989	0,071	0,032
-437,992	-200,000	0,016	0,060
-436,978	2,611	-0,015	-0,008
-435,963	-171,339	-0,116	-0,003
-434,949	266,991	-0,050	0,063
-433,934	422,546	-0,048	-0,075
-432,919	189,796	-0,077	0,084
-431,905	-200,000	0,032	0,117
-430,890	366,361	0,049	0,072
-429,876	800,000	0,066	0,150
-428,861	-98,088	-0,051	0,009
-427,846	236,710	0,029	0,035
-426,832	-27,946	-0,080	-0,034
-425,817	800,000	0,029	-0,076
-424,803	625,292	0,037	-0,068
-423,788	-97,840	-0,036	0,007
-422,773	23,205	0,139	0,083
-421,759	615,537	-0,044	0,081
-420,744	-165,387	0,099	0,003
-419,730	-55,246	0,036	-0,012
-418,715	319,616	0,058	-0,081
-417,701	318,217	0,040	-0,055
-416,686	-200,000	-0,000	-0,151
-415,671	-83,616	0,098	0,023
-414,657	-200,000	0,009	-0,100
-413,642	-71,557	0,043	0,012
-412,628	231,551	0,059	-0,071
-411,613	-200,000	-0,022	-0,084
-410,598	800,000	-0,050	-0,108
-409,584	-200,000	-0,023	0,135
-408,569	-13,400	0,133	0,063
-407,555	800,000	0,032	0,068
-406,540	800,000	-0,050	0,103
-405,525	218,564	-0,065	0,076
-404,511	-200,000	0,002	-0,012
-403,496	431,208	0,073	0,115
-402,482	-200,000	-0,002	0,055
-401,467	566,852	-0,022	-0,040
-400,452	-92,678	0,049	0,010
-399,438	800,000	-0,047	0,111
-398,423	106,136	-0,105	0,091
-397,409	-200,000	0,007	-0,035
-396,394	-200,000	-0,027	0,090
-395,379	-14,589	0,034	0,016
-394,365	-90,100	0,130	-0,027
-393,350	-76,376	0,074	0,019
-392,336	-200,000	-0,018	0,061
-391,321	-18,526	0,128	-0,058
-390,306	49,600	-0,048	0,033
-389,292	79,104	-0,103	-0,080
-388,277	-200,000	0,016	-0,055
-387,263	-46,242	0,061	-0,022
-386,248	800,000	0,010	0,021
-385,233	-44,450	0,035	0,013
-384,219	-200,000	-0,006	-0,027
-383,204	166,111	-0,061	-0,063
-382,190	800,000	0,040	0,109
-381,175	34,743	-0,067	0,043
-380,160	250,978	0,071	-0,088
-379,146	-88,171	-0,031	-0,007
-378,131	-200,000	0,010	0,047
-377,117	198,202	0,052	0,058
-376,102	7,584	-0,057	0,031
-375,088	-200,000	0,004	-0,110
-374,073	-110,580	0,099	0,015
-373,058	-200,000	-0,074	-0,000
-372,044	-200,000	-0,005	0,046
-371,029	-27,579	-0,025	-0,011
-370,015	464,423	0,086	0,140
-369,000	-33,736	-0,038	0,015
-367,985	800,000	0,042	-0,093
-366,971	451,813	-0,043	-0,069
-365,956	-3,538	0,113	0,057
-364,942	800,000	0,031	0,073
-363,927	-200,000	0,015	-0,151
-362,912	230,683	-0,010	-0,012
-361,898	-48,770	-0,113	0,039
-360,883	-133,784	0,016	-0,001
-359,869	-61,166	-0,063	-0,019
-358,854	-200,000	-0,012	0,057
-357,839	133,813	0,054	0,050
-356,825	382,415	-0,033	0,049
-355,810	-31,187	-0,057	0,023
-354,796	16,403	-0,067	-0,039
-353,781	800,000	0,030	-0,082
-352,766	-200,000	-0,010	-0,105
-351,752	800,000	0,013	-0,039
-350,737	25,564	0,025	-0,015
-349,723	-98,018	-0,030	-0,006
-348,708	-73,345	-0,079	-0,021
-347,693	174,218	-0,017	-0,018
-346,679	122,400	-0,029	0,026
-345,664	800,000	-0,038	0,114
-344,650	-200,000	-0,033	0,113
-343,635	380,333	-0,053	-0,079
-342,620	-40,590	0,032	-0,012
-341,606	71,140	-0,089	0,067
-340,591	586,687	-0,028	0,050
-339,577	-44,907	-0,160	0,058
-338,562	131,327	-0,055	0,051
-337,548	37,509	0,049	-0,032
-336,533	72,408	0,039	0,030
-335,518	-200,000	0,013	0,116
-334,504	135,989	-0,072	-0,068
-333,489	-200,000	-0,014	-0,170
-332,475	28,358	-0,066	-0,041
-331,460	-200,000	0,019	-0,067
-330,445	148,113	-0,068	-0,067
-329,431	82,585	0,127	-0,100
-328,416	-185,289	0,083	0,001
-327,402	-112,284	0,045	-0,006
-326,387	800,000	-0,063	-0,134
-325,372	-200,000	0,003	-0,179
-324,358	735,383	-0,048	-0,095
-323,343	-133,863	0,042	-0,004
-322,329	-200,000	0,013	0,139
-321,314	-51,348	0,102	0,034
-320,299	800,000	-0,048	-0,106
-319,285	-56,224	-0,104	-0,033
-318,270	134,178	-0,048	-0,046
-317,256	-200,000	0,002	-0,188
-316,241	-200,000	-0,007	0,032
-315,226	-200,000	0,022	0,123
-314,212	-200,000	0,036	0,198
-313,197	800,000	-0,081	0,168
-312,183	-73,467	-0,069	0,018
-311,168	-200,000	0,010	-0,106
-310,153	179,816	0,055	-0,059
-309,139	80,578	0,024	0,019
-308,124	438,299	0,046	0,072
-307,110	-200,000	-0,004	0,126
-306,095	-19,696	-0,158	0,071
-305,080	-164,715	0,072	-0,002
-304,066	82,443	-0,054	-0,043
-303,051	800,000	-0,031	0,081
-302,037	-200,000	0,010	-0,058
-301,022	-107,106	0,040	-0,006
-300,008	-105,385	0,098	-0,016
-298,993	69,237	0,072	0,053
-297,978	144,887	-0,061	0,059
-296,964	81,151	0,080	-0,063
-295,949	280,342	-0,025	0,032
-294,935	16,071	0,068	0,039
-293,920	-93,232	-0,095	0,019
-292,905	-135,884	-0,126	0,011
-291,891	-95,491	0,180	-0,035
-290,876	321,243	0,067	0,092
-289,862	80,956	0,049	0,038
-288,847	800,000	0,019	-0,049
-287,832	-200,000	0,011	-0,057
-286,818	-157,484	-0,108	0,005
-285,803	800,000	0,006	-0,016
-284,789	85,395	0,082	-0,065
-283,774	-46,386	-0,010	-0,004
-282,759	-65,178	-0,047	0,014
-281,745	800,000	-0,037	0,092
-280,730	152,001	0,158	0,156
-279,716	535,199	-0,018	-0,032
-278,701	-200,000	0,024	0,000
-277,686	129,265	0,119	0,110
-276,672	-200,000	-0,017	0,118
-275,657	800,000	0,022	-0,069
-274,643	-200,000	-0,008	0,153
-273,628	-200,000	-0,029	-0,158
-272,613	25,509	-0,185	-0,111
-271,599	-23,430	-0,078	-0,034
-270,584	-200,000	0,007	0,043
-269,570	700,644	-0,034	-0,065
-268,555	-200,000	-0,014	0,112
-267,540	233,331	-0,056	-0,067
-266,526	-200,000	0,064	-0,000
-265,511	119,052	0,133	0,119
-264,497	107,374	0,031	-0,027
-263,482	215,727	0,051	0,059
-262,467	-200,000	-0,015	0,048
-261,453	800,000	-0,037	0,096
-260,438	137,261	-0,049	-0,046
-259,424	467,653	0,077	-0,125
-258,409	-200,000	0,007	-0,043
-257,395	-77,378	-0,056	0,014
-256,380	9,456	0,038	-0,021
-255,365	-200,000	-0,005	0,098
-254,351	-200,000	-0,050	-0,164
-253,336	-200,000	0,004	-0,058
-252,322	-13,482	-0,129	0,060
-251,307	-5,314	0,031	-0,015
-250,292	-116,069	0,057	-0,008
-249,278	179,411	-0,090	-0,096
-248,263	800,000	-0,070	0,142
-247,249	190,712	-0,039	0,042
-246,234	-18,739	-0,133	0,060
-245,219	-48,403	0,212	-0,073
-244,205	-83,102	0,060	-0,014
-243,190	800,000	0,011	0,022
-242,176	-200,000	0,000	0,059
-241,161	-200,000	-0,005	0,066
-240,146	33,028	-0,073	-0,046
-239,132	625,657	-0,074	-0,136
-238,117	-39,123	-0,044	0,016
-237,103	53,934	-0,139	-0,096
-236,088	-99,288	0,044	0,008
-235,073	-149,862	0,118	-0,007
-234,059	181,990	-0,033	-0,035
-233,044	241,409	-0,053	0,064
-232,030	-200,000	0,000	-0,005
-231,015	-93,415	-0,110	-0,022
-230,000	258,201	0,058	-0,072
-228,986	112,728	-0,045	0,039
-227,971	18,234	0,094	0,054
-226,957	121,170	-0,028	-0,025
-225,942	556,862	-0,052	-0,091
-224,927	-200,000	0,008	0,078
-223,913	50,880	-0,116	-0,079
-222,898	162,714	-0,163	-0,165
-221,884	-53,762	-0,030	0,010
-220,869	-86,274	-0,035	0,008
-219,855	-28,453	-0,027	-0,011
-218,840	800,000	0,028	0,069
-217,825	-200,000	0,008	-0,037
-216,811	42,384	0,049	0,032
-215,796	297,772	0,109	0,145
-214,782	-200,000	0,006	0,092
-213,767	-200,000	0,029	-0,107
-212,752	189,546	0,064	0,070
-211,738	-200,000	-0,007	0,040
-210,723	-4,714	-0,120	-0,060
-209,709	800,000	0,015	-0,047
-208,694	-12,178	0,031	-0,015
-207,679	800,000	-0,040	-0,106
-206,665	216,421	0,102	-0,117
-205,650	-148,937	0,144	-0,008
-204,636	702,634	0,063	0,121
-203,621	394,326	-0,074	0,111
-202,606	134,757	-0,057	-0,053
-201,592	75,979	-0,088	0,067
-200,577	-200,000	-0,001	-0,009
-199,563	-14,778	-0,045	-0,021
-198,548	362,044	-0,052	0,076
-197,533	149,586	0,115	0,112
-196,519	-200,000	-0,007	0,125
-195,504	270,715	-0,033	0,041
-194,490	-152,586	0,045	0,002
-193,475	196,552	-0,038	0,041
-192,460	147,380	0,068	-0,066
-191,446	99,740	0,052	-0,044
-190,431	-111,168	0,048	-0,007
-189,417	-36,642	-0,018	0,007
-188,402	147,446	-0,010	-0,010
-187,387	800,000	-0,051	-0,111
-186,373	-175,879	0,118	-0,002
-185,358	-69,091	0,132	-0,037
-184,344	-58,332	0,035	0,011
-183,329	-63,965	0,132	-0,039
-182,315	103,195	0,058	-0,049
-181,300	-142,713	-0,077	-0,005
-180,285	65,153	-0,128	0,093
-179,271	237,384	-0,001	-0,001
-178,256	800,000	0,041	0,088
-177,242	-66,451	0,153	0,044
-176,227	-146,077	0,053	-0,003
-175,212	800,000	-0,018	-0,046
-174,198	-200,000	0,054	0,246
-173,183	-1,155	-0,071	0,036
-172,169	92,658	-0,129	0,105
-171,154	-200,000	0,013	-0,071
-170,139	-129,139	0,133	0,013
-169,125	118,815	-0,079	0,071
-168,110	-28,238	-0,029	0,012
-167,096	-82,869	-0,022	-0,005
-166,081	194,924	0,055	-0,060
-165,066	-200,000	0,017	-0,101
-164,052	800,000	-0,056	-0,125
-163,037	-200,000	0,009	-0,123
-162,023	120,343	0,085	-0,076
-161,008	-200,000	-0,009	0,052
-159,993	128,897	-0,102	0,094
-158,979	15,278	-0,088	-0,050
-157,964	191,515	-0,096	-0,104
-156,950	-200,000	-0,027	0,103
-155,935	404,247	0,089	0,136
-154,920	-200,000	0,013	0,071
-153,906	328,715	0,098	0,136
-152,891	-50,507	-0,075	-0,025
-151,877	-200,000	0,005	0,069
-150,862	232,032	0,056	-0,066
-149,847	-62,715	-0,098	0,029
-148,833	-66,796	-0,066	0,019
-147,818	296,587	0,063	0,083
-146,804	-14,857	-0,112	-0,052
-145,789	-68,386	-0,018	-0,005
-144,775	670,554	0,027	-0,051
-143,760	217,729	-0,079	0,091
-142,745	800,000	-0,043	0,093
-141,731	212,137	-0,029	-0,033
-140,716	499,228	0,042	0,070
-139,702	-200,000	0,008	-0,056
-138,687	-200,000	0,007	0,097
-137,672	57,686	0,036	0,025
-136,658	60,318	-0,103	-0,073
-135,643	56,371	-0,100	-0,070
-134,629	800,000	-0,024	-0,052
-133,614	-200,000	0,047	0,183
-132,599	-98,564	0,138	0,025
-131,585	238,509	0,089	0,107
-130,570	50,379	-0,028	0,019
-129,556	476,513	0,024	-0,040
-128,541	-122,101	-0,060	0,007
-127,526	-200,000	0,008	0,027
-126,512	800,000	0,050	0,101
-125,497	17,760	-0,084	-0,048
-124,483	42,283	0,076	-0,050
-123,468	200,506	0,072	-0,079
-122,453	10,438	-0,003	-0,002
-121,439	800,000	0,013	0,025
-120,424	18,322	-0,067	-0,039
