DTS Sentinel unit serial number:	SN410029Multiplexer serial number:	ORYXHardware model number:	OX2-SRSoftware version number:	ORYX F/W v4,00 Oryx Data Collector v3.7.2.0data status	okinstallation	B6 Nyhavnadifferential loss correction	single-endedforward channel	channel 2reverse channel	N/Adate	2023/12/07time	11:45:08forward acquisition time	300,00reverse acquisition time	0,00gamma	499,1914k internal	0,3203k external	0,3203temperature offset calibration	1,0000default loss term (dB/km)	0,3820temperature slope calibration	1,0000multiplexer offset coefficient	1,0000multiplexer slope coefficient	1,0000fibre end	0,00T internal ref (°C)	8,94T ext. ref 1 (°C)	-4,95T ext. ref 2 (°C)	-4,96length (m)	temperature (°C)	Stokes	anti-Stokes-744,400	-40,786	0,212	0,080
-743,385	-49,124	-0,335	-0,116
-742,371	-121,151	0,251	0,030
-741,356	-154,685	-0,290	0,014
-740,342	20,324	0,049	-0,029
-739,327	-102,173	-0,348	0,060
-738,312	-101,756	0,172	0,030
-737,298	-133,976	-0,403	-0,036
-736,283	-157,964	0,189	-0,008
-735,269	-116,951	-0,296	-0,039
-734,254	-168,787	0,258	0,007
-733,239	15,249	-0,530	-0,301
-732,225	-33,558	0,167	0,067
-731,210	-101,416	0,050	0,009
-730,196	-200,000	0,029	-0,098
-729,181	42,228	-0,075	0,049
-728,167	309,266	0,026	-0,035
-727,152	800,000	-0,058	0,119
-726,137	-15,304	-0,116	-0,054
-725,123	723,477	-0,094	-0,184
-724,108	-59,162	-0,077	-0,024
-723,094	279,564	-0,127	-0,164
-722,079	26,578	-0,158	-0,096
-721,064	-200,000	-0,047	-0,171
-720,050	-200,000	0,021	-0,068
-719,035	-81,432	0,016	-0,004
-718,021	85,505	-0,097	0,077
-717,006	800,000	-0,011	-0,022
-715,991	155,421	0,063	0,063
-714,977	83,593	-0,077	-0,061
-713,962	481,933	-0,048	-0,080
-712,948	91,177	0,046	0,038
-711,933	-67,659	-0,130	0,037
-710,918	-200,000	0,003	-0,062
-709,904	141,793	-0,138	-0,133
-708,889	387,930	0,058	-0,087
-707,875	463,034	-0,090	0,146
-706,860	416,133	-0,089	-0,138
-705,845	304,580	0,051	0,068
-704,831	58,445	-0,052	0,037
-703,816	800,000	0,035	-0,087
-702,802	356,805	-0,073	-0,106
-701,787	193,101	-0,082	-0,090
-700,772	-47,775	0,084	0,029
-699,758	88,599	0,005	-0,004
-698,743	-107,234	0,158	0,025
-697,729	51,164	0,090	0,062
-696,714	-116,887	-0,038	0,005
-695,699	51,824	0,134	0,092
-694,685	-200,000	0,006	-0,026
-693,670	-20,890	0,073	-0,032
-692,656	800,000	-0,015	0,048
-691,641	-200,000	-0,018	0,068
-690,627	156,165	0,093	-0,093
-689,612	-137,045	0,066	0,005
-688,597	-75,214	0,092	-0,024
-687,583	-28,490	-0,136	-0,057
-686,568	-200,000	-0,015	-0,117
-685,554	-14,682	-0,019	0,009
-684,539	-43,656	0,049	-0,018
-683,524	-97,956	-0,059	-0,011
-682,510	800,000	0,028	0,061
-681,495	48,451	-0,085	-0,058
-680,481	230,197	0,016	0,019
-679,466	371,363	-0,005	0,007
-678,451	69,031	-0,055	-0,041
-677,437	-5,199	-0,074	0,037
-676,422	-33,151	0,105	-0,042
-675,408	204,847	-0,117	-0,132
-674,393	101,218	-0,079	0,066
-673,378	-87,486	-0,101	0,022
-672,364	464,150	-0,010	-0,016
-671,349	800,000	0,081	-0,167
-670,335	597,512	0,003	0,005
-669,320	49,889	-0,107	-0,073
-668,305	139,120	-0,093	-0,088
-667,291	71,432	-0,060	0,045
-666,276	-180,510	-0,151	-0,002
-665,262	99,063	0,152	-0,128
-664,247	418,248	0,038	0,058
-663,232	10,813	0,097	-0,053
-662,218	-58,474	0,150	0,047
-661,203	493,505	0,024	0,041
-660,189	38,032	-0,027	0,017
-659,174	800,000	0,028	-0,057
-658,159	-103,856	-0,051	0,009
-657,145	-200,000	-0,007	-0,104
-656,130	329,001	0,019	0,026
-655,116	-41,061	-0,050	-0,018
-654,101	-79,219	-0,064	-0,015
-653,086	-200,000	-0,003	0,020
-652,072	-12,946	0,033	0,015
-651,057	800,000	0,044	-0,104
-650,043	-144,818	-0,092	0,006
-649,028	656,214	-0,060	0,113
-648,014	800,000	-0,056	-0,158
-646,999	-200,000	-0,001	-0,086
-645,984	-7,880	0,113	0,055
-644,970	800,000	0,011	-0,032
-643,955	125,688	0,084	0,077
-642,941	407,431	0,039	-0,059
-641,926	800,000	-0,049	-0,120
-640,911	765,853	-0,007	0,014
-639,897	278,119	-0,073	0,095
-638,882	-149,957	-0,132	-0,007
-637,868	36,415	-0,040	0,025
-636,853	-200,000	-0,021	-0,097
-635,838	85,135	-0,116	-0,092
-634,824	800,000	-0,062	-0,131
-633,809	325,066	-0,008	0,012
-632,795	-200,000	0,017	0,138
-631,780	-200,000	-0,006	-0,079
-630,765	191,371	-0,065	-0,071
-629,751	38,590	-0,097	-0,063
-628,736	753,204	0,053	-0,104
-627,722	-200,000	0,016	0,060
-626,707	-200,000	0,012	0,046
-625,692	686,981	-0,021	-0,040
-624,678	625,983	-0,097	0,179
-623,663	70,339	0,069	0,051
-622,649	800,000	-0,054	-0,118
-621,634	-200,000	0,013	-0,116
-620,619	-200,000	0,001	-0,143
-619,605	-200,000	-0,025	0,107
-618,590	-4,003	-0,092	0,046
-617,576	398,748	-0,081	0,123
-616,561	-19,844	-0,057	-0,025
-615,546	315,715	0,060	0,082
-614,532	-159,702	-0,045	0,002
-613,517	800,000	0,048	-0,103
-612,503	-116,805	0,174	-0,023
-611,488	551,870	0,084	0,147
-610,474	-200,000	-0,001	0,141
-609,459	-200,000	-0,003	-0,033
-608,444	80,996	-0,108	-0,084
-607,430	-121,767	-0,105	0,012
-606,415	-200,000	0,021	-0,070
-605,401	43,458	-0,079	0,052
-604,386	800,000	-0,013	0,038
-603,371	61,580	-0,054	0,039
-602,357	-200,000	-0,007	0,040
-601,342	-4,073	-0,029	0,015
-600,328	17,136	-0,092	0,053
-599,313	-52,879	-0,121	-0,040
-598,298	98,617	0,067	0,056
-597,284	-113,829	-0,094	-0,013
-596,269	98,322	0,052	-0,043
-595,255	276,424	0,022	-0,028
-594,240	-138,823	-0,085	0,007
-593,225	-31,875	-0,132	-0,053
-592,211	800,000	0,005	-0,014
-591,196	7,411	-0,058	-0,031
-590,182	800,000	0,026	0,064
-589,167	-163,406	0,123	-0,004
-588,152	166,094	0,017	-0,017
-587,138	800,000	0,002	-0,005
-586,123	58,003	-0,196	-0,139
-585,109	800,000	0,024	0,048
-584,094	-80,875	-0,086	0,020
-583,079	60,088	0,101	0,072
-582,065	800,000	-0,044	0,119
-581,050	737,360	0,054	0,106
-580,036	-200,000	-0,025	-0,091
-579,021	-39,215	0,250	-0,095
-578,006	800,000	0,035	-0,083
-576,992	-200,000	-0,026	-0,102
-575,977	760,334	-0,039	-0,076
-574,963	153,155	0,046	0,046
-573,948	800,000	-0,023	-0,049
-572,934	-135,637	-0,076	0,006
-571,919	12,939	-0,047	0,026
-570,904	-200,000	-0,014	-0,137
-569,890	-200,000	-0,029	-0,129
-568,875	166,509	0,049	-0,051
-567,861	405,854	-0,079	0,121
-566,846	-121,073	0,102	-0,012
-565,831	103,256	-0,093	-0,078
-564,817	-200,000	-0,011	-0,134
-563,802	210,029	-0,092	-0,104
-562,788	-64,807	0,073	-0,021
-561,773	-200,000	-0,000	-0,140
-560,758	-92,737	0,067	-0,013
-559,744	55,991	0,037	0,026
-558,729	800,000	-0,034	0,076
-557,715	169,698	0,070	-0,072
-556,700	198,627	-0,104	-0,115
-555,685	-76,898	-0,086	0,022
-554,671	229,497	0,053	0,062
-553,656	-200,000	0,002	0,179
-552,642	137,551	0,056	0,053
-551,627	-57,790	-0,125	0,039
-550,612	-200,000	0,022	-0,076
-549,598	-139,195	-0,091	-0,007
-548,583	84,838	-0,042	-0,033
-547,569	433,038	-0,086	-0,135
-546,554	71,805	0,007	0,005
-545,539	79,414	0,022	-0,017
-544,525	-200,000	0,007	0,128
-543,510	-27,824	0,080	-0,033
-542,496	29,808	0,144	-0,088
-541,481	637,517	-0,040	-0,073
-540,466	-200,000	0,016	0,061
-539,452	-133,079	0,130	-0,012
-538,437	-200,000	-0,002	-0,081
-537,423	-137,966	-0,043	-0,003
-536,408	66,873	0,035	-0,026
-535,393	238,921	0,060	0,072
-534,379	-50,812	-0,065	-0,022
-533,364	-57,649	-0,097	-0,031
-532,350	105,404	-0,057	0,048
-531,335	17,385	-0,119	-0,068
-530,321	-150,472	0,068	-0,004
-529,306	800,000	0,043	-0,090
-528,291	177,441	-0,091	-0,096
-527,277	-200,000	0,024	-0,134
-526,262	-200,000	0,018	-0,133
-525,248	-49,524	0,052	0,018
-524,233	682,250	-0,088	0,167
-523,218	800,000	0,081	0,182
-522,204	-200,000	-0,038	-0,157
-521,189	784,344	0,024	-0,048
-520,175	-81,155	-0,239	-0,057
-519,160	800,000	0,065	0,185
-518,145	-200,000	0,004	0,159
-517,131	800,000	-0,013	0,035
-516,116	-7,356	-0,116	0,056
-515,102	-36,825	0,034	-0,013
-514,087	-17,932	-0,045	-0,020
-513,072	-150,101	0,116	0,006
-512,058	42,980	-0,074	-0,049
-511,043	-166,052	0,190	-0,006
-510,029	-200,000	-0,001	0,150
-509,014	-65,600	0,088	-0,025
-507,999	690,447	0,026	-0,049
-506,985	34,002	-0,115	-0,072
-505,970	-108,942	-0,099	0,015
-504,956	-200,000	-0,002	0,014
-503,941	753,511	-0,013	0,026
-502,926	800,000	0,045	0,105
-501,912	-200,000	0,018	0,065
-500,897	-200,000	-0,009	-0,133
-499,883	-200,000	-0,012	-0,071
-498,868	-8,707	-0,119	-0,057
-497,853	-200,000	-0,006	-0,043
-496,839	445,198	0,065	-0,103
-495,824	-3,020	0,045	0,023
-494,810	-200,000	0,012	0,042
-493,795	800,000	0,045	-0,111
-492,781	64,891	-0,073	0,053
-491,766	-62,746	0,087	0,026
-490,751	-162,350	-0,151	0,005
-489,737	800,000	-0,022	-0,054
-488,722	-56,632	0,099	0,031
-487,708	17,580	0,039	0,022
-486,693	139,877	0,059	0,056
-485,678	155,481	-0,100	-0,099
-484,664	24,086	-0,069	0,041
-483,649	-200,000	0,026	-0,176
-482,635	628,885	0,120	-0,219
-481,620	-200,000	0,013	-0,079
-480,605	-200,000	-0,021	-0,085
-479,591	150,654	-0,054	-0,053
-478,576	-137,010	-0,165	-0,013
-477,562	57,208	-0,064	-0,045
-476,547	42,169	0,103	-0,067
-475,532	32,515	-0,131	0,081
-474,518	800,000	-0,064	0,159
-473,503	-122,594	0,165	-0,019
-472,489	-200,000	-0,033	0,139
-471,474	77,763	0,093	-0,071
-470,459	-200,000	0,001	0,056
-469,445	-52,645	-0,097	0,032
-468,430	-112,201	-0,097	-0,014
-467,416	138,303	0,113	0,106
-466,401	-200,000	-0,017	-0,076
-465,386	-200,000	-0,007	0,057
-464,372	800,000	0,045	0,097
-463,357	800,000	-0,039	-0,111
-462,343	98,213	0,107	-0,088
-461,328	-200,000	0,042	-0,141
-460,313	800,000	0,047	-0,117
-459,299	341,191	0,008	-0,011
-458,284	-21,966	0,128	-0,056
-457,270	46,699	0,065	-0,043
-456,255	800,000	-0,025	-0,051
-455,241	-200,000	-0,019	-0,082
-454,226	14,570	0,099	-0,055
-453,211	-200,000	-0,021	0,142
-452,197	-200,000	0,004	0,091
-451,182	-97,171	-0,059	-0,011
-450,168	-200,000	-0,007	-0,025
-449,153	800,000	-0,011	0,025
-448,138	41,371	0,108	-0,070
-447,124	-99,087	-0,075	-0,013
-446,109	-23,558	0,069	0,030
-445,095	-80,695	-0,108	-0,026
-444,080	-200,000	0,005	0,019
-443,065	187,054	0,093	0,100
-442,051	800,000	-0,032	0,068
-441,036	-9,060	-0,050	0,024
-440,022	-200,000	0,030	0,141
-439,007	68,585	0,130	0,096
-437,992	800,000	-0,030	0,066
-436,978	-119,857	0,018	-0,002
-435,963	136,270	-0,093	0,087
-434,949	-33,449	0,060	-0,024
-433,934	-100,425	0,048	-0,009
-432,919	59,629	-0,045	-0,032
-431,905	245,915	0,087	0,105
-430,890	-81,912	-0,060	-0,014
-429,876	166,807	0,071	-0,072
-428,861	767,464	-0,010	0,020
-427,846	-96,873	-0,026	0,005
-426,832	800,000	0,016	0,037
-425,817	273,576	0,088	0,112
-424,803	-200,000	-0,001	0,064
-423,788	103,160	0,102	-0,086
-422,773	132,051	0,026	-0,024
-421,759	-32,976	-0,065	0,026
-420,744	-65,321	0,101	0,029
-419,730	-200,000	-0,017	-0,075
-418,715	449,245	-0,053	0,085
-417,701	-200,000	0,004	0,045
-416,686	112,635	0,021	-0,018
-415,671	490,925	-0,063	-0,104
-414,657	-139,376	0,060	-0,005
-413,642	16,226	-0,138	-0,078
-412,628	173,920	0,064	-0,066
-411,613	213,298	0,058	0,065
-410,598	-200,000	-0,012	0,143
-409,584	177,129	-0,072	0,076
-408,569	-200,000	-0,007	0,101
-407,555	-114,331	0,029	-0,004
-406,540	-200,000	-0,001	0,183
-405,525	-45,995	-0,103	0,036
-404,511	471,433	-0,055	-0,089
-403,496	8,741	0,038	-0,020
-402,482	246,646	0,048	0,059
-401,467	52,632	0,071	0,049
-400,452	-141,784	0,053	-0,004
-399,438	-95,569	-0,083	-0,016
-398,423	-200,000	-0,011	0,074
-397,409	-124,595	-0,151	-0,017
-396,394	800,000	0,035	0,070
-395,379	160,902	-0,018	0,018
-394,365	-143,051	-0,053	0,004
-393,350	100,860	0,087	0,072
-392,336	-200,000	0,014	0,118
-391,321	-130,891	0,019	-0,002
-390,306	135,891	-0,056	-0,052
-389,292	-114,491	0,093	0,013
-388,277	-137,706	0,059	-0,005
-387,263	-81,718	0,065	0,015
-386,248	-97,360	0,082	-0,015
-385,233	94,254	-0,097	0,079
-384,219	2,116	-0,103	0,053
-383,204	-35,592	-0,145	0,056
-382,190	-58,021	0,118	0,037
-381,175	-148,051	0,059	-0,003
-380,160	156,233	-0,110	0,109
-379,146	10,894	0,074	-0,040
-378,131	193,409	0,022	-0,023
-377,117	-200,000	-0,021	0,119
-376,102	11,688	0,042	0,023
-375,088	-146,476	0,096	-0,006
-374,073	-71,079	0,096	0,026
-373,058	-46,454	-0,049	-0,017
-372,044	260,446	0,069	0,086
-371,029	97,570	0,026	0,022
-370,015	536,631	-0,076	0,130
-369,000	40,348	0,066	-0,043
-367,985	800,000	0,067	-0,186
-366,971	-71,811	0,061	0,016
-365,956	-200,000	0,006	0,142
-364,942	496,831	0,031	-0,051
-363,927	230,606	0,078	-0,091
-362,912	21,030	-0,047	-0,027
-361,898	800,000	0,017	0,054
-360,883	-39,136	0,087	-0,032
-359,869	204,099	0,052	0,058
-358,854	54,091	0,054	0,037
-357,839	279,813	-0,017	-0,022
-356,825	-75,938	0,050	0,013
-355,810	123,801	-0,080	0,072
-354,796	-200,000	0,006	-0,072
-353,781	-200,000	-0,042	-0,196
-352,766	800,000	-0,040	-0,111
-351,752	785,144	0,063	0,124
-350,737	-200,000	-0,012	0,046
-349,723	12,794	0,085	-0,047
-348,708	492,007	-0,027	0,044
-347,693	260,400	-0,043	0,054
-346,679	-59,242	0,034	0,010
-345,664	44,643	0,067	0,044
-344,650	135,084	-0,100	0,093
-343,635	398,245	0,098	0,148
-342,620	-79,991	0,040	0,010
-341,606	6,954	0,102	-0,054
-340,591	-115,154	-0,087	-0,012
-339,577	-200,000	-0,021	-0,107
-338,562	233,216	0,068	-0,080
-337,548	-85,786	0,042	-0,009
-336,533	800,000	-0,045	-0,113
-335,518	490,511	-0,075	-0,124
-334,504	23,876	-0,067	-0,039
-333,489	-200,000	-0,006	0,068
-332,475	79,579	0,038	-0,029
-331,460	-67,679	-0,019	0,005
-330,445	-200,000	0,021	-0,089
-329,431	-84,045	0,133	0,030
-328,416	389,059	-0,053	-0,079
-327,402	114,734	0,098	-0,085
-326,387	800,000	0,019	-0,054
-325,372	-200,000	-0,009	0,059
-324,358	-200,000	-0,011	0,121
-323,343	628,134	0,018	-0,033
-322,329	328,595	-0,040	-0,054
-321,314	315,085	0,058	-0,079
-320,299	35,921	0,073	-0,046
-319,285	127,488	-0,027	-0,025
-318,270	-200,000	-0,008	-0,051
-317,256	-200,000	-0,002	-0,058
-316,241	-200,000	-0,011	-0,068
-315,226	126,953	-0,015	0,014
-314,212	10,480	0,067	0,036
-313,197	27,152	0,026	0,016
-312,183	32,595	-0,050	0,031
-311,168	-200,000	0,010	-0,079
-310,153	-124,142	-0,051	-0,006
-309,139	160,196	-0,072	0,072
-308,124	-71,393	-0,074	-0,020
-307,110	371,591	-0,071	0,103
-306,095	-27,328	0,079	-0,033
-305,080	8,501	-0,064	0,034
-304,066	301,087	-0,079	-0,105
-303,051	721,565	-0,037	-0,070
-302,037	86,862	-0,038	-0,030
-301,022	299,408	0,078	0,103
-300,008	-146,392	0,062	0,004
-298,993	-200,000	-0,003	0,080
-297,978	-200,000	0,003	0,102
-296,964	153,955	-0,081	0,079
-295,949	59,198	-0,063	-0,045
-294,935	96,789	0,088	-0,072
-293,920	269,891	0,087	0,109
-292,905	247,250	0,039	0,048
-291,891	166,201	0,134	0,135
-290,876	-39,370	-0,077	0,029
-289,862	-185,162	0,092	0,001
-288,847	800,000	-0,051	-0,129
-287,832	498,057	-0,024	-0,039
-286,818	215,522	-0,032	0,036
-285,803	-47,888	0,049	-0,017
-284,789	16,418	-0,078	-0,044
-283,774	155,800	0,051	-0,050
-282,759	-200,000	0,011	-0,078
-281,745	251,626	0,021	-0,026
-280,730	82,491	-0,127	-0,098
-279,716	-200,000	-0,010	-0,139
-278,701	-79,329	0,035	0,008
-277,686	-32,607	0,054	0,021
-276,672	155,759	-0,040	0,040
-275,657	405,374	-0,010	0,016
-274,643	-23,527	-0,114	-0,049
-273,628	14,268	0,026	-0,014
-272,613	-76,800	-0,170	0,042
-271,599	-72,365	0,146	-0,038
-270,584	-60,857	0,077	0,023
-269,570	-168,626	-0,135	0,004
-268,555	-200,000	0,008	-0,045
-267,540	101,970	0,041	-0,035
-266,526	800,000	0,035	-0,103
-265,511	-200,000	0,039	0,130
-264,497	-200,000	0,026	0,168
-263,482	800,000	0,066	0,155
-262,467	44,729	-0,057	-0,038
-261,453	-200,000	-0,001	0,086
-260,438	-200,000	-0,016	0,094
-259,424	-200,000	0,027	0,089
-258,409	175,929	-0,114	-0,118
-257,395	110,316	-0,067	0,057
-256,380	-11,473	0,062	-0,029
-255,365	-197,707	0,108	0,000
-254,351	-47,907	-0,058	-0,020
-253,336	211,156	-0,055	0,061
-252,322	217,543	0,041	-0,047
-251,307	-200,000	-0,012	-0,047
-250,292	-1,423	-0,055	-0,028
-249,278	-10,760	0,101	0,047
-248,263	91,151	0,109	0,087
-247,249	6,603	-0,074	-0,039
-246,234	60,058	-0,060	0,042
-245,219	751,748	0,030	-0,058
-244,205	-200,000	-0,005	0,118
-243,190	-142,808	-0,037	0,003
-242,176	-200,000	-0,000	0,001
-241,161	717,451	-0,065	0,123
-240,146	-200,000	0,004	0,021
-239,132	-52,150	0,022	-0,007
-238,117	112,371	0,055	0,048
-237,103	-119,959	0,028	0,003
-236,088	-200,000	-0,023	0,105
-235,073	-55,995	0,061	-0,019
-234,059	-70,369	-0,088	-0,023
-233,044	-89,684	0,126	0,026
-232,030	29,779	-0,097	0,059
-231,015	10,721	0,029	-0,016
-230,000	279,718	0,040	-0,052
-228,986	-200,000	-0,012	0,045
-227,971	6,339	0,011	0,006
-226,957	-31,670	0,025	-0,010
-225,942	27,495	-0,087	-0,052
-224,927	-66,438	0,105	0,030
-223,913	800,000	-0,021	-0,055
-222,898	71,130	-0,078	0,057
-221,884	-172,646	0,140	-0,003
-220,869	745,192	0,068	0,132
-219,855	800,000	-0,014	-0,043
-218,840	593,478	0,064	-0,114
-217,825	-92,317	0,014	0,003
-216,811	184,940	-0,166	-0,175
-215,796	295,065	-0,117	-0,153
-214,782	-42,044	-0,129	0,047
-213,767	-58,392	0,090	0,028
-212,752	-200,000	0,006	-0,105
-211,738	99,276	0,061	0,050
-210,723	800,000	-0,014	0,029
-209,709	-200,000	0,008	-0,135
-208,694	145,137	0,031	-0,029
-207,679	6,267	0,174	-0,092
-206,665	230,229	-0,047	0,054
-205,650	-45,650	0,057	-0,020
-204,636	-200,000	-0,021	0,109
-203,621	18,540	-0,047	-0,027
-202,606	-176,374	0,041	-0,001
-201,592	-59,255	-0,110	-0,034
-200,577	306,735	-0,034	0,045
-199,563	-200,000	0,018	0,100
-198,548	-200,000	0,011	-0,108
-197,533	-66,428	0,162	-0,045
-196,519	-139,201	0,202	-0,015
-195,504	-16,128	-0,074	0,034
-194,490	1,825	0,012	-0,006
-193,475	800,000	0,056	-0,123
-192,460	-200,000	0,002	0,019
-191,446	800,000	-0,066	0,151
-190,431	800,000	-0,025	0,071
-189,417	-200,000	0,027	0,099
-188,402	155,453	-0,131	0,129
-187,387	26,633	0,047	-0,028
-186,373	-200,000	0,016	0,107
-185,358	-11,294	0,025	0,012
-184,344	373,032	0,093	0,135
-183,329	217,917	0,048	-0,055
-182,315	800,000	0,021	0,062
-181,300	-10,750	-0,073	0,034
-180,285	323,776	-0,029	-0,040
-179,271	29,092	0,027	0,016
-178,256	509,197	-0,060	-0,099
-177,242	800,000	0,057	0,157
-176,227	800,000	0,016	-0,036
-175,212	-32,052	0,050	-0,020
-174,198	800,000	-0,018	0,042
-173,183	800,000	-0,031	0,066
-172,169	-200,000	-0,016	-0,147
-171,154	-200,000	-0,011	-0,070
-170,139	-36,845	-0,067	0,025
-169,125	-200,000	-0,004	-0,047
-168,110	455,419	0,057	-0,090
-167,096	35,610	-0,099	0,062
-166,081	-74,406	-0,091	-0,023
-165,066	254,293	-0,013	0,016
-164,052	-200,000	0,002	0,134
-163,037	79,277	-0,097	-0,074
-162,023	-45,210	0,088	0,031
-161,008	7,010	0,120	-0,064
-159,993	800,000	0,044	0,091
-158,979	-200,000	0,013	0,128
-157,964	483,172	-0,045	0,072
-156,950	-200,000	-0,011	-0,138
-155,935	50,086	-0,118	0,079
-154,920	-103,187	0,124	-0,021
-153,906	100,532	0,115	0,095
-152,891	96,498	-0,073	-0,059
-151,877	-162,449	-0,112	-0,004
-150,862	-200,000	0,009	0,101
-149,847	-22,764	-0,010	0,004
-148,833	48,836	0,057	0,038
-147,818	-198,428	-0,143	0,001
-146,804	800,000	0,069	0,192
-145,789	239,253	0,079	0,093
-144,775	-200,000	0,005	0,057
-143,760	9,709	-0,094	-0,050
-142,745	505,606	-0,052	-0,085
-141,731	-123,671	-0,162	-0,018
-140,716	-76,595	0,072	0,018
-139,702	-32,297	0,059	0,023
-138,687	-20,136	0,149	0,065
-137,672	-200,000	0,020	0,097
-136,658	-200,000	0,007	-0,131
-135,643	-137,503	0,039	-0,003
-134,629	50,251	-0,021	0,014
-133,614	20,176	0,035	-0,020
-132,599	-156,452	-0,021	-0,001
-131,585	180,080	0,127	-0,132
-130,570	195,864	-0,053	-0,058
-129,556	-200,000	-0,029	-0,120
-128,541	4,807	0,055	-0,029
-127,526	-76,876	0,129	-0,032
-126,512	-200,000	0,001	0,011
-125,497	345,867	-0,039	0,055
-124,483	231,026	-0,024	-0,028
-123,468	-188,993	0,114	-0,001
-122,453	733,137	-0,055	-0,106
-121,439	397,497	0,018	0,026
-120,424	800,000	-0,019	-0,047
-119,410	-109,854	0,039	-0,006
-118,395	-200,000	0,013	-0,085
