DTS Sentinel unit serial number:	SN410029Multiplexer serial number:	ORYXHardware model number:	OX2-SRSoftware version number:	ORYX F/W v4,00 Oryx Data Collector v3.7.2.0data status	okinstallation	B6 Nyhavnadifferential loss correction	single-endedforward channel	channel 2reverse channel	N/Adate	2023/12/09time	06:50:08forward acquisition time	300,00reverse acquisition time	0,00gamma	499,1914k internal	0,3139k external	0,3139temperature offset calibration	1,0000default loss term (dB/km)	0,3820temperature slope calibration	1,0000multiplexer offset coefficient	1,0000multiplexer slope coefficient	1,0000fibre end	0,00T internal ref (°C)	18,54T ext. ref 1 (°C)	2,16T ext. ref 2 (°C)	2,19length (m)	temperature (°C)	Stokes	anti-Stokes-744,400	-200,000	-0,033	0,122
-743,385	11,420	-0,287	0,163
-742,371	157,066	0,111	0,114
-741,356	-126,362	-0,291	0,032
-740,342	-200,000	0,029	0,115
-739,327	-117,153	-0,233	-0,031
-738,312	-200,000	-0,004	-0,136
-737,298	-116,341	-0,388	-0,053
-736,283	-136,656	0,055	-0,005
-735,269	-71,586	-0,260	0,071
-734,254	-143,081	-0,002	0,000
-733,239	-99,265	-0,337	-0,062
-732,225	-89,356	0,122	-0,026
-731,210	190,155	0,024	0,027
-730,196	-200,000	-0,008	-0,032
-729,181	800,000	0,011	0,030
-728,167	-81,283	-0,056	0,014
-727,152	-52,280	-0,080	-0,027
-726,137	357,617	0,076	-0,113
-725,123	-104,362	-0,073	0,012
-724,108	-29,036	-0,110	0,046
-723,094	57,300	0,070	0,051
-722,079	207,874	0,058	0,067
-721,064	-103,597	-0,053	0,009
-720,050	-14,080	-0,125	0,060
-719,035	-200,000	-0,024	-0,082
-718,021	-99,963	0,031	0,006
-717,006	-35,456	-0,097	-0,039
-715,991	800,000	-0,027	-0,061
-714,977	-200,000	-0,031	-0,119
-713,962	-26,930	-0,125	0,054
-712,948	-200,000	-0,016	-0,067
-711,933	70,883	0,043	-0,033
-710,918	144,647	-0,076	0,075
-709,904	-200,000	-0,016	0,057
-708,889	-79,762	-0,129	0,032
-707,875	-172,385	-0,179	0,004
-706,860	800,000	-0,024	-0,056
-705,845	-114,677	0,026	-0,004
-704,831	34,489	0,083	-0,053
-703,816	800,000	-0,055	-0,151
-702,802	128,530	-0,020	-0,019
-701,787	-200,000	0,026	-0,123
-700,772	800,000	-0,032	-0,089
-699,758	-200,000	0,004	-0,078
-698,743	-200,000	-0,016	0,062
-697,729	-200,000	-0,031	0,133
-696,714	-97,181	-0,178	-0,034
-695,699	-54,122	-0,077	-0,026
-694,685	44,117	-0,045	-0,031
-693,670	89,346	0,127	-0,105
-692,656	-149,022	0,031	-0,002
-691,641	499,855	-0,046	-0,078
-690,627	-200,000	0,028	0,131
-689,612	-200,000	-0,023	-0,089
-688,597	-200,000	-0,003	-0,027
-687,583	260,406	-0,089	-0,114
-686,568	-99,550	-0,109	-0,020
-685,554	-86,843	0,030	0,007
-684,539	299,235	0,044	0,061
-683,524	94,959	0,087	0,073
-682,510	-200,000	0,026	-0,088
-681,495	10,067	-0,096	0,054
-680,481	-178,154	-0,109	0,002
-679,466	-31,358	-0,097	0,040
-678,451	-49,172	0,157	-0,055
-677,437	-70,752	-0,086	-0,024
-676,422	-200,000	0,017	0,066
-675,408	689,015	-0,085	-0,165
-674,393	-105,023	-0,128	-0,021
-673,378	800,000	-0,007	0,020
-672,364	46,166	0,113	-0,077
-671,349	-19,841	-0,049	-0,022
-670,335	-78,641	0,148	-0,037
-669,320	-151,557	-0,013	-0,001
-668,305	89,764	0,089	-0,073
-667,291	58,803	-0,096	-0,070
-666,276	-200,000	0,000	-0,015
-665,262	-200,000	0,010	-0,174
-664,247	-200,000	0,022	0,136
-663,232	-200,000	0,015	-0,070
-662,218	38,948	-0,158	-0,104
-661,203	141,275	0,070	-0,068
-660,189	-46,795	-0,053	0,019
-659,174	800,000	0,049	-0,122
-658,159	97,410	-0,105	-0,089
-657,145	-114,260	-0,102	0,014
-656,130	-200,000	0,007	-0,072
-655,116	-140,484	0,161	-0,012
-654,101	106,258	0,034	-0,030
-653,086	82,013	0,069	-0,055
-652,072	566,293	-0,052	-0,094
-651,057	-200,000	-0,005	-0,036
-650,043	254,730	-0,103	-0,131
-649,028	168,116	0,037	-0,039
-648,014	345,329	0,085	0,124
-646,999	282,579	-0,052	0,068
-645,984	800,000	0,007	0,018
-644,970	-200,000	0,012	-0,052
-643,955	-79,389	-0,113	0,028
-642,941	-7,169	-0,076	-0,038
-641,926	-66,415	0,166	-0,048
-640,911	-110,539	-0,098	-0,015
-639,897	800,000	-0,012	0,035
-638,882	330,249	0,033	0,048
-637,868	576,272	-0,052	-0,094
-636,853	369,543	0,024	-0,036
-635,838	800,000	-0,053	-0,161
-634,824	10,065	0,072	-0,041
-633,809	134,910	-0,015	-0,014
-632,795	-47,762	0,081	-0,029
-631,780	-98,509	-0,054	-0,010
-630,765	23,576	0,074	0,045
-629,751	800,000	-0,017	0,036
-628,736	800,000	-0,051	0,104
-627,722	100,423	-0,174	-0,149
-626,707	1,774	0,194	-0,103
-625,692	-69,649	0,114	-0,032
-624,678	-39,075	-0,094	-0,036
-623,663	58,503	0,093	0,068
-622,649	-36,128	-0,067	-0,027
-621,634	-200,000	-0,013	0,072
-620,619	152,782	-0,119	-0,120
-619,605	4,063	0,049	0,026
-618,590	58,299	0,090	0,065
-617,576	79,715	-0,080	0,064
-616,561	-200,000	-0,039	-0,137
-615,546	87,854	-0,075	0,061
-614,532	4,054	-0,086	-0,046
-613,517	-200,000	-0,008	-0,025
-612,503	-200,000	-0,001	-0,072
-611,488	-31,390	-0,112	-0,046
-610,474	445,697	-0,030	0,049
-609,459	308,572	-0,028	0,038
-608,444	800,000	-0,055	-0,114
-607,430	462,879	-0,094	-0,156
-606,415	-200,000	0,007	-0,190
-605,401	21,709	0,060	-0,036
-604,386	800,000	-0,045	-0,111
-603,371	23,938	0,087	0,053
-602,357	-17,881	-0,029	0,013
-601,342	-150,728	-0,097	-0,005
-600,328	-200,000	0,001	-0,035
-599,313	789,146	0,069	-0,140
-598,298	-102,135	-0,059	-0,010
-597,284	800,000	-0,031	0,071
-596,269	-70,662	0,075	-0,021
-595,255	185,067	0,003	-0,004
-594,240	6,939	-0,118	-0,064
-593,225	431,079	-0,045	-0,072
-592,211	179,368	-0,073	-0,079
-591,196	-200,000	-0,003	-0,031
-590,182	100,699	-0,033	-0,028
-589,167	286,214	0,025	0,033
-588,152	217,967	-0,060	-0,071
-587,138	703,479	-0,055	0,106
-586,123	30,704	0,098	-0,061
-585,109	-66,888	-0,079	0,023
-584,094	-118,665	-0,167	0,022
-583,079	381,085	0,099	0,151
-582,065	-200,000	-0,008	-0,049
-581,050	-200,000	0,000	-0,051
-580,036	26,990	0,108	-0,066
-579,021	800,000	-0,032	-0,066
-578,006	800,000	-0,010	0,022
-576,992	160,805	-0,042	-0,043
-575,977	800,000	0,017	-0,038
-574,963	-115,592	-0,093	-0,013
-573,948	-200,000	0,002	-0,009
-572,934	-42,458	-0,137	-0,051
-571,919	-200,000	0,019	-0,069
-570,904	22,952	0,044	0,026
-569,890	-10,207	-0,079	0,039
-568,875	176,674	0,058	0,062
-567,861	-200,000	-0,001	0,072
-566,846	93,222	-0,017	0,014
-565,831	-200,000	0,003	-0,052
-564,817	132,413	-0,024	0,022
-563,802	-200,000	-0,010	-0,099
-562,788	-200,000	-0,014	-0,152
-561,773	52,305	0,097	0,068
-560,758	-38,224	0,155	0,060
-559,744	-200,000	0,006	0,082
-558,729	8,235	0,050	0,028
-557,715	-28,330	-0,010	-0,004
-556,700	-176,038	0,104	0,002
-555,685	800,000	-0,024	-0,069
-554,671	-101,111	0,020	0,003
-553,656	800,000	-0,046	0,102
-552,642	254,756	0,045	0,056
-551,627	800,000	-0,007	-0,020
-550,612	-90,841	0,069	0,014
-549,598	-78,400	-0,093	-0,023
-548,583	-200,000	-0,052	-0,173
-547,569	49,478	0,040	0,028
-546,554	-200,000	-0,001	0,060
-545,539	250,833	0,126	0,158
-544,525	-20,652	-0,064	0,029
-543,510	-108,715	0,023	-0,004
-542,496	527,623	-0,081	-0,140
-541,481	-138,808	0,026	-0,002
-540,466	172,167	0,142	0,151
-539,452	12,131	-0,098	0,055
-538,437	-200,000	0,001	-0,198
-537,423	800,000	-0,026	-0,062
-536,408	-200,000	-0,036	0,126
-535,393	-153,613	0,113	0,006
-534,379	197,261	-0,126	0,142
-533,364	17,812	0,022	-0,013
-532,350	197,301	0,107	-0,121
-531,335	344,886	0,053	0,076
-530,321	384,491	-0,059	0,089
-529,306	470,436	-0,036	0,060
-528,291	270,654	-0,072	-0,094
-527,277	225,510	-0,045	0,053
-526,262	-200,000	-0,034	-0,112
-525,248	800,000	0,017	-0,043
-524,233	800,000	0,014	-0,042
-523,218	800,000	-0,074	0,166
-522,204	210,025	0,054	0,062
-521,189	-194,092	0,086	-0,001
-520,175	121,784	-0,076	-0,070
-519,160	-200,000	-0,022	0,076
-518,145	-200,000	-0,007	-0,057
-517,131	-130,910	0,149	0,014
-516,116	-60,642	0,118	0,036
-515,102	-70,383	0,142	0,039
-514,087	502,818	-0,020	0,034
-513,072	-22,296	-0,049	-0,022
-512,058	-14,699	0,044	-0,021
-511,043	427,037	-0,012	-0,019
-510,029	43,747	0,058	-0,039
-509,014	18,936	-0,039	0,023
-507,999	108,846	0,086	0,076
-506,985	13,200	-0,118	-0,067
-505,970	-137,397	-0,136	-0,011
-504,956	-200,000	0,030	0,098
-503,941	34,819	-0,059	0,038
-502,926	-10,699	0,058	0,028
-501,912	179,369	0,080	0,086
-500,897	-200,000	0,001	0,075
-499,883	-200,000	-0,000	-0,018
-498,868	-200,000	-0,020	-0,174
-497,853	-155,893	0,068	-0,003
-496,839	-132,960	-0,062	0,006
-495,824	-28,029	0,148	0,062
-494,810	30,058	0,053	-0,033
-493,795	-200,000	-0,020	0,098
-492,781	671,820	0,057	0,109
-491,766	-84,050	-0,113	0,026
-490,751	-200,000	-0,032	-0,131
-489,737	-106,208	0,030	0,005
-488,722	271,970	0,024	0,031
-487,708	271,017	-0,041	0,053
-486,693	791,317	-0,021	0,042
-485,678	-200,000	-0,006	0,070
-484,664	500,499	-0,099	-0,168
-483,649	100,977	-0,070	-0,060
-482,635	-200,000	0,010	-0,069
-481,620	-200,000	-0,001	0,025
-480,605	22,272	-0,079	0,047
-479,591	508,244	0,102	0,174
-478,576	-200,000	0,022	-0,100
-477,562	91,003	-0,186	-0,153
-476,547	-200,000	-0,001	0,101
-475,532	34,291	0,047	0,030
-474,518	800,000	-0,036	-0,092
-473,503	30,396	-0,033	-0,020
-472,489	483,633	-0,033	-0,056
-471,474	800,000	0,039	0,080
-470,459	-52,002	-0,035	0,012
-469,445	-200,000	-0,027	-0,236
-468,430	-118,189	0,026	-0,003
-467,416	156,615	0,125	-0,127
-466,401	-73,140	0,104	0,028
-465,386	800,000	-0,028	0,086
-464,372	234,054	0,059	0,071
-463,357	121,609	0,088	0,080
-462,343	-57,036	-0,083	-0,027
-461,328	181,721	-0,032	0,035
-460,313	451,491	-0,046	0,075
-459,299	379,879	0,038	0,058
-458,284	652,205	-0,061	0,116
-457,270	-64,098	-0,094	-0,028
-456,255	-200,000	0,001	-0,027
-455,241	-153,345	-0,068	-0,003
-454,226	160,846	-0,065	0,066
-453,211	530,810	0,061	-0,107
-452,197	65,885	-0,120	0,089
-451,182	-200,000	0,017	0,100
-450,168	-117,870	-0,048	0,006
-449,153	22,358	-0,060	0,036
-448,138	800,000	0,025	-0,054
-447,124	582,948	-0,014	-0,025
-446,109	-200,000	-0,010	0,040
-445,095	779,868	0,051	0,103
-444,080	-84,046	0,013	0,003
-443,065	508,850	0,019	-0,033
-442,051	48,756	-0,088	-0,061
-441,036	-200,000	-0,060	0,000
-440,022	-27,923	0,053	-0,022
-439,007	800,000	0,009	0,020
-437,992	369,486	0,023	-0,034
-436,978	35,762	-0,148	0,095
-435,963	-30,700	0,145	0,060
-434,949	-200,000	0,000	0,157
-433,934	84,405	0,039	0,031
-432,919	-165,786	-0,030	-0,001
-431,905	-200,000	0,031	-0,155
-430,890	457,244	0,028	-0,046
-429,876	12,942	0,109	0,062
-428,861	-200,000	-0,009	0,116
-427,846	800,000	0,017	0,043
-426,832	-200,000	-0,016	-0,072
-425,817	-200,000	-0,007	-0,028
-424,803	591,748	0,043	-0,078
-423,788	17,120	0,110	0,064
-422,773	-200,000	-0,008	0,037
-421,759	-128,641	0,032	0,003
-420,744	-32,255	0,122	0,050
-419,730	763,201	-0,047	-0,093
-418,715	-129,840	-0,102	-0,010
-417,701	245,501	0,033	0,040
-416,686	800,000	0,027	0,075
-415,671	182,200	-0,082	0,089
-414,657	150,879	-0,054	0,053
-413,642	-143,907	-0,040	0,003
-412,628	222,378	-0,010	-0,012
-411,613	-27,399	-0,158	-0,067
-410,598	65,776	0,126	-0,093
-409,584	-25,825	0,122	0,052
-408,569	-200,000	-0,007	0,142
-407,555	-55,637	0,179	-0,058
-406,540	295,646	-0,113	0,151
-405,525	-53,205	-0,096	-0,032
-404,511	800,000	-0,024	-0,071
-403,496	-200,000	0,014	-0,059
-402,482	211,947	0,048	-0,056
-401,467	187,855	-0,056	0,061
-400,452	-129,846	0,054	0,005
-399,438	-16,508	0,023	-0,011
-398,423	-141,264	-0,058	0,004
-397,409	-88,014	-0,083	0,018
-396,394	-131,644	-0,014	0,001
-395,379	67,483	-0,001	0,001
-394,365	3,234	0,102	-0,054
-393,350	224,993	-0,046	-0,054
-392,336	-200,000	0,018	-0,085
-391,321	-200,000	-0,008	0,111
-390,306	-101,369	0,097	-0,017
-389,292	-124,451	-0,102	-0,012
-388,277	555,066	0,042	-0,074
-387,263	353,379	-0,048	0,070
-386,248	-81,080	0,126	0,030
-385,233	-200,000	0,012	0,050
-384,219	-200,000	-0,010	-0,180
-383,204	800,000	-0,004	-0,010
-382,190	-126,956	-0,022	0,002
-381,175	-200,000	0,023	-0,161
-380,160	-200,000	0,010	0,041
-379,146	20,793	0,144	0,085
-378,131	-200,000	-0,008	0,035
-377,117	218,707	-0,067	0,078
-376,102	-128,239	0,031	-0,003
-375,088	663,664	0,019	-0,035
-374,073	159,897	-0,057	0,058
-373,058	-125,208	0,116	0,013
-372,044	-89,101	0,168	0,036
-371,029	800,000	-0,075	0,182
-370,015	800,000	-0,041	0,092
-369,000	192,085	-0,044	0,048
-367,985	-200,000	-0,015	-0,123
-366,971	-47,270	0,081	-0,029
-365,956	800,000	0,026	-0,065
-364,942	800,000	0,045	-0,109
-363,927	-200,000	-0,023	0,125
-362,912	102,234	-0,072	-0,061
-361,898	-200,000	0,005	0,048
-360,883	-200,000	0,015	-0,062
-359,869	800,000	0,037	-0,114
-358,854	26,923	0,035	-0,021
-357,839	-185,824	0,282	-0,003
-356,825	202,087	0,052	-0,058
-355,810	34,763	-0,074	0,047
-354,796	60,662	0,084	0,061
-353,781	-19,133	-0,082	-0,037
-352,766	800,000	0,028	-0,072
-351,752	681,101	-0,069	-0,132
-350,737	76,000	0,035	-0,027
-349,723	-200,000	0,015	0,077
-348,708	769,057	-0,044	-0,089
-347,693	45,347	-0,032	0,022
-346,679	148,526	-0,064	-0,063
-345,664	730,922	-0,044	-0,085
-344,650	-200,000	-0,053	-0,239
-343,635	-4,802	0,091	0,046
-342,620	258,084	0,153	0,192
-341,606	346,844	-0,046	-0,066
-340,591	-102,983	-0,033	-0,006
-339,577	-141,826	-0,120	-0,009
-338,562	186,795	-0,052	0,057
-337,548	-200,000	-0,024	-0,119
-336,533	-200,000	-0,009	0,136
-335,518	-91,611	0,059	0,012
-334,504	135,574	-0,021	-0,020
-333,489	800,000	0,010	0,027
-332,475	-26,386	-0,104	0,044
-331,460	39,512	-0,024	-0,016
-330,445	-126,958	-0,019	-0,002
-329,431	-0,274	0,122	-0,063
-328,416	-108,742	0,090	0,014
-327,402	553,758	0,031	-0,054
-326,387	-200,000	-0,002	-0,070
-325,372	87,418	0,035	-0,028
-324,358	-1,696	-0,117	0,060
-323,343	-157,776	-0,056	0,002
-322,329	-120,041	-0,008	-0,001
-321,314	21,729	0,112	0,067
-320,299	-163,913	0,062	0,002
-319,285	198,620	0,146	0,163
-318,270	-155,118	0,065	0,003
-317,256	-200,000	0,043	-0,155
-316,241	38,112	0,066	-0,043
-315,226	59,445	-0,139	0,100
-314,212	800,000	0,053	0,131
-313,197	800,000	-0,032	0,092
-312,183	221,120	0,034	0,039
-311,168	-63,594	-0,030	-0,009
-310,153	103,951	-0,167	0,143
-309,139	-200,000	0,030	0,098
-308,124	189,007	0,038	0,042
-307,110	-200,000	0,004	-0,187
-306,095	129,062	0,085	-0,079
-305,080	-200,000	-0,008	-0,064
-304,066	-195,654	-0,133	0,001
-303,051	28,682	-0,064	0,039
-302,037	-200,000	0,006	-0,149
-301,022	345,456	-0,045	-0,065
-300,008	403,838	0,071	0,110
-298,993	253,191	0,079	0,098
-297,978	-200,000	0,007	0,058
-296,964	15,699	0,071	0,041
-295,949	-66,049	-0,104	0,030
-294,935	202,609	0,054	0,061
-293,920	84,908	0,059	0,047
-292,905	328,287	0,065	0,092
-291,891	19,863	0,169	0,099
-290,876	-86,838	-0,086	-0,019
-289,862	274,060	0,036	-0,046
-288,847	-200,000	-0,014	-0,052
-287,832	800,000	-0,023	-0,052
-286,818	-200,000	-0,005	0,119
-285,803	-13,244	0,084	0,040
-284,789	592,446	0,024	-0,043
-283,774	21,523	-0,040	0,024
-282,759	360,748	-0,038	0,056
-281,745	28,914	-0,048	0,029
-280,730	800,000	0,026	0,074
-279,716	775,221	-0,009	-0,019
-278,701	-43,673	0,033	0,012
-277,686	13,467	0,141	0,080
-276,672	19,850	-0,039	-0,023
-275,657	244,168	0,073	0,090
-274,643	-119,658	-0,073	-0,009
-273,628	250,605	0,077	0,095
-272,613	457,442	0,062	-0,100
-271,599	-200,000	0,016	0,064
-270,584	142,077	0,147	0,142
-269,570	-200,000	0,009	-0,033
-268,555	122,256	0,067	-0,061
-267,540	-200,000	0,002	0,139
-266,526	24,087	-0,015	0,009
-265,511	-200,000	0,006	-0,130
-264,497	114,336	-0,093	0,082
-263,482	693,401	-0,059	0,114
-262,467	-122,846	0,050	0,006
-261,453	-86,567	-0,120	0,026
-260,438	-99,877	-0,087	-0,016
-259,424	451,458	0,027	-0,043
-258,409	-200,000	0,003	0,062
-257,395	215,580	0,091	0,105
-256,380	-200,000	-0,004	-0,070
-255,365	395,712	-0,054	-0,082
-254,351	-176,767	0,028	-0,001
-253,336	53,160	-0,157	-0,109
-252,322	-46,373	-0,053	0,019
-251,307	-200,000	-0,013	-0,064
-250,292	-200,000	0,005	0,051
-249,278	340,109	0,143	0,203
-248,263	52,156	0,099	0,069
-247,249	-52,491	0,093	-0,031
-246,234	-13,357	-0,093	0,044
-245,219	-62,308	-0,191	0,058
-244,205	279,220	-0,019	0,025
-243,190	800,000	0,020	-0,053
-242,176	-44,417	-0,051	0,018
-241,161	-200,000	0,004	0,054
-240,146	56,512	0,083	0,059
-239,132	580,748	-0,114	0,205
-238,117	-14,390	-0,041	0,019
-237,103	663,543	0,021	-0,039
-236,088	-200,000	0,021	-0,094
-235,073	-136,136	0,054	-0,005
-234,059	-172,308	-0,084	-0,002
-233,044	88,938	0,120	0,097
-232,030	32,409	0,131	-0,082
-231,015	-100,349	0,078	0,014
-230,000	-135,856	-0,078	0,007
-228,986	95,469	-0,095	-0,079
-227,971	53,423	0,074	-0,051
-226,957	-15,584	0,017	-0,008
-225,942	539,446	0,033	-0,057
-224,927	0,572	-0,117	-0,061
-223,913	355,255	0,037	-0,054
-222,898	-181,737	0,034	0,000
-221,884	-124,983	0,141	-0,016
-220,869	416,880	-0,038	-0,060
-219,855	-143,891	0,122	0,008
-218,840	-200,000	-0,012	0,101
-217,825	519,036	-0,033	0,057
-216,811	-200,000	-0,008	0,036
-215,796	800,000	0,037	-0,098
-214,782	16,942	-0,039	-0,022
-213,767	-139,289	-0,026	-0,002
-212,752	441,466	0,036	-0,058
-211,738	-200,000	0,019	-0,061
-210,723	613,432	0,041	-0,075
-209,709	115,277	-0,157	-0,139
-208,694	171,543	0,070	-0,073
-207,679	-110,104	-0,185	-0,028
-206,665	363,624	0,076	0,112
-205,650	-200,000	-0,005	-0,021
-204,636	-40,418	0,034	0,013
-203,621	640,074	-0,063	-0,116
-202,606	124,607	-0,043	0,039
-201,592	498,021	-0,056	0,094
-200,577	-200,000	-0,036	0,115
-199,563	-200,000	-0,032	0,110
-198,548	800,000	0,029	0,071
-197,533	-46,439	-0,083	-0,030
-196,519	327,460	0,064	0,089
-195,504	800,000	0,011	-0,034
-194,490	2,907	-0,122	0,064
-193,475	15,670	-0,153	-0,087
-192,460	-126,266	-0,069	-0,007
-191,446	-123,089	-0,092	-0,011
-190,431	-200,000	0,007	-0,111
-189,417	-190,603	-0,161	0,001
-188,402	-200,000	0,003	0,026
-187,387	202,477	-0,045	0,051
-186,373	5,530	-0,082	-0,044
-185,358	146,223	-0,107	-0,104
-184,344	-24,504	0,059	-0,025
-183,329	-95,403	0,071	0,014
-182,315	98,569	0,053	-0,044
-181,300	293,500	0,087	-0,115
-180,285	800,000	0,022	-0,048
-179,271	41,038	-0,057	-0,037
-178,256	-200,000	-0,003	-0,068
-177,242	541,972	0,021	-0,037
-176,227	-8,389	0,062	-0,030
-175,212	800,000	-0,004	-0,009
-174,198	-82,175	-0,023	0,005
-173,183	-132,423	-0,185	-0,017
-172,169	-200,000	0,027	-0,158
-171,154	800,000	0,024	-0,066
-170,139	146,561	0,050	-0,049
-169,125	-200,000	-0,001	0,067
-168,110	133,860	0,086	-0,081
-167,096	-200,000	0,012	-0,073
-166,081	-89,392	-0,063	0,013
-165,066	52,040	0,064	-0,044
-164,052	-200,000	0,008	-0,057
-163,037	353,960	-0,047	0,068
-162,023	268,694	0,053	0,067
-161,008	351,655	0,119	0,172
-159,993	472,699	-0,034	-0,055
-158,979	100,518	0,080	-0,068
-157,964	744,014	-0,022	-0,042
-156,950	-80,670	0,059	0,014
-155,935	24,631	-0,086	-0,051
-154,920	243,563	0,101	0,124
-153,906	800,000	-0,048	0,126
-152,891	-41,820	0,069	0,026
-151,877	169,894	-0,020	0,021
-150,862	-24,815	-0,038	0,016
-149,847	-10,345	0,084	0,040
-148,833	-200,000	0,024	0,076
-147,818	-155,908	-0,103	0,005
-146,804	-65,471	0,085	-0,025
-145,789	-200,000	-0,031	-0,101
-144,775	151,772	-0,085	-0,084
-143,760	-200,000	0,000	-0,054
-142,745	-200,000	-0,006	-0,110
-141,731	-62,548	-0,023	0,007
-140,716	800,000	-0,042	-0,104
-139,702	60,364	-0,119	0,085
-138,687	800,000	0,010	0,028
-137,672	-200,000	-0,004	0,026
-136,658	188,066	-0,060	0,065
-135,643	-200,000	0,006	-0,043
-134,629	142,074	-0,095	-0,091
-133,614	76,183	0,091	0,070
-132,599	-177,460	-0,020	0,000
-131,585	-200,000	0,007	0,027
-130,570	242,288	0,078	-0,095
-129,556	-100,415	-0,067	-0,012
-128,541	168,693	0,061	0,063
-127,526	170,542	-0,044	-0,045
-126,512	226,034	-0,019	-0,022
-125,497	-13,423	0,097	-0,045
-124,483	-200,000	0,006	-0,039
-123,468	-200,000	-0,023	-0,082
-122,453	94,634	-0,109	-0,089
-121,439	293,266	-0,062	-0,083
-120,424	-136,153	-0,074	0,006
