DTS Sentinel unit serial number:	SN410029Multiplexer serial number:	ORYXHardware model number:	OX2-SRSoftware version number:	ORYX F/W v4,00 Oryx Data Collector v3.7.2.0data status	okinstallation	B6 Nyhavnadifferential loss correction	single-endedforward channel	channel 2reverse channel	N/Adate	2023/12/08time	00:05:08forward acquisition time	300,00reverse acquisition time	0,00gamma	499,1914k internal	0,3164k external	0,3164temperature offset calibration	1,0000default loss term (dB/km)	0,3820temperature slope calibration	1,0000multiplexer offset coefficient	1,0000multiplexer slope coefficient	1,0000fibre end	0,00T internal ref (°C)	13,37T ext. ref 1 (°C)	-3,54T ext. ref 2 (°C)	-3,53length (m)	temperature (°C)	Stokes	anti-Stokes-744,400	-200,000	-0,001	-0,042
-743,385	-200,000	-0,328	0,000
-742,371	-55,202	0,211	0,069
-741,356	-27,116	-0,280	0,119
-740,342	800,000	0,052	0,111
-739,327	-118,856	-0,358	0,046
-738,312	800,000	0,018	-0,052
-737,298	-141,902	-0,257	-0,019
-736,283	162,296	0,061	0,063
-735,269	-69,397	-0,181	0,051
-734,254	-23,385	0,213	0,094
-733,239	-34,220	-0,473	-0,190
-732,225	51,162	0,171	0,119
-731,210	-200,000	-0,014	0,129
-730,196	-113,409	0,176	-0,025
-729,181	-200,000	-0,013	-0,082
-728,167	322,447	-0,067	0,094
-727,152	-200,000	-0,014	-0,077
-726,137	-200,000	0,026	-0,111
-725,123	-29,915	-0,087	0,036
-724,108	-114,347	-0,135	-0,019
-723,094	-173,839	-0,186	0,004
-722,079	-116,301	0,105	0,014
-721,064	-200,000	0,015	-0,206
-720,050	4,850	-0,097	0,052
-719,035	247,607	-0,051	0,064
-718,021	-24,035	0,094	0,041
-717,006	-200,000	-0,033	-0,158
-715,991	-200,000	0,029	-0,136
-714,977	-56,259	0,022	-0,007
-713,962	-200,000	0,003	0,064
-712,948	-200,000	0,011	-0,131
-711,933	760,413	0,059	0,118
-710,918	-145,678	0,046	0,003
-709,904	65,297	0,062	-0,046
-708,889	800,000	-0,016	-0,043
-707,875	-5,007	-0,125	0,063
-706,860	320,975	0,035	-0,048
-705,845	-89,553	-0,099	-0,021
-704,831	-72,845	0,081	-0,022
-703,816	-200,000	-0,009	0,087
-702,802	800,000	-0,014	0,041
-701,787	625,966	-0,092	-0,171
-700,772	-200,000	0,041	-0,173
-699,758	405,191	-0,051	-0,079
-698,743	800,000	-0,018	0,042
-697,729	-200,000	0,012	-0,045
-696,714	-27,040	-0,080	-0,034
-695,699	-200,000	0,014	-0,046
-694,685	-200,000	-0,013	-0,053
-693,670	-200,000	-0,010	-0,152
-692,656	-143,905	0,068	0,005
-691,641	-200,000	-0,004	-0,040
-690,627	-64,377	-0,107	-0,032
-689,612	-29,843	0,077	-0,032
-688,597	531,745	-0,031	-0,055
-687,583	-200,000	-0,027	-0,142
-686,568	315,137	-0,016	-0,022
-685,554	-50,204	-0,051	0,018
-684,539	266,809	-0,066	-0,084
-683,524	-74,462	-0,026	0,007
-682,510	-200,000	-0,024	0,143
-681,495	346,339	0,041	-0,060
-680,481	163,993	-0,024	-0,024
-679,466	510,199	-0,084	-0,143
-678,451	254,453	-0,021	-0,026
-677,437	0,335	0,088	-0,046
-676,422	-200,000	0,025	-0,136
-675,408	-63,162	0,114	0,034
-674,393	-65,691	-0,134	-0,039
-673,378	137,063	-0,107	-0,103
-672,364	800,000	0,053	0,125
-671,349	-200,000	-0,003	-0,011
-670,335	-14,391	0,071	-0,033
-669,320	-61,658	-0,029	0,009
-668,305	259,907	-0,088	0,112
-667,291	800,000	0,027	-0,082
-666,276	-200,000	0,022	-0,151
-665,262	-200,000	0,008	0,045
-664,247	-88,892	-0,078	0,017
-663,232	-7,105	-0,098	0,049
-662,218	93,333	0,055	0,045
-661,203	431,671	-0,065	0,104
-660,189	-200,000	0,022	0,165
-659,174	433,217	-0,098	0,156
-658,159	800,000	-0,020	-0,048
-657,145	-200,000	0,006	-0,123
-656,130	-2,677	-0,131	0,067
-655,116	30,443	0,078	-0,049
-654,101	13,552	0,046	-0,026
-653,086	-7,427	0,017	-0,009
-652,072	-200,000	0,025	-0,121
-651,057	-112,019	-0,096	0,014
-650,043	568,858	-0,078	-0,139
-649,028	418,125	-0,053	0,083
-648,014	517,903	-0,079	-0,135
-646,999	-12,721	0,044	-0,021
-645,984	-200,000	-0,010	-0,053
-644,970	-128,375	0,131	0,014
-643,955	-82,957	-0,112	0,026
-642,941	-200,000	-0,008	-0,083
-641,926	-29,155	0,057	0,024
-640,911	153,037	0,078	0,078
-639,897	-67,328	0,064	-0,018
-638,882	-200,000	0,024	-0,081
-637,868	-200,000	-0,044	-0,170
-636,853	388,748	-0,062	0,094
-635,838	-198,226	-0,044	0,000
-634,824	108,303	0,117	-0,102
-633,809	668,679	-0,033	0,062
-632,795	-39,921	0,095	-0,036
-631,780	33,161	0,126	0,080
-630,765	501,568	-0,043	-0,073
-629,751	347,901	-0,047	-0,069
-628,736	-200,000	-0,002	-0,147
-627,722	122,456	0,028	-0,026
-626,707	-200,000	-0,013	-0,087
-625,692	393,768	-0,045	0,069
-624,678	79,320	0,117	-0,092
-623,663	-43,665	0,197	-0,072
-622,649	101,085	-0,070	0,060
-621,634	-127,376	0,062	0,007
-620,619	-200,000	-0,019	-0,088
-619,605	-95,426	0,096	0,019
-618,590	800,000	0,056	0,134
-617,576	-190,229	-0,101	-0,001
-616,561	800,000	-0,038	0,078
-615,546	-1,922	-0,060	0,031
-614,532	195,514	-0,042	-0,047
-613,517	555,311	0,052	-0,091
-612,503	84,756	-0,087	0,070
-611,488	19,786	0,072	0,043
-610,474	-200,000	-0,027	0,094
-609,459	-31,408	-0,158	-0,065
-608,444	190,192	0,042	0,046
-607,430	-125,865	-0,044	0,005
-606,415	800,000	0,020	0,052
-605,401	466,685	-0,016	-0,026
-604,386	163,113	-0,055	-0,057
-603,371	-124,885	0,129	-0,014
-602,357	156,588	-0,095	-0,096
-601,342	-200,000	0,006	-0,045
-600,328	120,558	0,066	-0,060
-599,313	-71,268	-0,097	0,026
-598,298	659,450	-0,032	-0,060
-597,284	29,781	-0,044	0,027
-596,269	57,297	-0,095	0,068
-595,255	-200,000	0,010	0,068
-594,240	-162,772	-0,047	0,002
-593,225	-117,957	-0,089	0,012
-592,211	383,182	-0,044	-0,067
-591,196	-200,000	-0,021	-0,085
-590,182	-200,000	0,013	-0,106
-589,167	-90,161	0,152	-0,032
-588,152	-160,803	-0,070	-0,003
-587,138	-8,903	-0,139	-0,068
-586,123	-66,389	-0,037	-0,011
-585,109	800,000	0,078	-0,193
-584,094	-10,542	-0,094	-0,045
-583,079	501,068	0,072	0,122
-582,065	-61,711	-0,032	-0,010
-581,050	800,000	0,073	0,209
-580,036	468,362	-0,025	-0,042
-579,021	-200,000	-0,011	-0,044
-578,006	256,989	-0,029	-0,037
-576,992	-112,019	-0,079	-0,011
-575,977	107,592	-0,112	-0,098
-574,963	8,058	0,158	0,086
-573,948	-200,000	-0,018	-0,061
-572,934	-71,680	-0,048	0,013
-571,919	800,000	-0,051	-0,133
-570,904	160,514	-0,076	-0,077
-569,890	121,853	-0,041	0,037
-568,875	105,344	0,018	0,015
-567,861	-28,901	0,054	-0,023
-566,846	-200,000	0,027	0,142
-565,831	124,933	0,036	-0,033
-564,817	-141,715	-0,049	0,004
-563,802	4,446	0,103	0,055
-562,788	-57,641	-0,118	0,038
-561,773	-58,021	0,035	-0,011
-560,758	205,713	-0,022	0,025
-559,744	-200,000	-0,138	-0,000
-558,729	-200,000	-0,013	0,141
-557,715	-93,761	0,033	0,007
-556,700	456,442	0,040	0,065
-555,685	-200,000	-0,021	-0,164
-554,671	95,836	0,072	0,060
-553,656	-200,000	0,006	-0,099
-552,642	-121,107	0,048	-0,006
-551,627	166,039	0,020	-0,021
-550,612	800,000	-0,013	0,036
-549,598	800,000	-0,036	-0,103
-548,583	800,000	0,032	0,081
-547,569	685,240	-0,041	0,079
-546,554	-20,446	-0,078	-0,035
-545,539	345,798	0,030	-0,043
-544,525	-4,695	-0,125	-0,063
-543,510	726,956	-0,073	-0,142
-542,496	800,000	-0,018	0,052
-541,481	512,138	-0,091	-0,155
-540,466	209,601	0,109	0,125
-539,452	800,000	0,011	-0,025
-538,437	-150,598	0,035	0,002
-537,423	-82,770	0,102	0,024
-536,408	-200,000	-0,006	0,041
-535,393	93,731	-0,051	-0,042
-534,379	-171,343	0,148	0,004
-533,364	-200,000	-0,007	-0,036
-532,350	227,977	-0,052	-0,062
-531,335	381,363	0,062	0,094
-530,321	800,000	-0,032	-0,077
-529,306	69,209	0,089	0,067
-528,291	87,443	-0,132	-0,106
-527,277	32,922	-0,078	0,049
-526,262	35,663	-0,086	0,055
-525,248	272,693	0,055	0,071
-524,233	179,617	0,080	0,086
-523,218	4,621	0,074	0,039
-522,204	-200,000	-0,021	-0,073
-521,189	264,512	-0,074	-0,095
-520,175	643,876	-0,052	-0,097
-519,160	-23,388	0,064	0,028
-518,145	757,007	0,050	0,100
-517,131	800,000	0,010	0,028
-516,116	-91,030	0,029	-0,006
-515,102	104,983	-0,160	-0,137
-514,087	91,190	0,082	-0,067
-513,072	793,158	-0,038	0,076
-512,058	-200,000	-0,002	0,036
-511,043	-122,496	0,043	0,005
-510,029	-71,538	0,096	0,026
-509,014	30,140	-0,005	-0,003
-507,999	160,161	-0,093	0,095
-506,985	558,905	-0,043	-0,077
-505,970	800,000	-0,055	-0,174
-504,956	800,000	0,013	0,029
-503,941	-60,551	-0,201	0,062
-502,926	-19,834	0,096	-0,043
-501,912	800,000	0,052	0,110
-500,897	-94,067	-0,051	-0,010
-499,883	-200,000	0,022	-0,170
-498,868	-131,349	0,068	-0,006
-497,853	-200,000	-0,015	-0,114
-496,839	-200,000	0,014	0,089
-495,824	-110,146	0,165	0,025
-494,810	-200,000	0,019	-0,106
-493,795	367,349	-0,014	0,020
-492,781	-175,778	-0,075	0,001
-491,766	800,000	-0,023	0,049
-490,751	-200,000	-0,008	0,058
-489,737	800,000	0,023	0,054
-488,722	-128,975	-0,079	-0,008
-487,708	-16,176	0,054	0,025
-486,693	-200,000	-0,002	-0,008
-485,678	-160,308	-0,029	-0,001
-484,664	-200,000	0,022	0,072
-483,649	-15,057	0,072	0,033
-482,635	-42,499	-0,016	-0,006
-481,620	800,000	-0,034	-0,102
-480,605	-183,204	0,037	0,000
-479,591	-104,631	-0,034	0,006
-478,576	-200,000	0,035	0,163
-477,562	495,239	0,073	-0,123
-476,547	112,177	-0,037	0,033
-475,532	-200,000	-0,012	-0,056
-474,518	-200,000	0,013	-0,057
-473,503	-55,094	0,101	-0,033
-472,489	-200,000	-0,004	0,033
-471,474	-3,637	0,127	0,064
-470,459	223,758	-0,110	-0,129
-469,445	95,717	-0,032	0,027
-468,430	289,961	0,042	-0,056
-467,416	-136,751	0,118	0,010
-466,401	-167,477	0,120	-0,003
-465,386	-52,629	-0,054	-0,018
-464,372	97,662	0,081	0,068
-463,357	-200,000	-0,017	0,061
-462,343	-200,000	0,003	0,186
-461,328	800,000	0,033	-0,067
-460,313	269,425	-0,104	-0,133
-459,299	21,400	0,056	-0,033
-458,284	55,259	-0,032	0,023
-457,270	89,411	-0,041	-0,033
-456,255	27,121	-0,109	-0,066
-455,241	-200,000	-0,023	-0,081
-454,226	702,516	-0,039	-0,076
-453,211	130,082	0,017	0,015
-452,197	-20,903	-0,043	0,019
-451,182	-200,000	-0,029	-0,096
-450,168	86,052	0,119	-0,095
-449,153	-56,253	-0,091	-0,029
-448,138	403,595	-0,056	0,086
-447,124	-200,000	-0,002	0,160
-446,109	-3,433	-0,126	-0,064
-445,095	92,751	0,112	-0,092
-444,080	-18,492	0,062	-0,028
-443,065	800,000	0,006	-0,017
-442,051	718,631	0,064	0,124
-441,036	-200,000	0,006	-0,050
-440,022	-113,113	0,080	0,011
-439,007	-36,372	-0,129	0,050
-437,992	-57,362	0,027	-0,009
-436,978	431,998	0,021	0,033
-435,963	-200,000	-0,006	0,025
-434,949	-69,022	-0,078	0,022
-433,934	800,000	-0,068	0,159
-432,919	-200,000	-0,025	-0,099
-431,905	-200,000	-0,003	-0,078
-430,890	-136,123	0,051	-0,004
-429,876	800,000	0,032	0,101
-428,861	631,136	-0,051	-0,095
-427,846	-53,968	-0,056	-0,019
-426,832	78,492	0,033	0,026
-425,817	336,746	-0,035	-0,049
-424,803	189,093	0,076	-0,083
-423,788	-133,500	0,168	0,015
-422,773	56,585	0,095	0,067
-421,759	800,000	0,022	0,059
-420,744	137,448	-0,091	0,086
-419,730	-18,231	-0,073	0,033
-418,715	-87,958	0,102	0,022
-417,701	-200,000	-0,005	-0,074
-416,686	24,957	0,097	0,058
-415,671	-200,000	-0,032	0,113
-414,657	-200,000	-0,020	0,166
-413,642	-200,000	-0,006	-0,064
-412,628	-66,977	-0,085	0,024
-411,613	678,912	-0,059	-0,113
-410,598	-38,752	-0,093	0,036
-409,584	20,509	0,084	0,049
-408,569	-24,257	0,006	0,003
-407,555	116,433	0,062	-0,056
-406,540	800,000	-0,074	-0,156
-405,525	56,301	0,090	-0,063
-404,511	-200,000	0,002	-0,040
-403,496	-131,683	-0,127	-0,012
-402,482	-200,000	0,017	0,105
-401,467	355,754	0,101	0,147
-400,452	285,103	0,044	0,058
-399,438	800,000	-0,058	0,122
-398,423	397,292	-0,042	-0,063
-397,409	370,206	-0,009	0,013
-396,394	90,532	-0,076	-0,062
-395,379	-1,669	0,080	-0,041
-394,365	213,011	0,081	-0,093
-393,350	-25,586	0,091	-0,039
-392,336	-103,010	-0,044	0,008
-391,321	366,473	-0,085	0,125
-390,306	-134,758	-0,025	-0,002
-389,292	105,728	-0,068	0,058
-388,277	268,998	0,050	0,064
-387,263	-200,000	0,009	-0,140
-386,248	-78,480	0,115	0,028
-385,233	-14,618	0,039	-0,018
-384,219	-200,000	0,001	-0,054
-383,204	-200,000	0,007	0,060
-382,190	77,016	0,075	-0,058
-381,175	218,030	0,076	0,088
-380,160	-200,000	0,011	0,169
-379,146	-200,000	-0,011	0,039
-378,131	333,265	-0,028	-0,039
-377,117	-170,632	-0,056	-0,001
-376,102	800,000	-0,059	-0,143
-375,088	16,227	0,096	-0,055
-374,073	-112,713	-0,034	-0,005
-373,058	114,913	0,058	-0,052
-372,044	-158,229	0,128	-0,005
-371,029	-57,351	0,055	0,017
-370,015	-200,000	-0,002	-0,070
-369,000	-95,369	-0,134	0,026
-367,985	264,353	0,121	0,152
-366,971	718,574	-0,029	0,056
-365,956	274,629	0,001	0,002
-364,942	-87,271	0,096	-0,021
-363,927	119,208	0,022	-0,020
-362,912	-200,000	0,013	0,146
-361,898	-73,252	-0,186	0,049
-360,883	-200,000	-0,035	-0,116
-359,869	-200,000	0,011	-0,152
-358,854	313,405	-0,008	0,011
-357,839	-200,000	0,002	0,064
-356,825	-28,030	-0,033	-0,014
-355,810	800,000	0,042	-0,110
-354,796	-56,391	-0,075	0,024
-353,781	-200,000	-0,008	-0,150
-352,766	-200,000	0,011	0,097
-351,752	428,713	-0,027	-0,042
-350,737	-198,377	-0,099	-0,000
-349,723	132,166	-0,049	0,046
-348,708	266,424	-0,079	0,101
-347,693	-200,000	-0,003	0,099
-346,679	240,521	0,070	-0,085
-345,664	209,636	-0,093	0,105
-344,650	-200,000	-0,019	-0,064
-343,635	-1,837	0,102	0,052
-342,620	378,626	0,049	0,073
-341,606	-200,000	0,063	0,215
-340,591	74,301	-0,121	0,092
-339,577	-200,000	0,013	0,075
-338,562	-51,179	-0,044	0,015
-337,548	-200,000	-0,003	0,029
-336,533	171,501	-0,129	0,134
-335,518	61,233	0,098	0,070
-334,504	229,734	0,052	-0,061
-333,489	-111,716	-0,145	-0,021
-332,475	-200,000	0,002	0,062
-331,460	-200,000	0,004	-0,095
-330,445	-200,000	0,015	-0,107
-329,431	800,000	-0,030	0,080
-328,416	86,551	0,010	-0,008
-327,402	81,049	0,104	0,081
-326,387	-200,000	0,008	0,026
-325,372	240,266	-0,097	-0,118
-324,358	-27,602	0,024	0,010
-323,343	56,706	0,010	0,007
-322,329	39,884	0,131	0,085
-321,314	-114,271	0,094	0,013
-320,299	-11,002	0,062	0,029
-319,285	-200,000	0,005	-0,032
-318,270	-200,000	0,005	0,097
-317,256	800,000	0,038	-0,095
-316,241	207,591	-0,023	0,026
-315,226	-200,000	0,005	0,057
-314,212	686,755	0,051	0,098
-313,197	211,642	-0,029	0,033
-312,183	47,971	0,065	-0,044
-311,168	-133,045	0,017	-0,002
-310,153	100,437	-0,085	0,072
-309,139	28,035	0,077	0,047
-308,124	-3,883	0,061	-0,030
-307,110	800,000	0,069	-0,151
-306,095	800,000	-0,017	0,052
-305,080	14,882	0,062	-0,035
-304,066	73,594	0,023	0,017
-303,051	298,286	-0,039	-0,052
-302,037	37,659	0,023	0,015
-301,022	-200,000	0,030	0,104
-300,008	-200,000	0,005	0,024
-298,993	194,158	0,086	0,095
-297,978	-64,989	0,054	-0,016
-296,964	254,308	0,036	-0,045
-295,949	-35,072	0,049	0,019
-294,935	-200,000	-0,001	-0,039
-293,920	-200,000	-0,001	0,059
-292,905	800,000	0,017	0,053
-291,891	241,318	0,011	-0,013
-290,876	800,000	-0,001	-0,003
-289,862	800,000	0,060	0,167
-288,847	174,697	-0,096	-0,100
-287,832	-200,000	0,029	-0,095
-286,818	251,871	-0,030	0,036
-285,803	425,432	0,036	-0,056
-284,789	-10,706	0,124	-0,059
-283,774	-200,000	-0,013	0,195
-282,759	-200,000	0,027	0,099
-281,745	-177,268	-0,085	-0,001
-280,730	80,130	-0,088	0,068
-279,716	34,728	0,100	0,063
-278,701	154,606	-0,133	-0,132
-277,686	-200,000	0,008	0,070
-276,672	30,916	-0,107	0,066
-275,657	123,693	0,027	-0,025
-274,643	-49,176	-0,111	-0,038
-273,628	112,692	-0,104	-0,091
-272,613	-200,000	-0,019	0,062
-271,599	344,655	0,056	0,080
-270,584	173,903	0,062	0,065
-269,570	156,985	0,057	-0,057
-268,555	-20,855	0,067	-0,030
-267,540	43,127	-0,064	-0,042
-266,526	513,544	-0,074	0,124
-265,511	-75,797	-0,074	0,019
-264,497	315,205	0,038	-0,052
-263,482	-200,000	-0,021	0,082
-262,467	521,820	-0,041	0,070
-261,453	-200,000	0,012	0,072
-260,438	-90,763	-0,056	-0,012
-259,424	115,515	0,104	0,091
-258,409	-111,046	-0,027	-0,004
-257,395	-89,606	0,128	0,027
-256,380	627,309	-0,039	-0,071
-255,365	122,171	-0,048	0,043
-254,351	-56,905	-0,085	0,027
-253,336	-25,862	-0,108	-0,046
-252,322	86,071	-0,064	-0,051
-251,307	66,429	0,148	-0,108
-250,292	-93,396	0,098	0,019
-249,278	396,823	0,094	-0,142
-248,263	800,000	-0,046	-0,130
-247,249	-200,000	-0,005	-0,071
-246,234	-200,000	0,012	-0,068
-245,219	28,788	0,062	-0,038
-244,205	-65,856	-0,241	0,069
-243,190	-200,000	0,020	-0,145
-242,176	175,020	0,060	0,063
-241,161	-200,000	0,006	0,089
-240,146	-200,000	-0,024	0,092
-239,132	106,223	-0,145	-0,124
-238,117	132,671	-0,127	-0,119
-237,103	-23,986	-0,131	-0,056
-236,088	-200,000	-0,012	-0,067
-235,073	258,478	0,101	0,126
-234,059	800,000	0,017	-0,035
-233,044	800,000	-0,033	0,093
-232,030	110,318	0,025	0,021
-231,015	800,000	-0,062	-0,135
-230,000	-82,328	0,058	-0,013
-228,986	95,549	-0,067	0,055
-227,971	282,691	0,023	0,030
-226,957	-200,000	0,036	0,117
-225,942	-200,000	-0,004	-0,017
-224,927	800,000	-0,028	-0,085
-223,913	-200,000	0,019	0,092
-222,898	24,192	0,128	-0,076
-221,884	800,000	-0,055	0,133
-220,869	-200,000	-0,001	-0,013
-219,855	800,000	-0,012	0,026
-218,840	-30,626	-0,020	-0,008
-217,825	369,321	-0,031	-0,045
-216,811	800,000	0,018	-0,051
-215,796	486,644	0,072	-0,119
-214,782	424,097	-0,027	-0,042
-213,767	-200,000	0,001	0,068
-212,752	-53,365	0,115	-0,038
-211,738	-200,000	0,011	0,048
-210,723	-137,047	0,042	0,003
-209,709	-147,682	-0,077	0,005
-208,694	-200,000	-0,012	-0,058
-207,679	-54,313	0,105	-0,034
-206,665	800,000	0,062	-0,160
-205,650	-51,659	0,198	-0,066
-204,636	44,518	-0,005	0,003
-203,621	-37,170	-0,050	0,019
-202,606	-40,404	-0,091	0,034
-201,592	211,151	0,021	-0,024
-200,577	145,480	-0,252	-0,243
-199,563	-200,000	0,007	0,057
-198,548	-200,000	0,002	-0,045
-197,533	239,772	-0,085	0,102
-196,519	90,454	-0,045	0,037
-195,504	-27,573	0,042	0,017
-194,490	171,981	0,056	-0,058
-193,475	-200,000	0,009	0,125
-192,460	-29,348	0,044	0,018
-191,446	496,986	-0,029	-0,048
-190,431	-200,000	-0,005	0,046
-189,417	401,263	0,043	-0,065
-188,402	-197,900	-0,085	0,000
-187,387	800,000	-0,014	-0,028
-186,373	-0,713	0,156	-0,080
-185,358	-200,000	-0,005	-0,049
-184,344	800,000	-0,029	0,069
-183,329	-14,387	0,097	-0,045
-182,315	-200,000	-0,008	0,145
-181,300	310,566	0,093	-0,125
-180,285	325,133	0,037	0,051
-179,271	36,867	-0,094	0,060
-178,256	697,983	0,051	-0,096
-177,242	-200,000	-0,004	-0,031
-176,227	152,625	0,112	0,110
-175,212	-23,394	-0,033	0,014
-174,198	-100,610	-0,230	-0,040
-173,183	-18,193	-0,065	0,029
-172,169	163,595	0,018	0,018
-171,154	199,217	-0,094	-0,104
-170,139	-142,024	0,100	0,007
-169,125	213,093	-0,046	0,052
-168,110	152,660	-0,089	0,088
-167,096	800,000	-0,024	-0,050
-166,081	550,700	-0,040	-0,069
-165,066	-200,000	-0,030	0,110
-164,052	-39,228	0,117	0,044
-163,037	35,875	0,031	-0,020
-162,023	-200,000	-0,009	0,082
-161,008	-51,541	-0,085	0,028
-159,993	-200,000	0,064	0,218
-158,979	-69,175	0,136	-0,038
-157,964	-200,000	-0,033	0,181
-156,950	-200,000	-0,024	-0,077
-155,935	800,000	0,038	-0,092
-154,920	-64,808	-0,059	0,017
-153,906	-200,000	-0,008	0,038
-152,891	54,942	0,044	0,031
-151,877	7,145	0,112	0,060
-150,862	-122,277	-0,049	0,006
-149,847	-35,746	0,110	0,043
-148,833	657,100	0,059	0,109
-147,818	183,005	-0,011	0,012
-146,804	-94,707	-0,114	0,022
-145,789	800,000	-0,010	-0,031
-144,775	-45,847	0,044	0,015
-143,760	587,218	-0,048	-0,085
-142,745	51,276	-0,112	0,077
-141,731	-200,000	0,010	0,104
-140,716	-200,000	0,013	0,083
-139,702	-200,000	-0,001	-0,013
-138,687	644,539	0,018	0,032
-137,672	-200,000	-0,004	-0,024
-136,658	73,125	0,104	-0,078
-135,643	-200,000	-0,024	0,083
-134,629	-200,000	0,006	0,092
-133,614	-92,731	0,094	-0,019
-132,599	-200,000	0,013	0,069
-131,585	-200,000	-0,007	0,053
-130,570	161,768	-0,091	-0,092
-129,556	224,698	0,013	0,015
-128,541	-200,000	-0,022	0,073
-127,526	-200,000	0,001	0,042
-126,512	132,803	-0,048	0,044
-125,497	-200,000	0,036	0,166
-124,483	164,667	-0,123	0,124
-123,468	5,155	0,060	0,032
-122,453	5,000	-0,066	-0,035
-121,439	-200,000	0,010	-0,170
-120,424	-184,773	-0,032	-0,000
