DTS Sentinel unit serial number:	SN410029Multiplexer serial number:	ORYXHardware model number:	OX2-SRSoftware version number:	ORYX F/W v4,00 Oryx Data Collector v3.7.2.0data status	okinstallation	B6 Nyhavnadifferential loss correction	single-endedforward channel	channel 2reverse channel	N/Adate	2023/12/10time	04:00:08forward acquisition time	300,00reverse acquisition time	0,00gamma	499,1914k internal	0,3125k external	0,3125temperature offset calibration	1,0000default loss term (dB/km)	0,3820temperature slope calibration	1,0000multiplexer offset coefficient	1,0000multiplexer slope coefficient	1,0000fibre end	0,00T internal ref (°C)	22,10T ext. ref 1 (°C)	6,08T ext. ref 2 (°C)	6,06length (m)	temperature (°C)	Stokes	anti-Stokes-744,400	-85,264	0,064	-0,015
-743,385	137,257	-0,126	0,123
-742,371	278,325	0,069	0,092
-741,356	447,273	-0,158	0,260
-740,342	293,908	0,113	-0,155
-739,327	32,490	-0,305	0,196
-738,312	97,576	0,126	-0,108
-737,298	-39,420	-0,231	0,090
-736,283	243,333	0,102	-0,127
-735,269	-106,200	-0,248	0,041
-734,254	32,453	-0,048	-0,031
-733,239	-146,048	-0,387	-0,025
-732,225	-200,000	-0,008	0,057
-731,210	-72,388	-0,049	-0,014
-730,196	20,924	-0,030	-0,018
-729,181	-200,000	0,012	0,045
-728,167	-200,000	-0,006	0,081
-727,152	85,146	0,026	0,021
-726,137	800,000	-0,025	0,079
-725,123	114,873	0,040	-0,037
-724,108	74,108	-0,090	0,070
-723,094	640,823	-0,088	-0,168
-722,079	374,200	0,043	-0,065
-721,064	-67,603	0,054	0,016
-720,050	233,386	-0,077	0,094
-719,035	44,265	-0,042	0,028
-718,021	144,456	-0,135	-0,134
-717,006	-68,717	-0,224	-0,064
-715,991	-200,000	0,011	-0,141
-714,977	-155,818	-0,083	0,004
-713,962	-122,223	-0,086	0,010
-712,948	-74,390	-0,094	0,025
-711,933	-64,467	0,044	-0,013
-710,918	243,377	-0,087	-0,109
-709,904	70,620	-0,075	-0,058
-708,889	-200,000	-0,019	-0,199
-707,875	-200,000	-0,010	-0,197
-706,860	-74,069	0,008	0,002
-705,845	-200,000	0,025	0,110
-704,831	-200,000	0,043	0,208
-703,816	-200,000	-0,000	-0,060
-702,802	583,660	-0,048	0,088
-701,787	-83,532	-0,171	0,040
-700,772	415,155	-0,042	-0,067
-699,758	-86,482	-0,169	-0,038
-698,743	-26,458	-0,072	-0,031
-697,729	277,680	-0,026	-0,035
-696,714	78,000	-0,082	-0,065
-695,699	-18,987	-0,089	-0,041
-694,685	655,376	0,028	0,053
-693,670	-5,525	0,077	-0,039
-692,656	30,531	-0,045	0,029
-691,641	-152,012	0,094	-0,005
-690,627	-100,128	-0,123	-0,022
-689,612	45,051	-0,096	0,066
-688,597	249,970	-0,046	-0,059
-687,583	-200,000	-0,040	-0,145
-686,568	-200,000	-0,021	-0,095
-685,554	251,053	0,027	-0,034
-684,539	800,000	-0,046	0,118
-683,524	635,837	-0,043	0,082
-682,510	56,279	0,066	0,048
-681,495	-200,000	-0,009	-0,046
-680,481	-200,000	0,023	0,129
-679,466	-200,000	-0,007	-0,112
-678,451	-139,400	-0,091	0,007
-677,437	-200,000	-0,011	0,068
-676,422	-18,460	0,146	0,068
-675,408	4,522	0,063	-0,034
-674,393	106,947	-0,041	-0,036
-673,378	-22,491	-0,112	-0,050
-672,364	-200,000	0,007	-0,054
-671,349	800,000	0,107	-0,313
-670,335	-70,952	0,079	-0,022
-669,320	-200,000	0,032	0,151
-668,305	157,268	0,024	0,025
-667,291	46,089	-0,113	0,078
-666,276	-92,304	-0,032	-0,007
-665,262	-200,000	-0,057	-0,193
-664,247	800,000	0,054	-0,172
-663,232	576,288	0,034	0,061
-662,218	474,243	-0,051	-0,086
-661,203	211,719	0,026	-0,031
-660,189	-200,000	0,019	-0,093
-659,174	-200,000	0,021	-0,114
-658,159	-200,000	-0,012	-0,124
-657,145	245,354	-0,030	-0,037
-656,130	-200,000	-0,019	-0,073
-655,116	256,396	-0,060	-0,077
-654,101	-71,849	0,049	0,014
-653,086	-148,344	-0,036	0,002
-652,072	-200,000	-0,024	-0,107
-651,057	194,248	0,078	-0,088
-650,043	78,813	0,076	-0,060
-649,028	-125,130	0,013	0,001
-648,014	-22,341	0,133	0,060
-646,999	10,366	-0,080	0,045
-645,984	98,724	0,021	-0,018
-644,970	-200,000	-0,005	-0,143
-643,955	521,466	0,035	-0,061
-642,941	800,000	0,028	-0,080
-641,926	-200,000	0,002	-0,021
-640,911	708,454	0,068	-0,134
-639,897	-200,000	0,025	-0,157
-638,882	-34,622	-0,060	0,024
-637,868	-200,000	-0,014	0,049
-636,853	-200,000	0,030	-0,171
-635,838	-200,000	0,005	-0,032
-634,824	-129,578	0,110	0,011
-633,809	97,515	0,062	-0,053
-632,795	220,056	-0,087	-0,103
-631,780	22,686	-0,104	-0,063
-630,765	-200,000	0,010	0,065
-629,751	56,172	-0,058	0,042
-628,736	512,717	-0,087	-0,151
-627,722	2,007	0,184	0,098
-626,707	-121,540	0,052	-0,006
-625,692	-11,699	0,162	0,079
-624,678	-148,090	0,057	0,003
-623,663	-200,000	-0,031	-0,101
-622,649	737,055	-0,023	-0,046
-621,634	-29,455	-0,139	-0,059
-620,619	-112,196	0,063	0,009
-619,605	-55,936	-0,056	-0,018
-618,590	-41,675	-0,093	0,035
-617,576	100,780	0,046	0,039
-616,561	800,000	-0,034	-0,099
-615,546	-200,000	0,005	-0,052
-614,532	-200,000	-0,037	-0,172
-613,517	-200,000	0,035	0,127
-612,503	67,087	-0,076	-0,057
-611,488	800,000	-0,061	-0,146
-610,474	160,169	0,066	-0,068
-609,459	800,000	-0,026	0,062
-608,444	484,254	-0,068	-0,114
-607,430	-200,000	-0,155	0,000
-606,415	338,273	-0,044	-0,063
-605,401	84,818	-0,106	-0,086
-604,386	763,821	-0,048	-0,096
-603,371	213,842	0,119	-0,140
-602,357	-16,830	0,126	-0,059
-601,342	-93,742	-0,015	0,003
-600,328	-95,828	-0,118	0,023
-599,313	-183,067	0,058	0,001
-598,298	50,436	-0,052	-0,036
-597,284	-200,000	-0,014	-0,130
-596,269	800,000	-0,018	0,056
-595,255	800,000	0,048	0,099
-594,240	-200,000	-0,008	0,030
-593,225	-94,087	-0,063	0,013
-592,211	208,855	-0,047	-0,054
-591,196	-93,241	0,095	-0,019
-590,182	-123,781	-0,018	0,002
-589,167	-200,000	0,019	0,091
-588,152	-80,904	-0,049	-0,012
-587,138	186,509	-0,083	0,091
-586,123	-60,719	-0,015	-0,005
-585,109	61,937	0,119	-0,087
-584,094	-200,000	0,019	-0,120
-583,079	-200,000	0,003	0,034
-582,065	-74,288	0,081	0,021
-581,050	800,000	0,038	0,078
-580,036	800,000	-0,048	0,131
-579,021	800,000	-0,046	-0,109
-578,006	-28,844	-0,099	-0,042
-576,992	-200,000	0,019	-0,086
-575,977	-200,000	-0,036	-0,138
-574,963	-51,787	-0,077	0,027
-573,948	-37,436	0,059	-0,023
-572,934	-64,945	0,007	0,002
-571,919	280,181	-0,045	-0,060
-570,904	-124,349	-0,044	-0,005
-569,890	96,949	-0,070	0,059
-568,875	800,000	0,022	-0,054
-567,861	73,434	0,073	-0,057
-566,846	800,000	0,060	0,167
-565,831	236,405	-0,025	0,031
-564,817	-200,000	0,012	-0,048
-563,802	259,290	-0,050	-0,064
-562,788	-62,894	-0,088	-0,027
-561,773	-200,000	0,001	-0,014
-560,758	166,793	0,074	0,078
-559,744	-36,218	-0,090	0,036
-558,729	-200,000	-0,004	-0,168
-557,715	62,706	0,007	-0,005
-556,700	321,414	-0,052	0,074
-555,685	111,114	0,080	0,071
-554,671	-200,000	-0,044	0,000
-553,656	235,029	-0,022	-0,027
-552,642	-116,984	0,121	-0,016
-551,627	-16,786	-0,041	0,019
-550,612	-144,162	-0,029	-0,002
-549,598	113,410	0,109	0,098
-548,583	-200,000	-0,010	-0,068
-547,569	-200,000	0,006	0,089
-546,554	-184,067	-0,097	0,001
-545,539	-200,000	0,002	-0,058
-544,525	-49,699	-0,109	-0,038
-543,510	800,000	0,015	-0,042
-542,496	-53,718	0,035	0,012
-541,481	136,590	-0,085	0,082
-540,466	-200,000	-0,014	0,056
-539,452	-200,000	0,028	0,097
-538,437	701,424	-0,041	-0,079
-537,423	-176,537	-0,106	-0,002
-536,408	-15,614	-0,044	0,021
-535,393	55,665	-0,099	-0,070
-534,379	800,000	-0,027	-0,065
-533,364	-189,968	0,056	-0,000
-532,350	-42,489	-0,063	0,024
-531,335	125,817	0,077	0,072
-530,321	48,757	0,063	0,043
-529,306	-156,380	0,088	0,004
-528,291	602,201	0,088	-0,163
-527,277	103,163	-0,024	0,021
-526,262	-200,000	0,008	-0,027
-525,248	83,581	0,146	0,117
-524,233	175,480	-0,067	0,071
-523,218	-200,000	0,023	0,095
-522,204	-76,939	0,088	0,023
-521,189	-83,135	-0,193	-0,046
-520,175	-76,537	0,033	0,008
-519,160	-79,174	0,130	0,032
-518,145	-22,736	-0,064	-0,028
-517,131	421,308	0,060	-0,095
-516,116	800,000	0,081	0,185
-515,102	86,258	-0,071	0,058
-514,087	66,983	-0,083	0,062
-513,072	170,400	0,136	-0,144
-512,058	-200,000	0,007	-0,064
-511,043	-17,128	0,084	0,039
-510,029	-56,897	0,019	0,006
-509,014	21,367	-0,134	-0,080
-507,999	542,253	0,012	0,020
-506,985	-50,336	-0,113	-0,039
-505,970	192,672	-0,079	0,088
-504,956	62,450	0,058	0,043
-503,941	-170,566	0,039	-0,001
-502,926	-200,000	-0,019	0,098
-501,912	74,844	-0,160	0,124
-500,897	332,675	0,145	0,207
-499,883	48,236	0,046	0,032
-498,868	17,966	-0,081	-0,048
-497,853	265,722	0,025	-0,033
-496,839	-200,000	0,042	0,144
-495,824	61,559	0,186	0,137
-494,810	-94,642	0,082	0,016
-493,795	-200,000	-0,010	0,037
-492,781	-36,447	-0,058	-0,023
-491,766	-64,795	-0,104	-0,031
-490,751	107,457	-0,124	0,109
-489,737	200,559	-0,068	-0,077
-488,722	800,000	0,041	-0,095
-487,708	256,436	-0,034	0,043
-486,693	-200,000	0,023	0,238
-485,678	-130,429	-0,156	0,015
-484,664	800,000	-0,047	-0,104
-483,649	-200,000	-0,024	-0,115
-482,635	46,502	0,045	0,030
-481,620	-9,121	-0,147	-0,072
-480,605	495,498	0,039	-0,067
-479,591	403,291	-0,070	0,109
-478,576	-106,712	0,060	0,010
-477,562	-67,021	-0,076	0,022
-476,547	-200,000	-0,007	-0,140
-475,532	-125,434	0,110	-0,012
-474,518	414,347	0,021	-0,033
-473,503	-200,000	0,009	0,101
-472,489	630,932	-0,046	0,086
-471,474	161,007	0,048	-0,050
-470,459	-148,943	-0,104	-0,006
-469,445	150,180	-0,100	-0,101
-468,430	-15,689	-0,105	0,049
-467,416	164,790	-0,086	0,089
-466,401	-200,000	-0,022	0,118
-465,386	94,009	0,106	0,089
-464,372	279,598	-0,085	-0,113
-463,357	9,659	0,104	-0,058
-462,343	800,000	-0,010	-0,023
-461,328	184,036	-0,012	0,013
-460,313	205,924	0,091	0,104
-459,299	-200,000	0,013	-0,124
-458,284	-200,000	-0,009	-0,035
-457,270	-74,696	0,149	0,039
-456,255	56,202	-0,074	-0,053
-455,241	-50,844	-0,023	-0,008
-454,226	-62,418	-0,091	0,028
-453,211	800,000	0,026	-0,057
-452,197	-61,838	-0,137	-0,042
-451,182	64,414	-0,064	0,047
-450,168	-200,000	0,037	0,163
-449,153	265,268	-0,003	-0,004
-448,138	22,512	-0,095	-0,057
-447,124	-78,370	-0,083	0,021
-446,109	-90,353	0,063	0,013
-445,095	-200,000	-0,004	0,066
-444,080	160,019	0,089	0,092
-443,065	-133,305	0,093	-0,009
-442,051	-146,954	-0,148	-0,009
-441,036	301,243	0,022	0,029
-440,022	-200,000	-0,009	-0,037
-439,007	3,363	0,049	0,026
-437,992	16,451	0,275	0,160
-436,978	-200,000	0,011	0,052
-435,963	-200,000	-0,015	0,048
-434,949	-53,946	-0,061	-0,020
-433,934	644,542	-0,039	0,073
-432,919	235,113	0,037	0,044
-431,905	-200,000	0,008	0,125
-430,890	-200,000	0,048	0,156
-429,876	-47,789	0,051	-0,018
-428,861	800,000	0,008	0,020
-427,846	-49,050	0,046	0,016
-426,832	800,000	-0,044	0,106
-425,817	-164,796	0,139	0,005
-424,803	1,577	0,084	0,044
-423,788	-138,979	-0,099	0,008
-422,773	-160,051	0,102	-0,004
-421,759	-41,596	0,030	0,011
-420,744	243,842	0,024	-0,029
-419,730	399,475	0,023	-0,036
-418,715	69,975	-0,114	-0,086
-417,701	-200,000	0,009	-0,041
-416,686	276,296	0,033	-0,043
-415,671	800,000	-0,033	0,079
-414,657	48,866	-0,070	0,048
-413,642	-200,000	0,015	0,095
-412,628	380,688	0,014	0,021
-411,613	-200,000	-0,001	-0,225
-410,598	-179,182	-0,080	0,001
-409,584	-78,581	-0,077	0,019
-408,569	77,581	0,091	0,071
-407,555	-200,000	0,001	-0,057
-406,540	-184,349	0,146	0,002
-405,525	-84,937	-0,073	-0,017
-404,511	-68,101	0,060	-0,017
-403,496	217,757	-0,055	-0,065
-402,482	-26,899	0,183	0,078
-401,467	257,165	0,059	0,075
-400,452	123,127	0,084	0,077
-399,438	523,788	-0,066	0,114
-398,423	262,690	-0,162	0,207
-397,409	266,073	-0,066	-0,085
-396,394	8,632	0,089	-0,049
-395,379	-74,080	0,021	-0,006
-394,365	-11,119	0,040	0,019
-393,350	-50,025	0,064	-0,022
-392,336	374,834	-0,060	-0,091
-391,321	192,067	0,154	0,171
-390,306	190,031	-0,020	0,022
-389,292	-200,000	-0,031	-0,193
-388,277	-2,667	0,071	0,037
-387,263	-127,107	0,064	0,007
-386,248	800,000	0,034	0,098
-385,233	-200,000	0,016	0,158
-384,219	59,760	-0,018	0,013
-383,204	118,659	-0,008	0,007
-382,190	38,447	0,093	0,061
-381,175	800,000	-0,048	0,134
-380,160	94,482	-0,142	0,119
-379,146	165,708	0,082	0,086
-378,131	-57,398	0,034	-0,011
-377,117	-82,904	-0,068	-0,016
-376,102	151,947	-0,091	-0,091
-375,088	800,000	-0,024	0,051
-374,073	53,818	-0,020	0,014
-373,058	394,663	0,016	-0,025
-372,044	-200,000	0,017	0,121
-371,029	800,000	-0,052	0,160
-370,015	63,612	-0,168	0,123
-369,000	-200,000	-0,023	0,137
-367,985	-97,313	-0,084	-0,016
-366,971	637,428	0,033	0,061
-365,956	-58,326	0,061	-0,019
-364,942	800,000	0,030	0,066
-363,927	800,000	-0,021	-0,059
-362,912	-129,258	-0,080	-0,008
-361,898	294,304	-0,079	0,107
-360,883	-200,000	-0,028	-0,208
-359,869	-200,000	0,055	-0,211
-358,854	-161,069	0,131	0,005
-357,839	43,692	-0,114	0,076
-356,825	-33,556	0,065	-0,026
-355,810	-104,826	0,175	-0,029
-354,796	800,000	-0,029	0,088
-353,781	99,443	0,128	-0,108
-352,766	-200,000	0,011	0,039
-351,752	203,855	0,016	0,018
-350,737	2,168	0,144	-0,076
-349,723	19,070	0,101	-0,059
-348,708	-45,214	0,047	0,017
-347,693	445,286	0,055	-0,089
-346,679	689,618	-0,008	0,015
-345,664	-200,000	0,018	0,106
-344,650	602,356	0,022	-0,041
-343,635	215,535	0,071	-0,082
-342,620	186,224	0,027	0,030
-341,606	174,902	0,066	0,070
-340,591	-141,609	-0,134	-0,010
-339,577	800,000	0,043	-0,104
-338,562	800,000	-0,047	-0,123
-337,548	800,000	-0,027	-0,082
-336,533	-200,000	-0,021	0,083
-335,518	-200,000	-0,036	0,127
-334,504	249,252	-0,047	0,058
-333,489	-200,000	0,013	0,046
-332,475	-61,088	0,006	0,002
-331,460	-200,000	-0,028	-0,151
-330,445	-129,016	0,076	-0,008
-329,431	84,266	0,046	0,037
-328,416	-42,282	0,031	-0,011
-327,402	-200,000	-0,026	0,112
-326,387	41,968	-0,067	0,045
-325,372	14,204	-0,081	-0,046
-324,358	-22,406	0,096	0,042
-323,343	102,158	-0,053	0,045
-322,329	-64,752	0,098	0,029
-321,314	-200,000	0,017	0,134
-320,299	234,033	0,027	0,033
-319,285	234,735	0,037	-0,044
-318,270	15,427	0,088	0,051
-317,256	112,444	-0,022	0,019
-316,241	143,032	-0,103	-0,101
-315,226	513,981	0,036	0,061
-314,212	-4,963	0,116	0,058
-313,197	-200,000	-0,015	0,111
-312,183	-200,000	0,007	-0,096
-311,168	61,492	0,102	-0,074
-310,153	198,842	-0,071	0,079
-309,139	68,525	-0,115	0,086
-308,124	405,841	0,018	-0,028
-307,110	460,039	-0,057	0,093
-306,095	596,120	0,088	0,159
-305,080	302,860	-0,080	-0,109
-304,066	117,288	0,035	0,032
-303,051	17,643	0,086	0,050
-302,037	-200,000	0,018	-0,167
-301,022	-200,000	-0,010	-0,103
-300,008	-78,481	0,083	-0,021
-298,993	800,000	0,018	0,048
-297,978	-200,000	0,006	-0,054
-296,964	-200,000	-0,002	-0,131
-295,949	800,000	-0,041	0,122
-294,935	-98,326	-0,023	-0,004
-293,920	-200,000	0,020	-0,140
-292,905	439,966	0,090	0,145
-291,891	-60,372	0,042	-0,013
-290,876	800,000	-0,018	-0,038
-289,862	199,604	-0,055	-0,061
-288,847	730,411	-0,061	-0,120
-287,832	280,552	-0,030	-0,039
-286,818	-76,425	-0,050	-0,013
-285,803	-200,000	0,026	0,146
-284,789	-53,267	0,011	0,004
-283,774	-139,624	-0,061	-0,005
-282,759	-6,195	0,121	0,060
-281,745	800,000	0,023	0,048
-280,730	56,395	-0,043	0,031
-279,716	-172,383	-0,075	0,002
-278,701	-126,425	-0,081	-0,009
-277,686	-200,000	0,002	0,091
-276,672	96,409	-0,118	-0,099
-275,657	228,143	0,039	0,046
-274,643	35,771	-0,044	-0,028
-273,628	-103,656	0,018	0,003
-272,613	-200,000	0,016	-0,137
-271,599	-200,000	0,039	-0,136
-270,584	-107,330	0,100	0,016
-269,570	-200,000	0,003	-0,020
-268,555	-200,000	-0,046	0,186
-267,540	-200,000	0,020	-0,176
-266,526	647,702	0,014	-0,026
-265,511	104,625	-0,085	0,073
-264,497	11,854	-0,068	-0,038
-263,482	269,266	0,024	-0,031
-262,467	800,000	0,039	0,082
-261,453	800,000	-0,034	0,077
-260,438	-71,475	-0,061	0,017
-259,424	-200,000	-0,011	0,067
-258,409	-200,000	-0,003	-0,016
-257,395	702,217	0,029	0,055
-256,380	689,106	0,064	-0,122
-255,365	316,352	0,050	0,069
-254,351	146,386	-0,152	0,149
-253,336	-200,000	-0,021	0,109
-252,322	-16,168	-0,043	0,020
-251,307	427,478	-0,099	-0,156
-250,292	-172,890	-0,098	-0,002
-249,278	264,568	0,078	0,100
-248,263	454,633	0,079	0,129
-247,249	177,229	0,061	-0,065
-246,234	-74,701	0,121	0,032
-245,219	-200,000	0,020	-0,077
-244,205	77,104	0,128	-0,099
-243,190	39,038	-0,054	-0,035
-242,176	-116,338	0,071	-0,010
-241,161	428,737	0,079	0,125
-240,146	393,781	0,059	-0,090
-239,132	798,411	0,027	-0,056
-238,117	665,836	-0,057	0,108
-237,103	674,984	-0,060	-0,113
-236,088	800,000	0,023	0,073
-235,073	-54,911	-0,077	-0,025
-234,059	305,061	0,004	0,005
-233,044	-200,000	-0,000	-0,036
-232,030	-200,000	-0,030	-0,124
-231,015	-104,724	-0,075	-0,012
-230,000	31,724	-0,059	-0,037
-228,986	-200,000	-0,014	0,047
-227,971	158,550	-0,027	-0,028
-226,957	-59,342	0,144	-0,045
-225,942	-65,048	0,114	-0,033
-224,927	-24,395	-0,110	0,048
-223,913	118,496	-0,091	-0,082
-222,898	90,323	-0,134	0,110
-221,884	800,000	-0,043	-0,103
-220,869	-106,288	0,064	-0,010
-219,855	-200,000	-0,024	-0,157
-218,840	800,000	-0,029	0,072
-217,825	180,951	0,135	0,145
-216,811	800,000	-0,074	-0,175
-215,796	-183,465	-0,156	0,002
-214,782	-78,582	-0,072	0,018
-213,767	445,151	0,111	-0,178
-212,752	755,050	0,055	-0,109
-211,738	-191,665	0,110	-0,001
-210,723	800,000	0,015	-0,034
-209,709	-200,000	0,004	-0,031
-208,694	-159,509	0,028	-0,001
-207,679	143,628	-0,111	-0,107
-206,665	800,000	0,072	0,171
-205,650	-9,887	0,055	0,027
-204,636	-48,404	-0,054	0,019
-203,621	800,000	-0,068	-0,158
-202,606	93,999	0,097	-0,081
-201,592	800,000	-0,048	-0,112
-200,577	-97,713	-0,166	-0,031
-199,563	212,800	0,053	0,061
-198,548	259,648	0,122	0,154
-197,533	-15,919	-0,182	0,084
-196,519	574,974	0,020	-0,036
-195,504	-128,261	-0,141	-0,014
-194,490	-200,000	-0,004	-0,107
-193,475	800,000	-0,030	-0,070
-192,460	-200,000	-0,002	-0,024
-191,446	-200,000	-0,001	0,032
-190,431	132,957	-0,069	0,065
-189,417	32,828	0,149	0,094
-188,402	156,551	0,055	-0,055
-187,387	353,604	-0,063	-0,092
-186,373	-200,000	0,015	-0,063
-185,358	-200,000	-0,027	-0,090
-184,344	-200,000	-0,013	-0,097
-183,329	-200,000	0,031	0,000
-182,315	800,000	0,026	0,073
-181,300	0,370	-0,037	-0,019
-180,285	36,405	0,022	-0,014
-179,271	800,000	-0,057	-0,128
-178,256	317,176	-0,090	-0,124
-177,242	-78,809	0,022	-0,006
-176,227	-12,521	0,074	0,035
-175,212	137,791	0,009	0,008
-174,198	-200,000	-0,024	-0,120
-173,183	202,881	-0,127	-0,143
-172,169	196,448	-0,014	-0,016
-171,154	-200,000	-0,014	0,075
-170,139	193,511	0,040	-0,045
-169,125	101,196	0,131	0,111
-168,110	-109,705	0,077	-0,012
-167,096	-154,433	0,006	0,000
-166,081	-200,000	-0,007	0,043
-165,066	800,000	-0,010	0,024
-164,052	-200,000	-0,002	-0,152
-163,037	174,515	0,039	-0,041
-162,023	254,186	0,053	0,066
-161,008	800,000	0,017	0,038
-159,993	263,325	0,025	0,031
-158,979	-200,000	-0,008	0,080
-157,964	354,329	-0,037	0,054
-156,950	800,000	0,035	-0,095
-155,935	-127,768	0,108	0,011
-154,920	-36,290	-0,009	0,003
-153,906	800,000	-0,033	0,105
-152,891	-102,799	0,064	-0,011
-151,877	611,778	0,011	-0,019
-150,862	-107,526	0,116	-0,018
-149,847	-65,163	0,119	-0,035
-148,833	389,481	-0,064	0,096
-147,818	320,663	-0,022	-0,030
-146,804	142,523	-0,090	0,087
-145,789	476,417	-0,036	0,059
-144,775	47,335	0,077	-0,052
-143,760	358,892	0,013	-0,019
-142,745	37,923	-0,081	-0,052
-141,731	-200,000	0,019	0,060
-140,716	-159,335	0,124	0,005
-139,702	-200,000	0,006	0,082
-138,687	-65,007	-0,035	0,010
-137,672	-200,000	0,007	0,091
-136,658	22,143	0,022	-0,013
-135,643	36,656	-0,133	-0,085
-134,629	57,212	-0,168	-0,119
-133,614	386,807	-0,024	-0,036
-132,599	315,714	-0,077	0,106
-131,585	-71,871	-0,051	-0,014
-130,570	-189,993	-0,039	0,000
-129,556	63,530	-0,025	0,018
-128,541	-57,939	-0,053	0,017
-127,526	87,482	-0,057	-0,046
-126,512	202,447	0,074	-0,083
-125,497	-101,865	0,150	0,026
-124,483	376,347	-0,072	-0,107
-123,468	61,366	-0,038	-0,027
-122,453	376,996	0,045	0,066
-121,439	329,720	0,063	-0,088
-120,424	-2,131	0,011	-0,006
-119,410	246,950	-0,082	0,100
