DTS Sentinel unit serial number:	SN410029Multiplexer serial number:	ORYXHardware model number:	OX2-SRSoftware version number:	ORYX F/W v4,00 Oryx Data Collector v3.7.2.0data status	okinstallation	B6 Nyhavnadifferential loss correction	single-endedforward channel	channel 2reverse channel	N/Adate	2023/12/09time	13:45:08forward acquisition time	300,00reverse acquisition time	0,00gamma	499,1914k internal	0,3135k external	0,3135temperature offset calibration	1,0000default loss term (dB/km)	0,3820temperature slope calibration	1,0000multiplexer offset coefficient	1,0000multiplexer slope coefficient	1,0000fibre end	0,00T internal ref (°C)	20,32T ext. ref 1 (°C)	4,48T ext. ref 2 (°C)	4,49length (m)	temperature (°C)	Stokes	anti-Stokes-744,400	102,458	0,032	-0,028
-743,385	168,622	-0,178	0,188
-742,371	800,000	-0,034	-0,076
-741,356	222,604	-0,106	0,127
-740,342	55,807	0,107	0,077
-739,327	-28,700	-0,182	0,077
-738,312	-152,573	0,088	-0,005
-737,298	-124,047	-0,306	0,035
-736,283	689,868	-0,045	-0,087
-735,269	-0,933	-0,286	0,150
-734,254	-21,735	0,045	0,020
-733,239	-149,257	-0,313	-0,018
-732,225	86,495	0,072	-0,059
-731,210	-139,983	0,034	-0,003
-730,196	-200,000	0,032	0,138
-729,181	-200,000	-0,017	0,119
-728,167	-200,000	-0,017	-0,096
-727,152	-100,458	0,044	0,008
-726,137	800,000	-0,028	-0,069
-725,123	800,000	-0,060	-0,173
-724,108	-6,102	-0,057	0,029
-723,094	-200,000	0,018	-0,130
-722,079	-30,298	-0,239	-0,100
-721,064	-200,000	-0,002	0,016
-720,050	-200,000	-0,041	-0,223
-719,035	222,326	-0,062	-0,074
-718,021	790,833	-0,005	-0,010
-717,006	66,373	-0,094	-0,070
-715,991	-77,424	-0,057	0,015
-714,977	-141,750	-0,084	-0,006
-713,962	-200,000	0,002	0,123
-712,948	-135,947	0,192	0,016
-711,933	-100,397	-0,178	0,032
-710,918	50,749	0,042	0,030
-709,904	-36,762	-0,165	0,065
-708,889	-200,000	0,003	-0,125
-707,875	50,684	-0,072	0,051
-706,860	800,000	-0,020	0,059
-705,845	451,787	0,017	-0,027
-704,831	68,249	0,073	0,055
-703,816	100,274	-0,027	-0,023
-702,802	737,301	-0,053	-0,105
-701,787	358,779	0,025	-0,038
-700,772	800,000	-0,033	-0,082
-699,758	800,000	-0,006	-0,017
-698,743	231,309	0,018	-0,022
-697,729	-200,000	-0,014	0,051
-696,714	-200,000	0,045	0,210
-695,699	800,000	0,026	0,073
-694,685	-122,039	0,028	0,003
-693,670	-47,698	-0,102	0,036
-692,656	60,230	0,054	-0,039
-691,641	-65,687	0,059	0,017
-690,627	800,000	-0,039	-0,110
-689,612	464,907	-0,035	-0,058
-688,597	278,054	0,068	-0,090
-687,583	160,374	-0,124	-0,129
-686,568	800,000	0,022	0,048
-685,554	-200,000	0,003	-0,047
-684,539	644,436	-0,016	0,030
-683,524	-200,000	0,026	0,193
-682,510	-9,978	-0,052	-0,025
-681,495	800,000	0,035	-0,107
-680,481	-106,800	0,080	-0,013
-679,466	-200,000	0,036	-0,154
-678,451	100,818	-0,019	-0,016
-677,437	-200,000	0,008	0,064
-676,422	-200,000	-0,051	0,174
-675,408	-170,436	0,118	0,003
-674,393	-200,000	-0,018	-0,066
-673,378	-78,194	-0,110	-0,028
-672,364	-200,000	-0,007	-0,033
-671,349	669,200	0,039	0,076
-670,335	512,930	-0,113	-0,196
-669,320	-200,000	0,007	-0,046
-668,305	-13,517	-0,066	-0,031
-667,291	-9,345	-0,186	-0,092
-666,276	-87,189	-0,084	0,019
-665,262	268,511	-0,103	-0,134
-664,247	135,979	0,091	-0,088
-663,232	182,169	0,023	0,025
-662,218	800,000	0,006	-0,018
-661,203	-200,000	-0,006	-0,172
-660,189	-200,000	0,020	0,117
-659,174	304,989	-0,113	-0,155
-658,159	14,445	-0,029	-0,017
-657,145	-200,000	-0,003	-0,153
-656,130	9,191	0,092	0,051
-655,116	-152,886	0,159	0,008
-654,101	-22,912	0,108	-0,048
-653,086	-177,528	0,033	-0,001
-652,072	215,734	-0,046	0,054
-651,057	227,873	-0,053	0,064
-650,043	437,896	0,013	0,021
-649,028	-64,867	-0,128	-0,038
-648,014	52,899	-0,029	-0,021
-646,999	689,392	0,014	0,028
-645,984	800,000	0,006	-0,016
-644,970	-200,000	-0,001	-0,007
-643,955	403,080	-0,033	-0,051
-642,941	465,516	0,067	-0,111
-641,926	258,148	0,026	-0,034
-640,911	40,996	0,107	0,071
-639,897	493,965	0,024	-0,041
-638,882	-200,000	-0,062	0,224
-637,868	735,978	-0,026	-0,053
-636,853	498,831	0,015	-0,026
-635,838	-198,728	-0,129	0,001
-634,824	-104,893	0,148	0,025
-633,809	173,414	-0,057	0,061
-632,795	800,000	0,034	-0,095
-631,780	714,379	0,051	-0,100
-630,765	-41,784	-0,207	-0,078
-629,751	-19,715	0,049	-0,022
-628,736	800,000	-0,043	-0,116
-627,722	-143,150	-0,161	0,011
-626,707	78,142	0,102	0,080
-625,692	-190,588	0,025	0,000
-624,678	-149,316	0,040	0,002
-623,663	800,000	-0,036	-0,093
-622,649	38,477	-0,053	0,035
-621,634	86,625	-0,085	-0,069
-620,619	-200,000	-0,009	0,058
-619,605	-200,000	0,005	-0,021
-618,590	-160,300	-0,073	-0,003
-617,576	-200,000	-0,002	0,042
-616,561	-200,000	-0,008	-0,029
-615,546	333,666	-0,081	0,116
-614,532	126,381	0,150	-0,141
-613,517	-114,875	-0,148	-0,021
-612,503	-43,230	-0,044	0,016
-611,488	-200,000	-0,023	0,109
-610,474	-181,646	0,020	0,000
-609,459	6,564	0,059	0,032
-608,444	695,559	-0,039	-0,076
-607,430	-134,701	-0,136	0,012
-606,415	-70,200	-0,128	0,036
-605,401	135,907	-0,078	-0,075
-604,386	157,507	-0,061	0,062
-603,371	759,352	0,070	0,140
-602,357	38,474	0,056	-0,037
-601,342	800,000	-0,053	-0,143
-600,328	508,035	0,057	-0,098
-599,313	283,939	-0,031	-0,041
-598,298	-142,101	0,041	0,003
-597,284	-200,000	-0,018	-0,139
-596,269	227,781	0,081	0,098
-595,255	63,966	0,050	-0,037
-594,240	-132,413	0,115	-0,011
-593,225	188,352	0,013	-0,014
-592,211	-3,243	-0,197	0,101
-591,196	-35,061	-0,032	-0,013
-590,182	118,670	-0,110	0,100
-589,167	783,380	-0,059	0,119
-588,152	-200,000	0,001	0,028
-587,138	800,000	-0,014	0,029
-586,123	-119,308	-0,049	-0,006
-585,109	-200,000	-0,009	-0,068
-584,094	-12,126	0,067	0,032
-583,079	217,221	0,054	-0,064
-582,065	338,180	-0,032	0,046
-581,050	131,344	0,037	-0,035
-580,036	-200,000	0,010	-0,072
-579,021	-200,000	0,007	-0,150
-578,006	800,000	0,051	-0,150
-576,992	41,823	0,033	-0,022
-575,977	385,915	-0,029	0,044
-574,963	-200,000	0,013	0,063
-573,948	410,598	-0,033	0,052
-572,934	-104,903	-0,142	0,024
-571,919	-194,646	-0,070	0,000
-570,904	-177,748	0,063	-0,001
-569,890	-83,534	0,092	-0,022
-568,875	800,000	0,020	0,043
-567,861	397,522	0,026	-0,040
-566,846	-70,105	-0,063	0,018
-565,831	-111,788	-0,190	0,028
-564,817	16,444	0,052	-0,030
-563,802	-67,464	-0,121	-0,035
-562,788	280,704	-0,046	0,061
-561,773	385,730	0,027	-0,042
-560,758	-200,000	-0,008	-0,084
-559,744	-14,091	0,085	-0,040
-558,729	-45,633	0,062	-0,022
-557,715	-70,609	-0,156	0,043
-556,700	800,000	0,076	-0,220
-555,685	-200,000	0,001	-0,079
-554,671	-9,826	0,079	0,039
-553,656	48,163	0,042	0,029
-552,642	800,000	0,060	0,134
-551,627	517,704	0,040	-0,069
-550,612	547,363	0,004	-0,007
-549,598	800,000	-0,017	0,036
-548,583	-200,000	0,006	-0,051
-547,569	219,648	0,075	-0,089
-546,554	18,658	0,099	-0,058
-545,539	44,665	-0,051	-0,035
-544,525	41,630	0,129	0,086
-543,510	-200,000	0,024	-0,102
-542,496	-41,919	-0,172	-0,065
-541,481	-200,000	-0,015	0,077
-540,466	800,000	0,020	-0,044
-539,452	-200,000	0,043	0,179
-538,437	47,481	0,126	0,086
-537,423	-200,000	0,002	0,027
-536,408	800,000	0,020	-0,057
-535,393	800,000	0,031	0,080
-534,379	-77,485	-0,072	-0,018
-533,364	88,669	-0,188	0,154
-532,350	-200,000	-0,005	0,055
-531,335	-200,000	-0,011	0,047
-530,321	-200,000	-0,026	0,146
-529,306	-200,000	-0,030	0,099
-528,291	800,000	0,039	0,092
-527,277	-157,946	-0,084	-0,004
-526,262	-85,600	-0,088	0,020
-525,248	-200,000	-0,023	-0,137
-524,233	-200,000	0,012	-0,109
-523,218	-200,000	-0,011	0,041
-522,204	40,006	-0,090	0,059
-521,189	-134,444	-0,116	0,010
-520,175	-13,167	-0,075	-0,036
-519,160	65,312	0,038	-0,029
-518,145	171,914	-0,010	0,011
-517,131	-35,981	-0,072	0,028
-516,116	74,934	0,011	0,008
-515,102	-98,435	-0,087	-0,016
-514,087	185,190	0,132	-0,144
-513,072	87,127	-0,183	-0,149
-512,058	147,945	0,048	0,047
-511,043	-34,653	-0,065	0,026
-510,029	285,414	0,089	-0,119
-509,014	800,000	-0,033	0,098
-507,999	63,168	0,043	0,031
-506,985	146,531	0,069	-0,068
-505,970	-2,018	-0,113	-0,058
-504,956	350,930	0,071	-0,103
-503,941	-143,613	0,218	0,015
-502,926	64,942	-0,055	-0,041
-501,912	800,000	-0,020	-0,052
-500,897	-21,985	0,061	-0,027
-499,883	-38,698	-0,054	-0,021
-498,868	800,000	0,053	-0,117
-497,853	95,896	-0,022	0,018
-496,839	427,308	0,058	0,093
-495,824	-200,000	-0,015	-0,100
-494,810	-124,525	-0,096	-0,011
-493,795	-90,673	0,035	0,007
-492,781	800,000	-0,044	-0,103
-491,766	638,914	-0,087	-0,164
-490,751	-200,000	-0,013	-0,078
-489,737	257,697	0,084	-0,107
-488,722	-113,141	0,058	0,008
-487,708	472,923	0,063	0,105
-486,693	-173,017	0,128	-0,003
-485,678	-99,006	-0,106	0,020
-484,664	-200,000	-0,000	-0,022
-483,649	-12,588	0,140	0,067
-482,635	-200,000	0,015	-0,078
-481,620	-107,908	0,037	0,006
-480,605	548,999	-0,037	-0,066
-479,591	-177,266	-0,053	0,001
-478,576	260,148	-0,028	-0,036
-477,562	201,315	0,032	0,037
-476,547	305,993	-0,022	-0,030
-475,532	17,266	0,123	-0,072
-474,518	-15,718	0,078	0,036
-473,503	59,593	-0,114	0,082
-472,489	-166,743	-0,100	0,003
-471,474	-83,949	-0,078	0,018
-470,459	560,469	0,023	-0,040
-469,445	613,237	0,016	-0,029
-468,430	-134,237	-0,107	0,010
-467,416	210,150	0,120	0,138
-466,401	143,411	0,156	0,152
-465,386	119,272	-0,057	0,052
-464,372	253,324	-0,059	-0,074
-463,357	800,000	0,029	0,078
-462,343	-136,143	-0,263	0,022
-461,328	53,312	0,074	0,052
-460,313	-200,000	0,050	-0,170
-459,299	76,193	0,038	0,029
-458,284	-90,994	0,143	-0,030
-457,270	800,000	0,027	0,064
-456,255	-76,843	0,049	0,013
-455,241	721,971	-0,024	-0,047
-454,226	490,066	-0,080	-0,134
-453,211	62,050	0,027	-0,020
-452,197	-200,000	-0,017	0,219
-451,182	180,293	0,161	0,174
-450,168	-105,518	0,115	0,019
-449,153	800,000	-0,048	-0,151
-448,138	-200,000	-0,017	-0,131
-447,124	14,345	0,027	-0,015
-446,109	344,907	0,044	0,064
-445,095	-165,045	-0,031	-0,001
-444,080	-200,000	0,001	0,005
-443,065	-69,751	0,058	0,016
-442,051	27,023	-0,110	-0,068
-441,036	800,000	0,072	-0,188
-440,022	94,332	-0,039	-0,032
-439,007	-200,000	0,018	0,089
-437,992	-200,000	-0,020	0,155
-436,978	184,703	-0,046	-0,050
-435,963	28,265	0,133	0,083
-434,949	-157,258	-0,049	0,002
-433,934	54,701	0,073	0,051
-432,919	115,158	-0,069	-0,062
-431,905	509,983	0,034	-0,058
-430,890	-200,000	-0,001	-0,169
-429,876	372,631	0,053	-0,079
-428,861	-0,009	0,100	0,052
-427,846	67,085	-0,136	0,102
-426,832	621,710	0,061	0,114
-425,817	-200,000	-0,018	-0,112
-424,803	-200,000	0,009	-0,036
-423,788	463,059	0,038	-0,063
-422,773	-200,000	-0,001	-0,195
-421,759	57,709	-0,101	0,072
-420,744	-94,237	-0,077	-0,015
-419,730	-70,487	0,041	-0,011
-418,715	800,000	-0,023	0,049
-417,701	-155,582	-0,116	0,005
-416,686	-15,841	0,241	0,112
-415,671	-44,312	-0,091	0,033
-414,657	-174,362	0,121	-0,003
-413,642	-200,000	-0,014	0,062
-412,628	-57,642	-0,102	0,033
-411,613	-200,000	0,009	-0,072
-410,598	44,573	0,167	0,112
-409,584	89,081	-0,029	-0,024
-408,569	-21,377	0,125	0,056
-407,555	-200,000	-0,022	0,083
-406,540	-61,385	-0,043	0,013
-405,525	62,218	0,051	-0,037
-404,511	386,774	-0,012	0,018
-403,496	-200,000	-0,023	0,082
-402,482	-52,901	0,048	-0,016
-401,467	-7,134	0,068	-0,034
-400,452	354,691	-0,061	0,089
-399,438	33,324	0,161	0,102
-398,423	158,616	0,146	-0,148
-397,409	-200,000	-0,025	-0,247
-396,394	-4,480	-0,050	-0,025
-395,379	-99,019	0,095	0,017
-394,365	-200,000	-0,008	0,089
-393,350	212,978	0,059	-0,068
-392,336	338,216	-0,043	0,061
-391,321	144,468	-0,118	-0,115
-390,306	432,686	-0,029	-0,045
-389,292	-200,000	-0,018	-0,065
-388,277	-61,581	-0,060	-0,018
-387,263	800,000	0,049	0,125
-386,248	-104,034	-0,169	0,029
-385,233	1,583	0,084	0,044
-384,219	-200,000	-0,034	0,123
-383,204	18,308	0,116	-0,068
-382,190	690,663	0,052	-0,100
-381,175	-67,921	-0,067	-0,019
-380,160	-51,698	0,083	-0,028
-379,146	-200,000	0,021	0,129
-378,131	-102,523	0,056	0,010
-377,117	-96,378	0,017	0,003
-376,102	347,483	0,037	0,054
-375,088	-13,198	-0,119	-0,056
-374,073	-111,537	-0,047	-0,007
-373,058	341,654	0,140	0,200
-372,044	69,358	-0,072	0,054
-371,029	800,000	0,072	0,196
-370,015	135,579	0,080	0,076
-369,000	-200,000	0,006	0,120
-367,985	-200,000	0,012	-0,040
-366,971	-200,000	-0,008	-0,237
-365,956	249,150	-0,043	-0,053
-364,942	-200,000	-0,010	0,049
-363,927	-86,067	0,166	0,037
-362,912	462,266	-0,041	-0,067
-361,898	-102,822	0,059	0,010
-360,883	477,502	-0,040	0,066
-359,869	-142,232	-0,082	-0,006
-358,854	196,101	0,042	0,047
-357,839	-27,415	-0,090	-0,038
-356,825	-200,000	0,016	0,108
-355,810	487,106	-0,032	0,054
-354,796	457,397	-0,034	-0,055
-353,781	-200,000	0,011	-0,131
-352,766	157,374	-0,049	-0,049
-351,752	-200,000	0,011	-0,097
-350,737	124,366	0,094	-0,087
-349,723	43,387	0,059	0,039
-348,708	-200,000	-0,003	0,014
-347,693	332,218	-0,026	-0,037
-346,679	127,557	0,045	0,042
-345,664	-200,000	-0,004	-0,050
-344,650	457,521	0,018	-0,029
-343,635	131,745	0,066	0,062
-342,620	-200,000	0,017	0,074
-341,606	124,717	-0,121	0,112
-340,591	87,130	-0,003	0,002
-339,577	510,638	-0,041	0,070
-338,562	-200,000	0,004	0,058
-337,548	10,663	0,031	-0,017
-336,533	-54,940	-0,072	-0,024
-335,518	-200,000	0,003	0,013
-334,504	-80,735	0,075	-0,018
-333,489	313,230	0,104	0,144
-332,475	-200,000	0,007	-0,120
-331,460	-39,739	-0,043	-0,016
-330,445	800,000	0,039	0,124
-329,431	-29,175	-0,049	-0,021
-328,416	800,000	0,059	0,176
-327,402	299,820	-0,065	-0,087
-326,387	109,595	-0,079	-0,069
-325,372	-200,000	-0,014	0,048
-324,358	-57,136	0,071	0,023
-323,343	-27,994	0,075	-0,032
-322,329	800,000	-0,042	0,129
-321,314	-95,184	-0,045	-0,009
-320,299	600,753	0,036	0,065
-319,285	86,072	0,117	0,094
-318,270	-141,804	-0,039	-0,003
-317,256	-56,201	-0,097	0,031
-316,241	800,000	-0,026	-0,079
-315,226	-57,716	-0,095	0,030
-314,212	-200,000	-0,005	0,122
-313,197	-125,045	0,077	-0,009
-312,183	800,000	0,010	0,023
-311,168	-143,946	-0,130	0,009
-310,153	202,103	0,038	-0,043
-309,139	800,000	0,005	0,016
-308,124	63,996	0,062	-0,045
-307,110	-200,000	-0,010	-0,071
-306,095	800,000	0,018	0,054
-305,080	-58,261	-0,107	0,034
-304,066	-200,000	-0,015	0,168
-303,051	-101,055	-0,156	0,028
-302,037	-58,869	-0,094	-0,030
-301,022	67,377	0,074	0,055
-300,008	243,139	0,072	0,089
-298,993	70,494	-0,093	0,070
-297,978	800,000	-0,037	0,077
-296,964	342,943	0,024	0,035
-295,949	738,698	-0,076	-0,149
-294,935	-200,000	-0,005	-0,046
-293,920	143,345	0,004	-0,004
-292,905	371,736	-0,023	0,034
-291,891	61,326	0,171	0,124
-290,876	53,630	0,067	-0,047
-289,862	-200,000	-0,022	-0,225
-288,847	-103,834	0,152	0,026
-287,832	-101,743	-0,063	0,011
-286,818	339,160	0,087	-0,124
-285,803	-200,000	0,000	0,065
-284,789	-200,000	0,010	0,073
-283,774	-200,000	-0,004	-0,111
-282,759	-119,077	0,035	-0,004
-281,745	-45,584	-0,129	0,046
-280,730	125,276	0,056	-0,052
-279,716	-140,644	0,060	0,004
-278,701	280,239	0,076	0,100
-277,686	-24,851	0,162	-0,070
-276,672	-200,000	0,003	-0,023
-275,657	121,274	-0,060	-0,055
-274,643	15,514	0,044	-0,025
-273,628	111,212	-0,024	0,021
-272,613	800,000	0,060	-0,140
-271,599	56,412	0,140	0,099
-270,584	-200,000	-0,010	0,065
-269,570	-135,963	0,027	-0,002
-268,555	-100,674	-0,162	-0,029
-267,540	-75,278	-0,068	-0,018
-266,526	-200,000	0,003	-0,013
-265,511	-200,000	0,013	0,064
-264,497	800,000	0,051	-0,109
-263,482	-200,000	-0,014	-0,056
-262,467	800,000	0,086	-0,176
-261,453	-30,950	-0,065	0,027
-260,438	708,987	-0,010	-0,020
-259,424	800,000	0,002	0,004
-258,409	-158,685	-0,127	-0,005
-257,395	-200,000	0,008	-0,061
-256,380	-29,211	-0,038	-0,016
-255,365	800,000	0,028	0,061
-254,351	-200,000	0,009	-0,054
-253,336	401,674	-0,074	-0,113
-252,322	28,581	-0,012	-0,008
-251,307	251,274	-0,082	0,102
-250,292	55,847	0,112	0,079
-249,278	125,411	0,012	-0,011
-248,263	-95,293	-0,148	0,029
-247,249	740,921	0,017	0,033
-246,234	-148,235	-0,147	0,009
-245,219	-18,278	-0,125	0,057
-244,205	63,313	-0,057	0,041
-243,190	243,761	-0,024	-0,030
-242,176	219,128	0,084	0,098
-241,161	742,517	-0,012	-0,024
-240,146	-136,273	-0,095	0,008
-239,132	-200,000	0,012	-0,067
-238,117	-30,880	-0,137	-0,056
-237,103	-173,366	-0,087	-0,002
-236,088	-147,981	-0,159	0,009
-235,073	800,000	0,044	0,101
-234,059	-70,927	0,137	0,037
-233,044	-200,000	0,016	0,125
-232,030	800,000	-0,054	0,145
-231,015	-200,000	0,017	-0,079
-230,000	-200,000	0,008	-0,107
-228,986	-164,420	-0,048	-0,002
-227,971	-30,167	0,103	-0,042
-226,957	102,270	0,122	0,104
-225,942	-131,072	-0,113	0,011
-224,927	-51,803	0,045	0,015
-223,913	275,796	-0,058	-0,075
-222,898	33,756	-0,080	-0,051
-221,884	-200,000	0,002	-0,009
-220,869	29,312	0,059	0,036
-219,855	-200,000	0,010	0,048
-218,840	-144,209	0,028	-0,002
-217,825	-200,000	-0,005	0,054
-216,811	146,634	-0,149	-0,145
-215,796	-108,599	0,087	-0,014
-214,782	-47,246	0,167	0,059
-213,767	-81,822	0,077	-0,018
-212,752	-68,771	0,030	-0,008
-211,738	-116,675	-0,113	0,015
-210,723	375,625	-0,062	-0,092
-209,709	800,000	-0,025	0,069
-208,694	551,721	0,020	0,035
-207,679	-200,000	-0,015	0,127
-206,665	-200,000	0,001	0,055
-205,650	800,000	0,051	0,131
-204,636	389,313	0,105	0,158
-203,621	-11,213	-0,057	-0,027
-202,606	260,035	-0,036	0,045
-201,592	44,859	0,043	0,028
-200,577	800,000	-0,024	0,059
-199,563	-99,593	-0,113	0,020
-198,548	-37,210	0,187	-0,072
-197,533	-116,949	-0,111	-0,015
-196,519	-200,000	-0,002	0,066
-195,504	-16,900	-0,097	0,045
-194,490	800,000	-0,050	-0,155
-193,475	-47,735	-0,117	-0,041
-192,460	-96,535	-0,109	0,021
-191,446	-87,089	-0,128	-0,028
-190,431	-36,483	0,150	-0,058
-189,417	-200,000	-0,001	0,117
-188,402	-200,000	-0,013	-0,072
-187,387	-200,000	-0,007	-0,077
-186,373	242,692	0,090	-0,109
-185,358	119,017	-0,086	0,078
-184,344	5,362	0,130	0,069
-183,329	-149,808	0,149	-0,008
-182,315	-200,000	0,001	0,108
-181,300	-164,400	0,094	-0,003
-180,285	247,223	0,076	-0,093
-179,271	-200,000	-0,030	-0,132
-178,256	539,157	0,023	-0,039
-177,242	-118,193	-0,041	0,005
-176,227	173,043	0,129	-0,135
-175,212	79,367	0,082	0,064
-174,198	302,936	-0,127	0,171
-173,183	-200,000	-0,017	-0,172
-172,169	-87,463	0,073	-0,016
-171,154	317,127	0,093	0,129
-170,139	800,000	-0,031	0,097
-169,125	-72,960	0,088	0,023
-168,110	-200,000	0,009	-0,038
-167,096	800,000	-0,032	0,096
-166,081	-30,453	-0,031	0,013
-165,066	-200,000	0,008	0,114
-164,052	95,652	0,028	-0,023
-163,037	-66,037	-0,023	-0,007
-162,023	800,000	0,067	-0,141
-161,008	-158,173	0,072	0,003
-159,993	272,454	0,077	-0,099
-158,979	-46,159	0,076	-0,027
-157,964	-17,245	-0,072	-0,033
-156,950	-36,155	0,096	-0,037
-155,935	-200,000	-0,013	-0,047
-154,920	-200,000	0,010	0,089
-153,906	-126,309	-0,069	0,007
-152,891	-200,000	0,016	-0,071
-151,877	-88,010	-0,234	-0,051
-150,862	-200,000	-0,021	-0,078
-149,847	800,000	-0,069	-0,162
-148,833	504,237	0,082	-0,139
-147,818	161,575	-0,173	-0,175
-146,804	135,695	0,073	0,069
-145,789	-112,599	0,130	-0,019
-144,775	-200,000	0,026	-0,095
-143,760	800,000	-0,056	-0,125
-142,745	-200,000	0,002	-0,059
-141,731	12,265	0,065	0,036
-140,716	37,468	0,015	0,010
-139,702	2,718	-0,039	0,021
-138,687	-22,098	0,089	-0,039
-137,672	-200,000	0,011	0,099
-136,658	-84,191	-0,077	-0,018
-135,643	-124,215	0,136	-0,015
-134,629	-85,877	0,104	-0,023
-133,614	-200,000	-0,039	0,125
-132,599	-183,088	0,260	-0,003
-131,585	174,602	0,026	-0,027
-130,570	-200,000	0,015	-0,055
-129,556	36,542	-0,063	-0,040
-128,541	-62,191	0,112	-0,033
-127,526	-200,000	-0,031	-0,128
-126,512	-43,177	-0,084	-0,031
-125,497	-131,871	0,151	0,014
-124,483	685,466	-0,061	0,116
-123,468	800,000	0,016	-0,035
-122,453	-200,000	-0,008	0,083
-121,439	344,496	0,059	-0,084
-120,424	-166,064	0,013	0,000
