DTS Sentinel unit serial number:	SN410029Multiplexer serial number:	ORYXHardware model number:	OX2-SRSoftware version number:	ORYX F/W v4,00 Oryx Data Collector v3.7.2.0data status	okinstallation	B6 Nyhavnadifferential loss correction	single-endedforward channel	channel 2reverse channel	N/Adate	2023/12/09time	23:35:08forward acquisition time	300,00reverse acquisition time	0,00gamma	499,1914k internal	0,3127k external	0,3127temperature offset calibration	1,0000default loss term (dB/km)	0,3820temperature slope calibration	1,0000multiplexer offset coefficient	1,0000multiplexer slope coefficient	1,0000fibre end	0,00T internal ref (°C)	21,73T ext. ref 1 (°C)	5,57T ext. ref 2 (°C)	5,55length (m)	temperature (°C)	Stokes	anti-Stokes-744,400	323,507	0,042	-0,060
-743,385	-43,244	-0,176	0,066
-742,371	-83,622	0,031	-0,007
-741,356	-119,199	-0,275	0,035
-740,342	-200,000	-0,009	-0,113
-739,327	418,271	-0,099	0,159
-738,312	57,814	-0,056	0,041
-737,298	-132,304	-0,220	-0,021
-736,283	372,574	0,061	-0,093
-735,269	36,995	-0,174	-0,114
-734,254	172,678	0,025	-0,027
-733,239	-65,539	-0,253	-0,075
-732,225	800,000	0,044	-0,116
-731,210	-200,000	-0,030	0,123
-730,196	-48,154	0,083	-0,030
-729,181	111,974	-0,082	-0,074
-728,167	-200,000	0,008	-0,099
-727,152	-200,000	0,009	-0,046
-726,137	800,000	0,035	-0,111
-725,123	166,344	-0,094	-0,099
-724,108	-23,038	-0,106	-0,047
-723,094	-200,000	0,000	-0,058
-722,079	160,347	-0,085	-0,088
-721,064	-193,197	-0,111	-0,001
-720,050	112,397	-0,008	0,007
-719,035	255,428	-0,054	-0,069
-718,021	-7,757	-0,070	0,035
-717,006	311,293	-0,053	-0,074
-715,991	375,140	-0,075	-0,114
-714,977	-200,000	-0,016	-0,081
-713,962	251,199	0,037	-0,046
-712,948	-130,657	0,052	-0,005
-711,933	-200,000	-0,005	-0,042
-710,918	-200,000	0,008	0,088
-709,904	-136,466	-0,105	0,009
-708,889	800,000	-0,038	-0,105
-707,875	-9,650	-0,140	0,069
-706,860	-99,006	-0,029	0,005
-705,845	111,410	-0,039	0,035
-704,831	17,251	0,056	0,033
-703,816	47,613	-0,104	-0,072
-702,802	-200,000	0,001	-0,029
-701,787	800,000	-0,002	-0,007
-700,772	227,908	0,004	-0,005
-699,758	-22,322	0,061	-0,027
-698,743	601,982	-0,044	0,081
-697,729	64,859	-0,062	0,046
-696,714	800,000	-0,017	-0,044
-695,699	-200,000	-0,017	0,078
-694,685	378,529	-0,039	-0,060
-693,670	-200,000	0,022	0,123
-692,656	715,885	0,019	0,038
-691,641	-86,810	-0,008	-0,002
-690,627	-79,224	-0,040	0,010
-689,612	303,784	-0,048	0,067
-688,597	12,673	-0,138	-0,079
-687,583	800,000	-0,026	-0,059
-686,568	-200,000	-0,025	-0,161
-685,554	-7,378	0,081	-0,041
-684,539	12,266	-0,060	0,034
-683,524	434,977	0,112	-0,181
-682,510	-36,681	-0,055	0,022
-681,495	8,507	0,047	-0,026
-680,481	370,800	-0,048	-0,073
-679,466	-200,000	0,001	-0,058
-678,451	-29,736	0,113	0,048
-677,437	49,915	-0,074	-0,052
-676,422	227,239	-0,009	0,011
-675,408	286,584	0,004	0,005
-674,393	800,000	0,027	-0,069
-673,378	101,300	-0,147	-0,127
-672,364	661,253	-0,082	-0,158
-671,349	-173,222	-0,061	-0,001
-670,335	-200,000	-0,005	-0,016
-669,320	-41,486	-0,045	0,017
-668,305	-200,000	-0,009	-0,030
-667,291	39,901	0,059	0,039
-666,276	216,567	0,041	-0,048
-665,262	-200,000	0,000	-0,011
-664,247	194,154	-0,063	-0,071
-663,232	-72,026	0,127	0,035
-662,218	-18,023	-0,041	0,019
-661,203	110,833	-0,067	0,060
-660,189	-148,599	-0,126	-0,008
-659,174	-76,027	-0,051	-0,013
-658,159	-200,000	-0,008	-0,093
-657,145	-200,000	-0,020	-0,101
-656,130	638,137	-0,063	-0,119
-655,116	252,416	-0,033	0,042
-654,101	775,503	0,041	0,084
-653,086	-59,851	-0,052	0,016
-652,072	118,304	-0,026	0,023
-651,057	-100,778	-0,029	0,005
-650,043	800,000	-0,056	-0,122
-649,028	-48,685	0,169	0,060
-648,014	179,378	0,107	0,116
-646,999	-98,261	-0,072	-0,014
-645,984	-200,000	0,027	0,213
-644,970	-200,000	0,007	0,028
-643,955	-9,704	0,037	-0,018
-642,941	6,333	-0,121	-0,067
-641,926	-11,132	-0,078	-0,038
-640,911	-200,000	-0,016	-0,062
-639,897	-88,213	-0,104	0,023
-638,882	-55,783	-0,043	-0,014
-637,868	-102,159	-0,127	0,023
-636,853	80,296	-0,112	-0,089
-635,838	-200,000	-0,003	-0,031
-634,824	-139,199	0,154	0,012
-633,809	800,000	0,040	0,106
-632,795	-150,152	0,016	-0,001
-631,780	-98,547	0,016	0,003
-630,765	-200,000	-0,035	-0,148
-629,751	297,164	-0,126	-0,172
-628,736	-200,000	0,012	-0,067
-627,722	-200,000	0,030	0,124
-626,707	0,114	-0,054	-0,029
-625,692	77,695	-0,078	-0,061
-624,678	69,771	-0,082	-0,063
-623,663	-200,000	0,003	-0,052
-622,649	-200,000	-0,031	-0,156
-621,634	-200,000	-0,007	0,052
-620,619	-200,000	-0,003	-0,127
-619,605	-7,210	-0,098	0,049
-618,590	217,250	0,047	0,055
-617,576	296,656	0,052	0,070
-616,561	52,666	0,018	0,013
-615,546	90,200	-0,076	-0,063
-614,532	800,000	-0,070	-0,176
-613,517	-200,000	-0,054	-0,193
-612,503	77,735	0,075	-0,059
-611,488	-33,830	0,039	0,016
-610,474	-200,000	-0,001	0,120
-609,459	-69,842	0,039	-0,011
-608,444	75,908	0,026	-0,020
-607,430	800,000	0,056	-0,147
-606,415	-83,686	-0,121	-0,028
-605,401	-200,000	0,018	-0,124
-604,386	119,281	0,066	0,061
-603,371	474,948	-0,008	0,013
-602,357	29,421	-0,027	-0,017
-601,342	245,353	-0,121	0,151
-600,328	7,921	-0,083	0,046
-599,313	123,053	0,035	-0,033
-598,298	800,000	0,009	-0,023
-597,284	68,657	0,120	0,091
-596,269	-200,000	0,021	0,157
-595,255	-106,123	-0,035	-0,006
-594,240	77,492	-0,030	0,024
-593,225	119,392	-0,031	-0,028
-592,211	800,000	-0,020	0,049
-591,196	-57,230	0,095	0,031
-590,182	54,758	-0,095	-0,068
-589,167	-169,885	0,014	0,000
-588,152	-200,000	0,021	0,070
-587,138	-76,005	0,038	-0,010
-586,123	701,539	-0,038	-0,074
-585,109	-71,040	-0,045	-0,012
-584,094	-44,753	0,137	0,050
-583,079	412,525	0,046	0,072
-582,065	-116,484	-0,115	0,015
-581,050	272,137	-0,056	0,074
-580,036	-156,275	0,139	0,006
-579,021	-200,000	0,001	-0,063
-578,006	-200,000	-0,017	-0,136
-576,992	-200,000	-0,021	-0,196
-575,977	-200,000	-0,030	0,118
-574,963	157,316	-0,027	-0,027
-573,948	-200,000	0,003	0,011
-572,934	-146,277	0,009	-0,001
-571,919	72,515	-0,053	0,041
-570,904	-87,213	-0,129	0,029
-569,890	800,000	0,062	-0,147
-568,875	-200,000	-0,018	-0,096
-567,861	325,547	-0,064	-0,091
-566,846	30,259	-0,126	-0,079
-565,831	-200,000	0,005	-0,076
-564,817	-70,385	0,072	0,020
-563,802	-200,000	-0,002	0,022
-562,788	408,676	-0,059	-0,093
-561,773	-200,000	-0,001	0,060
-560,758	-45,563	0,173	0,063
-559,744	-90,686	-0,053	0,011
-558,729	-200,000	0,017	0,059
-557,715	190,177	-0,093	0,103
-556,700	30,082	-0,178	-0,112
-555,685	-200,000	0,017	-0,100
-554,671	-54,466	-0,151	-0,050
-553,656	-52,854	0,082	0,028
-552,642	71,328	-0,129	0,099
-551,627	237,217	0,006	0,007
-550,612	-142,016	-0,090	-0,007
-549,598	336,434	0,024	-0,035
-548,583	-8,639	-0,063	0,031
-547,569	18,218	-0,040	-0,024
-546,554	6,961	0,066	-0,036
-545,539	-103,954	0,019	0,003
-544,525	110,255	-0,028	0,025
-543,510	800,000	0,009	-0,024
-542,496	86,946	-0,061	-0,050
-541,481	88,980	-0,049	0,041
-540,466	512,769	-0,031	0,054
-539,452	-102,762	0,158	0,028
-538,437	-200,000	-0,004	0,064
-537,423	-200,000	0,004	-0,196
-536,408	-111,442	-0,145	0,022
-535,393	396,162	-0,026	-0,040
-534,379	-97,857	-0,068	-0,013
-533,364	205,707	0,071	-0,082
-532,350	671,152	-0,044	-0,084
-531,335	136,635	0,110	0,106
-530,321	800,000	-0,060	0,189
-529,306	-200,000	-0,009	0,162
-528,291	-200,000	-0,015	-0,117
-527,277	-200,000	-0,007	0,088
-526,262	95,098	0,131	-0,110
-525,248	221,594	0,059	0,070
-524,233	800,000	0,016	0,039
-523,218	800,000	0,040	-0,098
-522,204	86,213	0,090	-0,073
-521,189	39,885	0,043	0,028
-520,175	115,352	-0,018	-0,016
-519,160	-200,000	-0,021	0,079
-518,145	800,000	0,016	-0,045
-517,131	-200,000	0,003	0,073
-516,116	-200,000	0,027	-0,104
-515,102	-200,000	-0,012	-0,087
-514,087	746,679	-0,027	0,054
-513,072	75,784	-0,151	-0,118
-512,058	-200,000	0,009	-0,056
-511,043	-200,000	0,010	-0,165
-510,029	595,735	-0,008	0,014
-509,014	-200,000	-0,027	0,000
-507,999	297,974	0,096	-0,130
-506,985	4,747	-0,013	-0,007
-505,970	800,000	-0,053	-0,144
-504,956	-200,000	-0,007	0,040
-503,941	-200,000	-0,002	0,022
-502,926	385,714	-0,082	0,125
-501,912	-200,000	0,019	0,073
-500,897	-200,000	0,024	-0,101
-499,883	735,147	-0,068	-0,135
-498,868	800,000	-0,033	-0,088
-497,853	-200,000	0,030	-0,108
-496,839	37,907	0,009	-0,006
-495,824	393,959	0,045	0,069
-494,810	110,441	0,048	0,042
-493,795	-100,507	-0,108	0,019
-492,781	-200,000	-0,024	0,149
-491,766	168,360	-0,091	-0,096
-490,751	375,267	0,082	-0,124
-489,737	242,402	0,098	0,122
-488,722	50,197	0,016	-0,011
-487,708	-200,000	0,020	0,089
-486,693	-24,889	-0,140	0,061
-485,678	-200,000	0,014	-0,121
-484,664	72,389	-0,128	0,098
-483,649	-77,069	0,116	0,030
-482,635	-200,000	0,022	-0,143
-481,620	-151,532	0,138	0,007
-480,605	483,572	0,079	0,132
-479,591	285,035	-0,019	-0,025
-478,576	245,661	-0,061	0,076
-477,562	-200,000	0,008	0,064
-476,547	-21,574	-0,154	-0,069
-475,532	-54,068	0,081	0,027
-474,518	800,000	0,060	0,161
-473,503	1,623	0,104	0,055
-472,489	-200,000	0,003	0,095
-471,474	6,188	-0,037	0,020
-470,459	-200,000	-0,112	-0,000
-469,445	394,742	-0,031	-0,048
-468,430	800,000	-0,027	-0,066
-467,416	-84,810	-0,070	0,016
-466,401	407,689	0,080	0,125
-465,386	98,513	0,091	-0,077
-464,372	800,000	-0,042	-0,114
-463,357	-133,949	-0,038	-0,003
-462,343	-200,000	-0,003	-0,018
-461,328	800,000	0,018	-0,041
-460,313	-200,000	-0,004	-0,087
-459,299	530,320	0,045	0,079
-458,284	-52,458	-0,132	-0,045
-457,270	-200,000	-0,005	-0,020
-456,255	605,564	0,035	0,064
-455,241	312,654	-0,078	0,108
-454,226	465,145	-0,038	0,063
-453,211	800,000	-0,025	0,074
-452,197	-53,371	0,134	-0,045
-451,182	800,000	-0,037	0,083
-450,168	-87,786	-0,109	0,024
-449,153	158,800	-0,088	0,090
-448,138	-40,068	-0,079	-0,030
-447,124	205,113	0,048	-0,055
-446,109	800,000	0,028	0,063
-445,095	-40,482	0,058	-0,022
-444,080	-200,000	-0,002	0,114
-443,065	800,000	0,039	0,086
-442,051	350,433	0,052	-0,076
-441,036	363,925	-0,100	-0,148
-440,022	55,768	-0,108	-0,077
-439,007	426,866	0,065	0,104
-437,992	386,698	0,082	0,126
-436,978	-200,000	0,012	0,186
-435,963	121,610	0,096	0,088
-434,949	-56,063	-0,093	0,030
-433,934	628,097	0,059	-0,109
-432,919	29,247	-0,119	-0,074
-431,905	-14,984	0,064	-0,030
-430,890	-200,000	-0,009	0,127
-429,876	287,735	0,127	-0,169
-428,861	-200,000	-0,007	-0,139
-427,846	-200,000	-0,003	0,047
-426,832	800,000	-0,033	0,074
-425,817	111,091	-0,074	-0,066
-424,803	-200,000	0,004	0,108
-423,788	800,000	0,050	-0,126
-422,773	184,512	0,048	0,052
-421,759	-148,550	0,101	-0,006
-420,744	-59,001	-0,117	-0,037
-419,730	-72,716	0,094	0,025
-418,715	44,275	0,085	0,057
-417,701	-37,117	0,065	-0,026
-416,686	84,633	0,174	-0,140
-415,671	-153,892	0,183	-0,009
-414,657	-112,937	0,065	0,009
-413,642	-168,018	0,155	-0,004
-412,628	97,690	0,045	0,038
-411,613	349,403	-0,101	-0,147
-410,598	-82,387	-0,048	0,011
-409,584	465,351	0,055	0,091
-408,569	375,161	0,078	0,118
-407,555	-200,000	0,008	0,113
-406,540	-171,866	0,163	0,004
-405,525	-200,000	0,006	-0,062
-404,511	800,000	0,065	-0,166
-403,496	-24,871	-0,073	-0,032
-402,482	-48,365	-0,025	-0,009
-401,467	223,707	-0,059	0,070
-400,452	-200,000	-0,010	0,240
-399,438	-148,210	-0,110	0,007
-398,423	-151,060	0,080	0,004
-397,409	-200,000	-0,006	0,119
-396,394	-200,000	0,010	0,056
-395,379	746,901	-0,016	0,032
-394,365	321,638	-0,023	0,032
-393,350	-156,004	0,082	0,004
-392,336	-88,140	0,131	-0,029
-391,321	-91,977	-0,091	-0,019
-390,306	-200,000	-0,010	-0,082
-389,292	-59,140	-0,055	0,017
-388,277	-200,000	-0,005	-0,073
-387,263	-29,787	-0,114	0,048
-386,248	-63,191	0,177	0,053
-385,233	-140,859	-0,059	0,004
-384,219	-78,648	-0,077	0,019
-383,204	198,471	0,032	0,036
-382,190	-94,710	-0,049	0,010
-381,175	44,444	0,077	0,052
-380,160	18,857	0,141	0,083
-379,146	114,548	0,110	0,098
-378,131	-10,930	0,037	0,018
-377,117	188,455	-0,070	0,077
-376,102	30,817	0,076	-0,048
-375,088	-169,720	-0,127	-0,003
-374,073	531,980	-0,010	-0,018
-373,058	77,487	0,013	0,010
-372,044	346,810	0,064	0,093
-371,029	338,919	0,036	0,052
-370,015	-200,000	0,002	-0,056
-369,000	667,511	-0,066	-0,126
-367,985	-155,390	0,181	0,008
-366,971	-200,000	-0,009	0,076
-365,956	240,260	-0,043	0,052
-364,942	-71,866	0,056	-0,015
-363,927	-200,000	0,010	-0,121
-362,912	-200,000	-0,006	-0,085
-361,898	-18,617	-0,126	-0,057
-360,883	-47,342	0,135	-0,048
-359,869	534,500	-0,016	-0,028
-358,854	-200,000	-0,000	0,019
-357,839	-118,891	0,036	-0,005
-356,825	616,830	0,019	0,036
-355,810	190,470	0,086	-0,095
-354,796	101,504	-0,056	0,048
-353,781	-200,000	-0,027	-0,092
-352,766	-95,247	0,021	0,004
-351,752	9,231	-0,084	0,047
-350,737	-200,000	0,010	-0,037
-349,723	260,109	0,032	0,041
-348,708	-74,570	-0,158	-0,041
-347,693	33,437	-0,044	0,028
-346,679	-200,000	-0,022	-0,084
-345,664	26,916	-0,136	0,083
-344,650	-200,000	0,002	-0,013
-343,635	-26,066	-0,058	-0,025
-342,620	-69,247	0,173	-0,048
-341,606	800,000	0,033	-0,069
-340,591	-80,277	0,023	0,006
-339,577	81,525	0,062	0,049
-338,562	800,000	0,022	-0,065
-337,548	393,410	-0,086	0,132
-336,533	45,642	0,108	0,073
-335,518	184,134	-0,019	0,020
-334,504	-200,000	-0,002	-0,027
-333,489	279,397	0,031	0,041
-332,475	-65,920	-0,074	-0,022
-331,460	132,109	0,032	-0,031
-330,445	-200,000	-0,047	0,000
-329,431	460,827	0,020	-0,032
-328,416	-200,000	0,021	-0,098
-327,402	-200,000	0,038	0,150
-326,387	105,891	-0,019	0,017
-325,372	-150,078	-0,119	-0,007
-324,358	8,098	-0,156	-0,085
-323,343	241,619	-0,146	0,179
-322,329	495,160	0,031	-0,053
-321,314	92,884	0,044	-0,036
-320,299	-107,877	0,059	-0,009
-319,285	133,740	0,039	-0,037
-318,270	117,314	-0,065	-0,058
-317,256	-200,000	0,012	-0,139
-316,241	800,000	-0,022	0,047
-315,226	-200,000	0,028	-0,122
-314,212	-200,000	0,028	-0,142
-313,197	-200,000	-0,009	0,051
-312,183	-22,956	0,044	0,019
-311,168	-200,000	0,006	0,110
-310,153	218,429	-0,046	-0,054
-309,139	402,009	-0,068	-0,105
-308,124	46,097	-0,180	-0,122
-307,110	485,194	0,068	-0,113
-306,095	800,000	0,060	0,161
-305,080	-200,000	0,006	0,065
-304,066	-200,000	-0,019	0,134
-303,051	-200,000	0,026	0,106
-302,037	-105,436	-0,150	-0,025
-301,022	152,545	-0,010	-0,010
-300,008	-132,726	0,067	0,006
-298,993	134,790	-0,111	0,106
-297,978	255,081	0,045	-0,057
-296,964	109,043	-0,054	0,047
-295,949	147,207	-0,049	-0,048
-294,935	-200,000	-0,007	-0,028
-293,920	-135,391	-0,063	0,005
-292,905	163,739	0,032	0,033
-291,891	-64,476	0,104	0,031
-290,876	-154,908	0,049	-0,002
-289,862	-200,000	-0,022	0,105
-288,847	307,596	-0,121	-0,166
-287,832	-200,000	0,004	-0,045
-286,818	-130,591	0,011	-0,001
-285,803	-167,463	0,040	0,001
-284,789	-189,675	0,034	-0,000
-283,774	170,810	0,083	0,087
-282,759	800,000	0,031	-0,064
-281,745	697,400	-0,039	-0,074
-280,730	-75,309	0,132	-0,034
-279,716	-22,440	0,185	0,082
-278,701	-88,824	-0,069	0,015
-277,686	-200,000	0,005	0,107
-276,672	-200,000	0,015	0,083
-275,657	-200,000	-0,005	0,032
-274,643	-69,437	-0,091	-0,025
-273,628	-200,000	0,001	-0,181
-272,613	534,388	-0,066	-0,114
-271,599	-95,357	0,124	0,024
-270,584	24,249	-0,094	0,057
-269,570	-200,000	0,020	-0,070
-268,555	-59,007	0,126	-0,039
-267,540	-200,000	-0,029	-0,103
-266,526	800,000	-0,028	-0,077
-265,511	-200,000	-0,018	0,064
-264,497	16,708	-0,057	0,033
-263,482	-75,858	-0,085	0,022
-262,467	624,134	0,049	0,091
-261,453	-65,794	-0,127	0,037
-260,438	60,888	-0,139	-0,100
-259,424	-55,052	-0,016	-0,005
-258,409	-200,000	-0,006	-0,068
-257,395	24,328	-0,057	0,034
-256,380	800,000	-0,021	0,058
-255,365	319,345	-0,063	0,088
-254,351	24,240	0,118	0,071
-253,336	315,004	0,019	-0,027
-252,322	238,100	0,094	-0,114
-251,307	-171,595	0,012	0,000
-250,292	-200,000	0,007	-0,066
-249,278	-119,434	0,131	0,016
-248,263	160,633	0,070	-0,072
-247,249	-89,070	0,010	0,002
-246,234	-200,000	-0,012	-0,056
-245,219	134,799	0,059	0,056
-244,205	-64,302	0,133	0,039
-243,190	-154,717	0,065	-0,003
-242,176	86,005	0,038	0,030
-241,161	50,931	0,108	0,075
-240,146	-61,909	-0,052	0,016
-239,132	-88,031	-0,137	0,030
-238,117	-24,253	0,047	-0,020
-237,103	240,289	-0,071	-0,086
-236,088	142,091	0,096	-0,093
-235,073	142,239	0,092	0,089
-234,059	163,642	0,031	0,032
-233,044	23,201	0,128	-0,077
-232,030	7,838	-0,066	-0,036
-231,015	115,480	-0,040	-0,035
-230,000	-138,490	-0,099	-0,008
-228,986	-23,462	-0,101	0,044
-227,971	111,534	0,057	-0,050
-226,957	-200,000	0,001	-0,024
-225,942	53,664	0,034	0,024
-224,927	111,656	0,101	0,089
-223,913	-194,819	0,146	0,001
-222,898	-200,000	0,024	-0,124
-221,884	800,000	-0,043	0,087
-220,869	-200,000	0,007	0,034
-219,855	54,268	0,090	0,063
-218,840	386,184	0,032	-0,049
-217,825	-66,561	-0,123	0,035
-216,811	137,432	-0,042	-0,040
-215,796	-67,841	-0,030	-0,008
-214,782	800,000	-0,002	-0,006
-213,767	-154,579	0,078	-0,004
-212,752	456,665	0,070	0,114
-211,738	800,000	0,009	-0,022
-210,723	125,578	0,060	0,056
-209,709	115,639	0,062	0,055
-208,694	-27,905	-0,199	0,084
-207,679	-46,273	-0,054	-0,019
-206,665	187,489	0,049	0,054
-205,650	800,000	0,003	0,007
-204,636	800,000	-0,037	0,084
-203,621	-56,974	0,059	0,019
-202,606	55,603	-0,014	-0,010
-201,592	219,038	0,090	-0,105
-200,577	33,794	0,071	-0,045
-199,563	302,406	-0,052	0,070
-198,548	-200,000	0,037	0,157
-197,533	-200,000	0,002	0,018
-196,519	-200,000	0,038	0,207
-195,504	221,872	-0,079	0,092
-194,490	188,199	0,037	0,040
-193,475	10,451	-0,096	-0,053
-192,460	-200,000	0,011	0,071
-191,446	28,046	0,050	0,030
-190,431	53,898	-0,112	-0,078
-189,417	-200,000	0,000	-0,106
-188,402	-200,000	0,013	-0,082
-187,387	-95,808	0,016	0,003
-186,373	560,038	-0,053	0,093
-185,358	323,678	0,021	-0,029
-184,344	115,354	0,045	0,040
-183,329	89,201	0,090	0,073
-182,315	114,968	-0,069	-0,061
-181,300	-124,578	0,075	-0,008
-180,285	-87,675	-0,229	0,050
-179,271	800,000	-0,020	-0,061
-178,256	-200,000	-0,021	-0,077
-177,242	312,583	0,066	-0,091
-176,227	-50,555	-0,037	0,013
-175,212	-68,653	-0,051	0,014
-174,198	-34,058	0,089	0,036
-173,183	3,291	-0,144	-0,076
-172,169	113,144	0,003	-0,003
-171,154	-200,000	-0,002	0,016
-170,139	658,268	0,084	-0,157
-169,125	-200,000	-0,017	0,057
-168,110	-200,000	0,023	0,257
-167,096	85,238	-0,079	0,063
-166,081	-142,662	0,141	0,010
-165,066	-200,000	-0,011	-0,074
-164,052	-200,000	0,010	0,105
-163,037	118,346	0,068	0,061
-162,023	107,507	0,104	-0,090
-161,008	-200,000	-0,001	0,005
-159,993	800,000	0,034	-0,099
-158,979	-64,493	0,004	-0,001
-157,964	123,967	-0,008	0,008
-156,950	-154,293	-0,125	-0,006
-155,935	-18,619	-0,132	0,060
-154,920	110,984	0,098	0,085
-153,906	593,251	0,045	-0,081
-152,891	-200,000	-0,011	0,094
-151,877	214,049	-0,046	0,053
-150,862	76,370	0,126	-0,097
-149,847	-200,000	0,017	0,098
-148,833	176,377	-0,033	0,035
-147,818	-200,000	-0,004	-0,018
-146,804	-105,172	0,049	-0,008
-145,789	429,506	-0,014	0,021
-144,775	78,619	0,042	-0,033
-143,760	116,766	-0,138	0,124
-142,745	59,471	0,036	-0,026
-141,731	-46,741	0,065	0,023
-140,716	-50,381	-0,031	-0,011
-139,702	-38,473	0,051	-0,020
-138,687	320,433	0,031	0,043
-137,672	542,806	-0,060	-0,105
-136,658	-104,197	-0,089	0,015
-135,643	768,463	-0,044	-0,087
-134,629	800,000	-0,040	-0,122
-133,614	128,951	0,075	-0,070
-132,599	-35,134	-0,085	0,034
-131,585	102,396	-0,040	-0,034
-130,570	-56,710	0,128	0,041
-129,556	-130,736	-0,099	0,010
-128,541	-200,000	0,000	-0,088
-127,526	-131,726	-0,028	-0,003
-126,512	299,006	0,057	0,077
-125,497	800,000	0,040	0,082
-124,483	-69,220	0,083	0,023
-123,468	-200,000	0,003	0,146
-122,453	255,480	0,066	-0,083
-121,439	-200,000	0,009	0,077
-120,424	-185,232	-0,212	-0,002
-119,410	365,235	0,093	0,137
