DTS Sentinel unit serial number:	SN410029Multiplexer serial number:	ORYXHardware model number:	OX2-SRSoftware version number:	ORYX F/W v4,00 Oryx Data Collector v3.7.2.0data status	okinstallation	B6 Nyhavnadifferential loss correction	single-endedforward channel	channel 2reverse channel	N/Adate	2023/12/08time	19:25:08forward acquisition time	300,00reverse acquisition time	0,00gamma	499,1914k internal	0,3158k external	0,3158temperature offset calibration	1,0000default loss term (dB/km)	0,3820temperature slope calibration	1,0000multiplexer offset coefficient	1,0000multiplexer slope coefficient	1,0000fibre end	0,00T internal ref (°C)	15,25T ext. ref 1 (°C)	-1,41T ext. ref 2 (°C)	-1,42length (m)	temperature (°C)	Stokes	anti-Stokes-744,400	-41,026	0,140	-0,053
-743,385	-95,014	-0,334	-0,066
-742,371	-200,000	0,001	-0,021
-741,356	-62,540	-0,385	-0,117
-740,342	126,037	0,130	0,121
-739,327	34,482	-0,277	0,178
-738,312	377,980	0,030	0,045
-737,298	-130,634	-0,335	0,033
-736,283	225,418	0,051	0,061
-735,269	-136,638	-0,230	-0,019
-734,254	34,609	0,131	0,084
-733,239	-20,248	-0,458	-0,207
-732,225	-89,886	0,066	0,014
-731,210	-125,179	0,064	0,007
-730,196	-200,000	-0,022	-0,142
-729,181	-61,094	-0,178	-0,055
-728,167	-37,993	-0,113	-0,044
-727,152	268,552	0,029	-0,038
-726,137	264,261	0,092	-0,118
-725,123	358,268	-0,079	0,117
-724,108	800,000	-0,063	-0,140
-723,094	800,000	-0,059	-0,188
-722,079	-32,563	-0,038	-0,015
-721,064	347,834	0,047	-0,069
-720,050	-200,000	-0,003	-0,100
-719,035	435,067	-0,046	-0,074
-718,021	-112,344	-0,066	0,010
-717,006	-145,221	-0,100	-0,007
-715,991	500,258	-0,035	-0,059
-714,977	345,396	0,102	-0,147
-713,962	800,000	-0,066	0,139
-712,948	-200,000	-0,004	-0,078
-711,933	339,358	-0,031	-0,045
-710,918	35,651	0,069	-0,045
-709,904	-32,968	-0,070	0,028
-708,889	-5,653	-0,126	-0,064
-707,875	647,729	-0,071	-0,135
-706,860	94,216	0,060	-0,050
-705,845	646,650	0,045	-0,085
-704,831	-101,619	0,118	-0,021
-703,816	117,076	-0,061	0,055
-702,802	106,868	0,065	-0,057
-701,787	-132,356	-0,095	0,009
-700,772	147,928	-0,013	-0,013
-699,758	-200,000	-0,002	0,044
-698,743	-200,000	0,001	0,006
-697,729	-200,000	-0,000	0,081
-696,714	800,000	0,012	0,026
-695,699	800,000	-0,075	-0,166
-694,685	116,448	0,064	-0,057
-693,670	-45,563	-0,186	0,067
-692,656	23,314	-0,107	0,064
-691,641	0,356	0,075	-0,039
-690,627	127,044	-0,110	-0,102
-689,612	-121,284	-0,071	-0,009
-688,597	-104,850	-0,109	-0,018
-687,583	800,000	-0,033	-0,084
-686,568	44,154	-0,058	-0,039
-685,554	-115,134	-0,013	0,002
-684,539	-200,000	0,005	0,136
-683,524	134,308	0,048	-0,045
-682,510	-151,209	0,118	0,006
-681,495	-200,000	-0,005	-0,056
-680,481	-43,632	-0,117	0,043
-679,466	-66,376	-0,153	0,044
-678,451	165,125	-0,043	0,045
-677,437	115,608	-0,020	0,018
-676,422	-7,569	-0,074	0,037
-675,408	-72,774	-0,045	-0,012
-674,393	-15,674	-0,016	0,008
-673,378	224,328	-0,095	-0,114
-672,364	-5,657	0,101	0,051
-671,349	-0,607	-0,115	-0,060
-670,335	-162,797	0,169	0,006
-669,320	-188,494	-0,076	-0,001
-668,305	800,000	0,021	-0,065
-667,291	126,329	0,039	-0,037
-666,276	800,000	-0,033	-0,074
-665,262	-200,000	-0,011	-0,164
-664,247	-185,857	-0,043	0,000
-663,232	7,967	0,142	-0,078
-662,218	-200,000	-0,017	-0,104
-661,203	-172,172	0,146	-0,003
-660,189	407,976	-0,070	-0,109
-659,174	68,457	0,045	-0,034
-658,159	59,780	-0,036	-0,026
-657,145	-200,000	0,003	-0,142
-656,130	-200,000	-0,013	-0,076
-655,116	210,068	-0,088	0,101
-654,101	41,212	-0,107	0,071
-653,086	-38,754	-0,033	0,013
-652,072	800,000	-0,056	0,118
-651,057	294,111	0,032	0,043
-650,043	97,312	0,026	0,022
-649,028	-200,000	0,003	-0,062
-648,014	-88,504	-0,092	-0,020
-646,999	215,237	0,093	-0,108
-645,984	-127,636	0,070	0,007
-644,970	-60,063	-0,196	-0,061
-643,955	-200,000	-0,014	-0,052
-642,941	-200,000	-0,009	-0,080
-641,926	-157,016	-0,069	0,003
-640,911	91,081	0,029	0,024
-639,897	52,160	0,085	0,059
-638,882	337,949	-0,036	0,052
-637,868	800,000	0,023	0,067
-636,853	800,000	0,028	-0,072
-635,838	53,201	0,083	-0,058
-634,824	-79,781	-0,087	0,021
-633,809	254,254	0,061	-0,077
-632,795	282,331	-0,015	-0,019
-631,780	-9,689	0,042	-0,021
-630,765	-168,597	-0,157	0,004
-629,751	-117,323	-0,043	-0,006
-628,736	800,000	0,011	-0,031
-627,722	-200,000	0,018	0,090
-626,707	21,398	0,055	-0,033
-625,692	800,000	-0,026	-0,082
-624,678	-188,567	0,033	0,000
-623,663	800,000	0,019	0,047
-622,649	331,365	0,023	-0,032
-621,634	376,784	0,079	-0,119
-620,619	342,017	0,042	-0,060
-619,605	500,813	0,019	-0,032
-618,590	681,680	-0,056	-0,108
-617,576	395,988	-0,076	0,117
-616,561	85,439	0,020	-0,016
-615,546	-45,380	-0,158	-0,057
-614,532	-85,723	-0,074	0,017
-613,517	-105,411	0,057	0,009
-612,503	-200,000	0,009	0,096
-611,488	733,423	0,060	0,119
-610,474	356,207	0,027	0,039
-609,459	162,080	-0,033	0,034
-608,444	-200,000	-0,012	-0,125
-607,430	-200,000	-0,018	-0,151
-606,415	-43,321	0,027	0,010
-605,401	800,000	0,018	-0,043
-604,386	800,000	0,023	0,067
-603,371	-200,000	0,000	-0,017
-602,357	-84,863	0,055	0,012
-601,342	-200,000	-0,022	0,080
-600,328	243,866	-0,106	-0,131
-599,313	-200,000	0,009	0,043
-598,298	205,597	-0,015	-0,017
-597,284	-78,858	0,106	0,026
-596,269	-122,988	-0,111	-0,013
-595,255	-92,355	0,089	0,018
-594,240	800,000	0,030	-0,079
-593,225	-200,000	0,001	-0,035
-592,211	290,344	-0,052	-0,069
-591,196	-200,000	0,002	-0,079
-590,182	-132,660	-0,117	0,011
-589,167	800,000	-0,047	0,112
-588,152	179,090	0,030	0,032
-587,138	151,202	-0,041	-0,041
-586,123	27,085	-0,119	-0,073
-585,109	114,396	-0,025	-0,022
-584,094	-44,439	0,068	0,025
-583,079	118,906	-0,024	-0,022
-582,065	126,357	-0,098	-0,091
-581,050	800,000	-0,013	-0,036
-580,036	154,863	-0,006	0,006
-579,021	92,135	0,022	0,018
-578,006	-200,000	0,020	-0,155
-576,992	-10,913	-0,192	-0,093
-575,977	-96,547	0,102	-0,020
-574,963	219,841	0,131	0,154
-573,948	117,703	-0,104	0,094
-572,934	233,947	-0,121	-0,147
-571,919	-200,000	-0,004	0,017
-570,904	293,649	-0,111	-0,149
-569,890	190,316	-0,043	0,047
-568,875	800,000	0,041	0,114
-567,861	-167,707	-0,071	0,002
-566,846	-35,405	-0,014	-0,005
-565,831	117,675	0,087	-0,078
-564,817	-134,075	-0,081	0,007
-563,802	-140,060	-0,162	0,012
-562,788	-79,928	0,033	0,008
-561,773	251,604	-0,060	-0,075
-560,758	211,797	-0,020	-0,024
-559,744	16,777	0,023	-0,013
-558,729	58,110	-0,068	0,049
-557,715	-200,000	0,001	0,050
-556,700	-200,000	-0,010	-0,072
-555,685	-200,000	0,005	-0,072
-554,671	800,000	-0,013	0,041
-553,656	-74,102	0,064	0,017
-552,642	-200,000	0,042	0,158
-551,627	85,107	0,154	0,123
-550,612	800,000	-0,011	0,027
-549,598	800,000	-0,040	-0,097
-548,583	800,000	0,020	-0,050
-547,569	58,291	0,059	0,042
-546,554	-200,000	0,007	0,182
-545,539	-200,000	0,021	0,074
-544,525	33,147	-0,021	0,013
-543,510	47,892	-0,106	0,072
-542,496	-107,760	0,146	-0,023
-541,481	-144,677	-0,049	-0,003
-540,466	188,229	-0,013	0,015
-539,452	121,681	0,021	-0,019
-538,437	45,167	-0,106	0,071
-537,423	-128,495	-0,037	-0,004
-536,408	-52,861	-0,083	-0,028
-535,393	240,957	-0,042	0,052
-534,379	-81,030	-0,158	0,038
-533,364	299,639	-0,119	0,161
-532,350	-200,000	-0,010	-0,061
-531,335	365,835	-0,016	0,024
-530,321	-93,028	-0,055	-0,011
-529,306	-170,372	-0,066	-0,002
-528,291	6,334	-0,083	-0,045
-527,277	92,466	0,059	-0,049
-526,262	65,978	0,050	-0,037
-525,248	-8,290	0,072	0,035
-524,233	62,230	-0,035	0,025
-523,218	800,000	0,019	-0,040
-522,204	800,000	-0,042	-0,100
-521,189	-31,596	-0,080	-0,033
-520,175	-200,000	-0,039	-0,292
-519,160	147,312	-0,056	-0,055
-518,145	-127,861	0,144	-0,015
-517,131	643,816	0,022	0,040
-516,116	800,000	-0,011	-0,024
-515,102	-200,000	0,010	0,041
-514,087	-84,706	0,135	-0,031
-513,072	-31,494	-0,109	-0,045
-512,058	35,459	-0,140	-0,090
-511,043	-92,825	-0,192	-0,039
-510,029	93,849	0,047	-0,039
-509,014	-200,000	0,010	0,053
-507,999	800,000	-0,081	0,192
-506,985	-200,000	0,018	0,068
-505,970	-200,000	0,004	-0,107
-504,956	-200,000	0,007	-0,036
-503,941	-200,000	0,023	0,118
-502,926	186,001	0,055	-0,060
-501,912	-103,718	-0,079	0,013
-500,897	-200,000	-0,005	0,098
-499,883	98,616	-0,076	-0,064
-498,868	33,548	0,085	-0,054
-497,853	32,981	0,107	-0,068
-496,839	-200,000	0,033	0,126
-495,824	-200,000	-0,001	0,043
-494,810	-98,869	0,077	0,014
-493,795	0,279	-0,111	-0,058
-492,781	159,078	-0,110	-0,112
-491,766	-200,000	0,005	-0,126
-490,751	-200,000	0,002	-0,079
-489,737	800,000	0,033	0,079
-488,722	-200,000	0,018	0,156
-487,708	385,575	-0,066	0,100
-486,693	46,587	0,085	0,058
-485,678	-200,000	0,005	0,045
-484,664	800,000	-0,051	-0,146
-483,649	-2,368	0,103	-0,053
-482,635	439,384	0,013	0,020
-481,620	-200,000	-0,031	0,199
-480,605	800,000	-0,058	0,139
-479,591	-200,000	0,002	0,023
-478,576	-31,891	-0,169	-0,069
-477,562	-200,000	0,040	0,155
-476,547	688,093	-0,028	-0,053
-475,532	-104,720	0,095	-0,016
-474,518	356,521	-0,069	0,100
-473,503	131,003	-0,064	0,060
-472,489	800,000	0,055	-0,118
-471,474	-106,596	-0,018	0,003
-470,459	-200,000	-0,014	0,086
-469,445	200,794	-0,055	0,062
-468,430	800,000	-0,017	0,035
-467,416	159,019	0,111	0,113
-466,401	298,332	-0,127	0,171
-465,386	-200,000	-0,027	0,119
-464,372	13,775	0,081	0,046
-463,357	-200,000	-0,005	-0,022
-462,343	144,718	-0,030	-0,030
-461,328	800,000	-0,061	-0,182
-460,313	-102,669	-0,065	0,011
-459,299	800,000	0,006	-0,016
-458,284	66,689	0,044	-0,033
-457,270	39,029	-0,089	-0,058
-456,255	651,039	-0,029	-0,054
-455,241	171,208	0,059	-0,061
-454,226	288,081	-0,091	-0,120
-453,211	-129,623	-0,097	0,010
-452,197	22,886	0,237	0,141
-451,182	-138,030	-0,062	-0,005
-450,168	800,000	-0,041	0,092
-449,153	800,000	-0,032	-0,073
-448,138	800,000	-0,032	-0,090
-447,124	158,030	0,068	0,068
-446,109	-59,655	-0,057	0,018
-445,095	-68,955	0,027	-0,008
-444,080	9,208	-0,038	0,021
-443,065	-116,033	0,045	-0,006
-442,051	427,573	-0,056	-0,088
-441,036	800,000	-0,041	0,104
-440,022	800,000	0,048	-0,153
-439,007	535,977	-0,075	-0,131
-437,992	800,000	0,016	-0,044
-436,978	48,770	0,063	0,043
-435,963	0,787	0,054	0,028
-434,949	-156,150	-0,039	0,002
-433,934	62,992	0,080	0,058
-432,919	446,728	0,042	-0,067
-431,905	-183,501	-0,090	-0,001
-430,890	114,495	0,107	-0,095
-429,876	-200,000	-0,021	-0,070
-428,861	10,073	-0,131	0,072
-427,846	158,141	0,052	0,053
-426,832	-200,000	-0,025	-0,112
-425,817	79,402	0,097	-0,075
-424,803	-200,000	-0,008	0,063
-423,788	-79,282	0,123	-0,030
-422,773	104,181	0,120	0,103
-421,759	-35,137	-0,091	-0,036
-420,744	-74,882	-0,051	0,013
-419,730	95,433	0,062	0,051
-418,715	-1,325	-0,123	-0,063
-417,701	-200,000	0,006	0,039
-416,686	42,963	-0,078	-0,051
-415,671	4,039	0,081	0,043
-414,657	94,778	-0,075	-0,062
-413,642	-5,113	-0,160	0,080
-412,628	-200,000	-0,012	-0,051
-411,613	800,000	0,033	0,075
-410,598	-55,613	-0,169	0,055
-409,584	-70,018	-0,072	-0,020
-408,569	386,602	0,009	0,014
-407,555	-200,000	0,005	0,218
-406,540	-75,394	-0,045	-0,012
-405,525	6,303	0,060	-0,033
-404,511	49,933	0,077	-0,053
-403,496	-200,000	0,051	0,000
-402,482	447,487	0,066	-0,106
-401,467	144,860	0,092	0,089
-400,452	-174,250	0,132	0,003
-399,438	-3,553	0,115	-0,058
-398,423	-200,000	0,002	0,081
-397,409	308,281	-0,029	-0,040
-396,394	-200,000	0,027	-0,152
-395,379	286,880	0,058	-0,077
-394,365	139,236	0,020	0,020
-393,350	-107,775	0,087	0,014
-392,336	-84,035	0,094	-0,022
-391,321	-50,454	-0,061	-0,021
-390,306	800,000	-0,041	-0,108
-389,292	-200,000	0,002	-0,083
-388,277	233,000	-0,095	-0,113
-387,263	-93,243	0,073	-0,015
-386,248	-93,434	-0,105	-0,021
-385,233	-38,638	0,068	-0,026
-384,219	68,856	0,027	-0,020
-383,204	800,000	0,019	-0,059
-382,190	800,000	0,035	-0,072
-381,175	800,000	0,019	-0,044
-380,160	437,577	-0,062	0,099
-379,146	74,731	0,023	0,017
-378,131	800,000	-0,020	0,059
-377,117	-200,000	-0,033	-0,177
-376,102	-200,000	-0,007	-0,087
-375,088	-72,409	0,047	0,012
-374,073	117,247	0,086	0,077
-373,058	141,378	0,010	-0,009
-372,044	-66,014	0,172	0,049
-371,029	172,389	0,038	0,039
-370,015	800,000	-0,061	0,196
-369,000	-145,136	-0,183	-0,012
-367,985	0,314	0,122	0,063
-366,971	119,362	0,134	0,120
-365,956	-31,566	0,061	0,025
-364,942	84,817	-0,073	-0,058
-363,927	-200,000	-0,015	0,087
-362,912	149,134	0,149	0,146
-361,898	793,806	-0,095	-0,191
-360,883	12,239	0,107	-0,059
-359,869	-81,618	-0,121	-0,029
-358,854	-200,000	0,007	0,088
-357,839	-106,501	0,151	-0,024
-356,825	-200,000	-0,003	-0,105
-355,810	336,135	0,043	-0,060
-354,796	-200,000	-0,011	0,043
-353,781	23,879	0,074	0,044
-352,766	-64,535	-0,162	-0,047
-351,752	-200,000	-0,003	0,068
-350,737	-200,000	0,009	-0,034
-349,723	288,868	0,023	-0,031
-348,708	-56,950	-0,055	-0,017
-347,693	329,046	0,034	0,048
-346,679	7,171	-0,084	-0,045
-345,664	702,942	0,036	-0,069
-344,650	384,844	0,038	0,057
-343,635	110,360	0,108	0,094
-342,620	-200,000	-0,021	0,102
-341,606	418,884	0,033	0,052
-340,591	-200,000	0,003	0,059
-339,577	438,927	-0,008	-0,013
-338,562	69,818	-0,062	-0,047
-337,548	-103,217	0,099	0,017
-336,533	-53,118	0,027	0,009
-335,518	-200,000	0,015	-0,104
-334,504	-82,014	0,005	-0,001
-333,489	208,208	0,074	-0,084
-332,475	-98,804	-0,059	-0,011
-331,460	-200,000	-0,014	-0,081
-330,445	800,000	-0,012	0,028
-329,431	-200,000	0,004	-0,015
-328,416	57,255	0,155	0,109
-327,402	-99,834	-0,062	0,011
-326,387	-101,227	0,202	-0,035
-325,372	102,043	-0,072	-0,061
-324,358	800,000	-0,020	-0,059
-323,343	800,000	-0,031	0,082
-322,329	748,468	0,042	-0,083
-321,314	800,000	0,078	0,167
-320,299	-200,000	-0,019	0,102
-319,285	-116,477	0,041	-0,005
-318,270	89,737	-0,055	-0,045
-317,256	-87,276	0,064	-0,014
-316,241	-200,000	0,025	0,127
-315,226	159,309	0,145	-0,146
-314,212	67,456	-0,130	0,096
-313,197	151,060	0,123	0,121
-312,183	361,790	0,043	0,063
-311,168	122,327	-0,092	-0,083
-310,153	-200,000	-0,012	-0,143
-309,139	800,000	0,022	-0,053
-308,124	-200,000	-0,003	0,091
-307,110	484,649	-0,036	-0,060
-306,095	-200,000	-0,005	-0,046
-305,080	-20,191	0,043	-0,019
-304,066	-104,545	0,077	0,013
-303,051	400,342	-0,059	0,089
-302,037	-37,781	0,052	-0,020
-301,022	-200,000	-0,007	-0,055
-300,008	-126,257	0,124	-0,013
-298,993	-200,000	0,003	0,066
-297,978	25,762	-0,117	0,070
-296,964	800,000	0,031	-0,075
-295,949	591,561	-0,063	0,113
-294,935	52,689	-0,035	-0,024
-293,920	-55,142	0,203	-0,066
-292,905	800,000	-0,022	-0,057
-291,891	-200,000	0,015	-0,049
-290,876	49,388	0,145	0,099
-289,862	-87,390	-0,055	0,012
-288,847	-155,688	-0,069	0,003
-287,832	-200,000	-0,028	-0,110
-286,818	800,000	0,046	0,142
-285,803	563,784	0,058	0,101
-284,789	-200,000	-0,020	-0,066
-283,774	800,000	0,038	0,095
-282,759	-187,700	0,067	-0,001
-281,745	800,000	0,037	-0,107
-280,730	30,528	0,061	0,038
-279,716	-25,808	0,138	0,059
-278,701	87,326	0,076	-0,060
-277,686	800,000	0,032	-0,088
-276,672	-200,000	0,007	-0,078
-275,657	800,000	-0,023	0,061
-274,643	-54,274	0,055	-0,018
-273,628	-58,143	-0,070	-0,022
-272,613	-13,224	-0,031	-0,014
-271,599	111,795	0,035	-0,031
-270,584	800,000	-0,055	0,145
-269,570	800,000	-0,024	0,066
-268,555	800,000	0,023	0,052
-267,540	-200,000	0,007	0,047
-266,526	339,614	-0,075	0,107
-265,511	46,664	0,176	0,118
-264,497	-60,297	0,022	0,007
-263,482	-200,000	-0,027	-0,108
-262,467	-19,930	0,026	-0,012
-261,453	200,131	0,096	0,107
-260,438	800,000	0,020	-0,050
-259,424	-200,000	-0,001	0,020
-258,409	182,532	0,058	-0,062
-257,395	-167,697	0,145	0,004
-256,380	-80,885	-0,099	-0,024
-255,365	-19,247	-0,140	-0,062
-254,351	800,000	0,009	0,022
-253,336	-200,000	0,001	0,028
-252,322	-56,396	-0,070	-0,022
-251,307	82,890	-0,088	0,069
-250,292	-200,000	-0,001	0,013
-249,278	-200,000	0,023	0,079
-248,263	49,662	0,040	0,027
-247,249	39,973	0,075	0,048
-246,234	-28,618	0,083	0,034
-245,219	-200,000	-0,027	-0,167
-244,205	-200,000	-0,028	-0,110
-243,190	-144,036	-0,073	-0,005
-242,176	-49,396	0,097	-0,033
-241,161	275,290	0,047	0,060
-240,146	-186,741	0,167	0,002
-239,132	-200,000	0,017	-0,118
-238,117	-23,327	-0,087	0,038
-237,103	406,990	-0,070	-0,108
-236,088	83,376	-0,160	0,126
-235,073	85,642	0,048	0,038
-234,059	135,905	0,133	-0,125
-233,044	-41,528	-0,093	0,034
-232,030	-88,786	-0,039	-0,008
-231,015	800,000	-0,048	-0,098
-230,000	146,011	-0,079	0,077
-228,986	-200,000	-0,001	-0,037
-227,971	73,768	0,142	0,107
-226,957	-142,722	0,035	-0,002
-225,942	-72,973	-0,021	0,006
-224,927	-200,000	-0,004	0,119
-223,913	-80,423	0,038	0,009
-222,898	443,753	0,079	-0,126
-221,884	159,690	-0,044	0,045
-220,869	269,512	-0,064	0,082
-219,855	800,000	-0,003	-0,007
-218,840	-200,000	-0,004	-0,062
-217,825	-37,130	0,080	0,031
-216,811	800,000	0,033	-0,068
-215,796	-178,197	-0,057	-0,001
-214,782	-200,000	-0,042	-0,135
-213,767	545,312	0,015	-0,027
-212,752	701,088	-0,020	-0,038
-211,738	-78,813	0,069	-0,017
-210,723	35,237	0,056	0,035
-209,709	-200,000	-0,010	-0,049
-208,694	296,441	-0,065	-0,087
-207,679	-200,000	0,039	-0,146
-206,665	-200,000	-0,001	0,054
-205,650	23,778	-0,046	-0,027
-204,636	-141,935	0,174	-0,012
-203,621	-190,008	-0,106	-0,001
-202,606	-183,863	0,039	-0,000
-201,592	-200,000	0,001	0,064
-200,577	49,513	-0,127	-0,086
-199,563	-150,868	-0,098	-0,005
-198,548	385,370	0,090	0,134
-197,533	800,000	0,034	0,085
-196,519	763,078	0,076	0,150
-195,504	-65,387	-0,047	0,014
-194,490	76,383	-0,156	0,119
-193,475	800,000	-0,046	-0,120
-192,460	-35,560	-0,021	0,008
-191,446	800,000	-0,053	0,124
-190,431	-200,000	0,002	0,125
-189,417	-140,041	0,036	0,003
-188,402	-86,378	0,080	-0,018
-187,387	-200,000	0,014	0,104
-186,373	-79,763	-0,079	-0,019
-185,358	-37,516	-0,072	-0,028
-184,344	-36,802	0,126	-0,049
-183,329	216,649	0,088	0,101
-182,315	24,400	0,148	0,088
-181,300	-200,000	0,016	0,114
-180,285	421,687	-0,083	-0,129
-179,271	-179,126	0,087	-0,001
-178,256	26,006	-0,041	-0,024
-177,242	42,073	-0,028	0,018
-176,227	-200,000	-0,017	0,156
-175,212	-200,000	-0,014	-0,048
-174,198	348,049	-0,054	-0,077
-173,183	115,333	0,040	-0,036
-172,169	-24,748	0,017	-0,007
-171,154	-114,687	-0,154	0,021
-170,139	-200,000	-0,009	0,043
-169,125	-200,000	-0,011	0,045
-168,110	-103,392	0,082	0,014
-167,096	-160,395	-0,043	0,002
-166,081	-55,662	-0,134	-0,043
-165,066	-200,000	-0,013	0,043
-164,052	-200,000	0,011	0,067
-163,037	189,930	0,034	0,037
-162,023	-12,902	0,152	0,071
-161,008	-200,000	0,017	0,074
-159,993	414,899	-0,053	0,082
-158,979	-55,768	-0,053	-0,017
-157,964	524,720	-0,042	-0,072
-156,950	-200,000	-0,011	0,099
-155,935	611,357	-0,048	-0,086
-154,920	-82,427	-0,010	-0,002
-153,906	123,205	0,077	0,069
-152,891	-200,000	-0,002	-0,123
-151,877	800,000	0,032	0,091
-150,862	110,876	-0,047	-0,041
-149,847	-73,100	-0,037	-0,010
-148,833	-200,000	-0,005	-0,103
-147,818	-100,590	0,065	0,012
-146,804	2,107	-0,081	0,042
-145,789	-200,000	-0,004	0,079
-144,775	-200,000	0,006	0,063
-143,760	-200,000	-0,016	-0,088
-142,745	-73,167	-0,039	-0,010
-141,731	-104,769	0,061	-0,010
-140,716	19,410	0,090	-0,052
-139,702	-5,031	0,118	0,058
-138,687	-200,000	-0,003	-0,010
-137,672	705,526	-0,037	-0,071
-136,658	-200,000	-0,020	-0,068
-135,643	-166,772	0,140	0,004
-134,629	68,716	0,030	-0,022
-133,614	800,000	-0,027	0,071
-132,599	20,862	0,079	-0,046
-131,585	-200,000	0,026	0,123
-130,570	-166,201	0,055	0,002
-129,556	505,315	0,015	0,026
-128,541	66,583	-0,062	0,046
-127,526	0,242	-0,042	0,021
-126,512	286,068	0,066	0,086
-125,497	-200,000	-0,003	0,125
-124,483	236,568	-0,092	-0,109
-123,468	178,989	0,063	0,066
-122,453	259,688	0,042	0,053
-121,439	96,840	-0,119	-0,098
-120,424	9,215	0,081	0,044
-119,410	-148,200	-0,085	-0,005
