DTS Sentinel unit serial number:	SN410029Multiplexer serial number:	ORYXHardware model number:	OX2-SRSoftware version number:	ORYX F/W v4,00 Oryx Data Collector v3.7.2.0data status	okinstallation	B6 Nyhavnadifferential loss correction	single-endedforward channel	channel 2reverse channel	N/Adate	2023/12/08time	23:45:08forward acquisition time	300,00reverse acquisition time	0,00gamma	499,1914k internal	0,3157k external	0,3157temperature offset calibration	1,0000default loss term (dB/km)	0,3820temperature slope calibration	1,0000multiplexer offset coefficient	1,0000multiplexer slope coefficient	1,0000fibre end	0,00T internal ref (°C)	15,50T ext. ref 1 (°C)	-0,90T ext. ref 2 (°C)	-0,90length (m)	temperature (°C)	Stokes	anti-Stokes-744,400	-148,312	0,114	0,007
-743,385	-169,703	-0,375	0,010
-742,371	243,187	0,084	-0,104
-741,356	-77,803	-0,333	0,084
-740,342	67,721	0,119	0,090
-739,327	-182,947	-0,425	0,005
-738,312	105,152	-0,044	0,039
-737,298	-73,826	-0,231	0,061
-736,283	37,974	0,097	0,063
-735,269	-122,710	-0,361	0,043
-734,254	-7,857	0,126	0,063
-733,239	-71,382	-0,524	-0,144
-732,225	-46,511	0,103	0,037
-731,210	-200,000	-0,012	0,106
-730,196	-200,000	0,027	-0,146
-729,181	800,000	0,025	-0,072
-728,167	412,709	0,046	-0,073
-727,152	147,217	0,081	0,080
-726,137	67,685	-0,032	-0,024
-725,123	-141,361	-0,033	0,002
-724,108	-93,648	0,089	-0,018
-723,094	-200,000	-0,006	0,042
-722,079	141,695	-0,070	-0,068
-721,064	252,792	-0,055	0,069
-720,050	624,380	0,024	-0,045
-719,035	-200,000	0,031	-0,108
-718,021	-53,669	-0,119	-0,040
-717,006	-98,025	-0,061	-0,011
-715,991	-50,367	-0,100	-0,034
-714,977	53,935	-0,115	-0,081
-713,962	-14,126	-0,142	-0,067
-712,948	97,613	0,048	0,040
-711,933	-22,956	0,174	-0,077
-710,918	-50,527	0,086	-0,030
-709,904	800,000	-0,073	-0,161
-708,889	800,000	-0,062	-0,153
-707,875	-200,000	-0,013	-0,055
-706,860	-89,299	0,099	-0,021
-705,845	-200,000	0,011	0,080
-704,831	346,043	0,049	-0,072
-703,816	-61,408	-0,028	-0,009
-702,802	-105,472	-0,085	-0,014
-701,787	-8,612	0,090	-0,044
-700,772	-200,000	-0,015	0,254
-699,758	-200,000	0,018	-0,078
-698,743	173,012	-0,044	0,046
-697,729	800,000	-0,053	0,165
-696,714	1,469	0,152	0,080
-695,699	-69,824	-0,105	-0,029
-694,685	-200,000	0,010	-0,131
-693,670	-200,000	-0,002	0,065
-692,656	177,175	0,051	0,055
-691,641	-145,610	-0,018	0,001
-690,627	-200,000	0,012	0,085
-689,612	-200,000	-0,019	0,082
-688,597	32,138	0,042	-0,026
-687,583	-40,425	0,078	-0,030
-686,568	31,279	-0,035	0,022
-685,554	62,571	0,120	-0,088
-684,539	517,077	0,034	0,060
-683,524	338,662	0,047	-0,067
-682,510	-200,000	0,019	0,095
-681,495	-90,360	0,050	0,011
-680,481	800,000	-0,042	-0,102
-679,466	318,792	-0,046	-0,064
-678,451	-146,407	0,073	0,005
-677,437	401,950	-0,038	0,058
-676,422	-200,000	-0,003	0,060
-675,408	-149,203	0,080	0,005
-674,393	-200,000	0,006	0,022
-673,378	655,512	-0,103	-0,195
-672,364	800,000	0,080	-0,190
-671,349	-200,000	-0,011	-0,096
-670,335	800,000	0,044	0,116
-669,320	800,000	-0,016	0,043
-668,305	-38,524	-0,062	-0,024
-667,291	5,578	0,132	0,071
-666,276	800,000	-0,038	-0,081
-665,262	107,066	-0,115	-0,101
-664,247	336,450	0,100	-0,143
-663,232	13,183	-0,085	-0,048
-662,218	-16,227	0,068	0,032
-661,203	-200,000	0,006	0,098
-660,189	171,100	-0,073	0,077
-659,174	-15,067	-0,091	0,043
-658,159	-140,861	-0,025	-0,002
-657,145	-200,000	0,011	0,058
-656,130	-200,000	-0,038	0,159
-655,116	-1,968	-0,042	0,022
-654,101	-200,000	0,049	0,170
-653,086	-32,814	-0,050	0,020
-652,072	236,775	-0,123	0,150
-651,057	218,971	0,070	0,082
-650,043	-176,716	-0,039	0,001
-649,028	512,154	0,072	-0,123
-648,014	161,873	0,084	-0,087
-646,999	195,647	-0,082	-0,092
-645,984	620,087	-0,031	-0,058
-644,970	800,000	0,025	-0,073
-643,955	274,523	-0,060	-0,079
-642,941	59,123	-0,073	-0,053
-641,926	800,000	0,024	-0,076
-640,911	-52,359	-0,110	0,037
-639,897	-17,074	0,177	0,082
-638,882	431,497	0,019	0,031
-637,868	-89,611	-0,047	-0,010
-636,853	91,667	-0,115	-0,095
-635,838	-63,190	-0,115	-0,035
-634,824	-60,846	0,124	0,038
-633,809	-168,205	0,091	-0,003
-632,795	78,967	0,095	-0,075
-631,780	800,000	-0,029	0,065
-630,765	462,936	-0,019	-0,031
-629,751	-61,001	-0,038	0,012
-628,736	-119,012	-0,058	0,007
-627,722	-115,487	-0,071	0,010
-626,707	387,236	-0,043	-0,065
-625,692	-200,000	-0,006	-0,091
-624,678	800,000	-0,011	-0,026
-623,663	20,283	0,055	0,032
-622,649	103,015	0,048	-0,041
-621,634	-200,000	-0,004	-0,157
-620,619	-121,930	0,151	-0,018
-619,605	-110,288	-0,057	0,009
-618,590	263,138	0,090	0,116
-617,576	584,949	-0,045	0,082
-616,561	-167,698	-0,046	-0,001
-615,546	-170,891	0,081	-0,002
-614,532	64,002	0,055	-0,041
-613,517	432,873	-0,061	0,097
-612,503	-87,924	0,112	0,024
-611,488	6,067	0,147	-0,080
-610,474	800,000	-0,039	-0,093
-609,459	392,229	-0,073	-0,112
-608,444	-5,101	-0,179	-0,090
-607,430	800,000	-0,069	0,166
-606,415	-110,230	-0,185	-0,028
-605,401	-42,787	-0,085	0,031
-604,386	71,310	0,057	-0,043
-603,371	-162,616	-0,133	0,005
-602,357	-200,000	0,009	0,080
-601,342	-181,382	-0,043	0,001
-600,328	550,037	-0,053	-0,094
-599,313	-200,000	-0,004	-0,093
-598,298	-200,000	-0,002	-0,066
-597,284	302,322	0,072	-0,098
-596,269	279,884	-0,022	-0,029
-595,255	42,874	-0,067	0,045
-594,240	800,000	-0,033	-0,100
-593,225	94,296	-0,107	0,089
-592,211	-200,000	0,042	-0,325
-591,196	800,000	0,030	-0,064
-590,182	-47,222	-0,042	0,015
-589,167	-200,000	-0,018	-0,081
-588,152	-35,318	-0,118	-0,047
-587,138	-200,000	-0,025	-0,137
-586,123	348,505	0,030	-0,043
-585,109	-73,259	-0,103	-0,027
-584,094	800,000	0,017	-0,050
-583,079	706,022	-0,039	-0,077
-582,065	-61,584	0,008	0,002
-581,050	227,500	0,051	-0,061
-580,036	-200,000	-0,007	-0,044
-579,021	127,867	-0,133	-0,124
-578,006	-200,000	-0,013	-0,064
-576,992	800,000	-0,019	0,041
-575,977	-19,387	0,047	-0,021
-574,963	-121,332	0,205	-0,025
-573,948	12,387	-0,094	-0,053
-572,934	25,566	0,047	0,029
-571,919	-200,000	-0,002	-0,007
-570,904	800,000	-0,044	-0,097
-569,890	112,230	-0,094	-0,084
-568,875	221,425	0,019	-0,023
-567,861	119,010	-0,045	-0,040
-566,846	-70,440	-0,147	0,040
-565,831	-200,000	0,044	-0,169
-564,817	-200,000	-0,024	0,097
-563,802	143,194	-0,052	-0,051
-562,788	-200,000	-0,020	0,103
-561,773	800,000	0,037	0,116
-560,758	412,310	0,047	-0,073
-559,744	75,113	-0,184	-0,142
-558,729	-200,000	0,005	0,035
-557,715	-15,003	0,075	-0,035
-556,700	-92,268	-0,063	0,013
-555,685	330,736	-0,073	-0,104
-554,671	78,821	-0,089	0,070
-553,656	-190,484	0,069	0,001
-552,642	-65,823	-0,077	-0,022
-551,627	-200,000	0,031	0,203
-550,612	-200,000	-0,016	-0,062
-549,598	-200,000	-0,031	-0,155
-548,583	-200,000	-0,012	0,080
-547,569	1,584	0,052	0,027
-546,554	-61,241	-0,054	0,017
-545,539	236,059	0,103	-0,124
-544,525	-33,728	0,113	0,045
-543,510	734,833	-0,026	0,052
-542,496	363,115	-0,026	0,039
-541,481	376,734	-0,066	0,100
-540,466	28,913	-0,007	0,004
-539,452	800,000	0,028	0,079
-538,437	800,000	-0,053	0,107
-537,423	800,000	-0,038	-0,097
-536,408	-88,930	-0,066	0,014
-535,393	-128,158	-0,208	-0,021
-534,379	800,000	-0,004	-0,009
-533,364	518,189	0,039	-0,067
-532,350	86,154	0,070	-0,057
-531,335	129,195	0,092	-0,086
-530,321	800,000	-0,050	0,119
-529,306	102,368	0,111	-0,095
-528,291	-133,627	-0,150	-0,014
-527,277	-200,000	-0,013	0,053
-526,262	63,617	0,079	-0,058
-525,248	166,115	0,093	0,097
-524,233	800,000	0,034	-0,082
-523,218	-0,575	0,133	0,069
-522,204	-8,847	0,126	-0,062
-521,189	-111,549	-0,019	0,003
-520,175	-200,000	0,009	-0,058
-519,160	-200,000	0,021	0,087
-518,145	-200,000	-0,018	0,057
-517,131	391,045	-0,057	0,086
-516,116	-200,000	-0,009	0,059
-515,102	304,700	-0,073	0,100
-514,087	800,000	0,020	-0,055
-513,072	-200,000	0,016	-0,072
-512,058	-200,000	-0,001	0,112
-511,043	800,000	0,058	-0,125
-510,029	-200,000	0,003	-0,091
-509,014	800,000	-0,040	-0,108
-507,999	-200,000	-0,035	0,229
-506,985	-87,862	-0,074	-0,016
-505,970	-56,437	-0,125	-0,040
-504,956	-15,449	0,017	0,008
-503,941	-200,000	-0,034	0,130
-502,926	-82,277	-0,034	-0,008
-501,912	-27,619	-0,126	0,053
-500,897	293,233	-0,119	-0,158
-499,883	-85,755	-0,044	0,010
-498,868	-145,750	-0,081	-0,005
-497,853	-88,629	0,037	0,008
-496,839	249,295	-0,076	0,095
-495,824	455,832	0,053	0,086
-494,810	-72,636	0,056	0,015
-493,795	13,329	0,066	-0,037
-492,781	387,233	-0,075	-0,114
-491,766	8,528	0,081	0,044
-490,751	616,585	-0,054	0,100
-489,737	653,475	0,045	0,086
-488,722	-58,177	0,007	-0,002
-487,708	23,979	0,121	-0,073
-486,693	-19,414	0,092	-0,042
-485,678	-113,157	0,154	-0,022
-484,664	-116,397	-0,160	-0,021
-483,649	-200,000	0,029	-0,166
-482,635	-48,750	-0,030	0,010
-481,620	-200,000	-0,017	0,093
-480,605	-74,531	0,129	-0,034
-479,591	-73,008	-0,162	-0,043
-478,576	-200,000	0,005	0,071
-477,562	105,076	-0,164	-0,141
-476,547	800,000	0,018	-0,051
-475,532	-200,000	0,012	-0,190
-474,518	-200,000	-0,028	-0,219
-473,503	-53,794	0,136	-0,045
-472,489	16,523	0,100	-0,058
-471,474	407,621	-0,023	0,036
-470,459	-115,470	0,080	-0,011
-469,445	-100,967	-0,107	0,019
-468,430	552,559	-0,010	0,018
-467,416	-139,750	-0,076	-0,006
-466,401	800,000	0,024	0,072
-465,386	131,755	0,090	-0,084
-464,372	-107,685	-0,183	-0,029
-463,357	-126,002	0,130	-0,014
-462,343	-5,970	0,047	-0,023
-461,328	53,639	0,128	0,090
-460,313	-131,073	0,063	-0,006
-459,299	-105,058	-0,225	-0,037
-458,284	81,549	0,091	0,072
-457,270	800,000	-0,022	0,050
-456,255	89,077	0,047	0,038
-455,241	218,736	-0,039	-0,045
-454,226	-5,779	0,079	-0,039
-453,211	422,712	-0,016	0,024
-452,197	-200,000	0,017	0,075
-451,182	800,000	0,028	-0,081
-450,168	-17,549	0,076	-0,035
-449,153	-103,267	-0,033	0,006
-448,138	-79,975	-0,181	-0,044
-447,124	-200,000	-0,021	0,107
-446,109	158,868	-0,037	0,038
-445,095	122,647	0,029	0,027
-444,080	154,738	-0,042	-0,042
-443,065	800,000	0,009	0,020
-442,051	800,000	-0,026	-0,055
-441,036	179,530	0,064	-0,068
-440,022	800,000	-0,013	-0,039
-439,007	264,758	0,043	-0,055
-437,992	-111,267	-0,018	-0,003
-436,978	-60,979	0,044	-0,013
-435,963	800,000	0,032	0,065
-434,949	350,222	0,056	-0,081
-433,934	-200,000	0,009	0,087
-432,919	142,889	0,062	-0,060
-431,905	134,954	0,072	0,068
-430,890	-166,234	0,069	-0,002
-429,876	800,000	-0,033	0,073
-428,861	-104,095	-0,090	-0,015
-427,846	-51,221	-0,130	-0,044
-426,832	105,623	-0,078	-0,067
-425,817	-200,000	-0,006	-0,194
-424,803	-120,975	0,083	-0,010
-423,788	86,100	0,032	0,026
-422,773	212,801	-0,054	-0,062
-421,759	800,000	0,050	-0,102
-420,744	172,669	0,038	0,040
-419,730	297,140	-0,064	-0,085
-418,715	-75,071	0,060	0,015
-417,701	181,711	0,053	-0,056
-416,686	59,310	-0,050	-0,035
-415,671	-138,642	-0,124	0,010
-414,657	-200,000	0,002	0,041
-413,642	107,614	0,072	-0,062
-412,628	-137,443	-0,082	0,007
-411,613	-107,746	-0,147	0,023
-410,598	9,047	-0,055	0,030
-409,584	-141,147	-0,038	-0,003
-408,569	-200,000	-0,008	0,049
-407,555	-200,000	0,009	0,133
-406,540	-200,000	0,011	0,110
-405,525	680,871	-0,053	-0,102
-404,511	-200,000	-0,033	-0,154
-403,496	423,722	0,017	-0,027
-402,482	800,000	-0,019	-0,058
-401,467	333,763	0,032	-0,045
-400,452	-200,000	0,006	0,112
-399,438	800,000	0,041	0,099
-398,423	258,142	0,019	-0,024
-397,409	378,132	-0,062	-0,092
-396,394	-200,000	-0,016	-0,081
-395,379	140,824	-0,065	-0,063
-394,365	-72,134	0,098	-0,026
-393,350	-168,673	0,148	-0,004
-392,336	800,000	-0,023	0,073
-391,321	-40,525	-0,043	-0,016
-390,306	208,502	-0,071	0,081
-389,292	-133,493	0,041	-0,004
-388,277	-47,124	0,097	0,034
-387,263	-129,496	0,034	-0,003
-386,248	474,283	0,059	0,097
-385,233	-114,074	-0,122	0,017
-384,219	38,576	-0,051	0,033
-383,204	67,174	-0,058	-0,043
-382,190	-200,000	-0,009	-0,123
-381,175	584,210	-0,041	-0,074
-380,160	279,238	-0,085	0,111
-379,146	410,600	0,114	0,177
-378,131	800,000	-0,034	0,108
-377,117	318,669	0,073	0,101
-376,102	-89,861	0,025	0,005
-375,088	544,608	0,048	-0,083
-374,073	-35,774	0,126	0,049
-373,058	-200,000	0,009	-0,054
-372,044	800,000	0,035	0,072
-371,029	186,723	-0,068	0,074
-370,015	-200,000	-0,013	0,069
-369,000	33,018	0,064	0,040
-367,985	0,639	0,052	-0,027
-366,971	-47,283	0,088	-0,031
-365,956	47,780	-0,060	0,041
-364,942	-94,248	-0,035	-0,007
-363,927	39,996	0,059	0,039
-362,912	-200,000	-0,004	-0,029
-361,898	242,517	-0,037	0,045
-360,883	-48,575	-0,092	-0,032
-359,869	-54,345	0,045	-0,015
-358,854	464,560	-0,014	0,024
-357,839	-126,152	0,065	-0,007
-356,825	275,035	0,069	0,089
-355,810	236,126	0,051	0,061
-354,796	-200,000	-0,016	0,128
-353,781	332,656	-0,013	-0,018
-352,766	634,872	-0,057	-0,105
-351,752	188,154	0,031	0,034
-350,737	-22,607	-0,071	0,031
-349,723	-92,171	0,071	-0,014
-348,708	-200,000	0,020	0,088
-347,693	506,921	0,084	-0,142
-346,679	699,840	0,065	0,124
-345,664	358,406	-0,073	0,105
-344,650	800,000	-0,036	0,082
-343,635	-60,392	0,065	0,020
-342,620	-26,907	0,082	-0,035
-341,606	75,002	-0,053	0,041
-340,591	40,972	0,100	-0,066
-339,577	800,000	-0,004	-0,011
-338,562	-28,763	0,029	0,012
-337,548	-33,440	0,119	-0,047
-336,533	18,565	0,006	-0,003
-335,518	16,235	-0,015	-0,008
-334,504	-200,000	0,000	-0,045
-333,489	408,401	-0,046	0,071
-332,475	-26,687	0,070	-0,029
-331,460	375,005	-0,043	0,064
-330,445	3,178	-0,056	-0,029
-329,431	-200,000	0,014	-0,046
-328,416	368,381	0,135	0,199
-327,402	-29,898	-0,045	-0,019
-326,387	-172,760	0,112	-0,002
-325,372	74,856	0,024	-0,018
-324,358	87,802	-0,093	-0,075
-323,343	175,172	0,033	-0,035
-322,329	177,775	0,063	0,067
-321,314	515,495	-0,046	-0,078
-320,299	800,000	0,012	-0,027
-319,285	395,964	0,046	-0,069
-318,270	30,700	0,079	0,049
-317,256	41,913	0,009	-0,006
-316,241	208,315	-0,014	0,016
-315,226	-200,000	0,064	0,224
-314,212	-164,790	0,048	-0,002
-313,197	63,135	0,065	-0,047
-312,183	25,279	-0,106	0,063
-311,168	246,139	-0,020	-0,025
-310,153	288,450	0,117	-0,154
-309,139	-200,000	-0,015	-0,054
-308,124	-136,255	0,083	-0,007
-307,110	74,064	0,030	0,023
-306,095	691,715	0,061	0,117
-305,080	293,676	0,068	0,090
-304,066	-200,000	-0,019	0,096
-303,051	320,252	0,059	-0,082
-302,037	-169,720	-0,134	0,003
-301,022	-113,304	0,095	0,013
-300,008	-63,451	-0,038	-0,011
-298,993	458,179	0,058	0,093
-297,978	360,535	-0,072	-0,105
-296,964	800,000	-0,030	0,084
-295,949	43,524	-0,158	-0,104
-294,935	-47,296	-0,093	0,033
-293,920	-47,370	0,050	0,018
-292,905	-200,000	0,007	-0,023
-291,891	-200,000	0,002	-0,075
-290,876	-137,924	0,036	0,003
-289,862	800,000	0,040	-0,104
-288,847	162,326	-0,053	0,053
-287,832	85,251	0,047	-0,037
-286,818	2,312	-0,043	0,022
-285,803	800,000	-0,051	0,118
-284,789	632,097	-0,068	-0,126
-283,774	518,091	-0,016	0,027
-282,759	-89,841	-0,131	0,027
-281,745	-200,000	-0,010	0,119
-280,730	478,833	-0,069	0,113
-279,716	-200,000	0,026	-0,082
-278,701	-169,406	0,073	0,002
-277,686	484,234	0,054	-0,089
-276,672	-52,500	0,107	0,036
-275,657	-200,000	-0,005	0,076
-274,643	495,496	0,077	-0,128
-273,628	-200,000	-0,013	-0,095
-272,613	319,209	0,004	0,006
-271,599	0,233	0,081	0,042
-270,584	293,605	0,077	0,102
-269,570	-200,000	0,026	0,126
-268,555	-119,794	-0,175	-0,022
-267,540	21,369	0,096	-0,056
-266,526	-68,114	-0,050	-0,014
-265,511	-40,197	0,041	-0,015
-264,497	-45,736	0,024	-0,008
-263,482	-25,970	-0,107	0,045
-262,467	211,713	0,107	0,122
-261,453	-200,000	-0,002	0,156
-260,438	28,063	-0,036	-0,022
-259,424	-200,000	-0,006	0,024
-258,409	709,211	-0,053	0,102
-257,395	-200,000	0,027	0,097
-256,380	-39,738	0,067	0,025
-255,365	-42,665	-0,045	0,017
-254,351	32,396	0,023	-0,014
-253,336	107,112	0,079	-0,068
-252,322	-163,968	-0,214	-0,007
-251,307	800,000	0,046	0,142
-250,292	305,096	-0,081	0,109
-249,278	-45,626	-0,107	0,038
-248,263	-112,642	0,086	-0,012
-247,249	577,146	0,025	-0,045
-246,234	377,614	-0,033	0,049
-245,219	631,060	0,043	0,079
-244,205	-123,630	-0,086	0,010
-243,190	773,425	0,055	0,109
-242,176	-142,389	0,034	-0,002
-241,161	24,227	0,059	-0,035
-240,146	-183,360	0,074	-0,001
-239,132	32,295	-0,107	0,067
-238,117	-200,000	-0,014	-0,072
-237,103	33,097	-0,049	-0,031
-236,088	-1,139	0,010	0,005
-235,073	800,000	0,065	0,148
-234,059	14,119	0,064	0,036
-233,044	-69,880	-0,093	-0,025
-232,030	-125,713	-0,122	0,013
-231,015	753,847	-0,039	0,077
-230,000	111,887	-0,087	-0,076
-228,986	-105,393	0,130	-0,021
-227,971	-148,216	-0,078	0,005
-226,957	-136,507	0,128	-0,011
-225,942	-200,000	-0,003	0,016
-224,927	246,610	0,034	0,042
-223,913	152,718	-0,064	-0,064
-222,898	800,000	0,020	0,046
-221,884	177,586	0,103	0,108
-220,869	-200,000	-0,029	0,101
-219,855	-200,000	0,017	0,072
-218,840	-200,000	-0,022	0,193
-217,825	97,085	0,100	-0,083
-216,811	-158,136	-0,099	-0,004
-215,796	800,000	0,039	-0,094
-214,782	-200,000	0,009	-0,062
-213,767	14,365	0,031	0,018
-212,752	-200,000	-0,008	0,214
-211,738	-89,189	-0,031	0,007
-210,723	30,499	-0,083	0,051
-209,709	-200,000	-0,003	-0,096
-208,694	-26,169	-0,026	-0,011
-207,679	-200,000	-0,014	0,069
-206,665	-200,000	-0,020	0,116
-205,650	-138,225	0,071	0,006
-204,636	152,097	-0,077	0,076
-203,621	158,573	0,043	0,043
-202,606	-168,240	0,173	0,005
-201,592	-200,000	-0,019	-0,095
-200,577	-200,000	0,004	0,030
-199,563	15,505	0,104	-0,059
-198,548	-69,975	0,047	-0,013
-197,533	-103,055	0,141	-0,024
-196,519	6,598	-0,049	0,026
-195,504	-101,545	0,102	-0,018
-194,490	120,456	-0,056	0,050
-193,475	-200,000	0,059	-0,195
-192,460	800,000	-0,068	0,164
-191,446	142,885	0,013	0,012
-190,431	110,459	-0,023	-0,020
-189,417	219,803	0,048	0,056
-188,402	-200,000	0,008	0,060
-187,387	134,401	0,044	-0,041
-186,373	294,775	-0,048	0,064
-185,358	12,528	0,034	0,019
-184,344	380,221	0,040	0,060
-183,329	800,000	0,120	0,305
-182,315	174,124	0,041	-0,043
-181,300	206,957	-0,018	0,020
-180,285	56,146	0,052	-0,036
-179,271	-200,000	0,015	-0,114
-178,256	118,088	-0,104	0,093
-177,242	-200,000	-0,001	0,086
-176,227	-48,804	0,091	0,031
-175,212	-86,266	-0,052	-0,011
-174,198	-200,000	0,012	0,052
-173,183	-200,000	0,020	-0,157
-172,169	-171,556	-0,065	-0,002
-171,154	-200,000	-0,026	-0,160
-170,139	-36,417	0,196	-0,076
-169,125	-19,456	-0,078	-0,035
-168,110	7,568	0,111	-0,060
-167,096	-200,000	0,008	0,082
-166,081	800,000	0,008	0,018
-165,066	-200,000	-0,026	-0,175
-164,052	359,294	-0,104	0,150
-163,037	-78,090	-0,130	0,032
-162,023	-39,023	0,054	-0,021
-161,008	800,000	0,037	-0,086
-159,993	-200,000	-0,038	0,291
-158,979	-200,000	-0,023	0,217
-157,964	-200,000	0,016	0,073
-156,950	668,717	-0,059	-0,111
-155,935	-200,000	-0,000	-0,045
-154,920	-200,000	-0,002	0,080
-153,906	55,961	0,070	0,049
-152,891	63,309	0,023	-0,017
-151,877	107,002	0,029	0,025
-150,862	23,563	0,122	0,072
-149,847	800,000	-0,046	-0,099
-148,833	22,553	-0,131	0,077
-147,818	16,468	0,131	0,074
-146,804	135,691	0,084	-0,078
-145,789	-35,270	-0,028	0,011
-144,775	142,889	-0,039	-0,037
-143,760	26,488	-0,093	-0,056
-142,745	134,413	0,049	-0,046
-141,731	-200,000	-0,000	0,111
-140,716	20,361	0,083	0,048
-139,702	-117,655	-0,195	-0,025
-138,687	192,495	0,036	0,039
-137,672	415,248	0,057	0,088
-136,658	421,640	-0,050	-0,077
-135,643	-200,000	0,009	0,062
-134,629	-200,000	-0,006	0,027
-133,614	-106,131	0,134	-0,021
-132,599	-200,000	-0,004	0,051
-131,585	1,975	0,148	0,077
-130,570	399,385	-0,095	-0,144
-129,556	-17,949	-0,132	0,059
-128,541	-55,153	0,026	-0,008
-127,526	-200,000	-0,000	-0,005
-126,512	-76,040	0,043	0,011
-125,497	-200,000	0,049	-0,185
-124,483	-200,000	0,009	0,247
-123,468	-114,547	-0,104	0,014
-122,453	-70,426	-0,093	-0,025
-121,439	64,581	0,040	0,029
-120,424	-105,221	-0,176	-0,029
-119,410	800,000	0,035	0,094
