DTS Sentinel unit serial number:	SN410029Multiplexer serial number:	ORYXHardware model number:	OX2-SRSoftware version number:	ORYX F/W v4,00 Oryx Data Collector v3.7.2.0data status	okinstallation	B6 Nyhavnadifferential loss correction	single-endedforward channel	channel 2reverse channel	N/Adate	2023/12/07time	20:25:08forward acquisition time	300,00reverse acquisition time	0,00gamma	499,1914k internal	0,3164k external	0,3164temperature offset calibration	1,0000default loss term (dB/km)	0,3820temperature slope calibration	1,0000multiplexer offset coefficient	1,0000multiplexer slope coefficient	1,0000fibre end	0,00T internal ref (°C)	13,82T ext. ref 1 (°C)	-3,11T ext. ref 2 (°C)	-3,11length (m)	temperature (°C)	Stokes	anti-Stokes-744,400	17,286	0,124	0,073
-743,385	-134,547	-0,236	0,021
-742,371	-200,000	-0,011	0,092
-741,356	-133,532	-0,321	0,029
-740,342	92,865	0,029	0,024
-739,327	-116,854	-0,205	0,027
-738,312	-119,381	0,091	-0,012
-737,298	-187,628	-0,351	0,003
-736,283	206,068	0,044	-0,051
-735,269	-56,537	-0,263	-0,085
-734,254	-62,225	0,206	-0,063
-733,239	-74,723	-0,496	-0,130
-732,225	-182,169	0,205	-0,003
-731,210	-200,000	0,011	0,057
-730,196	636,017	-0,028	-0,052
-729,181	-46,661	-0,107	-0,038
-728,167	314,289	0,095	-0,132
-727,152	-200,000	-0,009	-0,169
-726,137	-124,581	-0,074	-0,008
-725,123	220,106	-0,046	-0,054
-724,108	146,506	-0,145	-0,143
-723,094	-200,000	-0,021	-0,275
-722,079	279,621	-0,078	-0,103
-721,064	5,420	-0,117	-0,064
-720,050	800,000	0,032	0,071
-719,035	-66,235	-0,160	0,047
-718,021	800,000	0,003	0,007
-717,006	-35,377	-0,017	0,007
-715,991	4,594	-0,028	-0,015
-714,977	-144,562	-0,219	0,015
-713,962	800,000	-0,071	-0,147
-712,948	188,910	-0,037	-0,041
-711,933	800,000	-0,021	0,056
-710,918	800,000	0,007	0,016
-709,904	-200,000	-0,001	-0,109
-708,889	15,225	-0,038	0,022
-707,875	800,000	-0,064	0,162
-706,860	-200,000	-0,021	0,116
-705,845	-200,000	0,039	0,000
-704,831	-200,000	-0,006	-0,141
-703,816	22,772	-0,072	-0,043
-702,802	264,936	0,043	0,055
-701,787	285,455	0,065	-0,087
-700,772	-120,884	0,040	0,005
-699,758	800,000	-0,058	-0,170
-698,743	93,927	-0,073	0,060
-697,729	800,000	0,068	-0,212
-696,714	192,290	-0,075	-0,083
-695,699	-200,000	0,008	-0,092
-694,685	800,000	0,045	-0,140
-693,670	-133,406	-0,069	-0,006
-692,656	137,162	0,061	-0,059
-691,641	800,000	-0,055	0,127
-690,627	722,028	0,054	0,107
-689,612	-20,267	-0,201	0,090
-688,597	290,615	0,060	0,081
-687,583	-200,000	-0,003	0,039
-686,568	544,690	-0,066	0,116
-685,554	55,691	0,038	-0,027
-684,539	176,104	0,139	0,148
-683,524	800,000	0,042	0,134
-682,510	-140,955	0,091	0,007
-681,495	-15,860	-0,114	0,053
-680,481	-94,390	-0,127	-0,025
-679,466	-98,675	0,198	-0,037
-678,451	-200,000	0,012	-0,068
-677,437	-40,515	0,080	-0,030
-676,422	-11,564	-0,148	0,071
-675,408	750,540	-0,056	-0,111
-674,393	747,514	-0,046	-0,092
-673,378	-200,000	-0,005	-0,025
-672,364	-153,774	0,027	-0,001
-671,349	315,580	0,060	-0,083
-670,335	591,448	-0,106	-0,194
-669,320	800,000	0,029	0,089
-668,305	-42,340	-0,103	-0,038
-667,291	-200,000	-0,026	-0,086
-666,276	800,000	0,023	-0,068
-665,262	800,000	0,012	-0,039
-664,247	-200,000	-0,006	-0,087
-663,232	-200,000	-0,007	0,077
-662,218	-136,501	0,060	0,005
-661,203	461,767	0,032	-0,052
-660,189	46,873	0,086	-0,059
-659,174	182,746	-0,152	-0,164
-658,159	-200,000	0,036	-0,154
-657,145	180,504	0,056	-0,060
-656,130	-71,809	-0,021	-0,006
-655,116	-85,837	-0,044	0,010
-654,101	-200,000	0,006	0,064
-653,086	-200,000	0,012	0,134
-652,072	-14,848	-0,114	0,053
-651,057	43,896	-0,046	-0,031
-650,043	-200,000	0,020	-0,074
-649,028	211,924	-0,088	-0,101
-648,014	155,325	-0,054	-0,054
-646,999	99,202	0,059	0,050
-645,984	-160,046	0,112	0,004
-644,970	64,122	-0,045	0,033
-643,955	-69,110	-0,085	0,024
-642,941	-200,000	0,022	0,114
-641,926	-200,000	0,002	-0,009
-640,911	163,059	-0,111	-0,114
-639,897	-200,000	-0,019	-0,114
-638,882	-200,000	0,018	-0,129
-637,868	-200,000	-0,006	-0,149
-636,853	-200,000	-0,013	0,060
-635,838	800,000	-0,026	-0,072
-634,824	-163,964	0,053	0,002
-633,809	270,003	-0,087	-0,112
-632,795	153,174	-0,040	-0,040
-631,780	-200,000	0,047	-0,166
-630,765	-111,934	0,008	0,001
-629,751	800,000	0,025	-0,062
-628,736	600,719	0,011	-0,020
-627,722	-106,110	-0,154	-0,025
-626,707	49,729	-0,019	0,013
-625,692	150,943	0,060	0,059
-624,678	-19,248	0,050	0,023
-623,663	70,331	-0,061	-0,046
-622,649	-200,000	0,024	-0,094
-621,634	-119,846	-0,095	-0,012
-620,619	95,772	0,074	0,062
-619,605	-200,000	0,011	0,122
-618,590	800,000	0,021	-0,050
-617,576	-200,000	0,016	0,104
-616,561	220,717	0,045	-0,052
-615,546	-200,000	0,004	-0,111
-614,532	0,021	-0,121	0,063
-613,517	-35,428	0,170	-0,067
-612,503	800,000	-0,010	0,021
-611,488	-14,613	0,111	-0,052
-610,474	-200,000	0,018	0,102
-609,459	-200,000	-0,013	-0,078
-608,444	-21,717	-0,196	-0,087
-607,430	-58,930	-0,074	-0,023
-606,415	-160,693	-0,052	-0,002
-605,401	-3,784	0,041	0,021
-604,386	-200,000	0,038	-0,210
-603,371	-200,000	-0,015	-0,111
-602,357	104,887	0,015	0,013
-601,342	140,483	-0,079	0,077
-600,328	255,750	0,022	-0,027
-599,313	-200,000	-0,006	-0,053
-598,298	242,903	-0,066	-0,081
-597,284	317,572	0,039	0,054
-596,269	-200,000	-0,026	0,135
-595,255	-51,513	-0,131	-0,045
-594,240	-200,000	0,007	0,092
-593,225	-200,000	0,027	0,163
-592,211	713,806	0,047	0,092
-591,196	-200,000	0,020	-0,106
-590,182	63,055	-0,061	0,044
-589,167	-200,000	0,017	0,166
-588,152	-200,000	-0,010	0,109
-587,138	-200,000	-0,026	0,092
-586,123	59,202	-0,175	0,126
-585,109	-44,136	-0,091	-0,033
-584,094	-200,000	-0,010	-0,058
-583,079	-200,000	0,025	-0,102
-582,065	476,010	-0,048	0,080
-581,050	-18,021	-0,105	0,048
-580,036	-96,086	-0,041	0,008
-579,021	-200,000	0,004	0,052
-578,006	172,105	-0,054	0,057
-576,992	800,000	-0,047	-0,096
-575,977	-186,998	-0,127	-0,001
-574,963	307,283	-0,055	-0,076
-573,948	-145,492	0,143	-0,009
-572,934	800,000	-0,038	0,103
-571,919	140,081	-0,093	0,090
-570,904	-91,056	-0,058	-0,012
-569,890	-200,000	-0,012	-0,063
-568,875	-105,756	0,060	-0,010
-567,861	-35,316	0,111	-0,044
-566,846	61,197	-0,067	0,049
-565,831	67,754	0,117	-0,087
-564,817	-200,000	0,003	0,073
-563,802	283,423	-0,016	0,022
-562,788	-122,255	-0,114	0,013
-561,773	198,387	-0,118	0,132
-560,758	-48,809	-0,010	-0,003
-559,744	171,276	-0,101	0,106
-558,729	-4,160	-0,063	-0,032
-557,715	-15,931	-0,015	0,007
-556,700	-98,910	0,126	0,023
-555,685	-200,000	-0,007	-0,096
-554,671	-200,000	0,023	0,116
-553,656	104,559	0,040	-0,035
-552,642	415,958	-0,091	0,143
-551,627	218,256	-0,045	-0,053
-550,612	616,025	-0,028	0,052
-549,598	-200,000	-0,016	0,099
-548,583	-84,669	-0,148	-0,034
-547,569	-200,000	-0,013	0,109
-546,554	800,000	0,020	0,051
-545,539	26,114	-0,190	0,116
-544,525	59,813	-0,100	0,072
-543,510	800,000	0,005	0,016
-542,496	-63,969	-0,116	-0,034
-541,481	475,133	0,028	-0,046
-540,466	780,034	0,032	-0,064
-539,452	230,384	-0,036	-0,043
-538,437	229,734	-0,076	0,090
-537,423	-107,203	0,081	0,013
-536,408	21,240	-0,053	0,031
-535,393	7,479	-0,044	0,024
-534,379	416,450	-0,062	-0,097
-533,364	-200,000	-0,035	-0,170
-532,350	-49,335	0,072	-0,025
-531,335	-200,000	0,018	0,089
-530,321	800,000	0,029	0,068
-529,306	-200,000	-0,032	-0,182
-528,291	196,411	-0,038	0,042
-527,277	-116,578	0,081	0,011
-526,262	-19,629	-0,064	-0,029
-525,248	125,949	0,125	0,115
-524,233	-36,904	0,000	0,000
-523,218	58,145	0,034	0,025
-522,204	-114,955	0,042	0,006
-521,189	-44,944	-0,073	-0,027
-520,175	-61,958	-0,165	0,050
-519,160	-70,722	-0,140	0,038
-518,145	85,519	-0,072	-0,057
-517,131	21,759	0,125	0,074
-516,116	86,136	-0,095	0,076
-515,102	72,558	0,009	-0,007
-514,087	35,265	-0,093	0,059
-513,072	28,169	-0,151	-0,092
-512,058	200,833	0,029	-0,032
-511,043	-200,000	0,012	0,060
-510,029	27,339	0,095	0,058
-509,014	800,000	0,047	0,125
-507,999	-87,168	-0,115	-0,025
-506,985	522,574	-0,084	0,144
-505,970	-200,000	-0,007	-0,049
-504,956	-43,750	0,054	-0,020
-503,941	-200,000	0,043	0,189
-502,926	579,239	0,050	0,089
-501,912	-102,497	0,174	0,030
-500,897	-116,044	-0,094	-0,013
-499,883	800,000	0,069	0,176
-498,868	57,193	0,032	-0,023
-497,853	-200,000	0,006	-0,067
-496,839	-200,000	-0,008	0,071
-495,824	-200,000	-0,021	-0,128
-494,810	-200,000	0,001	-0,034
-493,795	800,000	0,047	0,131
-492,781	-109,386	-0,073	0,011
-491,766	-200,000	0,007	-0,060
-490,751	-200,000	0,006	0,227
-489,737	800,000	-0,018	-0,052
-488,722	800,000	0,022	-0,058
-487,708	150,946	0,035	0,035
-486,693	421,989	0,019	-0,030
-485,678	-177,340	-0,118	-0,002
-484,664	718,835	-0,039	-0,077
-483,649	-200,000	-0,013	-0,043
-482,635	-200,000	-0,002	-0,025
-481,620	-200,000	0,024	-0,102
-480,605	301,910	0,045	0,061
-479,591	156,175	-0,028	0,029
-478,576	-39,665	0,089	0,034
-477,562	-49,850	-0,133	0,046
-476,547	-200,000	-0,111	0,000
-475,532	800,000	-0,040	0,086
-474,518	-200,000	0,039	-0,148
-473,503	-98,961	0,119	-0,022
-472,489	-200,000	-0,022	-0,099
-471,474	222,830	0,020	0,024
-470,459	79,398	-0,099	0,077
-469,445	163,383	0,113	-0,116
-468,430	-83,236	-0,024	-0,006
-467,416	-108,848	-0,042	-0,006
-466,401	424,968	0,031	-0,048
-465,386	-100,288	0,177	0,032
-464,372	-69,021	-0,226	0,063
-463,357	-200,000	-0,012	0,053
-462,343	-100,600	-0,056	0,010
-461,328	-200,000	0,011	0,077
-460,313	398,930	0,023	-0,035
-459,299	228,016	-0,041	0,049
-458,284	-119,578	0,163	0,020
-457,270	262,941	0,071	-0,090
-456,255	-200,000	-0,009	0,057
-455,241	-200,000	-0,021	0,078
-454,226	12,505	-0,013	0,007
-453,211	800,000	0,036	-0,098
-452,197	313,809	0,134	0,183
-451,182	800,000	-0,093	0,189
-450,168	-25,786	0,068	-0,029
-449,153	-200,000	0,035	-0,119
-448,138	-200,000	-0,028	0,098
-447,124	-123,829	-0,028	-0,003
-446,109	30,400	0,090	-0,056
-445,095	-11,427	0,021	0,010
-444,080	800,000	0,036	-0,104
-443,065	-200,000	0,008	-0,128
-442,051	-71,856	0,015	0,004
-441,036	-10,285	0,101	-0,049
-440,022	86,319	0,057	-0,046
-439,007	-57,658	-0,026	0,008
-437,992	-1,143	0,094	-0,048
-436,978	-200,000	0,198	-0,001
-435,963	-61,213	-0,150	0,046
-434,949	-86,582	-0,140	0,031
-433,934	-200,000	-0,032	-0,113
-432,919	144,415	0,084	-0,082
-431,905	-200,000	-0,012	-0,090
-430,890	103,932	0,022	-0,019
-429,876	800,000	-0,031	0,089
-428,861	-33,669	0,186	0,074
-427,846	800,000	-0,036	0,099
-426,832	-105,298	-0,095	-0,016
-425,817	800,000	0,043	-0,089
-424,803	-63,381	0,029	0,009
-423,788	800,000	0,014	0,037
-422,773	185,426	-0,044	0,047
-421,759	-200,000	0,005	-0,025
-420,744	196,054	-0,034	-0,038
-419,730	4,316	0,024	-0,012
-418,715	-64,609	0,048	0,014
-417,701	-200,000	-0,001	0,065
-416,686	513,797	0,065	0,111
-415,671	789,265	0,026	-0,053
-414,657	-70,364	-0,052	0,014
-413,642	-98,936	0,161	-0,029
-412,628	-90,530	0,116	0,024
-411,613	-200,000	-0,017	-0,061
-410,598	-72,000	0,097	-0,026
-409,584	-23,941	-0,133	0,057
-408,569	-200,000	-0,019	0,108
-407,555	800,000	-0,018	0,054
-406,540	33,568	0,044	-0,027
-405,525	214,752	-0,065	-0,074
-404,511	-105,014	0,124	0,020
-403,496	-200,000	-0,015	0,047
-402,482	800,000	-0,089	-0,200
-401,467	-121,274	0,066	-0,008
-400,452	90,182	0,071	0,058
-399,438	-200,000	0,009	0,037
-398,423	21,748	0,115	-0,068
-397,409	-71,582	-0,033	-0,009
-396,394	250,575	0,055	0,067
-395,379	778,480	0,049	-0,097
-394,365	179,120	-0,073	0,077
-393,350	84,388	0,146	-0,116
-392,336	-200,000	-0,007	-0,025
-391,321	455,394	-0,060	-0,096
-390,306	-200,000	0,042	-0,157
-389,292	641,653	0,044	0,081
-388,277	303,099	0,054	-0,073
-387,263	-70,832	-0,073	-0,020
-386,248	141,100	0,124	0,119
-385,233	275,258	0,029	-0,038
-384,219	197,825	0,038	-0,042
-383,204	800,000	0,024	-0,052
-382,190	46,290	-0,106	-0,071
-381,175	117,159	0,056	-0,050
-380,160	-200,000	0,000	0,006
-379,146	-106,965	0,071	0,011
-378,131	55,398	0,119	0,083
-377,117	800,000	0,069	-0,207
-376,102	-200,000	-0,013	-0,097
-375,088	800,000	-0,051	0,121
-374,073	543,018	-0,018	0,031
-373,058	-51,009	0,076	-0,026
-372,044	-130,258	0,184	-0,018
-371,029	-172,692	-0,012	-0,000
-370,015	-52,860	0,095	0,032
-369,000	482,912	-0,119	-0,197
-367,985	-60,211	0,095	-0,029
-366,971	800,000	-0,049	-0,141
-365,956	9,659	0,142	-0,078
-364,942	112,690	-0,072	-0,064
-363,927	228,089	0,055	0,065
-362,912	-122,067	-0,061	0,007
-361,898	-200,000	-0,016	0,164
-360,883	800,000	0,049	-0,131
-359,869	-200,000	-0,030	-0,104
-358,854	-42,837	0,046	0,017
-357,839	800,000	0,021	-0,055
-356,825	270,542	0,061	0,078
-355,810	199,256	0,044	-0,049
-354,796	-152,733	-0,010	0,000
-353,781	27,524	0,026	0,016
-352,766	-200,000	0,000	-0,122
-351,752	485,988	0,050	-0,084
-350,737	-200,000	-0,013	0,154
-349,723	-17,302	-0,088	-0,040
-348,708	-123,320	0,107	0,012
-347,693	-200,000	0,015	-0,062
-346,679	-168,947	-0,063	0,002
-345,664	-107,330	-0,269	-0,042
-344,650	-60,785	0,138	-0,042
-343,635	-92,977	0,097	-0,019
-342,620	-78,011	0,080	0,020
-341,606	-92,796	-0,065	0,013
-340,591	96,630	0,053	0,044
-339,577	800,000	0,028	-0,079
-338,562	112,998	-0,031	-0,027
-337,548	394,905	0,058	0,087
-336,533	136,394	0,111	0,104
-335,518	-55,539	0,063	-0,020
-334,504	-90,078	-0,054	0,011
-333,489	418,973	-0,045	0,070
-332,475	-8,745	-0,065	0,032
-331,460	-200,000	0,021	-0,113
-330,445	201,982	0,073	-0,082
-329,431	69,810	0,042	0,032
-328,416	-195,633	0,159	-0,001
-327,402	-200,000	0,002	-0,050
-326,387	207,230	-0,063	-0,071
-325,372	-139,016	0,041	-0,003
-324,358	220,109	0,049	-0,057
-323,343	-84,111	0,071	-0,016
-322,329	621,604	0,023	-0,041
-321,314	-200,000	-0,036	0,172
-320,299	-74,225	0,116	0,030
-319,285	18,574	0,034	-0,020
-318,270	-62,074	0,042	0,012
-317,256	-200,000	-0,004	-0,037
-316,241	-35,635	0,059	-0,023
-315,226	800,000	-0,027	0,055
-314,212	378,665	0,022	0,033
-313,197	-200,000	-0,033	0,142
-312,183	90,159	0,053	-0,043
-311,168	537,714	0,028	-0,048
-310,153	17,634	-0,101	-0,058
-309,139	800,000	0,021	-0,045
-308,124	-200,000	-0,008	-0,048
-307,110	339,598	0,049	-0,070
-306,095	300,415	0,107	-0,144
-305,080	800,000	-0,024	0,062
-304,066	331,721	-0,058	0,082
-303,051	-200,000	0,009	0,070
-302,037	375,349	0,054	-0,079
-301,022	17,914	-0,038	-0,022
-300,008	3,289	-0,047	-0,025
-298,993	313,673	0,024	0,032
-297,978	38,884	0,126	-0,081
-296,964	-46,306	-0,073	0,026
-295,949	-78,215	-0,217	-0,054
-294,935	-93,218	-0,118	0,023
-293,920	40,389	-0,159	-0,103
-292,905	-200,000	0,018	0,079
-291,891	579,476	0,054	0,096
-290,876	759,767	0,059	-0,116
-289,862	800,000	-0,079	-0,162
-288,847	-200,000	0,002	-0,035
-287,832	268,829	0,043	-0,055
-286,818	88,656	-0,037	0,030
-285,803	-16,183	0,215	0,098
-284,789	684,512	0,025	-0,047
-283,774	76,726	0,095	0,073
-282,759	27,465	-0,033	0,020
-281,745	800,000	-0,016	0,041
-280,730	-14,815	0,047	-0,022
-279,716	96,408	-0,024	0,019
-278,701	-200,000	0,030	-0,096
-277,686	-44,199	-0,170	-0,061
-276,672	-1,832	0,038	-0,019
-275,657	81,700	-0,090	-0,071
-274,643	-40,723	0,113	0,042
-273,628	-200,000	-0,006	0,063
-272,613	-29,990	0,070	-0,029
-271,599	57,014	0,128	-0,090
-270,584	-200,000	0,050	0,167
-269,570	-69,069	0,090	-0,025
-268,555	-86,535	-0,042	0,009
-267,540	-34,638	-0,107	0,042
-266,526	16,079	0,074	-0,042
-265,511	314,941	0,032	-0,044
-264,497	-200,000	0,022	-0,100
-263,482	296,054	0,037	-0,050
-262,467	574,582	0,016	-0,028
-261,453	-200,000	-0,022	-0,129
-260,438	-66,336	-0,159	-0,045
-259,424	-200,000	-0,012	-0,185
-258,409	93,246	0,047	-0,039
-257,395	800,000	0,015	-0,032
-256,380	67,048	0,130	0,095
-255,365	-81,399	-0,135	-0,032
-254,351	-157,904	-0,122	-0,005
-253,336	-65,025	0,156	0,045
-252,322	-113,976	-0,176	-0,024
-251,307	-24,746	-0,062	-0,026
-250,292	800,000	-0,026	0,053
-249,278	103,367	0,140	0,119
-248,263	88,450	0,042	-0,034
-247,249	-200,000	-0,005	0,078
-246,234	212,461	0,097	0,110
-245,219	45,331	0,048	-0,032
-244,205	800,000	-0,023	-0,046
-243,190	800,000	-0,011	-0,027
-242,176	538,935	-0,064	0,109
-241,161	784,543	-0,045	0,088
-240,146	-200,000	-0,034	-0,112
-239,132	800,000	-0,012	0,029
-238,117	-70,837	-0,076	-0,020
-237,103	-200,000	0,019	-0,194
-236,088	98,593	-0,051	-0,043
-235,073	-106,723	-0,043	-0,007
-234,059	149,492	0,091	0,089
-233,044	-131,925	0,097	0,009
-232,030	-19,731	-0,072	0,032
-231,015	76,600	-0,095	-0,073
-230,000	-102,802	-0,081	-0,014
-228,986	-200,000	0,002	0,107
-227,971	-64,007	0,056	0,016
-226,957	-2,036	0,185	0,093
-225,942	-136,345	0,132	-0,011
-224,927	-171,668	-0,040	-0,001
-223,913	30,989	-0,116	0,071
-222,898	800,000	-0,036	-0,084
-221,884	800,000	0,109	-0,248
-220,869	47,711	0,107	0,072
-219,855	-54,757	0,068	0,022
-218,840	-200,000	0,001	-0,023
-217,825	165,639	-0,076	0,078
-216,811	313,597	0,018	-0,024
-215,796	25,042	0,065	0,039
-214,782	302,250	0,031	0,042
-213,767	-200,000	-0,014	0,066
-212,752	340,367	-0,039	0,055
-211,738	-200,000	-0,004	0,038
-210,723	4,422	0,039	-0,021
-209,709	127,018	0,017	0,016
-208,694	76,621	-0,031	0,024
-207,679	-44,378	0,103	-0,037
-206,665	-200,000	-0,033	0,106
-205,650	-40,280	0,120	-0,045
-204,636	-200,000	-0,058	0,195
-203,621	-91,976	-0,024	0,005
-202,606	-77,323	0,072	0,018
-201,592	-40,588	0,039	-0,015
-200,577	100,224	-0,044	0,037
-199,563	124,024	-0,067	-0,061
-198,548	176,014	0,071	0,075
-197,533	800,000	-0,018	-0,036
-196,519	-76,517	0,077	0,019
-195,504	135,083	-0,060	0,056
-194,490	0,132	0,052	-0,027
-193,475	-123,963	-0,153	-0,017
-192,460	94,673	0,155	0,127
-191,446	-33,760	-0,044	0,017
-190,431	-157,540	0,101	-0,004
-189,417	-200,000	-0,004	0,065
-188,402	-138,260	-0,219	0,017
-187,387	33,843	-0,065	-0,040
-186,373	-200,000	-0,002	0,092
-185,358	800,000	0,032	0,086
-184,344	239,837	0,009	0,011
-183,329	-45,135	-0,073	0,026
-182,315	-200,000	0,010	0,140
-181,300	383,079	-0,065	0,097
-180,285	278,711	0,047	-0,061
-179,271	513,386	0,130	-0,219
-178,256	800,000	-0,016	-0,045
-177,242	-185,624	-0,130	0,001
-176,227	487,836	0,038	0,063
-175,212	85,479	0,035	0,028
-174,198	-48,312	-0,028	-0,010
-173,183	-6,352	-0,165	-0,081
-172,169	433,580	-0,104	-0,163
-171,154	290,074	0,076	0,099
-170,139	-76,966	-0,061	-0,015
-169,125	769,408	0,052	0,103
-168,110	-200,000	-0,004	0,172
-167,096	673,871	-0,036	0,068
-166,081	173,965	-0,105	0,110
-165,066	-120,761	-0,138	-0,017
-164,052	239,766	-0,028	0,033
-163,037	800,000	-0,022	-0,045
-162,023	-200,000	0,052	0,179
-161,008	-200,000	0,000	-0,001
-159,993	-85,813	0,086	0,019
-158,979	800,000	-0,035	-0,111
-157,964	126,323	-0,113	-0,103
-156,950	107,056	-0,052	0,045
-155,935	559,896	-0,051	-0,089
-154,920	289,713	0,057	0,074
-153,906	-6,570	-0,124	0,061
-152,891	-112,108	0,061	-0,009
-151,877	-56,531	0,094	-0,030
-150,862	-116,214	-0,055	0,007
-149,847	-200,000	-0,003	0,072
-148,833	659,832	0,037	0,069
-147,818	-200,000	0,014	0,088
-146,804	550,831	-0,031	0,053
-145,789	-58,081	-0,149	0,046
-144,775	-47,037	0,064	-0,022
-143,760	-85,652	-0,128	-0,028
-142,745	-200,000	-0,013	-0,047
-141,731	-15,104	-0,148	0,068
-140,716	18,023	-0,123	0,070
-139,702	-185,485	0,207	0,002
-138,687	22,978	-0,096	0,056
-137,672	222,392	-0,035	0,041
-136,658	-127,935	0,002	-0,000
-135,643	-200,000	0,018	-0,127
-134,629	-73,680	0,059	-0,015
-133,614	2,223	0,099	-0,051
-132,599	-22,880	-0,111	-0,048
-131,585	9,661	-0,043	0,024
-130,570	516,922	-0,025	-0,042
-129,556	-54,928	-0,121	0,039
-128,541	-88,607	-0,156	-0,033
-127,526	-19,251	-0,004	0,002
-126,512	190,715	0,083	0,089
-125,497	-200,000	0,009	0,139
-124,483	77,075	-0,090	-0,069
-123,468	-82,923	-0,018	0,004
-122,453	5,492	0,100	0,053
-121,439	267,667	0,041	-0,051
-120,424	-200,000	0,018	-0,086
-119,410	-133,916	0,149	0,013
