DTS Sentinel unit serial number:	SN410029Multiplexer serial number:	ORYXHardware model number:	OX2-SRSoftware version number:	ORYX F/W v4,00 Oryx Data Collector v3.7.2.0data status	okinstallation	B6 Nyhavnadifferential loss correction	single-endedforward channel	channel 2reverse channel	N/Adate	2023/12/09time	22:00:08forward acquisition time	300,00reverse acquisition time	0,00gamma	499,1914k internal	0,3127k external	0,3127temperature offset calibration	1,0000default loss term (dB/km)	0,3820temperature slope calibration	1,0000multiplexer offset coefficient	1,0000multiplexer slope coefficient	1,0000fibre end	0,00T internal ref (°C)	21,63T ext. ref 1 (°C)	5,43T ext. ref 2 (°C)	5,42length (m)	temperature (°C)	Stokes	anti-Stokes-744,400	800,000	-0,020	-0,058
-743,385	127,712	-0,165	0,156
-742,371	800,000	0,027	-0,073
-741,356	-29,877	-0,320	0,135
-740,342	392,626	0,065	0,102
-739,327	-126,338	-0,266	0,029
-738,312	-200,000	0,018	-0,138
-737,298	11,614	-0,202	0,115
-736,283	800,000	0,045	0,117
-735,269	-109,250	-0,244	0,038
-734,254	68,823	0,091	-0,069
-733,239	-148,910	-0,551	0,033
-732,225	-128,519	0,119	-0,012
-731,210	-100,478	-0,196	0,036
-730,196	458,545	-0,101	-0,168
-729,181	800,000	0,043	-0,095
-728,167	-25,044	-0,081	-0,035
-727,152	-107,350	0,072	-0,012
-726,137	-160,362	0,067	-0,003
-725,123	264,310	-0,042	-0,055
-724,108	-200,000	0,006	0,081
-723,094	96,037	-0,128	-0,109
-722,079	-25,853	-0,064	0,028
-721,064	-4,659	-0,075	0,038
-720,050	800,000	-0,028	0,086
-719,035	-130,657	-0,136	0,013
-718,021	220,100	-0,075	-0,090
-717,006	-70,136	-0,183	-0,051
-715,991	29,288	-0,181	-0,114
-714,977	113,684	-0,081	-0,073
-713,962	-63,950	-0,075	-0,023
-712,948	-2,519	-0,026	0,014
-711,933	-200,000	0,031	-0,112
-710,918	-107,766	0,087	0,014
-709,904	321,982	-0,056	0,079
-708,889	202,569	-0,109	-0,126
-707,875	-200,000	-0,002	-0,107
-706,860	-200,000	-0,022	-0,130
-705,845	-200,000	0,014	-0,098
-704,831	121,844	-0,054	-0,050
-703,816	58,465	-0,058	-0,043
-702,802	800,000	-0,063	-0,140
-701,787	-200,000	0,016	-0,194
-700,772	157,089	-0,067	-0,069
-699,758	-200,000	0,011	0,154
-698,743	-69,567	-0,138	0,039
-697,729	-61,448	-0,062	-0,019
-696,714	-200,000	0,001	0,007
-695,699	2,713	-0,034	-0,018
-694,685	382,423	-0,033	0,050
-693,670	-91,036	0,053	-0,011
-692,656	-94,225	-0,106	-0,021
-691,641	100,967	-0,060	-0,052
-690,627	-145,883	0,026	-0,002
-689,612	-200,000	-0,001	0,024
-688,597	171,742	0,127	-0,136
-687,583	-200,000	-0,003	-0,053
-686,568	-31,235	-0,190	-0,079
-685,554	67,996	0,052	0,039
-684,539	176,096	0,045	0,049
-683,524	-200,000	0,004	-0,079
-682,510	406,269	-0,016	0,025
-681,495	-157,795	-0,117	0,005
-680,481	-174,485	0,086	0,002
-679,466	-200,000	0,000	-0,164
-678,451	158,099	-0,098	-0,101
-677,437	800,000	0,042	-0,125
-676,422	-200,000	-0,035	-0,197
-675,408	-69,353	-0,061	0,017
-674,393	341,702	-0,135	-0,196
-673,378	5,496	-0,078	-0,043
-672,364	-200,000	-0,054	-0,189
-671,349	-125,527	-0,046	0,005
-670,335	-124,359	0,064	0,007
-669,320	-44,388	-0,037	-0,014
-668,305	200,091	-0,054	0,062
-667,291	-200,000	-0,023	0,114
-666,276	-131,401	0,051	0,005
-665,262	319,530	-0,109	-0,154
-664,247	135,155	-0,094	-0,090
-663,232	-125,803	-0,109	0,012
-662,218	115,471	0,088	0,080
-661,203	735,360	-0,032	0,065
-660,189	-75,781	-0,140	0,037
-659,174	323,603	-0,079	-0,111
-658,159	-200,000	-0,036	-0,226
-657,145	57,519	0,057	-0,041
-656,130	-200,000	0,022	-0,126
-655,116	-86,764	0,164	0,037
-654,101	5,304	0,211	0,115
-653,086	800,000	0,009	0,028
-652,072	45,638	-0,033	0,022
-651,057	800,000	0,005	-0,015
-650,043	-7,530	-0,115	0,057
-649,028	-200,000	0,001	0,047
-648,014	234,914	0,072	0,088
-646,999	-115,634	-0,146	0,020
-645,984	-166,406	0,129	0,004
-644,970	-43,270	0,081	-0,030
-643,955	800,000	-0,056	-0,153
-642,941	-150,288	0,018	-0,001
-641,926	-35,417	0,132	0,053
-640,911	159,061	-0,063	0,065
-639,897	-57,856	0,064	-0,021
-638,882	800,000	-0,047	-0,117
-637,868	800,000	0,017	0,042
-636,853	800,000	-0,025	0,057
-635,838	4,446	0,067	0,036
-634,824	-50,001	0,143	0,050
-633,809	-6,654	0,073	0,037
-632,795	-200,000	-0,012	0,066
-631,780	115,868	-0,011	-0,010
-630,765	-48,672	0,125	-0,044
-629,751	800,000	-0,060	-0,144
-628,736	800,000	-0,024	-0,051
-627,722	220,739	-0,042	0,050
-626,707	582,504	-0,018	0,033
-625,692	73,235	-0,028	0,022
-624,678	78,356	-0,160	0,127
-623,663	800,000	-0,039	0,099
-622,649	-139,769	-0,128	0,010
-621,634	-200,000	-0,016	-0,080
-620,619	-25,838	-0,039	-0,017
-619,605	62,534	0,073	-0,054
-618,590	-200,000	0,042	-0,151
-617,576	-38,327	0,074	-0,029
-616,561	-5,786	-0,099	-0,050
-615,546	-200,000	0,005	-0,024
-614,532	550,514	-0,123	-0,219
-613,517	-43,284	-0,131	0,049
-612,503	229,410	-0,041	0,049
-611,488	-129,086	0,136	-0,014
-610,474	214,819	-0,068	-0,079
-609,459	397,729	0,029	-0,046
-608,444	800,000	-0,085	-0,262
-607,430	210,251	-0,094	0,110
-606,415	-200,000	-0,005	-0,021
-605,401	155,967	-0,078	0,080
-604,386	210,090	0,049	0,057
-603,371	-200,000	0,010	-0,146
-602,357	-127,747	0,024	0,003
-601,342	38,237	-0,121	-0,080
-600,328	102,311	-0,076	-0,066
-599,313	800,000	-0,055	0,142
-598,298	359,610	0,021	0,031
-597,284	800,000	0,037	-0,084
-596,269	-200,000	0,012	-0,072
-595,255	-200,000	-0,007	0,077
-594,240	-88,468	0,111	0,024
-593,225	-200,000	-0,010	0,039
-592,211	-200,000	-0,010	0,068
-591,196	-10,826	0,039	-0,019
-590,182	48,739	-0,064	0,044
-589,167	-200,000	-0,001	0,018
-588,152	714,011	0,038	-0,074
-587,138	119,490	0,055	-0,050
-586,123	-200,000	-0,049	-0,190
-585,109	78,875	-0,070	0,056
-584,094	122,963	0,094	0,087
-583,079	132,249	0,122	0,117
-582,065	-200,000	-0,012	0,079
-581,050	-142,846	-0,057	-0,004
-580,036	-200,000	-0,020	0,157
-579,021	-200,000	0,020	-0,210
-578,006	-200,000	-0,003	-0,108
-576,992	340,452	0,127	-0,183
-575,977	-132,148	-0,236	-0,022
-574,963	34,814	0,224	-0,145
-573,948	-200,000	-0,010	0,125
-572,934	-90,096	-0,057	0,012
-571,919	27,053	0,088	-0,055
-570,904	6,861	-0,101	0,056
-569,890	-137,092	-0,080	0,007
-568,875	236,238	0,058	-0,071
-567,861	316,778	-0,049	-0,068
-566,846	-156,419	0,118	0,005
-565,831	138,449	-0,090	0,088
-564,817	-136,015	0,089	0,008
-563,802	186,375	-0,066	0,073
-562,788	324,533	0,055	0,078
-561,773	800,000	0,033	-0,078
-560,758	-117,147	0,220	0,029
-559,744	181,152	0,058	-0,064
-558,729	800,000	-0,016	0,050
-557,715	85,916	-0,055	-0,045
-556,700	72,062	-0,098	-0,075
-555,685	-200,000	-0,010	-0,036
-554,671	-200,000	-0,020	-0,151
-553,656	724,448	-0,044	0,086
-552,642	-43,083	0,039	-0,014
-551,627	-75,534	-0,074	-0,019
-550,612	360,165	0,002	-0,003
-549,598	256,030	-0,067	-0,085
-548,583	-158,138	-0,032	0,001
-547,569	-19,754	-0,021	-0,010
-546,554	-25,811	0,062	-0,027
-545,539	-113,056	0,035	0,005
-544,525	-121,965	0,059	-0,007
-543,510	-42,955	0,049	0,018
-542,496	800,000	-0,020	-0,046
-541,481	562,373	0,037	-0,066
-540,466	4,586	-0,053	-0,029
-539,452	-72,831	-0,088	0,024
-538,437	-200,000	-0,014	0,128
-537,423	31,930	0,063	-0,040
-536,408	4,062	-0,069	0,037
-535,393	800,000	0,030	0,066
-534,379	125,093	0,031	0,029
-533,364	314,936	0,022	-0,031
-532,350	203,802	-0,025	0,029
-531,335	-113,224	0,091	0,013
-530,321	-32,068	0,059	0,024
-529,306	-143,873	-0,141	0,010
-528,291	800,000	0,040	-0,121
-527,277	800,000	0,070	0,176
-526,262	143,459	-0,068	-0,067
-525,248	-124,747	0,048	-0,005
-524,233	84,403	-0,143	0,116
-523,218	-158,628	-0,017	0,001
-522,204	-200,000	-0,016	0,064
-521,189	140,010	-0,085	-0,083
-520,175	-200,000	0,007	-0,122
-519,160	-44,580	-0,042	-0,016
-518,145	347,257	0,036	-0,053
-517,131	-5,993	0,089	-0,045
-516,116	-200,000	-0,005	-0,133
-515,102	-5,413	0,117	0,059
-514,087	-200,000	0,025	0,115
-513,072	-54,638	-0,181	0,060
-512,058	185,060	-0,039	0,043
-511,043	-90,713	-0,119	0,025
-510,029	205,266	-0,024	0,027
-509,014	114,065	0,105	0,094
-507,999	-200,000	0,024	0,129
-506,985	-200,000	-0,005	0,046
-505,970	800,000	-0,041	0,093
-504,956	-200,000	0,001	-0,031
-503,941	-200,000	-0,009	-0,131
-502,926	-19,284	0,126	0,058
-501,912	-200,000	0,036	0,173
-500,897	407,750	0,050	0,079
-499,883	173,091	-0,067	-0,071
-498,868	-200,000	0,011	0,043
-497,853	320,693	0,037	-0,052
-496,839	67,354	0,171	-0,129
-495,824	375,534	-0,031	0,046
-494,810	800,000	0,032	0,085
-493,795	-5,541	-0,070	0,035
-492,781	7,717	0,127	0,070
-491,766	-180,798	-0,048	0,001
-490,751	166,346	-0,022	-0,022
-489,737	-147,081	0,121	-0,007
-488,722	-200,000	-0,033	-0,122
-487,708	238,847	0,039	-0,047
-486,693	576,172	-0,030	-0,054
-485,678	105,178	0,057	0,050
-484,664	84,625	0,029	-0,023
-483,649	357,241	-0,037	-0,054
-482,635	-200,000	-0,014	-0,079
-481,620	218,810	0,069	-0,082
-480,605	571,774	0,078	0,141
-479,591	-200,000	-0,001	-0,035
-478,576	-100,159	0,112	-0,020
-477,562	-200,000	-0,005	-0,179
-476,547	37,693	-0,174	-0,114
-475,532	-200,000	0,012	0,119
-474,518	800,000	0,054	0,158
-473,503	-200,000	0,020	-0,203
-472,489	800,000	-0,003	0,010
-471,474	54,061	0,075	-0,053
-470,459	130,405	0,028	-0,026
-469,445	646,413	0,042	-0,079
-468,430	106,586	-0,129	-0,113
-467,416	13,582	-0,112	0,064
-466,401	-200,000	0,006	0,078
-465,386	-200,000	-0,021	-0,091
-464,372	513,674	-0,014	0,025
-463,357	-63,217	0,054	0,016
-462,343	5,727	-0,062	0,034
-461,328	731,833	-0,046	0,091
-460,313	203,185	0,038	-0,044
-459,299	246,965	-0,033	0,041
-458,284	265,244	0,032	-0,041
-457,270	-137,273	0,082	-0,007
-456,255	-200,000	-0,008	-0,075
-455,241	229,794	-0,084	-0,101
-454,226	106,270	0,055	-0,048
-453,211	-36,884	-0,043	0,017
-452,197	239,415	0,089	0,109
-451,182	184,131	0,042	0,046
-450,168	-200,000	0,030	0,119
-449,153	607,685	0,014	0,027
-448,138	-200,000	-0,005	-0,084
-447,124	21,730	-0,083	-0,049
-446,109	-200,000	-0,013	-0,057
-445,095	-4,985	-0,097	-0,049
-444,080	475,099	-0,035	-0,059
-443,065	800,000	-0,051	-0,142
-442,051	800,000	0,022	-0,051
-441,036	265,571	-0,070	-0,090
-440,022	-20,114	-0,078	-0,035
-439,007	-200,000	0,011	-0,176
-437,992	-200,000	0,000	0,087
-436,978	-148,871	0,045	-0,003
-435,963	800,000	0,062	0,146
-434,949	-200,000	0,021	0,102
-433,934	-200,000	-0,003	-0,082
-432,919	800,000	0,043	-0,090
-431,905	-135,364	-0,101	-0,009
-430,890	-55,055	-0,091	-0,030
-429,876	800,000	0,041	0,098
-428,861	48,685	0,055	0,038
-427,846	302,037	-0,039	0,053
-426,832	254,802	-0,068	-0,086
-425,817	346,165	-0,050	-0,072
-424,803	154,015	-0,067	-0,068
-423,788	94,068	0,067	0,056
-422,773	-200,000	-0,012	0,125
-421,759	133,121	0,002	0,002
-420,744	525,239	0,042	0,073
-419,730	-200,000	0,015	-0,115
-418,715	-200,000	-0,013	-0,104
-417,701	-200,000	-0,007	0,049
-416,686	-200,000	0,008	-0,054
-415,671	800,000	-0,011	0,032
-414,657	-46,980	-0,045	0,016
-413,642	153,752	0,109	0,110
-412,628	3,818	0,098	-0,052
-411,613	579,249	-0,024	-0,043
-410,598	25,277	-0,069	0,042
-409,584	348,195	0,045	0,065
-408,569	800,000	0,033	0,068
-407,555	99,957	0,057	0,048
-406,540	-200,000	0,020	0,075
-405,525	-200,000	0,008	0,057
-404,511	23,330	-0,109	-0,065
-403,496	-96,879	-0,017	-0,003
-402,482	53,686	-0,121	-0,085
-401,467	-200,000	0,003	-0,102
-400,452	800,000	0,049	0,121
-399,438	356,673	-0,061	-0,090
-398,423	-200,000	-0,000	0,045
-397,409	246,398	0,054	-0,068
-396,394	-119,700	-0,093	0,012
-395,379	647,677	-0,041	-0,077
-394,365	800,000	0,070	0,149
-393,350	800,000	0,039	0,096
-392,336	123,857	0,090	0,083
-391,321	-200,000	0,014	-0,065
-390,306	-200,000	0,007	0,030
-389,292	397,944	-0,033	0,050
-388,277	-200,000	0,025	0,103
-387,263	-200,000	-0,002	0,019
-386,248	800,000	0,067	0,190
-385,233	672,691	-0,025	-0,048
-384,219	-45,050	-0,139	0,050
-383,204	-200,000	0,014	0,087
-382,190	-200,000	-0,012	-0,094
-381,175	-200,000	0,004	0,040
-380,160	-108,451	0,159	-0,025
-379,146	492,939	0,029	0,050
-378,131	800,000	0,067	0,142
-377,117	89,126	-0,080	-0,065
-376,102	-200,000	0,002	-0,101
-375,088	51,706	-0,077	0,054
-374,073	800,000	0,021	-0,068
-373,058	104,038	0,087	0,075
-372,044	-200,000	-0,006	0,077
-371,029	189,843	0,058	0,064
-370,015	197,647	-0,138	0,155
-369,000	15,597	-0,125	-0,072
-367,985	-83,546	-0,006	-0,001
-366,971	-50,928	0,121	0,042
-365,956	-51,554	0,153	0,052
-364,942	800,000	-0,031	-0,079
-363,927	133,426	0,149	0,141
-362,912	-200,000	-0,004	-0,065
-361,898	-32,750	-0,142	-0,058
-360,883	350,380	-0,030	-0,043
-359,869	-200,000	0,014	-0,078
-358,854	-175,295	-0,031	0,001
-357,839	-200,000	-0,013	0,084
-356,825	3,896	0,085	0,045
-355,810	-87,890	0,060	-0,013
-354,796	-200,000	0,021	0,107
-353,781	-200,000	0,012	-0,120
-352,766	441,055	0,051	-0,083
-351,752	-200,000	-0,019	-0,106
-350,737	-200,000	0,012	0,124
-349,723	460,584	0,039	0,063
-348,708	168,503	-0,019	-0,020
-347,693	800,000	-0,013	0,028
-346,679	-84,834	0,013	-0,003
-345,664	-72,831	-0,061	-0,016
-344,650	12,439	-0,129	0,073
-343,635	800,000	0,038	0,084
-342,620	124,960	0,111	-0,102
-341,606	-200,000	-0,006	-0,061
-340,591	146,292	0,024	-0,024
-339,577	-200,000	0,065	0,000
-338,562	672,568	-0,045	0,085
-337,548	194,610	0,023	-0,026
-336,533	534,834	0,044	0,077
-335,518	21,772	-0,056	0,033
-334,504	19,789	-0,040	-0,024
-333,489	4,669	-0,082	0,044
-332,475	158,357	-0,088	-0,089
-331,460	-23,839	-0,040	0,017
-330,445	-51,826	0,095	-0,032
-329,431	94,100	0,120	-0,099
-328,416	18,316	-0,073	-0,043
-327,402	-200,000	-0,011	-0,065
-326,387	252,662	0,023	-0,029
-325,372	-69,216	-0,057	-0,016
-324,358	264,921	-0,032	-0,041
-323,343	-53,588	-0,180	0,060
-322,329	196,314	0,046	-0,051
-321,314	800,000	-0,039	-0,095
-320,299	325,433	-0,035	0,049
-319,285	-126,873	-0,139	0,015
-318,270	780,030	-0,019	0,039
-317,256	800,000	0,049	-0,100
-316,241	-106,628	0,108	-0,017
-315,226	189,996	-0,010	0,012
-314,212	-200,000	-0,014	0,049
-313,197	-35,154	0,041	-0,016
-312,183	800,000	0,007	-0,018
-311,168	800,000	-0,022	-0,069
-310,153	6,687	-0,041	-0,022
-309,139	800,000	-0,023	0,071
-308,124	-97,797	0,044	0,008
-307,110	-200,000	-0,001	-0,020
-306,095	-112,587	0,069	0,010
-305,080	20,865	0,061	0,036
-304,066	481,706	-0,076	-0,127
-303,051	-200,000	0,023	0,108
-302,037	-200,000	-0,033	-0,207
-301,022	-141,397	-0,077	-0,006
-300,008	-110,096	-0,055	0,008
-298,993	-200,000	0,037	0,164
-297,978	551,021	-0,028	0,049
-296,964	-136,765	0,064	-0,005
-295,949	-200,000	0,023	-0,113
-294,935	-200,000	-0,021	-0,106
-293,920	-15,802	-0,191	-0,089
-292,905	540,141	0,128	0,224
-291,891	-78,970	0,114	-0,028
-290,876	-68,713	-0,060	-0,017
-289,862	-200,000	0,008	0,046
-288,847	-164,453	-0,028	-0,001
-287,832	-200,000	0,006	0,023
-286,818	-200,000	-0,007	-0,143
-285,803	266,493	0,008	-0,011
-284,789	-200,000	0,018	0,127
-283,774	800,000	-0,019	-0,043
-282,759	-167,616	-0,138	-0,004
-281,745	450,572	0,003	0,005
-280,730	58,243	-0,063	-0,045
-279,716	-200,000	0,010	-0,059
-278,701	-130,356	-0,113	-0,011
-277,686	-160,259	-0,040	-0,002
-276,672	-200,000	-0,010	0,155
-275,657	800,000	-0,071	0,147
-274,643	118,689	0,127	-0,115
-273,628	6,063	-0,075	-0,040
-272,613	140,492	-0,039	-0,037
-271,599	-200,000	0,003	-0,035
-270,584	-91,521	0,075	-0,016
-269,570	91,966	0,020	-0,016
-268,555	73,195	0,023	-0,017
-267,540	-74,264	-0,090	0,024
-266,526	-33,163	-0,049	0,020
-265,511	800,000	-0,041	-0,089
-264,497	159,651	0,133	0,136
-263,482	77,167	0,090	0,070
-262,467	-200,000	0,006	-0,059
-261,453	259,575	-0,062	-0,079
-260,438	148,362	-0,044	-0,044
-259,424	800,000	-0,017	-0,047
-258,409	44,484	-0,021	0,014
-257,395	-200,000	0,003	0,053
-256,380	800,000	-0,021	0,055
-255,365	-104,515	0,067	0,011
-254,351	-200,000	0,029	-0,118
-253,336	71,676	0,140	0,106
-252,322	336,499	0,052	-0,074
-251,307	-59,986	-0,093	0,029
-250,292	111,124	0,059	0,052
-249,278	-200,000	-0,028	0,118
-248,263	95,185	0,029	-0,024
-247,249	-149,311	0,050	0,003
-246,234	257,323	-0,037	0,046
-245,219	-200,000	0,016	0,090
-244,205	-200,000	-0,036	0,136
-243,190	-200,000	-0,020	0,080
-242,176	-44,615	-0,039	-0,014
-241,161	175,209	-0,003	0,003
-240,146	69,405	0,061	-0,046
-239,132	-146,981	-0,086	-0,005
-238,117	78,264	0,043	-0,033
-237,103	-114,359	-0,096	0,013
-236,088	-200,000	-0,002	0,047
-235,073	684,651	-0,008	0,016
-234,059	800,000	-0,038	0,078
-233,044	414,454	-0,055	0,085
-232,030	800,000	0,030	-0,092
-231,015	342,715	-0,056	-0,080
-230,000	-58,914	-0,038	0,012
-228,986	175,318	0,054	-0,058
-227,971	292,803	-0,041	0,055
-226,957	-48,920	0,099	0,034
-225,942	-200,000	0,019	0,126
-224,927	800,000	0,027	0,055
-223,913	800,000	-0,043	-0,138
-222,898	272,584	0,007	-0,009
-221,884	282,314	-0,058	0,076
-220,869	278,817	0,140	0,182
-219,855	-200,000	0,036	-0,122
-218,840	-200,000	0,035	0,199
-217,825	-200,000	0,027	0,174
-216,811	800,000	0,009	0,025
-215,796	800,000	-0,049	-0,113
-214,782	655,879	0,048	-0,090
-213,767	800,000	0,037	-0,090
-212,752	524,635	0,055	0,094
-211,738	415,896	-0,079	-0,124
-210,723	17,697	0,105	-0,061
-209,709	225,966	-0,063	0,075
-208,694	800,000	0,051	-0,144
-207,679	39,008	-0,056	0,036
-206,665	-69,677	0,037	0,010
-205,650	12,355	0,059	0,033
-204,636	-172,212	0,119	-0,003
-203,621	800,000	-0,071	0,169
-202,606	800,000	0,041	0,083
-201,592	99,198	-0,060	-0,051
-200,577	-200,000	-0,013	-0,052
-199,563	-117,221	-0,057	0,008
-198,548	-152,036	0,039	0,002
-197,533	101,923	0,059	0,050
-196,519	56,010	-0,118	0,083
-195,504	-38,892	0,085	-0,033
-194,490	800,000	0,053	-0,162
-193,475	-136,834	-0,069	0,006
-192,460	-200,000	0,022	-0,095
-191,446	25,854	0,040	-0,024
-190,431	-57,361	-0,096	-0,031
-189,417	800,000	0,011	0,028
-188,402	-74,928	0,176	-0,046
-187,387	-200,000	-0,008	0,027
-186,373	-140,097	0,078	0,006
-185,358	-82,087	-0,085	0,020
-184,344	-152,319	-0,017	-0,001
-183,329	800,000	-0,053	0,124
-182,315	102,193	0,100	0,085
-181,300	58,188	0,069	-0,049
-180,285	-7,949	-0,019	-0,009
-179,271	-200,000	0,009	-0,047
-178,256	-200,000	0,010	0,161
-177,242	413,832	-0,025	0,039
-176,227	-200,000	0,002	-0,081
-175,212	-196,060	-0,186	0,001
-174,198	-149,611	-0,085	-0,005
-173,183	-46,324	-0,138	0,049
-172,169	-108,777	-0,086	-0,013
-171,154	800,000	0,012	-0,036
-170,139	-80,384	0,086	0,021
-169,125	134,279	0,057	0,054
-168,110	-200,000	0,018	0,133
-167,096	-78,779	-0,066	0,016
-166,081	-69,120	-0,047	-0,013
-165,066	-122,255	0,110	-0,013
-164,052	-200,000	0,006	-0,041
-163,037	-55,844	0,108	-0,035
-162,023	92,986	0,048	-0,039
-161,008	205,349	-0,057	0,065
-159,993	203,645	-0,071	0,080
-158,979	295,972	0,065	-0,086
-157,964	-200,000	-0,002	-0,042
-156,950	99,572	0,036	-0,030
-155,935	49,661	0,085	0,058
-154,920	800,000	0,020	-0,061
-153,906	382,503	0,059	-0,089
-152,891	-200,000	-0,005	0,130
-151,877	13,438	-0,062	-0,035
-150,862	-200,000	0,006	0,023
-149,847	800,000	-0,009	0,024
-148,833	413,444	-0,070	0,108
-147,818	-92,307	0,107	0,022
-146,804	120,387	-0,033	0,030
-145,789	-1,289	0,080	0,041
-144,775	-200,000	-0,028	0,114
-143,760	-46,367	-0,150	-0,053
-142,745	-200,000	-0,026	-0,136
-141,731	148,752	-0,056	0,055
-140,716	232,039	-0,106	0,127
-139,702	569,163	0,029	0,051
-138,687	-175,402	0,030	-0,001
-137,672	-200,000	-0,017	-0,102
-136,658	226,395	0,021	-0,025
-135,643	34,328	-0,135	0,086
-134,629	463,805	0,043	-0,070
-133,614	123,261	-0,099	0,090
-132,599	-200,000	0,010	-0,044
-131,585	800,000	-0,010	-0,028
-130,570	162,895	0,102	-0,104
-129,556	151,046	-0,050	-0,050
-128,541	-141,802	-0,111	0,008
-127,526	-86,334	0,132	0,029
-126,512	262,784	-0,035	-0,045
-125,497	-47,917	0,044	-0,015
-124,483	-33,156	0,136	0,054
-123,468	238,956	0,031	-0,037
-122,453	-158,872	-0,155	-0,006
-121,439	-29,712	-0,029	0,012
-120,424	351,064	0,025	0,037
