DTS Sentinel unit serial number:	SN410029Multiplexer serial number:	ORYXHardware model number:	OX2-SRSoftware version number:	ORYX F/W v4,00 Oryx Data Collector v3.7.2.0data status	okinstallation	B6 Nyhavnadifferential loss correction	single-endedforward channel	channel 2reverse channel	N/Adate	2023/12/10time	21:05:08forward acquisition time	300,00reverse acquisition time	0,00gamma	499,1914k internal	0,3123k external	0,3123temperature offset calibration	1,0000default loss term (dB/km)	0,3820temperature slope calibration	1,0000multiplexer offset coefficient	1,0000multiplexer slope coefficient	1,0000fibre end	0,00T internal ref (°C)	22,25T ext. ref 1 (°C)	5,94T ext. ref 2 (°C)	5,93length (m)	temperature (°C)	Stokes	anti-Stokes-744,400	-200,000	-0,028	-0,116
-743,385	-5,231	-0,259	0,132
-742,371	800,000	0,076	0,176
-741,356	90,853	-0,185	0,154
-740,342	-200,000	0,026	-0,114
-739,327	-61,652	-0,239	0,074
-738,312	800,000	-0,061	-0,159
-737,298	-69,004	-0,273	0,078
-736,283	-97,461	0,082	-0,016
-735,269	87,956	-0,163	0,135
-734,254	-48,124	0,013	0,005
-733,239	-1,536	-0,394	-0,206
-732,225	-191,869	0,208	-0,001
-731,210	800,000	0,070	0,186
-730,196	800,000	-0,039	0,085
-729,181	-200,000	0,001	0,021
-728,167	133,976	0,030	-0,029
-727,152	367,510	-0,082	0,123
-726,137	-49,993	-0,013	0,005
-725,123	-54,081	-0,164	-0,055
-724,108	24,368	-0,116	-0,071
-723,094	483,097	0,029	0,048
-722,079	539,245	-0,021	-0,038
-721,064	-133,473	0,096	0,009
-720,050	132,611	-0,045	0,043
-719,035	59,032	-0,099	-0,072
-718,021	-48,805	-0,051	0,018
-717,006	218,946	-0,118	-0,141
-715,991	-141,078	0,068	-0,005
-714,977	-92,579	-0,062	-0,013
-713,962	800,000	-0,027	-0,077
-712,948	308,180	-0,050	0,070
-711,933	-191,035	0,052	-0,000
-710,918	125,991	-0,025	-0,024
-709,904	-200,000	-0,005	-0,075
-708,889	300,267	-0,022	-0,030
-707,875	662,392	0,062	-0,119
-706,860	800,000	0,029	-0,091
-705,845	-137,799	-0,083	0,007
-704,831	582,045	0,054	0,099
-703,816	-200,000	0,015	0,072
-702,802	242,632	0,074	0,092
-701,787	151,234	-0,047	-0,048
-700,772	800,000	-0,029	-0,090
-699,758	800,000	0,030	-0,080
-698,743	23,243	-0,047	-0,029
-697,729	-154,191	-0,210	0,010
-696,714	71,938	0,058	-0,045
-695,699	-200,000	0,031	-0,117
-694,685	800,000	-0,049	-0,107
-693,670	-138,531	0,149	0,012
-692,656	681,093	-0,037	0,071
-691,641	800,000	0,034	0,103
-690,627	-40,928	0,039	-0,015
-689,612	-95,365	0,102	0,020
-688,597	93,051	0,023	0,019
-687,583	634,522	-0,043	0,082
-686,568	800,000	-0,030	-0,078
-685,554	39,858	-0,050	0,033
-684,539	800,000	0,044	-0,124
-683,524	-0,069	-0,093	0,049
-682,510	-80,309	0,020	0,005
-681,495	-200,000	0,002	-0,018
-680,481	201,746	-0,122	-0,140
-679,466	-200,000	-0,016	-0,166
-678,451	800,000	-0,019	-0,053
-677,437	28,892	-0,031	-0,019
-676,422	79,454	-0,037	0,029
-675,408	-124,507	0,097	-0,011
-674,393	111,215	0,016	-0,014
-673,378	710,458	-0,048	-0,096
-672,364	580,797	0,012	0,021
-671,349	-16,919	-0,160	-0,075
-670,335	800,000	-0,043	-0,130
-669,320	-10,538	0,078	0,038
-668,305	-136,619	0,112	0,009
-667,291	20,975	-0,085	0,051
-666,276	600,841	-0,021	0,040
-665,262	-200,000	0,011	-0,145
-664,247	-200,000	-0,024	0,139
-663,232	-200,000	0,009	-0,070
-662,218	255,724	0,035	0,045
-661,203	800,000	0,031	0,065
-660,189	282,881	0,038	-0,051
-659,174	800,000	-0,045	0,109
-658,159	-200,000	-0,031	-0,135
-657,145	-200,000	-0,037	-0,124
-656,130	-68,030	0,100	0,029
-655,116	53,579	0,034	0,024
-654,101	-200,000	-0,029	0,110
-653,086	-135,954	0,047	0,004
-652,072	800,000	0,043	-0,125
-651,057	69,856	-0,121	-0,093
-650,043	115,264	0,099	-0,090
-649,028	-99,139	-0,036	0,007
-648,014	293,989	0,061	0,083
-646,999	306,810	-0,069	-0,096
-645,984	58,665	0,084	0,061
-644,970	-200,000	-0,016	0,093
-643,955	-47,955	-0,144	0,051
-642,941	800,000	-0,033	0,091
-641,926	-7,834	-0,098	-0,049
-640,911	-200,000	-0,000	0,033
-639,897	-112,631	0,125	-0,018
-638,882	333,794	-0,041	0,059
-637,868	34,866	0,110	-0,071
-636,853	36,165	-0,097	-0,063
-635,838	-70,494	-0,095	-0,026
-634,824	-200,000	0,040	0,135
-633,809	290,155	0,063	0,086
-632,795	-29,555	0,099	0,042
-631,780	8,213	0,089	0,049
-630,765	-48,084	0,145	0,052
-629,751	-45,590	-0,126	-0,046
-628,736	-122,182	-0,084	0,010
-627,722	773,586	-0,051	0,104
-626,707	-48,012	0,062	-0,022
-625,692	-84,142	-0,033	0,008
-624,678	-200,000	0,012	0,128
-623,663	5,635	-0,149	-0,082
-622,649	-7,995	-0,153	0,076
-621,634	-200,000	0,004	-0,114
-620,619	615,587	-0,082	-0,154
-619,605	203,358	0,041	0,047
-618,590	89,755	0,049	-0,041
-617,576	83,601	0,044	-0,036
-616,561	-79,555	-0,040	-0,010
-615,546	-200,000	0,039	0,173
-614,532	-200,000	0,021	0,090
-613,517	110,255	0,068	-0,061
-612,503	16,148	-0,080	-0,046
-611,488	489,477	0,073	0,124
-610,474	-43,184	-0,049	0,018
-609,459	62,792	0,075	-0,056
-608,444	800,000	-0,044	-0,092
-607,430	423,636	-0,037	0,059
-606,415	655,712	-0,020	0,038
-605,401	286,548	0,008	-0,011
-604,386	-34,354	0,068	0,028
-603,371	-107,597	-0,118	0,019
-602,357	-146,889	-0,052	0,003
-601,342	800,000	-0,016	0,043
-600,328	-37,849	-0,003	-0,001
-599,313	-200,000	0,009	-0,104
-598,298	263,415	-0,069	-0,089
-597,284	22,266	0,106	-0,064
-596,269	800,000	-0,018	0,040
-595,255	-167,544	-0,033	0,001
-594,240	-170,606	-0,106	-0,003
-593,225	-28,728	-0,082	0,035
-592,211	-200,000	0,006	-0,087
-591,196	-200,000	0,031	-0,136
-590,182	332,132	0,071	0,102
-589,167	-51,522	-0,026	0,009
-588,152	756,937	-0,078	0,158
-587,138	-38,360	0,087	-0,034
-586,123	800,000	0,003	-0,008
-585,109	218,151	-0,076	-0,090
-584,094	-142,545	-0,107	-0,008
-583,079	343,430	-0,122	-0,177
-582,065	27,725	-0,050	0,031
-581,050	-200,000	0,004	0,090
-580,036	-121,161	0,051	0,006
-579,021	-200,000	0,017	-0,116
-578,006	-11,127	0,138	-0,067
-576,992	651,418	0,028	0,053
-575,977	-42,084	0,099	0,038
-574,963	-200,000	-0,013	0,136
-573,948	-153,238	0,171	-0,009
-572,934	-178,301	-0,082	0,001
-571,919	-200,000	-0,094	-0,000
-570,904	-200,000	0,002	-0,071
-569,890	800,000	0,072	-0,162
-568,875	296,201	0,042	-0,057
-567,861	404,855	0,050	0,078
-566,846	-147,706	0,046	0,003
-565,831	-35,295	-0,067	0,027
-564,817	800,000	-0,023	0,061
-563,802	-200,000	-0,001	0,043
-562,788	-124,206	-0,126	-0,014
-561,773	-185,419	-0,053	0,001
-560,758	-12,046	-0,042	0,020
-559,744	-200,000	0,026	0,094
-558,729	254,261	0,023	-0,030
-557,715	-200,000	-0,002	-0,025
-556,700	244,702	0,013	0,016
-555,685	-82,351	0,159	-0,038
-554,671	414,668	-0,016	0,025
-553,656	-200,000	-0,017	0,109
-552,642	-200,000	0,009	0,063
-551,627	27,412	0,037	0,023
-550,612	-122,976	-0,085	0,010
-549,598	-94,670	0,038	-0,008
-548,583	-51,430	-0,017	0,006
-547,569	-183,018	-0,087	0,001
-546,554	308,820	0,056	0,078
-545,539	-200,000	-0,032	0,120
-544,525	-200,000	-0,003	0,123
-543,510	343,667	-0,058	0,084
-542,496	275,167	-0,068	-0,090
-541,481	-200,000	0,034	-0,119
-540,466	11,401	-0,061	0,035
-539,452	91,118	0,121	0,100
-538,437	-178,190	0,114	0,002
-537,423	121,543	0,051	-0,047
-536,408	-70,571	0,033	0,009
-535,393	-66,763	-0,026	0,007
-534,379	371,871	-0,031	-0,047
-533,364	150,429	0,091	0,091
-532,350	222,515	-0,058	0,069
-531,335	397,113	-0,023	0,036
-530,321	800,000	-0,043	-0,103
-529,306	-106,519	-0,151	-0,025
-528,291	-39,527	-0,040	0,015
-527,277	-200,000	-0,019	-0,063
-526,262	-200,000	0,005	0,054
-525,248	-161,114	0,113	-0,004
-524,233	92,815	0,094	0,078
-523,218	-33,204	-0,025	-0,010
-522,204	-179,907	-0,062	0,001
-521,189	469,479	-0,024	-0,040
-520,175	-200,000	-0,002	-0,056
-519,160	-52,208	0,041	-0,014
-518,145	-175,845	0,056	-0,001
-517,131	-200,000	-0,002	-0,022
-516,116	800,000	0,008	0,026
-515,102	27,887	0,041	-0,026
-514,087	138,401	-0,022	0,021
-513,072	73,480	-0,100	0,077
-512,058	-200,000	0,034	-0,118
-511,043	-200,000	-0,007	-0,093
-510,029	230,246	-0,073	0,088
-509,014	194,668	0,035	-0,039
-507,999	-133,429	-0,047	0,004
-506,985	-90,729	-0,134	-0,028
-505,970	152,950	-0,052	-0,053
-504,956	800,000	-0,028	0,075
-503,941	800,000	-0,033	-0,090
-502,926	46,826	0,074	-0,051
-501,912	-14,545	0,058	-0,028
-500,897	411,575	0,097	0,153
-499,883	387,205	0,039	0,060
-498,868	315,299	0,052	0,073
-497,853	-139,701	0,140	-0,011
-496,839	199,359	-0,064	0,072
-495,824	11,968	-0,084	0,048
-494,810	330,607	0,044	0,063
-493,795	-128,877	-0,094	0,010
-492,781	-0,390	0,064	-0,033
-491,766	203,594	0,037	0,043
-490,751	6,029	-0,100	-0,054
-489,737	-200,000	-0,005	0,029
-488,722	24,262	-0,083	-0,050
-487,708	176,041	-0,056	0,061
-486,693	-200,000	-0,009	-0,120
-485,678	800,000	-0,013	0,037
-484,664	-159,336	-0,015	-0,001
-483,649	-83,730	0,052	0,012
-482,635	-108,017	0,041	-0,007
-481,620	18,193	0,073	-0,043
-480,605	543,836	0,097	0,172
-479,591	-200,000	-0,016	-0,061
-478,576	-200,000	0,002	0,045
-477,562	162,270	0,126	-0,130
-476,547	189,118	-0,056	-0,062
-475,532	-200,000	-0,020	-0,075
-474,518	-58,542	0,096	-0,031
-473,503	11,337	0,176	0,099
-472,489	-200,000	-0,002	-0,066
-471,474	102,719	0,062	0,054
-470,459	-200,000	-0,001	0,030
-469,445	-141,115	0,035	0,003
-468,430	33,003	-0,010	-0,007
-467,416	800,000	-0,066	-0,155
-466,401	-83,941	0,070	-0,016
-465,386	-200,000	-0,001	0,030
-464,372	-5,849	-0,028	-0,014
-463,357	29,144	-0,104	-0,065
-462,343	391,239	0,050	-0,077
-461,328	-102,789	-0,120	0,021
-460,313	-108,901	0,084	-0,013
-459,299	540,716	0,008	-0,014
-458,284	201,008	-0,062	0,070
-457,270	800,000	0,053	0,129
-456,255	39,042	-0,108	-0,071
-455,241	592,207	-0,051	-0,094
-454,226	343,962	-0,043	-0,063
-453,211	150,587	0,044	0,044
-452,197	-200,000	0,005	0,048
-451,182	800,000	0,020	0,045
-450,168	-200,000	-0,039	-0,136
-449,153	800,000	0,027	-0,062
-448,138	-152,883	0,060	-0,003
-447,124	221,356	-0,091	-0,108
-446,109	349,275	-0,017	0,025
-445,095	197,151	0,018	-0,020
-444,080	-11,694	0,105	0,050
-443,065	-200,000	-0,018	0,117
-442,051	43,135	0,119	-0,080
-441,036	131,194	-0,042	-0,040
-440,022	79,174	0,039	-0,031
-439,007	-50,437	0,132	0,046
-437,992	-67,682	-0,120	-0,034
-436,978	-200,000	-0,004	-0,061
-435,963	-200,000	-0,018	0,189
-434,949	84,054	0,060	0,048
-433,934	306,087	0,012	-0,016
-432,919	-107,900	0,135	-0,021
-431,905	-200,000	-0,001	-0,058
-430,890	-138,291	0,062	0,005
-429,876	-42,388	0,091	0,034
-428,861	542,296	-0,036	0,063
-427,846	-200,000	-0,005	0,172
-426,832	181,479	0,088	-0,096
-425,817	-200,000	0,007	-0,144
-424,803	-151,556	-0,093	0,005
-423,788	-200,000	0,026	-0,091
-422,773	392,290	0,050	0,076
-421,759	92,919	-0,105	0,087
-420,744	-200,000	-0,001	-0,052
-419,730	-48,880	-0,078	-0,027
-418,715	299,207	-0,058	0,079
-417,701	-51,141	-0,060	-0,021
-416,686	-200,000	0,006	-0,088
-415,671	-108,730	0,112	0,018
-414,657	261,629	-0,070	0,089
-413,642	-91,296	-0,028	-0,006
-412,628	-78,433	-0,073	0,018
-411,613	336,591	-0,076	-0,109
-410,598	289,071	-0,108	-0,145
-409,584	-47,860	0,129	-0,046
-408,569	-109,675	-0,076	0,012
-407,555	-200,000	0,013	0,058
-406,540	800,000	-0,049	0,116
-405,525	800,000	-0,035	-0,072
-404,511	-143,339	-0,054	0,004
-403,496	800,000	0,013	-0,036
-402,482	-114,256	0,146	0,021
-401,467	-200,000	0,010	-0,081
-400,452	800,000	0,028	0,076
-399,438	197,432	-0,162	0,182
-398,423	18,002	-0,048	0,028
-397,409	-103,122	-0,151	-0,026
-396,394	555,041	-0,012	0,021
-395,379	96,827	-0,027	-0,023
-394,365	94,991	-0,005	-0,004
-393,350	-200,000	0,047	0,246
-392,336	557,386	-0,051	-0,091
-391,321	147,351	-0,058	-0,057
-390,306	-36,796	-0,104	-0,041
-389,292	-200,000	-0,024	0,114
-388,277	19,602	0,041	-0,024
-387,263	93,856	0,111	0,092
-386,248	58,481	0,094	0,068
-385,233	275,533	-0,071	0,093
-384,219	-77,276	-0,045	-0,011
-383,204	60,480	0,069	-0,050
-382,190	800,000	-0,061	-0,178
-381,175	800,000	-0,024	0,059
-380,160	-49,216	0,103	0,036
-379,146	-114,575	-0,022	0,003
-378,131	228,649	0,040	0,048
-377,117	-17,501	-0,038	0,018
-376,102	157,711	0,069	-0,071
-375,088	760,263	-0,007	0,015
-374,073	375,028	0,023	-0,035
-373,058	-200,000	-0,035	0,116
-372,044	-87,408	0,148	0,033
-371,029	-56,515	0,134	0,043
-370,015	242,079	0,091	-0,112
-369,000	-11,513	-0,114	-0,055
-367,985	-200,000	-0,005	-0,117
-366,971	365,439	-0,096	-0,142
-365,956	-50,929	0,050	0,017
-364,942	774,547	0,012	0,025
-363,927	-200,000	-0,004	0,071
-362,912	-200,000	0,034	-0,173
-361,898	800,000	-0,097	-0,216
-360,883	222,640	0,093	-0,110
-359,869	35,264	-0,101	0,065
-358,854	741,098	0,025	-0,050
-357,839	365,722	0,012	0,017
-356,825	800,000	-0,004	0,010
-355,810	-200,000	-0,037	0,124
-354,796	44,784	0,005	-0,004
-353,781	145,144	-0,088	-0,086
-352,766	-141,715	0,099	0,007
-351,752	-139,806	-0,039	0,003
-350,737	800,000	0,008	0,020
-349,723	45,221	0,085	0,058
-348,708	-136,820	0,136	-0,011
-347,693	17,313	-0,048	0,028
-346,679	-20,641	0,014	-0,006
-345,664	-86,938	0,100	-0,022
-344,650	-98,755	0,098	0,018
-343,635	800,000	0,066	0,136
-342,620	201,610	0,043	0,049
-341,606	-200,000	0,015	-0,091
-340,591	-200,000	-0,006	0,061
-339,577	149,749	-0,023	0,023
-338,562	313,879	-0,045	-0,062
-337,548	3,903	-0,055	-0,029
-336,533	-200,000	0,001	-0,048
-335,518	800,000	0,059	-0,149
-334,504	-200,000	-0,011	0,130
-333,489	-41,883	0,094	0,035
-332,475	-51,565	-0,083	0,028
-331,460	18,173	-0,107	0,062
-330,445	-186,717	-0,060	-0,001
-329,431	-200,000	0,012	-0,109
-328,416	-94,528	0,035	-0,007
-327,402	25,272	0,074	0,045
-326,387	425,709	-0,028	-0,044
-325,372	-28,258	-0,200	-0,084
-324,358	800,000	-0,047	-0,112
-323,343	-178,614	0,132	-0,002
-322,329	622,747	0,023	-0,043
-321,314	432,709	0,037	-0,060
-320,299	165,615	0,031	0,033
-319,285	22,076	-0,071	0,042
-318,270	-91,833	-0,110	0,023
-317,256	-43,095	-0,179	0,066
-316,241	-77,893	0,124	-0,031
-315,226	-200,000	0,004	-0,068
-314,212	165,724	0,046	-0,048
-313,197	800,000	0,071	0,188
-312,183	800,000	0,030	-0,095
-311,168	-200,000	-0,003	0,127
-310,153	364,661	-0,026	-0,038
-309,139	224,936	0,086	0,102
-308,124	800,000	-0,038	0,108
-307,110	152,557	0,051	0,051
-306,095	-200,000	0,007	0,101
-305,080	-149,144	-0,056	0,003
-304,066	-57,333	0,092	-0,029
-303,051	699,592	0,096	-0,186
-302,037	-26,428	-0,151	-0,064
-301,022	-97,365	0,037	0,007
-300,008	98,840	0,089	-0,075
-298,993	9,038	-0,045	-0,025
-297,978	-124,113	0,080	-0,009
-296,964	-136,725	0,091	-0,008
-295,949	87,793	-0,065	0,053
-294,935	189,668	-0,055	0,061
-293,920	-200,000	0,002	-0,121
-292,905	54,502	0,118	0,083
-291,891	17,665	-0,020	-0,012
-290,876	-200,000	0,010	0,044
-289,862	22,157	0,074	-0,044
-288,847	-200,000	0,019	-0,079
-287,832	-200,000	-0,038	-0,138
-286,818	106,646	0,086	-0,074
-285,803	55,844	-0,031	0,022
-284,789	800,000	-0,025	-0,079
-283,774	-200,000	0,005	-0,029
-282,759	46,916	-0,089	0,060
-281,745	-162,362	-0,056	0,002
-280,730	26,753	0,129	-0,079
-279,716	104,177	-0,031	0,027
-278,701	395,144	0,097	0,148
-277,686	-200,000	-0,055	-0,243
-276,672	-15,195	0,124	0,058
-275,657	-134,409	0,070	0,006
-274,643	800,000	-0,040	-0,120
-273,628	234,453	-0,042	-0,051
-272,613	397,377	-0,038	-0,058
-271,599	-200,000	-0,004	0,028
-270,584	-22,114	-0,143	0,063
-269,570	194,761	-0,080	-0,089
-268,555	72,378	-0,062	-0,047
-267,540	-6,497	0,056	-0,028
-266,526	-200,000	0,032	0,140
-265,511	-101,130	0,083	-0,015
-264,497	4,130	0,046	-0,025
-263,482	52,863	0,091	0,064
-262,467	-200,000	0,012	0,071
-261,453	111,091	0,036	-0,032
-260,438	-200,000	-0,017	-0,094
-259,424	-98,623	-0,066	0,012
-258,409	99,997	0,034	-0,029
-257,395	296,325	-0,018	0,025
-256,380	-200,000	0,029	0,116
-255,365	22,876	0,084	0,050
-254,351	-200,000	-0,003	-0,064
-253,336	-16,054	0,037	-0,017
-252,322	800,000	-0,039	-0,084
-251,307	-112,953	0,053	-0,008
-250,292	32,953	-0,034	-0,021
-249,278	600,441	0,050	-0,090
-248,263	25,403	-0,059	0,036
-247,249	8,299	0,091	0,050
-246,234	800,000	0,067	0,147
-245,219	800,000	-0,055	-0,123
-244,205	-44,722	0,052	-0,019
-243,190	6,643	-0,037	0,020
-242,176	72,155	0,039	-0,029
-241,161	181,255	-0,054	0,058
-240,146	390,751	0,064	0,097
-239,132	-79,653	-0,091	-0,022
-238,117	-79,374	-0,166	-0,041
-237,103	16,536	-0,063	-0,036
-236,088	532,566	0,047	0,081
-235,073	-200,000	0,018	0,067
-234,059	88,722	0,037	0,030
-233,044	-200,000	0,021	0,094
-232,030	-78,008	-0,074	0,018
-231,015	-159,030	-0,060	-0,002
-230,000	175,983	-0,058	-0,062
-228,986	-53,381	0,091	0,030
-227,971	144,441	0,027	-0,027
-226,957	-200,000	0,002	-0,121
-225,942	418,374	-0,047	-0,073
-224,927	-118,245	-0,111	-0,014
-223,913	-160,041	-0,075	-0,003
-222,898	65,574	-0,059	-0,044
-221,884	121,804	0,172	-0,156
-220,869	-130,434	0,059	-0,006
-219,855	800,000	0,061	0,159
-218,840	-200,000	-0,004	0,056
-217,825	602,348	-0,081	-0,148
-216,811	178,263	-0,064	0,068
-215,796	-135,029	-0,089	0,008
-214,782	28,596	-0,084	-0,052
-213,767	-16,206	0,119	-0,055
-212,752	-200,000	0,017	0,060
-211,738	-33,454	0,080	0,032
-210,723	45,275	-0,057	0,038
-209,709	-114,233	0,105	0,015
-208,694	800,000	-0,063	-0,160
-207,679	-84,190	-0,035	0,008
-206,665	-200,000	0,001	-0,006
-205,650	800,000	-0,026	0,054
-204,636	199,762	0,042	-0,047
-203,621	800,000	0,058	-0,138
-202,606	-59,049	0,047	-0,015
-201,592	352,521	0,057	0,083
-200,577	8,194	-0,073	0,040
-199,563	800,000	-0,025	-0,059
-198,548	-33,711	0,105	0,042
-197,533	6,100	0,034	-0,019
-196,519	-44,028	0,079	0,029
-195,504	-29,621	-0,103	0,043
-194,490	-200,000	0,028	-0,134
-193,475	-55,457	-0,065	-0,021
-192,460	213,237	0,053	-0,061
-191,446	-200,000	-0,005	0,127
-190,431	184,376	0,048	-0,052
-189,417	291,352	0,056	0,075
-188,402	800,000	-0,061	0,155
-187,387	538,998	0,099	-0,173
-186,373	82,571	-0,151	-0,119
-185,358	-159,809	0,146	-0,006
-184,344	441,727	0,041	0,065
-183,329	753,305	-0,060	0,118
-182,315	-76,133	-0,072	0,018
-181,300	-200,000	0,017	-0,096
-180,285	-200,000	-0,027	0,143
-179,271	-58,685	-0,062	0,019
-178,256	800,000	0,040	-0,103
-177,242	41,046	-0,130	-0,086
-176,227	404,928	-0,048	-0,074
-175,212	-63,611	0,133	-0,039
-174,198	226,661	-0,036	-0,043
-173,183	-200,000	-0,024	-0,108
-172,169	647,629	-0,033	0,061
-171,154	-96,135	-0,080	0,015
-170,139	-16,194	0,124	0,057
-169,125	800,000	-0,055	0,120
-168,110	-76,557	-0,053	-0,013
-167,096	24,312	-0,083	-0,050
-166,081	22,799	-0,108	0,064
-165,066	-5,455	-0,042	0,021
-164,052	-200,000	0,024	0,164
-163,037	-74,925	-0,259	0,067
-162,023	332,795	0,117	0,165
-161,008	564,096	-0,061	0,109
-159,993	-200,000	0,022	-0,069
-158,979	566,532	-0,029	0,051
-157,964	57,723	0,062	-0,044
-156,950	-200,000	-0,030	-0,103
-155,935	-36,989	0,080	-0,031
-154,920	20,616	0,110	0,065
-153,906	2,582	0,055	-0,029
-152,891	-200,000	-0,013	0,087
-151,877	-200,000	-0,012	0,048
-150,862	-73,487	0,098	0,026
-149,847	28,234	0,067	-0,041
-148,833	-88,047	-0,040	-0,009
-147,818	-200,000	0,009	0,052
-146,804	800,000	-0,037	0,086
-145,789	-45,799	-0,098	0,035
-144,775	297,275	0,066	-0,089
-143,760	5,278	0,030	-0,016
-142,745	719,673	-0,037	-0,071
-141,731	207,081	-0,068	0,077
-140,716	679,204	0,049	-0,094
-139,702	32,168	0,054	0,034
-138,687	660,499	-0,045	0,085
-137,672	800,000	0,007	-0,018
-136,658	385,004	0,047	-0,070
-135,643	-80,338	0,125	-0,030
-134,629	182,386	0,058	0,062
-133,614	97,910	0,030	0,025
-132,599	-86,002	0,082	-0,018
-131,585	100,195	-0,012	0,010
-130,570	-200,000	0,009	0,075
-129,556	-200,000	-0,011	0,077
-128,541	800,000	-0,051	0,121
-127,526	800,000	0,025	0,070
-126,512	-36,792	0,083	-0,032
-125,497	280,513	0,062	0,081
-124,483	-92,678	0,086	0,017
-123,468	292,449	0,041	-0,054
-122,453	444,361	0,082	-0,131
-121,439	-44,107	-0,097	-0,035
-120,424	137,672	0,014	-0,013
-119,410	90,596	0,050	-0,041
-118,395	800,000	-0,044	0,125
