DTS Sentinel unit serial number:	SN410029Multiplexer serial number:	ORYXHardware model number:	OX2-SRSoftware version number:	ORYX F/W v4,00 Oryx Data Collector v3.7.2.0data status	okinstallation	B6 Nyhavnadifferential loss correction	single-endedforward channel	channel 2reverse channel	N/Adate	2023/12/09time	22:55:08forward acquisition time	300,00reverse acquisition time	0,00gamma	499,1914k internal	0,3127k external	0,3127temperature offset calibration	1,0000default loss term (dB/km)	0,3820temperature slope calibration	1,0000multiplexer offset coefficient	1,0000multiplexer slope coefficient	1,0000fibre end	0,00T internal ref (°C)	21,69T ext. ref 1 (°C)	5,43T ext. ref 2 (°C)	5,42length (m)	temperature (°C)	Stokes	anti-Stokes-744,400	84,670	-0,019	0,015
-743,385	44,059	-0,221	0,151
-742,371	-124,057	0,168	0,019
-741,356	10,387	-0,206	0,117
-740,342	-85,721	-0,043	0,010
-739,327	175,674	-0,193	0,209
-738,312	-200,000	0,018	-0,070
-737,298	-86,412	-0,290	0,066
-736,283	649,660	0,039	-0,074
-735,269	800,000	-0,038	0,082
-734,254	-133,354	0,081	0,007
-733,239	-54,872	-0,451	-0,151
-732,225	600,987	0,034	0,064
-731,210	362,441	-0,095	0,142
-730,196	-91,388	-0,118	0,025
-729,181	-177,464	-0,131	0,002
-728,167	127,175	-0,068	0,064
-727,152	-200,000	-0,011	-0,057
-726,137	-67,840	-0,042	0,012
-725,123	-200,000	-0,021	-0,081
-724,108	-88,735	-0,077	0,017
-723,094	-84,334	-0,112	0,026
-722,079	-97,572	-0,186	0,036
-721,064	405,324	0,086	-0,136
-720,050	800,000	-0,009	0,023
-719,035	-200,000	0,035	-0,115
-718,021	-200,000	-0,014	-0,082
-717,006	320,662	-0,039	-0,055
-715,991	-134,589	-0,088	-0,008
-714,977	-32,311	-0,142	-0,059
-713,962	-181,597	-0,079	0,001
-712,948	-114,577	0,050	0,007
-711,933	800,000	0,013	0,042
-710,918	-200,000	0,031	0,254
-709,904	800,000	0,026	-0,066
-708,889	-200,000	0,004	-0,116
-707,875	800,000	-0,035	-0,095
-706,860	518,049	0,009	0,015
-705,845	-62,454	-0,119	-0,037
-704,831	-200,000	0,015	-0,053
-703,816	-116,206	-0,057	-0,008
-702,802	56,085	0,062	-0,044
-701,787	-200,000	-0,008	-0,173
-700,772	-48,375	-0,090	0,032
-699,758	22,821	-0,067	0,041
-698,743	83,452	0,101	0,082
-697,729	-200,000	0,036	-0,157
-696,714	123,352	-0,117	-0,109
-695,699	-126,501	-0,218	0,024
-694,685	-200,000	-0,009	-0,147
-693,670	-126,311	-0,178	-0,020
-692,656	800,000	-0,041	-0,090
-691,641	273,432	-0,050	0,066
-690,627	-89,829	0,145	0,031
-689,612	-200,000	-0,003	0,064
-688,597	90,347	0,065	0,054
-687,583	-200,000	-0,025	-0,108
-686,568	78,226	-0,086	0,068
-685,554	72,291	0,074	-0,057
-684,539	-20,639	-0,045	-0,021
-683,524	496,197	-0,020	-0,035
-682,510	-200,000	-0,032	-0,207
-681,495	32,987	-0,087	0,056
-680,481	-26,282	-0,045	0,020
-679,466	-200,000	0,012	-0,159
-678,451	-91,518	-0,020	0,004
-677,437	800,000	0,017	-0,040
-676,422	471,214	0,014	0,024
-675,408	19,131	0,039	0,023
-674,393	-118,247	-0,063	0,008
-673,378	169,758	-0,118	-0,125
-672,364	131,441	-0,035	-0,034
-671,349	-7,796	-0,092	0,046
-670,335	18,222	0,015	0,009
-669,320	800,000	0,032	0,076
-668,305	-167,223	0,124	0,004
-667,291	-113,371	-0,150	-0,022
-666,276	-6,987	-0,163	0,082
-665,262	442,908	-0,061	-0,099
-664,247	-200,000	-0,013	-0,081
-663,232	13,159	-0,133	0,076
-662,218	86,424	0,049	-0,040
-661,203	-129,708	-0,121	-0,012
-660,189	134,943	-0,111	-0,107
-659,174	-77,545	-0,162	-0,041
-658,159	288,715	0,040	0,054
-657,145	79,444	-0,063	-0,050
-656,130	-200,000	-0,001	-0,034
-655,116	-178,692	0,112	0,002
-654,101	-59,432	0,037	-0,012
-653,086	-6,688	-0,041	-0,021
-652,072	188,806	-0,076	-0,084
-651,057	-168,751	-0,090	-0,002
-650,043	-14,196	-0,115	0,055
-649,028	69,997	-0,119	0,091
-648,014	-99,871	0,146	-0,027
-646,999	390,775	-0,027	0,042
-645,984	-200,000	0,018	-0,136
-644,970	24,341	-0,063	0,039
-643,955	-130,742	-0,082	0,008
-642,941	-200,000	-0,007	-0,146
-641,926	8,951	0,029	0,016
-640,911	256,636	0,029	0,038
-639,897	-11,727	-0,046	0,023
-638,882	800,000	-0,022	0,059
-637,868	-200,000	0,000	0,046
-636,853	-4,085	-0,114	-0,058
-635,838	-27,073	-0,141	0,061
-634,824	249,644	0,051	-0,064
-633,809	-160,518	-0,084	-0,003
-632,795	-200,000	0,007	0,034
-631,780	-6,876	-0,030	0,015
-630,765	352,267	0,033	-0,048
-629,751	-200,000	-0,007	-0,051
-628,736	-200,000	0,008	-0,102
-627,722	800,000	0,040	-0,099
-626,707	800,000	-0,023	0,071
-625,692	-200,000	-0,008	0,033
-624,678	-16,079	-0,042	-0,020
-623,663	-110,987	0,035	-0,005
-622,649	-134,472	-0,057	0,005
-621,634	-129,298	0,063	-0,006
-620,619	74,116	-0,162	-0,126
-619,605	800,000	0,017	0,036
-618,590	244,362	0,037	-0,046
-617,576	358,684	0,052	-0,077
-616,561	-200,000	-0,029	0,161
-615,546	-84,068	0,161	0,038
-614,532	-200,000	0,007	-0,048
-613,517	102,103	-0,049	-0,042
-612,503	102,810	-0,047	0,041
-611,488	-200,000	0,031	0,216
-610,474	-200,000	-0,044	0,156
-609,459	-31,971	0,012	-0,005
-608,444	52,620	0,039	0,027
-607,430	-200,000	0,010	-0,097
-606,415	184,150	-0,063	-0,069
-605,401	-50,594	0,098	0,034
-604,386	-200,000	-0,011	-0,055
-603,371	-30,223	0,078	-0,033
-602,357	413,569	0,067	0,106
-601,342	88,558	-0,107	-0,088
-600,328	800,000	0,053	-0,124
-599,313	-100,239	-0,097	0,018
-598,298	540,696	-0,019	0,033
-597,284	211,613	0,010	0,012
-596,269	-153,556	0,062	-0,003
-595,255	-200,000	-0,005	0,121
-594,240	-200,000	-0,000	0,068
-593,225	68,206	-0,012	0,009
-592,211	-200,000	0,006	-0,106
-591,196	-110,262	-0,107	-0,016
-590,182	-93,408	0,164	-0,033
-589,167	-148,637	0,010	-0,001
-588,152	-155,129	0,096	0,005
-587,138	-91,841	-0,138	-0,029
-586,123	-200,000	-0,029	-0,130
-585,109	52,080	-0,121	-0,085
-584,094	-25,863	-0,121	0,052
-583,079	91,588	-0,025	0,021
-582,065	368,250	-0,051	0,076
-581,050	154,428	0,023	-0,023
-580,036	57,435	0,053	-0,038
-579,021	-70,858	0,094	-0,026
-578,006	232,689	0,055	-0,067
-576,992	800,000	-0,011	0,024
-575,977	-43,652	0,032	-0,012
-574,963	24,707	0,021	0,013
-573,948	800,000	0,020	0,053
-572,934	-200,000	0,001	-0,041
-571,919	800,000	0,022	0,072
-570,904	12,772	-0,162	-0,092
-569,890	240,150	-0,027	-0,034
-568,875	-100,459	-0,040	0,007
-567,861	63,381	0,101	-0,075
-566,846	391,242	-0,038	-0,058
-565,831	-200,000	-0,004	0,045
-564,817	-200,000	-0,036	-0,119
-563,802	-90,089	-0,103	-0,022
-562,788	673,415	0,020	0,039
-561,773	-68,998	-0,097	-0,028
-560,758	276,118	-0,042	0,055
-559,744	-200,000	-0,045	0,167
-558,729	762,191	-0,016	0,033
-557,715	715,974	-0,047	0,093
-556,700	42,873	-0,116	0,078
-555,685	405,371	-0,042	0,065
-554,671	-84,003	0,142	0,033
-553,656	-200,000	-0,010	-0,039
-552,642	-200,000	-0,016	0,071
-551,627	-51,805	0,121	-0,041
-550,612	117,983	0,043	-0,039
-549,598	-200,000	0,027	-0,178
-548,583	-200,000	0,031	0,115
-547,569	15,686	0,094	0,054
-546,554	-200,000	0,000	0,096
-545,539	120,547	-0,099	0,091
-544,525	15,395	0,050	-0,029
-543,510	8,346	-0,045	-0,025
-542,496	123,177	0,102	-0,095
-541,481	-200,000	0,034	-0,143
-540,466	-200,000	0,001	-0,029
-539,452	510,848	-0,029	0,051
-538,437	-38,082	-0,030	0,012
-537,423	800,000	0,016	-0,037
-536,408	-160,066	0,048	0,002
-535,393	51,903	-0,104	-0,073
-534,379	549,811	-0,044	-0,078
-533,364	172,633	0,023	-0,025
-532,350	-200,000	0,018	0,074
-531,335	-161,849	-0,130	0,005
-530,321	-97,136	0,006	0,001
-529,306	594,093	-0,023	0,043
-528,291	508,399	0,069	-0,118
-527,277	-110,622	-0,107	-0,016
-526,262	177,416	0,070	0,076
-525,248	9,327	0,055	-0,031
-524,233	-25,034	-0,075	-0,033
-523,218	-200,000	0,022	0,105
-522,204	-112,545	-0,053	0,008
-521,189	-200,000	0,002	-0,031
-520,175	-200,000	-0,000	-0,023
-519,160	-88,258	-0,204	-0,045
-518,145	78,034	0,062	0,049
-517,131	153,567	0,046	-0,047
-516,116	-15,183	-0,137	0,065
-515,102	109,170	-0,121	-0,107
-514,087	-200,000	0,020	0,141
-513,072	8,635	-0,063	-0,035
-512,058	-26,889	0,064	0,027
-511,043	559,780	0,019	0,034
-510,029	-200,000	0,022	0,135
-509,014	87,436	0,067	-0,055
-507,999	-200,000	-0,001	-0,049
-506,985	20,165	-0,087	-0,052
-505,970	800,000	0,040	-0,128
-504,956	-23,008	-0,129	-0,057
-503,941	150,991	0,014	-0,015
-502,926	-200,000	0,003	-0,030
-501,912	800,000	0,056	-0,144
-500,897	134,514	0,044	0,042
-499,883	-200,000	-0,005	-0,029
-498,868	232,961	0,037	0,045
-497,853	-34,903	-0,035	0,014
-496,839	800,000	0,033	0,078
-495,824	187,802	0,044	0,049
-494,810	-94,468	-0,008	-0,002
-493,795	-40,148	0,118	-0,045
-492,781	-132,191	-0,090	-0,009
-491,766	407,745	0,101	-0,158
-490,751	-113,237	-0,108	0,015
-489,737	800,000	0,051	-0,112
-488,722	-200,000	-0,006	0,123
-487,708	149,334	-0,038	0,038
-486,693	224,533	0,063	-0,075
-485,678	441,953	-0,039	-0,064
-484,664	21,603	-0,120	0,072
-483,649	196,113	-0,053	-0,059
-482,635	224,820	-0,044	-0,053
-481,620	689,526	0,057	-0,111
-480,605	-200,000	0,007	0,026
-479,591	55,673	-0,019	-0,014
-478,576	-200,000	0,027	0,089
-477,562	800,000	-0,031	0,067
-476,547	352,578	-0,105	-0,154
-475,532	148,525	-0,074	-0,073
-474,518	53,140	0,029	0,021
-473,503	-107,505	0,112	-0,018
-472,489	34,746	0,089	0,057
-471,474	-187,248	0,137	-0,001
-470,459	10,558	-0,085	0,048
-469,445	130,013	-0,090	0,085
-468,430	577,116	0,053	-0,097
-467,416	332,594	0,051	-0,073
-466,401	800,000	-0,044	0,137
-465,386	177,097	0,076	-0,082
-464,372	800,000	-0,041	0,091
-463,357	193,442	0,109	0,122
-462,343	-200,000	0,014	-0,105
-461,328	-200,000	0,043	-0,143
-460,313	586,287	0,029	-0,052
-459,299	70,391	-0,057	-0,043
-458,284	13,906	0,119	0,068
-457,270	800,000	0,036	-0,089
-456,255	-200,000	-0,015	0,079
-455,241	126,166	-0,097	0,090
-454,226	-129,688	0,109	-0,011
-453,211	60,151	-0,051	-0,037
-452,197	-200,000	-0,011	-0,086
-451,182	-50,182	-0,115	0,040
-450,168	-125,277	0,062	-0,007
-449,153	51,741	-0,058	0,041
-448,138	-66,564	-0,102	0,030
-447,124	-200,000	0,025	0,181
-446,109	379,407	0,058	-0,087
-445,095	-10,194	-0,047	-0,023
-444,080	800,000	0,008	0,021
-443,065	356,905	0,064	0,094
-442,051	-159,675	0,094	-0,004
-441,036	63,693	-0,062	-0,046
-440,022	193,543	-0,068	-0,076
-439,007	2,709	0,148	0,079
-437,992	388,272	0,040	-0,060
-436,978	-200,000	-0,009	0,033
-435,963	-28,750	0,085	-0,036
-434,949	-36,218	-0,090	-0,035
-433,934	64,716	-0,087	-0,064
-432,919	170,986	0,065	-0,069
-431,905	-200,000	-0,028	-0,181
-430,890	507,849	0,017	-0,029
-429,876	-29,801	0,135	0,056
-428,861	260,408	-0,072	0,091
-427,846	55,245	-0,016	-0,011
-426,832	800,000	0,029	0,092
-425,817	-200,000	0,010	-0,037
-424,803	627,038	0,026	-0,048
-423,788	-200,000	0,017	-0,057
-422,773	170,882	0,075	0,079
-421,759	53,446	0,033	0,023
-420,744	-200,000	-0,014	-0,077
-419,730	-45,824	-0,087	-0,031
-418,715	-153,469	0,185	0,009
-417,701	800,000	-0,049	-0,128
-416,686	800,000	-0,018	0,043
-415,671	-200,000	0,025	0,138
-414,657	10,582	0,076	0,042
-413,642	-200,000	0,009	0,044
-412,628	-200,000	-0,000	0,013
-411,613	-200,000	0,002	0,051
-410,598	409,644	-0,095	-0,148
-409,584	46,818	0,093	0,063
-408,569	31,673	-0,045	0,028
-407,555	6,130	0,116	0,063
-406,540	279,424	-0,055	-0,073
-405,525	396,611	0,099	-0,153
-404,511	-200,000	-0,001	0,045
-403,496	47,476	-0,055	-0,037
-402,482	-38,296	-0,019	0,007
-401,467	-200,000	-0,022	0,140
-400,452	800,000	-0,018	-0,055
-399,438	433,124	0,081	0,129
-398,423	33,237	-0,061	-0,039
-397,409	800,000	0,037	-0,105
-396,394	-68,827	0,039	0,011
-395,379	-63,962	-0,074	0,022
-394,365	-200,000	0,038	0,147
-393,350	258,578	0,069	-0,088
-392,336	-200,000	0,005	0,075
-391,321	-97,002	-0,111	-0,021
-390,306	201,344	0,033	0,038
-389,292	-152,309	0,035	-0,002
-388,277	-114,680	0,102	0,014
-387,263	42,787	0,065	0,044
-386,248	-200,000	0,005	0,095
-385,233	-200,000	-0,102	0,000
-384,219	-155,272	-0,056	-0,003
-383,204	39,926	-0,027	0,018
-382,190	147,332	-0,086	-0,085
-381,175	-20,035	0,055	-0,025
-380,160	-200,000	0,018	0,115
-379,146	-200,000	0,014	0,140
-378,131	800,000	-0,035	0,113
-377,117	-160,468	0,173	-0,007
-376,102	-200,000	0,005	0,074
-375,088	800,000	0,074	-0,164
-374,073	96,559	0,058	0,049
-373,058	-77,456	0,148	-0,037
-372,044	-39,507	-0,028	0,011
-371,029	136,590	-0,054	0,052
-370,015	11,944	-0,054	-0,030
-369,000	8,505	-0,030	-0,017
-367,985	-96,278	0,042	-0,008
-366,971	-200,000	0,017	-0,074
-365,956	238,265	-0,049	-0,060
-364,942	-180,614	0,138	-0,002
-363,927	-34,320	0,067	0,027
-362,912	-123,294	-0,207	-0,024
-361,898	-126,882	-0,104	0,011
-360,883	800,000	-0,041	-0,108
-359,869	-64,925	0,105	0,031
-358,854	-6,553	-0,068	0,034
-357,839	-49,893	0,203	0,070
-356,825	424,316	-0,035	0,056
-355,810	62,169	0,120	-0,088
-354,796	9,506	0,085	0,047
-353,781	-47,816	-0,063	-0,022
-352,766	542,479	0,038	0,066
-351,752	-62,617	-0,078	-0,024
-350,737	61,934	0,096	0,070
-349,723	-200,000	0,022	0,089
-348,708	32,194	-0,057	0,036
-347,693	184,810	-0,085	-0,092
-346,679	-200,000	-0,011	-0,062
-345,664	-200,000	0,039	0,133
-344,650	30,528	-0,046	-0,029
-343,635	282,908	-0,034	0,045
-342,620	10,051	0,022	-0,012
-341,606	-200,000	0,001	-0,113
-340,591	76,833	0,052	-0,040
-339,577	147,108	0,125	-0,123
-338,562	800,000	-0,053	-0,127
-337,548	33,711	-0,077	-0,049
-336,533	-132,512	0,183	0,017
-335,518	28,585	-0,077	0,048
-334,504	759,303	-0,065	0,129
-333,489	74,562	-0,087	-0,067
-332,475	604,997	0,035	-0,065
-331,460	800,000	-0,024	-0,062
-330,445	145,260	-0,105	-0,103
-329,431	-200,000	0,005	-0,150
-328,416	-200,000	0,005	0,148
-327,402	-38,941	0,093	-0,036
-326,387	157,214	-0,075	-0,076
-325,372	-39,267	-0,182	-0,069
-324,358	74,314	0,105	0,081
-323,343	378,918	-0,042	-0,063
-322,329	-200,000	-0,017	-0,074
-321,314	-169,758	-0,114	-0,003
-320,299	255,137	0,100	0,126
-319,285	-180,853	0,042	0,001
-318,270	119,020	-0,150	-0,136
-317,256	103,411	0,059	-0,051
-316,241	-27,956	-0,040	0,017
-315,226	-200,000	-0,032	0,130
-314,212	-105,075	-0,077	-0,013
-313,197	-114,282	0,136	-0,019
-312,183	-200,000	0,014	0,050
-311,168	800,000	-0,026	0,065
-310,153	675,932	-0,045	0,085
-309,139	-181,014	-0,088	0,001
-308,124	-99,931	-0,090	0,016
-307,110	108,023	-0,071	0,062
-306,095	-200,000	-0,027	0,119
-305,080	-59,518	-0,064	-0,020
-304,066	236,068	0,019	0,023
-303,051	-200,000	-0,027	-0,118
-302,037	-118,281	0,110	0,014
-301,022	-200,000	-0,013	-0,097
-300,008	-200,000	0,007	0,049
-298,993	-111,064	-0,120	-0,018
-297,978	-200,000	-0,019	-0,060
-296,964	-48,037	-0,140	-0,049
-295,949	-200,000	0,008	0,205
-294,935	182,165	-0,048	0,052
-293,920	-111,488	0,090	0,013
-292,905	477,434	-0,031	0,052
-291,891	-140,382	0,072	0,005
-290,876	319,698	0,054	0,076
-289,862	-57,947	0,007	0,002
-288,847	328,908	-0,101	0,142
-287,832	-200,000	-0,006	-0,168
-286,818	800,000	0,025	-0,063
-285,803	20,571	-0,032	-0,019
-284,789	34,444	0,093	0,060
-283,774	-59,571	-0,037	-0,011
-282,759	800,000	-0,041	0,132
-281,745	800,000	0,020	0,050
-280,730	668,199	-0,075	0,143
-279,716	233,869	0,067	0,080
-278,701	89,470	-0,007	0,005
-277,686	548,585	-0,039	-0,069
-276,672	-116,417	0,075	0,010
-275,657	38,813	-0,044	0,029
-274,643	44,837	-0,201	-0,135
-273,628	800,000	0,029	-0,065
-272,613	-117,815	-0,015	0,002
-271,599	-157,084	0,146	0,006
-270,584	-7,213	0,092	0,046
-269,570	-77,868	-0,054	0,013
-268,555	530,599	0,039	0,068
-267,540	-7,481	-0,035	0,017
-266,526	800,000	-0,024	-0,060
-265,511	-25,718	0,110	-0,047
-264,497	57,453	-0,043	0,031
-263,482	-95,160	0,086	0,017
-262,467	650,922	-0,031	-0,059
-261,453	-42,345	-0,041	-0,015
-260,438	407,627	-0,107	0,165
-259,424	105,135	-0,103	0,089
-258,409	-200,000	-0,027	-0,163
-257,395	-200,000	-0,004	-0,036
-256,380	-139,607	0,056	0,004
-255,365	323,331	0,074	-0,104
-254,351	-80,243	-0,074	0,018
-253,336	-65,221	-0,085	0,025
-252,322	117,853	-0,109	0,098
-251,307	800,000	0,045	-0,124
-250,292	-200,000	-0,006	-0,057
-249,278	331,581	0,059	-0,083
-248,263	401,703	-0,086	0,132
-247,249	-200,000	-0,005	0,041
-246,234	-100,636	0,025	0,004
-245,219	-124,553	0,129	0,014
-244,205	-200,000	-0,022	-0,126
-243,190	132,741	-0,036	-0,034
-242,176	416,656	-0,041	0,064
-241,161	64,120	0,110	-0,081
-240,146	-200,000	-0,010	-0,065
-239,132	494,221	0,053	0,089
-238,117	414,502	-0,010	-0,016
-237,103	-200,000	0,010	-0,079
-236,088	29,992	0,112	-0,070
-235,073	-75,703	-0,071	-0,018
-234,059	185,999	0,063	0,069
-233,044	32,367	0,064	0,040
-232,030	25,789	0,123	0,074
-231,015	78,952	-0,114	-0,089
-230,000	-141,525	0,133	0,010
-228,986	800,000	0,045	-0,096
-227,971	55,227	-0,008	0,006
-226,957	505,055	0,098	0,166
-225,942	-200,000	-0,032	0,119
-224,927	-142,616	-0,077	0,005
-223,913	173,186	-0,037	-0,039
-222,898	77,047	-0,084	0,065
-221,884	620,976	0,008	0,014
-220,869	-18,730	0,115	-0,052
-219,855	-41,339	0,085	0,032
-218,840	-200,000	-0,020	0,071
-217,825	57,106	0,060	0,043
-216,811	-174,577	-0,020	-0,000
-215,796	-14,653	-0,051	-0,024
-214,782	385,368	0,120	0,182
-213,767	800,000	-0,025	0,056
-212,752	-2,964	0,119	0,060
-211,738	-200,000	-0,011	0,083
-210,723	97,553	-0,090	0,075
-209,709	-200,000	0,006	0,077
-208,694	659,237	0,034	0,064
-207,679	-200,000	-0,036	0,204
-206,665	-115,667	0,056	-0,008
-205,650	-87,474	0,105	-0,023
-204,636	-200,000	0,032	0,185
-203,621	56,769	0,144	0,102
-202,606	121,978	0,032	-0,030
-201,592	-200,000	-0,010	-0,066
-200,577	-22,723	-0,055	0,024
-199,563	-200,000	-0,001	-0,094
-198,548	800,000	0,016	0,043
-197,533	-139,775	0,085	0,006
-196,519	426,863	0,068	0,107
-195,504	256,697	-0,024	0,030
-194,490	-200,000	0,013	-0,135
-193,475	73,085	0,010	0,008
-192,460	-48,849	0,053	0,018
-191,446	578,948	-0,017	-0,030
-190,431	-200,000	-0,007	0,112
-189,417	63,976	0,116	-0,085
-188,402	-200,000	-0,029	0,126
-187,387	73,124	0,094	-0,071
-186,373	294,504	0,082	-0,110
-185,358	-200,000	0,009	-0,073
-184,344	5,192	0,018	-0,010
-183,329	-139,511	0,101	0,008
-182,315	353,288	-0,055	0,079
-181,300	-68,348	-0,091	0,026
-180,285	-5,429	-0,083	-0,042
-179,271	131,030	-0,080	-0,075
-178,256	12,659	-0,132	0,074
-177,242	800,000	0,012	-0,027
-176,227	-95,695	0,065	-0,013
-175,212	72,359	-0,086	-0,065
-174,198	246,233	0,036	0,045
-173,183	93,768	-0,142	-0,117
-172,169	691,789	0,058	-0,111
-171,154	800,000	0,024	-0,074
-170,139	-200,000	-0,033	-0,122
-169,125	-200,000	0,027	0,106
-168,110	-178,189	-0,060	0,001
-167,096	-171,802	-0,062	-0,001
-166,081	-200,000	0,000	-0,096
-165,066	742,932	-0,077	-0,152
-164,052	77,315	-0,033	-0,026
-163,037	-200,000	-0,012	0,105
-162,023	800,000	0,017	0,042
-161,008	97,847	0,115	0,096
-159,993	-200,000	-0,004	0,076
-158,979	-84,958	0,229	0,052
-157,964	88,311	-0,177	-0,143
-156,950	800,000	0,042	-0,130
-155,935	800,000	-0,009	-0,018
-154,920	-42,937	0,053	-0,019
-153,906	-200,000	0,009	0,103
-152,891	800,000	-0,040	-0,092
-151,877	-96,001	-0,176	-0,034
-150,862	-172,077	0,139	0,003
-149,847	438,880	-0,052	-0,083
-148,833	-7,855	-0,085	0,042
-147,818	207,154	0,059	0,067
-146,804	102,148	-0,043	-0,036
-145,789	87,603	0,047	0,038
-144,775	-96,406	-0,020	0,004
-143,760	-158,064	0,101	0,004
-142,745	-115,857	0,070	-0,009
-141,731	-19,505	0,155	-0,070
-140,716	137,257	-0,069	-0,065
-139,702	800,000	0,030	0,093
-138,687	-67,912	0,050	0,014
-137,672	-200,000	0,028	0,093
-136,658	173,992	0,050	-0,052
-135,643	-29,013	-0,085	-0,035
-134,629	-200,000	0,000	0,080
-133,614	800,000	-0,055	0,127
-132,599	-200,000	0,050	0,205
-131,585	257,201	0,031	0,039
-130,570	430,842	0,033	-0,053
-129,556	-200,000	0,015	-0,058
-128,541	-200,000	-0,021	-0,105
-127,526	-67,919	0,086	-0,024
-126,512	-200,000	-0,001	-0,104
-125,497	-22,648	0,146	0,064
-124,483	105,074	-0,132	0,113
-123,468	745,284	-0,053	0,104
-122,453	-200,000	-0,003	-0,048
-121,439	50,621	0,106	-0,073
-120,424	-74,804	0,083	-0,021
-119,410	-177,594	0,033	0,001
