DTS Sentinel unit serial number:	SN410029Multiplexer serial number:	ORYXHardware model number:	OX2-SRSoftware version number:	ORYX F/W v4,00 Oryx Data Collector v3.7.2.0data status	okinstallation	B6 Nyhavnadifferential loss correction	single-endedforward channel	channel 2reverse channel	N/Adate	2023/12/10time	22:50:08forward acquisition time	300,00reverse acquisition time	0,00gamma	499,1914k internal	0,3122k external	0,3122temperature offset calibration	1,0000default loss term (dB/km)	0,3820temperature slope calibration	1,0000multiplexer offset coefficient	1,0000multiplexer slope coefficient	1,0000fibre end	0,00T internal ref (°C)	22,38T ext. ref 1 (°C)	6,13T ext. ref 2 (°C)	6,15length (m)	temperature (°C)	Stokes	anti-Stokes-744,400	-200,000	0,016	-0,215
-743,385	-75,733	-0,189	0,050
-742,371	38,927	0,029	-0,019
-741,356	648,459	-0,084	0,160
-740,342	354,109	-0,034	-0,051
-739,327	91,464	-0,093	0,078
-738,312	48,319	0,082	-0,057
-737,298	-193,364	-0,251	0,002
-736,283	279,632	0,023	-0,030
-735,269	800,000	-0,074	0,202
-734,254	-83,056	0,080	0,019
-733,239	-98,852	-0,364	-0,068
-732,225	-39,848	0,065	-0,025
-731,210	-17,861	-0,049	-0,023
-730,196	387,018	-0,016	0,024
-729,181	176,702	0,051	-0,055
-728,167	-200,000	0,002	0,164
-727,152	-114,293	0,029	0,004
-726,137	101,783	0,045	0,039
-725,123	-6,342	-0,105	0,053
-724,108	-128,024	0,076	-0,008
-723,094	-27,269	-0,111	-0,048
-722,079	-200,000	0,033	-0,201
-721,064	625,076	0,061	-0,116
-720,050	136,486	0,034	-0,033
-719,035	400,961	-0,052	-0,081
-718,021	-200,000	-0,001	-0,013
-717,006	-200,000	0,003	0,070
-715,991	-200,000	0,022	-0,122
-714,977	-91,658	-0,066	-0,014
-713,962	89,212	-0,046	-0,039
-712,948	-193,227	-0,107	-0,001
-711,933	18,100	-0,101	0,060
-710,918	59,938	0,115	-0,085
-709,904	45,946	0,064	-0,044
-708,889	-23,391	-0,073	0,032
-707,875	-99,567	-0,082	-0,015
-706,860	-15,575	0,030	0,014
-705,845	-79,009	0,058	0,015
-704,831	204,377	0,043	0,049
-703,816	-200,000	-0,011	0,098
-702,802	-200,000	-0,005	-0,075
-701,787	-110,590	0,156	-0,024
-700,772	101,930	-0,083	0,072
-699,758	-22,049	-0,114	0,051
-698,743	122,422	0,131	0,122
-697,729	-200,000	0,047	0,194
-696,714	800,000	-0,034	0,087
-695,699	-200,000	0,065	0,000
-694,685	416,451	-0,101	-0,160
-693,670	155,799	-0,056	-0,057
-692,656	456,624	0,100	-0,166
-691,641	423,232	0,029	0,047
-690,627	77,758	-0,042	0,033
-689,612	58,841	-0,041	-0,030
-688,597	-41,460	-0,093	-0,035
-687,583	-147,674	-0,084	-0,005
-686,568	-133,246	-0,105	-0,010
-685,554	-200,000	0,034	-0,142
-684,539	372,746	0,058	-0,088
-683,524	800,000	-0,002	-0,006
-682,510	41,080	-0,096	0,065
-681,495	-23,214	-0,035	-0,016
-680,481	-200,000	-0,021	-0,135
-679,466	-200,000	-0,013	-0,169
-678,451	800,000	-0,015	-0,045
-677,437	-200,000	0,007	0,045
-676,422	800,000	-0,061	0,166
-675,408	90,179	-0,075	0,062
-674,393	194,549	-0,027	-0,031
-673,378	-176,677	-0,064	0,001
-672,364	-127,619	0,056	-0,006
-671,349	800,000	-0,023	-0,073
-670,335	800,000	-0,022	-0,055
-669,320	-200,000	0,032	0,123
-668,305	-121,668	-0,053	-0,006
-667,291	113,572	0,006	0,006
-666,276	-200,000	0,008	-0,149
-665,262	-200,000	-0,020	-0,169
-664,247	-200,000	-0,023	-0,091
-663,232	466,382	0,041	-0,069
-662,218	-200,000	0,008	-0,070
-661,203	424,715	-0,037	0,059
-660,189	535,208	-0,041	-0,072
-659,174	800,000	-0,012	0,037
-658,159	-121,012	-0,194	0,024
-657,145	-133,321	-0,043	0,004
-656,130	800,000	0,023	0,056
-655,116	-189,823	-0,052	-0,000
-654,101	-83,961	-0,166	-0,039
-653,086	240,444	0,069	0,085
-652,072	-136,447	0,098	-0,008
-651,057	800,000	0,061	-0,143
-650,043	-65,734	-0,044	-0,013
-649,028	164,074	0,047	0,049
-648,014	368,538	0,069	0,104
-646,999	-200,000	-0,008	-0,089
-645,984	37,770	-0,089	0,059
-644,970	800,000	-0,049	0,118
-643,955	34,747	-0,143	-0,092
-642,941	-80,322	-0,217	-0,053
-641,926	-90,864	-0,129	0,027
-640,911	398,211	0,033	-0,052
-639,897	-83,094	0,038	-0,009
-638,882	48,169	0,128	0,089
-637,868	800,000	-0,059	-0,180
-636,853	527,844	-0,015	0,026
-635,838	-119,723	-0,154	-0,019
-634,824	521,570	0,013	-0,023
-633,809	800,000	-0,051	0,107
-632,795	95,083	-0,018	0,015
-631,780	4,053	-0,049	0,027
-630,765	104,553	-0,039	-0,034
-629,751	44,315	0,073	-0,049
-628,736	-54,241	-0,201	0,067
-627,722	536,257	0,008	0,014
-626,707	-200,000	-0,007	-0,155
-625,692	-65,107	0,080	0,024
-624,678	800,000	-0,022	0,055
-623,663	-116,914	0,103	0,014
-622,649	47,226	0,157	-0,108
-621,634	-160,990	-0,089	0,003
-620,619	703,085	-0,049	-0,096
-619,605	52,170	-0,021	-0,015
-618,590	122,174	0,057	-0,053
-617,576	349,099	0,008	0,012
-616,561	-111,960	-0,081	0,012
-615,546	233,084	-0,064	-0,078
-614,532	169,955	-0,108	-0,114
-613,517	-46,324	-0,101	-0,037
-612,503	-200,000	-0,038	0,160
-611,488	-77,767	0,078	-0,020
-610,474	15,316	-0,062	-0,036
-609,459	800,000	-0,038	0,119
-608,444	15,315	-0,099	-0,058
-607,430	182,307	0,076	0,083
-606,415	-48,834	0,090	-0,032
-605,401	-126,702	-0,064	-0,007
-604,386	-200,000	-0,037	-0,155
-603,371	-200,000	0,007	0,058
-602,357	39,914	-0,072	-0,048
-601,342	85,545	0,086	0,070
-600,328	-200,000	0,033	-0,141
-599,313	-78,179	0,031	0,008
-598,298	-6,859	0,138	0,069
-597,284	-200,000	0,034	-0,118
-596,269	253,033	0,087	0,110
-595,255	110,621	-0,068	0,060
-594,240	35,840	-0,122	0,079
-593,225	-170,433	-0,101	0,003
-592,211	117,738	-0,067	-0,061
-591,196	682,471	-0,029	-0,057
-590,182	800,000	0,054	0,138
-589,167	-200,000	0,001	-0,080
-588,152	73,597	0,087	0,068
-587,138	-200,000	0,004	-0,050
-586,123	800,000	-0,055	-0,164
-585,109	-55,200	0,124	-0,041
-584,094	633,450	0,030	0,056
-583,079	800,000	0,035	-0,109
-582,065	24,650	0,077	0,047
-581,050	-200,000	0,020	0,110
-580,036	306,586	0,033	-0,046
-579,021	458,137	-0,012	-0,019
-578,006	194,326	-0,104	0,117
-576,992	-200,000	-0,020	-0,077
-575,977	230,256	-0,023	0,027
-574,963	-60,984	0,067	0,021
-573,948	140,117	-0,130	0,127
-572,934	-200,000	-0,109	-0,000
-571,919	-9,679	-0,028	0,014
-570,904	-14,792	0,057	-0,027
-569,890	120,730	0,087	-0,080
-568,875	213,665	-0,079	0,093
-567,861	-71,085	0,051	0,014
-566,846	-147,079	-0,118	-0,007
-565,831	-200,000	0,003	0,150
-564,817	-105,731	-0,016	-0,003
-563,802	-30,694	-0,060	-0,025
-562,788	169,138	-0,107	0,113
-561,773	-37,731	-0,045	-0,018
-560,758	-105,899	0,155	0,026
-559,744	116,708	0,146	0,132
-558,729	-155,574	-0,098	0,005
-557,715	-145,345	-0,122	0,008
-556,700	-200,000	-0,003	-0,128
-555,685	-158,123	0,078	-0,003
-554,671	-145,667	-0,171	-0,011
-553,656	169,574	0,079	0,083
-552,642	94,147	-0,023	0,019
-551,627	-200,000	0,004	0,038
-550,612	-93,402	0,160	-0,033
-549,598	-200,000	0,004	-0,021
-548,583	92,759	-0,083	-0,069
-547,569	-10,354	0,100	-0,049
-546,554	43,233	-0,120	-0,081
-545,539	-200,000	0,002	0,012
-544,525	-88,345	0,063	0,014
-543,510	111,805	-0,054	-0,048
-542,496	-55,045	-0,245	-0,081
-541,481	564,929	-0,055	-0,099
-540,466	42,897	0,092	0,062
-539,452	539,940	0,031	0,055
-538,437	-165,747	0,127	0,004
-537,423	-122,094	0,063	0,008
-536,408	800,000	0,033	0,101
-535,393	112,401	-0,022	0,020
-534,379	183,079	-0,060	0,066
-533,364	-21,426	-0,085	0,038
-532,350	-200,000	-0,021	0,134
-531,335	-200,000	-0,011	0,039
-530,321	168,172	0,098	0,103
-529,306	800,000	0,039	0,108
-528,291	-200,000	-0,003	-0,034
-527,277	-200,000	0,005	-0,094
-526,262	35,101	0,044	0,028
-525,248	-200,000	-0,017	0,087
-524,233	23,449	0,092	0,056
-523,218	-200,000	-0,025	0,121
-522,204	313,679	0,021	-0,029
-521,189	-95,925	-0,058	0,011
-520,175	77,480	0,076	-0,060
-519,160	-200,000	0,016	0,073
-518,145	-107,557	-0,082	-0,013
-517,131	68,295	0,131	0,099
-516,116	-112,742	-0,055	-0,008
-515,102	266,694	-0,043	-0,056
-514,087	21,695	0,073	-0,044
-513,072	598,195	-0,017	-0,031
-512,058	-30,981	-0,169	-0,070
-511,043	161,785	-0,124	0,129
-510,029	160,585	-0,088	0,091
-509,014	-183,672	0,061	-0,001
-507,999	-142,592	-0,064	-0,005
-506,985	-200,000	-0,010	-0,101
-505,970	315,452	-0,119	-0,167
-504,956	732,677	0,069	-0,137
-503,941	-151,275	-0,109	0,006
-502,926	-51,277	0,047	0,016
-501,912	800,000	0,022	-0,064
-500,897	288,434	0,057	-0,076
-499,883	-200,000	0,026	-0,106
-498,868	-126,136	-0,174	-0,019
-497,853	-200,000	-0,004	-0,103
-496,839	211,382	0,095	-0,110
-495,824	-156,969	-0,182	0,008
-494,810	97,275	0,110	0,093
-493,795	-200,000	0,001	0,079
-492,781	800,000	-0,052	-0,115
-491,766	14,677	-0,134	-0,077
-490,751	154,613	-0,062	-0,063
-489,737	686,090	0,096	0,186
-488,722	-200,000	-0,031	0,189
-487,708	306,385	-0,041	-0,057
-486,693	-200,000	-0,003	0,033
-485,678	169,679	0,109	-0,115
-484,664	-20,645	-0,100	-0,045
-483,649	13,171	-0,135	-0,077
-482,635	51,227	-0,116	0,081
-481,620	-15,204	0,117	0,055
-480,605	-200,000	-0,031	0,139
-479,591	61,267	-0,115	0,084
-478,576	19,548	0,081	0,048
-477,562	473,008	0,042	0,070
-476,547	-168,315	-0,174	-0,005
-475,532	-200,000	0,010	-0,128
-474,518	-151,207	-0,044	-0,002
-473,503	521,153	0,066	0,115
-472,489	107,764	0,069	0,060
-471,474	238,289	0,075	0,092
-470,459	475,461	0,040	-0,066
-469,445	-200,000	-0,007	0,044
-468,430	-61,145	-0,064	-0,020
-467,416	661,949	0,057	-0,108
-466,401	-200,000	-0,011	0,102
-465,386	573,040	0,056	-0,101
-464,372	-140,449	0,057	0,004
-463,357	-20,195	-0,165	0,075
-462,343	179,523	0,017	0,018
-461,328	244,178	-0,049	-0,061
-460,313	101,510	0,058	0,050
-459,299	441,660	0,071	0,115
-458,284	-200,000	0,015	0,109
-457,270	262,459	-0,057	0,073
-456,255	-4,614	0,157	-0,080
-455,241	800,000	0,035	-0,093
-454,226	86,222	-0,028	0,022
-453,211	-87,868	0,184	-0,040
-452,197	800,000	0,038	-0,082
-451,182	-9,295	0,046	0,023
-450,168	378,427	-0,019	-0,029
-449,153	35,613	-0,083	-0,054
-448,138	164,811	-0,086	-0,089
-447,124	-55,210	0,067	-0,022
-446,109	800,000	-0,049	0,144
-445,095	56,167	0,073	-0,052
-444,080	800,000	-0,064	0,148
-443,065	800,000	-0,047	0,103
-442,051	-200,000	0,029	-0,132
-441,036	462,890	0,036	-0,060
-440,022	-29,496	0,096	-0,040
-439,007	-132,302	0,058	-0,005
-437,992	-200,000	0,018	0,088
-436,978	-200,000	0,007	-0,097
-435,963	609,004	0,037	0,068
-434,949	-110,459	-0,173	0,026
-433,934	32,019	0,067	0,043
-432,919	-53,029	-0,077	-0,026
-431,905	95,355	0,119	-0,100
-430,890	800,000	0,059	0,140
-429,876	-176,975	0,197	0,004
-428,861	-20,823	0,041	0,018
-427,846	417,711	-0,023	-0,036
-426,832	721,458	-0,036	0,072
-425,817	-200,000	-0,005	-0,202
-424,803	-200,000	-0,055	-0,205
-423,788	159,966	0,066	-0,068
-422,773	92,287	0,058	-0,048
-421,759	-115,493	-0,085	-0,012
-420,744	130,224	-0,029	-0,027
-419,730	211,222	-0,046	-0,053
-418,715	-110,081	-0,088	-0,013
-417,701	800,000	-0,033	-0,082
-416,686	-72,375	-0,042	-0,011
-415,671	96,515	-0,041	0,035
-414,657	-200,000	0,010	0,131
-413,642	196,009	-0,053	0,060
-412,628	800,000	0,055	-0,117
-411,613	436,239	0,022	-0,036
-410,598	-200,000	0,000	-0,019
-409,584	546,254	0,037	0,066
-408,569	113,303	0,083	0,074
-407,555	325,227	0,023	0,032
-406,540	318,821	0,129	0,180
-405,525	800,000	-0,004	0,009
-404,511	800,000	0,032	-0,079
-403,496	-200,000	0,020	-0,117
-402,482	102,353	0,075	-0,065
-401,467	-55,572	0,108	0,035
-400,452	271,715	-0,073	0,095
-399,438	-97,837	-0,141	0,027
-398,423	32,550	-0,012	0,007
-397,409	800,000	-0,007	0,014
-396,394	413,776	0,017	-0,027
-395,379	21,567	0,051	-0,030
-394,365	97,492	0,115	-0,097
-393,350	507,430	0,031	0,054
-392,336	-200,000	-0,014	0,069
-391,321	45,750	0,065	-0,044
-390,306	5,299	-0,048	-0,026
-389,292	222,445	0,048	-0,057
-388,277	-200,000	-0,045	-0,199
-387,263	7,712	0,075	0,041
-386,248	-200,000	0,004	-0,128
-385,233	-200,000	-0,010	-0,053
-384,219	277,871	-0,040	0,052
-383,204	26,704	-0,090	-0,055
-382,190	-60,141	0,034	0,010
-381,175	294,171	-0,077	-0,104
-380,160	-200,000	-0,006	0,101
-379,146	489,389	0,028	0,047
-378,131	-15,243	0,210	0,099
-377,117	387,963	0,046	0,070
-376,102	-15,817	-0,079	-0,037
-375,088	27,841	0,070	-0,043
-374,073	-200,000	-0,028	-0,153
-373,058	-200,000	-0,025	0,165
-372,044	107,742	-0,052	0,045
-371,029	693,057	-0,011	0,022
-370,015	-131,224	0,150	0,014
-369,000	-20,971	0,026	-0,012
-367,985	-200,000	-0,015	0,059
-366,971	-58,643	-0,117	-0,037
-365,956	-117,080	-0,100	-0,013
-364,942	-21,904	0,014	0,006
-363,927	-114,755	0,114	-0,016
-362,912	-108,344	0,063	-0,010
-361,898	277,611	-0,096	-0,126
-360,883	-200,000	0,001	-0,090
-359,869	800,000	0,065	-0,144
-358,854	-200,000	-0,002	0,013
-357,839	272,490	0,041	-0,053
-356,825	748,746	-0,061	-0,121
-355,810	109,006	0,069	-0,061
-354,796	-200,000	-0,001	0,058
-353,781	161,322	-0,081	-0,083
-352,766	-30,749	-0,028	-0,012
-351,752	260,103	-0,062	0,079
-350,737	-200,000	0,023	0,153
-349,723	-200,000	0,002	0,046
-348,708	126,573	0,028	0,026
-347,693	800,000	-0,010	-0,027
-346,679	-116,295	-0,060	0,008
-345,664	8,369	0,122	0,067
-344,650	101,748	-0,025	-0,021
-343,635	-85,168	0,103	-0,023
-342,620	-200,000	0,007	0,072
-341,606	-138,940	0,084	-0,007
-340,591	567,359	-0,055	0,099
-339,577	379,739	0,053	0,081
-338,562	73,021	-0,092	0,071
-337,548	76,096	0,084	0,065
-336,533	800,000	-0,028	-0,072
-335,518	69,705	0,073	0,055
-334,504	-43,019	-0,132	0,049
-333,489	-177,412	-0,059	0,001
-332,475	59,612	-0,083	0,060
-331,460	-122,793	-0,212	-0,025
-330,445	-200,000	-0,008	-0,059
-329,431	47,654	0,139	0,095
-328,416	62,665	0,047	0,034
-327,402	-60,463	0,019	-0,006
-326,387	800,000	-0,024	-0,069
-325,372	75,503	0,039	-0,030
-324,358	-68,047	-0,157	-0,045
-323,343	-200,000	0,001	-0,065
-322,329	-200,000	-0,018	0,093
-321,314	166,876	-0,036	-0,037
-320,299	800,000	-0,013	0,043
-319,285	153,364	0,009	0,009
-318,270	-200,000	0,001	0,023
-317,256	628,781	-0,034	-0,062
-316,241	-116,604	0,121	0,016
-315,226	515,958	0,111	0,191
-314,212	44,076	0,013	-0,009
-313,197	-105,488	0,163	-0,027
-312,183	207,593	0,093	-0,106
-311,168	-200,000	0,001	0,018
-310,153	-200,000	-0,019	-0,113
-309,139	-59,659	0,024	0,008
-308,124	285,312	0,086	-0,114
-307,110	566,839	-0,022	0,039
-306,095	644,911	0,009	-0,017
-305,080	-108,867	0,217	-0,034
-304,066	287,437	-0,084	-0,111
-303,051	5,529	-0,039	0,021
-302,037	-68,611	0,107	0,030
-301,022	-200,000	0,010	0,062
-300,008	69,506	0,112	0,084
-298,993	-135,554	-0,111	0,010
-297,978	634,390	0,065	0,121
-296,964	-122,313	-0,143	0,017
-295,949	509,167	-0,013	0,022
-294,935	800,000	-0,034	-0,080
-293,920	-124,192	0,047	-0,005
-292,905	-25,089	-0,019	0,008
-291,891	-153,820	-0,022	0,001
-290,876	-200,000	-0,011	0,102
-289,862	100,142	0,040	0,034
-288,847	-94,553	-0,075	0,015
-287,832	286,852	-0,090	-0,119
-286,818	-200,000	-0,008	-0,035
-285,803	-130,416	0,107	0,010
-284,789	-200,000	0,016	0,156
-283,774	-200,000	-0,004	0,047
-282,759	21,388	0,118	-0,070
-281,745	-132,643	0,054	0,005
-280,730	157,617	-0,093	-0,094
-279,716	27,860	0,092	-0,057
-278,701	-23,869	0,118	0,051
-277,686	-200,000	0,043	0,164
-276,672	320,889	-0,032	0,044
-275,657	-200,000	0,039	-0,138
-274,643	5,875	0,077	0,041
-273,628	-200,000	0,014	0,058
-272,613	429,100	0,032	0,050
-271,599	74,949	-0,079	0,061
-270,584	-200,000	0,001	0,010
-269,570	-200,000	-0,042	-0,151
-268,555	-97,807	-0,066	0,012
-267,540	-125,612	0,076	-0,008
-266,526	-200,000	0,006	-0,035
-265,511	457,277	0,032	0,053
-264,497	-195,406	-0,089	-0,000
-263,482	800,000	0,019	0,048
-262,467	-150,397	0,120	0,007
-261,453	580,658	0,071	0,128
-260,438	-107,276	-0,048	0,008
-259,424	70,161	-0,153	-0,115
-258,409	-184,719	-0,088	-0,001
-257,395	800,000	0,073	-0,175
-256,380	714,536	0,105	-0,205
-255,365	800,000	-0,045	-0,096
-254,351	-200,000	-0,018	-0,092
-253,336	-73,411	-0,150	0,040
-252,322	-170,911	-0,204	-0,005
-251,307	-38,810	-0,080	0,031
-250,292	334,928	0,090	-0,128
-249,278	609,626	0,037	0,067
-248,263	3,263	0,071	0,038
-247,249	-200,000	0,008	-0,064
-246,234	-200,000	0,038	0,179
-245,219	800,000	-0,054	0,129
-244,205	314,818	0,061	0,084
-243,190	800,000	0,042	0,087
-242,176	-200,000	0,011	0,141
-241,161	388,391	0,038	0,057
-240,146	800,000	-0,005	0,016
-239,132	22,836	-0,079	-0,047
-238,117	-200,000	0,014	-0,092
-237,103	-34,522	0,022	-0,009
-236,088	215,760	-0,070	-0,081
-235,073	170,222	-0,073	-0,076
-234,059	418,924	0,039	0,061
-233,044	322,563	-0,119	-0,165
-232,030	-43,499	0,089	0,033
-231,015	-200,000	-0,026	0,105
-230,000	800,000	-0,044	0,131
-228,986	800,000	-0,059	-0,174
-227,971	-39,433	0,170	0,065
-226,957	83,069	0,152	-0,120
-225,942	-68,155	0,029	0,008
-224,927	-145,005	0,157	0,010
-223,913	-198,914	0,120	-0,000
-222,898	-58,758	-0,067	0,021
-221,884	-200,000	0,019	-0,120
-220,869	-112,732	0,062	0,009
-219,855	-90,645	-0,030	-0,006
-218,840	-200,000	-0,015	-0,062
-217,825	800,000	0,013	0,029
-216,811	-200,000	-0,014	-0,115
-215,796	290,948	-0,071	0,095
-214,782	800,000	0,043	-0,123
-213,767	-6,040	0,087	0,043
-212,752	-200,000	0,010	0,124
-211,738	-0,442	0,038	0,020
-210,723	800,000	0,005	0,014
-209,709	-50,550	-0,049	0,017
-208,694	-168,045	-0,128	0,004
-207,679	13,014	-0,047	0,027
-206,665	209,736	-0,101	-0,116
-205,650	-200,000	-0,024	0,100
-204,636	-200,000	0,001	0,098
-203,621	-130,040	0,180	-0,018
-202,606	164,544	-0,106	0,109
-201,592	55,600	-0,127	-0,090
-200,577	402,494	0,095	-0,146
-199,563	155,245	-0,057	-0,057
-198,548	13,108	0,071	0,040
-197,533	-67,620	-0,075	-0,021
-196,519	-187,001	0,144	0,001
-195,504	77,698	-0,053	-0,041
-194,490	-200,000	0,002	0,011
-193,475	-65,223	-0,056	-0,016
-192,460	-155,950	0,078	0,004
-191,446	-200,000	0,003	-0,017
-190,431	-43,838	0,116	0,042
-189,417	-200,000	0,004	-0,021
-188,402	-12,514	0,107	0,051
-187,387	332,320	-0,066	0,093
-186,373	93,263	-0,056	-0,046
-185,358	604,502	0,011	-0,019
-184,344	-70,370	0,071	0,019
-183,329	-200,000	0,023	0,086
-182,315	59,623	-0,107	0,077
-181,300	-200,000	-0,010	0,054
-180,285	-107,897	-0,097	0,015
-179,271	-200,000	0,007	-0,050
-178,256	-200,000	0,006	0,027
-177,242	279,646	-0,061	0,079
-176,227	63,233	0,094	0,068
-175,212	411,029	-0,031	-0,048
-174,198	27,361	0,018	0,011
-173,183	86,400	-0,067	-0,054
-172,169	-200,000	0,012	-0,152
-171,154	800,000	-0,039	-0,100
-170,139	-67,794	0,046	-0,013
-169,125	212,127	-0,013	-0,015
-168,110	-31,106	0,103	0,042
-167,096	-200,000	0,014	0,085
-166,081	276,816	-0,075	-0,098
-165,066	-20,417	0,133	0,059
-164,052	-51,149	0,007	-0,002
-163,037	-111,011	0,105	0,016
-162,023	-25,570	-0,105	0,045
-161,008	1,531	0,059	0,031
-159,993	46,763	0,127	-0,086
-158,979	-110,918	-0,112	-0,017
-157,964	273,223	-0,088	0,114
-156,950	520,736	-0,031	0,054
-155,935	-200,000	-0,017	0,111
-154,920	-195,804	0,057	0,000
-153,906	800,000	-0,094	-0,235
-152,891	70,432	0,105	-0,079
-151,877	75,867	-0,116	-0,090
-150,862	468,778	-0,080	-0,131
-149,847	-8,418	-0,084	-0,041
-148,833	800,000	0,054	-0,123
-147,818	554,047	-0,055	0,098
-146,804	800,000	0,049	0,119
-145,789	130,763	0,060	-0,056
-144,775	172,604	-0,043	-0,045
-143,760	136,655	0,017	0,016
-142,745	-200,000	0,001	0,100
-141,731	72,056	0,093	-0,071
-140,716	-54,898	0,049	0,016
-139,702	-200,000	0,002	0,033
-138,687	144,521	0,135	0,131
-137,672	-126,226	-0,128	-0,014
-136,658	-200,000	-0,019	0,157
-135,643	16,660	-0,171	-0,098
-134,629	-39,225	0,124	0,047
-133,614	-200,000	0,009	0,078
-132,599	-200,000	-0,043	0,211
-131,585	800,000	-0,027	0,078
-130,570	209,399	-0,044	0,050
-129,556	321,961	-0,029	0,040
-128,541	-200,000	-0,021	0,071
-127,526	698,199	-0,054	-0,104
-126,512	72,787	-0,042	-0,032
-125,497	-200,000	-0,008	0,080
-124,483	-33,103	0,158	0,063
-123,468	-1,461	-0,041	0,021
-122,453	800,000	0,039	-0,094
-121,439	-200,000	0,006	0,070
-120,424	-105,931	0,042	0,007
-119,410	-2,437	0,024	0,012
