DTS Sentinel unit serial number:	SN410029Multiplexer serial number:	ORYXHardware model number:	OX2-SRSoftware version number:	ORYX F/W v4,00 Oryx Data Collector v3.7.2.0data status	okinstallation	B6 Nyhavnadifferential loss correction	single-endedforward channel	channel 2reverse channel	N/Adate	2023/12/11time	07:40:08forward acquisition time	300,00reverse acquisition time	0,00gamma	499,1914k internal	0,3127k external	0,3127temperature offset calibration	1,0000default loss term (dB/km)	0,3820temperature slope calibration	1,0000multiplexer offset coefficient	1,0000multiplexer slope coefficient	1,0000fibre end	0,00T internal ref (°C)	18,80T ext. ref 1 (°C)	1,19T ext. ref 2 (°C)	1,22length (m)	temperature (°C)	Stokes	anti-Stokes-744,400	-200,000	-0,067	0,000
-743,385	-166,806	-0,238	0,007
-742,371	-200,000	0,008	0,046
-741,356	26,400	-0,114	0,071
-740,342	344,479	0,118	0,172
-739,327	-93,458	-0,257	-0,053
-738,312	-167,287	-0,118	0,003
-737,298	-114,350	-0,316	0,045
-736,283	173,997	0,070	0,075
-735,269	-61,798	-0,234	0,072
-734,254	355,718	0,059	-0,088
-733,239	-130,361	-0,494	-0,049
-732,225	-52,510	0,111	-0,038
-731,210	456,855	0,051	0,085
-730,196	-67,032	-0,096	-0,028
-729,181	99,593	-0,153	-0,132
-728,167	-200,000	0,007	0,074
-727,152	101,684	-0,046	0,040
-726,137	-200,000	0,018	0,080
-725,123	685,835	-0,075	-0,147
-724,108	296,496	-0,091	-0,124
-723,094	36,643	-0,100	-0,066
-722,079	56,855	0,113	-0,081
-721,064	-88,016	0,050	-0,011
-720,050	800,000	-0,008	0,026
-719,035	-200,000	0,003	0,135
-718,021	-200,000	0,018	-0,170
-717,006	800,000	-0,043	-0,127
-715,991	34,221	-0,164	-0,106
-714,977	800,000	-0,033	-0,092
-713,962	-6,290	-0,173	0,087
-712,948	45,821	0,104	0,071
-711,933	234,661	-0,051	0,063
-710,918	-2,543	0,062	0,032
-709,904	69,559	-0,072	-0,055
-708,889	-84,915	-0,112	-0,026
-707,875	-36,626	0,034	-0,013
-706,860	-200,000	0,011	-0,076
-705,845	-42,908	0,024	0,009
-704,831	800,000	-0,033	0,086
-703,816	70,940	-0,058	0,045
-702,802	-176,713	-0,065	0,001
-701,787	-59,820	-0,110	-0,035
-700,772	132,954	0,007	0,007
-699,758	800,000	-0,022	-0,057
-698,743	23,878	0,242	0,148
-697,729	800,000	-0,029	0,075
-696,714	-18,263	-0,062	0,029
-695,699	81,886	-0,113	-0,091
-694,685	21,314	0,059	-0,036
-693,670	83,702	-0,126	-0,102
-692,656	186,237	-0,026	0,029
-691,641	-200,000	0,005	-0,109
-690,627	800,000	0,076	0,222
-689,612	146,281	-0,136	0,136
-688,597	-130,844	0,102	-0,010
-687,583	360,667	-0,086	-0,129
-686,568	509,530	0,035	-0,061
-685,554	-53,162	0,173	0,059
-684,539	-14,908	0,115	0,055
-683,524	701,911	-0,066	0,129
-682,510	-76,165	0,061	0,016
-681,495	-19,897	-0,095	-0,044
-680,481	89,059	-0,057	0,047
-679,466	-134,783	-0,089	0,008
-678,451	-200,000	-0,018	0,114
-677,437	497,526	-0,023	0,039
-676,422	-200,000	0,006	0,048
-675,408	229,616	0,084	0,102
-674,393	800,000	0,023	-0,072
-673,378	800,000	-0,051	-0,122
-672,364	436,763	0,017	-0,028
-671,349	39,249	-0,028	0,018
-670,335	73,666	-0,003	0,002
-669,320	800,000	0,031	-0,068
-668,305	-200,000	-0,001	0,029
-667,291	190,968	-0,018	-0,020
-666,276	800,000	0,049	-0,123
-665,262	2,382	-0,182	0,098
-664,247	-128,043	-0,094	-0,010
-663,232	-200,000	-0,036	0,128
-662,218	-200,000	-0,028	0,120
-661,203	221,247	-0,023	-0,027
-660,189	-200,000	0,007	-0,085
-659,174	349,934	-0,075	0,110
-658,159	125,089	0,099	0,093
-657,145	-200,000	0,018	-0,205
-656,130	-200,000	0,019	-0,126
-655,116	335,797	0,030	0,043
-654,101	-200,000	0,008	-0,028
-653,086	-200,000	-0,031	0,110
-652,072	-71,058	-0,085	0,024
-651,057	-200,000	0,016	-0,098
-650,043	800,000	0,097	-0,204
-649,028	-128,476	-0,078	-0,008
-648,014	36,123	-0,139	0,090
-646,999	-200,000	0,011	0,099
-645,984	7,247	-0,087	-0,048
-644,970	-200,000	0,012	-0,120
-643,955	239,154	-0,063	0,078
-642,941	20,478	-0,091	-0,055
-641,926	-200,000	0,006	0,065
-640,911	-89,325	0,056	0,012
-639,897	386,759	0,064	-0,099
-638,882	315,525	0,013	-0,018
-637,868	-200,000	-0,004	0,066
-636,853	484,632	-0,042	-0,071
-635,838	-189,237	-0,137	-0,001
-634,824	-58,203	-0,028	-0,009
-633,809	-44,639	0,050	0,018
-632,795	176,375	0,068	-0,073
-631,780	685,149	-0,093	0,180
-630,765	249,876	-0,108	0,137
-629,751	-151,011	-0,158	0,009
-628,736	418,701	-0,058	-0,092
-627,722	184,196	0,042	-0,046
-626,707	8,845	0,098	0,054
-625,692	-173,416	0,034	-0,001
-624,678	-200,000	0,012	-0,067
-623,663	20,098	-0,020	-0,012
-622,649	-87,754	-0,177	-0,039
-621,634	-51,632	0,031	-0,011
-620,619	-77,151	0,065	0,017
-619,605	-200,000	0,010	0,129
-618,590	75,598	0,051	-0,040
-617,576	3,507	0,056	0,030
-616,561	661,922	-0,017	0,033
-615,546	584,857	-0,077	0,140
-614,532	-25,520	-0,117	-0,051
-613,517	-200,000	-0,014	0,077
-612,503	-200,000	-0,011	-0,070
-611,488	800,000	0,037	0,107
-610,474	800,000	0,021	0,065
-609,459	800,000	-0,021	0,053
-608,444	-200,000	-0,003	-0,170
-607,430	-169,602	-0,079	0,002
-606,415	800,000	-0,037	-0,082
-605,401	141,583	0,034	-0,033
-604,386	-61,707	-0,075	-0,023
-603,371	-76,856	0,060	-0,015
-602,357	-200,000	-0,001	0,021
-601,342	-98,931	0,098	-0,018
-600,328	-200,000	-0,006	0,077
-599,313	247,401	-0,035	0,043
-598,298	27,095	-0,068	0,042
-597,284	-200,000	0,050	-0,192
-596,269	-200,000	-0,129	-0,000
-595,255	382,616	-0,034	0,052
-594,240	430,776	0,028	-0,045
-593,225	-200,000	-0,021	-0,164
-592,211	-27,932	-0,120	-0,051
-591,196	-148,877	0,183	-0,011
-590,182	800,000	0,023	-0,061
-589,167	-200,000	0,028	0,121
-588,152	687,472	0,028	-0,055
-587,138	-200,000	0,032	0,124
-586,123	-200,000	-0,003	0,027
-585,109	-104,862	0,120	-0,020
-584,094	123,523	-0,081	0,075
-583,079	-76,089	0,091	-0,024
-582,065	178,161	0,011	-0,012
-581,050	800,000	-0,024	0,049
-580,036	-200,000	-0,014	-0,068
-579,021	-200,000	0,006	-0,043
-578,006	158,196	0,061	-0,063
-576,992	114,537	-0,047	0,042
-575,977	614,075	0,069	0,129
-574,963	10,600	0,150	0,084
-573,948	47,716	0,090	0,062
-572,934	33,404	0,105	-0,068
-571,919	-144,939	-0,034	-0,002
-570,904	-159,544	-0,131	-0,005
-569,890	-200,000	0,011	-0,139
-568,875	-24,386	-0,044	-0,019
-567,861	300,310	0,027	0,037
-566,846	-10,810	-0,176	0,086
-565,831	800,000	-0,022	0,057
-564,817	377,145	-0,040	-0,061
-563,802	-45,411	-0,208	-0,076
-562,788	-178,215	0,082	-0,001
-561,773	-200,000	0,014	0,079
-560,758	81,244	-0,028	-0,022
-559,744	616,143	-0,071	-0,131
-558,729	-101,333	-0,105	0,019
-557,715	-200,000	-0,011	-0,069
-556,700	158,046	-0,068	0,070
-555,685	334,099	-0,050	0,072
-554,671	-26,681	0,104	0,045
-553,656	321,054	0,062	0,087
-552,642	-200,000	0,025	0,104
-551,627	800,000	0,022	-0,053
-550,612	571,194	0,060	0,109
-549,598	800,000	0,041	-0,116
-548,583	111,489	0,062	0,055
-547,569	-200,000	0,021	-0,141
-546,554	800,000	0,048	-0,105
-545,539	800,000	0,018	0,043
-544,525	265,058	0,036	-0,047
-543,510	-200,000	0,010	-0,057
-542,496	-112,086	-0,100	0,015
-541,481	9,570	-0,078	0,043
-540,466	-69,610	0,030	-0,008
-539,452	5,751	0,104	0,056
-538,437	33,159	-0,137	0,087
-537,423	800,000	0,054	0,139
-536,408	-200,000	0,001	0,105
-535,393	-36,063	-0,074	-0,029
-534,379	242,706	-0,056	0,069
-533,364	-200,000	-0,018	-0,060
-532,350	98,465	0,162	0,138
-531,335	212,558	0,052	0,061
-530,321	222,282	-0,122	-0,145
-529,306	328,161	0,059	-0,083
-528,291	-96,498	0,072	0,014
-527,277	800,000	-0,029	-0,088
-526,262	-200,000	-0,040	-0,188
-525,248	57,725	0,128	-0,092
-524,233	-28,308	0,057	0,024
-523,218	27,566	-0,066	0,041
-522,204	-98,121	-0,101	0,019
-521,189	-200,000	0,005	0,078
-520,175	-200,000	-0,001	0,090
-519,160	204,989	-0,037	-0,042
-518,145	147,154	0,059	0,059
-517,131	357,765	-0,105	0,155
-516,116	252,903	0,115	0,145
-515,102	800,000	0,047	-0,138
-514,087	800,000	-0,044	-0,103
-513,072	-200,000	-0,027	-0,148
-512,058	740,315	0,019	-0,038
-511,043	491,636	0,030	0,051
-510,029	624,621	0,066	0,123
-509,014	-200,000	-0,024	0,082
-507,999	800,000	-0,032	0,091
-506,985	-200,000	0,008	-0,151
-505,970	800,000	0,025	-0,073
-504,956	-200,000	-0,013	-0,045
-503,941	800,000	-0,016	0,046
-502,926	150,352	-0,063	0,063
-501,912	106,049	-0,038	-0,033
-500,897	-15,799	-0,096	0,045
-499,883	67,182	-0,046	-0,034
-498,868	-2,878	0,088	-0,045
-497,853	-71,767	-0,004	0,001
-496,839	-200,000	0,024	-0,145
-495,824	119,378	-0,122	-0,111
-494,810	113,896	-0,030	0,027
-493,795	-1,838	-0,059	-0,030
-492,781	-200,000	-0,001	-0,041
-491,766	-25,036	-0,135	-0,059
-490,751	-200,000	0,006	0,087
-489,737	-200,000	0,015	0,078
-488,722	284,084	-0,023	0,031
-487,708	-159,584	0,146	0,006
-486,693	102,715	-0,064	-0,055
-485,678	-56,178	-0,146	-0,047
-484,664	275,287	0,075	0,098
-483,649	363,620	0,032	-0,048
-482,635	534,572	-0,050	0,088
-481,620	431,203	0,039	0,062
-480,605	-200,000	-0,006	-0,044
-479,591	15,993	0,040	0,023
-478,576	-200,000	-0,009	-0,076
-477,562	456,412	-0,092	-0,151
-476,547	-158,904	0,036	-0,001
-475,532	30,544	-0,059	-0,037
-474,518	307,561	-0,038	-0,052
-473,503	-16,289	0,174	-0,081
-472,489	39,176	0,077	0,051
-471,474	-122,180	-0,045	-0,005
-470,459	183,838	-0,038	-0,041
-469,445	252,787	-0,063	-0,079
-468,430	-86,460	-0,169	0,038
-467,416	-39,351	-0,056	-0,021
-466,401	24,455	0,101	0,061
-465,386	292,521	-0,029	-0,039
-464,372	-58,411	0,128	0,041
-463,357	-19,419	-0,081	-0,037
-462,343	-200,000	-0,007	-0,044
-461,328	-178,830	-0,124	-0,002
-460,313	-40,657	0,120	-0,046
-459,299	727,047	-0,026	0,050
-458,284	88,374	-0,036	-0,030
-457,270	800,000	0,037	-0,090
-456,255	519,161	0,029	-0,051
-455,241	-17,253	-0,075	-0,035
-454,226	-200,000	-0,011	-0,114
-453,211	-200,000	-0,010	0,115
-452,197	800,000	-0,055	0,169
-451,182	-143,763	0,096	0,007
-450,168	6,816	-0,097	-0,053
-449,153	-200,000	0,022	0,150
-448,138	108,015	-0,010	0,008
-447,124	309,879	-0,042	0,058
-446,109	-105,424	0,032	0,005
-445,095	800,000	0,034	-0,091
-444,080	-104,756	0,060	-0,010
-443,065	-24,037	0,113	-0,050
-442,051	-200,000	0,006	-0,082
-441,036	101,045	-0,135	-0,115
-440,022	800,000	-0,070	-0,157
-439,007	-100,737	-0,033	0,006
-437,992	-8,849	-0,042	0,021
-436,978	339,340	-0,067	-0,096
-435,963	-97,115	0,160	0,030
-434,949	44,114	-0,022	-0,015
-433,934	-200,000	0,000	-0,118
-432,919	-122,473	-0,053	-0,006
-431,905	340,311	-0,052	-0,075
-430,890	-142,417	0,197	-0,014
-429,876	-40,439	0,054	-0,020
-428,861	-200,000	-0,033	-0,139
-427,846	102,115	-0,048	-0,041
-426,832	-200,000	0,007	-0,040
-425,817	737,243	-0,058	-0,116
-424,803	620,677	0,007	-0,012
-423,788	36,497	0,160	-0,103
-422,773	-153,601	0,106	0,005
-421,759	350,829	-0,005	-0,007
-420,744	15,134	-0,106	-0,061
-419,730	-189,762	0,037	-0,000
-418,715	-22,300	-0,094	0,042
-417,701	-200,000	-0,003	-0,133
-416,686	-21,907	0,148	0,066
-415,671	800,000	-0,008	0,016
-414,657	800,000	-0,041	0,097
-413,642	-134,261	0,016	-0,001
-412,628	115,859	-0,050	-0,045
-411,613	-200,000	-0,003	0,060
-410,598	54,390	-0,071	0,050
-409,584	788,272	0,014	0,028
-408,569	-84,488	0,105	0,024
-407,555	-200,000	0,003	0,108
-406,540	385,272	0,061	-0,093
-405,525	-109,392	0,180	0,028
-404,511	-200,000	-0,002	0,041
-403,496	-7,017	-0,033	0,016
-402,482	-35,034	-0,065	-0,026
-401,467	-70,714	0,131	0,036
-400,452	95,015	0,127	0,106
-399,438	-200,000	0,003	0,117
-398,423	-110,119	-0,062	-0,009
-397,409	-200,000	-0,023	-0,107
-396,394	5,398	-0,124	-0,067
-395,379	123,638	0,057	0,053
-394,365	86,498	-0,023	0,019
-393,350	93,014	0,069	0,058
-392,336	52,407	0,093	-0,065
-391,321	10,974	0,189	-0,106
-390,306	800,000	0,031	-0,064
-389,292	421,652	0,071	0,112
-388,277	-38,344	-0,039	0,015
-387,263	800,000	-0,040	0,104
-386,248	-63,779	-0,103	-0,031
-385,233	-130,136	0,141	-0,014
-384,219	-200,000	0,050	-0,167
-383,204	-200,000	-0,011	-0,069
-382,190	614,445	0,078	-0,144
-381,175	-43,568	0,051	-0,019
-380,160	-48,367	0,186	-0,065
-379,146	543,035	0,048	0,083
-378,131	77,158	-0,055	-0,043
-377,117	800,000	-0,080	0,171
-376,102	-200,000	-0,020	-0,070
-375,088	-106,374	-0,043	0,007
-374,073	800,000	0,045	-0,123
-373,058	-40,394	0,130	-0,049
-372,044	-200,000	0,011	0,205
-371,029	-200,000	-0,033	0,108
-370,015	57,716	0,059	0,042
-369,000	280,762	-0,008	-0,011
-367,985	-109,478	0,104	-0,016
-366,971	226,443	0,031	-0,037
-365,956	237,059	-0,020	0,025
-364,942	692,814	-0,074	0,144
-363,927	35,682	0,127	0,082
-362,912	42,512	-0,046	-0,031
-361,898	610,994	0,034	-0,062
-360,883	126,424	0,051	-0,048
-359,869	205,688	0,059	0,067
-358,854	-73,284	0,158	0,042
-357,839	-200,000	0,022	-0,122
-356,825	227,294	0,069	0,083
-355,810	130,763	0,058	0,054
-354,796	11,271	-0,160	-0,089
-353,781	389,391	0,009	0,014
-352,766	72,939	-0,053	-0,041
-351,752	-200,000	-0,015	-0,087
-350,737	142,478	0,048	0,047
-349,723	305,400	-0,017	-0,024
-348,708	800,000	0,030	0,079
-347,693	182,700	0,011	-0,011
-346,679	-200,000	-0,017	-0,069
-345,664	118,807	0,060	0,054
-344,650	-200,000	-0,001	0,090
-343,635	-200,000	-0,017	0,100
-342,620	800,000	0,020	-0,053
-341,606	-200,000	0,025	0,103
-340,591	-7,762	0,073	-0,036
-339,577	-165,638	-0,114	-0,004
-338,562	478,641	-0,063	-0,105
-337,548	83,959	0,073	-0,058
-336,533	-35,735	-0,090	0,036
-335,518	-108,271	0,057	-0,009
-334,504	85,911	0,077	0,062
-333,489	-133,312	0,110	0,010
-332,475	-200,000	-0,019	-0,082
-331,460	111,704	-0,018	-0,016
-330,445	800,000	0,036	0,093
-329,431	-200,000	-0,007	-0,117
-328,416	-63,491	0,140	0,042
-327,402	517,741	-0,055	0,095
-326,387	-29,585	0,106	0,044
-325,372	800,000	-0,012	-0,026
-324,358	-200,000	0,005	0,120
-323,343	-70,618	0,128	0,035
-322,329	-60,059	0,072	-0,022
-321,314	-200,000	0,012	0,075
-320,299	130,439	-0,047	0,044
-319,285	-37,428	-0,069	0,027
-318,270	-30,047	-0,078	-0,032
-317,256	6,610	0,075	0,041
-316,241	40,340	-0,158	-0,104
-315,226	9,669	0,107	0,059
-314,212	10,845	0,131	0,073
-313,197	-200,000	0,003	0,088
-312,183	800,000	0,025	0,057
-311,168	-10,519	-0,022	0,011
-310,153	-77,231	-0,005	0,001
-309,139	800,000	0,080	0,164
-308,124	-200,000	0,002	0,047
-307,110	30,976	-0,097	-0,061
-306,095	44,671	0,027	-0,018
-305,080	800,000	0,021	0,061
-304,066	-15,366	-0,071	0,033
-303,051	-11,689	0,032	0,015
-302,037	603,949	0,054	0,099
-301,022	452,683	-0,043	-0,069
-300,008	58,202	-0,099	0,071
-298,993	238,436	-0,013	0,016
-297,978	370,930	0,073	0,109
-296,964	-64,996	-0,070	0,021
-295,949	-200,000	-0,004	-0,083
-294,935	469,621	-0,055	-0,091
-293,920	-72,847	-0,084	-0,022
-292,905	-47,172	0,098	-0,035
-291,891	-58,197	0,052	-0,017
-290,876	-200,000	-0,024	0,099
-289,862	315,360	0,021	0,029
-288,847	-143,926	-0,120	0,008
-287,832	372,422	-0,059	-0,087
-286,818	406,775	-0,044	0,069
-285,803	-200,000	0,021	0,113
-284,789	800,000	0,048	-0,117
-283,774	782,478	-0,042	-0,084
-282,759	800,000	-0,020	-0,056
-281,745	-28,721	0,059	0,025
-280,730	24,346	-0,166	-0,100
-279,716	800,000	-0,052	0,134
-278,701	466,752	-0,022	0,036
-277,686	-200,000	-0,006	-0,034
-276,672	243,960	0,056	0,069
-275,657	-68,622	0,046	-0,013
-274,643	-10,002	-0,064	0,031
-273,628	237,399	-0,129	-0,156
-272,613	-6,728	0,073	-0,036
-271,599	6,659	-0,083	-0,045
-270,584	323,461	0,123	-0,172
-269,570	800,000	-0,019	-0,048
-268,555	-114,107	-0,058	-0,008
-267,540	-200,000	-0,021	0,105
-266,526	800,000	-0,010	-0,021
-265,511	145,622	-0,068	0,067
-264,497	-200,000	-0,003	-0,069
-263,482	-19,586	0,112	-0,051
-262,467	-172,014	-0,069	-0,002
-261,453	-200,000	0,006	0,076
-260,438	380,848	-0,058	0,087
-259,424	-61,752	-0,110	-0,034
-258,409	-200,000	-0,045	-0,150
-257,395	-134,899	-0,166	0,014
-256,380	-200,000	0,003	-0,109
-255,365	80,885	0,090	-0,071
-254,351	-200,000	0,012	-0,110
-253,336	-200,000	-0,005	0,057
-252,322	401,831	0,041	-0,063
-251,307	-135,471	-0,124	-0,011
-250,292	-31,351	0,097	-0,040
-249,278	225,534	0,039	0,046
-248,263	504,220	0,089	0,150
-247,249	323,393	0,062	0,087
-246,234	304,514	0,032	-0,044
-245,219	-153,131	-0,100	-0,005
-244,205	800,000	0,036	0,089
-243,190	-200,000	-0,012	0,159
-242,176	-200,000	0,036	0,148
-241,161	178,722	0,032	0,035
-240,146	4,273	-0,106	0,057
-239,132	-123,275	-0,033	0,004
-238,117	64,471	-0,039	-0,029
-237,103	88,395	0,081	-0,065
-236,088	-9,938	0,060	-0,029
-235,073	-6,986	0,075	0,037
-234,059	422,384	0,051	-0,080
-233,044	331,400	0,004	-0,006
-232,030	166,032	0,068	0,071
-231,015	30,867	-0,133	-0,083
-230,000	191,633	-0,016	-0,017
-228,986	800,000	-0,026	0,072
-227,971	-136,349	-0,035	-0,003
-226,957	325,184	-0,045	0,063
-225,942	-200,000	0,013	0,050
-224,927	-200,000	0,022	-0,080
-223,913	800,000	0,029	-0,061
-222,898	-43,439	0,012	0,004
-221,884	365,719	0,026	-0,039
-220,869	-200,000	-0,025	-0,096
-219,855	501,805	-0,049	-0,084
-218,840	28,824	0,078	0,048
-217,825	115,795	-0,024	0,022
-216,811	-24,209	0,076	-0,033
-215,796	430,703	0,062	-0,099
-214,782	-200,000	-0,014	0,051
-213,767	304,532	0,048	-0,066
-212,752	-200,000	-0,007	0,134
-211,738	-200,000	-0,004	0,023
-210,723	-115,517	-0,138	-0,019
-209,709	251,602	-0,015	-0,019
-208,694	-54,377	0,049	0,016
-207,679	-200,000	-0,003	0,038
-206,665	50,274	0,055	-0,038
-205,650	441,983	0,083	-0,133
-204,636	-33,661	0,161	0,064
-203,621	-200,000	0,002	0,100
-202,606	-88,605	0,128	-0,028
-201,592	-17,405	-0,031	0,014
-200,577	-86,556	0,132	0,029
-199,563	-50,736	-0,034	0,012
-198,548	-175,785	0,074	0,001
-197,533	-108,862	0,040	-0,006
-196,519	-132,919	0,183	-0,017
-195,504	-55,047	-0,079	0,026
-194,490	-86,944	-0,109	-0,024
-193,475	-42,396	-0,129	-0,048
-192,460	53,329	-0,123	-0,086
-191,446	-200,000	0,003	-0,023
-190,431	142,497	0,086	0,083
-189,417	-139,553	0,060	-0,005
-188,402	200,695	-0,066	0,074
-187,387	-111,666	-0,065	0,010
-186,373	-200,000	0,007	-0,036
-185,358	16,381	0,039	0,022
-184,344	-105,655	-0,096	-0,016
-183,329	44,743	-0,069	0,046
-182,315	75,660	0,011	-0,009
-181,300	-94,818	-0,047	0,009
-180,285	580,907	-0,045	0,080
-179,271	-200,000	-0,003	-0,043
-178,256	-89,001	-0,152	-0,033
-177,242	219,157	0,096	0,112
-176,227	-200,000	-0,008	0,036
-175,212	-133,635	0,052	0,005
-174,198	138,216	-0,077	0,074
-173,183	519,000	0,065	-0,111
-172,169	800,000	0,024	0,051
-171,154	-200,000	0,003	-0,046
-170,139	-149,765	-0,089	0,005
-169,125	800,000	0,038	-0,093
-168,110	433,562	0,097	0,154
-167,096	-0,697	-0,051	-0,026
-166,081	488,174	-0,021	-0,036
-165,066	800,000	0,016	0,050
-164,052	-200,000	-0,065	0,000
-163,037	37,665	-0,059	-0,038
-162,023	-200,000	0,007	0,096
-161,008	388,045	-0,073	0,111
-159,993	-200,000	0,027	-0,124
-158,979	-200,000	0,000	-0,066
-157,964	-33,872	-0,026	0,010
-156,950	-89,106	-0,076	0,016
-155,935	-31,403	-0,020	-0,008
-154,920	-88,041	-0,076	0,017
-153,906	-4,105	-0,012	-0,006
-152,891	-200,000	-0,002	0,119
-151,877	-113,263	0,092	-0,013
-150,862	-200,000	0,008	-0,071
-149,847	800,000	0,091	-0,207
-148,833	181,270	0,031	-0,033
-147,818	324,141	-0,082	-0,114
-146,804	-200,000	-0,009	0,040
-145,789	-50,209	-0,137	-0,047
-144,775	-6,207	-0,218	0,108
-143,760	-127,363	-0,174	-0,018
-142,745	-200,000	-0,004	-0,080
-141,731	-200,000	0,021	-0,088
-140,716	-180,275	0,023	0,000
-139,702	-200,000	0,006	0,102
-138,687	104,134	0,038	-0,032
-137,672	800,000	0,003	0,009
-136,658	-71,742	0,010	0,003
-135,643	-74,779	-0,128	0,033
-134,629	241,876	-0,115	-0,141
-133,614	-41,368	0,105	-0,039
-132,599	800,000	-0,033	0,079
-131,585	504,022	-0,040	0,067
-130,570	334,897	-0,063	-0,088
-129,556	-67,698	0,017	0,005
-128,541	-75,522	0,044	0,011
-127,526	402,611	-0,065	-0,099
-126,512	132,985	-0,116	0,109
-125,497	166,765	0,048	-0,049
-124,483	800,000	-0,045	-0,107
-123,468	800,000	0,056	-0,125
-122,453	-200,000	-0,018	-0,099
-121,439	-127,763	0,072	-0,007
-120,424	-200,000	-0,018	0,087
-119,410	139,417	-0,025	0,024
