DTS Sentinel unit serial number:	SN410029Multiplexer serial number:	ORYXHardware model number:	OX2-SRSoftware version number:	ORYX F/W v4,00 Oryx Data Collector v3.7.2.0data status	okinstallation	B6 Nyhavnadifferential loss correction	single-endedforward channel	channel 2reverse channel	N/Adate	2023/12/08time	00:20:08forward acquisition time	300,00reverse acquisition time	0,00gamma	499,1914k internal	0,3165k external	0,3165temperature offset calibration	1,0000default loss term (dB/km)	0,3820temperature slope calibration	1,0000multiplexer offset coefficient	1,0000multiplexer slope coefficient	1,0000fibre end	0,00T internal ref (°C)	13,36T ext. ref 1 (°C)	-3,58T ext. ref 2 (°C)	-3,57length (m)	temperature (°C)	Stokes	anti-Stokes-744,400	-129,234	0,172	-0,017
-743,385	-101,103	-0,284	-0,051
-742,371	-181,318	0,046	-0,001
-741,356	-45,602	-0,219	0,079
-740,342	263,872	0,047	0,061
-739,327	-82,521	-0,251	0,060
-738,312	-113,546	0,040	0,006
-737,298	-60,672	-0,300	-0,093
-736,283	5,549	0,093	0,051
-735,269	-37,049	-0,139	0,054
-734,254	-41,769	0,041	0,015
-733,239	-120,181	-0,431	-0,054
-732,225	16,588	0,213	0,124
-731,210	-200,000	0,003	-0,056
-730,196	-200,000	0,018	0,075
-729,181	-200,000	-0,000	-0,095
-728,167	-19,012	-0,117	-0,053
-727,152	-200,000	-0,013	-0,096
-726,137	47,052	-0,061	-0,042
-725,123	-200,000	0,004	-0,119
-724,108	-146,063	-0,262	-0,017
-723,094	800,000	-0,020	-0,055
-722,079	145,203	-0,033	0,033
-721,064	280,136	-0,060	0,079
-720,050	343,008	-0,056	-0,081
-719,035	114,047	0,028	0,025
-718,021	412,354	-0,045	-0,071
-717,006	244,738	-0,034	0,042
-715,991	-162,376	-0,169	-0,006
-714,977	9,715	-0,132	-0,073
-713,962	627,921	0,064	0,119
-712,948	-87,783	-0,142	0,031
-711,933	-200,000	0,027	0,097
-710,918	-15,631	0,044	-0,021
-709,904	-200,000	-0,042	-0,163
-708,889	44,857	-0,081	0,055
-707,875	22,529	-0,110	-0,066
-706,860	-45,010	0,028	0,010
-705,845	-60,511	-0,046	-0,014
-704,831	800,000	-0,028	0,091
-703,816	-19,636	-0,115	0,052
-702,802	1,587	-0,028	-0,015
-701,787	189,532	0,009	0,010
-700,772	528,344	-0,081	-0,142
-699,758	312,315	-0,015	0,021
-698,743	800,000	-0,039	-0,096
-697,729	-200,000	0,002	-0,042
-696,714	203,663	-0,090	-0,103
-695,699	138,129	0,038	-0,037
-694,685	-115,263	-0,071	0,010
-693,670	-155,604	-0,058	-0,003
-692,656	10,757	-0,085	0,047
-691,641	-58,552	0,022	-0,007
-690,627	-81,887	-0,122	0,029
-689,612	-200,000	0,004	-0,025
-688,597	-200,000	-0,009	0,056
-687,583	594,347	-0,046	-0,083
-686,568	8,379	-0,085	-0,047
-685,554	320,829	0,053	-0,074
-684,539	-151,902	-0,099	0,005
-683,524	-47,593	0,118	0,042
-682,510	71,117	-0,057	-0,043
-681,495	-148,443	0,020	0,001
-680,481	-32,797	0,037	0,015
-679,466	38,557	-0,116	-0,076
-678,451	154,372	-0,079	0,079
-677,437	-61,373	-0,062	-0,019
-676,422	-11,651	-0,093	-0,045
-675,408	-58,894	0,060	-0,019
-674,393	-26,650	0,036	-0,015
-673,378	-200,000	-0,022	-0,230
-672,364	-200,000	-0,043	-0,154
-671,349	-8,564	0,119	-0,059
-670,335	-142,963	-0,057	-0,004
-669,320	-200,000	0,010	0,108
-668,305	-88,816	0,050	0,011
-667,291	709,305	0,017	-0,033
-666,276	-33,713	0,038	-0,015
-665,262	-102,167	-0,158	0,028
-664,247	-114,554	-0,109	0,015
-663,232	315,689	-0,067	0,093
-662,218	2,271	0,100	-0,053
-661,203	-200,000	0,022	0,115
-660,189	-200,000	0,025	-0,093
-659,174	800,000	0,018	-0,057
-658,159	161,449	-0,052	0,053
-657,145	-200,000	-0,002	-0,079
-656,130	533,131	0,058	0,101
-655,116	-200,000	-0,003	-0,053
-654,101	331,344	0,099	-0,140
-653,086	-200,000	-0,073	-0,254
-652,072	26,031	-0,055	-0,034
-651,057	-43,572	0,053	0,019
-650,043	-200,000	-0,032	-0,178
-649,028	-200,000	0,024	-0,181
-648,014	-200,000	-0,009	-0,033
-646,999	-200,000	-0,106	-0,000
-645,984	-29,297	0,131	0,055
-644,970	800,000	-0,016	-0,044
-643,955	-200,000	-0,030	-0,098
-642,941	-200,000	-0,012	-0,069
-641,926	-78,916	-0,038	0,009
-640,911	-187,140	-0,077	0,001
-639,897	-152,236	-0,118	-0,006
-638,882	489,422	-0,082	0,138
-637,868	-89,918	-0,009	-0,002
-636,853	84,104	-0,027	-0,022
-635,838	17,054	-0,036	-0,021
-634,824	5,460	-0,101	-0,055
-633,809	36,681	0,131	0,084
-632,795	231,914	0,053	0,064
-631,780	-156,267	0,083	-0,004
-630,765	38,916	0,030	-0,019
-629,751	800,000	-0,054	-0,114
-628,736	7,937	-0,172	-0,094
-627,722	33,514	0,064	-0,041
-626,707	184,351	-0,047	0,051
-625,692	556,090	-0,069	0,122
-624,678	111,945	-0,060	0,053
-623,663	-33,692	-0,036	0,015
-622,649	-52,268	-0,179	0,060
-621,634	123,626	-0,062	-0,057
-620,619	248,807	0,027	0,034
-619,605	-119,982	0,088	0,011
-618,590	-200,000	-0,004	0,070
-617,576	-76,143	0,174	0,045
-616,561	-200,000	0,004	0,023
-615,546	-125,230	-0,146	0,016
-614,532	45,073	-0,139	-0,094
-613,517	800,000	0,047	-0,123
-612,503	-31,129	0,054	-0,022
-611,488	-46,185	-0,051	0,018
-610,474	-49,072	-0,163	-0,057
-609,459	-88,445	0,029	0,006
-608,444	51,977	0,185	-0,129
-607,430	-200,000	0,009	-0,082
-606,415	-6,144	0,088	-0,044
-605,401	800,000	0,013	0,027
-604,386	-33,777	0,045	-0,018
-603,371	125,556	0,022	-0,021
-602,357	384,911	0,045	-0,068
-601,342	-200,000	0,005	0,065
-600,328	568,613	-0,051	0,090
-599,313	84,621	0,042	0,034
-598,298	-200,000	-0,004	0,104
-597,284	250,229	0,031	-0,039
-596,269	53,244	0,090	-0,063
-595,255	800,000	-0,031	0,070
-594,240	800,000	-0,019	-0,057
-593,225	86,392	-0,063	0,051
-592,211	-200,000	-0,016	-0,053
-591,196	36,616	0,057	0,037
-590,182	-135,216	-0,032	0,003
-589,167	261,612	0,015	-0,018
-588,152	-115,625	-0,005	0,001
-587,138	-115,989	-0,151	-0,020
-586,123	109,823	-0,080	-0,070
-585,109	338,840	0,064	-0,091
-584,094	800,000	-0,041	-0,086
-583,079	-143,641	0,052	-0,004
-582,065	-24,475	0,013	0,006
-581,050	75,703	0,057	-0,044
-580,036	185,977	0,049	-0,053
-579,021	174,708	-0,091	-0,096
-578,006	800,000	-0,065	-0,142
-576,992	800,000	-0,040	-0,106
-575,977	-56,618	-0,075	0,024
-574,963	384,770	0,005	0,008
-573,948	-200,000	-0,001	-0,054
-572,934	130,556	-0,040	0,037
-571,919	-23,721	-0,041	0,018
-570,904	-61,994	-0,005	-0,002
-569,890	-98,360	0,126	0,023
-568,875	-108,387	-0,035	0,005
-567,861	800,000	0,047	-0,109
-566,846	-200,000	-0,019	0,102
-565,831	-75,322	0,108	0,028
-564,817	-200,000	-0,016	-0,065
-563,802	-200,000	-0,025	-0,082
-562,788	-91,823	-0,031	0,006
-561,773	-30,868	0,005	0,002
-560,758	536,106	-0,066	-0,115
-559,744	331,628	-0,010	0,014
-558,729	509,537	-0,037	0,063
-557,715	56,595	-0,065	0,046
-556,700	380,855	0,017	-0,026
-555,685	-200,000	0,028	-0,098
-554,671	147,125	0,071	0,070
-553,656	189,332	0,061	-0,067
-552,642	32,457	0,081	0,051
-551,627	-39,099	-0,076	-0,029
-550,612	800,000	-0,042	-0,124
-549,598	-200,000	0,031	0,115
-548,583	17,295	-0,059	0,034
-547,569	709,295	-0,048	0,092
-546,554	470,389	0,086	0,141
-545,539	369,043	-0,081	0,119
-544,525	-47,448	-0,165	-0,058
-543,510	800,000	-0,021	-0,063
-542,496	-200,000	-0,014	-0,055
-541,481	-41,815	-0,059	-0,022
-540,466	-200,000	0,009	0,047
-539,452	-200,000	0,038	-0,137
-538,437	64,239	0,099	-0,073
-537,423	669,418	-0,024	-0,045
-536,408	132,215	-0,058	0,055
-535,393	192,525	0,056	-0,061
-534,379	0,714	0,021	-0,011
-533,364	23,708	-0,095	-0,057
-532,350	33,049	0,233	-0,147
-531,335	-184,763	0,181	-0,002
-530,321	-3,716	-0,010	-0,005
-529,306	466,724	0,050	-0,082
-528,291	-200,000	0,025	-0,093
-527,277	0,036	0,066	-0,034
-526,262	-15,721	-0,071	-0,033
-525,248	-200,000	0,000	-0,058
-524,233	800,000	-0,008	-0,023
-523,218	-200,000	0,029	0,115
-522,204	800,000	0,024	0,054
-521,189	61,561	-0,153	-0,111
-520,175	-52,407	-0,055	0,018
-519,160	29,910	0,026	-0,016
-518,145	519,029	-0,063	0,109
-517,131	386,432	-0,039	-0,059
-516,116	-166,025	0,090	0,003
-515,102	167,471	-0,103	-0,107
-514,087	800,000	0,028	-0,063
-513,072	292,653	-0,041	-0,054
-512,058	-200,000	0,009	0,045
-511,043	-5,086	0,055	-0,027
-510,029	190,009	0,020	0,022
-509,014	-55,211	-0,114	0,037
-507,999	-58,770	-0,055	-0,017
-506,985	800,000	-0,028	0,086
-505,970	-59,099	-0,008	0,003
-504,956	-200,000	-0,026	-0,086
-503,941	-200,000	-0,006	0,056
-502,926	800,000	0,050	-0,123
-501,912	800,000	0,037	-0,095
-500,897	800,000	-0,057	0,167
-499,883	-200,000	-0,002	0,055
-498,868	-200,000	-0,002	0,016
-497,853	800,000	0,041	0,126
-496,839	-200,000	0,007	0,037
-495,824	-200,000	0,004	-0,017
-494,810	-159,612	-0,112	-0,004
-493,795	75,836	-0,062	0,048
-492,781	238,534	0,046	-0,055
-491,766	-200,000	0,007	0,119
-490,751	-200,000	-0,012	-0,044
-489,737	243,897	-0,004	-0,005
-488,722	800,000	-0,027	0,056
-487,708	-103,296	0,052	0,009
-486,693	-164,425	0,083	-0,003
-485,678	95,134	-0,050	0,042
-484,664	-200,000	-0,028	-0,120
-483,649	-31,477	-0,059	-0,024
-482,635	-124,095	0,229	-0,026
-481,620	110,667	0,058	0,050
-480,605	-97,127	-0,097	0,018
-479,591	-123,631	-0,105	0,012
-478,576	53,071	-0,071	-0,049
-477,562	281,879	0,053	-0,069
-476,547	800,000	-0,014	0,039
-475,532	-200,000	0,010	0,035
-474,518	36,809	-0,045	-0,029
-473,503	-34,270	0,068	-0,027
-472,489	-200,000	0,018	0,090
-471,474	314,404	-0,061	-0,084
-470,459	-200,000	-0,004	-0,070
-469,445	100,416	-0,075	-0,063
-468,430	-200,000	0,022	0,125
-467,416	705,789	-0,029	0,056
-466,401	97,966	-0,128	0,107
-465,386	-200,000	0,000	0,066
-464,372	0,460	0,088	0,046
-463,357	-104,488	0,151	-0,025
-462,343	-46,097	-0,112	-0,040
-461,328	-93,472	-0,067	0,013
-460,313	-200,000	0,006	-0,072
-459,299	-200,000	-0,030	0,111
-458,284	73,943	0,136	0,104
-457,270	-200,000	0,007	0,022
-456,255	-200,000	0,008	-0,081
-455,241	-101,447	-0,069	-0,012
-454,226	225,308	0,020	-0,023
-453,211	-65,082	0,129	0,038
-452,197	336,201	0,081	0,114
-451,182	95,988	-0,066	-0,055
-450,168	-160,128	0,109	-0,004
-449,153	-4,349	0,086	0,043
-448,138	-136,074	-0,085	-0,007
-447,124	800,000	-0,028	-0,059
-446,109	-12,785	0,010	0,005
-445,095	-200,000	-0,029	-0,146
-444,080	336,238	0,061	0,087
-443,065	-115,854	-0,083	-0,011
-442,051	-123,285	-0,208	0,024
-441,036	-67,751	0,086	-0,024
-440,022	-110,741	-0,100	-0,015
-439,007	800,000	0,062	-0,127
-437,992	48,713	-0,063	-0,043
-436,978	-163,437	0,149	-0,005
-435,963	67,416	0,017	0,012
-434,949	-187,970	0,062	0,001
-433,934	-67,122	-0,121	-0,035
-432,919	-145,969	0,032	-0,002
-431,905	433,063	0,033	-0,052
-430,890	409,583	0,063	-0,097
-429,876	21,316	0,027	0,016
-428,861	175,333	0,125	0,132
-427,846	-200,000	-0,020	-0,136
-426,832	296,982	-0,057	-0,076
-425,817	12,695	-0,043	-0,024
-424,803	-200,000	-0,001	-0,041
-423,788	161,315	0,102	0,104
-422,773	-43,816	-0,054	-0,020
-421,759	571,080	0,055	0,097
-420,744	-200,000	0,051	-0,176
-419,730	-200,000	-0,022	-0,073
-418,715	-109,039	-0,086	0,013
-417,701	107,797	-0,105	0,091
-416,686	85,731	0,046	-0,037
-415,671	22,177	0,042	0,025
-414,657	800,000	0,054	0,137
-413,642	-200,000	0,006	0,046
-412,628	-200,000	-0,007	-0,077
-411,613	-17,465	0,034	0,015
-410,598	800,000	-0,010	0,028
-409,584	800,000	-0,018	0,041
-408,569	-60,786	0,047	0,015
-407,555	78,313	0,044	-0,034
-406,540	-103,185	-0,055	0,009
-405,525	800,000	-0,032	-0,068
-404,511	195,490	-0,024	-0,026
-403,496	-21,776	-0,069	0,030
-402,482	-91,471	0,125	-0,026
-401,467	800,000	0,037	0,088
-400,452	34,618	-0,074	0,047
-399,438	69,624	0,073	-0,055
-398,423	173,082	-0,011	0,011
-397,409	-12,025	-0,076	0,036
-396,394	796,936	-0,036	0,073
-395,379	454,094	0,051	0,083
-394,365	-85,262	0,131	-0,030
-393,350	-149,757	0,094	0,005
-392,336	-89,765	-0,089	0,019
-391,321	-85,585	-0,059	-0,013
-390,306	-15,365	-0,041	-0,019
-389,292	-10,408	0,102	0,049
-388,277	-200,000	-0,013	-0,048
-387,263	551,413	0,054	0,095
-386,248	-200,000	0,034	0,113
-385,233	800,000	-0,021	0,061
-384,219	71,883	-0,041	0,031
-383,204	2,816	0,083	-0,044
-382,190	-143,033	-0,038	0,003
-381,175	-200,000	-0,005	-0,164
-380,160	-5,336	0,077	0,038
-379,146	-26,242	0,098	0,041
-378,131	-200,000	-0,001	0,097
-377,117	107,534	-0,015	0,013
-376,102	292,400	-0,054	0,071
-375,088	27,640	-0,012	0,008
-374,073	274,590	-0,081	0,104
-373,058	618,117	0,107	0,195
-372,044	-74,170	-0,020	0,005
-371,029	-122,378	-0,078	0,009
-370,015	-58,961	0,032	0,010
-369,000	187,078	0,072	-0,078
-367,985	-200,000	-0,003	0,044
-366,971	158,799	0,097	-0,098
-365,956	64,661	-0,120	-0,087
-364,942	233,999	0,080	0,096
-363,927	30,341	-0,040	0,025
-362,912	800,000	0,052	0,109
-361,898	-30,871	-0,099	0,041
-360,883	800,000	0,038	0,093
-359,869	-142,655	-0,044	-0,003
-358,854	204,233	0,049	-0,056
-357,839	-200,000	0,005	0,017
-356,825	800,000	-0,060	0,124
-355,810	-200,000	0,016	0,105
-354,796	-57,913	0,047	0,015
-353,781	-200,000	0,017	-0,187
-352,766	-200,000	-0,013	-0,053
-351,752	800,000	-0,028	0,057
-350,737	-94,557	0,109	-0,021
-349,723	800,000	0,011	0,030
-348,708	789,245	0,042	0,084
-347,693	522,909	0,046	0,079
-346,679	-104,100	-0,109	-0,018
-345,664	-158,340	0,062	-0,003
-344,650	275,637	0,090	0,116
-343,635	-19,864	0,157	-0,070
-342,620	20,199	0,071	0,042
-341,606	98,664	0,061	-0,051
-340,591	303,655	-0,013	0,017
-339,577	-200,000	0,016	0,070
-338,562	-85,753	0,007	0,002
-337,548	-200,000	0,032	-0,108
-336,533	800,000	0,039	0,111
-335,518	-115,260	0,024	-0,003
-334,504	-200,000	-0,013	-0,087
-333,489	-113,908	-0,104	-0,014
-332,475	725,556	0,068	-0,131
-331,460	364,702	-0,004	0,006
-330,445	15,942	0,089	-0,051
-329,431	10,204	-0,103	0,056
-328,416	24,160	0,069	-0,041
-327,402	48,580	-0,095	0,064
-326,387	24,396	0,047	0,028
-325,372	800,000	0,033	-0,092
-324,358	-200,000	-0,021	-0,116
-323,343	330,059	-0,039	-0,054
-322,329	-200,000	-0,001	-0,012
-321,314	278,383	0,118	0,152
-320,299	-200,000	0,014	0,116
-319,285	733,955	0,037	0,073
-318,270	-200,000	0,022	-0,096
-317,256	-200,000	-0,023	-0,139
-316,241	104,805	-0,029	0,025
-315,226	-81,112	0,146	0,035
-314,212	212,660	0,043	0,049
-313,197	640,112	-0,009	-0,016
-312,183	13,679	-0,021	0,012
-311,168	266,708	-0,058	-0,074
-310,153	-45,833	-0,073	-0,026
-309,139	800,000	-0,064	-0,135
-308,124	800,000	-0,059	-0,147
-307,110	800,000	-0,037	-0,094
-306,095	-126,207	0,188	0,020
-305,080	43,912	-0,069	0,045
-304,066	-200,000	0,000	0,059
-303,051	-11,578	0,065	0,031
-302,037	800,000	-0,039	-0,086
-301,022	-200,000	0,015	-0,130
-300,008	378,845	0,018	-0,027
-298,993	180,104	0,033	0,035
-297,978	211,802	-0,088	-0,100
-296,964	-30,809	0,020	0,008
-295,949	-81,478	0,116	-0,027
-294,935	97,580	-0,072	-0,060
-293,920	-200,000	0,018	-0,107
-292,905	-154,528	0,079	-0,004
-291,891	800,000	0,059	0,175
-290,876	428,393	-0,089	0,139
-289,862	303,860	-0,062	0,084
-288,847	29,682	0,146	0,089
-287,832	338,755	-0,058	-0,082
-286,818	205,429	-0,164	-0,185
-285,803	-200,000	0,012	0,087
-284,789	364,423	0,031	0,045
-283,774	518,289	0,043	0,073
-282,759	328,313	-0,063	-0,088
-281,745	352,496	0,028	0,041
-280,730	-53,372	-0,088	-0,029
-279,716	-200,000	0,025	0,100
-278,701	-200,000	-0,031	0,129
-277,686	-200,000	-0,001	0,013
-276,672	-133,523	0,052	0,005
-275,657	253,126	-0,033	-0,041
-274,643	-27,475	-0,071	0,030
-273,628	800,000	0,075	-0,155
-272,613	448,809	0,002	-0,004
-271,599	-29,320	0,148	0,061
-270,584	409,729	-0,046	-0,071
-269,570	-200,000	0,022	-0,074
-268,555	175,880	-0,089	-0,093
-267,540	-200,000	-0,029	-0,141
-266,526	506,185	0,052	0,087
-265,511	-200,000	0,025	-0,090
-264,497	-17,820	0,109	-0,049
-263,482	137,876	-0,102	0,097
-262,467	153,316	-0,050	0,050
-261,453	-129,191	0,050	-0,005
-260,438	294,217	-0,098	0,130
-259,424	-92,389	-0,184	0,037
-258,409	-200,000	0,005	-0,036
-257,395	-88,517	0,120	0,026
-256,380	-200,000	-0,033	0,130
-255,365	279,305	-0,070	0,091
-254,351	-200,000	0,045	0,182
-253,336	21,810	0,094	0,055
-252,322	-23,984	-0,125	0,054
-251,307	39,692	-0,050	-0,032
-250,292	80,808	0,059	0,046
-249,278	800,000	-0,020	0,046
-248,263	-200,000	-0,011	-0,064
-247,249	800,000	0,040	0,087
-246,234	198,509	-0,050	0,055
-245,219	159,811	-0,059	0,060
-244,205	621,241	-0,067	0,122
-243,190	258,988	-0,017	-0,021
-242,176	-84,279	0,089	0,020
-241,161	-200,000	-0,026	0,113
-240,146	800,000	0,043	0,109
-239,132	800,000	-0,025	0,077
-238,117	266,915	0,098	-0,124
-237,103	618,299	-0,014	0,025
-236,088	-200,000	-0,020	-0,169
-235,073	791,043	0,043	-0,086
-234,059	198,441	0,097	0,107
-233,044	-200,000	0,006	0,031
-232,030	142,694	0,200	-0,192
-231,015	-98,413	-0,079	-0,014
-230,000	-200,000	-0,008	0,073
-228,986	-39,243	0,095	0,036
-227,971	-119,639	-0,021	-0,003
-226,957	-161,184	-0,094	0,003
-225,942	85,508	-0,029	0,023
-224,927	418,915	-0,064	0,100
-223,913	511,048	-0,061	0,102
-222,898	800,000	0,007	0,022
-221,884	326,172	0,036	0,049
-220,869	-200,000	0,004	0,014
-219,855	31,305	0,170	0,105
-218,840	-200,000	0,009	0,087
-217,825	262,499	-0,074	-0,093
-216,811	12,223	-0,069	0,038
-215,796	-200,000	-0,022	-0,212
-214,782	-200,000	0,039	-0,130
-213,767	6,491	0,030	-0,016
-212,752	55,428	0,083	0,058
-211,738	119,169	0,064	-0,057
-210,723	800,000	0,089	0,223
-209,709	140,537	-0,079	0,075
-208,694	-200,000	0,008	-0,136
-207,679	-113,277	-0,087	0,012
-206,665	195,059	0,065	-0,071
-205,650	800,000	0,014	-0,032
-204,636	-200,000	-0,009	0,101
-203,621	-16,140	0,101	-0,046
-202,606	-12,803	-0,137	-0,064
-201,592	-142,909	0,123	-0,009
-200,577	235,009	0,059	-0,070
-199,563	521,998	0,059	-0,099
-198,548	-200,000	-0,021	0,113
-197,533	-143,678	0,044	0,003
-196,519	-200,000	0,002	-0,026
-195,504	-98,747	-0,127	-0,023
-194,490	-200,000	-0,011	0,038
-193,475	177,616	-0,060	0,063
-192,460	506,564	0,014	-0,023
-191,446	431,349	0,047	0,073
-190,431	144,797	0,108	0,104
-189,417	-131,311	-0,066	0,006
-188,402	800,000	0,033	0,081
-187,387	77,918	-0,036	-0,028
-186,373	800,000	-0,046	-0,100
-185,358	486,183	-0,004	-0,007
-184,344	264,639	0,065	-0,082
-183,329	-21,480	-0,138	0,061
-182,315	-90,609	0,143	0,030
-181,300	218,963	0,015	-0,017
-180,285	-101,043	-0,139	-0,024
-179,271	105,772	-0,095	-0,081
-178,256	-95,600	-0,180	0,034
-177,242	-71,117	0,066	-0,018
-176,227	-104,911	0,100	-0,016
-175,212	58,905	0,105	-0,074
-174,198	-60,115	0,058	-0,018
-173,183	-148,452	-0,028	0,002
-172,169	-25,087	-0,098	-0,042
-171,154	-99,697	-0,059	0,011
-170,139	53,546	-0,045	0,031
-169,125	0,478	-0,096	-0,049
-168,110	800,000	0,027	-0,079
-167,096	-110,711	0,028	0,004
-166,081	-129,204	-0,093	-0,009
-165,066	333,736	-0,048	0,067
-164,052	517,092	0,085	0,144
-163,037	250,255	0,085	0,103
-162,023	-200,000	0,011	0,050
-161,008	-200,000	-0,007	-0,043
-159,993	105,815	-0,116	0,099
-158,979	-200,000	0,027	-0,112
-157,964	-173,117	-0,080	-0,002
-156,950	677,459	0,052	0,097
-155,935	800,000	0,038	-0,103
-154,920	-114,445	-0,150	0,021
-153,906	800,000	-0,004	0,009
-152,891	-200,000	0,013	0,051
-151,877	800,000	0,015	-0,034
-150,862	-200,000	-0,015	-0,076
-149,847	-200,000	0,026	-0,088
-148,833	57,546	0,121	0,085
-147,818	0,339	-0,043	0,022
-146,804	46,589	-0,112	0,074
-145,789	81,285	-0,061	0,047
-144,775	-200,000	-0,028	0,097
-143,760	2,504	-0,122	-0,063
-142,745	-111,506	-0,170	0,025
-141,731	-200,000	-0,007	0,089
-140,716	614,853	0,061	0,110
-139,702	-39,868	0,116	0,043
-138,687	-200,000	-0,002	-0,030
-137,672	38,974	0,060	0,039
-136,658	-200,000	0,000	-0,157
-135,643	688,434	0,037	-0,069
-134,629	800,000	0,040	-0,113
-133,614	79,845	-0,035	-0,027
-132,599	-200,000	-0,035	-0,132
-131,585	800,000	0,025	0,058
-130,570	-50,974	-0,134	0,045
-129,556	-200,000	0,012	-0,105
-128,541	-64,716	-0,104	-0,030
-127,526	-64,432	0,047	-0,014
-126,512	109,557	0,034	0,029
-125,497	488,230	-0,079	0,129
-124,483	-200,000	0,015	0,081
-123,468	62,558	0,033	0,024
-122,453	721,408	-0,069	0,133
-121,439	709,708	-0,070	-0,133
-120,424	-200,000	0,005	0,061
-119,410	800,000	0,018	0,044
