DTS Sentinel unit serial number:	SN410029Multiplexer serial number:	ORYXHardware model number:	OX2-SRSoftware version number:	ORYX F/W v4,00 Oryx Data Collector v3.7.2.0data status	okinstallation	B6 Nyhavnadifferential loss correction	single-endedforward channel	channel 2reverse channel	N/Adate	2023/12/11time	06:05:08forward acquisition time	300,00reverse acquisition time	0,00gamma	499,1914k internal	0,3127k external	0,3127temperature offset calibration	1,0000default loss term (dB/km)	0,3820temperature slope calibration	1,0000multiplexer offset coefficient	1,0000multiplexer slope coefficient	1,0000fibre end	0,00T internal ref (°C)	19,73T ext. ref 1 (°C)	2,88T ext. ref 2 (°C)	2,91length (m)	temperature (°C)	Stokes	anti-Stokes-744,400	-200,000	-0,025	-0,107
-743,385	-32,806	-0,166	-0,068
-742,371	-38,931	-0,028	-0,011
-741,356	207,189	-0,257	0,299
-740,342	-21,477	0,142	-0,064
-739,327	20,472	-0,170	0,102
-738,312	108,567	0,102	0,091
-737,298	-105,847	-0,164	0,027
-736,283	16,734	0,082	0,048
-735,269	-198,924	-0,278	-0,001
-734,254	-134,438	0,058	0,005
-733,239	-150,984	-0,483	-0,027
-732,225	-74,627	0,119	-0,032
-731,210	-57,253	-0,096	-0,031
-730,196	201,786	-0,096	0,110
-729,181	-200,000	-0,002	-0,020
-728,167	-67,190	0,006	0,002
-727,152	-11,425	0,113	-0,055
-726,137	17,943	-0,079	-0,047
-725,123	-200,000	0,021	0,089
-724,108	-3,388	-0,065	-0,034
-723,094	800,000	-0,047	-0,097
-722,079	-68,512	-0,209	0,060
-721,064	650,385	0,016	0,030
-720,050	-80,948	-0,121	0,030
-719,035	-12,530	-0,093	-0,045
-718,021	-5,270	-0,100	-0,051
-717,006	800,000	-0,039	-0,091
-715,991	-200,000	0,026	-0,123
-714,977	411,263	-0,040	-0,064
-713,962	175,749	-0,055	-0,060
-712,948	100,541	0,058	0,050
-711,933	408,572	-0,030	0,047
-710,918	-200,000	-0,022	-0,133
-709,904	-200,000	0,008	-0,031
-708,889	-200,000	-0,008	-0,088
-707,875	217,379	-0,067	-0,080
-706,860	-200,000	-0,021	-0,126
-705,845	-112,076	0,145	-0,021
-704,831	-135,342	0,166	-0,015
-703,816	-200,000	-0,148	0,000
-702,802	121,830	-0,064	-0,060
-701,787	-200,000	-0,003	-0,141
-700,772	800,000	-0,046	0,106
-699,758	380,776	-0,034	0,052
-698,743	-200,000	0,005	0,129
-697,729	-200,000	-0,001	-0,014
-696,714	19,375	0,007	-0,004
-695,699	-144,620	0,111	0,007
-694,685	122,028	0,094	-0,087
-693,670	-16,951	0,059	-0,028
-692,656	-200,000	-0,004	-0,037
-691,641	100,005	0,095	-0,082
-690,627	-13,242	0,025	0,012
-689,612	50,737	0,046	0,032
-688,597	185,244	-0,072	0,080
-687,583	20,567	-0,083	-0,050
-686,568	-200,000	-0,005	-0,165
-685,554	-96,476	0,102	-0,020
-684,539	123,090	-0,031	-0,029
-683,524	-200,000	-0,004	-0,074
-682,510	-92,670	0,058	-0,012
-681,495	-115,902	-0,063	-0,009
-680,481	-104,910	-0,161	-0,027
-679,466	41,346	-0,172	0,116
-678,451	-45,995	-0,006	-0,002
-677,437	237,126	-0,063	-0,078
-676,422	70,039	-0,039	0,030
-675,408	-163,264	0,078	0,003
-674,393	-43,080	-0,120	-0,045
-673,378	800,000	0,016	-0,045
-672,364	360,518	-0,084	-0,125
-671,349	763,320	0,079	-0,161
-670,335	-45,583	-0,057	0,021
-669,320	-200,000	0,024	0,139
-668,305	-200,000	0,005	-0,047
-667,291	-200,000	-0,001	-0,055
-666,276	-69,863	-0,168	0,047
-665,262	-200,000	0,005	-0,171
-664,247	-200,000	-0,027	-0,147
-663,232	751,041	0,022	-0,044
-662,218	-53,947	-0,144	-0,048
-661,203	489,559	-0,036	-0,062
-660,189	800,000	0,060	0,142
-659,174	-75,823	-0,169	-0,044
-658,159	-39,754	0,044	-0,017
-657,145	-200,000	0,024	0,097
-656,130	-200,000	-0,010	0,041
-655,116	295,428	-0,025	-0,034
-654,101	800,000	-0,029	-0,093
-653,086	-200,000	0,019	-0,109
-652,072	-160,261	0,041	0,002
-651,057	25,634	-0,092	-0,057
-650,043	6,786	0,052	-0,029
-649,028	-200,000	0,030	-0,149
-648,014	800,000	-0,025	0,058
-646,999	145,102	0,090	0,089
-645,984	-152,935	0,128	0,007
-644,970	-59,102	-0,062	-0,020
-643,955	-83,175	0,037	-0,009
-642,941	-61,650	-0,081	0,025
-641,926	800,000	0,026	-0,060
-640,911	-200,000	-0,040	0,131
-639,897	-10,372	0,157	-0,077
-638,882	-45,959	-0,152	0,055
-637,868	-106,507	0,040	0,007
-636,853	-130,056	-0,240	-0,024
-635,838	276,204	0,056	-0,074
-634,824	-158,289	-0,073	-0,003
-633,809	121,618	0,087	0,080
-632,795	-102,917	-0,040	0,007
-631,780	-200,000	0,002	0,039
-630,765	-200,000	-0,008	-0,076
-629,751	-11,284	-0,104	-0,051
-628,736	242,790	0,051	0,063
-627,722	-200,000	0,032	-0,106
-626,707	800,000	0,062	-0,137
-625,692	-126,999	-0,010	-0,001
-624,678	-200,000	0,022	0,170
-623,663	-120,154	-0,130	0,016
-622,649	-156,012	0,133	-0,006
-621,634	131,929	-0,052	-0,050
-620,619	600,855	-0,035	0,065
-619,605	800,000	0,015	0,032
-618,590	126,888	0,107	-0,101
-617,576	101,175	-0,121	0,104
-616,561	-200,000	-0,002	-0,028
-615,546	-200,000	-0,007	-0,042
-614,532	-190,873	-0,074	0,001
-613,517	-30,145	0,069	-0,029
-612,503	-200,000	0,007	0,083
-611,488	-110,664	0,022	0,003
-610,474	-45,629	0,094	0,034
-609,459	143,527	0,162	-0,160
-608,444	-105,066	0,059	-0,010
-607,430	800,000	-0,033	0,076
-606,415	800,000	0,038	-0,085
-605,401	73,135	0,030	-0,023
-604,386	457,540	-0,037	0,062
-603,371	-37,604	-0,173	0,068
-602,357	800,000	0,071	0,153
-601,342	-158,052	-0,142	-0,006
-600,328	-128,068	0,082	0,009
-599,313	223,162	-0,061	-0,072
-598,298	-162,541	0,106	0,004
-597,284	272,845	-0,054	0,071
-596,269	-200,000	0,015	-0,072
-595,255	104,698	-0,020	0,017
-594,240	800,000	0,011	-0,025
-593,225	-200,000	-0,003	-0,025
-592,211	-200,000	-0,015	-0,086
-591,196	-69,919	-0,024	-0,007
-590,182	-200,000	0,003	-0,032
-589,167	-29,562	0,094	0,039
-588,152	98,607	-0,087	-0,074
-587,138	37,102	0,073	-0,048
-586,123	800,000	0,038	0,121
-585,109	-200,000	-0,019	-0,086
-584,094	-33,287	0,126	0,051
-583,079	110,034	0,101	0,090
-582,065	-200,000	0,032	0,140
-581,050	-19,748	0,083	0,038
-580,036	-200,000	-0,001	0,007
-579,021	21,399	0,080	-0,048
-578,006	-200,000	0,002	-0,140
-576,992	-200,000	0,024	0,094
-575,977	-67,942	-0,082	-0,024
-574,963	-21,390	-0,125	0,056
-573,948	-200,000	0,025	0,087
-572,934	-200,000	0,021	0,145
-571,919	157,964	-0,133	-0,136
-570,904	800,000	0,004	0,008
-569,890	213,308	-0,100	0,117
-568,875	173,517	0,026	-0,028
-567,861	-43,010	-0,075	-0,028
-566,846	76,998	0,095	-0,075
-565,831	-200,000	0,031	0,151
-564,817	-132,882	-0,116	-0,011
-563,802	800,000	-0,037	0,080
-562,788	-0,164	0,125	-0,066
-561,773	-3,888	0,074	-0,038
-560,758	-200,000	0,018	0,175
-559,744	-200,000	-0,009	-0,052
-558,729	99,263	0,121	0,103
-557,715	134,469	-0,068	0,065
-556,700	800,000	-0,050	0,116
-555,685	-103,950	-0,118	-0,020
-554,671	-200,000	0,045	-0,206
-553,656	-6,072	0,087	-0,044
-552,642	-200,000	0,010	0,048
-551,627	-94,820	-0,105	-0,021
-550,612	-154,523	-0,020	-0,001
-549,598	-80,424	-0,106	-0,026
-548,583	32,403	-0,067	-0,042
-547,569	226,016	0,058	-0,070
-546,554	223,528	-0,042	0,050
-545,539	136,640	-0,080	-0,078
-544,525	142,608	0,039	-0,038
-543,510	67,092	-0,068	-0,051
-542,496	-98,198	-0,064	-0,012
-541,481	-87,018	-0,041	-0,009
-540,466	120,177	-0,116	0,106
-539,452	68,145	0,114	-0,086
-538,437	205,076	0,088	0,101
-537,423	-200,000	-0,032	0,121
-536,408	-92,273	0,059	0,012
-535,393	-200,000	0,002	-0,086
-534,379	800,000	0,032	-0,076
-533,364	751,891	0,060	0,120
-532,350	-200,000	0,003	0,036
-531,335	800,000	0,014	0,038
-530,321	-200,000	0,019	-0,087
-529,306	171,258	-0,093	-0,099
-528,291	800,000	-0,047	-0,144
-527,277	-82,347	-0,067	0,016
-526,262	30,980	-0,116	0,073
-525,248	-113,472	0,124	-0,018
-524,233	-200,000	-0,019	0,163
-523,218	800,000	-0,028	0,087
-522,204	-24,070	-0,118	-0,052
-521,189	734,000	0,029	0,059
-520,175	194,731	0,034	-0,038
-519,160	800,000	0,007	0,015
-518,145	-87,338	0,082	0,018
-517,131	254,358	-0,063	-0,079
-516,116	595,512	-0,020	0,037
-515,102	643,985	0,041	0,078
-514,087	-200,000	0,010	-0,134
-513,072	182,971	-0,135	-0,147
-512,058	51,011	-0,010	0,007
-511,043	-142,598	0,161	0,011
-510,029	-200,000	-0,005	-0,130
-509,014	-200,000	-0,019	0,089
-507,999	-122,168	-0,109	0,013
-506,985	758,931	-0,044	0,089
-505,970	334,705	-0,040	0,058
-504,956	800,000	0,036	-0,076
-503,941	-143,539	-0,053	-0,004
-502,926	-200,000	-0,019	0,073
-501,912	-200,000	0,016	-0,094
-500,897	-127,275	0,068	0,007
-499,883	339,431	-0,046	0,067
-498,868	-200,000	0,019	-0,075
-497,853	-61,702	-0,040	-0,012
-496,839	397,043	-0,048	0,074
-495,824	-42,928	0,048	0,018
-494,810	-200,000	-0,036	0,159
-493,795	77,494	0,117	0,092
-492,781	69,512	-0,061	0,046
-491,766	-200,000	-0,010	-0,132
-490,751	800,000	-0,055	-0,123
-489,737	27,073	0,100	0,062
-488,722	-200,000	0,008	0,121
-487,708	291,064	-0,047	0,063
-486,693	-54,226	0,051	-0,017
-485,678	-14,678	0,042	0,020
-484,664	-112,880	-0,045	-0,006
-483,649	124,808	0,069	0,064
-482,635	-42,829	-0,039	0,015
-481,620	739,094	0,056	0,111
-480,605	800,000	0,066	0,172
-479,591	587,523	0,100	0,182
-478,576	142,013	0,043	0,042
-477,562	-19,497	-0,199	-0,090
-476,547	-136,255	0,062	-0,005
-475,532	-200,000	0,001	-0,045
-474,518	75,659	0,079	0,061
-473,503	-90,350	0,172	0,036
-472,489	-200,000	-0,008	-0,198
-471,474	394,319	-0,025	-0,038
-470,459	-166,324	-0,053	-0,002
-469,445	-200,000	-0,040	-0,204
-468,430	-137,795	-0,057	-0,005
-467,416	82,385	0,062	0,050
-466,401	24,812	-0,107	0,065
-465,386	9,936	-0,066	0,037
-464,372	306,487	0,086	-0,118
-463,357	800,000	0,046	-0,108
-462,343	-200,000	0,021	-0,081
-461,328	-200,000	0,006	0,021
-460,313	-155,756	0,038	0,002
-459,299	-64,809	0,105	0,031
-458,284	312,678	-0,077	-0,106
-457,270	90,481	-0,007	-0,006
-456,255	374,165	-0,042	0,063
-455,241	800,000	0,044	-0,113
-454,226	-92,894	0,152	-0,031
-453,211	-28,689	0,057	0,024
-452,197	-122,633	-0,083	0,010
-451,182	-58,493	0,093	-0,029
-450,168	-105,520	0,114	0,019
-449,153	447,863	-0,024	-0,039
-448,138	403,714	0,022	-0,034
-447,124	-41,913	0,101	0,038
-446,109	541,477	0,039	-0,069
-445,095	492,432	-0,051	0,086
-444,080	189,908	0,073	0,080
-443,065	206,442	0,055	-0,063
-442,051	623,489	-0,047	-0,087
-441,036	-17,604	-0,024	0,011
-440,022	7,075	-0,069	0,038
-439,007	800,000	0,028	0,081
-437,992	800,000	0,025	-0,075
-436,978	-200,000	-0,002	0,040
-435,963	339,592	-0,078	0,112
-434,949	-200,000	0,028	0,147
-433,934	519,962	0,046	-0,079
-432,919	-88,522	-0,095	0,021
-431,905	193,659	-0,065	0,073
-430,890	-58,183	-0,050	0,016
-429,876	270,497	0,059	0,077
-428,861	-98,669	-0,081	-0,015
-427,846	-63,120	-0,016	0,005
-426,832	800,000	0,007	0,018
-425,817	342,685	0,020	0,029
-424,803	796,566	-0,041	-0,083
-423,788	552,553	0,034	-0,060
-422,773	-116,268	-0,063	-0,009
-421,759	-127,413	-0,096	-0,010
-420,744	4,920	-0,153	-0,082
-419,730	-200,000	0,046	-0,171
-418,715	800,000	0,060	-0,127
-417,701	-50,429	-0,041	-0,014
-416,686	-74,991	-0,064	0,017
-415,671	-92,136	0,055	0,011
-414,657	800,000	0,021	-0,056
-413,642	-24,039	-0,113	-0,050
-412,628	555,551	-0,065	0,115
-411,613	800,000	-0,032	-0,066
-410,598	93,575	0,034	-0,028
-409,584	175,577	-0,086	0,092
-408,569	277,247	0,031	0,041
-407,555	-34,452	0,129	0,052
-406,540	800,000	-0,010	-0,028
-405,525	72,969	0,057	-0,044
-404,511	-200,000	-0,001	0,065
-403,496	800,000	-0,022	-0,060
-402,482	-119,967	-0,137	-0,017
-401,467	183,137	0,132	-0,144
-400,452	800,000	-0,094	0,196
-399,438	434,673	-0,108	0,173
-398,423	-173,105	0,102	0,002
-397,409	-24,402	-0,124	0,054
-396,394	619,139	0,028	-0,051
-395,379	-80,604	-0,106	-0,026
-394,365	497,632	-0,012	0,020
-393,350	-39,163	-0,030	0,011
-392,336	128,275	0,029	-0,027
-391,321	-93,583	-0,075	-0,015
-390,306	-200,000	0,009	-0,068
-389,292	235,416	0,071	-0,086
-388,277	-200,000	-0,033	0,115
-387,263	688,674	-0,058	-0,112
-386,248	152,960	0,026	0,027
-385,233	800,000	-0,009	0,024
-384,219	-200,000	-0,005	0,034
-383,204	610,524	-0,062	-0,114
-382,190	-56,213	0,050	0,016
-381,175	-200,000	-0,001	-0,031
-380,160	25,362	0,050	0,030
-379,146	137,655	0,017	0,016
-378,131	47,949	-0,086	0,059
-377,117	-105,007	-0,010	-0,002
-376,102	-80,577	-0,068	-0,017
-375,088	338,919	-0,054	-0,077
-374,073	11,386	0,031	0,017
-373,058	371,697	-0,049	0,074
-372,044	-71,862	0,154	-0,042
-371,029	70,517	-0,042	-0,032
-370,015	64,699	0,060	0,044
-369,000	293,020	-0,035	0,047
-367,985	377,427	-0,025	0,037
-366,971	-118,178	0,061	-0,008
-365,956	-200,000	0,002	-0,093
-364,942	-87,499	-0,078	-0,017
-363,927	76,133	0,116	0,090
-362,912	-46,984	0,101	0,036
-361,898	185,727	-0,119	-0,130
-360,883	-140,780	-0,125	0,009
-359,869	113,254	0,052	0,046
-358,854	-200,000	0,023	-0,142
-357,839	-200,000	0,008	-0,091
-356,825	-3,578	-0,063	-0,032
-355,810	-165,638	-0,039	-0,001
-354,796	-199,077	-0,090	0,000
-353,781	-81,239	-0,035	-0,008
-352,766	-41,283	0,030	0,011
-351,752	-132,858	-0,090	0,008
-350,737	-61,630	0,091	-0,028
-349,723	-39,615	0,067	0,025
-348,708	-65,318	-0,109	0,032
-347,693	62,454	0,063	-0,046
-346,679	-200,000	0,005	-0,054
-345,664	-200,000	-0,016	0,107
-344,650	133,511	0,050	0,047
-343,635	-200,000	0,125	-0,000
-342,620	-200,000	-0,010	0,042
-341,606	411,201	-0,036	0,055
-340,591	176,673	-0,078	0,083
-339,577	304,498	-0,034	-0,046
-338,562	333,490	-0,016	0,023
-337,548	-112,993	-0,056	0,008
-336,533	-200,000	0,021	-0,068
-335,518	384,216	0,069	-0,105
-334,504	-118,248	0,146	0,019
-333,489	-200,000	0,054	-0,226
-332,475	-200,000	-0,027	-0,123
-331,460	-200,000	-0,011	-0,061
-330,445	-146,951	0,040	-0,002
-329,431	-26,200	0,023	0,010
-328,416	-200,000	-0,005	0,037
-327,402	-200,000	0,021	-0,069
-326,387	-200,000	0,004	-0,083
-325,372	-200,000	0,022	-0,111
-324,358	80,234	-0,043	-0,034
-323,343	-200,000	0,012	-0,050
-322,329	-135,411	0,090	0,008
-321,314	121,294	0,115	-0,105
-320,299	-81,355	0,086	0,021
-319,285	12,032	-0,071	0,040
-318,270	-200,000	-0,003	-0,048
-317,256	-200,000	-0,023	-0,096
-316,241	180,778	0,078	0,084
-315,226	726,998	-0,022	-0,042
-314,212	-23,217	0,040	-0,018
-313,197	6,843	-0,081	0,044
-312,183	-200,000	-0,012	-0,042
-311,168	-200,000	0,004	0,045
-310,153	379,005	-0,026	0,039
-309,139	-79,757	-0,124	-0,030
-308,124	800,000	0,019	0,054
-307,110	-95,232	0,099	-0,019
-306,095	-200,000	0,020	-0,110
-305,080	630,734	0,067	-0,124
-304,066	-19,997	0,082	-0,037
-303,051	21,489	-0,066	-0,039
-302,037	-30,949	-0,053	0,022
-301,022	597,704	0,064	-0,116
-300,008	-191,018	-0,047	0,000
-298,993	33,177	-0,066	0,042
-297,978	-200,000	0,016	-0,165
-296,964	-93,721	-0,049	0,010
-295,949	78,941	0,038	0,030
-294,935	561,823	-0,050	-0,089
-293,920	-105,063	0,116	0,019
-292,905	-200,000	0,007	0,126
-291,891	-12,927	0,086	0,041
-290,876	554,505	0,048	-0,085
-289,862	110,729	-0,039	0,035
-288,847	800,000	0,034	0,087
-287,832	6,017	-0,190	-0,103
-286,818	-200,000	0,008	-0,152
-285,803	125,663	0,048	-0,045
-284,789	800,000	-0,044	0,096
-283,774	99,134	0,057	-0,048
-282,759	80,783	-0,081	0,064
-281,745	-200,000	0,002	-0,058
-280,730	751,232	-0,055	-0,108
-279,716	554,066	0,030	-0,053
-278,701	128,928	-0,059	0,055
-277,686	-41,579	0,033	0,012
-276,672	426,864	0,117	0,185
-275,657	-200,000	0,009	0,044
-274,643	-149,069	-0,185	0,011
-273,628	-200,000	-0,001	-0,071
-272,613	-5,144	0,048	0,024
-271,599	136,514	0,038	-0,037
-270,584	5,294	0,058	0,031
-269,570	70,045	-0,068	0,051
-268,555	-3,708	0,023	-0,012
-267,540	-200,000	0,021	-0,108
-266,526	79,405	0,096	-0,076
-265,511	65,150	-0,118	-0,087
-264,497	188,309	0,034	-0,037
-263,482	-148,916	0,062	0,004
-262,467	175,045	-0,089	-0,094
-261,453	-123,077	-0,140	0,016
-260,438	463,924	-0,044	-0,072
-259,424	-13,676	-0,145	-0,068
-258,409	800,000	0,036	-0,087
-257,395	800,000	0,017	0,046
-256,380	-200,000	-0,001	0,138
-255,365	800,000	-0,012	-0,033
-254,351	-6,420	0,162	0,081
-253,336	-200,000	-0,005	0,040
-252,322	-58,644	-0,123	-0,039
-251,307	-7,008	-0,127	0,063
-250,292	-200,000	0,056	0,213
-249,278	26,401	0,079	0,048
-248,263	-156,565	0,168	-0,007
-247,249	-200,000	0,038	0,128
-246,234	208,056	-0,021	0,024
-245,219	-130,372	-0,099	-0,010
-244,205	-59,558	-0,102	0,032
-243,190	8,703	-0,088	0,049
-242,176	-43,946	0,106	0,039
-241,161	-200,000	-0,008	0,040
-240,146	-86,561	0,113	0,025
-239,132	-66,003	0,014	-0,004
-238,117	29,278	-0,061	0,038
-237,103	71,222	-0,015	-0,011
-236,088	-50,906	0,028	0,009
-235,073	286,974	0,050	-0,066
-234,059	239,216	-0,032	0,039
-233,044	681,503	-0,047	0,089
-232,030	-99,516	-0,055	-0,010
-231,015	-24,091	0,096	0,042
-230,000	800,000	0,050	0,124
-228,986	-35,231	-0,105	-0,041
-227,971	168,675	0,040	0,042
-226,957	-162,734	0,038	0,001
-225,942	-200,000	-0,003	-0,048
-224,927	766,328	-0,010	0,019
-223,913	-6,185	0,038	-0,019
-222,898	-29,750	0,054	0,022
-221,884	538,206	0,062	-0,108
-220,869	66,835	-0,060	0,044
-219,855	-70,370	-0,098	-0,027
-218,840	800,000	0,083	0,200
-217,825	-2,474	-0,118	0,060
-216,811	800,000	-0,007	-0,019
-215,796	-79,822	0,146	-0,036
-214,782	-200,000	-0,015	-0,073
-213,767	-54,772	-0,133	0,043
-212,752	-200,000	0,030	0,143
-211,738	228,024	-0,051	0,061
-210,723	158,893	-0,025	0,026
-209,709	-142,179	-0,150	-0,011
-208,694	87,399	-0,049	-0,040
-207,679	196,760	0,029	-0,032
-206,665	-13,268	0,083	-0,039
-205,650	-8,456	-0,146	0,071
-204,636	-78,310	0,128	-0,032
-203,621	38,560	-0,051	-0,033
-202,606	85,781	-0,105	0,084
-201,592	800,000	0,014	0,033
-200,577	-22,177	0,099	0,044
-199,563	-175,610	0,050	0,001
-198,548	-200,000	-0,017	0,126
-197,533	-44,469	0,176	-0,064
-196,519	-200,000	-0,008	-0,124
-195,504	89,314	-0,045	-0,036
-194,490	48,074	0,126	0,086
-193,475	-100,455	-0,064	-0,011
-192,460	-200,000	0,021	0,100
-191,446	-52,433	-0,042	-0,014
-190,431	-200,000	0,031	0,198
-189,417	-86,158	0,042	0,009
-188,402	138,902	0,054	0,051
-187,387	-200,000	0,001	0,013
-186,373	-3,856	0,172	-0,087
-185,358	-47,408	0,081	-0,028
-184,344	26,848	-0,048	-0,029
-183,329	-200,000	0,010	0,141
-182,315	-30,098	0,090	0,037
-181,300	800,000	-0,020	-0,059
-180,285	800,000	-0,073	0,155
-179,271	97,657	0,070	0,059
-178,256	-13,928	0,125	-0,059
-177,242	393,031	0,053	0,081
-176,227	266,905	0,062	0,079
-175,212	-200,000	-0,017	-0,054
-174,198	60,183	0,095	-0,069
-173,183	271,613	-0,082	-0,105
-172,169	280,538	-0,054	-0,070
-171,154	316,077	-0,083	-0,114
-170,139	-124,794	0,086	-0,010
-169,125	50,357	0,044	0,031
-168,110	-200,000	0,035	0,117
-167,096	262,011	-0,083	0,105
-166,081	377,150	-0,034	-0,050
-165,066	-64,933	-0,095	0,028
-164,052	-200,000	-0,009	0,041
-163,037	781,325	-0,017	0,033
-162,023	-173,924	-0,076	-0,002
-161,008	-66,582	-0,098	0,028
-159,993	-114,075	-0,015	-0,002
-158,979	-200,000	-0,018	-0,080
-157,964	-200,000	0,034	-0,123
-156,950	-192,481	-0,096	0,001
-155,935	76,320	0,101	-0,078
-154,920	-200,000	0,007	-0,095
-153,906	12,754	0,149	-0,084
-152,891	-200,000	0,001	0,049
-151,877	800,000	0,039	0,104
-150,862	800,000	0,010	-0,023
-149,847	512,748	-0,037	-0,062
-148,833	-200,000	0,010	-0,083
-147,818	-119,731	0,196	0,024
-146,804	54,891	-0,031	0,022
-145,789	800,000	0,026	0,077
-144,775	-137,495	-0,076	-0,006
-143,760	49,483	-0,119	0,082
-142,745	-200,000	0,019	0,181
-141,731	-200,000	-0,063	0,230
-140,716	-200,000	-0,050	0,165
-139,702	68,856	-0,051	-0,038
-138,687	309,950	-0,090	-0,122
-137,672	103,140	-0,087	-0,074
-136,658	77,292	0,035	0,027
-135,643	180,614	-0,029	0,031
-134,629	-13,800	-0,037	0,017
-133,614	-130,942	0,048	-0,005
-132,599	11,046	0,078	0,043
-131,585	-184,075	0,044	-0,001
-130,570	800,000	0,025	0,075
-129,556	-200,000	-0,017	-0,106
-128,541	-200,000	-0,014	-0,053
-127,526	-200,000	-0,027	0,093
-126,512	74,146	0,053	0,040
-125,497	800,000	0,043	0,134
-124,483	230,187	0,018	0,021
-123,468	800,000	0,045	-0,116
-122,453	439,574	0,016	0,026
-121,439	800,000	-0,063	0,149
-120,424	-34,998	-0,024	0,010
