DTS Sentinel unit serial number:	SN410029Multiplexer serial number:	ORYXHardware model number:	OX2-SRSoftware version number:	ORYX F/W v4,00 Oryx Data Collector v3.7.2.0data status	okinstallation	B6 Nyhavnadifferential loss correction	single-endedforward channel	channel 2reverse channel	N/Adate	2023/12/09time	02:35:08forward acquisition time	300,00reverse acquisition time	0,00gamma	499,1914k internal	0,3155k external	0,3155temperature offset calibration	1,0000default loss term (dB/km)	0,3820temperature slope calibration	1,0000multiplexer offset coefficient	1,0000multiplexer slope coefficient	1,0000fibre end	0,00T internal ref (°C)	16,03T ext. ref 1 (°C)	-0,19T ext. ref 2 (°C)	-0,20length (m)	temperature (°C)	Stokes	anti-Stokes-744,400	16,186	-0,065	0,038
-743,385	-104,221	-0,328	0,056
-742,371	-200,000	-0,013	0,045
-741,356	35,186	-0,234	0,151
-740,342	-75,425	0,090	0,023
-739,327	-152,530	-0,224	-0,012
-738,312	757,129	0,030	-0,060
-737,298	-113,429	-0,395	0,057
-736,283	-114,774	0,165	-0,023
-735,269	-104,163	-0,281	0,048
-734,254	-8,714	0,146	-0,072
-733,239	-60,165	-0,501	-0,157
-732,225	-156,203	0,198	-0,009
-731,210	-112,334	0,036	-0,005
-730,196	-99,697	-0,028	0,005
-729,181	323,009	-0,129	0,182
-728,167	-97,900	0,068	0,013
-727,152	-167,832	0,070	0,002
-726,137	541,248	-0,059	-0,104
-725,123	520,614	0,077	-0,133
-724,108	-85,011	-0,242	-0,056
-723,094	-200,000	0,000	-0,092
-722,079	142,986	-0,076	-0,074
-721,064	-200,000	0,044	-0,158
-720,050	173,463	0,062	-0,066
-719,035	269,307	-0,096	-0,124
-718,021	168,620	-0,054	-0,057
-717,006	29,207	-0,031	-0,019
-715,991	99,902	-0,086	-0,073
-714,977	392,871	-0,098	-0,151
-713,962	445,917	-0,075	-0,121
-712,948	541,441	0,030	0,054
-711,933	39,020	-0,064	-0,042
-710,918	40,034	-0,059	0,039
-709,904	171,881	-0,107	0,113
-708,889	-122,428	-0,158	0,019
-707,875	527,391	-0,016	0,027
-706,860	405,892	-0,074	0,116
-705,845	287,500	-0,009	0,012
-704,831	-75,560	-0,043	-0,011
-703,816	-200,000	-0,020	-0,066
-702,802	-137,945	-0,216	-0,018
-701,787	-109,406	0,129	-0,020
-700,772	158,473	-0,026	-0,027
-699,758	-200,000	0,014	0,062
-698,743	184,177	-0,047	0,051
-697,729	-20,344	0,047	0,021
-696,714	-200,000	-0,012	-0,072
-695,699	241,395	-0,085	-0,104
-694,685	19,232	-0,034	0,020
-693,670	800,000	0,057	-0,119
-692,656	-23,571	-0,028	0,012
-691,641	800,000	0,021	0,046
-690,627	355,008	0,068	-0,100
-689,612	800,000	-0,027	0,057
-688,597	-78,543	-0,109	-0,027
-687,583	-40,870	-0,027	0,010
-686,568	531,917	-0,028	0,048
-685,554	240,586	0,060	-0,074
-684,539	58,694	-0,033	0,024
-683,524	96,255	0,083	0,070
-682,510	-75,180	-0,136	0,035
-681,495	800,000	-0,042	-0,126
-680,481	41,816	0,064	0,043
-679,466	800,000	0,019	-0,054
-678,451	-4,175	0,026	-0,013
-677,437	-20,485	0,034	0,015
-676,422	723,683	-0,015	-0,030
-675,408	53,968	-0,115	-0,081
-674,393	58,759	-0,102	-0,074
-673,378	800,000	0,051	-0,132
-672,364	325,528	0,037	-0,053
-671,349	-26,808	-0,055	-0,024
-670,335	-200,000	-0,014	0,060
-669,320	123,213	-0,012	-0,011
-668,305	285,153	-0,016	0,021
-667,291	297,292	-0,048	-0,066
-666,276	-200,000	0,016	-0,125
-665,262	-23,383	-0,204	-0,090
-664,247	-200,000	-0,003	0,104
-663,232	510,937	-0,038	-0,066
-662,218	59,438	0,052	-0,038
-661,203	143,222	-0,080	-0,078
-660,189	603,532	-0,067	-0,124
-659,174	-118,196	-0,088	-0,011
-658,159	-200,000	-0,018	0,084
-657,145	-200,000	-0,014	0,060
-656,130	37,847	-0,193	0,126
-655,116	-200,000	0,007	0,036
-654,101	388,951	0,060	0,091
-653,086	-142,979	-0,217	0,015
-652,072	-200,000	-0,030	-0,156
-651,057	-200,000	0,001	-0,080
-650,043	-200,000	-0,021	-0,091
-649,028	228,290	0,052	-0,063
-648,014	-200,000	-0,016	-0,075
-646,999	-200,000	0,024	0,097
-645,984	-200,000	-0,003	0,106
-644,970	128,581	-0,025	-0,023
-643,955	-92,153	-0,128	0,026
-642,941	40,370	-0,131	-0,087
-641,926	135,147	-0,064	-0,061
-640,911	387,816	0,032	0,049
-639,897	-160,757	-0,177	-0,007
-638,882	-61,435	0,041	0,013
-637,868	-62,158	-0,020	-0,006
-636,853	800,000	-0,029	0,063
-635,838	376,728	-0,047	-0,070
-634,824	-160,214	-0,049	-0,002
-633,809	-69,778	0,091	-0,025
-632,795	-200,000	0,002	-0,120
-631,780	-200,000	0,005	0,024
-630,765	-200,000	-0,034	0,145
-629,751	77,635	-0,065	0,051
-628,736	39,785	-0,122	0,081
-627,722	78,804	0,150	0,118
-626,707	87,412	0,029	0,024
-625,692	-84,296	0,056	-0,013
-624,678	800,000	0,007	0,022
-623,663	-31,280	-0,023	0,010
-622,649	-200,000	0,018	0,069
-621,634	-79,283	0,109	0,027
-620,619	-15,231	-0,138	0,065
-619,605	-200,000	-0,001	0,034
-618,590	800,000	0,040	0,092
-617,576	-200,000	0,013	-0,067
-616,561	-120,750	0,136	0,017
-615,546	4,862	-0,045	0,024
-614,532	547,387	0,029	-0,051
-613,517	-102,767	-0,056	-0,010
-612,503	131,435	0,029	-0,028
-611,488	11,316	0,094	-0,052
-610,474	73,793	0,111	0,085
-609,459	142,782	0,088	-0,086
-608,444	-166,444	0,055	0,002
-607,430	550,607	-0,060	-0,106
-606,415	-200,000	0,034	-0,155
-605,401	-74,826	-0,105	0,028
-604,386	-169,743	0,043	0,001
-603,371	75,654	-0,041	0,032
-602,357	-99,198	-0,170	-0,031
-601,342	-1,966	-0,050	-0,026
-600,328	213,062	-0,029	0,034
-599,313	800,000	0,034	0,082
-598,298	-12,406	0,054	-0,026
-597,284	-48,377	-0,171	-0,060
-596,269	342,143	-0,075	0,108
-595,255	510,763	0,065	-0,112
-594,240	-105,398	-0,084	-0,014
-593,225	180,876	-0,038	-0,041
-592,211	800,000	-0,032	0,097
-591,196	800,000	-0,024	0,075
-590,182	-154,026	-0,070	-0,003
-589,167	800,000	-0,012	-0,025
-588,152	-72,047	0,077	-0,021
-587,138	800,000	-0,020	-0,057
-586,123	-200,000	0,019	-0,066
-585,109	-144,480	0,062	0,004
-584,094	-200,000	0,014	0,106
-583,079	800,000	0,043	0,134
-582,065	-117,804	0,011	0,001
-581,050	-200,000	0,012	-0,070
-580,036	72,606	0,113	0,086
-579,021	795,950	0,026	0,054
-578,006	-113,441	-0,043	-0,006
-576,992	-200,000	0,041	0,193
-575,977	47,944	-0,043	0,030
-574,963	78,295	0,165	0,129
-573,948	269,875	0,116	0,150
-572,934	139,479	-0,045	0,043
-571,919	412,892	0,054	0,085
-570,904	77,852	0,090	-0,070
-569,890	-51,972	-0,125	0,042
-568,875	-73,147	-0,078	0,021
-567,861	240,781	0,014	-0,017
-566,846	-50,054	-0,026	-0,009
-565,831	-0,906	-0,061	-0,032
-564,817	61,676	-0,085	0,062
-563,802	-102,770	-0,046	0,008
-562,788	-43,669	0,034	-0,013
-561,773	-95,518	-0,092	-0,018
-560,758	800,000	0,021	0,045
-559,744	32,105	-0,059	0,037
-558,729	350,485	-0,086	0,124
-557,715	510,744	0,030	0,052
-556,700	-200,000	0,000	-0,012
-555,685	-112,683	0,026	-0,004
-554,671	-77,295	-0,057	0,014
-553,656	37,973	-0,061	0,040
-552,642	230,385	-0,042	0,051
-551,627	-200,000	-0,003	-0,059
-550,612	230,841	-0,128	0,153
-549,598	-112,473	0,160	0,023
-548,583	-184,683	-0,137	-0,002
-547,569	800,000	-0,014	0,036
-546,554	-78,524	0,111	0,028
-545,539	-200,000	-0,007	0,057
-544,525	327,950	-0,057	0,081
-543,510	347,836	-0,012	0,017
-542,496	60,150	-0,096	-0,070
-541,481	-120,995	-0,087	-0,011
-540,466	150,602	0,059	-0,059
-539,452	-76,109	0,086	-0,022
-538,437	800,000	0,038	0,087
-537,423	800,000	-0,020	0,045
-536,408	800,000	0,028	-0,073
-535,393	-108,046	-0,024	0,004
-534,379	-42,274	-0,171	-0,064
-533,364	800,000	-0,049	0,131
-532,350	143,375	-0,057	0,056
-531,335	-18,903	0,102	0,046
-530,321	85,356	0,044	0,035
-529,306	129,745	0,041	-0,038
-528,291	428,259	-0,051	0,081
-527,277	-200,000	0,018	-0,068
-526,262	117,309	-0,019	-0,017
-525,248	219,086	0,129	-0,152
-524,233	-12,909	0,108	0,051
-523,218	-200,000	0,034	0,113
-522,204	133,939	-0,036	0,034
-521,189	172,677	0,093	-0,098
-520,175	44,244	0,024	-0,016
-519,160	800,000	0,025	0,068
-518,145	800,000	0,027	-0,062
-517,131	-98,140	-0,071	0,013
-516,116	467,224	-0,027	0,045
-515,102	-84,334	-0,221	-0,051
-514,087	-99,290	0,080	-0,015
-513,072	-200,000	-0,005	-0,154
-512,058	800,000	0,037	-0,085
-511,043	362,733	0,107	-0,158
-510,029	-200,000	0,023	-0,082
-509,014	674,659	-0,054	0,103
-507,999	-66,595	0,030	-0,009
-506,985	-86,309	-0,054	0,012
-505,970	-200,000	0,004	-0,097
-504,956	800,000	0,043	0,126
-503,941	47,187	0,063	0,042
-502,926	-200,000	-0,007	-0,029
-501,912	14,964	-0,047	0,027
-500,897	-86,697	-0,129	-0,029
-499,883	388,401	-0,038	0,057
-498,868	-81,188	0,088	-0,021
-497,853	29,149	0,030	-0,019
-496,839	99,852	-0,088	-0,075
-495,824	-68,239	0,123	0,035
-494,810	75,687	-0,041	0,032
-493,795	-71,924	0,117	-0,032
-492,781	-125,773	-0,038	-0,004
-491,766	-67,588	-0,039	-0,011
-490,751	-157,462	-0,063	0,003
-489,737	258,513	-0,057	0,072
-488,722	59,202	0,047	-0,034
-487,708	273,596	0,033	0,043
-486,693	800,000	-0,019	-0,047
-485,678	233,103	-0,066	0,080
-484,664	-200,000	0,012	0,046
-483,649	105,516	-0,055	0,047
-482,635	-200,000	0,003	0,035
-481,620	800,000	0,036	0,115
-480,605	800,000	0,049	0,154
-479,591	271,159	0,066	-0,085
-478,576	-200,000	-0,014	-0,098
-477,562	-200,000	0,008	-0,029
-476,547	70,540	-0,022	-0,017
-475,532	191,919	-0,063	0,069
-474,518	-133,499	0,071	0,006
-473,503	640,609	-0,097	0,181
-472,489	108,648	-0,061	0,054
-471,474	135,539	0,030	0,028
-470,459	22,274	-0,063	-0,037
-469,445	-200,000	-0,022	-0,160
-468,430	-200,000	-0,002	0,056
-467,416	800,000	-0,018	0,039
-466,401	-77,120	0,116	-0,029
-465,386	-0,583	-0,103	-0,053
-464,372	643,890	-0,030	-0,057
-463,357	800,000	0,025	-0,052
-462,343	-200,000	0,009	-0,131
-461,328	800,000	-0,016	-0,043
-460,313	-200,000	0,022	-0,074
-459,299	101,160	0,164	0,140
-458,284	-200,000	-0,006	0,097
-457,270	139,995	-0,044	-0,042
-456,255	800,000	-0,034	-0,082
-455,241	228,261	0,009	-0,011
-454,226	-200,000	-0,001	0,014
-453,211	27,677	0,027	-0,017
-452,197	-126,040	-0,015	-0,002
-451,182	-18,574	0,052	0,024
-450,168	520,612	0,053	0,090
-449,153	-17,127	0,055	-0,025
-448,138	800,000	-0,010	-0,026
-447,124	800,000	-0,029	-0,085
-446,109	-200,000	0,007	0,059
-445,095	-43,071	0,134	-0,049
-444,080	-81,866	0,095	-0,022
-443,065	34,956	0,079	0,050
-442,051	-200,000	-0,004	-0,036
-441,036	505,168	0,026	-0,044
-440,022	-200,000	-0,035	-0,125
-439,007	-187,325	-0,107	0,001
-437,992	-200,000	0,008	0,044
-436,978	-100,117	0,086	-0,015
-435,963	-200,000	-0,011	0,037
-434,949	-25,623	-0,167	0,071
-433,934	151,406	0,027	0,027
-432,919	32,855	0,038	-0,024
-431,905	64,798	-0,030	0,022
-430,890	395,249	0,033	0,051
-429,876	-200,000	-0,008	0,095
-428,861	173,068	0,055	-0,058
-427,846	-200,000	0,003	0,113
-426,832	-200,000	-0,082	-0,000
-425,817	66,196	-0,048	0,035
-424,803	-59,232	0,067	-0,021
-423,788	-200,000	0,006	-0,060
-422,773	162,105	0,164	0,167
-421,759	-200,000	-0,013	-0,061
-420,744	444,731	0,032	-0,052
-419,730	800,000	-0,054	-0,111
-418,715	-200,000	-0,021	-0,080
-417,701	63,845	0,093	-0,068
-416,686	-200,000	-0,015	-0,079
-415,671	800,000	-0,012	-0,028
-414,657	-139,406	-0,123	-0,009
-413,642	-200,000	-0,005	-0,081
-412,628	-200,000	-0,021	0,098
-411,613	16,025	-0,065	-0,037
-410,598	-7,993	-0,127	-0,062
-409,584	13,309	-0,110	-0,062
-408,569	97,924	-0,010	0,009
-407,555	-85,295	0,078	0,018
-406,540	800,000	-0,019	0,061
-405,525	-141,757	-0,189	0,014
-404,511	277,281	-0,007	-0,009
-403,496	346,820	0,117	-0,169
-402,482	-6,993	0,211	0,104
-401,467	112,241	0,045	0,039
-400,452	180,346	0,074	0,079
-399,438	-71,442	0,189	0,051
-398,423	-169,847	-0,141	-0,004
-397,409	-136,082	0,048	-0,004
-396,394	273,241	-0,097	-0,125
-395,379	647,640	0,032	-0,060
-394,365	-200,000	-0,011	-0,056
-393,350	-200,000	0,011	-0,065
-392,336	87,166	0,083	0,066
-391,321	-139,189	-0,009	0,001
-390,306	-200,000	-0,039	-0,143
-389,292	197,789	0,044	0,049
-388,277	-74,462	-0,134	0,035
-387,263	-200,000	-0,000	0,083
-386,248	-200,000	0,021	-0,078
-385,233	18,241	0,075	-0,044
-384,219	-200,000	-0,017	0,139
-383,204	84,675	-0,121	-0,097
-382,190	738,792	-0,054	-0,106
-381,175	800,000	-0,042	0,103
-380,160	-149,247	0,035	-0,002
-379,146	128,247	0,049	0,046
-378,131	800,000	0,029	-0,079
-377,117	-200,000	-0,010	0,079
-376,102	800,000	0,068	-0,184
-375,088	107,164	0,037	0,032
-374,073	525,588	-0,077	0,132
-373,058	-25,302	-0,108	0,046
-372,044	112,017	-0,043	0,038
-371,029	-43,433	0,048	-0,018
-370,015	330,499	0,009	-0,012
-369,000	354,024	0,064	-0,093
-367,985	-147,721	-0,039	0,002
-366,971	-77,224	-0,066	0,017
-365,956	-21,963	-0,062	-0,027
-364,942	-129,780	0,048	-0,005
-363,927	434,658	-0,069	0,110
-362,912	193,925	0,125	0,137
-361,898	192,753	0,052	0,058
-360,883	800,000	0,026	-0,065
-359,869	167,043	-0,078	0,080
-358,854	24,320	0,225	-0,135
-357,839	141,378	0,010	-0,010
-356,825	131,647	-0,065	-0,061
-355,810	44,762	0,056	-0,038
-354,796	106,743	-0,092	0,080
-353,781	-5,780	-0,054	0,027
-352,766	-200,000	-0,011	-0,091
-351,752	366,143	0,095	0,140
-350,737	340,675	-0,033	-0,047
-349,723	-200,000	0,004	-0,039
-348,708	-200,000	0,025	-0,103
-347,693	590,057	0,048	-0,086
-346,679	432,014	-0,063	-0,100
-345,664	78,846	0,052	-0,040
-344,650	123,723	-0,025	0,023
-343,635	52,025	0,079	-0,054
-342,620	-93,791	0,043	-0,009
-341,606	100,895	0,044	0,037
-340,591	56,151	0,010	0,007
-339,577	-200,000	0,004	-0,053
-338,562	800,000	-0,047	-0,120
-337,548	-200,000	-0,005	0,087
-336,533	138,618	0,076	-0,072
-335,518	-20,724	0,168	-0,075
-334,504	800,000	-0,018	0,054
-333,489	-200,000	0,012	0,159
-332,475	76,481	-0,044	0,034
-331,460	7,926	-0,100	-0,054
-330,445	39,678	0,037	0,024
-329,431	-200,000	-0,004	-0,075
-328,416	-2,399	-0,115	-0,058
-327,402	800,000	0,030	0,072
-326,387	-87,691	-0,050	-0,011
-325,372	-200,000	0,017	-0,087
-324,358	-20,526	0,017	-0,008
-323,343	107,320	-0,152	-0,132
-322,329	50,791	0,022	-0,015
-321,314	59,569	0,055	-0,039
-320,299	589,013	0,055	-0,098
-319,285	-74,965	-0,066	0,017
-318,270	-1,026	0,062	-0,032
-317,256	-200,000	-0,001	-0,014
-316,241	-200,000	-0,006	0,041
-315,226	-110,648	0,056	0,008
-314,212	800,000	0,039	0,081
-313,197	56,497	0,057	0,040
-312,183	-200,000	-0,001	-0,031
-311,168	-165,734	0,107	0,003
-310,153	-42,474	-0,102	0,037
-309,139	78,306	-0,051	0,039
-308,124	294,934	-0,073	-0,098
-307,110	32,495	0,077	0,048
-306,095	627,744	-0,051	0,093
-305,080	82,447	-0,126	0,099
-304,066	449,517	-0,108	-0,174
-303,051	176,466	-0,035	-0,036
-302,037	-200,000	0,020	0,072
-301,022	402,550	-0,077	0,117
-300,008	46,533	-0,125	-0,084
-298,993	-60,198	0,138	-0,042
-297,978	571,436	-0,045	-0,080
-296,964	-130,155	0,084	-0,008
-295,949	800,000	0,041	0,111
-294,935	34,203	0,059	0,037
-293,920	104,309	0,059	-0,050
-292,905	800,000	0,026	0,070
-291,891	189,136	0,082	0,089
-290,876	800,000	0,002	0,007
-289,862	-200,000	0,019	-0,094
-288,847	258,433	-0,049	-0,061
-287,832	164,316	-0,075	-0,077
-286,818	77,045	-0,098	-0,075
-285,803	-200,000	0,018	0,077
-284,789	469,643	0,045	-0,073
-283,774	159,313	-0,099	0,100
-282,759	32,118	0,050	0,031
-281,745	66,712	-0,127	0,094
-280,730	92,412	0,164	-0,134
-279,716	800,000	0,073	-0,195
-278,701	-79,723	-0,105	0,025
-277,686	270,363	0,057	-0,073
-276,672	800,000	-0,029	0,079
-275,657	175,888	-0,072	0,076
-274,643	-39,905	-0,058	-0,022
-273,628	49,615	-0,063	0,043
-272,613	-131,874	0,114	0,011
-271,599	9,399	-0,039	-0,021
-270,584	278,571	0,084	0,108
-269,570	-200,000	0,017	0,074
-268,555	-200,000	-0,022	-0,080
-267,540	16,032	0,038	-0,022
-266,526	800,000	-0,090	-0,233
-265,511	511,227	-0,033	-0,057
-264,497	26,670	0,099	0,060
-263,482	-76,161	0,066	-0,017
-262,467	-200,000	0,014	0,145
-261,453	378,788	0,071	0,105
-260,438	-200,000	0,007	0,035
-259,424	13,023	-0,122	0,068
-258,409	319,205	-0,033	-0,046
-257,395	-156,466	0,101	0,004
-256,380	-120,116	-0,121	-0,015
-255,365	-85,721	-0,046	-0,010
-254,351	128,193	-0,051	-0,047
-253,336	-200,000	-0,021	-0,105
-252,322	800,000	0,041	-0,121
-251,307	-65,821	-0,084	-0,024
-250,292	-90,533	0,086	-0,018
-249,278	102,699	0,096	0,082
-248,263	-63,574	-0,074	0,022
-247,249	800,000	0,031	0,079
-246,234	-200,000	0,016	-0,116
-245,219	-108,292	-0,112	0,017
-244,205	216,413	0,037	0,043
-243,190	28,550	-0,056	0,034
-242,176	181,878	0,038	-0,040
-241,161	-126,405	0,111	-0,012
-240,146	-120,255	0,115	0,014
-239,132	405,587	-0,041	0,062
-238,117	-57,371	-0,047	0,015
-237,103	16,139	0,045	-0,026
-236,088	800,000	-0,020	0,041
-235,073	112,457	0,092	0,081
-234,059	-200,000	0,009	0,093
-233,044	-28,132	0,030	-0,012
-232,030	57,309	0,037	-0,026
-231,015	-100,843	-0,095	0,017
-230,000	-200,000	-0,003	0,045
-228,986	-200,000	0,016	-0,078
-227,971	-200,000	0,012	0,117
-226,957	-200,000	0,011	-0,041
-225,942	-142,668	0,164	0,011
-224,927	362,055	-0,057	0,083
-223,913	-81,745	-0,155	0,037
-222,898	-6,531	0,169	0,083
-221,884	-178,635	-0,030	-0,000
-220,869	-200,000	0,002	-0,019
-219,855	57,762	0,085	0,060
-218,840	449,978	-0,042	-0,067
-217,825	571,236	-0,048	-0,085
-216,811	800,000	-0,036	-0,074
-215,796	-26,406	-0,066	-0,028
-214,782	-200,000	0,007	-0,031
-213,767	-200,000	0,008	0,048
-212,752	-159,041	0,029	-0,001
-211,738	-131,371	0,156	0,015
-210,723	-39,937	0,001	-0,000
-209,709	-15,262	-0,135	-0,062
-208,694	-58,680	0,200	0,062
-207,679	63,518	-0,054	-0,039
-206,665	-200,000	0,000	0,019
-205,650	-88,755	0,103	0,022
-204,636	57,077	0,116	-0,082
-203,621	43,911	-0,038	-0,025
-202,606	-78,180	-0,062	0,015
-201,592	-24,318	-0,052	0,023
-200,577	-200,000	-0,001	-0,042
-199,563	-145,455	0,112	0,007
-198,548	-200,000	0,054	0,178
-197,533	6,280	0,048	0,026
-196,519	-142,474	0,124	0,009
-195,504	-102,827	0,061	0,010
-194,490	800,000	-0,013	-0,036
-193,475	414,926	0,035	-0,055
-192,460	97,721	0,071	-0,059
-191,446	-52,546	-0,100	-0,033
-190,431	-86,976	-0,042	-0,009
-189,417	-167,506	0,048	0,001
-188,402	799,034	0,030	0,059
-187,387	-89,452	-0,097	0,020
-186,373	800,000	-0,034	0,107
-185,358	-200,000	0,014	-0,204
-184,344	-13,027	0,036	0,017
-183,329	45,838	-0,054	-0,036
-182,315	-114,559	0,064	-0,009
-181,300	344,658	-0,034	-0,048
-180,285	-114,276	-0,119	0,016
-179,271	284,953	-0,068	-0,088
-178,256	713,018	0,040	0,078
-177,242	370,763	-0,041	0,061
-176,227	-57,385	0,032	0,010
-175,212	-200,000	0,015	0,052
-174,198	-101,250	-0,116	0,020
-173,183	39,015	0,055	-0,035
-172,169	-130,521	-0,042	-0,004
-171,154	-200,000	0,014	-0,051
-170,139	-200,000	0,002	0,029
-169,125	461,948	0,042	0,068
-168,110	-200,000	0,010	-0,069
-167,096	-200,000	-0,023	-0,111
-166,081	-200,000	-0,009	0,038
-165,066	-58,670	-0,094	-0,029
-164,052	-200,000	0,018	-0,116
-163,037	-200,000	0,002	-0,025
-162,023	-200,000	0,039	-0,129
-161,008	-200,000	-0,027	-0,156
-159,993	-64,995	0,055	-0,016
-158,979	80,546	0,064	-0,050
-157,964	676,424	-0,022	0,041
-156,950	-200,000	-0,027	-0,086
-155,935	193,973	-0,124	-0,136
-154,920	-200,000	-0,022	0,093
-153,906	-200,000	0,012	0,062
-152,891	-8,635	0,031	-0,015
-151,877	-148,812	-0,161	-0,009
-150,862	268,994	0,071	-0,090
-149,847	-200,000	-0,017	-0,080
-148,833	800,000	-0,041	0,086
-147,818	-1,325	0,019	0,010
-146,804	191,095	-0,027	0,029
-145,789	67,321	0,042	-0,031
-144,775	-200,000	-0,008	0,046
-143,760	-200,000	-0,006	-0,112
-142,745	-200,000	0,026	-0,145
-141,731	41,372	0,093	-0,060
-140,716	-103,001	0,053	0,009
-139,702	-115,319	0,118	0,016
-138,687	-113,245	-0,021	0,003
-137,672	-200,000	0,030	-0,112
-136,658	-128,658	-0,028	-0,003
-135,643	125,965	0,086	0,078
-134,629	-112,144	0,022	-0,003
-133,614	142,716	-0,030	0,029
-132,599	-81,000	0,096	0,023
-131,585	271,421	-0,040	-0,051
-130,570	-200,000	-0,007	0,055
-129,556	-200,000	0,000	0,082
-128,541	-146,595	-0,113	0,007
-127,526	-200,000	-0,002	-0,033
-126,512	800,000	-0,023	-0,061
-125,497	-135,666	-0,036	-0,003
-124,483	800,000	-0,033	0,078
-123,468	-200,000	-0,021	0,113
-122,453	-200,000	-0,001	-0,009
-121,439	258,504	-0,059	0,073
-120,424	56,114	0,066	0,046
-119,410	99,531	0,121	0,101
