DTS Sentinel unit serial number:	SN410029Multiplexer serial number:	ORYXHardware model number:	OX2-SRSoftware version number:	ORYX F/W v4,00 Oryx Data Collector v3.7.2.0data status	okinstallation	B6 Nyhavnadifferential loss correction	single-endedforward channel	channel 2reverse channel	N/Adate	2023/12/10time	21:20:08forward acquisition time	300,00reverse acquisition time	0,00gamma	499,1914k internal	0,3123k external	0,3123temperature offset calibration	1,0000default loss term (dB/km)	0,3820temperature slope calibration	1,0000multiplexer offset coefficient	1,0000multiplexer slope coefficient	1,0000fibre end	0,00T internal ref (°C)	22,26T ext. ref 1 (°C)	6,01T ext. ref 2 (°C)	6,01length (m)	temperature (°C)	Stokes	anti-Stokes-744,400	125,983	0,144	-0,135
-743,385	-4,958	-0,216	0,111
-742,371	584,515	0,025	0,046
-741,356	26,581	-0,077	0,048
-740,342	-200,000	-0,004	-0,016
-739,327	-135,237	-0,124	0,011
-738,312	-0,162	-0,114	0,060
-737,298	800,000	-0,045	0,139
-736,283	800,000	0,036	-0,116
-735,269	-109,463	-0,257	0,040
-734,254	30,858	0,090	0,058
-733,239	-16,333	-0,416	-0,196
-732,225	459,528	0,016	0,026
-731,210	168,040	-0,070	0,074
-730,196	119,369	-0,033	0,030
-729,181	-155,644	-0,196	-0,009
-728,167	-45,788	0,166	0,061
-727,152	139,203	-0,057	-0,056
-726,137	-200,000	0,006	-0,071
-725,123	20,318	0,014	-0,009
-724,108	31,177	-0,156	-0,099
-723,094	800,000	0,005	0,013
-722,079	-19,989	0,028	-0,013
-721,064	-129,143	-0,068	0,007
-720,050	-92,162	-0,045	-0,009
-719,035	250,317	-0,068	-0,086
-718,021	15,484	-0,131	-0,076
-717,006	800,000	-0,022	-0,069
-715,991	262,395	-0,083	-0,108
-714,977	583,714	-0,093	-0,170
-713,962	99,908	-0,059	-0,051
-712,948	17,396	0,076	-0,045
-711,933	250,107	-0,169	0,214
-710,918	800,000	-0,048	0,137
-709,904	25,403	0,166	-0,102
-708,889	272,375	-0,069	-0,091
-707,875	674,325	-0,106	-0,206
-706,860	79,131	0,077	0,061
-705,845	194,526	0,037	0,042
-704,831	-200,000	0,030	0,121
-703,816	-101,385	0,104	0,019
-702,802	-200,000	-0,005	-0,032
-701,787	-69,165	-0,033	0,009
-700,772	800,000	-0,042	-0,116
-699,758	171,710	-0,046	-0,049
-698,743	800,000	-0,044	0,099
-697,729	-86,519	0,060	0,014
-696,714	339,833	0,034	-0,050
-695,699	-114,150	-0,105	0,015
-694,685	-168,624	-0,131	0,004
-693,670	-200,000	-0,016	0,086
-692,656	800,000	-0,008	0,023
-691,641	-200,000	-0,019	0,100
-690,627	-67,216	-0,061	-0,018
-689,612	-49,636	-0,081	0,028
-688,597	-200,000	-0,049	0,165
-687,583	-139,197	-0,084	0,007
-686,568	261,431	-0,057	-0,074
-685,554	-30,220	-0,100	-0,042
-684,539	179,000	-0,063	0,068
-683,524	-8,552	-0,058	0,029
-682,510	800,000	0,014	-0,045
-681,495	191,045	-0,023	-0,026
-680,481	-22,814	-0,013	0,006
-679,466	-200,000	0,000	0,009
-678,451	-0,071	-0,117	-0,062
-677,437	75,033	-0,022	-0,018
-676,422	17,343	-0,029	-0,017
-675,408	-200,000	-0,015	0,051
-674,393	-29,926	0,108	-0,046
-673,378	71,413	-0,022	-0,017
-672,364	-65,165	-0,176	-0,053
-671,349	800,000	-0,133	-0,307
-670,335	-48,229	-0,029	0,010
-669,320	-200,000	-0,009	-0,047
-668,305	92,255	0,112	0,094
-667,291	-163,318	0,038	0,001
-666,276	511,891	-0,027	0,047
-665,262	800,000	-0,026	-0,080
-664,247	55,855	0,031	-0,023
-663,232	39,828	-0,086	0,058
-662,218	-135,160	0,023	-0,002
-661,203	378,309	0,115	0,175
-660,189	-84,939	-0,027	0,006
-659,174	-88,385	-0,098	0,022
-658,159	-200,000	-0,007	-0,103
-657,145	800,000	-0,025	-0,065
-656,130	-4,054	0,081	0,042
-655,116	617,928	0,059	0,110
-654,101	800,000	0,044	0,092
-653,086	-163,592	-0,071	-0,002
-652,072	330,389	0,064	-0,092
-651,057	430,578	0,044	-0,071
-650,043	698,478	0,048	-0,093
-649,028	567,515	0,031	0,057
-648,014	204,506	0,076	-0,088
-646,999	-177,326	-0,074	0,001
-645,984	800,000	-0,011	-0,033
-644,970	398,164	-0,076	0,118
-643,955	83,071	-0,101	-0,081
-642,941	253,532	-0,086	-0,109
-641,926	53,731	-0,047	-0,033
-640,911	-109,670	0,097	0,015
-639,897	800,000	-0,082	0,199
-638,882	678,293	-0,061	-0,119
-637,868	-130,845	-0,042	0,004
-636,853	-200,000	0,041	-0,185
-635,838	800,000	-0,043	0,093
-634,824	-101,999	0,191	0,034
-633,809	-200,000	-0,003	-0,013
-632,795	800,000	-0,046	0,127
-631,780	41,080	0,045	0,030
-630,765	633,310	-0,051	-0,096
-629,751	0,033	-0,118	-0,062
-628,736	11,902	-0,084	-0,048
-627,722	320,257	0,170	-0,240
-626,707	-148,534	-0,139	-0,008
-625,692	-200,000	-0,002	-0,083
-624,678	-200,000	-0,001	-0,023
-623,663	-148,619	0,021	0,001
-622,649	2,037	-0,042	0,023
-621,634	114,556	0,075	-0,068
-620,619	81,041	-0,127	0,102
-619,605	447,951	0,079	-0,130
-618,590	-140,688	-0,041	-0,003
-617,576	-200,000	-0,003	-0,012
-616,561	-72,090	-0,151	0,041
-615,546	172,803	-0,049	-0,053
-614,532	800,000	-0,133	-0,277
-613,517	800,000	0,021	-0,059
-612,503	11,594	-0,040	0,023
-611,488	128,359	0,054	-0,051
-610,474	38,541	-0,099	0,065
-609,459	-53,530	-0,097	-0,033
-608,444	-110,993	0,052	0,008
-607,430	-200,000	0,001	-0,042
-606,415	-200,000	0,015	-0,073
-605,401	472,083	0,072	0,120
-604,386	84,280	-0,050	-0,040
-603,371	350,067	0,059	0,087
-602,357	92,660	-0,030	-0,025
-601,342	-200,000	-0,003	0,011
-600,328	-124,017	-0,138	0,016
-599,313	222,806	-0,005	0,006
-598,298	49,321	0,064	0,045
-597,284	29,244	-0,041	0,026
-596,269	1,189	0,077	-0,041
-595,255	-69,076	-0,093	-0,026
-594,240	146,781	0,098	0,098
-593,225	-156,372	0,063	-0,003
-592,211	-200,000	0,033	-0,210
-591,196	-93,747	0,081	0,016
-590,182	228,026	-0,097	0,117
-589,167	-200,000	-0,018	-0,119
-588,152	-200,000	0,056	0,196
-587,138	49,648	-0,115	-0,080
-586,123	-200,000	0,003	-0,155
-585,109	-200,000	0,026	-0,121
-584,094	-200,000	0,028	-0,176
-583,079	102,290	-0,061	-0,053
-582,065	-109,401	0,098	0,015
-581,050	543,570	0,015	0,027
-580,036	43,700	-0,068	0,046
-579,021	800,000	-0,031	-0,063
-578,006	222,193	0,029	-0,034
-576,992	-200,000	-0,025	-0,102
-575,977	358,615	-0,041	0,060
-574,963	-29,280	-0,150	0,063
-573,948	175,305	-0,037	0,040
-572,934	-200,000	0,047	0,162
-571,919	-200,000	0,015	-0,061
-570,904	223,833	0,002	0,002
-569,890	-200,000	0,019	-0,070
-568,875	-131,580	-0,074	0,007
-567,861	-116,611	-0,011	-0,001
-566,846	-200,000	0,010	0,069
-565,831	115,125	0,062	0,056
-564,817	218,333	-0,116	-0,137
-563,802	-39,256	-0,046	0,018
-562,788	-114,747	0,225	-0,031
-561,773	-116,856	-0,105	0,014
-560,758	-94,849	0,155	-0,031
-559,744	-140,124	0,150	-0,012
-558,729	-102,036	-0,095	-0,017
-557,715	148,301	-0,055	-0,055
-556,700	-55,227	-0,060	-0,020
-555,685	-123,732	0,087	-0,010
-554,671	47,008	-0,129	0,089
-553,656	800,000	0,067	-0,192
-552,642	-129,752	-0,064	-0,006
-551,627	405,423	-0,034	0,053
-550,612	-200,000	0,015	-0,092
-549,598	800,000	-0,042	-0,094
-548,583	382,186	0,051	-0,078
-547,569	-25,739	0,156	0,068
-546,554	200,109	0,072	-0,082
-545,539	-42,336	0,076	0,029
-544,525	-200,000	0,021	-0,069
-543,510	-61,942	-0,108	0,033
-542,496	30,059	0,085	-0,054
-541,481	-200,000	0,015	0,064
-540,466	-13,826	-0,032	0,015
-539,452	800,000	0,013	0,042
-538,437	416,850	0,051	0,080
-537,423	-200,000	0,013	0,158
-536,408	-81,383	0,014	0,003
-535,393	143,488	-0,060	-0,059
-534,379	-200,000	0,021	0,142
-533,364	-77,790	0,082	0,021
-532,350	-200,000	0,009	0,106
-531,335	-200,000	0,008	0,095
-530,321	-200,000	-0,000	-0,076
-529,306	313,054	-0,085	-0,119
-528,291	343,217	-0,046	-0,067
-527,277	273,538	0,080	-0,105
-526,262	-46,799	0,080	-0,029
-525,248	48,264	-0,050	0,034
-524,233	268,420	0,096	-0,124
-523,218	800,000	0,023	-0,070
-522,204	-124,137	0,068	0,008
-521,189	-200,000	0,008	-0,049
-520,175	252,559	-0,055	-0,069
-519,160	-200,000	-0,003	-0,093
-518,145	-27,896	0,039	0,017
-517,131	800,000	-0,057	-0,149
-516,116	40,934	0,071	0,047
-515,102	800,000	0,010	-0,023
-514,087	54,153	-0,181	-0,128
-513,072	-72,177	-0,194	-0,053
-512,058	71,297	0,102	-0,078
-511,043	118,900	-0,060	-0,055
-510,029	-200,000	0,007	0,032
-509,014	-200,000	-0,011	0,100
-507,999	-180,984	0,086	-0,001
-506,985	-200,000	-0,005	0,058
-505,970	-85,725	0,043	-0,010
-504,956	-200,000	0,017	-0,069
-503,941	-116,656	0,129	0,017
-502,926	-84,614	-0,103	-0,024
-501,912	-103,572	-0,015	-0,003
-500,897	800,000	0,042	0,103
-499,883	-16,143	-0,081	0,038
-498,868	-109,856	-0,037	-0,006
-497,853	44,879	-0,084	-0,057
-496,839	236,437	-0,096	-0,118
-495,824	-96,915	0,033	-0,006
-494,810	5,812	0,110	0,060
-493,795	591,798	-0,042	0,077
-492,781	253,407	-0,042	-0,053
-491,766	21,473	0,071	-0,042
-490,751	-200,000	-0,001	-0,012
-489,737	193,335	-0,013	0,015
-488,722	-11,345	0,132	-0,064
-487,708	74,534	0,006	-0,005
-486,693	157,128	0,056	0,057
-485,678	649,297	-0,096	-0,181
-484,664	-156,305	-0,106	-0,005
-483,649	-16,161	-0,039	-0,018
-482,635	35,259	-0,049	-0,032
-481,620	800,000	-0,044	-0,123
-480,605	332,278	0,102	0,145
-479,591	-200,000	0,013	0,053
-478,576	320,898	0,030	0,043
-477,562	44,753	-0,032	0,022
-476,547	-200,000	-0,006	-0,066
-475,532	-200,000	-0,006	0,053
-474,518	136,725	-0,037	0,036
-473,503	800,000	0,048	0,126
-472,489	-200,000	-0,003	0,054
-471,474	-82,412	-0,071	0,017
-470,459	-32,143	-0,055	0,023
-469,445	-200,000	-0,084	-0,000
-468,430	-146,711	0,156	-0,010
-467,416	75,727	-0,005	-0,004
-466,401	44,997	0,100	-0,068
-465,386	-143,649	0,082	0,006
-464,372	-150,786	-0,212	0,012
-463,357	-200,000	-0,013	0,128
-462,343	-6,883	-0,038	-0,019
-461,328	-132,532	-0,073	0,007
-460,313	87,171	-0,030	-0,024
-459,299	-75,396	0,030	0,008
-458,284	238,458	0,025	0,031
-457,270	6,617	-0,157	0,086
-456,255	35,475	-0,077	-0,050
-455,241	383,666	-0,037	-0,057
-454,226	-39,127	-0,153	-0,059
-453,211	-159,443	-0,023	-0,001
-452,197	10,449	0,062	-0,035
-451,182	472,806	0,031	-0,051
-450,168	426,123	0,027	0,042
-449,153	-200,000	-0,008	0,067
-448,138	190,954	0,029	0,032
-447,124	461,689	0,019	-0,031
-446,109	800,000	0,031	0,093
-445,095	800,000	0,056	0,144
-444,080	-118,058	-0,068	-0,009
-443,065	-100,124	-0,015	-0,003
-442,051	-1,679	0,123	0,064
-441,036	-200,000	0,011	-0,081
-440,022	-92,554	-0,101	0,021
-439,007	-46,338	0,119	-0,043
-437,992	127,333	0,081	0,076
-436,978	800,000	-0,049	0,122
-435,963	-200,000	-0,019	-0,063
-434,949	-65,948	0,096	-0,028
-433,934	-96,683	-0,091	-0,018
-432,919	95,947	-0,074	-0,062
-431,905	-22,774	-0,090	-0,040
-430,890	272,665	0,155	0,202
-429,876	-200,000	0,030	0,163
-428,861	-200,000	0,008	-0,034
-427,846	-128,486	0,067	0,007
-426,832	-200,000	-0,023	0,090
-425,817	-18,214	0,120	0,055
-424,803	-200,000	0,000	0,008
-423,788	800,000	-0,069	-0,147
-422,773	192,545	0,089	0,099
-421,759	55,495	0,136	0,097
-420,744	268,182	-0,039	0,050
-419,730	-200,000	0,007	0,105
-418,715	-105,294	-0,089	-0,015
-417,701	-200,000	0,007	-0,093
-416,686	-34,731	0,010	0,004
-415,671	-99,510	-0,090	0,017
-414,657	-200,000	0,012	0,088
-413,642	-2,355	0,073	-0,037
-412,628	730,157	0,070	-0,138
-411,613	124,053	-0,052	-0,048
-410,598	-58,629	-0,081	-0,026
-409,584	800,000	0,048	-0,099
-408,569	743,369	-0,012	0,024
-407,555	301,082	-0,031	-0,042
-406,540	-47,871	0,116	0,041
-405,525	-53,654	0,197	0,066
-404,511	74,738	-0,074	0,057
-403,496	-62,247	0,045	0,014
-402,482	-155,112	0,131	0,006
-401,467	-200,000	-0,033	0,112
-400,452	-200,000	0,006	0,103
-399,438	-59,189	-0,096	0,030
-398,423	-200,000	-0,013	-0,059
-397,409	-79,542	0,054	0,013
-396,394	-106,366	-0,121	0,020
-395,379	-101,492	0,134	0,024
-394,365	60,001	0,028	0,020
-393,350	86,448	-0,055	-0,045
-392,336	302,032	-0,037	-0,051
-391,321	-200,000	-0,023	-0,117
-390,306	126,198	-0,021	0,019
-389,292	169,480	0,075	-0,079
-388,277	-200,000	0,012	-0,081
-387,263	193,522	-0,073	0,082
-386,248	92,557	0,065	0,054
-385,233	-28,420	-0,108	0,045
-384,219	-200,000	0,028	-0,098
-383,204	-33,931	-0,052	0,021
-382,190	-200,000	0,003	-0,067
-381,175	4,736	0,088	-0,047
-380,160	-66,926	0,076	0,022
-379,146	228,143	0,022	-0,026
-378,131	-200,000	0,008	-0,090
-377,117	218,147	-0,059	-0,069
-376,102	-83,299	0,031	0,007
-375,088	-63,207	-0,156	0,047
-374,073	478,367	-0,046	-0,077
-373,058	-97,883	0,095	-0,018
-372,044	-200,000	-0,014	-0,078
-371,029	-74,393	0,110	0,029
-370,015	139,025	0,034	0,033
-369,000	800,000	0,013	0,032
-367,985	-196,627	-0,057	-0,000
-366,971	-52,232	0,134	0,045
-365,956	651,028	0,020	-0,038
-364,942	697,596	0,050	0,097
-363,927	-200,000	-0,003	0,149
-362,912	90,720	0,047	0,038
-361,898	35,979	-0,086	-0,055
-360,883	112,789	0,008	-0,007
-359,869	415,097	0,064	-0,101
-358,854	-160,622	0,198	0,008
-357,839	-16,896	0,083	-0,038
-356,825	302,385	0,006	-0,008
-355,810	-200,000	-0,010	-0,042
-354,796	49,335	-0,052	0,036
-353,781	800,000	-0,021	0,062
-352,766	-200,000	-0,016	0,092
-351,752	126,997	0,060	-0,056
-350,737	63,496	0,056	-0,041
-349,723	-143,849	-0,108	-0,007
-348,708	-200,000	-0,022	0,100
-347,693	-200,000	0,024	0,163
-346,679	-129,242	-0,132	0,013
-345,664	-34,507	-0,110	-0,044
-344,650	800,000	-0,067	-0,137
-343,635	-3,212	0,070	0,036
-342,620	484,070	0,023	0,039
-341,606	396,883	0,035	-0,054
-340,591	-112,203	-0,251	0,037
-339,577	-200,000	0,015	-0,069
-338,562	170,338	-0,057	-0,059
-337,548	-35,730	-0,128	-0,051
-336,533	-102,321	0,092	0,016
-335,518	800,000	0,013	-0,029
-334,504	48,780	-0,125	0,086
-333,489	149,654	-0,049	0,049
-332,475	800,000	0,022	-0,045
-331,460	-7,270	-0,191	0,095
-330,445	-200,000	-0,007	-0,040
-329,431	38,569	0,134	0,087
-328,416	-15,324	0,116	-0,054
-327,402	800,000	0,009	-0,020
-326,387	800,000	0,047	0,104
-325,372	155,402	-0,122	-0,123
-324,358	137,892	-0,042	-0,041
-323,343	160,481	0,069	0,071
-322,329	-200,000	0,026	0,126
-321,314	335,477	-0,046	-0,066
-320,299	239,491	-0,021	-0,026
-319,285	62,194	0,084	0,062
-318,270	-200,000	-0,024	-0,148
-317,256	12,705	-0,032	-0,018
-316,241	-200,000	-0,000	-0,063
-315,226	-200,000	0,032	0,207
-314,212	5,950	-0,038	0,020
-313,197	-102,144	0,112	-0,019
-312,183	-200,000	0,005	0,114
-311,168	86,452	-0,028	-0,023
-310,153	70,120	0,029	-0,022
-309,139	485,876	-0,044	0,073
-308,124	800,000	-0,024	-0,075
-307,110	-200,000	0,175	0,000
-306,095	89,380	0,019	0,016
-305,080	-81,009	-0,085	0,020
-304,066	-200,000	-0,011	-0,044
-303,051	-71,038	0,060	0,016
-302,037	328,284	0,057	0,080
-301,022	-97,132	-0,024	0,005
-300,008	800,000	0,021	0,057
-298,993	800,000	-0,052	0,128
-297,978	-200,000	-0,011	-0,040
-296,964	-127,292	-0,163	0,017
-295,949	315,492	0,065	-0,090
-294,935	136,261	-0,108	-0,103
-293,920	-200,000	-0,003	0,070
-292,905	459,211	0,050	-0,082
-291,891	598,245	0,067	0,123
-290,876	350,813	0,064	0,093
-289,862	800,000	0,030	-0,084
-288,847	93,739	-0,142	-0,118
-287,832	122,050	-0,028	0,026
-286,818	800,000	0,048	-0,123
-285,803	366,839	-0,043	-0,064
-284,789	-113,278	-0,082	-0,012
-283,774	-172,700	0,083	0,002
-282,759	217,972	-0,058	0,068
-281,745	477,070	0,034	-0,057
-280,730	-18,249	0,049	0,023
-279,716	365,829	0,046	-0,068
-278,701	800,000	-0,060	0,183
-277,686	-140,817	0,138	-0,010
-276,672	304,857	0,015	0,020
-275,657	470,317	-0,024	-0,040
-274,643	96,872	-0,097	-0,082
-273,628	449,676	-0,056	-0,090
-272,613	168,771	-0,033	-0,035
-271,599	6,457	-0,079	-0,043
-270,584	-47,549	0,125	0,044
-269,570	28,890	-0,113	0,070
-268,555	55,956	-0,168	0,119
-267,540	60,331	-0,060	0,043
-266,526	59,908	-0,078	0,056
-265,511	-70,580	-0,095	-0,026
-264,497	47,891	-0,073	-0,050
-263,482	-37,263	0,142	-0,055
-262,467	-48,956	0,100	0,035
-261,453	499,966	-0,026	-0,045
-260,438	-200,000	0,026	0,105
-259,424	-63,822	-0,144	0,043
-258,409	-200,000	-0,011	-0,091
-257,395	211,372	0,056	0,064
-256,380	98,862	0,084	0,071
-255,365	-150,618	0,079	0,004
-254,351	237,281	0,010	-0,012
-253,336	60,600	-0,149	0,108
-252,322	37,012	-0,021	-0,014
-251,307	48,724	0,044	-0,030
-250,292	135,379	0,021	0,020
-249,278	80,417	0,118	-0,093
-248,263	480,318	0,035	0,058
-247,249	-200,000	0,017	-0,074
-246,234	-108,731	0,101	-0,016
-245,219	800,000	0,045	0,107
-244,205	22,600	-0,079	0,047
-243,190	800,000	-0,040	0,102
-242,176	-65,138	0,104	0,030
-241,161	174,716	0,061	0,064
-240,146	568,884	0,094	0,168
-239,132	800,000	0,066	0,160
-238,117	-169,654	0,106	-0,003
-237,103	-17,655	0,087	-0,040
-236,088	501,782	-0,070	0,118
-235,073	571,420	0,029	0,053
-234,059	-200,000	0,084	0,280
-233,044	257,634	-0,034	-0,043
-232,030	-45,411	-0,039	-0,014
-231,015	260,636	-0,049	-0,062
-230,000	800,000	-0,030	-0,096
-228,986	30,329	-0,064	-0,040
-227,971	2,261	0,150	0,079
-226,957	-47,370	-0,057	0,020
-225,942	16,337	0,055	0,031
-224,927	61,923	-0,067	-0,049
-223,913	-200,000	-0,013	-0,160
-222,898	90,060	0,155	-0,127
-221,884	-200,000	-0,053	-0,199
-220,869	-200,000	0,018	0,105
-219,855	173,621	-0,052	0,055
-218,840	-76,113	-0,009	-0,002
-217,825	800,000	-0,016	0,051
-216,811	-200,000	0,002	0,047
-215,796	93,826	-0,010	-0,008
-214,782	-154,516	0,124	0,006
-213,767	-98,672	-0,037	-0,007
-212,752	-3,943	0,039	0,019
-211,738	-200,000	0,012	0,060
-210,723	171,716	-0,079	0,083
-209,709	-200,000	-0,013	-0,084
-208,694	-103,317	-0,086	-0,015
-207,679	800,000	-0,058	-0,159
-206,665	16,594	0,055	-0,031
-205,650	170,497	0,090	0,094
-204,636	492,154	0,037	-0,062
-203,621	36,731	-0,118	-0,076
-202,606	800,000	0,055	-0,140
-201,592	603,456	-0,056	-0,103
-200,577	-154,930	0,150	-0,007
-199,563	800,000	-0,012	-0,031
-198,548	-200,000	0,011	0,099
-197,533	-193,739	0,117	-0,001
-196,519	159,384	-0,070	0,071
-195,504	-96,511	0,023	0,004
-194,490	-3,414	-0,023	0,012
-193,475	66,003	0,036	-0,027
-192,460	456,223	-0,025	0,040
-191,446	-200,000	-0,036	0,202
-190,431	140,691	0,105	0,101
-189,417	800,000	0,051	0,116
-188,402	-200,000	0,010	-0,082
-187,387	80,506	0,074	-0,058
-186,373	-88,863	-0,043	-0,009
-185,358	42,778	-0,068	0,045
-184,344	-200,000	-0,008	0,035
-183,329	-13,439	0,129	0,061
-182,315	-28,411	0,129	0,054
-181,300	800,000	0,030	-0,076
-180,285	233,136	0,030	-0,036
-179,271	-118,040	-0,168	-0,022
-178,256	-200,000	0,003	0,042
-177,242	-66,353	0,061	0,018
-176,227	-200,000	-0,036	0,118
-175,212	-200,000	0,000	0,065
-174,198	-200,000	0,021	0,074
-173,183	-28,817	-0,194	-0,081
-172,169	-10,452	0,039	0,019
-171,154	22,300	0,062	-0,037
-170,139	57,417	0,036	0,026
-169,125	651,641	0,054	0,101
-168,110	762,678	-0,027	-0,053
-167,096	153,500	0,059	0,059
-166,081	206,057	-0,017	0,019
-165,066	-82,623	0,017	-0,004
-164,052	6,636	-0,057	-0,031
-163,037	25,461	0,038	-0,023
-162,023	13,732	-0,056	-0,032
-161,008	-62,706	0,106	0,032
-159,993	-72,819	0,099	0,026
-158,979	800,000	0,032	0,093
-157,964	252,811	-0,130	0,161
-156,950	10,184	-0,090	0,050
-155,935	181,742	0,049	-0,053
-154,920	33,839	-0,053	-0,034
-153,906	82,148	0,066	-0,052
-152,891	131,469	-0,043	-0,041
-151,877	-135,517	-0,133	-0,011
-150,862	65,247	0,035	-0,025
-149,847	800,000	-0,023	-0,054
-148,833	96,602	-0,082	-0,068
-147,818	-24,569	-0,032	-0,014
-146,804	-200,000	0,006	0,059
-145,789	-200,000	-0,012	0,062
-144,775	-56,199	-0,072	-0,023
-143,760	-98,519	0,094	-0,017
-142,745	-200,000	-0,056	-0,253
-141,731	-25,745	-0,125	0,053
-140,716	-200,000	0,022	0,084
-139,702	800,000	0,047	0,096
-138,687	290,599	0,085	0,113
-137,672	800,000	-0,028	0,059
-136,658	-200,000	0,003	0,025
-135,643	120,594	-0,107	-0,097
-134,629	30,392	0,089	-0,055
-133,614	-200,000	0,041	0,160
-132,599	409,307	-0,052	0,081
-131,585	-200,000	-0,014	0,145
-130,570	104,223	-0,027	-0,023
-129,556	84,284	-0,068	0,054
-128,541	-69,955	-0,136	0,037
-127,526	-59,558	0,118	0,037
-126,512	63,625	0,069	-0,050
-125,497	203,032	0,083	0,094
-124,483	800,000	0,038	0,113
-123,468	30,953	-0,078	-0,048
-122,453	381,292	-0,087	-0,130
-121,439	635,250	-0,075	-0,139
-120,424	-200,000	0,000	-0,030
-119,410	-62,151	0,100	0,030
-118,395	-103,200	0,104	-0,018
