DTS Sentinel unit serial number:	SN410029Multiplexer serial number:	ORYXHardware model number:	OX2-SRSoftware version number:	ORYX F/W v4,00 Oryx Data Collector v3.7.2.0data status	okinstallation	B6 Nyhavnadifferential loss correction	single-endedforward channel	channel 2reverse channel	N/Adate	2023/12/09time	21:30:08forward acquisition time	300,00reverse acquisition time	0,00gamma	499,1914k internal	0,3127k external	0,3127temperature offset calibration	1,0000default loss term (dB/km)	0,3820temperature slope calibration	1,0000multiplexer offset coefficient	1,0000multiplexer slope coefficient	1,0000fibre end	0,00T internal ref (°C)	21,56T ext. ref 1 (°C)	5,43T ext. ref 2 (°C)	5,42length (m)	temperature (°C)	Stokes	anti-Stokes-744,400	-28,761	-0,088	0,037
-743,385	11,339	-0,188	0,107
-742,371	-200,000	0,006	-0,044
-741,356	428,114	-0,141	0,227
-740,342	-200,000	0,023	0,089
-739,327	403,531	-0,163	0,257
-738,312	-200,000	-0,018	-0,183
-737,298	-95,662	-0,270	0,053
-736,283	-200,000	0,005	-0,039
-735,269	681,325	-0,060	0,117
-734,254	-200,000	0,046	-0,168
-733,239	-33,227	-0,417	-0,171
-732,225	-117,746	-0,038	-0,005
-731,210	-80,795	0,125	0,031
-730,196	212,407	-0,096	-0,113
-729,181	-170,348	0,018	0,000
-728,167	-200,000	-0,038	-0,140
-727,152	329,167	0,056	-0,080
-726,137	800,000	-0,027	-0,089
-725,123	-65,754	-0,161	0,048
-724,108	-110,594	-0,181	-0,028
-723,094	-146,159	-0,227	-0,015
-722,079	212,525	-0,036	0,042
-721,064	800,000	-0,019	-0,056
-720,050	744,559	0,012	-0,025
-719,035	171,866	0,072	-0,077
-718,021	168,655	0,036	-0,038
-717,006	73,721	-0,208	-0,162
-715,991	-52,944	-0,031	-0,011
-714,977	60,075	-0,164	-0,120
-713,962	283,765	-0,041	0,055
-712,948	-200,000	0,001	0,047
-711,933	32,165	0,084	-0,054
-710,918	487,873	0,020	0,034
-709,904	567,010	-0,061	-0,110
-708,889	-200,000	-0,003	-0,073
-707,875	211,612	-0,120	-0,141
-706,860	-200,000	0,030	-0,117
-705,845	-200,000	0,031	-0,153
-704,831	-200,000	0,026	-0,092
-703,816	-161,864	-0,148	0,005
-702,802	-200,000	0,022	0,107
-701,787	202,562	-0,058	-0,067
-700,772	746,680	-0,047	0,094
-699,758	-200,000	0,004	-0,035
-698,743	-57,123	0,055	-0,018
-697,729	15,395	-0,071	0,041
-696,714	-37,127	-0,107	0,042
-695,699	800,000	-0,013	-0,031
-694,685	509,035	0,042	-0,072
-693,670	578,747	-0,038	-0,069
-692,656	-36,182	-0,069	0,028
-691,641	63,693	0,053	0,039
-690,627	-124,083	-0,058	-0,007
-689,612	-110,252	0,014	-0,002
-688,597	45,874	0,064	-0,044
-687,583	5,448	0,026	-0,014
-686,568	-200,000	0,002	-0,125
-685,554	666,389	-0,044	-0,085
-684,539	-120,117	0,083	0,010
-683,524	-54,396	0,104	0,035
-682,510	-200,000	-0,001	-0,041
-681,495	-200,000	0,007	-0,126
-680,481	612,518	0,059	-0,110
-679,466	-200,000	-0,030	-0,104
-678,451	-12,447	-0,113	-0,055
-677,437	-200,000	-0,041	0,158
-676,422	800,000	-0,027	0,064
-675,408	-200,000	-0,007	0,032
-674,393	-77,338	0,070	0,018
-673,378	800,000	-0,036	-0,091
-672,364	164,177	-0,148	-0,155
-671,349	136,517	-0,187	-0,182
-670,335	-82,965	-0,069	-0,016
-669,320	-70,898	-0,154	-0,043
-668,305	-200,000	-0,034	-0,116
-667,291	800,000	-0,009	-0,030
-666,276	193,033	-0,029	0,032
-665,262	800,000	0,076	-0,202
-664,247	-93,769	0,130	-0,026
-663,232	-200,000	0,001	-0,083
-662,218	-200,000	-0,027	0,165
-661,203	50,503	-0,050	0,035
-660,189	530,723	-0,076	-0,134
-659,174	800,000	-0,020	0,042
-658,159	-200,000	-0,029	0,000
-657,145	800,000	0,022	0,057
-656,130	-200,000	0,000	0,102
-655,116	-200,000	0,018	0,065
-654,101	800,000	-0,032	0,100
-653,086	800,000	-0,035	0,074
-652,072	583,400	-0,066	-0,121
-651,057	650,295	0,038	-0,073
-650,043	-200,000	0,049	-0,159
-649,028	-200,000	0,012	-0,128
-648,014	-200,000	0,018	-0,126
-646,999	480,458	-0,038	-0,065
-645,984	-200,000	-0,004	0,082
-644,970	449,822	-0,035	0,058
-643,955	-200,000	-0,009	-0,211
-642,941	333,519	0,042	0,061
-641,926	-13,778	0,019	0,009
-640,911	179,337	-0,122	-0,132
-639,897	-200,000	-0,014	0,100
-638,882	19,867	-0,028	0,017
-637,868	-200,000	-0,011	-0,043
-636,853	-200,000	0,015	-0,183
-635,838	-172,976	-0,162	-0,004
-634,824	34,307	-0,051	-0,033
-633,809	-200,000	0,026	-0,110
-632,795	800,000	0,044	-0,115
-631,780	576,164	0,043	-0,078
-630,765	-142,632	-0,142	0,010
-629,751	800,000	-0,048	0,104
-628,736	-18,080	-0,085	0,039
-627,722	-72,775	0,098	0,026
-626,707	-200,000	0,013	0,068
-625,692	218,907	-0,031	-0,036
-624,678	-123,765	0,071	0,008
-623,663	-200,000	-0,009	0,037
-622,649	12,996	-0,101	0,058
-621,634	142,948	0,064	-0,063
-620,619	-187,050	0,127	0,001
-619,605	-119,116	-0,059	-0,008
-618,590	-200,000	-0,009	0,067
-617,576	482,178	-0,036	0,061
-616,561	-184,689	0,193	0,002
-615,546	-59,746	-0,085	-0,027
-614,532	37,047	-0,133	-0,087
-613,517	323,819	-0,050	0,071
-612,503	196,405	0,059	0,067
-611,488	-200,000	-0,007	-0,025
-610,474	542,600	-0,021	0,037
-609,459	127,145	0,013	0,012
-608,444	-74,668	0,043	0,011
-607,430	10,518	0,039	0,022
-606,415	-110,166	-0,017	-0,003
-605,401	-33,038	-0,076	0,031
-604,386	-66,718	0,103	0,030
-603,371	-137,515	-0,089	-0,007
-602,357	116,762	-0,037	0,034
-601,342	-65,561	-0,024	-0,007
-600,328	533,954	-0,030	0,053
-599,313	150,469	-0,047	0,048
-598,298	-200,000	0,006	-0,115
-597,284	-170,612	0,149	-0,004
-596,269	104,548	0,019	-0,017
-595,255	152,970	0,080	-0,081
-594,240	-34,643	0,017	-0,007
-593,225	-52,093	-0,101	0,034
-592,211	428,048	-0,082	-0,132
-591,196	26,009	0,080	-0,049
-590,182	495,720	0,061	-0,105
-589,167	-93,093	0,067	0,014
-588,152	63,940	-0,012	0,009
-587,138	179,006	-0,054	0,059
-586,123	-200,000	-0,026	-0,159
-585,109	-200,000	0,018	-0,118
-584,094	34,820	0,080	-0,052
-583,079	-121,189	-0,024	-0,003
-582,065	-76,999	0,033	0,008
-581,050	800,000	0,032	-0,077
-580,036	800,000	0,039	0,082
-579,021	390,210	0,088	-0,136
-578,006	190,724	-0,078	-0,086
-576,992	18,284	0,131	-0,077
-575,977	188,274	-0,116	-0,128
-574,963	-200,000	0,030	0,102
-573,948	3,974	0,104	0,056
-572,934	-52,763	-0,111	-0,038
-571,919	-13,773	-0,059	0,028
-570,904	19,162	-0,070	-0,041
-569,890	63,641	-0,082	-0,061
-568,875	-147,349	0,138	-0,009
-567,861	-200,000	-0,018	-0,103
-566,846	162,487	0,014	0,015
-565,831	231,718	-0,048	0,058
-564,817	-20,093	-0,059	0,027
-563,802	-200,000	-0,004	0,022
-562,788	800,000	-0,039	-0,085
-561,773	277,150	0,084	-0,111
-560,758	-44,952	0,093	-0,034
-559,744	-200,000	-0,075	0,000
-558,729	31,202	0,068	0,043
-557,715	-200,000	0,021	0,104
-556,700	-183,169	-0,181	0,002
-555,685	417,378	-0,055	-0,088
-554,671	334,802	-0,043	0,062
-553,656	590,152	-0,009	-0,017
-552,642	-200,000	-0,003	-0,105
-551,627	-111,767	-0,061	-0,009
-550,612	-200,000	0,016	0,083
-549,598	275,976	-0,121	-0,159
-548,583	-85,488	0,064	0,015
-547,569	800,000	0,007	-0,019
-546,554	800,000	0,048	-0,120
-545,539	800,000	0,031	-0,066
-544,525	285,470	0,082	0,110
-543,510	78,993	-0,102	0,081
-542,496	-200,000	0,005	-0,289
-541,481	-131,317	-0,201	0,019
-540,466	-106,408	0,167	0,027
-539,452	201,415	0,063	-0,072
-538,437	84,843	0,066	0,053
-537,423	-200,000	-0,013	0,101
-536,408	-17,456	0,104	0,048
-535,393	476,808	0,083	-0,140
-534,379	-46,961	-0,085	0,031
-533,364	176,870	0,064	-0,068
-532,350	627,110	-0,051	0,095
-531,335	800,000	0,044	0,104
-530,321	-200,000	0,047	0,217
-529,306	-50,901	-0,047	0,016
-528,291	-99,148	0,001	-0,000
-527,277	23,817	-0,071	0,043
-526,262	-15,203	-0,070	-0,033
-525,248	192,876	-0,081	0,091
-524,233	-17,642	-0,071	-0,033
-523,218	-200,000	-0,030	0,111
-522,204	-200,000	0,017	0,057
-521,189	267,446	-0,045	-0,058
-520,175	107,707	-0,076	-0,067
-519,160	-82,978	-0,070	0,016
-518,145	736,760	-0,023	-0,045
-517,131	-15,394	0,062	0,029
-516,116	-200,000	-0,014	0,071
-515,102	391,095	0,057	0,087
-514,087	83,009	0,079	-0,064
-513,072	-58,786	0,063	0,020
-512,058	-57,606	0,067	-0,021
-511,043	119,764	0,078	-0,071
-510,029	-200,000	-0,015	-0,115
-509,014	37,262	-0,080	-0,052
-507,999	483,267	-0,063	0,107
-506,985	26,528	-0,006	-0,004
-505,970	159,972	-0,061	-0,062
-504,956	370,386	-0,030	0,045
-503,941	141,120	-0,094	-0,092
-502,926	-200,000	0,006	-0,063
-501,912	114,583	0,063	-0,057
-500,897	-200,000	0,003	0,023
-499,883	-187,461	0,059	0,001
-498,868	-7,623	-0,109	0,054
-497,853	-30,432	0,144	-0,060
-496,839	-30,209	0,050	0,021
-495,824	43,307	0,079	0,053
-494,810	-200,000	-0,003	0,129
-493,795	8,397	-0,025	-0,014
-492,781	-116,036	0,044	0,006
-491,766	-200,000	-0,028	-0,098
-490,751	374,889	-0,023	-0,034
-489,737	365,342	-0,082	0,122
-488,722	13,909	0,034	0,020
-487,708	150,253	-0,069	0,069
-486,693	800,000	0,054	0,154
-485,678	208,294	-0,045	0,052
-484,664	-200,000	-0,014	0,066
-483,649	618,863	-0,099	-0,183
-482,635	-92,808	0,103	0,021
-481,620	800,000	0,018	-0,054
-480,605	-132,552	-0,013	-0,001
-479,591	-200,000	0,031	0,118
-478,576	102,133	-0,092	0,079
-477,562	800,000	-0,008	0,026
-476,547	800,000	-0,019	0,054
-475,532	452,245	0,038	-0,063
-474,518	681,027	-0,028	-0,053
-473,503	40,324	0,041	0,027
-472,489	-23,557	0,068	-0,030
-471,474	800,000	-0,020	-0,051
-470,459	135,184	-0,020	-0,019
-469,445	-71,694	-0,118	-0,032
-468,430	-200,000	-0,002	0,028
-467,416	800,000	-0,027	-0,074
-466,401	183,670	0,024	0,026
-465,386	528,890	-0,061	0,106
-464,372	-160,569	0,008	0,000
-463,357	44,638	-0,049	0,033
-462,343	-81,525	0,095	0,023
-461,328	-107,719	-0,116	0,018
-460,313	-38,908	-0,212	-0,082
-459,299	-152,323	0,246	-0,013
-458,284	-200,000	-0,016	-0,078
-457,270	-24,902	0,073	0,032
-456,255	-122,855	0,082	-0,010
-455,241	8,836	0,057	-0,031
-454,226	-200,000	-0,033	0,113
-453,211	-49,560	0,094	0,033
-452,197	-73,336	0,017	-0,005
-451,182	-200,000	0,005	0,072
-450,168	-200,000	0,032	0,118
-449,153	-28,558	-0,115	-0,048
-448,138	176,001	-0,114	-0,122
-447,124	-200,000	-0,006	-0,099
-446,109	-200,000	0,002	0,121
-445,095	800,000	0,060	0,134
-444,080	649,984	0,076	0,144
-443,065	60,314	-0,055	0,040
-442,051	-61,956	-0,126	-0,038
-441,036	338,113	0,047	0,068
-440,022	-1,244	0,026	-0,013
-439,007	103,416	0,105	0,090
-437,992	-64,560	0,165	-0,049
-436,978	-88,508	0,142	0,031
-435,963	57,516	0,095	0,068
-434,949	480,116	-0,057	0,095
-433,934	-200,000	-0,002	-0,065
-432,919	-52,302	-0,123	-0,042
-431,905	276,721	-0,030	0,040
-430,890	-200,000	0,035	0,148
-429,876	-200,000	-0,001	0,003
-428,861	-200,000	-0,023	0,145
-427,846	-200,000	-0,002	0,076
-426,832	24,203	0,047	0,028
-425,817	18,435	0,052	0,030
-424,803	224,424	0,028	0,033
-423,788	800,000	-0,029	-0,079
-422,773	-123,273	0,063	-0,007
-421,759	800,000	-0,027	0,061
-420,744	-200,000	0,008	-0,099
-419,730	167,184	0,014	0,014
-418,715	255,546	-0,129	-0,163
-417,701	617,582	0,038	-0,070
-416,686	-91,090	0,133	-0,028
-415,671	800,000	-0,037	-0,108
-414,657	-3,807	-0,087	-0,044
-413,642	289,605	0,105	0,141
-412,628	-154,187	-0,089	0,004
-411,613	-200,000	-0,002	0,012
-410,598	63,925	-0,087	-0,064
-409,584	-200,000	0,033	-0,171
-408,569	91,555	0,036	0,030
-407,555	-7,578	0,074	0,037
-406,540	-200,000	-0,011	0,082
-405,525	-200,000	-0,005	0,051
-404,511	-46,923	0,030	-0,011
-403,496	167,300	-0,037	-0,039
-402,482	152,257	0,083	-0,083
-401,467	800,000	0,065	-0,140
-400,452	-166,440	-0,055	0,002
-399,438	200,004	0,072	-0,081
-398,423	-156,444	0,046	0,002
-397,409	-48,570	0,030	0,011
-396,394	54,251	-0,096	0,068
-395,379	800,000	-0,017	0,036
-394,365	-200,000	0,000	0,127
-393,350	-4,245	0,110	0,056
-392,336	-105,942	0,091	0,015
-391,321	-35,030	-0,061	-0,024
-390,306	337,035	-0,042	-0,060
-389,292	-9,846	-0,055	-0,027
-388,277	-44,601	-0,087	-0,032
-387,263	3,527	0,043	-0,023
-386,248	-3,467	-0,070	0,036
-385,233	-200,000	-0,003	0,055
-384,219	-129,834	0,071	-0,007
-383,204	-200,000	0,005	0,049
-382,190	9,055	0,130	-0,072
-381,175	-200,000	-0,013	0,130
-380,160	265,375	0,084	0,107
-379,146	144,503	-0,037	-0,036
-378,131	85,603	-0,047	-0,038
-377,117	54,977	-0,128	-0,091
-376,102	748,236	-0,031	-0,062
-375,088	-8,684	-0,123	-0,061
-374,073	800,000	0,043	-0,117
-373,058	142,036	0,015	-0,015
-372,044	-200,000	-0,020	-0,078
-371,029	800,000	0,026	-0,060
-370,015	83,205	-0,127	-0,102
-369,000	-92,778	-0,028	-0,006
-367,985	800,000	0,020	-0,046
-366,971	5,602	0,112	0,060
-365,956	-200,000	-0,026	0,101
-364,942	204,908	0,116	0,132
-363,927	-200,000	0,005	0,034
-362,912	800,000	0,032	0,086
-361,898	257,786	0,085	-0,108
-360,883	-70,892	-0,213	-0,058
-359,869	-125,557	0,052	-0,006
-358,854	800,000	0,028	-0,067
-357,839	-200,000	-0,004	0,120
-356,825	-200,000	-0,010	0,048
-355,810	29,024	-0,064	0,039
-354,796	-62,189	0,072	0,022
-353,781	110,387	-0,131	-0,116
-352,766	96,150	-0,107	-0,090
-351,752	-200,000	0,026	0,125
-350,737	484,719	0,076	0,128
-349,723	584,190	0,071	0,129
-348,708	800,000	-0,040	-0,092
-347,693	124,335	-0,063	0,058
-346,679	-4,467	0,095	-0,048
-345,664	6,413	0,060	-0,032
-344,650	-200,000	-0,030	-0,112
-343,635	-128,848	-0,138	-0,014
-342,620	-33,677	0,067	0,027
-341,606	-21,517	0,046	0,020
-340,591	-200,000	-0,026	-0,096
-339,577	-8,236	0,113	0,056
-338,562	232,571	-0,137	-0,165
-337,548	800,000	-0,050	0,111
-336,533	-22,702	0,022	0,010
-335,518	53,831	0,023	-0,016
-334,504	-191,039	0,098	0,001
-333,489	-200,000	-0,004	0,059
-332,475	-25,103	-0,162	0,070
-331,460	62,232	-0,096	-0,070
-330,445	-169,745	0,072	-0,002
-329,431	-135,482	-0,059	-0,005
-328,416	747,993	0,103	-0,204
-327,402	-45,541	-0,101	0,037
-326,387	-200,000	-0,028	-0,119
-325,372	-23,375	0,040	-0,018
-324,358	-200,000	-0,031	-0,103
-323,343	-200,000	-0,047	-0,173
-322,329	-65,701	-0,138	-0,040
-321,314	-38,543	0,053	-0,021
-320,299	800,000	-0,064	0,160
-319,285	-41,515	-0,090	-0,034
-318,270	-172,260	0,034	-0,001
-317,256	278,669	-0,016	0,020
-316,241	42,065	0,078	-0,052
-315,226	800,000	-0,020	0,057
-314,212	-200,000	-0,012	0,121
-313,197	377,017	0,083	0,124
-312,183	166,125	-0,028	0,029
-311,168	-10,419	-0,120	0,058
-310,153	-38,041	-0,120	0,047
-309,139	-200,000	-0,039	-0,200
-308,124	-109,225	0,117	-0,018
-307,110	-158,753	0,082	0,003
-306,095	-52,834	0,093	-0,031
-305,080	-2,651	-0,098	-0,050
-304,066	-90,468	-0,067	-0,014
-303,051	-93,008	-0,075	0,015
-302,037	56,090	-0,086	0,061
-301,022	-66,122	0,092	0,027
-300,008	49,210	0,101	0,069
-298,993	208,983	0,098	0,113
-297,978	-200,000	-0,013	-0,125
-296,964	177,724	-0,106	-0,113
-295,949	800,000	-0,024	-0,055
-294,935	-8,243	-0,093	0,046
-293,920	349,070	0,075	-0,109
-292,905	120,868	0,047	0,042
-291,891	72,545	-0,037	-0,028
-290,876	42,388	0,035	0,023
-289,862	368,494	0,069	-0,103
-288,847	-146,343	-0,012	-0,001
-287,832	800,000	-0,058	-0,163
-286,818	-200,000	0,003	0,176
-285,803	251,796	0,088	0,110
-284,789	280,220	-0,030	-0,039
-283,774	-6,078	0,092	-0,046
-282,759	-75,361	0,119	-0,031
-281,745	-90,257	-0,129	-0,027
-280,730	229,589	0,039	0,047
-279,716	26,868	-0,072	-0,044
-278,701	218,498	0,090	-0,105
-277,686	-32,670	-0,095	0,039
-276,672	25,871	0,023	0,014
-275,657	52,373	0,096	0,067
-274,643	354,897	0,065	-0,095
-273,628	454,309	-0,040	0,065
-272,613	-200,000	0,004	0,079
-271,599	-200,000	0,007	0,143
-270,584	-200,000	-0,036	0,145
-269,570	221,327	-0,099	0,116
-268,555	800,000	0,040	0,100
-267,540	462,802	0,029	-0,047
-266,526	800,000	-0,072	-0,191
-265,511	-200,000	-0,009	-0,186
-264,497	405,633	-0,047	0,073
-263,482	94,561	0,121	0,101
-262,467	800,000	0,047	0,147
-261,453	318,324	-0,020	-0,028
-260,438	-104,664	-0,125	0,021
-259,424	-88,961	0,119	-0,026
-258,409	-59,369	-0,158	0,049
-257,395	90,479	0,085	0,069
-256,380	-17,202	-0,016	0,007
-255,365	649,159	-0,046	0,086
-254,351	436,911	-0,025	0,040
-253,336	800,000	-0,025	0,071
-252,322	-115,335	0,100	-0,014
-251,307	37,752	0,071	-0,046
-250,292	-84,624	-0,008	0,002
-249,278	800,000	-0,064	0,166
-248,263	-163,958	0,037	0,001
-247,249	661,431	0,076	0,143
-246,234	-50,080	0,049	0,017
-245,219	800,000	0,022	-0,069
-244,205	130,291	-0,036	0,033
-243,190	-200,000	0,001	-0,008
-242,176	224,479	0,071	0,084
-241,161	215,518	-0,056	0,065
-240,146	800,000	0,030	0,096
-239,132	-56,782	0,120	0,039
-238,117	800,000	0,057	-0,149
-237,103	-200,000	-0,059	-0,222
-236,088	-34,820	0,046	-0,018
-235,073	338,256	0,089	0,126
-234,059	57,736	-0,124	0,088
-233,044	800,000	0,037	-0,093
-232,030	-200,000	0,008	-0,028
-231,015	-127,243	-0,107	-0,011
-230,000	800,000	0,040	-0,091
-228,986	125,526	-0,065	0,059
-227,971	43,606	0,059	0,039
-226,957	544,511	-0,057	-0,100
-225,942	52,840	0,129	0,090
-224,927	800,000	-0,026	-0,060
-223,913	-31,046	-0,107	-0,044
-222,898	-116,538	-0,079	0,011
-221,884	63,468	-0,044	-0,032
-220,869	-18,087	-0,078	0,036
-219,855	-122,663	-0,040	0,005
-218,840	800,000	0,061	0,133
-217,825	101,803	-0,032	-0,028
-216,811	-134,843	-0,119	0,010
-215,796	-200,000	0,019	-0,122
-214,782	-85,980	-0,058	-0,013
-213,767	192,331	0,042	0,047
-212,752	-200,000	0,013	0,052
-211,738	81,614	0,076	-0,060
-210,723	148,542	-0,071	-0,070
-209,709	197,301	-0,044	0,049
-208,694	-44,352	0,088	-0,032
-207,679	-200,000	-0,011	-0,069
-206,665	689,132	0,039	0,075
-205,650	-200,000	0,008	-0,064
-204,636	778,381	-0,044	0,088
-203,621	32,824	0,084	0,053
-202,606	-75,913	-0,036	-0,009
-201,592	110,043	0,099	0,087
-200,577	-200,000	0,002	0,045
-199,563	108,836	-0,023	-0,020
-198,548	-145,119	0,042	-0,003
-197,533	428,843	0,015	0,024
-196,519	800,000	0,017	0,052
-195,504	-66,625	-0,085	0,024
-194,490	-200,000	-0,014	0,162
-193,475	-97,706	-0,093	-0,017
-192,460	-32,787	0,120	0,048
-191,446	-65,260	0,133	0,039
-190,431	-200,000	0,009	0,067
-189,417	-200,000	-0,005	-0,038
-188,402	-27,124	0,196	0,083
-187,387	-83,385	0,052	0,012
-186,373	-200,000	0,013	0,053
-185,358	800,000	0,039	-0,116
-184,344	327,020	0,070	-0,098
-183,329	-71,653	-0,047	0,013
-182,315	-200,000	-0,020	-0,078
-181,300	-0,472	-0,066	0,034
-180,285	-200,000	-0,003	0,020
-179,271	-94,192	0,087	-0,017
-178,256	458,976	-0,038	0,062
-177,242	-153,707	-0,097	0,005
-176,227	409,794	-0,049	0,076
-175,212	-200,000	0,014	-0,070
-174,198	398,133	0,010	0,016
-173,183	104,471	-0,111	-0,095
-172,169	-83,154	0,038	0,009
-171,154	800,000	-0,039	-0,103
-170,139	-28,710	0,062	0,026
-169,125	184,250	0,020	-0,021
-168,110	-200,000	0,016	0,166
-167,096	172,029	-0,024	0,025
-166,081	96,200	0,114	0,095
-165,066	800,000	-0,062	-0,153
-164,052	800,000	-0,019	0,041
-163,037	-123,853	0,083	0,009
-162,023	-200,000	0,002	0,188
-161,008	-200,000	0,013	0,117
-159,993	-200,000	0,051	-0,214
-158,979	-200,000	-0,026	0,107
-157,964	96,101	-0,076	-0,063
-156,950	68,630	0,031	-0,023
-155,935	-200,000	-0,006	-0,050
-154,920	186,615	0,070	0,076
-153,906	18,155	0,157	-0,091
-152,891	-21,224	-0,016	-0,007
-151,877	47,138	-0,035	-0,024
-150,862	12,818	0,195	-0,110
-149,847	800,000	0,024	0,055
-148,833	17,832	0,100	-0,058
-147,818	-67,774	0,101	-0,029
-146,804	75,631	0,087	0,067
-145,789	-93,805	0,110	0,022
-144,775	700,779	-0,084	0,162
-143,760	510,024	0,052	0,087
-142,745	800,000	-0,030	-0,067
-141,731	800,000	-0,011	-0,031
-140,716	-154,565	0,044	0,002
-139,702	-103,307	-0,061	-0,010
-138,687	800,000	0,020	0,056
-137,672	-50,403	0,018	0,006
-136,658	800,000	-0,048	-0,145
-135,643	398,794	0,083	-0,127
-134,629	-31,997	0,016	0,007
-133,614	-154,588	0,109	-0,005
-132,599	14,318	0,090	-0,051
-131,585	800,000	-0,028	-0,075
-130,570	-143,585	0,130	0,009
-129,556	421,695	-0,030	0,047
-128,541	-120,875	-0,108	0,013
-127,526	-47,989	0,080	0,028
-126,512	38,841	0,066	0,043
-125,497	795,640	0,025	0,051
-124,483	-200,000	0,002	-0,053
-123,468	-54,539	0,109	-0,036
-122,453	800,000	-0,029	-0,061
-121,439	-200,000	-0,051	-0,187
-120,424	-135,515	-0,057	0,005
-119,410	-154,056	0,166	0,008
