DTS Sentinel unit serial number:	SN410029Multiplexer serial number:	ORYXHardware model number:	OX2-SRSoftware version number:	ORYX F/W v4,00 Oryx Data Collector v3.7.2.0data status	okinstallation	B6 Nyhavnadifferential loss correction	single-endedforward channel	channel 2reverse channel	N/Adate	2023/12/09time	12:50:08forward acquisition time	300,00reverse acquisition time	0,00gamma	499,1914k internal	0,3137k external	0,3137temperature offset calibration	1,0000default loss term (dB/km)	0,3820temperature slope calibration	1,0000multiplexer offset coefficient	1,0000multiplexer slope coefficient	1,0000fibre end	0,00T internal ref (°C)	19,62T ext. ref 1 (°C)	4,31T ext. ref 2 (°C)	4,29length (m)	temperature (°C)	Stokes	anti-Stokes-744,400	-57,657	0,115	-0,037
-743,385	-117,645	-0,270	-0,036
-742,371	90,807	0,118	0,098
-741,356	-66,984	-0,343	0,100
-740,342	-56,704	0,050	-0,016
-739,327	-130,363	-0,331	0,033
-738,312	158,833	-0,106	-0,109
-737,298	-98,387	-0,188	-0,035
-736,283	688,553	0,061	0,118
-735,269	-93,307	-0,159	0,032
-734,254	800,000	0,030	0,074
-733,239	-90,590	-0,419	-0,089
-732,225	167,008	0,041	0,043
-731,210	-176,080	0,100	-0,002
-730,196	242,053	0,051	-0,063
-729,181	-200,000	0,020	-0,067
-728,167	-200,000	0,001	0,063
-727,152	171,648	0,015	-0,016
-726,137	-9,906	-0,078	0,038
-725,123	-81,016	-0,110	-0,027
-724,108	-79,789	-0,060	-0,015
-723,094	335,369	-0,193	-0,278
-722,079	-181,282	-0,151	0,002
-721,064	788,018	-0,056	-0,116
-720,050	-200,000	0,002	-0,064
-719,035	-134,065	0,072	0,007
-718,021	-200,000	-0,012	-0,146
-717,006	-200,000	-0,020	-0,181
-715,991	420,892	-0,102	-0,162
-714,977	-200,000	-0,055	-0,245
-713,962	204,156	-0,091	-0,105
-712,948	59,363	0,126	-0,092
-711,933	-76,550	-0,165	-0,043
-710,918	800,000	-0,022	-0,059
-709,904	-104,853	-0,037	-0,006
-708,889	251,352	-0,098	-0,123
-707,875	-200,000	0,016	-0,120
-706,860	800,000	0,034	0,079
-705,845	345,584	0,029	-0,042
-704,831	-200,000	0,009	-0,033
-703,816	138,888	0,057	0,056
-702,802	-99,495	-0,114	-0,021
-701,787	297,296	-0,048	0,065
-700,772	9,336	0,122	0,068
-699,758	800,000	0,017	-0,035
-698,743	40,830	-0,111	-0,074
-697,729	-55,308	-0,086	0,028
-696,714	20,250	-0,072	0,043
-695,699	35,227	-0,107	-0,069
-694,685	-22,685	-0,097	-0,043
-693,670	291,009	0,107	-0,145
-692,656	69,219	-0,039	-0,030
-691,641	-129,544	0,097	0,010
-690,627	55,315	-0,110	-0,079
-689,612	-200,000	0,018	-0,067
-688,597	524,991	-0,084	-0,147
-687,583	800,000	-0,019	-0,061
-686,568	622,331	-0,052	-0,097
-685,554	-200,000	-0,010	0,065
-684,539	-200,000	0,011	0,065
-683,524	-55,964	0,125	0,041
-682,510	-200,000	0,026	0,140
-681,495	800,000	-0,029	-0,086
-680,481	-200,000	0,001	-0,038
-679,466	121,572	-0,114	-0,105
-678,451	-103,153	-0,041	0,007
-677,437	244,729	-0,113	-0,141
-676,422	-98,134	-0,125	-0,024
-675,408	800,000	-0,038	-0,105
-674,393	-108,596	-0,071	0,011
-673,378	29,973	-0,090	-0,056
-672,364	44,967	0,089	0,061
-671,349	-200,000	-0,034	-0,123
-670,335	471,551	-0,031	-0,051
-669,320	326,784	-0,027	-0,039
-668,305	163,632	0,020	-0,021
-667,291	-4,908	0,103	-0,052
-666,276	800,000	0,035	-0,093
-665,262	-118,233	0,031	0,004
-664,247	-100,831	-0,082	0,015
-663,232	-200,000	-0,009	0,063
-662,218	-200,000	0,003	-0,056
-661,203	37,023	-0,023	0,015
-660,189	135,514	0,029	-0,028
-659,174	216,262	0,064	-0,075
-658,159	60,045	-0,092	-0,067
-657,145	-200,000	-0,031	-0,110
-656,130	86,178	0,085	0,069
-655,116	252,113	-0,125	0,157
-654,101	-84,403	0,179	0,041
-653,086	135,957	-0,084	0,081
-652,072	-200,000	-0,017	-0,086
-651,057	-200,000	0,028	-0,112
-650,043	-16,304	0,026	0,012
-649,028	-200,000	0,017	-0,091
-648,014	-200,000	-0,007	0,034
-646,999	82,900	0,040	-0,032
-645,984	-32,075	0,095	-0,039
-644,970	190,400	-0,196	-0,218
-643,955	444,433	0,092	-0,149
-642,941	44,495	0,088	-0,060
-641,926	-200,000	-0,001	0,003
-640,911	312,085	-0,050	0,070
-639,897	113,640	0,057	0,051
-638,882	9,423	-0,071	0,040
-637,868	-200,000	-0,066	-0,219
-636,853	800,000	0,036	-0,075
-635,838	197,005	-0,078	-0,088
-634,824	-200,000	0,012	0,058
-633,809	800,000	-0,048	-0,149
-632,795	-49,437	-0,074	0,026
-631,780	-93,644	0,080	0,016
-630,765	101,230	-0,026	0,022
-629,751	-200,000	0,029	-0,165
-628,736	800,000	-0,075	-0,185
-627,722	275,434	0,060	-0,079
-626,707	-200,000	-0,004	0,040
-625,692	360,972	0,045	-0,067
-624,678	-72,466	0,080	0,022
-623,663	-200,000	-0,010	-0,173
-622,649	288,716	-0,041	-0,055
-621,634	-82,665	-0,114	-0,027
-620,619	81,674	-0,135	-0,108
-619,605	-66,269	0,066	-0,019
-618,590	800,000	-0,018	-0,038
-617,576	215,124	-0,022	0,026
-616,561	358,278	-0,078	0,116
-615,546	-79,863	-0,143	0,035
-614,532	19,510	0,048	0,028
-613,517	-200,000	-0,000	-0,143
-612,503	28,225	-0,070	0,043
-611,488	800,000	-0,058	0,127
-610,474	-38,288	-0,072	-0,028
-609,459	378,323	-0,041	0,062
-608,444	-76,849	0,079	-0,020
-607,430	-123,939	-0,083	-0,010
-606,415	800,000	-0,025	0,056
-605,401	390,249	-0,046	0,070
-604,386	-62,276	0,055	-0,017
-603,371	-200,000	0,032	-0,132
-602,357	-89,537	0,084	-0,018
-601,342	227,011	0,035	-0,042
-600,328	180,279	-0,044	-0,047
-599,313	56,442	-0,129	0,092
-598,298	-200,000	-0,004	-0,099
-597,284	-157,186	-0,083	-0,004
-596,269	765,998	-0,083	0,167
-595,255	71,023	-0,096	-0,073
-594,240	-200,000	-0,022	-0,108
-593,225	-110,917	-0,020	-0,003
-592,211	67,768	0,065	0,049
-591,196	170,655	0,091	0,096
-590,182	134,694	0,025	0,024
-589,167	-200,000	-0,003	-0,023
-588,152	-200,000	0,043	0,243
-587,138	-5,672	-0,050	-0,025
-586,123	372,395	0,034	0,051
-585,109	121,001	-0,050	-0,046
-584,094	-200,000	-0,004	0,021
-583,079	-23,329	-0,070	0,031
-582,065	-94,420	0,201	0,040
-581,050	151,438	-0,072	0,072
-580,036	-200,000	0,026	-0,098
-579,021	-80,346	-0,102	-0,025
-578,006	30,195	0,093	0,059
-576,992	800,000	-0,041	-0,117
-575,977	229,860	-0,117	-0,141
-574,963	-41,280	0,012	-0,004
-573,948	227,753	-0,066	0,080
-572,934	-7,368	-0,076	-0,038
-571,919	80,516	-0,092	0,073
-570,904	-179,728	-0,082	-0,001
-569,890	577,494	0,043	-0,078
-568,875	124,134	0,073	0,067
-567,861	-183,982	0,063	0,001
-566,846	-95,662	0,107	0,021
-565,831	-31,738	0,010	0,004
-564,817	-200,000	-0,001	0,041
-563,802	-171,217	0,089	0,002
-562,788	-200,000	0,031	-0,104
-561,773	76,150	-0,071	-0,055
-560,758	406,720	0,038	0,059
-559,744	-62,174	0,155	0,047
-558,729	-200,000	-0,000	0,131
-557,715	-116,058	-0,028	-0,004
-556,700	-200,000	0,026	0,155
-555,685	63,666	0,054	-0,040
-554,671	347,827	-0,062	-0,090
-553,656	7,294	0,121	-0,066
-552,642	-148,329	0,200	0,012
-551,627	87,501	-0,171	0,140
-550,612	-53,810	-0,071	-0,024
-549,598	-76,175	-0,077	0,020
-548,583	582,648	0,049	-0,089
-547,569	-104,248	-0,068	0,011
-546,554	-76,769	-0,051	-0,013
-545,539	609,449	-0,033	-0,060
-544,525	123,208	0,031	-0,028
-543,510	-81,548	-0,127	-0,030
-542,496	-2,762	-0,085	-0,043
-541,481	-94,224	-0,151	0,030
-540,466	99,322	0,079	0,068
-539,452	234,383	-0,046	0,056
-538,437	309,692	-0,066	0,091
-537,423	-200,000	-0,023	0,125
-536,408	800,000	0,043	-0,088
-535,393	-27,232	-0,015	-0,006
-534,379	258,550	0,063	-0,080
-533,364	55,002	0,037	-0,026
-532,350	800,000	0,020	0,059
-531,335	389,076	-0,021	-0,032
-530,321	53,453	0,059	-0,042
-529,306	-200,000	0,002	-0,075
-528,291	-157,691	-0,171	0,007
-527,277	-57,493	-0,056	-0,018
-526,262	194,445	-0,055	0,061
-525,248	-25,553	0,095	-0,041
-524,233	-200,000	0,017	-0,083
-523,218	608,514	-0,070	0,128
-522,204	94,191	0,062	-0,052
-521,189	-200,000	-0,016	-0,090
-520,175	800,000	0,024	-0,064
-519,160	-200,000	-0,022	-0,181
-518,145	190,640	-0,115	0,128
-517,131	-27,490	0,011	-0,005
-516,116	-7,786	-0,039	0,019
-515,102	596,737	-0,084	-0,153
-514,087	390,448	-0,039	0,060
-513,072	633,396	0,005	-0,010
-512,058	-200,000	-0,009	0,126
-511,043	91,707	-0,186	0,153
-510,029	171,084	0,029	-0,031
-509,014	-200,000	-0,008	-0,170
-507,999	219,979	-0,067	-0,078
-506,985	477,217	0,066	-0,110
-505,970	477,297	0,013	-0,022
-504,956	-126,710	0,018	-0,002
-503,941	-200,000	0,005	0,080
-502,926	32,097	-0,086	-0,054
-501,912	43,943	0,086	-0,058
-500,897	-100,360	-0,065	-0,012
-499,883	800,000	0,005	-0,013
-498,868	800,000	0,007	-0,018
-497,853	-92,742	-0,087	-0,018
-496,839	179,485	-0,082	0,089
-495,824	-27,588	-0,046	-0,019
-494,810	670,943	0,004	-0,008
-493,795	228,856	0,038	-0,046
-492,781	-200,000	0,003	-0,076
-491,766	-200,000	0,004	-0,072
-490,751	408,820	0,036	0,057
-489,737	-119,860	0,097	0,012
-488,722	-31,318	-0,111	0,046
-487,708	800,000	-0,016	0,039
-486,693	-152,957	0,106	0,005
-485,678	717,488	-0,033	-0,065
-484,664	-1,505	-0,012	0,006
-483,649	-48,300	-0,052	0,018
-482,635	-200,000	0,012	-0,138
-481,620	-99,742	0,062	-0,011
-480,605	172,093	-0,079	0,084
-479,591	100,302	-0,027	0,023
-478,576	800,000	-0,039	0,085
-477,562	-200,000	0,008	0,118
-476,547	234,592	0,022	-0,027
-475,532	98,959	-0,080	0,068
-474,518	-90,755	0,057	0,012
-473,503	-38,979	0,091	-0,035
-472,489	-200,000	0,050	0,178
-471,474	619,058	-0,060	-0,112
-470,459	267,431	-0,035	-0,045
-469,445	773,975	0,070	-0,141
-468,430	-200,000	0,003	-0,031
-467,416	-200,000	0,000	-0,047
-466,401	317,424	-0,063	-0,087
-465,386	-120,593	0,066	0,008
-464,372	-200,000	0,023	0,087
-463,357	-89,633	0,024	-0,005
-462,343	246,498	-0,020	0,024
-461,328	282,535	-0,049	0,065
-460,313	85,892	0,016	-0,013
-459,299	292,838	0,130	-0,174
-458,284	-200,000	-0,027	0,167
-457,270	800,000	0,009	0,028
-456,255	-200,000	-0,024	-0,098
-455,241	-200,000	-0,011	0,064
-454,226	203,204	0,123	0,140
-453,211	291,216	0,034	0,045
-452,197	-200,000	-0,010	0,065
-451,182	-123,705	-0,135	-0,016
-450,168	340,255	-0,084	0,121
-449,153	-192,048	0,107	-0,001
-448,138	-134,896	0,120	0,010
-447,124	85,935	-0,058	-0,047
-446,109	-200,000	0,022	-0,129
-445,095	-200,000	-0,018	0,152
-444,080	800,000	-0,018	0,040
-443,065	-200,000	0,015	0,092
-442,051	184,642	-0,054	-0,058
-441,036	-200,000	0,006	0,064
-440,022	236,914	0,031	0,038
-439,007	172,363	0,033	0,035
-437,992	-200,000	0,007	0,086
-436,978	-200,000	-0,000	0,016
-435,963	800,000	-0,018	-0,059
-434,949	-33,681	-0,117	0,047
-433,934	-30,323	-0,081	-0,033
-432,919	222,542	-0,095	-0,112
-431,905	163,247	0,119	0,122
-430,890	88,837	0,159	0,129
-429,876	168,705	0,045	0,048
-428,861	111,432	0,059	0,052
-427,846	127,338	-0,049	-0,045
-426,832	-66,394	0,104	-0,030
-425,817	631,842	-0,022	0,041
-424,803	197,893	0,021	-0,024
-423,788	-200,000	-0,006	0,056
-422,773	15,222	0,146	0,084
-421,759	-200,000	0,002	0,013
-420,744	90,442	0,066	0,054
-419,730	-200,000	0,014	-0,153
-418,715	30,509	-0,158	-0,099
-417,701	800,000	-0,019	-0,057
-416,686	-200,000	0,032	0,145
-415,671	144,328	0,069	0,067
-414,657	-200,000	0,020	-0,107
-413,642	104,046	-0,065	0,056
-412,628	-55,079	-0,036	0,012
-411,613	622,708	-0,030	-0,056
-410,598	-18,194	0,067	-0,031
-409,584	-103,235	-0,030	-0,005
-408,569	-200,000	-0,018	0,096
-407,555	140,235	0,213	0,205
-406,540	-200,000	0,009	-0,122
-405,525	-32,112	-0,064	0,026
-404,511	-200,000	-0,024	0,089
-403,496	579,135	-0,036	-0,066
-402,482	-89,658	0,091	0,019
-401,467	25,158	0,109	0,066
-400,452	-200,000	0,006	0,067
-399,438	-200,000	0,018	-0,140
-398,423	800,000	0,034	-0,090
-397,409	-200,000	0,007	-0,024
-396,394	40,166	-0,010	-0,007
-395,379	-200,000	-0,003	-0,072
-394,365	492,867	-0,086	0,144
-393,350	26,251	0,096	0,059
-392,336	282,884	0,024	-0,032
-391,321	-200,000	-0,004	0,039
-390,306	-4,164	-0,121	-0,061
-389,292	19,251	-0,097	-0,057
-388,277	-200,000	-0,005	0,146
-387,263	-75,804	0,101	0,026
-386,248	70,039	0,076	-0,057
-385,233	-7,532	-0,098	-0,049
-384,219	231,949	-0,065	0,078
-383,204	698,516	-0,022	-0,042
-382,190	-83,717	0,038	0,009
-381,175	464,264	-0,009	-0,015
-380,160	800,000	-0,029	-0,073
-379,146	-123,198	0,074	-0,009
-378,131	800,000	-0,071	0,145
-377,117	800,000	-0,033	0,078
-376,102	255,111	-0,002	0,002
-375,088	59,191	-0,053	0,038
-374,073	-200,000	0,000	-0,055
-373,058	-200,000	-0,020	0,198
-372,044	305,740	0,059	0,080
-371,029	800,000	0,016	-0,035
-370,015	71,365	-0,101	0,076
-369,000	-107,019	0,061	0,010
-367,985	-200,000	0,005	0,048
-366,971	-200,000	-0,010	0,042
-365,956	299,809	0,058	0,078
-364,942	122,800	0,040	0,037
-363,927	-111,820	0,170	0,025
-362,912	-102,681	0,136	-0,024
-361,898	-24,120	-0,111	0,048
-360,883	-200,000	-0,164	0,000
-359,869	-23,086	0,067	-0,029
-358,854	-200,000	-0,009	0,071
-357,839	220,229	0,060	-0,071
-356,825	-200,000	0,010	0,050
-355,810	76,019	0,096	-0,074
-354,796	-186,143	-0,031	0,000
-353,781	800,000	-0,014	-0,044
-352,766	408,285	0,033	-0,051
-351,752	160,389	-0,116	-0,118
-350,737	-16,368	0,124	-0,057
-349,723	-200,000	-0,005	0,086
-348,708	275,589	-0,025	0,033
-347,693	124,583	-0,134	0,123
-346,679	178,035	-0,054	-0,058
-345,664	-121,027	-0,063	-0,008
-344,650	152,541	-0,087	-0,087
-343,635	118,667	0,049	-0,044
-342,620	256,381	-0,082	0,102
-341,606	146,655	-0,078	0,076
-340,591	-200,000	-0,008	-0,041
-339,577	-200,000	-0,023	-0,208
-338,562	366,603	-0,021	0,032
-337,548	396,015	-0,019	-0,029
-336,533	261,654	0,067	-0,084
-335,518	35,765	-0,032	-0,020
-334,504	-46,006	0,041	0,015
-333,489	-70,105	-0,098	-0,027
-332,475	1,982	-0,114	0,060
-331,460	800,000	0,038	-0,099
-330,445	122,687	-0,098	0,089
-329,431	-54,033	0,075	0,025
-328,416	-50,855	0,165	0,056
-327,402	-30,808	-0,148	0,061
-326,387	36,254	-0,130	0,083
-325,372	59,522	0,041	-0,030
-324,358	-178,882	0,054	-0,001
-323,343	194,292	0,083	-0,092
-322,329	-200,000	-0,034	0,124
-321,314	800,000	0,096	0,199
-320,299	-200,000	0,017	0,065
-319,285	-200,000	-0,033	0,112
-318,270	800,000	0,061	-0,128
-317,256	48,358	-0,035	-0,024
-316,241	-145,868	0,064	-0,004
-315,226	89,871	0,018	0,015
-314,212	-52,311	0,136	-0,046
-313,197	580,090	0,005	-0,009
-312,183	-200,000	0,003	0,062
-311,168	750,731	-0,035	0,069
-310,153	323,083	-0,046	-0,064
-309,139	-4,932	-0,030	-0,015
-308,124	334,909	-0,009	0,013
-307,110	48,172	0,041	-0,028
-306,095	741,425	0,051	-0,100
-305,080	-53,987	-0,028	0,009
-304,066	800,000	-0,040	-0,086
-303,051	-37,669	0,051	0,020
-302,037	219,844	-0,041	-0,048
-301,022	800,000	0,056	-0,172
-300,008	-35,181	0,061	0,024
-298,993	382,089	-0,055	0,083
-297,978	-56,060	-0,088	0,028
-296,964	419,985	-0,049	0,077
-295,949	66,954	0,074	0,055
-294,935	800,000	-0,047	0,112
-293,920	800,000	0,031	-0,076
-292,905	20,763	0,037	-0,022
-291,891	184,542	0,033	-0,036
-290,876	42,696	0,164	0,109
-289,862	482,603	-0,039	-0,064
-288,847	197,911	-0,087	-0,097
-287,832	-65,068	0,053	-0,016
-286,818	406,397	-0,094	0,145
-285,803	-200,000	-0,023	-0,099
-284,789	800,000	-0,016	0,051
-283,774	-107,940	-0,052	0,008
-282,759	91,046	-0,034	0,027
-281,745	-200,000	0,004	-0,015
-280,730	26,619	-0,090	-0,055
-279,716	495,458	0,089	0,149
-278,701	800,000	0,028	-0,087
-277,686	775,637	0,044	-0,087
-276,672	52,661	0,058	0,040
-275,657	-42,585	0,070	0,026
-274,643	-17,313	0,144	0,066
-273,628	-200,000	0,015	-0,103
-272,613	-50,200	-0,116	-0,040
-271,599	-19,332	0,106	-0,048
-270,584	-200,000	-0,014	0,113
-269,570	121,640	0,076	0,069
-268,555	184,681	-0,059	0,064
-267,540	-14,625	-0,246	-0,115
-266,526	170,912	-0,115	-0,120
-265,511	30,712	-0,006	0,004
-264,497	291,927	0,037	-0,049
-263,482	471,533	0,075	-0,124
-262,467	230,599	0,096	0,114
-261,453	367,966	-0,080	0,118
-260,438	-200,000	0,003	0,025
-259,424	800,000	-0,033	-0,075
-258,409	401,671	-0,054	-0,083
-257,395	71,300	0,115	0,087
-256,380	-30,643	0,061	0,025
-255,365	76,803	0,035	-0,027
-254,351	146,568	-0,065	0,063
-253,336	-100,031	-0,079	-0,014
-252,322	241,996	-0,031	-0,038
-251,307	-200,000	0,013	-0,077
-250,292	33,436	-0,045	0,028
-249,278	-200,000	0,012	0,059
-248,263	216,230	-0,123	0,143
-247,249	-90,502	0,102	-0,021
-246,234	800,000	-0,023	-0,068
-245,219	800,000	-0,037	0,092
-244,205	800,000	0,024	-0,061
-243,190	-109,344	-0,036	0,006
-242,176	-200,000	-0,038	-0,149
-241,161	165,346	0,064	0,066
-240,146	-193,242	0,125	0,001
-239,132	224,307	-0,066	-0,078
-238,117	-63,091	-0,094	-0,028
-237,103	41,147	-0,022	0,015
-236,088	800,000	-0,028	0,058
-235,073	104,846	0,069	0,059
-234,059	23,933	0,117	0,070
-233,044	-88,325	0,034	-0,007
-232,030	-51,837	-0,069	-0,023
-231,015	-200,000	-0,021	-0,077
-230,000	9,492	0,086	0,047
-228,986	-66,378	0,067	0,019
-227,971	-81,882	0,089	-0,021
-226,957	-200,000	0,014	-0,112
-225,942	-200,000	0,007	-0,057
-224,927	-200,000	-0,009	-0,086
-223,913	-200,000	-0,002	-0,041
-222,898	-200,000	0,004	0,031
-221,884	-200,000	0,029	0,138
-220,869	-69,779	0,234	-0,065
-219,855	-62,023	0,107	0,032
-218,840	800,000	-0,022	0,049
-217,825	574,309	-0,059	0,104
-216,811	-200,000	0,013	0,143
-215,796	800,000	-0,025	-0,073
-214,782	-139,916	0,027	0,002
-213,767	800,000	0,009	0,024
-212,752	-200,000	-0,016	0,116
-211,738	-145,179	0,106	-0,007
-210,723	250,565	0,033	0,041
-209,709	-4,390	0,180	-0,090
-208,694	634,455	0,097	-0,179
-207,679	115,352	-0,079	0,070
-206,665	800,000	0,026	0,054
-205,650	-200,000	-0,034	0,142
-204,636	-200,000	-0,015	0,091
-203,621	-1,704	0,123	-0,063
-202,606	15,999	0,090	0,051
-201,592	65,234	0,046	0,034
-200,577	409,800	-0,026	-0,040
-199,563	-169,454	0,158	0,004
-198,548	-95,316	0,122	-0,024
-197,533	-34,874	0,113	0,045
-196,519	40,125	0,090	0,059
-195,504	-70,728	-0,024	0,007
-194,490	-91,343	-0,124	0,025
-193,475	376,746	0,032	0,047
-192,460	-200,000	-0,006	-0,067
-191,446	-116,144	0,118	0,016
-190,431	108,677	0,102	0,088
-189,417	-200,000	-0,005	0,159
-188,402	800,000	0,023	0,059
-187,387	3,491	-0,060	-0,032
-186,373	-200,000	0,040	-0,175
-185,358	800,000	0,038	-0,089
-184,344	496,336	0,078	-0,131
-183,329	-20,873	0,016	0,007
-182,315	3,686	0,089	0,047
-181,300	325,669	-0,045	0,063
-180,285	252,492	-0,131	-0,163
-179,271	40,480	-0,141	-0,092
-178,256	-200,000	0,003	-0,130
-177,242	215,376	0,025	-0,029
-176,227	800,000	-0,016	0,043
-175,212	-200,000	0,002	0,065
-174,198	800,000	-0,018	0,045
-173,183	426,419	0,081	-0,128
-172,169	-35,505	-0,122	-0,048
-171,154	-200,000	-0,002	-0,032
-170,139	-125,719	-0,148	-0,016
-169,125	226,118	0,098	-0,115
-168,110	-136,531	-0,070	-0,006
-167,096	-200,000	0,026	0,093
-166,081	192,783	0,031	-0,034
-165,066	-72,453	-0,066	-0,018
-164,052	-1,481	-0,058	-0,030
-163,037	800,000	0,018	0,037
-162,023	800,000	0,025	0,061
-161,008	-200,000	-0,025	-0,090
-159,993	-200,000	0,041	0,140
-158,979	800,000	-0,059	-0,126
-157,964	-200,000	0,015	0,088
-156,950	-93,768	0,146	-0,029
-155,935	800,000	0,031	0,095
-154,920	-116,201	-0,056	0,007
-153,906	800,000	-0,030	0,064
-152,891	-87,670	-0,056	-0,012
-151,877	393,242	-0,017	-0,026
-150,862	-200,000	0,006	-0,109
-149,847	-200,000	-0,047	0,000
-148,833	-149,157	0,095	0,005
-147,818	-46,302	-0,127	-0,045
-146,804	82,874	0,134	0,105
-145,789	-115,344	-0,105	0,014
-144,775	-200,000	0,006	-0,051
-143,760	-200,000	-0,013	-0,119
-142,745	-59,785	-0,082	-0,025
-141,731	449,889	-0,072	0,116
-140,716	-3,818	0,101	-0,051
-139,702	800,000	-0,050	0,138
-138,687	-200,000	-0,017	0,146
-137,672	-200,000	0,021	0,128
-136,658	221,324	-0,021	-0,024
-135,643	172,386	-0,032	0,033
-134,629	62,390	0,116	-0,084
-133,614	137,962	0,036	0,034
-132,599	58,731	0,112	-0,080
-131,585	73,325	0,039	0,030
-130,570	800,000	-0,043	0,130
-129,556	22,440	-0,037	-0,022
-128,541	4,810	0,089	-0,047
-127,526	160,125	0,085	-0,085
-126,512	305,669	-0,035	0,047
-125,497	-200,000	-0,007	0,109
-124,483	224,753	0,034	0,040
-123,468	235,665	-0,124	-0,149
-122,453	743,633	0,066	-0,128
-121,439	-71,973	-0,124	0,033
-120,424	-104,562	0,089	0,015
-119,410	183,938	-0,086	-0,092
