DTS Sentinel unit serial number:	SN410029Multiplexer serial number:	ORYXHardware model number:	OX2-SRSoftware version number:	ORYX F/W v4,00 Oryx Data Collector v3.7.2.0data status	okinstallation	B6 Nyhavnadifferential loss correction	single-endedforward channel	channel 2reverse channel	N/Adate	2023/12/11time	02:05:08forward acquisition time	300,00reverse acquisition time	0,00gamma	499,1914k internal	0,3122k external	0,3122temperature offset calibration	1,0000default loss term (dB/km)	0,3820temperature slope calibration	1,0000multiplexer offset coefficient	1,0000multiplexer slope coefficient	1,0000fibre end	0,00T internal ref (°C)	21,91T ext. ref 1 (°C)	4,91T ext. ref 2 (°C)	4,94length (m)	temperature (°C)	Stokes	anti-Stokes-744,400	257,148	0,080	-0,103
-743,385	50,240	-0,276	0,194
-742,371	-173,220	0,148	0,003
-741,356	800,000	-0,077	0,233
-740,342	46,391	0,078	-0,054
-739,327	66,398	-0,243	0,184
-738,312	-200,000	-0,025	-0,087
-737,298	58,265	-0,224	0,164
-736,283	187,317	0,087	0,097
-735,269	129,773	-0,181	0,173
-734,254	-73,234	-0,128	0,035
-733,239	-148,692	-0,326	0,019
-732,225	-117,180	0,149	0,020
-731,210	304,781	0,082	0,114
-730,196	7,540	-0,044	0,024
-729,181	-47,937	-0,129	0,046
-728,167	142,834	-0,028	0,028
-727,152	-5,170	-0,057	-0,029
-726,137	800,000	-0,038	-0,085
-725,123	-57,208	-0,057	-0,018
-724,108	162,754	-0,084	-0,088
-723,094	129,774	-0,174	-0,166
-722,079	-200,000	-0,020	-0,095
-721,064	111,469	0,057	-0,052
-720,050	-86,888	-0,118	-0,027
-719,035	-200,000	-0,003	0,012
-718,021	800,000	-0,028	-0,070
-717,006	60,191	-0,078	0,057
-715,991	-81,722	-0,101	-0,024
-714,977	-17,908	0,181	-0,084
-713,962	-200,000	0,001	-0,041
-712,948	800,000	0,011	-0,037
-711,933	-136,711	-0,030	-0,003
-710,918	-106,660	0,086	0,014
-709,904	-200,000	-0,015	-0,241
-708,889	-98,905	0,124	-0,023
-707,875	53,905	-0,098	0,070
-706,860	34,433	-0,038	0,025
-705,845	-200,000	-0,045	-0,202
-704,831	26,844	0,047	0,029
-703,816	800,000	-0,025	-0,054
-702,802	-200,000	-0,015	-0,059
-701,787	-200,000	-0,009	-0,061
-700,772	146,834	-0,079	0,079
-699,758	-126,399	0,078	0,009
-698,743	-200,000	-0,012	0,049
-697,729	-103,112	-0,074	-0,013
-696,714	73,243	-0,085	-0,066
-695,699	-112,922	-0,174	-0,025
-694,685	-200,000	-0,015	0,119
-693,670	-158,937	-0,111	0,005
-692,656	800,000	0,071	-0,172
-691,641	-139,785	-0,151	0,012
-690,627	45,211	-0,073	0,050
-689,612	-140,613	-0,055	-0,004
-688,597	413,720	-0,049	-0,078
-687,583	-110,463	-0,239	0,037
-686,568	252,298	-0,026	-0,034
-685,554	-200,000	0,017	-0,086
-684,539	126,780	0,033	0,031
-683,524	-24,324	0,043	0,019
-682,510	-153,891	0,074	-0,004
-681,495	480,206	0,030	-0,050
-680,481	29,842	-0,156	-0,099
-679,466	800,000	-0,056	-0,134
-678,451	-111,999	-0,057	0,009
-677,437	800,000	-0,034	0,093
-676,422	204,707	0,023	0,026
-675,408	-82,073	0,108	-0,026
-674,393	-60,049	-0,096	-0,030
-673,378	109,746	-0,115	-0,103
-672,364	-200,000	0,035	-0,205
-671,349	633,819	0,054	-0,103
-670,335	-200,000	-0,004	-0,061
-669,320	387,097	0,038	0,059
-668,305	800,000	-0,051	0,118
-667,291	-87,089	0,024	-0,005
-666,276	-107,586	0,061	-0,010
-665,262	418,951	0,042	-0,067
-664,247	-200,000	0,042	0,161
-663,232	800,000	-0,069	0,170
-662,218	-200,000	0,023	0,088
-661,203	-200,000	-0,014	0,178
-660,189	-47,426	0,061	-0,022
-659,174	800,000	-0,040	-0,121
-658,159	800,000	-0,039	-0,088
-657,145	-32,690	-0,073	-0,030
-656,130	-17,349	-0,056	0,026
-655,116	740,643	0,011	0,021
-654,101	-200,000	-0,017	0,110
-653,086	-200,000	-0,021	-0,105
-652,072	-101,046	0,046	0,008
-651,057	-200,000	0,000	-0,101
-650,043	314,391	-0,128	-0,180
-649,028	800,000	-0,071	-0,170
-648,014	-70,561	0,026	-0,007
-646,999	-63,491	0,083	0,025
-645,984	-163,368	-0,046	0,002
-644,970	800,000	0,022	-0,063
-643,955	-3,284	0,107	-0,055
-642,941	-180,593	-0,041	0,001
-641,926	-82,255	-0,039	0,009
-640,911	-159,885	0,069	0,003
-639,897	800,000	-0,016	-0,047
-638,882	-16,808	0,013	0,006
-637,868	-79,549	-0,078	0,020
-636,853	97,342	-0,065	-0,056
-635,838	-55,005	-0,116	-0,039
-634,824	800,000	0,091	-0,203
-633,809	782,759	0,015	-0,030
-632,795	136,395	-0,023	-0,022
-631,780	-63,104	-0,051	0,016
-630,765	12,688	-0,108	0,062
-629,751	3,169	-0,065	-0,035
-628,736	-200,000	-0,007	-0,085
-627,722	-200,000	-0,039	-0,153
-626,707	1,757	0,107	-0,057
-625,692	-5,875	0,088	-0,044
-624,678	-78,945	0,093	0,023
-623,663	800,000	-0,018	-0,047
-622,649	155,063	-0,200	-0,204
-621,634	-200,000	-0,020	-0,171
-620,619	800,000	0,004	-0,012
-619,605	-200,000	0,007	-0,077
-618,590	-38,325	-0,033	0,013
-617,576	659,904	0,010	0,019
-616,561	800,000	-0,031	0,072
-615,546	209,599	0,018	-0,021
-614,532	-101,358	-0,067	-0,012
-613,517	46,348	0,017	-0,011
-612,503	-200,000	0,006	-0,164
-611,488	-146,696	0,084	-0,005
-610,474	-200,000	0,009	0,044
-609,459	-117,099	0,044	0,006
-608,444	17,325	0,048	-0,028
-607,430	-179,985	-0,057	-0,001
-606,415	-36,091	0,167	0,066
-605,401	116,941	0,104	0,095
-604,386	-200,000	-0,008	-0,035
-603,371	-200,000	0,001	0,029
-602,357	-112,306	0,088	-0,013
-601,342	73,217	-0,140	-0,109
-600,328	-98,406	-0,089	0,017
-599,313	-200,000	0,027	-0,105
-598,298	-63,986	-0,037	0,011
-597,284	109,157	0,078	0,069
-596,269	-200,000	0,007	0,065
-595,255	-110,652	0,066	-0,010
-594,240	-4,998	0,051	0,026
-593,225	346,877	-0,057	0,084
-592,211	-200,000	-0,007	-0,034
-591,196	-200,000	-0,012	-0,048
-590,182	800,000	-0,045	0,144
-589,167	67,098	0,042	0,032
-588,152	171,852	0,069	-0,074
-587,138	147,645	-0,101	-0,101
-586,123	-4,905	-0,014	0,007
-585,109	-115,332	-0,114	-0,016
-584,094	218,999	0,015	0,018
-583,079	126,280	0,037	0,034
-582,065	-49,774	0,137	0,048
-581,050	-200,000	-0,005	-0,028
-580,036	-57,339	-0,025	-0,008
-579,021	63,239	-0,101	-0,075
-578,006	800,000	0,055	-0,137
-576,992	373,763	-0,054	0,082
-575,977	-75,489	0,068	-0,018
-574,963	-200,000	-0,010	0,063
-573,948	7,265	-0,015	0,008
-572,934	39,733	-0,101	-0,067
-571,919	-200,000	0,010	-0,101
-570,904	-61,598	-0,111	0,034
-569,890	-200,000	-0,039	-0,165
-568,875	-200,000	0,015	-0,062
-567,861	685,093	0,012	0,023
-566,846	137,694	0,062	0,060
-565,831	-106,030	0,095	0,016
-564,817	-200,000	0,009	-0,066
-563,802	635,095	0,026	0,050
-562,788	31,090	-0,155	-0,098
-561,773	800,000	0,047	-0,117
-560,758	800,000	-0,044	0,117
-559,744	97,760	0,034	-0,029
-558,729	-8,061	-0,071	-0,035
-557,715	191,712	-0,004	-0,005
-556,700	-87,734	0,101	0,022
-555,685	-121,639	-0,120	-0,015
-554,671	-14,181	0,115	0,055
-553,656	800,000	-0,012	0,026
-552,642	800,000	-0,029	-0,081
-551,627	-122,877	0,128	-0,015
-550,612	1,999	0,083	-0,044
-549,598	270,317	-0,066	0,086
-548,583	-200,000	0,024	0,161
-547,569	-123,136	0,068	0,008
-546,554	129,796	0,063	-0,059
-545,539	253,489	-0,036	0,046
-544,525	-200,000	-0,019	-0,069
-543,510	800,000	-0,063	0,173
-542,496	-92,517	-0,049	-0,010
-541,481	800,000	-0,052	-0,147
-540,466	-200,000	0,041	-0,153
-539,452	148,762	0,079	-0,079
-538,437	29,872	0,043	0,027
-537,423	800,000	0,034	0,071
-536,408	603,079	0,053	0,097
-535,393	-92,533	-0,074	0,015
-534,379	629,552	-0,097	-0,183
-533,364	-89,099	0,112	-0,024
-532,350	800,000	-0,013	-0,030
-531,335	482,461	0,090	0,152
-530,321	-138,914	-0,078	0,006
-529,306	55,374	-0,104	-0,074
-528,291	800,000	-0,007	0,020
-527,277	800,000	0,028	-0,067
-526,262	-200,000	0,001	0,027
-525,248	-200,000	0,016	-0,129
-524,233	-71,537	0,070	0,019
-523,218	40,891	-0,084	-0,056
-522,204	163,042	-0,038	0,040
-521,189	-42,367	-0,062	-0,023
-520,175	57,018	0,080	-0,057
-519,160	3,005	0,076	-0,041
-518,145	78,613	0,017	0,013
-517,131	-83,355	0,036	0,008
-516,116	800,000	-0,013	0,035
-515,102	-109,271	0,082	-0,013
-514,087	-4,558	-0,083	-0,042
-513,072	-62,043	-0,166	-0,051
-512,058	63,004	-0,042	0,031
-511,043	-24,906	-0,086	-0,038
-510,029	183,044	0,093	0,102
-509,014	306,715	0,078	-0,107
-507,999	-37,808	-0,149	0,058
-506,985	-134,460	-0,081	0,007
-505,970	297,281	0,088	-0,119
-504,956	-200,000	-0,005	0,056
-503,941	385,375	-0,015	0,023
-502,926	-200,000	-0,018	-0,179
-501,912	800,000	0,036	0,099
-500,897	758,964	0,023	-0,046
-499,883	156,181	-0,094	0,096
-498,868	-2,017	-0,096	-0,050
-497,853	37,073	-0,114	0,074
-496,839	101,058	0,046	-0,039
-495,824	278,702	0,015	0,020
-494,810	800,000	-0,021	-0,049
-493,795	429,587	0,079	0,126
-492,781	-138,283	-0,084	0,007
-491,766	800,000	0,023	0,048
-490,751	82,891	-0,080	0,065
-489,737	-200,000	0,010	0,050
-488,722	164,067	0,039	0,040
-487,708	-82,486	0,127	-0,030
-486,693	800,000	-0,049	-0,115
-485,678	366,094	0,015	-0,023
-484,664	163,970	0,036	-0,037
-483,649	94,950	-0,090	0,075
-482,635	-200,000	-0,024	0,102
-481,620	63,908	0,096	0,071
-480,605	-37,562	0,077	-0,030
-479,591	-200,000	-0,009	0,034
-478,576	-200,000	0,011	-0,055
-477,562	188,776	-0,067	0,074
-476,547	446,186	-0,038	0,061
-475,532	-200,000	0,003	0,105
-474,518	13,693	0,147	0,084
-473,503	-200,000	-0,013	0,102
-472,489	-148,575	-0,130	-0,008
-471,474	-200,000	0,003	0,048
-470,459	473,351	-0,100	-0,167
-469,445	-200,000	-0,056	-0,212
-468,430	800,000	0,022	-0,046
-467,416	-126,751	0,056	0,006
-466,401	-189,376	-0,085	0,001
-465,386	-191,905	0,029	0,000
-464,372	-16,732	-0,044	0,020
-463,357	-200,000	-0,173	-0,000
-462,343	-67,454	-0,155	-0,045
-461,328	551,296	0,010	-0,017
-460,313	1,771	0,082	0,043
-459,299	74,189	-0,176	0,136
-458,284	800,000	-0,053	0,151
-457,270	361,459	0,039	0,058
-456,255	-200,000	0,021	0,124
-455,241	-200,000	-0,013	0,056
-454,226	-177,484	-0,076	-0,001
-453,211	122,326	0,075	-0,069
-452,197	66,099	0,087	0,065
-451,182	2,063	-0,035	0,019
-450,168	-200,000	-0,000	-0,004
-449,153	-88,709	-0,080	0,017
-448,138	-78,353	-0,103	0,026
-447,124	-62,193	0,119	-0,036
-446,109	-200,000	-0,061	-0,197
-445,095	-200,000	-0,003	-0,068
-444,080	384,815	-0,045	-0,069
-443,065	-77,350	0,041	-0,010
-442,051	139,442	0,063	0,062
-441,036	-131,770	0,086	-0,008
-440,022	265,153	-0,054	0,070
-439,007	343,240	-0,033	-0,048
-437,992	54,563	0,032	-0,023
-436,978	800,000	0,038	0,112
-435,963	147,340	0,077	0,077
-434,949	-25,450	-0,045	0,019
-433,934	800,000	0,035	0,079
-432,919	2,498	0,124	-0,066
-431,905	7,321	-0,068	-0,037
-430,890	-37,894	0,233	0,091
-429,876	482,731	-0,038	0,063
-428,861	449,902	0,029	0,047
-427,846	-200,000	-0,002	0,166
-426,832	-200,000	-0,011	-0,079
-425,817	-72,950	0,164	-0,044
-424,803	462,415	-0,057	-0,094
-423,788	184,074	0,037	0,041
-422,773	-90,531	0,022	-0,005
-421,759	470,347	0,043	0,071
-420,744	620,709	0,026	-0,049
-419,730	124,422	-0,031	0,029
-418,715	-200,000	-0,009	-0,086
-417,701	-200,000	-0,001	-0,070
-416,686	390,337	-0,049	0,076
-415,671	350,812	-0,029	0,043
-414,657	89,673	0,043	0,035
-413,642	74,995	0,068	-0,053
-412,628	-200,000	0,006	-0,124
-411,613	141,894	0,017	-0,016
-410,598	771,611	0,019	0,038
-409,584	13,655	0,078	0,044
-408,569	269,549	0,057	0,074
-407,555	-110,219	0,169	-0,026
-406,540	126,355	-0,035	0,032
-405,525	426,572	-0,015	-0,024
-404,511	45,496	-0,108	-0,073
-403,496	50,544	0,073	0,051
-402,482	255,260	0,050	0,063
-401,467	35,657	-0,079	0,051
-400,452	-65,089	0,067	0,020
-399,438	-200,000	-0,001	0,003
-398,423	201,128	-0,107	0,122
-397,409	-110,057	0,105	-0,016
-396,394	280,816	-0,106	0,139
-395,379	327,463	-0,071	-0,101
-394,365	-11,447	0,107	0,051
-393,350	172,858	0,071	0,075
-392,336	-200,000	-0,003	0,156
-391,321	362,330	-0,018	0,027
-390,306	800,000	-0,056	-0,176
-389,292	-91,161	-0,046	0,010
-388,277	-11,988	0,038	-0,018
-387,263	-200,000	-0,043	0,147
-386,248	-200,000	0,031	0,106
-385,233	138,991	-0,073	0,070
-384,219	78,079	-0,016	-0,012
-383,204	267,647	0,011	0,014
-382,190	-113,388	-0,070	0,010
-381,175	-94,598	-0,086	-0,017
-380,160	94,820	0,145	0,121
-379,146	800,000	0,030	0,071
-378,131	-29,056	-0,134	0,056
-377,117	25,134	0,027	0,016
-376,102	251,294	0,010	0,012
-375,088	27,141	-0,061	0,038
-374,073	800,000	-0,009	-0,019
-373,058	75,144	0,105	0,081
-372,044	-41,359	0,065	-0,025
-371,029	-200,000	0,001	0,005
-370,015	-28,722	-0,116	0,049
-369,000	738,323	-0,046	0,091
-367,985	-200,000	0,051	-0,199
-366,971	618,079	-0,032	0,060
-365,956	-200,000	0,018	0,107
-364,942	104,921	-0,052	0,045
-363,927	745,605	0,028	0,056
-362,912	242,836	0,101	0,125
-361,898	800,000	0,023	-0,071
-360,883	800,000	-0,122	-0,301
-359,869	183,944	0,053	-0,057
-358,854	-200,000	0,030	0,108
-357,839	-200,000	-0,024	-0,116
-356,825	-25,375	0,081	-0,035
-355,810	345,474	-0,059	-0,085
-354,796	245,104	0,076	-0,094
-353,781	-200,000	0,009	0,120
-352,766	-95,230	0,125	0,025
-351,752	800,000	0,025	0,075
-350,737	95,021	0,157	0,131
-349,723	-19,569	0,093	0,042
-348,708	333,659	-0,048	0,068
-347,693	800,000	-0,031	0,068
-346,679	-163,306	-0,086	-0,003
-345,664	-57,395	-0,190	-0,061
-344,650	92,434	0,102	0,084
-343,635	-16,643	-0,029	0,014
-342,620	41,687	-0,104	0,069
-341,606	-69,810	-0,091	-0,025
-340,591	-200,000	0,004	-0,070
-339,577	1,069	0,096	-0,050
-338,562	-50,790	-0,066	-0,023
-337,548	800,000	-0,038	0,098
-336,533	800,000	-0,031	0,075
-335,518	-89,867	0,024	0,005
-334,504	-200,000	0,016	0,103
-333,489	-200,000	-0,007	0,033
-332,475	-41,230	-0,020	-0,008
-331,460	340,029	-0,075	-0,108
-330,445	250,470	-0,087	0,108
-329,431	-17,242	-0,058	-0,027
-328,416	407,172	0,075	-0,117
-327,402	525,750	-0,006	0,011
-326,387	-200,000	-0,024	0,084
-325,372	-200,000	0,004	-0,093
-324,358	-91,970	-0,047	-0,010
-323,343	232,825	-0,055	-0,067
-322,329	-94,804	0,189	-0,037
-321,314	26,921	-0,021	-0,013
-320,299	-114,976	-0,087	0,012
-319,285	519,802	0,048	0,084
-318,270	800,000	0,022	-0,060
-317,256	-200,000	0,009	-0,061
-316,241	-154,587	0,071	0,003
-315,226	12,450	0,021	-0,012
-314,212	170,595	-0,042	0,044
-313,197	23,166	0,120	0,072
-312,183	175,479	-0,013	0,014
-311,168	165,310	-0,070	0,073
-310,153	256,390	-0,058	-0,073
-309,139	-0,465	0,248	0,128
-308,124	-64,933	-0,042	-0,012
-307,110	-200,000	0,016	0,138
-306,095	-200,000	-0,009	-0,059
-305,080	800,000	0,060	0,173
-304,066	-137,355	0,010	-0,001
-303,051	81,187	0,033	-0,026
-302,037	-200,000	-0,001	0,085
-301,022	5,406	0,111	-0,060
-300,008	-49,252	0,087	0,030
-298,993	-200,000	0,003	-0,056
-297,978	356,671	-0,047	0,068
-296,964	-4,591	-0,099	0,050
-295,949	125,138	-0,146	0,135
-294,935	151,441	-0,051	-0,050
-293,920	-41,267	0,103	-0,039
-292,905	124,759	0,127	-0,117
-291,891	-172,113	0,053	-0,001
-290,876	433,324	0,011	-0,017
-289,862	-200,000	-0,006	-0,057
-288,847	-200,000	0,005	-0,106
-287,832	-200,000	-0,043	-0,151
-286,818	149,359	0,055	-0,055
-285,803	364,665	-0,022	0,032
-284,789	-55,041	-0,121	0,040
-283,774	102,290	0,038	0,033
-282,759	-66,294	0,061	0,018
-281,745	96,790	0,053	-0,045
-280,730	34,746	-0,063	-0,040
-279,716	-49,382	0,067	-0,023
-278,701	-200,000	0,038	0,176
-277,686	270,273	0,079	0,103
-276,672	800,000	-0,020	0,061
-275,657	316,853	0,014	0,019
-274,643	-92,713	-0,043	0,009
-273,628	-200,000	-0,025	-0,160
-272,613	-62,275	0,058	-0,018
-271,599	-134,547	0,105	0,009
-270,584	-200,000	0,004	-0,051
-269,570	800,000	-0,014	0,044
-268,555	800,000	0,040	-0,115
-267,540	-200,000	0,002	0,069
-266,526	94,926	0,083	-0,069
-265,511	-69,963	0,022	0,006
-264,497	164,402	0,027	-0,028
-263,482	-32,157	-0,048	-0,020
-262,467	-115,650	0,055	-0,007
-261,453	287,288	-0,051	-0,067
-260,438	268,108	0,037	0,047
-259,424	-63,317	-0,131	0,039
-258,409	32,684	0,061	0,039
-257,395	800,000	-0,048	-0,149
-256,380	-200,000	0,003	0,106
-255,365	-53,904	0,135	0,045
-254,351	-111,483	0,051	-0,008
-253,336	-200,000	-0,021	-0,070
-252,322	466,667	0,069	-0,114
-251,307	-33,193	-0,131	0,053
-250,292	-200,000	0,004	0,040
-249,278	-2,606	-0,133	0,068
-248,263	224,757	-0,082	-0,098
-247,249	-200,000	0,007	-0,029
-246,234	183,367	-0,103	-0,112
-245,219	-200,000	0,006	0,096
-244,205	-27,296	-0,061	-0,026
-243,190	428,878	0,014	-0,023
-242,176	-200,000	-0,002	-0,089
-241,161	50,328	0,107	0,074
-240,146	181,573	0,039	0,042
-239,132	800,000	-0,038	0,080
-238,117	-151,823	-0,041	0,002
-237,103	26,684	0,145	0,088
-236,088	800,000	-0,014	-0,042
-235,073	-109,392	-0,111	-0,017
-234,059	63,868	0,141	-0,104
-233,044	-113,574	-0,148	0,021
-232,030	800,000	0,020	0,056
-231,015	-134,158	-0,088	-0,008
-230,000	-81,655	-0,114	0,027
-228,986	-58,468	0,073	0,023
-227,971	-140,340	-0,159	0,012
-226,957	4,810	0,066	0,035
-225,942	252,492	-0,044	0,055
-224,927	-200,000	-0,002	0,009
-223,913	-143,430	-0,144	0,010
-222,898	-44,169	-0,043	-0,016
-221,884	-200,000	0,005	-0,056
-220,869	-23,394	0,057	-0,025
-219,855	331,472	0,081	0,115
-218,840	489,694	-0,013	-0,021
-217,825	-73,952	0,185	0,049
-216,811	-72,634	-0,072	0,019
-215,796	-146,916	0,070	-0,004
-214,782	800,000	-0,021	-0,062
-213,767	800,000	-0,021	0,064
-212,752	800,000	-0,035	0,100
-211,738	10,180	-0,050	0,028
-210,723	232,541	-0,034	0,041
-209,709	10,471	0,022	0,012
-208,694	130,313	-0,116	0,109
-207,679	9,992	0,109	-0,060
-206,665	-25,924	-0,117	-0,050
-205,650	-200,000	-0,027	-0,144
-204,636	278,434	-0,002	0,003
-203,621	438,331	0,060	-0,096
-202,606	800,000	0,039	-0,080
-201,592	-200,000	0,015	0,052
-200,577	-200,000	0,014	-0,078
-199,563	800,000	-0,045	0,094
-198,548	86,585	-0,067	0,054
-197,533	-51,802	0,051	0,017
-196,519	-200,000	0,014	0,149
-195,504	-104,001	0,011	0,002
-194,490	-44,698	0,072	-0,026
-193,475	408,247	-0,051	0,079
-192,460	89,758	-0,046	-0,037
-191,446	456,194	-0,055	-0,089
-190,431	703,861	-0,044	-0,086
-189,417	-200,000	-0,013	0,058
-188,402	-128,441	-0,065	-0,007
-187,387	-41,127	0,012	-0,005
-186,373	800,000	-0,047	-0,106
-185,358	-200,000	0,011	-0,051
-184,344	137,236	0,046	0,044
-183,329	-200,000	0,003	0,014
-182,315	581,568	0,062	0,112
-181,300	635,800	-0,068	-0,127
-180,285	478,869	0,018	-0,029
-179,271	-79,101	-0,146	0,036
-178,256	-200,000	-0,006	-0,027
-177,242	180,016	-0,082	-0,088
-176,227	133,915	0,079	-0,075
-175,212	5,470	0,109	-0,059
-174,198	554,655	-0,053	0,093
-173,183	-200,000	-0,003	-0,062
-172,169	-108,021	0,077	-0,012
-171,154	-108,322	0,096	0,015
-170,139	800,000	-0,017	0,038
-169,125	134,039	0,040	0,037
-168,110	-59,687	0,090	-0,028
-167,096	-200,000	0,029	0,105
-166,081	-200,000	0,014	-0,161
-165,066	-65,776	0,121	-0,035
-164,052	114,312	-0,041	0,036
-163,037	183,263	-0,050	0,054
-162,023	29,472	0,041	0,025
-161,008	20,956	-0,164	-0,097
-159,993	-150,619	0,072	0,004
-158,979	-111,192	-0,014	0,002
-157,964	12,795	0,115	-0,064
-156,950	-97,233	-0,031	0,006
-155,935	800,000	-0,016	0,043
-154,920	760,686	0,024	0,048
-153,906	-3,482	-0,054	0,027
-152,891	116,531	0,045	-0,040
-151,877	60,335	0,063	-0,045
-150,862	-200,000	-0,030	-0,126
-149,847	201,193	0,049	-0,056
-148,833	164,927	-0,052	0,053
-147,818	317,956	-0,098	0,136
-146,804	154,910	0,040	0,040
-145,789	-10,210	-0,076	0,037
-144,775	261,153	-0,030	-0,038
-143,760	-200,000	-0,006	-0,044
-142,745	364,493	0,041	-0,061
-141,731	-200,000	0,021	-0,138
-140,716	-200,000	-0,007	0,049
-139,702	2,566	-0,071	0,038
-138,687	-200,000	0,008	0,092
-137,672	220,046	-0,128	0,149
-136,658	248,614	0,049	-0,060
-135,643	39,144	-0,086	-0,056
-134,629	96,954	-0,095	0,079
-133,614	-200,000	-0,013	0,057
-132,599	233,513	-0,036	-0,043
-131,585	-0,481	0,089	0,046
-130,570	1,827	-0,158	0,083
-129,556	-170,164	-0,080	0,002
-128,541	800,000	-0,028	-0,085
-127,526	2,360	0,041	0,022
-126,512	-15,642	0,075	0,035
-125,497	566,384	-0,075	0,134
-124,483	29,883	0,154	0,095
-123,468	-200,000	-0,014	-0,149
-122,453	149,749	0,058	-0,057
-121,439	38,486	-0,122	-0,079
-120,424	-121,179	0,021	0,002
-119,410	-200,000	0,010	0,100
-118,395	-131,732	-0,093	0,009
