DTS Sentinel unit serial number:	SN410029Multiplexer serial number:	ORYXHardware model number:	OX2-SRSoftware version number:	ORYX F/W v4,00 Oryx Data Collector v3.7.2.0data status	okinstallation	B6 Nyhavnadifferential loss correction	single-endedforward channel	channel 2reverse channel	N/Adate	2023/12/07time	11:10:08forward acquisition time	300,00reverse acquisition time	0,00gamma	499,1914k internal	0,3200k external	0,3200temperature offset calibration	1,0000default loss term (dB/km)	0,3820temperature slope calibration	1,0000multiplexer offset coefficient	1,0000multiplexer slope coefficient	1,0000fibre end	0,00T internal ref (°C)	7,95T ext. ref 1 (°C)	-6,08T ext. ref 2 (°C)	-6,10length (m)	temperature (°C)	Stokes	anti-Stokes-744,400	278,392	0,094	0,122
-743,385	-65,210	-0,459	-0,134
-742,371	-84,717	0,259	0,059
-741,356	-43,014	-0,405	-0,149
-740,342	30,488	0,137	0,085
-739,327	-49,043	-0,396	-0,137
-738,312	-18,366	0,280	0,127
-737,298	16,233	-0,319	-0,182
-736,283	50,153	0,116	0,080
-735,269	-138,274	-0,438	-0,035
-734,254	7,384	0,245	0,133
-733,239	-63,593	-0,495	-0,147
-732,225	131,208	0,170	0,159
-731,210	-143,526	-0,111	-0,008
-730,196	-77,054	0,096	-0,024
-729,181	336,521	-0,086	-0,121
-728,167	-200,000	0,016	-0,074
-727,152	-83,239	-0,106	0,024
-726,137	-160,488	-0,184	-0,007
-725,123	246,629	-0,039	0,048
-724,108	-200,000	-0,012	-0,087
-723,094	68,845	-0,187	-0,139
-722,079	-54,669	0,065	-0,021
-721,064	-200,000	0,003	0,033
-720,050	787,308	-0,092	0,184
-719,035	800,000	-0,009	-0,025
-718,021	-92,699	-0,041	0,008
-717,006	411,649	-0,046	0,072
-715,991	-200,000	-0,011	-0,069
-714,977	48,191	-0,124	0,084
-713,962	800,000	0,027	-0,055
-712,948	54,417	-0,113	0,079
-711,933	-52,002	0,089	0,030
-710,918	196,971	-0,105	-0,117
-709,904	1,053	-0,036	0,019
-708,889	-18,338	-0,079	0,036
-707,875	800,000	-0,049	-0,113
-706,860	800,000	0,039	-0,104
-705,845	630,919	-0,027	-0,049
-704,831	17,722	0,128	-0,074
-703,816	-200,000	0,017	-0,063
-702,802	586,014	0,066	-0,119
-701,787	-200,000	0,023	-0,106
-700,772	-200,000	-0,015	-0,167
-699,758	592,608	0,047	-0,085
-698,743	247,731	0,058	0,071
-697,729	-101,494	-0,140	-0,024
-696,714	36,251	-0,016	0,010
-695,699	106,958	-0,103	-0,089
-694,685	-200,000	0,007	-0,108
-693,670	141,872	0,068	-0,065
-692,656	-82,084	-0,117	-0,028
-691,641	493,003	0,018	-0,030
-690,627	800,000	-0,014	-0,039
-689,612	-197,506	-0,019	0,000
-688,597	800,000	-0,086	0,181
-687,583	-6,647	-0,028	0,014
-686,568	704,075	-0,053	-0,102
-685,554	477,046	0,032	-0,052
-684,539	-111,040	-0,050	-0,007
-683,524	559,087	-0,063	-0,110
-682,510	397,312	-0,067	0,102
-681,495	-200,000	0,002	0,088
-680,481	21,423	0,049	0,029
-679,466	-175,066	-0,083	-0,002
-678,451	-200,000	-0,044	-0,161
-677,437	399,149	0,013	0,020
-676,422	800,000	-0,064	0,149
-675,408	-53,660	-0,097	0,032
-674,393	157,785	-0,053	-0,053
-673,378	85,505	-0,140	-0,112
-672,364	-200,000	0,047	-0,000
-671,349	-27,580	-0,113	-0,047
-670,335	-22,350	-0,133	-0,058
-669,320	-147,721	0,074	-0,004
-668,305	-42,306	-0,133	0,049
-667,291	142,009	-0,061	-0,059
-666,276	-200,000	0,023	-0,140
-665,262	240,186	-0,088	-0,106
-664,247	-91,677	-0,108	-0,022
-663,232	41,936	-0,034	-0,022
-662,218	285,337	0,037	0,049
-661,203	-188,406	-0,088	-0,001
-660,189	-35,630	0,074	0,029
-659,174	215,773	-0,015	-0,018
-658,159	-27,389	-0,034	0,014
-657,145	800,000	-0,028	-0,057
-656,130	-32,853	-0,163	0,065
-655,116	-138,767	-0,091	0,007
-654,101	-200,000	0,004	0,080
-653,086	235,609	-0,041	0,049
-652,072	-200,000	-0,002	-0,070
-651,057	-8,476	-0,097	-0,047
-650,043	800,000	-0,023	-0,066
-649,028	783,926	-0,073	-0,146
-648,014	465,465	-0,033	-0,054
-646,999	-105,880	-0,057	-0,009
-645,984	800,000	-0,014	0,033
-644,970	-137,854	0,021	0,002
-643,955	-118,122	-0,126	0,016
-642,941	-200,000	0,025	0,105
-641,926	78,633	-0,038	-0,030
-640,911	544,721	0,050	0,086
-639,897	99,073	0,050	-0,042
-638,882	174,222	-0,107	-0,112
-637,868	49,970	-0,174	-0,119
-636,853	-200,000	-0,015	-0,059
-635,838	-200,000	-0,026	-0,085
-634,824	-169,564	-0,108	0,003
-633,809	75,283	-0,045	-0,034
-632,795	110,217	0,176	0,153
-631,780	-66,096	-0,079	0,023
-630,765	-200,000	0,000	-0,010
-629,751	382,672	-0,104	-0,155
-628,736	332,987	-0,102	-0,144
-627,722	559,644	-0,050	0,088
-626,707	66,528	0,052	-0,038
-625,692	-141,003	0,142	0,010
-624,678	362,121	-0,062	-0,090
-623,663	-107,620	0,073	-0,011
-622,649	-73,480	0,112	-0,029
-621,634	135,668	-0,057	-0,054
-620,619	-200,000	-0,021	-0,088
-619,605	175,146	0,063	-0,066
-618,590	448,716	0,046	0,073
-617,576	-15,714	-0,092	0,042
-616,561	800,000	0,014	0,036
-615,546	-63,983	0,035	0,010
-614,532	478,413	-0,037	0,061
-613,517	657,924	-0,042	-0,078
-612,503	800,000	0,030	-0,064
-611,488	43,866	-0,070	0,046
-610,474	190,394	-0,080	-0,087
-609,459	319,194	0,049	-0,067
-608,444	21,638	-0,057	-0,033
-607,430	800,000	-0,049	-0,103
-606,415	355,561	0,039	0,056
-605,401	-127,466	0,051	-0,005
-604,386	262,536	0,031	-0,039
-603,371	800,000	-0,027	0,085
-602,357	-200,000	-0,010	-0,071
-601,342	800,000	0,005	-0,012
-600,328	753,213	0,026	-0,052
-599,313	158,446	-0,112	-0,112
-598,298	735,348	-0,036	-0,071
-597,284	-200,000	0,011	0,120
-596,269	-200,000	-0,015	0,066
-595,255	-200,000	-0,006	0,111
-594,240	440,892	-0,080	0,128
-593,225	86,100	-0,097	-0,077
-592,211	800,000	-0,009	0,023
-591,196	-115,853	-0,176	0,023
-590,182	-200,000	0,003	0,020
-589,167	800,000	0,019	-0,050
-588,152	-114,277	-0,168	-0,023
-587,138	-57,737	-0,206	-0,065
-586,123	-62,799	0,019	-0,006
-585,109	228,713	-0,045	-0,053
-584,094	294,106	0,052	-0,069
-583,079	54,472	0,045	-0,032
-582,065	800,000	0,021	0,061
-581,050	-22,905	-0,038	0,017
-580,036	121,405	-0,118	-0,106
-579,021	-200,000	-0,020	-0,078
-578,006	305,974	0,086	-0,115
-576,992	-26,257	-0,047	-0,020
-575,977	-94,620	-0,064	-0,013
-574,963	-60,377	-0,013	0,004
-573,948	800,000	-0,011	-0,024
-572,934	-13,557	0,100	0,047
-571,919	-105,917	0,124	-0,020
-570,904	576,728	-0,007	-0,012
-569,890	773,704	-0,046	0,090
-568,875	-60,133	0,100	0,031
-567,861	-22,760	-0,052	0,023
-566,846	-134,430	0,086	0,008
-565,831	-74,600	0,084	-0,022
-564,817	36,831	-0,047	0,030
-563,802	288,240	0,012	0,016
-562,788	28,270	-0,165	-0,101
-561,773	664,032	-0,052	-0,098
-560,758	-117,004	0,039	0,005
-559,744	-68,518	-0,095	0,026
-558,729	69,745	-0,154	0,114
-557,715	-126,286	0,054	0,006
-556,700	-200,000	-0,004	-0,123
-555,685	387,965	0,084	-0,126
-554,671	-104,052	0,092	-0,015
-553,656	338,694	-0,031	0,043
-552,642	724,403	0,034	0,067
-551,627	115,232	-0,069	0,061
-550,612	125,338	0,098	-0,089
-549,598	-200,000	-0,009	0,052
-548,583	605,741	-0,041	-0,074
-547,569	800,000	0,024	-0,054
-546,554	-129,200	0,178	-0,018
-545,539	42,095	0,120	-0,079
-544,525	452,467	-0,074	-0,119
-543,510	-118,771	-0,081	0,010
-542,496	741,818	-0,027	0,052
-541,481	-130,208	0,146	0,014
-540,466	800,000	0,025	0,067
-539,452	110,441	0,092	0,080
-538,437	176,443	0,119	0,125
-537,423	-200,000	0,019	0,061
-536,408	800,000	-0,031	0,097
-535,393	214,731	0,079	-0,090
-534,379	6,974	-0,092	-0,049
-533,364	800,000	0,049	-0,132
-532,350	56,062	-0,071	-0,050
-531,335	536,294	-0,031	0,054
-530,321	101,481	0,110	-0,093
-529,306	158,493	-0,065	0,065
-528,291	-36,733	0,032	-0,012
-527,277	-101,665	0,134	-0,023
-526,262	-200,000	0,025	0,089
-525,248	-17,047	0,094	0,043
-524,233	-200,000	0,022	0,108
-523,218	-200,000	0,001	0,045
-522,204	-200,000	-0,004	0,044
-521,189	50,632	0,108	-0,074
-520,175	-200,000	0,004	0,105
-519,160	-66,922	-0,150	-0,042
-518,145	-30,785	-0,100	0,040
-517,131	259,654	0,072	0,089
-516,116	220,192	0,097	-0,112
-515,102	800,000	-0,043	-0,087
-514,087	-200,000	-0,015	-0,157
-513,072	133,379	0,071	-0,066
-512,058	-200,000	-0,006	-0,091
-511,043	800,000	0,071	0,152
-510,029	800,000	0,021	0,058
-509,014	-200,000	0,028	-0,097
-507,999	65,027	0,069	-0,050
-506,985	-52,495	-0,180	-0,060
-505,970	136,323	-0,016	0,015
-504,956	-200,000	-0,043	-0,203
-503,941	4,497	-0,184	0,097
-502,926	-154,294	0,153	0,007
-501,912	-200,000	0,032	0,174
-500,897	218,576	0,166	-0,191
-499,883	-7,029	-0,093	0,046
-498,868	-200,000	-0,016	0,097
-497,853	36,764	0,124	-0,079
-496,839	-200,000	0,000	-0,129
-495,824	158,697	0,085	0,085
-494,810	800,000	0,044	-0,117
-493,795	-200,000	0,012	-0,069
-492,781	800,000	-0,032	-0,073
-491,766	79,440	0,129	-0,099
-490,751	46,912	-0,025	0,017
-489,737	-200,000	-0,036	0,140
-488,722	-200,000	0,019	-0,102
-487,708	436,215	0,059	0,092
-486,693	-33,111	0,077	0,031
-485,678	800,000	-0,028	-0,073
-484,664	404,773	-0,102	-0,155
-483,649	-200,000	-0,015	-0,167
-482,635	193,603	0,023	0,025
-481,620	54,599	0,070	-0,048
-480,605	-90,894	0,045	-0,009
-479,591	800,000	0,115	0,241
-478,576	-113,260	0,073	-0,010
-477,562	2,683	-0,083	-0,043
-476,547	260,283	-0,049	0,061
-475,532	-200,000	-0,022	0,134
-474,518	47,299	0,099	-0,066
-473,503	-200,000	0,007	0,126
-472,489	-6,844	0,171	-0,083
-471,474	-135,820	-0,030	0,003
-470,459	16,585	-0,045	-0,025
-469,445	-135,980	0,103	0,009
-468,430	800,000	-0,027	-0,076
-467,416	-31,589	0,115	0,046
-466,401	567,017	-0,054	-0,094
-465,386	-110,996	0,104	-0,015
-464,372	-108,821	-0,018	-0,003
-463,357	800,000	-0,009	0,023
-462,343	800,000	-0,011	0,033
-461,328	130,510	-0,047	-0,044
-460,313	431,437	-0,048	-0,075
-459,299	-200,000	0,002	0,019
-458,284	-200,000	0,008	-0,049
-457,270	-86,590	-0,082	-0,018
-456,255	-122,229	0,113	0,013
-455,241	22,136	-0,102	-0,060
-454,226	-54,841	-0,129	-0,041
-453,211	541,403	0,015	0,026
-452,197	-200,000	0,022	0,076
-451,182	-51,660	0,036	0,012
-450,168	-200,000	0,015	-0,055
-449,153	494,868	-0,038	-0,063
-448,138	568,704	0,025	0,044
-447,124	739,902	0,065	0,127
-446,109	-94,436	-0,110	-0,021
-445,095	800,000	0,036	0,095
-444,080	-200,000	-0,014	0,154
-443,065	-200,000	-0,002	-0,050
-442,051	-25,616	-0,072	0,030
-441,036	53,518	-0,071	-0,049
-440,022	-175,432	-0,125	-0,002
-439,007	245,906	-0,086	-0,104
-437,992	-200,000	0,006	-0,030
-436,978	-97,893	-0,017	0,003
-435,963	-52,001	-0,063	0,021
-434,949	655,365	0,041	-0,076
-433,934	60,359	-0,048	0,034
-432,919	101,573	-0,061	-0,051
-431,905	-200,000	0,018	0,000
-430,890	800,000	0,020	-0,043
-429,876	-200,000	-0,003	0,043
-428,861	58,650	0,147	-0,103
-427,846	-47,771	0,058	-0,020
-426,832	139,263	0,149	-0,141
-425,817	293,388	-0,077	-0,101
-424,803	-73,661	0,073	0,019
-423,788	-200,000	0,005	0,051
-422,773	51,725	-0,051	0,035
-421,759	-11,730	0,056	0,026
-420,744	91,115	0,037	0,030
-419,730	-200,000	-0,027	0,103
-418,715	566,482	-0,026	0,046
-417,701	800,000	-0,034	0,077
-416,686	-39,738	0,041	0,015
-415,671	-200,000	0,005	0,068
-414,657	-200,000	-0,000	0,049
-413,642	-200,000	-0,035	-0,112
-412,628	57,666	-0,051	-0,036
-411,613	182,538	-0,018	0,020
-410,598	-184,456	0,042	-0,000
-409,584	80,580	-0,113	0,087
-408,569	195,707	-0,076	-0,083
-407,555	139,348	0,145	-0,137
-406,540	-200,000	-0,016	0,175
-405,525	800,000	-0,052	0,129
-404,511	353,467	0,098	-0,140
-403,496	-200,000	0,012	0,048
-402,482	-139,007	0,051	-0,004
-401,467	-101,066	0,109	-0,019
-400,452	-157,615	-0,155	-0,007
-399,438	-3,873	-0,045	0,022
-398,423	-68,403	-0,049	0,014
-397,409	-69,782	-0,061	-0,017
-396,394	277,991	-0,128	-0,164
-395,379	56,026	-0,042	-0,029
-394,365	168,599	0,028	-0,028
-393,350	328,010	-0,021	0,029
-392,336	-200,000	0,012	-0,157
-391,321	17,716	-0,068	-0,039
-390,306	304,502	0,114	-0,152
-389,292	-36,320	-0,184	-0,071
-388,277	334,658	0,029	-0,041
-387,263	-200,000	0,016	-0,086
-386,248	-62,182	0,097	-0,029
-385,233	397,208	0,087	-0,131
-384,219	-68,530	0,064	0,018
-383,204	-200,000	-0,008	0,080
-382,190	-100,729	-0,148	0,026
-381,175	-200,000	-0,012	-0,235
-380,160	-200,000	-0,003	0,029
-379,146	40,766	0,065	0,042
-378,131	526,241	0,025	0,042
-377,117	259,658	-0,048	0,060
-376,102	-2,856	0,051	-0,025
-375,088	54,237	-0,113	-0,078
-374,073	-30,574	0,048	0,019
-373,058	112,655	0,120	-0,104
-372,044	51,788	-0,053	-0,036
-371,029	-93,759	0,081	0,016
-370,015	382,853	-0,079	-0,117
-369,000	-27,142	-0,066	0,027
-367,985	-39,039	-0,191	0,072
-366,971	-200,000	0,009	0,034
-365,956	-66,457	-0,111	-0,031
-364,942	-200,000	0,044	0,158
-363,927	665,392	-0,057	0,107
-362,912	-134,105	0,052	0,005
-361,898	-200,000	-0,013	0,142
-360,883	-158,287	0,086	0,004
-359,869	391,842	-0,015	-0,022
-358,854	800,000	-0,006	0,016
-357,839	142,366	0,096	0,091
-356,825	63,594	0,051	0,037
-355,810	-130,734	0,137	-0,013
-354,796	800,000	0,041	0,117
-353,781	186,311	-0,064	0,068
-352,766	-200,000	0,031	0,134
-351,752	-200,000	-0,011	0,073
-350,737	-102,779	0,058	0,010
-349,723	-36,388	0,134	-0,051
-348,708	-200,000	-0,037	0,174
-347,693	61,377	0,030	-0,022
-346,679	-200,000	-0,008	0,097
-345,664	-200,000	0,011	-0,044
-344,650	-200,000	0,009	-0,103
-343,635	-200,000	0,010	0,178
-342,620	-13,324	-0,070	-0,033
-341,606	800,000	0,021	0,052
-340,591	-71,299	-0,072	0,019
-339,577	-200,000	-0,114	0,000
-338,562	-127,415	0,076	0,008
-337,548	-138,496	0,081	-0,006
-336,533	-200,000	-0,005	0,078
-335,518	-200,000	-0,026	0,103
-334,504	-200,000	-0,021	-0,175
-333,489	87,535	0,091	0,072
-332,475	599,784	-0,027	-0,048
-331,460	176,196	-0,077	-0,080
-330,445	75,855	-0,090	0,068
-329,431	380,621	-0,055	-0,081
-328,416	87,039	0,091	0,072
-327,402	-200,000	0,014	0,076
-326,387	-200,000	-0,012	0,065
-325,372	-6,026	-0,085	0,042
-324,358	-95,978	-0,123	0,023
-323,343	-92,448	0,176	-0,035
-322,329	-200,000	0,027	0,186
-321,314	-200,000	0,013	0,116
-320,299	-59,273	-0,029	-0,009
-319,285	-200,000	0,008	-0,028
-318,270	-26,977	-0,099	0,041
-317,256	-200,000	0,010	0,034
-316,241	-56,758	-0,069	0,022
-315,226	-73,307	0,141	-0,037
-314,212	800,000	-0,015	-0,048
-313,197	-98,002	0,156	0,028
-312,183	335,722	0,011	-0,015
-311,168	-146,473	-0,103	-0,006
-310,153	-200,000	-0,008	-0,093
-309,139	11,157	0,005	0,003
-308,124	27,726	-0,074	0,044
-307,110	-143,848	0,054	-0,004
-306,095	51,833	-0,037	0,025
-305,080	110,524	0,068	0,058
-304,066	-171,150	-0,172	0,004
-303,051	-58,789	-0,115	0,035
-302,037	-200,000	0,011	0,047
-301,022	800,000	0,030	-0,066
-300,008	800,000	0,013	0,042
-298,993	-151,179	-0,036	0,002
-297,978	800,000	0,028	0,083
-296,964	656,987	-0,019	-0,034
-295,949	-200,000	0,022	-0,078
-294,935	256,912	-0,043	-0,053
-293,920	90,809	-0,079	0,063
-292,905	-200,000	-0,015	0,132
-291,891	53,215	0,073	-0,050
-290,876	68,853	-0,117	-0,086
-289,862	-200,000	-0,045	0,168
-288,847	-97,442	-0,096	-0,018
-287,832	-95,446	-0,117	0,022
-286,818	-105,201	0,078	0,013
-285,803	-110,190	-0,147	-0,022
-284,789	-34,719	0,076	0,030
-283,774	-45,103	0,020	-0,007
-282,759	800,000	0,034	0,087
-281,745	-200,000	-0,013	-0,075
-280,730	-12,363	-0,038	-0,018
-279,716	-55,533	-0,021	-0,007
-278,701	548,123	0,076	-0,131
-277,686	800,000	0,041	-0,111
-276,672	162,841	0,031	0,031
-275,657	-200,000	-0,006	-0,114
-274,643	81,322	-0,053	-0,041
-273,628	-200,000	-0,007	-0,120
-272,613	-200,000	0,001	0,064
-271,599	662,214	0,040	0,073
-270,584	800,000	-0,041	0,096
-269,570	62,595	0,091	0,065
-268,555	-35,959	-0,128	0,049
-267,540	152,410	-0,110	0,107
-266,526	-131,106	0,089	-0,008
-265,511	-42,688	0,042	-0,015
-264,497	-7,524	0,057	-0,027
-263,482	-35,593	-0,075	-0,029
-262,467	800,000	-0,041	0,114
-261,453	56,206	-0,040	0,027
-260,438	197,837	-0,049	-0,054
-259,424	791,290	0,053	-0,105
-258,409	-200,000	-0,005	0,034
-257,395	620,258	0,046	0,082
-256,380	-174,187	0,103	-0,002
-255,365	463,981	-0,037	0,059
-254,351	-97,340	-0,207	-0,038
-253,336	-54,740	0,054	0,017
-252,322	108,692	0,125	-0,107
-251,307	-200,000	0,002	-0,036
-250,292	-125,400	-0,055	0,006
-249,278	117,699	-0,043	-0,038
-248,263	-108,705	0,157	-0,024
-247,249	-65,152	0,077	0,022
-246,234	135,179	0,040	-0,037
-245,219	800,000	0,010	-0,029
-244,205	-200,000	0,012	0,100
-243,190	286,536	-0,040	0,051
-242,176	205,693	0,064	0,071
-241,161	428,590	-0,029	0,045
-240,146	-33,067	0,032	0,013
-239,132	313,600	-0,038	0,051
-238,117	-57,601	-0,110	-0,034
-237,103	147,568	0,032	-0,030
-236,088	76,347	0,054	0,041
-235,073	-75,721	0,073	-0,018
-234,059	-200,000	0,000	-0,073
-233,044	-200,000	-0,022	0,086
-232,030	-129,932	-0,083	0,008
-231,015	-200,000	-0,002	-0,115
-230,000	494,430	0,047	-0,077
-228,986	800,000	0,043	-0,087
-227,971	-99,513	0,114	-0,020
-226,957	141,729	-0,049	0,046
-225,942	800,000	0,037	0,093
-224,927	-42,020	0,049	-0,018
-223,913	-200,000	0,016	-0,080
-222,898	-10,519	-0,101	-0,047
-221,884	800,000	0,015	0,038
-220,869	-20,726	0,121	-0,053
-219,855	-152,639	-0,040	0,002
-218,840	-21,791	0,097	0,042
-217,825	-10,702	-0,054	0,026
-216,811	-46,959	-0,147	0,051
-215,796	16,661	0,106	0,059
-214,782	261,450	0,026	-0,032
-213,767	-200,000	-0,004	0,034
-212,752	274,537	0,108	0,137
-211,738	71,603	0,065	-0,048
-210,723	-200,000	0,004	0,021
-209,709	153,676	-0,037	0,037
-208,694	-200,000	-0,015	-0,074
-207,679	418,487	-0,037	-0,056
-206,665	-123,389	0,114	0,013
-205,650	116,237	0,055	0,048
-204,636	800,000	0,054	0,149
-203,621	-44,412	-0,042	0,015
-202,606	-200,000	0,018	-0,063
-201,592	-86,645	-0,077	0,017
-200,577	463,245	-0,051	0,082
-199,563	-200,000	-0,010	-0,102
-198,548	323,617	0,058	0,078
-197,533	91,733	0,032	0,026
-196,519	244,294	-0,062	-0,074
-195,504	209,149	0,013	0,015
-194,490	627,274	0,066	0,120
-193,475	669,914	0,015	0,027
-192,460	-77,687	0,031	0,008
-191,446	-68,347	0,019	-0,005
-190,431	-200,000	-0,009	0,089
-189,417	800,000	-0,021	-0,052
-188,402	86,887	0,069	0,055
-187,387	-200,000	-0,001	-0,084
-186,373	19,598	-0,109	0,062
-185,358	-58,777	0,113	0,035
-184,344	-112,033	0,059	0,008
-183,329	-200,000	-0,030	0,097
-182,315	-93,924	-0,048	0,009
-181,300	7,836	0,043	-0,023
-180,285	-157,997	-0,060	0,002
-179,271	-157,017	-0,064	-0,003
-178,256	-16,335	0,069	-0,031
-177,242	-200,000	0,014	0,071
-176,227	39,513	0,089	0,057
-175,212	242,825	0,041	-0,049
-174,198	-200,000	0,018	0,147
-173,183	-14,757	-0,113	-0,051
-172,169	-11,895	-0,060	-0,028
-171,154	69,444	-0,064	0,047
-170,139	318,132	0,122	0,165
-169,125	215,659	-0,059	0,067
-168,110	-148,623	0,042	-0,002
-167,096	13,641	-0,091	0,050
-166,081	38,900	-0,113	-0,071
-165,066	128,257	0,070	-0,063
-164,052	-171,313	-0,135	-0,003
-163,037	-200,000	0,007	-0,026
-162,023	-200,000	-0,008	0,157
-161,008	323,006	-0,020	-0,027
-159,993	-89,361	0,061	-0,013
-158,979	-200,000	-0,014	-0,140
-157,964	-130,389	0,152	0,014
-156,950	800,000	0,040	0,102
-155,935	-133,090	0,048	0,004
-154,920	415,051	0,116	0,176
-153,906	19,777	0,065	0,037
-152,891	800,000	0,067	0,136
-151,877	-142,098	0,090	0,006
-150,862	298,284	0,042	0,056
-149,847	-168,130	0,051	0,001
-148,833	231,722	-0,037	-0,043
-147,818	131,754	0,059	0,054
-146,804	-111,897	0,190	0,027
-145,789	497,696	0,027	0,044
-144,775	-200,000	0,038	-0,125
-143,760	799,199	0,057	-0,112
-142,745	-16,938	-0,175	0,078
-141,731	-25,090	0,158	-0,066
-140,716	800,000	0,006	-0,018
-139,702	259,039	0,089	0,109
-138,687	417,801	-0,054	0,083
-137,672	-200,000	-0,005	-0,050
-136,658	800,000	-0,023	0,060
-135,643	637,595	-0,100	-0,182
-134,629	121,433	0,063	-0,056
-133,614	-80,816	0,082	-0,019
-132,599	337,597	-0,035	0,049
-131,585	800,000	0,030	-0,070
-130,570	-88,378	-0,064	0,014
-129,556	-87,792	-0,118	-0,025
-128,541	800,000	-0,009	-0,021
-127,526	248,477	0,116	-0,139
-126,512	254,422	-0,091	0,111
-125,497	170,211	0,078	0,079
-124,483	6,953	0,103	0,054
-123,468	-65,523	-0,108	-0,031
-122,453	372,640	0,085	-0,124
-121,439	171,232	-0,164	-0,168
-120,424	-200,000	-0,005	0,072
-119,410	-79,303	0,070	0,017
