DTS Sentinel unit serial number:	SN410029Multiplexer serial number:	ORYXHardware model number:	OX2-SRSoftware version number:	ORYX F/W v4,00 Oryx Data Collector v3.7.2.0data status	okinstallation	B6 Nyhavnadifferential loss correction	single-endedforward channel	channel 2reverse channel	N/Adate	2023/12/10time	11:15:08forward acquisition time	300,00reverse acquisition time	0,00gamma	499,1914k internal	0,3123k external	0,3123temperature offset calibration	1,0000default loss term (dB/km)	0,3820temperature slope calibration	1,0000multiplexer offset coefficient	1,0000multiplexer slope coefficient	1,0000fibre end	0,00T internal ref (°C)	22,63T ext. ref 1 (°C)	6,53T ext. ref 2 (°C)	6,53length (m)	temperature (°C)	Stokes	anti-Stokes-744,400	-186,629	0,074	-0,001
-743,385	-107,873	-0,309	0,050
-742,371	-89,441	0,126	0,027
-741,356	-69,012	-0,201	0,057
-740,342	800,000	0,007	-0,022
-739,327	63,802	-0,145	0,108
-738,312	103,420	0,151	-0,132
-737,298	-35,243	-0,293	0,118
-736,283	176,740	0,070	-0,076
-735,269	-62,227	-0,225	0,069
-734,254	-200,000	-0,020	0,102
-733,239	-61,838	-0,364	-0,113
-732,225	-200,000	-0,000	-0,027
-731,210	800,000	-0,012	-0,036
-730,196	-200,000	0,001	0,149
-729,181	-180,363	0,128	-0,002
-728,167	290,038	-0,065	-0,088
-727,152	261,420	-0,062	0,080
-726,137	-200,000	-0,003	-0,041
-725,123	-46,811	-0,146	-0,053
-724,108	800,000	0,041	-0,123
-723,094	-92,749	-0,183	0,038
-722,079	-148,792	-0,094	0,006
-721,064	90,826	-0,133	-0,111
-720,050	-200,000	0,032	-0,125
-719,035	-200,000	-0,002	-0,200
-718,021	800,000	-0,041	-0,126
-717,006	-32,458	-0,224	-0,093
-715,991	-113,681	-0,205	-0,029
-714,977	27,281	-0,048	0,030
-713,962	-200,000	-0,001	-0,113
-712,948	135,590	-0,115	-0,111
-711,933	-43,789	-0,121	0,045
-710,918	628,535	0,060	0,113
-709,904	-200,000	0,014	0,057
-708,889	800,000	0,033	-0,086
-707,875	-40,225	-0,125	-0,048
-706,860	800,000	0,024	-0,067
-705,845	-159,421	0,039	0,002
-704,831	27,747	0,063	-0,040
-703,816	43,127	-0,149	0,101
-702,802	800,000	0,022	0,070
-701,787	-51,296	-0,147	-0,051
-700,772	364,792	0,023	-0,035
-699,758	800,000	0,039	0,110
-698,743	-46,477	-0,121	0,044
-697,729	800,000	0,058	0,146
-696,714	37,847	-0,096	0,063
-695,699	-11,407	-0,010	0,005
-694,685	-200,000	0,018	-0,076
-693,670	124,747	-0,113	-0,106
-692,656	146,026	0,048	-0,048
-691,641	523,083	-0,040	0,071
-690,627	-20,735	0,062	0,028
-689,612	-102,107	0,127	0,022
-688,597	486,943	-0,041	-0,070
-687,583	-200,000	0,014	-0,047
-686,568	573,004	-0,046	-0,083
-685,554	800,000	0,026	0,068
-684,539	82,334	0,125	-0,101
-683,524	-183,706	0,165	0,002
-682,510	800,000	0,012	0,040
-681,495	-55,256	0,084	-0,028
-680,481	16,226	-0,014	-0,008
-679,466	136,911	-0,093	-0,090
-678,451	247,994	0,063	0,080
-677,437	247,031	0,032	-0,041
-676,422	439,501	0,092	0,150
-675,408	316,458	-0,104	0,147
-674,393	58,249	0,059	-0,043
-673,378	-200,000	-0,048	0,171
-672,364	-120,039	-0,141	-0,018
-671,349	429,099	0,071	0,114
-670,335	-200,000	0,004	-0,042
-669,320	80,845	-0,052	0,041
-668,305	48,761	-0,041	0,028
-667,291	361,385	0,042	-0,063
-666,276	229,893	-0,060	-0,073
-665,262	253,246	-0,068	-0,086
-664,247	102,698	0,063	-0,054
-663,232	549,440	-0,015	-0,028
-662,218	-161,332	0,083	-0,003
-661,203	-200,000	-0,003	0,102
-660,189	124,113	0,078	-0,073
-659,174	49,332	-0,049	0,034
-658,159	163,158	0,075	-0,079
-657,145	-159,287	0,053	0,002
-656,130	800,000	-0,017	0,036
-655,116	-200,000	0,045	-0,153
-654,101	460,272	-0,037	0,061
-653,086	-200,000	0,005	-0,083
-652,072	-54,689	-0,052	0,017
-651,057	-200,000	-0,014	-0,099
-650,043	382,204	0,038	-0,059
-649,028	800,000	0,009	0,021
-648,014	246,891	-0,050	-0,062
-646,999	800,000	0,013	-0,027
-645,984	13,815	-0,051	0,029
-644,970	11,083	-0,069	-0,039
-643,955	314,049	0,075	-0,105
-642,941	800,000	-0,052	0,131
-641,926	160,631	0,056	0,058
-640,911	-200,000	0,016	0,086
-639,897	-200,000	-0,007	0,057
-638,882	606,411	0,017	0,032
-637,868	120,940	-0,073	-0,067
-636,853	703,597	-0,107	-0,210
-635,838	76,262	0,077	-0,060
-634,824	37,301	0,078	0,051
-633,809	-44,612	0,117	0,043
-632,795	-83,491	-0,041	0,010
-631,780	67,080	0,043	-0,033
-630,765	-200,000	-0,004	0,021
-629,751	-200,000	0,009	-0,071
-628,736	-158,516	-0,090	-0,004
-627,722	-37,884	0,077	-0,030
-626,707	800,000	-0,027	-0,086
-625,692	50,360	0,081	-0,057
-624,678	-46,560	-0,079	0,028
-623,663	800,000	0,036	0,078
-622,649	219,648	0,018	0,021
-621,634	-183,027	-0,093	0,001
-620,619	7,337	-0,125	0,069
-619,605	143,051	0,124	0,122
-618,590	767,828	0,040	0,080
-617,576	800,000	0,055	0,127
-616,561	-142,508	0,127	-0,009
-615,546	52,928	-0,031	-0,022
-614,532	-200,000	-0,005	-0,040
-613,517	-200,000	-0,012	-0,198
-612,503	38,179	-0,085	-0,056
-611,488	-200,000	-0,005	-0,024
-610,474	584,530	0,075	0,138
-609,459	-191,177	0,116	-0,001
-608,444	423,223	-0,039	-0,063
-607,430	-200,000	0,002	0,020
-606,415	39,655	-0,070	0,047
-605,401	456,293	-0,058	-0,095
-604,386	800,000	-0,035	-0,104
-603,371	-200,000	0,005	-0,105
-602,357	308,303	0,060	0,084
-601,342	-200,000	-0,001	-0,079
-600,328	-88,567	-0,139	0,030
-599,313	-200,000	0,013	-0,086
-598,298	800,000	-0,024	-0,058
-597,284	800,000	0,032	0,096
-596,269	17,562	0,134	-0,079
-595,255	-200,000	0,025	0,148
-594,240	-200,000	-0,012	0,140
-593,225	-47,416	-0,100	0,036
-592,211	-120,596	-0,128	-0,016
-591,196	93,098	-0,027	0,023
-590,182	658,285	0,054	-0,103
-589,167	-200,000	0,003	0,211
-588,152	163,798	-0,039	0,040
-587,138	-200,000	-0,005	0,071
-586,123	226,025	-0,008	-0,010
-585,109	-200,000	-0,001	-0,024
-584,094	26,327	-0,118	-0,073
-583,079	153,830	-0,124	0,126
-582,065	78,668	0,071	0,056
-581,050	-200,000	0,035	-0,121
-580,036	-17,316	-0,115	-0,053
-579,021	-200,000	-0,035	-0,128
-578,006	790,241	-0,028	-0,057
-576,992	217,688	-0,078	-0,092
-575,977	-200,000	0,010	0,108
-574,963	-200,000	0,026	0,094
-573,948	221,125	0,079	0,094
-572,934	-122,050	0,034	0,004
-571,919	141,629	-0,099	-0,097
-570,904	-60,100	0,021	0,007
-569,890	-27,681	0,108	-0,046
-568,875	-200,000	0,006	-0,075
-567,861	112,225	0,059	0,052
-566,846	341,005	0,041	0,059
-565,831	-200,000	-0,032	0,115
-564,817	84,543	0,041	-0,033
-563,802	275,774	0,056	-0,074
-562,788	-200,000	-0,011	-0,079
-561,773	-200,000	0,023	0,119
-560,758	80,597	0,198	0,158
-559,744	-60,751	0,018	0,006
-558,729	800,000	0,011	-0,030
-557,715	-46,928	-0,081	0,029
-556,700	79,703	0,148	-0,117
-555,685	800,000	0,032	-0,071
-554,671	-200,000	-0,002	0,040
-553,656	800,000	-0,023	-0,064
-552,642	25,939	0,023	-0,014
-551,627	-200,000	0,024	0,095
-550,612	-200,000	-0,003	-0,017
-549,598	407,240	-0,040	-0,063
-548,583	-9,857	-0,019	0,009
-547,569	-200,000	0,015	-0,070
-546,554	800,000	-0,091	0,232
-545,539	-91,467	0,164	0,034
-544,525	-92,996	0,147	0,030
-543,510	58,987	0,104	-0,076
-542,496	252,275	-0,058	0,073
-541,481	-200,000	0,011	0,079
-540,466	52,980	0,072	-0,051
-539,452	89,232	0,079	0,065
-538,437	-117,210	-0,042	0,006
-537,423	106,274	0,058	-0,051
-536,408	-60,049	0,045	-0,014
-535,393	649,307	-0,067	-0,126
-534,379	800,000	0,021	0,046
-533,364	499,011	0,038	-0,065
-532,350	-35,193	-0,077	0,031
-531,335	124,119	0,072	0,066
-530,321	-49,261	0,106	0,037
-529,306	-131,856	-0,122	-0,012
-528,291	230,402	-0,100	-0,121
-527,277	6,761	-0,093	-0,051
-526,262	-143,754	0,025	-0,002
-525,248	-104,415	0,129	-0,022
-524,233	192,639	-0,058	-0,065
-523,218	329,575	0,067	-0,096
-522,204	-200,000	-0,003	0,025
-521,189	139,582	-0,123	-0,120
-520,175	-43,245	-0,101	-0,037
-519,160	-89,896	-0,056	-0,012
-518,145	-78,110	-0,027	-0,007
-517,131	-200,000	-0,003	0,117
-516,116	-184,142	-0,109	0,001
-515,102	-200,000	0,003	-0,020
-514,087	211,552	-0,076	0,088
-513,072	5,448	0,038	0,021
-512,058	340,165	-0,091	-0,131
-511,043	205,058	0,043	0,049
-510,029	464,825	-0,087	0,145
-509,014	717,615	0,055	0,107
-507,999	460,456	-0,026	0,043
-506,985	-200,000	-0,005	0,046
-505,970	800,000	-0,024	0,058
-504,956	113,330	0,038	0,034
-503,941	-200,000	0,020	0,121
-502,926	-114,458	0,113	0,016
-501,912	-200,000	-0,004	0,118
-500,897	612,802	0,022	0,040
-499,883	-185,473	-0,099	0,001
-498,868	-80,074	-0,098	0,024
-497,853	-63,640	-0,095	-0,029
-496,839	-200,000	-0,010	-0,159
-495,824	224,814	0,016	-0,019
-494,810	-11,075	0,062	0,030
-493,795	461,306	0,039	-0,065
-492,781	-5,203	-0,118	-0,060
-491,766	-200,000	0,006	0,053
-490,751	-200,000	0,001	-0,086
-489,737	-18,990	-0,129	-0,059
-488,722	-200,000	-0,010	-0,109
-487,708	-7,582	0,159	0,079
-486,693	-27,781	-0,063	0,027
-485,678	-102,391	-0,166	-0,029
-484,664	-18,115	0,089	-0,041
-483,649	509,942	-0,055	-0,095
-482,635	-167,822	-0,034	0,001
-481,620	144,977	0,013	0,013
-480,605	-96,590	-0,053	-0,010
-479,591	-65,061	-0,060	0,018
-478,576	73,887	-0,059	0,045
-477,562	108,348	-0,113	-0,100
-476,547	82,745	-0,052	0,042
-475,532	73,261	0,059	-0,046
-474,518	48,999	-0,073	0,050
-473,503	282,427	0,098	0,130
-472,489	-200,000	-0,004	0,024
-471,474	-200,000	0,001	0,011
-470,459	56,303	-0,092	-0,066
-469,445	-200,000	0,018	-0,154
-468,430	-102,873	-0,099	0,017
-467,416	-41,808	-0,082	-0,031
-466,401	-94,801	0,078	-0,016
-465,386	-200,000	0,005	0,093
-464,372	-1,078	0,050	-0,026
-463,357	-200,000	-0,013	-0,092
-462,343	410,467	0,054	-0,085
-461,328	800,000	0,016	-0,045
-460,313	-79,167	-0,024	0,006
-459,299	-64,827	0,034	-0,010
-458,284	392,231	-0,100	0,154
-457,270	-200,000	0,029	0,156
-456,255	184,902	0,021	-0,023
-455,241	30,702	-0,083	0,052
-454,226	-200,000	0,006	-0,146
-453,211	-17,500	0,193	-0,089
-452,197	358,300	0,042	0,063
-451,182	-200,000	-0,007	0,028
-450,168	-143,703	-0,136	0,009
-449,153	-102,430	0,051	-0,009
-448,138	46,563	0,077	-0,052
-447,124	-69,436	-0,104	-0,029
-446,109	222,600	0,080	-0,095
-445,095	-2,901	0,093	0,048
-444,080	12,812	0,111	-0,063
-443,065	-149,596	-0,124	-0,007
-442,051	169,307	0,031	-0,033
-441,036	-200,000	-0,008	-0,223
-440,022	-200,000	-0,001	-0,073
-439,007	105,590	0,036	-0,031
-437,992	204,678	-0,077	-0,088
-436,978	-51,554	-0,082	-0,028
-435,963	-200,000	-0,022	0,101
-434,949	800,000	0,090	-0,217
-433,934	800,000	-0,010	0,030
-432,919	248,493	-0,034	-0,042
-431,905	48,906	-0,026	-0,018
-430,890	628,468	-0,052	0,097
-429,876	733,445	-0,030	0,059
-428,861	74,656	0,108	-0,083
-427,846	505,144	-0,038	-0,066
-426,832	-200,000	0,028	0,107
-425,817	-144,367	-0,168	-0,011
-424,803	80,380	0,117	-0,092
-423,788	200,338	0,029	0,033
-422,773	-200,000	0,031	0,148
-421,759	175,886	0,058	0,062
-420,744	138,599	0,044	0,043
-419,730	-21,181	-0,115	0,052
-418,715	-200,000	-0,005	0,031
-417,701	675,393	-0,061	0,118
-416,686	-4,219	0,196	0,099
-415,671	68,536	0,156	0,117
-414,657	179,941	-0,075	0,081
-413,642	-200,000	-0,010	-0,040
-412,628	-200,000	0,009	-0,151
-411,613	671,198	-0,064	-0,123
-410,598	-200,000	-0,018	-0,105
-409,584	233,056	0,041	0,049
-408,569	378,429	0,087	0,131
-407,555	-44,389	-0,057	0,021
-406,540	43,404	-0,072	-0,048
-405,525	800,000	-0,071	-0,169
-404,511	-77,399	-0,088	0,022
-403,496	134,026	0,062	-0,059
-402,482	-7,266	0,099	-0,049
-401,467	800,000	-0,024	0,060
-400,452	-200,000	0,011	-0,082
-399,438	800,000	0,065	0,146
-398,423	-12,282	-0,136	-0,065
-397,409	-130,285	-0,127	0,013
-396,394	-117,647	-0,013	0,002
-395,379	-200,000	-0,018	-0,123
-394,365	-200,000	-0,012	-0,045
-393,350	67,538	0,036	0,027
-392,336	634,428	-0,062	0,116
-391,321	347,373	-0,036	-0,052
-390,306	51,728	0,059	-0,041
-389,292	-200,000	-0,001	-0,012
-388,277	614,459	0,040	-0,075
-387,263	-200,000	0,000	0,019
-386,248	153,421	0,081	0,082
-385,233	611,831	-0,051	0,094
-384,219	-76,045	0,059	-0,015
-383,204	-83,054	-0,021	-0,005
-382,190	-9,179	0,062	-0,030
-381,175	-200,000	-0,036	-0,129
-380,160	-130,881	0,080	0,008
-379,146	465,190	0,010	0,016
-378,131	-84,277	-0,094	0,022
-377,117	464,379	0,046	0,076
-376,102	-112,444	-0,091	-0,013
-375,088	800,000	-0,028	0,063
-374,073	413,844	0,043	0,068
-373,058	-64,738	0,055	-0,016
-372,044	-12,813	0,094	0,045
-371,029	-200,000	-0,008	-0,048
-370,015	-6,989	-0,107	-0,053
-369,000	608,419	0,005	0,010
-367,985	145,343	0,045	-0,044
-366,971	121,974	0,049	-0,045
-365,956	6,641	0,081	0,044
-364,942	-158,486	0,119	0,005
-363,927	44,987	-0,092	0,062
-362,912	800,000	0,020	0,049
-361,898	-19,547	-0,048	-0,022
-360,883	-33,766	-0,060	0,024
-359,869	-120,397	0,089	-0,011
-358,854	800,000	-0,013	0,026
-357,839	69,782	0,079	0,059
-356,825	136,876	0,072	-0,069
-355,810	-110,115	0,097	-0,015
-354,796	800,000	-0,029	0,085
-353,781	-24,846	-0,018	-0,008
-352,766	150,871	-0,024	0,024
-351,752	800,000	0,092	0,204
-350,737	800,000	-0,014	-0,035
-349,723	-193,753	0,089	-0,001
-348,708	645,345	-0,037	-0,070
-347,693	68,520	0,019	0,015
-346,679	448,300	-0,075	-0,121
-345,664	-200,000	-0,002	-0,060
-344,650	-191,244	0,075	-0,001
-343,635	-34,292	-0,058	0,023
-342,620	-173,123	0,044	-0,001
-341,606	93,580	-0,026	0,022
-340,591	800,000	-0,090	0,209
-339,577	-200,000	-0,001	-0,122
-338,562	-118,968	-0,095	-0,012
-337,548	-98,480	0,080	-0,015
-336,533	286,823	0,034	0,045
-335,518	726,334	0,026	0,051
-334,504	-56,681	0,182	0,059
-333,489	119,747	-0,017	0,016
-332,475	-104,719	-0,076	0,013
-331,460	-0,186	-0,167	0,087
-330,445	-138,511	0,062	0,005
-329,431	-70,381	-0,148	-0,041
-328,416	-130,995	0,067	0,006
-327,402	-200,000	0,003	-0,111
-326,387	-163,876	-0,086	0,003
-325,372	-41,347	-0,076	0,029
-324,358	30,438	-0,073	0,046
-323,343	-200,000	0,006	0,021
-322,329	-200,000	0,017	0,067
-321,314	-51,571	-0,133	0,045
-320,299	35,195	-0,046	-0,029
-319,285	-9,948	0,025	0,012
-318,270	319,216	-0,023	0,032
-317,256	-200,000	0,000	-0,063
-316,241	-200,000	-0,006	0,039
-315,226	-35,104	-0,054	-0,021
-314,212	251,653	0,010	-0,013
-313,197	112,614	0,069	0,061
-312,183	14,019	-0,066	-0,038
-311,168	62,338	-0,099	0,073
-310,153	800,000	-0,012	-0,036
-309,139	-200,000	0,002	-0,033
-308,124	800,000	0,032	-0,102
-307,110	140,886	0,132	0,128
-306,095	-110,839	0,098	0,015
-305,080	151,331	0,098	0,098
-304,066	800,000	0,031	0,091
-303,051	-200,000	-0,033	-0,147
-302,037	113,339	-0,074	0,066
-301,022	239,816	-0,093	-0,114
-300,008	-20,168	0,076	-0,034
-298,993	311,947	0,024	0,033
-297,978	-200,000	-0,008	0,094
-296,964	-147,040	-0,056	-0,003
-295,949	129,338	-0,066	-0,062
-294,935	-200,000	0,015	-0,166
-293,920	-77,388	-0,079	0,020
-292,905	192,558	0,124	0,138
-291,891	-200,000	0,046	-0,000
-290,876	-120,968	0,058	0,007
-289,862	741,802	0,018	0,036
-288,847	108,337	0,101	0,088
-287,832	273,498	0,056	-0,073
-286,818	563,643	-0,040	-0,072
-285,803	-200,000	0,012	0,124
-284,789	377,605	0,013	0,019
-283,774	575,887	0,105	0,189
-282,759	40,719	0,033	0,022
-281,745	-200,000	-0,004	0,045
-280,730	-41,697	0,200	0,075
-279,716	-79,267	-0,057	-0,014
-278,701	18,529	0,008	-0,005
-277,686	122,063	-0,062	-0,056
-276,672	-200,000	-0,013	0,052
-275,657	-200,000	0,008	0,097
-274,643	68,406	0,045	-0,034
-273,628	800,000	0,074	-0,154
-272,613	800,000	0,038	0,081
-271,599	-200,000	-0,005	0,026
-270,584	39,351	-0,043	-0,028
-269,570	47,970	0,099	0,067
-268,555	-88,748	0,080	0,017
-267,540	519,939	-0,046	-0,079
-266,526	25,279	-0,020	0,012
-265,511	-200,000	-0,016	0,064
-264,497	-25,782	-0,062	-0,027
-263,482	-51,889	0,162	0,055
-262,467	800,000	0,008	0,018
-261,453	450,990	0,064	0,103
-260,438	-200,000	-0,009	-0,075
-259,424	800,000	-0,018	-0,040
-258,409	-53,890	-0,049	-0,016
-257,395	-200,000	0,029	-0,162
-256,380	-100,348	0,054	-0,010
-255,365	63,867	0,121	-0,089
-254,351	-115,530	-0,037	0,005
-253,336	-52,374	0,037	-0,013
-252,322	800,000	-0,040	-0,084
-251,307	-200,000	0,001	-0,067
-250,292	-143,101	-0,048	-0,003
-249,278	748,867	-0,059	-0,116
-248,263	800,000	-0,026	0,076
-247,249	-105,913	0,012	0,002
-246,234	800,000	0,015	0,043
-245,219	268,939	0,104	-0,134
-244,205	55,721	0,055	-0,039
-243,190	-26,920	0,053	0,023
-242,176	15,342	0,096	0,055
-241,161	-200,000	0,022	0,078
-240,146	-11,660	0,049	-0,024
-239,132	87,389	0,032	0,026
-238,117	800,000	-0,038	0,107
-237,103	340,456	-0,090	-0,128
-236,088	22,630	-0,058	-0,034
-235,073	-139,991	0,095	-0,007
-234,059	417,554	-0,019	0,030
-233,044	276,719	-0,049	-0,064
-232,030	26,942	-0,089	0,054
-231,015	800,000	-0,012	-0,029
-230,000	231,001	-0,101	0,121
-228,986	800,000	-0,044	-0,106
-227,971	66,825	-0,129	-0,096
-226,957	-200,000	0,013	-0,045
-225,942	-79,587	-0,032	0,008
-224,927	-115,536	0,102	0,014
-223,913	278,206	-0,067	-0,087
-222,898	429,178	0,030	-0,047
-221,884	399,906	-0,034	-0,052
-220,869	-200,000	0,005	-0,137
-219,855	566,468	-0,025	-0,045
-218,840	699,749	-0,047	0,091
-217,825	274,109	-0,073	-0,094
-216,811	365,954	-0,040	-0,059
-215,796	800,000	-0,025	-0,065
-214,782	-147,513	-0,199	0,012
-213,767	-89,190	-0,146	-0,031
-212,752	56,863	-0,144	0,102
-211,738	7,806	0,043	-0,024
-210,723	38,471	-0,058	0,038
-209,709	-200,000	0,003	-0,066
-208,694	277,016	0,040	-0,052
-207,679	-181,779	0,071	0,001
-206,665	800,000	0,022	0,060
-205,650	612,482	0,013	0,024
-204,636	428,124	0,050	0,079
-203,621	-200,000	-0,006	0,091
-202,606	-200,000	0,001	-0,002
-201,592	-90,341	0,037	-0,008
-200,577	52,296	0,046	0,032
-199,563	356,789	0,047	0,068
-198,548	98,819	0,132	-0,112
-197,533	-33,603	-0,129	-0,052
-196,519	800,000	0,064	0,142
-195,504	-87,904	-0,096	0,021
-194,490	800,000	-0,051	0,130
-193,475	800,000	-0,041	-0,103
-192,460	-100,798	-0,074	-0,013
-191,446	-18,768	0,141	0,064
-190,431	149,640	-0,071	-0,070
-189,417	-200,000	0,001	0,019
-188,402	-200,000	0,018	-0,086
-187,387	-200,000	0,017	0,057
-186,373	800,000	0,009	-0,019
-185,358	150,868	0,036	0,036
-184,344	184,677	0,079	0,085
-183,329	259,037	0,139	0,175
-182,315	591,428	0,033	-0,059
-181,300	30,300	0,105	-0,066
-180,285	14,063	0,102	0,058
-179,271	-167,610	-0,126	0,004
-178,256	16,772	0,061	0,035
-177,242	227,890	0,061	-0,073
-176,227	-169,493	0,096	-0,002
-175,212	-200,000	0,000	0,137
-174,198	359,100	0,048	-0,071
-173,183	560,137	-0,050	0,089
-172,169	-110,496	-0,115	0,017
-171,154	229,744	0,045	-0,054
-170,139	-120,932	0,093	-0,011
-169,125	-200,000	0,027	0,202
-168,110	-70,370	-0,096	-0,026
-167,096	-33,043	-0,043	-0,017
-166,081	800,000	-0,046	0,094
-165,066	-200,000	-0,001	-0,129
-164,052	-200,000	-0,002	0,012
-163,037	52,469	-0,094	-0,065
-162,023	-27,803	0,277	0,116
-161,008	-161,943	-0,096	0,003
-159,993	-21,160	0,019	0,009
-158,979	800,000	0,037	-0,080
-157,964	-200,000	0,021	-0,076
-156,950	-200,000	-0,031	-0,171
-155,935	-134,090	-0,151	-0,013
-154,920	-88,761	-0,117	-0,025
-153,906	-200,000	-0,015	0,108
-152,891	574,853	-0,030	-0,053
-151,877	-173,436	0,075	0,002
-150,862	-200,000	0,007	-0,039
-149,847	-83,377	0,075	-0,017
-148,833	-200,000	-0,001	0,040
-147,818	782,494	-0,019	-0,038
-146,804	-200,000	-0,030	0,211
-145,789	185,669	0,069	0,074
-144,775	496,345	0,028	-0,047
-143,760	23,932	-0,075	-0,045
-142,745	-200,000	0,002	-0,092
-141,731	45,140	-0,058	0,039
-140,716	-200,000	-0,024	0,085
-139,702	506,632	0,049	0,083
-138,687	319,660	0,063	0,088
-137,672	-92,408	0,032	-0,006
-136,658	-123,078	-0,116	-0,013
-135,643	89,662	-0,034	0,028
-134,629	-68,770	0,017	0,005
-133,614	241,848	0,018	-0,022
-132,599	800,000	-0,042	0,089
-131,585	324,331	0,056	0,078
-130,570	800,000	0,041	-0,092
-129,556	800,000	-0,016	0,049
-128,541	-92,784	-0,204	-0,041
-127,526	-123,012	0,156	0,018
-126,512	38,635	0,182	-0,118
-125,497	800,000	-0,025	0,075
-124,483	-200,000	-0,015	-0,052
-123,468	248,933	0,041	-0,051
-122,453	-80,328	0,151	-0,036
-121,439	-200,000	0,023	-0,097
-120,424	800,000	-0,056	-0,127
-119,410	12,575	0,113	-0,063
