DTS Sentinel unit serial number:	SN410029Multiplexer serial number:	ORYXHardware model number:	OX2-SRSoftware version number:	ORYX F/W v4,00 Oryx Data Collector v3.7.2.0data status	okinstallation	B6 Nyhavnadifferential loss correction	single-endedforward channel	channel 2reverse channel	N/Adate	2023/12/11time	05:30:08forward acquisition time	300,00reverse acquisition time	0,00gamma	499,1914k internal	0,3127k external	0,3127temperature offset calibration	1,0000default loss term (dB/km)	0,3820temperature slope calibration	1,0000multiplexer offset coefficient	1,0000multiplexer slope coefficient	1,0000fibre end	0,00T internal ref (°C)	19,96T ext. ref 1 (°C)	3,10T ext. ref 2 (°C)	3,13length (m)	temperature (°C)	Stokes	anti-Stokes-744,400	-200,000	0,016	0,072
-743,385	-80,635	-0,160	0,039
-742,371	-102,660	-0,039	-0,007
-741,356	-20,815	-0,248	0,113
-740,342	800,000	0,002	-0,004
-739,327	-101,785	-0,145	0,026
-738,312	-132,576	-0,014	0,001
-737,298	-130,600	-0,239	0,024
-736,283	-60,591	0,083	-0,026
-735,269	27,194	-0,164	0,102
-734,254	-200,000	-0,009	-0,232
-733,239	-124,918	-0,449	-0,051
-732,225	142,494	0,082	0,081
-731,210	-84,430	-0,086	0,020
-730,196	-34,607	-0,032	0,013
-729,181	11,536	0,042	-0,024
-728,167	184,758	-0,043	-0,047
-727,152	-89,372	-0,035	-0,008
-726,137	383,379	-0,028	0,043
-725,123	800,000	-0,050	-0,118
-724,108	-39,299	-0,103	-0,040
-723,094	54,891	-0,115	-0,083
-722,079	-200,000	-0,031	-0,167
-721,064	-101,601	0,087	0,016
-720,050	503,217	-0,055	0,095
-719,035	-200,000	0,016	-0,064
-718,021	-200,000	-0,011	0,037
-717,006	-40,975	-0,096	0,037
-715,991	16,641	-0,107	0,063
-714,977	-200,000	0,004	-0,027
-713,962	65,429	0,101	-0,076
-712,948	30,066	0,088	0,055
-711,933	521,571	0,042	-0,074
-710,918	18,109	0,026	0,015
-709,904	-95,977	-0,238	-0,047
-708,889	-116,847	-0,116	-0,016
-707,875	-200,000	0,043	-0,209
-706,860	-200,000	-0,016	0,117
-705,845	-130,656	0,090	-0,009
-704,831	800,000	-0,006	0,016
-703,816	288,574	-0,061	0,082
-702,802	246,536	-0,062	-0,077
-701,787	-200,000	0,004	-0,223
-700,772	388,010	0,031	-0,047
-699,758	800,000	0,023	-0,061
-698,743	726,895	-0,028	-0,057
-697,729	348,061	-0,053	0,078
-696,714	-57,919	0,072	0,023
-695,699	309,176	0,048	-0,066
-694,685	-200,000	-0,031	-0,105
-693,670	245,834	0,086	-0,108
-692,656	41,654	-0,021	-0,014
-691,641	-64,267	-0,039	0,012
-690,627	-72,362	0,045	0,012
-689,612	-33,129	0,126	-0,052
-688,597	35,198	0,045	-0,029
-687,583	-200,000	0,041	-0,155
-686,568	671,146	-0,024	-0,047
-685,554	800,000	-0,054	-0,155
-684,539	-200,000	0,016	-0,071
-683,524	6,326	0,034	-0,018
-682,510	94,809	-0,032	-0,027
-681,495	387,655	0,053	-0,082
-680,481	-155,216	-0,195	-0,009
-679,466	-200,000	-0,004	-0,127
-678,451	27,754	-0,043	0,027
-677,437	-134,216	-0,105	0,009
-676,422	72,453	-0,047	-0,037
-675,408	232,150	0,049	-0,060
-674,393	415,046	-0,035	-0,055
-673,378	149,099	-0,086	0,086
-672,364	-119,201	-0,089	-0,011
-671,349	20,096	0,094	0,056
-670,335	-200,000	-0,028	0,099
-669,320	-200,000	-0,037	0,122
-668,305	-200,000	0,018	0,115
-667,291	34,762	-0,098	-0,063
-666,276	800,000	-0,071	-0,187
-665,262	-200,000	0,003	0,062
-664,247	-200,000	0,008	-0,134
-663,232	34,233	-0,042	-0,027
-662,218	100,271	0,020	0,017
-661,203	-51,703	0,102	-0,035
-660,189	245,103	-0,060	0,075
-659,174	103,346	0,064	0,055
-658,159	800,000	-0,062	-0,157
-657,145	298,937	-0,138	-0,189
-656,130	119,991	0,083	-0,076
-655,116	125,066	-0,055	0,051
-654,101	-141,372	-0,052	-0,004
-653,086	-200,000	-0,009	-0,052
-652,072	-61,375	-0,094	0,029
-651,057	430,159	0,117	-0,188
-650,043	82,939	-0,030	0,024
-649,028	-74,359	-0,136	-0,036
-648,014	-97,972	-0,083	0,016
-646,999	578,594	-0,043	0,078
-645,984	420,381	-0,018	0,029
-644,970	104,019	-0,146	-0,127
-643,955	-72,350	-0,056	0,015
-642,941	542,166	-0,010	0,018
-641,926	-200,000	0,002	-0,068
-640,911	-151,689	0,128	0,007
-639,897	-155,268	0,025	-0,001
-638,882	-200,000	0,019	0,116
-637,868	800,000	0,007	-0,017
-636,853	27,497	-0,023	0,014
-635,838	-64,189	0,022	0,007
-634,824	-40,555	-0,144	-0,055
-633,809	607,746	0,041	-0,076
-632,795	25,328	0,056	0,035
-631,780	682,604	-0,026	0,051
-630,765	800,000	0,011	0,026
-629,751	-200,000	-0,005	-0,110
-628,736	-200,000	-0,028	-0,134
-627,722	344,584	-0,077	-0,113
-626,707	51,309	0,050	-0,035
-625,692	-43,923	0,116	0,043
-624,678	-105,314	-0,052	0,009
-623,663	800,000	-0,035	-0,104
-622,649	25,297	-0,102	-0,063
-621,634	462,753	0,029	0,048
-620,619	-41,239	0,018	0,007
-619,605	-12,048	0,085	-0,041
-618,590	-125,479	0,070	0,008
-617,576	-59,493	0,074	0,023
-616,561	367,580	0,039	0,059
-615,546	279,826	-0,047	-0,062
-614,532	-200,000	-0,014	-0,150
-613,517	-57,400	-0,043	-0,014
-612,503	800,000	0,048	-0,134
-611,488	-44,288	-0,082	-0,030
-610,474	148,335	-0,031	0,031
-609,459	-67,349	0,096	0,028
-608,444	38,864	-0,051	-0,033
-607,430	-100,427	-0,065	0,012
-606,415	800,000	-0,034	-0,093
-605,401	-200,000	-0,022	0,127
-604,386	-200,000	-0,007	0,069
-603,371	186,109	-0,044	-0,049
-602,357	453,370	-0,039	0,064
-601,342	130,315	0,082	-0,078
-600,328	93,549	-0,125	-0,105
-599,313	-200,000	0,015	-0,057
-598,298	409,774	-0,035	0,055
-597,284	82,036	0,191	-0,153
-596,269	585,468	0,040	-0,074
-595,255	-200,000	0,011	0,095
-594,240	361,158	0,057	-0,084
-593,225	373,915	0,025	-0,038
-592,211	-200,000	0,004	0,046
-591,196	800,000	-0,025	-0,078
-590,182	262,036	-0,080	0,103
-589,167	64,588	0,169	0,126
-588,152	6,409	-0,110	0,060
-587,138	-37,697	-0,096	-0,038
-586,123	66,865	0,107	-0,080
-585,109	388,507	0,034	0,052
-584,094	335,835	-0,125	-0,181
-583,079	-12,872	0,091	-0,044
-582,065	-106,275	0,010	-0,002
-581,050	55,351	0,087	0,063
-580,036	271,120	0,022	-0,029
-579,021	449,140	0,010	-0,017
-578,006	-35,657	-0,059	0,024
-576,992	-200,000	-0,006	-0,027
-575,977	42,633	0,051	0,034
-574,963	-134,513	0,110	-0,010
-573,948	-61,902	0,076	-0,023
-572,934	-200,000	-0,001	0,009
-571,919	280,969	-0,103	-0,136
-570,904	800,000	0,037	-0,083
-569,890	-72,397	-0,172	0,047
-568,875	246,716	-0,013	-0,016
-567,861	-200,000	0,022	-0,081
-566,846	-23,296	0,032	-0,014
-565,831	534,188	0,038	0,067
-564,817	-33,350	-0,127	-0,052
-563,802	-72,024	-0,106	0,029
-562,788	-71,952	-0,039	-0,011
-561,773	253,285	0,022	-0,028
-560,758	-200,000	0,020	0,067
-559,744	-39,057	0,183	0,071
-558,729	-200,000	0,001	0,103
-557,715	317,569	-0,044	-0,062
-556,700	-200,000	-0,001	0,067
-555,685	113,333	-0,037	-0,033
-554,671	-78,249	-0,112	-0,028
-553,656	-135,587	0,117	0,010
-552,642	-94,528	0,074	-0,015
-551,627	-200,000	0,002	0,007
-550,612	548,806	-0,016	0,029
-549,598	320,810	-0,058	0,082
-548,583	-137,704	-0,045	-0,004
-547,569	623,044	0,009	-0,016
-546,554	-200,000	0,005	-0,066
-545,539	800,000	-0,041	0,089
-544,525	412,500	0,046	0,072
-543,510	-98,897	0,050	-0,009
-542,496	362,052	0,024	0,036
-541,481	551,873	-0,056	-0,100
-540,466	293,193	0,084	-0,114
-539,452	391,007	-0,044	-0,068
-538,437	-200,000	0,003	0,026
-537,423	-200,000	0,018	0,071
-536,408	-200,000	0,010	0,048
-535,393	-61,207	0,093	-0,029
-534,379	-200,000	0,004	-0,059
-533,364	85,410	-0,081	-0,066
-532,350	800,000	0,037	0,095
-531,335	413,770	0,029	0,045
-530,321	800,000	-0,062	0,160
-529,306	13,906	0,097	-0,056
-528,291	21,400	0,077	-0,046
-527,277	46,988	-0,071	0,049
-526,262	-54,681	-0,114	-0,038
-525,248	-200,000	0,004	-0,119
-524,233	-200,000	0,004	-0,016
-523,218	-200,000	-0,011	0,073
-522,204	185,400	0,041	0,045
-521,189	-163,355	0,144	-0,005
-520,175	800,000	-0,029	-0,095
-519,160	800,000	0,031	-0,084
-518,145	-200,000	0,042	0,174
-517,131	-56,158	-0,044	-0,014
-516,116	800,000	-0,033	0,102
-515,102	-13,997	-0,028	0,013
-514,087	157,163	0,076	-0,078
-513,072	800,000	-0,036	-0,115
-512,058	107,150	-0,076	-0,067
-511,043	-56,704	0,028	-0,009
-510,029	-103,486	0,138	0,024
-509,014	-109,580	0,070	-0,011
-507,999	800,000	0,022	-0,058
-506,985	-200,000	-0,029	-0,161
-505,970	-200,000	0,036	-0,182
-504,956	-84,931	-0,088	-0,020
-503,941	-29,392	-0,080	-0,034
-502,926	-200,000	0,000	0,114
-501,912	2,114	0,158	0,084
-500,897	343,737	0,027	-0,039
-499,883	-200,000	0,019	-0,107
-498,868	32,907	-0,135	0,086
-497,853	-200,000	-0,011	0,062
-496,839	-200,000	-0,007	-0,082
-495,824	194,016	-0,113	0,126
-494,810	-200,000	0,009	0,086
-493,795	-131,884	0,084	0,008
-492,781	-200,000	0,010	-0,055
-491,766	379,578	-0,067	-0,102
-490,751	435,793	0,009	-0,014
-489,737	800,000	0,041	-0,084
-488,722	118,113	-0,081	0,074
-487,708	70,214	-0,010	-0,008
-486,693	117,789	0,044	0,040
-485,678	217,720	-0,068	-0,080
-484,664	140,059	0,006	0,006
-483,649	-200,000	-0,020	-0,143
-482,635	-200,000	0,001	-0,089
-481,620	27,075	0,074	-0,046
-480,605	-200,000	-0,002	-0,083
-479,591	-200,000	0,001	-0,037
-478,576	351,878	-0,021	0,031
-477,562	349,706	-0,050	-0,073
-476,547	-200,000	0,036	-0,136
-475,532	492,756	-0,060	0,101
-474,518	800,000	0,029	-0,061
-473,503	144,839	0,022	0,022
-472,489	60,845	-0,090	0,066
-471,474	800,000	0,042	-0,097
-470,459	-33,258	-0,055	-0,022
-469,445	185,454	0,030	-0,032
-468,430	-200,000	0,002	0,035
-467,416	-32,996	0,145	-0,059
-466,401	800,000	0,031	0,078
-465,386	30,429	0,003	-0,002
-464,372	-142,346	0,039	-0,003
-463,357	-200,000	0,013	-0,095
-462,343	18,539	0,074	0,044
-461,328	-73,986	0,123	-0,033
-460,313	-200,000	-0,006	-0,081
-459,299	800,000	0,011	-0,032
-458,284	-127,336	0,190	-0,020
-457,270	-125,504	-0,036	-0,004
-456,255	13,488	0,084	-0,048
-455,241	103,988	0,081	-0,070
-454,226	39,671	-0,061	-0,040
-453,211	102,271	0,074	-0,064
-452,197	386,998	-0,020	0,031
-451,182	-200,000	0,005	0,090
-450,168	575,755	0,055	0,100
-449,153	-51,341	-0,190	0,065
-448,138	-56,021	0,160	-0,052
-447,124	79,384	-0,039	0,031
-446,109	182,102	0,079	0,086
-445,095	-200,000	-0,011	0,062
-444,080	336,582	-0,015	0,021
-443,065	800,000	0,048	0,114
-442,051	-200,000	-0,009	0,152
-441,036	-200,000	0,013	-0,067
-440,022	92,938	0,143	0,119
-439,007	-75,599	-0,060	-0,015
-437,992	52,468	0,110	0,077
-436,978	-200,000	-0,002	0,060
-435,963	800,000	0,012	-0,031
-434,949	35,758	-0,122	-0,079
-433,934	-200,000	-0,004	0,014
-432,919	189,582	0,050	0,055
-431,905	2,453	-0,125	-0,067
-430,890	332,172	0,042	-0,060
-429,876	92,345	0,120	-0,099
-428,861	116,968	-0,020	-0,018
-427,846	520,034	-0,078	-0,135
-426,832	-181,224	0,091	0,001
-425,817	63,123	-0,142	-0,105
-424,803	-155,374	-0,074	-0,003
-423,788	800,000	0,014	0,031
-422,773	-200,000	0,011	0,096
-421,759	124,976	0,047	-0,044
-420,744	-103,300	0,122	0,021
-419,730	-39,723	-0,151	-0,058
-418,715	-70,802	-0,170	-0,047
-417,701	-200,000	0,009	0,125
-416,686	800,000	-0,031	-0,076
-415,671	-74,364	0,084	0,022
-414,657	70,030	-0,078	0,059
-413,642	-200,000	-0,030	-0,122
-412,628	-54,963	0,037	0,012
-411,613	800,000	-0,062	0,135
-410,598	-25,661	0,055	-0,024
-409,584	-92,826	-0,053	-0,011
-408,569	562,745	0,020	0,035
-407,555	-129,753	-0,014	-0,001
-406,540	150,759	-0,017	0,017
-405,525	133,744	0,063	0,060
-404,511	-200,000	-0,008	0,051
-403,496	47,228	-0,036	0,024
-402,482	-117,900	-0,092	0,012
-401,467	-200,000	0,004	0,190
-400,452	-86,588	-0,037	0,008
-399,438	-52,291	0,150	-0,051
-398,423	-200,000	0,006	0,042
-397,409	800,000	0,091	-0,227
-396,394	800,000	0,065	-0,133
-395,379	-77,932	0,132	0,033
-394,365	-161,702	0,250	-0,009
-393,350	-200,000	-0,009	0,039
-392,336	-200,000	0,018	-0,091
-391,321	-84,637	-0,156	0,036
-390,306	31,881	0,124	-0,078
-389,292	-200,000	-0,028	-0,137
-388,277	136,701	-0,043	0,041
-387,263	152,924	-0,011	-0,011
-386,248	800,000	0,053	0,124
-385,233	800,000	-0,021	-0,046
-384,219	800,000	0,019	-0,056
-383,204	85,313	-0,039	0,031
-382,190	-200,000	-0,011	0,052
-381,175	-180,823	-0,112	-0,002
-380,160	161,266	0,083	0,086
-379,146	8,955	0,063	0,035
-378,131	800,000	0,047	0,097
-377,117	800,000	0,029	0,083
-376,102	191,393	-0,018	-0,020
-375,088	312,826	-0,110	-0,152
-374,073	-200,000	-0,022	0,179
-373,058	73,386	-0,048	-0,037
-372,044	-172,094	0,145	-0,003
-371,029	153,588	-0,083	-0,083
-370,015	-81,145	-0,093	0,022
-369,000	423,363	0,093	-0,148
-367,985	500,680	0,023	-0,040
-366,971	304,171	0,040	0,054
-365,956	569,239	0,019	0,034
-364,942	9,268	-0,013	0,007
-363,927	-200,000	-0,002	0,068
-362,912	-85,115	0,022	0,005
-361,898	617,292	-0,024	0,045
-360,883	-200,000	-0,003	-0,067
-359,869	486,777	-0,005	0,008
-358,854	-200,000	-0,000	0,005
-357,839	18,697	0,084	-0,049
-356,825	5,347	0,101	0,054
-355,810	-200,000	0,036	0,124
-354,796	-83,411	0,062	0,015
-353,781	195,449	-0,156	-0,174
-352,766	282,195	0,011	0,015
-351,752	339,070	0,018	-0,026
-350,737	800,000	-0,013	0,026
-349,723	-67,932	-0,128	-0,037
-348,708	293,684	0,081	0,109
-347,693	800,000	-0,017	0,046
-346,679	165,507	-0,079	-0,082
-345,664	-137,075	0,152	0,013
-344,650	800,000	-0,033	0,074
-343,635	0,724	-0,061	0,032
-342,620	-69,983	0,137	0,038
-341,606	7,314	0,067	0,037
-340,591	60,148	0,040	0,029
-339,577	100,212	-0,040	-0,034
-338,562	800,000	0,057	-0,129
-337,548	220,917	-0,078	0,091
-336,533	-200,000	0,002	0,050
-335,518	-141,895	0,036	0,003
-334,504	-52,604	-0,090	0,030
-333,489	21,573	-0,037	-0,022
-332,475	281,278	-0,043	-0,057
-331,460	610,050	-0,035	-0,065
-330,445	134,878	-0,003	-0,003
-329,431	64,344	0,074	-0,055
-328,416	347,123	0,018	-0,026
-327,402	27,126	-0,088	-0,054
-326,387	-66,135	0,054	-0,016
-325,372	-178,012	-0,127	0,002
-324,358	-154,888	0,009	-0,000
-323,343	381,664	0,025	-0,038
-322,329	175,867	-0,152	0,162
-321,314	800,000	0,085	0,209
-320,299	-76,022	-0,061	-0,016
-319,285	-200,000	-0,017	0,186
-318,270	-133,633	0,078	-0,007
-317,256	26,554	-0,194	-0,119
-316,241	-200,000	-0,008	-0,094
-315,226	37,369	-0,097	-0,063
-314,212	800,000	0,031	-0,074
-313,197	790,565	0,040	0,080
-312,183	-200,000	-0,009	0,124
-311,168	-143,662	-0,151	0,010
-310,153	-200,000	-0,003	0,188
-309,139	800,000	-0,037	0,106
-308,124	-200,000	0,004	-0,036
-307,110	-200,000	-0,023	0,110
-306,095	676,289	0,021	-0,040
-305,080	-78,445	0,138	-0,034
-304,066	13,641	0,153	-0,087
-303,051	291,434	0,081	-0,109
-302,037	110,680	-0,072	-0,063
-301,022	77,803	0,084	0,066
-300,008	-0,670	-0,091	0,047
-298,993	70,307	0,132	0,100
-297,978	196,057	0,057	0,063
-296,964	-200,000	0,013	0,046
-295,949	-73,522	-0,059	-0,016
-294,935	-200,000	-0,054	-0,225
-293,920	-200,000	0,016	0,102
-292,905	-28,646	0,151	0,063
-291,891	-106,207	0,165	0,027
-290,876	-200,000	-0,017	0,093
-289,862	345,923	0,035	-0,051
-288,847	-92,100	-0,165	-0,034
-287,832	-34,731	0,148	-0,059
-286,818	-55,073	-0,151	0,050
-285,803	780,189	0,046	-0,093
-284,789	486,726	0,029	0,049
-283,774	355,488	-0,086	0,125
-282,759	800,000	0,054	0,126
-281,745	369,896	-0,059	-0,088
-280,730	86,409	-0,039	-0,032
-279,716	-200,000	0,005	-0,067
-278,701	128,207	0,193	0,180
-277,686	-58,837	-0,097	0,030
-276,672	800,000	-0,032	0,098
-275,657	458,807	0,052	0,085
-274,643	-55,879	-0,185	-0,060
-273,628	-85,852	-0,131	-0,029
-272,613	31,739	-0,055	0,034
-271,599	337,728	0,037	0,053
-270,584	-1,789	-0,059	0,030
-269,570	-41,184	-0,061	0,023
-268,555	477,637	-0,037	-0,062
-267,540	-74,299	0,002	0,001
-266,526	-82,973	-0,073	-0,017
-265,511	-200,000	-0,033	0,178
-264,497	131,522	0,052	-0,049
-263,482	-200,000	0,002	0,037
-262,467	-200,000	-0,006	-0,068
-261,453	209,819	0,068	0,078
-260,438	-30,098	-0,048	0,020
-259,424	569,824	-0,074	0,133
-258,409	45,060	-0,129	-0,087
-257,395	-28,234	0,088	0,037
-256,380	124,097	-0,058	0,053
-255,365	-159,506	-0,041	-0,002
-254,351	-62,364	0,040	0,012
-253,336	349,756	-0,038	-0,054
-252,322	-74,259	-0,029	-0,008
-251,307	6,924	-0,073	-0,040
-250,292	-200,000	0,030	-0,109
-249,278	124,775	0,170	0,157
-248,263	-200,000	-0,014	0,086
-247,249	800,000	0,016	0,044
-246,234	163,633	-0,054	-0,055
-245,219	52,168	-0,140	0,097
-244,205	192,409	-0,086	0,094
-243,190	162,462	0,038	-0,039
-242,176	-32,877	-0,105	-0,043
-241,161	-111,509	0,097	-0,014
-240,146	405,835	-0,056	0,086
-239,132	617,010	-0,054	-0,099
-238,117	-200,000	0,028	-0,147
-237,103	-190,657	-0,055	0,000
-236,088	800,000	-0,062	-0,155
-235,073	-56,612	0,011	0,004
-234,059	800,000	-0,064	0,154
-233,044	-72,470	-0,039	-0,010
-232,030	-200,000	0,002	0,042
-231,015	716,512	-0,004	-0,009
-230,000	-96,180	-0,053	-0,010
-228,986	800,000	0,014	-0,032
-227,971	-71,012	0,059	0,016
-226,957	-200,000	0,013	0,146
-225,942	122,888	0,020	0,018
-224,927	800,000	-0,042	-0,098
-223,913	-37,055	-0,128	-0,050
-222,898	-23,109	0,102	0,044
-221,884	-157,126	-0,148	0,006
-220,869	-200,000	-0,016	0,083
-219,855	800,000	0,025	0,068
-218,840	-200,000	-0,016	0,110
-217,825	-200,000	-0,014	0,128
-216,811	-200,000	0,021	-0,145
-215,796	118,357	0,092	-0,082
-214,782	-200,000	0,014	0,054
-213,767	800,000	-0,036	0,077
-212,752	-119,458	0,062	0,008
-211,738	122,547	0,061	0,056
-210,723	-69,662	-0,045	0,012
-209,709	-200,000	0,016	0,078
-208,694	-200,000	0,015	-0,065
-207,679	800,000	0,066	-0,134
-206,665	131,495	0,047	-0,044
-205,650	800,000	0,064	0,144
-204,636	-200,000	0,032	0,130
-203,621	55,452	-0,024	-0,017
-202,606	640,354	0,028	0,051
-201,592	302,124	-0,077	-0,104
-200,577	800,000	-0,013	-0,032
-199,563	800,000	-0,028	-0,086
-198,548	-200,000	0,013	0,048
-197,533	-200,000	0,066	0,220
-196,519	-200,000	0,005	-0,110
-195,504	-200,000	0,005	0,087
-194,490	334,098	-0,026	-0,036
-193,475	-200,000	-0,009	-0,043
-192,460	135,740	0,056	0,053
-191,446	109,660	0,076	-0,066
-190,431	-200,000	0,020	0,079
-189,417	800,000	0,052	-0,107
-188,402	343,558	0,086	-0,123
-187,387	-200,000	0,001	-0,133
-186,373	-200,000	0,050	0,186
-185,358	-61,183	-0,154	-0,047
-184,344	-200,000	0,004	-0,054
-183,329	800,000	0,038	0,084
-182,315	-163,674	0,070	0,002
-181,300	-43,726	0,059	0,021
-180,285	5,984	-0,074	0,040
-179,271	-24,126	-0,108	0,047
-178,256	-200,000	0,005	-0,090
-177,242	22,108	-0,093	0,055
-176,227	60,096	-0,032	0,023
-175,212	-200,000	0,004	-0,015
-174,198	700,675	-0,041	-0,079
-173,183	-200,000	0,000	-0,015
-172,169	-200,000	0,011	0,073
-171,154	-21,424	-0,116	-0,052
-170,139	74,232	-0,036	0,027
-169,125	618,440	0,042	0,076
-168,110	105,183	-0,090	0,078
-167,096	261,008	0,087	-0,110
-166,081	-79,611	-0,134	-0,033
-165,066	-200,000	0,010	-0,058
-164,052	-200,000	0,017	-0,095
-163,037	-56,345	0,081	-0,026
-162,023	-200,000	0,016	0,093
-161,008	332,799	-0,054	-0,076
-159,993	-200,000	0,001	0,104
-158,979	327,689	0,032	0,045
-157,964	224,785	-0,063	0,074
-156,950	35,979	-0,075	-0,048
-155,935	496,825	0,051	0,085
-154,920	377,026	-0,007	0,011
-153,906	-35,080	0,062	0,025
-152,891	32,992	0,069	0,043
-151,877	-0,123	-0,156	-0,080
-150,862	-102,229	-0,117	-0,020
-149,847	-200,000	0,013	0,075
-148,833	196,810	0,034	0,038
-147,818	800,000	-0,005	-0,013
-146,804	-163,365	0,105	0,004
-145,789	-9,154	0,124	-0,060
-144,775	101,662	-0,160	-0,136
-143,760	-194,239	-0,059	-0,000
-142,745	800,000	-0,048	-0,113
-141,731	800,000	-0,025	-0,062
-140,716	-28,583	-0,077	-0,032
-139,702	-200,000	0,055	-0,195
-138,687	197,933	0,122	-0,135
-137,672	771,806	0,035	0,069
-136,658	167,047	-0,121	0,125
-135,643	514,158	-0,063	-0,107
-134,629	338,986	0,038	-0,054
-133,614	17,599	-0,070	-0,040
-132,599	-50,032	0,135	0,046
-131,585	81,802	0,079	0,062
-130,570	-200,000	0,003	-0,029
-129,556	800,000	-0,037	-0,102
-128,541	670,212	0,033	-0,063
-127,526	800,000	-0,007	0,020
-126,512	-200,000	-0,022	0,156
-125,497	-19,476	0,122	0,055
-124,483	800,000	-0,022	0,064
-123,468	-200,000	0,014	0,092
-122,453	800,000	-0,021	-0,062
-121,439	-136,880	0,018	0,001
-120,424	70,908	-0,029	-0,022
-119,410	-200,000	0,003	-0,147
