DTS Sentinel unit serial number:	SN410029Multiplexer serial number:	ORYXHardware model number:	OX2-SRSoftware version number:	ORYX F/W v4,00 Oryx Data Collector v3.7.2.0data status	okinstallation	B6 Nyhavnadifferential loss correction	single-endedforward channel	channel 2reverse channel	N/Adate	2023/12/07time	16:00:08forward acquisition time	300,00reverse acquisition time	0,00gamma	499,1914k internal	0,3165k external	0,3165temperature offset calibration	1,0000default loss term (dB/km)	0,3820temperature slope calibration	1,0000multiplexer offset coefficient	1,0000multiplexer slope coefficient	1,0000fibre end	0,00T internal ref (°C)	14,50T ext. ref 1 (°C)	-2,08T ext. ref 2 (°C)	-2,07length (m)	temperature (°C)	Stokes	anti-Stokes-744,400	154,432	-0,090	0,091
-743,385	-72,511	-0,461	-0,124
-742,371	138,893	0,126	0,122
-741,356	-171,577	-0,306	0,007
-740,342	-147,874	0,135	-0,008
-739,327	-160,346	-0,407	0,016
-738,312	-200,000	0,000	0,004
-737,298	30,197	-0,320	-0,201
-736,283	379,169	0,041	-0,062
-735,269	-38,565	-0,347	-0,134
-734,254	213,630	-0,058	0,067
-733,239	-37,772	-0,478	-0,186
-732,225	-15,073	0,214	0,100
-731,210	120,116	0,106	0,097
-730,196	171,734	-0,072	0,076
-729,181	134,953	-0,125	-0,119
-728,167	-121,775	0,054	-0,007
-727,152	800,000	0,061	-0,155
-726,137	-73,012	-0,079	0,021
-725,123	-65,700	-0,088	0,026
-724,108	-53,642	-0,090	-0,030
-723,094	800,000	-0,092	-0,222
-722,079	-200,000	-0,002	-0,055
-721,064	-77,951	-0,041	0,010
-720,050	-46,929	0,071	-0,025
-719,035	-200,000	0,022	-0,110
-718,021	227,037	-0,046	-0,055
-717,006	74,050	-0,052	-0,040
-715,991	-132,069	-0,128	0,012
-714,977	-82,312	-0,147	0,035
-713,962	-200,000	0,019	-0,076
-712,948	138,050	0,075	0,072
-711,933	-51,694	-0,012	-0,004
-710,918	750,565	-0,050	-0,100
-709,904	490,033	-0,072	-0,121
-708,889	443,980	-0,025	-0,040
-707,875	-171,944	-0,072	0,002
-706,860	174,162	-0,115	-0,122
-705,845	-200,000	0,006	0,042
-704,831	-187,280	0,151	0,001
-703,816	-136,168	-0,216	0,018
-702,802	-99,901	0,086	0,016
-701,787	28,847	-0,166	-0,103
-700,772	-170,945	-0,107	-0,003
-699,758	-48,266	-0,054	0,019
-698,743	-73,342	0,138	0,037
-697,729	111,615	0,070	0,062
-696,714	800,000	-0,049	-0,115
-695,699	-48,342	-0,073	-0,026
-694,685	161,613	-0,044	0,045
-693,670	-200,000	-0,025	-0,098
-692,656	-167,048	0,090	-0,003
-691,641	800,000	0,015	0,041
-690,627	-72,931	0,105	-0,028
-689,612	-46,299	-0,016	-0,006
-688,597	-123,393	0,015	-0,002
-687,583	-23,516	0,085	-0,037
-686,568	-106,066	0,045	0,007
-685,554	2,190	0,035	-0,018
-684,539	800,000	-0,034	-0,102
-683,524	-200,000	0,024	0,084
-682,510	-42,662	-0,011	-0,004
-681,495	800,000	0,011	-0,031
-680,481	111,999	-0,050	0,044
-679,466	800,000	-0,021	-0,062
-678,451	475,315	0,008	0,013
-677,437	-99,299	0,038	0,007
-676,422	89,578	0,057	-0,046
-675,408	-200,000	-0,023	0,136
-674,393	800,000	0,026	-0,085
-673,378	32,948	-0,140	0,089
-672,364	800,000	-0,018	-0,056
-671,349	155,330	-0,070	-0,071
-670,335	23,822	0,059	-0,036
-669,320	243,810	0,070	0,086
-668,305	-49,220	-0,194	0,068
-667,291	-200,000	-0,001	0,006
-666,276	-200,000	-0,015	-0,142
-665,262	-21,090	-0,097	0,043
-664,247	139,839	0,056	0,054
-663,232	55,540	-0,044	-0,031
-662,218	483,702	0,076	-0,127
-661,203	-38,662	0,042	-0,016
-660,189	321,680	-0,074	0,104
-659,174	530,026	0,017	-0,030
-658,159	-200,000	-0,027	-0,095
-657,145	-149,553	-0,054	0,003
-656,130	-36,912	0,083	0,033
-655,116	-154,052	-0,101	0,005
-654,101	53,176	0,112	0,079
-653,086	457,499	0,036	-0,058
-652,072	24,575	-0,087	0,053
-651,057	-32,123	-0,067	-0,027
-650,043	207,980	-0,048	0,054
-649,028	-200,000	-0,021	-0,112
-648,014	800,000	0,036	-0,096
-646,999	800,000	0,037	-0,106
-645,984	97,546	-0,090	0,075
-644,970	62,717	0,097	0,071
-643,955	638,292	0,031	-0,059
-642,941	-64,789	-0,052	-0,015
-641,926	104,934	-0,029	0,025
-640,911	354,124	-0,043	-0,063
-639,897	57,999	0,069	0,050
-638,882	-200,000	-0,018	-0,111
-637,868	497,318	-0,085	-0,143
-636,853	-41,018	-0,128	-0,048
-635,838	413,404	0,038	-0,059
-634,824	-71,021	-0,097	-0,026
-633,809	190,416	-0,027	-0,030
-632,795	-114,646	-0,101	0,014
-631,780	107,973	-0,011	0,009
-630,765	-200,000	-0,004	0,013
-629,751	800,000	0,048	-0,104
-628,736	-81,391	-0,054	-0,013
-627,722	549,287	-0,044	0,078
-626,707	800,000	-0,033	-0,101
-625,692	662,877	0,056	-0,106
-624,678	223,054	-0,033	0,039
-623,663	256,732	0,053	0,066
-622,649	-37,193	-0,165	-0,064
-621,634	800,000	-0,035	-0,099
-620,619	723,532	-0,013	-0,026
-619,605	-200,000	0,002	0,062
-618,590	265,617	0,079	0,100
-617,576	-200,000	0,011	0,099
-616,561	146,192	-0,082	0,081
-615,546	140,889	0,021	0,021
-614,532	800,000	-0,009	-0,024
-613,517	440,600	0,056	-0,090
-612,503	800,000	0,090	0,227
-611,488	238,671	0,130	0,158
-610,474	-51,439	-0,108	0,037
-609,459	472,460	0,035	-0,059
-608,444	511,129	-0,030	-0,051
-607,430	800,000	-0,011	-0,023
-606,415	43,737	-0,052	-0,034
-605,401	-200,000	0,011	0,046
-604,386	-200,000	0,012	-0,045
-603,371	181,920	-0,022	-0,024
-602,357	-122,977	-0,099	0,012
-601,342	22,827	0,019	-0,011
-600,328	-12,601	-0,058	0,028
-599,313	-200,000	0,012	-0,093
-598,298	-67,926	-0,153	-0,043
-597,284	800,000	-0,021	0,053
-596,269	-99,900	-0,071	0,013
-595,255	-15,850	0,156	-0,072
-594,240	-16,569	-0,036	-0,017
-593,225	800,000	0,039	0,087
-592,211	-85,854	-0,104	-0,023
-591,196	36,626	0,070	0,045
-590,182	247,552	-0,049	-0,061
-589,167	-152,114	0,098	-0,005
-588,152	25,447	0,040	-0,024
-587,138	800,000	0,058	-0,149
-586,123	331,366	0,060	0,084
-585,109	-200,000	-0,005	0,026
-584,094	17,965	0,062	-0,036
-583,079	254,227	0,075	-0,094
-582,065	458,827	-0,060	0,098
-581,050	-119,904	0,122	0,015
-580,036	-200,000	0,037	0,152
-579,021	-200,000	-0,031	0,144
-578,006	-133,748	0,033	0,003
-576,992	611,106	-0,045	0,082
-575,977	60,751	0,017	0,012
-574,963	-200,000	-0,008	0,096
-573,948	-200,000	0,025	0,081
-572,934	-200,000	-0,011	-0,052
-571,919	800,000	-0,024	-0,067
-570,904	360,716	-0,044	-0,065
-569,890	41,031	0,065	0,043
-568,875	-118,431	0,123	0,016
-567,861	-200,000	0,017	0,150
-566,846	7,655	0,073	0,040
-565,831	800,000	-0,053	-0,120
-564,817	255,608	0,051	-0,065
-563,802	-138,320	0,050	0,004
-562,788	660,514	0,015	0,028
-561,773	367,311	-0,026	0,038
-560,758	500,089	0,033	0,056
-559,744	94,890	0,107	-0,089
-558,729	104,597	0,049	-0,042
-557,715	16,348	0,050	0,029
-556,700	392,434	-0,044	-0,066
-555,685	-200,000	-0,032	-0,186
-554,671	800,000	0,055	0,142
-553,656	100,530	0,057	0,048
-552,642	-173,997	-0,023	-0,000
-551,627	86,763	-0,105	-0,085
-550,612	422,821	0,022	-0,035
-549,598	69,958	-0,093	0,070
-548,583	-101,848	-0,139	0,024
-547,569	614,787	0,032	-0,059
-546,554	474,001	0,065	0,107
-545,539	-200,000	-0,033	-0,112
-544,525	2,694	-0,102	0,054
-543,510	-46,788	0,141	-0,050
-542,496	-200,000	-0,007	-0,074
-541,481	87,871	-0,041	-0,033
-540,466	4,500	-0,064	-0,034
-539,452	654,183	0,035	-0,067
-538,437	-56,303	0,046	0,015
-537,423	73,334	-0,115	-0,088
-536,408	-91,501	-0,058	-0,012
-535,393	-24,944	0,021	0,009
-534,379	-9,324	0,154	-0,075
-533,364	71,790	-0,064	-0,048
-532,350	-3,893	-0,110	0,055
-531,335	29,982	0,105	0,065
-530,321	-147,205	0,089	-0,005
-529,306	-200,000	-0,001	0,016
-528,291	-17,959	0,102	-0,046
-527,277	-200,000	-0,011	0,057
-526,262	-64,395	-0,082	-0,024
-525,248	78,629	0,141	-0,110
-524,233	-200,000	0,016	0,114
-523,218	29,207	0,059	0,036
-522,204	-200,000	-0,045	-0,184
-521,189	-200,000	0,026	0,126
-520,175	-27,855	-0,039	0,017
-519,160	-161,947	-0,079	-0,003
-518,145	-200,000	-0,008	-0,037
-517,131	-200,000	0,004	0,181
-516,116	-6,130	0,046	-0,023
-515,102	-200,000	-0,042	-0,146
-514,087	-60,939	-0,029	-0,009
-513,072	-200,000	0,010	-0,047
-512,058	-200,000	0,027	0,099
-511,043	-200,000	-0,037	0,227
-510,029	-2,689	-0,165	0,084
-509,014	-79,426	0,291	0,071
-507,999	-34,712	-0,052	0,021
-506,985	-200,000	0,011	-0,136
-505,970	285,750	-0,043	-0,056
-504,956	150,355	0,061	0,060
-503,941	4,039	0,116	0,062
-502,926	-200,000	0,024	0,079
-501,912	-200,000	-0,010	0,071
-500,897	69,502	-0,042	0,032
-499,883	10,267	-0,077	0,042
-498,868	36,323	0,029	0,019
-497,853	341,091	0,059	-0,084
-496,839	-200,000	-0,004	0,027
-495,824	89,053	-0,024	-0,019
-494,810	-200,000	-0,007	0,073
-493,795	6,672	-0,103	0,056
-492,781	800,000	0,031	0,097
-491,766	440,467	-0,025	-0,040
-490,751	343,834	0,017	0,024
-489,737	800,000	0,028	-0,085
-488,722	-200,000	0,034	0,119
-487,708	113,635	0,128	0,114
-486,693	-200,000	-0,032	0,146
-485,678	-200,000	0,012	0,161
-484,664	137,148	0,041	-0,039
-483,649	171,890	0,049	-0,051
-482,635	-34,039	0,111	0,044
-481,620	31,743	0,096	0,060
-480,605	-120,561	0,109	0,013
-479,591	-200,000	-0,006	0,222
-478,576	132,498	0,060	0,056
-477,562	800,000	-0,030	0,062
-476,547	20,989	-0,072	0,042
-475,532	562,018	-0,097	-0,171
-474,518	-15,840	0,159	-0,073
-473,503	-62,640	0,088	0,026
-472,489	-101,577	0,031	0,005
-471,474	732,888	0,018	-0,036
-470,459	-75,522	0,097	0,025
-469,445	-7,305	0,105	0,052
-468,430	800,000	0,045	0,119
-467,416	457,167	-0,055	0,090
-466,401	-8,320	-0,033	0,016
-465,386	-200,000	-0,027	0,110
-464,372	225,614	0,090	-0,106
-463,357	-1,226	-0,062	0,032
-462,343	-200,000	0,019	-0,087
-461,328	55,863	0,023	0,016
-460,313	800,000	-0,035	0,105
-459,299	-1,818	0,107	0,055
-458,284	-200,000	-0,008	0,213
-457,270	28,637	0,020	0,012
-456,255	-74,569	0,079	0,020
-455,241	-73,842	-0,157	0,041
-454,226	-25,592	-0,109	-0,046
-453,211	-45,203	0,181	-0,065
-452,197	19,808	0,018	-0,010
-451,182	118,921	0,077	0,069
-450,168	86,968	0,085	-0,068
-449,153	800,000	0,062	-0,183
-448,138	-156,307	-0,155	-0,007
-447,124	117,375	-0,061	0,054
-446,109	-31,546	-0,067	0,027
-445,095	271,816	0,110	0,141
-444,080	-35,934	0,041	-0,016
-443,065	-169,984	-0,037	0,001
-442,051	-45,118	-0,032	0,011
-441,036	100,342	-0,009	0,008
-440,022	800,000	0,058	-0,130
-439,007	268,676	0,021	0,026
-437,992	-200,000	0,047	0,157
-436,978	-61,335	0,014	-0,004
-435,963	-31,910	0,147	0,060
-434,949	-89,424	0,056	0,012
-433,934	-200,000	-0,022	-0,080
-432,919	800,000	0,041	-0,100
-431,905	-43,456	-0,074	-0,027
-430,890	800,000	0,033	0,081
-429,876	317,655	0,042	0,058
-428,861	800,000	-0,012	0,029
-427,846	-35,025	-0,108	-0,042
-426,832	-22,995	0,095	-0,041
-425,817	-98,651	0,094	-0,017
-424,803	800,000	-0,023	-0,067
-423,788	-43,807	-0,017	-0,006
-422,773	-200,000	-0,000	0,093
-421,759	257,970	-0,035	-0,044
-420,744	481,143	0,053	0,088
-419,730	-128,236	0,049	-0,005
-418,715	-56,902	0,074	-0,023
-417,701	-82,482	0,016	0,004
-416,686	4,737	-0,155	-0,082
-415,671	133,169	-0,074	0,069
-414,657	-31,148	0,089	0,036
-413,642	33,899	0,066	0,042
-412,628	432,540	-0,093	-0,147
-411,613	-41,095	-0,164	0,061
-410,598	593,128	0,021	0,039
-409,584	-103,237	0,025	0,004
-408,569	-70,697	0,146	0,040
-407,555	-200,000	-0,009	0,126
-406,540	-23,453	0,159	0,069
-405,525	757,326	0,005	-0,009
-404,511	780,432	-0,042	-0,085
-403,496	106,577	0,081	-0,070
-402,482	767,469	0,055	0,108
-401,467	-3,542	-0,095	0,048
-400,452	-20,044	0,100	-0,045
-399,438	-86,343	0,045	-0,010
-398,423	241,957	-0,023	-0,028
-397,409	-47,240	0,081	-0,028
-396,394	-75,747	-0,066	-0,017
-395,379	-56,507	-0,021	0,007
-394,365	-200,000	0,015	-0,134
-393,350	-200,000	-0,039	0,127
-392,336	-200,000	0,023	0,119
-391,321	800,000	0,029	-0,088
-390,306	800,000	-0,041	0,105
-389,292	330,572	0,043	0,061
-388,277	-189,929	0,035	0,000
-387,263	-200,000	-0,018	0,089
-386,248	73,231	0,057	-0,043
-385,233	163,698	-0,045	0,046
-384,219	237,033	-0,088	0,106
-383,204	-150,394	-0,095	-0,005
-382,190	156,340	-0,023	-0,023
-381,175	800,000	0,021	-0,051
-380,160	58,137	-0,109	0,078
-379,146	-200,000	-0,011	-0,041
-378,131	800,000	0,027	0,068
-377,117	800,000	0,024	0,052
-376,102	121,349	-0,037	0,034
-375,088	-200,000	-0,007	-0,173
-374,073	-200,000	0,035	0,207
-373,058	-200,000	-0,016	0,051
-372,044	528,924	-0,035	0,061
-371,029	675,753	0,029	0,054
-370,015	428,181	-0,051	-0,080
-369,000	-30,192	-0,123	0,050
-367,985	-200,000	-0,003	-0,103
-366,971	383,106	0,050	-0,075
-365,956	800,000	-0,035	-0,098
-364,942	800,000	-0,012	0,032
-363,927	308,562	-0,047	0,064
-362,912	-100,479	-0,087	0,015
-361,898	-11,001	0,087	0,041
-360,883	-200,000	-0,004	0,048
-359,869	-200,000	-0,005	0,041
-358,854	213,933	-0,025	0,028
-357,839	172,199	0,044	0,046
-356,825	-35,983	0,112	0,044
-355,810	275,762	-0,014	0,018
-354,796	-200,000	0,016	-0,081
-353,781	174,129	0,071	-0,075
-352,766	-16,128	0,013	0,006
-351,752	121,017	-0,009	0,008
-350,737	254,478	-0,020	0,025
-349,723	244,483	-0,086	0,105
-348,708	-200,000	0,010	-0,086
-347,693	50,099	-0,095	-0,065
-346,679	800,000	-0,022	-0,056
-345,664	-109,079	0,108	-0,016
-344,650	250,815	0,046	-0,057
-343,635	-61,770	0,040	-0,012
-342,620	-200,000	0,004	0,024
-341,606	245,492	0,107	0,130
-340,591	-85,451	-0,056	0,012
-339,577	800,000	-0,034	-0,096
-338,562	88,118	0,115	0,093
-337,548	-1,787	0,040	-0,020
-336,533	-200,000	-0,001	0,091
-335,518	-200,000	-0,007	-0,048
-334,504	-200,000	-0,016	0,165
-333,489	51,659	-0,138	-0,095
-332,475	-38,015	-0,030	0,012
-331,460	-140,746	0,027	-0,002
-330,445	800,000	-0,016	-0,044
-329,431	-200,000	0,015	0,073
-328,416	426,538	0,031	0,048
-327,402	0,106	-0,090	-0,046
-326,387	-200,000	0,017	0,061
-325,372	609,658	-0,026	-0,047
-324,358	-94,497	0,025	-0,005
-323,343	-124,499	-0,213	0,024
-322,329	-148,633	-0,117	0,007
-321,314	9,545	-0,082	0,045
-320,299	328,819	0,028	0,039
-319,285	335,810	0,028	-0,040
-318,270	-200,000	0,016	-0,141
-317,256	-191,780	-0,025	0,000
-316,241	-167,236	-0,088	-0,003
-315,226	-98,772	0,109	-0,020
-314,212	-200,000	-0,002	0,093
-313,197	-28,923	-0,066	-0,027
-312,183	66,484	-0,053	0,039
-311,168	26,883	-0,123	-0,074
-310,153	800,000	0,031	-0,099
-309,139	-15,660	0,100	0,046
-308,124	222,949	0,041	-0,048
-307,110	92,038	0,065	-0,053
-306,095	176,937	0,062	0,065
-305,080	-85,053	-0,128	0,029
-304,066	652,425	0,010	0,019
-303,051	-200,000	0,016	-0,167
-302,037	-200,000	-0,000	-0,023
-301,022	-191,668	0,087	0,001
-300,008	800,000	0,053	0,124
-298,993	280,309	0,023	0,029
-297,978	800,000	-0,020	0,057
-296,964	-18,155	-0,170	-0,076
-295,949	565,853	-0,027	-0,048
-294,935	-87,715	0,075	0,016
-293,920	-7,409	0,156	-0,076
-292,905	-200,000	-0,035	-0,124
-291,891	800,000	0,029	0,057
-290,876	800,000	0,025	0,062
-289,862	-200,000	0,009	-0,046
-288,847	-3,119	-0,094	0,047
-287,832	700,822	0,015	-0,028
-286,818	257,522	0,072	0,089
-285,803	603,683	0,079	-0,142
-284,789	797,683	0,042	-0,084
-283,774	-14,383	0,072	0,034
-282,759	-200,000	0,046	-0,214
-281,745	-200,000	-0,037	-0,185
-280,730	96,567	0,068	-0,056
-279,716	800,000	-0,049	0,128
-278,701	-107,820	0,129	-0,020
-277,686	178,946	0,008	-0,008
-276,672	-200,000	0,006	0,148
-275,657	44,458	-0,063	0,042
-274,643	-200,000	-0,038	-0,127
-273,628	7,810	0,083	-0,045
-272,613	800,000	-0,011	0,031
-271,599	-67,100	0,177	-0,050
-270,584	47,919	-0,088	0,059
-269,570	-200,000	-0,024	0,100
-268,555	-200,000	0,003	-0,039
-267,540	-200,000	0,005	-0,155
-266,526	-200,000	0,023	-0,154
-265,511	800,000	-0,035	-0,071
-264,497	418,125	-0,054	0,083
-263,482	49,025	-0,058	0,039
-262,467	316,712	0,033	-0,046
-261,453	151,592	-0,097	-0,095
-260,438	24,070	0,010	-0,006
-259,424	-118,901	0,080	0,010
-258,409	235,842	-0,135	-0,162
-257,395	-122,558	-0,068	-0,008
-256,380	-5,973	0,021	-0,010
-255,365	-51,950	0,082	0,027
-254,351	-200,000	-0,026	0,107
-253,336	297,976	0,036	-0,048
-252,322	608,950	-0,074	-0,134
-251,307	800,000	-0,070	-0,178
-250,292	-154,661	-0,083	-0,004
-249,278	-200,000	0,005	-0,030
-248,263	22,904	-0,092	0,054
-247,249	-186,090	-0,025	-0,000
-246,234	-200,000	-0,004	-0,066
-245,219	-89,340	-0,045	-0,009
-244,205	-200,000	-0,004	0,076
-243,190	-200,000	-0,026	0,105
-242,176	-200,000	0,036	0,154
-241,161	-200,000	0,011	0,093
-240,146	-137,542	-0,142	0,011
-239,132	-16,161	-0,025	0,012
-238,117	-200,000	0,016	-0,160
-237,103	-200,000	0,008	0,055
-236,088	-60,256	-0,053	0,016
-235,073	-200,000	0,013	-0,046
-234,059	124,383	-0,043	-0,039
-233,044	233,783	0,005	-0,006
-232,030	-200,000	0,000	-0,023
-231,015	-93,123	-0,095	-0,019
-230,000	-200,000	-0,012	-0,051
-228,986	354,751	0,051	-0,073
-227,971	-200,000	0,005	-0,026
-226,957	230,254	-0,086	-0,101
-225,942	134,202	-0,101	0,095
-224,927	41,762	-0,012	0,008
-223,913	-40,410	-0,105	0,039
-222,898	-133,959	0,128	-0,011
-221,884	-79,552	-0,109	-0,026
-220,869	-200,000	-0,024	0,095
-219,855	-200,000	-0,015	-0,189
-218,840	157,777	0,073	0,073
-217,825	521,167	0,030	0,050
-216,811	-200,000	0,010	-0,098
-215,796	-14,061	0,065	-0,030
-214,782	112,051	-0,076	-0,066
-213,767	20,759	0,109	-0,064
-212,752	-200,000	0,022	-0,145
-211,738	-200,000	0,005	0,073
-210,723	800,000	-0,080	-0,191
-209,709	-101,085	-0,012	0,002
-208,694	129,428	0,060	-0,055
-207,679	-173,958	0,112	0,002
-206,665	-200,000	-0,009	-0,048
-205,650	109,526	0,101	-0,087
-204,636	-146,893	0,027	-0,002
-203,621	800,000	-0,043	0,113
-202,606	482,296	-0,029	0,048
-201,592	286,133	-0,053	0,069
-200,577	233,109	-0,074	-0,088
-199,563	103,065	-0,058	-0,049
-198,548	4,206	0,091	0,048
-197,533	32,416	0,132	0,082
-196,519	571,751	-0,061	-0,107
-195,504	64,071	-0,072	-0,052
-194,490	-200,000	0,002	0,025
-193,475	241,425	-0,038	-0,046
-192,460	-200,000	-0,003	0,044
-191,446	-97,149	0,147	-0,027
-190,431	-108,531	-0,134	0,020
-189,417	-26,711	-0,111	0,046
-188,402	-50,180	-0,147	0,050
-187,387	-200,000	0,008	-0,073
-186,373	-200,000	0,011	-0,080
-185,358	-53,365	-0,091	-0,030
-184,344	-200,000	0,001	0,055
-183,329	655,364	-0,110	0,204
-182,315	-99,651	-0,006	0,001
-181,300	74,890	-0,131	-0,099
-180,285	692,176	-0,049	0,093
-179,271	800,000	-0,033	0,092
-178,256	421,858	0,026	0,040
-177,242	486,970	0,042	0,070
-176,227	-200,000	0,002	0,036
-175,212	96,848	-0,084	0,069
-174,198	-200,000	0,023	-0,102
-173,183	275,648	0,061	-0,077
-172,169	-46,760	0,085	0,030
-171,154	-51,349	-0,051	0,017
-170,139	-144,132	-0,050	0,003
-169,125	800,000	0,060	0,166
-168,110	532,688	0,004	-0,007
-167,096	138,753	-0,019	-0,018
-166,081	3,100	-0,094	-0,049
-165,066	-40,988	-0,142	-0,053
-164,052	-87,829	0,063	-0,013
-163,037	-51,837	-0,117	-0,039
-162,023	-105,968	0,160	0,026
-161,008	-152,685	-0,108	-0,005
-159,993	276,533	0,077	-0,099
-158,979	16,570	-0,142	-0,081
-157,964	800,000	0,036	-0,081
-156,950	-200,000	0,028	-0,164
-155,935	2,158	-0,091	-0,047
-154,920	11,296	0,047	0,026
-153,906	238,454	-0,060	-0,072
-152,891	466,912	0,072	-0,117
-151,877	42,668	-0,130	-0,085
-150,862	800,000	-0,042	-0,098
-149,847	71,864	0,140	-0,105
-148,833	88,926	-0,044	0,035
-147,818	243,897	0,019	-0,023
-146,804	-105,358	-0,036	0,006
-145,789	-200,000	-0,008	-0,048
-144,775	-69,437	-0,141	-0,039
-143,760	-61,984	-0,119	0,036
-142,745	-130,433	0,070	0,007
-141,731	88,019	-0,076	0,061
-140,716	139,679	0,110	0,104
-139,702	-151,400	0,211	0,011
-138,687	95,724	0,058	0,047
-137,672	-33,326	-0,107	-0,042
-136,658	-14,717	-0,085	0,039
-135,643	-200,000	0,022	-0,101
-134,629	800,000	0,028	-0,073
-133,614	38,354	0,062	-0,040
-132,599	530,412	0,066	0,113
-131,585	24,102	0,054	0,032
-130,570	720,197	-0,059	-0,114
-129,556	585,556	0,036	-0,064
-128,541	158,889	0,109	-0,108
-127,526	800,000	-0,048	0,147
-126,512	-200,000	-0,011	-0,143
-125,497	408,992	-0,031	-0,048
-124,483	142,434	0,083	-0,079
-123,468	-200,000	-0,009	-0,141
-122,453	390,727	-0,049	0,073
-121,439	-71,535	-0,183	0,049
-120,424	-22,397	0,170	-0,074
-119,410	80,400	0,080	-0,061
-118,395	4,380	0,055	0,029
