DTS Sentinel unit serial number:	SN410029Multiplexer serial number:	ORYXHardware model number:	OX2-SRSoftware version number:	ORYX F/W v4,00 Oryx Data Collector v3.7.2.0data status	okinstallation	B6 Nyhavnadifferential loss correction	single-endedforward channel	channel 2reverse channel	N/Adate	2023/12/09time	03:50:08forward acquisition time	300,00reverse acquisition time	0,00gamma	499,1914k internal	0,3152k external	0,3152temperature offset calibration	1,0000default loss term (dB/km)	0,3820temperature slope calibration	1,0000multiplexer offset coefficient	1,0000multiplexer slope coefficient	1,0000fibre end	0,00T internal ref (°C)	16,56T ext. ref 1 (°C)	0,82T ext. ref 2 (°C)	0,83length (m)	temperature (°C)	Stokes	anti-Stokes-744,400	516,213	0,041	-0,072
-743,385	-107,778	-0,242	-0,039
-742,371	-200,000	0,007	-0,072
-741,356	-72,254	-0,255	0,069
-740,342	194,435	0,102	0,114
-739,327	-145,482	-0,237	0,015
-738,312	-78,450	0,051	-0,013
-737,298	-158,566	-0,409	0,017
-736,283	10,200	0,130	-0,073
-735,269	-168,284	-0,296	0,008
-734,254	800,000	0,023	0,062
-733,239	-77,936	-0,443	-0,112
-732,225	374,852	0,132	0,199
-731,210	-200,000	0,015	0,263
-730,196	119,820	-0,037	0,034
-729,181	363,747	0,089	-0,133
-728,167	-200,000	0,026	-0,110
-727,152	-26,790	-0,091	0,039
-726,137	-48,190	-0,067	-0,024
-725,123	-200,000	-0,005	-0,029
-724,108	-126,356	0,019	0,002
-723,094	-13,108	-0,066	-0,032
-722,079	269,859	0,088	-0,114
-721,064	385,473	0,076	0,116
-720,050	-200,000	-0,003	-0,039
-719,035	112,877	-0,095	0,085
-718,021	-70,701	-0,042	0,012
-717,006	-142,868	-0,114	-0,008
-715,991	800,000	0,044	-0,124
-714,977	21,931	-0,101	-0,061
-713,962	-200,000	-0,009	-0,046
-712,948	-88,085	-0,139	0,031
-711,933	-80,301	0,086	0,021
-710,918	491,353	-0,062	-0,105
-709,904	-11,419	0,024	-0,011
-708,889	-200,000	0,007	0,062
-707,875	282,597	0,051	-0,067
-706,860	610,070	0,031	0,058
-705,845	759,285	-0,042	0,084
-704,831	8,764	-0,034	-0,019
-703,816	-153,189	0,088	0,004
-702,802	-157,459	-0,140	-0,006
-701,787	800,000	-0,036	-0,101
-700,772	-200,000	0,002	-0,094
-699,758	-22,051	-0,008	0,003
-698,743	-69,118	0,111	0,031
-697,729	-182,308	0,108	0,001
-696,714	700,936	-0,025	-0,049
-695,699	-200,000	0,007	-0,039
-694,685	254,040	-0,036	0,045
-693,670	40,853	-0,072	-0,048
-692,656	-200,000	0,002	-0,095
-691,641	-115,374	0,234	0,032
-690,627	67,819	-0,038	0,028
-689,612	173,351	0,008	0,009
-688,597	-130,895	-0,066	-0,006
-687,583	-200,000	-0,008	-0,144
-686,568	360,425	-0,087	-0,128
-685,554	800,000	0,097	-0,199
-684,539	-200,000	0,026	0,117
-683,524	800,000	0,084	0,177
-682,510	-200,000	0,027	-0,115
-681,495	214,689	-0,066	0,077
-680,481	169,128	-0,133	0,140
-679,466	40,544	-0,097	0,064
-678,451	-54,436	-0,065	-0,022
-677,437	35,589	0,088	-0,057
-676,422	79,224	0,081	-0,064
-675,408	-200,000	-0,003	-0,070
-674,393	362,183	-0,022	0,032
-673,378	800,000	-0,043	-0,095
-672,364	-90,081	0,062	-0,013
-671,349	175,121	0,080	-0,085
-670,335	-200,000	0,030	0,119
-669,320	16,708	-0,121	0,070
-668,305	-111,767	-0,065	0,010
-667,291	328,307	-0,014	0,020
-666,276	589,094	-0,019	-0,034
-665,262	-71,233	0,097	-0,027
-664,247	-200,000	-0,001	0,087
-663,232	111,370	0,090	-0,080
-662,218	-200,000	0,028	0,093
-661,203	-200,000	-0,004	0,039
-660,189	-200,000	-0,021	0,078
-659,174	800,000	0,016	-0,034
-658,159	151,155	-0,115	-0,115
-657,145	-22,348	-0,120	-0,053
-656,130	-200,000	-0,001	-0,023
-655,116	441,063	-0,048	-0,078
-654,101	253,957	0,081	0,103
-653,086	105,587	-0,053	0,046
-652,072	-95,517	-0,101	-0,020
-651,057	607,213	0,116	-0,213
-650,043	384,473	0,013	0,020
-649,028	-200,000	-0,012	-0,051
-648,014	-34,171	0,124	-0,050
-646,999	-121,807	0,088	0,011
-645,984	89,531	-0,061	-0,050
-644,970	47,246	0,082	0,056
-643,955	-87,268	-0,010	0,002
-642,941	-200,000	-0,006	-0,041
-641,926	-51,698	0,116	-0,039
-640,911	-143,642	0,183	0,013
-639,897	-200,000	0,025	0,174
-638,882	800,000	0,043	0,116
-637,868	436,433	0,071	-0,113
-636,853	800,000	-0,015	-0,036
-635,838	-0,665	-0,049	-0,025
-634,824	-58,163	0,084	-0,027
-633,809	-152,043	-0,136	-0,007
-632,795	665,413	0,043	0,081
-631,780	800,000	-0,070	0,191
-630,765	49,411	0,104	-0,072
-629,751	129,753	-0,101	-0,095
-628,736	800,000	0,019	-0,047
-627,722	15,045	-0,044	0,025
-626,707	22,621	-0,120	-0,072
-625,692	-76,327	0,197	0,051
-624,678	-200,000	0,005	-0,062
-623,663	55,131	-0,047	0,034
-622,649	191,582	0,027	-0,030
-621,634	-36,235	-0,079	0,031
-620,619	-200,000	0,074	-0,000
-619,605	110,816	-0,088	-0,078
-618,590	17,131	0,046	-0,027
-617,576	18,381	-0,050	0,030
-616,561	248,227	0,060	-0,075
-615,546	-200,000	0,017	-0,108
-614,532	-200,000	0,012	-0,065
-613,517	550,318	0,044	-0,078
-612,503	800,000	-0,027	-0,061
-611,488	800,000	-0,057	0,157
-610,474	-148,337	-0,139	-0,008
-609,459	-62,197	0,069	0,021
-608,444	10,407	-0,099	-0,055
-607,430	-128,755	-0,024	0,002
-606,415	-73,814	0,025	-0,007
-605,401	-200,000	-0,024	0,105
-604,386	-200,000	0,005	-0,033
-603,371	287,811	-0,048	-0,063
-602,357	264,360	0,011	-0,014
-601,342	-125,274	0,141	0,016
-600,328	800,000	-0,021	0,057
-599,313	-200,000	0,002	0,027
-598,298	-57,475	-0,205	0,066
-597,284	-200,000	0,028	0,150
-596,269	15,989	-0,079	0,046
-595,255	133,346	0,010	0,009
-594,240	-130,763	-0,112	-0,011
-593,225	-133,567	0,023	-0,002
-592,211	84,587	-0,044	-0,036
-591,196	-120,496	0,135	0,017
-590,182	356,476	-0,080	-0,117
-589,167	-200,000	0,050	0,197
-588,152	762,322	-0,008	0,017
-587,138	-103,476	-0,087	0,015
-586,123	641,615	-0,062	-0,116
-585,109	-200,000	-0,037	-0,138
-584,094	-200,000	0,012	0,064
-583,079	-21,798	0,088	0,039
-582,065	637,895	0,027	-0,051
-581,050	800,000	-0,025	0,064
-580,036	800,000	-0,025	-0,065
-579,021	217,896	-0,086	-0,101
-578,006	-106,088	-0,086	0,014
-576,992	437,934	0,032	0,052
-575,977	-200,000	0,014	0,046
-574,963	10,729	0,113	-0,063
-573,948	-200,000	-0,005	-0,054
-572,934	30,348	-0,122	-0,076
-571,919	388,243	0,037	0,056
-570,904	83,455	-0,054	0,043
-569,890	-31,879	-0,122	-0,050
-568,875	1,280	0,126	0,066
-567,861	100,689	-0,075	-0,064
-566,846	-93,911	-0,143	-0,029
-565,831	-55,547	0,035	-0,012
-564,817	800,000	-0,077	-0,176
-563,802	555,632	0,020	0,035
-562,788	561,893	0,052	0,093
-561,773	-200,000	0,042	0,138
-560,758	358,013	-0,022	0,033
-559,744	671,696	-0,039	0,075
-558,729	-16,720	0,121	0,056
-557,715	-200,000	-0,024	-0,080
-556,700	74,461	-0,134	0,103
-555,685	11,813	0,116	-0,065
-554,671	-200,000	-0,015	0,052
-553,656	-114,701	0,076	0,011
-552,642	800,000	-0,017	-0,054
-551,627	-160,862	-0,141	-0,005
-550,612	-45,680	-0,093	-0,034
-549,598	487,419	-0,069	-0,116
-548,583	-200,000	-0,011	-0,124
-547,569	-200,000	0,004	-0,157
-546,554	-19,422	0,007	0,003
-545,539	160,447	0,052	-0,053
-544,525	800,000	0,010	-0,026
-543,510	229,961	-0,064	-0,077
-542,496	-200,000	-0,009	-0,201
-541,481	800,000	-0,057	-0,180
-540,466	800,000	0,013	0,034
-539,452	-109,306	0,125	-0,019
-538,437	-200,000	-0,057	0,183
-537,423	349,828	0,066	0,096
-536,408	-158,927	-0,030	0,001
-535,393	-35,819	-0,105	-0,041
-534,379	-92,662	0,131	-0,027
-533,364	-44,073	0,081	-0,030
-532,350	-88,627	-0,095	-0,021
-531,335	18,909	0,055	0,032
-530,321	-26,318	0,125	0,054
-529,306	197,708	-0,143	0,160
-528,291	-200,000	-0,006	-0,060
-527,277	-200,000	0,038	-0,151
-526,262	-106,240	0,095	-0,015
-525,248	-108,920	0,030	-0,005
-524,233	57,141	-0,075	-0,054
-523,218	66,001	0,114	0,084
-522,204	800,000	0,056	0,168
-521,189	209,645	0,049	0,056
-520,175	-200,000	-0,020	-0,113
-519,160	-7,247	0,072	-0,035
-518,145	-91,949	0,163	-0,033
-517,131	217,543	-0,070	-0,081
-516,116	172,463	0,053	0,055
-515,102	-137,518	0,054	-0,004
-514,087	-200,000	0,022	-0,148
-513,072	-200,000	0,024	-0,148
-512,058	-41,636	0,046	-0,017
-511,043	-133,802	0,082	-0,007
-510,029	-10,489	0,019	-0,009
-509,014	187,924	-0,095	0,104
-507,999	-142,548	-0,095	-0,007
-506,985	98,682	-0,023	-0,019
-505,970	-200,000	-0,016	0,072
-504,956	386,321	0,035	-0,053
-503,941	-127,910	0,149	0,015
-502,926	41,247	-0,019	-0,013
-501,912	-200,000	0,013	-0,125
-500,897	197,192	0,030	0,034
-499,883	157,254	0,038	-0,038
-498,868	-138,630	-0,077	-0,006
-497,853	204,992	-0,015	0,017
-496,839	31,331	0,086	-0,054
-495,824	-200,000	0,053	-0,000
-494,810	-153,663	-0,049	-0,002
-493,795	282,522	0,043	0,056
-492,781	-200,000	-0,021	-0,155
-491,766	11,621	0,020	-0,011
-490,751	-50,131	0,207	-0,071
-489,737	800,000	-0,032	0,082
-488,722	-76,966	0,078	0,020
-487,708	358,285	-0,028	-0,040
-486,693	-92,412	0,135	-0,027
-485,678	-200,000	-0,019	-0,100
-484,664	633,168	0,052	0,098
-483,649	29,501	-0,074	0,046
-482,635	117,046	-0,123	0,111
-481,620	67,878	0,077	0,058
-480,605	800,000	0,026	0,065
-479,591	690,570	-0,053	-0,101
-478,576	320,334	0,079	0,110
-477,562	130,724	0,084	0,079
-476,547	-200,000	-0,012	-0,109
-475,532	-87,569	0,040	-0,009
-474,518	-67,458	-0,086	-0,025
-473,503	113,463	-0,049	-0,044
-472,489	-136,756	-0,093	0,008
-471,474	-25,969	-0,078	0,034
-470,459	-200,000	-0,003	-0,144
-469,445	311,394	0,017	0,024
-468,430	-137,706	-0,024	-0,002
-467,416	800,000	-0,028	0,061
-466,401	-104,775	0,131	0,022
-465,386	425,486	-0,072	0,114
-464,372	-200,000	-0,003	-0,051
-463,357	-26,657	0,073	0,031
-462,343	-18,132	-0,117	-0,053
-461,328	-200,000	0,002	0,036
-460,313	-12,462	-0,024	0,011
-459,299	-93,685	0,049	0,010
-458,284	38,926	0,104	-0,068
-457,270	73,705	-0,064	0,049
-456,255	800,000	-0,014	-0,035
-455,241	354,594	-0,064	0,093
-454,226	-127,540	0,063	-0,007
-453,211	161,432	-0,026	-0,027
-452,197	222,882	-0,054	-0,064
-451,182	-139,078	0,074	-0,006
-450,168	3,729	-0,109	0,058
-449,153	-17,189	0,060	-0,027
-448,138	-141,663	-0,138	-0,010
-447,124	183,992	-0,030	-0,032
-446,109	-81,459	0,119	-0,028
-445,095	-126,681	-0,097	-0,010
-444,080	-49,086	0,076	-0,026
-443,065	129,706	-0,064	0,060
-442,051	137,085	0,090	-0,086
-441,036	-146,279	0,169	0,011
-440,022	-83,302	0,069	-0,016
-439,007	407,946	-0,010	0,015
-437,992	315,312	-0,043	0,060
-436,978	-200,000	0,002	0,083
-435,963	103,350	0,096	0,082
-434,949	800,000	0,005	-0,013
-433,934	102,939	-0,029	0,025
-432,919	-83,815	0,078	0,018
-431,905	800,000	0,035	0,102
-430,890	331,962	-0,035	0,049
-429,876	-200,000	-0,016	0,112
-428,861	-32,598	0,175	-0,071
-427,846	165,107	-0,069	-0,071
-426,832	331,608	0,052	-0,074
-425,817	800,000	-0,004	0,013
-424,803	-142,584	0,015	-0,001
-423,788	-81,343	-0,107	-0,026
-422,773	336,531	0,049	-0,069
-421,759	-200,000	-0,013	0,125
-420,744	-52,631	-0,060	0,020
-419,730	-200,000	0,004	-0,038
-418,715	800,000	-0,070	-0,146
-417,701	-119,024	-0,046	-0,006
-416,686	-25,409	0,118	-0,051
-415,671	-200,000	0,010	0,168
-414,657	-83,954	0,081	0,019
-413,642	304,638	0,034	0,047
-412,628	-103,125	-0,184	-0,031
-411,613	-128,103	-0,181	0,019
-410,598	339,698	-0,081	0,116
-409,584	-100,390	0,092	0,016
-408,569	128,375	0,079	0,074
-407,555	800,000	-0,056	0,119
-406,540	800,000	-0,057	0,120
-405,525	-109,533	-0,176	-0,027
-404,511	-200,000	-0,012	-0,084
-403,496	-35,131	-0,086	0,034
-402,482	-200,000	0,003	0,026
-401,467	-0,497	0,125	0,064
-400,452	-200,000	0,005	0,080
-399,438	-4,818	0,102	0,051
-398,423	-93,798	0,072	0,014
-397,409	800,000	-0,043	-0,091
-396,394	-14,781	-0,052	0,024
-395,379	-41,580	0,076	-0,028
-394,365	-70,621	0,151	-0,041
-393,350	-200,000	0,015	0,068
-392,336	157,271	0,069	0,069
-391,321	-100,028	-0,136	0,025
-390,306	12,817	0,005	0,003
-389,292	82,014	0,053	0,042
-388,277	-50,696	-0,054	-0,018
-387,263	800,000	0,024	0,050
-386,248	-200,000	-0,012	-0,040
-385,233	800,000	0,020	-0,040
-384,219	800,000	0,028	-0,057
-383,204	800,000	-0,027	0,072
-382,190	-200,000	-0,012	0,107
-381,175	-24,583	-0,081	0,035
-380,160	-200,000	0,021	-0,067
-379,146	290,734	0,025	-0,033
-378,131	-28,427	-0,110	-0,046
-377,117	87,773	-0,070	0,056
-376,102	-200,000	0,046	-0,181
-375,088	-200,000	-0,004	-0,057
-374,073	705,995	-0,038	-0,074
-373,058	290,139	-0,010	0,014
-372,044	-138,598	0,178	-0,014
-371,029	36,159	0,061	0,039
-370,015	-63,904	-0,044	-0,013
-369,000	-126,747	-0,042	0,004
-367,985	-68,277	0,095	0,027
-366,971	3,261	-0,183	0,097
-365,956	-200,000	0,023	0,091
-364,942	385,033	0,038	0,058
-363,927	351,797	0,111	0,161
-362,912	550,514	-0,020	-0,035
-361,898	-200,000	0,006	-0,031
-360,883	800,000	0,022	-0,049
-359,869	-3,492	-0,154	-0,077
-358,854	-200,000	-0,004	-0,024
-357,839	800,000	0,042	0,127
-356,825	-88,264	0,069	0,015
-355,810	33,340	-0,060	-0,038
-354,796	-200,000	0,000	-0,021
-353,781	800,000	-0,048	-0,113
-352,766	-150,041	0,028	0,002
-351,752	-200,000	0,004	0,056
-350,737	78,851	0,027	-0,021
-349,723	-68,736	-0,076	-0,021
-348,708	61,580	0,105	0,076
-347,693	258,113	0,023	0,028
-346,679	800,000	-0,033	-0,105
-345,664	422,712	0,044	-0,068
-344,650	572,270	-0,042	-0,074
-343,635	-200,000	0,028	0,133
-342,620	-127,153	0,202	0,021
-341,606	-111,962	0,192	-0,028
-340,591	-200,000	-0,003	-0,033
-339,577	-200,000	-0,033	-0,107
-338,562	66,414	-0,091	-0,067
-337,548	800,000	0,075	-0,154
-336,533	55,123	0,050	0,035
-335,518	36,939	0,145	0,093
-334,504	65,035	0,050	-0,037
-333,489	-132,002	-0,053	-0,005
-332,475	-123,366	-0,135	-0,016
-331,460	-200,000	0,018	0,073
-330,445	800,000	-0,013	-0,036
-329,431	642,641	0,044	0,083
-328,416	-200,000	0,015	0,131
-327,402	-200,000	-0,002	0,054
-326,387	9,530	-0,162	0,089
-325,372	75,945	0,002	-0,001
-324,358	103,755	-0,040	0,034
-323,343	-200,000	-0,012	-0,050
-322,329	-68,702	0,122	0,034
-321,314	-7,856	-0,072	-0,035
-320,299	115,598	0,102	0,091
-319,285	475,783	0,015	-0,025
-318,270	204,405	-0,062	0,069
-317,256	-200,000	0,010	0,098
-316,241	-200,000	-0,006	0,040
-315,226	319,467	0,028	0,039
-314,212	-135,588	0,131	0,011
-313,197	139,858	0,062	0,060
-312,183	84,027	0,025	-0,020
-311,168	-97,798	-0,086	0,016
-310,153	-200,000	-0,007	-0,045
-309,139	-200,000	-0,006	0,027
-308,124	-87,433	0,100	0,022
-307,110	-135,769	0,072	0,006
-306,095	233,601	0,086	0,103
-305,080	800,000	-0,031	-0,091
-304,066	-200,000	-0,034	-0,113
-303,051	-31,442	-0,109	-0,044
-302,037	99,181	0,111	0,093
-301,022	165,545	-0,093	-0,095
-300,008	-75,986	-0,111	0,028
-298,993	800,000	0,020	0,057
-297,978	318,910	0,043	-0,060
-296,964	-200,000	-0,016	0,073
-295,949	-6,737	-0,098	-0,048
-294,935	408,279	-0,031	-0,047
-293,920	-13,835	0,039	0,018
-292,905	222,909	-0,041	-0,048
-291,891	-161,184	0,066	-0,002
-290,876	-119,201	-0,082	-0,010
-289,862	-200,000	0,004	0,093
-288,847	800,000	-0,053	-0,115
-287,832	-144,979	-0,163	-0,011
-286,818	-95,478	-0,084	-0,016
-285,803	-200,000	-0,014	0,067
-284,789	-107,685	0,186	-0,029
-283,774	-200,000	-0,006	-0,021
-282,759	-78,992	0,074	-0,018
-281,745	16,479	-0,144	-0,082
-280,730	-18,544	-0,068	-0,031
-279,716	-43,880	0,092	-0,033
-278,701	-200,000	0,010	-0,076
-277,686	-71,503	0,066	-0,018
-276,672	-11,999	-0,051	0,024
-275,657	364,997	0,019	0,028
-274,643	-92,983	-0,106	-0,021
-273,628	-200,000	0,007	-0,109
-272,613	800,000	0,022	-0,048
-271,599	-200,000	-0,003	0,106
-270,584	800,000	0,044	0,114
-269,570	-186,179	-0,078	0,001
-268,555	27,500	0,024	-0,015
-267,540	579,085	-0,015	-0,027
-266,526	146,966	-0,082	-0,080
-265,511	196,105	-0,070	0,077
-264,497	47,191	0,104	0,070
-263,482	-9,116	0,123	-0,059
-262,467	47,163	-0,163	0,110
-261,453	-86,132	-0,052	0,011
-260,438	210,563	0,079	-0,090
-259,424	-200,000	0,052	-0,173
-258,409	-200,000	0,032	-0,153
-257,395	-61,188	-0,022	-0,007
-256,380	205,646	0,142	0,160
-255,365	-200,000	0,018	0,063
-254,351	-200,000	-0,006	0,028
-253,336	-200,000	0,008	-0,032
-252,322	-200,000	-0,002	-0,027
-251,307	-55,363	0,051	0,016
-250,292	-149,317	0,058	0,003
-249,278	-200,000	-0,018	0,124
-248,263	-200,000	0,007	-0,023
-247,249	-200,000	-0,012	0,038
-246,234	-200,000	0,007	-0,064
-245,219	-97,650	-0,196	-0,036
-244,205	455,793	-0,032	-0,051
-243,190	-200,000	-0,018	0,104
-242,176	800,000	-0,002	0,005
-241,161	-60,264	0,054	0,017
-240,146	437,458	-0,021	-0,034
-239,132	-200,000	0,004	0,187
-238,117	-48,499	-0,069	0,024
-237,103	-200,000	0,007	-0,070
-236,088	-200,000	0,008	-0,028
-235,073	132,385	0,050	-0,047
-234,059	-149,056	0,050	-0,003
-233,044	171,147	-0,063	-0,066
-232,030	103,514	-0,182	-0,154
-231,015	-61,734	0,096	-0,029
-230,000	22,467	-0,089	-0,052
-228,986	31,552	-0,060	-0,037
-227,971	-200,000	0,015	0,057
-226,957	334,202	0,027	0,039
-225,942	-200,000	0,003	0,017
-224,927	-107,322	0,117	-0,018
-223,913	-56,606	-0,164	-0,052
-222,898	422,103	-0,007	-0,011
-221,884	-100,873	0,156	0,027
-220,869	-174,198	0,155	-0,003
-219,855	-200,000	0,007	0,025
-218,840	-71,240	-0,049	0,013
-217,825	-48,739	-0,055	-0,019
-216,811	208,286	0,027	-0,031
-215,796	-52,352	-0,075	-0,025
-214,782	61,193	0,105	0,076
-213,767	-55,605	-0,129	0,041
-212,752	391,478	-0,088	0,133
-211,738	116,787	-0,059	-0,053
-210,723	-200,000	-0,053	-0,204
-209,709	-200,000	-0,012	0,050
-208,694	-66,919	-0,190	-0,054
-207,679	67,204	-0,049	-0,036
-206,665	95,709	0,060	-0,049
-205,650	-131,313	0,074	0,007
-204,636	800,000	-0,031	0,093
-203,621	-200,000	-0,002	0,031
-202,606	80,898	0,032	-0,025
-201,592	27,339	-0,025	-0,015
-200,577	-11,228	-0,059	-0,028
-199,563	800,000	-0,014	-0,034
-198,548	458,479	0,024	-0,038
-197,533	109,636	0,047	-0,041
-196,519	209,918	0,045	0,051
-195,504	17,212	-0,058	-0,033
-194,490	-200,000	0,015	0,063
-193,475	-0,931	-0,059	-0,030
-192,460	-200,000	-0,020	-0,066
-191,446	-200,000	-0,015	0,103
-190,431	800,000	0,062	0,133
-189,417	-200,000	-0,028	0,203
-188,402	535,724	-0,058	-0,100
-187,387	100,149	-0,086	-0,072
-186,373	62,530	0,093	0,067
-185,358	-39,650	0,121	0,046
-184,344	-200,000	-0,004	0,027
-183,329	478,599	0,029	-0,047
-182,315	-129,822	-0,144	-0,014
-181,300	-90,748	-0,060	-0,012
-180,285	-41,829	-0,030	-0,011
-179,271	800,000	-0,032	-0,070
-178,256	-200,000	-0,018	-0,147
-177,242	265,143	0,027	-0,035
-176,227	19,662	-0,049	0,029
-175,212	182,405	0,019	-0,020
-174,198	-200,000	0,023	0,128
-173,183	442,955	-0,033	-0,052
-172,169	-77,035	-0,128	-0,032
-171,154	80,170	0,046	-0,036
-170,139	-200,000	0,003	0,096
-169,125	-61,139	0,174	0,053
-168,110	-74,068	-0,140	0,036
-167,096	88,522	-0,058	0,047
-166,081	4,465	0,068	0,036
-165,066	161,325	0,015	0,016
-164,052	800,000	0,029	0,060
-163,037	143,702	0,082	-0,079
-162,023	-106,709	0,027	-0,004
-161,008	800,000	-0,048	0,108
-159,993	-20,759	0,025	-0,011
-158,979	173,250	-0,055	-0,058
-157,964	17,371	-0,035	-0,020
-156,950	-200,000	0,003	-0,023
-155,935	245,727	0,115	0,139
-154,920	68,078	-0,133	0,098
-153,906	365,649	0,040	0,058
-152,891	-23,444	-0,131	0,057
-151,877	-200,000	-0,038	0,208
-150,862	-67,986	-0,086	0,024
-149,847	-200,000	0,003	0,070
-148,833	-200,000	-0,096	-0,000
-147,818	-92,467	0,092	-0,019
-146,804	53,745	-0,059	-0,041
-145,789	-200,000	0,003	-0,025
-144,775	21,683	0,041	-0,024
-143,760	-200,000	-0,001	0,161
-142,745	-22,819	-0,020	-0,008
-141,731	800,000	-0,046	0,117
-140,716	354,189	0,038	0,054
-139,702	-35,508	0,061	-0,024
-138,687	38,440	-0,090	0,058
-137,672	-34,405	-0,031	0,012
-136,658	-38,186	-0,199	-0,076
-135,643	109,666	-0,056	-0,048
-134,629	-200,000	-0,003	-0,082
-133,614	26,709	0,082	-0,049
-132,599	-152,689	-0,108	-0,005
-131,585	800,000	-0,044	-0,119
-130,570	617,746	-0,070	0,128
-129,556	356,566	-0,024	0,034
-128,541	182,622	0,024	-0,026
-127,526	-200,000	0,001	-0,068
-126,512	800,000	0,021	-0,049
-125,497	-162,165	0,102	-0,004
-124,483	-26,926	0,065	0,027
-123,468	110,297	-0,003	0,003
-122,453	800,000	0,015	-0,035
-121,439	622,642	0,030	0,054
-120,424	171,569	-0,029	-0,030
