DTS Sentinel unit serial number:	SN410029Multiplexer serial number:	ORYXHardware model number:	OX2-SRSoftware version number:	ORYX F/W v4,00 Oryx Data Collector v3.7.2.0data status	okinstallation	B6 Nyhavnadifferential loss correction	single-endedforward channel	channel 2reverse channel	N/Adate	2023/12/10time	23:25:08forward acquisition time	300,00reverse acquisition time	0,00gamma	499,1914k internal	0,3123k external	0,3123temperature offset calibration	1,0000default loss term (dB/km)	0,3820temperature slope calibration	1,0000multiplexer offset coefficient	1,0000multiplexer slope coefficient	1,0000fibre end	0,00T internal ref (°C)	22,40T ext. ref 1 (°C)	6,09T ext. ref 2 (°C)	6,10length (m)	temperature (°C)	Stokes	anti-Stokes-744,400	80,039	0,082	0,066
-743,385	-10,535	-0,294	0,145
-742,371	-32,692	0,078	-0,032
-741,356	94,963	-0,177	0,150
-740,342	-24,351	0,165	0,073
-739,327	-41,234	-0,289	0,110
-738,312	55,891	0,095	-0,069
-737,298	-158,020	-0,399	0,017
-736,283	275,666	0,108	0,143
-735,269	800,000	-0,075	0,156
-734,254	-200,000	0,020	0,086
-733,239	-75,785	-0,550	-0,144
-732,225	-130,725	0,169	-0,017
-731,210	-0,520	0,051	0,027
-730,196	-76,400	0,046	-0,012
-729,181	90,340	-0,052	0,043
-728,167	217,911	0,060	0,072
-727,152	-11,558	-0,004	0,002
-726,137	187,509	0,037	0,042
-725,123	-200,000	-0,021	-0,086
-724,108	104,315	-0,126	-0,111
-723,094	636,720	-0,083	-0,158
-722,079	-200,000	0,023	-0,111
-721,064	145,359	0,057	-0,057
-720,050	800,000	-0,035	-0,088
-719,035	-200,000	0,007	-0,067
-718,021	800,000	-0,017	0,035
-717,006	800,000	-0,067	-0,157
-715,991	189,656	-0,130	-0,146
-714,977	9,838	0,059	-0,033
-713,962	800,000	-0,012	-0,033
-712,948	-200,000	-0,001	-0,114
-711,933	-200,000	-0,011	-0,090
-710,918	-115,395	0,009	-0,001
-709,904	11,891	-0,104	-0,059
-708,889	406,109	-0,084	-0,132
-707,875	-200,000	-0,025	-0,173
-706,860	211,342	0,011	0,013
-705,845	4,636	-0,111	0,061
-704,831	-200,000	-0,004	-0,041
-703,816	-200,000	-0,004	-0,050
-702,802	26,762	-0,210	-0,131
-701,787	800,000	0,021	-0,066
-700,772	502,594	-0,103	-0,177
-699,758	-94,262	0,103	-0,021
-698,743	800,000	0,027	-0,087
-697,729	234,708	0,049	0,060
-696,714	10,009	0,057	0,032
-695,699	142,199	0,069	-0,068
-694,685	-19,192	-0,157	-0,072
-693,670	291,770	0,060	0,082
-692,656	96,787	-0,006	0,006
-691,641	-120,036	0,054	-0,007
-690,627	800,000	0,023	-0,069
-689,612	57,223	0,065	0,047
-688,597	-89,617	0,158	-0,034
-687,583	-200,000	-0,031	-0,240
-686,568	373,335	-0,054	-0,081
-685,554	-82,168	0,048	-0,012
-684,539	-119,854	-0,036	-0,005
-683,524	-200,000	-0,003	-0,066
-682,510	-200,000	-0,007	0,083
-681,495	-145,559	-0,086	-0,006
-680,481	-36,883	-0,149	0,059
-679,466	-183,564	-0,113	-0,001
-678,451	-37,593	-0,120	-0,047
-677,437	776,495	0,060	-0,122
-676,422	-200,000	0,006	-0,113
-675,408	287,978	-0,035	-0,048
-674,393	-64,457	0,070	-0,021
-673,378	353,923	-0,036	-0,053
-672,364	153,696	-0,095	-0,097
-671,349	51,266	0,051	-0,036
-670,335	16,979	0,142	-0,083
-669,320	-200,000	0,036	-0,131
-668,305	-200,000	-0,025	-0,160
-667,291	800,000	-0,049	-0,104
-666,276	89,431	-0,128	-0,106
-665,262	-200,000	-0,021	-0,093
-664,247	-142,195	-0,182	0,013
-663,232	141,457	0,089	0,087
-662,218	-180,266	-0,078	-0,001
-661,203	-168,765	0,118	-0,003
-660,189	213,925	-0,105	0,124
-659,174	-58,844	0,077	-0,025
-658,159	596,748	-0,074	-0,136
-657,145	46,153	-0,073	-0,050
-656,130	-200,000	0,049	0,000
-655,116	800,000	-0,036	-0,093
-654,101	-200,000	-0,006	0,059
-653,086	-200,000	-0,027	0,126
-652,072	-200,000	-0,013	-0,105
-651,057	-44,118	-0,182	-0,067
-650,043	-54,016	-0,104	0,035
-649,028	-111,608	0,110	-0,016
-648,014	-132,261	-0,092	-0,009
-646,999	-164,691	-0,053	0,002
-645,984	800,000	-0,035	0,083
-644,970	284,500	0,028	-0,038
-643,955	265,393	0,038	0,049
-642,941	-110,982	-0,070	-0,011
-641,926	563,889	-0,044	0,080
-640,911	593,268	-0,075	0,137
-639,897	192,918	0,062	-0,070
-638,882	-18,213	0,176	0,082
-637,868	-77,956	-0,041	0,010
-636,853	151,419	-0,091	-0,092
-635,838	175,295	-0,082	-0,088
-634,824	137,988	0,052	-0,050
-633,809	-111,473	-0,063	-0,009
-632,795	-200,000	-0,010	0,078
-631,780	-68,360	0,086	-0,025
-630,765	-126,525	-0,104	0,011
-629,751	800,000	-0,031	0,084
-628,736	-15,101	-0,166	-0,079
-627,722	-56,117	-0,044	-0,014
-626,707	85,756	0,070	0,057
-625,692	-200,000	0,016	0,057
-624,678	84,848	-0,021	-0,017
-623,663	-200,000	0,003	0,030
-622,649	309,917	-0,083	-0,116
-621,634	-60,723	-0,096	-0,030
-620,619	-29,933	-0,062	-0,026
-619,605	-200,000	-0,016	-0,152
-618,590	715,513	0,036	0,071
-617,576	-123,700	0,097	0,011
-616,561	800,000	0,042	-0,090
-615,546	-40,120	0,091	-0,035
-614,532	-200,000	0,008	-0,137
-613,517	-151,593	-0,022	-0,001
-612,503	-200,000	-0,017	-0,086
-611,488	-113,823	0,132	0,019
-610,474	-200,000	0,007	-0,127
-609,459	-67,418	0,199	-0,058
-608,444	-105,450	0,186	0,031
-607,430	-40,733	-0,088	0,034
-606,415	116,740	-0,058	-0,053
-605,401	77,453	-0,139	-0,109
-604,386	43,537	0,023	0,015
-603,371	-94,387	-0,077	-0,015
-602,357	33,067	0,070	0,045
-601,342	-1,752	-0,067	0,035
-600,328	160,273	0,088	0,091
-599,313	-10,639	-0,115	0,056
-598,298	106,114	-0,032	-0,028
-597,284	-200,000	-0,017	-0,105
-596,269	-200,000	-0,002	-0,141
-595,255	74,454	0,067	-0,052
-594,240	129,796	0,070	0,067
-593,225	-53,050	0,065	-0,022
-592,211	800,000	-0,022	0,046
-591,196	196,164	0,026	0,029
-590,182	-200,000	0,025	0,086
-589,167	50,584	0,105	-0,074
-588,152	-116,514	0,107	-0,014
-587,138	-200,000	-0,017	-0,159
-586,123	82,974	-0,121	-0,097
-585,109	800,000	0,027	-0,078
-584,094	-56,284	-0,086	0,028
-583,079	-200,000	0,002	0,050
-582,065	-200,000	-0,007	-0,025
-581,050	800,000	0,027	0,086
-580,036	587,543	-0,091	0,166
-579,021	-200,000	0,009	-0,036
-578,006	60,554	-0,122	-0,089
-576,992	-94,310	-0,041	0,008
-575,977	-121,605	-0,060	-0,007
-574,963	23,054	0,057	-0,034
-573,948	-114,649	0,115	-0,016
-572,934	193,513	0,078	-0,087
-571,919	-200,000	-0,042	-0,145
-570,904	126,148	-0,039	-0,036
-569,890	-107,113	0,028	-0,005
-568,875	-72,309	0,149	-0,040
-567,861	60,413	0,029	-0,021
-566,846	-120,269	-0,070	0,009
-565,831	66,201	0,083	-0,062
-564,817	-15,724	-0,074	-0,035
-563,802	534,686	0,048	-0,085
-562,788	574,561	-0,059	-0,107
-561,773	124,164	0,068	0,063
-560,758	338,425	-0,019	-0,028
-559,744	-32,279	-0,026	-0,011
-558,729	-200,000	-0,006	0,027
-557,715	-104,850	-0,064	-0,011
-556,700	-200,000	-0,050	-0,186
-555,685	21,468	0,039	0,024
-554,671	-18,055	0,047	-0,022
-553,656	276,581	-0,028	0,037
-552,642	34,712	0,030	0,019
-551,627	800,000	0,047	-0,102
-550,612	-54,347	-0,012	-0,004
-549,598	187,499	-0,089	-0,098
-548,583	800,000	-0,055	-0,117
-547,569	94,529	-0,058	-0,049
-546,554	214,443	0,108	0,127
-545,539	-159,723	-0,097	0,004
-544,525	800,000	0,020	0,043
-543,510	-200,000	-0,019	0,103
-542,496	-65,559	-0,093	-0,027
-541,481	-119,510	-0,215	-0,027
-540,466	-200,000	-0,004	-0,063
-539,452	95,477	0,056	0,047
-538,437	15,527	-0,110	-0,063
-537,423	102,653	0,077	-0,066
-536,408	-19,723	-0,132	-0,060
-535,393	359,920	-0,118	-0,175
-534,379	-19,833	-0,092	0,042
-533,364	61,879	-0,085	-0,063
-532,350	-200,000	0,010	-0,077
-531,335	24,511	0,044	-0,027
-530,321	148,988	-0,028	0,028
-529,306	572,700	0,019	-0,034
-528,291	-111,117	-0,079	0,012
-527,277	357,630	0,022	-0,032
-526,262	800,000	0,099	-0,239
-525,248	-141,047	0,070	-0,005
-524,233	115,026	0,104	-0,094
-523,218	-144,379	0,150	0,010
-522,204	800,000	0,013	-0,037
-521,189	800,000	0,006	0,017
-520,175	-49,763	-0,131	0,046
-519,160	800,000	-0,011	0,029
-518,145	-61,574	-0,063	-0,019
-517,131	-200,000	-0,039	-0,137
-516,116	479,853	0,079	0,132
-515,102	135,323	-0,093	0,089
-514,087	-200,000	-0,002	0,034
-513,072	28,474	0,049	-0,030
-512,058	-200,000	0,004	-0,017
-511,043	221,148	-0,049	0,058
-510,029	-200,000	-0,013	0,113
-509,014	-125,168	0,128	-0,014
-507,999	800,000	0,067	-0,164
-506,985	-200,000	0,012	-0,123
-505,970	145,869	-0,105	0,104
-504,956	-200,000	0,000	0,013
-503,941	599,399	0,041	-0,076
-502,926	800,000	0,068	0,208
-501,912	61,247	-0,081	0,060
-500,897	218,567	-0,058	-0,068
-499,883	800,000	0,029	0,062
-498,868	151,219	0,024	0,024
-497,853	-17,987	-0,072	-0,033
-496,839	152,124	0,057	-0,057
-495,824	326,645	0,081	-0,115
-494,810	-200,000	-0,012	-0,096
-493,795	-89,380	0,053	-0,011
-492,781	-200,000	-0,018	0,099
-491,766	-200,000	-0,009	-0,033
-490,751	-89,757	-0,083	0,018
-489,737	800,000	0,044	0,107
-488,722	53,184	0,076	-0,053
-487,708	-200,000	0,025	0,149
-486,693	-85,338	0,061	-0,014
-485,678	-0,344	0,078	0,041
-484,664	361,261	-0,019	-0,028
-483,649	800,000	-0,048	-0,152
-482,635	-36,407	0,126	0,050
-481,620	-19,159	0,056	-0,026
-480,605	-200,000	0,009	0,127
-479,591	213,528	0,096	0,112
-478,576	-200,000	-0,016	0,099
-477,562	-148,606	-0,128	0,008
-476,547	27,839	-0,151	-0,094
-475,532	-200,000	0,004	-0,058
-474,518	52,271	-0,146	-0,103
-473,503	291,984	-0,107	-0,144
-472,489	47,343	0,084	-0,058
-471,474	-30,590	-0,156	-0,065
-470,459	800,000	0,035	-0,079
-469,445	123,843	-0,090	0,084
-468,430	30,011	0,127	0,079
-467,416	-90,394	0,061	0,013
-466,401	-112,571	-0,040	0,006
-465,386	582,723	-0,034	-0,062
-464,372	327,043	0,022	0,031
-463,357	-86,735	-0,139	0,031
-462,343	-200,000	-0,010	-0,176
-461,328	800,000	0,044	0,097
-460,313	800,000	0,016	-0,038
-459,299	174,662	-0,059	0,063
-458,284	216,338	-0,081	-0,095
-457,270	247,746	-0,041	-0,052
-456,255	-55,090	-0,180	0,059
-455,241	-82,223	-0,211	0,050
-454,226	-135,690	-0,085	-0,007
-453,211	-47,610	0,124	0,044
-452,197	-116,008	0,069	-0,009
-451,182	696,566	0,030	-0,058
-450,168	-72,663	-0,088	0,024
-449,153	-180,851	-0,052	0,001
-448,138	10,164	0,091	-0,051
-447,124	158,190	-0,072	0,073
-446,109	-80,574	-0,173	0,042
-445,095	78,437	0,125	0,098
-444,080	57,520	-0,091	-0,066
-443,065	-200,000	-0,001	0,101
-442,051	-50,816	-0,034	0,012
-441,036	16,365	0,092	-0,053
-440,022	-53,781	-0,074	-0,025
-439,007	482,251	0,055	-0,093
-437,992	800,000	-0,014	0,036
-436,978	183,805	0,034	-0,037
-435,963	-161,101	-0,080	-0,003
-434,949	509,469	0,036	0,062
-433,934	447,448	-0,029	0,047
-432,919	-81,562	-0,082	0,020
-431,905	592,080	0,040	0,073
-430,890	-200,000	0,002	-0,056
-429,876	-103,180	0,144	0,025
-428,861	-124,423	-0,091	-0,010
-427,846	-200,000	-0,020	-0,132
-426,832	-200,000	-0,001	-0,066
-425,817	312,864	-0,083	0,115
-424,803	-76,650	0,119	-0,031
-423,788	468,651	0,044	0,074
-422,773	468,968	0,032	-0,053
-421,759	-200,000	-0,036	0,120
-420,744	800,000	0,032	0,099
-419,730	110,548	-0,057	-0,051
-418,715	-28,352	-0,137	0,058
-417,701	-22,796	0,146	0,065
-416,686	180,715	0,080	0,087
-415,671	-60,970	0,117	-0,036
-414,657	-20,236	-0,162	0,073
-413,642	-111,923	-0,078	0,011
-412,628	-200,000	0,016	0,074
-411,613	-94,140	-0,026	-0,005
-410,598	800,000	-0,047	-0,115
-409,584	532,579	0,069	0,121
-408,569	86,182	0,093	0,075
-407,555	-137,476	-0,111	0,009
-406,540	460,192	0,072	-0,118
-405,525	83,440	0,052	0,042
-404,511	-29,405	-0,113	-0,047
-403,496	11,533	0,099	-0,056
-402,482	-125,269	0,088	-0,010
-401,467	-200,000	0,014	0,087
-400,452	-200,000	-0,035	0,161
-399,438	-132,034	0,089	-0,008
-398,423	-13,167	0,095	-0,045
-397,409	-200,000	0,010	-0,090
-396,394	172,207	0,073	-0,078
-395,379	-123,563	0,252	0,029
-394,365	-200,000	0,030	0,180
-393,350	-42,971	0,037	0,014
-392,336	68,866	0,107	-0,081
-391,321	800,000	-0,035	0,083
-390,306	-80,649	-0,052	-0,013
-389,292	800,000	-0,020	-0,042
-388,277	634,373	0,048	-0,090
-387,263	124,963	-0,064	0,059
-386,248	-200,000	0,006	-0,027
-385,233	131,583	0,097	0,092
-384,219	388,045	0,062	0,095
-383,204	110,881	0,047	0,041
-382,190	324,754	-0,070	0,098
-381,175	800,000	-0,061	-0,131
-380,160	78,880	0,090	0,071
-379,146	-200,000	-0,009	-0,059
-378,131	-200,000	-0,001	0,050
-377,117	244,469	-0,086	0,106
-376,102	-200,000	0,042	0,189
-375,088	262,734	-0,137	-0,175
-374,073	270,461	-0,071	-0,092
-373,058	-200,000	-0,016	0,114
-372,044	800,000	-0,015	0,038
-371,029	800,000	0,022	0,063
-370,015	800,000	-0,029	0,093
-369,000	-62,057	-0,284	-0,087
-367,985	-200,000	0,018	-0,094
-366,971	692,044	-0,030	-0,058
-365,956	-3,107	0,079	-0,041
-364,942	-34,611	0,114	-0,046
-363,927	738,012	-0,083	0,165
-362,912	-131,307	0,057	0,006
-361,898	-113,894	-0,071	-0,010
-360,883	237,427	0,007	-0,009
-359,869	-200,000	0,003	-0,030
-358,854	-200,000	-0,022	0,079
-357,839	-117,579	0,110	0,014
-356,825	157,493	0,026	0,027
-355,810	-200,000	-0,026	0,156
-354,796	800,000	0,056	-0,154
-353,781	11,117	-0,051	-0,028
-352,766	-200,000	-0,013	0,111
-351,752	141,554	0,064	0,062
-350,737	113,576	0,118	-0,106
-349,723	126,761	0,031	0,029
-348,708	-68,970	-0,062	-0,017
-347,693	-41,718	0,086	0,032
-346,679	137,758	0,070	-0,067
-345,664	800,000	-0,044	0,098
-344,650	245,233	0,032	0,039
-343,635	-200,000	0,004	0,067
-342,620	81,203	0,147	0,116
-341,606	-64,427	-0,190	-0,056
-340,591	-58,895	0,070	0,022
-339,577	-200,000	0,000	-0,020
-338,562	251,278	0,040	0,050
-337,548	-200,000	-0,007	0,118
-336,533	-137,891	0,152	0,012
-335,518	-64,566	0,125	-0,037
-334,504	-32,438	0,124	-0,050
-333,489	-200,000	-0,021	0,092
-332,475	197,273	0,033	-0,037
-331,460	-200,000	0,030	0,112
-330,445	321,315	0,025	0,035
-329,431	-145,591	0,139	0,009
-328,416	181,158	-0,088	0,095
-327,402	376,525	0,068	0,103
-326,387	137,014	0,055	-0,052
-325,372	800,000	-0,018	0,051
-324,358	-14,688	-0,059	0,028
-323,343	322,964	-0,027	-0,037
-322,329	77,259	-0,011	0,009
-321,314	800,000	-0,009	0,028
-320,299	-200,000	0,008	0,031
-319,285	-200,000	0,013	0,112
-318,270	610,989	-0,015	0,028
-317,256	-200,000	-0,005	-0,053
-316,241	4,713	0,024	-0,013
-315,226	645,569	-0,029	0,055
-314,212	-25,924	0,023	-0,010
-313,197	66,930	-0,082	0,061
-312,183	-51,140	0,100	0,034
-311,168	-130,977	0,065	0,006
-310,153	800,000	-0,053	-0,108
-309,139	-200,000	0,010	-0,053
-308,124	583,705	0,050	0,091
-307,110	-200,000	-0,024	0,158
-306,095	-104,548	0,046	-0,008
-305,080	245,934	-0,036	0,044
-304,066	153,258	-0,053	0,053
-303,051	800,000	-0,009	0,028
-302,037	253,228	0,082	-0,102
-301,022	-112,567	0,007	-0,001
-300,008	-200,000	0,009	-0,204
-298,993	123,175	0,048	0,044
-297,978	486,736	0,117	0,196
-296,964	71,792	-0,013	0,010
-295,949	79,777	-0,080	-0,063
-294,935	-116,851	-0,050	0,007
-293,920	800,000	0,019	-0,053
-292,905	-200,000	-0,042	-0,147
-291,891	800,000	-0,014	0,033
-290,876	-110,547	0,112	0,017
-289,862	-114,669	-0,059	0,008
-288,847	800,000	0,018	-0,043
-287,832	-15,112	-0,053	0,025
-286,818	134,962	0,056	-0,053
-285,803	188,600	0,047	0,052
-284,789	271,555	-0,065	-0,084
-283,774	417,838	0,048	0,075
-282,759	49,739	0,071	-0,049
-281,745	-106,882	-0,072	0,012
-280,730	155,169	0,080	-0,080
-279,716	-98,238	-0,068	-0,013
-278,701	522,966	-0,064	-0,110
-277,686	-200,000	-0,001	-0,018
-276,672	139,783	0,028	-0,027
-275,657	-68,466	-0,032	0,009
-274,643	-200,000	-0,005	-0,083
-273,628	226,920	0,067	0,080
-272,613	800,000	-0,004	0,012
-271,599	109,848	0,095	0,084
-270,584	-115,628	-0,123	0,017
-269,570	-200,000	0,015	0,091
-268,555	800,000	-0,018	-0,043
-267,540	-200,000	-0,036	-0,141
-266,526	-200,000	-0,025	-0,182
-265,511	800,000	0,035	-0,097
-264,497	-45,382	0,095	-0,034
-263,482	-98,394	-0,088	0,016
-262,467	-200,000	-0,014	-0,109
-261,453	566,625	0,061	0,109
-260,438	-1,232	-0,032	-0,017
-259,424	800,000	-0,043	0,111
-258,409	51,980	-0,097	0,068
-257,395	-33,984	0,054	-0,022
-256,380	-115,041	0,125	-0,017
-255,365	-150,209	0,114	-0,006
-254,351	61,704	-0,092	-0,067
-253,336	273,841	-0,065	0,085
-252,322	-108,668	0,027	-0,004
-251,307	136,258	0,049	0,047
-250,292	-200,000	-0,011	0,051
-249,278	266,812	0,105	0,134
-248,263	-80,765	0,064	-0,015
-247,249	-200,000	-0,007	0,153
-246,234	13,733	0,143	0,081
-245,219	157,564	0,085	-0,086
-244,205	-30,942	-0,053	-0,022
-243,190	612,948	0,018	0,034
-242,176	-47,457	0,096	-0,034
-241,161	271,410	-0,015	0,020
-240,146	-109,493	0,124	0,019
-239,132	205,157	-0,099	-0,112
-238,117	-200,000	-0,022	-0,089
-237,103	-200,000	0,021	0,193
-236,088	-200,000	0,013	-0,054
-235,073	101,243	-0,103	-0,087
-234,059	-69,542	0,033	-0,009
-233,044	171,153	0,095	0,100
-232,030	131,607	-0,036	0,034
-231,015	-88,273	-0,081	-0,017
-230,000	-159,699	0,104	-0,004
-228,986	-200,000	0,046	-0,242
-227,971	68,022	0,030	-0,022
-226,957	800,000	-0,042	0,128
-225,942	-200,000	0,008	0,080
-224,927	-200,000	0,059	-0,194
-223,913	-200,000	0,006	-0,092
-222,898	-200,000	-0,011	-0,041
-221,884	-34,396	-0,074	-0,029
-220,869	416,990	-0,019	-0,030
-219,855	237,970	-0,024	0,029
-218,840	-200,000	-0,026	0,000
-217,825	800,000	0,053	0,129
-216,811	170,274	0,066	0,069
-215,796	-200,000	-0,025	-0,126
-214,782	572,952	0,022	-0,040
-213,767	-200,000	-0,035	-0,170
-212,752	275,871	-0,073	-0,095
-211,738	-8,033	0,029	0,014
-210,723	-75,273	0,134	-0,035
-209,709	237,597	-0,031	-0,038
-208,694	393,011	-0,026	-0,039
-207,679	127,925	0,009	-0,009
-206,665	-16,533	-0,058	-0,027
-205,650	51,136	-0,125	0,087
-204,636	-200,000	-0,001	0,053
-203,621	-200,000	-0,005	0,069
-202,606	-93,602	-0,036	-0,007
-201,592	-100,648	-0,083	0,015
-200,577	1,903	-0,189	-0,099
-199,563	565,936	0,019	0,033
-198,548	126,378	-0,037	0,034
-197,533	220,019	-0,046	0,053
-196,519	800,000	-0,048	0,100
-195,504	-94,431	-0,055	-0,011
-194,490	-200,000	-0,036	0,117
-193,475	19,350	-0,053	-0,031
-192,460	758,781	0,043	-0,085
-191,446	175,390	0,042	0,045
-190,431	-32,594	-0,032	-0,013
-189,417	-135,336	-0,026	-0,002
-188,402	-122,892	-0,051	0,006
-187,387	-45,255	0,091	0,033
-186,373	800,000	-0,016	0,046
-185,358	637,710	-0,026	-0,048
-184,344	-200,000	0,003	0,117
-183,329	-140,454	0,133	-0,010
-182,315	98,564	-0,019	-0,016
-181,300	15,219	-0,113	0,064
-180,285	195,599	-0,030	0,033
-179,271	-76,501	-0,069	-0,018
-178,256	800,000	-0,032	0,094
-177,242	800,000	0,003	0,007
-176,227	340,325	-0,041	-0,059
-175,212	800,000	0,033	0,100
-174,198	134,526	-0,081	0,076
-173,183	-95,155	0,060	-0,012
-172,169	800,000	0,003	0,008
-171,154	121,842	-0,122	0,111
-170,139	-200,000	-0,019	-0,129
-169,125	-195,479	0,125	0,001
-168,110	-200,000	-0,015	0,089
-167,096	166,533	0,056	0,058
-166,081	58,209	0,055	0,039
-165,066	11,968	0,131	0,073
-164,052	52,222	-0,124	0,086
-163,037	-71,511	-0,158	0,043
-162,023	-37,965	0,180	0,069
-161,008	319,929	-0,037	0,052
-159,993	-200,000	-0,003	-0,011
-158,979	800,000	0,046	-0,098
-157,964	-169,988	-0,059	0,002
-156,950	-200,000	0,011	-0,044
-155,935	-91,231	-0,043	-0,009
-154,920	-74,292	0,123	-0,032
-153,906	-200,000	0,028	0,094
-152,891	800,000	-0,032	0,095
-151,877	-155,581	-0,056	-0,003
-150,862	-60,535	-0,219	-0,067
-149,847	-200,000	-0,011	-0,122
-148,833	116,449	-0,063	-0,057
-147,818	-86,167	0,178	0,040
-146,804	492,771	-0,120	0,200
-145,789	-2,620	-0,065	0,033
-144,775	-200,000	0,029	0,150
-143,760	-25,071	-0,086	-0,037
-142,745	800,000	-0,019	0,051
-141,731	-200,000	0,001	-0,049
-140,716	45,451	0,129	-0,087
-139,702	800,000	0,030	-0,074
-138,687	-200,000	-0,012	0,088
-137,672	-88,119	-0,165	-0,036
-136,658	315,812	0,020	0,028
-135,643	712,491	-0,047	0,091
-134,629	49,498	-0,056	-0,038
-133,614	223,646	0,029	0,035
-132,599	364,164	-0,083	-0,123
-131,585	-145,214	0,140	-0,009
-130,570	800,000	-0,069	-0,148
-129,556	-154,728	-0,111	0,005
-128,541	800,000	0,019	-0,046
-127,526	-100,807	0,167	0,030
-126,512	42,887	-0,046	0,030
-125,497	-61,980	-0,031	-0,010
-124,483	50,006	0,051	0,035
-123,468	-97,194	0,099	0,019
-122,453	-67,356	0,068	0,019
-121,439	-55,153	0,125	-0,041
-120,424	535,983	-0,041	0,071
