DTS Sentinel unit serial number:	SN410029Multiplexer serial number:	ORYXHardware model number:	OX2-SRSoftware version number:	ORYX F/W v4,00 Oryx Data Collector v3.7.2.0data status	okinstallation	B6 Nyhavnadifferential loss correction	single-endedforward channel	channel 2reverse channel	N/Adate	2023/12/08time	11:40:08forward acquisition time	300,00reverse acquisition time	0,00gamma	499,1914k internal	0,3160k external	0,3160temperature offset calibration	1,0000default loss term (dB/km)	0,3820temperature slope calibration	1,0000multiplexer offset coefficient	1,0000multiplexer slope coefficient	1,0000fibre end	0,00T internal ref (°C)	14,97T ext. ref 1 (°C)	-1,46T ext. ref 2 (°C)	-1,47length (m)	temperature (°C)	Stokes	anti-Stokes-744,400	-128,129	0,182	-0,019
-743,385	-137,766	-0,391	-0,032
-742,371	-200,000	0,052	0,188
-741,356	-68,437	-0,419	0,119
-740,342	-200,000	0,063	0,208
-739,327	-47,180	-0,296	-0,106
-738,312	-200,000	-0,027	-0,132
-737,298	24,246	-0,241	-0,146
-736,283	-200,000	-0,002	0,089
-735,269	-44,639	-0,262	0,096
-734,254	-200,000	0,014	-0,127
-733,239	-87,971	-0,397	-0,087
-732,225	230,812	0,064	0,077
-731,210	63,641	0,043	0,032
-730,196	-200,000	-0,011	-0,041
-729,181	-200,000	-0,011	0,064
-728,167	-200,000	-0,012	-0,063
-727,152	117,613	0,080	0,073
-726,137	-200,000	-0,014	-0,053
-725,123	291,700	-0,072	-0,097
-724,108	39,028	-0,090	-0,059
-723,094	216,504	-0,061	-0,072
-722,079	30,640	-0,159	-0,100
-721,064	-92,069	0,008	0,002
-720,050	240,839	-0,083	-0,103
-719,035	800,000	0,038	-0,095
-718,021	-180,472	0,127	-0,002
-717,006	-200,000	-0,020	0,089
-715,991	-12,977	-0,032	-0,015
-714,977	136,798	-0,065	-0,062
-713,962	170,818	-0,070	-0,074
-712,948	800,000	0,022	-0,065
-711,933	-67,899	0,008	-0,002
-710,918	371,184	0,039	-0,059
-709,904	-78,634	-0,008	0,002
-708,889	-200,000	-0,002	0,019
-707,875	800,000	0,022	-0,058
-706,860	-43,974	0,128	-0,047
-705,845	-200,000	0,008	-0,058
-704,831	-200,000	0,014	-0,090
-703,816	145,704	-0,149	-0,147
-702,802	658,711	-0,059	-0,112
-701,787	-200,000	-0,009	-0,067
-700,772	-200,000	-0,013	-0,105
-699,758	243,400	0,036	-0,044
-698,743	-200,000	0,023	0,091
-697,729	-79,024	-0,039	-0,010
-696,714	48,932	0,106	-0,073
-695,699	1,468	-0,118	-0,062
-694,685	-73,480	-0,036	-0,010
-693,670	107,718	-0,090	-0,079
-692,656	44,941	-0,049	-0,033
-691,641	12,259	-0,061	0,034
-690,627	-200,000	-0,001	-0,015
-689,612	53,012	-0,025	0,018
-688,597	-21,737	-0,116	-0,052
-687,583	-90,582	-0,080	-0,017
-686,568	800,000	0,014	0,038
-685,554	149,813	-0,036	-0,035
-684,539	-73,940	0,067	0,018
-683,524	-87,725	0,180	0,040
-682,510	19,097	-0,081	-0,048
-681,495	-200,000	-0,021	0,072
-680,481	211,000	-0,083	-0,096
-679,466	-200,000	-0,008	-0,075
-678,451	136,349	-0,013	-0,013
-677,437	-27,073	0,106	-0,045
-676,422	777,396	0,071	-0,143
-675,408	800,000	0,021	0,056
-674,393	120,987	-0,047	-0,043
-673,378	-154,746	-0,051	0,002
-672,364	-113,889	-0,111	-0,016
-671,349	136,307	0,026	-0,025
-670,335	395,232	-0,098	0,151
-669,320	-105,930	0,091	-0,015
-668,305	800,000	-0,017	-0,037
-667,291	616,752	0,065	0,120
-666,276	-123,653	-0,098	0,011
-665,262	-200,000	-0,002	0,021
-664,247	604,960	0,067	-0,122
-663,232	34,491	-0,220	-0,141
-662,218	-200,000	0,018	-0,094
-661,203	-200,000	-0,015	-0,095
-660,189	-43,830	-0,020	-0,007
-659,174	160,607	-0,114	-0,116
-658,159	-200,000	-0,003	-0,085
-657,145	-200,000	0,002	0,045
-656,130	158,069	-0,066	0,068
-655,116	-44,155	-0,153	-0,056
-654,101	-145,794	0,036	0,002
-653,086	13,535	-0,065	-0,037
-652,072	8,845	-0,068	0,038
-651,057	800,000	0,031	-0,063
-650,043	163,708	-0,046	0,048
-649,028	-200,000	0,028	0,137
-648,014	303,239	0,015	-0,020
-646,999	-47,741	-0,082	-0,029
-645,984	139,249	0,110	0,106
-644,970	-39,289	-0,054	-0,021
-643,955	-200,000	-0,038	-0,131
-642,941	536,946	0,030	-0,053
-641,926	800,000	-0,024	-0,061
-640,911	-200,000	-0,015	0,114
-639,897	-200,000	0,039	0,127
-638,882	436,987	0,071	0,114
-637,868	72,775	0,036	-0,028
-636,853	34,266	-0,061	-0,039
-635,838	-138,400	-0,051	-0,004
-634,824	-200,000	0,039	-0,149
-633,809	800,000	-0,038	-0,081
-632,795	-200,000	0,007	0,028
-631,780	-200,000	0,004	-0,153
-630,765	-94,299	-0,092	0,018
-629,751	5,744	0,028	0,015
-628,736	41,849	-0,104	0,069
-627,722	302,954	-0,065	-0,089
-626,707	-200,000	0,016	-0,068
-625,692	-132,257	0,061	0,006
-624,678	-85,802	0,026	0,006
-623,663	-40,255	-0,035	-0,013
-622,649	27,958	-0,181	0,112
-621,634	-200,000	0,013	-0,114
-620,619	307,054	-0,070	-0,095
-619,605	-67,622	-0,099	0,028
-618,590	146,278	0,092	-0,091
-617,576	-200,000	-0,033	-0,160
-616,561	434,611	-0,038	-0,060
-615,546	135,321	0,058	0,055
-614,532	-140,474	-0,071	0,005
-613,517	800,000	-0,018	0,047
-612,503	-77,050	0,062	0,016
-611,488	-200,000	0,004	-0,040
-610,474	-200,000	-0,026	-0,089
-609,459	227,294	-0,028	-0,033
-608,444	711,188	-0,074	-0,145
-607,430	-38,143	-0,057	0,022
-606,415	-29,578	0,026	-0,011
-605,401	-52,019	-0,092	0,031
-604,386	-200,000	-0,013	0,061
-603,371	427,989	-0,024	0,038
-602,357	-94,468	-0,059	0,012
-601,342	80,753	0,100	-0,079
-600,328	-152,336	-0,194	-0,010
-599,313	-200,000	0,011	-0,154
-598,298	443,445	-0,084	-0,135
-597,284	-54,879	0,032	0,010
-596,269	126,903	-0,097	-0,090
-595,255	800,000	0,030	-0,081
-594,240	800,000	-0,026	-0,071
-593,225	-108,478	-0,116	-0,018
-592,211	-82,901	-0,059	-0,014
-591,196	-200,000	0,029	-0,107
-590,182	122,212	-0,069	0,064
-589,167	180,276	0,037	-0,039
-588,152	-86,128	0,107	-0,024
-587,138	-200,000	-0,000	0,149
-586,123	718,171	-0,029	0,056
-585,109	-36,111	-0,164	0,064
-584,094	-200,000	-0,000	-0,023
-583,079	124,322	0,055	-0,051
-582,065	-119,681	0,103	0,013
-581,050	685,728	-0,012	-0,023
-580,036	-4,199	0,139	-0,070
-579,021	66,588	-0,151	-0,112
-578,006	-101,243	0,043	-0,008
-576,992	-104,385	0,141	-0,024
-575,977	106,830	0,109	0,094
-574,963	-200,000	0,013	-0,083
-573,948	-200,000	0,002	-0,067
-572,934	-200,000	0,027	0,093
-571,919	73,468	-0,083	-0,064
-570,904	-101,675	-0,131	-0,023
-569,890	-111,787	-0,062	-0,009
-568,875	162,363	0,058	-0,060
-567,861	800,000	0,073	0,154
-566,846	-200,000	-0,024	0,084
-565,831	24,148	0,078	-0,047
-564,817	28,042	-0,048	-0,029
-563,802	187,953	-0,071	-0,078
-562,788	800,000	-0,021	0,055
-561,773	800,000	-0,038	0,109
-560,758	233,724	-0,050	0,060
-559,744	70,922	0,142	0,108
-558,729	-42,899	-0,066	0,024
-557,715	748,721	-0,019	0,037
-556,700	40,781	-0,072	-0,048
-555,685	429,938	-0,069	-0,110
-554,671	800,000	-0,024	0,057
-553,656	-182,082	0,173	0,002
-552,642	800,000	-0,028	-0,075
-551,627	-35,249	0,065	-0,026
-550,612	-200,000	-0,008	-0,098
-549,598	-200,000	0,002	0,048
-548,583	11,278	-0,038	-0,021
-547,569	-200,000	0,003	0,012
-546,554	800,000	-0,066	0,168
-545,539	318,700	0,046	0,064
-544,525	-9,984	0,071	0,034
-543,510	-53,621	0,027	0,009
-542,496	43,399	-0,144	-0,096
-541,481	345,661	-0,013	-0,019
-540,466	-12,015	-0,057	0,027
-539,452	-200,000	0,015	0,095
-538,437	-72,760	0,096	-0,026
-537,423	-57,634	-0,073	0,023
-536,408	-200,000	0,016	0,062
-535,393	-200,000	-0,017	-0,141
-534,379	-3,141	0,078	0,040
-533,364	-41,088	-0,044	-0,016
-532,350	662,386	0,052	0,099
-531,335	-200,000	-0,000	0,060
-530,321	221,914	-0,009	0,010
-529,306	-200,000	-0,016	0,096
-528,291	-31,644	-0,089	-0,036
-527,277	800,000	-0,063	-0,135
-526,262	-200,000	-0,020	-0,103
-525,248	-49,046	-0,068	-0,023
-524,233	-108,903	0,057	-0,009
-523,218	-200,000	0,006	-0,043
-522,204	203,884	-0,083	0,094
-521,189	-200,000	0,006	0,159
-520,175	-128,041	-0,036	0,004
-519,160	-200,000	0,003	-0,148
-518,145	366,937	0,077	-0,114
-517,131	197,922	0,157	0,176
-516,116	-74,806	0,074	0,019
-515,102	27,234	0,093	0,057
-514,087	-176,155	-0,031	0,001
-513,072	232,589	-0,054	0,065
-512,058	-200,000	-0,015	0,058
-511,043	-22,420	0,097	0,043
-510,029	-200,000	0,004	0,084
-509,014	800,000	-0,067	0,177
-507,999	800,000	0,029	-0,068
-506,985	187,480	-0,082	-0,090
-505,970	-36,463	0,138	-0,054
-504,956	-160,387	0,088	0,003
-503,941	-200,000	-0,024	0,101
-502,926	24,601	0,093	-0,056
-501,912	341,668	-0,028	0,040
-500,897	-79,453	-0,126	0,031
-499,883	-200,000	0,028	-0,162
-498,868	-36,574	0,094	-0,037
-497,853	-200,000	0,009	-0,103
-496,839	-200,000	-0,001	0,136
-495,824	800,000	0,057	0,163
-494,810	33,695	0,006	0,004
-493,795	412,853	-0,034	0,053
-492,781	800,000	-0,026	0,075
-491,766	-60,287	0,053	0,016
-490,751	-34,247	-0,055	-0,022
-489,737	-86,375	-0,113	0,025
-488,722	-52,781	0,115	0,038
-487,708	-200,000	0,011	0,068
-486,693	-117,541	-0,072	-0,009
-485,678	-200,000	-0,014	-0,052
-484,664	77,549	0,040	0,031
-483,649	194,366	0,075	0,083
-482,635	800,000	0,031	0,087
-481,620	113,589	0,042	0,038
-480,605	-111,480	0,176	0,026
-479,591	-200,000	-0,020	0,074
-478,576	-76,832	-0,096	-0,024
-477,562	-200,000	0,007	-0,146
-476,547	-117,223	-0,038	0,005
-475,532	-80,177	-0,070	-0,017
-474,518	68,719	-0,026	-0,019
-473,503	1,528	0,074	0,039
-472,489	-3,556	0,098	0,050
-471,474	-74,273	0,021	0,006
-470,459	-200,000	-0,028	0,127
-469,445	800,000	0,038	0,083
-468,430	800,000	-0,041	0,097
-467,416	-21,567	-0,066	-0,029
-466,401	800,000	-0,033	0,086
-465,386	-103,462	0,033	0,006
-464,372	-62,818	-0,120	0,036
-463,357	800,000	0,040	-0,105
-462,343	12,541	-0,090	-0,051
-461,328	544,515	-0,048	-0,084
-460,313	-117,727	0,082	0,011
-459,299	497,435	0,066	0,111
-458,284	56,856	0,205	0,145
-457,270	800,000	0,067	0,170
-456,255	179,600	-0,057	-0,061
-455,241	240,750	0,101	0,123
-454,226	211,314	0,029	-0,033
-453,211	99,908	0,037	-0,031
-452,197	94,327	-0,099	-0,082
-451,182	-200,000	0,002	-0,036
-450,168	99,096	-0,058	0,049
-449,153	-200,000	0,006	-0,053
-448,138	-53,053	0,169	-0,056
-447,124	-200,000	0,011	-0,106
-446,109	-200,000	-0,003	-0,141
-445,095	800,000	0,045	0,119
-444,080	72,760	-0,127	0,097
-443,065	212,489	-0,041	0,048
-442,051	800,000	-0,027	0,075
-441,036	462,076	-0,046	-0,074
-440,022	-200,000	-0,049	0,186
-439,007	363,228	-0,055	0,081
-437,992	14,402	-0,070	0,039
-436,978	73,284	0,056	-0,042
-435,963	-200,000	-0,015	-0,119
-434,949	-200,000	-0,035	-0,146
-433,934	800,000	0,059	-0,167
-432,919	-200,000	-0,002	0,082
-431,905	68,693	0,051	0,038
-430,890	-156,012	0,064	-0,003
-429,876	-200,000	0,024	-0,096
-428,861	-114,748	0,058	0,008
-427,846	263,021	-0,076	0,097
-426,832	-200,000	0,001	0,059
-425,817	-200,000	-0,009	0,041
-424,803	-129,731	-0,167	-0,016
-423,788	-43,874	0,066	-0,024
-422,773	-115,355	0,050	0,007
-421,759	-200,000	-0,003	0,019
-420,744	-93,446	0,121	-0,024
-419,730	800,000	-0,009	0,019
-418,715	-7,678	0,067	0,033
-417,701	22,833	-0,053	-0,031
-416,686	-60,462	0,093	0,028
-415,671	-53,760	0,291	0,096
-414,657	800,000	0,029	-0,073
-413,642	316,765	0,045	0,062
-412,628	-112,766	-0,170	-0,024
-411,613	-140,876	0,075	-0,006
-410,598	-42,775	-0,149	-0,055
-409,584	162,873	-0,050	-0,051
-408,569	-65,528	0,074	-0,021
-407,555	-200,000	-0,009	0,035
-406,540	-161,792	-0,133	-0,005
-405,525	-200,000	-0,006	-0,091
-404,511	-88,530	-0,066	-0,014
-403,496	-200,000	-0,028	-0,124
-402,482	15,829	0,080	-0,046
-401,467	-133,101	0,110	0,010
-400,452	61,483	0,024	0,018
-399,438	-127,084	-0,146	-0,015
-398,423	-71,350	0,064	-0,017
-397,409	90,158	-0,178	-0,145
-396,394	86,239	-0,040	-0,032
-395,379	-200,000	0,005	0,125
-394,365	800,000	0,019	0,054
-393,350	-137,525	0,153	0,012
-392,336	-68,708	0,029	0,008
-391,321	99,058	0,104	0,087
-390,306	-200,000	-0,024	-0,080
-389,292	182,800	-0,102	-0,109
-388,277	110,751	0,062	-0,054
-387,263	-132,728	0,128	-0,012
-386,248	139,079	-0,084	0,080
-385,233	86,370	-0,036	0,029
-384,219	-200,000	0,044	0,159
-383,204	192,102	-0,024	0,026
-382,190	-200,000	-0,009	-0,123
-381,175	390,569	0,056	-0,084
-380,160	-133,922	-0,150	0,013
-379,146	118,935	0,032	0,028
-378,131	111,909	-0,050	0,044
-377,117	800,000	-0,022	0,052
-376,102	-200,000	-0,009	0,180
-375,088	-26,904	-0,121	-0,051
-374,073	-23,376	-0,079	0,034
-373,058	-200,000	-0,030	-0,101
-372,044	800,000	-0,018	-0,054
-371,029	7,401	0,053	0,029
-370,015	-27,160	-0,057	-0,024
-369,000	800,000	0,021	-0,063
-367,985	113,129	0,090	-0,079
-366,971	67,955	0,061	0,045
-365,956	402,929	-0,066	-0,101
-364,942	298,930	-0,016	-0,022
-363,927	-112,834	0,068	0,010
-362,912	78,867	0,022	0,017
-361,898	202,297	-0,062	0,069
-360,883	44,560	-0,069	-0,046
-359,869	11,417	0,137	0,076
-358,854	-98,028	-0,018	0,003
-357,839	722,686	0,033	0,064
-356,825	387,981	0,038	-0,057
-355,810	180,053	-0,045	-0,048
-354,796	-200,000	0,012	-0,104
-353,781	147,145	-0,058	0,057
-352,766	-45,589	-0,113	-0,040
-351,752	-170,410	-0,020	-0,001
-350,737	-171,608	-0,058	0,001
-349,723	41,845	-0,021	0,014
-348,708	32,435	0,102	-0,064
-347,693	342,926	0,107	-0,153
-346,679	-200,000	-0,020	-0,115
-345,664	-74,817	-0,084	0,022
-344,650	-200,000	-0,007	-0,038
-343,635	-2,071	0,127	0,065
-342,620	-200,000	-0,016	0,062
-341,606	-140,439	0,047	-0,004
-340,591	21,908	-0,100	0,059
-339,577	182,238	0,060	0,065
-338,562	283,430	0,047	0,061
-337,548	-104,722	-0,073	-0,012
-336,533	-101,783	0,065	-0,011
-335,518	23,286	0,064	-0,038
-334,504	-200,000	0,004	-0,040
-333,489	670,688	0,055	0,104
-332,475	51,103	0,068	0,047
-331,460	800,000	0,035	-0,082
-330,445	-200,000	0,007	0,151
-329,431	297,881	0,060	0,080
-328,416	800,000	0,038	-0,092
-327,402	49,392	-0,054	0,037
-326,387	-200,000	-0,024	-0,111
-325,372	-104,166	0,084	0,014
-324,358	-175,838	-0,169	0,003
-323,343	159,804	-0,030	-0,031
-322,329	-200,000	0,016	-0,069
-321,314	749,409	0,058	-0,115
-320,299	211,981	0,123	0,141
-319,285	-39,136	-0,047	-0,018
-318,270	-200,000	-0,003	0,059
-317,256	-48,425	-0,048	0,017
-316,241	-6,275	0,035	-0,017
-315,226	138,624	-0,068	0,065
-314,212	410,447	0,058	0,090
-313,197	800,000	0,062	0,192
-312,183	19,552	0,138	-0,080
-311,168	-200,000	-0,027	-0,142
-310,153	60,770	-0,089	-0,064
-309,139	113,228	-0,037	-0,032
-308,124	227,751	0,098	0,116
-307,110	-200,000	-0,017	0,182
-306,095	-200,000	0,005	0,094
-305,080	310,871	-0,074	0,101
-304,066	710,604	0,034	-0,066
-303,051	102,078	-0,060	0,050
-302,037	43,337	0,067	-0,045
-301,022	98,350	0,087	-0,073
-300,008	391,664	-0,086	0,129
-298,993	-77,724	0,145	0,036
-297,978	50,286	0,092	0,063
-296,964	-148,205	-0,157	-0,009
-295,949	-130,447	-0,040	-0,004
-294,935	800,000	0,012	0,027
-293,920	754,443	0,041	-0,080
-292,905	87,180	0,093	0,075
-291,891	-31,047	-0,018	-0,007
-290,876	724,594	-0,037	0,072
-289,862	-82,873	-0,159	-0,037
-288,847	800,000	-0,031	-0,091
-287,832	-82,165	0,095	-0,022
-286,818	112,589	0,076	0,066
-285,803	-20,108	-0,094	-0,042
-284,789	800,000	0,012	0,025
-283,774	9,306	-0,168	-0,092
-282,759	800,000	-0,025	-0,073
-281,745	5,380	0,033	0,017
-280,730	12,067	0,045	0,025
-279,716	-155,728	0,086	-0,004
-278,701	-91,097	0,053	0,011
-277,686	-121,773	-0,197	-0,023
-276,672	-36,608	0,159	-0,061
-275,657	79,406	-0,032	-0,025
-274,643	55,354	-0,176	0,123
-273,628	492,836	0,042	-0,070
-272,613	-200,000	0,007	-0,078
-271,599	496,252	0,035	-0,058
-270,584	86,711	0,028	0,022
-269,570	-200,000	-0,003	0,117
-268,555	69,523	0,083	-0,062
-267,540	-200,000	-0,041	-0,210
-266,526	239,197	-0,011	0,013
-265,511	-53,813	0,065	0,021
-264,497	-200,000	0,017	0,088
-263,482	305,101	-0,016	-0,021
-262,467	-200,000	0,004	0,063
-261,453	-200,000	0,055	-0,196
-260,438	17,348	0,036	0,021
-259,424	800,000	0,038	-0,088
-258,409	-36,380	-0,108	-0,042
-257,395	46,439	0,101	0,068
-256,380	-200,000	-0,071	0,000
-255,365	-200,000	0,018	0,089
-254,351	759,565	-0,010	-0,020
-253,336	31,725	0,088	0,055
-252,322	438,951	-0,085	-0,135
-251,307	110,072	-0,080	0,069
-250,292	-30,360	-0,028	0,012
-249,278	-200,000	-0,004	0,104
-248,263	-43,394	-0,077	-0,028
-247,249	154,189	-0,119	0,118
-246,234	-1,072	-0,138	0,070
-245,219	392,970	-0,032	-0,049
-244,205	0,158	-0,142	-0,073
-243,190	420,748	0,026	0,040
-242,176	16,520	-0,175	-0,100
-241,161	6,596	0,066	-0,035
-240,146	-200,000	0,007	0,112
-239,132	800,000	-0,023	-0,046
-238,117	-115,439	-0,078	-0,011
-237,103	208,933	0,065	0,074
-236,088	-121,985	0,151	0,018
-235,073	800,000	-0,054	-0,118
-234,059	-40,340	0,087	0,032
-233,044	-200,000	0,038	0,129
-232,030	800,000	0,041	0,104
-231,015	-200,000	-0,016	0,110
-230,000	-24,365	0,058	-0,025
-228,986	-200,000	-0,006	0,058
-227,971	-200,000	-0,013	0,084
-226,957	-5,560	0,187	0,092
-225,942	136,915	-0,081	0,077
-224,927	-25,395	0,025	-0,011
-223,913	16,458	0,110	-0,063
-222,898	800,000	-0,093	-0,190
-221,884	-200,000	0,002	0,049
-220,869	-200,000	0,006	0,076
-219,855	-56,592	0,089	0,028
-218,840	-133,686	0,116	-0,010
-217,825	800,000	-0,012	0,037
-216,811	-15,545	-0,085	-0,039
-215,796	156,176	-0,088	-0,088
-214,782	-96,851	0,114	-0,021
-213,767	800,000	-0,032	0,074
-212,752	800,000	-0,054	0,123
-211,738	317,009	0,039	0,054
-210,723	8,322	-0,072	-0,039
-209,709	429,962	0,107	-0,167
-208,694	-129,565	-0,069	0,007
-207,679	-200,000	-0,004	-0,074
-206,665	-177,213	0,077	0,001
-205,650	-153,832	0,190	0,009
-204,636	-79,686	0,021	-0,005
-203,621	713,209	0,057	0,109
-202,606	-52,576	0,111	-0,037
-201,592	615,593	-0,113	-0,206
-200,577	-100,306	0,006	0,001
-199,563	-200,000	0,006	-0,092
-198,548	800,000	-0,045	0,115
-197,533	54,552	0,114	-0,079
-196,519	-32,743	-0,106	0,042
-195,504	-115,940	0,017	0,002
-194,490	-40,443	-0,068	-0,025
-193,475	-95,343	-0,056	-0,011
-192,460	-103,067	0,086	0,015
-191,446	-141,034	-0,092	-0,007
-190,431	800,000	0,027	0,060
-189,417	-200,000	0,032	0,189
-188,402	-200,000	0,007	0,035
-187,387	323,459	-0,012	0,017
-186,373	773,346	0,030	-0,058
-185,358	800,000	0,054	-0,130
-184,344	-116,848	-0,086	0,011
-183,329	-108,813	0,055	-0,008
-182,315	-200,000	-0,006	-0,143
-181,300	-200,000	-0,030	0,102
-180,285	-200,000	-0,008	0,043
-179,271	800,000	-0,029	-0,064
-178,256	-16,746	-0,069	-0,031
-177,242	27,260	0,116	0,070
-176,227	-21,334	0,082	-0,036
-175,212	169,272	0,136	0,140
-174,198	298,777	0,017	-0,023
-173,183	-74,046	-0,032	-0,008
-172,169	-81,668	-0,065	0,015
-171,154	-200,000	-0,007	-0,162
-170,139	82,013	0,132	-0,103
-169,125	130,720	-0,067	-0,062
-168,110	154,864	-0,070	-0,069
-167,096	-58,343	0,051	0,016
-166,081	-132,350	-0,106	-0,010
-165,066	-50,632	-0,027	0,009
-164,052	800,000	0,024	-0,072
-163,037	428,111	0,050	0,078
-162,023	405,150	-0,034	-0,052
-161,008	19,172	-0,101	-0,058
-159,993	404,209	-0,052	0,080
-158,979	-200,000	0,002	-0,034
-157,964	160,596	-0,094	-0,095
-156,950	132,272	0,020	-0,019
-155,935	764,100	0,045	-0,088
-154,920	-87,384	0,157	0,034
-153,906	691,465	0,041	0,077
-152,891	-88,753	-0,108	-0,023
-151,877	-92,515	-0,083	-0,017
-150,862	415,006	0,130	-0,199
-149,847	35,341	0,044	0,028
-148,833	467,604	-0,038	-0,061
-147,818	83,268	-0,115	-0,090
-146,804	302,050	-0,025	0,033
-145,789	-16,255	-0,124	0,057
-144,775	562,306	0,051	-0,090
-143,760	-110,719	-0,025	-0,004
-142,745	481,299	0,027	-0,045
-141,731	-132,450	-0,069	0,006
-140,716	-200,000	-0,006	0,092
-139,702	-200,000	-0,009	0,090
-138,687	-200,000	-0,024	0,106
-137,672	-56,517	-0,167	-0,053
-136,658	800,000	-0,062	-0,157
-135,643	-51,151	-0,099	0,033
-134,629	134,358	-0,109	0,102
-133,614	-48,725	0,045	-0,015
-132,599	-70,169	0,108	0,029
-131,585	-200,000	0,015	-0,062
-130,570	734,734	-0,045	-0,087
-129,556	-167,137	0,013	0,000
-128,541	-7,532	0,056	-0,027
-127,526	800,000	-0,027	0,055
-126,512	-33,566	0,054	0,021
-125,497	-52,528	-0,026	-0,009
-124,483	107,501	0,047	-0,041
-123,468	-151,217	0,068	-0,004
-122,453	-9,966	-0,028	0,013
-121,439	366,716	-0,123	-0,179
-120,424	800,000	-0,037	0,098
