DTS Sentinel unit serial number:	SN410029Multiplexer serial number:	ORYXHardware model number:	OX2-SRSoftware version number:	ORYX F/W v4,00 Oryx Data Collector v3.7.2.0data status	okinstallation	B6 Nyhavnadifferential loss correction	single-endedforward channel	channel 2reverse channel	N/Adate	2023/12/10time	01:40:08forward acquisition time	300,00reverse acquisition time	0,00gamma	499,1914k internal	0,3125k external	0,3125temperature offset calibration	1,0000default loss term (dB/km)	0,3820temperature slope calibration	1,0000multiplexer offset coefficient	1,0000multiplexer slope coefficient	1,0000fibre end	0,00T internal ref (°C)	21,93T ext. ref 1 (°C)	5,67T ext. ref 2 (°C)	5,67length (m)	temperature (°C)	Stokes	anti-Stokes-744,400	-17,319	0,094	0,044
-743,385	-122,548	-0,259	0,031
-742,371	150,243	0,119	-0,121
-741,356	-20,784	-0,216	0,098
-740,342	434,630	0,063	0,102
-739,327	7,201	-0,344	0,191
-738,312	299,457	-0,020	-0,027
-737,298	-93,242	-0,165	0,034
-736,283	800,000	-0,008	-0,026
-735,269	179,762	-0,168	0,183
-734,254	800,000	0,030	0,075
-733,239	-56,357	-0,356	-0,117
-732,225	800,000	0,049	-0,126
-731,210	78,743	0,039	0,031
-730,196	110,946	-0,066	0,059
-729,181	-200,000	-0,000	0,018
-728,167	-200,000	0,023	-0,076
-727,152	-60,792	0,069	-0,022
-726,137	-100,711	-0,045	-0,008
-725,123	140,751	-0,113	0,111
-724,108	-200,000	-0,002	-0,170
-723,094	53,015	-0,135	-0,096
-722,079	-41,436	-0,125	-0,048
-721,064	566,419	-0,061	0,111
-720,050	-200,000	0,016	-0,079
-719,035	119,714	-0,051	-0,047
-718,021	-128,339	-0,078	0,008
-717,006	-164,810	0,027	0,001
-715,991	57,341	0,065	-0,047
-714,977	-39,242	-0,119	-0,046
-713,962	321,667	-0,037	0,052
-712,948	-186,785	-0,052	-0,001
-711,933	-188,679	-0,067	-0,001
-710,918	-200,000	0,050	0,182
-709,904	393,811	-0,036	-0,055
-708,889	-49,198	-0,090	-0,032
-707,875	-200,000	0,019	0,105
-706,860	332,707	0,056	-0,081
-705,845	67,010	-0,090	0,068
-704,831	212,873	0,060	0,070
-703,816	94,248	0,059	0,050
-702,802	800,000	-0,030	0,076
-701,787	13,271	-0,096	0,055
-700,772	-53,371	-0,018	-0,006
-699,758	444,998	-0,029	0,047
-698,743	-200,000	0,024	0,093
-697,729	562,934	0,058	0,105
-696,714	-200,000	0,030	0,107
-695,699	95,250	-0,042	-0,036
-694,685	649,846	-0,040	-0,077
-693,670	-138,667	-0,146	0,012
-692,656	249,616	0,068	-0,085
-691,641	-173,153	-0,084	0,002
-690,627	-200,000	-0,002	0,202
-689,612	92,180	-0,076	-0,064
-688,597	800,000	0,025	0,067
-687,583	-200,000	-0,011	-0,064
-686,568	-157,049	0,048	-0,002
-685,554	-103,811	-0,034	-0,006
-684,539	62,423	-0,057	0,042
-683,524	258,629	0,047	-0,061
-682,510	-31,705	0,138	0,057
-681,495	-91,535	-0,105	-0,022
-680,481	201,363	-0,073	-0,083
-679,466	390,608	-0,074	-0,114
-678,451	571,387	-0,017	-0,031
-677,437	800,000	0,069	-0,177
-676,422	386,053	0,056	-0,086
-675,408	257,126	0,033	0,042
-674,393	-81,875	-0,072	0,017
-673,378	182,636	-0,085	-0,093
-672,364	-35,068	-0,070	-0,028
-671,349	-60,906	-0,139	-0,043
-670,335	133,423	0,143	0,137
-669,320	800,000	0,041	0,090
-668,305	-200,000	0,016	0,104
-667,291	800,000	-0,057	0,143
-666,276	515,460	0,030	0,053
-665,262	-110,974	-0,064	-0,010
-664,247	-78,332	0,013	-0,003
-663,232	3,887	-0,146	0,079
-662,218	-200,000	-0,025	0,140
-661,203	221,800	-0,102	0,122
-660,189	-63,201	-0,028	0,008
-659,174	-45,523	-0,117	-0,043
-658,159	-158,341	0,143	0,006
-657,145	-200,000	0,000	-0,175
-656,130	800,000	0,057	0,134
-655,116	-200,000	0,005	0,048
-654,101	-200,000	-0,017	0,130
-653,086	61,712	-0,069	-0,051
-652,072	-37,970	-0,148	-0,058
-651,057	-93,075	0,093	-0,019
-650,043	800,000	0,043	-0,125
-649,028	-200,000	-0,014	-0,134
-648,014	118,881	0,035	0,032
-646,999	-200,000	-0,002	0,028
-645,984	35,588	0,070	-0,045
-644,970	-200,000	-0,014	-0,098
-643,955	631,541	-0,051	-0,095
-642,941	-61,018	-0,082	0,026
-641,926	474,167	0,073	-0,122
-640,911	800,000	0,043	0,102
-639,897	35,986	-0,091	-0,060
-638,882	-200,000	0,012	0,053
-637,868	398,611	0,058	0,090
-636,853	133,078	-0,036	0,034
-635,838	161,453	-0,073	-0,076
-634,824	-35,717	0,092	-0,037
-633,809	-134,153	-0,155	-0,014
-632,795	-200,000	-0,002	0,033
-631,780	-88,363	-0,092	-0,020
-630,765	168,367	0,079	-0,084
-629,751	-200,000	-0,030	-0,134
-628,736	-200,000	-0,012	-0,071
-627,722	800,000	0,011	-0,033
-626,707	-3,956	-0,158	0,081
-625,692	-200,000	-0,007	-0,028
-624,678	800,000	-0,031	0,092
-623,663	680,678	0,030	0,059
-622,649	-162,851	-0,117	-0,004
-621,634	-49,280	-0,151	-0,053
-620,619	-69,553	-0,116	-0,033
-619,605	-156,727	-0,057	-0,003
-618,590	25,907	0,034	-0,021
-617,576	-200,000	-0,000	0,026
-616,561	-112,673	0,037	-0,005
-615,546	-56,291	0,059	0,019
-614,532	170,416	-0,055	-0,058
-613,517	-153,794	-0,028	0,001
-612,503	-200,000	-0,042	0,177
-611,488	-122,666	-0,120	0,014
-610,474	-63,088	0,047	0,014
-609,459	-200,000	0,024	-0,181
-608,444	-200,000	0,004	-0,090
-607,430	-200,000	-0,008	-0,231
-606,415	55,539	0,067	0,048
-605,401	-85,813	-0,026	-0,006
-604,386	800,000	0,026	0,074
-603,371	800,000	0,035	0,074
-602,357	-200,000	-0,015	-0,071
-601,342	-118,087	-0,087	-0,011
-600,328	-23,074	-0,181	0,080
-599,313	157,095	-0,082	-0,084
-598,298	7,354	0,046	-0,026
-597,284	-200,000	0,004	-0,067
-596,269	-200,000	-0,003	-0,027
-595,255	800,000	0,085	0,193
-594,240	-200,000	0,009	-0,069
-593,225	800,000	-0,060	-0,127
-592,211	-32,963	-0,062	-0,026
-591,196	800,000	0,019	0,050
-590,182	323,059	0,088	0,124
-589,167	-102,129	-0,071	0,013
-588,152	-176,085	0,138	0,003
-587,138	-93,846	-0,128	0,026
-586,123	696,118	-0,046	0,090
-585,109	485,862	-0,051	-0,087
-584,094	347,602	-0,038	-0,056
-583,079	355,507	-0,031	-0,046
-582,065	491,305	0,041	0,070
-581,050	571,127	0,046	0,084
-580,036	800,000	0,009	0,025
-579,021	-31,152	-0,074	0,031
-578,006	800,000	-0,078	-0,169
-576,992	-200,000	-0,002	-0,020
-575,977	366,198	-0,092	0,138
-574,963	-71,284	0,149	0,041
-573,948	-14,861	-0,228	0,108
-572,934	-41,683	0,181	0,069
-571,919	800,000	-0,013	0,039
-570,904	263,773	-0,043	-0,055
-569,890	-27,926	-0,099	-0,042
-568,875	-200,000	-0,001	-0,039
-567,861	49,974	0,065	0,045
-566,846	512,791	0,027	-0,046
-565,831	76,861	-0,036	-0,029
-564,817	93,422	-0,087	-0,073
-563,802	-150,677	-0,178	0,010
-562,788	685,668	-0,056	-0,109
-561,773	800,000	0,036	-0,091
-560,758	-87,053	-0,163	0,037
-559,744	-9,114	0,053	0,026
-558,729	10,814	-0,045	0,025
-557,715	9,199	-0,091	-0,051
-556,700	-107,009	-0,084	-0,014
-555,685	-174,842	0,093	0,002
-554,671	-196,876	-0,049	0,000
-553,656	800,000	-0,062	-0,136
-552,642	-200,000	0,017	0,081
-551,627	64,307	-0,099	-0,073
-550,612	-200,000	-0,004	-0,077
-549,598	-43,267	0,103	0,038
-548,583	-200,000	0,001	0,099
-547,569	-125,861	0,128	-0,014
-546,554	48,941	0,066	0,046
-545,539	-118,873	0,035	-0,004
-544,525	131,560	-0,018	-0,017
-543,510	370,885	0,008	0,012
-542,496	0,950	-0,150	-0,079
-541,481	0,954	-0,034	-0,018
-540,466	374,963	-0,054	0,082
-539,452	539,264	0,047	0,084
-538,437	-200,000	0,007	-0,074
-537,423	-200,000	0,019	-0,183
-536,408	195,368	0,026	-0,029
-535,393	-82,200	-0,127	0,030
-534,379	23,170	-0,111	-0,067
-533,364	-165,893	-0,040	0,001
-532,350	-200,000	0,003	0,099
-531,335	357,493	-0,036	0,053
-530,321	-200,000	0,023	0,179
-529,306	240,616	-0,073	0,090
-528,291	643,326	-0,062	-0,117
-527,277	-200,000	0,019	-0,080
-526,262	-200,000	-0,018	0,095
-525,248	-165,431	-0,022	0,001
-524,233	-112,913	-0,001	-0,000
-523,218	33,754	0,069	0,044
-522,204	157,340	0,039	0,039
-521,189	800,000	-0,072	-0,158
-520,175	-12,578	0,108	0,052
-519,160	-200,000	-0,016	0,074
-518,145	800,000	-0,024	0,055
-517,131	124,805	0,099	0,092
-516,116	-97,397	0,102	0,019
-515,102	-87,930	0,072	-0,016
-514,087	268,173	-0,051	-0,067
-513,072	-129,591	-0,128	0,013
-512,058	-27,731	0,159	-0,068
-511,043	-38,317	-0,034	0,013
-510,029	-19,873	0,017	-0,008
-509,014	-176,371	-0,193	-0,004
-507,999	523,411	-0,103	0,179
-506,985	-200,000	0,005	0,149
-505,970	-90,170	0,177	0,038
-504,956	659,567	-0,035	-0,067
-503,941	-200,000	0,007	0,098
-502,926	-200,000	0,004	-0,068
-501,912	-200,000	-0,006	0,106
-500,897	311,240	-0,045	-0,062
-499,883	303,462	-0,019	-0,026
-498,868	-200,000	-0,012	-0,093
-497,853	-200,000	0,037	-0,135
-496,839	-145,269	0,091	0,006
-495,824	-200,000	-0,011	0,172
-494,810	53,144	0,047	-0,033
-493,795	422,965	-0,017	0,026
-492,781	540,028	-0,015	0,027
-491,766	135,350	0,102	-0,098
-490,751	-44,647	0,042	-0,015
-489,737	184,235	0,051	0,056
-488,722	800,000	0,041	0,111
-487,708	-28,914	0,179	0,076
-486,693	90,230	-0,013	0,011
-485,678	-189,139	-0,125	-0,001
-484,664	-200,000	-0,015	-0,142
-483,649	800,000	0,030	-0,062
-482,635	-54,544	-0,036	-0,012
-481,620	800,000	0,015	-0,037
-480,605	24,633	-0,047	-0,028
-479,591	-12,467	-0,010	0,005
-478,576	-200,000	-0,021	-0,115
-477,562	-87,440	0,104	-0,023
-476,547	800,000	0,019	-0,054
-475,532	187,982	0,029	0,031
-474,518	-61,395	0,138	0,042
-473,503	-69,589	0,157	0,044
-472,489	294,026	0,036	0,048
-471,474	49,457	0,073	-0,051
-470,459	-122,534	-0,096	0,011
-469,445	-200,000	0,015	-0,144
-468,430	13,666	0,134	-0,076
-467,416	-200,000	0,007	0,029
-466,401	-53,927	0,046	0,015
-465,386	-200,000	0,033	0,117
-464,372	35,253	0,038	0,025
-463,357	326,519	-0,056	-0,079
-462,343	13,490	0,035	0,020
-461,328	-86,025	-0,062	0,014
-460,313	-58,290	0,132	-0,042
-459,299	800,000	0,023	-0,050
-458,284	72,159	0,095	0,073
-457,270	-200,000	0,004	-0,061
-456,255	139,328	-0,258	-0,250
-455,241	-35,177	-0,115	-0,046
-454,226	-200,000	-0,007	-0,042
-453,211	54,152	-0,109	0,077
-452,197	105,017	0,057	0,049
-451,182	258,707	-0,065	-0,083
-450,168	355,454	0,055	-0,081
-449,153	-200,000	-0,013	-0,124
-448,138	-57,705	-0,110	-0,035
-447,124	-91,100	0,026	0,006
-446,109	-52,391	0,118	-0,040
-445,095	-200,000	-0,012	-0,062
-444,080	12,681	0,065	0,037
-443,065	-51,529	0,065	0,022
-442,051	308,437	-0,021	-0,029
-441,036	-51,507	-0,151	0,052
-440,022	-89,195	-0,121	0,026
-439,007	-78,175	-0,083	0,021
-437,992	-200,000	0,004	-0,103
-436,978	-38,814	0,028	-0,011
-435,963	412,732	0,059	0,092
-434,949	-200,000	-0,027	0,123
-433,934	800,000	-0,007	-0,016
-432,919	-94,250	0,075	-0,015
-431,905	-33,851	0,164	-0,066
-430,890	143,912	-0,028	0,028
-429,876	155,984	-0,116	0,118
-428,861	-147,750	0,103	-0,006
-427,846	500,877	-0,089	-0,152
-426,832	-200,000	0,027	-0,132
-425,817	-200,000	0,006	0,138
-424,803	-98,595	-0,069	0,013
-423,788	-200,000	0,004	0,021
-422,773	47,180	0,024	0,016
-421,759	104,082	-0,052	0,045
-420,744	230,951	-0,063	-0,076
-419,730	-75,324	0,089	-0,023
-418,715	399,583	0,056	-0,086
-417,701	108,563	-0,056	-0,050
-416,686	-98,982	-0,012	0,002
-415,671	-200,000	-0,004	0,026
-414,657	-106,868	0,095	0,015
-413,642	-200,000	0,024	0,124
-412,628	-128,840	-0,073	0,007
-411,613	151,744	-0,049	0,049
-410,598	800,000	0,042	0,102
-409,584	194,280	-0,052	-0,058
-408,569	147,150	0,066	-0,065
-407,555	800,000	-0,062	0,135
-406,540	-200,000	0,028	0,105
-405,525	800,000	-0,049	0,143
-404,511	1,539	-0,184	-0,097
-403,496	-200,000	-0,002	-0,079
-402,482	716,948	0,014	0,027
-401,467	-200,000	0,022	0,105
-400,452	-200,000	0,024	0,158
-399,438	73,665	-0,071	0,055
-398,423	-158,926	-0,135	0,006
-397,409	-46,712	0,064	0,023
-396,394	800,000	-0,029	0,093
-395,379	89,993	-0,009	-0,008
-394,365	-196,119	0,149	-0,001
-393,350	18,114	-0,112	-0,066
-392,336	-40,256	0,082	-0,031
-391,321	-100,435	-0,113	-0,020
-390,306	-200,000	-0,015	-0,104
-389,292	406,677	-0,057	-0,089
-388,277	-200,000	0,008	-0,044
-387,263	-107,418	0,115	-0,018
-386,248	172,805	0,149	0,157
-385,233	74,169	-0,061	-0,047
-384,219	218,861	-0,132	0,155
-383,204	101,360	-0,071	0,061
-382,190	-167,380	0,101	0,003
-381,175	-54,321	0,096	0,032
-380,160	800,000	0,028	-0,079
-379,146	-167,913	0,056	-0,002
-378,131	217,260	0,052	0,061
-377,117	-200,000	0,007	0,081
-376,102	438,755	0,006	0,009
-375,088	800,000	-0,021	-0,046
-374,073	98,355	-0,050	-0,043
-373,058	-25,552	0,133	0,057
-372,044	124,005	-0,066	0,061
-371,029	-39,557	0,079	0,030
-370,015	14,778	-0,125	-0,072
-369,000	-95,074	-0,110	0,022
-367,985	4,113	0,031	-0,017
-366,971	36,864	-0,035	-0,023
-365,956	800,000	-0,013	0,041
-364,942	-76,192	0,108	0,028
-363,927	800,000	-0,128	0,263
-362,912	-156,721	0,091	-0,004
-361,898	287,702	-0,055	0,073
-360,883	681,024	0,055	-0,107
-359,869	102,399	-0,015	0,013
-358,854	407,444	-0,084	-0,130
-357,839	-1,688	0,044	0,022
-356,825	186,467	0,069	-0,076
-355,810	-100,244	0,107	0,019
-354,796	515,417	-0,094	-0,161
-353,781	-76,152	-0,141	0,036
-352,766	-200,000	-0,006	-0,032
-351,752	-200,000	0,014	-0,093
-350,737	-166,516	-0,164	-0,005
-349,723	-64,158	0,040	-0,012
-348,708	-200,000	0,000	0,049
-347,693	155,584	-0,062	0,063
-346,679	100,307	-0,068	0,058
-345,664	643,570	0,023	0,043
-344,650	338,180	-0,051	0,072
-343,635	800,000	0,038	-0,093
-342,620	800,000	-0,020	0,047
-341,606	100,971	0,086	-0,073
-340,591	800,000	0,037	-0,082
-339,577	-182,836	-0,074	-0,001
-338,562	-23,975	-0,089	-0,039
-337,548	-200,000	0,034	0,213
-336,533	-134,928	0,133	0,012
-335,518	-137,078	0,115	-0,009
-334,504	-92,163	-0,168	-0,034
-333,489	375,950	-0,077	-0,116
-332,475	800,000	0,051	-0,133
-331,460	-200,000	-0,003	0,090
-330,445	-177,558	-0,071	-0,001
-329,431	-126,834	-0,118	-0,013
-328,416	-75,052	0,151	0,039
-327,402	-56,831	0,128	0,041
-326,387	180,930	-0,024	-0,026
-325,372	306,070	0,011	-0,015
-324,358	-0,239	0,142	-0,074
-323,343	83,329	0,017	-0,014
-322,329	-200,000	-0,022	0,173
-321,314	-87,699	0,113	-0,025
-320,299	-200,000	-0,000	-0,020
-319,285	-31,521	0,100	0,041
-318,270	800,000	-0,041	0,089
-317,256	-200,000	-0,024	-0,093
-316,241	179,160	-0,023	-0,024
-315,226	-144,799	-0,013	-0,001
-314,212	-200,000	0,039	0,132
-313,197	-111,105	0,022	-0,003
-312,183	-200,000	0,007	-0,100
-311,168	-200,000	-0,020	-0,145
-310,153	-15,306	0,160	0,074
-309,139	513,351	-0,071	0,122
-308,124	31,075	-0,118	-0,074
-307,110	143,862	-0,082	0,080
-306,095	-10,524	0,028	-0,013
-305,080	-80,764	0,118	0,028
-304,066	88,411	-0,057	-0,047
-303,051	-168,548	0,052	0,001
-302,037	-200,000	0,003	0,036
-301,022	413,480	0,051	0,080
-300,008	-119,568	0,080	-0,010
-298,993	-132,863	0,097	-0,009
-297,978	655,378	-0,034	0,064
-296,964	800,000	-0,019	-0,041
-295,949	-200,000	0,020	-0,124
-294,935	-200,000	0,006	-0,043
-293,920	96,223	-0,103	-0,087
-292,905	800,000	-0,033	-0,105
-291,891	226,780	-0,070	0,084
-290,876	142,555	-0,035	-0,034
-289,862	800,000	-0,054	-0,159
-288,847	800,000	-0,042	-0,130
-287,832	-200,000	0,003	-0,078
-286,818	-52,146	-0,081	0,027
-285,803	6,593	-0,103	0,056
-284,789	-16,769	0,059	-0,027
-283,774	800,000	0,021	0,057
-282,759	-23,668	0,096	-0,042
-281,745	-64,007	0,063	0,019
-280,730	129,157	-0,052	-0,049
-279,716	19,145	0,107	0,063
-278,701	-66,474	0,021	0,006
-277,686	800,000	0,063	0,129
-276,672	-200,000	0,029	0,109
-275,657	-198,699	0,125	-0,000
-274,643	800,000	0,033	-0,081
-273,628	-11,635	-0,061	-0,029
-272,613	214,737	0,014	0,016
-271,599	713,649	0,065	0,127
-270,584	800,000	-0,032	0,086
-269,570	161,441	-0,051	0,053
-268,555	-200,000	0,006	-0,027
-267,540	168,870	0,009	0,009
-266,526	-200,000	-0,017	-0,054
-265,511	311,774	0,051	0,070
-264,497	-200,000	-0,004	0,088
-263,482	83,157	-0,136	0,108
-262,467	213,780	-0,064	0,075
-261,453	140,888	0,094	-0,091
-260,438	14,270	0,051	0,029
-259,424	183,054	-0,062	-0,067
-258,409	41,171	0,100	-0,066
-257,395	-200,000	-0,004	-0,179
-256,380	-200,000	0,017	0,123
-255,365	-200,000	-0,015	0,160
-254,351	-35,744	0,190	0,075
-253,336	45,293	0,156	0,105
-252,322	231,526	-0,026	-0,032
-251,307	56,434	-0,079	-0,056
-250,292	-44,656	0,158	0,057
-249,278	-164,157	0,067	0,002
-248,263	-200,000	-0,013	-0,099
-247,249	-75,815	-0,075	0,019
-246,234	-200,000	0,016	0,094
-245,219	239,680	0,028	-0,034
-244,205	-11,584	-0,061	0,029
-243,190	-200,000	-0,003	-0,040
-242,176	-117,095	0,047	0,006
-241,161	-137,091	0,199	-0,016
-240,146	-200,000	-0,019	0,106
-239,132	29,862	-0,031	-0,019
-238,117	701,552	-0,070	-0,135
-237,103	333,135	0,045	-0,064
-236,088	800,000	0,026	-0,054
-235,073	800,000	0,023	0,050
-234,059	-15,707	-0,095	0,044
-233,044	63,419	0,029	0,021
-232,030	91,256	0,052	0,043
-231,015	56,545	-0,082	-0,058
-230,000	-89,740	-0,117	0,025
-228,986	79,223	0,092	0,072
-227,971	800,000	-0,021	0,049
-226,957	-200,000	-0,014	0,146
-225,942	-39,981	-0,081	-0,031
-224,927	548,601	-0,028	-0,050
-223,913	800,000	0,011	0,030
-222,898	-200,000	-0,008	-0,112
-221,884	219,851	0,059	0,070
-220,869	-34,178	0,073	0,029
-219,855	97,556	0,057	0,048
-218,840	-110,275	0,157	-0,024
-217,825	563,369	-0,011	0,020
-216,811	541,820	-0,071	-0,125
-215,796	-69,024	-0,109	-0,031
-214,782	-200,000	-0,016	-0,065
-213,767	-3,928	0,113	0,057
-212,752	193,605	-0,024	0,026
-211,738	123,467	-0,061	0,056
-210,723	-96,643	0,153	-0,029
-209,709	50,724	0,020	-0,013
-208,694	-200,000	0,003	-0,021
-207,679	-140,422	0,044	-0,003
-206,665	-200,000	0,006	0,036
-205,650	-102,934	-0,087	-0,015
-204,636	-84,635	-0,066	-0,015
-203,621	117,076	0,005	-0,005
-202,606	478,514	0,026	0,043
-201,592	98,849	-0,151	-0,127
-200,577	175,899	-0,048	-0,051
-199,563	-112,949	-0,104	-0,015
-198,548	-58,394	0,035	-0,011
-197,533	-200,000	-0,017	0,066
-196,519	369,321	0,094	0,139
-195,504	-112,896	0,060	-0,009
-194,490	149,443	-0,059	-0,058
-193,475	-57,037	-0,088	0,028
-192,460	-200,000	0,007	0,033
-191,446	-14,523	0,074	0,034
-190,431	800,000	0,037	0,108
-189,417	30,898	0,127	0,079
-188,402	-48,430	0,061	0,021
-187,387	800,000	-0,018	0,038
-186,373	43,965	0,131	-0,087
-185,358	-200,000	-0,025	-0,114
-184,344	519,973	0,086	0,147
-183,329	-200,000	-0,006	0,060
-182,315	-166,083	0,066	0,002
-181,300	-63,237	0,045	0,013
-180,285	-48,503	-0,085	0,030
-179,271	606,680	-0,056	-0,103
-178,256	-200,000	-0,004	-0,055
-177,242	800,000	0,041	0,102
-176,227	-86,309	0,027	0,006
-175,212	53,969	0,116	-0,081
-174,198	-25,779	-0,113	0,048
-173,183	13,216	-0,079	-0,044
-172,169	-200,000	0,005	-0,070
-171,154	800,000	0,054	-0,150
-170,139	169,120	-0,011	0,012
-169,125	800,000	0,017	-0,041
-168,110	800,000	-0,017	-0,038
-167,096	-200,000	-0,006	0,048
-166,081	-200,000	0,013	-0,055
-165,066	304,695	0,073	-0,098
-164,052	800,000	0,032	0,096
-163,037	185,349	0,065	-0,071
-162,023	129,045	0,066	0,061
-161,008	199,763	0,064	0,071
-159,993	281,205	0,074	-0,097
-158,979	800,000	0,039	-0,079
-157,964	528,894	-0,027	0,046
-156,950	127,042	-0,093	0,086
-155,935	46,267	0,020	0,013
-154,920	-61,009	0,148	-0,045
-153,906	212,953	0,164	0,189
-152,891	-200,000	-0,007	-0,059
-151,877	-200,000	-0,009	-0,059
-150,862	-200,000	-0,008	0,070
-149,847	-114,986	-0,078	-0,011
-148,833	-118,874	-0,089	0,011
-147,818	756,776	0,046	-0,091
-146,804	271,846	-0,064	0,082
-145,789	-51,711	-0,095	0,032
-144,775	733,004	-0,044	-0,087
-143,760	800,000	0,029	-0,081
-142,745	-109,054	-0,143	-0,022
-141,731	-200,000	-0,010	0,068
-140,716	77,931	0,115	-0,089
-139,702	280,340	-0,080	0,104
-138,687	-56,655	-0,061	-0,020
-137,672	-200,000	0,002	0,043
-136,658	767,730	-0,055	-0,108
-135,643	-104,305	-0,116	-0,019
-134,629	-200,000	-0,003	-0,013
-133,614	139,593	0,083	-0,080
-132,599	800,000	-0,017	-0,037
-131,585	-200,000	0,027	0,144
-130,570	-200,000	0,006	0,075
-129,556	-82,993	-0,186	0,043
-128,541	-76,874	-0,029	-0,007
-127,526	800,000	0,036	-0,102
-126,512	-200,000	0,007	0,105
-125,497	163,768	0,052	0,053
-124,483	-200,000	0,003	0,140
-123,468	135,811	-0,073	0,069
-122,453	-171,657	0,064	-0,001
-121,439	-200,000	-0,010	-0,121
-120,424	608,111	-0,014	0,026
