DTS Sentinel unit serial number:	SN410029Multiplexer serial number:	ORYXHardware model number:	OX2-SRSoftware version number:	ORYX F/W v4,00 Oryx Data Collector v3.7.2.0data status	okinstallation	B6 Nyhavnadifferential loss correction	single-endedforward channel	channel 2reverse channel	N/Adate	2023/12/07time	13:40:08forward acquisition time	300,00reverse acquisition time	0,00gamma	499,1914k internal	0,3201k external	0,3201temperature offset calibration	1,0000default loss term (dB/km)	0,3820temperature slope calibration	1,0000multiplexer offset coefficient	1,0000multiplexer slope coefficient	1,0000fibre end	0,00T internal ref (°C)	12,47T ext. ref 1 (°C)	-1,60T ext. ref 2 (°C)	-1,60length (m)	temperature (°C)	Stokes	anti-Stokes-744,400	-131,484	0,102	-0,010
-743,385	-88,647	-0,323	-0,069
-742,371	-62,283	0,155	0,047
-741,356	-95,020	-0,318	-0,062
-740,342	276,899	0,109	0,141
-739,327	-192,230	-0,254	-0,002
-738,312	-143,077	0,136	0,009
-737,298	21,987	-0,297	-0,176
-736,283	4,262	0,145	0,077
-735,269	-198,547	-0,293	-0,001
-734,254	794,185	0,054	0,109
-733,239	-29,685	-0,536	-0,221
-732,225	-124,774	0,227	-0,025
-731,210	183,609	-0,070	0,076
-730,196	800,000	0,031	-0,081
-729,181	800,000	-0,061	0,127
-728,167	-200,000	0,004	-0,040
-727,152	-108,513	0,038	-0,006
-726,137	-163,086	-0,185	0,006
-725,123	-200,000	-0,002	-0,189
-724,108	90,992	-0,077	-0,063
-723,094	118,076	-0,049	-0,043
-722,079	-200,000	-0,033	-0,199
-721,064	-94,569	0,142	-0,028
-720,050	-196,607	0,021	0,000
-719,035	-127,573	-0,193	-0,020
-718,021	504,567	-0,058	-0,097
-717,006	-200,000	0,004	-0,036
-715,991	328,510	-0,093	-0,130
-714,977	5,343	-0,126	-0,067
-713,962	143,607	0,050	0,049
-712,948	621,834	0,024	-0,043
-711,933	37,151	-0,030	0,019
-710,918	196,431	-0,020	0,022
-709,904	-200,000	-0,034	-0,121
-708,889	-70,241	-0,048	-0,013
-707,875	345,309	0,056	-0,080
-706,860	-200,000	0,020	-0,131
-705,845	74,098	-0,079	0,060
-704,831	244,051	-0,086	0,105
-703,816	2,951	0,111	0,059
-702,802	90,285	-0,090	-0,073
-701,787	-200,000	0,005	-0,059
-700,772	-120,575	-0,073	-0,009
-699,758	-15,108	-0,047	-0,022
-698,743	37,680	0,161	-0,103
-697,729	800,000	0,020	0,042
-696,714	8,637	0,056	0,031
-695,699	800,000	-0,028	-0,068
-694,685	-106,634	-0,117	-0,019
-693,670	800,000	0,018	-0,052
-692,656	800,000	0,056	-0,121
-691,641	40,979	-0,075	-0,049
-690,627	-200,000	0,001	0,123
-689,612	-200,000	-0,040	0,196
-688,597	-54,922	-0,109	-0,035
-687,583	293,768	-0,100	-0,133
-686,568	-20,760	0,092	0,041
-685,554	711,697	-0,061	0,118
-684,539	284,771	0,088	-0,116
-683,524	-58,931	0,070	-0,022
-682,510	-91,299	0,088	0,018
-681,495	-140,201	0,076	0,006
-680,481	-200,000	-0,038	-0,186
-679,466	324,043	-0,127	-0,177
-678,451	193,417	0,056	0,061
-677,437	-13,793	0,028	0,013
-676,422	800,000	0,048	0,122
-675,408	-139,818	-0,023	-0,002
-674,393	-37,274	0,068	0,026
-673,378	-132,726	-0,074	0,007
-672,364	63,655	0,052	-0,038
-671,349	-128,184	0,085	-0,009
-670,335	303,361	0,048	-0,065
-669,320	-200,000	-0,000	0,065
-668,305	-200,000	-0,039	-0,141
-667,291	-40,321	-0,036	0,013
-666,276	-51,643	-0,073	0,024
-665,262	480,804	0,087	-0,143
-664,247	-93,297	-0,160	0,032
-663,232	-147,019	-0,095	-0,006
-662,218	-200,000	0,003	0,021
-661,203	-200,000	0,016	0,054
-660,189	-200,000	-0,007	0,096
-659,174	16,789	-0,075	-0,043
-658,159	-35,132	-0,035	0,014
-657,145	440,322	-0,097	-0,154
-656,130	299,871	-0,077	-0,104
-655,116	800,000	-0,033	-0,086
-654,101	-200,000	0,008	0,031
-653,086	-200,000	-0,008	0,081
-652,072	-200,000	0,026	-0,120
-651,057	-30,106	-0,058	-0,024
-650,043	-200,000	0,004	-0,092
-649,028	-38,290	0,085	-0,032
-648,014	-76,045	-0,042	-0,011
-646,999	-88,334	0,141	-0,030
-645,984	-142,289	-0,087	-0,006
-644,970	12,940	-0,188	0,105
-643,955	-200,000	0,031	-0,143
-642,941	-200,000	-0,021	-0,078
-641,926	-200,000	-0,000	0,059
-640,911	-200,000	0,002	-0,011
-639,897	800,000	-0,078	-0,227
-638,882	-129,267	0,141	0,014
-637,868	546,060	-0,018	-0,032
-636,853	-36,304	-0,032	0,013
-635,838	160,036	0,016	-0,017
-634,824	42,968	-0,047	0,031
-633,809	-6,798	0,110	0,054
-632,795	-62,434	0,198	0,059
-631,780	151,293	0,111	0,109
-630,765	88,459	0,124	-0,099
-629,751	128,866	-0,106	-0,098
-628,736	-200,000	-0,043	-0,209
-627,722	-69,878	-0,101	0,028
-626,707	-200,000	0,012	-0,065
-625,692	-71,961	-0,057	-0,015
-624,678	53,835	-0,083	0,058
-623,663	21,926	0,090	-0,053
-622,649	273,983	-0,074	-0,095
-621,634	35,759	0,030	0,019
-620,619	28,840	-0,018	0,011
-619,605	800,000	0,015	-0,035
-618,590	461,477	-0,041	-0,066
-617,576	-7,683	0,034	0,017
-616,561	186,945	0,036	-0,039
-615,546	-200,000	0,018	-0,093
-614,532	800,000	-0,048	-0,149
-613,517	-200,000	-0,020	-0,094
-612,503	614,955	-0,011	-0,020
-611,488	-200,000	-0,003	0,140
-610,474	-86,790	0,113	0,025
-609,459	-159,352	-0,038	-0,001
-608,444	457,759	0,065	-0,105
-607,430	226,925	-0,045	-0,052
-606,415	715,468	-0,050	-0,096
-605,401	153,019	0,059	-0,058
-604,386	-141,810	0,112	-0,008
-603,371	800,000	0,037	0,109
-602,357	-140,800	-0,088	0,006
-601,342	-200,000	0,023	-0,112
-600,328	701,669	0,068	-0,130
-599,313	800,000	-0,015	-0,047
-598,298	-200,000	0,031	0,135
-597,284	-158,775	0,086	0,003
-596,269	-200,000	0,038	0,120
-595,255	800,000	0,020	0,053
-594,240	80,347	-0,105	-0,081
-593,225	375,165	-0,011	-0,016
-592,211	104,092	-0,026	-0,022
-591,196	-200,000	-0,003	0,048
-590,182	-86,689	-0,186	-0,041
-589,167	-66,442	0,079	0,023
-588,152	-65,557	-0,118	-0,034
-587,138	-16,057	0,055	-0,025
-586,123	609,329	-0,071	-0,129
-585,109	-149,865	0,091	-0,005
-584,094	33,792	0,069	-0,043
-583,079	273,996	0,071	0,090
-582,065	194,298	0,057	0,063
-581,050	800,000	0,042	-0,110
-580,036	-92,504	-0,037	-0,007
-579,021	-176,190	-0,135	0,003
-578,006	-200,000	0,010	-0,048
-576,992	533,053	0,004	0,006
-575,977	169,151	-0,077	-0,079
-574,963	-200,000	0,012	-0,049
-573,948	-74,220	-0,121	-0,031
-572,934	275,623	0,077	0,099
-571,919	64,348	0,073	-0,053
-570,904	-30,448	-0,137	-0,056
-569,890	-117,609	-0,085	0,011
-568,875	-200,000	0,016	0,061
-567,861	800,000	0,045	0,120
-566,846	34,044	-0,086	-0,054
-565,831	-110,750	0,080	-0,012
-564,817	41,006	-0,110	-0,071
-563,802	-116,200	0,033	0,004
-562,788	-200,000	-0,000	0,026
-561,773	-200,000	0,020	0,073
-560,758	-200,000	0,005	-0,111
-559,744	-200,000	0,042	-0,187
-558,729	-96,570	-0,122	0,023
-557,715	-8,580	0,099	0,048
-556,700	-126,205	-0,199	-0,021
-555,685	800,000	0,028	0,081
-554,671	-200,000	0,023	-0,114
-553,656	-200,000	-0,006	-0,019
-552,642	179,204	0,107	0,113
-551,627	154,459	-0,081	-0,081
-550,612	-200,000	-0,017	-0,077
-549,598	193,739	-0,040	0,044
-548,583	-80,293	-0,125	0,030
-547,569	-200,000	-0,001	-0,010
-546,554	171,342	0,074	0,076
-545,539	800,000	-0,018	0,039
-544,525	81,027	0,117	0,091
-543,510	-90,036	0,022	0,005
-542,496	800,000	-0,010	-0,021
-541,481	-22,552	-0,119	-0,052
-540,466	349,855	-0,037	-0,053
-539,452	-200,000	-0,005	-0,019
-538,437	-200,000	0,018	0,081
-537,423	-17,020	0,039	0,018
-536,408	-125,487	0,066	-0,007
-535,393	-200,000	-0,014	-0,270
-534,379	-129,665	-0,076	-0,007
-533,364	255,300	-0,028	-0,035
-532,350	7,877	0,087	0,047
-531,335	-24,865	-0,113	0,048
-530,321	311,049	-0,033	0,044
-529,306	-200,000	-0,006	0,120
-528,291	142,745	-0,031	-0,030
-527,277	126,575	-0,065	0,060
-526,262	652,009	0,072	-0,134
-525,248	354,610	0,057	0,082
-524,233	522,410	-0,056	0,096
-523,218	-1,374	-0,014	-0,007
-522,204	141,662	-0,095	-0,090
-521,189	-200,000	0,001	-0,025
-520,175	-180,606	-0,111	-0,002
-519,160	127,622	0,027	-0,024
-518,145	625,002	0,005	-0,010
-517,131	-130,385	-0,037	0,004
-516,116	-11,882	-0,083	0,039
-515,102	-39,300	-0,063	-0,024
-514,087	392,519	-0,055	-0,083
-513,072	125,270	-0,095	-0,087
-512,058	40,073	-0,021	0,014
-511,043	-200,000	0,007	-0,030
-510,029	800,000	0,041	0,086
-509,014	238,129	-0,047	0,056
-507,999	465,836	-0,023	0,037
-506,985	156,204	-0,110	0,110
-505,970	30,061	0,093	0,057
-504,956	13,665	-0,122	-0,068
-503,941	68,976	0,057	0,042
-502,926	-72,133	-0,109	0,029
-501,912	800,000	-0,034	0,081
-500,897	-200,000	0,003	0,083
-499,883	308,438	0,025	0,034
-498,868	800,000	-0,022	-0,056
-497,853	800,000	0,022	0,046
-496,839	240,260	0,047	0,057
-495,824	-200,000	0,034	-0,167
-494,810	-200,000	0,002	-0,028
-493,795	-200,000	0,021	0,108
-492,781	112,946	-0,034	0,030
-491,766	-74,455	0,066	-0,017
-490,751	-99,362	0,087	-0,016
-489,737	800,000	0,034	-0,070
-488,722	-131,030	0,089	0,008
-487,708	-200,000	0,007	0,064
-486,693	10,760	-0,086	-0,047
-485,678	800,000	-0,027	-0,077
-484,664	-200,000	-0,022	-0,113
-483,649	-105,105	-0,043	-0,007
-482,635	-122,428	0,074	-0,009
-481,620	-200,000	0,045	0,150
-480,605	800,000	0,036	0,087
-479,591	-200,000	0,000	0,018
-478,576	-131,113	0,081	0,008
-477,562	386,316	0,106	-0,159
-476,547	800,000	0,030	-0,063
-475,532	-70,682	-0,133	-0,036
-474,518	-139,467	0,115	0,009
-473,503	-181,319	0,108	-0,001
-472,489	-200,000	0,010	0,061
-471,474	483,528	-0,027	-0,044
-470,459	213,180	-0,077	0,088
-469,445	144,238	0,051	-0,049
-468,430	-200,000	-0,013	0,042
-467,416	-200,000	0,001	0,164
-466,401	38,929	-0,073	0,047
-465,386	-200,000	0,121	0,000
-464,372	133,145	0,041	-0,038
-463,357	-30,034	-0,071	-0,029
-462,343	678,560	-0,006	0,011
-461,328	420,691	-0,046	-0,071
-460,313	764,450	-0,080	-0,157
-459,299	-149,696	0,114	-0,006
-458,284	3,064	-0,101	0,053
-457,270	343,104	-0,024	0,034
-456,255	-128,719	-0,036	-0,004
-455,241	-135,486	-0,072	0,006
-454,226	85,883	-0,065	0,051
-453,211	211,218	0,083	0,094
-452,197	-133,738	0,201	0,018
-451,182	-200,000	0,007	0,112
-450,168	267,463	-0,062	-0,078
-449,153	-200,000	0,008	-0,041
-448,138	-105,074	-0,032	-0,005
-447,124	-200,000	-0,020	-0,068
-446,109	800,000	0,041	-0,103
-445,095	-150,478	0,075	-0,004
-444,080	95,943	-0,028	-0,023
-443,065	-91,432	0,022	0,005
-442,051	800,000	0,040	0,105
-441,036	159,984	-0,099	-0,099
-440,022	100,565	-0,034	0,028
-439,007	-200,000	-0,016	-0,146
-437,992	-27,139	0,114	0,047
-436,978	214,569	0,119	0,135
-435,963	-93,816	-0,110	0,022
-434,949	-200,000	0,012	-0,045
-433,934	229,354	-0,078	-0,092
-432,919	5,787	0,062	0,033
-431,905	363,297	-0,063	-0,091
-430,890	-175,626	0,075	0,001
-429,876	-200,000	-0,005	0,016
-428,861	130,676	-0,036	0,034
-427,846	-1,634	0,025	0,013
-426,832	-107,520	-0,125	-0,019
-425,817	77,117	0,037	-0,028
-424,803	62,115	0,074	0,053
-423,788	-27,792	-0,037	-0,015
-422,773	268,946	0,053	-0,067
-421,759	157,723	-0,057	0,057
-420,744	800,000	0,027	-0,055
-419,730	-98,067	-0,145	-0,027
-418,715	432,460	-0,054	-0,084
-417,701	-200,000	0,038	-0,161
-416,686	-147,365	-0,111	-0,007
-415,671	162,947	0,040	-0,040
-414,657	-154,087	0,094	-0,005
-413,642	433,663	-0,012	-0,019
-412,628	45,596	-0,109	-0,072
-411,613	-158,423	0,061	0,002
-410,598	379,819	-0,095	0,140
-409,584	313,504	0,073	0,099
-408,569	5,406	-0,021	-0,011
-407,555	-200,000	-0,002	0,160
-406,540	-147,831	0,152	-0,009
-405,525	800,000	-0,036	-0,092
-404,511	-21,664	-0,145	-0,063
-403,496	-200,000	0,050	0,183
-402,482	220,957	-0,026	0,030
-401,467	-200,000	0,018	-0,096
-400,452	130,939	-0,027	0,025
-399,438	-200,000	0,008	-0,026
-398,423	800,000	0,063	-0,187
-397,409	8,674	0,033	0,018
-396,394	-129,299	-0,052	0,005
-395,379	-81,429	0,102	0,024
-394,365	-135,500	0,024	-0,002
-393,350	-43,366	0,058	0,021
-392,336	-14,166	0,095	0,044
-391,321	104,891	0,103	-0,087
-390,306	-86,109	-0,040	0,009
-389,292	-52,414	-0,065	-0,021
-388,277	90,803	-0,033	-0,026
-387,263	130,253	0,078	0,072
-386,248	-200,000	-0,014	-0,083
-385,233	168,361	-0,071	0,073
-384,219	20,016	-0,055	0,032
-383,204	147,404	0,043	-0,042
-382,190	-174,515	0,082	0,002
-381,175	160,875	0,110	-0,110
-380,160	137,564	-0,052	0,049
-379,146	384,426	0,090	0,133
-378,131	320,434	-0,049	0,067
-377,117	-12,288	0,080	-0,037
-376,102	482,123	0,064	-0,104
-375,088	800,000	-0,047	0,120
-374,073	800,000	-0,015	-0,041
-373,058	51,590	0,090	0,061
-372,044	-29,609	0,050	0,020
-371,029	-55,490	0,131	0,042
-370,015	-110,447	-0,066	0,010
-369,000	-115,966	-0,074	-0,010
-367,985	-55,836	-0,027	0,008
-366,971	-163,683	-0,072	-0,002
-365,956	23,568	0,098	0,058
-364,942	62,432	0,192	0,137
-363,927	223,199	-0,130	0,151
-362,912	105,743	0,037	0,032
-361,898	175,405	-0,031	0,033
-360,883	-84,280	-0,119	-0,027
-359,869	307,713	0,073	-0,097
-358,854	44,266	0,044	0,029
-357,839	415,215	-0,088	-0,134
-356,825	59,938	0,086	0,061
-355,810	-200,000	0,000	0,087
-354,796	-200,000	0,024	0,092
-353,781	-98,780	-0,020	0,004
-352,766	174,612	0,094	-0,098
-351,752	-200,000	-0,010	-0,156
-350,737	-200,000	-0,010	0,167
-349,723	117,037	-0,053	0,046
-348,708	-25,590	0,074	0,031
-347,693	-102,569	-0,196	-0,033
-346,679	-200,000	-0,014	0,081
-345,664	479,896	-0,088	-0,143
-344,650	462,846	-0,002	0,002
-343,635	-200,000	0,006	0,055
-342,620	-200,000	0,000	0,017
-341,606	-127,360	0,025	-0,003
-340,591	126,237	-0,084	0,076
-339,577	314,314	0,087	-0,117
-338,562	-44,528	0,137	-0,049
-337,548	-31,516	0,062	0,025
-336,533	800,000	0,063	0,137
-335,518	355,637	0,132	0,189
-334,504	56,955	-0,063	-0,044
-333,489	-200,000	-0,010	-0,075
-332,475	-200,000	0,028	-0,103
-331,460	-5,227	-0,168	-0,082
-330,445	5,713	-0,067	-0,035
-329,431	800,000	0,020	0,040
-328,416	-200,000	-0,020	0,093
-327,402	146,854	-0,111	0,107
-326,387	30,053	0,020	0,012
-325,372	326,779	-0,015	0,020
-324,358	13,455	-0,103	-0,057
-323,343	241,096	-0,040	0,048
-322,329	-36,527	0,042	0,016
-321,314	-139,188	-0,061	0,005
-320,299	25,056	0,029	0,017
-319,285	-46,205	-0,098	0,034
-318,270	-135,505	-0,153	-0,013
-317,256	800,000	0,025	-0,072
-316,241	292,051	-0,048	-0,063
-315,226	800,000	0,047	-0,128
-314,212	-138,025	0,112	-0,009
-313,197	800,000	0,026	0,069
-312,183	544,340	0,053	0,090
-311,168	73,942	0,026	-0,020
-310,153	-200,000	0,001	-0,058
-309,139	-200,000	-0,002	-0,031
-308,124	-89,950	0,192	-0,040
-307,110	306,373	0,020	0,027
-306,095	25,852	0,081	0,048
-305,080	-200,000	-0,007	0,185
-304,066	-200,000	-0,018	0,062
-303,051	462,609	-0,061	0,097
-302,037	-61,665	-0,162	0,048
-301,022	800,000	0,016	0,037
-300,008	243,953	0,012	-0,015
-298,993	211,229	0,040	-0,045
-297,978	-64,136	0,158	-0,046
-296,964	800,000	-0,015	0,040
-295,949	34,076	-0,056	-0,035
-294,935	-83,199	-0,036	-0,008
-293,920	-47,850	0,055	-0,019
-292,905	0,751	0,122	-0,062
-291,891	96,315	-0,053	0,043
-290,876	-114,135	0,104	0,014
-289,862	9,775	-0,100	0,054
-288,847	33,463	0,096	0,060
-287,832	-2,418	-0,006	-0,003
-286,818	-200,000	-0,043	0,204
-285,803	800,000	0,023	0,068
-284,789	719,898	0,026	-0,049
-283,774	-200,000	0,009	0,132
-282,759	-45,991	0,130	0,045
-281,745	88,185	-0,107	-0,085
-280,730	-115,399	-0,117	-0,016
-279,716	129,617	-0,086	-0,079
-278,701	-1,070	0,110	0,056
-277,686	5,291	-0,073	-0,038
-276,672	-77,604	-0,048	0,012
-275,657	288,861	-0,058	-0,076
-274,643	64,368	-0,036	0,026
-273,628	-200,000	-0,017	-0,096
-272,613	224,730	0,033	-0,038
-271,599	-200,000	-0,005	0,040
-270,584	221,042	0,087	0,100
-269,570	87,262	-0,074	0,058
-268,555	800,000	0,070	-0,182
-267,540	14,143	-0,100	0,056
-266,526	96,400	-0,080	0,066
-265,511	-54,569	0,043	-0,014
-264,497	99,667	0,165	0,136
-263,482	642,694	-0,046	0,084
-262,467	540,442	-0,031	0,053
-261,453	-200,000	0,003	0,015
-260,438	-26,464	0,091	-0,038
-259,424	316,293	-0,099	0,134
-258,409	29,530	-0,089	-0,054
-257,395	-200,000	0,017	-0,112
-256,380	800,000	-0,035	-0,084
-255,365	-200,000	-0,004	-0,024
-254,351	-29,034	0,106	-0,043
-253,336	75,083	-0,061	0,046
-252,322	-200,000	-0,010	-0,104
-251,307	-110,333	0,152	-0,022
-250,292	-200,000	0,007	0,056
-249,278	800,000	-0,027	-0,071
-248,263	-16,039	-0,076	-0,035
-247,249	24,215	-0,141	0,083
-246,234	322,307	-0,059	-0,080
-245,219	800,000	-0,056	-0,111
-244,205	226,338	0,036	0,042
-243,190	40,348	-0,103	-0,066
-242,176	-58,012	0,147	0,045
-241,161	20,299	-0,032	-0,018
-240,146	3,649	0,156	0,081
-239,132	7,343	-0,086	0,046
-238,117	-200,000	0,016	-0,079
-237,103	800,000	-0,007	-0,019
-236,088	77,329	-0,092	-0,070
-235,073	294,131	0,125	0,164
-234,059	144,628	0,094	0,090
-233,044	800,000	-0,056	0,112
-232,030	45,458	-0,062	0,041
-231,015	233,309	0,031	-0,036
-230,000	-113,685	-0,104	-0,014
-228,986	-127,126	0,071	0,007
-227,971	55,306	0,099	0,068
-226,957	110,604	0,072	0,062
-225,942	-200,000	-0,003	0,031
-224,927	-153,662	0,148	-0,007
-223,913	228,362	-0,096	0,111
-222,898	177,919	-0,077	-0,080
-221,884	348,692	-0,079	0,111
-220,869	800,000	0,032	0,084
-219,855	800,000	-0,005	0,016
-218,840	503,112	0,047	0,078
-217,825	800,000	0,022	0,054
-216,811	220,105	0,111	-0,127
-215,796	20,208	-0,122	-0,070
-214,782	-200,000	-0,010	-0,059
-213,767	-126,606	0,171	-0,018
-212,752	-35,699	0,059	-0,023
-211,738	-56,315	0,119	-0,037
-210,723	800,000	-0,024	0,054
-209,709	316,813	-0,080	-0,108
-208,694	800,000	-0,019	-0,053
-207,679	-47,372	-0,108	0,037
-206,665	800,000	-0,027	0,072
-205,650	519,525	0,022	-0,036
-204,636	34,655	-0,055	-0,034
-203,621	-31,343	-0,073	0,029
-202,606	-164,884	0,131	0,004
-201,592	-59,392	-0,223	-0,068
-200,577	-87,101	0,053	-0,011
-199,563	-160,822	0,081	-0,003
-198,548	800,000	0,039	-0,089
-197,533	-200,000	-0,051	0,172
-196,519	800,000	-0,040	-0,092
-195,504	-200,000	0,013	0,100
-194,490	-19,089	-0,089	0,039
-193,475	98,999	-0,088	-0,073
-192,460	800,000	-0,043	0,085
-191,446	-200,000	-0,009	-0,071
-190,431	-74,914	0,147	0,037
-189,417	412,077	0,054	0,081
-188,402	-200,000	-0,010	-0,059
-187,387	-5,794	0,112	-0,054
-186,373	-170,408	0,093	0,002
-185,358	12,355	0,074	0,040
-184,344	6,223	-0,075	0,040
-183,329	800,000	-0,034	0,083
-182,315	-41,259	-0,051	-0,019
-181,300	330,505	-0,109	0,149
-180,285	-196,643	0,115	0,001
-179,271	-200,000	0,010	0,046
-178,256	34,549	-0,024	-0,015
-177,242	800,000	-0,049	0,107
-176,227	143,684	0,049	-0,047
-175,212	0,163	0,117	0,059
-174,198	56,432	-0,070	0,048
-173,183	800,000	-0,008	-0,021
-172,169	800,000	0,024	0,065
-171,154	800,000	0,015	0,034
-170,139	-118,690	0,040	-0,005
-169,125	-37,009	0,076	0,029
-168,110	800,000	-0,012	0,033
-167,096	491,060	0,038	-0,062
-166,081	-9,323	-0,055	-0,026
-165,066	800,000	-0,063	-0,191
-164,052	-200,000	0,005	0,111
-163,037	93,828	0,118	0,095
-162,023	52,359	0,113	0,077
-161,008	-200,000	0,014	-0,044
-159,993	-200,000	0,002	0,042
-158,979	750,746	-0,056	-0,108
-157,964	297,119	-0,020	-0,026
-156,950	-91,969	0,062	-0,012
-155,935	-11,156	-0,097	0,045
-154,920	101,043	-0,033	0,028
-153,906	800,000	-0,023	-0,070
-152,891	800,000	-0,037	-0,116
-151,877	559,791	-0,042	-0,072
-150,862	4,964	-0,014	0,007
-149,847	48,023	0,077	0,051
-148,833	-200,000	0,020	-0,155
-147,818	800,000	-0,045	0,103
-146,804	-44,148	0,034	0,012
-145,789	-95,115	-0,066	0,013
-144,775	198,129	0,040	-0,044
-143,760	204,240	0,049	-0,054
-142,745	800,000	0,050	-0,105
-141,731	-39,519	-0,107	0,040
-140,716	37,223	0,128	0,081
-139,702	-200,000	0,008	0,070
-138,687	152,111	0,182	0,176
-137,672	-200,000	0,006	0,134
-136,658	-118,245	-0,073	-0,009
-135,643	310,832	-0,082	-0,110
-134,629	-200,000	-0,025	0,081
-133,614	-200,000	0,035	0,200
-132,599	800,000	0,055	-0,113
-131,585	41,971	-0,078	-0,050
-130,570	-26,568	-0,128	0,053
-129,556	-57,529	0,207	-0,064
-128,541	-15,278	-0,125	0,057
-127,526	101,728	0,032	-0,027
-126,512	19,021	-0,068	-0,038
-125,497	152,678	0,043	0,042
-124,483	-91,452	0,043	-0,009
-123,468	-42,202	0,007	0,002
-122,453	-147,358	0,071	0,004
-121,439	-83,443	0,130	-0,029
-120,424	-200,000	0,003	-0,085
-119,410	800,000	0,065	0,142
-118,395	187,648	0,108	0,115
