DTS Sentinel unit serial number:	SN410029Multiplexer serial number:	ORYXHardware model number:	OX2-SRSoftware version number:	ORYX F/W v4,00 Oryx Data Collector v3.7.2.0data status	okinstallation	B6 Nyhavnadifferential loss correction	single-endedforward channel	channel 2reverse channel	N/Adate	2023/12/10time	12:00:08forward acquisition time	300,00reverse acquisition time	0,00gamma	499,1914k internal	0,3123k external	0,3123temperature offset calibration	1,0000default loss term (dB/km)	0,3820temperature slope calibration	1,0000multiplexer offset coefficient	1,0000multiplexer slope coefficient	1,0000fibre end	0,00T internal ref (°C)	22,75T ext. ref 1 (°C)	6,65T ext. ref 2 (°C)	6,66length (m)	temperature (°C)	Stokes	anti-Stokes-744,400	-200,000	0,009	-0,057
-743,385	-86,758	-0,142	-0,032
-742,371	-5,089	0,064	-0,033
-741,356	-200,000	-0,007	0,187
-740,342	64,163	-0,058	0,044
-739,327	-15,645	-0,247	0,117
-738,312	-80,536	0,101	-0,025
-737,298	-4,245	-0,173	0,089
-736,283	-14,966	-0,031	-0,015
-735,269	-6,598	-0,192	0,097
-734,254	287,259	-0,065	-0,087
-733,239	-142,818	-0,463	-0,033
-732,225	13,697	0,069	0,040
-731,210	28,798	0,040	-0,025
-730,196	-32,558	-0,031	0,013
-729,181	358,265	-0,035	-0,052
-728,167	27,120	-0,042	-0,026
-727,152	292,093	0,068	-0,093
-726,137	-144,201	-0,108	0,007
-725,123	-142,523	-0,072	0,005
-724,108	-119,787	-0,161	-0,020
-723,094	-112,285	-0,090	0,013
-722,079	800,000	0,036	-0,105
-721,064	-38,591	0,088	0,035
-720,050	1,755	-0,084	-0,045
-719,035	-200,000	-0,025	-0,082
-718,021	676,785	0,053	-0,103
-717,006	19,574	-0,063	-0,038
-715,991	10,023	-0,132	-0,074
-714,977	-123,282	0,125	-0,015
-713,962	-200,000	0,004	0,031
-712,948	-44,130	-0,048	0,018
-711,933	-124,985	-0,113	-0,013
-710,918	364,024	0,037	-0,056
-709,904	278,509	-0,113	-0,151
-708,889	-200,000	-0,011	-0,048
-707,875	137,172	-0,105	0,102
-706,860	-38,925	0,060	-0,023
-705,845	800,000	0,052	-0,110
-704,831	-200,000	0,013	0,076
-703,816	69,442	-0,026	-0,020
-702,802	152,905	0,050	-0,051
-701,787	-200,000	-0,002	0,060
-700,772	-200,000	-0,002	0,049
-699,758	-200,000	0,024	0,102
-698,743	-200,000	0,018	0,085
-697,729	139,869	0,076	-0,074
-696,714	-103,301	0,042	-0,007
-695,699	-200,000	-0,017	-0,197
-694,685	-152,768	-0,251	0,013
-693,670	13,525	0,140	-0,081
-692,656	-17,348	-0,077	0,036
-691,641	-200,000	-0,025	0,088
-690,627	-139,770	-0,129	-0,010
-689,612	-142,615	0,096	-0,007
-688,597	-200,000	-0,003	0,168
-687,583	86,464	-0,019	-0,016
-686,568	742,685	0,014	0,029
-685,554	232,309	0,040	-0,048
-684,539	800,000	0,024	0,064
-683,524	-56,386	-0,056	-0,018
-682,510	-85,437	-0,095	0,022
-681,495	800,000	0,016	-0,047
-680,481	659,295	0,060	-0,116
-679,466	164,368	0,043	0,045
-678,451	-200,000	0,006	0,049
-677,437	8,368	-0,120	-0,067
-676,422	800,000	-0,031	-0,079
-675,408	532,652	-0,059	0,104
-674,393	-32,783	0,061	0,025
-673,378	379,771	-0,053	0,081
-672,364	-127,661	-0,130	0,014
-671,349	800,000	-0,047	-0,135
-670,335	-34,125	0,067	0,027
-669,320	67,330	-0,012	0,009
-668,305	426,914	-0,036	0,058
-667,291	49,842	-0,138	0,096
-666,276	-20,819	0,058	-0,026
-665,262	-200,000	-0,005	-0,136
-664,247	-85,775	-0,082	0,019
-663,232	695,997	0,040	0,078
-662,218	206,345	0,026	0,030
-661,203	-200,000	-0,047	0,169
-660,189	70,263	-0,068	0,052
-659,174	-200,000	0,026	-0,120
-658,159	-56,737	0,111	0,036
-657,145	300,430	-0,085	-0,117
-656,130	158,152	0,054	-0,056
-655,116	6,110	0,093	0,051
-654,101	-156,947	-0,086	0,004
-653,086	300,220	-0,040	-0,055
-652,072	-165,706	-0,088	0,003
-651,057	-92,106	-0,097	-0,020
-650,043	-10,391	0,093	-0,046
-649,028	91,935	-0,026	-0,022
-648,014	157,206	-0,045	0,046
-646,999	159,009	0,099	0,103
-645,984	-189,618	0,165	0,001
-644,970	-200,000	0,004	0,028
-643,955	178,217	-0,071	-0,077
-642,941	-89,662	-0,082	-0,018
-641,926	-200,000	0,006	-0,042
-640,911	74,256	0,016	0,012
-639,897	-47,722	0,013	-0,005
-638,882	10,062	0,024	0,013
-637,868	786,498	-0,072	-0,147
-636,853	-200,000	0,006	0,093
-635,838	38,742	0,067	-0,044
-634,824	-200,000	-0,005	-0,103
-633,809	82,217	0,144	-0,116
-632,795	-124,471	-0,161	-0,018
-631,780	51,331	0,116	-0,082
-630,765	446,606	-0,104	-0,171
-629,751	135,622	-0,067	-0,065
-628,736	96,263	-0,019	-0,016
-627,722	537,856	0,054	0,095
-626,707	-200,000	-0,032	0,125
-625,692	61,862	0,091	0,067
-624,678	-9,593	-0,035	-0,017
-623,663	7,438	-0,153	0,085
-622,649	15,793	0,029	-0,017
-621,634	38,453	-0,085	-0,056
-620,619	30,453	-0,066	0,042
-619,605	800,000	-0,049	0,114
-618,590	116,630	-0,050	-0,045
-617,576	-200,000	-0,007	0,165
-616,561	-23,410	-0,149	-0,066
-615,546	18,239	0,107	-0,063
-614,532	-138,843	-0,102	0,008
-613,517	270,223	-0,014	-0,018
-612,503	-200,000	0,001	-0,103
-611,488	215,458	0,051	0,060
-610,474	-40,649	-0,091	0,035
-609,459	-86,594	-0,136	0,031
-608,444	-103,767	-0,225	0,039
-607,430	56,154	-0,034	0,024
-606,415	98,673	-0,020	0,017
-605,401	87,492	0,033	-0,027
-604,386	12,295	0,152	0,087
-603,371	204,630	-0,049	-0,056
-602,357	320,306	-0,065	0,092
-601,342	326,877	0,135	-0,192
-600,328	800,000	-0,042	-0,126
-599,313	-150,582	0,129	0,007
-598,298	-75,066	-0,046	-0,012
-597,284	-54,499	-0,048	-0,016
-596,269	-141,038	-0,097	0,007
-595,255	800,000	0,046	-0,101
-594,240	-105,340	-0,136	-0,023
-593,225	-180,875	-0,168	0,002
-592,211	-100,786	-0,095	0,017
-591,196	298,655	-0,063	0,086
-590,182	-200,000	0,009	0,069
-589,167	-52,429	0,123	0,042
-588,152	258,274	-0,050	0,064
-587,138	-14,598	-0,025	0,012
-586,123	147,792	-0,043	-0,043
-585,109	-200,000	0,007	0,091
-584,094	-27,171	0,119	-0,051
-583,079	-200,000	-0,004	-0,105
-582,065	194,888	0,064	-0,072
-581,050	584,132	0,076	0,139
-580,036	113,245	-0,130	-0,117
-579,021	551,291	-0,056	0,100
-578,006	-200,000	0,016	-0,113
-576,992	-133,799	-0,034	0,003
-575,977	-5,286	-0,093	-0,047
-574,963	62,761	0,030	0,022
-573,948	110,891	0,094	-0,083
-572,934	800,000	0,008	0,021
-571,919	27,060	-0,115	-0,071
-570,904	800,000	0,049	0,117
-569,890	-44,604	-0,103	-0,038
-568,875	-200,000	0,011	0,066
-567,861	-200,000	-0,013	0,046
-566,846	-89,904	0,070	0,015
-565,831	114,131	0,061	-0,055
-564,817	-19,220	0,090	-0,041
-563,802	430,930	-0,068	-0,109
-562,788	-200,000	-0,001	-0,047
-561,773	-167,695	0,055	-0,002
-560,758	47,283	-0,109	0,075
-559,744	16,435	0,114	0,067
-558,729	308,674	-0,047	-0,065
-557,715	-200,000	0,010	0,114
-556,700	33,708	0,020	-0,013
-555,685	-200,000	0,004	-0,118
-554,671	-200,000	-0,018	-0,130
-553,656	800,000	-0,012	0,025
-552,642	-76,068	0,075	0,019
-551,627	800,000	0,020	-0,050
-550,612	-200,000	0,001	-0,069
-549,598	550,383	-0,013	-0,024
-548,583	-200,000	0,000	-0,052
-547,569	216,083	-0,069	0,081
-546,554	-89,922	-0,026	-0,006
-545,539	-200,000	0,000	-0,096
-544,525	138,789	-0,102	0,100
-543,510	-74,038	0,121	0,032
-542,496	178,039	-0,058	-0,063
-541,481	368,986	-0,028	-0,042
-540,466	-200,000	-0,013	-0,180
-539,452	124,125	0,059	0,055
-538,437	-200,000	-0,011	0,131
-537,423	258,263	0,030	-0,038
-536,408	-63,010	-0,040	0,012
-535,393	7,330	-0,169	-0,093
-534,379	165,311	-0,102	-0,106
-533,364	800,000	0,019	0,044
-532,350	129,174	0,017	0,016
-531,335	-13,700	0,102	0,049
-530,321	1,899	0,024	0,012
-529,306	218,440	0,008	-0,010
-528,291	-200,000	-0,004	-0,064
-527,277	800,000	-0,060	-0,130
-526,262	800,000	0,025	-0,075
-525,248	-200,000	-0,041	0,149
-524,233	-200,000	-0,004	-0,037
-523,218	198,755	-0,123	0,139
-522,204	-70,024	-0,044	-0,012
-521,189	-52,651	-0,075	-0,025
-520,175	-113,723	-0,036	0,005
-519,160	263,301	0,068	-0,087
-518,145	-200,000	0,017	0,079
-517,131	-200,000	-0,067	0,257
-516,116	800,000	0,016	-0,035
-515,102	738,700	0,004	-0,009
-514,087	120,486	-0,073	0,067
-513,072	-200,000	0,024	-0,135
-512,058	37,329	-0,124	-0,081
-511,043	476,108	0,067	-0,113
-510,029	-200,000	0,012	0,135
-509,014	252,183	0,092	0,115
-507,999	800,000	0,040	-0,100
-506,985	677,656	0,072	-0,139
-505,970	-71,977	-0,087	0,024
-504,956	-123,867	0,076	-0,009
-503,941	470,986	-0,052	-0,087
-502,926	21,359	0,072	-0,043
-501,912	-28,037	0,071	-0,030
-500,897	-200,000	0,008	0,093
-499,883	-0,562	0,053	0,028
-498,868	-200,000	0,001	0,074
-497,853	-174,486	-0,176	0,004
-496,839	-200,000	0,003	-0,013
-495,824	-200,000	-0,007	0,115
-494,810	50,860	-0,056	0,039
-493,795	-156,451	0,045	0,002
-492,781	-140,760	0,208	0,016
-491,766	175,886	-0,039	-0,042
-490,751	800,000	-0,040	-0,090
-489,737	19,288	-0,062	-0,037
-488,722	-200,000	-0,000	0,013
-487,708	800,000	-0,032	0,092
-486,693	-117,856	-0,097	-0,013
-485,678	-73,446	-0,112	-0,030
-484,664	800,000	-0,027	-0,076
-483,649	-200,000	-0,019	-0,163
-482,635	-200,000	0,003	-0,016
-481,620	800,000	0,037	0,085
-480,605	-133,536	0,112	-0,010
-479,591	-200,000	0,017	0,140
-478,576	-200,000	-0,015	0,095
-477,562	-200,000	0,005	-0,087
-476,547	592,799	0,022	-0,041
-475,532	800,000	0,003	0,007
-474,518	-65,035	0,097	-0,029
-473,503	800,000	-0,019	0,054
-472,489	-120,948	0,047	-0,006
-471,474	-200,000	-0,021	0,080
-470,459	50,467	-0,062	-0,043
-469,445	49,487	-0,058	-0,040
-468,430	-200,000	-0,021	0,075
-467,416	45,904	0,060	-0,041
-466,401	122,485	-0,064	-0,059
-465,386	-200,000	0,036	-0,119
-464,372	800,000	-0,003	0,008
-463,357	800,000	-0,057	0,146
-462,343	-83,429	0,113	0,027
-461,328	800,000	0,011	-0,035
-460,313	-200,000	-0,036	0,183
-459,299	-103,029	-0,040	0,007
-458,284	155,159	-0,020	-0,020
-457,270	514,026	0,070	0,120
-456,255	-200,000	-0,001	0,110
-455,241	-200,000	0,000	-0,032
-454,226	-31,262	0,081	-0,033
-453,211	-200,000	0,012	-0,096
-452,197	-200,000	0,035	0,169
-451,182	149,713	0,089	-0,089
-450,168	-86,186	-0,086	-0,019
-449,153	594,216	-0,046	0,084
-448,138	-200,000	-0,018	-0,150
-447,124	-144,596	-0,079	-0,005
-446,109	-80,056	0,055	0,014
-445,095	-30,456	0,082	0,034
-444,080	-20,630	-0,119	0,054
-443,065	30,442	0,041	-0,026
-442,051	-91,571	-0,111	0,023
-441,036	10,769	-0,029	-0,016
-440,022	-200,000	0,013	-0,064
-439,007	259,267	-0,032	-0,041
-437,992	-200,000	-0,001	-0,062
-436,978	800,000	-0,029	0,070
-435,963	800,000	0,031	-0,065
-434,949	315,918	-0,055	0,077
-433,934	-200,000	-0,005	-0,086
-432,919	0,086	-0,029	0,015
-431,905	-110,203	0,078	-0,012
-430,890	-200,000	-0,011	0,152
-429,876	270,222	-0,064	0,083
-428,861	-180,862	0,043	0,001
-427,846	193,970	-0,097	-0,108
-426,832	377,709	0,045	-0,068
-425,817	800,000	-0,014	-0,033
-424,803	-84,028	-0,067	-0,015
-423,788	173,207	-0,053	0,056
-422,773	37,503	-0,057	-0,037
-421,759	167,431	-0,082	0,085
-420,744	-200,000	0,022	0,072
-419,730	-128,014	0,187	-0,020
-418,715	132,629	-0,006	-0,006
-417,701	62,774	-0,084	0,062
-416,686	-126,020	0,067	-0,007
-415,671	-200,000	0,011	-0,176
-414,657	25,644	0,145	0,089
-413,642	-70,126	-0,029	0,008
-412,628	-55,155	0,205	0,068
-411,613	274,320	-0,028	-0,037
-410,598	-82,136	-0,123	0,029
-409,584	-200,000	-0,004	0,042
-408,569	134,104	0,059	-0,057
-407,555	-200,000	0,018	0,084
-406,540	148,788	0,152	0,152
-405,525	-200,000	0,036	0,155
-404,511	800,000	-0,033	0,070
-403,496	-200,000	0,044	-0,152
-402,482	-37,058	-0,109	-0,043
-401,467	-200,000	0,009	0,058
-400,452	-200,000	0,001	-0,047
-399,438	-200,000	0,019	0,093
-398,423	393,014	-0,073	0,111
-397,409	56,901	0,071	-0,051
-396,394	-200,000	0,006	0,111
-395,379	-200,000	0,029	0,111
-394,365	-200,000	0,010	0,100
-393,350	-125,835	-0,033	0,004
-392,336	127,970	-0,028	-0,026
-391,321	-200,000	0,009	-0,137
-390,306	231,281	-0,074	-0,090
-389,292	-41,869	-0,132	0,050
-388,277	-31,221	0,101	-0,042
-387,263	800,000	0,033	-0,095
-386,248	-200,000	-0,074	0,299
-385,233	-68,287	-0,120	0,034
-384,219	-64,890	0,076	-0,022
-383,204	90,006	-0,013	0,011
-382,190	-200,000	-0,007	0,092
-381,175	800,000	-0,021	0,054
-380,160	800,000	-0,026	0,065
-379,146	-200,000	-0,002	-0,028
-378,131	-112,662	-0,027	0,004
-377,117	81,885	0,084	0,067
-376,102	108,584	0,099	0,087
-375,088	369,214	-0,040	0,060
-374,073	74,887	-0,099	-0,076
-373,058	89,471	0,118	0,097
-372,044	534,306	-0,022	-0,039
-371,029	418,175	0,108	0,169
-370,015	25,925	-0,076	0,046
-369,000	-200,000	-0,002	-0,015
-367,985	63,696	-0,127	0,093
-366,971	-200,000	-0,006	-0,083
-365,956	800,000	-0,039	0,102
-364,942	800,000	-0,087	0,182
-363,927	-200,000	-0,012	0,072
-362,912	104,872	-0,129	0,112
-361,898	30,850	-0,029	-0,018
-360,883	7,254	-0,202	-0,110
-359,869	-109,387	-0,169	0,026
-358,854	386,775	-0,079	0,120
-357,839	800,000	0,047	-0,106
-356,825	82,359	0,087	-0,069
-355,810	-95,966	-0,076	-0,015
-354,796	-164,099	-0,132	-0,004
-353,781	107,732	0,052	-0,045
-352,766	437,813	0,050	-0,080
-351,752	-130,153	0,098	0,010
-350,737	-20,444	0,060	0,027
-349,723	129,905	0,062	0,058
-348,708	124,358	0,085	-0,078
-347,693	187,376	0,060	-0,066
-346,679	265,318	0,069	0,088
-345,664	800,000	-0,021	-0,049
-344,650	800,000	0,028	0,063
-343,635	-22,327	0,054	0,024
-342,620	800,000	0,042	0,090
-341,606	536,381	0,054	0,094
-340,591	-200,000	0,002	-0,149
-339,577	202,031	0,080	-0,091
-338,562	800,000	0,012	-0,038
-337,548	49,338	-0,075	-0,051
-336,533	-200,000	0,000	-0,041
-335,518	-168,912	0,147	0,004
-334,504	-59,826	0,094	-0,029
-333,489	-164,610	0,060	-0,002
-332,475	-200,000	0,003	-0,016
-331,460	-157,682	0,133	0,006
-330,445	422,360	-0,031	-0,048
-329,431	376,681	-0,047	0,070
-328,416	58,433	0,081	-0,058
-327,402	-200,000	0,003	0,034
-326,387	-200,000	-0,007	0,073
-325,372	800,000	-0,037	-0,099
-324,358	181,612	0,049	-0,053
-323,343	15,049	-0,032	-0,018
-322,329	-133,021	0,046	0,004
-321,314	-78,731	-0,071	-0,018
-320,299	-53,456	0,100	-0,033
-319,285	-200,000	-0,124	0,000
-318,270	170,845	0,035	-0,037
-317,256	-5,380	0,083	-0,042
-316,241	-45,293	0,073	-0,026
-315,226	-200,000	-0,018	0,072
-314,212	-182,087	0,174	-0,002
-313,197	-200,000	-0,032	-0,113
-312,183	-200,000	0,020	-0,107
-311,168	800,000	-0,054	0,141
-310,153	-200,000	0,034	0,115
-309,139	-100,749	-0,129	0,023
-308,124	9,639	0,121	-0,067
-307,110	-200,000	-0,029	-0,115
-306,095	-200,000	0,002	0,039
-305,080	23,055	0,168	0,101
-304,066	-130,976	-0,092	0,009
-303,051	-200,000	-0,013	-0,096
-302,037	-192,232	0,075	-0,001
-301,022	69,563	-0,101	-0,076
-300,008	234,261	0,159	0,193
-298,993	428,084	-0,014	0,021
-297,978	-200,000	0,032	0,171
-296,964	213,515	0,018	0,020
-295,949	-64,205	-0,236	-0,070
-294,935	148,251	-0,015	0,014
-293,920	-110,237	0,079	-0,012
-292,905	-19,636	0,082	0,037
-291,891	117,627	0,039	0,035
-290,876	-200,000	-0,006	0,105
-289,862	-153,876	0,073	0,004
-288,847	-147,328	-0,140	-0,009
-287,832	68,233	-0,023	0,017
-286,818	-200,000	0,013	-0,089
-285,803	-200,000	0,009	0,051
-284,789	714,205	0,045	0,087
-283,774	-200,000	-0,020	0,132
-282,759	-200,000	-0,020	0,124
-281,745	-2,949	-0,076	-0,039
-280,730	147,949	-0,159	-0,157
-279,716	388,622	-0,044	-0,067
-278,701	-200,000	0,014	-0,071
-277,686	-43,429	0,172	0,063
-276,672	-200,000	-0,039	0,134
-275,657	-6,305	-0,079	0,039
-274,643	-103,443	0,040	0,007
-273,628	-200,000	0,023	-0,098
-272,613	-107,319	-0,203	0,032
-271,599	63,738	0,037	0,027
-270,584	400,377	-0,035	0,054
-269,570	146,184	0,127	0,125
-268,555	-144,866	0,156	-0,010
-267,540	1,007	-0,048	-0,025
-266,526	-200,000	-0,019	-0,069
-265,511	800,000	-0,008	-0,021
-264,497	72,240	0,045	-0,034
-263,482	-131,812	0,097	0,009
-262,467	-200,000	0,001	0,086
-261,453	-200,000	-0,001	0,011
-260,438	800,000	0,054	-0,123
-259,424	-70,777	0,040	-0,011
-258,409	800,000	0,134	-0,281
-257,395	32,191	0,074	0,047
-256,380	570,775	0,024	-0,042
-255,365	-200,000	-0,002	0,090
-254,351	-200,000	0,000	0,035
-253,336	23,917	-0,092	-0,055
-252,322	-55,518	-0,121	-0,039
-251,307	34,922	0,053	-0,034
-250,292	-200,000	-0,016	-0,100
-249,278	374,890	0,051	0,076
-248,263	21,758	-0,096	-0,057
-247,249	-200,000	-0,025	-0,124
-246,234	800,000	-0,008	-0,018
-245,219	-100,353	0,033	0,006
-244,205	800,000	-0,061	-0,176
-243,190	-200,000	-0,017	-0,202
-242,176	7,523	0,122	-0,066
-241,161	140,497	0,067	-0,064
-240,146	800,000	0,002	0,006
-239,132	800,000	0,011	0,024
-238,117	346,637	-0,064	-0,093
-237,103	32,028	-0,163	-0,103
-236,088	350,546	0,050	-0,072
-235,073	511,895	-0,060	-0,102
-234,059	235,605	0,060	0,072
-233,044	800,000	0,034	0,071
-232,030	268,569	-0,073	-0,093
-231,015	-200,000	0,013	0,116
-230,000	-200,000	-0,032	-0,200
-228,986	569,091	-0,105	-0,188
-227,971	-77,778	0,101	-0,025
-226,957	-21,280	0,052	-0,023
-225,942	33,145	0,046	0,029
-224,927	355,361	0,034	-0,049
-223,913	800,000	0,023	-0,052
-222,898	95,892	0,040	-0,033
-221,884	-84,617	-0,085	0,019
-220,869	59,890	0,115	0,083
-219,855	-30,290	0,155	0,064
-218,840	-178,558	-0,055	0,001
-217,825	800,000	0,019	-0,042
-216,811	-136,244	-0,118	-0,010
-215,796	-75,466	-0,170	0,044
-214,782	-52,951	0,149	-0,050
-213,767	-49,865	0,074	0,026
-212,752	12,112	0,071	0,040
-211,738	800,000	-0,063	0,188
-210,723	-128,793	0,094	0,010
-209,709	64,772	-0,136	0,100
-208,694	-200,000	-0,018	-0,101
-207,679	-200,000	0,011	-0,049
-206,665	41,650	0,054	-0,036
-205,650	800,000	-0,050	0,119
-204,636	800,000	-0,045	0,127
-203,621	-124,572	0,076	-0,009
-202,606	699,073	0,026	-0,050
-201,592	19,912	-0,042	0,025
-200,577	10,393	0,058	0,032
-199,563	94,252	0,052	-0,043
-198,548	-200,000	-0,026	0,159
-197,533	-103,829	0,077	-0,013
-196,519	-200,000	-0,006	0,085
-195,504	-145,811	0,251	0,016
-194,490	-200,000	0,008	-0,060
-193,475	39,198	0,126	-0,082
-192,460	-200,000	0,021	0,070
-191,446	-78,134	0,079	0,020
-190,431	417,865	0,062	0,097
-189,417	-157,662	0,015	0,001
-188,402	-45,335	0,072	-0,026
-187,387	239,755	-0,015	0,018
-186,373	175,675	0,061	0,065
-185,358	95,905	-0,042	-0,035
-184,344	-200,000	0,012	0,083
-183,329	800,000	0,021	-0,061
-182,315	26,988	-0,151	-0,092
-181,300	73,115	-0,057	0,043
-180,285	-23,147	-0,055	-0,024
-179,271	360,390	0,058	-0,086
-178,256	733,300	0,053	-0,104
-177,242	-133,291	-0,028	-0,003
-176,227	698,143	0,048	-0,093
-175,212	207,417	-0,050	-0,057
-174,198	-121,417	-0,100	-0,012
-173,183	-200,000	-0,024	-0,089
-172,169	-200,000	0,029	-0,176
-171,154	-113,832	0,059	-0,008
-170,139	-88,729	-0,110	-0,024
-169,125	-164,537	0,091	-0,003
-168,110	-23,838	0,052	0,023
-167,096	-133,411	0,046	0,004
-166,081	159,761	0,105	0,107
-165,066	800,000	0,036	-0,100
-164,052	-72,691	-0,071	-0,019
-163,037	-101,994	0,055	-0,010
-162,023	158,664	0,020	0,020
-161,008	-200,000	-0,004	0,161
-159,993	800,000	-0,080	0,198
-158,979	-142,587	0,063	0,004
-157,964	-61,698	-0,124	0,038
-156,950	-148,496	0,066	0,004
-155,935	236,837	0,086	-0,104
-154,920	-200,000	0,014	0,048
-153,906	236,325	-0,040	0,049
-152,891	-200,000	-0,006	0,071
-151,877	-200,000	-0,009	0,035
-150,862	-122,952	0,066	0,008
-149,847	253,714	-0,061	-0,076
-148,833	-200,000	-0,021	-0,071
-147,818	-151,305	0,125	-0,007
-146,804	-134,479	-0,164	0,014
-145,789	-103,856	-0,070	-0,012
-144,775	800,000	-0,023	0,072
-143,760	533,343	-0,031	0,054
-142,745	743,670	-0,041	-0,080
-141,731	-200,000	-0,022	0,079
-140,716	-200,000	0,036	-0,123
-139,702	743,246	0,058	0,114
-138,687	-200,000	0,025	0,126
-137,672	-94,142	-0,117	-0,023
-136,658	170,386	-0,106	-0,110
-135,643	129,537	-0,080	-0,074
-134,629	800,000	0,042	0,087
-133,614	-41,072	0,087	0,032
-132,599	-79,830	0,118	-0,029
-131,585	-200,000	-0,005	0,120
-130,570	-200,000	0,004	0,059
-129,556	404,205	-0,117	0,180
-128,541	146,295	-0,055	0,053
-127,526	-200,000	-0,012	0,082
-126,512	166,370	-0,059	0,061
-125,497	-159,127	0,015	-0,001
-124,483	-47,158	0,077	-0,027
-123,468	81,456	0,054	-0,042
-122,453	-114,972	-0,082	0,011
-121,439	577,332	-0,072	-0,128
-120,424	800,000	-0,032	-0,097
