DTS Sentinel unit serial number:	SN410029Multiplexer serial number:	ORYXHardware model number:	OX2-SRSoftware version number:	ORYX F/W v4,00 Oryx Data Collector v3.7.2.0data status	okinstallation	B6 Nyhavnadifferential loss correction	single-endedforward channel	channel 2reverse channel	N/Adate	2023/12/08time	18:20:08forward acquisition time	300,00reverse acquisition time	0,00gamma	499,1914k internal	0,3158k external	0,3158temperature offset calibration	1,0000default loss term (dB/km)	0,3820temperature slope calibration	1,0000multiplexer offset coefficient	1,0000multiplexer slope coefficient	1,0000fibre end	0,00T internal ref (°C)	15,25T ext. ref 1 (°C)	-1,25T ext. ref 2 (°C)	-1,25length (m)	temperature (°C)	Stokes	anti-Stokes-744,400	225,199	0,086	0,102
-743,385	-10,817	-0,282	-0,137
-742,371	135,977	0,038	-0,037
-741,356	-96,024	-0,246	0,048
-740,342	742,488	0,032	0,063
-739,327	-112,915	-0,288	-0,042
-738,312	224,951	0,092	0,110
-737,298	-179,776	-0,325	-0,005
-736,283	6,337	0,125	-0,068
-735,269	32,823	-0,106	-0,068
-734,254	253,040	0,059	0,074
-733,239	-52,302	-0,490	-0,166
-732,225	-165,151	0,139	-0,004
-731,210	104,322	0,016	-0,014
-730,196	58,383	0,069	0,050
-729,181	103,052	-0,029	-0,025
-728,167	-200,000	-0,010	-0,060
-727,152	-82,652	-0,119	-0,028
-726,137	-131,520	-0,216	0,021
-725,123	191,668	-0,054	-0,060
-724,108	800,000	-0,060	-0,136
-723,094	-165,822	-0,227	0,007
-722,079	-80,212	-0,176	-0,043
-721,064	-20,300	-0,081	0,037
-720,050	800,000	-0,039	-0,092
-719,035	180,005	0,052	-0,057
-718,021	-112,921	-0,091	-0,013
-717,006	-157,929	-0,120	0,005
-715,991	14,848	-0,138	-0,079
-714,977	-153,434	0,048	0,002
-713,962	-138,129	-0,181	-0,015
-712,948	-11,918	0,156	0,075
-711,933	75,834	0,048	-0,038
-710,918	-200,000	-0,034	-0,133
-709,904	63,618	-0,139	-0,102
-708,889	341,965	-0,065	-0,094
-707,875	36,860	-0,114	0,074
-706,860	-13,231	-0,064	-0,030
-705,845	35,972	0,097	-0,063
-704,831	-200,000	0,030	-0,098
-703,816	156,829	-0,023	0,024
-702,802	241,506	0,039	-0,048
-701,787	702,824	-0,055	0,108
-700,772	600,195	-0,015	-0,028
-699,758	-200,000	-0,009	-0,128
-698,743	495,156	0,036	0,061
-697,729	-76,359	-0,019	-0,005
-696,714	157,851	-0,090	0,092
-695,699	800,000	-0,029	-0,076
-694,685	800,000	0,037	0,079
-693,670	-119,093	-0,075	-0,010
-692,656	17,265	-0,099	-0,058
-691,641	541,118	0,060	-0,106
-690,627	800,000	0,018	0,050
-689,612	770,393	0,027	0,055
-688,597	-103,406	0,068	-0,012
-687,583	259,676	0,013	0,016
-686,568	29,737	0,012	0,008
-685,554	-200,000	0,006	0,056
-684,539	-89,469	0,036	-0,008
-683,524	1,452	0,115	0,061
-682,510	435,079	-0,080	0,128
-681,495	301,906	0,042	0,057
-680,481	114,456	0,031	-0,028
-679,466	-200,000	0,002	-0,105
-678,451	336,773	0,022	-0,031
-677,437	-76,258	0,132	-0,034
-676,422	-200,000	0,011	-0,074
-675,408	800,000	0,027	0,056
-674,393	-200,000	-0,004	-0,043
-673,378	9,691	-0,119	-0,066
-672,364	115,931	-0,100	-0,090
-671,349	436,113	0,012	0,019
-670,335	241,386	-0,081	-0,099
-669,320	-95,120	-0,069	-0,014
-668,305	-47,588	-0,036	0,013
-667,291	310,942	-0,048	0,067
-666,276	-107,906	-0,020	0,003
-665,262	648,760	0,033	-0,063
-664,247	50,799	-0,005	-0,004
-663,232	-200,000	0,006	0,126
-662,218	-200,000	0,007	0,120
-661,203	50,903	-0,094	-0,066
-660,189	163,243	-0,078	-0,081
-659,174	-120,014	0,080	-0,010
-658,159	25,232	-0,034	-0,021
-657,145	178,963	-0,114	-0,123
-656,130	48,976	-0,061	-0,042
-655,116	800,000	-0,025	-0,057
-654,101	114,829	0,093	0,083
-653,086	220,271	0,076	-0,090
-652,072	-99,189	-0,011	-0,002
-651,057	800,000	-0,018	0,052
-650,043	14,283	-0,148	0,084
-649,028	-200,000	0,008	-0,065
-648,014	-197,917	-0,144	-0,001
-646,999	111,677	-0,127	0,113
-645,984	-135,503	0,146	0,013
-644,970	-200,000	0,035	-0,158
-643,955	-33,651	-0,206	-0,083
-642,941	24,950	0,108	-0,066
-641,926	-200,000	-0,005	-0,038
-640,911	166,748	0,018	0,019
-639,897	-111,229	0,106	-0,016
-638,882	23,109	-0,007	0,004
-637,868	128,480	0,015	-0,014
-636,853	800,000	-0,039	-0,125
-635,838	-30,978	-0,110	0,045
-634,824	-17,906	-0,047	0,022
-633,809	-171,438	0,051	0,001
-632,795	247,845	-0,059	0,073
-631,780	-200,000	-0,019	0,111
-630,765	-40,118	-0,100	0,038
-629,751	-113,065	-0,128	0,018
-628,736	304,875	-0,122	-0,167
-627,722	800,000	0,008	0,019
-626,707	-200,000	0,021	0,111
-625,692	186,665	0,109	0,119
-624,678	-38,607	0,060	0,023
-623,663	800,000	-0,015	-0,035
-622,649	800,000	-0,048	-0,143
-621,634	17,033	-0,039	0,023
-620,619	134,928	-0,060	-0,057
-619,605	800,000	0,039	0,085
-618,590	-200,000	-0,008	0,044
-617,576	-147,393	-0,065	-0,004
-616,561	64,492	-0,101	-0,074
-615,546	-150,229	-0,065	0,004
-614,532	130,283	-0,120	0,113
-613,517	-200,000	-0,017	-0,152
-612,503	440,237	-0,079	-0,127
-611,488	-200,000	-0,015	0,065
-610,474	170,559	-0,042	0,044
-609,459	-98,144	0,013	0,002
-608,444	-22,426	-0,088	0,039
-607,430	467,501	-0,081	0,133
-606,415	-200,000	0,003	-0,094
-605,401	295,154	0,101	-0,136
-604,386	28,944	-0,028	0,017
-603,371	108,714	-0,092	0,081
-602,357	-200,000	-0,012	0,100
-601,342	-200,000	-0,009	0,043
-600,328	-200,000	0,024	-0,149
-599,313	800,000	-0,026	-0,074
-598,298	215,865	-0,010	0,011
-597,284	170,492	-0,068	0,072
-596,269	-200,000	-0,021	-0,068
-595,255	57,175	0,134	0,096
-594,240	-182,846	0,059	-0,001
-593,225	-138,178	-0,167	-0,013
-592,211	800,000	-0,040	-0,093
-591,196	369,138	-0,037	0,055
-590,182	-70,299	-0,057	0,016
-589,167	800,000	-0,055	0,156
-588,152	-200,000	0,002	0,010
-587,138	-57,583	-0,096	-0,031
-586,123	-200,000	-0,021	-0,136
-585,109	-200,000	-0,028	-0,097
-584,094	553,974	-0,031	0,055
-583,079	307,942	0,065	-0,088
-582,065	-103,358	-0,117	-0,020
-581,050	23,005	0,112	0,067
-580,036	445,157	-0,026	-0,042
-579,021	800,000	-0,079	-0,168
-578,006	-200,000	0,024	-0,147
-576,992	-13,167	0,150	0,071
-575,977	-23,531	0,055	-0,024
-574,963	-25,469	0,018	0,008
-573,948	64,425	-0,079	-0,058
-572,934	-200,000	-0,010	0,033
-571,919	57,326	-0,159	-0,114
-570,904	-200,000	0,000	-0,101
-569,890	-200,000	0,010	0,102
-568,875	276,698	-0,032	0,041
-567,861	-57,671	0,034	-0,011
-566,846	118,668	-0,072	0,065
-565,831	-124,476	0,096	-0,011
-564,817	115,514	0,085	-0,076
-563,802	-200,000	-0,017	-0,080
-562,788	800,000	0,035	-0,107
-561,773	-200,000	0,007	0,025
-560,758	-42,943	0,043	-0,016
-559,744	800,000	-0,042	0,092
-558,729	-90,582	0,157	-0,033
-557,715	120,290	-0,058	-0,053
-556,700	-200,000	0,012	-0,170
-555,685	551,672	0,079	0,139
-554,671	1,233	-0,013	-0,007
-553,656	-200,000	0,009	0,058
-552,642	-88,693	-0,044	0,010
-551,627	-10,787	-0,069	0,033
-550,612	-200,000	-0,018	-0,096
-549,598	3,861	-0,072	-0,038
-548,583	-25,393	0,021	-0,009
-547,569	800,000	-0,008	-0,022
-546,554	-200,000	-0,013	0,046
-545,539	-71,314	-0,042	0,011
-544,525	-26,055	0,020	0,008
-543,510	-200,000	0,013	0,119
-542,496	-200,000	0,061	-0,200
-541,481	-40,216	-0,082	-0,031
-540,466	800,000	-0,041	-0,093
-539,452	13,776	0,176	-0,100
-538,437	-200,000	0,011	-0,057
-537,423	800,000	-0,043	0,091
-536,408	389,339	0,046	-0,069
-535,393	305,745	-0,031	-0,042
-534,379	174,385	-0,069	0,073
-533,364	240,744	0,068	-0,083
-532,350	-64,939	0,105	0,031
-531,335	56,227	-0,054	0,038
-530,321	421,585	0,116	0,183
-529,306	8,701	-0,100	0,055
-528,291	-200,000	-0,044	-0,192
-527,277	-142,791	-0,045	0,003
-526,262	-121,463	0,102	0,012
-525,248	210,636	-0,017	-0,020
-524,233	432,836	0,049	0,077
-523,218	-200,000	-0,006	-0,026
-522,204	-17,997	-0,059	0,027
-521,189	-47,948	0,041	0,015
-520,175	-45,672	-0,089	-0,032
-519,160	-129,258	-0,095	-0,010
-518,145	365,830	0,059	0,087
-517,131	129,375	0,222	0,207
-516,116	-200,000	0,026	-0,153
-515,102	167,875	0,014	0,014
-514,087	-167,993	-0,210	0,006
-513,072	-200,000	-0,012	0,045
-512,058	-70,803	0,075	0,021
-511,043	240,541	0,035	-0,043
-510,029	52,674	0,078	-0,055
-509,014	-200,000	0,000	-0,055
-507,999	-200,000	0,013	-0,046
-506,985	57,646	-0,122	-0,087
-505,970	-200,000	0,049	-0,160
-504,956	-54,832	-0,058	-0,019
-503,941	623,365	-0,084	0,155
-502,926	-200,000	-0,005	0,089
-501,912	34,297	0,135	-0,086
-500,897	-33,264	0,127	0,051
-499,883	-12,283	-0,109	-0,052
-498,868	-200,000	-0,026	-0,117
-497,853	318,588	0,033	0,046
-496,839	-100,393	0,034	0,006
-495,824	-200,000	-0,032	0,145
-494,810	-11,071	0,048	0,023
-493,795	64,820	0,075	0,055
-492,781	-200,000	0,001	0,050
-491,766	-130,042	-0,056	-0,005
-490,751	-200,000	-0,016	0,076
-489,737	636,395	0,040	-0,075
-488,722	16,967	0,057	0,033
-487,708	800,000	0,054	0,123
-486,693	-125,610	0,078	-0,009
-485,678	-97,681	-0,037	0,007
-484,664	236,611	0,076	0,092
-483,649	105,579	-0,083	-0,072
-482,635	800,000	-0,053	-0,162
-481,620	563,124	0,034	-0,060
-480,605	-200,000	0,003	0,145
-479,591	254,730	0,033	0,041
-478,576	44,387	0,038	0,025
-477,562	800,000	-0,011	-0,028
-476,547	40,000	-0,107	-0,070
-475,532	134,117	-0,037	-0,035
-474,518	-21,834	-0,119	-0,053
-473,503	80,880	-0,034	-0,027
-472,489	-122,991	0,122	0,014
-471,474	-200,000	-0,019	0,116
-470,459	-200,000	0,008	0,067
-469,445	800,000	-0,027	-0,063
-468,430	194,241	-0,087	-0,096
-467,416	-90,727	0,105	0,022
-466,401	55,308	-0,133	-0,093
-465,386	-200,000	0,016	-0,058
-464,372	-200,000	-0,013	0,077
-463,357	202,629	0,058	0,066
-462,343	800,000	-0,024	-0,071
-461,328	675,640	-0,032	-0,061
-460,313	130,451	0,100	0,094
-459,299	800,000	-0,008	0,018
-458,284	-86,789	0,068	0,015
-457,270	133,432	0,127	0,120
-456,255	-200,000	-0,002	0,149
-455,241	226,323	-0,058	-0,069
-454,226	-57,770	0,079	-0,025
-453,211	402,964	-0,039	0,060
-452,197	-2,859	-0,056	-0,029
-451,182	-71,832	-0,146	-0,039
-450,168	99,551	-0,030	-0,026
-449,153	-200,000	0,038	-0,146
-448,138	10,417	0,046	0,025
-447,124	215,907	-0,088	-0,102
-446,109	-200,000	-0,007	-0,059
-445,095	-2,054	-0,102	0,052
-444,080	127,861	0,110	0,102
-443,065	800,000	-0,018	-0,041
-442,051	36,133	0,060	-0,038
-441,036	-200,000	-0,015	-0,105
-440,022	548,920	-0,066	-0,115
-439,007	-200,000	-0,029	-0,164
-437,992	196,382	0,035	-0,039
-436,978	800,000	0,052	-0,109
-435,963	-200,000	-0,001	0,105
-434,949	-18,838	-0,122	-0,055
-433,934	80,128	0,079	-0,062
-432,919	116,519	-0,061	-0,055
-431,905	-151,462	0,114	-0,006
-430,890	-41,792	-0,057	-0,021
-429,876	-200,000	0,011	0,038
-428,861	3,794	0,111	-0,059
-427,846	-141,709	-0,147	-0,011
-426,832	140,214	-0,033	0,032
-425,817	119,325	0,070	-0,063
-424,803	-200,000	0,003	-0,063
-423,788	-113,168	0,097	0,014
-422,773	-180,992	-0,028	-0,000
-421,759	-107,804	-0,032	0,005
-420,744	-200,000	-0,001	-0,088
-419,730	21,977	-0,081	-0,048
-418,715	800,000	-0,045	0,097
-417,701	-132,828	-0,034	0,003
-416,686	60,750	0,097	0,070
-415,671	-119,965	0,073	0,009
-414,657	-136,445	0,068	-0,006
-413,642	-200,000	-0,008	0,065
-412,628	-153,016	-0,033	0,002
-411,613	-68,118	-0,230	0,065
-410,598	-173,321	0,118	-0,003
-409,584	118,621	-0,055	-0,050
-408,569	-74,364	0,195	0,051
-407,555	-200,000	0,025	0,247
-406,540	-98,054	-0,054	0,010
-405,525	256,980	-0,034	-0,042
-404,511	800,000	-0,021	0,048
-403,496	-200,000	-0,003	0,064
-402,482	60,628	0,080	0,057
-401,467	-23,888	0,103	-0,045
-400,452	628,149	0,039	0,072
-399,438	-200,000	-0,016	0,090
-398,423	128,027	0,110	-0,101
-397,409	800,000	-0,053	-0,142
-396,394	39,998	-0,024	-0,016
-395,379	-52,832	-0,043	0,014
-394,365	-124,187	0,054	-0,006
-393,350	522,677	0,034	0,058
-392,336	-29,012	-0,054	0,023
-391,321	-167,544	-0,042	-0,001
-390,306	172,037	0,079	0,083
-389,292	327,862	0,054	-0,076
-388,277	800,000	0,019	-0,045
-387,263	181,731	-0,104	-0,112
-386,248	-117,587	0,067	0,009
-385,233	749,372	-0,026	-0,051
-384,219	-49,773	-0,023	0,008
-383,204	800,000	-0,108	-0,219
-382,190	238,897	0,053	-0,064
-381,175	93,237	-0,144	-0,118
-380,160	-17,903	0,098	0,045
-379,146	-200,000	0,008	0,097
-378,131	-200,000	-0,004	0,014
-377,117	-112,351	0,035	-0,005
-376,102	7,531	0,018	0,010
-375,088	142,125	0,048	-0,046
-374,073	-90,191	0,122	0,026
-373,058	-166,862	-0,077	0,002
-372,044	-200,000	-0,010	0,082
-371,029	113,088	0,017	-0,015
-370,015	-200,000	0,008	-0,081
-369,000	511,770	-0,093	-0,158
-367,985	-200,000	-0,012	-0,136
-366,971	38,929	-0,058	-0,037
-365,956	199,499	-0,047	0,052
-364,942	-200,000	0,046	0,159
-363,927	-52,517	-0,046	0,015
-362,912	612,156	0,054	-0,098
-361,898	-200,000	-0,001	0,065
-360,883	192,139	-0,113	-0,124
-359,869	325,224	-0,038	-0,053
-358,854	-140,999	0,066	-0,005
-357,839	-200,000	-0,026	-0,106
-356,825	36,366	0,010	0,006
-355,810	-200,000	-0,025	0,152
-354,796	71,506	0,098	-0,074
-353,781	800,000	-0,075	-0,152
-352,766	448,649	-0,029	-0,046
-351,752	-169,489	0,078	-0,002
-350,737	-25,603	0,051	-0,022
-349,723	-98,764	-0,131	0,024
-348,708	-72,737	0,185	-0,049
-347,693	-32,285	-0,136	-0,055
-346,679	-200,000	0,005	-0,095
-345,664	259,488	0,096	-0,121
-344,650	-44,341	0,023	0,008
-343,635	109,761	-0,032	-0,028
-342,620	-200,000	-0,030	0,104
-341,606	574,866	0,104	0,185
-340,591	-62,883	-0,175	0,052
-339,577	-93,992	-0,084	0,017
-338,562	-200,000	-0,033	-0,115
-337,548	218,035	0,095	-0,110
-336,533	235,794	0,013	0,016
-335,518	290,695	-0,122	-0,161
-334,504	-83,439	0,124	0,029
-333,489	-200,000	-0,024	-0,095
-332,475	-200,000	0,007	-0,144
-331,460	-175,806	-0,220	-0,004
-330,445	380,969	-0,012	0,018
-329,431	-72,038	0,090	0,024
-328,416	-14,656	0,068	-0,031
-327,402	-200,000	0,021	-0,081
-326,387	-122,626	-0,060	0,007
-325,372	-56,715	-0,059	-0,019
-324,358	-96,764	0,075	-0,014
-323,343	-200,000	0,001	-0,044
-322,329	800,000	-0,051	0,148
-321,314	800,000	0,059	0,130
-320,299	31,945	0,087	0,054
-319,285	493,607	0,054	0,090
-318,270	-200,000	-0,014	0,090
-317,256	29,807	-0,088	-0,054
-316,241	601,215	0,034	0,061
-315,226	178,976	0,010	0,011
-314,212	761,292	0,069	0,136
-313,197	-140,455	0,010	-0,001
-312,183	-200,000	-0,011	-0,134
-311,168	-2,161	-0,135	-0,068
-310,153	688,008	-0,059	-0,112
-309,139	410,982	0,077	-0,119
-308,124	-42,012	-0,028	-0,010
-307,110	-200,000	0,016	0,079
-306,095	78,769	0,045	0,035
-305,080	-141,092	-0,040	0,003
-304,066	-69,256	-0,202	-0,056
-303,051	86,747	-0,067	-0,053
-302,037	-25,831	-0,051	0,022
-301,022	50,404	0,046	0,031
-300,008	-200,000	0,022	0,097
-298,993	-200,000	-0,015	0,164
-297,978	-200,000	-0,014	0,095
-296,964	-154,759	0,031	-0,001
-295,949	-200,000	0,002	-0,047
-294,935	-200,000	0,011	-0,073
-293,920	592,538	-0,036	0,064
-292,905	8,532	-0,076	0,041
-291,891	198,232	0,056	0,062
-290,876	-200,000	0,000	0,078
-289,862	-140,342	0,106	0,008
-288,847	-70,380	-0,090	0,025
-287,832	167,858	-0,118	0,122
-286,818	-175,226	-0,081	-0,002
-285,803	-32,886	0,159	-0,064
-284,789	-64,859	-0,034	0,010
-283,774	42,492	0,062	0,041
-282,759	-171,672	0,052	0,001
-281,745	207,302	0,048	0,054
-280,730	-200,000	-0,110	-0,000
-279,716	800,000	0,029	-0,059
-278,701	-185,521	0,107	-0,001
-277,686	-82,293	0,121	-0,028
-276,672	-200,000	-0,027	0,097
-275,657	303,134	0,083	0,112
-274,643	-67,061	0,034	0,010
-273,628	-200,000	-0,014	-0,070
-272,613	22,712	-0,146	-0,086
-271,599	60,768	0,078	0,056
-270,584	800,000	-0,059	0,146
-269,570	447,524	0,049	0,078
-268,555	-200,000	-0,013	-0,068
-267,540	130,946	0,015	-0,014
-266,526	-101,016	-0,106	0,019
-265,511	766,131	0,026	0,051
-264,497	-200,000	0,018	0,113
-263,482	730,331	0,020	0,039
-262,467	800,000	-0,038	0,088
-261,453	30,719	-0,075	-0,046
-260,438	-24,407	-0,044	0,019
-259,424	-200,000	0,055	0,248
-258,409	633,273	-0,051	0,093
-257,395	55,155	0,132	0,092
-256,380	153,986	0,112	-0,112
-255,365	5,831	0,034	0,018
-254,351	-200,000	-0,004	0,080
-253,336	20,446	0,175	-0,102
-252,322	-200,000	0,011	0,054
-251,307	-200,000	0,049	-0,184
-250,292	125,664	-0,043	-0,039
-249,278	-200,000	-0,022	0,092
-248,263	-80,713	0,160	0,038
-247,249	7,423	-0,200	0,108
-246,234	-200,000	-0,040	0,156
-245,219	293,484	-0,080	0,106
-244,205	422,930	-0,080	-0,125
-243,190	-40,454	-0,091	0,034
-242,176	-200,000	0,017	0,081
-241,161	70,119	0,135	0,101
-240,146	233,651	0,094	0,112
-239,132	800,000	-0,032	-0,072
-238,117	-178,961	0,181	-0,003
-237,103	-13,109	-0,063	0,029
-236,088	-4,793	0,020	-0,010
-235,073	187,739	-0,064	0,070
-234,059	17,864	0,121	0,070
-233,044	800,000	-0,054	0,124
-232,030	-200,000	-0,018	0,092
-231,015	324,296	0,087	-0,120
-230,000	-200,000	0,004	-0,020
-228,986	364,594	0,113	0,165
-227,971	800,000	0,037	0,107
-226,957	-200,000	0,014	0,065
-225,942	68,806	0,087	0,064
-224,927	800,000	0,031	0,095
-223,913	256,337	-0,073	-0,090
-222,898	105,630	-0,085	-0,073
-221,884	-135,654	-0,095	-0,008
-220,869	-139,197	0,186	-0,014
-219,855	-95,412	0,048	-0,009
-218,840	-73,627	-0,048	-0,013
-217,825	-116,203	-0,070	-0,009
-216,811	-133,395	0,122	0,011
-215,796	-27,667	0,078	0,033
-214,782	-29,324	0,066	0,027
-213,767	-200,000	-0,012	0,115
-212,752	405,132	0,074	0,114
-211,738	7,727	0,104	0,056
-210,723	-200,000	0,022	0,140
-209,709	800,000	-0,020	0,052
-208,694	765,776	-0,039	-0,076
-207,679	800,000	-0,063	-0,152
-206,665	45,630	0,064	-0,042
-205,650	-200,000	0,012	0,086
-204,636	800,000	-0,019	-0,051
-203,621	800,000	0,034	0,079
-202,606	148,551	0,039	-0,038
-201,592	147,496	0,098	-0,095
-200,577	800,000	0,054	-0,109
-199,563	-200,000	0,010	0,170
-198,548	129,928	-0,055	-0,051
-197,533	-110,889	0,064	-0,009
-196,519	-200,000	0,037	0,128
-195,504	-83,208	-0,136	-0,031
-194,490	220,439	0,099	-0,114
-193,475	-200,000	0,007	0,051
-192,460	-4,687	0,027	0,013
-191,446	449,658	-0,046	-0,074
-190,431	-200,000	-0,006	0,021
-189,417	-143,257	0,093	-0,006
-188,402	-200,000	-0,002	0,025
-187,387	355,160	-0,040	0,058
-186,373	-43,068	-0,086	0,031
-185,358	800,000	0,039	0,115
-184,344	-200,000	0,027	0,092
-183,329	-200,000	0,002	0,038
-182,315	435,803	0,045	0,071
-181,300	237,190	-0,084	0,101
-180,285	-69,182	0,129	-0,035
-179,271	-200,000	0,003	0,017
-178,256	-200,000	0,021	-0,146
-177,242	404,917	0,107	0,163
-176,227	-200,000	0,002	0,082
-175,212	43,835	-0,132	-0,087
-174,198	-200,000	-0,002	-0,065
-173,183	-75,413	0,159	-0,040
-172,169	-200,000	-0,032	-0,141
-171,154	-200,000	-0,019	-0,063
-170,139	800,000	-0,025	-0,053
-169,125	-200,000	0,004	-0,079
-168,110	-52,897	0,223	0,073
-167,096	-75,929	0,015	0,004
-166,081	57,361	-0,093	-0,065
-165,066	800,000	0,079	-0,206
-164,052	159,558	-0,025	-0,025
-163,037	449,617	0,070	0,112
-162,023	365,836	-0,042	0,061
-161,008	-200,000	0,034	0,111
-159,993	-58,773	0,015	0,005
-158,979	-200,000	-0,026	-0,145
-157,964	-195,698	-0,128	0,001
-156,950	-36,987	-0,114	-0,044
-155,935	200,545	-0,037	0,040
-154,920	800,000	0,057	0,117
-153,906	-141,694	0,117	-0,008
-152,891	-200,000	-0,014	-0,048
-151,877	365,132	0,029	-0,043
-150,862	-49,187	-0,126	-0,043
-149,847	120,462	0,060	0,054
-148,833	-200,000	0,005	-0,098
-147,818	602,089	0,031	-0,056
-146,804	-200,000	-0,001	0,084
-145,789	102,855	0,056	-0,047
-144,775	190,361	-0,020	-0,021
-143,760	669,544	-0,010	-0,019
-142,745	518,534	-0,010	-0,016
-141,731	-200,000	-0,018	-0,095
-140,716	1,512	0,050	0,026
-139,702	-90,671	-0,091	-0,019
-138,687	-200,000	0,006	0,077
-137,672	-200,000	0,019	0,104
-136,658	331,626	-0,128	0,178
-135,643	-100,329	-0,101	0,018
-134,629	-200,000	0,023	-0,117
-133,614	-161,846	0,124	-0,004
-132,599	-53,343	0,152	0,050
-131,585	-200,000	0,022	-0,114
-130,570	-102,102	-0,034	-0,006
-129,556	295,056	-0,082	-0,108
-128,541	4,033	-0,118	-0,062
-127,526	265,877	-0,014	-0,017
-126,512	800,000	-0,088	-0,178
-125,497	-64,672	0,045	0,013
-124,483	800,000	-0,011	-0,023
-123,468	-200,000	-0,024	-0,130
-122,453	-200,000	-0,007	-0,071
-121,439	-9,565	-0,064	-0,031
-120,424	-200,000	0,000	0,041
