DTS Sentinel unit serial number:	SN410029Multiplexer serial number:	ORYXHardware model number:	OX2-SRSoftware version number:	ORYX F/W v4,00 Oryx Data Collector v3.7.2.0data status	okinstallation	B6 Nyhavnadifferential loss correction	single-endedforward channel	channel 2reverse channel	N/Adate	2023/12/09time	10:40:08forward acquisition time	300,00reverse acquisition time	0,00gamma	499,1914k internal	0,3139k external	0,3139temperature offset calibration	1,0000default loss term (dB/km)	0,3820temperature slope calibration	1,0000multiplexer offset coefficient	1,0000multiplexer slope coefficient	1,0000fibre end	0,00T internal ref (°C)	18,60T ext. ref 1 (°C)	2,40T ext. ref 2 (°C)	2,40length (m)	temperature (°C)	Stokes	anti-Stokes-744,400	83,146	0,067	-0,054
-743,385	-35,548	-0,200	0,080
-742,371	-114,287	0,098	0,014
-741,356	-54,904	-0,083	0,027
-740,342	-138,003	0,128	-0,010
-739,327	9,537	-0,316	0,177
-738,312	-71,968	0,113	-0,031
-737,298	-81,727	-0,224	-0,054
-736,283	30,887	0,048	0,030
-735,269	45,940	-0,094	-0,065
-734,254	122,089	0,038	-0,036
-733,239	-82,990	-0,488	-0,116
-732,225	-81,335	0,337	-0,082
-731,210	-200,000	0,002	-0,059
-730,196	-74,031	-0,021	-0,006
-729,181	-40,710	-0,018	0,007
-728,167	-200,000	0,007	-0,097
-727,152	185,822	-0,083	-0,092
-726,137	-82,397	-0,197	0,047
-725,123	-53,569	-0,038	-0,013
-724,108	800,000	-0,031	-0,078
-723,094	214,751	-0,086	-0,101
-722,079	47,272	-0,183	-0,126
-721,064	-116,165	-0,153	0,021
-720,050	-200,000	0,005	0,055
-719,035	43,264	0,038	0,026
-718,021	-157,943	-0,134	-0,006
-717,006	517,491	-0,021	-0,037
-715,991	104,704	-0,036	-0,032
-714,977	139,451	0,010	-0,010
-713,962	46,828	0,149	0,103
-712,948	-200,000	-0,035	0,164
-711,933	-200,000	0,006	-0,059
-710,918	132,934	-0,078	-0,075
-709,904	96,780	-0,031	-0,026
-708,889	-200,000	-0,050	-0,195
-707,875	-0,463	0,145	-0,076
-706,860	-200,000	0,003	0,016
-705,845	428,110	-0,067	0,108
-704,831	-8,690	0,063	-0,031
-703,816	-200,000	-0,022	-0,078
-702,802	212,456	0,011	0,013
-701,787	32,663	0,035	-0,022
-700,772	-66,485	-0,069	-0,020
-699,758	-69,954	0,048	-0,013
-698,743	-53,495	0,041	-0,014
-697,729	-200,000	0,017	0,179
-696,714	-57,544	0,122	0,039
-695,699	-122,215	-0,052	-0,006
-694,685	-25,910	-0,013	0,005
-693,670	1,885	-0,155	-0,083
-692,656	-42,894	-0,040	-0,015
-691,641	35,424	0,081	0,053
-690,627	-200,000	0,005	0,196
-689,612	60,078	-0,024	-0,018
-688,597	275,986	0,006	-0,008
-687,583	800,000	-0,024	-0,073
-686,568	-40,572	0,068	-0,026
-685,554	-95,209	-0,185	-0,037
-684,539	-67,943	0,090	0,026
-683,524	120,557	-0,124	0,114
-682,510	93,110	0,028	-0,023
-681,495	-24,080	-0,150	-0,066
-680,481	-200,000	-0,007	0,056
-679,466	446,443	-0,097	0,158
-678,451	-72,760	0,056	0,015
-677,437	-71,930	-0,055	-0,015
-676,422	-200,000	0,005	0,024
-675,408	-200,000	0,009	0,088
-674,393	-99,345	-0,080	0,015
-673,378	-91,701	-0,029	-0,006
-672,364	106,794	0,052	-0,046
-671,349	-150,259	0,082	0,005
-670,335	77,775	-0,031	0,025
-669,320	800,000	-0,037	-0,110
-668,305	-14,573	0,102	-0,048
-667,291	577,349	0,019	-0,035
-666,276	800,000	0,046	-0,151
-665,262	800,000	0,106	-0,307
-664,247	24,192	0,093	-0,057
-663,232	-98,994	-0,106	0,020
-662,218	-200,000	0,025	-0,088
-661,203	-97,471	0,070	-0,013
-660,189	-42,168	-0,066	-0,025
-659,174	354,068	-0,093	-0,136
-658,159	92,473	-0,023	0,019
-657,145	127,388	0,034	-0,032
-656,130	615,734	0,048	-0,089
-655,116	64,275	0,016	-0,012
-654,101	-200,000	-0,010	-0,070
-653,086	-47,636	0,033	-0,012
-652,072	25,830	-0,058	-0,036
-651,057	193,335	-0,016	-0,018
-650,043	-129,356	-0,124	0,013
-649,028	-36,324	0,005	-0,002
-648,014	-200,000	0,043	0,200
-646,999	95,609	0,140	0,118
-645,984	-127,730	-0,175	0,018
-644,970	-5,689	-0,159	-0,080
-643,955	66,126	-0,127	-0,095
-642,941	208,632	-0,028	0,033
-641,926	-200,000	0,005	-0,142
-640,911	168,129	0,066	0,069
-639,897	252,165	-0,005	-0,007
-638,882	-200,000	-0,006	0,109
-637,868	800,000	0,037	-0,090
-636,853	-83,486	-0,098	-0,023
-635,838	52,998	0,049	-0,035
-634,824	-157,074	0,072	-0,003
-633,809	800,000	0,019	0,044
-632,795	239,375	0,086	-0,106
-631,780	50,950	0,167	0,117
-630,765	-27,994	-0,062	-0,026
-629,751	120,608	0,042	-0,039
-628,736	681,892	-0,074	-0,143
-627,722	-7,175	0,090	-0,045
-626,707	99,482	0,155	-0,133
-625,692	-200,000	0,009	-0,119
-624,678	-58,287	-0,123	-0,039
-623,663	-63,471	-0,121	-0,036
-622,649	800,000	0,022	-0,047
-621,634	800,000	-0,028	0,075
-620,619	-78,953	0,166	-0,041
-619,605	-6,108	0,017	0,009
-618,590	306,274	-0,064	0,088
-617,576	800,000	-0,019	-0,053
-616,561	-89,628	-0,120	0,026
-615,546	800,000	-0,033	0,077
-614,532	-200,000	0,020	-0,099
-613,517	-136,872	-0,087	-0,007
-612,503	175,070	0,046	0,050
-611,488	-31,709	0,081	-0,033
-610,474	285,422	0,083	0,110
-609,459	-130,384	0,227	0,022
-608,444	212,112	-0,060	-0,070
-607,430	800,000	-0,047	-0,139
-606,415	-36,538	-0,033	-0,013
-605,401	-119,974	-0,076	-0,010
-604,386	533,437	0,083	0,146
-603,371	-200,000	-0,040	0,170
-602,357	-88,488	-0,080	-0,018
-601,342	788,120	0,027	0,054
-600,328	44,717	0,060	-0,041
-599,313	224,003	-0,053	-0,064
-598,298	36,656	-0,012	0,008
-597,284	-4,428	-0,041	-0,021
-596,269	37,094	0,060	-0,039
-595,255	800,000	0,026	0,070
-594,240	482,141	-0,082	0,138
-593,225	800,000	-0,044	-0,098
-592,211	-63,174	-0,098	-0,030
-591,196	-79,823	0,136	0,033
-590,182	-28,724	0,024	0,010
-589,167	-200,000	0,010	-0,048
-588,152	286,517	-0,002	0,002
-587,138	586,080	0,048	-0,088
-586,123	-76,207	0,039	-0,010
-585,109	-4,115	-0,098	-0,050
-584,094	800,000	0,030	-0,074
-583,079	160,752	-0,016	-0,017
-582,065	250,124	0,099	0,124
-581,050	298,556	0,027	-0,037
-580,036	-200,000	0,009	-0,072
-579,021	23,952	0,080	-0,049
-578,006	248,085	-0,033	-0,042
-576,992	388,605	0,039	0,060
-575,977	150,431	0,054	-0,054
-574,963	-15,987	0,075	-0,035
-573,948	332,205	-0,061	0,087
-572,934	-29,499	-0,132	-0,055
-571,919	28,066	0,084	-0,052
-570,904	800,000	0,017	0,035
-569,890	304,069	-0,059	0,081
-568,875	800,000	-0,037	-0,102
-567,861	-67,532	0,073	-0,021
-566,846	-200,000	0,003	0,011
-565,831	-59,072	0,109	0,034
-564,817	6,386	-0,108	-0,059
-563,802	171,006	0,133	0,140
-562,788	-74,016	0,037	0,010
-561,773	289,984	0,070	-0,094
-560,758	-0,698	0,026	0,014
-559,744	-58,062	0,117	0,037
-558,729	-109,119	-0,071	-0,011
-557,715	-167,883	0,056	0,002
-556,700	800,000	0,037	0,086
-555,685	-109,794	-0,093	-0,014
-554,671	10,466	0,082	0,046
-553,656	-78,665	-0,054	-0,013
-552,642	1,891	0,183	-0,097
-551,627	205,420	-0,024	0,028
-550,612	-200,000	-0,004	-0,090
-549,598	-81,675	-0,115	-0,027
-548,583	274,318	0,159	-0,207
-547,569	-5,356	-0,063	-0,032
-546,554	12,939	-0,115	0,065
-545,539	800,000	-0,017	0,052
-544,525	-30,286	-0,040	-0,017
-543,510	528,915	-0,065	-0,113
-542,496	489,885	-0,027	0,046
-541,481	251,317	0,016	-0,021
-540,466	800,000	-0,022	0,057
-539,452	800,000	-0,039	0,099
-538,437	-111,370	0,159	0,024
-537,423	571,764	0,044	0,079
-536,408	-200,000	0,029	-0,115
-535,393	-92,207	-0,132	-0,027
-534,379	659,135	0,073	0,138
-533,364	-200,000	0,017	0,100
-532,350	-200,000	0,028	0,102
-531,335	-200,000	-0,020	0,077
-530,321	800,000	0,053	0,114
-529,306	-200,000	-0,048	-0,158
-528,291	-89,720	-0,112	0,024
-527,277	239,226	-0,090	-0,110
-526,262	-66,375	0,084	-0,024
-525,248	-71,175	-0,070	0,019
-524,233	-100,453	-0,055	-0,010
-523,218	-55,286	0,042	0,014
-522,204	-136,304	-0,164	-0,014
-521,189	176,625	-0,114	-0,122
-520,175	800,000	0,033	0,068
-519,160	-200,000	0,009	-0,083
-518,145	403,568	0,038	-0,058
-517,131	-109,248	-0,015	0,002
-516,116	-200,000	0,018	-0,064
-515,102	271,193	-0,068	-0,088
-514,087	155,986	0,028	-0,029
-513,072	286,459	-0,041	-0,055
-512,058	133,058	-0,074	-0,070
-511,043	10,384	-0,005	-0,003
-510,029	-200,000	-0,023	-0,084
-509,014	-64,385	-0,058	-0,017
-507,999	-200,000	-0,001	0,218
-506,985	99,073	0,128	0,109
-505,970	-200,000	0,020	-0,151
-504,956	-141,583	-0,093	0,007
-503,941	-72,233	0,101	0,027
-502,926	196,104	0,062	0,070
-501,912	-200,000	0,013	0,101
-500,897	-128,186	0,056	-0,006
-499,883	-2,303	0,027	0,014
-498,868	30,591	0,030	0,019
-497,853	-100,760	-0,136	0,024
-496,839	-114,377	-0,090	-0,013
-495,824	370,123	0,051	0,076
-494,810	-189,088	0,059	0,001
-493,795	-200,000	0,006	-0,137
-492,781	-200,000	-0,031	-0,111
-491,766	-113,591	0,044	-0,006
-490,751	494,907	-0,044	-0,074
-489,737	-200,000	-0,017	-0,089
-488,722	-74,866	0,166	0,043
-487,708	47,076	0,078	0,053
-486,693	-31,845	-0,078	0,032
-485,678	-200,000	0,001	-0,034
-484,664	258,221	-0,089	-0,113
-483,649	756,033	-0,039	-0,077
-482,635	800,000	0,054	-0,150
-481,620	33,971	0,052	0,033
-480,605	-200,000	-0,025	0,168
-479,591	-58,339	0,044	0,014
-478,576	202,849	-0,066	-0,075
-477,562	-200,000	-0,004	-0,130
-476,547	-113,290	-0,082	-0,012
-475,532	-200,000	-0,011	-0,055
-474,518	201,240	-0,053	-0,060
-473,503	800,000	0,024	0,060
-472,489	131,273	-0,122	0,115
-471,474	23,605	-0,074	0,044
-470,459	800,000	0,031	0,068
-469,445	16,737	-0,041	-0,024
-468,430	800,000	-0,048	-0,107
-467,416	565,805	-0,063	0,113
-466,401	203,904	0,111	0,127
-465,386	800,000	-0,022	0,056
-464,372	-200,000	-0,011	0,040
-463,357	800,000	-0,033	0,091
-462,343	126,332	-0,055	0,051
-461,328	-200,000	-0,003	-0,032
-460,313	-200,000	0,013	-0,044
-459,299	347,793	0,030	0,043
-458,284	-200,000	0,028	0,128
-457,270	-200,000	-0,001	-0,058
-456,255	800,000	0,023	-0,051
-455,241	800,000	-0,023	0,059
-454,226	-133,020	0,063	-0,006
-453,211	800,000	0,042	0,101
-452,197	-200,000	-0,022	-0,080
-451,182	69,305	0,073	-0,055
-450,168	332,062	-0,085	-0,120
-449,153	202,783	0,019	0,021
-448,138	-200,000	0,014	-0,074
-447,124	800,000	0,031	-0,063
-446,109	-57,560	0,077	-0,025
-445,095	662,316	-0,040	0,076
-444,080	-49,259	0,100	-0,035
-443,065	800,000	-0,015	0,045
-442,051	-200,000	-0,010	0,086
-441,036	13,542	0,084	-0,047
-440,022	157,689	-0,062	-0,063
-439,007	-3,867	-0,143	-0,072
-437,992	16,222	-0,078	0,045
-436,978	-90,834	0,074	0,015
-435,963	141,119	0,076	-0,074
-434,949	-122,502	-0,137	-0,016
-433,934	8,551	-0,109	-0,060
-432,919	37,736	-0,072	-0,046
-431,905	114,879	0,024	0,022
-430,890	-123,948	0,115	0,013
-429,876	89,780	-0,102	-0,084
-428,861	-40,367	-0,093	0,035
-427,846	-200,000	-0,009	-0,044
-426,832	-117,014	0,111	0,015
-425,817	-157,767	0,012	0,001
-424,803	-200,000	-0,037	-0,139
-423,788	800,000	0,022	0,050
-422,773	-113,947	0,065	-0,009
-421,759	800,000	-0,035	0,079
-420,744	66,199	0,038	0,028
-419,730	-70,684	0,137	0,038
-418,715	721,381	-0,007	0,014
-417,701	800,000	0,047	0,137
-416,686	-200,000	-0,006	-0,041
-415,671	-200,000	-0,008	0,147
-414,657	244,456	-0,026	-0,032
-413,642	-73,848	-0,075	-0,020
-412,628	776,667	-0,017	-0,035
-411,613	233,314	-0,018	-0,022
-410,598	661,388	-0,047	-0,088
-409,584	-200,000	-0,008	-0,212
-408,569	215,019	-0,091	0,105
-407,555	800,000	-0,050	-0,139
-406,540	800,000	-0,041	0,092
-405,525	-117,270	-0,059	0,008
-404,511	549,044	-0,057	-0,101
-403,496	-41,202	-0,164	-0,062
-402,482	-135,726	0,036	-0,003
-401,467	-79,930	-0,052	0,013
-400,452	-34,309	-0,015	0,006
-399,438	-73,101	0,106	0,028
-398,423	119,762	-0,021	-0,019
-397,409	176,524	-0,078	0,083
-396,394	800,000	-0,032	0,082
-395,379	166,756	0,002	0,003
-394,365	-200,000	-0,027	0,093
-393,350	133,914	-0,062	-0,058
-392,336	-200,000	-0,018	0,072
-391,321	800,000	0,021	-0,042
-390,306	273,994	-0,067	-0,087
-389,292	-75,701	0,062	0,016
-388,277	-200,000	0,023	0,101
-387,263	800,000	0,060	-0,138
-386,248	-62,982	0,036	0,011
-385,233	147,412	-0,109	-0,108
-384,219	453,555	0,058	-0,094
-383,204	-23,958	-0,139	-0,060
-382,190	-157,878	-0,065	-0,003
-381,175	78,519	-0,082	-0,064
-380,160	-46,877	0,145	0,051
-379,146	-200,000	0,014	0,069
-378,131	338,128	0,097	0,138
-377,117	459,008	0,032	-0,053
-376,102	-200,000	-0,043	-0,182
-375,088	529,011	0,035	-0,061
-374,073	-200,000	0,002	0,030
-373,058	176,794	0,017	0,018
-372,044	800,000	-0,001	0,003
-371,029	-39,655	-0,070	0,027
-370,015	67,496	-0,063	-0,047
-369,000	531,219	-0,068	0,118
-367,985	141,416	0,062	0,060
-366,971	800,000	-0,029	0,090
-365,956	-200,000	0,001	0,118
-364,942	-119,963	0,049	0,006
-363,927	-149,118	0,115	-0,007
-362,912	-91,317	-0,139	-0,029
-361,898	50,948	0,078	-0,054
-360,883	-200,000	0,042	-0,167
-359,869	-178,070	-0,066	0,001
-358,854	-93,785	0,087	-0,017
-357,839	173,298	0,066	0,070
-356,825	-71,189	-0,093	0,025
-355,810	48,593	-0,159	-0,109
-354,796	82,274	-0,105	-0,083
-353,781	214,320	-0,071	0,082
-352,766	70,189	-0,036	-0,027
-351,752	139,487	-0,055	-0,053
-350,737	-148,473	0,127	-0,007
-349,723	355,243	-0,051	0,074
-348,708	800,000	0,044	0,105
-347,693	800,000	-0,002	0,005
-346,679	192,368	0,052	-0,057
-345,664	63,279	-0,077	-0,056
-344,650	-47,529	0,098	0,035
-343,635	-2,621	0,066	-0,033
-342,620	81,184	0,122	0,096
-341,606	-200,000	0,007	0,030
-340,591	-70,369	0,049	0,013
-339,577	24,980	0,028	-0,017
-338,562	-155,553	0,055	0,003
-337,548	233,582	-0,096	0,116
-336,533	-121,904	0,156	0,019
-335,518	-200,000	-0,012	0,079
-334,504	-5,530	0,170	-0,085
-333,489	-22,277	-0,080	-0,035
-332,475	-200,000	-0,031	0,180
-331,460	-83,317	-0,088	0,020
-330,445	-200,000	0,027	-0,109
-329,431	84,031	-0,068	-0,054
-328,416	800,000	0,036	0,081
-327,402	669,752	-0,083	0,157
-326,387	286,673	0,037	-0,049
-325,372	-200,000	-0,012	0,077
-324,358	-200,000	0,002	-0,092
-323,343	-138,369	0,082	0,007
-322,329	800,000	-0,048	-0,146
-321,314	-100,415	0,118	0,021
-320,299	-200,000	0,017	0,076
-319,285	28,923	-0,180	0,111
-318,270	-200,000	-0,037	-0,121
-317,256	-94,005	-0,071	-0,014
-316,241	131,472	0,025	-0,023
-315,226	673,252	0,032	-0,060
-314,212	-200,000	-0,027	0,119
-313,197	-200,000	0,026	0,152
-312,183	-60,871	0,163	0,050
-311,168	313,701	-0,055	0,075
-310,153	455,203	0,083	-0,134
-309,139	320,777	0,106	-0,148
-308,124	-75,929	0,033	-0,009
-307,110	512,866	0,030	0,051
-306,095	62,099	0,055	0,040
-305,080	143,113	-0,085	-0,083
-304,066	-92,103	0,023	0,005
-303,051	46,424	-0,103	-0,069
-302,037	-39,281	-0,096	-0,037
-301,022	179,799	0,050	-0,053
-300,008	336,628	-0,053	0,075
-298,993	370,523	0,058	-0,086
-297,978	800,000	-0,029	0,088
-296,964	382,333	-0,032	0,048
-295,949	-200,000	-0,029	-0,131
-294,935	-1,597	-0,160	-0,082
-293,920	221,981	-0,045	0,053
-292,905	-12,395	-0,039	0,018
-291,891	-107,168	0,063	0,010
-290,876	800,000	0,012	-0,030
-289,862	467,637	-0,051	0,084
-288,847	-66,951	-0,046	-0,013
-287,832	-35,315	0,043	0,017
-286,818	407,483	0,028	-0,044
-285,803	800,000	0,052	0,140
-284,789	93,363	0,084	0,069
-283,774	-83,948	-0,077	0,018
-282,759	-200,000	-0,017	0,101
-281,745	14,138	-0,032	-0,018
-280,730	-86,494	-0,165	0,037
-279,716	-52,972	0,141	-0,047
-278,701	333,967	0,079	-0,111
-277,686	414,433	0,060	0,093
-276,672	-134,087	-0,102	-0,009
-275,657	-26,432	-0,059	-0,025
-274,643	-200,000	0,040	-0,136
-273,628	800,000	-0,030	-0,095
-272,613	64,310	-0,078	-0,057
-271,599	-8,417	-0,016	-0,008
-270,584	57,263	0,049	0,035
-269,570	-20,596	0,064	0,028
-268,555	800,000	-0,055	0,122
-267,540	26,725	-0,073	-0,044
-266,526	800,000	-0,029	-0,083
-265,511	-10,656	-0,053	0,026
-264,497	397,843	-0,011	0,017
-263,482	-32,558	-0,175	0,070
-262,467	385,998	0,004	-0,006
-261,453	58,996	0,088	-0,063
-260,438	-200,000	-0,004	0,079
-259,424	89,395	0,044	0,036
-258,409	-200,000	-0,010	-0,074
-257,395	501,919	0,046	0,077
-256,380	90,083	0,121	-0,099
-255,365	800,000	0,019	0,048
-254,351	-109,772	-0,128	-0,019
-253,336	235,364	0,007	-0,008
-252,322	107,328	-0,097	0,083
-251,307	357,767	0,043	-0,062
-250,292	87,868	0,207	0,167
-249,278	135,532	0,051	0,048
-248,263	-54,369	0,134	-0,044
-247,249	45,661	-0,154	0,103
-246,234	33,623	-0,026	0,017
-245,219	408,792	-0,048	0,074
-244,205	-122,467	-0,007	0,001
-243,190	68,054	-0,063	0,046
-242,176	197,706	0,084	0,094
-241,161	641,467	0,070	0,131
-240,146	-200,000	0,004	-0,095
-239,132	-35,945	-0,047	-0,018
-238,117	800,000	0,027	0,074
-237,103	-140,964	0,015	-0,001
-236,088	800,000	0,014	0,034
-235,073	-85,252	0,030	-0,007
-234,059	800,000	0,052	-0,151
-233,044	57,542	0,093	0,066
-232,030	704,297	-0,089	0,171
-231,015	-3,253	0,050	0,025
-230,000	102,285	-0,037	-0,031
-228,986	-70,254	-0,103	0,028
-227,971	221,835	0,113	0,132
-226,957	246,080	-0,073	0,090
-225,942	-200,000	0,035	0,137
-224,927	-52,858	0,059	0,020
-223,913	54,505	-0,099	-0,069
-222,898	-34,225	-0,171	-0,068
-221,884	-200,000	0,030	-0,129
-220,869	417,985	-0,036	0,056
-219,855	97,535	0,113	-0,094
-218,840	380,732	0,034	0,050
-217,825	-200,000	0,008	-0,075
-216,811	800,000	-0,059	-0,170
-215,796	32,042	-0,081	-0,051
-214,782	-200,000	0,011	-0,099
-213,767	-135,175	-0,031	-0,003
-212,752	-14,930	0,079	0,037
-211,738	-131,112	-0,041	0,004
-210,723	800,000	-0,035	-0,101
-209,709	800,000	-0,019	-0,044
-208,694	355,726	0,071	-0,102
-207,679	-56,489	-0,099	0,032
-206,665	-200,000	-0,006	0,085
-205,650	-55,275	0,115	0,037
-204,636	-200,000	0,001	-0,036
-203,621	-59,573	0,119	-0,037
-202,606	13,626	-0,136	-0,077
-201,592	800,000	-0,030	-0,086
-200,577	-200,000	0,036	0,182
-199,563	-8,026	0,206	-0,100
-198,548	368,437	0,062	0,092
-197,533	800,000	0,012	0,033
-196,519	260,800	0,024	-0,030
-195,504	435,360	0,026	0,041
-194,490	-200,000	-0,024	-0,145
-193,475	800,000	0,016	-0,036
-192,460	283,104	0,113	-0,148
-191,446	800,000	0,054	0,151
-190,431	-101,951	0,142	-0,025
-189,417	571,414	0,047	-0,083
-188,402	800,000	0,080	0,180
-187,387	68,438	-0,069	0,051
-186,373	-200,000	-0,008	0,042
-185,358	70,182	-0,033	0,024
-184,344	-200,000	0,006	0,036
-183,329	245,517	-0,055	0,068
-182,315	86,261	-0,082	0,066
-181,300	42,588	0,099	0,065
-180,285	-169,482	-0,047	-0,001
-179,271	205,451	-0,052	-0,058
-178,256	66,556	0,059	-0,044
-177,242	60,559	0,059	-0,043
-176,227	-200,000	-0,003	0,053
-175,212	304,098	0,045	0,061
-174,198	800,000	0,030	-0,083
-173,183	108,523	-0,051	-0,044
-172,169	-97,909	-0,031	0,006
-171,154	-200,000	0,006	0,041
-170,139	800,000	-0,018	0,042
-169,125	-161,057	0,034	-0,001
-168,110	245,531	-0,088	0,108
-167,096	149,732	0,042	0,042
-166,081	800,000	0,053	0,149
-165,066	-110,584	-0,165	0,025
-164,052	-107,913	0,116	-0,018
-163,037	-134,068	0,044	-0,004
-162,023	-85,207	0,086	0,019
-161,008	343,707	-0,062	-0,088
-159,993	-38,422	0,009	-0,003
-158,979	800,000	0,036	0,088
-157,964	-200,000	0,012	0,069
-156,950	-27,994	0,085	0,036
-155,935	4,824	0,025	0,013
-154,920	-105,989	0,076	0,012
-153,906	-200,000	0,009	0,081
-152,891	-62,882	-0,088	-0,026
-151,877	-139,971	0,126	0,009
-150,862	800,000	0,027	-0,078
-149,847	332,196	-0,043	-0,060
-148,833	-200,000	0,018	0,179
-147,818	101,874	0,129	0,109
-146,804	-22,004	0,046	0,020
-145,789	-77,859	0,018	0,004
-144,775	173,988	0,012	0,013
-143,760	-200,000	-0,001	-0,062
-142,745	-23,998	-0,174	-0,075
-141,731	-33,113	0,139	-0,056
-140,716	203,696	-0,034	0,038
-139,702	698,321	0,011	-0,022
-138,687	75,246	0,067	-0,051
-137,672	-200,000	-0,018	0,096
-136,658	-122,975	0,077	-0,009
-135,643	-200,000	0,028	0,121
-134,629	239,049	-0,031	0,037
-133,614	171,098	-0,116	0,121
-132,599	-200,000	0,004	0,053
-131,585	516,122	-0,048	0,082
-130,570	-109,499	0,102	-0,016
-129,556	460,918	-0,037	-0,061
-128,541	-29,871	-0,086	-0,035
-127,526	691,973	0,041	0,078
-126,512	-23,304	-0,019	-0,008
-125,497	-28,959	0,035	0,015
-124,483	112,763	0,028	0,024
-123,468	136,305	0,043	0,041
-122,453	33,335	-0,080	0,050
-121,439	75,410	0,025	-0,019
-120,424	800,000	-0,038	-0,107
-119,410	-141,864	0,063	-0,004
-118,395	-50,876	0,044	-0,015
