DTS Sentinel unit serial number:	SN410029Multiplexer serial number:	ORYXHardware model number:	OX2-SRSoftware version number:	ORYX F/W v4,00 Oryx Data Collector v3.7.2.0data status	okinstallation	B6 Nyhavnadifferential loss correction	single-endedforward channel	channel 2reverse channel	N/Adate	2023/12/07time	12:05:08forward acquisition time	300,00reverse acquisition time	0,00gamma	499,1914k internal	0,3203k external	0,3203temperature offset calibration	1,0000default loss term (dB/km)	0,3820temperature slope calibration	1,0000multiplexer offset coefficient	1,0000multiplexer slope coefficient	1,0000fibre end	0,00T internal ref (°C)	9,50T ext. ref 1 (°C)	-4,27T ext. ref 2 (°C)	-4,26length (m)	temperature (°C)	Stokes	anti-Stokes-744,400	104,722	0,292	0,250
-743,385	-88,786	-0,456	-0,098
-742,371	-28,117	0,218	0,091
-741,356	-59,405	-0,287	0,089
-740,342	488,175	0,125	0,209
-739,327	-135,290	-0,408	-0,035
-738,312	-74,981	0,159	0,041
-737,298	-127,227	-0,452	-0,047
-736,283	168,073	0,156	0,161
-735,269	-94,221	-0,271	0,053
-734,254	-146,267	0,287	-0,018
-733,239	6,539	-0,595	-0,320
-732,225	237,928	0,154	0,186
-731,210	800,000	-0,027	0,060
-730,196	9,937	-0,110	-0,060
-729,181	1,780	0,025	0,013
-728,167	-88,692	-0,110	-0,024
-727,152	800,000	-0,045	-0,118
-726,137	800,000	-0,030	0,095
-725,123	239,469	-0,037	-0,045
-724,108	173,652	-0,067	0,070
-723,094	-200,000	0,028	-0,271
-722,079	416,622	0,052	-0,082
-721,064	-200,000	-0,030	-0,168
-720,050	-144,648	0,090	0,006
-719,035	429,767	-0,024	-0,037
-718,021	-46,174	-0,084	-0,030
-717,006	800,000	-0,076	-0,171
-715,991	-38,610	-0,213	-0,081
-714,977	-83,771	-0,037	-0,009
-713,962	-200,000	0,011	-0,124
-712,948	559,967	-0,027	-0,047
-711,933	93,685	0,096	-0,079
-710,918	800,000	-0,030	-0,078
-709,904	-200,000	-0,046	-0,164
-708,889	37,925	-0,030	0,019
-707,875	102,465	-0,137	-0,116
-706,860	158,038	-0,052	-0,052
-705,845	800,000	0,052	0,108
-704,831	723,105	0,065	0,125
-703,816	-98,342	-0,167	-0,031
-702,802	-200,000	0,046	-0,161
-701,787	-91,619	-0,141	0,029
-700,772	-200,000	0,009	0,052
-699,758	1,471	-0,076	-0,040
-698,743	-0,813	0,119	-0,061
-697,729	280,328	-0,085	-0,110
-696,714	-103,888	-0,122	0,020
-695,699	-200,000	0,006	-0,020
-694,685	348,794	-0,088	0,126
-693,670	232,552	0,021	-0,025
-692,656	-149,934	0,169	0,009
-691,641	121,897	0,091	-0,082
-690,627	64,941	-0,068	-0,050
-689,612	-4,436	-0,074	0,037
-688,597	2,253	-0,054	-0,028
-687,583	-66,700	-0,187	-0,053
-686,568	-200,000	0,000	-0,132
-685,554	-67,910	-0,148	-0,042
-684,539	-200,000	-0,029	-0,111
-683,524	-88,117	0,209	-0,045
-682,510	115,325	0,076	-0,067
-681,495	66,896	-0,129	0,095
-680,481	-122,702	-0,115	-0,013
-679,466	138,613	0,085	-0,081
-678,451	189,506	-0,118	-0,128
-677,437	-200,000	0,015	-0,076
-676,422	-200,000	-0,050	-0,174
-675,408	71,334	-0,163	0,122
-674,393	800,000	-0,016	-0,034
-673,378	134,147	-0,097	-0,091
-672,364	800,000	0,048	-0,115
-671,349	-200,000	-0,044	-0,148
-670,335	-49,233	-0,112	0,039
-669,320	-151,065	0,060	-0,003
-668,305	350,239	-0,070	-0,100
-667,291	349,658	-0,061	0,088
-666,276	1,299	-0,048	0,025
-665,262	102,853	-0,113	-0,096
-664,247	48,755	0,034	-0,023
-663,232	15,474	0,039	-0,022
-662,218	272,551	-0,061	-0,078
-661,203	325,074	0,062	0,087
-660,189	230,293	-0,061	-0,073
-659,174	-137,113	-0,176	-0,014
-658,159	-30,183	-0,046	-0,019
-657,145	287,431	-0,098	-0,128
-656,130	50,428	-0,129	-0,088
-655,116	800,000	-0,036	-0,111
-654,101	-200,000	0,005	0,062
-653,086	-200,000	-0,024	-0,117
-652,072	-200,000	0,004	-0,107
-651,057	800,000	-0,084	-0,193
-650,043	800,000	-0,048	-0,107
-649,028	-127,009	-0,141	-0,015
-648,014	-118,803	0,072	0,009
-646,999	52,049	0,042	-0,029
-645,984	-119,233	-0,069	-0,009
-644,970	-137,987	-0,159	-0,013
-643,955	95,032	-0,027	-0,022
-642,941	-200,000	-0,015	-0,060
-641,926	21,402	0,106	-0,062
-640,911	800,000	-0,029	0,086
-639,897	70,972	0,041	-0,031
-638,882	51,557	-0,052	0,035
-637,868	-200,000	-0,003	-0,021
-636,853	800,000	-0,044	-0,120
-635,838	-200,000	0,001	-0,038
-634,824	-84,736	-0,164	-0,037
-633,809	-36,974	-0,108	0,042
-632,795	800,000	0,076	0,169
-631,780	-31,965	-0,014	-0,006
-630,765	5,826	0,125	0,067
-629,751	-101,998	0,023	0,004
-628,736	435,855	0,063	-0,100
-627,722	800,000	0,045	-0,093
-626,707	196,695	0,080	0,089
-625,692	-76,641	0,192	0,048
-624,678	333,673	-0,109	0,153
-623,663	-18,279	-0,212	-0,096
-622,649	214,093	-0,069	-0,079
-621,634	-200,000	-0,025	-0,123
-620,619	82,764	-0,086	-0,068
-619,605	186,882	0,017	-0,019
-618,590	-152,847	0,051	-0,003
-617,576	47,385	-0,076	0,051
-616,561	15,403	-0,069	-0,039
-615,546	474,645	-0,052	-0,085
-614,532	434,143	-0,046	-0,073
-613,517	100,226	-0,067	0,057
-612,503	-56,884	-0,028	-0,009
-611,488	-66,673	0,135	0,038
-610,474	-200,000	-0,004	0,015
-609,459	-200,000	-0,010	-0,100
-608,444	800,000	-0,014	-0,044
-607,430	-63,754	0,057	0,017
-606,415	-15,140	-0,069	-0,032
-605,401	-42,450	-0,058	0,021
-604,386	-106,509	0,057	0,009
-603,371	60,494	-0,120	-0,086
-602,357	-200,000	-0,013	-0,079
-601,342	42,760	-0,160	0,105
-600,328	-200,000	0,002	-0,035
-599,313	48,256	0,013	-0,009
-598,298	-6,959	0,113	-0,055
-597,284	13,439	0,029	0,016
-596,269	800,000	-0,035	0,101
-595,255	800,000	0,033	0,068
-594,240	-200,000	0,000	0,034
-593,225	218,416	-0,050	0,058
-592,211	86,422	0,070	-0,056
-591,196	800,000	0,020	0,050
-590,182	-100,764	-0,074	0,013
-589,167	42,306	0,016	-0,010
-588,152	209,069	0,090	0,102
-587,138	194,180	0,069	0,076
-586,123	-200,000	-0,011	-0,108
-585,109	-52,153	-0,176	-0,059
-584,094	-9,284	0,132	-0,063
-583,079	-188,038	0,018	-0,000
-582,065	-75,676	0,074	-0,019
-581,050	-49,613	0,101	-0,035
-580,036	113,564	-0,087	-0,077
-579,021	-113,304	-0,066	-0,009
-578,006	200,283	-0,063	-0,070
-576,992	-200,000	0,006	0,066
-575,977	9,045	0,092	0,050
-574,963	-148,434	0,051	0,003
-573,948	-200,000	-0,010	0,054
-572,934	800,000	-0,014	0,036
-571,919	-200,000	-0,008	-0,064
-570,904	-96,687	-0,155	-0,029
-569,890	119,158	-0,087	0,078
-568,875	64,932	0,179	0,130
-567,861	101,314	-0,058	0,049
-566,846	5,430	0,073	0,039
-565,831	800,000	-0,049	-0,113
-564,817	-200,000	0,009	-0,029
-563,802	800,000	-0,005	0,016
-562,788	800,000	0,018	-0,043
-561,773	169,102	-0,051	0,053
-560,758	800,000	0,025	0,052
-559,744	-106,932	-0,070	-0,011
-558,729	-45,963	-0,138	0,049
-557,715	800,000	-0,029	-0,078
-556,700	177,896	-0,067	0,071
-555,685	-16,903	-0,092	-0,042
-554,671	37,449	0,127	0,081
-553,656	353,124	0,071	-0,102
-552,642	-200,000	-0,007	0,058
-551,627	135,991	-0,097	-0,091
-550,612	-200,000	0,001	-0,016
-549,598	235,895	0,021	-0,025
-548,583	800,000	-0,050	-0,133
-547,569	403,832	-0,018	-0,027
-546,554	-200,000	-0,014	-0,047
-545,539	-63,308	0,043	0,013
-544,525	387,937	0,033	-0,050
-543,510	-159,377	-0,098	0,004
-542,496	-200,000	0,037	0,128
-541,481	-200,000	0,015	-0,105
-540,466	-67,135	-0,074	-0,021
-539,452	205,872	-0,045	0,051
-538,437	487,850	0,013	-0,021
-537,423	-200,000	0,157	-0,000
-536,408	590,543	0,028	-0,050
-535,393	-32,985	-0,085	0,034
-534,379	319,405	0,035	-0,048
-533,364	800,000	0,018	0,040
-532,350	-116,629	0,087	-0,011
-531,335	114,530	-0,055	-0,049
-530,321	800,000	0,009	0,023
-529,306	411,565	-0,015	0,023
-528,291	329,077	-0,064	-0,088
-527,277	-200,000	-0,025	-0,135
-526,262	47,674	0,038	0,025
-525,248	-200,000	-0,017	0,184
-524,233	-149,294	0,091	-0,005
-523,218	-200,000	0,028	-0,104
-522,204	360,865	-0,053	-0,077
-521,189	85,076	-0,012	-0,010
-520,175	-200,000	0,003	-0,028
-519,160	23,680	0,031	0,018
-518,145	58,175	0,138	0,097
-517,131	379,346	-0,025	-0,037
-516,116	-167,669	-0,091	0,003
-515,102	299,118	0,048	-0,063
-514,087	800,000	-0,029	-0,062
-513,072	183,849	0,075	0,080
-512,058	-200,000	0,052	-0,180
-511,043	260,241	0,058	0,073
-510,029	-200,000	0,006	-0,071
-509,014	800,000	0,068	0,154
-507,999	800,000	0,051	-0,158
-506,985	-200,000	-0,022	-0,082
-505,970	800,000	-0,030	-0,090
-504,956	800,000	0,055	-0,128
-503,941	-200,000	-0,002	-0,050
-502,926	32,221	0,138	-0,086
-501,912	151,660	0,025	-0,024
-500,897	-200,000	-0,007	-0,072
-499,883	800,000	0,018	0,045
-498,868	5,081	-0,069	0,037
-497,853	-12,711	-0,150	0,070
-496,839	-200,000	0,038	0,138
-495,824	105,107	-0,090	0,076
-494,810	-200,000	-0,022	-0,122
-493,795	800,000	-0,034	-0,090
-492,781	300,760	-0,016	-0,022
-491,766	-45,674	-0,089	-0,032
-490,751	71,483	-0,049	-0,036
-489,737	-200,000	-0,015	-0,183
-488,722	800,000	0,059	0,171
-487,708	-177,546	0,135	0,002
-486,693	-91,117	0,127	-0,026
-485,678	672,080	-0,031	-0,057
-484,664	-92,485	0,069	0,014
-483,649	800,000	-0,022	-0,052
-482,635	-103,082	0,074	0,012
-481,620	800,000	-0,060	0,158
-480,605	-200,000	-0,060	0,192
-479,591	800,000	0,029	0,077
-478,576	-200,000	-0,010	-0,033
-477,562	800,000	0,064	-0,174
-476,547	78,696	-0,043	-0,033
-475,532	-23,263	-0,063	-0,027
-474,518	-200,000	0,005	-0,025
-473,503	29,623	0,067	0,041
-472,489	257,329	0,014	0,018
-471,474	31,543	0,128	-0,079
-470,459	-158,088	0,099	0,004
-469,445	-115,669	0,100	0,013
-468,430	48,141	0,177	-0,119
-467,416	272,425	0,067	0,085
-466,401	213,068	-0,066	0,075
-465,386	-58,936	0,033	0,010
-464,372	7,583	-0,035	0,019
-463,357	18,667	0,045	-0,026
-462,343	-130,304	-0,114	0,011
-461,328	121,792	-0,085	-0,077
-460,313	800,000	0,047	-0,095
-459,299	-139,050	-0,084	0,006
-458,284	-138,617	0,086	0,007
-457,270	156,202	0,073	0,072
-456,255	-200,000	0,030	0,166
-455,241	88,265	0,061	0,049
-454,226	585,572	0,033	-0,058
-453,211	31,951	-0,043	-0,027
-452,197	-200,000	0,003	-0,011
-451,182	-200,000	-0,006	-0,071
-450,168	-104,187	-0,019	-0,003
-449,153	-178,590	-0,017	-0,000
-448,138	398,188	-0,018	0,026
-447,124	36,810	0,137	-0,087
-446,109	-119,011	-0,147	0,018
-445,095	523,016	0,035	0,059
-444,080	42,476	0,100	0,065
-443,065	357,965	-0,011	0,016
-442,051	480,115	-0,043	-0,071
-441,036	540,902	0,063	-0,109
-440,022	-200,000	-0,019	-0,102
-439,007	-63,925	-0,178	0,052
-437,992	462,846	0,104	0,167
-436,978	800,000	-0,019	0,048
-435,963	-200,000	-0,037	0,120
-434,949	-154,083	0,024	-0,001
-433,934	-200,000	0,006	-0,071
-432,919	78,651	0,048	0,037
-431,905	-114,442	0,052	0,007
-430,890	132,536	-0,095	-0,088
-429,876	-200,000	0,000	0,005
-428,861	800,000	-0,015	0,041
-427,846	534,354	0,047	-0,080
-426,832	-45,799	-0,157	-0,055
-425,817	378,337	-0,049	-0,072
-424,803	65,937	-0,054	0,039
-423,788	33,440	0,178	0,110
-422,773	359,873	0,112	0,161
-421,759	800,000	0,044	0,132
-420,744	-200,000	-0,007	0,153
-419,730	187,879	-0,024	-0,026
-418,715	-151,958	0,081	-0,004
-417,701	-124,761	0,068	-0,007
-416,686	-200,000	0,016	0,058
-415,671	42,109	0,062	0,040
-414,657	-200,000	-0,019	0,088
-413,642	800,000	-0,041	-0,130
-412,628	289,444	-0,045	0,059
-411,613	-200,000	0,011	-0,101
-410,598	253,386	0,046	0,057
-409,584	12,431	0,035	0,019
-408,569	-43,888	-0,065	0,023
-407,555	225,338	0,101	0,118
-406,540	800,000	-0,022	-0,046
-405,525	-200,000	-0,024	-0,149
-404,511	-200,000	-0,024	-0,127
-403,496	311,143	-0,003	0,004
-402,482	800,000	-0,010	0,030
-401,467	-81,786	0,043	0,010
-400,452	-200,000	0,002	0,069
-399,438	462,407	-0,054	-0,086
-398,423	201,426	-0,104	-0,115
-397,409	-200,000	0,002	-0,082
-396,394	444,275	0,055	0,087
-395,379	408,509	-0,065	0,099
-394,365	-200,000	0,011	-0,085
-393,350	141,983	-0,065	-0,062
-392,336	774,415	0,056	0,111
-391,321	111,924	-0,126	-0,109
-390,306	413,111	-0,050	-0,077
-389,292	-200,000	0,005	-0,030
-388,277	-200,000	-0,017	-0,118
-387,263	-175,775	0,098	0,002
-386,248	78,255	0,052	-0,040
-385,233	-17,196	-0,077	-0,035
-384,219	217,988	-0,029	0,033
-383,204	597,182	-0,036	0,064
-382,190	-18,986	-0,058	0,026
-381,175	-200,000	-0,029	0,104
-380,160	800,000	-0,047	-0,127
-379,146	-200,000	0,015	0,059
-378,131	132,006	0,070	0,065
-377,117	-141,775	-0,090	0,006
-376,102	93,047	0,045	0,036
-375,088	-117,308	-0,048	0,006
-374,073	-200,000	0,008	-0,037
-373,058	-200,000	-0,003	0,053
-372,044	291,626	0,033	0,044
-371,029	-200,000	0,010	0,129
-370,015	16,193	-0,115	-0,065
-369,000	800,000	-0,039	0,119
-367,985	266,675	-0,061	0,076
-366,971	-34,888	-0,127	0,049
-365,956	-200,000	-0,005	0,088
-364,942	-136,433	0,089	-0,007
-363,927	800,000	-0,014	-0,035
-362,912	-46,628	0,104	0,036
-361,898	18,626	-0,091	0,052
-360,883	800,000	0,038	-0,096
-359,869	800,000	0,049	-0,118
-358,854	60,352	0,050	-0,035
-357,839	-27,770	0,115	-0,048
-356,825	-16,132	0,072	0,033
-355,810	126,787	0,070	0,064
-354,796	131,083	0,034	-0,031
-353,781	167,422	-0,080	-0,082
-352,766	-141,711	0,075	0,005
-351,752	249,753	0,081	-0,099
-350,737	131,563	-0,021	0,019
-349,723	800,000	-0,060	0,180
-348,708	24,822	-0,100	0,059
-347,693	18,540	-0,164	0,094
-346,679	-200,000	0,001	-0,063
-345,664	-200,000	-0,009	-0,038
-344,650	411,627	0,064	0,097
-343,635	-200,000	0,000	0,034
-342,620	162,498	0,132	0,133
-341,606	-200,000	-0,025	0,163
-340,591	70,358	-0,138	-0,102
-339,577	-63,069	-0,022	-0,007
-338,562	155,402	-0,077	-0,076
-337,548	-67,817	-0,159	0,044
-336,533	-200,000	0,021	0,081
-335,518	-200,000	-0,027	0,095
-334,504	-163,229	0,061	-0,002
-333,489	800,000	0,010	0,026
-332,475	487,260	-0,037	0,060
-331,460	800,000	-0,041	-0,104
-330,445	-200,000	0,028	-0,192
-329,431	99,821	0,091	-0,076
-328,416	213,801	0,105	-0,119
-327,402	800,000	-0,052	0,105
-326,387	-46,683	-0,095	0,033
-325,372	334,407	-0,090	-0,124
-324,358	273,775	-0,040	0,051
-323,343	800,000	0,040	-0,107
-322,329	-82,830	0,197	-0,045
-321,314	-200,000	-0,000	0,066
-320,299	-200,000	-0,001	0,073
-319,285	-200,000	0,008	0,050
-318,270	320,346	0,073	0,099
-317,256	-200,000	0,011	0,070
-316,241	800,000	-0,052	-0,129
-315,226	207,966	0,024	0,026
-314,212	-67,055	0,068	0,019
-313,197	141,502	0,086	0,081
-312,183	72,843	0,040	0,030
-311,168	-200,000	0,001	0,049
-310,153	31,693	-0,062	0,038
-309,139	800,000	-0,037	-0,084
-308,124	-177,372	0,138	-0,002
-307,110	-200,000	-0,013	0,086
-306,095	-200,000	0,000	0,082
-305,080	488,805	0,078	0,128
-304,066	-186,511	-0,098	-0,001
-303,051	146,648	-0,109	0,104
-302,037	179,600	-0,049	-0,052
-301,022	-200,000	0,001	0,039
-300,008	256,546	-0,078	0,095
-298,993	70,572	0,035	0,026
-297,978	-200,000	-0,031	-0,119
-296,964	-58,372	0,075	0,023
-295,949	-3,799	0,098	-0,048
-294,935	-37,196	-0,083	-0,031
-293,920	345,498	0,053	0,074
-292,905	-200,000	-0,010	0,041
-291,891	-200,000	0,006	0,146
-290,876	-200,000	0,003	0,047
-289,862	350,521	0,018	0,025
-288,847	800,000	-0,070	-0,141
-287,832	-200,000	-0,000	0,003
-286,818	81,611	-0,086	0,066
-285,803	705,859	0,069	-0,130
-284,789	-156,112	0,077	0,003
-283,774	-200,000	-0,002	-0,075
-282,759	343,430	-0,040	-0,057
-281,745	251,756	0,031	0,038
-280,730	44,382	0,038	-0,025
-279,716	10,967	0,044	0,024
-278,701	-60,412	0,027	-0,008
-277,686	-200,000	0,028	0,124
-276,672	-104,486	-0,040	0,007
-275,657	-200,000	-0,001	0,065
-274,643	-121,417	0,013	-0,002
-273,628	-82,041	-0,147	0,034
-272,613	797,656	0,037	-0,073
-271,599	37,957	-0,034	0,022
-270,584	-70,915	0,098	0,026
-269,570	44,485	-0,064	-0,042
-268,555	73,221	-0,129	0,096
-267,540	70,617	0,078	0,057
-266,526	-200,000	0,037	-0,154
-265,511	-200,000	0,031	0,124
-264,497	800,000	0,068	0,136
-263,482	316,303	0,059	-0,080
-262,467	153,649	0,040	0,039
-261,453	105,954	-0,030	-0,025
-260,438	-200,000	-0,010	-0,041
-259,424	-27,913	-0,027	-0,011
-258,409	360,301	-0,037	0,053
-257,395	-120,282	-0,057	-0,007
-256,380	419,828	-0,026	-0,040
-255,365	54,615	0,069	0,047
-254,351	-200,000	-0,011	0,067
-253,336	-200,000	-0,013	-0,080
-252,322	800,000	0,046	-0,105
-251,307	200,936	-0,019	0,021
-250,292	-8,157	0,052	0,025
-249,278	-200,000	0,009	-0,076
-248,263	-90,591	0,141	0,029
-247,249	-89,133	-0,209	0,044
-246,234	-99,419	-0,024	-0,004
-245,219	800,000	0,008	-0,022
-244,205	211,629	-0,124	-0,139
-243,190	257,867	-0,048	0,059
-242,176	-200,000	0,027	0,118
-241,161	800,000	-0,018	0,046
-240,146	-54,500	0,127	-0,041
-239,132	227,488	0,037	0,042
-238,117	276,785	0,091	-0,116
-237,103	-37,238	-0,087	-0,033
-236,088	705,966	0,020	-0,039
-235,073	221,456	0,052	-0,059
-234,059	20,118	-0,087	0,050
-233,044	800,000	-0,057	0,116
-232,030	494,528	-0,033	0,054
-231,015	152,788	-0,040	-0,039
-230,000	-141,593	-0,178	0,013
-228,986	156,728	0,025	0,025
-227,971	-116,959	0,093	-0,012
-226,957	-105,421	0,098	-0,016
-225,942	-200,000	0,012	-0,044
-224,927	-48,765	-0,047	-0,016
-223,913	-62,263	0,086	0,025
-222,898	26,782	0,108	-0,064
-221,884	-200,000	-0,002	-0,044
-220,869	-12,348	-0,109	-0,051
-219,855	498,085	0,051	0,083
-218,840	-200,000	-0,006	0,084
-217,825	31,731	-0,013	-0,008
-216,811	-28,443	0,076	-0,031
-215,796	-200,000	0,000	-0,060
-214,782	-131,513	-0,163	-0,015
-213,767	800,000	0,014	0,029
-212,752	-200,000	-0,021	0,085
-211,738	800,000	0,030	0,072
-210,723	55,958	0,110	0,076
-209,709	800,000	0,041	-0,092
-208,694	19,868	-0,132	0,076
-207,679	2,487	-0,035	-0,018
-206,665	800,000	0,014	0,030
-205,650	190,527	0,021	-0,023
-204,636	-42,730	0,019	-0,007
-203,621	47,111	-0,071	-0,047
-202,606	-30,947	-0,097	-0,039
-201,592	-200,000	-0,001	0,125
-200,577	-49,661	0,071	0,024
-199,563	-150,520	-0,184	0,010
-198,548	800,000	-0,046	0,106
-197,533	608,998	-0,083	-0,149
-196,519	800,000	-0,015	-0,039
-195,504	89,936	-0,062	-0,049
-194,490	174,250	0,050	-0,051
-193,475	-80,462	0,113	-0,027
-192,460	155,701	0,020	-0,019
-191,446	167,726	-0,091	0,092
-190,431	680,979	0,035	-0,065
-189,417	257,095	0,051	-0,063
-188,402	800,000	0,016	-0,045
-187,387	-95,364	-0,030	0,006
-186,373	-102,770	-0,062	0,010
-185,358	222,294	0,072	0,083
-184,344	-82,399	0,087	0,020
-183,329	732,054	-0,006	0,012
-182,315	108,710	0,028	-0,024
-181,300	-177,908	0,042	-0,001
-180,285	15,056	0,111	-0,061
-179,271	-89,723	0,073	-0,015
-178,256	246,887	-0,025	-0,031
-177,242	800,000	0,026	0,068
-176,227	-200,000	-0,008	-0,057
-175,212	49,528	0,097	0,065
-174,198	-68,935	-0,159	0,043
-173,183	177,840	-0,076	-0,079
-172,169	133,606	-0,049	0,045
-171,154	-24,722	-0,083	-0,035
-170,139	-180,896	-0,062	0,001
-169,125	-94,440	0,134	-0,026
-168,110	800,000	-0,008	-0,023
-167,096	118,685	0,075	0,066
-166,081	800,000	-0,023	-0,047
-165,066	250,218	0,072	-0,087
-164,052	-15,643	-0,029	-0,013
-163,037	800,000	0,017	0,036
-162,023	-43,132	0,060	-0,022
-161,008	401,525	-0,030	0,045
-159,993	-200,000	-0,005	0,050
-158,979	-200,000	-0,030	-0,152
-157,964	-46,740	0,039	-0,013
-156,950	-200,000	0,002	0,133
-155,935	-200,000	-0,022	-0,120
-154,920	-39,395	0,149	0,055
-153,906	292,857	0,072	0,093
-152,891	109,322	0,020	0,017
-151,877	300,964	-0,075	-0,099
-150,862	594,964	-0,057	-0,101
-149,847	277,461	0,010	0,013
-148,833	-37,393	-0,137	-0,052
-147,818	-124,153	0,088	-0,010
-146,804	-200,000	-0,034	0,140
-145,789	-200,000	0,001	0,025
-144,775	333,875	-0,036	-0,050
-143,760	784,420	0,041	-0,081
-142,745	800,000	-0,057	-0,116
-141,731	-56,303	0,099	-0,031
-140,716	35,483	-0,116	-0,072
-139,702	155,042	0,007	-0,007
-138,687	800,000	0,038	-0,081
-137,672	-35,234	-0,072	0,028
-136,658	-139,605	-0,064	0,005
-135,643	-95,225	0,059	0,011
-134,629	800,000	0,086	0,243
-133,614	-200,000	-0,027	-0,116
-132,599	-200,000	0,007	0,160
-131,585	800,000	-0,057	-0,117
-130,570	-200,000	-0,034	0,134
-129,556	-200,000	-0,007	0,140
-128,541	322,552	0,022	0,030
-127,526	330,325	-0,042	-0,057
-126,512	-22,281	0,098	0,042
-125,497	-51,407	0,106	0,035
-124,483	599,804	-0,064	0,114
-123,468	-52,064	0,084	0,028
-122,453	188,290	-0,032	-0,034
-121,439	-200,000	0,030	-0,104
-120,424	75,646	-0,035	0,026
-119,410	364,816	-0,051	0,073
