DTS Sentinel unit serial number:	SN410029Multiplexer serial number:	ORYXHardware model number:	OX2-SRSoftware version number:	ORYX F/W v4,00 Oryx Data Collector v3.7.2.0data status	okinstallation	B6 Nyhavnadifferential loss correction	single-endedforward channel	channel 2reverse channel	N/Adate	2023/12/08time	13:05:08forward acquisition time	300,00reverse acquisition time	0,00gamma	499,1914k internal	0,3159k external	0,3159temperature offset calibration	1,0000default loss term (dB/km)	0,3820temperature slope calibration	1,0000multiplexer offset coefficient	1,0000multiplexer slope coefficient	1,0000fibre end	0,00T internal ref (°C)	15,06T ext. ref 1 (°C)	-1,50T ext. ref 2 (°C)	-1,51length (m)	temperature (°C)	Stokes	anti-Stokes-744,400	255,864	0,058	0,073
-743,385	-18,426	-0,305	-0,140
-742,371	293,430	0,134	0,180
-741,356	-142,362	-0,257	0,018
-740,342	-35,226	0,258	0,103
-739,327	-180,535	-0,359	0,005
-738,312	-147,905	0,130	0,008
-737,298	-163,276	-0,394	0,014
-736,283	34,876	0,092	0,059
-735,269	-108,346	-0,354	0,056
-734,254	-200,000	0,018	0,112
-733,239	-24,570	-0,451	-0,197
-732,225	-8,560	0,222	-0,109
-731,210	-117,169	-0,133	0,018
-730,196	-200,000	0,004	-0,066
-729,181	-17,165	-0,078	-0,036
-728,167	-200,000	0,014	-0,052
-727,152	58,011	-0,079	0,057
-726,137	-200,000	-0,001	-0,044
-725,123	-200,000	0,014	-0,121
-724,108	8,726	-0,067	-0,037
-723,094	800,000	-0,033	-0,087
-722,079	252,641	-0,053	-0,067
-721,064	86,200	0,087	-0,071
-720,050	102,381	0,063	0,055
-719,035	-200,000	-0,016	-0,128
-718,021	297,557	-0,054	0,073
-717,006	-73,329	0,103	0,028
-715,991	116,344	-0,069	-0,062
-714,977	-187,592	-0,144	-0,001
-713,962	-68,849	0,039	-0,011
-712,948	-14,255	0,022	0,011
-711,933	-200,000	-0,002	0,062
-710,918	-200,000	0,005	0,019
-709,904	34,950	-0,088	-0,056
-708,889	92,994	-0,195	-0,162
-707,875	-200,000	-0,015	-0,096
-706,860	-130,411	-0,149	-0,015
-705,845	129,096	0,068	-0,064
-704,831	345,882	-0,098	0,142
-703,816	-85,357	0,069	0,016
-702,802	-92,920	-0,192	-0,039
-701,787	-200,000	-0,012	0,068
-700,772	202,832	-0,055	0,062
-699,758	207,709	-0,041	-0,047
-698,743	800,000	-0,050	0,116
-697,729	42,106	-0,113	0,076
-696,714	-200,000	0,011	0,071
-695,699	-11,676	0,030	-0,015
-694,685	-200,000	-0,026	-0,207
-693,670	800,000	-0,027	0,069
-692,656	-200,000	0,002	0,074
-691,641	175,169	0,070	0,074
-690,627	153,446	-0,073	0,074
-689,612	-78,750	0,190	-0,047
-688,597	-3,602	-0,110	0,056
-687,583	800,000	-0,040	0,099
-686,568	-57,129	-0,064	0,021
-685,554	260,765	0,025	-0,032
-684,539	-200,000	-0,000	0,005
-683,524	693,087	0,079	-0,153
-682,510	-200,000	0,002	-0,070
-681,495	28,795	-0,022	-0,014
-680,481	-144,580	-0,126	0,008
-679,466	589,223	-0,059	-0,107
-678,451	348,988	-0,033	0,048
-677,437	-9,814	0,076	-0,037
-676,422	800,000	0,048	0,104
-675,408	-200,000	0,010	0,066
-674,393	-90,965	0,031	0,006
-673,378	553,634	0,042	-0,074
-672,364	-156,487	-0,106	0,005
-671,349	-200,000	-0,007	-0,091
-670,335	-36,131	-0,126	-0,050
-669,320	-157,719	0,107	0,005
-668,305	361,942	-0,042	-0,062
-667,291	-200,000	0,046	-0,184
-666,276	105,779	-0,081	0,070
-665,262	-36,610	-0,084	0,033
-664,247	-91,439	-0,077	0,016
-663,232	-139,734	0,086	0,007
-662,218	-24,047	0,096	0,042
-661,203	190,411	0,051	0,057
-660,189	-157,209	-0,147	-0,006
-659,174	362,889	-0,092	0,136
-658,159	178,119	-0,051	-0,055
-657,145	-53,437	-0,099	-0,033
-656,130	-200,000	0,009	0,118
-655,116	-170,796	0,155	-0,004
-654,101	-200,000	-0,013	-0,089
-653,086	617,082	-0,027	-0,049
-652,072	-200,000	0,003	-0,094
-651,057	99,424	-0,193	-0,164
-650,043	-200,000	-0,019	-0,139
-649,028	-200,000	0,004	0,020
-648,014	-200,000	0,029	-0,100
-646,999	-200,000	0,005	0,058
-645,984	34,611	-0,031	-0,020
-644,970	-200,000	-0,017	-0,139
-643,955	-18,062	0,039	-0,018
-642,941	-47,179	-0,086	0,031
-641,926	-95,068	0,034	0,007
-640,911	-50,061	-0,011	0,004
-639,897	-82,553	-0,043	0,010
-638,882	-138,023	0,093	0,008
-637,868	-8,541	-0,096	0,047
-636,853	4,186	0,048	-0,026
-635,838	-200,000	-0,005	-0,097
-634,824	154,053	0,016	0,016
-633,809	-54,787	0,121	0,040
-632,795	-102,312	-0,078	-0,014
-631,780	800,000	-0,056	0,121
-630,765	800,000	-0,057	0,146
-629,751	-10,630	-0,069	-0,033
-628,736	800,000	0,015	0,031
-627,722	-101,388	0,067	-0,012
-626,707	-200,000	-0,006	0,157
-625,692	800,000	0,024	0,067
-624,678	-200,000	-0,013	-0,057
-623,663	-200,000	-0,036	0,122
-622,649	221,228	0,019	-0,022
-621,634	-89,007	-0,149	-0,032
-620,619	-22,123	0,111	0,049
-619,605	109,943	-0,014	0,012
-618,590	184,026	-0,073	-0,080
-617,576	-12,863	0,061	-0,029
-616,561	-200,000	0,005	-0,041
-615,546	97,534	-0,085	-0,072
-614,532	103,897	-0,060	-0,052
-613,517	36,267	-0,070	0,045
-612,503	800,000	0,049	-0,156
-611,488	-45,544	0,092	-0,033
-610,474	15,919	0,092	0,053
-609,459	117,331	-0,090	-0,081
-608,444	-87,075	0,073	0,016
-607,430	107,367	-0,071	0,061
-606,415	59,723	-0,060	-0,043
-605,401	154,965	-0,096	-0,097
-604,386	256,781	0,043	0,054
-603,371	362,900	0,031	-0,046
-602,357	800,000	0,033	-0,082
-601,342	-200,000	-0,006	-0,121
-600,328	-7,891	0,140	-0,069
-599,313	-72,504	-0,209	-0,056
-598,298	-200,000	0,017	-0,096
-597,284	-135,551	-0,029	-0,002
-596,269	-200,000	0,016	0,109
-595,255	366,767	0,096	0,143
-594,240	36,169	-0,118	-0,076
-593,225	42,319	-0,022	0,015
-592,211	-200,000	-0,008	-0,102
-591,196	-148,808	0,073	-0,004
-590,182	-27,158	-0,054	0,023
-589,167	-15,451	0,094	-0,044
-588,152	86,300	-0,118	-0,095
-587,138	376,981	-0,084	-0,126
-586,123	800,000	0,020	0,050
-585,109	800,000	0,025	-0,057
-584,094	58,909	0,088	-0,063
-583,079	674,119	-0,033	0,063
-582,065	-200,000	-0,014	0,100
-581,050	-64,525	0,048	0,014
-580,036	31,949	0,153	0,096
-579,021	-118,133	-0,151	-0,020
-578,006	-38,709	-0,103	-0,039
-576,992	800,000	0,030	-0,072
-575,977	-39,248	0,069	0,026
-574,963	253,918	0,103	-0,129
-573,948	-115,472	0,066	0,009
-572,934	59,750	-0,094	0,068
-571,919	-200,000	-0,003	-0,073
-570,904	774,848	-0,024	-0,047
-569,890	176,442	0,080	-0,085
-568,875	94,519	0,025	-0,021
-567,861	-20,151	0,024	0,011
-566,846	-104,852	-0,105	0,017
-565,831	-137,023	-0,088	0,007
-564,817	-200,000	0,009	-0,098
-563,802	-54,758	0,076	0,025
-562,788	349,105	-0,113	0,164
-561,773	-200,000	0,012	-0,056
-560,758	510,229	-0,017	-0,029
-559,744	-200,000	0,016	0,072
-558,729	-200,000	0,012	0,049
-557,715	29,275	0,039	0,024
-556,700	800,000	-0,038	0,117
-555,685	485,600	0,007	-0,011
-554,671	518,079	0,055	0,095
-553,656	-200,000	-0,003	0,057
-552,642	-200,000	0,034	0,239
-551,627	-31,187	-0,057	0,023
-550,612	145,356	0,017	-0,017
-549,598	800,000	0,019	-0,048
-548,583	-120,792	-0,025	0,003
-547,569	-200,000	-0,009	-0,030
-546,554	-200,000	-0,012	-0,077
-545,539	-3,886	-0,126	-0,064
-544,525	128,322	-0,045	0,042
-543,510	-198,870	-0,069	0,000
-542,496	207,093	-0,113	-0,129
-541,481	362,796	-0,047	-0,069
-540,466	-76,885	-0,063	-0,016
-539,452	800,000	-0,036	-0,080
-538,437	55,548	0,095	0,067
-537,423	-63,593	-0,160	0,048
-536,408	125,518	-0,125	-0,115
-535,393	-55,068	-0,130	-0,042
-534,379	-68,162	-0,071	0,020
-533,364	9,352	-0,145	-0,080
-532,350	-200,000	-0,025	0,117
-531,335	800,000	0,023	-0,049
-530,321	338,896	-0,056	-0,081
-529,306	237,505	0,035	0,042
-528,291	-53,591	0,090	-0,030
-527,277	66,593	0,015	0,012
-526,262	-12,334	-0,021	0,010
-525,248	-200,000	-0,003	-0,021
-524,233	51,295	0,079	-0,055
-523,218	-200,000	0,000	0,059
-522,204	-47,185	-0,048	-0,017
-521,189	-200,000	-0,006	-0,057
-520,175	19,844	-0,127	0,074
-519,160	-51,695	-0,013	-0,004
-518,145	-95,967	0,052	0,010
-517,131	130,197	0,044	-0,041
-516,116	494,317	0,068	0,114
-515,102	800,000	-0,058	-0,156
-514,087	800,000	0,061	-0,134
-513,072	70,286	-0,059	0,044
-512,058	49,889	-0,027	-0,019
-511,043	-105,983	-0,053	0,009
-510,029	-167,059	0,212	0,006
-509,014	37,092	-0,137	-0,088
-507,999	-4,572	0,152	-0,077
-506,985	-200,000	-0,019	0,062
-505,970	25,880	0,102	0,062
-504,956	800,000	0,026	-0,072
-503,941	543,055	0,099	-0,174
-502,926	281,589	0,081	0,106
-501,912	472,175	-0,022	0,037
-500,897	-74,372	0,078	-0,020
-499,883	82,809	-0,113	-0,089
-498,868	-86,806	0,091	0,020
-497,853	800,000	-0,035	-0,091
-496,839	-200,000	-0,016	-0,065
-495,824	-117,234	0,021	-0,003
-494,810	-83,416	0,052	-0,012
-493,795	53,386	0,106	0,074
-492,781	0,026	0,105	0,054
-491,766	74,969	0,055	-0,042
-490,751	196,566	0,044	0,049
-489,737	550,048	0,069	-0,121
-488,722	453,835	-0,046	0,075
-487,708	382,594	0,052	0,078
-486,693	-200,000	-0,016	0,062
-485,678	62,561	0,074	0,054
-484,664	800,000	0,038	0,106
-483,649	-200,000	-0,007	-0,094
-482,635	453,510	0,027	0,044
-481,620	560,607	-0,065	-0,116
-480,605	-200,000	0,010	0,087
-479,591	295,892	-0,061	0,082
-478,576	213,159	-0,094	-0,108
-477,562	-11,328	-0,061	0,029
-476,547	389,606	0,028	-0,043
-475,532	52,261	-0,130	0,091
-474,518	595,645	0,045	0,081
-473,503	-166,014	0,070	-0,002
-472,489	-12,044	0,080	0,038
-471,474	192,044	-0,049	-0,054
-470,459	547,303	-0,002	0,004
-469,445	113,853	-0,085	-0,075
-468,430	146,612	-0,022	-0,022
-467,416	62,598	0,091	0,066
-466,401	113,939	-0,034	0,030
-465,386	48,473	0,031	-0,021
-464,372	-200,000	0,016	0,072
-463,357	-67,255	0,057	0,016
-462,343	360,404	-0,055	-0,080
-461,328	60,863	0,010	0,007
-460,313	305,740	-0,022	-0,029
-459,299	159,163	0,028	-0,029
-458,284	-42,191	0,081	0,030
-457,270	-200,000	-0,010	0,044
-456,255	-12,047	-0,090	0,043
-455,241	-200,000	-0,016	0,055
-454,226	-200,000	-0,019	0,085
-453,211	-200,000	-0,048	-0,186
-452,197	-200,000	0,003	-0,133
-451,182	-28,626	0,135	0,056
-450,168	224,312	0,022	-0,026
-449,153	800,000	-0,080	0,213
-448,138	-200,000	-0,029	0,095
-447,124	-200,000	0,010	0,107
-446,109	46,335	0,126	0,085
-445,095	446,194	-0,038	-0,061
-444,080	135,942	-0,060	0,057
-443,065	-106,867	-0,141	-0,023
-442,051	251,011	-0,076	-0,095
-441,036	800,000	0,036	-0,102
-440,022	800,000	-0,091	-0,202
-439,007	65,219	-0,101	-0,074
-437,992	-200,000	0,003	-0,018
-436,978	800,000	-0,024	0,074
-435,963	800,000	0,041	-0,113
-434,949	-20,956	-0,117	0,052
-433,934	-0,397	-0,046	-0,024
-432,919	-11,561	0,097	-0,046
-431,905	800,000	-0,030	-0,068
-430,890	19,421	0,110	-0,064
-429,876	104,325	0,065	0,056
-428,861	-200,000	-0,032	0,127
-427,846	-47,582	-0,109	-0,038
-426,832	-200,000	0,021	0,093
-425,817	-200,000	0,012	-0,092
-424,803	-200,000	0,000	-0,169
-423,788	-200,000	-0,034	0,118
-422,773	246,153	0,033	-0,041
-421,759	226,218	0,033	0,038
-420,744	217,281	-0,086	-0,100
-419,730	526,732	-0,081	-0,139
-418,715	-200,000	-0,000	-0,140
-417,701	800,000	0,034	-0,081
-416,686	-200,000	0,016	0,104
-415,671	631,142	-0,016	-0,030
-414,657	-170,577	0,029	-0,001
-413,642	800,000	0,045	-0,136
-412,628	267,641	0,008	0,010
-411,613	800,000	0,032	-0,090
-410,598	800,000	0,012	0,032
-409,584	-200,000	0,016	0,152
-408,569	-114,176	0,196	0,027
-407,555	-200,000	-0,005	0,043
-406,540	660,902	0,060	-0,112
-405,525	-11,279	-0,147	0,070
-404,511	42,268	0,103	-0,068
-403,496	-90,343	0,070	0,015
-402,482	-200,000	0,015	0,059
-401,467	-200,000	-0,032	0,118
-400,452	-62,903	0,066	0,020
-399,438	78,585	-0,058	0,045
-398,423	-54,117	-0,024	0,008
-397,409	800,000	-0,017	0,038
-396,394	192,219	-0,045	0,050
-395,379	-157,191	0,029	0,001
-394,365	-91,223	0,202	0,042
-393,350	5,444	0,056	-0,030
-392,336	800,000	0,076	0,165
-391,321	593,902	-0,052	-0,093
-390,306	64,232	-0,140	0,102
-389,292	-200,000	-0,021	0,073
-388,277	-200,000	0,007	-0,119
-387,263	-14,132	-0,112	0,053
-386,248	311,390	-0,081	0,111
-385,233	144,402	0,026	0,025
-384,219	76,234	-0,070	-0,054
-383,204	441,464	-0,090	-0,144
-382,190	118,670	-0,048	-0,043
-381,175	-200,000	-0,002	0,127
-380,160	351,139	-0,041	0,059
-379,146	-144,200	-0,036	-0,002
-378,131	-200,000	-0,007	0,027
-377,117	-34,421	-0,010	-0,004
-376,102	-97,764	0,090	-0,017
-375,088	-200,000	0,001	0,090
-374,073	29,443	0,083	0,051
-373,058	518,203	0,033	-0,057
-372,044	-97,507	0,009	-0,002
-371,029	63,647	0,071	-0,052
-370,015	-107,925	0,098	0,015
-369,000	215,399	0,079	0,091
-367,985	368,994	0,046	0,068
-366,971	260,762	-0,049	0,062
-365,956	276,962	0,092	0,118
-364,942	522,290	0,038	-0,066
-363,927	800,000	0,045	-0,117
-362,912	-200,000	0,025	-0,124
-361,898	61,300	-0,161	-0,116
-360,883	87,336	-0,106	-0,085
-359,869	800,000	0,024	-0,077
-358,854	261,432	0,021	-0,026
-357,839	682,064	-0,071	0,134
-356,825	188,618	0,073	-0,079
-355,810	599,476	-0,054	0,097
-354,796	-200,000	0,035	0,184
-353,781	-200,000	0,002	-0,076
-352,766	117,625	-0,016	-0,015
-351,752	-200,000	-0,029	0,100
-350,737	-48,192	0,017	0,006
-349,723	-200,000	0,008	0,037
-348,708	-2,281	0,106	-0,054
-347,693	-119,064	0,087	0,011
-346,679	461,406	-0,014	0,022
-345,664	691,967	0,070	-0,134
-344,650	-143,794	-0,129	0,009
-343,635	2,880	0,091	-0,048
-342,620	261,724	-0,047	0,060
-341,606	88,868	0,078	0,063
-340,591	-83,068	-0,039	-0,009
-339,577	422,345	0,035	-0,055
-338,562	40,282	0,034	0,022
-337,548	32,984	-0,046	-0,029
-336,533	165,915	-0,094	-0,097
-335,518	292,081	0,055	-0,072
-334,504	-200,000	-0,020	0,176
-333,489	292,430	-0,056	0,075
-332,475	-200,000	-0,001	-0,047
-331,460	-166,580	0,105	-0,003
-330,445	798,832	0,050	-0,100
-329,431	800,000	0,017	-0,036
-328,416	-200,000	-0,016	0,085
-327,402	2,201	-0,025	-0,013
-326,387	-41,781	-0,068	-0,025
-325,372	63,207	0,079	-0,058
-324,358	-4,536	-0,036	-0,018
-323,343	-200,000	0,020	-0,088
-322,329	800,000	-0,045	0,130
-321,314	-24,987	0,082	0,035
-320,299	-161,222	-0,139	0,005
-319,285	-158,417	0,124	0,005
-318,270	547,021	-0,034	-0,059
-317,256	270,609	0,049	-0,063
-316,241	463,420	0,024	-0,039
-315,226	800,000	0,036	-0,078
-314,212	-169,006	0,112	0,003
-313,197	761,803	0,038	0,075
-312,183	-3,508	0,034	0,017
-311,168	-59,062	-0,037	0,011
-310,153	-39,448	0,072	0,027
-309,139	-200,000	-0,001	0,036
-308,124	-46,993	-0,037	-0,013
-307,110	800,000	-0,019	0,053
-306,095	-200,000	0,009	0,082
-305,080	-200,000	-0,022	0,117
-304,066	25,053	0,080	-0,048
-303,051	94,917	0,054	0,045
-302,037	-55,215	0,109	-0,035
-301,022	370,971	-0,059	-0,086
-300,008	797,868	0,025	-0,051
-298,993	-95,930	-0,125	-0,024
-297,978	-200,000	-0,009	-0,067
-296,964	300,152	-0,059	-0,079
-295,949	800,000	-0,012	0,024
-294,935	-200,000	-0,029	-0,174
-293,920	238,518	-0,033	-0,040
-292,905	800,000	0,034	0,092
-291,891	-200,000	0,013	0,044
-290,876	800,000	-0,023	-0,072
-289,862	28,934	-0,116	0,071
-288,847	89,241	-0,077	0,062
-287,832	203,789	-0,088	0,099
-286,818	134,743	-0,083	0,078
-285,803	-132,117	0,084	0,008
-284,789	800,000	0,083	0,166
-283,774	-200,000	0,005	0,139
-282,759	-200,000	-0,008	0,065
-281,745	800,000	0,044	-0,088
-280,730	800,000	-0,022	-0,055
-279,716	76,158	0,062	-0,048
-278,701	543,621	0,032	0,055
-277,686	-128,807	0,083	0,008
-276,672	-200,000	0,034	-0,115
-275,657	294,637	0,012	0,016
-274,643	271,523	0,091	0,116
-273,628	800,000	-0,042	0,110
-272,613	9,640	-0,063	-0,034
-271,599	16,505	0,064	-0,036
-270,584	202,617	0,037	-0,041
-269,570	800,000	-0,044	0,108
-268,555	-200,000	-0,002	0,086
-267,540	-48,911	-0,088	0,030
-266,526	-200,000	0,052	0,168
-265,511	800,000	-0,057	-0,127
-264,497	-87,176	-0,112	-0,024
-263,482	-200,000	0,004	-0,025
-262,467	93,223	0,076	0,062
-261,453	0,035	0,042	0,021
-260,438	144,162	-0,132	-0,128
-259,424	-200,000	-0,002	0,047
-258,409	261,475	-0,014	-0,017
-257,395	800,000	0,027	-0,066
-256,380	-113,173	-0,081	-0,011
-255,365	44,268	0,055	-0,036
-254,351	800,000	0,074	-0,192
-253,336	35,831	-0,057	-0,036
-252,322	-121,201	-0,141	0,017
-251,307	-8,816	0,116	-0,056
-250,292	-5,171	0,053	0,026
-249,278	128,835	-0,049	-0,045
-248,263	471,305	-0,025	0,042
-247,249	-155,112	0,078	-0,004
-246,234	184,232	0,043	0,046
-245,219	800,000	0,031	0,087
-244,205	65,246	-0,036	0,026
-243,190	-200,000	-0,013	0,093
-242,176	-72,775	-0,070	-0,018
-241,161	-200,000	0,012	0,054
-240,146	-200,000	-0,014	0,047
-239,132	247,142	-0,035	-0,043
-238,117	-200,000	-0,015	-0,067
-237,103	800,000	-0,011	0,029
-236,088	-115,421	-0,087	-0,012
-235,073	284,744	0,080	0,104
-234,059	88,390	-0,026	0,021
-233,044	6,450	0,062	0,033
-232,030	41,338	-0,030	0,020
-231,015	-200,000	0,007	-0,069
-230,000	152,448	-0,064	0,064
-228,986	-50,246	-0,045	0,015
-227,971	-200,000	-0,005	0,123
-226,957	228,266	-0,037	-0,043
-225,942	194,372	-0,051	-0,056
-224,927	-200,000	-0,013	-0,062
-223,913	-200,000	-0,014	0,078
-222,898	-86,690	0,094	-0,021
-221,884	39,133	-0,041	0,027
-220,869	-200,000	0,016	0,079
-219,855	273,430	-0,057	-0,073
-218,840	-86,529	0,069	-0,015
-217,825	-57,978	0,070	-0,022
-216,811	-200,000	0,013	-0,092
-215,796	37,233	-0,100	-0,064
-214,782	499,444	0,058	0,097
-213,767	58,731	0,082	-0,058
-212,752	-200,000	0,018	0,067
-211,738	-200,000	-0,008	0,106
-210,723	-31,529	-0,025	-0,010
-209,709	24,082	0,051	0,030
-208,694	-82,307	-0,041	0,009
-207,679	-135,824	-0,029	-0,002
-206,665	22,149	0,127	-0,074
-205,650	178,764	0,117	0,123
-204,636	110,202	0,065	-0,057
-203,621	-15,899	0,019	-0,008
-202,606	-6,422	-0,170	-0,083
-201,592	-200,000	0,004	-0,240
-200,577	-200,000	-0,008	-0,117
-199,563	-132,555	0,139	-0,013
-198,548	-39,464	0,116	0,044
-197,533	63,054	0,101	0,073
-196,519	-200,000	-0,002	0,091
-195,504	184,848	-0,076	0,082
-194,490	58,743	0,092	-0,065
-193,475	138,448	-0,025	-0,024
-192,460	-200,000	-0,005	0,107
-191,446	-200,000	-0,050	-0,162
-190,431	98,754	0,165	0,137
-189,417	800,000	-0,043	0,115
-188,402	27,405	0,022	-0,014
-187,387	-26,395	-0,154	-0,065
-186,373	-181,883	0,044	0,001
-185,358	220,289	-0,014	-0,016
-184,344	273,985	0,029	0,037
-183,329	175,093	0,125	0,130
-182,315	222,002	-0,075	0,087
-181,300	61,025	-0,099	0,071
-180,285	-200,000	-0,001	0,006
-179,271	149,357	-0,006	-0,006
-178,256	-71,172	0,045	-0,012
-177,242	-200,000	0,012	-0,119
-176,227	800,000	-0,017	-0,044
-175,212	185,062	0,056	0,059
-174,198	304,168	-0,143	-0,191
-173,183	206,476	-0,100	-0,112
-172,169	-50,614	-0,090	0,031
-171,154	-200,000	0,007	0,104
-170,139	800,000	0,086	0,221
-169,125	379,667	0,032	0,048
-168,110	245,203	-0,091	0,110
-167,096	-77,141	0,076	-0,019
-166,081	-119,844	-0,065	0,008
-165,066	309,934	0,032	-0,043
-164,052	179,497	0,046	-0,049
-163,037	-93,341	0,153	0,030
-162,023	66,441	-0,081	0,059
-161,008	143,565	-0,044	-0,042
-159,993	363,467	-0,037	0,053
-158,979	-25,778	-0,067	0,028
-157,964	-200,000	-0,012	0,069
-156,950	437,083	0,074	0,117
-155,935	467,441	0,029	-0,047
-154,920	40,039	0,045	0,029
-153,906	22,117	0,125	-0,073
-152,891	-8,517	-0,075	-0,036
-151,877	-200,000	0,014	0,059
-150,862	-51,981	-0,060	-0,020
-149,847	168,542	-0,028	0,029
-148,833	6,190	0,018	0,009
-147,818	-34,042	0,097	0,038
-146,804	201,632	0,071	0,079
-145,789	-200,000	0,026	0,110
-144,775	-200,000	0,000	-0,075
-143,760	800,000	0,023	-0,065
-142,745	127,016	-0,103	-0,094
-141,731	32,224	-0,065	-0,040
-140,716	-200,000	-0,024	-0,148
-139,702	157,647	-0,046	0,046
-138,687	287,054	0,051	-0,066
-137,672	-63,285	-0,118	-0,035
-136,658	-105,472	0,093	-0,015
-135,643	497,682	-0,099	-0,164
-134,629	89,523	-0,069	0,056
-133,614	448,610	-0,032	-0,050
-132,599	130,238	-0,105	-0,097
-131,585	27,327	0,066	0,040
-130,570	32,304	-0,089	0,055
-129,556	133,430	-0,058	-0,054
-128,541	-17,704	-0,090	0,041
-127,526	184,873	0,038	-0,041
-126,512	-106,574	-0,041	0,007
-125,497	800,000	-0,010	-0,021
-124,483	754,682	-0,085	0,165
-123,468	268,399	0,051	-0,065
-122,453	-89,928	-0,095	0,020
-121,439	800,000	-0,028	-0,060
-120,424	173,816	-0,081	-0,084
-119,410	-200,000	0,062	0,284
-118,395	-28,219	0,059	-0,024
