DTS Sentinel unit serial number:	SN410029Multiplexer serial number:	ORYXHardware model number:	OX2-SRSoftware version number:	ORYX F/W v4,00 Oryx Data Collector v3.7.2.0data status	okinstallation	B6 Nyhavnadifferential loss correction	single-endedforward channel	channel 2reverse channel	N/Adate	2023/12/08time	08:05:08forward acquisition time	300,00reverse acquisition time	0,00gamma	499,1914k internal	0,3190k external	0,3190temperature offset calibration	1,0000default loss term (dB/km)	0,3820temperature slope calibration	1,0000multiplexer offset coefficient	1,0000multiplexer slope coefficient	1,0000fibre end	0,00T internal ref (°C)	10,97T ext. ref 1 (°C)	-2,61T ext. ref 2 (°C)	-2,61length (m)	temperature (°C)	Stokes	anti-Stokes-744,400	-200,000	0,027	0,120
-743,385	104,494	-0,312	-0,268
-742,371	-4,828	0,228	0,115
-741,356	-132,139	-0,211	-0,020
-740,342	-5,339	0,044	0,022
-739,327	36,443	-0,367	-0,236
-738,312	378,258	0,112	0,168
-737,298	-49,706	-0,452	-0,156
-736,283	147,005	0,094	0,093
-735,269	-90,415	-0,381	-0,080
-734,254	-100,203	0,154	0,028
-733,239	-86,921	-0,500	-0,110
-732,225	800,000	0,094	0,206
-731,210	141,085	-0,122	0,118
-730,196	-200,000	0,027	-0,134
-729,181	-200,000	-0,032	-0,205
-728,167	-71,412	-0,053	-0,014
-727,152	800,000	0,021	-0,062
-726,137	729,577	-0,062	-0,121
-725,123	106,161	-0,024	-0,021
-724,108	-39,338	-0,119	-0,045
-723,094	279,207	-0,057	-0,074
-722,079	-150,563	-0,076	0,004
-721,064	311,590	0,021	-0,028
-720,050	-41,129	0,069	0,026
-719,035	-80,410	0,018	0,004
-718,021	-79,382	-0,165	-0,040
-717,006	-35,808	-0,042	-0,017
-715,991	435,167	0,027	-0,042
-714,977	-111,644	-0,122	-0,018
-713,962	571,029	-0,043	0,077
-712,948	-200,000	-0,012	0,048
-711,933	-113,545	-0,190	0,027
-710,918	-63,660	-0,044	-0,013
-709,904	-200,000	-0,029	-0,138
-708,889	707,377	0,073	0,140
-707,875	1,649	-0,200	-0,104
-706,860	-72,878	0,096	-0,026
-705,845	-200,000	0,015	-0,128
-704,831	-176,813	0,025	0,000
-703,816	800,000	0,035	0,094
-702,802	147,893	-0,056	-0,055
-701,787	800,000	0,030	-0,088
-700,772	57,831	-0,060	0,043
-699,758	-200,000	-0,028	0,092
-698,743	-43,727	0,056	0,020
-697,729	-200,000	0,007	0,059
-696,714	800,000	0,040	-0,114
-695,699	69,090	0,122	-0,091
-694,685	76,440	-0,107	-0,082
-693,670	-103,412	0,027	0,005
-692,656	800,000	-0,040	0,083
-691,641	800,000	0,017	-0,038
-690,627	255,210	0,019	0,024
-689,612	-44,904	0,060	0,022
-688,597	629,988	0,054	-0,101
-687,583	292,063	-0,041	-0,054
-686,568	-113,251	-0,115	0,016
-685,554	-157,469	-0,064	0,003
-684,539	-128,914	0,155	-0,016
-683,524	-19,618	-0,087	-0,039
-682,510	800,000	0,039	0,104
-681,495	800,000	-0,027	0,080
-680,481	-43,677	-0,108	-0,039
-679,466	106,453	-0,074	-0,064
-678,451	667,802	-0,036	-0,068
-677,437	61,697	0,019	0,014
-676,422	-53,318	-0,074	0,025
-675,408	430,594	0,052	-0,083
-674,393	800,000	-0,035	-0,091
-673,378	-120,256	-0,220	-0,027
-672,364	800,000	0,026	-0,071
-671,349	122,154	0,051	-0,046
-670,335	800,000	0,034	-0,076
-669,320	-85,066	0,154	0,035
-668,305	-80,356	0,064	0,015
-667,291	478,916	-0,058	-0,095
-666,276	274,322	-0,088	-0,113
-665,262	315,059	0,069	-0,095
-664,247	519,073	-0,045	-0,076
-663,232	-23,298	0,042	-0,018
-662,218	232,696	0,041	-0,050
-661,203	-200,000	-0,008	0,052
-660,189	21,285	-0,092	0,054
-659,174	800,000	0,043	-0,107
-658,159	89,046	-0,069	-0,056
-657,145	800,000	0,052	-0,114
-656,130	228,292	0,040	0,048
-655,116	800,000	-0,031	-0,087
-654,101	-200,000	-0,004	0,047
-653,086	-47,505	0,151	-0,053
-652,072	352,323	0,043	-0,062
-651,057	56,582	-0,083	-0,058
-650,043	-200,000	0,001	0,021
-649,028	-135,460	0,124	0,011
-648,014	-200,000	0,016	0,071
-646,999	-200,000	-0,016	0,056
-645,984	-90,943	-0,138	-0,029
-644,970	-62,704	0,127	0,038
-643,955	231,562	-0,067	-0,080
-642,941	-200,000	-0,032	-0,118
-641,926	800,000	0,010	-0,024
-640,911	671,921	0,083	0,156
-639,897	800,000	-0,069	0,154
-638,882	56,968	-0,043	-0,030
-637,868	627,116	0,079	-0,145
-636,853	595,604	0,035	-0,064
-635,838	440,932	-0,053	-0,085
-634,824	175,700	-0,094	-0,099
-633,809	615,536	0,077	-0,141
-632,795	251,493	0,058	0,072
-631,780	-200,000	0,008	-0,056
-630,765	800,000	0,040	0,098
-629,751	108,803	-0,100	0,086
-628,736	800,000	-0,014	-0,029
-627,722	-79,408	-0,111	0,027
-626,707	98,713	-0,082	-0,069
-625,692	-200,000	0,007	-0,064
-624,678	310,930	-0,031	0,042
-623,663	-200,000	0,009	-0,064
-622,649	122,774	-0,123	0,112
-621,634	484,436	0,047	-0,078
-620,619	672,847	-0,034	0,065
-619,605	226,765	0,044	0,052
-618,590	800,000	-0,026	-0,073
-617,576	108,510	0,040	0,035
-616,561	-17,435	-0,055	0,025
-615,546	170,888	-0,068	-0,071
-614,532	-200,000	-0,031	-0,166
-613,517	54,108	0,062	-0,043
-612,503	-200,000	-0,016	0,251
-611,488	110,777	0,091	0,079
-610,474	-200,000	-0,011	0,134
-609,459	14,258	0,154	0,087
-608,444	8,380	-0,194	-0,105
-607,430	-62,618	-0,077	-0,023
-606,415	71,656	-0,153	-0,115
-605,401	800,000	0,039	-0,096
-604,386	121,953	0,095	0,086
-603,371	-105,785	0,089	0,014
-602,357	480,743	-0,053	0,088
-601,342	138,969	0,038	0,036
-600,328	124,474	-0,155	-0,142
-599,313	-200,000	0,009	-0,061
-598,298	-200,000	-0,002	-0,117
-597,284	800,000	0,042	-0,094
-596,269	181,042	0,087	0,093
-595,255	-0,456	-0,086	0,044
-594,240	800,000	-0,014	-0,044
-593,225	-83,719	-0,116	0,027
-592,211	45,489	-0,138	-0,092
-591,196	36,035	0,109	0,070
-590,182	800,000	-0,025	0,067
-589,167	58,107	-0,061	0,043
-588,152	432,376	0,060	0,094
-587,138	-128,824	-0,029	-0,003
-586,123	-6,181	-0,080	0,039
-585,109	800,000	0,006	0,014
-584,094	-200,000	-0,027	0,122
-583,079	-104,547	0,144	-0,024
-582,065	50,540	0,023	-0,015
-581,050	2,195	0,047	-0,025
-580,036	237,701	-0,051	0,062
-579,021	800,000	0,045	-0,104
-578,006	-34,755	-0,086	0,034
-576,992	161,601	0,133	0,135
-575,977	34,337	0,078	0,049
-574,963	81,911	-0,072	-0,057
-573,948	26,529	0,104	0,063
-572,934	763,554	-0,016	0,031
-571,919	564,035	-0,041	0,072
-570,904	-73,243	0,101	-0,027
-569,890	30,737	0,086	-0,053
-568,875	445,712	0,050	0,080
-567,861	133,615	-0,064	-0,060
-566,846	800,000	0,009	0,022
-565,831	-200,000	-0,003	0,080
-564,817	29,936	-0,141	0,087
-563,802	649,552	-0,099	-0,185
-562,788	545,169	-0,040	0,069
-561,773	-52,428	-0,088	-0,029
-560,758	48,834	0,208	0,141
-559,744	-200,000	0,018	0,093
-558,729	-160,041	-0,058	-0,002
-557,715	574,858	-0,071	-0,127
-556,700	-36,098	-0,108	-0,042
-555,685	-200,000	0,013	0,060
-554,671	215,432	-0,063	0,073
-553,656	-66,477	0,134	0,038
-552,642	-18,798	0,047	0,021
-551,627	-200,000	0,001	0,064
-550,612	110,929	-0,073	-0,064
-549,598	273,606	0,043	-0,056
-548,583	-200,000	-0,033	-0,167
-547,569	31,758	0,189	-0,117
-546,554	800,000	0,039	0,114
-545,539	100,442	0,118	0,099
-544,525	-34,356	-0,067	0,026
-543,510	-56,106	0,039	0,012
-542,496	-75,971	-0,063	-0,016
-541,481	38,865	-0,011	-0,007
-540,466	11,490	-0,084	0,046
-539,452	212,295	0,105	0,120
-538,437	16,488	-0,123	0,070
-537,423	183,596	-0,064	0,068
-536,408	453,519	-0,019	-0,030
-535,393	-12,966	-0,153	-0,072
-534,379	61,851	-0,055	-0,039
-533,364	-16,813	-0,042	-0,019
-532,350	76,774	-0,110	-0,084
-531,335	-56,113	0,047	-0,015
-530,321	-200,000	-0,020	0,094
-529,306	567,292	-0,027	-0,048
-528,291	148,905	-0,097	-0,095
-527,277	-200,000	0,016	-0,150
-526,262	-55,845	-0,090	0,029
-525,248	164,406	0,073	-0,074
-524,233	-105,940	-0,105	0,017
-523,218	-97,922	0,059	-0,011
-522,204	-200,000	-0,005	-0,041
-521,189	-123,042	0,041	-0,005
-520,175	800,000	-0,040	-0,082
-519,160	800,000	-0,018	0,053
-518,145	-161,677	-0,027	0,001
-517,131	-200,000	0,023	0,096
-516,116	-77,797	-0,057	-0,014
-515,102	-200,000	0,033	0,123
-514,087	-200,000	-0,028	0,090
-513,072	-128,400	-0,037	-0,004
-512,058	800,000	-0,030	0,087
-511,043	61,265	-0,094	0,068
-510,029	191,510	-0,069	0,075
-509,014	92,137	0,024	0,020
-507,999	278,862	0,101	-0,131
-506,985	800,000	-0,058	-0,172
-505,970	0,062	-0,088	-0,045
-504,956	-55,053	0,044	0,014
-503,941	64,133	0,093	-0,067
-502,926	-76,286	-0,074	0,019
-501,912	-123,491	0,163	0,018
-500,897	324,054	-0,067	-0,093
-499,883	-200,000	-0,001	-0,133
-498,868	800,000	0,029	-0,074
-497,853	-200,000	0,000	-0,035
-496,839	-23,081	-0,108	0,047
-495,824	-5,432	-0,024	0,012
-494,810	-5,735	-0,004	0,002
-493,795	-49,537	0,062	-0,021
-492,781	-131,995	-0,042	-0,004
-491,766	204,482	-0,035	0,039
-490,751	234,303	-0,068	0,081
-489,737	388,344	0,079	-0,119
-488,722	-121,294	0,051	0,006
-487,708	800,000	0,042	0,124
-486,693	-22,252	0,019	0,008
-485,678	-200,000	0,019	-0,112
-484,664	-88,012	0,037	0,008
-483,649	765,039	0,056	0,110
-482,635	197,780	0,063	-0,069
-481,620	-200,000	-0,008	0,105
-480,605	-133,379	0,050	-0,004
-479,591	443,883	-0,062	0,098
-478,576	462,382	-0,031	-0,050
-477,562	800,000	-0,013	-0,031
-476,547	-111,944	0,077	0,011
-475,532	-76,831	-0,029	0,007
-474,518	65,751	0,047	0,034
-473,503	88,771	0,026	-0,021
-472,489	-200,000	-0,006	-0,046
-471,474	-99,606	0,146	0,026
-470,459	86,469	-0,066	-0,052
-469,445	0,945	0,032	-0,017
-468,430	113,044	0,042	-0,036
-467,416	800,000	0,043	-0,114
-466,401	19,616	0,026	-0,015
-465,386	-200,000	0,004	0,044
-464,372	-10,881	0,068	-0,032
-463,357	-200,000	0,007	-0,038
-462,343	-97,100	0,098	-0,018
-461,328	285,731	-0,073	0,095
-460,313	-195,392	0,094	0,000
-459,299	-200,000	0,036	0,163
-458,284	800,000	-0,093	-0,204
-457,270	-95,543	-0,045	-0,009
-456,255	14,185	-0,026	0,015
-455,241	-200,000	0,001	-0,046
-454,226	300,970	0,064	-0,086
-453,211	-200,000	0,008	-0,057
-452,197	171,260	-0,072	-0,075
-451,182	48,372	-0,077	-0,052
-450,168	441,389	-0,045	0,071
-449,153	290,641	-0,003	0,003
-448,138	107,744	0,058	-0,050
-447,124	800,000	-0,017	-0,035
-446,109	800,000	-0,035	-0,076
-445,095	-200,000	-0,026	-0,098
-444,080	-200,000	-0,013	-0,058
-443,065	-102,282	-0,155	-0,027
-442,051	-51,107	0,164	0,055
-441,036	133,207	-0,152	-0,142
-440,022	-200,000	0,015	-0,088
-439,007	800,000	0,020	-0,046
-437,992	-123,414	0,063	-0,007
-436,978	-60,572	0,086	-0,026
-435,963	800,000	-0,009	0,022
-434,949	-117,917	-0,140	-0,018
-433,934	5,346	0,051	0,027
-432,919	-200,000	0,016	0,153
-431,905	13,929	-0,047	-0,026
-430,890	-45,740	-0,034	-0,012
-429,876	19,326	0,052	-0,030
-428,861	702,026	0,041	0,079
-427,846	675,872	-0,042	0,079
-426,832	-200,000	-0,016	-0,084
-425,817	-200,000	-0,020	-0,116
-424,803	800,000	-0,032	-0,074
-423,788	-51,431	0,050	0,017
-422,773	64,816	-0,104	0,075
-421,759	87,730	0,084	-0,067
-420,744	181,528	-0,104	-0,111
-419,730	-200,000	0,017	-0,112
-418,715	68,910	0,107	0,079
-417,701	-65,905	0,035	0,010
-416,686	475,346	-0,026	-0,043
-415,671	-200,000	0,017	0,101
-414,657	-48,598	0,024	-0,008
-413,642	800,000	0,039	0,110
-412,628	93,484	0,131	0,107
-411,613	-79,566	-0,048	0,012
-410,598	-144,914	0,123	-0,008
-409,584	36,742	-0,029	0,018
-408,569	-172,794	-0,020	0,000
-407,555	-87,744	0,074	-0,016
-406,540	-97,131	0,075	0,014
-405,525	118,317	-0,087	0,077
-404,511	800,000	0,078	0,184
-403,496	800,000	0,011	-0,025
-402,482	240,686	-0,023	0,027
-401,467	-49,970	0,081	-0,027
-400,452	800,000	0,015	-0,044
-399,438	-200,000	-0,029	-0,125
-398,423	-200,000	-0,013	-0,086
-397,409	138,442	-0,124	-0,117
-396,394	-52,677	0,008	-0,003
-395,379	3,714	-0,067	0,035
-394,365	-200,000	0,049	0,171
-393,350	-200,000	0,013	-0,067
-392,336	21,815	-0,058	0,034
-391,321	733,909	0,024	-0,047
-390,306	800,000	0,026	-0,072
-389,292	800,000	-0,051	-0,116
-388,277	-55,097	-0,023	0,007
-387,263	-53,122	0,139	-0,046
-386,248	-200,000	0,009	0,234
-385,233	-90,884	0,121	0,025
-384,219	-129,708	0,096	0,009
-383,204	533,726	0,072	-0,123
-382,190	800,000	0,021	-0,053
-381,175	139,130	-0,010	-0,010
-380,160	538,750	0,092	-0,158
-379,146	107,120	0,104	-0,089
-378,131	306,957	0,034	-0,045
-377,117	607,498	0,054	0,097
-376,102	110,531	0,108	-0,093
-375,088	-102,206	-0,038	0,007
-374,073	232,023	-0,048	-0,057
-373,058	-186,723	-0,202	-0,002
-372,044	41,227	0,047	0,031
-371,029	-200,000	-0,040	0,149
-370,015	100,770	-0,142	0,118
-369,000	-26,445	0,130	-0,054
-367,985	677,989	-0,042	-0,079
-366,971	-107,310	0,013	0,002
-365,956	-200,000	-0,027	0,106
-364,942	314,142	0,111	0,151
-363,927	143,496	0,083	0,079
-362,912	-97,593	-0,150	0,028
-361,898	800,000	0,009	-0,026
-360,883	-200,000	-0,024	-0,091
-359,869	-200,000	-0,006	0,043
-358,854	87,766	-0,077	0,061
-357,839	-200,000	-0,029	0,107
-356,825	-71,481	0,169	-0,045
-355,810	-42,140	-0,078	-0,028
-354,796	165,506	0,077	0,078
-353,781	-93,634	-0,100	-0,020
-352,766	623,052	-0,041	-0,074
-351,752	-139,909	0,019	0,001
-350,737	450,201	0,076	0,121
-349,723	681,796	-0,051	0,096
-348,708	-72,280	-0,184	-0,049
-347,693	-61,050	0,084	0,025
-346,679	-90,361	-0,193	-0,040
-345,664	410,488	0,103	-0,157
-344,650	4,874	-0,039	-0,021
-343,635	-113,238	0,048	0,007
-342,620	384,144	-0,165	-0,245
-341,606	278,744	0,075	0,096
-340,591	119,650	0,077	-0,068
-339,577	236,901	-0,028	-0,034
-338,562	800,000	-0,033	0,105
-337,548	36,281	0,102	-0,065
-336,533	158,560	0,095	-0,095
-335,518	-200,000	0,001	0,073
-334,504	140,157	0,060	-0,057
-333,489	800,000	-0,006	0,013
-332,475	-60,754	0,115	-0,035
-331,460	58,943	-0,065	-0,046
-330,445	534,357	-0,053	-0,091
-329,431	6,782	0,113	0,060
-328,416	26,128	-0,009	0,005
-327,402	-178,975	-0,076	0,001
-326,387	-200,000	0,000	0,070
-325,372	467,872	-0,069	-0,111
-324,358	-62,986	-0,078	0,023
-323,343	12,401	-0,083	0,046
-322,329	800,000	0,019	-0,057
-321,314	48,415	0,163	0,110
-320,299	-200,000	0,031	0,286
-319,285	620,195	-0,077	0,139
-318,270	-200,000	0,004	-0,067
-317,256	-39,448	0,112	-0,042
-316,241	352,060	-0,060	0,086
-315,226	-4,772	0,076	-0,037
-314,212	131,323	-0,021	0,019
-313,197	73,092	0,130	0,098
-312,183	309,830	0,073	0,098
-311,168	400,887	-0,047	0,071
-310,153	-69,380	-0,065	-0,018
-309,139	-200,000	-0,031	0,100
-308,124	-200,000	-0,002	0,036
-307,110	-200,000	0,034	0,127
-306,095	-107,842	0,078	0,012
-305,080	-68,979	-0,088	-0,024
-304,066	-126,748	0,030	-0,003
-303,051	-60,673	-0,087	-0,026
-302,037	-200,000	-0,022	-0,086
-301,022	-200,000	-0,010	-0,049
-300,008	-200,000	0,005	-0,029
-298,993	-200,000	-0,012	-0,063
-297,978	-37,138	0,032	-0,012
-296,964	-20,922	-0,078	-0,034
-295,949	-31,932	-0,055	-0,022
-294,935	-42,185	-0,047	0,017
-293,920	226,535	0,117	0,137
-292,905	-200,000	0,014	0,128
-291,891	-57,596	0,190	0,059
-290,876	-200,000	-0,011	0,066
-289,862	-70,200	-0,099	-0,027
-288,847	800,000	-0,028	0,060
-287,832	-83,856	0,040	-0,009
-286,818	367,930	-0,045	0,066
-285,803	800,000	0,028	-0,057
-284,789	800,000	-0,049	0,118
-283,774	67,276	0,031	-0,023
-282,759	-200,000	0,008	-0,129
-281,745	-200,000	0,029	0,114
-280,730	-141,187	-0,100	-0,007
-279,716	122,640	0,079	0,071
-278,701	-200,000	-0,018	-0,135
-277,686	-66,227	-0,012	-0,004
-276,672	-200,000	-0,005	0,066
-275,657	-200,000	0,042	-0,141
-274,643	190,472	-0,086	-0,093
-273,628	-200,000	-0,030	0,099
-272,613	800,000	-0,006	-0,017
-271,599	-200,000	0,010	-0,034
-270,584	800,000	0,010	-0,025
-269,570	746,540	0,045	0,086
-268,555	800,000	0,061	0,130
-267,540	-27,257	-0,053	-0,022
-266,526	-198,233	0,023	0,000
-265,511	236,718	0,009	0,011
-264,497	-200,000	0,001	0,007
-263,482	420,070	-0,069	0,106
-262,467	70,645	-0,087	0,064
-261,453	-51,072	0,109	-0,036
-260,438	234,926	-0,110	-0,130
-259,424	-200,000	-0,023	-0,121
-258,409	-200,000	0,012	-0,145
-257,395	-200,000	0,003	0,132
-256,380	39,515	0,069	0,044
-255,365	127,108	-0,067	0,061
-254,351	214,350	0,056	0,063
-253,336	452,839	-0,101	-0,160
-252,322	-200,000	-0,033	-0,110
-251,307	-200,000	-0,008	-0,057
-250,292	248,000	0,109	0,132
-249,278	800,000	-0,054	0,157
-248,263	-200,000	-0,005	0,113
-247,249	-52,190	0,139	0,046
-246,234	58,486	0,125	-0,087
-245,219	397,473	-0,137	-0,206
-244,205	49,087	-0,050	-0,033
-243,190	518,932	0,081	-0,136
-242,176	800,000	0,053	0,111
-241,161	-200,000	0,015	0,113
-240,146	800,000	-0,013	0,035
-239,132	10,394	0,116	0,063
-238,117	800,000	0,024	0,055
-237,103	800,000	-0,029	0,063
-236,088	29,182	-0,100	-0,061
-235,073	-131,228	0,127	-0,012
-234,059	32,288	-0,093	0,057
-233,044	25,647	-0,027	-0,016
-232,030	303,404	0,027	-0,036
-231,015	-200,000	0,028	-0,122
-230,000	-29,292	-0,106	-0,043
-228,986	87,428	-0,086	0,068
-227,971	443,911	0,076	-0,120
-226,957	-200,000	0,001	0,058
-225,942	387,599	0,070	0,103
-224,927	-200,000	0,024	0,081
-223,913	372,232	0,026	-0,038
-222,898	-155,078	-0,081	-0,004
-221,884	-200,000	0,127	0,000
-220,869	48,902	-0,116	0,077
-219,855	800,000	0,025	-0,052
-218,840	800,000	-0,014	0,039
-217,825	-111,585	-0,062	0,009
-216,811	-53,980	-0,115	-0,037
-215,796	-164,092	0,139	-0,005
-214,782	397,267	0,068	-0,102
-213,767	-200,000	-0,007	-0,056
-212,752	-82,569	0,175	0,040
-211,738	-28,501	0,040	-0,016
-210,723	-200,000	0,008	0,100
-209,709	44,895	-0,062	0,040
-208,694	800,000	0,032	-0,066
-207,679	-200,000	0,022	0,070
-206,665	-200,000	-0,012	0,050
-205,650	-10,407	0,061	-0,029
-204,636	-65,145	-0,147	0,042
-203,621	-93,321	0,068	-0,013
-202,606	800,000	0,006	-0,013
-201,592	-103,050	0,064	0,011
-200,577	800,000	-0,015	0,038
-199,563	-33,183	-0,050	-0,020
-198,548	190,355	0,036	0,039
-197,533	-131,707	-0,043	-0,004
-196,519	119,970	0,081	0,072
-195,504	-200,000	0,034	-0,160
-194,490	-51,022	0,044	-0,015
-193,475	-72,213	0,119	-0,031
-192,460	201,217	-0,025	-0,027
-191,446	-59,312	0,083	-0,025
-190,431	592,682	-0,039	0,068
-189,417	-200,000	0,008	-0,072
-188,402	167,349	-0,050	-0,050
-187,387	800,000	0,033	-0,100
-186,373	-168,607	-0,079	0,002
-185,358	399,535	0,021	0,031
-184,344	800,000	0,020	-0,052
-183,329	779,644	0,073	-0,143
-182,315	-87,779	0,008	-0,002
-181,300	-81,544	-0,030	0,007
-180,285	-200,000	-0,008	-0,040
-179,271	212,166	-0,126	-0,142
-178,256	800,000	-0,026	0,080
-177,242	800,000	0,026	0,060
-176,227	792,869	0,018	-0,035
-175,212	17,517	0,076	0,043
-174,198	-89,042	-0,254	-0,053
-173,183	-16,637	-0,052	0,024
-172,169	54,419	-0,091	0,062
-171,154	78,976	0,137	-0,105
-170,139	-200,000	-0,017	0,098
-169,125	-115,597	0,068	-0,009
-168,110	800,000	-0,052	0,104
-167,096	-77,592	-0,139	-0,034
-166,081	2,397	-0,024	-0,012
-165,066	-50,955	-0,199	0,066
-164,052	54,072	0,109	0,075
-163,037	-138,283	0,110	-0,009
-162,023	-44,699	0,068	0,024
-161,008	-17,914	0,117	0,052
-159,993	-200,000	0,028	0,101
-158,979	770,156	0,012	0,024
-157,964	5,555	-0,080	-0,042
-156,950	-200,000	0,002	-0,036
-155,935	379,228	-0,042	-0,062
-154,920	-162,123	-0,142	0,005
-153,906	14,303	0,114	-0,063
-152,891	-50,852	-0,051	-0,017
-151,877	262,386	0,042	0,051
-150,862	71,275	-0,121	0,089
-149,847	94,117	-0,057	0,046
-148,833	255,768	-0,065	0,079
-147,818	-200,000	-0,039	0,131
-146,804	-200,000	0,007	-0,047
-145,789	-200,000	-0,021	-0,069
-144,775	707,405	0,077	-0,147
-143,760	-53,677	-0,153	-0,050
-142,745	-200,000	0,007	0,090
-141,731	-51,124	-0,094	0,031
-140,716	190,231	0,092	0,098
-139,702	-109,557	0,162	0,024
-138,687	8,835	-0,095	-0,051
-137,672	-200,000	0,003	-0,110
-136,658	-93,637	-0,096	0,019
-135,643	534,475	0,019	-0,032
-134,629	374,569	-0,060	-0,087
-133,614	-9,246	0,107	-0,051
-132,599	-200,000	0,008	-0,038
-131,585	536,225	0,063	0,107
-130,570	363,492	0,041	0,059
-129,556	800,000	-0,040	-0,087
-128,541	609,070	0,056	0,101
-127,526	-200,000	-0,012	0,062
-126,512	165,776	0,058	-0,058
-125,497	29,490	-0,081	0,049
-124,483	744,705	0,085	0,164
-123,468	-2,520	0,083	0,041
-122,453	77,165	-0,156	-0,118
-121,439	376,551	0,074	-0,109
-120,424	-69,038	-0,073	0,020
-119,410	-200,000	-0,048	0,170
-118,395	-143,096	-0,072	0,005
