DTS Sentinel unit serial number:	SN410029Multiplexer serial number:	ORYXHardware model number:	OX2-SRSoftware version number:	ORYX F/W v4,00 Oryx Data Collector v3.7.2.0data status	okinstallation	B6 Nyhavnadifferential loss correction	single-endedforward channel	channel 2reverse channel	N/Adate	2023/12/11time	01:55:08forward acquisition time	300,00reverse acquisition time	0,00gamma	499,1914k internal	0,3123k external	0,3123temperature offset calibration	1,0000default loss term (dB/km)	0,3820temperature slope calibration	1,0000multiplexer offset coefficient	1,0000multiplexer slope coefficient	1,0000fibre end	0,00T internal ref (°C)	21,97T ext. ref 1 (°C)	5,07T ext. ref 2 (°C)	5,10length (m)	temperature (°C)	Stokes	anti-Stokes-744,400	800,000	0,022	0,069
-743,385	-20,654	-0,176	0,080
-742,371	-200,000	0,004	0,105
-741,356	14,469	-0,194	0,113
-740,342	-200,000	0,003	0,011
-739,327	-14,064	-0,242	0,116
-738,312	126,442	0,099	-0,094
-737,298	32,432	-0,233	0,150
-736,283	-129,350	0,034	-0,004
-735,269	174,785	-0,122	0,132
-734,254	-200,000	0,007	-0,134
-733,239	61,322	-0,314	-0,232
-732,225	-8,623	0,164	-0,082
-731,210	-128,989	0,021	0,002
-730,196	607,365	0,007	-0,014
-729,181	800,000	-0,028	-0,082
-728,167	116,893	0,158	-0,145
-727,152	-7,594	-0,045	-0,023
-726,137	-200,000	0,002	-0,022
-725,123	62,216	-0,040	-0,029
-724,108	-64,748	-0,193	0,058
-723,094	-200,000	-0,012	0,056
-722,079	-70,529	-0,033	-0,009
-721,064	86,306	0,040	-0,033
-720,050	376,559	-0,083	0,127
-719,035	-28,948	-0,015	0,006
-718,021	442,378	-0,060	-0,099
-717,006	71,725	-0,080	-0,062
-715,991	-71,084	-0,121	-0,034
-714,977	-124,959	-0,044	-0,005
-713,962	-90,278	0,090	0,019
-712,948	-39,071	0,065	0,025
-711,933	7,942	0,052	0,029
-710,918	16,621	-0,034	0,020
-709,904	-7,849	-0,156	0,078
-708,889	101,963	0,059	-0,051
-707,875	574,341	0,057	-0,103
-706,860	-7,968	-0,111	-0,056
-705,845	-200,000	0,015	0,140
-704,831	33,165	0,078	0,050
-703,816	-76,722	0,069	0,018
-702,802	297,852	0,073	-0,100
-701,787	229,047	0,033	0,040
-700,772	599,834	-0,070	-0,130
-699,758	-179,238	0,124	0,002
-698,743	458,641	0,078	0,130
-697,729	1,707	0,028	0,015
-696,714	103,562	0,082	0,072
-695,699	-200,000	-0,038	-0,134
-694,685	-200,000	-0,022	-0,087
-693,670	800,000	-0,027	0,058
-692,656	97,830	-0,047	-0,041
-691,641	800,000	0,034	0,074
-690,627	-200,000	0,002	0,107
-689,612	-171,299	-0,241	-0,006
-688,597	800,000	-0,044	0,126
-687,583	76,944	-0,106	-0,083
-686,568	-104,534	0,180	-0,031
-685,554	-200,000	0,010	-0,150
-684,539	331,656	0,052	-0,075
-683,524	-1,360	-0,058	-0,031
-682,510	178,967	0,027	0,030
-681,495	114,731	-0,101	-0,092
-680,481	-200,000	-0,027	0,114
-679,466	-90,323	-0,130	-0,028
-678,451	61,850	0,080	0,059
-677,437	-148,054	0,191	0,012
-676,422	800,000	0,026	-0,064
-675,408	800,000	0,028	-0,067
-674,393	45,482	0,109	-0,075
-673,378	-200,000	-0,001	0,044
-672,364	-9,816	0,056	-0,028
-671,349	213,554	0,098	-0,115
-670,335	408,003	-0,008	-0,013
-669,320	300,682	0,074	0,102
-668,305	-200,000	0,014	0,071
-667,291	-200,000	-0,018	0,066
-666,276	-103,706	-0,163	0,028
-665,262	-143,700	-0,065	0,004
-664,247	217,376	-0,028	0,033
-663,232	343,929	0,045	-0,066
-662,218	-162,590	-0,154	-0,006
-661,203	-81,067	-0,058	-0,014
-660,189	184,959	-0,014	0,015
-659,174	800,000	-0,064	0,172
-658,159	508,543	-0,074	0,129
-657,145	459,780	-0,039	-0,064
-656,130	229,951	-0,042	-0,051
-655,116	79,389	0,116	0,092
-654,101	-157,341	-0,008	-0,000
-653,086	-200,000	-0,011	-0,037
-652,072	800,000	0,065	-0,163
-651,057	-23,836	-0,066	-0,029
-650,043	-45,845	-0,111	-0,040
-649,028	550,626	0,040	-0,072
-648,014	-200,000	0,008	0,027
-646,999	-200,000	-0,031	0,125
-645,984	-200,000	-0,008	-0,078
-644,970	800,000	-0,036	0,096
-643,955	800,000	0,012	-0,039
-642,941	800,000	0,071	-0,221
-641,926	-200,000	-0,038	0,148
-640,911	-200,000	0,010	0,034
-639,897	800,000	-0,010	0,028
-638,882	235,779	0,022	0,027
-637,868	97,710	0,038	-0,033
-636,853	90,207	-0,069	-0,057
-635,838	23,346	-0,126	-0,077
-634,824	0,954	-0,050	0,027
-633,809	132,144	0,066	0,063
-632,795	-200,000	0,001	0,168
-631,780	800,000	0,016	0,051
-630,765	800,000	-0,026	0,084
-629,751	84,437	-0,201	0,163
-628,736	-107,588	-0,163	-0,026
-627,722	800,000	-0,023	0,057
-626,707	44,066	0,026	0,017
-625,692	83,623	-0,077	0,062
-624,678	800,000	0,008	0,021
-623,663	-103,148	0,022	0,004
-622,649	-200,000	0,014	-0,064
-621,634	-200,000	-0,005	-0,114
-620,619	-200,000	0,038	-0,126
-619,605	-55,982	0,080	0,026
-618,590	-200,000	0,019	-0,106
-617,576	-200,000	0,016	0,093
-616,561	457,479	0,058	0,096
-615,546	-95,641	-0,112	-0,022
-614,532	167,919	-0,088	-0,093
-613,517	165,671	0,088	-0,092
-612,503	-64,850	-0,114	0,034
-611,488	-39,254	-0,120	-0,047
-610,474	217,728	0,067	-0,079
-609,459	107,179	-0,029	-0,025
-608,444	22,208	-0,041	0,025
-607,430	-100,234	-0,071	0,013
-606,415	800,000	-0,065	-0,140
-605,401	-57,562	0,071	-0,023
-604,386	138,397	0,093	0,090
-603,371	-200,000	0,006	-0,104
-602,357	-200,000	0,005	-0,024
-601,342	-200,000	-0,040	-0,160
-600,328	-54,775	-0,169	-0,056
-599,313	-21,182	-0,073	-0,033
-598,298	154,899	-0,059	-0,060
-597,284	-129,723	0,082	0,008
-596,269	-200,000	0,020	0,089
-595,255	-6,413	-0,011	-0,006
-594,240	-200,000	-0,013	-0,099
-593,225	160,681	-0,148	-0,153
-592,211	114,545	0,091	-0,082
-591,196	-200,000	0,030	-0,205
-590,182	-200,000	-0,002	-0,149
-589,167	800,000	-0,033	0,092
-588,152	64,108	-0,062	-0,046
-587,138	53,648	-0,155	0,110
-586,123	-94,363	0,037	-0,007
-585,109	-63,745	-0,066	0,020
-584,094	-200,000	0,014	0,094
-583,079	-128,677	-0,085	-0,009
-582,065	265,329	0,042	0,054
-581,050	-200,000	-0,006	-0,041
-580,036	-33,203	0,181	0,074
-579,021	-200,000	0,019	0,155
-578,006	330,282	-0,089	-0,127
-576,992	-41,588	-0,072	0,027
-575,977	124,322	0,109	-0,101
-574,963	642,817	0,088	0,166
-573,948	-200,000	-0,001	0,089
-572,934	-119,421	-0,109	0,014
-571,919	800,000	0,039	-0,114
-570,904	422,065	0,012	-0,019
-569,890	-19,613	0,149	0,068
-568,875	46,688	0,010	0,007
-567,861	675,769	0,027	0,053
-566,846	98,423	-0,050	0,043
-565,831	48,705	0,054	-0,037
-564,817	437,888	-0,030	0,049
-563,802	-69,234	-0,067	0,019
-562,788	67,073	-0,059	-0,045
-561,773	-46,064	-0,089	0,032
-560,758	212,189	0,075	0,087
-559,744	-200,000	-0,027	-0,097
-558,729	-8,159	-0,132	0,066
-557,715	620,068	0,066	0,123
-556,700	-200,000	0,004	0,017
-555,685	-146,755	-0,128	-0,008
-554,671	-41,546	0,107	0,040
-553,656	366,326	-0,032	0,048
-552,642	131,314	0,074	0,070
-551,627	266,667	0,019	0,025
-550,612	374,713	-0,035	-0,052
-549,598	21,674	-0,032	-0,019
-548,583	-200,000	-0,008	0,026
-547,569	-68,641	-0,130	0,037
-546,554	-200,000	0,002	0,025
-545,539	40,145	0,057	-0,038
-544,525	-200,000	-0,004	-0,099
-543,510	-200,000	0,013	-0,129
-542,496	-182,337	-0,184	0,002
-541,481	-200,000	0,005	0,087
-540,466	504,696	0,092	0,159
-539,452	-56,056	0,044	-0,014
-538,437	539,154	0,053	-0,094
-537,423	-58,436	-0,087	0,028
-536,408	-59,920	-0,023	-0,007
-535,393	112,454	-0,092	-0,083
-534,379	-200,000	-0,013	0,070
-533,364	-117,678	-0,022	0,003
-532,350	800,000	-0,009	0,029
-531,335	800,000	-0,078	0,161
-530,321	-200,000	-0,010	0,050
-529,306	246,952	0,057	0,071
-528,291	71,983	-0,105	0,081
-527,277	-73,880	0,051	-0,014
-526,262	238,554	0,041	0,051
-525,248	800,000	0,043	0,111
-524,233	-25,333	-0,075	-0,033
-523,218	-130,954	-0,066	0,006
-522,204	170,351	0,020	-0,021
-521,189	-167,125	-0,214	-0,006
-520,175	206,422	-0,029	-0,033
-519,160	-200,000	0,001	-0,140
-518,145	44,817	-0,031	0,021
-517,131	800,000	-0,041	-0,084
-516,116	-200,000	0,025	0,123
-515,102	800,000	0,035	-0,096
-514,087	140,338	0,020	0,020
-513,072	347,371	0,015	-0,022
-512,058	-168,301	-0,086	-0,002
-511,043	-92,539	-0,086	-0,018
-510,029	152,572	0,103	0,104
-509,014	-200,000	0,064	-0,239
-507,999	800,000	0,042	0,117
-506,985	-97,856	-0,097	0,018
-505,970	-162,103	-0,116	-0,004
-504,956	-73,463	0,150	-0,040
-503,941	-200,000	-0,047	0,270
-502,926	54,083	-0,101	0,071
-501,912	-200,000	0,003	0,009
-500,897	467,514	0,026	-0,044
-499,883	-76,672	-0,115	0,030
-498,868	800,000	-0,106	-0,220
-497,853	514,891	-0,031	0,054
-496,839	765,408	-0,041	-0,084
-495,824	-92,558	-0,093	0,019
-494,810	-91,118	0,075	-0,016
-493,795	745,457	-0,033	-0,066
-492,781	-54,070	0,018	0,006
-491,766	-97,666	0,056	0,011
-490,751	-26,077	-0,099	-0,043
-489,737	-200,000	-0,016	-0,155
-488,722	204,812	0,125	0,143
-487,708	-49,888	0,158	0,055
-486,693	-200,000	-0,006	0,109
-485,678	235,424	-0,050	0,061
-484,664	-200,000	0,001	0,049
-483,649	395,064	-0,122	-0,188
-482,635	800,000	0,057	0,129
-481,620	784,339	-0,033	0,066
-480,605	13,929	-0,064	-0,037
-479,591	-54,858	0,122	0,040
-478,576	-200,000	-0,010	-0,073
-477,562	26,352	-0,101	0,062
-476,547	94,485	-0,127	-0,107
-475,532	-200,000	-0,015	-0,148
-474,518	-162,954	-0,060	0,002
-473,503	457,403	0,042	-0,070
-472,489	37,118	0,192	-0,125
-471,474	-200,000	-0,010	-0,078
-470,459	-122,510	0,058	0,007
-469,445	173,324	0,024	0,026
-468,430	138,620	-0,063	0,061
-467,416	229,281	0,028	0,034
-466,401	-200,000	-0,001	0,047
-465,386	476,640	0,066	-0,110
-464,372	-200,000	0,017	0,058
-463,357	-200,000	0,032	-0,105
-462,343	-77,398	0,112	-0,029
-461,328	2,712	0,100	0,053
-460,313	-200,000	0,002	-0,114
-459,299	496,495	0,072	0,122
-458,284	-200,000	0,049	0,280
-457,270	336,724	0,037	0,053
-456,255	800,000	-0,020	0,062
-455,241	225,769	0,094	-0,113
-454,226	-2,801	0,015	0,008
-453,211	-20,989	0,129	-0,058
-452,197	-200,000	0,018	0,189
-451,182	800,000	0,032	0,088
-450,168	800,000	0,007	0,022
-449,153	352,173	-0,034	0,049
-448,138	800,000	0,034	0,098
-447,124	465,026	-0,034	0,055
-446,109	-79,522	-0,116	-0,029
-445,095	270,766	0,108	0,140
-444,080	-38,563	0,039	-0,015
-443,065	-200,000	-0,015	-0,078
-442,051	800,000	0,056	-0,136
-441,036	445,530	-0,049	-0,080
-440,022	115,312	-0,160	-0,144
-439,007	-200,000	0,012	-0,112
-437,992	-137,095	0,068	-0,006
-436,978	-85,342	0,052	0,012
-435,963	81,536	-0,100	0,079
-434,949	-200,000	0,004	-0,110
-433,934	-200,000	-0,025	-0,168
-432,919	-200,000	-0,030	-0,114
-431,905	-200,000	0,018	-0,099
-430,890	-200,000	-0,010	0,071
-429,876	-200,000	0,083	-0,000
-428,861	243,627	-0,009	-0,011
-427,846	65,206	-0,075	0,056
-426,832	-200,000	0,015	-0,053
-425,817	-200,000	0,010	-0,035
-424,803	-200,000	0,033	-0,119
-423,788	459,845	0,041	-0,068
-422,773	-76,199	-0,024	0,006
-421,759	-200,000	-0,020	0,076
-420,744	268,176	-0,061	-0,079
-419,730	-138,270	-0,083	0,007
-418,715	-39,272	-0,110	-0,042
-417,701	-146,897	-0,120	0,008
-416,686	-114,432	0,035	0,005
-415,671	-56,703	0,044	0,014
-414,657	119,287	0,044	0,040
-413,642	-200,000	-0,012	0,150
-412,628	-71,448	-0,058	0,016
-411,613	-135,112	-0,038	-0,003
-410,598	441,251	-0,030	-0,048
-409,584	70,910	0,150	-0,114
-408,569	27,394	-0,077	0,048
-407,555	-33,947	0,067	-0,027
-406,540	-200,000	-0,006	-0,031
-405,525	69,746	0,071	0,054
-404,511	-200,000	0,025	-0,085
-403,496	-67,945	-0,046	0,013
-402,482	369,542	-0,029	-0,044
-401,467	-0,100	0,083	0,043
-400,452	-200,000	-0,004	-0,094
-399,438	-200,000	-0,015	-0,087
-398,423	-67,863	-0,065	0,018
-397,409	-139,197	-0,081	-0,006
-396,394	-31,907	0,022	0,009
-395,379	-131,876	0,104	0,010
-394,365	-52,928	-0,089	0,030
-393,350	800,000	0,035	-0,098
-392,336	129,160	-0,072	0,067
-391,321	799,145	-0,054	-0,110
-390,306	239,781	-0,025	-0,030
-389,292	800,000	-0,015	0,038
-388,277	-93,136	0,018	-0,004
-387,263	263,656	0,124	0,159
-386,248	-45,335	-0,057	-0,021
-385,233	140,898	0,042	-0,041
-384,219	-85,264	-0,071	0,016
-383,204	-200,000	0,008	-0,044
-382,190	781,337	-0,050	-0,101
-381,175	-200,000	0,093	0,000
-380,160	223,183	0,145	0,172
-379,146	478,412	0,015	-0,026
-378,131	122,000	-0,014	0,013
-377,117	800,000	-0,033	0,080
-376,102	-166,836	0,032	0,001
-375,088	-67,769	-0,151	-0,043
-374,073	99,634	0,075	-0,063
-373,058	656,441	-0,011	0,021
-372,044	-200,000	0,024	0,123
-371,029	-200,000	0,001	-0,050
-370,015	368,997	-0,032	-0,048
-369,000	-200,000	-0,006	0,099
-367,985	-62,601	-0,171	0,052
-366,971	-200,000	-0,031	0,147
-365,956	-124,072	-0,101	0,012
-364,942	200,868	0,063	0,071
-363,927	745,347	0,039	-0,077
-362,912	115,739	-0,059	0,053
-361,898	552,300	-0,070	-0,125
-360,883	-200,000	-0,002	-0,135
-359,869	-200,000	-0,008	0,157
-358,854	-200,000	0,018	-0,095
-357,839	622,634	0,007	-0,014
-356,825	-200,000	0,001	-0,063
-355,810	800,000	0,033	0,082
-354,796	-200,000	0,002	0,084
-353,781	8,680	0,021	-0,011
-352,766	579,610	-0,030	-0,054
-351,752	-66,932	0,106	-0,030
-350,737	124,029	0,118	0,109
-349,723	-1,466	0,033	-0,017
-348,708	120,329	0,111	0,101
-347,693	102,415	0,060	0,051
-346,679	544,115	0,006	-0,011
-345,664	-129,381	-0,068	-0,007
-344,650	102,499	0,042	0,036
-343,635	800,000	-0,048	0,118
-342,620	18,474	0,031	0,018
-341,606	-200,000	0,008	-0,112
-340,591	-179,037	0,104	-0,002
-339,577	-179,278	-0,101	0,002
-338,562	-200,000	0,007	-0,128
-337,548	-200,000	0,018	-0,066
-336,533	151,985	0,088	-0,088
-335,518	-145,706	0,112	-0,007
-334,504	106,759	-0,081	0,071
-333,489	-44,868	0,075	-0,027
-332,475	-200,000	0,011	0,089
-331,460	-0,836	-0,116	-0,060
-330,445	-75,869	-0,055	-0,014
-329,431	-50,404	0,049	0,017
-328,416	-200,000	-0,016	-0,069
-327,402	-200,000	-0,001	-0,057
-326,387	96,774	0,012	0,010
-325,372	76,213	0,048	0,037
-324,358	-200,000	0,001	0,012
-323,343	-200,000	0,007	0,026
-322,329	314,461	-0,059	-0,082
-321,314	20,448	0,156	0,092
-320,299	-156,560	-0,136	0,006
-319,285	430,427	-0,109	-0,174
-318,270	-200,000	-0,041	0,169
-317,256	800,000	-0,020	-0,048
-316,241	-200,000	0,028	-0,192
-315,226	234,106	0,102	-0,123
-314,212	-200,000	-0,004	0,123
-313,197	209,788	0,040	0,046
-312,183	-5,003	-0,043	0,022
-311,168	5,584	-0,042	-0,022
-310,153	-109,220	-0,028	-0,004
-309,139	146,665	-0,062	-0,062
-308,124	145,891	0,103	-0,101
-307,110	-192,862	0,048	0,000
-306,095	-35,679	0,184	0,073
-305,080	800,000	0,054	0,110
-304,066	105,981	-0,148	-0,129
-303,051	-200,000	-0,004	0,014
-302,037	-84,863	0,156	-0,036
-301,022	24,429	-0,025	-0,015
-300,008	565,965	-0,031	0,055
-298,993	-200,000	0,006	0,127
-297,978	-58,372	-0,069	0,022
-296,964	-200,000	0,006	0,175
-295,949	100,910	-0,082	0,069
-294,935	-200,000	0,019	-0,120
-293,920	-70,170	-0,054	0,015
-292,905	-32,977	0,054	-0,022
-291,891	-200,000	0,008	0,066
-290,876	5,848	0,107	0,058
-289,862	66,123	0,026	-0,020
-288,847	-200,000	0,019	0,150
-287,832	-148,246	-0,017	0,001
-286,818	-200,000	-0,001	0,050
-285,803	-200,000	0,017	-0,075
-284,789	800,000	0,022	-0,056
-283,774	-33,049	0,028	-0,011
-282,759	-160,647	0,223	-0,009
-281,745	75,859	-0,084	-0,065
-280,730	800,000	0,029	-0,076
-279,716	195,043	0,083	-0,093
-278,701	-200,000	-0,019	-0,067
-277,686	250,793	-0,011	-0,014
-276,672	-41,870	-0,147	0,055
-275,657	-200,000	0,000	0,025
-274,643	800,000	-0,037	0,108
-273,628	800,000	-0,002	0,005
-272,613	-44,317	0,072	0,026
-271,599	0,268	-0,080	0,042
-270,584	-34,612	0,057	0,023
-269,570	58,893	-0,045	0,033
-268,555	147,192	0,012	0,012
-267,540	-129,329	-0,093	-0,009
-266,526	-70,319	-0,085	-0,023
-265,511	-1,683	-0,009	-0,005
-264,497	276,659	0,111	-0,145
-263,482	-200,000	0,000	0,031
-262,467	-189,927	0,096	-0,001
-261,453	122,448	-0,129	-0,118
-260,438	99,414	-0,071	0,060
-259,424	-90,338	0,108	-0,023
-258,409	800,000	-0,027	-0,072
-257,395	-32,230	-0,131	-0,053
-256,380	-166,996	0,067	-0,002
-255,365	-200,000	0,048	0,324
-254,351	-22,229	-0,125	0,055
-253,336	15,231	0,133	0,076
-252,322	122,907	0,016	0,015
-251,307	214,323	-0,121	-0,140
-250,292	49,475	0,127	0,087
-249,278	161,388	0,019	-0,019
-248,263	21,225	0,054	0,032
-247,249	177,868	0,111	0,118
-246,234	-200,000	-0,020	-0,075
-245,219	-22,495	-0,114	-0,050
-244,205	-200,000	0,021	-0,189
-243,190	800,000	0,012	0,029
-242,176	86,639	0,019	0,016
-241,161	-200,000	-0,007	0,034
-240,146	-114,533	0,065	-0,009
-239,132	-52,042	-0,076	0,026
-238,117	-18,602	0,136	0,062
-237,103	655,954	0,031	-0,059
-236,088	1,927	0,055	0,029
-235,073	-137,382	0,128	0,010
-234,059	244,442	0,028	0,035
-233,044	-200,000	-0,007	0,069
-232,030	456,177	-0,001	-0,002
-231,015	800,000	0,035	0,102
-230,000	174,982	0,068	0,072
-228,986	-118,434	0,092	0,012
-227,971	-200,000	0,018	0,089
-226,957	557,282	-0,021	-0,037
-225,942	268,704	-0,042	-0,054
-224,927	-200,000	0,072	0,000
-223,913	-200,000	-0,059	-0,225
-222,898	-87,473	0,019	-0,004
-221,884	-68,909	0,067	-0,019
-220,869	769,577	-0,046	0,091
-219,855	-200,000	0,004	0,022
-218,840	-200,000	-0,004	0,070
-217,825	-172,411	-0,094	0,002
-216,811	-200,000	0,014	-0,091
-215,796	550,967	0,049	-0,086
-214,782	-200,000	0,020	-0,086
-213,767	430,936	0,054	-0,086
-212,752	-29,036	-0,144	0,060
-211,738	800,000	0,033	0,105
-210,723	-113,565	0,068	-0,010
-209,709	758,960	-0,078	-0,154
-208,694	-200,000	-0,004	0,100
-207,679	-108,233	-0,136	-0,021
-206,665	44,662	0,092	0,062
-205,650	-200,000	0,005	0,033
-204,636	239,965	-0,031	-0,038
-203,621	178,667	0,063	-0,068
-202,606	-87,738	-0,028	-0,006
-201,592	83,145	-0,039	0,031
-200,577	-122,514	0,105	-0,012
-199,563	-200,000	0,040	-0,155
-198,548	434,036	-0,024	0,039
-197,533	-148,228	0,046	-0,003
-196,519	406,111	0,043	0,066
-195,504	106,216	0,059	0,051
-194,490	252,529	0,028	0,035
-193,475	-200,000	-0,031	-0,154
-192,460	800,000	0,073	-0,177
-191,446	472,483	0,027	0,044
-190,431	77,317	-0,099	0,076
-189,417	289,104	0,087	-0,115
-188,402	-200,000	0,001	0,045
-187,387	800,000	-0,045	0,107
-186,373	-22,490	0,120	-0,053
-185,358	800,000	0,006	0,015
-184,344	800,000	-0,031	-0,077
-183,329	-107,964	0,078	0,012
-182,315	-78,934	0,039	0,010
-181,300	43,715	0,043	0,028
-180,285	-121,339	0,080	-0,010
-179,271	-133,663	0,086	0,008
-178,256	800,000	-0,007	-0,022
-177,242	-200,000	0,007	0,058
-176,227	800,000	0,061	0,187
-175,212	800,000	-0,027	-0,058
-174,198	399,384	0,046	0,071
-173,183	-93,007	-0,046	-0,009
-172,169	800,000	0,044	-0,139
-171,154	521,584	-0,054	-0,092
-170,139	509,336	-0,080	0,135
-169,125	152,457	-0,011	-0,011
-168,110	209,149	0,079	-0,091
-167,096	800,000	0,027	-0,067
-166,081	-69,064	-0,122	0,034
-165,066	-47,166	0,093	-0,033
-164,052	226,168	-0,078	0,092
-163,037	139,028	0,088	0,084
-162,023	-150,257	0,194	-0,011
-161,008	220,555	-0,033	0,039
-159,993	-0,980	-0,055	-0,028
-158,979	190,645	-0,063	0,069
-157,964	-90,432	-0,067	0,014
-156,950	179,741	0,048	0,051
-155,935	-20,759	-0,041	0,018
-154,920	-143,985	-0,007	-0,000
-153,906	800,000	0,026	0,078
-152,891	-79,519	0,094	0,023
-151,877	176,922	-0,060	-0,064
-150,862	-200,000	-0,008	-0,053
-149,847	35,116	0,027	0,017
-148,833	-94,767	0,109	-0,021
-147,818	353,730	-0,031	0,046
-146,804	-200,000	-0,035	0,166
-145,789	-51,135	0,006	-0,002
-144,775	-83,956	-0,154	-0,035
-143,760	-36,162	0,167	-0,065
-142,745	141,375	-0,144	-0,138
-141,731	27,476	0,181	0,111
-140,716	734,826	0,045	0,089
-139,702	289,461	0,041	0,054
-138,687	-80,576	-0,113	0,027
-137,672	-144,185	-0,204	0,014
-136,658	455,453	-0,093	-0,151
-135,643	205,797	0,018	-0,020
-134,629	255,115	-0,050	-0,063
-133,614	-200,000	0,006	0,148
-132,599	340,749	-0,074	0,105
-131,585	800,000	-0,020	0,050
-130,570	-125,131	0,113	-0,012
-129,556	-157,468	-0,125	0,005
-128,541	73,921	0,068	0,052
-127,526	388,399	-0,054	-0,081
-126,512	-76,391	0,051	0,013
-125,497	776,926	0,055	-0,109
-124,483	311,446	-0,037	0,050
-123,468	-117,617	-0,108	0,014
-122,453	-88,115	-0,104	-0,023
-121,439	299,884	0,087	-0,117
-120,424	-200,000	-0,019	-0,074
-119,410	80,463	0,102	0,080
