DTS Sentinel unit serial number:	SN410029Multiplexer serial number:	ORYXHardware model number:	OX2-SRSoftware version number:	ORYX F/W v4,00 Oryx Data Collector v3.7.2.0data status	okinstallation	B6 Nyhavnadifferential loss correction	single-endedforward channel	channel 2reverse channel	N/Adate	2023/12/10time	13:10:08forward acquisition time	300,00reverse acquisition time	0,00gamma	499,1914k internal	0,3122k external	0,3122temperature offset calibration	1,0000default loss term (dB/km)	0,3820temperature slope calibration	1,0000multiplexer offset coefficient	1,0000multiplexer slope coefficient	1,0000fibre end	0,00T internal ref (°C)	22,80T ext. ref 1 (°C)	6,44T ext. ref 2 (°C)	6,45length (m)	temperature (°C)	Stokes	anti-Stokes-744,400	-200,000	0,014	-0,164
-743,385	-160,430	-0,167	-0,007
-742,371	-200,000	0,000	-0,017
-741,356	36,342	-0,233	0,153
-740,342	-21,286	0,031	-0,014
-739,327	42,848	-0,252	0,171
-738,312	800,000	0,073	-0,157
-737,298	-106,960	-0,315	0,051
-736,283	131,633	0,081	0,077
-735,269	-51,014	-0,240	0,083
-734,254	511,161	-0,051	0,089
-733,239	-66,925	-0,385	-0,113
-732,225	428,657	0,088	-0,141
-731,210	-10,193	0,073	-0,036
-730,196	71,957	0,053	0,041
-729,181	-103,299	0,016	-0,003
-728,167	144,562	-0,062	-0,062
-727,152	10,933	-0,095	0,054
-726,137	40,190	-0,145	-0,097
-725,123	-56,366	0,137	-0,045
-724,108	173,378	-0,086	0,092
-723,094	-77,522	0,063	-0,016
-722,079	9,735	-0,151	-0,085
-721,064	377,073	0,097	0,148
-720,050	120,582	-0,035	-0,033
-719,035	800,000	-0,028	-0,085
-718,021	-200,000	0,021	-0,121
-717,006	-27,495	-0,033	-0,014
-715,991	-104,138	0,058	-0,010
-714,977	132,509	0,027	0,026
-713,962	95,180	0,014	0,012
-712,948	48,200	0,018	0,013
-711,933	285,887	0,027	-0,036
-710,918	800,000	-0,038	-0,116
-709,904	-127,881	0,110	-0,012
-708,889	-41,504	0,084	0,032
-707,875	-64,966	-0,202	-0,061
-706,860	-200,000	0,003	0,037
-705,845	-200,000	0,010	0,046
-704,831	-200,000	0,030	0,125
-703,816	67,169	-0,038	0,029
-702,802	-200,000	-0,011	0,041
-701,787	14,799	-0,092	-0,053
-700,772	-200,000	-0,019	-0,065
-699,758	-200,000	-0,030	-0,128
-698,743	61,994	0,094	0,069
-697,729	-166,633	0,134	0,004
-696,714	378,618	0,026	0,040
-695,699	-59,382	-0,018	-0,006
-694,685	-87,367	-0,096	0,021
-693,670	-200,000	0,012	0,078
-692,656	298,255	0,078	-0,106
-691,641	800,000	-0,011	-0,023
-690,627	-200,000	0,014	0,086
-689,612	-25,319	-0,041	0,018
-688,597	84,884	-0,077	-0,063
-687,583	-117,850	-0,056	-0,007
-686,568	18,070	-0,120	-0,071
-685,554	-96,081	-0,181	-0,036
-684,539	768,529	-0,048	0,098
-683,524	422,160	0,071	0,114
-682,510	-148,644	0,083	-0,005
-681,495	133,157	0,028	-0,027
-680,481	185,948	0,003	-0,003
-679,466	-98,281	-0,065	-0,012
-678,451	-52,016	-0,013	0,004
-677,437	800,000	-0,009	-0,025
-676,422	-200,000	-0,020	-0,082
-675,408	140,809	0,083	-0,082
-674,393	11,307	-0,074	0,042
-673,378	-18,111	-0,051	-0,023
-672,364	-78,669	0,038	0,010
-671,349	-200,000	0,003	0,054
-670,335	-32,234	-0,046	-0,019
-669,320	-149,526	0,187	-0,011
-668,305	-200,000	0,019	0,146
-667,291	-80,294	-0,091	-0,022
-666,276	-22,400	-0,086	-0,039
-665,262	545,463	-0,063	-0,112
-664,247	-43,414	-0,112	0,042
-663,232	-200,000	-0,004	0,128
-662,218	26,918	0,021	0,013
-661,203	-200,000	0,029	0,205
-660,189	-56,784	0,106	-0,035
-659,174	16,279	-0,087	-0,051
-658,159	632,771	-0,056	-0,106
-657,145	-31,202	0,065	-0,027
-656,130	2,645	0,043	0,023
-655,116	-200,000	-0,004	0,098
-654,101	-200,000	0,025	-0,117
-653,086	-66,997	-0,166	-0,048
-652,072	-150,258	-0,051	-0,003
-651,057	800,000	0,031	0,081
-650,043	-146,040	0,009	0,001
-649,028	199,448	0,062	0,071
-648,014	-32,884	0,061	0,025
-646,999	-200,000	-0,024	0,091
-645,984	560,620	-0,026	-0,047
-644,970	334,603	-0,034	0,050
-643,955	124,319	0,081	-0,075
-642,941	393,432	-0,026	-0,041
-641,926	-122,896	0,131	0,015
-640,911	111,269	-0,083	-0,074
-639,897	3,410	-0,049	0,026
-638,882	-97,803	0,170	-0,032
-637,868	-200,000	-0,002	-0,110
-636,853	-200,000	0,003	-0,117
-635,838	-85,465	0,095	-0,022
-634,824	800,000	0,022	0,047
-633,809	520,168	0,027	-0,048
-632,795	385,609	0,052	0,081
-631,780	800,000	0,055	0,119
-630,765	-109,881	0,169	-0,026
-629,751	-10,736	-0,082	-0,040
-628,736	-83,606	-0,127	0,030
-627,722	-9,595	-0,020	0,010
-626,707	94,160	0,084	0,071
-625,692	-42,641	-0,046	0,017
-624,678	476,830	-0,038	0,064
-623,663	-118,689	-0,070	0,009
-622,649	-200,000	-0,011	-0,122
-621,634	516,601	-0,057	-0,099
-620,619	182,101	-0,093	-0,102
-619,605	145,480	0,118	-0,117
-618,590	800,000	0,027	0,085
-617,576	-200,000	-0,005	0,067
-616,561	800,000	0,011	-0,023
-615,546	-65,539	-0,080	0,024
-614,532	800,000	0,043	-0,122
-613,517	-200,000	-0,004	-0,109
-612,503	-153,003	-0,100	0,005
-611,488	800,000	0,030	0,073
-610,474	-73,693	0,084	0,023
-609,459	-200,000	-0,096	0,000
-608,444	-48,438	-0,042	-0,015
-607,430	-200,000	0,002	-0,206
-606,415	340,001	-0,008	-0,012
-605,401	27,341	0,067	-0,042
-604,386	-200,000	0,024	0,100
-603,371	-200,000	0,015	0,126
-602,357	214,161	-0,070	0,082
-601,342	48,233	-0,072	-0,050
-600,328	-200,000	-0,012	-0,098
-599,313	-62,758	-0,077	0,024
-598,298	-61,315	0,094	-0,029
-597,284	800,000	-0,010	-0,028
-596,269	-12,471	0,042	-0,020
-595,255	800,000	0,008	0,020
-594,240	-200,000	-0,000	-0,150
-593,225	-100,045	-0,093	0,017
-592,211	99,945	-0,111	-0,095
-591,196	800,000	0,051	0,138
-590,182	210,646	0,048	0,056
-589,167	-200,000	0,018	-0,153
-588,152	-200,000	0,024	-0,110
-587,138	800,000	0,018	0,051
-586,123	-63,370	-0,155	-0,047
-585,109	-84,691	-0,036	-0,008
-584,094	-200,000	0,008	-0,059
-583,079	-69,156	-0,098	0,028
-582,065	700,765	0,041	-0,080
-581,050	110,761	-0,154	0,137
-580,036	81,042	0,042	-0,034
-579,021	-81,657	0,077	-0,019
-578,006	181,475	-0,050	0,054
-576,992	-200,000	-0,075	0,000
-575,977	270,984	0,028	0,036
-574,963	100,028	0,084	0,072
-573,948	-200,000	-0,001	-0,036
-572,934	83,950	0,021	-0,017
-571,919	-200,000	-0,027	-0,125
-570,904	689,715	0,026	0,051
-569,890	103,776	-0,140	-0,122
-568,875	83,777	-0,081	0,066
-567,861	-116,092	-0,150	0,020
-566,846	-200,000	-0,004	0,036
-565,831	-200,000	0,006	-0,180
-564,817	116,020	-0,037	-0,034
-563,802	13,768	-0,031	0,018
-562,788	-111,266	-0,048	-0,007
-561,773	-116,407	0,104	-0,014
-560,758	800,000	0,132	0,290
-559,744	223,243	-0,007	-0,008
-558,729	800,000	-0,005	-0,011
-557,715	3,725	-0,063	-0,034
-556,700	373,838	0,067	-0,102
-555,685	-83,327	0,066	-0,015
-554,671	143,391	0,063	-0,062
-553,656	609,215	0,085	0,157
-552,642	-200,000	-0,021	-0,103
-551,627	62,355	0,050	0,037
-550,612	39,162	-0,087	0,058
-549,598	-200,000	-0,026	-0,102
-548,583	247,626	-0,038	-0,048
-547,569	-200,000	-0,029	-0,131
-546,554	800,000	-0,010	0,031
-545,539	-182,433	-0,141	-0,002
-544,525	-200,000	-0,000	0,069
-543,510	263,086	-0,018	-0,023
-542,496	20,429	-0,020	-0,012
-541,481	196,174	0,063	-0,071
-540,466	-85,061	-0,090	-0,021
-539,452	-183,662	-0,172	0,002
-538,437	-133,853	0,168	0,015
-537,423	116,779	-0,049	0,045
-536,408	800,000	0,043	0,096
-535,393	43,797	0,075	-0,050
-534,379	375,315	0,051	-0,077
-533,364	-200,000	0,036	0,117
-532,350	-200,000	-0,012	0,041
-531,335	53,883	-0,036	-0,025
-530,321	154,725	-0,092	0,094
-529,306	370,067	-0,029	0,044
-528,291	-120,768	-0,154	-0,019
-527,277	194,712	0,056	0,062
-526,262	387,720	0,050	0,077
-525,248	44,018	0,108	-0,073
-524,233	14,051	-0,026	-0,015
-523,218	-200,000	-0,004	-0,069
-522,204	363,845	0,026	0,039
-521,189	-200,000	0,008	-0,048
-520,175	-200,000	-0,016	0,074
-519,160	239,563	-0,062	0,076
-518,145	-132,270	0,070	-0,007
-517,131	800,000	0,036	0,113
-516,116	-200,000	-0,006	0,113
-515,102	312,667	-0,063	0,088
-514,087	620,045	-0,034	-0,063
-513,072	-200,000	-0,008	-0,116
-512,058	13,566	0,087	-0,050
-511,043	800,000	-0,051	-0,136
-510,029	-43,233	0,137	0,051
-509,014	-200,000	0,010	0,096
-507,999	261,463	-0,033	0,043
-506,985	-200,000	0,025	-0,120
-505,970	-200,000	0,005	-0,034
-504,956	-93,079	0,046	-0,009
-503,941	-200,000	0,002	-0,059
-502,926	-200,000	0,014	0,061
-501,912	87,110	-0,032	-0,026
-500,897	-99,050	-0,099	-0,018
-499,883	-45,851	-0,102	-0,037
-498,868	-200,000	0,001	-0,129
-497,853	781,783	0,089	-0,180
-496,839	-43,029	-0,008	-0,003
-495,824	-200,000	-0,004	0,086
-494,810	165,961	0,069	0,072
-493,795	-200,000	-0,011	0,043
-492,781	-200,000	-0,017	-0,086
-491,766	800,000	0,051	-0,118
-490,751	-200,000	-0,010	0,144
-489,737	-174,238	0,122	-0,003
-488,722	-200,000	0,015	0,072
-487,708	-200,000	0,011	-0,043
-486,693	18,350	-0,104	0,061
-485,678	800,000	-0,027	-0,059
-484,664	-200,000	-0,014	-0,087
-483,649	216,928	-0,127	0,149
-482,635	-200,000	-0,002	0,062
-481,620	-69,686	0,100	-0,028
-480,605	-140,996	0,148	-0,011
-479,591	477,731	0,044	-0,073
-478,576	-200,000	0,023	0,184
-477,562	-200,000	-0,012	-0,084
-476,547	-109,486	-0,190	-0,029
-475,532	-73,117	-0,123	-0,033
-474,518	323,398	0,054	-0,076
-473,503	-119,803	0,060	0,008
-472,489	191,214	-0,023	0,026
-471,474	-200,000	-0,004	-0,087
-470,459	800,000	-0,019	0,046
-469,445	1,542	0,105	0,055
-468,430	-200,000	-0,005	-0,041
-467,416	-54,078	0,109	0,036
-466,401	-49,172	-0,109	0,038
-465,386	96,519	0,036	0,031
-464,372	177,313	0,080	0,085
-463,357	-200,000	0,014	-0,084
-462,343	-200,000	-0,036	0,170
-461,328	-200,000	0,002	-0,028
-460,313	216,091	-0,114	-0,133
-459,299	-183,422	0,188	-0,002
-458,284	563,814	-0,045	-0,081
-457,270	122,120	-0,094	-0,087
-456,255	-200,000	0,046	-0,163
-455,241	189,787	0,092	-0,102
-454,226	117,632	-0,047	-0,043
-453,211	-200,000	-0,017	0,080
-452,197	-81,267	0,156	0,038
-451,182	-74,833	0,133	-0,035
-450,168	109,938	0,087	0,077
-449,153	-190,420	-0,128	0,001
-448,138	22,259	-0,048	0,029
-447,124	-92,280	0,007	-0,001
-446,109	-107,215	0,058	-0,009
-445,095	-200,000	0,002	-0,101
-444,080	46,723	0,070	0,048
-443,065	-40,971	-0,077	0,029
-442,051	-20,586	-0,091	-0,041
-441,036	226,038	-0,071	-0,085
-440,022	-200,000	-0,003	-0,099
-439,007	-58,109	-0,072	0,023
-437,992	777,440	-0,058	0,118
-436,978	-200,000	0,001	0,037
-435,963	-200,000	-0,014	0,071
-434,949	-151,321	0,086	0,005
-433,934	-200,000	-0,009	-0,094
-432,919	-164,349	-0,073	0,002
-431,905	218,192	-0,049	0,057
-430,890	387,197	0,035	0,053
-429,876	10,436	0,058	0,033
-428,861	135,359	0,056	0,054
-427,846	-86,781	0,037	-0,008
-426,832	-133,970	-0,163	0,015
-425,817	-156,568	0,121	-0,005
-424,803	226,662	0,052	0,062
-423,788	5,116	-0,041	0,022
-422,773	-42,442	0,130	0,049
-421,759	800,000	0,030	0,081
-420,744	-200,000	0,009	-0,063
-419,730	-200,000	-0,005	0,086
-418,715	-200,000	-0,079	0,000
-417,701	222,963	-0,104	0,123
-416,686	105,914	0,043	-0,037
-415,671	-59,458	0,120	-0,038
-414,657	756,312	-0,017	0,033
-413,642	-52,313	-0,034	-0,011
-412,628	-200,000	-0,014	-0,115
-411,613	-200,000	0,009	-0,041
-410,598	-200,000	0,016	-0,070
-409,584	-200,000	-0,003	-0,073
-408,569	53,197	0,144	0,101
-407,555	-29,391	0,116	-0,049
-406,540	719,207	-0,033	0,065
-405,525	-41,074	-0,076	0,029
-404,511	-98,830	0,192	0,036
-403,496	-74,662	-0,178	-0,047
-402,482	-200,000	-0,009	0,032
-401,467	224,380	-0,081	0,097
-400,452	157,910	0,084	-0,086
-399,438	800,000	0,041	0,096
-398,423	185,752	-0,070	0,077
-397,409	-125,694	-0,061	-0,007
-396,394	72,431	-0,066	-0,050
-395,379	348,772	-0,067	-0,098
-394,365	47,772	-0,023	-0,016
-393,350	100,056	-0,070	-0,060
-392,336	418,028	0,083	-0,131
-391,321	-131,329	0,112	-0,011
-390,306	240,688	-0,064	-0,079
-389,292	-200,000	-0,003	-0,060
-388,277	-77,559	-0,147	-0,037
-387,263	-200,000	0,024	0,112
-386,248	47,037	0,072	-0,049
-385,233	-16,550	0,068	-0,032
-384,219	800,000	0,045	0,130
-383,204	608,868	-0,056	-0,103
-382,190	94,707	0,116	-0,097
-381,175	-146,308	-0,205	-0,013
-380,160	97,378	-0,108	-0,091
-379,146	800,000	0,015	0,030
-378,131	-156,293	0,120	0,005
-377,117	-0,469	-0,140	0,073
-376,102	-200,000	-0,011	0,042
-375,088	-200,000	-0,001	-0,137
-374,073	-200,000	-0,003	0,121
-373,058	215,203	-0,028	0,032
-372,044	-200,000	0,019	0,093
-371,029	800,000	0,049	0,142
-370,015	-103,640	-0,034	-0,006
-369,000	418,092	-0,019	0,030
-367,985	-115,189	-0,090	-0,012
-366,971	-159,895	-0,031	-0,001
-365,956	800,000	0,044	0,126
-364,942	-76,848	0,151	0,039
-363,927	137,376	-0,033	0,032
-362,912	73,404	-0,023	0,018
-361,898	-200,000	-0,003	0,100
-360,883	-200,000	-0,012	-0,072
-359,869	226,861	0,064	0,077
-358,854	262,089	-0,043	0,054
-357,839	-131,575	0,062	-0,006
-356,825	800,000	0,015	-0,042
-355,810	509,191	-0,074	0,127
-354,796	276,388	0,018	0,024
-353,781	-200,000	0,001	0,053
-352,766	576,555	0,017	0,030
-351,752	-88,956	0,114	-0,025
-350,737	115,066	-0,044	-0,039
-349,723	-91,497	0,187	0,039
-348,708	800,000	-0,028	0,073
-347,693	-1,957	-0,047	-0,024
-346,679	-200,000	-0,002	0,114
-345,664	-103,470	0,160	-0,027
-344,650	-200,000	0,013	-0,111
-343,635	181,082	-0,046	-0,049
-342,620	345,895	-0,058	0,084
-341,606	9,339	-0,062	0,034
-340,591	117,037	0,063	-0,056
-339,577	-75,174	-0,031	-0,008
-338,562	-3,871	-0,043	-0,022
-337,548	-86,808	0,059	-0,013
-336,533	-185,678	0,033	-0,000
-335,518	-9,630	0,118	0,057
-334,504	509,558	-0,013	-0,022
-333,489	800,000	-0,070	-0,163
-332,475	-200,000	0,010	-0,080
-331,460	77,755	-0,121	-0,094
-330,445	-200,000	-0,018	-0,104
-329,431	-134,548	0,071	0,006
-328,416	27,274	0,032	0,020
-327,402	95,902	0,032	0,027
-326,387	800,000	0,016	-0,038
-325,372	-200,000	-0,023	-0,101
-324,358	-131,844	0,182	-0,017
-323,343	800,000	0,034	-0,084
-322,329	-200,000	-0,005	0,040
-321,314	-49,611	0,035	-0,012
-320,299	175,333	0,073	0,078
-319,285	308,841	-0,035	0,048
-318,270	-175,621	0,020	0,000
-317,256	-65,554	-0,073	-0,021
-316,241	-200,000	0,014	0,116
-315,226	173,688	0,041	-0,044
-314,212	68,267	0,076	0,057
-313,197	167,067	0,068	0,071
-312,183	425,231	-0,050	0,079
-311,168	-200,000	-0,002	0,020
-310,153	800,000	0,064	-0,187
-309,139	-15,249	-0,075	-0,035
-308,124	51,557	0,110	0,076
-307,110	-101,252	-0,063	0,011
-306,095	800,000	0,010	-0,028
-305,080	-188,340	-0,063	0,001
-304,066	-200,000	0,004	0,095
-303,051	23,106	0,049	0,029
-302,037	800,000	0,050	-0,146
-301,022	-200,000	0,021	0,127
-300,008	-179,720	0,061	0,001
-298,993	-200,000	0,002	-0,008
-297,978	71,323	-0,030	0,023
-296,964	18,582	-0,174	-0,102
-295,949	186,631	-0,024	-0,026
-294,935	-162,849	-0,098	-0,003
-293,920	4,296	0,147	-0,078
-292,905	-200,000	0,009	0,034
-291,891	158,330	0,147	0,150
-290,876	-115,903	-0,100	0,014
-289,862	28,104	-0,088	-0,054
-288,847	-25,931	-0,123	-0,053
-287,832	666,634	0,053	0,100
-286,818	-1,861	-0,121	-0,062
-285,803	795,421	0,063	-0,128
-284,789	-48,501	-0,098	0,034
-283,774	-200,000	0,023	0,113
-282,759	0,794	-0,053	0,028
-281,745	56,802	-0,100	0,071
-280,730	-200,000	0,033	-0,120
-279,716	-200,000	0,001	-0,098
-278,701	-200,000	-0,016	-0,073
-277,686	-98,394	0,143	0,027
-276,672	-11,905	-0,146	0,070
-275,657	-200,000	-0,015	-0,057
-274,643	235,573	0,026	-0,031
-273,628	163,750	-0,051	-0,053
-272,613	151,494	-0,080	0,080
-271,599	307,659	0,024	-0,033
-270,584	-200,000	0,010	0,185
-269,570	-200,000	-0,006	0,041
-268,555	-200,000	0,004	0,043
-267,540	297,295	0,031	0,042
-266,526	-200,000	0,002	-0,054
-265,511	-200,000	-0,003	0,017
-264,497	-200,000	-0,028	0,106
-263,482	-200,000	0,015	0,095
-262,467	-81,274	0,132	0,032
-261,453	-86,496	0,054	0,012
-260,438	-94,835	-0,170	-0,033
-259,424	-91,228	-0,010	0,002
-258,409	256,143	0,003	0,004
-257,395	14,584	-0,049	0,028
-256,380	145,521	-0,078	-0,077
-255,365	21,167	0,089	0,053
-254,351	258,603	-0,020	-0,026
-253,336	-200,000	0,011	0,096
-252,322	800,000	0,019	0,046
-251,307	-39,976	-0,025	-0,010
-250,292	800,000	0,012	0,034
-249,278	-57,062	-0,038	0,012
-248,263	766,644	0,038	0,076
-247,249	-135,476	0,054	0,005
-246,234	800,000	0,021	-0,064
-245,219	-68,417	-0,043	0,012
-244,205	109,973	0,055	-0,048
-243,190	-99,616	-0,147	-0,027
-242,176	505,916	0,056	-0,095
-241,161	-200,000	-0,017	0,152
-240,146	-200,000	-0,001	0,052
-239,132	-200,000	0,018	-0,151
-238,117	-200,000	0,005	-0,031
-237,103	349,720	-0,075	0,108
-236,088	53,921	0,071	-0,050
-235,073	-124,250	0,096	-0,011
-234,059	19,552	0,090	-0,053
-233,044	-200,000	-0,028	-0,205
-232,030	800,000	-0,025	-0,081
-231,015	78,513	0,059	0,046
-230,000	309,618	-0,072	-0,098
-228,986	-112,825	0,068	0,010
-227,971	540,229	0,008	0,013
-226,957	-200,000	0,003	0,085
-225,942	-80,764	-0,044	-0,011
-224,927	584,989	-0,038	-0,068
-223,913	40,211	0,072	-0,047
-222,898	800,000	-0,018	0,046
-221,884	477,484	0,098	0,162
-220,869	-157,499	-0,014	0,001
-219,855	102,153	0,153	0,130
-218,840	-200,000	-0,006	0,022
-217,825	-114,350	-0,105	-0,015
-216,811	423,737	-0,044	-0,069
-215,796	-200,000	-0,003	-0,042
-214,782	-62,778	0,098	-0,030
-213,767	-200,000	0,007	0,086
-212,752	-114,777	0,097	-0,013
-211,738	-75,959	0,113	0,029
-210,723	589,811	-0,034	-0,061
-209,709	67,840	-0,052	-0,038
-208,694	-83,661	0,066	0,015
-207,679	-65,387	-0,172	0,050
-206,665	-200,000	0,011	-0,137
-205,650	-200,000	0,030	-0,113
-204,636	169,567	-0,066	0,069
-203,621	-56,611	0,086	0,028
-202,606	-105,684	-0,080	0,013
-201,592	-119,940	-0,195	0,024
-200,577	16,048	-0,064	0,036
-199,563	-42,261	-0,117	0,043
-198,548	-96,251	0,081	0,016
-197,533	235,944	-0,083	0,101
-196,519	358,052	-0,093	0,136
-195,504	43,718	0,095	-0,064
-194,490	261,027	-0,047	0,060
-193,475	-200,000	-0,015	0,093
-192,460	165,070	-0,007	0,007
-191,446	76,787	0,071	-0,055
-190,431	213,225	0,074	0,085
-189,417	-55,131	0,014	-0,005
-188,402	-200,000	0,018	0,096
-187,387	47,110	-0,179	-0,121
-186,373	-83,142	-0,134	-0,031
-185,358	-108,195	0,039	-0,006
-184,344	-200,000	-0,001	0,087
-183,329	-10,961	0,017	-0,008
-182,315	17,575	-0,040	0,023
-181,300	-67,312	0,025	0,007
-180,285	800,000	-0,038	-0,115
-179,271	-200,000	-0,001	0,017
-178,256	67,586	-0,020	0,015
-177,242	-40,895	-0,043	-0,016
-176,227	-200,000	0,007	0,070
-175,212	193,452	-0,059	0,065
-174,198	-85,450	0,137	-0,031
-173,183	-200,000	0,014	0,069
-172,169	-1,955	-0,064	-0,033
-171,154	-72,032	0,063	-0,017
-170,139	-200,000	0,031	-0,104
-169,125	-200,000	0,000	0,012
-168,110	-39,294	0,099	0,038
-167,096	208,384	0,025	0,029
-166,081	-99,114	-0,063	-0,011
-165,066	582,981	0,010	0,019
-164,052	371,985	0,097	0,143
-163,037	494,279	0,044	-0,074
-162,023	-200,000	0,007	-0,042
-161,008	13,863	0,098	0,055
-159,993	204,775	-0,091	0,104
-158,979	419,965	-0,047	-0,074
-157,964	-20,378	0,124	-0,055
-156,950	1,614	-0,013	-0,007
-155,935	116,862	-0,033	0,029
-154,920	586,427	-0,066	0,119
-153,906	800,000	-0,058	-0,122
-152,891	-59,801	0,110	-0,034
-151,877	-200,000	0,010	0,067
-150,862	-200,000	0,002	-0,035
-149,847	-13,598	-0,069	0,032
-148,833	97,180	-0,021	-0,017
-147,818	-200,000	0,002	-0,069
-146,804	-40,018	0,102	-0,039
-145,789	365,409	0,008	-0,012
-144,775	-68,088	0,086	0,024
-143,760	5,586	0,061	-0,033
-142,745	486,819	-0,036	0,060
-141,731	96,752	0,010	0,008
-140,716	94,773	-0,066	0,054
-139,702	800,000	-0,015	0,046
-138,687	200,569	0,052	-0,058
-137,672	-200,000	0,004	0,033
-136,658	50,060	0,038	-0,026
-135,643	800,000	-0,030	0,063
-134,629	-16,754	-0,129	0,059
-133,614	-14,346	0,228	-0,106
-132,599	38,128	-0,072	0,047
-131,585	-129,786	0,034	0,003
-130,570	800,000	-0,047	0,129
-129,556	-200,000	-0,003	-0,069
-128,541	347,131	-0,027	-0,039
-127,526	-146,204	0,069	-0,004
-126,512	253,628	0,076	-0,095
-125,497	73,624	0,130	0,099
-124,483	335,780	-0,026	-0,037
-123,468	-107,584	0,106	-0,017
-122,453	-41,021	-0,074	-0,028
-121,439	-200,000	-0,018	-0,061
-120,424	-122,122	-0,108	0,013
