DTS Sentinel unit serial number:	SN410029Multiplexer serial number:	ORYXHardware model number:	OX2-SRSoftware version number:	ORYX F/W v4,00 Oryx Data Collector v3.7.2.0data status	okinstallation	B6 Nyhavnadifferential loss correction	single-endedforward channel	channel 2reverse channel	N/Adate	2023/12/10time	06:15:08forward acquisition time	300,00reverse acquisition time	0,00gamma	499,1914k internal	0,3124k external	0,3124temperature offset calibration	1,0000default loss term (dB/km)	0,3820temperature slope calibration	1,0000multiplexer offset coefficient	1,0000multiplexer slope coefficient	1,0000fibre end	0,00T internal ref (°C)	22,56T ext. ref 1 (°C)	6,47T ext. ref 2 (°C)	6,45length (m)	temperature (°C)	Stokes	anti-Stokes-744,400	800,000	0,056	-0,135
-743,385	-20,919	-0,195	0,089
-742,371	-200,000	0,000	-0,052
-741,356	87,614	-0,243	0,200
-740,342	555,037	-0,038	0,068
-739,327	-90,821	-0,276	0,059
-738,312	-78,066	-0,053	-0,013
-737,298	-116,546	-0,108	0,015
-736,283	-200,000	0,010	-0,151
-735,269	-54,474	-0,221	0,074
-734,254	164,960	0,091	0,096
-733,239	-104,030	-0,470	-0,081
-732,225	203,270	0,093	0,107
-731,210	-200,000	-0,002	0,121
-730,196	238,217	0,063	-0,079
-729,181	-200,000	-0,012	-0,097
-728,167	-200,000	0,000	-0,035
-727,152	229,303	-0,048	-0,059
-726,137	-108,201	-0,137	0,022
-725,123	321,087	-0,081	0,115
-724,108	150,135	-0,142	-0,144
-723,094	-50,711	-0,155	-0,054
-722,079	-50,072	-0,042	-0,015
-721,064	-8,975	-0,062	0,031
-720,050	800,000	-0,052	-0,130
-719,035	555,738	-0,031	0,055
-718,021	510,777	-0,048	-0,083
-717,006	-124,123	-0,069	0,008
-715,991	42,455	-0,084	-0,057
-714,977	77,792	-0,060	-0,048
-713,962	-122,192	0,168	-0,020
-712,948	-200,000	-0,021	0,119
-711,933	-83,750	-0,095	0,022
-710,918	494,384	-0,026	-0,044
-709,904	800,000	-0,039	-0,082
-708,889	-200,000	-0,008	-0,060
-707,875	-0,020	-0,072	-0,038
-706,860	-200,000	-0,008	0,059
-705,845	445,937	-0,033	-0,054
-704,831	452,652	0,019	0,031
-703,816	169,097	0,076	-0,081
-702,802	245,109	-0,054	0,068
-701,787	-131,637	-0,034	-0,003
-700,772	543,190	-0,063	-0,112
-699,758	174,073	-0,019	-0,021
-698,743	-200,000	-0,008	0,076
-697,729	-103,598	-0,081	0,014
-696,714	-88,747	0,026	0,006
-695,699	9,478	0,042	0,024
-694,685	-82,776	-0,066	-0,016
-693,670	800,000	0,034	-0,094
-692,656	-124,768	0,085	0,010
-691,641	260,342	0,050	0,065
-690,627	37,655	-0,034	0,023
-689,612	-117,534	-0,044	0,006
-688,597	-79,127	-0,079	0,020
-687,583	95,620	-0,099	-0,084
-686,568	-56,172	-0,120	-0,039
-685,554	-48,815	-0,102	-0,036
-684,539	788,488	0,050	-0,102
-683,524	-59,109	0,152	0,048
-682,510	-200,000	-0,019	-0,064
-681,495	-93,624	-0,125	-0,026
-680,481	-5,414	-0,079	-0,040
-679,466	309,148	0,013	-0,018
-678,451	160,963	0,006	0,006
-677,437	-200,000	-0,026	0,092
-676,422	-33,288	0,047	0,019
-675,408	-159,475	0,028	-0,001
-674,393	-200,000	0,021	-0,239
-673,378	-59,524	-0,117	-0,037
-672,364	800,000	-0,040	-0,127
-671,349	230,860	-0,047	-0,058
-670,335	135,884	-0,057	0,055
-669,320	-76,586	-0,097	-0,025
-668,305	-152,708	0,103	-0,005
-667,291	-70,250	-0,074	-0,021
-666,276	-150,359	-0,092	0,005
-665,262	-200,000	-0,028	-0,171
-664,247	409,282	0,061	-0,096
-663,232	800,000	0,055	-0,154
-662,218	471,898	0,043	-0,072
-661,203	333,022	0,084	-0,121
-660,189	-46,441	-0,130	-0,047
-659,174	-200,000	-0,015	-0,133
-658,159	45,106	-0,105	-0,072
-657,145	-95,956	-0,052	-0,010
-656,130	-103,047	0,071	0,012
-655,116	90,045	-0,017	0,014
-654,101	391,777	0,025	0,039
-653,086	-200,000	0,010	0,093
-652,072	167,224	0,045	0,048
-651,057	800,000	-0,025	-0,066
-650,043	73,407	-0,059	-0,045
-649,028	350,366	-0,040	-0,059
-648,014	279,972	-0,051	0,068
-646,999	-200,000	0,018	-0,089
-645,984	795,856	0,008	0,016
-644,970	-93,990	-0,140	-0,028
-643,955	-110,872	0,085	0,013
-642,941	66,787	0,049	-0,037
-641,926	800,000	0,012	0,037
-640,911	800,000	-0,053	-0,134
-639,897	175,356	-0,144	0,155
-638,882	800,000	-0,005	0,015
-637,868	-200,000	-0,014	-0,150
-636,853	-44,758	0,104	-0,038
-635,838	77,368	-0,123	-0,097
-634,824	365,894	0,100	-0,150
-633,809	270,083	0,020	-0,027
-632,795	144,926	-0,081	0,080
-631,780	-89,635	-0,014	0,003
-630,765	-200,000	-0,005	0,027
-629,751	-200,000	0,003	-0,129
-628,736	800,000	0,019	-0,048
-627,722	377,537	0,039	0,059
-626,707	-49,102	-0,030	-0,011
-625,692	-124,850	0,117	-0,013
-624,678	-81,365	0,062	0,015
-623,663	-53,231	0,102	0,035
-622,649	180,434	-0,109	0,119
-621,634	591,517	0,018	-0,034
-620,619	99,136	-0,085	-0,073
-619,605	253,359	0,012	0,015
-618,590	5,410	-0,066	0,036
-617,576	800,000	-0,086	0,192
-616,561	-200,000	-0,002	-0,042
-615,546	785,897	-0,074	-0,151
-614,532	800,000	-0,056	0,120
-613,517	800,000	-0,036	0,108
-612,503	-97,680	-0,037	0,007
-611,488	42,966	-0,095	0,064
-610,474	-200,000	0,033	0,113
-609,459	-200,000	-0,001	0,171
-608,444	-55,899	-0,020	-0,007
-607,430	465,416	-0,054	-0,089
-606,415	800,000	0,017	0,044
-605,401	411,804	-0,046	-0,073
-604,386	115,553	-0,068	-0,062
-603,371	-200,000	-0,014	-0,132
-602,357	-200,000	-0,092	0,000
-601,342	-80,659	-0,191	-0,047
-600,328	216,727	-0,080	-0,095
-599,313	54,639	-0,011	0,008
-598,298	-200,000	0,019	0,236
-597,284	65,782	0,085	0,064
-596,269	-200,000	-0,025	0,200
-595,255	-200,000	0,002	0,070
-594,240	800,000	-0,070	0,149
-593,225	800,000	-0,039	0,121
-592,211	644,806	0,009	0,018
-591,196	-200,000	-0,007	0,071
-590,182	-117,529	-0,102	-0,013
-589,167	-200,000	-0,020	-0,129
-588,152	556,844	0,053	-0,095
-587,138	-173,150	0,057	-0,001
-586,123	-89,266	-0,101	-0,022
-585,109	800,000	0,026	-0,059
-584,094	800,000	-0,055	-0,119
-583,079	-200,000	0,014	0,063
-582,065	-82,057	0,088	0,021
-581,050	712,767	-0,063	-0,124
-580,036	779,340	0,094	-0,191
-579,021	800,000	0,040	-0,109
-578,006	800,000	-0,040	-0,113
-576,992	136,377	0,049	-0,047
-575,977	-38,600	0,095	0,037
-574,963	346,621	0,059	-0,086
-573,948	-200,000	0,002	-0,096
-572,934	275,506	-0,048	-0,064
-571,919	-200,000	-0,017	0,072
-570,904	188,494	0,052	-0,057
-569,890	-58,971	0,048	-0,015
-568,875	79,156	0,072	0,057
-567,861	-65,397	0,016	-0,005
-566,846	252,990	-0,108	0,137
-565,831	-120,046	-0,035	-0,004
-564,817	22,336	-0,086	-0,052
-563,802	-200,000	0,009	-0,092
-562,788	-139,939	-0,025	0,002
-561,773	800,000	0,021	-0,045
-560,758	-200,000	0,022	-0,161
-559,744	-70,745	-0,065	0,018
-558,729	-200,000	0,022	0,147
-557,715	28,343	0,039	0,024
-556,700	-144,736	0,087	0,006
-555,685	-0,614	-0,080	0,042
-554,671	-159,084	0,152	-0,006
-553,656	-200,000	0,001	0,080
-552,642	80,514	0,065	0,052
-551,627	-200,000	-0,004	-0,026
-550,612	92,595	-0,049	0,041
-549,598	-14,983	-0,062	-0,029
-548,583	25,949	-0,049	-0,030
-547,569	800,000	-0,030	0,074
-546,554	800,000	0,028	-0,059
-545,539	-116,457	-0,107	0,014
-544,525	17,258	-0,025	0,015
-543,510	-200,000	0,003	-0,014
-542,496	-200,000	-0,002	-0,006
-541,481	-56,267	-0,118	-0,038
-540,466	800,000	0,008	-0,019
-539,452	63,849	0,063	0,047
-538,437	581,917	-0,022	0,040
-537,423	-200,000	-0,010	0,061
-536,408	183,080	-0,032	-0,035
-535,393	50,900	-0,101	-0,070
-534,379	158,147	-0,068	0,070
-533,364	309,394	0,071	-0,099
-532,350	236,336	-0,041	-0,050
-531,335	800,000	-0,029	0,076
-530,321	670,102	0,033	0,064
-529,306	-48,154	-0,016	-0,006
-528,291	-47,540	-0,086	-0,031
-527,277	-200,000	0,009	-0,078
-526,262	-200,000	-0,005	-0,083
-525,248	-86,766	0,060	0,014
-524,233	-129,256	-0,049	-0,005
-523,218	-78,262	0,087	0,022
-522,204	-200,000	0,011	-0,051
-521,189	8,221	-0,083	-0,046
-520,175	-31,535	0,058	0,024
-519,160	175,952	-0,042	0,045
-518,145	-200,000	-0,017	0,100
-517,131	-200,000	-0,013	-0,059
-516,116	-200,000	0,003	0,101
-515,102	138,403	0,016	-0,016
-514,087	-108,028	0,243	-0,039
-513,072	800,000	-0,055	-0,116
-512,058	383,513	0,112	-0,171
-511,043	-200,000	0,011	0,036
-510,029	-200,000	0,016	-0,097
-509,014	-10,407	-0,158	0,077
-507,999	177,607	-0,053	-0,057
-506,985	-102,800	0,075	-0,013
-505,970	-131,791	-0,157	-0,015
-504,956	800,000	-0,008	0,025
-503,941	-37,441	-0,091	0,036
-502,926	-29,980	-0,043	0,018
-501,912	48,813	-0,066	-0,046
-500,897	448,323	0,096	0,157
-499,883	-62,027	-0,039	-0,012
-498,868	-200,000	0,021	-0,170
-497,853	-200,000	-0,036	-0,168
-496,839	-74,184	0,018	0,005
-495,824	-200,000	-0,006	-0,038
-494,810	231,258	0,028	-0,034
-493,795	-43,224	-0,094	-0,035
-492,781	38,303	0,047	-0,031
-491,766	7,291	0,106	0,058
-490,751	18,231	-0,043	0,025
-489,737	-7,501	-0,052	-0,026
-488,722	-200,000	-0,011	0,095
-487,708	800,000	-0,052	-0,140
-486,693	-200,000	-0,008	-0,056
-485,678	46,604	-0,100	0,069
-484,664	-40,430	-0,092	-0,035
-483,649	20,441	0,005	0,003
-482,635	-43,199	0,053	-0,020
-481,620	-47,981	-0,041	-0,015
-480,605	-200,000	0,028	0,093
-479,591	-134,280	-0,034	-0,003
-478,576	519,140	0,083	-0,144
-477,562	-22,708	0,077	0,034
-476,547	-73,803	0,075	0,020
-475,532	800,000	0,028	-0,075
-474,518	-200,000	0,015	-0,163
-473,503	-94,633	0,016	-0,003
-472,489	-200,000	0,010	-0,060
-471,474	-200,000	0,008	-0,137
-470,459	-200,000	-0,031	-0,157
-469,445	41,804	-0,034	-0,023
-468,430	-93,102	0,077	-0,016
-467,416	367,920	0,005	-0,007
-466,401	-99,201	0,040	0,007
-465,386	-7,431	0,152	-0,076
-464,372	-200,000	0,007	-0,038
-463,357	79,754	-0,193	0,153
-462,343	-59,612	-0,069	0,022
-461,328	-166,218	0,052	-0,002
-460,313	173,015	0,025	-0,026
-459,299	-200,000	-0,001	0,104
-458,284	-200,000	0,005	0,053
-457,270	-200,000	-0,007	-0,051
-456,255	800,000	0,052	0,149
-455,241	-200,000	0,018	-0,079
-454,226	800,000	0,037	-0,081
-453,211	800,000	0,022	0,052
-452,197	256,070	0,065	0,083
-451,182	-33,568	0,090	0,037
-450,168	-164,556	-0,008	-0,000
-449,153	-200,000	0,010	0,070
-448,138	-109,395	0,063	0,010
-447,124	547,138	0,025	0,044
-446,109	70,284	0,109	-0,083
-445,095	17,820	0,155	-0,091
-444,080	-52,638	0,063	-0,021
-443,065	-200,000	0,004	0,093
-442,051	-200,000	0,023	-0,143
-441,036	128,898	-0,048	0,045
-440,022	-3,875	-0,156	-0,080
-439,007	252,793	0,026	0,033
-437,992	-199,246	0,042	-0,000
-436,978	-62,102	0,108	0,033
-435,963	-200,000	0,014	-0,065
-434,949	260,311	-0,017	0,022
-433,934	648,864	0,039	-0,073
-432,919	800,000	-0,070	-0,202
-431,905	-6,102	-0,042	-0,021
-430,890	-82,216	0,064	0,015
-429,876	-200,000	0,000	0,162
-428,861	-200,000	0,001	0,033
-427,846	564,961	0,040	0,071
-426,832	-72,315	-0,038	0,010
-425,817	800,000	0,040	-0,093
-424,803	-200,000	-0,008	-0,048
-423,788	-200,000	0,000	0,007
-422,773	-200,000	0,006	0,095
-421,759	-169,426	-0,022	-0,001
-420,744	-160,721	0,105	0,004
-419,730	-200,000	0,025	-0,105
-418,715	-26,455	-0,072	0,031
-417,701	-200,000	-0,020	-0,088
-416,686	800,000	0,029	-0,061
-415,671	5,405	0,073	0,040
-414,657	194,359	0,068	0,076
-413,642	744,555	0,027	-0,054
-412,628	-81,310	-0,033	0,008
-411,613	205,834	-0,113	-0,130
-410,598	185,558	0,148	-0,162
-409,584	800,000	0,029	-0,079
-408,569	-200,000	0,019	0,078
-407,555	-200,000	-0,019	-0,088
-406,540	102,464	0,102	-0,088
-405,525	150,397	-0,060	0,060
-404,511	800,000	-0,032	0,087
-403,496	8,679	0,023	0,012
-402,482	-200,000	0,014	0,110
-401,467	-200,000	0,026	0,119
-400,452	119,684	0,141	0,128
-399,438	14,124	0,118	0,067
-398,423	-152,189	-0,210	-0,011
-397,409	-116,836	0,044	-0,006
-396,394	148,853	0,058	0,057
-395,379	143,015	0,072	0,071
-394,365	94,088	-0,055	-0,046
-393,350	645,600	0,047	0,088
-392,336	355,706	-0,072	-0,105
-391,321	-200,000	-0,018	-0,147
-390,306	800,000	-0,022	-0,057
-389,292	-80,809	-0,093	-0,023
-388,277	-83,581	0,116	0,027
-387,263	-200,000	-0,016	0,097
-386,248	249,031	0,060	0,075
-385,233	237,675	-0,029	0,035
-384,219	-100,719	-0,082	-0,015
-383,204	-200,000	-0,028	-0,123
-382,190	-200,000	0,027	-0,135
-381,175	-24,885	-0,108	-0,047
-380,160	800,000	-0,002	0,006
-379,146	-40,148	0,084	0,032
-378,131	800,000	-0,003	-0,010
-377,117	800,000	0,009	-0,022
-376,102	-105,724	-0,192	-0,032
-375,088	625,641	-0,069	-0,128
-374,073	47,087	-0,084	0,057
-373,058	-32,919	0,134	0,054
-372,044	-92,885	0,069	0,014
-371,029	239,111	-0,062	0,075
-370,015	202,457	-0,107	0,122
-369,000	141,890	0,023	-0,023
-367,985	-186,729	-0,063	-0,001
-366,971	800,000	-0,007	0,016
-365,956	360,648	-0,060	0,088
-364,942	-200,000	-0,013	-0,055
-363,927	800,000	0,019	0,060
-362,912	-110,036	-0,128	0,019
-361,898	-106,064	-0,067	-0,011
-360,883	29,050	-0,074	-0,046
-359,869	-200,000	0,019	0,069
-358,854	224,284	0,078	0,092
-357,839	-97,442	0,064	-0,012
-356,825	505,768	0,078	-0,134
-355,810	-106,096	0,091	-0,015
-354,796	-21,464	0,025	0,011
-353,781	1,328	-0,043	-0,023
-352,766	800,000	0,055	0,118
-351,752	800,000	0,069	0,160
-350,737	407,845	-0,061	0,095
-349,723	-66,240	0,163	0,047
-348,708	169,708	0,051	-0,053
-347,693	800,000	-0,031	0,092
-346,679	800,000	0,018	-0,048
-345,664	21,535	-0,141	-0,084
-344,650	465,568	0,069	-0,113
-343,635	-169,662	0,279	0,007
-342,620	571,841	-0,075	0,135
-341,606	-99,114	0,104	0,019
-340,591	61,100	-0,056	0,041
-339,577	695,896	-0,035	-0,068
-338,562	-50,232	-0,020	-0,007
-337,548	-175,634	0,062	0,001
-336,533	-200,000	0,014	-0,112
-335,518	-41,072	0,024	0,009
-334,504	-200,000	0,008	0,056
-333,489	-44,538	0,129	0,047
-332,475	-200,000	-0,002	0,094
-331,460	-102,581	-0,066	-0,011
-330,445	147,960	0,141	0,139
-329,431	-0,391	0,083	-0,043
-328,416	-33,110	0,113	0,046
-327,402	0,232	0,119	0,062
-326,387	-143,955	0,009	0,001
-325,372	-136,502	-0,130	-0,011
-324,358	-183,619	0,057	-0,001
-323,343	-31,698	-0,098	0,040
-322,329	-75,152	-0,077	-0,020
-321,314	-200,000	0,002	0,112
-320,299	-200,000	-0,013	0,046
-319,285	223,766	0,027	0,032
-318,270	8,073	0,114	0,062
-317,256	187,693	-0,063	-0,069
-316,241	668,172	-0,063	0,121
-315,226	-200,000	0,001	-0,010
-314,212	629,574	0,059	0,110
-313,197	-200,000	-0,030	-0,153
-312,183	-200,000	0,017	-0,140
-311,168	8,147	0,030	0,017
-310,153	-108,261	0,042	0,007
-309,139	-163,923	-0,136	0,005
-308,124	-200,000	0,003	-0,060
-307,110	800,000	-0,031	0,066
-306,095	668,706	0,027	-0,051
-305,080	41,750	-0,041	-0,027
-304,066	404,116	0,040	-0,062
-303,051	335,201	-0,027	0,038
-302,037	-108,924	0,094	0,015
-301,022	-30,865	-0,047	-0,019
-300,008	74,297	-0,077	0,059
-298,993	-169,150	0,190	-0,005
-297,978	200,648	-0,061	-0,069
-296,964	21,480	0,030	-0,018
-295,949	95,702	0,047	0,039
-294,935	-200,000	0,008	0,094
-293,920	-18,749	-0,099	-0,045
-292,905	538,867	-0,041	-0,072
-291,891	350,414	0,026	0,038
-290,876	-13,714	-0,113	0,053
-289,862	5,931	-0,104	-0,056
-288,847	-105,332	-0,091	-0,015
-287,832	800,000	0,022	-0,047
-286,818	7,299	0,040	0,022
-285,803	-1,437	-0,041	0,021
-284,789	-93,594	0,046	-0,009
-283,774	393,797	0,052	0,079
-282,759	-130,601	-0,184	0,018
-281,745	588,626	0,047	0,085
-280,730	-200,000	-0,060	-0,214
-279,716	129,442	0,099	-0,093
-278,701	-200,000	0,009	0,055
-277,686	534,299	-0,023	0,039
-276,672	46,690	-0,044	-0,030
-275,657	-200,000	-0,012	-0,061
-274,643	800,000	0,012	0,028
-273,628	244,950	0,029	-0,036
-272,613	800,000	0,063	0,142
-271,599	-159,985	-0,073	0,003
-270,584	800,000	-0,055	0,141
-269,570	68,633	0,150	0,112
-268,555	-23,368	0,122	0,053
-267,540	-110,178	-0,128	0,019
-266,526	-29,704	-0,149	-0,062
-265,511	800,000	-0,045	0,113
-264,497	53,755	0,091	-0,063
-263,482	64,502	0,040	0,029
-262,467	-74,000	-0,052	0,014
-261,453	-17,397	-0,085	-0,039
-260,438	-49,556	0,045	-0,016
-259,424	-13,244	-0,064	-0,030
-258,409	288,212	-0,092	-0,122
-257,395	800,000	-0,036	0,084
-256,380	213,920	0,012	0,014
-255,365	-200,000	0,023	0,081
-254,351	52,247	-0,017	0,012
-253,336	-59,799	-0,057	0,018
-252,322	-7,260	-0,047	-0,023
-251,307	-200,000	-0,003	0,051
-250,292	-112,667	0,018	0,003
-249,278	-200,000	0,005	0,217
-248,263	-200,000	-0,001	0,106
-247,249	-200,000	0,010	0,054
-246,234	-50,689	-0,083	0,029
-245,219	171,016	0,067	0,070
-244,205	558,126	0,032	-0,057
-243,190	-28,425	0,064	-0,027
-242,176	-69,166	0,072	-0,020
-241,161	100,836	0,101	-0,086
-240,146	474,096	-0,044	0,073
-239,132	-32,876	-0,047	0,019
-238,117	-200,000	0,013	-0,071
-237,103	-71,089	0,041	-0,011
-236,088	768,575	-0,054	-0,107
-235,073	343,182	-0,043	-0,062
-234,059	-42,533	0,088	-0,033
-233,044	237,478	-0,077	-0,093
-232,030	-200,000	-0,010	0,124
-231,015	112,156	-0,064	-0,057
-230,000	26,081	0,015	0,009
-228,986	157,025	0,065	-0,066
-227,971	-95,069	0,092	0,018
-226,957	68,195	-0,091	0,068
-225,942	-34,329	-0,014	-0,006
-224,927	633,554	-0,087	0,162
-223,913	5,248	-0,080	-0,043
-222,898	-36,497	-0,045	0,017
-221,884	-98,047	-0,076	0,014
-220,869	88,878	-0,124	0,100
-219,855	176,885	0,085	-0,090
-218,840	213,853	0,079	-0,091
-217,825	-102,936	0,082	-0,014
-216,811	-106,766	-0,072	-0,012
-215,796	53,234	-0,026	0,018
-214,782	-200,000	-0,003	0,095
-213,767	173,080	-0,045	0,048
-212,752	-200,000	-0,043	0,140
-211,738	800,000	-0,021	-0,053
-210,723	-200,000	-0,023	0,098
-209,709	-200,000	0,045	-0,243
-208,694	189,579	0,023	-0,025
-207,679	7,499	0,040	0,022
-206,665	-186,679	0,135	-0,001
-205,650	-200,000	0,003	-0,069
-204,636	-200,000	0,011	0,073
-203,621	-200,000	-0,030	0,163
-202,606	-200,000	-0,021	0,148
-201,592	-146,790	-0,038	-0,002
-200,577	75,849	0,031	-0,024
-199,563	-200,000	-0,010	-0,072
-198,548	1,677	-0,107	-0,056
-197,533	-99,905	0,220	-0,040
-196,519	-200,000	-0,025	0,108
-195,504	-21,203	-0,089	-0,040
-194,490	-200,000	-0,026	-0,088
-193,475	-193,556	-0,068	-0,000
-192,460	-200,000	-0,020	-0,134
-191,446	800,000	0,041	0,118
-190,431	800,000	0,041	0,084
-189,417	210,635	0,103	0,118
-188,402	800,000	0,020	0,051
-187,387	-200,000	-0,015	-0,074
-186,373	109,434	0,093	-0,082
-185,358	-133,554	0,025	-0,002
-184,344	800,000	-0,026	0,060
-183,329	593,408	0,039	0,071
-182,315	21,258	0,062	-0,037
-181,300	-48,634	0,034	-0,012
-180,285	800,000	0,027	-0,083
-179,271	653,013	-0,051	0,096
-178,256	-58,720	0,128	0,040
-177,242	195,808	-0,051	-0,056
-176,227	145,205	-0,042	-0,041
-175,212	100,658	0,054	0,046
-174,198	-48,174	0,140	-0,049
-173,183	662,058	-0,064	-0,121
-172,169	-83,693	-0,097	-0,022
-171,154	-200,000	0,009	-0,032
-170,139	126,222	0,058	-0,053
-169,125	-134,543	0,085	0,007
-168,110	800,000	0,040	0,101
-167,096	-123,391	0,047	-0,005
-166,081	-72,825	-0,103	-0,027
-165,066	-146,214	-0,050	0,003
-164,052	-200,000	-0,018	0,080
-163,037	194,826	0,059	0,065
-162,023	346,774	-0,048	-0,068
-161,008	-200,000	0,008	0,058
-159,993	-100,855	0,103	-0,018
-158,979	18,740	-0,067	-0,039
-157,964	96,378	0,091	-0,076
-156,950	31,728	-0,071	0,045
-155,935	151,400	-0,090	0,089
-154,920	60,679	0,105	0,076
-153,906	118,779	0,077	0,069
-152,891	26,662	0,074	0,045
-151,877	32,306	-0,049	-0,031
-150,862	206,619	0,035	-0,040
-149,847	-200,000	-0,002	-0,010
-148,833	-200,000	-0,002	0,027
-147,818	800,000	0,022	0,049
-146,804	-45,198	0,073	-0,026
-145,789	326,603	0,059	0,083
-144,775	-200,000	0,006	0,029
-143,760	-159,165	-0,119	0,005
-142,745	-114,337	-0,209	0,029
-141,731	-154,257	0,149	0,007
-140,716	556,565	0,032	-0,056
-139,702	60,209	-0,063	0,045
-138,687	-200,000	-0,045	0,178
-137,672	-200,000	-0,003	0,037
-136,658	50,653	-0,064	-0,044
-135,643	-145,258	-0,087	0,006
-134,629	-44,252	-0,136	0,049
-133,614	-200,000	-0,005	-0,181
-132,599	-36,496	0,100	0,039
-131,585	800,000	0,029	0,084
-130,570	-140,606	0,091	-0,007
-129,556	-62,474	0,082	-0,025
-128,541	224,646	-0,078	-0,092
-127,526	-97,675	-0,122	-0,023
-126,512	-137,491	0,060	-0,005
-125,497	-119,658	0,133	-0,016
-124,483	800,000	0,029	-0,066
-123,468	-200,000	0,008	-0,029
-122,453	275,118	-0,097	0,126
-121,439	-6,640	-0,090	-0,045
-120,424	104,867	-0,030	0,026
