DTS Sentinel unit serial number:	SN410029Multiplexer serial number:	ORYXHardware model number:	OX2-SRSoftware version number:	ORYX F/W v4,00 Oryx Data Collector v3.7.2.0data status	okinstallation	B6 Nyhavnadifferential loss correction	single-endedforward channel	channel 2reverse channel	N/Adate	2023/12/08time	23:05:08forward acquisition time	300,00reverse acquisition time	0,00gamma	499,1914k internal	0,3157k external	0,3157temperature offset calibration	1,0000default loss term (dB/km)	0,3820temperature slope calibration	1,0000multiplexer offset coefficient	1,0000multiplexer slope coefficient	1,0000fibre end	0,00T internal ref (°C)	15,41T ext. ref 1 (°C)	-1,02T ext. ref 2 (°C)	-1,02length (m)	temperature (°C)	Stokes	anti-Stokes-744,400	155,911	0,152	0,154
-743,385	-161,745	-0,231	-0,009
-742,371	63,204	0,071	0,052
-741,356	-114,187	-0,333	-0,047
-740,342	-200,000	-0,028	0,097
-739,327	-159,602	-0,218	0,009
-738,312	-107,417	0,097	0,015
-737,298	-149,194	-0,372	0,022
-736,283	-93,391	0,150	0,030
-735,269	-68,125	-0,285	-0,081
-734,254	-104,653	0,171	-0,029
-733,239	60,797	-0,357	-0,260
-732,225	-127,286	0,181	0,019
-731,210	189,615	-0,052	0,057
-730,196	160,510	-0,129	-0,133
-729,181	-95,952	-0,162	-0,031
-728,167	131,120	-0,067	-0,063
-727,152	430,930	0,045	-0,072
-726,137	-117,589	-0,037	-0,005
-725,123	-139,582	-0,088	-0,007
-724,108	143,033	-0,138	-0,135
-723,094	781,295	-0,069	-0,139
-722,079	-200,000	-0,007	-0,081
-721,064	86,088	0,084	-0,068
-720,050	583,882	0,055	-0,101
-719,035	180,901	-0,056	-0,060
-718,021	-200,000	-0,006	-0,069
-717,006	800,000	0,025	-0,057
-715,991	-160,808	-0,228	-0,009
-714,977	-142,885	-0,095	-0,007
-713,962	-127,659	-0,074	0,008
-712,948	-2,903	0,039	-0,020
-711,933	-107,187	0,081	0,013
-710,918	-200,000	-0,021	-0,078
-709,904	-200,000	-0,023	-0,101
-708,889	-200,000	0,005	-0,050
-707,875	-200,000	0,001	-0,050
-706,860	-111,022	-0,009	0,001
-705,845	109,588	0,047	-0,042
-704,831	117,509	-0,062	0,056
-703,816	-200,000	-0,022	0,190
-702,802	800,000	-0,023	-0,069
-701,787	46,095	-0,043	-0,029
-700,772	76,596	-0,123	-0,096
-699,758	135,732	0,156	-0,149
-698,743	15,275	0,035	-0,020
-697,729	-200,000	-0,003	0,068
-696,714	-200,000	0,019	0,063
-695,699	-200,000	-0,028	-0,139
-694,685	-200,000	0,004	-0,043
-693,670	-162,510	-0,135	-0,005
-692,656	72,223	-0,018	-0,014
-691,641	125,956	0,090	0,083
-690,627	-91,694	-0,074	0,015
-689,612	27,557	-0,100	-0,062
-688,597	-200,000	-0,005	-0,118
-687,583	-32,184	0,053	-0,022
-686,568	-59,715	-0,122	0,038
-685,554	800,000	0,020	-0,061
-684,539	85,763	0,108	-0,087
-683,524	-44,987	-0,031	0,011
-682,510	-200,000	0,005	-0,066
-681,495	-200,000	0,032	-0,173
-680,481	-14,109	-0,145	-0,069
-679,466	-200,000	-0,021	-0,194
-678,451	-20,596	0,116	-0,052
-677,437	-200,000	0,009	-0,194
-676,422	800,000	-0,052	0,152
-675,408	12,928	-0,155	0,088
-674,393	-200,000	0,028	-0,181
-673,378	-200,000	-0,013	0,082
-672,364	322,871	0,057	-0,080
-671,349	18,346	-0,068	-0,040
-670,335	64,372	0,038	0,028
-669,320	800,000	0,023	0,056
-668,305	-200,000	0,017	-0,066
-667,291	-159,794	0,189	-0,008
-666,276	-4,970	-0,128	0,064
-665,262	-161,624	-0,160	-0,006
-664,247	104,276	-0,065	0,056
-663,232	131,483	-0,032	-0,030
-662,218	800,000	0,048	0,098
-661,203	-200,000	-0,006	0,049
-660,189	77,549	-0,063	0,050
-659,174	65,469	-0,217	-0,161
-658,159	-84,690	-0,123	-0,028
-657,145	-88,610	-0,029	-0,006
-656,130	239,333	-0,075	-0,092
-655,116	-142,265	-0,118	0,008
-654,101	217,920	0,085	-0,100
-653,086	-200,000	0,001	0,083
-652,072	312,179	-0,062	-0,086
-651,057	6,192	0,029	-0,016
-650,043	-115,729	-0,108	0,015
-649,028	50,391	-0,040	-0,028
-648,014	343,667	0,081	0,117
-646,999	-73,064	-0,069	-0,018
-645,984	-67,177	-0,053	-0,015
-644,970	-1,554	-0,054	0,028
-643,955	-110,804	-0,106	0,016
-642,941	-41,728	0,158	0,059
-641,926	232,200	-0,043	0,051
-640,911	-63,029	0,036	0,011
-639,897	-200,000	0,012	0,062
-638,882	-52,004	0,065	-0,022
-637,868	-126,785	-0,036	0,004
-636,853	800,000	0,044	0,094
-635,838	-77,076	0,020	0,005
-634,824	145,259	0,081	-0,080
-633,809	-200,000	-0,024	-0,101
-632,795	-75,740	-0,094	0,024
-631,780	-200,000	-0,054	0,186
-630,765	291,575	-0,050	-0,067
-629,751	-200,000	-0,021	-0,117
-628,736	375,061	0,050	-0,075
-627,722	800,000	-0,040	0,089
-626,707	65,853	0,030	0,022
-625,692	-200,000	0,002	0,069
-624,678	-27,997	-0,150	0,063
-623,663	-85,098	0,068	0,016
-622,649	-142,676	-0,017	0,001
-621,634	212,807	0,053	-0,061
-620,619	-200,000	0,024	0,135
-619,605	92,416	-0,045	0,037
-618,590	-200,000	-0,010	0,086
-617,576	-200,000	0,019	0,080
-616,561	-89,535	-0,041	0,009
-615,546	16,418	0,050	0,029
-614,532	192,727	-0,044	-0,049
-613,517	348,482	-0,074	-0,108
-612,503	142,575	-0,053	0,052
-611,488	89,716	-0,018	0,015
-610,474	-200,000	-0,045	0,194
-609,459	122,779	-0,045	-0,041
-608,444	-200,000	-0,002	-0,136
-607,430	-112,950	-0,214	0,031
-606,415	36,635	-0,144	-0,093
-605,401	800,000	0,043	-0,091
-604,386	-90,662	0,088	-0,019
-603,371	284,449	0,048	0,064
-602,357	-159,281	0,109	-0,004
-601,342	189,790	-0,050	-0,055
-600,328	800,000	0,061	-0,127
-599,313	-200,000	0,001	-0,027
-598,298	800,000	0,040	0,097
-597,284	387,002	-0,045	-0,069
-596,269	437,569	-0,012	0,020
-595,255	-124,365	-0,051	-0,006
-594,240	-31,525	0,086	0,035
-593,225	-103,091	0,056	-0,010
-592,211	-200,000	-0,018	-0,117
-591,196	73,503	0,044	0,034
-590,182	-62,106	-0,122	0,037
-589,167	800,000	0,039	0,111
-588,152	-192,774	-0,044	-0,000
-587,138	-77,144	-0,045	0,011
-586,123	-19,877	0,098	-0,044
-585,109	262,889	-0,077	-0,098
-584,094	579,828	-0,116	-0,208
-583,079	-200,000	0,015	-0,048
-582,065	130,928	0,025	0,024
-581,050	-31,369	-0,084	-0,035
-580,036	-179,593	-0,122	-0,002
-579,021	800,000	-0,019	-0,046
-578,006	-200,000	0,023	-0,102
-576,992	-69,933	-0,102	-0,028
-575,977	36,481	0,113	0,073
-574,963	-200,000	-0,006	-0,039
-573,948	367,173	0,029	0,043
-572,934	-189,964	-0,081	-0,001
-571,919	19,989	0,025	-0,015
-570,904	145,513	-0,077	-0,075
-569,890	-140,354	-0,112	0,008
-568,875	139,161	-0,015	0,015
-567,861	-61,057	0,047	0,015
-566,846	117,605	-0,077	-0,069
-565,831	-200,000	-0,033	-0,120
-564,817	-200,000	-0,005	-0,028
-563,802	67,748	0,101	-0,075
-562,788	-200,000	0,008	0,096
-561,773	-200,000	-0,043	0,142
-560,758	353,378	0,041	0,060
-559,744	48,868	0,117	0,080
-558,729	800,000	-0,060	0,134
-557,715	593,359	-0,016	0,029
-556,700	-200,000	0,002	-0,062
-555,685	7,281	-0,067	0,037
-554,671	-200,000	0,002	0,049
-553,656	-110,378	0,079	0,012
-552,642	-4,468	0,108	0,054
-551,627	-177,709	0,160	-0,003
-550,612	800,000	0,057	-0,155
-549,598	-200,000	-0,007	0,046
-548,583	106,181	-0,080	-0,070
-547,569	-57,858	0,136	0,043
-546,554	-200,000	-0,008	-0,060
-545,539	-74,789	-0,117	-0,031
-544,525	-200,000	0,021	-0,214
-543,510	171,063	-0,052	-0,054
-542,496	-175,923	-0,068	0,001
-541,481	-104,864	0,072	-0,012
-540,466	-67,450	0,125	0,036
-539,452	-200,000	0,043	0,142
-538,437	-200,000	0,008	0,032
-537,423	62,977	0,124	-0,090
-536,408	-121,686	0,070	-0,008
-535,393	6,029	-0,036	-0,019
-534,379	-13,850	0,042	-0,020
-533,364	-59,660	-0,095	0,030
-532,350	-159,416	-0,035	0,001
-531,335	36,290	-0,062	-0,040
-530,321	-5,914	0,070	-0,035
-529,306	-111,691	0,087	-0,013
-528,291	4,806	-0,104	-0,056
-527,277	389,090	-0,082	-0,125
-526,262	107,270	-0,074	0,064
-525,248	553,156	-0,033	0,058
-524,233	-200,000	0,002	-0,020
-523,218	-200,000	0,002	0,147
-522,204	-87,436	-0,077	-0,017
-521,189	-200,000	-0,019	-0,082
-520,175	-200,000	0,004	0,064
-519,160	-200,000	0,002	-0,109
-518,145	364,523	-0,045	-0,066
-517,131	712,702	0,038	0,073
-516,116	-80,340	0,108	0,026
-515,102	-99,434	-0,140	-0,025
-514,087	800,000	-0,027	-0,058
-513,072	-200,000	0,020	-0,106
-512,058	-200,000	-0,005	-0,149
-511,043	166,142	0,034	0,035
-510,029	71,118	0,167	0,126
-509,014	-88,151	-0,128	0,028
-507,999	-165,028	-0,078	0,002
-506,985	-200,000	0,015	0,110
-505,970	-120,346	-0,095	0,012
-504,956	-200,000	-0,003	0,021
-503,941	800,000	-0,024	-0,073
-502,926	-32,259	0,040	0,016
-501,912	301,820	-0,040	0,054
-500,897	-200,000	-0,006	0,062
-499,883	-200,000	0,010	-0,096
-498,868	-200,000	-0,002	-0,008
-497,853	-200,000	-0,013	-0,052
-496,839	800,000	-0,053	-0,133
-495,824	-104,286	0,107	-0,018
-494,810	-200,000	0,002	0,066
-493,795	190,197	-0,109	-0,120
-492,781	288,986	-0,083	0,110
-491,766	4,364	-0,027	-0,014
-490,751	-129,721	-0,018	-0,002
-489,737	9,420	-0,028	0,016
-488,722	-200,000	0,014	-0,054
-487,708	800,000	0,054	-0,157
-486,693	382,300	-0,024	-0,036
-485,678	-131,663	0,098	0,009
-484,664	800,000	0,070	-0,191
-483,649	800,000	-0,028	-0,068
-482,635	-103,844	0,078	0,013
-481,620	117,348	0,128	0,115
-480,605	-102,012	0,178	-0,031
-479,591	-200,000	-0,025	-0,110
-478,576	178,625	-0,069	-0,074
-477,562	357,898	-0,013	-0,019
-476,547	800,000	-0,066	-0,159
-475,532	250,124	-0,066	0,082
-474,518	-82,097	0,102	0,024
-473,503	-200,000	-0,003	0,016
-472,489	-115,721	0,036	-0,005
-471,474	30,382	-0,061	-0,038
-470,459	-106,601	-0,112	0,018
-469,445	-200,000	-0,011	0,081
-468,430	-75,459	0,074	-0,019
-467,416	-200,000	0,027	0,131
-466,401	39,296	-0,037	0,024
-465,386	-19,355	0,114	0,052
-464,372	-65,916	0,016	-0,005
-463,357	-96,232	-0,029	-0,006
-462,343	-61,814	-0,055	-0,017
-461,328	-165,319	0,065	-0,002
-460,313	-200,000	-0,008	-0,070
-459,299	-18,313	0,154	0,070
-458,284	-200,000	0,032	-0,111
-457,270	-200,000	-0,015	0,054
-456,255	-200,000	0,008	0,083
-455,241	-153,204	-0,142	-0,007
-454,226	-139,114	-0,142	0,011
-453,211	-168,777	0,096	-0,003
-452,197	-117,377	0,035	0,005
-451,182	179,978	-0,133	-0,142
-450,168	94,578	0,136	0,112
-449,153	-200,000	-0,019	-0,092
-448,138	122,329	0,063	0,057
-447,124	-73,027	-0,102	-0,027
-446,109	-200,000	0,011	-0,070
-445,095	-200,000	-0,029	0,224
-444,080	271,779	0,092	0,119
-443,065	-149,614	0,124	0,007
-442,051	139,829	-0,091	-0,087
-441,036	-200,000	-0,027	-0,123
-440,022	800,000	0,038	-0,112
-439,007	526,833	0,035	0,060
-437,992	800,000	-0,006	-0,016
-436,978	-115,264	0,090	-0,012
-435,963	29,884	-0,074	-0,046
-434,949	-77,150	-0,068	-0,017
-433,934	-43,600	-0,119	0,043
-432,919	800,000	-0,049	0,104
-431,905	677,093	0,023	-0,044
-430,890	-200,000	0,005	-0,025
-429,876	-200,000	0,003	0,049
-428,861	-3,349	-0,018	-0,009
-427,846	315,520	0,066	0,092
-426,832	800,000	0,026	-0,071
-425,817	-50,286	-0,089	-0,030
-424,803	-48,851	0,217	0,075
-423,788	83,776	-0,090	0,071
-422,773	59,163	0,090	0,064
-421,759	-42,941	0,012	-0,004
-420,744	364,631	0,019	0,027
-419,730	80,861	0,144	-0,113
-418,715	530,963	-0,064	-0,110
-417,701	-139,037	-0,038	-0,003
-416,686	156,323	0,086	0,086
-415,671	215,019	-0,099	0,115
-414,657	-200,000	0,014	0,070
-413,642	-200,000	-0,043	0,139
-412,628	-195,928	0,043	0,000
-411,613	-110,994	-0,112	-0,017
-410,598	-200,000	-0,006	-0,099
-409,584	-48,717	0,065	0,023
-408,569	99,237	0,030	0,026
-407,555	4,106	0,050	0,026
-406,540	800,000	0,059	0,152
-405,525	-37,396	-0,049	-0,019
-404,511	-200,000	0,005	0,084
-403,496	-69,930	-0,090	-0,025
-402,482	-135,882	0,140	0,012
-401,467	192,506	-0,069	0,076
-400,452	-65,099	0,053	0,016
-399,438	62,207	0,023	0,017
-398,423	-75,943	0,152	0,039
-397,409	150,420	0,074	0,073
-396,394	-200,000	0,035	0,131
-395,379	73,203	0,078	-0,059
-394,365	-145,090	0,075	0,005
-393,350	350,968	0,018	-0,025
-392,336	-53,387	-0,021	0,007
-391,321	15,954	-0,018	-0,010
-390,306	6,170	0,048	0,026
-389,292	-131,309	-0,029	-0,003
-388,277	-200,000	-0,009	-0,065
-387,263	68,506	-0,075	-0,056
-386,248	719,559	0,014	-0,027
-385,233	-200,000	-0,019	0,143
-384,219	-200,000	0,009	0,051
-383,204	-16,681	0,081	0,037
-382,190	71,723	-0,247	-0,187
-381,175	237,594	0,069	0,084
-380,160	241,187	0,057	0,069
-379,146	-200,000	-0,020	0,141
-378,131	261,948	0,030	0,037
-377,117	151,233	0,145	-0,143
-376,102	-1,778	-0,130	0,066
-375,088	-185,384	-0,036	-0,000
-374,073	-2,877	0,055	-0,028
-373,058	465,403	-0,053	0,086
-372,044	223,484	0,087	0,103
-371,029	-78,641	-0,084	-0,021
-370,015	40,287	-0,077	0,051
-369,000	-200,000	0,014	0,095
-367,985	-200,000	0,053	-0,174
-366,971	354,592	-0,009	0,013
-365,956	207,847	0,131	0,149
-364,942	-200,000	0,033	0,132
-363,927	-200,000	0,011	0,098
-362,912	471,769	-0,075	-0,124
-361,898	484,757	0,054	-0,090
-360,883	-90,958	0,026	0,005
-359,869	-77,637	-0,152	0,038
-358,854	-61,135	0,156	0,048
-357,839	-147,752	0,115	0,007
-356,825	800,000	0,046	0,139
-355,810	-200,000	0,004	-0,032
-354,796	-4,959	-0,144	0,072
-353,781	-86,482	-0,048	0,011
-352,766	800,000	-0,024	-0,052
-351,752	-152,519	0,099	0,005
-350,737	187,965	0,129	-0,140
-349,723	-200,000	0,021	-0,124
-348,708	800,000	-0,036	0,108
-347,693	-168,790	0,016	0,000
-346,679	61,264	0,035	0,025
-345,664	-117,688	0,099	0,013
-344,650	-40,672	-0,072	0,027
-343,635	126,673	-0,055	-0,051
-342,620	800,000	-0,062	0,183
-341,606	-74,093	0,128	-0,033
-340,591	9,118	-0,039	-0,021
-339,577	-200,000	-0,002	-0,021
-338,562	-200,000	-0,021	-0,096
-337,548	-196,476	0,091	-0,000
-336,533	111,323	0,086	0,075
-335,518	364,963	0,062	-0,090
-334,504	-200,000	-0,001	0,129
-333,489	46,490	-0,138	-0,093
-332,475	208,340	0,026	-0,030
-331,460	-68,326	0,015	0,004
-330,445	800,000	-0,036	0,115
-329,431	206,264	0,076	-0,086
-328,416	48,105	0,131	0,089
-327,402	127,590	0,047	0,043
-326,387	137,373	-0,120	0,114
-325,372	-200,000	0,009	0,213
-324,358	794,901	-0,082	-0,164
-323,343	-16,215	0,094	0,043
-322,329	-200,000	-0,003	0,025
-321,314	-200,000	-0,005	0,152
-320,299	-17,536	0,112	-0,051
-319,285	600,007	0,030	0,053
-318,270	32,769	-0,113	0,070
-317,256	-53,847	0,061	-0,020
-316,241	-93,359	0,192	-0,038
-315,226	40,843	-0,093	0,061
-314,212	644,136	0,095	-0,176
-313,197	-200,000	0,008	0,164
-312,183	-72,567	-0,087	-0,023
-311,168	-200,000	-0,005	-0,110
-310,153	-200,000	-0,007	-0,049
-309,139	226,090	-0,052	0,061
-308,124	579,251	0,048	0,085
-307,110	309,895	0,027	0,037
-306,095	-30,512	0,057	-0,023
-305,080	-93,287	-0,124	-0,025
-304,066	289,553	0,066	0,086
-303,051	128,946	-0,136	-0,126
-302,037	247,269	-0,056	0,068
-301,022	-94,135	0,087	-0,017
-300,008	37,834	-0,047	-0,030
-298,993	-200,000	0,001	0,035
-297,978	183,012	-0,088	-0,094
-296,964	-29,258	0,153	0,063
-295,949	204,024	-0,093	-0,105
-294,935	-33,177	-0,116	-0,046
-293,920	800,000	-0,018	0,041
-292,905	-86,686	0,125	0,027
-291,891	-200,000	0,018	0,155
-290,876	-200,000	0,012	0,050
-289,862	-200,000	0,013	-0,056
-288,847	679,191	0,042	-0,080
-287,832	-200,000	-0,000	-0,034
-286,818	-107,199	-0,172	0,027
-285,803	492,435	-0,028	0,047
-284,789	497,918	-0,083	0,138
-283,774	-200,000	0,000	-0,018
-282,759	-200,000	-0,028	-0,109
-281,745	118,198	-0,061	0,054
-280,730	-137,615	-0,071	0,006
-279,716	167,338	-0,113	0,116
-278,701	-110,644	0,138	0,020
-277,686	-200,000	-0,015	0,112
-276,672	-200,000	0,008	-0,088
-275,657	-90,556	0,128	0,027
-274,643	-97,722	-0,067	0,012
-273,628	310,568	-0,025	0,035
-272,613	-137,961	0,128	-0,010
-271,599	800,000	0,008	-0,024
-270,584	800,000	-0,045	0,100
-269,570	-200,000	0,003	-0,062
-268,555	138,293	0,053	0,051
-267,540	20,885	-0,047	0,027
-266,526	-200,000	-0,010	-0,119
-265,511	102,530	-0,098	-0,083
-264,497	113,140	0,124	-0,109
-263,482	-69,510	-0,056	-0,016
-262,467	800,000	0,028	0,072
-261,453	-200,000	-0,002	-0,046
-260,438	-140,480	-0,067	-0,005
-259,424	232,616	-0,041	-0,049
-258,409	365,659	-0,021	-0,030
-257,395	-200,000	-0,023	-0,165
-256,380	-153,491	0,182	-0,009
-255,365	29,677	0,080	0,049
-254,351	-200,000	-0,041	0,159
-253,336	59,632	0,063	0,045
-252,322	130,788	0,039	-0,036
-251,307	273,182	-0,031	0,039
-250,292	22,894	0,044	0,026
-249,278	-200,000	-0,024	0,227
-248,263	-200,000	0,005	0,138
-247,249	-97,768	-0,143	-0,026
-246,234	-12,521	-0,111	-0,052
-245,219	-200,000	-0,020	-0,070
-244,205	-200,000	-0,003	0,052
-243,190	61,699	-0,083	-0,060
-242,176	800,000	-0,060	0,134
-241,161	48,868	0,052	0,035
-240,146	-200,000	-0,003	0,225
-239,132	-1,553	0,064	0,032
-238,117	800,000	0,048	-0,120
-237,103	-45,555	-0,134	-0,048
-236,088	-75,526	0,139	0,036
-235,073	-120,857	0,086	0,010
-234,059	117,437	-0,051	-0,045
-233,044	800,000	0,030	-0,069
-232,030	53,948	-0,197	0,137
-231,015	800,000	-0,022	-0,054
-230,000	726,137	-0,014	0,027
-228,986	187,776	-0,075	-0,081
-227,971	60,308	0,066	-0,047
-226,957	-49,150	0,165	0,057
-225,942	-70,221	0,025	-0,007
-224,927	800,000	-0,024	-0,049
-223,913	282,038	0,016	0,020
-222,898	800,000	0,052	-0,105
-221,884	74,292	-0,061	-0,046
-220,869	65,280	-0,066	-0,048
-219,855	545,142	-0,016	0,028
-218,840	-48,086	-0,043	0,015
-217,825	92,852	0,019	0,016
-216,811	-200,000	-0,005	-0,318
-215,796	-63,698	-0,114	0,034
-214,782	-140,442	-0,144	-0,011
-213,767	-1,322	0,034	0,017
-212,752	-200,000	0,007	-0,107
-211,738	-200,000	0,002	-0,064
-210,723	-94,742	-0,075	0,015
-209,709	-137,093	0,093	0,008
-208,694	-200,000	-0,024	-0,103
-207,679	25,375	-0,064	-0,039
-206,665	225,517	-0,056	0,065
-205,650	393,031	0,107	-0,162
-204,636	124,941	0,085	0,077
-203,621	139,709	0,048	0,046
-202,606	752,237	0,024	0,047
-201,592	185,379	-0,127	-0,136
-200,577	-164,893	0,039	0,001
-199,563	193,485	-0,038	0,041
-198,548	-200,000	0,000	-0,112
-197,533	800,000	-0,011	-0,029
-196,519	3,990	0,041	-0,022
-195,504	-200,000	-0,046	-0,152
-194,490	-200,000	0,022	-0,098
-193,475	-2,998	-0,046	0,023
-192,460	-200,000	-0,015	-0,068
-191,446	-82,193	-0,076	0,018
-190,431	-107,961	0,118	-0,018
-189,417	-200,000	0,001	0,011
-188,402	305,445	0,029	0,039
-187,387	-80,547	-0,106	-0,025
-186,373	-200,000	-0,045	0,164
-185,358	-200,000	0,016	-0,103
-184,344	-193,309	0,165	0,001
-183,329	-3,408	0,132	-0,066
-182,315	-55,589	0,030	0,010
-181,300	-200,000	-0,012	-0,112
-180,285	699,086	0,062	-0,118
-179,271	308,333	-0,010	-0,013
-178,256	-200,000	0,022	0,090
-177,242	-200,000	-0,037	0,138
-176,227	-200,000	0,013	-0,110
-175,212	-16,248	0,130	-0,059
-174,198	-200,000	-0,012	0,088
-173,183	-113,794	-0,116	0,016
-172,169	-34,125	0,072	0,029
-171,154	41,589	-0,110	-0,071
-170,139	800,000	-0,055	-0,133
-169,125	-41,585	-0,102	0,037
-168,110	-200,000	-0,024	0,134
-167,096	-40,443	-0,108	-0,040
-166,081	45,764	0,070	-0,046
-165,066	800,000	0,024	-0,059
-164,052	-200,000	0,009	0,136
-163,037	-20,736	-0,053	-0,023
-162,023	99,164	0,091	-0,076
-161,008	-58,605	-0,134	0,041
-159,993	-59,494	0,084	-0,026
-158,979	-11,520	-0,089	-0,042
-157,964	-200,000	-0,004	-0,073
-156,950	-200,000	0,038	-0,161
-155,935	-200,000	-0,017	-0,155
-154,920	-200,000	0,016	0,059
-153,906	800,000	0,024	0,076
-152,891	24,196	0,126	0,075
-151,877	-200,000	0,007	0,070
-150,862	69,210	-0,087	0,064
-149,847	-200,000	0,029	0,094
-148,833	-200,000	-0,024	0,115
-147,818	800,000	0,078	0,173
-146,804	800,000	-0,076	0,156
-145,789	-200,000	0,010	-0,078
-144,775	50,809	0,048	0,033
-143,760	76,590	-0,133	0,101
-142,745	71,310	-0,074	-0,055
-141,731	80,064	0,067	-0,052
-140,716	800,000	-0,007	-0,015
-139,702	-200,000	0,065	0,000
-138,687	-200,000	-0,009	0,117
-137,672	-200,000	-0,025	0,150
-136,658	203,053	-0,123	-0,138
-135,643	-117,948	-0,073	-0,009
-134,629	130,060	0,149	0,137
-133,614	800,000	-0,074	0,186
-132,599	17,634	0,053	-0,030
-131,585	-200,000	-0,007	0,236
-130,570	-101,562	-0,174	-0,030
-129,556	-200,000	0,018	-0,066
-128,541	-24,309	-0,038	0,016
-127,526	86,332	-0,096	-0,076
-126,512	-12,406	-0,043	-0,020
-125,497	-57,917	0,099	0,031
-124,483	146,091	-0,080	-0,077
-123,468	7,180	0,096	-0,051
-122,453	152,745	-0,042	0,041
-121,439	-113,567	-0,030	-0,004
