DTS Sentinel unit serial number:	SN410029Multiplexer serial number:	ORYXHardware model number:	OX2-SRSoftware version number:	ORYX F/W v4,00 Oryx Data Collector v3.7.2.0data status	okinstallation	B6 Nyhavnadifferential loss correction	single-endedforward channel	channel 2reverse channel	N/Adate	2023/12/10time	23:20:08forward acquisition time	300,00reverse acquisition time	0,00gamma	499,1914k internal	0,3122k external	0,3122temperature offset calibration	1,0000default loss term (dB/km)	0,3820temperature slope calibration	1,0000multiplexer offset coefficient	1,0000multiplexer slope coefficient	1,0000fibre end	0,00T internal ref (°C)	22,39T ext. ref 1 (°C)	6,08T ext. ref 2 (°C)	6,09length (m)	temperature (°C)	Stokes	anti-Stokes-744,400	-200,000	-0,026	-0,089
-743,385	-180,493	-0,290	0,004
-742,371	-200,000	0,012	0,100
-741,356	90,181	-0,276	0,230
-740,342	432,077	0,060	0,098
-739,327	-6,048	-0,167	0,085
-738,312	-200,000	0,000	-0,033
-737,298	-83,708	-0,253	0,060
-736,283	-141,874	-0,054	0,004
-735,269	255,099	-0,108	0,138
-734,254	211,637	-0,039	0,045
-733,239	-84,815	-0,495	-0,115
-732,225	-178,117	0,200	0,003
-731,210	-125,606	0,021	-0,002
-730,196	496,364	0,017	0,029
-729,181	-200,000	-0,021	0,070
-728,167	800,000	0,025	0,077
-727,152	-31,577	-0,099	-0,041
-726,137	-200,000	-0,013	0,060
-725,123	76,755	0,008	-0,006
-724,108	800,000	-0,056	-0,118
-723,094	415,992	0,039	-0,062
-722,079	324,498	-0,045	0,064
-721,064	800,000	-0,014	0,044
-720,050	-200,000	0,013	-0,086
-719,035	169,925	-0,068	-0,072
-718,021	138,788	-0,094	0,092
-717,006	-200,000	-0,003	0,070
-715,991	-200,000	-0,024	-0,097
-714,977	19,137	0,126	-0,075
-713,962	-44,619	-0,170	0,063
-712,948	509,578	-0,079	0,138
-711,933	-20,992	-0,053	-0,024
-710,918	406,789	0,061	0,097
-709,904	103,063	-0,084	0,073
-708,889	-200,000	-0,007	-0,053
-707,875	247,658	-0,111	-0,139
-706,860	2,100	0,023	-0,012
-705,845	53,335	-0,006	-0,004
-704,831	768,241	-0,039	0,079
-703,816	-42,226	-0,120	0,045
-702,802	211,445	0,025	0,030
-701,787	-175,298	0,098	-0,002
-700,772	-8,700	0,022	0,011
-699,758	-200,000	0,025	0,102
-698,743	-92,022	0,050	-0,010
-697,729	-200,000	0,026	0,114
-696,714	-168,781	0,206	0,006
-695,699	56,685	0,035	0,025
-694,685	-31,429	-0,076	-0,032
-693,670	35,679	-0,027	0,018
-692,656	-138,844	0,060	-0,005
-691,641	-32,537	-0,101	-0,042
-690,627	-137,410	0,077	0,006
-689,612	79,963	0,056	0,045
-688,597	-115,542	-0,017	-0,002
-687,583	292,643	-0,131	-0,178
-686,568	83,295	-0,093	-0,076
-685,554	245,199	-0,082	0,103
-684,539	-200,000	-0,002	0,053
-683,524	61,681	-0,041	-0,030
-682,510	783,074	-0,045	0,092
-681,495	-200,000	-0,006	0,079
-680,481	297,621	-0,061	0,084
-679,466	-86,605	-0,146	-0,033
-678,451	-56,006	-0,012	0,004
-677,437	-200,000	-0,013	-0,088
-676,422	800,000	-0,068	0,147
-675,408	-200,000	0,011	-0,052
-674,393	-84,480	0,144	0,034
-673,378	-105,819	-0,035	0,006
-672,364	-163,244	-0,243	-0,008
-671,349	800,000	0,017	0,048
-670,335	257,090	-0,094	-0,120
-669,320	140,953	0,070	-0,069
-668,305	-200,000	-0,045	0,000
-667,291	-200,000	0,056	0,199
-666,276	-200,000	-0,015	-0,112
-665,262	-46,264	-0,007	-0,003
-664,247	5,199	-0,077	0,042
-663,232	-54,153	-0,018	-0,006
-662,218	-187,986	0,158	-0,001
-661,203	230,774	-0,122	0,149
-660,189	-56,671	-0,110	0,036
-659,174	-34,787	0,093	-0,037
-658,159	-21,936	-0,145	0,065
-657,145	-100,102	-0,204	0,037
-656,130	365,283	0,054	-0,081
-655,116	800,000	0,032	-0,070
-654,101	-136,589	0,048	-0,004
-653,086	-178,835	-0,038	0,001
-652,072	268,617	-0,029	0,037
-651,057	103,592	0,054	0,047
-650,043	175,007	-0,033	-0,035
-649,028	-5,749	0,063	-0,032
-648,014	397,416	0,020	-0,031
-646,999	800,000	-0,015	0,043
-645,984	800,000	0,021	0,047
-644,970	683,979	-0,043	-0,083
-643,955	27,549	-0,122	-0,076
-642,941	549,055	0,021	-0,037
-641,926	517,164	0,048	-0,084
-640,911	-84,005	-0,078	0,018
-639,897	336,820	-0,037	0,053
-638,882	479,676	-0,067	0,112
-637,868	62,551	-0,056	-0,042
-636,853	-200,000	-0,025	0,117
-635,838	17,650	-0,051	-0,030
-634,824	140,540	-0,011	-0,011
-633,809	636,603	-0,032	0,060
-632,795	-13,876	0,077	0,037
-631,780	-200,000	0,000	0,106
-630,765	72,555	-0,028	0,021
-629,751	800,000	-0,042	0,093
-628,736	525,813	-0,085	-0,149
-627,722	-109,159	0,010	-0,002
-626,707	-154,916	0,164	0,008
-625,692	533,281	0,045	0,080
-624,678	800,000	0,030	0,072
-623,663	29,143	-0,064	0,040
-622,649	-134,974	-0,152	-0,013
-621,634	547,260	-0,026	0,046
-620,619	53,729	0,058	0,041
-619,605	313,809	-0,026	0,036
-618,590	800,000	0,088	0,183
-617,576	75,201	0,023	0,018
-616,561	-200,000	-0,003	0,030
-615,546	-200,000	0,001	-0,050
-614,532	-200,000	-0,090	-0,000
-613,517	-200,000	-0,031	0,110
-612,503	800,000	0,037	0,100
-611,488	702,312	-0,003	-0,006
-610,474	-166,227	0,078	-0,002
-609,459	-200,000	0,014	-0,046
-608,444	134,106	-0,084	-0,080
-607,430	-200,000	0,022	-0,085
-606,415	-200,000	0,003	-0,027
-605,401	-200,000	-0,015	0,054
-604,386	-200,000	0,034	0,199
-603,371	-47,811	0,038	0,014
-602,357	212,373	-0,090	-0,106
-601,342	-65,296	0,045	0,013
-600,328	380,151	-0,078	-0,119
-599,313	-200,000	0,018	-0,059
-598,298	-47,909	-0,022	-0,008
-597,284	-15,706	0,071	-0,034
-596,269	614,554	0,030	-0,056
-595,255	8,608	-0,147	0,082
-594,240	-91,026	-0,110	-0,023
-593,225	-43,150	0,076	0,028
-592,211	84,559	-0,114	-0,092
-591,196	-37,473	-0,043	0,017
-590,182	-1,431	-0,019	0,010
-589,167	-136,941	-0,100	0,008
-588,152	142,630	-0,052	0,051
-587,138	-85,608	0,123	-0,028
-586,123	-28,990	-0,050	0,021
-585,109	631,566	-0,016	0,030
-584,094	800,000	0,039	-0,082
-583,079	434,488	-0,061	-0,098
-582,065	700,488	0,034	-0,066
-581,050	800,000	-0,022	0,052
-580,036	-103,135	-0,144	-0,025
-579,021	-80,427	-0,045	0,011
-578,006	64,024	-0,069	-0,052
-576,992	-183,015	0,072	-0,001
-575,977	800,000	-0,052	0,138
-574,963	-200,000	-0,001	0,128
-573,948	800,000	0,001	-0,003
-572,934	-151,575	0,075	0,004
-571,919	-200,000	-0,003	-0,118
-570,904	-122,423	0,055	-0,007
-569,890	-200,000	0,002	0,061
-568,875	464,056	0,022	0,037
-567,861	12,714	0,105	0,060
-566,846	800,000	-0,017	0,043
-565,831	207,273	0,005	0,006
-564,817	-44,350	0,107	0,039
-563,802	-24,034	-0,053	-0,023
-562,788	-6,683	-0,074	-0,037
-561,773	-200,000	0,033	-0,144
-560,758	-200,000	0,017	-0,112
-559,744	-141,277	-0,166	-0,012
-558,729	-193,909	0,011	0,000
-557,715	685,555	-0,058	-0,112
-556,700	-83,565	-0,066	-0,015
-555,685	800,000	-0,017	-0,049
-554,671	57,810	-0,021	-0,015
-553,656	-54,801	0,016	-0,005
-552,642	689,450	0,059	0,116
-551,627	-66,819	0,041	0,012
-550,612	-200,000	0,005	-0,158
-549,598	-200,000	0,007	-0,070
-548,583	26,302	0,079	0,049
-547,569	-200,000	0,003	0,050
-546,554	541,047	-0,020	-0,035
-545,539	-102,613	0,144	0,025
-544,525	-200,000	-0,030	0,109
-543,510	-115,999	0,212	-0,029
-542,496	45,428	-0,061	-0,041
-541,481	7,669	-0,122	0,067
-540,466	800,000	0,024	-0,052
-539,452	293,466	-0,027	-0,036
-538,437	220,382	0,045	0,053
-537,423	800,000	0,043	0,107
-536,408	1,670	-0,081	0,043
-535,393	800,000	0,021	0,048
-534,379	-200,000	0,007	-0,055
-533,364	-200,000	-0,005	-0,031
-532,350	800,000	0,051	-0,155
-531,335	269,855	-0,077	-0,101
-530,321	-123,802	0,083	0,010
-529,306	156,694	-0,053	0,054
-528,291	-18,263	-0,082	-0,038
-527,277	-200,000	0,009	0,111
-526,262	800,000	0,020	0,055
-525,248	157,560	-0,079	0,081
-524,233	237,208	-0,030	0,037
-523,218	-48,430	-0,055	0,019
-522,204	140,871	-0,128	-0,125
-521,189	-200,000	-0,007	0,035
-520,175	-200,000	-0,015	-0,084
-519,160	-60,731	0,056	0,017
-518,145	-120,605	0,050	0,006
-517,131	-200,000	-0,002	-0,076
-516,116	-200,000	-0,029	0,201
-515,102	-200,000	-0,030	0,108
-514,087	20,185	-0,086	-0,051
-513,072	-200,000	0,017	-0,055
-512,058	-200,000	0,020	-0,117
-511,043	-98,535	0,102	-0,019
-510,029	354,085	0,066	0,097
-509,014	243,177	0,057	0,071
-507,999	-200,000	-0,011	-0,146
-506,985	-200,000	-0,013	-0,065
-505,970	433,385	-0,095	-0,153
-504,956	-128,884	-0,089	0,009
-503,941	276,603	-0,030	0,040
-502,926	800,000	0,092	0,217
-501,912	121,714	0,042	0,038
-500,897	-200,000	-0,003	-0,039
-499,883	-91,462	0,058	0,012
-498,868	800,000	0,027	-0,084
-497,853	-92,029	-0,089	0,018
-496,839	151,926	-0,082	0,083
-495,824	-200,000	-0,001	0,095
-494,810	384,803	0,071	0,108
-493,795	800,000	0,020	-0,048
-492,781	228,284	0,056	-0,068
-491,766	84,215	-0,080	-0,065
-490,751	-200,000	-0,010	-0,039
-489,737	-111,673	0,088	0,013
-488,722	136,934	0,019	0,018
-487,708	26,736	0,112	-0,069
-486,693	248,962	-0,028	-0,035
-485,678	-84,654	-0,170	0,039
-484,664	-200,000	0,025	-0,198
-483,649	689,425	0,034	-0,066
-482,635	688,227	-0,023	-0,045
-481,620	-200,000	0,009	-0,105
-480,605	800,000	0,049	-0,127
-479,591	800,000	0,013	-0,032
-478,576	-21,938	0,050	0,022
-477,562	800,000	0,033	0,078
-476,547	105,094	-0,033	-0,028
-475,532	70,739	-0,039	-0,029
-474,518	-51,472	0,105	-0,036
-473,503	-159,883	-0,053	-0,002
-472,489	448,149	0,084	-0,137
-471,474	-46,138	0,083	0,030
-470,459	800,000	0,038	0,121
-469,445	-45,805	0,015	-0,005
-468,430	664,476	0,050	-0,096
-467,416	-126,083	-0,120	0,013
-466,401	-200,000	0,015	0,074
-465,386	-200,000	-0,024	0,154
-464,372	-10,867	-0,016	0,008
-463,357	-133,354	0,188	0,017
-462,343	-55,084	0,049	-0,016
-461,328	-105,786	0,031	-0,005
-460,313	25,934	0,051	-0,031
-459,299	-200,000	-0,009	-0,077
-458,284	-56,165	0,104	-0,034
-457,270	-119,076	0,039	-0,005
-456,255	-157,855	0,030	0,001
-455,241	-200,000	0,029	-0,147
-454,226	-200,000	0,003	-0,047
-453,211	-49,818	-0,062	-0,022
-452,197	-46,682	0,026	0,009
-451,182	-200,000	0,025	0,097
-450,168	800,000	-0,033	0,091
-449,153	800,000	-0,038	0,118
-448,138	-58,611	-0,139	-0,044
-447,124	497,304	0,040	0,068
-446,109	617,064	0,078	0,145
-445,095	242,219	0,038	0,047
-444,080	-197,231	0,045	0,000
-443,065	800,000	0,053	-0,166
-442,051	-68,389	0,049	-0,014
-441,036	139,913	0,180	0,175
-440,022	12,289	-0,118	0,067
-439,007	396,788	-0,069	-0,106
-437,992	800,000	-0,063	-0,130
-436,978	5,891	0,051	-0,028
-435,963	-100,411	0,060	0,011
-434,949	19,082	0,025	0,015
-433,934	159,933	-0,063	0,064
-432,919	-6,157	-0,090	0,045
-431,905	355,365	-0,029	-0,042
-430,890	-200,000	0,012	0,137
-429,876	-81,652	0,116	-0,028
-428,861	-200,000	-0,025	0,121
-427,846	-126,100	0,106	-0,012
-426,832	491,055	-0,004	0,006
-425,817	-95,618	-0,140	0,027
-424,803	373,377	0,016	0,024
-423,788	54,169	-0,047	-0,033
-422,773	-23,571	-0,063	-0,028
-421,759	-200,000	-0,003	-0,097
-420,744	111,263	-0,031	0,027
-419,730	-86,764	0,106	-0,024
-418,715	30,007	0,102	-0,064
-417,701	-200,000	0,003	-0,108
-416,686	182,414	-0,054	-0,059
-415,671	-32,310	0,162	0,066
-414,657	800,000	-0,036	0,079
-413,642	400,046	-0,065	0,101
-412,628	17,787	-0,044	0,026
-411,613	71,922	-0,066	-0,050
-410,598	-200,000	0,060	-0,228
-409,584	-121,522	-0,048	-0,006
-408,569	367,794	0,017	-0,026
-407,555	-59,223	-0,115	0,036
-406,540	-200,000	-0,010	-0,181
-405,525	237,204	0,061	-0,075
-404,511	-200,000	0,008	-0,157
-403,496	-200,000	0,029	0,097
-402,482	-200,000	-0,004	0,056
-401,467	-133,125	0,046	0,004
-400,452	69,299	-0,046	0,035
-399,438	-200,000	0,002	0,009
-398,423	-200,000	-0,019	-0,065
-397,409	-200,000	-0,017	-0,164
-396,394	-200,000	-0,022	-0,085
-395,379	-200,000	0,016	0,143
-394,365	145,183	0,036	-0,035
-393,350	800,000	-0,061	0,162
-392,336	-200,000	0,021	0,108
-391,321	-158,503	-0,060	-0,002
-390,306	-95,114	-0,068	0,013
-389,292	14,890	0,122	-0,070
-388,277	187,675	-0,086	0,095
-387,263	-41,413	-0,055	0,021
-386,248	-200,000	-0,038	0,153
-385,233	-200,000	0,035	0,180
-384,219	-200,000	0,003	0,034
-383,204	-87,908	0,085	-0,019
-382,190	477,381	-0,105	-0,175
-381,175	-200,000	0,002	-0,091
-380,160	800,000	-0,030	0,074
-379,146	800,000	0,053	-0,131
-378,131	-59,275	-0,021	0,007
-377,117	-200,000	-0,046	-0,167
-376,102	-200,000	-0,035	-0,166
-375,088	800,000	0,053	0,128
-374,073	-40,847	-0,024	0,009
-373,058	-155,340	0,073	0,003
-372,044	331,918	-0,048	0,068
-371,029	-200,000	-0,003	0,046
-370,015	-200,000	0,006	0,088
-369,000	310,970	0,031	0,042
-367,985	-124,229	-0,063	0,007
-366,971	17,501	-0,105	0,061
-365,956	-25,049	-0,031	-0,013
-364,942	-45,080	0,014	-0,005
-363,927	-52,054	0,099	-0,034
-362,912	45,251	-0,038	-0,026
-361,898	800,000	0,067	-0,190
-360,883	800,000	-0,058	-0,143
-359,869	130,438	-0,101	-0,095
-358,854	-101,715	0,130	-0,023
-357,839	385,442	-0,041	0,062
-356,825	190,449	-0,047	-0,052
-355,810	475,525	0,028	-0,047
-354,796	-159,058	-0,074	0,003
-353,781	13,080	-0,097	-0,055
-352,766	800,000	0,006	0,016
-351,752	774,388	-0,072	0,144
-350,737	52,264	-0,074	-0,052
-349,723	-94,908	0,057	0,011
-348,708	433,355	0,017	-0,027
-347,693	-200,000	-0,021	-0,203
-346,679	800,000	-0,030	-0,065
-345,664	66,088	0,114	-0,085
-344,650	608,858	-0,041	0,075
-343,635	-200,000	0,013	0,172
-342,620	176,225	-0,031	-0,033
-341,606	-186,922	0,170	-0,002
-340,591	150,223	-0,065	-0,065
-339,577	434,073	-0,068	-0,108
-338,562	428,636	-0,059	-0,093
-337,548	800,000	-0,065	0,134
-336,533	14,880	0,107	0,061
-335,518	-66,961	0,044	-0,013
-334,504	-98,344	0,051	-0,010
-333,489	-200,000	-0,002	0,038
-332,475	-200,000	-0,008	0,083
-331,460	-103,773	0,115	0,020
-330,445	770,465	0,028	0,057
-329,431	110,725	-0,030	0,027
-328,416	156,172	0,094	0,095
-327,402	360,945	0,064	-0,095
-326,387	-43,515	-0,031	0,012
-325,372	-138,694	-0,046	-0,004
-324,358	-80,361	0,049	0,012
-323,343	800,000	0,012	-0,037
-322,329	44,745	-0,013	0,009
-321,314	-200,000	0,045	0,149
-320,299	-200,000	0,003	0,069
-319,285	-200,000	0,017	0,092
-318,270	763,950	0,009	0,018
-317,256	80,040	-0,057	0,045
-316,241	-200,000	0,000	-0,080
-315,226	-64,530	0,072	-0,021
-314,212	108,830	0,081	0,071
-313,197	93,253	0,049	0,041
-312,183	-116,957	-0,018	0,002
-311,168	800,000	-0,054	-0,171
-310,153	34,525	-0,106	-0,068
-309,139	800,000	-0,035	-0,074
-308,124	-55,064	-0,088	-0,029
-307,110	396,218	-0,070	0,107
-306,095	800,000	0,045	0,098
-305,080	22,713	0,040	0,024
-304,066	-85,797	0,157	0,035
-303,051	63,748	-0,106	-0,078
-302,037	261,699	-0,116	0,148
-301,022	-200,000	-0,018	-0,091
-300,008	125,399	-0,059	-0,054
-298,993	-200,000	0,070	0,268
-297,978	128,781	-0,016	-0,015
-296,964	65,020	0,102	-0,076
-295,949	-200,000	-0,006	-0,083
-294,935	15,826	0,090	-0,052
-293,920	-36,265	-0,024	-0,010
-292,905	250,210	0,071	0,089
-291,891	483,836	-0,084	0,140
-290,876	-200,000	-0,000	-0,080
-289,862	-173,647	0,031	-0,001
-288,847	35,157	0,135	-0,086
-287,832	-200,000	0,003	0,027
-286,818	-54,412	-0,093	-0,031
-285,803	-154,101	0,135	-0,007
-284,789	-83,927	-0,056	0,013
-283,774	77,699	-0,023	0,018
-282,759	-200,000	-0,004	-0,085
-281,745	-14,159	-0,056	-0,027
-280,730	-200,000	0,022	-0,232
-279,716	-200,000	0,011	0,053
-278,701	172,923	-0,085	0,090
-277,686	-200,000	0,007	0,142
-276,672	169,577	-0,014	0,015
-275,657	800,000	0,038	0,099
-274,643	89,103	-0,046	0,038
-273,628	800,000	-0,020	0,043
-272,613	-9,424	-0,025	-0,012
-271,599	-2,026	0,042	0,021
-270,584	-195,372	0,049	0,000
-269,570	154,645	-0,071	-0,071
-268,555	125,147	-0,096	0,089
-267,540	43,605	-0,048	-0,032
-266,526	-136,257	0,084	0,007
-265,511	-200,000	-0,003	0,010
-264,497	800,000	-0,039	0,096
-263,482	18,603	0,024	-0,014
-262,467	179,242	0,080	-0,085
-261,453	-200,000	-0,023	0,098
-260,438	-161,028	-0,202	0,008
-259,424	429,291	0,063	-0,101
-258,409	278,214	0,097	0,127
-257,395	67,917	-0,030	0,022
-256,380	800,000	0,037	-0,099
-255,365	321,886	-0,028	0,040
-254,351	-200,000	0,028	0,184
-253,336	-18,578	0,045	-0,020
-252,322	19,274	0,024	-0,014
-251,307	-7,415	0,139	-0,068
-250,292	88,696	0,142	0,115
-249,278	-124,325	0,105	0,012
-248,263	82,626	0,083	0,066
-247,249	449,740	0,059	0,096
-246,234	800,000	0,067	0,147
-245,219	117,937	-0,039	-0,035
-244,205	800,000	0,024	-0,057
-243,190	800,000	-0,020	-0,060
-242,176	800,000	-0,023	0,065
-241,161	-26,690	-0,084	-0,036
-240,146	755,881	0,043	0,084
-239,132	75,172	0,027	-0,021
-238,117	367,599	0,021	0,031
-237,103	-106,656	-0,139	0,022
-236,088	9,618	0,040	-0,022
-235,073	-81,125	0,139	-0,033
-234,059	800,000	-0,027	0,083
-233,044	399,277	0,072	0,110
-232,030	-200,000	0,001	-0,055
-231,015	109,392	-0,033	0,029
-230,000	241,038	-0,065	0,080
-228,986	23,838	0,099	-0,060
-227,971	57,823	0,060	-0,043
-226,957	-62,513	0,110	-0,033
-225,942	520,296	0,068	-0,117
-224,927	48,025	-0,117	-0,080
-223,913	-130,852	-0,061	-0,006
-222,898	54,901	-0,071	-0,050
-221,884	-90,936	-0,038	0,008
-220,869	116,975	0,062	-0,055
-219,855	626,150	-0,031	0,058
-218,840	-200,000	-0,000	-0,049
-217,825	800,000	-0,053	-0,110
-216,811	-95,647	0,053	0,010
-215,796	269,162	0,080	-0,102
-214,782	-200,000	0,005	-0,019
-213,767	76,208	0,120	-0,093
-212,752	106,691	-0,034	0,030
-211,738	402,188	0,040	0,062
-210,723	-48,005	-0,077	-0,027
-209,709	800,000	-0,013	0,035
-208,694	139,991	0,047	0,045
-207,679	800,000	-0,027	0,063
-206,665	86,248	0,046	-0,037
-205,650	196,781	0,062	-0,069
-204,636	-200,000	-0,016	0,055
-203,621	-40,446	-0,088	0,033
-202,606	214,466	-0,024	0,028
-201,592	-76,581	-0,157	-0,040
-200,577	800,000	-0,019	-0,048
-199,563	54,670	0,011	0,007
-198,548	-46,899	-0,031	0,011
-197,533	141,708	-0,012	-0,012
-196,519	800,000	-0,009	0,028
-195,504	-200,000	0,008	0,033
-194,490	800,000	-0,059	0,124
-193,475	-0,793	-0,089	0,046
-192,460	-200,000	-0,019	0,110
-191,446	-200,000	0,001	0,113
-190,431	19,071	-0,065	-0,038
-189,417	251,428	0,067	0,083
-188,402	91,534	0,108	-0,089
-187,387	-134,285	-0,191	0,017
-186,373	183,454	-0,106	0,114
-185,358	-56,950	0,070	-0,022
-184,344	34,816	0,068	0,043
-183,329	774,441	0,071	0,141
-182,315	800,000	-0,015	-0,040
-181,300	255,521	-0,078	-0,098
-180,285	9,790	-0,039	0,022
-179,271	-200,000	0,018	0,093
-178,256	800,000	0,055	-0,128
-177,242	-25,990	-0,113	0,048
-176,227	156,452	0,047	-0,047
-175,212	302,405	0,038	-0,051
-174,198	-12,316	-0,123	-0,058
-173,183	445,001	0,090	-0,144
-172,169	532,730	-0,060	-0,104
-171,154	-200,000	-0,004	-0,101
-170,139	-200,000	-0,003	0,058
-169,125	86,533	-0,098	-0,078
-168,110	54,731	0,063	0,045
-167,096	356,708	0,026	-0,038
-166,081	-200,000	-0,008	-0,054
-165,066	179,852	0,090	0,096
-164,052	-200,000	-0,006	-0,045
-163,037	157,766	0,051	-0,051
-162,023	-40,095	-0,068	0,026
-161,008	-105,649	0,105	-0,017
-159,993	671,708	0,025	0,048
-158,979	92,298	-0,033	0,027
-157,964	-200,000	0,012	-0,106
-156,950	-200,000	0,011	-0,137
-155,935	-76,776	0,063	0,016
-154,920	-150,602	0,033	-0,002
-153,906	385,467	-0,024	0,036
-152,891	-54,426	-0,059	0,019
-151,877	-200,000	0,009	-0,073
-150,862	82,749	-0,017	-0,014
-149,847	-200,000	0,055	-0,185
-148,833	481,604	0,047	-0,078
-147,818	49,333	-0,120	-0,082
-146,804	218,364	-0,110	0,128
-145,789	-200,000	-0,016	0,066
-144,775	-200,000	-0,030	0,128
-143,760	272,511	-0,050	0,065
-142,745	230,352	-0,031	-0,037
-141,731	-200,000	0,016	0,111
-140,716	65,891	0,110	0,081
-139,702	261,313	-0,070	0,088
-138,687	-166,419	-0,125	-0,004
-137,672	27,908	-0,056	0,034
-136,658	-64,497	0,080	0,023
-135,643	-200,000	-0,040	-0,161
-134,629	58,032	-0,014	0,010
-133,614	-200,000	-0,015	0,067
-132,599	18,846	0,113	0,066
-131,585	595,572	0,040	0,072
-130,570	116,538	-0,124	-0,110
-129,556	136,751	-0,053	0,051
-128,541	-56,312	0,142	0,046
-127,526	-101,919	0,109	0,019
-126,512	65,817	0,020	-0,015
-125,497	86,801	0,124	-0,099
-124,483	4,079	-0,029	0,015
-123,468	-200,000	0,035	0,117
-122,453	152,775	-0,107	-0,107
-121,439	-200,000	-0,008	0,057
-120,424	-153,612	-0,015	-0,001
-119,410	193,375	0,053	0,058
