DTS Sentinel unit serial number:	SN410029Multiplexer serial number:	ORYXHardware model number:	OX2-SRSoftware version number:	ORYX F/W v4,00 Oryx Data Collector v3.7.2.0data status	okinstallation	B6 Nyhavnadifferential loss correction	single-endedforward channel	channel 2reverse channel	N/Adate	2023/12/10time	12:40:08forward acquisition time	300,00reverse acquisition time	0,00gamma	499,1914k internal	0,3123k external	0,3123temperature offset calibration	1,0000default loss term (dB/km)	0,3820temperature slope calibration	1,0000multiplexer offset coefficient	1,0000multiplexer slope coefficient	1,0000fibre end	0,00T internal ref (°C)	22,80T ext. ref 1 (°C)	6,59T ext. ref 2 (°C)	6,61length (m)	temperature (°C)	Stokes	anti-Stokes-744,400	-200,000	0,008	-0,041
-743,385	-85,411	-0,257	0,059
-742,371	8,410	0,159	0,089
-741,356	94,868	-0,082	0,069
-740,342	9,475	0,038	-0,021
-739,327	-82,608	-0,203	0,049
-738,312	800,000	-0,050	-0,111
-737,298	-39,219	-0,278	0,108
-736,283	-9,165	0,119	-0,059
-735,269	-46,916	-0,300	0,109
-734,254	-187,742	0,063	-0,001
-733,239	-186,260	-0,330	0,003
-732,225	98,254	0,076	0,065
-731,210	211,913	-0,102	0,120
-730,196	-200,000	0,001	-0,171
-729,181	-200,000	-0,012	0,057
-728,167	-101,586	-0,063	-0,011
-727,152	-77,833	-0,115	0,029
-726,137	-200,000	-0,030	-0,186
-725,123	742,321	-0,035	0,071
-724,108	-98,334	-0,057	0,011
-723,094	-200,000	-0,009	-0,109
-722,079	800,000	0,039	-0,125
-721,064	91,114	0,020	-0,017
-720,050	549,366	-0,013	0,024
-719,035	-69,349	-0,080	0,023
-718,021	-28,583	-0,033	-0,014
-717,006	192,401	-0,126	-0,142
-715,991	-101,761	-0,066	-0,012
-714,977	233,426	0,007	0,009
-713,962	-46,601	-0,069	-0,025
-712,948	-130,020	0,044	0,004
-711,933	50,158	0,070	-0,049
-710,918	166,706	-0,049	0,051
-709,904	86,579	-0,093	-0,077
-708,889	32,577	-0,122	0,078
-707,875	73,807	-0,015	-0,011
-706,860	179,210	-0,059	0,065
-705,845	647,623	-0,031	-0,059
-704,831	800,000	-0,015	0,049
-703,816	47,042	0,081	0,056
-702,802	-120,787	0,049	0,006
-701,787	-200,000	-0,022	-0,080
-700,772	800,000	-0,010	-0,027
-699,758	-200,000	-0,028	0,176
-698,743	88,977	-0,087	0,072
-697,729	-50,792	-0,107	0,037
-696,714	-200,000	-0,008	-0,061
-695,699	-93,916	-0,098	0,020
-694,685	-200,000	-0,005	-0,065
-693,670	207,176	0,061	0,070
-692,656	294,605	-0,095	-0,130
-691,641	-9,533	0,063	-0,031
-690,627	-116,369	-0,042	0,006
-689,612	176,616	-0,106	0,115
-688,597	-182,607	0,088	-0,001
-687,583	-24,144	0,112	-0,050
-686,568	-200,000	0,009	-0,067
-685,554	800,000	-0,029	-0,071
-684,539	-9,860	0,095	0,047
-683,524	17,454	-0,073	0,043
-682,510	-200,000	0,037	-0,128
-681,495	-200,000	-0,021	-0,097
-680,481	-200,000	0,003	0,039
-679,466	330,547	0,108	-0,155
-678,451	132,378	-0,023	-0,022
-677,437	87,046	-0,036	0,030
-676,422	-200,000	-0,003	0,026
-675,408	189,812	-0,058	0,065
-674,393	-200,000	0,042	0,154
-673,378	2,593	-0,036	-0,019
-672,364	800,000	0,015	0,043
-671,349	258,829	-0,052	0,066
-670,335	184,033	0,106	0,117
-669,320	-121,502	0,153	0,019
-668,305	-86,881	0,145	-0,033
-667,291	-55,590	0,099	-0,033
-666,276	-200,000	-0,011	-0,159
-665,262	-200,000	-0,013	-0,074
-664,247	-112,617	0,064	0,009
-663,232	0,332	-0,063	-0,033
-662,218	-1,053	0,131	0,068
-661,203	221,110	-0,045	0,054
-660,189	-200,000	0,012	-0,117
-659,174	-200,000	-0,025	-0,090
-658,159	-64,120	-0,015	0,004
-657,145	-78,555	0,069	-0,017
-656,130	290,816	0,034	-0,046
-655,116	800,000	-0,049	-0,103
-654,101	347,043	0,056	0,083
-653,086	175,036	0,101	0,109
-652,072	-132,340	-0,029	0,003
-651,057	126,522	0,082	-0,077
-650,043	-200,000	0,001	-0,093
-649,028	625,550	0,043	-0,082
-648,014	-200,000	-0,004	-0,013
-646,999	65,198	0,046	0,035
-645,984	-200,000	0,018	0,097
-644,970	311,019	-0,018	-0,024
-643,955	-20,682	-0,224	0,102
-642,941	16,886	-0,064	0,038
-641,926	-200,000	0,000	0,146
-640,911	-200,000	0,001	-0,070
-639,897	-200,000	-0,007	0,061
-638,882	397,651	-0,060	0,093
-637,868	-98,200	-0,070	0,013
-636,853	-73,649	-0,106	0,028
-635,838	720,378	-0,054	-0,107
-634,824	469,976	0,056	-0,094
-633,809	-69,122	0,109	0,031
-632,795	8,498	-0,103	0,057
-631,780	-111,263	0,119	0,018
-630,765	-117,426	-0,044	-0,006
-629,751	-18,901	-0,092	-0,042
-628,736	-163,991	-0,094	-0,003
-627,722	800,000	-0,050	-0,110
-626,707	800,000	0,018	-0,056
-625,692	800,000	0,050	0,122
-624,678	56,523	-0,048	-0,035
-623,663	305,221	-0,040	-0,055
-622,649	197,751	-0,067	-0,076
-621,634	-82,458	0,111	-0,026
-620,619	245,829	-0,008	0,010
-619,605	-19,569	-0,039	0,018
-618,590	-129,943	0,083	0,008
-617,576	-200,000	0,029	0,103
-616,561	150,016	-0,051	-0,051
-615,546	-178,418	0,052	0,001
-614,532	708,294	-0,033	-0,064
-613,517	76,785	0,157	0,124
-612,503	-110,012	0,023	0,004
-611,488	-200,000	-0,037	0,148
-610,474	623,276	-0,046	-0,087
-609,459	108,633	0,190	0,168
-608,444	458,232	-0,025	-0,041
-607,430	800,000	0,047	-0,136
-606,415	-183,999	0,111	0,001
-605,401	141,652	-0,080	-0,078
-604,386	-19,162	-0,066	-0,030
-603,371	-49,078	0,145	0,051
-602,357	-37,665	0,093	0,036
-601,342	-114,815	-0,107	-0,015
-600,328	-58,849	-0,113	0,036
-599,313	-77,846	0,080	-0,020
-598,298	186,523	-0,036	-0,040
-597,284	506,280	0,002	0,004
-596,269	149,465	-0,097	0,098
-595,255	207,488	-0,053	0,061
-594,240	-54,513	-0,040	-0,013
-593,225	426,103	-0,095	-0,152
-592,211	380,340	0,061	-0,093
-591,196	60,989	-0,109	-0,080
-590,182	800,000	0,013	0,037
-589,167	-57,162	-0,117	-0,038
-588,152	-200,000	0,022	0,129
-587,138	41,346	-0,098	-0,066
-586,123	-91,287	0,117	0,025
-585,109	111,276	-0,133	-0,119
-584,094	800,000	0,019	-0,042
-583,079	-94,498	-0,035	0,007
-582,065	239,552	0,032	0,040
-581,050	107,602	0,059	0,052
-580,036	-133,217	-0,187	-0,017
-579,021	524,018	-0,035	-0,060
-578,006	-200,000	-0,012	-0,088
-576,992	123,996	-0,097	-0,091
-575,977	-200,000	0,015	-0,102
-574,963	71,828	0,028	-0,022
-573,948	-0,144	0,078	-0,041
-572,934	506,546	-0,004	-0,007
-571,919	-200,000	0,020	-0,128
-570,904	15,942	-0,134	-0,078
-569,890	-98,279	-0,094	0,018
-568,875	695,152	0,024	0,047
-567,861	-133,429	0,089	0,008
-566,846	28,765	0,170	0,106
-565,831	-200,000	0,009	0,114
-564,817	-22,961	-0,074	-0,033
-563,802	-124,915	0,028	-0,003
-562,788	-200,000	-0,019	-0,065
-561,773	404,315	0,087	0,137
-560,758	-200,000	0,002	0,049
-559,744	165,900	-0,047	0,049
-558,729	-89,263	0,064	-0,014
-557,715	-142,180	-0,099	-0,007
-556,700	-200,000	0,017	-0,069
-555,685	-200,000	-0,014	-0,073
-554,671	160,514	-0,043	-0,044
-553,656	88,800	0,038	0,031
-552,642	36,191	0,070	-0,046
-551,627	-130,769	-0,081	-0,008
-550,612	-89,909	-0,061	-0,013
-549,598	800,000	-0,040	-0,086
-548,583	68,317	-0,096	-0,073
-547,569	319,625	0,039	0,055
-546,554	-45,382	-0,068	0,025
-545,539	-200,000	0,014	-0,046
-544,525	800,000	0,060	-0,142
-543,510	-200,000	-0,048	0,159
-542,496	-28,419	-0,117	-0,050
-541,481	69,172	-0,053	-0,040
-540,466	28,090	-0,119	-0,074
-539,452	296,222	0,029	0,040
-538,437	351,452	-0,043	-0,063
-537,423	-119,036	-0,105	-0,013
-536,408	-200,000	0,003	-0,154
-535,393	-98,573	-0,046	-0,009
-534,379	181,632	-0,079	0,086
-533,364	67,957	0,105	-0,079
-532,350	47,431	0,165	0,114
-531,335	357,843	-0,068	0,101
-530,321	-200,000	-0,021	-0,076
-529,306	-111,814	-0,048	-0,007
-528,291	663,876	0,018	-0,034
-527,277	-200,000	0,060	-0,214
-526,262	-200,000	0,003	0,090
-525,248	-168,356	0,048	0,001
-524,233	270,453	-0,052	0,068
-523,218	-200,000	0,011	0,083
-522,204	800,000	0,017	0,041
-521,189	389,905	-0,048	-0,074
-520,175	-200,000	0,021	-0,111
-519,160	322,407	-0,093	-0,131
-518,145	-35,876	0,097	0,039
-517,131	-140,632	0,134	-0,010
-516,116	141,300	0,086	0,084
-515,102	-200,000	0,003	0,079
-514,087	48,765	0,052	0,036
-513,072	-200,000	0,011	-0,046
-512,058	-200,000	-0,011	-0,039
-511,043	-99,643	0,072	0,013
-510,029	-75,797	0,109	0,028
-509,014	-24,920	0,062	0,027
-507,999	-200,000	0,017	-0,092
-506,985	309,726	0,045	-0,062
-505,970	800,000	0,008	-0,020
-504,956	-200,000	0,035	-0,154
-503,941	665,150	0,082	-0,156
-502,926	800,000	0,038	0,087
-501,912	-200,000	0,019	-0,146
-500,897	-6,018	0,010	-0,005
-499,883	-200,000	-0,000	-0,140
-498,868	31,040	-0,163	-0,103
-497,853	-78,383	-0,170	0,043
-496,839	-161,988	0,114	-0,004
-495,824	141,406	-0,095	0,093
-494,810	350,641	-0,053	-0,078
-493,795	800,000	0,038	0,103
-492,781	-24,820	0,125	-0,054
-491,766	637,752	-0,067	-0,125
-490,751	20,041	0,101	0,060
-489,737	-200,000	0,012	-0,095
-488,722	39,262	0,034	0,023
-487,708	242,958	0,037	-0,046
-486,693	-131,912	0,080	0,008
-485,678	599,409	-0,042	-0,078
-484,664	271,442	0,057	0,074
-483,649	243,680	-0,030	-0,037
-482,635	58,545	0,087	-0,063
-481,620	-200,000	-0,004	0,114
-480,605	145,932	-0,095	-0,094
-479,591	287,004	0,122	0,163
-478,576	281,079	-0,068	0,090
-477,562	89,583	-0,031	0,025
-476,547	-200,000	-0,022	-0,097
-475,532	131,321	-0,108	-0,102
-474,518	-200,000	0,010	0,039
-473,503	-134,412	-0,069	-0,006
-472,489	19,769	-0,107	-0,064
-471,474	588,027	-0,048	-0,088
-470,459	164,147	-0,027	0,028
-469,445	-42,264	-0,127	-0,047
-468,430	274,560	-0,038	-0,050
-467,416	90,667	0,120	0,099
-466,401	-200,000	-0,003	-0,047
-465,386	-86,391	-0,071	-0,016
-464,372	800,000	0,021	0,046
-463,357	585,159	-0,034	0,061
-462,343	-151,343	-0,067	-0,004
-461,328	800,000	0,019	-0,049
-460,313	-142,966	0,118	-0,008
-459,299	800,000	0,018	-0,052
-458,284	800,000	0,059	0,125
-457,270	800,000	0,028	0,064
-456,255	-157,968	0,024	-0,001
-455,241	-39,847	-0,054	-0,020
-454,226	800,000	0,041	-0,086
-453,211	-99,631	-0,050	0,009
-452,197	557,624	0,057	-0,102
-451,182	-111,831	0,134	0,020
-450,168	166,486	0,133	0,139
-449,153	15,972	0,076	0,044
-448,138	-200,000	-0,005	-0,030
-447,124	-60,071	-0,062	-0,020
-446,109	-109,560	0,160	0,025
-445,095	141,461	0,061	-0,059
-444,080	25,252	-0,054	0,033
-443,065	108,453	-0,079	0,070
-442,051	110,884	0,081	0,072
-441,036	120,665	-0,064	-0,058
-440,022	-200,000	0,005	-0,039
-439,007	-10,801	0,046	-0,022
-437,992	-122,761	-0,061	0,007
-436,978	586,317	0,008	0,015
-435,963	800,000	0,057	-0,122
-434,949	443,797	0,046	0,075
-433,934	147,612	-0,104	-0,103
-432,919	-128,169	-0,071	0,007
-431,905	4,520	0,054	-0,029
-430,890	478,477	0,018	0,031
-429,876	-113,255	-0,017	0,002
-428,861	5,990	-0,014	-0,007
-427,846	131,975	0,015	0,014
-426,832	-200,000	-0,041	-0,173
-425,817	27,355	-0,008	0,005
-424,803	-2,269	0,025	0,013
-423,788	13,647	0,107	-0,061
-422,773	-77,469	0,114	-0,029
-421,759	658,540	0,049	0,094
-420,744	-200,000	0,002	0,056
-419,730	152,805	-0,111	0,112
-418,715	800,000	0,038	0,124
-417,701	214,405	-0,090	0,105
-416,686	135,123	0,016	0,015
-415,671	800,000	0,034	0,089
-414,657	196,134	-0,071	-0,080
-413,642	-200,000	0,005	0,130
-412,628	-153,042	0,111	0,006
-411,613	-200,000	-0,018	-0,064
-410,598	338,684	0,084	-0,121
-409,584	182,600	0,080	-0,087
-408,569	-200,000	0,024	-0,086
-407,555	-24,549	-0,066	0,029
-406,540	211,708	0,060	-0,070
-405,525	-150,310	-0,026	-0,001
-404,511	800,000	-0,028	-0,062
-403,496	800,000	-0,022	0,051
-402,482	3,733	0,028	-0,015
-401,467	189,546	-0,068	0,076
-400,452	-59,450	0,110	0,035
-399,438	800,000	0,037	-0,092
-398,423	-200,000	0,015	-0,104
-397,409	16,359	0,063	-0,036
-396,394	312,934	-0,044	0,061
-395,379	-200,000	-0,001	0,019
-394,365	-42,888	0,011	0,004
-393,350	492,458	0,074	0,125
-392,336	133,851	-0,092	0,087
-391,321	26,081	-0,021	0,013
-390,306	376,428	0,046	-0,069
-389,292	286,483	-0,024	-0,031
-388,277	-200,000	0,004	-0,041
-387,263	26,184	-0,017	0,010
-386,248	800,000	0,028	-0,086
-385,233	-200,000	-0,005	0,137
-384,219	-109,559	-0,031	0,005
-383,204	-60,894	-0,171	-0,053
-382,190	800,000	-0,042	0,106
-381,175	800,000	0,027	0,088
-380,160	3,141	0,030	-0,016
-379,146	106,700	0,069	0,060
-378,131	-174,345	-0,072	-0,001
-377,117	424,625	0,048	-0,077
-376,102	800,000	0,075	0,165
-375,088	477,425	-0,085	0,142
-374,073	-103,800	0,023	0,004
-373,058	-27,100	0,108	0,046
-372,044	800,000	0,006	0,014
-371,029	800,000	-0,042	0,089
-370,015	-200,000	-0,014	0,047
-369,000	774,106	0,073	-0,148
-367,985	-60,935	-0,083	0,026
-366,971	276,832	0,021	0,027
-365,956	4,518	0,106	0,057
-364,942	382,237	-0,055	0,084
-363,927	-172,595	0,114	-0,003
-362,912	27,454	0,039	-0,024
-361,898	-200,000	0,010	-0,063
-360,883	309,496	-0,084	-0,116
-359,869	733,717	0,024	0,048
-358,854	98,017	0,024	-0,021
-357,839	-200,000	-0,003	0,066
-356,825	-200,000	0,000	0,047
-355,810	-23,874	0,049	-0,021
-354,796	-10,964	0,014	-0,007
-353,781	186,154	-0,043	-0,047
-352,766	-50,189	-0,045	-0,016
-351,752	-200,000	-0,021	-0,098
-350,737	-200,000	0,008	0,110
-349,723	180,758	0,050	0,054
-348,708	535,333	0,034	0,059
-347,693	800,000	0,052	0,155
-346,679	210,453	0,022	0,025
-345,664	-200,000	-0,005	-0,111
-344,650	384,030	0,024	0,036
-343,635	479,459	-0,059	-0,098
-342,620	800,000	0,038	0,113
-341,606	800,000	-0,061	0,169
-340,591	-74,179	0,126	-0,033
-339,577	800,000	-0,015	-0,043
-338,562	-86,708	0,129	-0,029
-337,548	-144,589	-0,029	-0,002
-336,533	-200,000	0,007	0,085
-335,518	37,139	-0,039	-0,025
-334,504	20,977	0,187	-0,111
-333,489	-102,468	-0,151	-0,026
-332,475	16,037	0,030	-0,017
-331,460	-114,119	0,094	0,013
-330,445	-200,000	0,002	-0,101
-329,431	73,258	-0,081	0,062
-328,416	800,000	-0,044	-0,092
-327,402	129,146	-0,057	-0,054
-326,387	80,601	-0,131	0,104
-325,372	-200,000	0,005	0,098
-324,358	487,025	-0,039	-0,066
-323,343	-200,000	0,053	-0,190
-322,329	800,000	-0,037	0,108
-321,314	41,370	0,057	-0,038
-320,299	800,000	-0,040	0,121
-319,285	360,599	-0,039	0,057
-318,270	-0,919	-0,074	-0,038
-317,256	-21,023	-0,152	-0,068
-316,241	-200,000	-0,004	-0,036
-315,226	426,531	0,046	-0,072
-314,212	304,429	0,036	0,050
-313,197	800,000	0,043	-0,094
-312,183	-16,800	-0,102	-0,047
-311,168	-200,000	0,008	0,046
-310,153	95,338	-0,090	-0,075
-309,139	-43,667	-0,088	0,032
-308,124	220,494	-0,044	0,052
-307,110	225,352	-0,056	0,066
-306,095	800,000	-0,041	0,086
-305,080	396,451	-0,088	0,135
-304,066	-101,358	-0,021	-0,004
-303,051	800,000	-0,051	0,147
-302,037	18,919	-0,215	-0,126
-301,022	800,000	-0,041	-0,085
-300,008	450,548	0,068	0,110
-298,993	360,802	0,049	-0,072
-297,978	348,146	-0,016	0,023
-296,964	-167,380	0,053	0,002
-295,949	87,478	-0,110	-0,089
-294,935	-200,000	0,011	-0,136
-293,920	-200,000	0,002	-0,169
-292,905	-48,138	0,080	-0,028
-291,891	-134,753	0,090	0,008
-290,876	-200,000	0,004	-0,087
-289,862	-200,000	0,043	-0,178
-288,847	-130,801	-0,143	-0,014
-287,832	725,740	0,022	0,043
-286,818	72,410	-0,126	-0,096
-285,803	-190,536	-0,062	0,000
-284,789	218,650	-0,038	0,045
-283,774	-200,000	0,004	0,134
-282,759	707,346	-0,063	0,122
-281,745	-112,079	-0,068	-0,010
-280,730	-200,000	0,048	-0,158
-279,716	800,000	-0,039	-0,101
-278,701	134,434	0,108	0,102
-277,686	800,000	0,019	-0,061
-276,672	-200,000	0,016	-0,053
-275,657	217,283	0,049	0,057
-274,643	40,246	-0,059	-0,039
-273,628	249,563	-0,073	0,091
-272,613	800,000	-0,035	-0,086
-271,599	-200,000	0,014	-0,132
-270,584	111,414	0,027	0,024
-269,570	172,280	0,028	-0,030
-268,555	61,021	0,107	0,078
-267,540	663,348	0,038	-0,072
-266,526	11,583	-0,095	0,053
-265,511	-200,000	-0,047	-0,163
-264,497	29,216	0,041	0,025
-263,482	800,000	-0,047	0,105
-262,467	367,518	0,047	0,070
-261,453	54,411	0,112	0,079
-260,438	800,000	0,055	-0,111
-259,424	-200,000	0,012	-0,143
-258,409	373,845	-0,017	-0,025
-257,395	-11,473	-0,056	-0,027
-256,380	88,560	0,078	-0,063
-255,365	398,096	0,068	0,104
-254,351	800,000	-0,020	-0,045
-253,336	-200,000	0,004	-0,066
-252,322	146,296	0,056	0,055
-251,307	800,000	-0,037	-0,077
-250,292	276,398	0,047	0,061
-249,278	-200,000	-0,013	0,129
-248,263	-30,674	0,050	0,021
-247,249	-200,000	-0,003	0,143
-246,234	38,393	-0,061	0,040
-245,219	220,619	-0,024	0,028
-244,205	-200,000	0,001	0,056
-243,190	-101,137	0,019	0,003
-242,176	-200,000	0,022	0,083
-241,161	-200,000	0,036	0,152
-240,146	800,000	-0,066	0,138
-239,132	-200,000	0,017	-0,068
-238,117	800,000	0,054	-0,164
-237,103	275,745	-0,016	-0,021
-236,088	323,985	0,081	0,114
-235,073	18,444	-0,031	0,018
-234,059	-38,127	0,139	0,054
-233,044	58,333	-0,098	0,070
-232,030	429,253	-0,077	-0,121
-231,015	-200,000	0,010	-0,032
-230,000	800,000	0,034	-0,103
-228,986	-98,909	-0,095	-0,018
-227,971	-200,000	-0,008	0,040
-226,957	-153,376	0,165	0,008
-225,942	-3,523	0,083	0,042
-224,927	245,830	-0,080	0,099
-223,913	-200,000	0,006	0,166
-222,898	75,792	-0,102	0,078
-221,884	6,900	-0,087	0,047
-220,869	800,000	0,076	0,177
-219,855	-200,000	-0,019	0,074
-218,840	84,483	0,063	0,051
-217,825	-95,598	-0,045	0,009
-216,811	63,752	0,028	0,021
-215,796	-200,000	0,019	-0,104
-214,782	29,508	-0,039	0,024
-213,767	97,490	0,145	-0,121
-212,752	-200,000	0,031	-0,219
-211,738	-200,000	0,052	0,208
-210,723	55,881	-0,022	0,015
-209,709	399,350	0,020	-0,030
-208,694	-135,340	0,072	-0,006
-207,679	-117,679	0,048	0,006
-206,665	98,607	0,042	0,036
-205,650	47,736	0,044	0,030
-204,636	74,882	0,171	0,132
-203,621	-142,227	-0,051	-0,004
-202,606	-75,626	-0,074	0,019
-201,592	73,149	0,055	-0,042
-200,577	800,000	0,037	-0,093
-199,563	78,948	0,142	0,111
-198,548	65,302	0,070	0,052
-197,533	-200,000	-0,031	-0,213
-196,519	-200,000	0,009	0,106
-195,504	-147,486	-0,121	-0,007
-194,490	-200,000	-0,007	0,056
-193,475	169,867	0,060	-0,063
-192,460	-93,868	0,138	0,027
-191,446	179,130	0,117	0,125
-190,431	-141,464	-0,085	0,006
-189,417	31,219	0,039	0,024
-188,402	-79,516	0,095	-0,023
-187,387	105,008	-0,079	-0,068
-186,373	-138,770	-0,113	0,009
-185,358	-111,833	-0,068	-0,010
-184,344	-200,000	0,003	-0,040
-183,329	-4,273	0,195	0,098
-182,315	-200,000	0,004	0,055
-181,300	91,008	-0,079	0,065
-180,285	-200,000	0,016	-0,135
-179,271	181,169	-0,013	0,014
-178,256	-5,744	-0,030	-0,015
-177,242	352,663	-0,048	0,070
-176,227	800,000	0,007	-0,021
-175,212	-144,930	0,143	0,009
-174,198	-33,688	-0,080	-0,032
-173,183	800,000	0,040	0,108
-172,169	-165,519	-0,120	-0,004
-171,154	99,330	0,029	0,024
-170,139	301,043	0,030	-0,041
-169,125	-200,000	0,015	0,098
-168,110	-200,000	0,026	0,116
-167,096	800,000	-0,065	0,139
-166,081	800,000	-0,047	-0,098
-165,066	-145,496	-0,224	-0,014
-164,052	-32,669	0,051	-0,021
-163,037	-200,000	0,022	0,103
-162,023	154,320	-0,023	-0,023
-161,008	-147,751	0,077	-0,005
-159,993	17,616	0,060	0,035
-158,979	-41,557	-0,089	-0,033
-157,964	-152,395	-0,121	-0,006
-156,950	133,819	-0,051	-0,048
-155,935	64,962	0,094	-0,069
-154,920	129,958	0,122	0,113
-153,906	-200,000	-0,007	0,030
-152,891	800,000	-0,054	0,147
-151,877	51,032	-0,026	0,018
-150,862	34,599	-0,039	0,025
-149,847	-10,320	-0,071	0,034
-148,833	-83,029	-0,102	0,024
-147,818	360,903	0,081	0,119
-146,804	800,000	0,029	0,093
-145,789	-9,818	0,081	-0,039
-144,775	400,934	-0,017	0,026
-143,760	-200,000	0,024	-0,082
-142,745	123,530	0,083	-0,076
-141,731	392,094	-0,089	-0,136
-140,716	17,099	0,095	0,055
-139,702	112,663	0,081	0,072
-138,687	447,764	0,010	0,015
-137,672	800,000	-0,049	0,112
-136,658	800,000	0,043	0,112
-135,643	-44,455	-0,228	-0,082
-134,629	173,117	-0,091	-0,095
-133,614	-155,603	-0,015	0,001
-132,599	-115,693	0,192	-0,026
-131,585	429,605	-0,030	-0,047
-130,570	-179,579	-0,013	-0,000
-129,556	694,694	-0,069	-0,133
-128,541	283,905	-0,081	0,106
-127,526	31,925	0,030	0,019
-126,512	483,543	0,075	0,125
-125,497	-24,566	0,057	0,025
-124,483	298,832	0,076	-0,102
-123,468	256,548	0,065	0,081
-122,453	123,305	0,072	-0,066
-121,439	800,000	0,031	-0,070
-120,424	-103,785	0,071	0,012
-119,410	103,617	0,007	-0,006
-118,395	69,666	0,063	-0,047
