DTS Sentinel unit serial number:	SN410029Multiplexer serial number:	ORYXHardware model number:	OX2-SRSoftware version number:	ORYX F/W v4,00 Oryx Data Collector v3.7.2.0data status	okinstallation	B6 Nyhavnadifferential loss correction	single-endedforward channel	channel 2reverse channel	N/Adate	2023/12/09time	07:15:08forward acquisition time	300,00reverse acquisition time	0,00gamma	499,1914k internal	0,3139k external	0,3139temperature offset calibration	1,0000default loss term (dB/km)	0,3820temperature slope calibration	1,0000multiplexer offset coefficient	1,0000multiplexer slope coefficient	1,0000fibre end	0,00T internal ref (°C)	18,56T ext. ref 1 (°C)	2,05T ext. ref 2 (°C)	2,06length (m)	temperature (°C)	Stokes	anti-Stokes-744,400	-200,000	-0,009	0,050
-743,385	-60,851	-0,156	0,049
-742,371	-167,398	0,091	0,003
-741,356	-21,417	-0,231	-0,104
-740,342	-200,000	0,020	0,143
-739,327	-154,105	-0,204	0,010
-738,312	-79,465	0,123	-0,031
-737,298	91,388	-0,114	0,095
-736,283	-200,000	0,181	0,000
-735,269	-113,767	-0,213	0,030
-734,254	162,598	-0,070	0,073
-733,239	-157,424	-0,418	-0,018
-732,225	21,412	0,115	-0,069
-731,210	-127,592	0,087	0,009
-730,196	-145,782	-0,107	-0,007
-729,181	-48,827	0,078	0,027
-728,167	522,941	0,061	-0,107
-727,152	796,052	0,042	-0,087
-726,137	71,116	0,069	-0,053
-725,123	111,639	0,018	-0,016
-724,108	-200,000	0,015	-0,071
-723,094	-200,000	0,018	-0,144
-722,079	-200,000	-0,005	-0,134
-721,064	-200,000	-0,000	-0,159
-720,050	-133,023	-0,080	-0,007
-719,035	800,000	0,043	-0,118
-718,021	-106,191	-0,086	0,014
-717,006	-200,000	-0,054	-0,210
-715,991	156,693	-0,114	-0,117
-714,977	120,924	0,035	-0,032
-713,962	800,000	-0,016	0,042
-712,948	4,862	-0,065	0,035
-711,933	-24,876	0,218	0,095
-710,918	517,077	0,029	-0,051
-709,904	64,887	0,018	-0,014
-708,889	560,297	-0,019	-0,035
-707,875	-200,000	0,020	-0,118
-706,860	146,611	-0,024	0,024
-705,845	800,000	0,046	0,130
-704,831	9,598	-0,100	-0,056
-703,816	800,000	0,012	-0,035
-702,802	306,921	0,105	0,146
-701,787	-142,275	-0,087	-0,006
-700,772	-69,332	-0,045	0,013
-699,758	73,834	-0,178	-0,138
-698,743	-200,000	0,000	0,009
-697,729	800,000	-0,047	0,131
-696,714	800,000	-0,010	0,028
-695,699	205,051	-0,091	-0,105
-694,685	-111,506	-0,167	-0,025
-693,670	-200,000	-0,009	-0,095
-692,656	106,219	-0,028	-0,024
-691,641	800,000	0,009	-0,026
-690,627	130,369	-0,092	-0,087
-689,612	-200,000	0,033	-0,125
-688,597	-1,824	-0,059	-0,030
-687,583	-200,000	-0,000	-0,156
-686,568	-200,000	0,001	-0,085
-685,554	-133,578	-0,039	0,004
-684,539	575,407	-0,030	-0,055
-683,524	800,000	-0,046	-0,130
-682,510	-198,947	-0,095	0,000
-681,495	38,733	-0,050	-0,033
-680,481	-200,000	-0,011	-0,040
-679,466	11,832	-0,052	0,030
-678,451	-200,000	-0,012	-0,178
-677,437	110,024	-0,060	-0,053
-676,422	24,695	0,039	0,024
-675,408	234,090	-0,068	0,083
-674,393	8,962	-0,045	0,025
-673,378	-152,304	0,063	0,003
-672,364	-92,776	-0,065	-0,013
-671,349	1,766	-0,107	-0,057
-670,335	-200,000	0,001	0,004
-669,320	476,778	-0,054	-0,090
-668,305	-44,704	0,045	0,017
-667,291	-200,000	0,026	-0,092
-666,276	367,374	-0,026	-0,039
-665,262	-87,392	-0,128	-0,028
-664,247	-200,000	-0,008	-0,063
-663,232	388,668	0,063	-0,096
-662,218	365,809	0,049	0,073
-661,203	25,757	0,078	-0,048
-660,189	571,222	-0,067	0,121
-659,174	-70,957	-0,104	-0,029
-658,159	305,118	-0,072	0,099
-657,145	-200,000	-0,014	-0,079
-656,130	-200,000	-0,005	0,032
-655,116	-179,252	0,083	-0,001
-654,101	-73,094	-0,070	0,019
-653,086	444,156	0,097	-0,158
-652,072	-200,000	-0,012	-0,161
-651,057	-119,093	-0,044	0,006
-650,043	194,845	-0,054	0,060
-649,028	-46,733	-0,045	0,016
-648,014	-68,798	0,046	-0,013
-646,999	110,654	0,047	0,042
-645,984	-112,539	-0,025	0,004
-644,970	-200,000	-0,000	0,049
-643,955	0,659	-0,044	-0,023
-642,941	800,000	-0,051	-0,159
-641,926	-200,000	0,011	-0,151
-640,911	-90,061	-0,018	-0,004
-639,897	181,649	-0,049	0,053
-638,882	540,648	0,045	0,080
-637,868	-200,000	-0,003	0,137
-636,853	48,398	-0,114	-0,079
-635,838	-164,747	-0,091	0,003
-634,824	58,522	0,095	-0,069
-633,809	-200,000	-0,023	0,076
-632,795	259,542	-0,068	-0,086
-631,780	736,959	0,026	-0,052
-630,765	186,395	0,094	0,104
-629,751	-148,766	-0,072	0,004
-628,736	113,180	0,007	0,006
-627,722	215,510	-0,078	0,092
-626,707	-65,071	0,189	-0,056
-625,692	-200,000	0,023	-0,083
-624,678	-149,894	0,111	-0,006
-623,663	-200,000	0,039	-0,140
-622,649	-49,064	-0,090	0,032
-621,634	183,931	-0,068	0,075
-620,619	520,319	-0,077	0,134
-619,605	-200,000	0,022	-0,112
-618,590	80,833	-0,024	0,019
-617,576	-94,344	0,194	-0,039
-616,561	695,013	0,065	0,127
-615,546	-41,078	-0,101	0,038
-614,532	-42,218	-0,151	-0,057
-613,517	-200,000	-0,012	-0,117
-612,503	116,661	0,028	-0,026
-611,488	245,808	0,067	0,083
-610,474	-73,919	0,167	-0,044
-609,459	-200,000	-0,015	0,083
-608,444	800,000	0,091	0,194
-607,430	800,000	0,027	-0,080
-606,415	5,703	0,064	-0,035
-605,401	-200,000	-0,013	-0,055
-604,386	164,186	0,084	0,088
-603,371	-13,785	0,065	0,031
-602,357	-6,103	-0,127	0,064
-601,342	-200,000	0,005	-0,162
-600,328	-200,000	-0,009	-0,079
-599,313	800,000	0,030	0,085
-598,298	62,960	0,045	0,034
-597,284	93,278	0,104	0,087
-596,269	-170,759	0,119	-0,003
-595,255	800,000	0,021	-0,065
-594,240	33,479	0,072	-0,046
-593,225	-145,176	-0,204	-0,013
-592,211	-200,000	0,011	-0,115
-591,196	269,426	-0,111	-0,144
-590,182	99,414	0,055	-0,047
-589,167	-163,206	0,098	-0,003
-588,152	-200,000	-0,006	-0,121
-587,138	-183,068	-0,063	0,001
-586,123	-61,311	0,118	0,036
-585,109	-134,625	0,063	0,006
-584,094	34,938	-0,056	-0,036
-583,079	313,136	-0,065	-0,090
-582,065	226,416	0,060	-0,071
-581,050	-23,880	0,089	0,039
-580,036	800,000	-0,024	0,050
-579,021	2,941	-0,072	-0,038
-578,006	528,356	0,035	-0,061
-576,992	800,000	0,056	-0,123
-575,977	-149,795	0,113	0,006
-574,963	6,139	-0,065	0,035
-573,948	21,149	-0,021	0,012
-572,934	800,000	-0,069	-0,159
-571,919	-200,000	0,014	-0,046
-570,904	74,389	-0,053	-0,041
-569,890	744,753	0,040	-0,080
-568,875	800,000	-0,005	-0,012
-567,861	-200,000	0,031	0,196
-566,846	800,000	-0,003	-0,008
-565,831	274,460	-0,067	0,088
-564,817	-200,000	0,001	0,076
-563,802	133,014	0,084	0,080
-562,788	-66,904	0,050	-0,014
-561,773	-120,799	0,122	-0,015
-560,758	-120,310	-0,028	-0,004
-559,744	204,146	0,105	0,120
-558,729	-200,000	0,012	0,092
-557,715	-200,000	0,002	0,087
-556,700	-143,336	0,117	0,008
-555,685	169,025	-0,063	0,066
-554,671	5,824	0,043	-0,023
-553,656	800,000	-0,013	-0,036
-552,642	-200,000	0,012	0,128
-551,627	11,570	-0,072	-0,041
-550,612	-118,523	0,128	-0,016
-549,598	190,450	-0,039	-0,043
-548,583	-200,000	0,025	-0,096
-547,569	314,386	0,034	-0,047
-546,554	-72,866	0,015	0,004
-545,539	-82,809	0,100	0,023
-544,525	-64,723	-0,022	0,007
-543,510	6,288	-0,079	0,043
-542,496	-190,617	0,064	-0,000
-541,481	-200,000	-0,025	0,087
-540,466	-53,372	-0,101	-0,034
-539,452	218,669	-0,066	0,077
-538,437	19,730	-0,059	0,035
-537,423	800,000	0,073	0,222
-536,408	215,764	0,044	0,051
-535,393	-46,500	-0,108	-0,039
-534,379	-50,204	0,104	-0,036
-533,364	212,421	0,079	-0,092
-532,350	220,998	0,068	0,080
-531,335	-200,000	-0,011	0,052
-530,321	800,000	-0,004	-0,012
-529,306	-27,411	-0,068	-0,029
-528,291	800,000	-0,025	-0,065
-527,277	800,000	-0,041	0,091
-526,262	-200,000	-0,012	-0,092
-525,248	-200,000	-0,021	-0,083
-524,233	44,111	0,089	0,060
-523,218	-63,742	-0,152	0,046
-522,204	-200,000	0,013	-0,090
-521,189	-133,805	-0,095	0,009
-520,175	-33,798	-0,029	0,012
-519,160	-200,000	0,001	-0,143
-518,145	-117,108	0,181	0,024
-517,131	222,642	0,059	0,070
-516,116	-65,449	-0,005	0,001
-515,102	-15,802	0,035	-0,016
-514,087	512,470	-0,062	-0,107
-513,072	76,159	0,091	-0,070
-512,058	-32,364	-0,140	0,057
-511,043	16,611	-0,049	-0,028
-510,029	-200,000	0,005	0,025
-509,014	-200,000	0,011	0,057
-507,999	210,171	-0,042	0,049
-506,985	-116,946	-0,035	0,005
-505,970	-200,000	0,007	0,045
-504,956	577,473	-0,005	0,009
-503,941	-117,707	0,143	0,019
-502,926	19,283	0,105	-0,062
-501,912	-181,721	0,129	0,002
-500,897	-172,820	-0,079	-0,002
-499,883	238,220	0,047	-0,058
-498,868	-200,000	-0,017	-0,092
-497,853	68,477	-0,207	-0,155
-496,839	244,970	0,058	0,072
-495,824	720,859	0,072	0,141
-494,810	555,208	-0,043	0,076
-493,795	800,000	-0,030	0,065
-492,781	-200,000	0,032	0,190
-491,766	-199,236	-0,159	-0,001
-490,751	238,779	0,019	0,023
-489,737	21,354	0,104	0,062
-488,722	-35,396	0,103	0,041
-487,708	0,713	-0,071	0,037
-486,693	624,467	0,008	-0,014
-485,678	127,104	0,062	-0,057
-484,664	800,000	-0,079	-0,187
-483,649	-54,889	-0,044	0,015
-482,635	-200,000	-0,033	-0,140
-481,620	-200,000	0,001	-0,115
-480,605	-84,728	0,066	0,015
-479,591	-200,000	0,001	0,037
-478,576	-200,000	-0,001	-0,066
-477,562	398,937	-0,081	-0,124
-476,547	-98,409	-0,014	0,003
-475,532	800,000	0,024	0,070
-474,518	212,187	0,087	-0,101
-473,503	30,982	-0,012	0,008
-472,489	325,501	-0,065	0,091
-471,474	-126,711	-0,032	-0,003
-470,459	-100,975	0,069	-0,012
-469,445	800,000	-0,084	-0,237
-468,430	-43,473	-0,156	0,058
-467,416	800,000	0,013	0,042
-466,401	800,000	0,017	-0,054
-465,386	-91,220	0,055	-0,011
-464,372	52,848	-0,113	0,079
-463,357	-21,902	0,062	0,027
-462,343	-34,429	-0,045	-0,018
-461,328	330,743	0,047	0,066
-460,313	-118,142	-0,149	0,019
-459,299	-200,000	0,004	0,090
-458,284	673,683	-0,045	0,086
-457,270	-200,000	-0,000	-0,037
-456,255	-200,000	-0,029	-0,099
-455,241	-176,663	-0,038	0,001
-454,226	190,643	-0,071	-0,079
-453,211	-106,333	0,131	0,021
-452,197	-135,543	0,143	0,012
-451,182	782,261	0,058	-0,117
-450,168	45,927	-0,056	-0,038
-449,153	645,147	-0,021	0,039
-448,138	115,680	-0,084	-0,075
-447,124	-92,810	0,131	0,027
-446,109	-200,000	-0,031	-0,144
-445,095	-200,000	0,011	-0,070
-444,080	21,500	-0,042	0,025
-443,065	-200,000	0,007	-0,030
-442,051	-104,112	-0,064	0,011
-441,036	-60,600	-0,129	-0,040
-440,022	-55,838	0,109	-0,035
-439,007	186,171	0,029	0,032
-437,992	-200,000	0,010	-0,160
-436,978	22,665	-0,022	-0,013
-435,963	-200,000	0,020	0,085
-434,949	-147,004	-0,099	-0,006
-433,934	-200,000	0,033	-0,169
-432,919	205,571	-0,065	-0,074
-431,905	532,203	0,049	-0,085
-430,890	61,909	0,052	0,038
-429,876	-117,468	-0,070	-0,009
-428,861	569,696	0,108	-0,193
-427,846	-25,801	0,037	-0,016
-426,832	2,627	-0,108	-0,057
-425,817	-200,000	0,019	-0,081
-424,803	800,000	0,052	-0,147
-423,788	800,000	-0,026	-0,068
-422,773	-84,687	0,056	-0,013
-421,759	800,000	0,060	-0,137
-420,744	794,565	-0,032	-0,065
-419,730	24,773	-0,136	-0,082
-418,715	-34,291	-0,056	-0,023
-417,701	73,370	-0,140	-0,107
-416,686	272,265	0,053	-0,068
-415,671	16,604	0,111	0,064
-414,657	62,492	0,107	-0,078
-413,642	496,817	-0,024	-0,041
-412,628	-115,575	-0,155	0,021
-411,613	87,069	0,071	-0,057
-410,598	167,913	-0,082	-0,085
-409,584	680,632	-0,046	-0,088
-408,569	287,071	-0,006	0,008
-407,555	-200,000	-0,026	-0,092
-406,540	-73,337	0,139	0,037
-405,525	-200,000	-0,003	-0,126
-404,511	-142,298	-0,137	-0,010
-403,496	681,653	-0,048	-0,091
-402,482	314,792	-0,045	0,062
-401,467	301,877	0,062	-0,084
-400,452	554,586	0,054	0,095
-399,438	347,516	-0,023	0,033
-398,423	148,935	0,066	-0,065
-397,409	-200,000	-0,033	-0,132
-396,394	482,339	0,072	-0,119
-395,379	63,818	0,067	-0,049
-394,365	-200,000	0,022	0,086
-393,350	218,999	-0,026	-0,030
-392,336	800,000	0,036	0,115
-391,321	-200,000	0,002	-0,057
-390,306	-88,144	0,066	-0,014
-389,292	800,000	-0,051	0,121
-388,277	208,927	0,034	0,039
-387,263	451,590	-0,104	0,168
-386,248	266,925	0,048	0,061
-385,233	-46,848	-0,084	0,030
-384,219	195,604	-0,022	0,024
-383,204	-19,544	-0,130	0,058
-382,190	513,275	-0,045	-0,076
-381,175	-200,000	0,002	0,051
-380,160	-200,000	-0,007	0,076
-379,146	165,300	0,026	-0,027
-378,131	534,593	0,088	-0,152
-377,117	-112,665	-0,146	-0,021
-376,102	-200,000	0,012	-0,064
-375,088	-81,242	-0,072	-0,017
-374,073	-200,000	-0,001	0,041
-373,058	399,224	0,077	0,118
-372,044	-200,000	0,012	0,048
-371,029	262,601	-0,040	0,051
-370,015	-45,961	-0,079	-0,028
-369,000	-179,078	-0,072	0,001
-367,985	-200,000	-0,006	-0,056
-366,971	259,494	0,014	-0,018
-365,956	-200,000	0,055	0,204
-364,942	86,973	0,048	0,039
-363,927	800,000	-0,027	-0,082
-362,912	-200,000	-0,018	0,100
-361,898	181,707	-0,031	0,033
-360,883	343,376	-0,032	-0,046
-359,869	460,062	0,040	-0,065
-358,854	-154,043	0,169	-0,008
-357,839	-61,740	0,143	-0,044
-356,825	339,361	0,101	0,145
-355,810	45,069	-0,086	0,057
-354,796	-103,427	-0,078	0,013
-353,781	-200,000	0,009	0,059
-352,766	278,800	-0,006	0,007
-351,752	-200,000	-0,002	0,055
-350,737	-97,150	0,078	-0,015
-349,723	151,073	0,058	0,058
-348,708	400,942	0,035	-0,053
-347,693	121,323	-0,051	-0,047
-346,679	800,000	-0,017	-0,053
-345,664	6,481	-0,107	0,058
-344,650	-139,873	0,023	-0,002
-343,635	-200,000	-0,019	0,115
-342,620	467,635	-0,056	0,092
-341,606	-200,000	-0,048	0,204
-340,591	57,915	0,122	0,087
-339,577	-22,444	-0,116	0,051
-338,562	-94,343	-0,062	0,012
-337,548	-200,000	-0,044	0,168
-336,533	-68,181	0,016	-0,005
-335,518	695,882	-0,037	0,071
-334,504	50,151	-0,086	0,059
-333,489	706,244	-0,076	-0,147
-332,475	80,702	0,003	0,002
-331,460	800,000	0,036	0,082
-330,445	-4,481	-0,111	0,056
-329,431	338,392	0,008	-0,011
-328,416	800,000	-0,021	0,055
-327,402	-147,840	-0,066	-0,004
-326,387	224,325	0,107	0,126
-325,372	289,638	0,091	0,121
-324,358	800,000	-0,024	-0,051
-323,343	-200,000	0,040	0,168
-322,329	432,419	0,017	0,027
-321,314	-161,297	-0,025	0,001
-320,299	250,512	-0,040	-0,050
-319,285	-51,040	0,088	-0,030
-318,270	124,932	-0,058	0,053
-317,256	-200,000	-0,036	-0,151
-316,241	-200,000	-0,028	0,100
-315,226	-200,000	0,023	0,083
-314,212	-200,000	-0,021	-0,092
-313,197	-200,000	0,037	-0,129
-312,183	335,119	-0,074	0,106
-311,168	592,900	-0,023	-0,042
-310,153	800,000	-0,020	0,055
-309,139	218,551	-0,079	-0,092
-308,124	-172,104	0,082	-0,002
-307,110	-131,212	0,167	0,016
-306,095	800,000	-0,048	0,098
-305,080	165,289	-0,133	-0,137
-304,066	-6,571	-0,052	-0,026
-303,051	-31,352	-0,065	0,027
-302,037	171,649	-0,061	0,063
-301,022	57,850	-0,056	0,040
-300,008	365,907	0,114	0,168
-298,993	21,395	-0,083	-0,049
-297,978	-200,000	0,020	-0,115
-296,964	-96,454	-0,086	-0,016
-295,949	-120,357	0,100	0,012
-294,935	-117,349	0,033	0,004
-293,920	-200,000	0,028	-0,133
-292,905	-151,177	-0,037	-0,002
-291,891	318,673	-0,046	0,063
-290,876	115,618	-0,074	0,066
-289,862	-20,587	-0,094	0,042
-288,847	-200,000	-0,019	-0,091
-287,832	447,480	-0,046	-0,074
-286,818	82,082	0,038	0,030
-285,803	45,456	0,098	-0,065
-284,789	-3,663	0,169	0,085
-283,774	-200,000	0,015	0,139
-282,759	-200,000	0,017	-0,076
-281,745	-32,749	-0,144	0,058
-280,730	503,361	-0,048	-0,082
-279,716	800,000	0,055	-0,115
-278,701	156,016	-0,025	-0,025
-277,686	109,793	0,059	0,052
-276,672	800,000	0,040	-0,083
-275,657	59,999	-0,063	-0,046
-274,643	-83,492	-0,074	0,017
-273,628	-16,003	-0,155	-0,072
-272,613	-200,000	-0,009	0,115
-271,599	-200,000	0,034	-0,132
-270,584	800,000	0,020	0,050
-269,570	-200,000	-0,011	0,069
-268,555	-12,444	-0,075	-0,035
-267,540	-51,620	-0,150	0,051
-266,526	-200,000	0,020	-0,077
-265,511	-200,000	0,030	-0,121
-264,497	-59,715	0,100	0,031
-263,482	762,584	-0,016	-0,031
-262,467	-200,000	0,022	0,139
-261,453	-75,358	0,048	-0,012
-260,438	-78,037	-0,082	0,020
-259,424	3,175	0,144	0,076
-258,409	207,814	-0,011	-0,013
-257,395	-68,907	0,222	-0,062
-256,380	-117,080	0,103	-0,013
-255,365	126,856	0,054	-0,050
-254,351	-200,000	0,006	0,034
-253,336	115,588	0,033	-0,029
-252,322	-200,000	-0,031	-0,141
-251,307	507,217	0,057	-0,097
-250,292	360,617	-0,033	0,048
-249,278	-55,637	0,106	0,034
-248,263	-200,000	-0,060	0,204
-247,249	305,893	-0,059	0,080
-246,234	103,420	-0,048	0,041
-245,219	-29,331	0,141	-0,058
-244,205	-200,000	-0,001	-0,119
-243,190	-38,875	0,028	0,011
-242,176	-1,981	0,026	-0,013
-241,161	-200,000	-0,028	0,180
-240,146	59,202	-0,063	0,045
-239,132	234,963	-0,023	0,028
-238,117	-183,182	-0,160	-0,002
-237,103	484,095	-0,053	-0,088
-236,088	-200,000	0,011	0,047
-235,073	800,000	-0,024	0,049
-234,059	124,219	0,112	-0,102
-233,044	-200,000	-0,010	-0,048
-232,030	-190,451	0,077	0,001
-231,015	207,434	-0,158	-0,180
-230,000	-200,000	0,050	-0,168
-228,986	305,935	-0,024	-0,033
-227,971	706,665	0,046	0,089
-226,957	-200,000	-0,007	-0,066
-225,942	332,002	0,057	0,080
-224,927	269,777	0,017	0,021
-223,913	-92,960	-0,072	-0,015
-222,898	-200,000	-0,022	-0,079
-221,884	661,920	-0,024	-0,045
-220,869	-200,000	-0,017	0,060
-219,855	-200,000	0,001	-0,047
-218,840	-200,000	0,019	0,077
-217,825	469,626	-0,054	0,089
-216,811	-73,897	-0,072	0,019
-215,796	2,966	0,063	0,033
-214,782	78,617	-0,043	0,033
-213,767	-130,489	-0,032	0,003
-212,752	-107,355	-0,090	-0,014
-211,738	800,000	0,015	-0,033
-210,723	75,234	-0,014	-0,011
-209,709	-200,000	-0,009	-0,035
-208,694	-200,000	-0,017	-0,169
-207,679	-200,000	-0,008	0,064
-206,665	-200,000	-0,032	-0,207
-205,650	100,194	0,129	0,108
-204,636	-32,286	0,129	0,052
-203,621	-94,218	-0,037	0,007
-202,606	-200,000	0,018	-0,074
-201,592	-200,000	0,003	-0,134
-200,577	149,636	-0,064	0,063
-199,563	-200,000	0,023	-0,118
-198,548	209,173	0,028	0,032
-197,533	180,990	0,105	0,112
-196,519	-200,000	0,010	0,075
-195,504	513,558	-0,029	0,049
-194,490	172,704	0,038	-0,040
-193,475	30,593	0,106	-0,066
-192,460	-88,816	0,199	0,043
-191,446	-200,000	0,032	0,128
-190,431	800,000	0,037	0,097
-189,417	-73,774	-0,086	0,023
-188,402	-63,942	-0,139	0,041
-187,387	561,734	0,040	-0,070
-186,373	-69,327	-0,099	0,027
-185,358	-200,000	0,019	0,067
-184,344	11,586	0,077	-0,043
-183,329	800,000	-0,020	0,055
-182,315	751,783	-0,055	0,108
-181,300	-69,194	-0,093	0,026
-180,285	136,507	0,030	0,028
-179,271	-200,000	-0,020	-0,080
-178,256	-166,909	0,113	0,003
-177,242	-173,662	0,049	-0,001
-176,227	800,000	0,024	0,053
-175,212	-200,000	0,038	0,180
-174,198	-119,560	-0,031	0,004
-173,183	-93,081	-0,125	-0,025
-172,169	146,975	-0,056	-0,054
-171,154	-200,000	-0,014	0,104
-170,139	-200,000	-0,052	0,231
-169,125	-200,000	0,006	0,226
-168,110	168,003	-0,072	0,074
-167,096	800,000	0,017	0,054
-166,081	-88,843	0,126	-0,027
-165,066	678,337	-0,078	-0,148
-164,052	-200,000	0,021	-0,110
-163,037	-93,342	-0,054	-0,011
-162,023	-200,000	0,009	0,177
-161,008	-200,000	0,021	0,115
-159,993	-34,877	0,136	0,054
-158,979	-200,000	-0,021	0,080
-157,964	177,717	-0,048	0,051
-156,950	114,946	-0,056	-0,049
-155,935	175,155	0,056	0,059
-154,920	90,103	0,141	0,114
-153,906	-200,000	0,012	-0,063
-152,891	386,324	-0,032	0,048
-151,877	21,541	-0,030	0,017
-150,862	332,448	0,007	0,010
-149,847	20,495	0,054	-0,032
-148,833	-200,000	0,002	-0,081
-147,818	3,984	0,086	0,046
-146,804	659,021	0,039	-0,073
-145,789	800,000	0,007	0,022
-144,775	-40,881	-0,044	0,016
-143,760	800,000	0,016	0,041
-142,745	-93,370	0,082	0,016
-141,731	800,000	-0,031	0,076
-140,716	312,892	0,069	0,094
-139,702	478,740	0,069	0,113
-138,687	-200,000	-0,009	0,113
-137,672	-184,732	-0,187	0,002
-136,658	800,000	0,014	0,033
-135,643	800,000	0,026	-0,079
-134,629	81,611	-0,072	-0,056
-133,614	30,959	0,084	0,052
-132,599	-59,873	0,147	0,045
-131,585	771,967	-0,013	0,025
-130,570	-41,116	0,119	0,044
-129,556	-134,422	-0,098	0,009
-128,541	-200,000	-0,014	-0,180
-127,526	-200,000	0,001	0,013
-126,512	-103,068	-0,045	-0,008
-125,497	-77,383	0,045	-0,011
-124,483	-118,459	-0,067	-0,008
-123,468	-84,470	-0,078	0,018
-122,453	-183,431	0,067	-0,001
-121,439	-200,000	0,003	0,074
-120,424	800,000	-0,018	0,038
