DTS Sentinel unit serial number:	SN410029Multiplexer serial number:	ORYXHardware model number:	OX2-SRSoftware version number:	ORYX F/W v4,00 Oryx Data Collector v3.7.2.0data status	okinstallation	B6 Nyhavnadifferential loss correction	single-endedforward channel	channel 2reverse channel	N/Adate	2023/12/07time	13:35:08forward acquisition time	300,00reverse acquisition time	0,00gamma	499,1914k internal	0,3202k external	0,3202temperature offset calibration	1,0000default loss term (dB/km)	0,3820temperature slope calibration	1,0000multiplexer offset coefficient	1,0000multiplexer slope coefficient	1,0000fibre end	0,00T internal ref (°C)	12,31T ext. ref 1 (°C)	-1,62T ext. ref 2 (°C)	-1,61length (m)	temperature (°C)	Stokes	anti-Stokes-744,400	306,635	-0,047	-0,064
-743,385	-144,007	-0,345	0,023
-742,371	-200,000	0,021	0,150
-741,356	-192,218	-0,270	-0,002
-740,342	13,577	0,080	0,045
-739,327	-184,849	-0,357	0,004
-738,312	299,620	0,066	0,089
-737,298	-101,551	-0,465	-0,081
-736,283	224,586	0,074	-0,087
-735,269	-85,482	-0,218	-0,049
-734,254	118,495	0,060	0,054
-733,239	8,372	-0,462	-0,252
-732,225	-50,971	0,257	0,087
-731,210	-200,000	-0,025	-0,125
-730,196	406,242	0,051	-0,078
-729,181	191,876	-0,060	0,065
-728,167	-200,000	-0,004	0,020
-727,152	-117,742	-0,185	-0,024
-726,137	-99,407	-0,095	0,017
-725,123	59,242	-0,040	-0,028
-724,108	6,053	-0,038	0,020
-723,094	158,225	-0,018	0,018
-722,079	-9,728	-0,070	-0,034
-721,064	71,643	-0,039	-0,029
-720,050	132,836	-0,084	-0,079
-719,035	-200,000	-0,043	-0,153
-718,021	189,896	-0,036	0,040
-717,006	192,792	-0,076	-0,083
-715,991	-200,000	-0,010	-0,056
-714,977	1,960	-0,110	0,057
-713,962	609,153	0,028	-0,050
-712,948	-165,953	0,096	0,003
-711,933	-185,476	0,011	-0,000
-710,918	-103,360	-0,139	-0,024
-709,904	30,740	-0,072	-0,045
-708,889	-139,179	-0,043	-0,003
-707,875	127,675	-0,055	-0,050
-706,860	-28,912	0,121	0,050
-705,845	-49,039	-0,068	-0,023
-704,831	-200,000	0,002	0,128
-703,816	59,904	-0,154	0,110
-702,802	90,620	0,068	0,055
-701,787	16,243	-0,106	-0,061
-700,772	174,293	0,123	-0,130
-699,758	-200,000	0,003	0,054
-698,743	-63,702	-0,070	-0,021
-697,729	378,529	0,039	-0,058
-696,714	233,088	-0,055	0,066
-695,699	-61,856	-0,211	-0,064
-694,685	-200,000	0,021	-0,115
-693,670	318,404	-0,115	-0,158
-692,656	800,000	-0,034	0,106
-691,641	166,132	-0,037	0,038
-690,627	800,000	0,053	0,150
-689,612	574,335	0,084	0,150
-688,597	251,464	-0,040	0,049
-687,583	126,538	-0,060	-0,055
-686,568	-49,698	0,016	0,006
-685,554	-200,000	-0,027	-0,101
-684,539	-200,000	0,005	-0,114
-683,524	-200,000	-0,038	0,178
-682,510	-20,124	-0,048	0,021
-681,495	-200,000	-0,068	0,000
-680,481	154,854	-0,092	-0,092
-679,466	108,963	-0,102	-0,088
-678,451	800,000	0,032	0,077
-677,437	89,852	0,125	0,101
-676,422	1,577	0,155	-0,080
-675,408	182,772	0,076	-0,082
-674,393	451,900	-0,081	-0,131
-673,378	800,000	0,048	-0,147
-672,364	-152,950	-0,221	-0,011
-671,349	-200,000	-0,013	-0,162
-670,335	447,665	-0,011	-0,018
-669,320	-27,988	0,057	0,024
-668,305	800,000	-0,033	0,070
-667,291	70,829	-0,075	-0,056
-666,276	800,000	-0,028	-0,076
-665,262	-95,120	-0,048	0,009
-664,247	800,000	-0,030	-0,068
-663,232	800,000	0,055	0,135
-662,218	-45,043	-0,059	-0,021
-661,203	-121,011	-0,026	0,003
-660,189	-200,000	-0,005	0,097
-659,174	-15,789	0,118	0,054
-658,159	164,400	-0,002	0,002
-657,145	94,170	-0,064	-0,053
-656,130	43,598	0,052	-0,034
-655,116	-200,000	0,009	0,118
-654,101	-147,282	-0,034	0,002
-653,086	-200,000	0,009	0,036
-652,072	-200,000	-0,029	-0,143
-651,057	119,323	-0,099	-0,089
-650,043	-200,000	0,015	-0,094
-649,028	800,000	-0,043	-0,138
-648,014	-123,206	-0,104	0,012
-646,999	-200,000	-0,014	0,053
-645,984	46,011	0,025	-0,017
-644,970	794,636	-0,042	0,084
-643,955	-200,000	0,007	-0,135
-642,941	295,786	0,032	-0,042
-641,926	-200,000	-0,001	0,075
-640,911	10,951	0,080	-0,044
-639,897	800,000	0,034	0,071
-638,882	190,705	-0,026	0,028
-637,868	-81,272	-0,026	-0,006
-636,853	-99,993	-0,031	-0,006
-635,838	-200,000	-0,001	-0,012
-634,824	15,189	0,026	0,015
-633,809	800,000	-0,054	-0,121
-632,795	64,942	0,048	-0,035
-631,780	40,117	0,069	0,045
-630,765	-78,547	0,093	-0,023
-629,751	800,000	-0,058	-0,165
-628,736	39,849	-0,072	-0,047
-627,722	-200,000	0,010	-0,076
-626,707	-7,520	-0,101	0,049
-625,692	-200,000	-0,072	0,237
-624,678	708,856	-0,078	0,151
-623,663	-82,413	0,091	0,021
-622,649	105,275	-0,063	-0,054
-621,634	800,000	0,016	0,043
-620,619	-155,636	-0,054	0,002
-619,605	69,568	0,048	-0,035
-618,590	-200,000	0,022	-0,078
-617,576	-200,000	-0,006	0,083
-616,561	-40,075	-0,037	0,014
-615,546	247,810	0,021	-0,026
-614,532	31,494	-0,073	-0,045
-613,517	-68,584	-0,040	0,011
-612,503	800,000	0,024	-0,075
-611,488	741,935	-0,046	-0,089
-610,474	17,036	-0,044	-0,025
-609,459	-200,000	-0,024	-0,101
-608,444	-69,174	-0,083	-0,023
-607,430	-200,000	-0,016	-0,063
-606,415	159,296	-0,027	0,027
-605,401	90,702	0,024	-0,020
-604,386	41,436	-0,064	-0,042
-603,371	800,000	0,015	-0,038
-602,357	121,899	0,015	0,014
-601,342	800,000	-0,023	-0,064
-600,328	-200,000	0,001	-0,151
-599,313	-200,000	0,012	-0,078
-598,298	-200,000	-0,011	-0,066
-597,284	177,097	0,052	-0,054
-596,269	-26,570	-0,144	0,061
-595,255	-190,599	0,126	-0,001
-594,240	232,679	0,054	-0,064
-593,225	358,875	0,037	0,054
-592,211	800,000	-0,061	-0,148
-591,196	22,317	0,086	-0,050
-590,182	800,000	-0,019	-0,044
-589,167	-127,664	-0,021	-0,002
-588,152	-4,360	0,078	-0,039
-587,138	242,116	0,133	0,161
-586,123	-200,000	0,043	-0,151
-585,109	-16,291	0,029	0,013
-584,094	-41,957	-0,041	-0,015
-583,079	-35,409	0,114	-0,045
-582,065	800,000	0,068	-0,136
-581,050	19,868	-0,099	-0,057
-580,036	658,021	0,043	0,080
-579,021	-97,680	-0,078	-0,015
-578,006	10,226	0,060	-0,033
-576,992	-100,065	0,040	0,007
-575,977	-39,818	-0,016	0,006
-574,963	681,542	-0,064	-0,121
-573,948	-200,000	0,003	0,029
-572,934	217,289	-0,112	0,129
-571,919	-124,621	0,078	0,009
-570,904	422,285	0,072	-0,111
-569,890	283,671	0,135	-0,176
-568,875	-200,000	-0,017	0,055
-567,861	-115,019	0,044	0,006
-566,846	303,407	-0,050	-0,067
-565,831	800,000	0,019	-0,057
-564,817	631,521	-0,047	-0,086
-563,802	653,501	-0,056	-0,104
-562,788	-90,145	-0,098	-0,020
-561,773	800,000	0,028	-0,085
-560,758	-200,000	-0,018	-0,067
-559,744	606,430	0,031	-0,055
-558,729	38,190	-0,046	-0,029
-557,715	-162,604	-0,096	0,003
-556,700	95,342	-0,035	-0,028
-555,685	254,974	0,027	0,034
-554,671	147,615	0,141	0,137
-553,656	-200,000	-0,012	-0,130
-552,642	54,130	0,037	0,025
-551,627	628,554	-0,033	0,061
-550,612	297,992	-0,014	0,018
-549,598	800,000	-0,023	-0,065
-548,583	800,000	0,027	-0,071
-547,569	-200,000	-0,003	-0,088
-546,554	-80,618	-0,069	0,017
-545,539	-200,000	0,032	0,134
-544,525	119,207	0,126	-0,113
-543,510	40,825	0,062	-0,040
-542,496	-116,583	-0,123	0,016
-541,481	-172,990	-0,095	-0,002
-540,466	31,456	-0,145	-0,089
-539,452	439,793	0,051	0,081
-538,437	-200,000	0,023	0,089
-537,423	-200,000	-0,021	0,112
-536,408	491,671	0,019	0,032
-535,393	-200,000	-0,012	-0,039
-534,379	-200,000	-0,018	-0,091
-533,364	-200,000	-0,002	0,035
-532,350	-200,000	0,008	0,175
-531,335	422,020	0,007	-0,011
-530,321	800,000	0,026	0,069
-529,306	291,174	0,013	0,017
-528,291	-200,000	-0,024	-0,095
-527,277	-76,568	0,057	-0,014
-526,262	444,829	0,048	-0,077
-525,248	581,413	0,031	-0,055
-524,233	75,033	0,094	0,071
-523,218	-200,000	-0,025	0,132
-522,204	-42,388	-0,077	-0,028
-521,189	-79,007	-0,027	-0,007
-520,175	-200,000	0,008	0,025
-519,160	56,524	0,096	0,067
-518,145	-200,000	0,042	0,153
-517,131	303,776	0,088	0,118
-516,116	-83,364	-0,106	0,024
-515,102	143,617	-0,049	-0,048
-514,087	-125,526	-0,151	0,016
-513,072	-79,856	0,157	-0,038
-512,058	800,000	-0,064	-0,171
-511,043	157,614	0,053	-0,053
-510,029	-70,906	0,121	-0,033
-509,014	285,570	0,041	-0,054
-507,999	-200,000	0,018	0,074
-506,985	-200,000	0,048	-0,179
-505,970	800,000	-0,042	-0,104
-504,956	-200,000	-0,011	-0,150
-503,941	-48,245	-0,088	0,030
-502,926	772,708	-0,067	0,132
-501,912	-200,000	0,018	0,160
-500,897	83,634	-0,063	-0,050
-499,883	59,717	-0,036	0,026
-498,868	-200,000	-0,019	-0,061
-497,853	285,985	-0,098	0,127
-496,839	-200,000	-0,012	-0,253
-495,824	3,717	0,133	0,070
-494,810	767,567	0,064	0,125
-493,795	800,000	-0,064	0,173
-492,781	-50,011	-0,044	0,015
-491,766	-200,000	-0,010	-0,080
-490,751	-147,633	-0,082	-0,005
-489,737	548,620	0,049	-0,085
-488,722	800,000	-0,067	0,139
-487,708	-200,000	0,016	0,065
-486,693	39,388	0,081	-0,052
-485,678	47,882	-0,079	0,053
-484,664	74,629	0,091	0,069
-483,649	80,452	-0,091	-0,070
-482,635	202,562	0,109	0,121
-481,620	27,782	0,079	-0,048
-480,605	-63,610	0,055	0,016
-479,591	-78,580	-0,092	-0,023
-478,576	147,132	0,061	-0,060
-477,562	114,685	-0,069	-0,060
-476,547	75,685	-0,098	-0,075
-475,532	-200,000	-0,008	-0,104
-474,518	-99,337	-0,097	-0,017
-473,503	-200,000	0,027	0,115
-472,489	-115,480	0,110	0,015
-471,474	-25,810	-0,103	0,043
-470,459	-200,000	0,012	-0,094
-469,445	-200,000	-0,000	0,013
-468,430	-60,119	-0,040	0,012
-467,416	-200,000	-0,024	0,122
-466,401	529,721	0,033	0,056
-465,386	-60,712	0,130	0,039
-464,372	431,272	-0,024	-0,037
-463,357	-35,763	0,064	0,025
-462,343	-47,291	-0,142	-0,050
-461,328	138,539	-0,051	-0,048
-460,313	-59,937	-0,076	-0,023
-459,299	118,025	0,026	-0,023
-458,284	-42,805	-0,059	-0,021
-457,270	93,217	0,047	0,038
-456,255	800,000	0,026	0,077
-455,241	587,770	-0,036	-0,064
-454,226	238,016	-0,051	0,061
-453,211	-200,000	-0,002	0,064
-452,197	-47,683	0,136	0,047
-451,182	800,000	0,018	0,043
-450,168	800,000	0,044	0,099
-449,153	-24,208	0,064	0,027
-448,138	117,715	-0,001	0,001
-447,124	75,861	-0,049	-0,037
-446,109	-14,859	0,049	-0,022
-445,095	-42,499	0,086	-0,031
-444,080	87,134	0,138	0,109
-443,065	640,419	-0,029	-0,053
-442,051	-200,000	-0,015	-0,072
-441,036	-200,000	0,004	0,014
-440,022	-200,000	0,020	-0,101
-439,007	68,244	0,130	-0,096
-437,992	-200,000	-0,018	0,157
-436,978	-140,603	0,018	0,001
-435,963	-200,000	0,070	0,000
-434,949	632,916	0,084	-0,154
-433,934	755,788	0,008	-0,016
-432,919	-200,000	-0,000	-0,085
-431,905	162,722	0,075	-0,076
-430,890	-142,064	-0,078	-0,005
-429,876	286,517	0,052	-0,067
-428,861	-200,000	-0,045	0,173
-427,846	-200,000	-0,014	0,052
-426,832	-91,655	0,121	-0,024
-425,817	382,560	0,046	-0,069
-424,803	-28,405	-0,131	-0,054
-423,788	5,106	0,082	-0,043
-422,773	89,913	0,039	0,031
-421,759	112,168	0,055	0,047
-420,744	204,425	0,063	-0,070
-419,730	41,555	0,051	0,033
-418,715	234,640	0,079	-0,093
-417,701	-200,000	-0,002	-0,080
-416,686	-200,000	0,039	0,160
-415,671	-51,815	-0,122	0,041
-414,657	-200,000	0,033	-0,119
-413,642	90,598	0,051	-0,041
-412,628	-66,491	0,036	0,010
-411,613	-5,698	-0,178	0,087
-410,598	-14,591	0,135	-0,062
-409,584	-200,000	0,012	-0,088
-408,569	-190,888	-0,047	0,000
-407,555	181,128	0,104	0,110
-406,540	-106,906	0,095	-0,015
-405,525	46,712	-0,131	0,087
-404,511	250,260	-0,043	-0,053
-403,496	-200,000	-0,018	-0,196
-402,482	229,938	0,050	-0,059
-401,467	800,000	0,091	0,206
-400,452	-0,879	-0,039	0,020
-399,438	800,000	-0,050	0,147
-398,423	-59,278	0,073	-0,023
-397,409	-162,503	0,099	0,003
-396,394	-200,000	0,011	0,045
-395,379	280,271	0,005	0,006
-394,365	-64,860	0,024	0,007
-393,350	-188,611	-0,149	0,001
-392,336	-200,000	-0,009	0,040
-391,321	-134,938	0,056	-0,005
-390,306	19,449	-0,176	-0,101
-389,292	-200,000	0,019	-0,085
-388,277	240,989	-0,097	-0,116
-387,263	514,980	-0,056	0,095
-386,248	113,566	-0,044	0,038
-385,233	91,309	-0,049	-0,040
-384,219	391,255	0,009	-0,014
-383,204	261,607	-0,068	-0,085
-382,190	-134,907	-0,116	0,010
-381,175	342,392	-0,058	0,081
-380,160	-200,000	-0,008	-0,079
-379,146	262,502	-0,064	-0,080
-378,131	-154,593	0,102	0,005
-377,117	1,363	0,049	-0,025
-376,102	-200,000	-0,034	-0,160
-375,088	275,446	0,042	0,054
-374,073	-112,947	0,126	0,018
-373,058	-200,000	-0,007	-0,054
-372,044	800,000	-0,031	0,062
-371,029	-114,923	0,158	-0,021
-370,015	-200,000	-0,021	-0,157
-369,000	270,477	-0,102	-0,129
-367,985	-75,376	0,022	-0,006
-366,971	461,737	0,054	-0,087
-365,956	259,298	0,119	0,148
-364,942	-3,327	0,104	0,052
-363,927	800,000	0,057	0,132
-362,912	411,052	-0,061	0,093
-361,898	-28,475	-0,043	0,018
-360,883	399,824	0,003	0,004
-359,869	192,324	-0,035	-0,038
-358,854	-180,709	0,076	-0,001
-357,839	-60,574	0,118	0,036
-356,825	-190,961	0,132	0,001
-355,810	-75,946	0,079	0,020
-354,796	269,779	0,078	0,098
-353,781	20,202	0,016	-0,009
-352,766	464,760	0,028	0,045
-351,752	-48,297	-0,107	0,037
-350,737	303,714	0,051	0,068
-349,723	800,000	0,038	-0,103
-348,708	-200,000	0,020	-0,082
-347,693	135,862	0,098	0,092
-346,679	140,532	-0,104	-0,098
-345,664	126,998	-0,082	-0,074
-344,650	-200,000	-0,016	0,058
-343,635	-26,574	0,063	0,026
-342,620	-129,292	0,031	-0,003
-341,606	-200,000	0,007	0,099
-340,591	-131,205	-0,102	0,010
-339,577	201,084	-0,020	0,022
-338,562	-126,042	0,053	-0,006
-337,548	18,457	-0,139	-0,079
-336,533	800,000	0,036	0,093
-335,518	586,428	-0,042	0,073
-334,504	-200,000	-0,018	0,079
-333,489	-180,716	0,036	-0,001
-332,475	43,708	0,045	-0,030
-331,460	-8,659	0,068	0,032
-330,445	-158,116	-0,102	-0,004
-329,431	74,719	-0,116	0,087
-328,416	-200,000	0,061	0,194
-327,402	-200,000	0,027	0,264
-326,387	-154,606	0,094	0,004
-325,372	24,271	-0,119	-0,070
-324,358	197,424	-0,112	-0,123
-323,343	358,418	0,029	0,042
-322,329	-36,076	-0,054	0,021
-321,314	-1,039	-0,098	-0,049
-320,299	-22,264	-0,059	-0,025
-319,285	-1,081	0,041	0,021
-318,270	-200,000	-0,000	0,075
-317,256	583,563	-0,051	-0,090
-316,241	-134,779	0,043	0,004
-315,226	203,912	-0,052	0,058
-314,212	766,327	-0,049	0,097
-313,197	-200,000	0,015	0,059
-312,183	98,974	-0,069	0,057
-311,168	800,000	0,056	0,133
-310,153	-179,978	-0,146	-0,002
-309,139	116,094	-0,029	-0,026
-308,124	-200,000	-0,014	-0,076
-307,110	110,318	-0,142	-0,122
-306,095	-200,000	-0,009	0,111
-305,080	29,455	0,059	0,036
-304,066	148,899	0,022	-0,021
-303,051	-16,593	-0,061	0,027
-302,037	-200,000	0,021	-0,083
-301,022	534,568	0,074	0,126
-300,008	206,138	0,037	-0,042
-298,993	15,553	0,152	-0,085
-297,978	-67,757	-0,140	0,039
-296,964	273,302	-0,028	-0,036
-295,949	-78,790	-0,138	0,033
-294,935	-99,834	-0,090	-0,016
-293,920	-200,000	0,004	0,045
-292,905	800,000	0,019	0,054
-291,891	-106,838	0,117	-0,018
-290,876	-200,000	-0,005	0,020
-289,862	-49,241	-0,109	-0,037
-288,847	209,114	-0,024	-0,027
-287,832	800,000	0,027	-0,055
-286,818	177,875	0,073	0,076
-285,803	-34,461	0,124	0,048
-284,789	221,969	0,057	0,065
-283,774	556,933	-0,024	0,042
-282,759	-61,067	0,045	0,014
-281,745	146,730	-0,046	-0,045
-280,730	-56,856	-0,099	0,031
-279,716	-174,477	0,141	-0,003
-278,701	800,000	0,020	-0,040
-277,686	135,439	0,078	0,072
-276,672	145,682	0,092	-0,088
-275,657	78,295	0,044	-0,033
-274,643	800,000	0,054	-0,130
-273,628	-200,000	-0,015	0,057
-272,613	-200,000	0,009	0,145
-271,599	-200,000	0,001	0,011
-270,584	-200,000	0,012	0,176
-269,570	529,575	-0,048	0,080
-268,555	142,967	-0,042	0,040
-267,540	34,562	-0,180	0,112
-266,526	76,552	0,038	-0,029
-265,511	800,000	-0,035	0,089
-264,497	800,000	0,010	0,032
-263,482	513,833	0,038	0,064
-262,467	26,535	-0,026	-0,016
-261,453	716,260	-0,030	0,058
-260,438	-139,945	0,099	0,007
-259,424	-73,796	-0,123	0,032
-258,409	-32,531	-0,068	-0,027
-257,395	-200,000	-0,009	0,041
-256,380	778,905	-0,012	0,023
-255,365	-88,848	-0,086	-0,018
-254,351	516,926	0,048	0,080
-253,336	800,000	0,011	-0,025
-252,322	187,611	0,058	-0,062
-251,307	38,090	-0,078	0,049
-250,292	-116,101	-0,120	0,016
-249,278	324,955	0,071	0,097
-248,263	143,717	0,097	0,092
-247,249	-200,000	0,019	-0,087
-246,234	449,527	-0,014	0,022
-245,219	273,399	0,036	0,045
-244,205	224,149	-0,054	0,062
-243,190	-200,000	0,006	0,063
-242,176	74,432	0,108	0,081
-241,161	292,899	-0,008	0,011
-240,146	319,970	0,065	0,089
-239,132	-200,000	-0,001	0,072
-238,117	-58,511	-0,051	-0,016
-237,103	565,450	-0,058	0,100
-236,088	6,588	-0,053	-0,028
-235,073	-135,567	0,051	-0,004
-234,059	175,120	0,080	0,083
-233,044	143,381	0,147	0,140
-232,030	430,340	-0,012	-0,018
-231,015	-43,534	-0,018	-0,006
-230,000	-132,344	-0,057	0,005
-228,986	-84,815	-0,139	0,031
-227,971	-105,818	0,175	-0,028
-226,957	800,000	0,058	-0,158
-225,942	-135,106	0,038	-0,003
-224,927	6,685	-0,031	0,017
-223,913	-200,000	-0,018	-0,221
-222,898	92,248	0,080	0,064
-221,884	-200,000	0,012	-0,091
-220,869	-147,270	-0,094	0,006
-219,855	800,000	-0,025	0,063
-218,840	484,033	0,095	0,155
-217,825	122,562	0,082	-0,073
-216,811	64,398	-0,055	-0,040
-215,796	68,523	0,074	-0,054
-214,782	800,000	0,047	-0,126
-213,767	171,350	0,012	-0,012
-212,752	500,620	0,054	0,089
-211,738	-153,099	-0,109	-0,005
-210,723	-200,000	0,007	0,088
-209,709	19,140	-0,098	0,056
-208,694	259,564	-0,102	-0,125
-207,679	31,440	-0,051	0,031
-206,665	202,528	0,121	-0,134
-205,650	85,433	0,138	-0,108
-204,636	-126,161	-0,148	0,016
-203,621	717,460	0,035	-0,066
-202,606	285,262	0,084	-0,108
-201,592	800,000	-0,056	-0,148
-200,577	800,000	-0,022	-0,048
-199,563	800,000	-0,031	-0,061
-198,548	-200,000	0,020	0,120
-197,533	-200,000	0,006	0,104
-196,519	-200,000	-0,002	0,017
-195,504	800,000	0,024	0,072
-194,490	83,283	0,095	-0,073
-193,475	-200,000	-0,024	-0,089
-192,460	67,757	-0,067	0,049
-191,446	-79,399	0,062	0,015
-190,431	-61,587	-0,116	-0,034
-189,417	-200,000	0,013	0,214
-188,402	-200,000	-0,024	-0,154
-187,387	800,000	0,013	-0,041
-186,373	28,307	0,078	-0,047
-185,358	-32,462	-0,222	-0,088
-184,344	-200,000	0,032	0,138
-183,329	-46,573	-0,275	0,095
-182,315	338,297	0,028	0,039
-181,300	800,000	-0,065	0,134
-180,285	16,941	-0,081	-0,046
-179,271	-155,097	-0,074	0,003
-178,256	-200,000	-0,020	0,081
-177,242	120,020	0,088	0,078
-176,227	325,353	0,051	0,070
-175,212	491,831	0,023	0,038
-174,198	275,407	0,096	-0,121
-173,183	800,000	0,052	0,109
-172,169	-129,353	-0,054	0,005
-171,154	273,253	-0,028	-0,035
-170,139	800,000	-0,047	0,117
-169,125	-200,000	0,006	-0,065
-168,110	618,843	-0,042	0,076
-167,096	-200,000	0,003	-0,057
-166,081	800,000	0,034	-0,101
-165,066	-200,000	-0,018	-0,148
-164,052	-200,000	0,052	-0,000
-163,037	521,547	-0,016	-0,027
-162,023	-77,073	0,037	-0,009
-161,008	800,000	0,052	0,148
-159,993	200,602	0,061	0,067
-158,979	-200,000	-0,001	-0,095
-157,964	-200,000	-0,000	-0,037
-156,950	800,000	-0,066	-0,131
-155,935	-54,381	-0,152	-0,049
-154,920	800,000	-0,018	0,050
-153,906	129,170	-0,057	0,052
-152,891	280,880	0,025	0,032
-151,877	-76,708	-0,053	0,013
-150,862	12,679	0,057	-0,031
-149,847	84,732	-0,067	-0,052
-148,833	-110,874	-0,123	-0,018
-147,818	12,061	-0,149	-0,081
-146,804	339,697	-0,038	0,053
-145,789	-200,000	0,005	0,071
-144,775	-168,931	-0,142	0,004
-143,760	800,000	-0,041	-0,083
-142,745	-28,342	-0,017	0,007
-141,731	283,802	0,093	0,119
-140,716	249,266	-0,055	0,067
-139,702	426,455	-0,081	0,124
-138,687	274,399	-0,040	0,051
-137,672	-200,000	0,013	0,113
-136,658	-200,000	-0,007	0,070
-135,643	-200,000	0,032	0,104
-134,629	-12,106	-0,046	0,021
-133,614	-200,000	-0,002	-0,075
-132,599	800,000	0,044	0,105
-131,585	30,883	0,103	0,063
-130,570	270,788	-0,054	0,067
-129,556	-40,728	-0,108	0,039
-128,541	-10,930	-0,030	-0,014
-127,526	-8,085	0,046	0,022
-126,512	68,332	-0,100	0,073
-125,497	-200,000	-0,029	0,122
-124,483	4,705	0,082	0,043
-123,468	-140,009	-0,188	-0,014
-122,453	-46,758	-0,053	0,018
-121,439	18,069	0,092	0,052
-120,424	-200,000	0,002	0,102
-119,410	409,598	0,018	-0,027
