DTS Sentinel unit serial number:	SN410029Multiplexer serial number:	ORYXHardware model number:	OX2-SRSoftware version number:	ORYX F/W v4,00 Oryx Data Collector v3.7.2.0data status	okinstallation	B6 Nyhavnadifferential loss correction	single-endedforward channel	channel 2reverse channel	N/Adate	2023/12/11time	09:25:08forward acquisition time	300,00reverse acquisition time	0,00gamma	499,1914k internal	0,3138k external	0,3138temperature offset calibration	1,0000default loss term (dB/km)	0,3820temperature slope calibration	1,0000multiplexer offset coefficient	1,0000multiplexer slope coefficient	1,0000fibre end	0,00T internal ref (°C)	16,74T ext. ref 1 (°C)	-0,80T ext. ref 2 (°C)	-0,83length (m)	temperature (°C)	Stokes	anti-Stokes-744,400	-138,699	0,065	-0,005
-743,385	-69,688	-0,125	0,035
-742,371	261,164	0,098	0,126
-741,356	-62,008	-0,235	0,072
-740,342	-102,923	0,176	0,031
-739,327	-87,062	-0,289	-0,065
-738,312	-68,355	0,064	0,018
-737,298	-88,360	-0,317	0,070
-736,283	800,000	-0,026	0,056
-735,269	-145,375	-0,187	-0,012
-734,254	-37,253	-0,059	-0,023
-733,239	-80,551	-0,563	-0,138
-732,225	-95,547	0,136	0,027
-731,210	-200,000	0,050	0,000
-730,196	1,901	-0,181	0,097
-729,181	-200,000	0,010	-0,041
-728,167	59,057	-0,089	-0,065
-727,152	-132,475	-0,101	0,010
-726,137	80,729	0,011	-0,009
-725,123	-200,000	-0,001	0,017
-724,108	-19,842	-0,095	-0,043
-723,094	-200,000	-0,006	0,050
-722,079	422,627	-0,062	-0,098
-721,064	340,078	0,067	-0,098
-720,050	-200,000	0,018	-0,132
-719,035	655,905	0,065	-0,124
-718,021	194,810	0,086	-0,097
-717,006	35,387	0,069	-0,045
-715,991	-200,000	0,016	-0,104
-714,977	-200,000	-0,017	-0,108
-713,962	76,040	-0,111	-0,087
-712,948	536,970	-0,070	0,124
-711,933	444,070	-0,012	0,020
-710,918	171,709	-0,033	-0,036
-709,904	-200,000	0,003	-0,057
-708,889	-55,865	0,061	-0,020
-707,875	112,483	-0,111	0,100
-706,860	-200,000	-0,031	0,187
-705,845	-154,720	-0,081	0,004
-704,831	171,038	0,040	-0,043
-703,816	800,000	-0,024	-0,062
-702,802	-200,000	-0,006	-0,030
-701,787	106,852	0,055	-0,048
-700,772	-200,000	-0,018	0,071
-699,758	-200,000	-0,007	0,027
-698,743	-60,455	-0,053	0,017
-697,729	-39,020	0,096	0,037
-696,714	800,000	-0,055	-0,149
-695,699	-200,000	-0,016	-0,076
-694,685	800,000	-0,011	-0,030
-693,670	63,688	0,031	-0,023
-692,656	-200,000	-0,024	0,207
-691,641	-200,000	-0,000	0,030
-690,627	-200,000	-0,017	-0,070
-689,612	-200,000	0,013	-0,081
-688,597	800,000	-0,027	-0,079
-687,583	800,000	-0,002	-0,006
-686,568	-0,791	0,089	-0,046
-685,554	-200,000	0,016	-0,077
-684,539	316,316	0,020	-0,028
-683,524	-200,000	-0,018	-0,059
-682,510	193,296	0,031	0,035
-681,495	266,151	-0,047	-0,061
-680,481	-200,000	0,023	-0,115
-679,466	-32,229	-0,098	-0,040
-678,451	-75,224	-0,096	-0,025
-677,437	800,000	0,026	0,056
-676,422	-200,000	0,003	0,040
-675,408	-90,649	0,013	0,003
-674,393	-200,000	0,021	0,201
-673,378	-200,000	0,012	-0,108
-672,364	50,661	-0,108	-0,075
-671,349	-200,000	0,019	-0,074
-670,335	380,116	-0,036	0,055
-669,320	693,866	0,042	0,081
-668,305	800,000	-0,022	0,048
-667,291	19,623	0,086	-0,051
-666,276	173,972	-0,148	-0,158
-665,262	-200,000	-0,005	-0,137
-664,247	29,547	-0,137	-0,086
-663,232	800,000	-0,007	-0,021
-662,218	-6,285	0,053	0,027
-661,203	-136,103	-0,005	0,000
-660,189	-200,000	-0,001	0,032
-659,174	152,313	-0,067	-0,068
-658,159	-39,280	0,071	0,027
-657,145	-6,530	0,076	0,038
-656,130	800,000	-0,020	0,055
-655,116	45,430	0,088	0,060
-654,101	800,000	-0,108	0,236
-653,086	105,867	-0,097	0,085
-652,072	351,010	-0,103	0,151
-651,057	287,240	-0,072	-0,097
-650,043	-200,000	0,017	-0,089
-649,028	-54,248	-0,056	0,019
-648,014	164,955	0,079	-0,083
-646,999	324,587	0,083	0,117
-645,984	-112,194	0,131	0,019
-644,970	-200,000	-0,015	-0,063
-643,955	-200,000	-0,034	-0,146
-642,941	-46,688	-0,074	-0,027
-641,926	14,987	-0,070	-0,040
-640,911	277,975	0,025	0,033
-639,897	-84,213	-0,098	0,023
-638,882	145,247	-0,027	0,026
-637,868	3,126	-0,165	0,088
-636,853	98,574	-0,189	-0,161
-635,838	-84,407	0,079	-0,018
-634,824	-200,000	0,009	-0,061
-633,809	17,880	-0,004	0,002
-632,795	27,172	0,016	-0,010
-631,780	-15,651	0,049	-0,023
-630,765	216,879	-0,155	-0,182
-629,751	59,921	0,088	0,064
-628,736	-200,000	-0,009	0,035
-627,722	419,810	0,031	0,049
-626,707	-39,934	-0,084	0,032
-625,692	18,354	-0,099	0,058
-624,678	15,857	0,074	0,043
-623,663	-36,794	0,130	-0,051
-622,649	-165,919	-0,115	0,004
-621,634	98,536	-0,118	0,100
-620,619	-86,578	0,037	0,008
-619,605	-114,360	0,048	-0,007
-618,590	-200,000	0,007	-0,056
-617,576	-200,000	-0,000	0,066
-616,561	570,293	-0,062	0,112
-615,546	-200,000	-0,021	-0,101
-614,532	-112,237	-0,050	0,007
-613,517	-97,755	-0,141	0,027
-612,503	-200,000	0,006	0,074
-611,488	-200,000	0,001	0,043
-610,474	32,003	-0,006	0,004
-609,459	0,658	-0,112	0,059
-608,444	78,144	-0,030	-0,023
-607,430	655,532	0,055	-0,104
-606,415	-200,000	-0,051	-0,189
-605,401	-200,000	-0,022	-0,099
-604,386	-50,927	0,060	0,021
-603,371	-200,000	-0,032	-0,155
-602,357	-125,520	0,070	-0,008
-601,342	4,301	-0,031	0,017
-600,328	-200,000	-0,021	0,126
-599,313	93,713	0,116	-0,097
-598,298	-200,000	-0,009	-0,033
-597,284	-6,899	-0,112	-0,056
-596,269	474,844	0,047	0,078
-595,255	-27,752	-0,154	0,066
-594,240	800,000	0,017	0,047
-593,225	32,815	0,034	-0,022
-592,211	238,961	-0,077	-0,094
-591,196	107,447	0,042	-0,037
-590,182	16,911	-0,118	0,069
-589,167	-122,857	0,102	-0,012
-588,152	-40,224	0,205	0,078
-587,138	168,602	-0,066	0,069
-586,123	90,195	0,100	0,082
-585,109	-35,308	-0,069	0,028
-584,094	-151,662	-0,121	-0,006
-583,079	13,070	-0,075	-0,043
-582,065	88,102	-0,013	-0,011
-581,050	48,206	-0,118	0,082
-580,036	-39,008	-0,009	0,004
-579,021	260,139	0,046	-0,059
-578,006	800,000	-0,058	-0,141
-576,992	-200,000	0,030	0,154
-575,977	342,769	0,049	0,071
-574,963	-61,957	0,015	0,004
-573,948	-55,553	-0,185	0,061
-572,934	-200,000	0,020	0,105
-571,919	-118,721	-0,111	0,014
-570,904	-59,493	-0,018	0,006
-569,890	-11,885	-0,011	-0,005
-568,875	114,678	-0,094	0,084
-567,861	-200,000	-0,002	-0,055
-566,846	596,617	-0,068	0,124
-565,831	-183,901	-0,036	0,000
-564,817	-200,000	0,000	0,034
-563,802	119,497	-0,038	-0,035
-562,788	86,086	0,038	0,031
-561,773	-200,000	-0,001	-0,006
-560,758	742,971	0,019	-0,037
-559,744	-200,000	0,001	-0,020
-558,729	-200,000	0,039	-0,133
-557,715	800,000	-0,066	-0,207
-556,700	-174,217	0,046	-0,001
-555,685	-200,000	0,009	-0,050
-554,671	635,997	0,040	-0,076
-553,656	-69,586	0,123	0,035
-552,642	800,000	-0,029	0,065
-551,627	-39,147	0,057	0,022
-550,612	-33,283	-0,084	0,034
-549,598	800,000	-0,041	-0,093
-548,583	-109,566	-0,185	-0,028
-547,569	-91,681	-0,075	0,016
-546,554	-188,250	0,082	-0,001
-545,539	156,573	0,153	-0,156
-544,525	-185,510	0,019	-0,000
-543,510	200,282	-0,075	-0,085
-542,496	-81,034	-0,060	0,014
-541,481	370,389	-0,061	-0,091
-540,466	727,280	0,038	0,075
-539,452	-116,964	0,153	0,020
-538,437	320,634	-0,020	0,028
-537,423	6,668	0,144	-0,079
-536,408	411,697	0,037	-0,059
-535,393	-92,252	0,038	0,008
-534,379	-115,853	0,044	0,006
-533,364	-140,001	-0,031	0,002
-532,350	397,739	0,058	0,090
-531,335	800,000	-0,032	-0,089
-530,321	-200,000	-0,007	-0,098
-529,306	17,450	0,154	-0,090
-528,291	-46,195	-0,161	-0,058
-527,277	32,871	-0,049	-0,031
-526,262	-73,849	-0,066	0,018
-525,248	261,880	0,069	-0,089
-524,233	33,704	-0,051	0,033
-523,218	204,689	-0,052	-0,059
-522,204	743,831	0,051	-0,101
-521,189	-200,000	-0,021	-0,069
-520,175	-20,323	-0,116	-0,052
-519,160	214,331	0,067	-0,078
-518,145	363,348	0,087	0,128
-517,131	-31,782	0,107	0,044
-516,116	-200,000	0,036	-0,118
-515,102	-97,419	-0,042	-0,008
-514,087	-140,745	-0,036	0,003
-513,072	2,917	-0,061	0,033
-512,058	-71,507	0,073	0,020
-511,043	-59,373	-0,068	-0,021
-510,029	327,462	-0,042	-0,059
-509,014	127,078	0,020	0,018
-507,999	-104,123	-0,052	-0,009
-506,985	31,608	-0,116	0,073
-505,970	800,000	0,036	-0,078
-504,956	-75,105	0,016	-0,004
-503,941	-200,000	0,001	0,068
-502,926	-49,649	-0,121	0,042
-501,912	-167,653	-0,076	0,002
-500,897	140,193	0,055	0,053
-499,883	-81,052	0,121	-0,029
-498,868	800,000	0,051	0,130
-497,853	800,000	-0,026	0,054
-496,839	28,385	-0,071	-0,044
-495,824	800,000	0,045	0,111
-494,810	-200,000	0,019	0,097
-493,795	-200,000	-0,017	-0,081
-492,781	800,000	0,038	-0,116
-491,766	-200,000	-0,028	-0,104
-490,751	25,025	-0,036	0,022
-489,737	-200,000	0,063	-0,214
-488,722	-59,073	0,087	-0,028
-487,708	77,827	-0,036	0,029
-486,693	-200,000	-0,003	0,183
-485,678	11,774	-0,022	0,012
-484,664	800,000	-0,036	0,075
-483,649	-200,000	0,011	0,094
-482,635	-200,000	0,037	-0,136
-481,620	-200,000	0,032	0,152
-480,605	45,120	-0,076	0,051
-479,591	800,000	0,029	0,062
-478,576	-90,205	-0,103	0,022
-477,562	-58,766	-0,031	-0,010
-476,547	217,316	-0,039	0,046
-475,532	161,751	-0,047	0,048
-474,518	52,590	0,104	0,073
-473,503	84,728	0,046	0,037
-472,489	-200,000	0,013	0,075
-471,474	-69,753	0,138	0,039
-470,459	490,338	-0,029	-0,049
-469,445	-194,497	-0,131	-0,001
-468,430	230,039	0,022	-0,026
-467,416	-1,783	0,018	0,009
-466,401	-200,000	0,004	0,055
-465,386	-200,000	0,007	-0,035
-464,372	-64,816	0,011	0,003
-463,357	689,864	0,026	-0,049
-462,343	25,840	-0,120	-0,073
-461,328	109,672	0,039	0,034
-460,313	26,553	0,168	-0,103
-459,299	136,311	0,029	-0,028
-458,284	-200,000	0,002	0,189
-457,270	474,708	0,014	-0,023
-456,255	-107,084	-0,145	-0,023
-455,241	-8,431	0,035	-0,017
-454,226	124,770	-0,100	0,092
-453,211	-189,771	0,038	-0,000
-452,197	800,000	0,053	-0,114
-451,182	200,563	0,034	0,039
-450,168	-146,911	0,066	0,004
-449,153	800,000	-0,057	0,176
-448,138	-200,000	-0,027	0,102
-447,124	-36,560	-0,064	0,025
-446,109	-200,000	0,001	0,060
-445,095	-41,134	-0,136	0,051
-444,080	-127,025	0,102	0,011
-443,065	139,976	0,083	0,080
-442,051	-200,000	-0,012	-0,057
-441,036	-156,475	-0,139	-0,006
-440,022	-15,545	-0,062	-0,029
-439,007	35,043	0,135	-0,086
-437,992	800,000	-0,048	0,139
-436,978	-21,446	0,032	-0,014
-435,963	478,710	0,031	0,052
-434,949	-167,860	-0,130	0,004
-433,934	137,096	-0,078	-0,074
-432,919	120,937	0,056	-0,051
-431,905	-200,000	-0,002	-0,019
-430,890	2,015	0,144	0,076
-429,876	800,000	0,085	0,184
-428,861	-73,820	0,060	0,016
-427,846	-140,379	0,123	0,009
-426,832	-119,992	-0,033	0,004
-425,817	-200,000	-0,038	0,125
-424,803	-200,000	-0,004	0,066
-423,788	800,000	-0,021	0,054
-422,773	134,763	0,105	0,100
-421,759	-123,118	-0,011	-0,001
-420,744	-200,000	0,002	-0,133
-419,730	-200,000	-0,017	-0,131
-418,715	-58,344	0,075	-0,024
-417,701	-20,191	0,103	0,046
-416,686	188,382	-0,030	0,032
-415,671	800,000	0,016	0,049
-414,657	75,867	-0,141	-0,109
-413,642	84,369	-0,044	-0,035
-412,628	800,000	0,036	-0,078
-411,613	52,643	-0,067	-0,047
-410,598	423,574	0,054	-0,085
-409,584	-200,000	-0,010	0,073
-408,569	-166,850	0,076	-0,002
-407,555	226,591	-0,064	0,076
-406,540	-200,000	0,023	0,131
-405,525	-200,000	0,000	0,045
-404,511	-14,399	-0,184	-0,087
-403,496	36,844	-0,058	0,037
-402,482	-50,971	0,163	-0,056
-401,467	-200,000	0,010	-0,115
-400,452	184,370	0,043	0,046
-399,438	60,574	0,059	0,043
-398,423	262,184	-0,026	-0,033
-397,409	4,107	0,142	-0,076
-396,394	412,193	0,068	-0,107
-395,379	-200,000	0,003	-0,022
-394,365	800,000	-0,083	0,186
-393,350	763,285	0,015	0,031
-392,336	-152,556	0,099	0,005
-391,321	-8,513	-0,074	-0,036
-390,306	35,439	-0,187	-0,120
-389,292	-200,000	0,019	0,064
-388,277	-194,168	-0,035	-0,000
-387,263	-26,613	0,025	0,011
-386,248	49,023	0,039	0,026
-385,233	-200,000	0,012	-0,042
-384,219	-106,912	-0,161	-0,026
-383,204	79,572	-0,009	0,007
-382,190	800,000	0,054	-0,127
-381,175	292,058	0,035	0,047
-380,160	-200,000	-0,007	0,078
-379,146	337,533	0,064	-0,092
-378,131	14,990	-0,044	0,025
-377,117	-132,139	-0,126	-0,012
-376,102	-200,000	0,008	-0,087
-375,088	544,068	-0,023	0,040
-374,073	800,000	0,040	-0,119
-373,058	513,740	-0,033	-0,056
-372,044	-197,716	0,103	0,000
-371,029	-80,930	0,051	0,012
-370,015	-97,187	-0,190	0,036
-369,000	-134,159	-0,064	0,006
-367,985	-200,000	-0,001	-0,179
-366,971	800,000	0,010	-0,029
-365,956	-176,559	0,070	-0,001
-364,942	452,164	0,085	0,138
-363,927	-200,000	0,021	-0,072
-362,912	-41,864	0,070	0,026
-361,898	800,000	-0,049	0,140
-360,883	-109,504	-0,018	-0,003
-359,869	92,724	-0,083	-0,068
-358,854	73,261	0,082	-0,063
-357,839	474,743	0,032	0,054
-356,825	246,334	0,038	-0,046
-355,810	800,000	0,068	0,164
-354,796	418,905	0,035	0,055
-353,781	80,365	-0,116	-0,092
-352,766	150,881	0,061	-0,061
-351,752	16,243	-0,121	-0,069
-350,737	-11,059	0,055	0,026
-349,723	313,837	0,076	0,104
-348,708	-200,000	0,005	0,061
-347,693	-200,000	-0,048	-0,156
-346,679	-21,302	-0,084	-0,037
-345,664	-200,000	-0,006	-0,074
-344,650	-200,000	0,010	0,056
-343,635	727,863	-0,089	0,175
-342,620	-200,000	0,010	0,083
-341,606	-200,000	-0,011	-0,085
-340,591	-62,367	-0,056	-0,017
-339,577	90,855	-0,125	-0,102
-338,562	153,145	0,152	-0,152
-337,548	-51,032	-0,086	0,029
-336,533	-200,000	0,014	0,049
-335,518	352,209	0,039	0,057
-334,504	-21,001	0,130	0,058
-333,489	-200,000	0,016	0,065
-332,475	800,000	0,015	0,039
-331,460	-96,135	-0,171	-0,033
-330,445	-47,248	-0,126	-0,044
-329,431	-32,587	0,097	-0,039
-328,416	-200,000	0,035	0,233
-327,402	800,000	0,057	0,149
-326,387	800,000	0,032	0,066
-325,372	-25,488	0,093	0,040
-324,358	26,295	-0,091	-0,055
-323,343	214,666	-0,062	-0,072
-322,329	186,288	0,033	-0,036
-321,314	-106,085	0,099	0,016
-320,299	517,666	-0,027	0,047
-319,285	800,000	0,070	-0,159
-318,270	-200,000	0,022	0,102
-317,256	306,363	0,036	0,049
-316,241	321,524	-0,037	0,051
-315,226	6,624	0,105	0,057
-314,212	-130,288	0,110	-0,011
-313,197	71,439	0,060	0,045
-312,183	32,010	0,067	0,042
-311,168	152,614	0,007	0,007
-310,153	86,168	-0,082	0,066
-309,139	800,000	0,031	-0,095
-308,124	533,056	-0,033	0,056
-307,110	522,392	0,042	0,072
-306,095	-200,000	-0,003	-0,034
-305,080	244,680	-0,059	0,072
-304,066	101,193	0,066	0,056
-303,051	800,000	-0,020	-0,044
-302,037	-129,543	-0,012	-0,001
-301,022	26,516	0,092	0,056
-300,008	-200,000	0,005	-0,040
-298,993	21,009	0,046	-0,027
-297,978	30,016	0,033	-0,020
-296,964	800,000	0,024	-0,055
-295,949	88,245	0,032	0,026
-294,935	-68,819	-0,154	-0,043
-293,920	344,455	0,065	-0,093
-292,905	380,584	0,046	-0,069
-291,891	-200,000	0,016	0,074
-290,876	-200,000	0,013	0,153
-289,862	800,000	0,063	-0,132
-288,847	459,499	0,087	-0,141
-287,832	800,000	-0,055	0,139
-286,818	499,987	0,081	0,136
-285,803	-200,000	-0,041	-0,141
-284,789	152,218	0,053	-0,053
-283,774	73,194	-0,030	-0,023
-282,759	800,000	-0,031	0,097
-281,745	800,000	0,053	-0,120
-280,730	156,915	-0,072	-0,073
-279,716	77,219	0,077	-0,059
-278,701	60,062	-0,050	-0,036
-277,686	-200,000	0,041	0,143
-276,672	208,418	0,091	-0,104
-275,657	-200,000	0,003	-0,040
-274,643	74,956	-0,108	0,083
-273,628	-14,201	-0,132	-0,062
-272,613	800,000	0,065	-0,137
-271,599	800,000	-0,066	0,151
-270,584	311,957	-0,021	0,029
-269,570	800,000	0,020	-0,058
-268,555	-200,000	-0,004	-0,063
-267,540	390,447	-0,076	-0,116
-266,526	-104,748	0,118	-0,020
-265,511	-200,000	-0,027	-0,122
-264,497	-166,235	0,147	0,004
-263,482	-47,132	0,103	0,037
-262,467	144,206	-0,126	0,122
-261,453	-200,000	-0,012	0,092
-260,438	-181,860	-0,033	0,000
-259,424	-151,966	-0,047	-0,002
-258,409	438,934	0,047	-0,075
-257,395	396,866	-0,004	-0,006
-256,380	-200,000	-0,042	0,160
-255,365	800,000	0,004	-0,011
-254,351	110,079	-0,073	-0,064
-253,336	-138,105	-0,152	0,012
-252,322	59,375	0,047	-0,033
-251,307	800,000	-0,030	0,090
-250,292	-43,187	0,047	0,017
-249,278	358,049	0,173	0,252
-248,263	-54,638	0,052	0,017
-247,249	206,877	0,032	-0,037
-246,234	-151,454	-0,057	-0,003
-245,219	800,000	-0,040	-0,115
-244,205	456,848	0,072	-0,117
-243,190	145,695	-0,047	-0,046
-242,176	-200,000	-0,016	0,066
-241,161	-200,000	0,002	0,028
-240,146	69,038	0,071	-0,053
-239,132	249,263	0,050	0,062
-238,117	800,000	-0,033	-0,071
-237,103	800,000	0,007	-0,019
-236,088	299,887	0,055	0,074
-235,073	-49,581	-0,064	0,022
-234,059	-87,953	-0,087	-0,019
-233,044	-19,577	-0,050	-0,022
-232,030	800,000	0,047	0,114
-231,015	-133,018	-0,024	-0,002
-230,000	269,009	-0,062	-0,080
-228,986	118,372	0,070	-0,063
-227,971	-153,311	0,117	-0,006
-226,957	800,000	0,028	-0,081
-225,942	203,666	0,053	0,060
-224,927	800,000	0,043	-0,117
-223,913	-200,000	0,009	-0,036
-222,898	144,637	-0,095	-0,092
-221,884	62,920	-0,067	-0,048
-220,869	146,276	0,028	0,028
-219,855	-77,234	0,151	0,038
-218,840	800,000	0,046	0,119
-217,825	13,752	0,077	0,043
-216,811	93,258	-0,058	0,048
-215,796	84,030	0,127	-0,100
-214,782	19,602	-0,038	-0,022
-213,767	-200,000	-0,008	0,066
-212,752	800,000	0,024	0,074
-211,738	186,150	-0,062	0,068
-210,723	138,225	0,095	0,091
-209,709	71,316	-0,081	0,061
-208,694	142,328	0,013	0,013
-207,679	399,799	-0,031	-0,047
-206,665	-103,643	0,106	-0,018
-205,650	-200,000	0,009	0,110
-204,636	-53,111	0,097	0,032
-203,621	800,000	0,024	-0,050
-202,606	187,950	-0,058	-0,063
-201,592	-111,514	-0,154	0,023
-200,577	35,692	-0,064	0,041
-199,563	220,286	0,042	0,049
-198,548	5,986	0,134	0,072
-197,533	-200,000	-0,008	0,085
-196,519	94,637	0,073	-0,060
-195,504	150,517	-0,031	-0,031
-194,490	800,000	-0,032	-0,102
-193,475	44,961	0,031	0,021
-192,460	800,000	-0,064	-0,149
-191,446	338,307	0,032	-0,045
-190,431	463,019	0,085	0,138
-189,417	-174,406	0,073	-0,001
-188,402	-200,000	-0,035	0,113
-187,387	800,000	0,040	-0,083
-186,373	172,430	-0,058	0,061
-185,358	-108,256	-0,059	-0,009
-184,344	-200,000	0,038	-0,144
-183,329	-119,731	-0,097	-0,012
-182,315	221,471	0,119	-0,139
-181,300	-117,049	-0,067	0,009
-180,285	-118,442	-0,117	0,015
-179,271	-200,000	0,005	-0,115
-178,256	-200,000	-0,035	-0,150
-177,242	800,000	0,045	0,134
-176,227	-2,826	0,097	0,049
-175,212	800,000	-0,041	-0,130
-174,198	800,000	-0,035	-0,075
-173,183	-71,665	0,099	-0,027
-172,169	-113,486	0,052	-0,007
-171,154	-67,349	0,068	0,019
-170,139	217,702	-0,087	-0,100
-169,125	-200,000	-0,006	0,159
-168,110	800,000	-0,056	0,117
-167,096	437,021	0,100	0,159
-166,081	35,626	-0,142	-0,090
-165,066	-200,000	0,012	0,042
-164,052	-42,491	0,032	0,012
-163,037	-158,635	0,116	0,005
-162,023	-41,893	0,170	-0,063
-161,008	-200,000	-0,001	0,103
-159,993	241,754	-0,088	-0,107
-158,979	800,000	-0,011	-0,033
-157,964	-100,554	-0,088	-0,016
-156,950	-20,667	-0,070	0,031
-155,935	-200,000	0,001	0,113
-154,920	-67,752	-0,086	-0,024
-153,906	-40,612	0,095	0,036
-152,891	-200,000	-0,015	-0,103
-151,877	-200,000	0,027	0,151
-150,862	394,254	-0,098	0,148
-149,847	-200,000	0,009	0,066
-148,833	800,000	0,032	-0,067
-147,818	800,000	0,035	-0,090
-146,804	231,380	0,041	0,049
-145,789	21,545	0,132	-0,078
-144,775	280,379	-0,103	-0,133
-143,760	270,818	-0,079	-0,101
-142,745	800,000	-0,022	0,067
-141,731	-136,014	0,162	-0,014
-140,716	-25,793	0,134	0,057
-139,702	261,306	0,079	-0,099
-138,687	-200,000	0,003	-0,061
-137,672	274,597	0,040	-0,051
-136,658	-200,000	0,003	-0,060
-135,643	-16,808	-0,065	-0,030
-134,629	-20,746	0,055	-0,024
-133,614	-200,000	0,021	0,098
-132,599	592,701	0,023	0,042
-131,585	-200,000	-0,014	-0,077
-130,570	800,000	-0,007	0,014
-129,556	-104,581	0,027	-0,005
-128,541	4,609	-0,139	0,074
-127,526	670,613	0,048	0,091
-126,512	115,999	-0,034	0,030
-125,497	-200,000	-0,007	0,124
-124,483	-200,000	0,053	0,176
-123,468	-200,000	0,001	0,040
-122,453	495,038	-0,043	-0,072
-121,439	-200,000	0,014	0,080
-120,424	-53,874	-0,069	-0,023
-119,410	-28,683	0,147	-0,061
-118,395	214,295	0,034	0,039
