DTS Sentinel unit serial number:	SN410029Multiplexer serial number:	ORYXHardware model number:	OX2-SRSoftware version number:	ORYX F/W v4,00 Oryx Data Collector v3.7.2.0data status	okinstallation	B6 Nyhavnadifferential loss correction	single-endedforward channel	channel 2reverse channel	N/Adate	2023/12/10time	10:05:08forward acquisition time	300,00reverse acquisition time	0,00gamma	499,1914k internal	0,3123k external	0,3123temperature offset calibration	1,0000default loss term (dB/km)	0,3820temperature slope calibration	1,0000multiplexer offset coefficient	1,0000multiplexer slope coefficient	1,0000fibre end	0,00T internal ref (°C)	22,56T ext. ref 1 (°C)	6,39T ext. ref 2 (°C)	6,38length (m)	temperature (°C)	Stokes	anti-Stokes-744,400	534,734	-0,051	-0,090
-743,385	-126,239	-0,209	0,023
-742,371	-81,606	-0,104	-0,025
-741,356	-173,218	-0,218	0,005
-740,342	-152,654	0,139	-0,007
-739,327	-43,856	-0,137	-0,051
-738,312	-28,895	-0,081	-0,034
-737,298	-73,696	-0,256	0,069
-736,283	-200,000	0,032	-0,141
-735,269	44,169	-0,150	0,102
-734,254	163,306	0,082	-0,086
-733,239	-68,442	-0,447	-0,129
-732,225	748,411	0,056	-0,112
-731,210	-6,934	-0,070	0,035
-730,196	79,561	0,110	0,088
-729,181	61,049	-0,069	-0,051
-728,167	-200,000	-0,002	0,019
-727,152	440,078	-0,049	-0,079
-726,137	220,369	-0,091	0,109
-725,123	-98,319	-0,144	-0,027
-724,108	-200,000	0,025	0,000
-723,094	-200,000	-0,002	-0,065
-722,079	151,825	-0,084	-0,086
-721,064	-159,553	-0,034	-0,001
-720,050	-95,427	-0,131	-0,026
-719,035	-200,000	0,028	0,117
-718,021	356,179	-0,067	0,099
-717,006	800,000	-0,015	-0,036
-715,991	-64,419	-0,155	-0,047
-714,977	-156,641	-0,102	-0,005
-713,962	-200,000	-0,026	-0,092
-712,948	205,018	-0,054	0,063
-711,933	792,082	0,012	-0,025
-710,918	-200,000	-0,004	0,054
-709,904	143,640	0,045	-0,045
-708,889	800,000	-0,057	-0,170
-707,875	33,532	-0,095	-0,061
-706,860	-200,000	-0,001	-0,055
-705,845	800,000	0,054	-0,134
-704,831	-200,000	0,018	-0,205
-703,816	-200,000	0,003	-0,097
-702,802	125,310	-0,082	-0,077
-701,787	465,947	0,041	0,069
-700,772	4,575	0,101	-0,055
-699,758	105,231	-0,125	-0,110
-698,743	1,389	0,103	0,055
-697,729	465,563	-0,023	-0,039
-696,714	-200,000	0,007	0,102
-695,699	453,633	0,067	-0,111
-694,685	-200,000	-0,028	0,096
-693,670	-166,871	-0,111	0,003
-692,656	292,442	0,078	-0,106
-691,641	-200,000	-0,006	-0,102
-690,627	-89,119	-0,037	-0,008
-689,612	189,388	-0,030	0,033
-688,597	187,086	0,052	-0,058
-687,583	-200,000	-0,019	-0,063
-686,568	800,000	-0,008	-0,023
-685,554	57,932	0,068	-0,049
-684,539	34,473	-0,051	0,033
-683,524	65,008	-0,052	-0,039
-682,510	374,404	-0,077	0,117
-681,495	16,230	-0,061	-0,036
-680,481	456,235	-0,074	-0,122
-679,466	-21,055	-0,077	0,035
-678,451	430,497	-0,003	0,005
-677,437	250,005	-0,073	0,093
-676,422	-36,902	-0,125	0,050
-675,408	341,115	-0,077	-0,111
-674,393	800,000	-0,024	0,071
-673,378	564,734	0,028	0,051
-672,364	5,152	-0,035	-0,019
-671,349	184,932	-0,108	-0,119
-670,335	-75,828	0,055	0,014
-669,320	391,057	0,051	-0,079
-668,305	-83,311	-0,081	0,019
-667,291	33,987	0,054	0,035
-666,276	800,000	-0,012	-0,026
-665,262	280,500	-0,029	-0,039
-664,247	457,287	-0,114	-0,190
-663,232	-24,281	0,089	0,039
-662,218	-57,552	-0,090	-0,029
-661,203	-146,804	0,087	0,005
-660,189	-12,230	-0,018	0,009
-659,174	58,396	-0,146	-0,106
-658,159	-200,000	0,008	-0,087
-657,145	800,000	-0,003	0,006
-656,130	800,000	-0,023	-0,051
-655,116	-54,957	-0,014	0,005
-654,101	-200,000	0,031	-0,103
-653,086	40,240	-0,023	0,015
-652,072	233,929	-0,039	-0,048
-651,057	1,896	0,063	-0,034
-650,043	691,181	-0,068	-0,132
-649,028	800,000	0,025	-0,080
-648,014	-77,994	0,036	0,009
-646,999	-57,987	-0,033	-0,011
-645,984	740,248	-0,101	-0,202
-644,970	-94,454	0,119	0,024
-643,955	50,206	-0,071	-0,050
-642,941	70,917	0,065	-0,050
-641,926	800,000	-0,025	0,072
-640,911	223,236	-0,031	-0,037
-639,897	-11,374	-0,125	0,061
-638,882	288,460	0,058	-0,078
-637,868	-200,000	0,015	-0,126
-636,853	-200,000	0,013	-0,129
-635,838	168,712	-0,080	-0,085
-634,824	-200,000	-0,033	-0,115
-633,809	-101,998	0,101	-0,018
-632,795	135,094	0,042	0,040
-631,780	-77,927	-0,065	0,017
-630,765	163,119	0,063	0,066
-629,751	-200,000	-0,018	-0,087
-628,736	-200,000	-0,020	-0,117
-627,722	-200,000	0,009	0,035
-626,707	-117,608	-0,197	0,026
-625,692	800,000	0,020	0,050
-624,678	78,638	-0,079	0,062
-623,663	210,728	0,079	-0,093
-622,649	-14,033	0,078	-0,037
-621,634	-200,000	0,011	0,144
-620,619	203,537	-0,090	-0,103
-619,605	-149,286	-0,093	-0,005
-618,590	337,365	-0,016	-0,023
-617,576	88,031	0,107	0,088
-616,561	0,988	-0,033	-0,018
-615,546	23,494	-0,141	-0,086
-614,532	373,529	0,025	-0,038
-613,517	109,404	0,070	-0,062
-612,503	-200,000	0,013	-0,099
-611,488	-99,065	-0,096	-0,018
-610,474	121,693	0,111	-0,103
-609,459	275,293	0,018	0,024
-608,444	-200,000	-0,007	0,097
-607,430	398,400	0,026	0,041
-606,415	56,771	0,055	0,040
-605,401	-58,994	-0,100	0,032
-604,386	-200,000	-0,011	0,044
-603,371	47,394	0,127	0,088
-602,357	155,161	0,013	0,013
-601,342	-200,000	-0,004	-0,122
-600,328	178,565	-0,047	-0,051
-599,313	-51,322	-0,030	-0,010
-598,298	303,802	-0,007	0,010
-597,284	-115,152	-0,079	0,011
-596,269	800,000	0,068	0,148
-595,255	800,000	0,013	0,031
-594,240	-200,000	-0,018	0,063
-593,225	-132,170	-0,085	-0,008
-592,211	-68,858	-0,062	-0,018
-591,196	-200,000	0,016	-0,120
-590,182	300,517	0,031	0,043
-589,167	-55,503	0,100	-0,033
-588,152	-200,000	-0,030	-0,151
-587,138	-71,164	-0,125	-0,034
-586,123	-200,000	-0,010	-0,129
-585,109	-200,000	-0,001	0,091
-584,094	-200,000	-0,006	0,037
-583,079	317,669	-0,055	0,077
-582,065	286,370	-0,051	-0,069
-581,050	0,573	0,095	-0,050
-580,036	-8,845	-0,065	-0,032
-579,021	-200,000	0,011	-0,090
-578,006	93,496	-0,089	0,075
-576,992	800,000	0,016	-0,039
-575,977	-76,508	0,065	0,017
-574,963	800,000	0,022	0,052
-573,948	-200,000	0,005	0,105
-572,934	-53,551	-0,020	0,007
-571,919	-27,361	-0,154	-0,066
-570,904	800,000	0,022	0,066
-569,890	-88,784	0,101	0,022
-568,875	286,807	-0,040	0,054
-567,861	246,080	0,042	-0,052
-566,846	-158,414	0,074	0,003
-565,831	-200,000	0,000	-0,084
-564,817	800,000	0,055	0,137
-563,802	-200,000	-0,004	-0,125
-562,788	242,483	-0,089	-0,110
-561,773	-200,000	0,032	-0,166
-560,758	800,000	0,052	-0,118
-559,744	-162,028	0,095	-0,003
-558,729	-45,072	-0,134	0,049
-557,715	800,000	-0,055	-0,158
-556,700	311,786	0,035	0,048
-555,685	800,000	0,022	-0,072
-554,671	-0,650	-0,090	-0,047
-553,656	309,586	0,058	0,081
-552,642	245,410	-0,086	-0,108
-551,627	-200,000	0,008	-0,037
-550,612	36,153	0,050	0,032
-549,598	-30,033	0,105	0,044
-548,583	-16,433	-0,085	-0,040
-547,569	-32,526	0,145	0,060
-546,554	-200,000	0,008	0,095
-545,539	-0,112	0,057	0,030
-544,525	100,426	-0,050	-0,043
-543,510	-200,000	-0,002	0,050
-542,496	-157,782	-0,165	-0,007
-541,481	514,498	0,043	-0,075
-540,466	27,276	0,016	-0,010
-539,452	31,294	0,006	-0,004
-538,437	91,866	-0,103	0,086
-537,423	800,000	-0,034	0,103
-536,408	-52,377	0,088	-0,030
-535,393	-119,778	-0,132	-0,017
-534,379	-11,199	-0,035	-0,017
-533,364	428,967	0,056	-0,090
-532,350	-200,000	0,001	-0,024
-531,335	235,912	0,052	0,064
-530,321	800,000	0,026	-0,082
-529,306	519,907	-0,034	0,059
-528,291	671,283	-0,053	-0,103
-527,277	800,000	-0,026	-0,081
-526,262	800,000	0,051	0,145
-525,248	-8,847	-0,028	-0,014
-524,233	174,836	0,125	0,134
-523,218	800,000	-0,028	0,068
-522,204	800,000	-0,023	-0,068
-521,189	-134,236	0,038	-0,003
-520,175	140,079	0,098	-0,096
-519,160	-92,811	-0,085	-0,018
-518,145	47,416	0,075	-0,052
-517,131	135,372	0,051	-0,049
-516,116	287,013	-0,045	0,060
-515,102	168,958	0,051	-0,054
-514,087	-102,680	-0,091	-0,016
-513,072	114,647	-0,122	-0,110
-512,058	-52,721	-0,045	0,015
-511,043	800,000	0,023	0,059
-510,029	-200,000	-0,005	-0,037
-509,014	-200,000	-0,039	-0,137
-507,999	800,000	0,074	0,175
-506,985	219,308	0,079	-0,093
-505,970	743,495	0,037	0,075
-504,956	-66,094	-0,087	-0,025
-503,941	800,000	0,058	0,125
-502,926	-180,167	0,120	0,002
-501,912	-81,723	0,130	0,031
-500,897	375,923	-0,038	0,057
-499,883	-88,168	0,063	-0,014
-498,868	-27,839	-0,017	-0,007
-497,853	129,641	0,098	-0,093
-496,839	-200,000	-0,035	-0,136
-495,824	97,882	0,083	0,071
-494,810	800,000	-0,030	0,084
-493,795	-72,596	-0,081	0,022
-492,781	-86,640	-0,065	0,015
-491,766	800,000	-0,041	-0,120
-490,751	-52,260	-0,073	-0,025
-489,737	-21,699	0,165	-0,074
-488,722	543,389	-0,041	0,072
-487,708	63,457	-0,026	-0,019
-486,693	-200,000	0,001	-0,085
-485,678	800,000	-0,023	-0,048
-484,664	145,144	-0,130	-0,128
-483,649	800,000	0,024	0,076
-482,635	425,195	-0,074	0,119
-481,620	-64,060	0,075	0,022
-480,605	645,613	0,041	0,078
-479,591	800,000	-0,017	0,045
-478,576	-67,826	-0,180	0,051
-477,562	538,214	-0,031	0,054
-476,547	-9,221	0,042	0,021
-475,532	-200,000	0,021	-0,144
-474,518	716,519	-0,024	0,048
-473,503	-200,000	0,028	0,146
-472,489	-200,000	0,002	-0,014
-471,474	108,397	-0,063	0,056
-470,459	-17,036	-0,114	-0,053
-469,445	-124,401	-0,112	0,013
-468,430	-86,456	-0,021	0,005
-467,416	-30,093	-0,031	-0,013
-466,401	123,413	0,128	0,119
-465,386	800,000	-0,005	0,011
-464,372	-172,829	0,105	0,002
-463,357	31,634	-0,052	-0,033
-462,343	57,992	-0,047	0,034
-461,328	39,964	-0,054	0,036
-460,313	-200,000	-0,003	0,063
-459,299	491,709	-0,015	0,025
-458,284	698,573	0,028	-0,054
-457,270	-47,255	0,090	0,032
-456,255	-77,807	-0,046	0,012
-455,241	-200,000	0,004	-0,020
-454,226	800,000	0,026	-0,062
-453,211	33,662	0,131	0,083
-452,197	-200,000	0,003	0,068
-451,182	-199,175	-0,056	-0,000
-450,168	-119,134	-0,087	-0,011
-449,153	-20,245	-0,027	0,012
-448,138	147,102	-0,074	-0,074
-447,124	-111,144	0,040	-0,006
-446,109	188,479	-0,098	-0,108
-445,095	194,442	0,099	0,110
-444,080	800,000	-0,040	-0,099
-443,065	-85,563	0,093	-0,021
-442,051	-61,855	-0,068	0,021
-441,036	800,000	-0,068	0,142
-440,022	467,324	0,033	0,054
-439,007	-36,598	-0,219	0,086
-437,992	411,823	-0,014	-0,022
-436,978	640,479	0,006	-0,011
-435,963	-200,000	0,018	0,089
-434,949	169,070	-0,104	0,109
-433,934	652,153	0,041	-0,078
-432,919	-200,000	-0,004	-0,027
-431,905	-200,000	0,032	0,153
-430,890	-200,000	-0,019	-0,063
-429,876	482,989	0,087	-0,146
-428,861	-155,417	0,099	0,005
-427,846	800,000	-0,051	0,124
-426,832	-200,000	0,011	-0,167
-425,817	206,783	-0,022	0,025
-424,803	-200,000	-0,004	-0,087
-423,788	-200,000	0,035	0,118
-422,773	400,467	-0,029	-0,044
-421,759	800,000	-0,016	0,046
-420,744	-109,408	0,086	-0,013
-419,730	103,832	-0,077	-0,067
-418,715	800,000	0,013	-0,029
-417,701	800,000	-0,064	0,156
-416,686	309,154	0,036	-0,050
-415,671	-200,000	-0,004	0,023
-414,657	19,954	0,118	0,070
-413,642	-30,319	0,144	0,060
-412,628	-93,524	-0,043	-0,009
-411,613	217,798	-0,059	0,069
-410,598	800,000	-0,007	0,017
-409,584	-200,000	-0,003	-0,014
-408,569	-200,000	-0,019	0,125
-407,555	127,952	0,073	0,069
-406,540	-0,911	-0,106	0,055
-405,525	228,239	-0,078	-0,094
-404,511	354,724	-0,045	0,066
-403,496	-200,000	0,021	-0,104
-402,482	165,233	-0,083	-0,086
-401,467	-4,385	0,085	-0,043
-400,452	46,262	-0,077	0,052
-399,438	-200,000	0,010	0,048
-398,423	728,132	-0,089	-0,175
-397,409	37,988	-0,043	0,028
-396,394	100,671	-0,062	-0,053
-395,379	-48,417	0,044	0,016
-394,365	37,892	-0,032	-0,021
-393,350	-200,000	-0,031	0,162
-392,336	429,354	0,067	0,107
-391,321	-0,426	-0,028	-0,015
-390,306	134,533	-0,092	0,088
-389,292	-200,000	0,017	-0,087
-388,277	-200,000	-0,007	0,099
-387,263	104,512	-0,059	-0,051
-386,248	-162,867	0,166	0,006
-385,233	-200,000	0,004	-0,056
-384,219	-81,491	0,063	0,015
-383,204	-5,452	-0,076	0,038
-382,190	8,104	0,009	-0,005
-381,175	-45,537	0,045	0,016
-380,160	-123,267	0,028	0,003
-379,146	140,861	-0,059	-0,058
-378,131	-200,000	-0,019	0,126
-377,117	137,119	-0,116	0,112
-376,102	-200,000	0,021	-0,115
-375,088	-31,790	-0,061	-0,025
-374,073	113,544	0,048	0,043
-373,058	93,934	0,023	-0,019
-372,044	-200,000	0,001	0,129
-371,029	176,250	-0,042	-0,045
-370,015	-200,000	-0,010	-0,077
-369,000	-200,000	-0,013	-0,130
-367,985	235,098	-0,036	-0,043
-366,971	-107,958	0,104	0,017
-365,956	53,501	0,167	0,118
-364,942	574,429	0,069	0,124
-363,927	-200,000	-0,018	-0,060
-362,912	-41,558	0,168	0,063
-361,898	504,719	0,072	-0,122
-360,883	-200,000	-0,018	-0,162
-359,869	-200,000	-0,006	-0,086
-358,854	-32,014	-0,075	-0,031
-357,839	800,000	0,024	0,056
-356,825	276,035	-0,044	-0,058
-355,810	76,105	0,059	0,046
-354,796	588,735	0,101	0,184
-353,781	-35,651	-0,054	0,021
-352,766	-200,000	0,000	0,025
-351,752	-200,000	-0,000	-0,025
-350,737	-47,539	0,221	-0,079
-349,723	-88,426	0,100	-0,022
-348,708	-59,282	0,080	0,025
-347,693	5,485	0,102	-0,055
-346,679	-200,000	-0,012	-0,073
-345,664	312,000	0,070	-0,097
-344,650	-103,039	0,044	-0,008
-343,635	20,267	0,020	0,012
-342,620	111,743	-0,069	0,061
-341,606	66,671	0,053	-0,040
-340,591	-200,000	-0,002	-0,118
-339,577	9,926	-0,160	-0,089
-338,562	800,000	0,017	0,052
-337,548	-22,871	-0,061	-0,027
-336,533	-9,201	0,105	0,051
-335,518	-200,000	0,007	-0,061
-334,504	185,479	-0,082	0,090
-333,489	-178,149	-0,134	0,002
-332,475	162,022	0,066	0,068
-331,460	-191,823	0,046	-0,000
-330,445	510,047	0,034	0,059
-329,431	106,572	0,104	0,091
-328,416	91,179	0,080	-0,066
-327,402	-200,000	-0,006	-0,069
-326,387	800,000	0,034	0,096
-325,372	-200,000	-0,004	-0,026
-324,358	168,968	0,009	-0,009
-323,343	-200,000	-0,008	-0,119
-322,329	800,000	-0,032	0,102
-321,314	800,000	-0,056	0,139
-320,299	-200,000	-0,014	0,119
-319,285	289,322	0,057	0,076
-318,270	702,695	0,056	-0,108
-317,256	-87,945	-0,095	-0,021
-316,241	-200,000	-0,156	0,000
-315,226	-23,787	-0,090	0,039
-314,212	-79,062	0,143	-0,035
-313,197	38,932	0,074	-0,048
-312,183	276,480	-0,035	-0,045
-311,168	800,000	-0,047	-0,126
-310,153	-54,031	-0,045	-0,015
-309,139	-29,980	0,037	-0,015
-308,124	800,000	0,031	-0,098
-307,110	-19,542	0,128	-0,058
-306,095	291,517	0,086	0,115
-305,080	-200,000	0,004	0,128
-304,066	800,000	-0,029	-0,061
-303,051	-134,766	-0,027	-0,002
-302,037	-200,000	0,030	0,136
-301,022	369,751	0,051	0,076
-300,008	-172,201	0,066	-0,002
-298,993	-26,031	-0,114	-0,049
-297,978	-200,000	0,008	0,057
-296,964	-65,341	-0,029	-0,008
-295,949	800,000	0,023	-0,051
-294,935	66,450	-0,041	0,031
-293,920	-122,507	0,090	-0,011
-292,905	800,000	-0,067	0,152
-291,891	83,742	0,080	-0,064
-290,876	408,207	0,048	0,074
-289,862	-82,778	-0,124	0,029
-288,847	800,000	-0,035	0,073
-287,832	800,000	-0,036	-0,080
-286,818	-200,000	-0,006	-0,077
-285,803	107,255	-0,012	0,010
-284,789	-157,292	0,042	0,002
-283,774	-73,603	-0,097	0,026
-282,759	431,228	0,048	-0,077
-281,745	29,525	0,066	0,041
-280,730	-200,000	0,014	-0,081
-279,716	311,619	-0,057	0,078
-278,701	506,091	0,072	-0,122
-277,686	-75,313	-0,110	0,029
-276,672	394,857	0,045	-0,069
-275,657	484,183	0,040	0,067
-274,643	-122,811	-0,110	0,013
-273,628	-71,594	-0,105	0,028
-272,613	-57,691	-0,042	-0,013
-271,599	432,758	0,066	0,105
-270,584	-40,697	-0,023	-0,009
-269,570	166,500	-0,013	-0,013
-268,555	-200,000	0,002	-0,075
-267,540	83,532	0,032	0,025
-266,526	800,000	-0,027	0,066
-265,511	-200,000	0,014	-0,053
-264,497	800,000	0,068	-0,141
-263,482	-91,212	0,057	-0,012
-262,467	-200,000	-0,018	0,113
-261,453	-81,845	-0,068	-0,016
-260,438	-180,205	0,064	-0,001
-259,424	-200,000	0,010	-0,130
-258,409	-108,850	-0,191	0,029
-257,395	-200,000	0,056	0,184
-256,380	660,248	-0,022	-0,041
-255,365	-56,824	-0,060	0,019
-254,351	-120,364	0,101	0,012
-253,336	800,000	-0,030	0,075
-252,322	-5,280	-0,102	-0,051
-251,307	6,506	-0,067	-0,036
-250,292	309,560	-0,046	-0,063
-249,278	-23,820	-0,040	-0,017
-248,263	517,865	0,030	0,052
-247,249	-111,517	-0,027	-0,004
-246,234	36,539	-0,092	-0,059
-245,219	118,261	-0,088	-0,080
-244,205	-40,117	0,121	-0,046
-243,190	75,775	-0,039	-0,030
-242,176	73,408	-0,059	0,045
-241,161	-131,814	-0,029	-0,003
-240,146	-98,123	-0,153	0,029
-239,132	329,974	0,079	0,112
-238,117	800,000	-0,019	-0,045
-237,103	-200,000	-0,015	0,061
-236,088	-114,114	0,102	-0,014
-235,073	414,779	0,122	0,190
-234,059	21,846	-0,053	0,032
-233,044	-88,329	0,166	0,036
-232,030	286,968	-0,033	-0,044
-231,015	-200,000	-0,027	-0,172
-230,000	232,360	0,083	0,100
-228,986	200,249	-0,053	-0,059
-227,971	-200,000	0,015	-0,086
-226,957	-139,010	0,021	-0,002
-225,942	-200,000	0,021	0,076
-224,927	-200,000	0,004	-0,142
-223,913	800,000	0,049	0,122
-222,898	139,697	-0,108	-0,104
-221,884	-96,540	0,109	0,021
-220,869	800,000	0,016	0,042
-219,855	-200,000	-0,016	-0,106
-218,840	291,567	0,030	-0,040
-217,825	-200,000	-0,039	0,205
-216,811	-200,000	-0,030	-0,107
-215,796	800,000	0,032	-0,082
-214,782	800,000	0,013	-0,028
-213,767	-30,520	-0,044	-0,018
-212,752	154,786	0,039	0,039
-211,738	21,554	0,096	0,057
-210,723	-200,000	-0,002	-0,017
-209,709	36,902	-0,099	-0,064
-208,694	-200,000	0,003	0,085
-207,679	-21,862	-0,039	-0,017
-206,665	361,373	0,079	0,116
-205,650	-200,000	0,006	-0,025
-204,636	207,619	0,104	0,119
-203,621	252,769	0,100	0,124
-202,606	-14,972	-0,041	0,019
-201,592	-200,000	0,006	-0,023
-200,577	24,888	-0,083	-0,050
-199,563	-85,106	-0,096	-0,022
-198,548	800,000	-0,023	0,056
-197,533	800,000	-0,040	0,120
-196,519	-200,000	0,010	0,190
-195,504	-200,000	-0,007	-0,077
-194,490	104,049	-0,009	-0,007
-193,475	376,732	0,080	-0,120
-192,460	800,000	-0,009	0,019
-191,446	16,370	0,092	-0,053
-190,431	-144,291	0,145	-0,010
-189,417	800,000	-0,020	-0,063
-188,402	-200,000	0,005	0,025
-187,387	-17,181	-0,140	0,064
-186,373	-33,666	-0,108	0,043
-185,358	74,695	0,071	0,054
-184,344	-200,000	0,003	-0,050
-183,329	-33,270	0,106	-0,043
-182,315	-200,000	0,004	0,133
-181,300	-200,000	0,011	0,043
-180,285	-65,507	-0,110	-0,032
-179,271	-200,000	0,012	-0,102
-178,256	36,444	0,060	0,039
-177,242	-51,905	0,050	0,017
-176,227	-21,009	0,093	0,041
-175,212	84,626	-0,030	-0,024
-174,198	-200,000	0,038	0,142
-173,183	800,000	0,042	0,103
-172,169	147,043	0,020	0,020
-171,154	-200,000	-0,026	-0,170
-170,139	559,829	-0,070	0,124
-169,125	367,544	0,047	0,069
-168,110	60,681	-0,011	-0,008
-167,096	15,599	-0,133	0,076
-166,081	716,537	-0,067	-0,130
-165,066	-200,000	0,008	-0,028
-164,052	146,580	-0,050	-0,049
-163,037	-200,000	-0,028	0,138
-162,023	-120,322	-0,073	-0,009
-161,008	342,503	0,089	0,127
-159,993	232,577	-0,043	-0,052
-158,979	-200,000	0,001	0,030
-157,964	-14,104	0,121	0,056
-156,950	122,585	-0,014	-0,013
-155,935	41,846	0,150	-0,099
-154,920	-30,851	0,165	-0,067
-153,906	-200,000	-0,000	-0,026
-152,891	-134,299	0,106	-0,009
-151,877	-200,000	0,019	0,086
-150,862	1,891	-0,072	0,038
-149,847	-58,917	0,065	0,020
-148,833	-49,299	-0,052	0,018
-147,818	-151,918	-0,029	-0,002
-146,804	83,843	0,109	0,087
-145,789	-150,843	-0,155	0,008
-144,775	-106,155	-0,052	0,008
-143,760	-138,572	-0,066	-0,005
-142,745	119,992	-0,107	-0,097
-141,731	800,000	-0,027	0,055
-140,716	800,000	0,065	0,165
-139,702	0,180	0,018	-0,010
-138,687	-29,394	0,078	-0,033
-137,672	-153,682	-0,110	-0,005
-136,658	269,073	0,039	-0,049
-135,643	-184,883	-0,088	-0,001
-134,629	621,525	0,054	0,100
-133,614	-26,546	0,183	-0,078
-132,599	-132,541	-0,036	0,003
-131,585	800,000	-0,052	0,148
-130,570	800,000	0,041	-0,124
-129,556	514,604	0,028	0,047
-128,541	-118,179	-0,096	0,012
-127,526	-200,000	-0,017	0,075
-126,512	-143,406	-0,085	-0,006
-125,497	800,000	-0,040	-0,085
-124,483	-27,295	0,003	-0,001
-123,468	-56,435	-0,050	0,016
-122,453	-77,053	-0,151	0,038
-121,439	-200,000	-0,015	0,047
-120,424	800,000	0,029	-0,086
