DTS Sentinel unit serial number:	SN410029Multiplexer serial number:	ORYXHardware model number:	OX2-SRSoftware version number:	ORYX F/W v4,00 Oryx Data Collector v3.7.2.0data status	okinstallation	B6 Nyhavnadifferential loss correction	single-endedforward channel	channel 2reverse channel	N/Adate	2023/12/07time	23:15:08forward acquisition time	300,00reverse acquisition time	0,00gamma	499,1914k internal	0,3165k external	0,3165temperature offset calibration	1,0000default loss term (dB/km)	0,3820temperature slope calibration	1,0000multiplexer offset coefficient	1,0000multiplexer slope coefficient	1,0000fibre end	0,00T internal ref (°C)	13,50T ext. ref 1 (°C)	-3,46T ext. ref 2 (°C)	-3,47length (m)	temperature (°C)	Stokes	anti-Stokes-744,400	800,000	0,070	0,155
-743,385	-22,530	-0,225	0,100
-742,371	199,897	0,103	0,116
-741,356	-62,824	-0,387	0,117
-740,342	23,674	0,149	0,090
-739,327	-194,776	-0,262	-0,001
-738,312	-67,372	0,065	-0,019
-737,298	-136,459	-0,434	-0,037
-736,283	51,323	0,121	0,084
-735,269	-146,275	-0,239	-0,015
-734,254	281,667	0,099	0,130
-733,239	-4,607	-0,482	-0,244
-732,225	-192,320	0,110	0,001
-731,210	128,340	0,036	-0,034
-730,196	-69,864	0,077	0,022
-729,181	-200,000	0,005	-0,106
-728,167	245,923	0,088	0,109
-727,152	-200,000	-0,004	0,065
-726,137	-94,708	0,012	0,002
-725,123	800,000	-0,068	-0,143
-724,108	-45,752	-0,111	-0,040
-723,094	66,964	-0,138	-0,103
-722,079	-98,951	-0,043	0,008
-721,064	-108,785	-0,070	0,011
-720,050	-0,981	-0,045	0,023
-719,035	19,376	-0,061	-0,036
-718,021	-135,739	0,098	-0,008
-717,006	-200,000	-0,047	0,160
-715,991	190,452	-0,076	0,084
-714,977	214,508	-0,033	-0,038
-713,962	-54,998	-0,127	-0,042
-712,948	-200,000	0,019	-0,080
-711,933	-101,317	0,094	0,017
-710,918	-122,194	-0,090	0,011
-709,904	161,177	-0,069	-0,071
-708,889	-93,938	-0,093	0,019
-707,875	-200,000	0,036	-0,131
-706,860	-200,000	0,016	-0,226
-705,845	223,529	0,055	0,065
-704,831	185,335	0,094	0,102
-703,816	67,544	-0,116	0,087
-702,802	216,199	-0,110	-0,129
-701,787	-57,568	0,019	0,006
-700,772	-200,000	0,007	0,077
-699,758	-200,000	0,008	-0,109
-698,743	38,502	0,064	0,042
-697,729	800,000	0,030	0,082
-696,714	-200,000	0,042	0,154
-695,699	283,990	0,064	-0,085
-694,685	-105,887	-0,104	-0,017
-693,670	-47,629	-0,158	-0,056
-692,656	48,343	-0,071	-0,049
-691,641	-85,529	0,143	0,032
-690,627	-200,000	0,003	0,108
-689,612	800,000	-0,084	-0,177
-688,597	-176,819	0,139	0,003
-687,583	-16,011	-0,212	-0,099
-686,568	434,475	0,030	0,047
-685,554	800,000	0,008	0,024
-684,539	470,029	-0,062	-0,102
-683,524	16,257	0,122	0,070
-682,510	672,304	-0,018	0,034
-681,495	-200,000	-0,022	-0,158
-680,481	800,000	-0,066	-0,144
-679,466	-200,000	0,005	0,056
-678,451	-137,834	-0,065	-0,005
-677,437	-125,158	-0,099	0,011
-676,422	-200,000	0,017	0,074
-675,408	488,944	-0,026	0,045
-674,393	-58,215	-0,144	0,046
-673,378	178,165	0,023	0,025
-672,364	224,190	-0,044	-0,052
-671,349	-200,000	0,019	-0,104
-670,335	-73,976	-0,191	0,050
-669,320	110,035	0,071	0,062
-668,305	-26,053	-0,112	0,048
-667,291	112,567	0,092	0,082
-666,276	-32,604	0,022	-0,009
-665,262	-161,586	-0,017	0,001
-664,247	26,351	0,020	-0,012
-663,232	800,000	0,011	-0,026
-662,218	-200,000	-0,009	0,127
-661,203	253,367	0,059	0,074
-660,189	139,175	-0,038	0,037
-659,174	8,515	-0,097	-0,053
-658,159	800,000	-0,014	-0,042
-657,145	-177,527	-0,025	-0,000
-656,130	80,268	-0,045	0,036
-655,116	92,490	0,058	0,048
-654,101	82,593	0,079	0,063
-653,086	110,087	-0,029	-0,025
-652,072	356,627	-0,011	0,016
-651,057	-200,000	0,008	0,049
-650,043	-179,642	-0,038	-0,001
-649,028	-40,598	-0,050	0,019
-648,014	359,004	-0,080	-0,118
-646,999	800,000	-0,056	0,129
-645,984	471,670	0,011	0,018
-644,970	-72,402	-0,153	-0,041
-643,955	-200,000	-0,001	-0,106
-642,941	132,354	-0,063	-0,059
-641,926	-123,907	-0,054	0,006
-640,911	800,000	-0,065	-0,140
-639,897	89,482	0,044	-0,036
-638,882	-104,492	-0,053	0,009
-637,868	-200,000	0,017	0,076
-636,853	133,847	-0,036	-0,034
-635,838	-200,000	0,038	-0,126
-634,824	163,196	0,124	-0,128
-633,809	-200,000	-0,002	0,126
-632,795	-32,028	-0,114	-0,046
-631,780	-200,000	-0,010	0,146
-630,765	-200,000	0,002	0,129
-629,751	-22,891	0,062	0,027
-628,736	-130,851	-0,005	0,001
-627,722	-111,767	-0,084	0,012
-626,707	800,000	0,040	-0,089
-625,692	-23,728	-0,068	-0,030
-624,678	-200,000	0,019	0,120
-623,663	117,225	-0,102	0,092
-622,649	25,096	-0,113	-0,068
-621,634	680,780	0,038	-0,072
-620,619	-37,395	0,060	0,023
-619,605	800,000	-0,014	0,031
-618,590	-200,000	0,039	0,148
-617,576	233,660	0,017	-0,021
-616,561	-200,000	0,004	0,055
-615,546	800,000	0,036	-0,075
-614,532	472,272	-0,036	-0,060
-613,517	-49,419	0,167	0,058
-612,503	-44,531	-0,080	-0,029
-611,488	13,445	0,085	0,048
-610,474	-63,436	-0,123	0,037
-609,459	-200,000	-0,033	0,117
-608,444	-200,000	-0,007	0,039
-607,430	5,010	-0,133	-0,072
-606,415	-80,008	-0,119	-0,029
-605,401	19,239	0,080	0,047
-604,386	221,177	-0,073	0,086
-603,371	-50,600	0,074	-0,025
-602,357	-200,000	0,016	-0,092
-601,342	800,000	-0,041	-0,085
-600,328	-200,000	0,022	0,078
-599,313	22,619	0,097	-0,058
-598,298	-80,385	-0,187	-0,045
-597,284	800,000	-0,053	0,134
-596,269	800,000	0,052	0,133
-595,255	793,697	-0,017	-0,034
-594,240	55,687	-0,138	-0,098
-593,225	-135,121	0,113	0,010
-592,211	-200,000	0,049	-0,162
-591,196	800,000	0,044	-0,123
-590,182	434,390	0,031	0,050
-589,167	800,000	-0,033	0,080
-588,152	-200,000	0,001	0,077
-587,138	424,470	0,059	-0,093
-586,123	752,173	-0,044	-0,087
-585,109	105,631	0,015	0,013
-584,094	39,156	0,095	-0,062
-583,079	-200,000	0,006	-0,067
-582,065	11,690	0,087	0,049
-581,050	792,529	0,019	0,038
-580,036	20,404	-0,110	0,065
-579,021	800,000	-0,057	0,122
-578,006	-200,000	0,006	-0,085
-576,992	-44,557	0,055	0,020
-575,977	800,000	-0,030	-0,067
-574,963	-200,000	-0,013	-0,067
-573,948	118,647	-0,057	0,051
-572,934	-38,721	0,078	0,030
-571,919	-200,000	-0,022	-0,088
-570,904	800,000	-0,016	0,033
-569,890	332,765	-0,070	0,100
-568,875	-21,786	0,073	-0,032
-567,861	139,079	-0,040	0,039
-566,846	269,401	0,078	-0,100
-565,831	-200,000	-0,000	-0,058
-564,817	-200,000	-0,007	-0,098
-563,802	340,000	0,024	0,035
-562,788	-200,000	0,013	0,047
-561,773	-178,487	0,060	-0,001
-560,758	88,977	0,102	-0,083
-559,744	-56,183	0,130	-0,042
-558,729	-200,000	-0,004	0,016
-557,715	-103,128	0,065	-0,011
-556,700	-30,532	-0,162	0,067
-555,685	-110,713	-0,124	0,018
-554,671	-57,041	0,091	0,029
-553,656	57,886	-0,092	-0,066
-552,642	29,843	0,015	0,009
-551,627	22,998	0,051	-0,031
-550,612	485,864	-0,039	-0,066
-549,598	312,963	-0,029	0,040
-548,583	19,544	0,122	-0,071
-547,569	242,842	-0,075	0,091
-546,554	46,458	0,173	0,117
-545,539	-71,355	-0,075	-0,020
-544,525	101,719	-0,048	-0,041
-543,510	-154,244	-0,092	-0,004
-542,496	-195,640	0,116	-0,001
-541,481	166,210	-0,059	-0,061
-540,466	246,509	0,049	0,060
-539,452	-16,008	-0,030	-0,014
-538,437	21,173	0,117	-0,069
-537,423	-53,559	-0,062	0,021
-536,408	-200,000	0,006	0,034
-535,393	-86,141	-0,097	0,022
-534,379	-200,000	-0,006	0,035
-533,364	-36,537	0,100	-0,039
-532,350	0,969	-0,063	0,033
-531,335	-200,000	0,029	0,177
-530,321	-107,398	0,073	-0,011
-529,306	9,564	0,117	0,064
-528,291	-200,000	0,024	-0,113
-527,277	421,435	-0,120	-0,189
-526,262	-26,128	0,083	0,036
-525,248	-42,583	0,073	0,027
-524,233	-200,000	0,004	0,049
-523,218	-200,000	0,025	0,091
-522,204	-200,000	-0,005	0,047
-521,189	800,000	0,030	-0,062
-520,175	-2,351	-0,113	-0,057
-519,160	70,811	-0,041	-0,031
-518,145	593,519	-0,039	0,070
-517,131	407,237	0,045	0,070
-516,116	-36,461	-0,079	-0,031
-515,102	118,372	-0,091	0,082
-514,087	-200,000	-0,007	-0,140
-513,072	458,293	-0,059	-0,096
-512,058	116,531	-0,068	0,061
-511,043	325,220	-0,018	-0,026
-510,029	68,615	0,069	-0,052
-509,014	-137,112	0,070	-0,006
-507,999	-65,178	-0,052	-0,015
-506,985	86,418	-0,076	-0,061
-505,970	177,690	-0,105	-0,111
-504,956	800,000	0,042	-0,124
-503,941	-86,785	0,150	-0,033
-502,926	119,636	-0,033	0,030
-501,912	113,550	-0,066	0,058
-500,897	-47,352	0,072	-0,025
-499,883	42,996	-0,059	0,039
-498,868	800,000	0,010	-0,029
-497,853	-95,061	-0,058	-0,011
-496,839	-200,000	-0,017	0,074
-495,824	-41,312	-0,079	0,030
-494,810	-142,954	-0,025	0,002
-493,795	218,053	-0,097	0,113
-492,781	693,782	0,072	-0,139
-491,766	145,577	-0,061	-0,060
-490,751	-110,004	-0,069	0,010
-489,737	574,330	-0,012	-0,021
-488,722	800,000	0,015	-0,044
-487,708	-14,937	0,138	-0,064
-486,693	-128,565	0,123	-0,013
-485,678	111,573	0,064	-0,057
-484,664	126,118	-0,024	-0,022
-483,649	-200,000	0,014	-0,045
-482,635	-200,000	-0,001	-0,033
-481,620	21,239	-0,018	-0,011
-480,605	71,011	0,064	0,048
-479,591	-200,000	0,013	-0,104
-478,576	53,716	-0,019	-0,013
-477,562	800,000	0,027	0,075
-476,547	-33,958	-0,037	-0,015
-475,532	47,686	0,090	0,061
-474,518	624,134	-0,101	0,185
-473,503	800,000	-0,036	0,112
-472,489	-200,000	0,003	0,058
-471,474	800,000	-0,042	0,132
-470,459	27,910	0,155	-0,095
-469,445	14,602	0,049	0,028
-468,430	800,000	-0,008	-0,017
-467,416	54,380	0,153	0,107
-466,401	-42,380	-0,096	-0,035
-465,386	204,472	-0,064	-0,072
-464,372	421,588	-0,027	-0,042
-463,357	442,084	0,020	0,032
-462,343	-152,353	-0,120	-0,006
-461,328	-109,531	-0,082	-0,012
-460,313	519,581	-0,039	-0,067
-459,299	-200,000	-0,011	0,055
-458,284	800,000	-0,028	0,069
-457,270	-101,016	0,122	0,022
-456,255	-200,000	0,000	0,074
-455,241	72,852	-0,120	-0,091
-454,226	-47,782	-0,113	-0,040
-453,211	111,427	-0,058	0,051
-452,197	142,212	0,067	-0,065
-451,182	-48,364	0,035	-0,012
-450,168	800,000	-0,004	0,009
-449,153	269,773	-0,035	-0,045
-448,138	67,073	0,072	0,053
-447,124	-200,000	-0,001	0,019
-446,109	800,000	-0,032	-0,092
-445,095	60,761	0,065	0,047
-444,080	-0,739	-0,019	-0,010
-443,065	-24,458	0,084	-0,036
-442,051	-200,000	-0,006	-0,055
-441,036	17,290	0,052	-0,030
-440,022	-135,160	-0,089	-0,008
-439,007	62,792	0,068	-0,049
-437,992	-128,027	-0,062	-0,006
-436,978	329,008	0,117	0,164
-435,963	101,536	0,101	0,086
-434,949	800,000	-0,033	-0,101
-433,934	290,868	0,058	0,076
-432,919	-118,599	-0,140	0,018
-431,905	-200,000	-0,015	0,069
-430,890	409,796	0,062	0,095
-429,876	35,910	0,116	0,074
-428,861	-200,000	0,028	-0,127
-427,846	-144,473	0,184	-0,012
-426,832	-82,298	-0,091	-0,021
-425,817	-200,000	-0,029	-0,150
-424,803	-200,000	0,028	-0,181
-423,788	469,491	0,070	0,114
-422,773	-200,000	-0,006	0,021
-421,759	-115,927	0,093	0,013
-420,744	-39,063	-0,196	0,075
-419,730	-200,000	-0,019	0,090
-418,715	-200,000	-0,008	-0,200
-417,701	800,000	0,049	-0,143
-416,686	117,434	0,118	-0,105
-415,671	800,000	0,033	0,093
-414,657	-64,262	0,081	-0,024
-413,642	800,000	0,036	0,101
-412,628	-64,237	-0,078	-0,023
-411,613	136,638	-0,039	0,037
-410,598	41,365	0,141	0,092
-409,584	156,509	0,081	0,081
-408,569	-200,000	0,070	0,243
-407,555	-200,000	0,019	0,163
-406,540	246,899	-0,036	0,044
-405,525	-149,834	0,039	-0,002
-404,511	800,000	0,031	0,065
-403,496	-38,194	-0,109	-0,042
-402,482	-76,300	0,064	-0,016
-401,467	440,516	0,031	-0,049
-400,452	800,000	0,010	-0,026
-399,438	157,874	0,077	-0,077
-398,423	123,023	-0,138	0,125
-397,409	800,000	-0,037	-0,095
-396,394	800,000	-0,042	-0,116
-395,379	800,000	0,048	0,134
-394,365	-200,000	-0,019	0,101
-393,350	-200,000	-0,011	-0,081
-392,336	244,964	-0,066	0,081
-391,321	-200,000	0,002	0,054
-390,306	263,461	-0,080	-0,101
-389,292	19,802	0,162	-0,094
-388,277	-107,083	0,152	-0,024
-387,263	-200,000	0,004	-0,064
-386,248	135,081	0,037	0,035
-385,233	-90,083	0,086	-0,018
-384,219	-85,393	-0,049	-0,011
-383,204	800,000	0,051	0,121
-382,190	800,000	-0,044	0,128
-381,175	-200,000	0,006	-0,041
-380,160	-36,053	0,096	-0,037
-379,146	-200,000	-0,010	0,129
-378,131	800,000	0,046	0,096
-377,117	-61,679	-0,039	0,012
-376,102	453,042	-0,040	-0,065
-375,088	323,189	0,046	0,064
-374,073	-200,000	0,005	-0,036
-373,058	0,827	0,071	0,037
-372,044	325,889	-0,171	0,238
-371,029	-93,519	0,056	0,011
-370,015	100,292	0,058	0,049
-369,000	156,122	0,076	0,076
-367,985	-98,685	-0,164	0,030
-366,971	97,297	-0,040	0,033
-365,956	-60,682	0,083	0,025
-364,942	-79,157	0,111	-0,027
-363,927	213,899	-0,030	0,035
-362,912	-127,598	-0,093	0,010
-361,898	191,826	-0,039	-0,042
-360,883	-95,140	-0,065	-0,013
-359,869	333,640	0,027	0,038
-358,854	635,481	-0,032	-0,060
-357,839	361,422	0,066	0,096
-356,825	-200,000	-0,005	-0,034
-355,810	256,682	-0,086	-0,107
-354,796	109,359	-0,053	0,046
-353,781	183,377	-0,025	-0,027
-352,766	54,181	-0,062	0,043
-351,752	276,902	-0,075	-0,096
-350,737	-60,683	0,032	-0,010
-349,723	146,189	0,037	0,036
-348,708	-57,683	0,048	-0,015
-347,693	247,203	-0,065	0,080
-346,679	800,000	-0,018	-0,040
-345,664	665,847	-0,009	0,018
-344,650	800,000	0,040	-0,092
-343,635	-27,576	0,194	-0,081
-342,620	81,744	0,031	-0,024
-341,606	92,794	-0,045	-0,036
-340,591	222,038	-0,030	-0,035
-339,577	699,883	-0,023	0,044
-338,562	800,000	0,024	0,054
-337,548	-140,960	0,189	-0,014
-336,533	-102,417	-0,024	0,004
-335,518	45,642	-0,086	-0,057
-334,504	241,853	0,104	0,126
-333,489	-10,618	-0,029	0,014
-332,475	-200,000	-0,020	-0,092
-331,460	-90,074	0,098	-0,021
-330,445	46,581	-0,041	-0,028
-329,431	18,819	-0,045	0,026
-328,416	331,970	0,013	0,018
-327,402	800,000	-0,059	-0,145
-326,387	-75,348	-0,053	-0,014
-325,372	57,733	-0,032	0,023
-324,358	-10,285	-0,081	0,039
-323,343	-183,566	-0,031	0,000
-322,329	112,114	0,026	-0,023
-321,314	800,000	0,036	0,102
-320,299	-200,000	0,013	0,073
-319,285	249,669	-0,059	-0,073
-318,270	-127,412	-0,062	-0,006
-317,256	-110,015	-0,158	-0,024
-316,241	800,000	-0,034	-0,083
-315,226	800,000	0,024	-0,050
-314,212	-200,000	0,015	0,077
-313,197	31,439	0,022	-0,014
-312,183	-200,000	0,022	0,092
-311,168	622,161	0,018	0,033
-310,153	-84,564	-0,155	0,035
-309,139	800,000	0,037	-0,101
-308,124	-200,000	-0,009	-0,077
-307,110	686,213	0,029	-0,055
-306,095	685,356	0,047	-0,089
-305,080	35,426	0,089	0,056
-304,066	-200,000	-0,002	-0,023
-303,051	40,614	-0,014	-0,009
-302,037	800,000	0,035	-0,077
-301,022	-14,592	0,255	-0,118
-300,008	-200,000	-0,009	-0,085
-298,993	-12,248	0,090	0,042
-297,978	-200,000	0,020	0,070
-296,964	-135,156	-0,057	-0,005
-295,949	-200,000	0,011	-0,081
-294,935	-200,000	-0,024	-0,101
-293,920	-200,000	-0,004	0,052
-292,905	-15,043	0,047	0,022
-291,891	800,000	0,036	0,101
-290,876	800,000	-0,027	0,073
-289,862	3,110	0,069	0,036
-288,847	-64,227	-0,146	0,043
-287,832	-200,000	0,008	0,056
-286,818	24,321	0,002	-0,001
-285,803	800,000	0,074	0,157
-284,789	329,878	-0,042	0,058
-283,774	800,000	0,022	0,058
-282,759	800,000	-0,032	-0,075
-281,745	-92,644	0,023	0,005
-280,730	-151,255	-0,017	0,001
-279,716	-23,113	0,082	0,036
-278,701	462,371	0,017	-0,027
-277,686	108,427	-0,066	0,057
-276,672	-200,000	0,031	0,108
-275,657	38,415	0,130	0,083
-274,643	-114,447	-0,065	0,009
-273,628	-44,624	0,017	-0,006
-272,613	190,381	-0,026	-0,028
-271,599	-200,000	0,017	-0,065
-270,584	99,776	-0,027	0,022
-269,570	262,011	0,034	-0,043
-268,555	-43,290	-0,056	0,020
-267,540	-200,000	-0,016	0,074
-266,526	-200,000	0,024	0,096
-265,511	-200,000	-0,009	-0,044
-264,497	-200,000	-0,012	-0,045
-263,482	-82,712	0,142	0,033
-262,467	800,000	0,049	0,114
-261,453	-49,732	0,109	-0,037
-260,438	284,137	-0,107	-0,139
-259,424	-131,610	-0,070	-0,007
-258,409	-0,414	0,083	0,043
-257,395	98,374	0,129	-0,107
-256,380	308,357	-0,045	-0,061
-255,365	89,367	-0,080	0,064
-254,351	-38,559	0,092	0,035
-253,336	413,461	-0,071	0,109
-252,322	1,524	-0,055	-0,029
-251,307	800,000	-0,022	-0,046
-250,292	496,125	0,048	0,080
-249,278	-200,000	-0,014	0,071
-248,263	276,872	-0,093	0,120
-247,249	33,840	0,106	-0,066
-246,234	514,270	-0,068	-0,115
-245,219	-48,117	0,103	-0,036
-244,205	-200,000	0,001	-0,063
-243,190	-200,000	0,013	0,094
-242,176	-17,289	-0,084	-0,038
-241,161	184,207	-0,059	0,063
-240,146	-200,000	-0,013	-0,049
-239,132	-153,294	0,019	0,001
-238,117	-13,850	0,065	0,030
-237,103	800,000	0,027	-0,083
-236,088	-90,838	0,074	0,015
-235,073	800,000	-0,030	0,091
-234,059	-85,085	0,046	-0,010
-233,044	800,000	0,016	0,033
-232,030	-13,082	-0,113	0,053
-231,015	-20,778	-0,096	-0,042
-230,000	159,440	0,042	0,042
-228,986	-25,838	-0,093	-0,039
-227,971	800,000	0,073	0,198
-226,957	662,225	-0,074	0,139
-225,942	210,493	0,046	-0,053
-224,927	279,220	-0,051	-0,066
-223,913	-83,745	-0,089	-0,020
-222,898	-200,000	-0,001	-0,087
-221,884	-200,000	-0,003	-0,188
-220,869	-200,000	-0,005	0,062
-219,855	-200,000	0,001	0,017
-218,840	57,354	0,074	0,052
-217,825	181,635	0,041	0,044
-216,811	-72,701	0,091	-0,024
-215,796	-128,139	-0,129	-0,013
-214,782	-200,000	0,018	-0,071
-213,767	800,000	0,026	0,063
-212,752	-71,235	0,074	-0,020
-211,738	-200,000	-0,003	-0,022
-210,723	-200,000	0,000	-0,175
-209,709	-162,355	-0,100	-0,004
-208,694	107,452	-0,096	0,082
-207,679	-49,500	0,134	-0,046
-206,665	258,484	-0,010	0,013
-205,650	-25,957	0,042	0,018
-204,636	426,784	-0,040	-0,062
-203,621	800,000	-0,045	0,097
-202,606	18,874	-0,047	-0,027
-201,592	800,000	-0,087	-0,181
-200,577	-200,000	-0,012	-0,126
-199,563	206,965	-0,015	-0,017
-198,548	800,000	-0,007	-0,020
-197,533	-200,000	0,005	0,077
-196,519	-106,512	0,072	-0,011
-195,504	-133,779	-0,142	0,013
-194,490	-200,000	-0,024	-0,088
-193,475	382,331	0,037	-0,055
-192,460	76,272	0,110	-0,084
-191,446	168,261	-0,044	0,045
-190,431	800,000	-0,050	-0,114
-189,417	528,814	-0,038	0,064
-188,402	-200,000	-0,006	0,113
-187,387	-200,000	0,022	-0,077
-186,373	132,795	-0,113	-0,105
-185,358	29,117	-0,061	0,037
-184,344	207,030	0,067	0,075
-183,329	115,378	0,072	0,063
-182,315	-76,790	-0,141	-0,035
-181,300	123,415	-0,090	0,081
-180,285	140,115	0,101	-0,096
-179,271	97,897	-0,118	-0,098
-178,256	187,673	-0,041	0,044
-177,242	800,000	0,082	-0,185
-176,227	-65,654	0,172	-0,049
-175,212	76,339	0,021	-0,016
-174,198	-200,000	-0,028	0,143
-173,183	800,000	-0,026	-0,061
-172,169	779,896	0,066	-0,130
-171,154	0,653	-0,038	-0,019
-170,139	-133,939	-0,071	-0,006
-169,125	-58,568	0,064	-0,020
-168,110	-138,139	0,111	0,009
-167,096	280,936	0,025	0,032
-166,081	-49,047	-0,092	-0,032
-165,066	86,161	-0,151	-0,120
-164,052	-99,058	0,026	0,005
-163,037	742,685	0,049	0,096
-162,023	223,993	0,100	0,116
-161,008	72,467	-0,072	0,054
-159,993	208,502	0,062	0,070
-158,979	-200,000	0,016	0,056
-157,964	-109,531	0,047	-0,007
-156,950	31,981	-0,103	0,064
-155,935	-71,948	-0,136	-0,036
-154,920	-200,000	-0,031	-0,111
-153,906	-91,848	0,108	-0,022
-152,891	284,429	-0,012	-0,016
-151,877	15,481	-0,136	-0,077
-150,862	217,295	-0,014	-0,016
-149,847	-200,000	-0,002	-0,086
-148,833	-200,000	0,006	0,082
-147,818	-38,100	0,114	0,043
-146,804	800,000	0,050	0,123
-145,789	-200,000	0,001	0,054
-144,775	49,470	-0,137	0,093
-143,760	-200,000	-0,027	-0,104
-142,745	-1,492	0,118	-0,060
-141,731	-40,663	0,114	0,042
-140,716	800,000	0,015	-0,033
-139,702	-200,000	0,005	0,060
-138,687	-200,000	-0,004	0,118
-137,672	294,502	-0,045	-0,059
-136,658	800,000	-0,019	-0,059
-135,643	161,635	-0,120	-0,121
-134,629	800,000	-0,044	-0,114
-133,614	459,630	0,075	-0,121
-132,599	16,542	-0,067	0,038
-131,585	-150,989	-0,087	-0,005
-130,570	343,947	-0,082	-0,115
-129,556	408,872	0,124	-0,189
-128,541	321,470	0,040	-0,055
-127,526	350,270	0,030	0,042
-126,512	-74,161	0,068	0,017
-125,497	-29,857	0,147	0,060
-124,483	109,950	-0,057	0,049
-123,468	189,531	0,037	0,039
-122,453	-151,324	-0,095	0,005
-121,439	-200,000	-0,030	-0,198
-120,424	-200,000	-0,043	0,178
-119,410	-200,000	-0,029	-0,132
