DTS Sentinel unit serial number:	SN410029Multiplexer serial number:	ORYXHardware model number:	OX2-SRSoftware version number:	ORYX F/W v4,00 Oryx Data Collector v3.7.2.0data status	okinstallation	B6 Nyhavnadifferential loss correction	single-endedforward channel	channel 2reverse channel	N/Adate	2023/12/07time	15:20:08forward acquisition time	300,00reverse acquisition time	0,00gamma	499,1914k internal	0,3101k external	0,3101temperature offset calibration	1,0000default loss term (dB/km)	0,3820temperature slope calibration	1,0000multiplexer offset coefficient	1,0000multiplexer slope coefficient	1,0000fibre end	0,00T internal ref (°C)	14,32T ext. ref 1 (°C)	-1,88T ext. ref 2 (°C)	-1,86length (m)	temperature (°C)	Stokes	anti-Stokes-744,400	800,000	0,029	-0,062
-743,385	-128,807	-0,341	-0,036
-742,371	-80,357	0,189	0,047
-741,356	-79,042	-0,280	0,071
-740,342	-187,972	0,135	0,001
-739,327	-99,505	-0,314	0,059
-738,312	800,000	0,013	0,042
-737,298	-175,681	-0,271	-0,005
-736,283	-73,872	0,153	-0,041
-735,269	59,338	-0,107	0,079
-734,254	800,000	0,052	0,147
-733,239	8,179	-0,511	-0,287
-732,225	-8,418	0,243	0,122
-731,210	-38,326	0,207	0,082
-730,196	137,532	-0,027	-0,027
-729,181	-169,913	-0,089	-0,002
-728,167	-200,000	-0,017	-0,068
-727,152	480,244	-0,090	-0,153
-726,137	-169,850	-0,073	0,002
-725,123	-158,567	-0,119	-0,005
-724,108	85,899	-0,167	-0,137
-723,094	-200,000	0,001	0,076
-722,079	435,935	-0,107	-0,176
-721,064	-200,000	-0,002	0,068
-720,050	91,912	-0,141	-0,119
-719,035	-15,307	-0,110	0,052
-718,021	22,851	-0,095	-0,058
-717,006	165,182	0,040	0,042
-715,991	42,044	-0,049	-0,033
-714,977	800,000	-0,033	0,077
-713,962	-200,000	-0,009	-0,115
-712,948	-40,741	0,052	0,020
-711,933	-59,282	-0,023	0,007
-710,918	32,664	-0,042	0,027
-709,904	-58,116	-0,157	0,051
-708,889	-200,000	0,017	-0,093
-707,875	-78,857	-0,078	-0,020
-706,860	-200,000	-0,004	0,042
-705,845	-77,298	-0,118	-0,030
-704,831	-164,660	-0,060	0,002
-703,816	-37,052	0,075	0,030
-702,802	345,168	-0,012	-0,018
-701,787	-134,412	-0,076	0,007
-700,772	-93,128	-0,141	0,029
-699,758	-29,129	-0,175	-0,075
-698,743	389,162	-0,033	0,051
-697,729	4,589	0,172	-0,094
-696,714	-21,508	-0,110	-0,050
-695,699	463,539	-0,055	-0,093
-694,685	257,004	-0,065	-0,084
-693,670	800,000	-0,006	0,016
-692,656	-19,342	-0,127	0,059
-691,641	-116,227	-0,052	-0,007
-690,627	-200,000	0,004	0,027
-689,612	-175,046	-0,059	-0,001
-688,597	800,000	-0,032	0,067
-687,583	-155,619	-0,068	0,003
-686,568	-27,912	-0,118	0,051
-685,554	-200,000	0,015	-0,132
-684,539	-42,948	0,059	0,022
-683,524	1,854	0,118	0,064
-682,510	-8,587	-0,040	0,020
-681,495	266,434	-0,032	-0,042
-680,481	-200,000	-0,029	0,126
-679,466	61,138	-0,181	-0,135
-678,451	-145,487	0,113	-0,008
-677,437	-59,861	-0,043	0,014
-676,422	55,165	-0,005	-0,004
-675,408	734,393	-0,038	-0,077
-674,393	-23,334	-0,093	-0,042
-673,378	-112,192	-0,231	-0,034
-672,364	-58,838	-0,078	-0,025
-671,349	800,000	-0,053	-0,152
-670,335	-45,920	-0,100	-0,037
-669,320	-200,000	-0,006	0,032
-668,305	800,000	-0,036	0,087
-667,291	200,037	0,040	0,046
-666,276	-200,000	-0,006	-0,073
-665,262	384,509	0,058	-0,089
-664,247	-200,000	-0,000	0,037
-663,232	738,593	-0,044	-0,088
-662,218	785,174	-0,032	0,067
-661,203	236,700	0,078	-0,097
-660,189	-15,849	-0,102	-0,048
-659,174	516,068	0,077	-0,135
-658,159	800,000	0,039	-0,125
-657,145	-200,000	-0,029	-0,144
-656,130	-200,000	0,003	0,123
-655,116	-200,000	0,030	0,106
-654,101	401,648	-0,074	0,117
-653,086	-82,547	-0,137	0,033
-652,072	-16,040	-0,154	-0,073
-651,057	-91,507	0,078	-0,016
-650,043	-107,204	-0,064	0,010
-649,028	-49,646	-0,059	0,021
-648,014	-176,155	0,114	0,002
-646,999	-200,000	-0,011	0,070
-645,984	-200,000	-0,002	-0,042
-644,970	-140,768	-0,108	-0,008
-643,955	-200,000	0,040	-0,134
-642,941	-200,000	0,003	-0,152
-641,926	-147,843	0,046	0,003
-640,911	-95,984	0,052	-0,010
-639,897	693,812	0,035	0,070
-638,882	-104,711	0,055	0,009
-637,868	800,000	-0,070	-0,179
-636,853	161,988	0,053	-0,056
-635,838	-123,608	-0,062	0,007
-634,824	-87,005	-0,119	-0,027
-633,809	17,269	0,123	0,073
-632,795	1,022	-0,120	0,064
-631,780	315,469	0,024	-0,033
-630,765	99,029	0,044	-0,038
-629,751	73,748	-0,057	0,045
-628,736	-89,223	-0,100	-0,022
-627,722	-200,000	0,006	-0,071
-626,707	129,059	0,043	0,041
-625,692	-200,000	-0,011	-0,046
-624,678	19,851	-0,109	0,066
-623,663	516,491	0,032	-0,056
-622,649	-82,319	0,054	-0,013
-621,634	278,569	-0,011	0,015
-620,619	-24,533	0,065	-0,029
-619,605	104,349	-0,018	0,016
-618,590	-116,634	-0,122	-0,017
-617,576	-200,000	0,006	0,099
-616,561	-200,000	0,015	0,099
-615,546	-200,000	-0,022	0,110
-614,532	63,998	0,038	-0,028
-613,517	-113,520	0,048	-0,007
-612,503	-200,000	0,001	0,091
-611,488	-170,240	-0,064	0,002
-610,474	724,876	0,014	0,027
-609,459	-102,704	0,103	0,018
-608,444	139,113	-0,039	-0,038
-607,430	-200,000	0,005	-0,039
-606,415	-164,396	-0,061	0,002
-605,401	-72,153	0,061	-0,017
-604,386	16,144	-0,046	0,027
-603,371	-200,000	0,031	0,197
-602,357	-200,000	-0,006	-0,033
-601,342	-22,884	-0,032	0,014
-600,328	131,126	-0,070	0,067
-599,313	-200,000	0,006	-0,187
-598,298	30,766	-0,043	-0,027
-597,284	212,166	0,030	0,036
-596,269	-200,000	-0,030	0,105
-595,255	800,000	-0,035	0,078
-594,240	-200,000	0,015	-0,069
-593,225	118,470	-0,013	0,012
-592,211	-108,418	0,056	0,009
-591,196	27,490	0,072	-0,045
-590,182	595,710	0,065	-0,120
-589,167	-93,422	0,106	-0,022
-588,152	86,933	0,069	0,057
-587,138	38,583	-0,073	-0,049
-586,123	-200,000	-0,009	-0,040
-585,109	471,487	-0,026	-0,044
-584,094	800,000	-0,027	-0,080
-583,079	-91,905	-0,051	0,011
-582,065	800,000	-0,024	-0,065
-581,050	-200,000	0,015	0,078
-580,036	-200,000	-0,009	0,090
-579,021	800,000	-0,020	-0,061
-578,006	-200,000	0,015	0,051
-576,992	39,771	0,104	0,070
-575,977	-11,097	-0,154	-0,075
-574,963	-188,541	0,139	-0,001
-573,948	800,000	-0,054	0,139
-572,934	62,994	-0,116	-0,086
-571,919	-27,650	0,109	-0,047
-570,904	-200,000	0,013	0,053
-569,890	-80,933	-0,166	0,041
-568,875	800,000	0,018	0,048
-567,861	142,306	0,057	-0,056
-566,846	800,000	0,021	-0,060
-565,831	800,000	0,042	0,094
-564,817	-200,000	0,002	-0,035
-563,802	67,698	0,085	-0,065
-562,788	173,427	-0,068	-0,073
-561,773	250,130	-0,017	0,022
-560,758	228,739	-0,031	0,037
-559,744	10,628	0,163	0,092
-558,729	16,563	0,137	0,080
-557,715	73,884	-0,064	0,050
-556,700	613,216	-0,035	-0,066
-555,685	16,527	0,023	-0,013
-554,671	271,794	-0,037	0,049
-553,656	199,041	0,045	-0,052
-552,642	-200,000	-0,001	0,046
-551,627	128,019	0,046	-0,044
-550,612	506,250	-0,055	-0,095
-549,598	-200,000	0,002	-0,137
-548,583	800,000	-0,035	-0,110
-547,569	-200,000	-0,019	0,072
-546,554	183,975	-0,046	0,051
-545,539	415,016	0,053	-0,084
-544,525	-200,000	0,011	0,098
-543,510	152,143	0,015	0,016
-542,496	800,000	-0,020	0,058
-541,481	53,430	-0,061	-0,044
-540,466	-49,768	0,077	0,027
-539,452	-78,000	0,160	0,041
-538,437	-200,000	-0,029	0,129
-537,423	-117,221	-0,061	0,008
-536,408	-105,028	-0,087	0,015
-535,393	800,000	0,008	0,022
-534,379	30,576	0,063	-0,040
-533,364	800,000	-0,062	-0,136
-532,350	-200,000	0,012	0,110
-531,335	-117,867	0,052	-0,007
-530,321	349,176	-0,089	0,131
-529,306	330,221	-0,021	-0,030
-528,291	379,235	-0,046	0,071
-527,277	800,000	0,006	0,014
-526,262	800,000	0,019	-0,051
-525,248	-200,000	0,045	-0,172
-524,233	-89,897	0,137	-0,030
-523,218	300,054	0,020	0,028
-522,204	800,000	0,074	-0,217
-521,189	-200,000	-0,008	-0,076
-520,175	-162,476	0,005	-0,000
-519,160	-119,587	-0,035	0,005
-518,145	-35,760	0,071	-0,029
-517,131	-200,000	0,004	0,033
-516,116	367,977	0,097	0,146
-515,102	-46,214	-0,079	0,029
-514,087	79,080	-0,045	0,036
-513,072	-200,000	-0,018	-0,093
-512,058	-200,000	0,011	-0,046
-511,043	-94,442	-0,106	-0,021
-510,029	-200,000	0,009	-0,098
-509,014	16,371	0,050	-0,029
-507,999	-15,007	-0,120	-0,057
-506,985	-200,000	0,001	0,014
-505,970	328,378	-0,127	0,181
-504,956	-14,636	-0,050	0,024
-503,941	6,640	-0,091	-0,050
-502,926	62,130	0,053	0,039
-501,912	-73,498	-0,104	0,028
-500,897	16,952	0,097	0,057
-499,883	486,092	-0,061	-0,103
-498,868	-200,000	0,028	-0,122
-497,853	-25,762	0,067	-0,029
-496,839	-200,000	-0,003	-0,052
-495,824	800,000	0,041	0,099
-494,810	-200,000	0,005	0,127
-493,795	-200,000	0,001	0,017
-492,781	-13,180	-0,161	-0,077
-491,766	-79,043	0,049	0,012
-490,751	84,396	-0,218	-0,177
-489,737	146,024	-0,024	0,024
-488,722	-200,000	0,009	0,047
-487,708	-131,434	-0,138	-0,013
-486,693	-200,000	-0,003	-0,010
-485,678	-140,620	-0,022	-0,002
-484,664	800,000	0,024	0,075
-483,649	-200,000	0,022	-0,106
-482,635	-200,000	0,002	-0,135
-481,620	-200,000	0,028	0,110
-480,605	641,547	-0,056	0,106
-479,591	-200,000	0,001	-0,135
-478,576	12,772	-0,110	-0,063
-477,562	800,000	-0,045	0,149
-476,547	45,996	0,032	-0,022
-475,532	606,474	-0,003	-0,006
-474,518	-145,193	0,038	-0,003
-473,503	-81,251	-0,158	-0,039
-472,489	167,626	0,068	-0,072
-471,474	59,816	0,047	-0,034
-470,459	-113,430	-0,043	0,006
-469,445	385,575	-0,028	-0,044
-468,430	800,000	0,031	0,075
-467,416	465,077	-0,013	-0,022
-466,401	800,000	0,033	-0,070
-465,386	-200,000	-0,022	0,086
-464,372	539,162	0,023	0,041
-463,357	-57,224	-0,254	-0,082
-462,343	-200,000	-0,001	-0,064
-461,328	-9,217	-0,176	-0,087
-460,313	329,158	0,029	-0,041
-459,299	-125,289	-0,031	0,003
-458,284	101,227	0,084	0,072
-457,270	296,508	0,048	-0,065
-456,255	-130,984	-0,095	-0,009
-455,241	800,000	0,032	-0,074
-454,226	-35,191	-0,085	-0,034
-453,211	267,976	-0,142	-0,185
-452,197	-87,051	0,048	-0,011
-451,182	800,000	0,062	0,151
-450,168	163,326	-0,032	0,034
-449,153	800,000	-0,028	0,089
-448,138	-101,219	0,081	0,015
-447,124	629,755	0,006	0,012
-446,109	353,233	0,046	-0,068
-445,095	748,087	0,017	-0,033
-444,080	608,693	0,012	0,022
-443,065	-200,000	0,026	0,089
-442,051	75,528	0,063	-0,049
-441,036	30,144	-0,118	-0,075
-440,022	156,896	-0,160	-0,164
-439,007	800,000	-0,023	0,060
-437,992	-200,000	-0,003	0,066
-436,978	123,668	0,084	0,078
-435,963	35,686	-0,012	-0,008
-434,949	470,722	-0,057	0,095
-433,934	261,097	-0,025	-0,032
-432,919	714,805	0,056	-0,110
-431,905	-65,821	0,154	-0,045
-430,890	-127,031	-0,094	-0,010
-429,876	-200,000	-0,018	0,106
-428,861	-166,798	0,095	0,003
-427,846	-200,000	0,059	-0,197
-426,832	-71,420	-0,074	-0,020
-425,817	800,000	-0,011	0,032
-424,803	214,241	0,064	-0,075
-423,788	-17,831	-0,139	-0,064
-422,773	-35,238	0,079	0,032
-421,759	-200,000	0,004	-0,044
-420,744	-200,000	-0,023	0,105
-419,730	168,557	-0,082	0,086
-418,715	800,000	-0,042	-0,104
-417,701	31,925	-0,035	-0,022
-416,686	-30,928	0,017	-0,007
-415,671	230,993	0,102	0,124
-414,657	800,000	-0,034	0,076
-413,642	-200,000	-0,024	0,084
-412,628	15,653	-0,124	-0,072
-411,613	266,115	-0,054	-0,071
-410,598	199,665	-0,016	0,018
-409,584	-55,477	-0,150	-0,050
-408,569	135,496	0,111	0,107
-407,555	338,002	-0,075	0,109
-406,540	211,157	0,034	0,040
-405,525	-200,000	0,004	-0,026
-404,511	309,576	-0,035	-0,049
-403,496	172,626	-0,075	-0,080
-402,482	-200,000	0,024	0,104
-401,467	545,398	-0,015	0,027
-400,452	-52,238	0,157	0,053
-399,438	-76,875	0,035	-0,009
-398,423	-200,000	-0,003	-0,047
-397,409	-200,000	0,009	-0,110
-396,394	-36,017	-0,080	0,032
-395,379	133,710	0,121	-0,116
-394,365	800,000	0,039	-0,106
-393,350	-200,000	-0,007	0,036
-392,336	175,796	0,044	-0,047
-391,321	12,466	0,105	0,060
-390,306	800,000	-0,011	-0,027
-389,292	800,000	0,039	-0,110
-388,277	152,586	0,041	-0,041
-387,263	430,508	0,034	0,055
-386,248	800,000	-0,008	0,021
-385,233	-200,000	-0,000	0,019
-384,219	-200,000	-0,036	-0,127
-383,204	-200,000	-0,017	-0,085
-382,190	800,000	0,077	-0,178
-381,175	-68,944	-0,056	-0,016
-380,160	277,260	0,045	-0,060
-379,146	-110,703	-0,030	0,005
-378,131	-200,000	0,002	-0,009
-377,117	800,000	-0,035	-0,077
-376,102	-200,000	-0,005	0,094
-375,088	103,375	0,106	-0,092
-374,073	103,122	0,038	0,033
-373,058	155,923	0,080	0,082
-372,044	230,593	0,123	0,149
-371,029	-125,695	0,071	-0,008
-370,015	800,000	0,020	-0,052
-369,000	-200,000	-0,015	-0,166
-367,985	39,659	-0,022	0,015
-366,971	-93,721	0,056	0,011
-365,956	-200,000	0,023	-0,081
-364,942	-32,402	0,156	0,064
-363,927	200,049	-0,078	0,089
-362,912	228,023	-0,027	0,033
-361,898	-200,000	0,003	-0,065
-360,883	640,781	-0,043	-0,081
-359,869	-200,000	-0,014	-0,129
-358,854	114,533	-0,130	0,118
-357,839	136,535	0,036	-0,035
-356,825	-138,499	0,111	-0,009
-355,810	67,411	0,066	-0,049
-354,796	35,338	-0,099	-0,064
-353,781	85,955	-0,054	-0,044
-352,766	759,212	-0,065	0,131
-351,752	-109,376	-0,098	-0,015
-350,737	-200,000	0,002	-0,095
-349,723	800,000	0,032	-0,094
-348,708	290,316	0,031	-0,042
-347,693	-3,380	0,099	0,051
-346,679	-200,000	0,027	-0,137
-345,664	-39,090	0,077	-0,030
-344,650	291,279	0,093	0,125
-343,635	100,686	0,071	0,061
-342,620	-200,000	0,006	0,051
-341,606	121,011	0,095	-0,087
-340,591	-200,000	0,001	0,012
-339,577	-85,769	0,079	-0,018
-338,562	551,172	-0,032	0,057
-337,548	628,460	0,028	-0,053
-336,533	-200,000	0,012	-0,137
-335,518	-117,794	-0,052	0,007
-334,504	276,601	0,041	0,054
-333,489	800,000	0,008	0,019
-332,475	-200,000	-0,026	-0,120
-331,460	6,825	0,015	-0,008
-330,445	-3,256	-0,100	0,051
-329,431	517,344	-0,040	0,069
-328,416	54,684	0,133	0,095
-327,402	-200,000	0,009	0,068
-326,387	-94,453	0,016	0,003
-325,372	623,727	-0,089	-0,167
-324,358	800,000	-0,036	-0,109
-323,343	-200,000	0,011	-0,081
-322,329	482,582	0,080	0,135
-321,314	-200,000	0,015	0,072
-320,299	176,280	0,010	-0,011
-319,285	108,009	-0,048	0,042
-318,270	-67,201	-0,031	-0,009
-317,256	-134,669	-0,138	0,012
-316,241	26,711	-0,105	-0,065
-315,226	-122,071	0,092	0,011
-314,212	527,676	-0,029	0,050
-313,197	-200,000	0,014	0,125
-312,183	332,024	0,082	0,117
-311,168	271,415	0,065	0,084
-310,153	-200,000	0,054	0,000
-309,139	-200,000	-0,022	0,081
-308,124	-160,962	-0,138	0,005
-307,110	-95,650	0,075	-0,015
-306,095	412,770	0,046	0,073
-305,080	-200,000	0,022	0,110
-304,066	-135,569	0,033	-0,003
-303,051	551,839	0,033	-0,060
-302,037	325,878	0,106	0,150
-301,022	-71,706	0,058	-0,016
-300,008	18,031	0,139	0,082
-298,993	800,000	-0,057	-0,161
-297,978	-155,006	0,105	-0,005
-296,964	474,954	-0,035	0,059
-295,949	800,000	-0,033	-0,082
-294,935	-200,000	0,028	-0,180
-293,920	-15,458	0,095	-0,045
-292,905	-200,000	-0,003	-0,062
-291,891	10,817	-0,056	0,032
-290,876	-200,000	0,004	0,016
-289,862	-200,000	-0,010	-0,045
-288,847	13,585	-0,079	-0,045
-287,832	-200,000	-0,007	-0,119
-286,818	800,000	0,028	-0,068
-285,803	800,000	0,060	0,129
-284,789	214,059	0,160	-0,187
-283,774	13,507	-0,131	-0,075
-282,759	-72,127	0,053	-0,014
-281,745	-200,000	0,031	0,113
-280,730	-124,930	-0,121	-0,014
-279,716	800,000	-0,003	-0,009
-278,701	-147,306	0,086	0,005
-277,686	800,000	0,023	0,058
-276,672	-132,459	0,196	-0,018
-275,657	-82,940	0,076	-0,018
-274,643	151,582	-0,125	0,126
-273,628	-200,000	0,018	-0,061
-272,613	-200,000	-0,009	-0,105
-271,599	52,683	0,185	0,130
-270,584	245,898	-0,060	0,075
-269,570	145,036	-0,042	-0,042
-268,555	-81,409	0,146	0,035
-267,540	271,375	-0,059	-0,077
-266,526	-166,766	-0,092	0,003
-265,511	800,000	-0,020	0,059
-264,497	19,140	0,061	0,036
-263,482	-150,274	0,097	-0,005
-262,467	-59,516	-0,124	-0,039
-261,453	-200,000	0,020	0,093
-260,438	138,534	-0,044	-0,043
-259,424	800,000	0,013	-0,038
-258,409	1,501	-0,134	-0,071
-257,395	-62,708	0,136	-0,041
-256,380	-16,315	0,107	-0,050
-255,365	-123,776	0,043	0,005
-254,351	-200,000	0,015	-0,095
-253,336	526,864	-0,044	0,077
-252,322	-106,482	0,035	0,006
-251,307	800,000	-0,023	-0,055
-250,292	85,518	-0,050	-0,041
-249,278	185,490	0,082	0,090
-248,263	159,191	0,058	0,060
-247,249	-200,000	-0,003	0,050
-246,234	-200,000	0,002	0,075
-245,219	64,690	-0,135	0,100
-244,205	167,956	-0,046	0,048
-243,190	-95,405	0,050	0,010
-242,176	-116,486	0,113	-0,015
-241,161	-200,000	-0,000	0,026
-240,146	-200,000	0,010	-0,113
-239,132	175,975	-0,020	-0,021
-238,117	800,000	-0,016	0,050
-237,103	-46,062	-0,041	0,015
-236,088	-111,708	0,103	-0,015
-235,073	282,945	0,068	0,090
-234,059	-200,000	-0,020	0,105
-233,044	-75,975	0,103	0,027
-232,030	800,000	-0,055	0,118
-231,015	120,328	0,058	-0,053
-230,000	-200,000	-0,012	-0,054
-228,986	449,334	-0,072	0,117
-227,971	299,564	0,046	0,063
-226,957	800,000	-0,030	0,095
-225,942	-43,899	-0,062	-0,023
-224,927	-200,000	0,002	-0,176
-223,913	-155,424	0,055	-0,003
-222,898	76,375	-0,078	0,061
-221,884	432,418	-0,048	0,077
-220,869	791,491	-0,054	-0,110
-219,855	800,000	0,037	-0,094
-218,840	228,255	0,097	0,116
-217,825	-200,000	-0,005	-0,044
-216,811	-183,329	-0,157	-0,002
-215,796	800,000	0,006	0,018
-214,782	800,000	-0,046	0,117
-213,767	268,496	0,066	0,085
-212,752	454,711	-0,050	0,081
-211,738	750,940	-0,008	0,016
-210,723	571,090	-0,024	-0,044
-209,709	-42,995	-0,084	-0,031
-208,694	-200,000	0,006	0,124
-207,679	-200,000	-0,029	0,139
-206,665	-159,971	0,039	-0,002
-205,650	-200,000	0,013	0,215
-204,636	-200,000	0,010	0,120
-203,621	-200,000	0,009	-0,042
-202,606	130,071	-0,103	-0,097
-201,592	-152,952	0,056	0,003
-200,577	135,405	-0,056	0,054
-199,563	45,666	0,092	0,063
-198,548	166,485	0,101	-0,105
-197,533	-19,672	0,134	0,061
-196,519	83,732	-0,099	0,079
-195,504	-20,369	-0,084	-0,038
-194,490	43,680	0,053	-0,036
-193,475	-200,000	0,021	-0,088
-192,460	-36,635	0,151	0,059
-191,446	268,642	0,073	0,095
-190,431	-200,000	-0,015	0,203
-189,417	-76,217	-0,063	0,016
-188,402	-200,000	0,019	-0,069
-187,387	-51,023	-0,150	0,051
-186,373	-98,832	-0,042	0,008
-185,358	-94,319	-0,199	0,040
-184,344	-117,715	0,136	0,018
-183,329	800,000	0,053	0,116
-182,315	-200,000	-0,011	0,063
-181,300	800,000	-0,049	0,123
-180,285	-200,000	0,031	-0,150
-179,271	-69,233	-0,067	-0,019
-178,256	426,088	0,038	-0,061
-177,242	-200,000	0,007	0,035
-176,227	-200,000	0,026	0,111
-175,212	-77,522	0,075	0,019
-174,198	-24,693	-0,155	-0,067
-173,183	74,047	0,058	-0,045
-172,169	58,181	-0,077	0,056
-171,154	800,000	-0,056	-0,117
-170,139	-200,000	-0,005	-0,021
-169,125	-2,525	-0,078	0,040
-168,110	-74,651	0,081	-0,021
-167,096	222,717	0,049	0,058
-166,081	800,000	-0,004	0,011
-165,066	-99,902	-0,234	-0,042
-164,052	-68,222	-0,108	-0,031
-163,037	-200,000	-0,025	0,097
-162,023	800,000	0,033	0,066
-161,008	-170,495	-0,080	-0,002
-159,993	-161,243	0,040	0,001
-158,979	119,528	-0,029	-0,026
-157,964	40,829	-0,040	-0,026
-156,950	664,781	0,046	-0,088
-155,935	-9,012	0,075	0,037
-154,920	-200,000	0,020	0,128
-153,906	-63,125	-0,157	0,047
-152,891	-137,245	0,098	0,008
-151,877	3,935	-0,073	-0,039
-150,862	136,557	-0,149	-0,142
-149,847	320,045	0,033	-0,046
-148,833	800,000	0,012	0,026
-147,818	-163,955	0,178	-0,006
-146,804	-6,135	0,027	0,013
-145,789	800,000	-0,016	0,042
-144,775	5,180	-0,015	0,008
-143,760	800,000	0,032	-0,070
-142,745	-200,000	-0,031	-0,120
-141,731	-136,258	0,037	0,003
-140,716	-73,636	0,121	0,032
-139,702	-42,147	-0,113	0,042
-138,687	168,724	0,038	0,040
-137,672	434,951	-0,015	0,023
-136,658	-65,159	-0,050	-0,015
-135,643	-200,000	0,037	-0,153
-134,629	88,433	0,109	0,089
-133,614	41,270	0,080	-0,053
-132,599	800,000	0,028	-0,058
-131,585	81,081	0,104	-0,083
-130,570	-200,000	-0,006	-0,050
-129,556	30,503	0,127	-0,079
-128,541	-142,234	0,043	0,003
-127,526	-200,000	0,016	0,055
-126,512	78,532	0,109	-0,085
-125,497	-200,000	-0,027	-0,121
-124,483	428,337	0,034	0,054
-123,468	-200,000	0,024	-0,119
-122,453	207,303	-0,054	-0,062
-121,439	-200,000	0,003	-0,043
-120,424	800,000	-0,012	-0,029
