DTS Sentinel unit serial number:	SN410029Multiplexer serial number:	ORYXHardware model number:	OX2-SRSoftware version number:	ORYX F/W v4,00 Oryx Data Collector v3.7.2.0data status	okinstallation	B6 Nyhavnadifferential loss correction	single-endedforward channel	channel 2reverse channel	N/Adate	2023/12/10time	16:35:08forward acquisition time	300,00reverse acquisition time	0,00gamma	499,1914k internal	0,3122k external	0,3122temperature offset calibration	1,0000default loss term (dB/km)	0,3820temperature slope calibration	1,0000multiplexer offset coefficient	1,0000multiplexer slope coefficient	1,0000fibre end	0,00T internal ref (°C)	22,38T ext. ref 1 (°C)	6,13T ext. ref 2 (°C)	6,15length (m)	temperature (°C)	Stokes	anti-Stokes-744,400	153,777	0,171	-0,175
-743,385	-64,030	-0,150	0,045
-742,371	-200,000	-0,027	-0,126
-741,356	-32,014	-0,266	0,110
-740,342	-4,907	0,066	0,034
-739,327	64,985	-0,246	0,185
-738,312	180,879	-0,050	0,054
-737,298	-63,638	-0,193	0,059
-736,283	-109,176	0,126	0,020
-735,269	18,489	-0,238	0,141
-734,254	800,000	-0,019	-0,044
-733,239	-105,122	-0,454	-0,077
-732,225	78,873	0,034	0,027
-731,210	800,000	-0,017	-0,042
-730,196	-172,498	-0,063	0,001
-729,181	-39,900	-0,040	-0,016
-728,167	293,995	-0,102	-0,139
-727,152	-14,674	0,019	0,009
-726,137	12,626	0,085	-0,049
-725,123	-56,385	-0,166	-0,055
-724,108	-9,689	-0,123	0,061
-723,094	-32,814	-0,275	-0,113
-722,079	-22,988	-0,007	-0,003
-721,064	-88,661	0,006	0,001
-720,050	-97,638	0,091	-0,017
-719,035	212,196	-0,095	0,112
-718,021	-200,000	-0,021	0,085
-717,006	-40,400	-0,067	-0,026
-715,991	-98,064	-0,091	-0,017
-714,977	-200,000	-0,006	-0,075
-713,962	-200,000	-0,036	-0,122
-712,948	-95,434	0,053	-0,011
-711,933	695,699	0,072	-0,141
-710,918	-200,000	0,005	0,034
-709,904	300,740	-0,069	-0,095
-708,889	800,000	-0,021	-0,058
-707,875	-156,767	-0,068	0,003
-706,860	-36,845	-0,047	-0,019
-705,845	-1,941	0,063	0,033
-704,831	-200,000	-0,010	0,061
-703,816	-127,104	0,070	0,008
-702,802	800,000	0,006	0,016
-701,787	207,626	-0,072	-0,084
-700,772	132,387	-0,156	0,149
-699,758	-145,984	-0,031	-0,002
-698,743	87,531	0,018	-0,015
-697,729	512,429	-0,028	-0,050
-696,714	-200,000	0,021	-0,075
-695,699	-143,070	0,034	0,002
-694,685	124,491	-0,124	-0,116
-693,670	-83,056	-0,151	-0,036
-692,656	800,000	-0,026	-0,060
-691,641	734,791	-0,041	0,082
-690,627	-120,196	-0,045	0,006
-689,612	-69,484	0,032	-0,009
-688,597	119,369	0,033	-0,030
-687,583	800,000	-0,030	-0,084
-686,568	-200,000	0,002	-0,041
-685,554	-40,655	-0,145	0,055
-684,539	156,669	0,129	0,133
-683,524	800,000	0,032	-0,075
-682,510	-61,874	-0,026	0,008
-681,495	-200,000	-0,013	-0,172
-680,481	-4,068	-0,035	0,018
-679,466	800,000	-0,045	-0,121
-678,451	480,517	0,079	-0,133
-677,437	-141,237	-0,177	0,013
-676,422	-36,446	0,141	0,056
-675,408	-83,197	0,072	0,017
-674,393	-142,815	-0,026	0,002
-673,378	-200,000	-0,004	0,065
-672,364	2,664	-0,021	0,012
-671,349	-200,000	-0,020	-0,083
-670,335	332,291	0,024	0,034
-669,320	139,097	0,064	0,063
-668,305	-134,184	-0,069	-0,006
-667,291	-40,949	0,043	-0,016
-666,276	489,978	0,035	0,059
-665,262	-166,932	0,031	0,001
-664,247	165,466	0,027	0,028
-663,232	338,165	0,083	-0,120
-662,218	-12,764	-0,031	0,015
-661,203	165,942	-0,078	-0,082
-660,189	105,711	0,075	-0,066
-659,174	47,338	-0,048	-0,033
-658,159	-19,833	-0,108	0,049
-657,145	-110,743	-0,037	0,006
-656,130	-34,452	0,075	0,030
-655,116	182,521	0,044	0,049
-654,101	-68,357	-0,023	0,006
-653,086	800,000	0,046	-0,103
-652,072	0,819	-0,088	-0,046
-651,057	-74,308	-0,093	-0,025
-650,043	-200,000	-0,033	-0,196
-649,028	-200,000	-0,018	0,067
-648,014	151,306	0,062	0,063
-646,999	-124,198	-0,188	0,022
-645,984	-200,000	0,007	-0,088
-644,970	66,438	0,039	-0,030
-643,955	327,563	-0,111	-0,158
-642,941	71,574	-0,018	-0,014
-641,926	363,005	-0,063	-0,094
-640,911	-76,036	0,039	-0,010
-639,897	-37,239	0,061	0,024
-638,882	167,464	-0,027	-0,029
-637,868	340,973	-0,066	-0,095
-636,853	800,000	-0,065	-0,137
-635,838	-200,000	-0,047	-0,172
-634,824	800,000	-0,021	-0,048
-633,809	-103,549	-0,106	-0,018
-632,795	212,801	0,034	0,040
-631,780	11,933	0,153	0,087
-630,765	-200,000	-0,028	0,101
-629,751	-200,000	0,004	0,169
-628,736	741,810	0,057	-0,114
-627,722	726,374	0,039	-0,078
-626,707	437,830	-0,040	-0,065
-625,692	32,395	0,077	-0,049
-624,678	-200,000	-0,016	-0,181
-623,663	800,000	0,028	-0,077
-622,649	163,655	0,079	-0,082
-621,634	-120,370	-0,183	-0,023
-620,619	32,697	0,110	0,070
-619,605	-197,386	0,051	-0,000
-618,590	-119,363	0,021	-0,003
-617,576	254,610	0,034	-0,043
-616,561	800,000	-0,057	-0,128
-615,546	12,018	-0,092	-0,052
-614,532	86,643	-0,102	-0,083
-613,517	79,767	-0,117	-0,093
-612,503	800,000	0,047	0,110
-611,488	-200,000	0,007	0,101
-610,474	-116,141	-0,046	0,006
-609,459	-200,000	-0,070	0,000
-608,444	-200,000	0,010	-0,046
-607,430	94,454	0,060	-0,050
-606,415	-200,000	0,000	-0,017
-605,401	230,778	0,097	0,118
-604,386	165,730	0,050	0,052
-603,371	-200,000	-0,033	0,122
-602,357	-200,000	-0,053	0,198
-601,342	-200,000	0,001	0,123
-600,328	-58,476	-0,075	0,024
-599,313	800,000	-0,051	-0,161
-598,298	693,686	-0,040	-0,078
-597,284	-200,000	-0,031	-0,126
-596,269	98,437	-0,032	0,028
-595,255	-82,995	-0,084	0,020
-594,240	509,310	-0,053	-0,092
-593,225	800,000	-0,018	-0,059
-592,211	800,000	-0,036	-0,091
-591,196	-200,000	0,004	-0,155
-590,182	-4,102	-0,086	0,044
-589,167	31,811	0,126	-0,080
-588,152	800,000	0,030	0,069
-587,138	-156,205	-0,036	-0,002
-586,123	800,000	0,031	-0,089
-585,109	270,580	-0,063	-0,083
-584,094	-12,686	0,117	0,056
-583,079	296,495	0,021	0,028
-582,065	800,000	0,021	0,068
-581,050	94,721	0,069	0,058
-580,036	97,060	0,039	0,034
-579,021	98,767	-0,087	0,074
-578,006	17,024	0,049	-0,029
-576,992	-200,000	-0,011	-0,054
-575,977	800,000	-0,029	-0,076
-574,963	86,545	0,054	0,044
-573,948	-82,483	-0,151	0,036
-572,934	336,149	-0,104	0,150
-571,919	22,821	0,043	0,026
-570,904	-124,915	-0,053	-0,006
-569,890	-43,307	-0,038	-0,014
-568,875	-200,000	-0,002	-0,062
-567,861	-23,595	0,083	0,037
-566,846	-200,000	-0,007	0,076
-565,831	-200,000	-0,026	0,000
-564,817	800,000	-0,026	-0,061
-563,802	487,207	0,051	-0,087
-562,788	-17,522	0,197	-0,091
-561,773	-190,012	-0,100	-0,001
-560,758	800,000	0,033	0,106
-559,744	-92,970	0,131	-0,027
-558,729	246,387	-0,133	0,166
-557,715	45,779	-0,035	0,024
-556,700	69,258	-0,032	-0,025
-555,685	23,279	-0,059	-0,036
-554,671	-77,432	0,126	-0,032
-553,656	-14,532	0,043	0,020
-552,642	-12,698	-0,063	-0,030
-551,627	-170,708	-0,072	0,002
-550,612	71,346	0,049	0,038
-549,598	-186,199	0,025	-0,000
-548,583	68,941	0,085	0,064
-547,569	225,111	-0,076	0,092
-546,554	-56,100	-0,079	-0,026
-545,539	-116,959	0,088	-0,012
-544,525	800,000	-0,018	-0,057
-543,510	800,000	-0,016	0,048
-542,496	-200,000	-0,018	0,106
-541,481	-124,082	0,130	0,015
-540,466	391,303	-0,071	0,110
-539,452	-200,000	-0,018	0,177
-538,437	161,802	-0,060	-0,062
-537,423	-129,693	0,115	-0,012
-536,408	138,412	-0,096	-0,093
-535,393	685,084	-0,063	-0,122
-534,379	-87,460	-0,110	-0,025
-533,364	-200,000	0,003	0,041
-532,350	800,000	0,031	-0,065
-531,335	24,853	-0,083	-0,051
-530,321	800,000	-0,013	-0,027
-529,306	152,537	-0,053	0,054
-528,291	35,062	-0,172	-0,111
-527,277	-102,635	-0,101	-0,018
-526,262	-10,531	0,115	-0,056
-525,248	-200,000	0,013	-0,075
-524,233	-200,000	-0,036	-0,131
-523,218	-114,720	0,146	-0,020
-522,204	-36,383	-0,108	-0,043
-521,189	527,179	-0,009	0,016
-520,175	72,702	-0,074	-0,057
-519,160	377,426	0,039	-0,060
-518,145	-200,000	0,002	0,024
-517,131	-200,000	0,002	0,090
-516,116	-200,000	-0,009	-0,034
-515,102	88,215	-0,094	-0,077
-514,087	-170,073	-0,054	0,001
-513,072	-200,000	-0,025	-0,144
-512,058	161,167	0,055	-0,056
-511,043	-84,762	0,145	-0,034
-510,029	800,000	0,057	0,125
-509,014	-33,617	0,058	-0,024
-507,999	800,000	0,066	0,165
-506,985	-200,000	0,003	0,116
-505,970	-95,891	0,048	0,009
-504,956	52,977	-0,103	-0,073
-503,941	800,000	-0,051	-0,145
-502,926	-155,990	0,078	-0,004
-501,912	275,238	0,054	0,071
-500,897	83,160	-0,112	0,090
-499,883	-200,000	-0,032	0,114
-498,868	-200,000	-0,014	-0,066
-497,853	-157,059	0,051	0,002
-496,839	233,014	0,035	-0,043
-495,824	-87,148	0,099	-0,022
-494,810	-200,000	0,028	0,150
-493,795	-170,524	0,072	0,002
-492,781	-181,757	0,027	-0,000
-491,766	426,476	-0,079	-0,127
-490,751	524,970	-0,030	-0,053
-489,737	111,810	0,083	-0,074
-488,722	143,253	0,045	0,044
-487,708	-170,155	-0,088	0,002
-486,693	204,667	0,054	0,062
-485,678	-200,000	0,008	-0,110
-484,664	26,057	-0,066	-0,040
-483,649	313,643	-0,010	-0,014
-482,635	-38,901	0,043	-0,017
-481,620	-192,478	0,163	-0,001
-480,605	502,721	-0,026	-0,044
-479,591	402,036	-0,029	0,045
-478,576	278,554	-0,071	0,094
-477,562	367,547	0,057	0,085
-476,547	-200,000	-0,018	-0,095
-475,532	800,000	-0,027	-0,082
-474,518	312,970	0,037	-0,052
-473,503	270,979	0,034	0,044
-472,489	800,000	0,033	0,100
-471,474	-113,936	0,037	0,005
-470,459	-117,703	-0,056	-0,007
-469,445	135,260	0,090	-0,087
-468,430	-22,466	-0,181	-0,080
-467,416	-200,000	-0,015	-0,093
-466,401	-200,000	0,006	-0,046
-465,386	44,478	0,041	-0,028
-464,372	-121,875	-0,107	-0,013
-463,357	-92,657	0,160	0,033
-462,343	-200,000	0,003	-0,115
-461,328	800,000	-0,040	0,106
-460,313	-200,000	-0,017	-0,086
-459,299	-200,000	0,008	0,045
-458,284	-55,140	0,094	-0,031
-457,270	62,110	-0,085	0,063
-456,255	528,261	0,022	0,039
-455,241	343,834	0,029	-0,042
-454,226	-62,186	-0,076	-0,023
-453,211	-122,468	0,196	-0,023
-452,197	9,583	0,026	-0,014
-451,182	-126,842	0,102	-0,011
-450,168	-200,000	-0,010	0,076
-449,153	800,000	0,024	-0,069
-448,138	-5,964	-0,057	-0,028
-447,124	-34,766	-0,040	0,016
-446,109	-1,305	-0,039	-0,020
-445,095	-31,449	0,013	0,005
-444,080	-200,000	0,022	0,083
-443,065	73,680	0,063	0,049
-442,051	526,533	0,016	0,028
-441,036	800,000	0,025	-0,051
-440,022	-200,000	-0,016	-0,105
-439,007	-84,939	0,089	0,021
-437,992	-135,840	0,030	0,003
-436,978	-19,781	0,026	0,012
-435,963	800,000	0,109	0,246
-434,949	-175,374	-0,153	0,003
-433,934	-200,000	-0,012	-0,060
-432,919	-101,770	0,114	0,020
-431,905	-107,709	-0,047	-0,007
-430,890	-129,776	0,047	-0,005
-429,876	577,977	-0,064	0,116
-428,861	522,233	0,070	0,121
-427,846	145,826	0,055	-0,054
-426,832	-144,194	0,024	-0,002
-425,817	-200,000	0,009	-0,127
-424,803	235,414	-0,009	-0,012
-423,788	-200,000	0,001	0,086
-422,773	-200,000	-0,032	0,138
-421,759	38,413	0,125	-0,082
-420,744	-100,299	-0,007	-0,001
-419,730	-200,000	0,012	-0,080
-418,715	-167,306	-0,066	0,002
-417,701	23,411	-0,086	-0,052
-416,686	-200,000	-0,013	0,084
-415,671	800,000	0,061	0,137
-414,657	-67,425	-0,059	0,017
-413,642	652,914	0,039	-0,074
-412,628	-151,858	-0,033	-0,002
-411,613	800,000	-0,032	-0,074
-410,598	486,464	0,047	-0,079
-409,584	-200,000	0,005	0,122
-408,569	-22,932	0,049	-0,022
-407,555	217,693	0,053	0,062
-406,540	-16,746	0,070	-0,032
-405,525	46,391	-0,126	0,086
-404,511	-55,779	0,041	0,013
-403,496	-63,079	0,033	-0,010
-402,482	84,943	0,056	-0,045
-401,467	117,821	0,092	-0,084
-400,452	128,705	0,016	0,015
-399,438	-200,000	0,022	0,108
-398,423	64,007	-0,045	-0,033
-397,409	695,455	0,012	0,023
-396,394	-136,506	0,093	-0,008
-395,379	-200,000	-0,029	-0,139
-394,365	-80,956	-0,074	0,018
-393,350	125,699	0,044	-0,041
-392,336	343,747	-0,010	0,014
-391,321	-200,000	-0,006	0,027
-390,306	-33,989	-0,077	0,031
-389,292	431,574	-0,022	0,035
-388,277	800,000	0,022	-0,048
-387,263	-133,142	0,163	-0,015
-386,248	-100,686	-0,045	0,008
-385,233	44,027	-0,080	-0,054
-384,219	38,040	-0,091	-0,060
-383,204	68,067	0,090	0,067
-382,190	673,486	-0,060	-0,115
-381,175	82,762	-0,120	-0,096
-380,160	-81,299	0,108	0,026
-379,146	-50,233	-0,076	0,026
-378,131	440,893	0,058	0,093
-377,117	-16,223	-0,104	0,048
-376,102	-68,855	0,020	0,006
-375,088	37,255	0,040	-0,026
-374,073	-24,212	-0,026	-0,011
-373,058	-63,303	-0,042	0,012
-372,044	-46,403	0,132	-0,048
-371,029	-103,439	-0,074	0,013
-370,015	94,195	-0,075	-0,062
-369,000	312,098	0,019	-0,026
-367,985	-59,940	0,085	0,027
-366,971	-150,587	0,069	-0,004
-365,956	800,000	-0,057	0,147
-364,942	223,815	-0,060	0,071
-363,927	180,787	-0,012	-0,013
-362,912	-120,474	0,146	0,018
-361,898	800,000	-0,081	-0,169
-360,883	411,726	0,044	0,068
-359,869	379,112	-0,078	-0,118
-358,854	504,930	-0,050	0,085
-357,839	-63,154	0,183	0,055
-356,825	-43,912	0,051	0,019
-355,810	335,300	0,029	-0,041
-354,796	-200,000	0,002	-0,096
-353,781	-200,000	0,011	-0,093
-352,766	579,913	0,013	-0,023
-351,752	-74,776	0,081	0,021
-350,737	-150,840	-0,119	0,007
-349,723	472,667	0,031	0,051
-348,708	457,170	0,053	0,087
-347,693	136,741	0,066	0,064
-346,679	-157,909	0,019	-0,001
-345,664	4,356	0,097	-0,052
-344,650	-200,000	0,005	-0,018
-343,635	-200,000	-0,018	0,152
-342,620	42,347	0,150	0,100
-341,606	68,110	0,063	-0,047
-340,591	800,000	-0,027	-0,084
-339,577	76,833	-0,057	-0,044
-338,562	30,477	-0,131	0,082
-337,548	-52,143	0,087	0,029
-336,533	198,099	0,100	0,112
-335,518	587,371	0,063	0,115
-334,504	730,136	0,078	0,153
-333,489	478,001	-0,016	0,026
-332,475	-200,000	0,009	0,061
-331,460	87,825	0,064	0,052
-330,445	317,152	-0,085	-0,119
-329,431	-55,964	-0,110	-0,036
-328,416	-58,873	-0,027	0,009
-327,402	-103,631	-0,023	-0,004
-326,387	-148,151	-0,073	-0,004
-325,372	-146,943	-0,125	0,008
-324,358	7,698	-0,028	0,015
-323,343	-73,039	-0,084	-0,022
-322,329	800,000	-0,039	-0,123
-321,314	-83,728	-0,088	0,021
-320,299	-134,958	0,117	-0,010
-319,285	-146,026	-0,115	0,007
-318,270	106,915	-0,025	0,022
-317,256	47,665	-0,030	0,021
-316,241	800,000	0,069	-0,156
-315,226	-101,231	0,055	0,010
-314,212	732,223	0,021	-0,042
-313,197	-99,962	0,017	-0,003
-312,183	94,102	0,121	0,101
-311,168	-200,000	-0,010	0,042
-310,153	-64,062	-0,055	0,016
-309,139	59,441	-0,120	-0,086
-308,124	249,501	0,043	-0,053
-307,110	800,000	0,023	0,062
-306,095	-87,789	0,009	-0,002
-305,080	-23,531	-0,042	-0,019
-304,066	-200,000	-0,003	0,146
-303,051	-105,590	-0,129	0,021
-302,037	255,346	0,033	0,042
-301,022	-200,000	-0,013	-0,086
-300,008	-200,000	0,007	0,061
-298,993	-200,000	0,032	0,173
-297,978	-5,934	0,064	0,032
-296,964	-158,863	0,047	0,002
-295,949	185,844	-0,102	-0,111
-294,935	290,600	-0,022	-0,030
-293,920	18,934	-0,063	-0,037
-292,905	224,094	0,063	-0,075
-291,891	-172,625	-0,069	-0,002
-290,876	-200,000	-0,031	0,175
-289,862	157,631	0,106	-0,108
-288,847	-200,000	-0,015	-0,100
-287,832	-200,000	-0,009	0,040
-286,818	-178,620	0,085	0,001
-285,803	-113,245	0,074	-0,011
-284,789	511,945	0,037	-0,064
-283,774	-125,374	-0,035	0,004
-282,759	-179,936	-0,036	-0,001
-281,745	800,000	0,091	-0,252
-280,730	-200,000	0,037	-0,231
-279,716	457,527	-0,033	-0,054
-278,701	46,605	0,065	0,044
-277,686	800,000	-0,039	0,099
-276,672	-79,431	0,091	0,022
-275,657	-200,000	0,003	-0,065
-274,643	289,351	0,092	0,123
-273,628	207,168	-0,051	-0,058
-272,613	-53,105	-0,095	0,032
-271,599	313,913	0,024	-0,033
-270,584	538,282	0,078	0,136
-269,570	-200,000	0,007	0,030
-268,555	93,339	0,086	0,071
-267,540	-200,000	-0,020	0,074
-266,526	-30,751	-0,050	-0,020
-265,511	-116,858	0,077	0,010
-264,497	285,030	0,079	-0,105
-263,482	218,857	-0,042	0,049
-262,467	-59,049	-0,063	0,020
-261,453	-200,000	0,055	-0,197
-260,438	-200,000	0,001	-0,063
-259,424	408,109	-0,066	0,102
-258,409	5,954	0,045	0,025
-257,395	114,894	0,069	-0,062
-256,380	-200,000	0,000	0,061
-255,365	311,272	0,078	0,108
-254,351	-16,098	-0,130	-0,060
-253,336	-112,060	-0,124	0,018
-252,322	432,390	0,024	0,038
-251,307	-24,774	-0,048	-0,021
-250,292	-200,000	-0,006	0,022
-249,278	581,417	0,050	0,090
-248,263	-182,655	0,101	-0,001
-247,249	462,913	0,061	0,100
-246,234	147,974	0,018	0,018
-245,219	13,370	-0,160	0,090
-244,205	-200,000	0,004	-0,021
-243,190	-127,516	-0,086	0,009
-242,176	-200,000	0,010	0,191
-241,161	-65,791	0,244	0,071
-240,146	-200,000	-0,033	0,115
-239,132	131,030	0,060	-0,057
-238,117	3,807	0,068	0,036
-237,103	36,582	-0,094	0,061
-236,088	-59,105	0,061	-0,019
-235,073	-200,000	0,018	0,077
-234,059	800,000	0,027	0,075
-233,044	-200,000	0,003	0,086
-232,030	-155,770	0,037	0,002
-231,015	97,201	-0,061	-0,051
-230,000	-12,491	-0,135	-0,064
-228,986	-69,387	0,131	0,036
-227,971	278,992	-0,032	0,042
-226,957	800,000	0,010	-0,033
-225,942	800,000	0,011	0,030
-224,927	-83,403	-0,051	-0,012
-223,913	800,000	-0,016	0,040
-222,898	-200,000	-0,025	0,124
-221,884	-200,000	-0,001	-0,051
-220,869	-106,683	0,041	0,007
-219,855	138,931	0,011	0,011
-218,840	-46,491	0,037	-0,013
-217,825	800,000	0,009	-0,018
-216,811	344,370	-0,080	-0,115
-215,796	-200,000	0,011	-0,041
-214,782	216,218	0,068	-0,079
-213,767	34,355	0,035	-0,022
-212,752	474,080	0,056	-0,092
-211,738	-200,000	0,021	0,070
-210,723	466,183	-0,040	-0,066
-209,709	-96,875	-0,110	-0,021
-208,694	320,905	-0,038	-0,053
-207,679	23,560	-0,076	-0,045
-206,665	216,552	0,014	-0,017
-205,650	257,881	0,068	0,086
-204,636	-95,597	0,106	-0,020
-203,621	-116,710	0,062	-0,008
-202,606	18,866	-0,035	-0,020
-201,592	254,246	-0,097	0,122
-200,577	-123,540	-0,030	-0,003
-199,563	-200,000	-0,001	0,072
-198,548	-69,974	0,008	-0,002
-197,533	-22,964	0,085	0,037
-196,519	-56,094	-0,024	0,008
-195,504	254,823	-0,103	0,129
-194,490	-200,000	0,003	0,064
-193,475	173,889	-0,097	-0,102
-192,460	-196,024	0,099	0,000
-191,446	-58,974	-0,067	-0,021
-190,431	284,631	-0,031	0,041
-189,417	369,466	0,047	-0,069
-188,402	167,370	-0,076	0,079
-187,387	256,064	-0,032	0,040
-186,373	800,000	-0,041	0,112
-185,358	82,790	-0,009	-0,007
-184,344	-99,836	0,121	0,022
-183,329	-200,000	0,002	-0,151
-182,315	-146,728	0,112	0,007
-181,300	3,628	-0,079	-0,042
-180,285	-70,543	-0,095	0,026
-179,271	-200,000	0,012	0,119
-178,256	800,000	-0,035	0,075
-177,242	-114,664	-0,178	0,025
-176,227	113,847	0,049	0,043
-175,212	178,314	0,021	0,022
-174,198	-95,741	-0,077	0,015
-173,183	167,012	-0,072	0,075
-172,169	42,965	-0,101	-0,067
-171,154	-86,940	0,051	-0,011
-170,139	-200,000	-0,002	-0,006
-169,125	214,776	0,069	0,079
-168,110	-200,000	0,003	-0,047
-167,096	554,503	-0,084	0,149
-166,081	450,531	0,008	-0,012
-165,066	-60,695	-0,170	0,052
-164,052	-132,915	0,049	-0,004
-163,037	-38,793	0,087	-0,033
-162,023	588,073	-0,076	0,136
-161,008	-171,345	0,113	0,003
-159,993	-60,645	-0,034	0,010
-158,979	800,000	-0,050	-0,111
-157,964	800,000	-0,048	-0,108
-156,950	-200,000	-0,031	-0,123
-155,935	-146,143	0,104	0,007
-154,920	-17,171	-0,056	-0,025
-153,906	-200,000	0,000	0,029
-152,891	-200,000	0,002	0,099
-151,877	-14,839	-0,109	0,051
-150,862	-105,569	-0,100	-0,016
-149,847	423,726	-0,044	0,069
-148,833	-200,000	-0,002	0,035
-147,818	-36,189	0,047	-0,018
-146,804	155,955	-0,093	-0,094
-145,789	129,232	0,088	0,082
-144,775	-134,388	-0,086	-0,008
-143,760	800,000	0,035	0,082
-142,745	-82,820	0,140	-0,033
-141,731	113,472	-0,047	-0,042
-140,716	-200,000	0,006	0,057
-139,702	-200,000	-0,010	0,038
-138,687	800,000	-0,059	0,156
-137,672	597,805	-0,042	-0,075
-136,658	162,864	-0,034	-0,034
-135,643	153,096	0,102	-0,101
-134,629	89,127	-0,016	-0,013
-133,614	708,186	0,028	0,055
-132,599	-200,000	-0,025	0,096
-131,585	-112,103	0,097	-0,014
-130,570	202,235	-0,050	-0,057
-129,556	-200,000	-0,018	-0,071
-128,541	800,000	-0,045	-0,103
-127,526	-200,000	-0,006	-0,081
-126,512	800,000	0,024	-0,049
-125,497	-81,252	0,031	0,007
-124,483	412,472	0,048	0,074
-123,468	800,000	-0,081	0,173
-122,453	165,378	-0,071	-0,073
-121,439	800,000	-0,038	-0,083
-120,424	128,304	0,081	-0,075
