DTS Sentinel unit serial number:	SN410029Multiplexer serial number:	ORYXHardware model number:	OX2-SRSoftware version number:	ORYX F/W v4,00 Oryx Data Collector v3.7.2.0data status	okinstallation	B6 Nyhavnadifferential loss correction	single-endedforward channel	channel 2reverse channel	N/Adate	2023/12/08time	01:05:08forward acquisition time	300,00reverse acquisition time	0,00gamma	499,1914k internal	0,3165k external	0,3165temperature offset calibration	1,0000default loss term (dB/km)	0,3820temperature slope calibration	1,0000multiplexer offset coefficient	1,0000multiplexer slope coefficient	1,0000fibre end	0,00T internal ref (°C)	13,28T ext. ref 1 (°C)	-3,59T ext. ref 2 (°C)	-3,59length (m)	temperature (°C)	Stokes	anti-Stokes-744,400	538,964	0,024	0,042
-743,385	-98,362	-0,347	0,065
-742,371	-44,795	0,123	0,045
-741,356	-2,000	-0,235	0,121
-740,342	800,000	0,050	0,136
-739,327	-111,308	-0,323	-0,048
-738,312	8,379	0,075	-0,042
-737,298	6,123	-0,282	-0,153
-736,283	130,724	0,141	0,133
-735,269	-137,050	-0,373	0,031
-734,254	-33,744	0,126	0,051
-733,239	-17,485	-0,499	-0,230
-732,225	-63,201	0,130	0,039
-731,210	640,659	-0,023	0,042
-730,196	-200,000	-0,023	-0,111
-729,181	800,000	-0,078	-0,230
-728,167	178,323	-0,141	-0,151
-727,152	-170,403	-0,065	0,002
-726,137	-98,252	-0,147	0,027
-725,123	-200,000	0,017	0,081
-724,108	339,025	-0,061	-0,088
-723,094	6,705	-0,055	-0,030
-722,079	-200,000	0,007	-0,258
-721,064	-200,000	-0,026	-0,165
-720,050	-200,000	-0,003	0,039
-719,035	157,660	0,046	-0,047
-718,021	-147,119	-0,075	0,005
-717,006	-200,000	-0,014	-0,129
-715,991	35,818	-0,139	-0,090
-714,977	800,000	-0,041	-0,114
-713,962	-54,561	0,069	0,023
-712,948	92,625	0,042	-0,035
-711,933	-29,725	-0,116	0,048
-710,918	94,126	-0,154	-0,128
-709,904	-75,446	-0,188	-0,049
-708,889	-200,000	0,005	-0,078
-707,875	3,679	0,042	-0,022
-706,860	-134,896	0,069	0,006
-705,845	-31,999	-0,068	-0,028
-704,831	314,759	0,026	0,037
-703,816	-15,154	-0,096	-0,045
-702,802	3,160	0,126	-0,067
-701,787	-84,985	-0,053	0,012
-700,772	244,749	-0,110	-0,136
-699,758	319,406	-0,077	0,107
-698,743	-31,460	0,119	0,049
-697,729	-200,000	0,010	0,111
-696,714	-40,874	-0,042	-0,016
-695,699	-200,000	-0,020	0,110
-694,685	-200,000	-0,014	0,090
-693,670	384,385	0,058	-0,088
-692,656	-200,000	0,018	0,060
-691,641	61,783	-0,024	-0,017
-690,627	-28,428	0,161	0,068
-689,612	294,697	0,050	0,067
-688,597	800,000	-0,034	-0,088
-687,583	-49,205	-0,108	-0,037
-686,568	87,941	0,033	-0,027
-685,554	800,000	-0,026	-0,055
-684,539	800,000	0,020	-0,053
-683,524	800,000	-0,013	-0,032
-682,510	-200,000	-0,011	0,036
-681,495	800,000	-0,036	0,084
-680,481	39,423	0,104	-0,068
-679,466	-200,000	-0,019	-0,140
-678,451	-126,365	-0,100	0,011
-677,437	-200,000	-0,037	0,145
-676,422	362,086	0,041	0,060
-675,408	71,551	-0,060	0,046
-674,393	92,944	0,028	-0,024
-673,378	-159,681	-0,075	0,003
-672,364	-183,612	-0,099	0,001
-671,349	59,345	-0,076	-0,055
-670,335	3,457	0,126	0,067
-669,320	-149,467	-0,063	-0,004
-668,305	-47,834	0,094	-0,033
-667,291	-44,742	-0,017	-0,006
-666,276	207,766	0,040	0,046
-665,262	-200,000	-0,028	-0,118
-664,247	533,072	0,048	-0,083
-663,232	-200,000	0,013	0,079
-662,218	-39,092	0,024	-0,009
-661,203	-113,033	0,033	0,005
-660,189	-200,000	0,015	0,069
-659,174	800,000	-0,043	-0,133
-658,159	-193,345	-0,092	0,001
-657,145	-200,000	-0,023	-0,089
-656,130	509,262	-0,031	0,054
-655,116	-169,506	0,145	-0,004
-654,101	800,000	0,024	-0,061
-653,086	-200,000	0,030	0,116
-652,072	285,623	0,035	0,046
-651,057	-200,000	0,000	0,005
-650,043	-14,682	-0,034	-0,016
-649,028	686,237	-0,017	0,032
-648,014	34,221	-0,012	0,008
-646,999	-200,000	0,010	0,057
-645,984	-20,717	-0,073	-0,033
-644,970	-166,124	-0,045	0,001
-643,955	37,419	-0,131	-0,085
-642,941	-200,000	-0,030	-0,125
-641,926	-200,000	-0,005	0,044
-640,911	210,720	0,072	-0,084
-639,897	-200,000	-0,004	-0,048
-638,882	-200,000	-0,165	0,000
-637,868	786,367	0,023	-0,046
-636,853	-200,000	-0,004	-0,019
-635,838	-200,000	-0,034	-0,113
-634,824	800,000	-0,062	-0,152
-633,809	-165,958	0,131	0,004
-632,795	494,319	0,049	0,082
-631,780	32,593	-0,018	0,011
-630,765	125,459	-0,033	-0,031
-629,751	-77,099	-0,163	-0,041
-628,736	7,498	-0,127	-0,069
-627,722	-92,144	0,242	-0,050
-626,707	-200,000	0,009	-0,033
-625,692	195,839	-0,052	0,058
-624,678	212,990	0,023	0,027
-623,663	249,387	-0,118	0,147
-622,649	19,644	0,028	-0,016
-621,634	-200,000	-0,005	-0,070
-620,619	800,000	0,010	0,020
-619,605	551,566	0,056	-0,099
-618,590	-13,011	0,105	0,050
-617,576	46,591	-0,132	-0,090
-616,561	-200,000	-0,033	-0,179
-615,546	126,348	-0,064	0,060
-614,532	-200,000	0,023	-0,094
-613,517	249,262	0,080	-0,099
-612,503	800,000	-0,025	-0,064
-611,488	290,801	-0,075	0,100
-610,474	32,607	-0,024	0,015
-609,459	-200,000	-0,043	0,175
-608,444	457,718	0,021	-0,034
-607,430	-200,000	0,015	-0,093
-606,415	290,922	-0,048	-0,063
-605,401	-114,409	0,011	-0,002
-604,386	-39,227	0,156	-0,060
-603,371	-92,435	0,053	-0,011
-602,357	-20,051	-0,097	-0,044
-601,342	185,665	-0,044	-0,047
-600,328	132,695	-0,110	-0,104
-599,313	-125,157	0,103	-0,011
-598,298	-37,680	0,032	-0,012
-597,284	166,734	0,032	0,034
-596,269	38,749	0,093	0,061
-595,255	163,343	0,043	0,044
-594,240	40,522	-0,081	0,053
-593,225	800,000	0,036	0,082
-592,211	800,000	-0,020	-0,053
-591,196	70,164	-0,110	0,083
-590,182	126,757	0,042	0,039
-589,167	-112,914	0,053	-0,008
-588,152	20,801	-0,031	-0,018
-587,138	800,000	-0,013	0,030
-586,123	79,663	0,089	0,069
-585,109	269,745	0,007	0,008
-584,094	-200,000	0,019	-0,139
-583,079	494,123	0,049	0,083
-582,065	800,000	-0,058	-0,160
-581,050	-70,281	0,141	0,039
-580,036	-4,565	-0,090	0,045
-579,021	800,000	0,030	-0,068
-578,006	126,076	-0,071	0,065
-576,992	-200,000	0,008	0,049
-575,977	-106,903	0,047	0,008
-574,963	-200,000	0,019	0,091
-573,948	96,433	0,097	0,081
-572,934	-200,000	0,006	-0,099
-571,919	290,488	0,078	-0,104
-570,904	-25,210	-0,127	-0,055
-569,890	-172,574	-0,154	-0,003
-568,875	800,000	0,061	0,188
-567,861	343,975	0,024	0,035
-566,846	800,000	0,057	-0,156
-565,831	-200,000	-0,003	0,023
-564,817	-200,000	-0,028	0,131
-563,802	800,000	-0,066	-0,151
-562,788	-200,000	-0,011	-0,076
-561,773	800,000	-0,025	0,079
-560,758	-55,899	0,039	0,013
-559,744	-200,000	0,007	0,097
-558,729	66,498	0,059	0,044
-557,715	-64,473	-0,177	-0,052
-556,700	-200,000	-0,004	-0,083
-555,685	195,917	0,049	0,055
-554,671	-200,000	-0,030	-0,120
-553,656	-200,000	-0,019	0,148
-552,642	54,110	0,054	-0,038
-551,627	-200,000	0,009	-0,065
-550,612	156,338	-0,151	-0,153
-549,598	-95,986	-0,126	-0,024
-548,583	-200,000	0,018	-0,115
-547,569	-32,246	-0,049	0,020
-546,554	-73,323	0,065	-0,017
-545,539	451,328	-0,021	0,034
-544,525	-200,000	-0,018	-0,147
-543,510	-109,385	-0,135	0,021
-542,496	-88,963	-0,154	-0,033
-541,481	22,888	0,039	-0,024
-540,466	-200,000	0,005	-0,028
-539,452	-200,000	0,024	0,081
-538,437	800,000	0,027	0,069
-537,423	17,949	-0,051	0,029
-536,408	59,326	-0,069	0,050
-535,393	120,153	0,039	0,035
-534,379	72,154	-0,064	-0,049
-533,364	800,000	-0,044	-0,094
-532,350	-200,000	0,006	0,051
-531,335	107,664	-0,017	-0,014
-530,321	800,000	0,013	-0,037
-529,306	232,508	0,046	0,055
-528,291	-200,000	0,007	0,095
-527,277	-200,000	-0,011	-0,047
-526,262	505,118	0,037	-0,063
-525,248	101,344	-0,138	-0,117
-524,233	97,493	0,050	0,042
-523,218	-70,913	-0,052	0,014
-522,204	800,000	0,041	0,102
-521,189	35,867	0,035	0,022
-520,175	666,463	0,073	-0,139
-519,160	-200,000	0,014	-0,049
-518,145	-114,697	0,053	0,007
-517,131	391,717	0,044	0,066
-516,116	-117,215	0,138	-0,018
-515,102	-200,000	0,006	-0,021
-514,087	-26,198	-0,133	0,057
-513,072	168,153	-0,102	0,106
-512,058	800,000	-0,072	0,151
-511,043	759,620	0,032	0,063
-510,029	-20,630	-0,060	0,027
-509,014	183,969	0,035	-0,037
-507,999	800,000	-0,023	0,072
-506,985	-200,000	-0,003	0,113
-505,970	-200,000	-0,003	-0,112
-504,956	-109,521	-0,082	0,013
-503,941	-175,942	0,050	-0,001
-502,926	133,356	0,096	-0,091
-501,912	-114,126	-0,200	-0,028
-500,897	-200,000	0,024	0,145
-499,883	603,816	-0,024	0,043
-498,868	71,137	0,075	-0,057
-497,853	163,963	0,024	-0,024
-496,839	261,345	0,057	-0,072
-495,824	-52,421	-0,132	0,044
-494,810	-200,000	0,021	0,114
-493,795	800,000	0,010	0,022
-492,781	-8,661	0,135	0,066
-491,766	-200,000	-0,003	-0,112
-490,751	-200,000	0,009	-0,103
-489,737	-200,000	-0,007	0,035
-488,722	-67,155	-0,073	-0,021
-487,708	-200,000	0,011	0,066
-486,693	-191,523	0,064	-0,000
-485,678	-200,000	0,006	0,026
-484,664	-97,558	-0,161	0,030
-483,649	-200,000	0,003	-0,051
-482,635	-20,358	-0,017	0,008
-481,620	146,320	0,143	-0,140
-480,605	-200,000	0,006	-0,046
-479,591	-146,979	-0,039	0,002
-478,576	-200,000	0,009	-0,038
-477,562	466,321	-0,043	0,071
-476,547	195,364	-0,019	0,022
-475,532	160,219	0,034	-0,034
-474,518	262,945	-0,117	0,148
-473,503	283,513	-0,091	0,120
-472,489	339,817	-0,034	-0,049
-471,474	-200,000	0,026	0,088
-470,459	417,244	-0,038	-0,060
-469,445	-117,254	-0,053	-0,007
-468,430	-166,946	-0,038	-0,001
-467,416	386,044	-0,096	0,144
-466,401	180,300	-0,051	0,055
-465,386	37,478	0,073	-0,047
-464,372	-186,296	0,065	-0,001
-463,357	-200,000	0,022	0,072
-462,343	462,078	0,054	-0,088
-461,328	321,856	-0,060	-0,083
-460,313	522,646	0,016	-0,027
-459,299	-168,742	0,095	-0,003
-458,284	-11,545	0,198	0,094
-457,270	-200,000	0,062	0,216
-456,255	135,858	0,096	-0,091
-455,241	-194,491	0,071	-0,000
-454,226	-117,947	-0,112	-0,014
-453,211	42,058	0,089	0,058
-452,197	-70,760	0,072	0,020
-451,182	236,372	0,041	0,050
-450,168	800,000	0,046	-0,120
-449,153	-12,431	-0,127	-0,060
-448,138	443,823	-0,050	-0,080
-447,124	-200,000	0,001	0,108
-446,109	-196,735	0,065	0,000
-445,095	98,034	0,076	0,064
-444,080	-113,315	0,080	0,011
-443,065	-163,133	0,106	-0,004
-442,051	71,438	-0,059	-0,044
-441,036	800,000	-0,021	-0,063
-440,022	300,093	0,029	-0,039
-439,007	-200,000	-0,049	-0,184
-437,992	296,364	0,128	0,171
-436,978	-200,000	0,003	0,016
-435,963	800,000	-0,033	0,093
-434,949	800,000	0,040	0,083
-433,934	-103,339	0,078	0,013
-432,919	23,349	0,142	0,084
-431,905	-200,000	-0,004	-0,013
-430,890	29,499	-0,021	-0,013
-429,876	60,179	0,048	-0,035
-428,861	-200,000	0,005	-0,132
-427,846	126,885	0,046	0,043
-426,832	115,382	-0,039	0,035
-425,817	307,554	0,032	-0,044
-424,803	619,362	0,029	-0,053
-423,788	-200,000	0,004	0,089
-422,773	559,853	0,113	0,198
-421,759	100,602	-0,155	0,131
-420,744	-200,000	0,006	-0,066
-419,730	124,709	0,039	0,036
-418,715	-40,069	-0,045	0,017
-417,701	460,128	-0,064	-0,103
-416,686	-70,379	0,114	0,031
-415,671	-131,799	0,087	-0,008
-414,657	358,954	-0,018	-0,027
-413,642	-200,000	-0,005	-0,109
-412,628	-200,000	-0,095	0,000
-411,613	-94,703	0,051	0,010
-410,598	618,163	-0,047	-0,086
-409,584	203,251	-0,023	0,026
-408,569	-200,000	0,011	0,077
-407,555	-39,346	0,008	0,003
-406,540	-200,000	-0,001	0,102
-405,525	800,000	-0,012	-0,031
-404,511	-140,918	0,142	-0,010
-403,496	590,390	-0,070	-0,126
-402,482	-18,593	0,055	0,025
-401,467	-108,408	0,055	-0,009
-400,452	-119,949	0,119	0,015
-399,438	-84,817	0,165	-0,037
-398,423	151,454	-0,024	-0,024
-397,409	-118,052	-0,039	-0,005
-396,394	-200,000	-0,029	0,112
-395,379	-200,000	0,006	-0,091
-394,365	1,327	0,122	0,063
-393,350	-36,333	0,123	0,048
-392,336	3,940	0,140	0,074
-391,321	-125,968	-0,096	-0,010
-390,306	145,696	-0,026	-0,025
-389,292	0,808	-0,073	0,038
-388,277	124,324	0,048	-0,044
-387,263	-48,696	-0,124	-0,043
-386,248	188,487	0,033	0,036
-385,233	-200,000	-0,016	0,085
-384,219	-163,927	0,138	0,005
-383,204	800,000	-0,028	-0,073
-382,190	130,766	-0,007	-0,006
-381,175	800,000	-0,039	0,111
-380,160	178,198	0,072	0,076
-379,146	32,153	0,107	-0,067
-378,131	235,235	-0,054	-0,065
-377,117	663,610	-0,070	0,131
-376,102	-200,000	0,007	-0,088
-375,088	800,000	-0,059	-0,173
-374,073	-200,000	-0,011	-0,056
-373,058	-152,142	0,086	-0,004
-372,044	-109,649	0,110	0,017
-371,029	-115,809	0,065	-0,009
-370,015	800,000	-0,024	0,049
-369,000	-56,244	-0,025	0,008
-367,985	90,350	-0,075	-0,061
-366,971	256,172	0,058	0,073
-365,956	-200,000	0,004	-0,089
-364,942	111,819	0,029	0,026
-363,927	800,000	-0,026	0,068
-362,912	-35,156	-0,057	0,022
-361,898	103,626	-0,073	-0,062
-360,883	587,168	0,016	0,028
-359,869	370,654	-0,116	-0,172
-358,854	387,528	-0,059	-0,089
-357,839	-79,717	0,149	0,036
-356,825	-200,000	0,029	0,244
-355,810	-186,458	-0,125	-0,001
-354,796	800,000	-0,033	-0,077
-353,781	356,490	0,022	0,031
-352,766	16,922	0,058	0,033
-351,752	-200,000	-0,019	-0,194
-350,737	59,103	0,115	0,082
-349,723	-78,927	0,076	0,018
-348,708	800,000	0,039	0,124
-347,693	190,531	-0,071	0,077
-346,679	-64,466	-0,061	-0,018
-345,664	-151,848	-0,116	0,006
-344,650	800,000	0,004	0,008
-343,635	-67,054	0,090	-0,025
-342,620	68,695	-0,111	-0,082
-341,606	-200,000	0,003	0,037
-340,591	-200,000	0,009	0,185
-339,577	-200,000	-0,007	-0,053
-338,562	800,000	-0,035	0,096
-337,548	-200,000	-0,128	0,000
-336,533	800,000	0,027	-0,058
-335,518	-200,000	0,035	0,132
-334,504	254,635	-0,121	0,151
-333,489	-200,000	0,003	0,029
-332,475	-9,181	0,089	-0,043
-331,460	3,446	-0,065	-0,034
-330,445	403,131	0,044	0,068
-329,431	-23,965	0,065	-0,028
-328,416	314,836	0,077	0,106
-327,402	-61,375	-0,114	0,034
-326,387	-129,861	0,026	0,003
-325,372	-57,754	-0,120	-0,038
-324,358	-28,675	0,016	-0,007
-323,343	263,465	0,076	0,096
-322,329	60,832	-0,093	-0,066
-321,314	497,580	0,008	-0,013
-320,299	-97,222	-0,051	-0,010
-319,285	48,225	0,034	-0,023
-318,270	190,912	0,027	-0,030
-317,256	59,235	-0,011	0,008
-316,241	143,526	0,100	-0,096
-315,226	371,303	-0,021	0,031
-314,212	237,497	0,057	0,069
-313,197	800,000	0,034	0,074
-312,183	-106,234	-0,116	0,019
-311,168	58,179	-0,062	0,044
-310,153	800,000	-0,062	-0,150
-309,139	268,659	-0,093	-0,118
-308,124	-139,294	-0,100	0,008
-307,110	-200,000	0,015	0,126
-306,095	800,000	0,063	0,191
-305,080	-49,134	0,106	0,036
-304,066	-200,000	-0,012	0,049
-303,051	-21,802	-0,044	0,019
-302,037	-200,000	0,024	-0,092
-301,022	138,694	-0,081	-0,077
-300,008	-42,544	0,125	0,046
-298,993	800,000	-0,025	0,061
-297,978	158,969	0,064	0,064
-296,964	-61,465	-0,117	-0,035
-295,949	465,397	0,058	-0,094
-294,935	800,000	-0,020	-0,047
-293,920	-66,885	0,036	0,010
-292,905	131,663	0,092	0,085
-291,891	800,000	0,066	0,202
-290,876	800,000	-0,022	-0,045
-289,862	203,724	0,030	-0,034
-288,847	-5,408	-0,125	-0,062
-287,832	400,255	-0,043	-0,066
-286,818	800,000	-0,013	0,038
-285,803	-36,670	-0,049	-0,019
-284,789	-9,336	0,049	0,023
-283,774	-15,493	-0,076	-0,035
-282,759	800,000	-0,022	0,060
-281,745	47,565	0,049	0,033
-280,730	383,145	-0,112	-0,167
-279,716	651,733	-0,054	-0,101
-278,701	23,266	0,037	-0,022
-277,686	-60,457	0,051	0,016
-276,672	800,000	0,022	-0,045
-275,657	28,501	0,026	-0,016
-274,643	1,178	0,079	-0,041
-273,628	800,000	0,099	-0,211
-272,613	-200,000	0,014	0,105
-271,599	800,000	0,023	0,061
-270,584	800,000	-0,023	0,062
-269,570	800,000	-0,007	-0,016
-268,555	331,458	-0,033	-0,046
-267,540	137,287	0,028	-0,027
-266,526	624,302	0,051	-0,094
-265,511	24,712	-0,095	-0,057
-264,497	800,000	0,040	0,111
-263,482	180,776	0,097	0,103
-262,467	58,350	0,132	-0,094
-261,453	800,000	-0,002	0,007
-260,438	-30,475	-0,143	-0,058
-259,424	800,000	0,027	-0,067
-258,409	-200,000	-0,008	-0,175
-257,395	-3,056	-0,087	0,044
-256,380	-154,275	0,139	-0,007
-255,365	800,000	0,014	-0,033
-254,351	-200,000	-0,006	0,054
-253,336	-200,000	0,001	-0,030
-252,322	800,000	-0,082	-0,191
-251,307	192,809	-0,051	-0,055
-250,292	191,288	-0,070	0,077
-249,278	36,294	0,145	0,092
-248,263	292,879	0,063	0,083
-247,249	-6,755	-0,049	-0,024
-246,234	109,164	-0,081	0,070
-245,219	107,139	-0,045	-0,038
-244,205	-200,000	-0,011	-0,041
-243,190	-99,374	0,109	-0,020
-242,176	-50,961	0,108	-0,036
-241,161	151,679	0,071	0,070
-240,146	116,475	0,173	0,153
-239,132	-113,666	-0,042	0,006
-238,117	226,599	0,093	-0,109
-237,103	-48,058	-0,114	0,039
-236,088	-200,000	0,025	-0,139
-235,073	153,500	0,031	-0,031
-234,059	800,000	0,026	0,080
-233,044	800,000	0,031	0,071
-232,030	800,000	0,015	0,031
-231,015	-162,042	-0,090	0,003
-230,000	546,418	-0,038	-0,066
-228,986	-36,935	-0,126	-0,049
-227,971	-29,414	0,059	0,024
-226,957	800,000	0,016	0,036
-225,942	-32,344	0,050	-0,020
-224,927	800,000	0,051	0,156
-223,913	-71,609	-0,087	0,023
-222,898	-185,177	-0,136	0,001
-221,884	13,458	0,049	-0,028
-220,869	800,000	0,036	-0,096
-219,855	307,571	0,055	-0,074
-218,840	-200,000	0,052	-0,000
-217,825	-200,000	0,010	-0,169
-216,811	94,310	0,066	-0,054
-215,796	800,000	-0,037	0,080
-214,782	-29,047	-0,099	-0,041
-213,767	141,899	0,083	-0,079
-212,752	-102,201	0,026	0,005
-211,738	507,587	-0,056	-0,094
-210,723	-132,085	-0,019	-0,002
-209,709	452,968	0,037	-0,059
-208,694	279,478	0,082	-0,105
-207,679	-5,143	-0,033	-0,016
-206,665	-62,251	-0,055	-0,016
-205,650	183,505	0,078	0,083
-204,636	-200,000	0,000	-0,055
-203,621	-200,000	-0,040	0,154
-202,606	-116,645	0,047	0,006
-201,592	-89,493	-0,057	0,012
-200,577	-58,589	0,182	-0,057
-199,563	-200,000	0,005	0,017
-198,548	-70,595	0,099	0,027
-197,533	217,118	-0,039	0,045
-196,519	316,672	0,033	0,045
-195,504	-161,340	-0,014	-0,001
-194,490	60,266	-0,059	0,042
-193,475	-136,919	-0,124	0,010
-192,460	221,112	0,067	-0,077
-191,446	-3,889	-0,043	-0,021
-190,431	757,294	-0,044	0,086
-189,417	611,936	-0,041	0,074
-188,402	213,328	0,054	-0,062
-187,387	800,000	-0,018	-0,051
-186,373	-71,410	-0,085	0,023
-185,358	-84,776	-0,132	-0,030
-184,344	-141,337	-0,036	0,003
-183,329	340,212	0,058	0,081
-182,315	-200,000	0,007	0,118
-181,300	-29,275	-0,050	0,021
-180,285	800,000	-0,051	-0,144
-179,271	733,439	0,025	0,049
-178,256	-14,119	0,098	0,045
-177,242	800,000	0,014	-0,044
-176,227	-53,031	-0,025	0,008
-175,212	7,768	-0,041	0,022
-174,198	-0,895	0,084	0,042
-173,183	-178,362	-0,077	-0,001
-172,169	800,000	-0,067	-0,177
-171,154	279,456	-0,126	-0,163
-170,139	-64,262	0,079	0,023
-169,125	30,209	0,067	0,041
-168,110	-200,000	0,019	0,108
-167,096	176,086	0,078	-0,082
-166,081	571,665	-0,057	0,101
-165,066	-18,500	-0,106	0,047
-164,052	-46,714	-0,133	-0,046
-163,037	-67,769	0,038	-0,011
-162,023	800,000	0,015	0,036
-161,008	483,116	0,030	0,049
-159,993	192,608	-0,128	0,140
-158,979	-97,369	0,092	0,017
-157,964	2,046	-0,053	-0,027
-156,950	25,370	-0,184	0,110
-155,935	198,821	0,058	0,064
-154,920	95,266	0,112	0,092
-153,906	800,000	0,027	0,060
-152,891	226,433	-0,089	-0,105
-151,877	800,000	-0,042	-0,083
-150,862	-147,888	0,068	0,004
-149,847	-200,000	0,000	-0,017
-148,833	780,153	0,013	-0,025
-147,818	-200,000	0,002	-0,141
-146,804	-39,808	-0,089	0,033
-145,789	800,000	0,029	0,082
-144,775	25,335	-0,104	0,062
-143,760	-200,000	-0,009	-0,079
-142,745	-153,801	-0,114	0,006
-141,731	-200,000	0,025	0,100
-140,716	800,000	0,036	0,096
-139,702	160,035	0,063	0,063
-138,687	611,126	0,023	0,042
-137,672	-167,356	-0,050	-0,001
-136,658	221,344	-0,050	-0,057
-135,643	40,831	-0,124	-0,080
-134,629	-55,187	-0,113	0,036
-133,614	-185,233	0,132	-0,001
-132,599	800,000	-0,064	0,165
-131,585	-200,000	0,012	0,115
-130,570	-200,000	0,027	-0,154
-129,556	-200,000	-0,024	-0,129
-128,541	-71,240	-0,129	-0,034
-127,526	1,996	-0,039	-0,020
-126,512	-56,024	-0,070	0,022
-125,497	203,889	-0,038	0,042
-124,483	-90,259	-0,035	0,007
-123,468	69,078	0,038	-0,028
-122,453	-49,292	0,135	-0,046
-121,439	-125,116	-0,068	0,007
-120,424	-80,462	-0,075	-0,018
-119,410	-200,000	-0,000	-0,046
-118,395	-200,000	-0,017	-0,122
