DTS Sentinel unit serial number:	SN410029Multiplexer serial number:	ORYXHardware model number:	OX2-SRSoftware version number:	ORYX F/W v4,00 Oryx Data Collector v3.7.2.0data status	okinstallation	B6 Nyhavnadifferential loss correction	single-endedforward channel	channel 2reverse channel	N/Adate	2023/12/08time	17:10:08forward acquisition time	300,00reverse acquisition time	0,00gamma	499,1914k internal	0,3158k external	0,3158temperature offset calibration	1,0000default loss term (dB/km)	0,3820temperature slope calibration	1,0000multiplexer offset coefficient	1,0000multiplexer slope coefficient	1,0000fibre end	0,00T internal ref (°C)	15,15T ext. ref 1 (°C)	-1,37T ext. ref 2 (°C)	-1,37length (m)	temperature (°C)	Stokes	anti-Stokes-744,400	-200,000	0,166	-0,000
-743,385	3,630	-0,218	-0,117
-742,371	-54,093	0,059	-0,020
-741,356	-101,041	-0,234	0,042
-740,342	375,237	0,051	0,077
-739,327	38,775	-0,198	-0,130
-738,312	-111,068	0,081	0,012
-737,298	-95,049	-0,336	-0,066
-736,283	347,630	0,045	0,065
-735,269	-79,988	-0,332	0,081
-734,254	-74,289	0,135	-0,036
-733,239	-52,760	-0,485	-0,164
-732,225	-44,324	0,195	-0,071
-731,210	-28,918	-0,096	-0,040
-730,196	-183,647	-0,093	-0,001
-729,181	-200,000	0,001	0,060
-728,167	-102,894	0,091	-0,016
-727,152	-153,931	-0,061	0,003
-726,137	-124,677	-0,066	-0,007
-725,123	208,693	0,009	0,010
-724,108	448,627	0,035	-0,057
-723,094	207,869	-0,054	-0,062
-722,079	252,586	-0,132	-0,166
-721,064	-200,000	0,002	-0,041
-720,050	75,324	-0,070	0,055
-719,035	13,321	-0,073	-0,042
-718,021	280,009	0,045	-0,060
-717,006	-6,407	-0,100	-0,050
-715,991	-200,000	-0,011	-0,058
-714,977	-149,596	-0,236	0,013
-713,962	-118,464	0,074	0,010
-712,948	800,000	0,066	0,164
-711,933	-156,513	-0,157	0,007
-710,918	800,000	-0,052	-0,130
-709,904	113,244	-0,054	-0,048
-708,889	12,685	-0,054	0,031
-707,875	-108,467	0,059	0,009
-706,860	-200,000	-0,014	0,050
-705,845	-11,356	-0,054	0,026
-704,831	-200,000	-0,004	-0,049
-703,816	172,634	-0,086	0,091
-702,802	56,023	-0,134	0,095
-701,787	23,071	0,066	-0,040
-700,772	-200,000	-0,061	-0,203
-699,758	25,769	-0,057	0,035
-698,743	-176,889	-0,035	0,001
-697,729	-91,370	0,102	-0,021
-696,714	-34,787	-0,084	-0,034
-695,699	-119,264	-0,049	-0,006
-694,685	-27,743	-0,174	-0,074
-693,670	800,000	-0,079	-0,169
-692,656	-88,480	0,134	0,029
-691,641	100,278	0,128	0,109
-690,627	-200,000	0,013	0,117
-689,612	-188,482	-0,079	-0,001
-688,597	42,714	-0,096	-0,064
-687,583	178,172	-0,141	-0,152
-686,568	-200,000	-0,008	-0,120
-685,554	360,605	-0,074	-0,110
-684,539	-53,155	0,084	-0,028
-683,524	-200,000	-0,028	0,117
-682,510	-60,700	-0,154	-0,048
-681,495	800,000	-0,015	-0,047
-680,481	-41,269	-0,122	-0,046
-679,466	-200,000	0,016	-0,157
-678,451	-138,534	-0,057	-0,005
-677,437	85,255	0,078	-0,063
-676,422	83,236	-0,039	0,031
-675,408	-167,305	0,128	-0,004
-674,393	800,000	0,037	-0,110
-673,378	-120,868	0,109	-0,013
-672,364	104,310	-0,028	0,024
-671,349	-22,078	0,059	0,026
-670,335	800,000	-0,034	-0,092
-669,320	-72,930	0,091	-0,024
-668,305	519,858	0,093	0,161
-667,291	-200,000	-0,014	-0,123
-666,276	-65,951	-0,147	-0,043
-665,262	-200,000	-0,017	-0,126
-664,247	-69,833	0,128	-0,036
-663,232	-200,000	-0,027	-0,116
-662,218	9,337	-0,042	-0,023
-661,203	294,854	-0,054	0,072
-660,189	800,000	0,016	0,035
-659,174	243,705	-0,190	-0,234
-658,159	604,950	0,055	-0,101
-657,145	33,616	-0,129	0,082
-656,130	-200,000	-0,021	-0,076
-655,116	-115,487	0,030	0,004
-654,101	0,955	-0,066	0,035
-653,086	137,034	0,110	0,105
-652,072	25,862	-0,092	-0,056
-651,057	-45,105	-0,154	-0,056
-650,043	-200,000	-0,004	-0,036
-649,028	678,579	0,019	0,036
-648,014	800,000	-0,034	0,081
-646,999	-200,000	0,013	0,064
-645,984	-112,016	0,080	0,012
-644,970	171,046	-0,043	-0,045
-643,955	-200,000	-0,018	0,076
-642,941	-32,708	-0,047	-0,019
-641,926	800,000	-0,021	0,061
-640,911	204,676	0,100	-0,114
-639,897	383,919	-0,019	-0,029
-638,882	8,478	0,126	0,069
-637,868	40,822	-0,036	-0,024
-636,853	237,555	-0,105	-0,128
-635,838	800,000	0,070	-0,146
-634,824	-44,084	-0,028	-0,010
-633,809	-200,000	-0,007	-0,060
-632,795	-40,592	-0,100	0,038
-631,780	515,471	-0,024	-0,041
-630,765	800,000	0,058	0,168
-629,751	745,720	0,065	-0,129
-628,736	-6,240	-0,075	-0,037
-627,722	-157,142	0,108	0,005
-626,707	-200,000	0,026	-0,088
-625,692	536,507	0,062	0,108
-624,678	-52,477	0,095	0,032
-623,663	-200,000	0,001	0,041
-622,649	39,267	-0,076	-0,050
-621,634	-200,000	-0,060	-0,251
-620,619	27,627	-0,072	-0,044
-619,605	-91,802	0,039	-0,008
-618,590	382,291	0,025	-0,039
-617,576	-58,706	0,118	0,037
-616,561	-200,000	0,004	0,116
-615,546	800,000	0,034	-0,092
-614,532	800,000	-0,059	-0,125
-613,517	191,112	-0,092	-0,102
-612,503	551,751	0,081	0,142
-611,488	-110,938	-0,105	0,016
-610,474	144,934	-0,021	0,021
-609,459	673,795	0,027	0,051
-608,444	-200,000	0,000	-0,111
-607,430	-120,015	-0,153	0,019
-606,415	-200,000	0,012	0,054
-605,401	-200,000	0,012	0,117
-604,386	97,686	-0,045	0,038
-603,371	-200,000	-0,009	-0,071
-602,357	71,444	-0,057	-0,043
-601,342	-85,233	-0,161	0,036
-600,328	-200,000	0,022	0,124
-599,313	246,073	-0,103	-0,127
-598,298	-124,623	0,063	-0,007
-597,284	-105,778	-0,039	0,006
-596,269	239,869	0,057	0,070
-595,255	305,673	-0,057	0,078
-594,240	-146,214	0,108	0,007
-593,225	800,000	-0,057	-0,129
-592,211	-26,441	-0,064	0,027
-591,196	743,925	0,027	-0,054
-590,182	57,449	0,123	0,088
-589,167	205,672	0,043	0,049
-588,152	-35,176	0,120	0,047
-587,138	-86,721	-0,073	0,016
-586,123	-200,000	0,005	0,082
-585,109	62,047	-0,053	-0,039
-584,094	-13,731	0,025	0,012
-583,079	-200,000	-0,007	0,044
-582,065	438,674	0,036	-0,057
-581,050	800,000	0,034	-0,069
-580,036	800,000	0,035	-0,075
-579,021	-200,000	-0,027	-0,160
-578,006	7,757	-0,109	-0,060
-576,992	800,000	-0,017	0,042
-575,977	-200,000	0,001	-0,064
-574,963	-66,872	-0,023	0,006
-573,948	-200,000	-0,003	0,103
-572,934	44,872	0,145	0,098
-571,919	101,018	-0,055	-0,047
-570,904	-200,000	-0,003	-0,122
-569,890	-200,000	-0,024	-0,104
-568,875	-200,000	-0,005	0,086
-567,861	36,645	-0,026	-0,017
-566,846	-132,391	-0,084	-0,008
-565,831	279,615	0,039	-0,051
-564,817	51,934	0,092	-0,064
-563,802	800,000	0,023	-0,067
-562,788	29,328	0,047	-0,029
-561,773	243,396	-0,021	0,026
-560,758	399,337	0,036	0,055
-559,744	617,933	-0,063	-0,117
-558,729	311,571	0,122	-0,168
-557,715	154,993	-0,100	-0,101
-556,700	290,066	-0,099	-0,132
-555,685	-200,000	-0,066	-0,269
-554,671	800,000	0,065	-0,154
-553,656	-200,000	-0,008	-0,033
-552,642	-148,772	-0,131	-0,008
-551,627	-38,885	-0,055	0,021
-550,612	56,879	-0,071	-0,051
-549,598	211,389	-0,014	-0,017
-548,583	-85,934	-0,061	0,014
-547,569	342,090	-0,112	-0,161
-546,554	-110,915	0,102	-0,015
-545,539	290,892	0,055	0,073
-544,525	17,832	0,084	0,049
-543,510	-67,053	0,101	-0,029
-542,496	12,680	-0,121	-0,068
-541,481	-200,000	0,001	0,144
-540,466	-103,447	-0,134	-0,023
-539,452	140,812	0,069	0,067
-538,437	3,050	0,153	0,081
-537,423	-124,252	-0,147	0,017
-536,408	-87,507	0,052	-0,011
-535,393	-28,074	-0,071	-0,030
-534,379	-40,353	-0,116	-0,044
-533,364	-106,288	-0,148	-0,024
-532,350	149,909	0,114	0,113
-531,335	-72,030	0,107	0,029
-530,321	369,189	-0,038	0,057
-529,306	-139,993	-0,079	-0,006
-528,291	9,704	0,049	0,027
-527,277	-29,337	-0,095	0,040
-526,262	800,000	-0,015	0,041
-525,248	-200,000	-0,001	0,018
-524,233	-6,014	0,070	0,035
-523,218	39,364	0,091	0,060
-522,204	-35,482	0,049	0,019
-521,189	800,000	-0,028	-0,064
-520,175	4,403	-0,091	-0,049
-519,160	88,092	-0,035	0,028
-518,145	-33,383	0,045	0,018
-517,131	-9,619	0,109	-0,053
-516,116	-200,000	-0,026	0,114
-515,102	419,178	-0,047	0,073
-514,087	-200,000	-0,015	0,079
-513,072	-6,295	-0,118	-0,059
-512,058	-33,967	-0,106	-0,042
-511,043	-200,000	-0,018	-0,096
-510,029	-33,620	-0,047	0,019
-509,014	750,460	-0,038	0,075
-507,999	-200,000	-0,010	0,146
-506,985	227,707	-0,041	-0,048
-505,970	800,000	-0,039	0,115
-504,956	800,000	-0,051	0,148
-503,941	184,204	0,083	0,090
-502,926	-84,299	0,055	0,013
-501,912	-200,000	-0,014	0,252
-500,897	-7,224	0,175	-0,086
-499,883	398,793	-0,035	-0,054
-498,868	6,762	-0,178	-0,097
-497,853	799,211	0,073	-0,148
-496,839	638,170	0,034	0,064
-495,824	324,831	0,106	-0,148
-494,810	-69,005	-0,133	0,037
-493,795	209,961	-0,069	0,080
-492,781	-11,785	0,031	0,015
-491,766	-145,008	0,035	0,002
-490,751	-112,149	-0,122	-0,018
-489,737	-54,073	-0,062	0,021
-488,722	800,000	-0,040	0,083
-487,708	-119,708	0,085	-0,011
-486,693	48,371	-0,061	-0,042
-485,678	-133,779	0,116	-0,010
-484,664	800,000	-0,036	-0,090
-483,649	16,589	-0,007	0,004
-482,635	10,247	-0,034	0,019
-481,620	-149,443	-0,053	0,003
-480,605	66,665	0,085	-0,063
-479,591	-56,067	0,033	-0,011
-478,576	111,049	0,039	0,035
-477,562	469,077	-0,039	0,064
-476,547	257,374	0,068	-0,085
-475,532	-200,000	-0,002	-0,038
-474,518	-121,950	-0,054	0,006
-473,503	-200,000	0,016	-0,060
-472,489	23,521	-0,051	0,031
-471,474	-200,000	-0,007	-0,046
-470,459	-38,864	-0,042	0,016
-469,445	-200,000	-0,003	0,090
-468,430	29,723	0,050	0,031
-467,416	238,139	-0,130	0,158
-466,401	428,184	0,096	0,152
-465,386	228,372	0,029	-0,035
-464,372	-16,599	-0,093	-0,043
-463,357	37,886	0,048	-0,031
-462,343	-39,593	0,109	0,041
-461,328	-200,000	0,030	0,159
-460,313	391,122	0,005	-0,008
-459,299	-39,049	-0,099	0,038
-458,284	76,874	0,009	-0,007
-457,270	-83,944	-0,048	0,011
-456,255	200,400	-0,074	-0,083
-455,241	800,000	-0,046	-0,102
-454,226	35,449	0,093	-0,059
-453,211	800,000	-0,020	-0,047
-452,197	165,530	-0,067	0,069
-451,182	111,299	0,071	0,062
-450,168	-200,000	-0,015	0,069
-449,153	66,872	-0,105	0,078
-448,138	-70,067	-0,057	-0,016
-447,124	106,352	0,056	0,048
-446,109	63,194	0,079	-0,058
-445,095	-200,000	-0,028	0,109
-444,080	-200,000	-0,017	0,088
-443,065	-69,374	-0,024	0,007
-442,051	84,433	-0,015	0,012
-441,036	-200,000	0,019	-0,068
-440,022	95,564	-0,015	0,013
-439,007	-200,000	-0,010	0,077
-437,992	71,116	0,149	-0,112
-436,978	56,951	0,084	0,060
-435,963	102,186	-0,076	0,065
-434,949	494,670	0,028	0,047
-433,934	483,188	-0,035	0,058
-432,919	239,263	-0,042	-0,051
-431,905	652,688	0,076	-0,143
-430,890	-70,130	0,077	0,021
-429,876	-200,000	0,004	0,028
-428,861	10,846	0,166	0,092
-427,846	387,040	0,093	-0,140
-426,832	-6,472	0,075	0,037
-425,817	185,061	0,051	-0,056
-424,803	-200,000	0,018	-0,108
-423,788	730,140	-0,014	0,027
-422,773	18,351	0,166	0,096
-421,759	-200,000	0,037	0,153
-420,744	234,839	0,019	0,023
-419,730	21,595	-0,152	-0,090
-418,715	37,989	-0,058	0,037
-417,701	-200,000	-0,003	-0,039
-416,686	359,611	0,045	-0,066
-415,671	800,000	0,046	0,122
-414,657	-200,000	-0,017	-0,110
-413,642	72,052	0,040	-0,031
-412,628	422,043	-0,056	-0,087
-411,613	54,093	-0,063	0,044
-410,598	-46,472	0,068	0,024
-409,584	14,708	-0,043	-0,024
-408,569	297,475	0,059	0,079
-407,555	800,000	-0,013	-0,027
-406,540	540,604	-0,094	0,163
-405,525	8,383	0,094	0,051
-404,511	733,881	-0,061	-0,120
-403,496	-1,046	0,081	-0,042
-402,482	-8,684	-0,018	0,009
-401,467	305,166	0,048	-0,066
-400,452	361,600	0,051	0,075
-399,438	-200,000	-0,002	-0,025
-398,423	-200,000	-0,011	-0,105
-397,409	-200,000	-0,071	0,000
-396,394	800,000	-0,043	-0,101
-395,379	800,000	-0,018	0,054
-394,365	724,128	0,038	0,075
-393,350	182,447	0,106	0,113
-392,336	-200,000	0,022	-0,120
-391,321	13,825	0,038	-0,022
-390,306	800,000	-0,015	0,044
-389,292	514,887	-0,080	-0,136
-388,277	69,896	0,075	0,056
-387,263	-105,053	0,103	0,017
-386,248	-6,993	-0,037	0,018
-385,233	617,354	0,044	0,080
-384,219	23,761	0,082	-0,049
-383,204	-91,150	0,088	-0,018
-382,190	-200,000	-0,009	0,043
-381,175	800,000	-0,108	-0,220
-380,160	-31,197	-0,027	-0,011
-379,146	-15,150	-0,133	0,062
-378,131	47,060	0,087	0,058
-377,117	236,455	0,033	-0,040
-376,102	191,820	0,059	0,064
-375,088	-200,000	-0,010	-0,033
-374,073	518,797	-0,104	0,177
-373,058	116,035	0,156	0,138
-372,044	-200,000	0,182	0,000
-371,029	800,000	0,043	0,118
-370,015	303,625	0,034	0,046
-369,000	-97,909	-0,116	-0,022
-367,985	24,250	0,080	-0,048
-366,971	196,094	-0,053	-0,059
-365,956	37,934	0,072	0,046
-364,942	800,000	0,019	0,053
-363,927	28,667	0,066	0,041
-362,912	76,355	-0,087	0,067
-361,898	-86,330	-0,082	-0,018
-360,883	-42,070	0,033	-0,012
-359,869	-166,556	0,022	-0,001
-358,854	800,000	0,025	0,052
-357,839	-194,493	0,040	-0,000
-356,825	302,947	-0,041	0,056
-355,810	800,000	0,073	0,198
-354,796	-200,000	-0,035	0,115
-353,781	800,000	0,023	-0,051
-352,766	800,000	0,063	0,153
-351,752	-200,000	-0,009	-0,078
-350,737	132,604	0,133	-0,125
-349,723	17,410	-0,050	-0,029
-348,708	-166,421	-0,045	0,001
-347,693	-141,646	-0,108	0,008
-346,679	800,000	0,021	-0,043
-345,664	-123,175	-0,061	-0,007
-344,650	800,000	0,031	0,099
-343,635	-40,873	-0,119	0,045
-342,620	-127,421	0,132	-0,014
-341,606	-200,000	-0,002	0,025
-340,591	-67,191	-0,099	0,028
-339,577	-162,872	-0,103	0,004
-338,562	-200,000	0,013	0,133
-337,548	-189,333	-0,220	0,002
-336,533	-200,000	-0,004	0,069
-335,518	-200,000	-0,026	0,147
-334,504	15,068	0,089	-0,050
-333,489	-36,985	0,057	-0,022
-332,475	-80,191	-0,115	0,028
-331,460	-200,000	0,006	0,041
-330,445	-200,000	0,015	-0,058
-329,431	23,025	0,120	0,071
-328,416	-0,936	0,056	0,029
-327,402	-199,341	0,089	-0,000
-326,387	98,295	-0,095	-0,080
-325,372	-54,700	0,088	-0,029
-324,358	60,618	-0,130	0,093
-323,343	-189,688	0,053	0,000
-322,329	800,000	0,035	0,073
-321,314	-98,584	0,091	-0,017
-320,299	-200,000	0,009	-0,111
-319,285	-109,868	0,164	0,025
-318,270	800,000	0,016	-0,036
-317,256	137,770	0,089	-0,085
-316,241	-111,180	-0,074	0,011
-315,226	-200,000	-0,039	0,135
-314,212	190,916	0,056	0,061
-313,197	-200,000	-0,010	0,051
-312,183	-200,000	0,009	-0,041
-311,168	-119,645	-0,184	-0,023
-310,153	167,918	-0,021	0,022
-309,139	176,473	0,017	-0,018
-308,124	-75,646	0,071	-0,018
-307,110	-124,438	0,028	0,003
-306,095	135,626	0,065	-0,062
-305,080	-148,499	-0,030	-0,002
-304,066	800,000	0,005	-0,016
-303,051	-200,000	-0,020	-0,079
-302,037	318,147	-0,040	0,055
-301,022	561,954	0,065	-0,114
-300,008	40,232	0,054	0,035
-298,993	347,149	0,020	-0,028
-297,978	-200,000	0,003	-0,041
-296,964	-117,365	0,132	0,017
-295,949	260,924	-0,088	-0,111
-294,935	-18,267	-0,102	-0,046
-293,920	-16,820	-0,089	-0,040
-292,905	-107,940	0,177	-0,028
-291,891	151,774	0,021	0,020
-290,876	-81,323	0,119	0,028
-289,862	800,000	0,026	-0,077
-288,847	-200,000	0,010	0,073
-287,832	513,542	-0,032	0,055
-286,818	-200,000	-0,003	0,027
-285,803	-19,492	-0,080	0,036
-284,789	72,929	0,147	0,111
-283,774	-55,042	0,095	0,031
-282,759	390,642	0,060	-0,091
-281,745	-200,000	0,003	0,026
-280,730	463,898	-0,101	-0,164
-279,716	200,909	-0,015	-0,017
-278,701	-191,079	0,088	0,001
-277,686	-152,737	0,127	0,006
-276,672	53,973	-0,081	-0,056
-275,657	-118,288	0,065	0,008
-274,643	-200,000	0,005	-0,140
-273,628	70,567	-0,034	0,026
-272,613	-2,282	-0,085	0,043
-271,599	-180,399	-0,025	0,000
-270,584	359,499	0,080	0,115
-269,570	207,753	0,070	0,080
-268,555	-200,000	0,006	-0,130
-267,540	-77,823	-0,156	0,039
-266,526	538,064	-0,034	-0,059
-265,511	151,167	0,017	0,017
-264,497	-200,000	0,011	0,135
-263,482	105,708	0,064	-0,054
-262,467	391,199	0,085	0,128
-261,453	305,141	-0,046	0,062
-260,438	275,652	-0,069	-0,089
-259,424	-114,965	-0,096	0,013
-258,409	-200,000	0,009	-0,174
-257,395	800,000	0,032	0,093
-256,380	132,165	0,062	-0,058
-255,365	-200,000	-0,004	0,093
-254,351	122,579	-0,088	0,079
-253,336	771,092	-0,068	0,135
-252,322	13,923	-0,067	-0,038
-251,307	800,000	0,049	-0,137
-250,292	-119,943	-0,132	-0,016
-249,278	411,856	0,082	0,127
-248,263	86,138	-0,078	0,062
-247,249	-200,000	-0,024	-0,148
-246,234	234,256	0,042	-0,050
-245,219	-120,244	-0,052	-0,006
-244,205	-49,502	-0,117	-0,040
-243,190	-200,000	0,010	-0,105
-242,176	220,774	0,043	-0,050
-241,161	800,000	0,003	-0,010
-240,146	800,000	0,065	0,130
-239,132	226,703	0,134	0,157
-238,117	9,066	-0,193	-0,105
-237,103	-200,000	0,135	0,000
-236,088	681,617	-0,073	-0,139
-235,073	-200,000	0,011	-0,046
-234,059	140,471	-0,065	0,062
-233,044	-92,689	0,065	-0,013
-232,030	14,403	0,151	0,085
-231,015	264,866	-0,144	-0,182
-230,000	800,000	-0,082	-0,180
-228,986	-200,000	0,054	-0,177
-227,971	584,100	0,093	0,166
-226,957	-144,596	-0,027	-0,002
-225,942	106,447	-0,021	0,018
-224,927	-200,000	-0,017	-0,103
-223,913	60,850	-0,165	-0,118
-222,898	-162,044	0,114	-0,004
-221,884	800,000	-0,046	-0,103
-220,869	4,690	0,061	-0,032
-219,855	30,741	0,162	-0,100
-218,840	-84,169	-0,096	-0,022
-217,825	-19,700	-0,119	0,053
-216,811	23,121	-0,070	0,042
-215,796	-200,000	0,003	-0,129
-214,782	15,187	-0,070	-0,040
-213,767	41,999	0,043	0,028
-212,752	-200,000	0,019	0,159
-211,738	-200,000	0,004	0,080
-210,723	-84,890	0,071	0,016
-209,709	-26,396	0,147	-0,062
-208,694	-75,755	-0,072	-0,018
-207,679	-200,000	0,005	0,086
-206,665	121,509	-0,035	0,032
-205,650	91,451	-0,086	0,070
-204,636	-63,726	0,105	-0,031
-203,621	571,031	0,025	0,044
-202,606	-113,230	-0,087	-0,012
-201,592	-200,000	0,004	0,034
-200,577	714,680	0,006	-0,011
-199,563	-200,000	0,012	0,139
-198,548	-8,088	0,072	-0,035
-197,533	35,412	-0,081	-0,051
-196,519	-200,000	0,014	0,059
-195,504	550,847	-0,019	0,034
-194,490	226,967	0,029	-0,034
-193,475	800,000	-0,018	0,038
-192,460	96,132	0,068	-0,056
-191,446	143,046	0,034	0,032
-190,431	-200,000	-0,004	0,013
-189,417	-53,092	-0,107	-0,035
-188,402	800,000	0,009	-0,023
-187,387	-57,871	-0,146	-0,046
-186,373	336,277	0,045	0,063
-185,358	105,108	-0,011	0,009
-184,344	800,000	0,036	-0,092
-183,329	396,596	-0,062	-0,094
-182,315	-52,859	0,086	0,029
-181,300	303,435	-0,058	0,078
-180,285	17,180	0,049	-0,028
-179,271	279,994	-0,096	0,123
-178,256	7,742	0,022	-0,012
-177,242	-57,878	-0,148	0,046
-176,227	-200,000	0,026	0,085
-175,212	-200,000	-0,042	-0,155
-174,198	-10,863	-0,045	0,021
-173,183	-57,752	-0,114	0,036
-172,169	-200,000	0,007	-0,037
-171,154	-121,424	0,105	0,012
-170,139	-200,000	0,007	0,101
-169,125	-41,824	-0,128	0,047
-168,110	346,817	-0,030	0,042
-167,096	-200,000	-0,005	-0,093
-166,081	46,687	-0,057	-0,038
-165,066	-200,000	0,025	-0,124
-164,052	-117,298	-0,076	0,010
-163,037	800,000	0,045	-0,091
-162,023	800,000	0,018	0,056
-161,008	364,811	0,033	-0,048
-159,993	-200,000	0,013	-0,062
-158,979	-200,000	-0,000	-0,040
-157,964	255,744	-0,063	-0,078
-156,950	12,366	0,130	0,072
-155,935	531,967	0,012	-0,020
-154,920	800,000	0,016	-0,047
-153,906	-200,000	0,043	0,161
-152,891	55,876	0,082	-0,057
-151,877	800,000	-0,018	-0,040
-150,862	149,599	0,039	0,038
-149,847	-200,000	0,005	-0,024
-148,833	-200,000	-0,002	0,086
-147,818	72,815	0,081	0,061
-146,804	-62,850	0,125	0,037
-145,789	800,000	-0,031	0,086
-144,775	800,000	-0,049	-0,134
-143,760	-124,436	-0,082	0,009
-142,745	-200,000	-0,013	0,175
-141,731	190,583	0,018	0,019
-140,716	299,171	-0,037	-0,049
-139,702	-163,662	0,063	-0,002
-138,687	89,644	-0,113	0,090
-137,672	125,770	0,087	-0,079
-136,658	198,559	-0,034	-0,038
-135,643	93,022	0,091	0,074
-134,629	3,567	0,055	-0,029
-133,614	-200,000	0,018	-0,185
-132,599	544,726	0,009	-0,016
-131,585	-200,000	-0,032	0,153
-130,570	-200,000	-0,009	-0,031
-129,556	515,610	-0,046	0,077
-128,541	393,676	-0,033	-0,049
-127,526	800,000	-0,031	-0,064
-126,512	800,000	-0,003	-0,007
-125,497	74,760	0,084	0,064
-124,483	-40,331	-0,028	-0,011
-123,468	-100,751	-0,098	0,017
-122,453	-200,000	0,034	-0,170
-121,439	-85,448	-0,121	-0,027
-120,424	-95,353	-0,024	-0,005
-119,410	12,820	0,107	-0,059
-118,395	-155,436	0,090	-0,004
