DTS Sentinel unit serial number:	SN410029Multiplexer serial number:	ORYXHardware model number:	OX2-SRSoftware version number:	ORYX F/W v4,00 Oryx Data Collector v3.7.2.0data status	okinstallation	B6 Nyhavnadifferential loss correction	single-endedforward channel	channel 2reverse channel	N/Adate	2023/12/08time	22:40:08forward acquisition time	300,00reverse acquisition time	0,00gamma	499,1914k internal	0,3158k external	0,3158temperature offset calibration	1,0000default loss term (dB/km)	0,3820temperature slope calibration	1,0000multiplexer offset coefficient	1,0000multiplexer slope coefficient	1,0000fibre end	0,00T internal ref (°C)	15,37T ext. ref 1 (°C)	-1,02T ext. ref 2 (°C)	-1,02length (m)	temperature (°C)	Stokes	anti-Stokes-744,400	-200,000	0,001	0,113
-743,385	-171,614	-0,239	0,006
-742,371	656,963	0,089	0,169
-741,356	-162,108	-0,260	-0,009
-740,342	0,598	0,128	-0,067
-739,327	-86,488	-0,332	-0,074
-738,312	-35,922	0,082	0,032
-737,298	-114,712	-0,209	0,029
-736,283	217,198	0,100	0,118
-735,269	-173,848	-0,307	0,007
-734,254	-13,740	0,074	-0,035
-733,239	0,743	-0,472	-0,248
-732,225	131,985	0,094	0,089
-731,210	-113,794	0,029	0,004
-730,196	-174,033	0,102	0,002
-729,181	364,922	0,040	-0,059
-728,167	-200,000	0,009	-0,134
-727,152	-102,685	0,091	-0,016
-726,137	-55,221	0,022	0,007
-725,123	-200,000	-0,031	-0,212
-724,108	598,303	-0,084	-0,153
-723,094	800,000	0,016	-0,042
-722,079	175,692	-0,142	-0,152
-721,064	800,000	0,017	-0,042
-720,050	-44,733	-0,087	0,032
-719,035	-64,267	-0,148	0,044
-718,021	-178,662	0,105	-0,002
-717,006	-103,435	-0,178	-0,030
-715,991	26,488	-0,085	-0,052
-714,977	-73,614	-0,148	-0,039
-713,962	-200,000	0,004	0,042
-712,948	20,704	-0,103	0,061
-711,933	15,331	0,085	0,049
-710,918	-97,997	0,107	0,020
-709,904	165,363	-0,097	-0,101
-708,889	734,769	-0,087	-0,172
-707,875	-122,682	0,065	0,008
-706,860	66,949	-0,043	-0,032
-705,845	712,040	-0,058	-0,113
-704,831	-102,410	-0,175	-0,030
-703,816	-0,377	-0,034	0,017
-702,802	100,477	0,067	0,057
-701,787	-88,166	-0,096	-0,021
-700,772	-68,770	0,057	0,016
-699,758	-61,448	0,109	-0,033
-698,743	52,534	0,021	-0,015
-697,729	-200,000	0,016	-0,057
-696,714	-105,609	-0,082	0,013
-695,699	-78,023	-0,042	-0,010
-694,685	-144,333	0,017	0,001
-693,670	46,954	-0,019	-0,013
-692,656	157,661	-0,060	-0,062
-691,641	489,424	0,057	-0,097
-690,627	468,104	-0,104	0,172
-689,612	450,081	0,090	-0,146
-688,597	-200,000	-0,010	0,040
-687,583	-152,124	-0,049	-0,003
-686,568	316,332	0,036	0,050
-685,554	221,070	0,053	0,063
-684,539	91,073	0,062	-0,051
-683,524	142,822	0,076	0,074
-682,510	-200,000	-0,005	0,204
-681,495	800,000	0,038	0,079
-680,481	199,712	-0,049	0,055
-679,466	85,314	-0,114	-0,092
-678,451	528,840	0,125	0,218
-677,437	-29,965	0,082	0,034
-676,422	800,000	-0,055	0,136
-675,408	10,210	-0,031	0,017
-674,393	15,739	-0,033	-0,019
-673,378	-200,000	0,005	0,043
-672,364	-57,046	-0,147	-0,047
-671,349	102,481	-0,109	-0,094
-670,335	-93,132	0,090	-0,018
-669,320	800,000	0,073	-0,198
-668,305	-39,127	0,085	0,033
-667,291	99,326	0,041	-0,035
-666,276	-200,000	0,004	0,024
-665,262	-46,965	-0,123	0,044
-664,247	800,000	-0,076	-0,173
-663,232	-198,430	0,107	-0,000
-662,218	-200,000	0,004	-0,058
-661,203	-68,392	0,067	0,019
-660,189	-92,697	-0,129	0,026
-659,174	-200,000	0,008	-0,093
-658,159	200,942	-0,084	0,095
-657,145	800,000	0,031	-0,085
-656,130	-58,661	0,047	-0,015
-655,116	800,000	-0,033	0,089
-654,101	-200,000	-0,047	0,180
-653,086	164,550	-0,059	0,062
-652,072	606,719	-0,032	-0,058
-651,057	-8,871	-0,061	0,030
-650,043	311,001	0,071	-0,099
-649,028	303,770	-0,035	0,048
-648,014	74,440	0,081	-0,062
-646,999	800,000	-0,021	0,060
-645,984	-53,520	-0,092	0,031
-644,970	172,145	0,054	-0,057
-643,955	-48,177	-0,039	0,014
-642,941	105,521	0,041	-0,036
-641,926	-85,064	-0,152	-0,035
-640,911	800,000	0,021	-0,059
-639,897	133,136	0,138	0,131
-638,882	-124,918	0,117	0,013
-637,868	50,731	-0,120	0,083
-636,853	156,113	-0,027	0,027
-635,838	213,811	-0,055	0,064
-634,824	-0,854	-0,075	0,039
-633,809	540,211	0,030	0,053
-632,795	41,632	0,072	0,048
-631,780	800,000	0,043	-0,123
-630,765	-53,448	-0,066	-0,022
-629,751	28,876	-0,043	-0,026
-628,736	140,502	-0,062	-0,060
-627,722	-200,000	-0,002	0,097
-626,707	39,029	-0,093	0,061
-625,692	-145,252	0,042	-0,003
-624,678	-200,000	0,053	-0,173
-623,663	-200,000	0,027	0,128
-622,649	-58,249	0,037	0,012
-621,634	-200,000	-0,010	-0,060
-620,619	-12,419	0,080	-0,038
-619,605	-101,661	0,101	-0,018
-618,590	75,145	-0,069	0,053
-617,576	180,304	0,050	-0,053
-616,561	-56,454	-0,124	-0,040
-615,546	-200,000	-0,011	-0,096
-614,532	800,000	-0,057	-0,131
-613,517	-200,000	-0,031	0,103
-612,503	-36,500	0,121	0,048
-611,488	-177,671	-0,129	0,002
-610,474	280,547	-0,095	-0,125
-609,459	-47,028	-0,082	0,029
-608,444	289,011	-0,021	-0,027
-607,430	218,580	-0,036	-0,042
-606,415	148,460	-0,031	-0,031
-605,401	-200,000	-0,002	0,074
-604,386	337,201	0,059	-0,084
-603,371	-173,597	-0,087	-0,002
-602,357	-102,571	0,039	-0,007
-601,342	-107,500	-0,107	-0,017
-600,328	-116,537	-0,028	0,004
-599,313	595,095	-0,055	-0,099
-598,298	169,836	0,028	-0,029
-597,284	-139,137	-0,044	0,003
-596,269	192,441	-0,108	0,120
-595,255	-130,820	0,065	-0,006
-594,240	800,000	0,007	0,022
-593,225	-38,037	0,044	-0,017
-592,211	-200,000	0,013	0,057
-591,196	-200,000	0,030	0,149
-590,182	800,000	-0,036	0,092
-589,167	-200,000	-0,019	0,187
-588,152	-75,803	0,160	-0,041
-587,138	-69,719	-0,056	-0,015
-586,123	-75,478	-0,019	0,005
-585,109	-200,000	-0,019	0,121
-584,094	-188,881	-0,100	-0,001
-583,079	-26,932	0,079	-0,034
-582,065	-65,374	0,097	0,028
-581,050	-101,959	-0,071	-0,012
-580,036	36,907	-0,062	0,040
-579,021	-122,559	0,091	-0,011
-578,006	175,007	-0,120	-0,127
-576,992	-74,948	0,077	0,020
-575,977	25,668	-0,063	0,039
-574,963	-200,000	-0,009	0,108
-573,948	-200,000	0,006	-0,077
-572,934	56,124	-0,014	-0,010
-571,919	-200,000	-0,002	-0,076
-570,904	213,080	0,083	-0,096
-569,890	-81,237	-0,138	0,033
-568,875	-162,498	-0,008	0,000
-567,861	800,000	0,008	-0,020
-566,846	44,689	0,094	0,063
-565,831	582,845	-0,032	-0,057
-564,817	399,803	-0,056	-0,086
-563,802	60,442	-0,138	-0,100
-562,788	18,663	0,029	-0,017
-561,773	-7,317	0,069	-0,034
-560,758	-158,288	0,130	-0,005
-559,744	347,490	0,039	0,057
-558,729	-152,152	0,083	-0,004
-557,715	214,858	0,078	-0,090
-556,700	398,490	-0,113	-0,173
-555,685	120,528	0,046	0,042
-554,671	469,277	-0,070	-0,115
-553,656	356,859	0,026	0,039
-552,642	354,829	-0,145	0,211
-551,627	423,552	-0,119	0,188
-550,612	348,543	0,032	0,046
-549,598	-123,061	-0,012	0,001
-548,583	800,000	0,044	-0,103
-547,569	800,000	0,041	-0,123
-546,554	-84,902	0,075	-0,017
-545,539	-200,000	-0,031	0,244
-544,525	800,000	0,013	-0,035
-543,510	-7,798	-0,005	0,002
-542,496	-52,046	-0,144	0,049
-541,481	-3,143	-0,040	0,020
-540,466	82,003	0,053	-0,042
-539,452	67,595	-0,056	-0,042
-538,437	227,418	0,075	0,089
-537,423	-200,000	0,016	0,098
-536,408	274,415	0,066	0,085
-535,393	-128,006	-0,069	0,007
-534,379	800,000	-0,031	-0,097
-533,364	-106,273	0,112	-0,018
-532,350	15,919	-0,058	-0,033
-531,335	318,818	-0,076	0,105
-530,321	86,810	0,033	-0,027
-529,306	800,000	-0,028	-0,084
-528,291	-173,057	-0,043	0,001
-527,277	89,957	0,024	0,020
-526,262	-61,838	0,063	-0,019
-525,248	142,982	0,143	-0,139
-524,233	70,335	-0,074	-0,056
-523,218	324,609	0,095	-0,133
-522,204	111,143	-0,077	-0,068
-521,189	800,000	-0,035	0,098
-520,175	-51,155	-0,108	-0,037
-519,160	235,835	-0,044	0,054
-518,145	-133,186	0,075	0,007
-517,131	-200,000	-0,002	0,022
-516,116	321,300	-0,025	0,035
-515,102	800,000	-0,024	-0,074
-514,087	-200,000	0,025	0,135
-513,072	30,374	0,048	-0,030
-512,058	336,450	-0,008	0,011
-511,043	59,619	-0,101	0,073
-510,029	800,000	0,060	-0,143
-509,014	653,377	0,039	0,074
-507,999	800,000	-0,054	-0,166
-506,985	299,077	-0,065	-0,087
-505,970	-95,683	-0,124	0,024
-504,956	36,219	-0,100	0,064
-503,941	73,096	-0,038	0,029
-502,926	-35,408	-0,089	0,035
-501,912	-67,095	-0,082	0,024
-500,897	741,587	-0,051	0,100
-499,883	-22,308	0,044	-0,019
-498,868	800,000	0,036	-0,079
-497,853	-57,386	0,109	-0,035
-496,839	-200,000	-0,006	0,093
-495,824	800,000	-0,071	0,161
-494,810	271,378	-0,052	0,067
-493,795	-38,800	0,111	0,043
-492,781	-80,243	-0,080	-0,019
-491,766	137,451	-0,022	-0,021
-490,751	800,000	-0,022	-0,048
-489,737	-16,761	0,078	-0,036
-488,722	800,000	-0,017	-0,052
-487,708	-174,032	0,048	-0,001
-486,693	78,171	0,027	0,021
-485,678	-200,000	0,020	-0,083
-484,664	8,809	-0,050	-0,028
-483,649	36,923	0,192	-0,123
-482,635	45,331	0,062	-0,042
-481,620	89,969	0,058	0,048
-480,605	130,318	-0,067	-0,063
-479,591	145,566	-0,049	-0,048
-478,576	75,768	-0,066	-0,051
-477,562	-126,319	0,027	-0,003
-476,547	-200,000	-0,025	-0,152
-475,532	800,000	0,032	0,071
-474,518	1,283	-0,061	0,032
-473,503	174,852	0,062	0,066
-472,489	-20,165	-0,104	-0,047
-471,474	-18,648	-0,142	-0,064
-470,459	-200,000	0,058	0,263
-469,445	-58,396	-0,055	0,017
-468,430	-200,000	0,025	0,095
-467,416	800,000	-0,066	0,137
-466,401	160,396	0,069	0,070
-465,386	-111,606	0,069	-0,010
-464,372	-200,000	-0,007	-0,084
-463,357	523,641	0,050	0,086
-462,343	22,701	0,080	-0,048
-461,328	-200,000	-0,034	-0,150
-460,313	-200,000	0,000	0,057
-459,299	-114,983	0,086	0,012
-458,284	14,712	0,076	-0,043
-457,270	-26,947	0,050	-0,021
-456,255	144,693	0,087	-0,085
-455,241	-141,341	0,149	0,011
-454,226	402,636	-0,109	-0,167
-453,211	74,772	-0,073	-0,056
-452,197	-45,684	0,097	-0,035
-451,182	63,092	0,087	0,063
-450,168	104,011	0,140	0,120
-449,153	-18,982	0,054	-0,024
-448,138	386,575	0,087	-0,131
-447,124	-200,000	0,008	-0,093
-446,109	-38,807	-0,166	0,063
-445,095	-200,000	-0,018	0,137
-444,080	335,039	-0,008	-0,011
-443,065	800,000	0,021	-0,056
-442,051	-58,600	0,124	0,039
-441,036	33,974	-0,127	-0,080
-440,022	72,595	0,046	0,035
-439,007	-63,833	0,068	0,020
-437,992	800,000	-0,040	-0,117
-436,978	439,105	-0,006	-0,010
-435,963	377,118	0,052	-0,077
-434,949	376,267	-0,038	0,057
-433,934	-23,709	-0,053	-0,023
-432,919	-123,157	0,059	-0,007
-431,905	2,141	-0,080	-0,042
-430,890	-24,783	0,121	0,052
-429,876	800,000	0,038	0,096
-428,861	800,000	0,013	-0,030
-427,846	-200,000	0,026	-0,192
-426,832	800,000	0,059	-0,137
-425,817	247,755	0,111	-0,137
-424,803	-65,843	-0,096	0,028
-423,788	800,000	0,038	0,115
-422,773	-200,000	-0,017	0,133
-421,759	261,594	-0,046	-0,059
-420,744	-76,601	-0,121	-0,031
-419,730	108,212	0,042	-0,037
-418,715	-200,000	0,003	-0,093
-417,701	234,174	-0,013	0,016
-416,686	800,000	-0,044	0,094
-415,671	-147,132	-0,072	-0,004
-414,657	17,870	-0,071	-0,041
-413,642	-96,406	-0,110	-0,021
-412,628	-141,659	-0,061	0,004
-411,613	-112,300	-0,073	-0,010
-410,598	-113,491	0,072	0,010
-409,584	629,816	-0,086	0,159
-408,569	800,000	0,005	0,013
-407,555	-70,127	0,114	-0,031
-406,540	-107,571	0,074	-0,012
-405,525	800,000	0,045	-0,134
-404,511	800,000	-0,023	0,067
-403,496	-144,884	-0,040	-0,003
-402,482	-49,599	0,020	-0,007
-401,467	217,069	0,052	0,061
-400,452	-200,000	0,003	0,030
-399,438	255,297	0,044	0,055
-398,423	-78,817	-0,072	0,018
-397,409	-99,139	-0,041	-0,007
-396,394	-200,000	-0,004	0,022
-395,379	6,799	-0,078	0,042
-394,365	-76,952	0,075	0,019
-393,350	-153,370	0,096	-0,005
-392,336	-84,396	-0,064	-0,015
-391,321	59,117	0,121	-0,086
-390,306	-200,000	-0,001	-0,028
-389,292	-200,000	-0,008	-0,038
-388,277	-200,000	-0,005	0,124
-387,263	-200,000	-0,006	-0,037
-386,248	-200,000	0,027	0,106
-385,233	-200,000	-0,030	0,227
-384,219	-200,000	-0,000	0,096
-383,204	170,721	-0,062	0,064
-382,190	236,398	0,102	0,123
-381,175	267,868	-0,065	-0,083
-380,160	-100,901	0,243	0,043
-379,146	532,147	-0,011	0,019
-378,131	434,354	0,058	0,092
-377,117	-200,000	-0,018	0,099
-376,102	-20,221	-0,055	0,024
-375,088	623,149	0,052	0,096
-374,073	-200,000	0,012	-0,085
-373,058	302,024	0,031	-0,041
-372,044	-200,000	-0,005	0,019
-371,029	-42,128	0,117	-0,043
-370,015	473,035	0,028	0,045
-369,000	251,871	0,054	-0,067
-367,985	800,000	-0,022	-0,051
-366,971	3,892	-0,143	0,075
-365,956	450,837	-0,089	0,143
-364,942	-200,000	0,006	-0,052
-363,927	-126,023	0,096	0,010
-362,912	-74,500	0,105	0,027
-361,898	21,835	-0,086	-0,051
-360,883	-89,382	-0,042	-0,009
-359,869	139,926	0,118	0,113
-358,854	9,897	0,047	0,026
-357,839	-200,000	0,006	-0,044
-356,825	-200,000	0,008	0,161
-355,810	219,828	0,065	-0,076
-354,796	-200,000	-0,003	-0,012
-353,781	-131,319	-0,179	0,017
-352,766	301,628	0,036	-0,048
-351,752	161,465	0,084	0,086
-350,737	-171,781	-0,051	0,001
-349,723	-110,385	-0,094	-0,014
-348,708	-18,935	0,060	-0,027
-347,693	-200,000	-0,005	-0,060
-346,679	-200,000	0,004	-0,053
-345,664	42,500	-0,093	0,061
-344,650	94,643	-0,016	0,013
-343,635	128,593	-0,079	0,073
-342,620	-200,000	0,015	0,109
-341,606	-96,392	-0,160	0,031
-340,591	25,366	0,139	-0,084
-339,577	144,786	-0,040	-0,039
-338,562	654,903	0,023	0,044
-337,548	298,829	-0,009	0,012
-336,533	-172,897	-0,118	-0,003
-335,518	-62,904	-0,057	0,017
-334,504	69,640	0,111	0,083
-333,489	32,527	-0,149	-0,093
-332,475	365,217	-0,064	-0,094
-331,460	73,078	-0,126	-0,096
-330,445	800,000	-0,021	0,046
-329,431	-17,744	0,064	-0,029
-328,416	30,230	0,139	-0,086
-327,402	39,756	-0,056	0,036
-326,387	722,406	-0,045	0,088
-325,372	-200,000	-0,029	0,107
-324,358	-152,943	0,178	-0,009
-323,343	-21,659	-0,074	0,032
-322,329	202,962	0,052	0,058
-321,314	194,865	0,059	-0,065
-320,299	-81,611	0,062	-0,015
-319,285	147,078	-0,047	0,046
-318,270	226,327	-0,079	0,094
-317,256	17,395	0,051	0,029
-316,241	800,000	0,053	0,134
-315,226	-7,935	0,065	-0,032
-314,212	-200,000	0,004	0,099
-313,197	192,326	0,103	0,113
-312,183	685,249	0,039	0,074
-311,168	-200,000	0,012	0,155
-310,153	76,689	0,072	-0,056
-309,139	-200,000	-0,018	-0,109
-308,124	-200,000	-0,004	0,024
-307,110	-85,875	-0,090	0,020
-306,095	297,421	-0,066	-0,089
-305,080	37,823	-0,087	0,056
-304,066	783,492	-0,051	0,102
-303,051	800,000	-0,056	-0,134
-302,037	-28,891	-0,074	-0,031
-301,022	179,321	0,013	-0,014
-300,008	-189,176	0,115	0,001
-298,993	-134,431	-0,003	-0,000
-297,978	271,690	-0,014	-0,018
-296,964	-24,417	0,131	-0,056
-295,949	-200,000	-0,029	-0,106
-294,935	-116,502	0,066	0,009
-293,920	800,000	0,057	-0,140
-292,905	598,118	0,027	-0,048
-291,891	620,620	0,044	0,081
-290,876	409,485	0,062	0,095
-289,862	36,847	0,072	-0,046
-288,847	116,564	0,022	0,020
-287,832	693,171	0,049	-0,093
-286,818	441,980	0,089	0,142
-285,803	2,076	0,166	0,086
-284,789	-200,000	-0,054	-0,190
-283,774	-161,853	0,042	0,002
-282,759	209,244	-0,135	-0,153
-281,745	-200,000	-0,007	0,034
-280,730	-194,537	0,110	0,001
-279,716	-152,156	-0,144	0,007
-278,701	-33,735	-0,024	-0,010
-277,686	-9,451	-0,060	-0,029
-276,672	-200,000	0,020	-0,080
-275,657	-200,000	-0,025	-0,163
-274,643	235,458	-0,056	-0,067
-273,628	313,733	-0,052	-0,072
-272,613	172,326	-0,098	-0,102
-271,599	-200,000	0,003	0,078
-270,584	-106,161	0,028	-0,004
-269,570	-200,000	-0,002	-0,005
-268,555	173,008	-0,080	0,084
-267,540	300,500	0,032	0,043
-266,526	-200,000	-0,008	0,090
-265,511	-200,000	0,022	0,094
-264,497	60,991	-0,068	0,049
-263,482	-30,299	0,080	-0,033
-262,467	800,000	0,060	0,120
-261,453	-200,000	0,024	-0,080
-260,438	-15,896	-0,077	0,035
-259,424	150,057	0,080	0,079
-258,409	800,000	0,033	0,096
-257,395	99,157	0,057	-0,048
-256,380	800,000	-0,011	-0,027
-255,365	8,523	-0,146	-0,079
-254,351	253,016	-0,008	-0,010
-253,336	208,672	-0,046	0,052
-252,322	-200,000	-0,005	-0,096
-251,307	60,976	0,025	0,018
-250,292	69,546	0,093	0,069
-249,278	800,000	0,041	0,087
-248,263	-200,000	0,026	0,139
-247,249	146,847	-0,030	0,030
-246,234	800,000	0,031	-0,069
-245,219	57,679	0,061	-0,043
-244,205	163,504	0,064	-0,065
-243,190	-200,000	0,018	-0,068
-242,176	-51,159	-0,040	0,013
-241,161	20,445	0,124	-0,072
-240,146	214,594	0,051	0,058
-239,132	-75,190	-0,077	0,020
-238,117	235,869	-0,041	0,050
-237,103	234,718	-0,064	-0,076
-236,088	152,859	0,120	-0,118
-235,073	-76,835	-0,041	-0,010
-234,059	-200,000	0,022	0,152
-233,044	-196,469	0,069	-0,000
-232,030	235,117	-0,068	-0,081
-231,015	378,095	0,031	-0,046
-230,000	-22,170	0,111	-0,048
-228,986	-133,755	-0,091	-0,008
-227,971	2,708	0,069	0,036
-226,957	565,403	0,040	0,070
-225,942	-200,000	-0,034	-0,157
-224,927	142,843	0,084	0,080
-223,913	94,112	-0,067	0,055
-222,898	540,219	-0,012	0,021
-221,884	391,201	-0,021	0,032
-220,869	72,311	-0,088	-0,066
-219,855	577,500	-0,039	-0,069
-218,840	269,510	0,032	0,041
-217,825	-108,440	0,082	-0,013
-216,811	-200,000	0,032	-0,146
-215,796	653,255	-0,072	-0,134
-214,782	63,906	-0,103	0,075
-213,767	-199,431	0,068	-0,000
-212,752	249,759	0,027	0,034
-211,738	283,547	-0,046	0,060
-210,723	-200,000	0,023	0,120
-209,709	-102,155	0,058	0,010
-208,694	-200,000	0,014	0,063
-207,679	141,324	0,031	-0,029
-206,665	768,250	0,007	0,014
-205,650	-9,694	0,162	0,078
-204,636	800,000	-0,021	0,056
-203,621	92,808	-0,087	-0,071
-202,606	245,644	-0,070	0,085
-201,592	-200,000	-0,004	0,050
-200,577	-123,864	-0,127	-0,014
-199,563	77,625	0,045	-0,034
-198,548	-81,907	-0,051	0,012
-197,533	-200,000	0,022	-0,132
-196,519	800,000	-0,045	0,093
-195,504	556,373	0,076	-0,132
-194,490	-2,960	0,066	-0,033
-193,475	74,069	0,108	0,082
-192,460	-16,535	0,202	0,092
-191,446	133,916	0,103	0,096
-190,431	-200,000	-0,043	-0,144
-189,417	-200,000	0,015	-0,175
-188,402	101,834	0,062	0,052
-187,387	800,000	-0,068	-0,140
-186,373	182,411	0,019	0,021
-185,358	82,383	-0,151	-0,118
-184,344	800,000	0,047	0,122
-183,329	-112,223	-0,080	0,012
-182,315	-200,000	-0,020	0,089
-181,300	103,523	-0,091	0,077
-180,285	100,378	-0,088	-0,073
-179,271	-126,042	-0,126	-0,014
-178,256	0,222	0,108	-0,056
-177,242	-200,000	0,018	-0,103
-176,227	402,885	-0,038	-0,058
-175,212	97,947	-0,090	0,074
-174,198	192,105	-0,081	0,088
-173,183	-27,566	0,041	0,017
-172,169	552,965	-0,017	-0,029
-171,154	-200,000	0,024	-0,119
-170,139	-22,763	-0,027	0,012
-169,125	-20,166	0,101	-0,045
-168,110	94,011	-0,119	0,097
-167,096	800,000	0,021	0,044
-166,081	800,000	0,039	-0,125
-165,066	269,998	0,057	-0,072
-164,052	532,943	-0,050	-0,086
-163,037	16,764	0,082	-0,047
-162,023	592,114	-0,044	0,078
-161,008	-117,461	0,079	0,010
-159,993	114,285	-0,065	-0,057
-158,979	-200,000	0,009	-0,041
-157,964	-129,632	0,076	0,007
-156,950	-92,898	-0,030	-0,006
-155,935	-200,000	0,003	-0,056
-154,920	35,478	-0,110	-0,069
-153,906	-27,892	-0,030	0,012
-152,891	60,107	-0,076	-0,054
-151,877	150,673	-0,104	-0,101
-150,862	74,406	-0,047	0,036
-149,847	800,000	0,012	0,032
-148,833	-114,945	-0,130	0,018
-147,818	21,410	0,167	-0,097
-146,804	114,405	0,068	-0,060
-145,789	251,756	-0,078	0,095
-144,775	41,008	0,165	0,107
-143,760	-35,631	-0,035	-0,014
-142,745	147,534	0,064	-0,062
-141,731	-200,000	-0,025	0,121
-140,716	-200,000	-0,052	0,207
-139,702	-2,071	0,175	0,088
-138,687	40,536	-0,096	0,062
-137,672	-200,000	0,003	-0,049
-136,658	-200,000	0,003	-0,108
-135,643	14,067	0,123	0,069
-134,629	96,126	0,086	0,071
-133,614	-200,000	0,002	0,054
-132,599	-131,813	-0,053	-0,005
-131,585	-200,000	-0,025	0,087
-130,570	224,048	0,070	0,082
-129,556	-180,978	-0,130	0,002
-128,541	800,000	-0,025	-0,062
-127,526	-11,671	0,122	-0,057
-126,512	119,181	-0,034	-0,031
-125,497	-164,238	0,093	-0,003
-124,483	-200,000	-0,044	0,143
-123,468	800,000	0,042	-0,094
-122,453	800,000	0,050	0,110
-121,439	278,944	-0,023	0,029
-120,424	35,007	0,044	-0,028
-119,410	-200,000	0,011	-0,047
-118,395	169,780	-0,061	0,063
