DTS Sentinel unit serial number:	SN410029Multiplexer serial number:	ORYXHardware model number:	OX2-SRSoftware version number:	ORYX F/W v4,00 Oryx Data Collector v3.7.2.0data status	okinstallation	B6 Nyhavnadifferential loss correction	single-endedforward channel	channel 2reverse channel	N/Adate	2023/12/09time	01:15:08forward acquisition time	300,00reverse acquisition time	0,00gamma	499,1914k internal	0,3157k external	0,3157temperature offset calibration	1,0000default loss term (dB/km)	0,3820temperature slope calibration	1,0000multiplexer offset coefficient	1,0000multiplexer slope coefficient	1,0000fibre end	0,00T internal ref (°C)	15,74T ext. ref 1 (°C)	-0,60T ext. ref 2 (°C)	-0,61length (m)	temperature (°C)	Stokes	anti-Stokes-744,400	-20,145	0,071	0,032
-743,385	-112,301	-0,215	0,031
-742,371	-56,091	0,160	-0,052
-741,356	-157,337	-0,300	-0,013
-740,342	-74,277	0,185	0,049
-739,327	-89,184	-0,402	-0,087
-738,312	-180,685	0,181	-0,003
-737,298	-155,558	-0,318	0,015
-736,283	-23,491	0,198	-0,087
-735,269	-170,714	-0,371	0,009
-734,254	-93,570	0,151	0,031
-733,239	-62,767	-0,555	-0,168
-732,225	-99,725	0,101	-0,019
-731,210	-55,581	0,143	0,047
-730,196	-16,905	-0,116	-0,054
-729,181	44,447	-0,064	0,043
-728,167	88,937	-0,082	0,068
-727,152	-14,481	0,096	0,045
-726,137	36,178	-0,021	-0,014
-725,123	13,550	0,112	0,064
-724,108	724,173	-0,089	-0,175
-723,094	334,749	-0,064	-0,091
-722,079	16,601	0,112	0,065
-721,064	-89,791	-0,059	-0,013
-720,050	41,089	-0,034	-0,022
-719,035	-200,000	-0,000	0,041
-718,021	92,436	-0,067	-0,056
-717,006	160,621	-0,091	-0,093
-715,991	534,239	0,022	-0,039
-714,977	-72,325	-0,035	0,009
-713,962	800,000	-0,042	-0,112
-712,948	606,184	0,016	-0,029
-711,933	-200,000	-0,015	0,097
-710,918	-22,930	-0,101	0,045
-709,904	141,998	-0,056	-0,055
-708,889	69,043	-0,128	-0,097
-707,875	-40,238	-0,153	-0,058
-706,860	-110,671	0,111	-0,017
-705,845	-200,000	-0,012	0,137
-704,831	-44,232	-0,009	0,003
-703,816	800,000	0,022	-0,061
-702,802	-200,000	-0,001	0,077
-701,787	800,000	-0,049	-0,138
-700,772	7,489	-0,158	-0,087
-699,758	-198,958	0,187	-0,001
-698,743	-200,000	-0,023	0,085
-697,729	58,686	-0,045	-0,032
-696,714	-65,509	0,117	-0,034
-695,699	-0,915	-0,149	0,078
-694,685	800,000	-0,037	-0,083
-693,670	-200,000	-0,019	-0,103
-692,656	22,857	0,100	-0,060
-691,641	800,000	-0,038	-0,110
-690,627	-200,000	-0,001	0,167
-689,612	-200,000	-0,004	-0,186
-688,597	107,979	0,055	-0,048
-687,583	341,259	-0,080	-0,116
-686,568	800,000	-0,070	-0,160
-685,554	-200,000	-0,029	-0,165
-684,539	178,679	0,006	-0,007
-683,524	-200,000	-0,015	-0,082
-682,510	22,526	0,063	0,038
-681,495	-30,996	-0,114	0,047
-680,481	800,000	0,024	0,063
-679,466	268,281	-0,102	-0,132
-678,451	-200,000	-0,018	-0,076
-677,437	198,133	0,102	0,115
-676,422	10,704	0,091	0,051
-675,408	800,000	-0,050	0,104
-674,393	800,000	0,017	-0,052
-673,378	80,494	-0,081	0,064
-672,364	-73,756	0,064	-0,017
-671,349	800,000	-0,067	-0,180
-670,335	569,882	0,021	0,038
-669,320	-200,000	0,044	-0,159
-668,305	175,746	0,066	0,070
-667,291	48,549	-0,052	0,036
-666,276	64,170	-0,044	-0,033
-665,262	-64,543	0,037	-0,011
-664,247	-24,987	-0,029	-0,012
-663,232	43,283	0,114	-0,077
-662,218	800,000	-0,021	0,065
-661,203	-200,000	0,003	0,022
-660,189	152,798	0,069	-0,070
-659,174	-113,691	-0,083	-0,012
-658,159	184,450	0,038	-0,041
-657,145	349,687	-0,041	-0,060
-656,130	-200,000	0,055	-0,193
-655,116	-183,399	0,128	-0,002
-654,101	-200,000	-0,031	0,153
-653,086	370,107	0,029	0,043
-652,072	92,803	0,078	-0,065
-651,057	-200,000	0,006	-0,076
-650,043	800,000	0,065	-0,174
-649,028	-56,782	-0,090	0,029
-648,014	-200,000	0,014	0,078
-646,999	-200,000	-0,015	0,061
-645,984	-200,000	-0,013	-0,069
-644,970	417,100	-0,055	-0,087
-643,955	-200,000	0,001	-0,143
-642,941	94,536	-0,116	0,097
-641,926	800,000	0,009	-0,023
-640,911	800,000	-0,043	0,090
-639,897	29,332	-0,064	0,040
-638,882	-153,697	0,111	0,006
-637,868	155,848	0,037	-0,038
-636,853	-200,000	-0,001	-0,008
-635,838	41,302	-0,062	-0,041
-634,824	-98,613	-0,083	-0,015
-633,809	-141,828	-0,059	0,004
-632,795	-101,955	0,048	-0,009
-631,780	-126,511	-0,099	0,011
-630,765	270,710	0,051	-0,066
-629,751	81,385	-0,120	-0,095
-628,736	-114,406	-0,091	0,013
-627,722	-50,002	-0,069	0,024
-626,707	469,857	0,092	0,152
-625,692	29,495	0,033	0,021
-624,678	-90,791	-0,039	-0,008
-623,663	-154,137	-0,229	-0,011
-622,649	242,761	-0,090	-0,111
-621,634	-152,139	-0,086	0,004
-620,619	800,000	-0,025	0,052
-619,605	374,088	0,042	0,063
-618,590	800,000	0,047	-0,118
-617,576	800,000	-0,029	0,087
-616,561	508,391	-0,039	0,066
-615,546	-71,673	-0,122	-0,033
-614,532	-172,973	0,086	-0,002
-613,517	153,672	-0,063	-0,064
-612,503	297,083	0,086	-0,116
-611,488	800,000	0,053	0,153
-610,474	455,837	0,021	-0,035
-609,459	-200,000	0,006	0,054
-608,444	-36,889	-0,143	-0,056
-607,430	800,000	0,022	-0,046
-606,415	-200,000	0,010	-0,036
-605,401	-18,983	0,025	-0,011
-604,386	-200,000	-0,001	-0,123
-603,371	0,555	-0,104	0,055
-602,357	261,047	-0,030	0,039
-601,342	280,630	-0,032	-0,042
-600,328	-83,131	0,096	-0,022
-599,313	-23,808	-0,008	0,003
-598,298	-63,637	-0,124	-0,037
-597,284	276,061	0,056	0,073
-596,269	-9,567	0,037	0,018
-595,255	-98,786	-0,140	-0,026
-594,240	278,986	-0,074	-0,097
-593,225	-200,000	-0,013	-0,086
-592,211	40,992	-0,056	-0,037
-591,196	161,563	0,063	0,064
-590,182	26,307	0,013	-0,008
-589,167	141,590	0,040	-0,038
-588,152	800,000	-0,037	-0,090
-587,138	126,032	-0,125	-0,115
-586,123	23,740	-0,043	-0,026
-585,109	-38,520	0,078	-0,030
-584,094	-56,062	0,083	-0,027
-583,079	800,000	-0,014	0,041
-582,065	785,510	0,025	0,051
-581,050	8,429	0,039	-0,022
-580,036	-171,244	-0,055	0,001
-579,021	-200,000	-0,037	0,140
-578,006	1,850	-0,135	0,071
-576,992	197,646	-0,011	-0,013
-575,977	25,105	0,065	0,039
-574,963	732,248	-0,092	0,182
-573,948	137,236	-0,074	0,071
-572,934	-200,000	-0,002	-0,081
-571,919	-200,000	-0,049	0,000
-570,904	800,000	-0,030	-0,062
-569,890	110,677	0,105	0,093
-568,875	-49,926	0,043	-0,015
-567,861	268,073	0,074	0,095
-566,846	-47,239	-0,151	0,054
-565,831	-33,530	-0,083	-0,033
-564,817	99,865	-0,168	-0,143
-563,802	40,032	0,036	0,024
-562,788	-125,444	0,127	-0,014
-561,773	121,810	0,071	-0,065
-560,758	-118,262	0,173	0,022
-559,744	114,072	0,050	-0,045
-558,729	-200,000	-0,014	-0,148
-557,715	231,266	0,134	-0,161
-556,700	-200,000	0,001	-0,032
-555,685	-37,904	-0,090	0,035
-554,671	800,000	0,011	0,028
-553,656	656,227	0,027	0,050
-552,642	800,000	-0,046	0,097
-551,627	353,660	-0,022	0,032
-550,612	57,811	-0,029	-0,021
-549,598	360,924	0,055	-0,080
-548,583	321,111	-0,081	-0,113
-547,569	-65,861	-0,075	0,022
-546,554	800,000	-0,023	0,050
-545,539	-200,000	0,003	0,014
-544,525	277,001	0,109	-0,142
-543,510	-38,870	-0,131	0,050
-542,496	181,922	-0,034	0,036
-541,481	-188,821	-0,121	-0,001
-540,466	-49,272	-0,105	0,037
-539,452	-167,829	-0,160	-0,005
-538,437	244,707	0,020	0,024
-537,423	-0,236	-0,043	0,022
-536,408	-200,000	-0,029	0,168
-535,393	800,000	-0,021	0,047
-534,379	25,491	-0,084	0,051
-533,364	-28,557	-0,077	0,032
-532,350	15,348	0,169	-0,097
-531,335	-1,494	-0,049	-0,025
-530,321	-104,008	-0,092	0,015
-529,306	-200,000	-0,028	-0,239
-528,291	-4,191	0,103	0,052
-527,277	251,073	0,026	-0,032
-526,262	-66,289	-0,121	0,035
-525,248	800,000	0,093	0,215
-524,233	-200,000	-0,002	-0,047
-523,218	328,206	0,054	-0,076
-522,204	-200,000	-0,002	0,104
-521,189	378,686	-0,083	-0,125
-520,175	800,000	-0,045	-0,135
-519,160	60,202	0,149	0,107
-518,145	-200,000	0,065	0,000
-517,131	-200,000	-0,020	-0,104
-516,116	101,640	0,046	-0,039
-515,102	-70,972	0,111	-0,030
-514,087	800,000	0,021	0,053
-513,072	70,859	0,070	0,053
-512,058	-3,989	-0,075	-0,038
-511,043	-9,653	0,154	0,075
-510,029	-69,370	0,126	-0,035
-509,014	593,645	-0,064	0,116
-507,999	15,134	0,083	0,047
-506,985	-45,684	0,031	-0,011
-505,970	800,000	-0,017	-0,047
-504,956	800,000	0,010	-0,026
-503,941	-30,985	-0,011	-0,005
-502,926	-200,000	0,004	-0,017
-501,912	-4,564	0,057	-0,028
-500,897	-70,757	0,189	0,052
-499,883	-115,834	0,070	-0,009
-498,868	13,634	-0,080	-0,045
-497,853	-200,000	0,001	-0,042
-496,839	-135,800	-0,088	0,007
-495,824	-200,000	0,022	0,123
-494,810	-16,173	0,038	-0,018
-493,795	302,867	0,070	-0,095
-492,781	111,993	-0,077	-0,068
-491,766	119,588	-0,113	0,102
-490,751	4,655	0,061	-0,033
-489,737	344,913	0,046	0,066
-488,722	26,953	-0,046	0,028
-487,708	800,000	-0,025	0,059
-486,693	-139,637	0,026	0,002
-485,678	196,000	-0,082	-0,091
-484,664	-200,000	-0,004	-0,033
-483,649	286,852	-0,042	0,056
-482,635	798,773	-0,028	0,056
-481,620	147,818	0,067	0,066
-480,605	-17,824	0,159	0,072
-479,591	-200,000	0,003	-0,012
-478,576	-200,000	-0,016	0,148
-477,562	57,297	-0,074	0,053
-476,547	-8,400	0,058	0,028
-475,532	189,503	-0,033	0,037
-474,518	276,249	0,066	0,086
-473,503	-36,069	0,155	0,061
-472,489	-135,241	0,022	-0,002
-471,474	22,761	-0,115	0,069
-470,459	800,000	-0,061	-0,131
-469,445	26,945	-0,067	0,041
-468,430	-91,981	0,122	-0,025
-467,416	-200,000	0,014	-0,099
-466,401	458,481	-0,031	-0,050
-465,386	92,436	0,125	0,103
-464,372	124,663	0,041	-0,037
-463,357	13,587	0,050	-0,028
-462,343	-200,000	0,006	-0,050
-461,328	64,452	-0,056	0,041
-460,313	501,896	0,043	-0,073
-459,299	-200,000	0,003	0,128
-458,284	-200,000	-0,047	-0,190
-457,270	-198,114	-0,142	0,001
-456,255	-59,463	-0,152	0,047
-455,241	-153,104	0,117	-0,006
-454,226	797,918	-0,011	0,021
-453,211	-200,000	0,000	-0,121
-452,197	-123,289	-0,044	0,005
-451,182	231,733	-0,034	0,041
-450,168	15,926	0,077	0,044
-449,153	800,000	-0,040	0,086
-448,138	-73,096	-0,187	-0,050
-447,124	34,219	0,017	-0,011
-446,109	128,731	0,090	-0,083
-445,095	-200,000	-0,015	0,095
-444,080	34,600	0,073	0,046
-443,065	-200,000	0,010	-0,036
-442,051	-32,196	0,079	0,032
-441,036	164,997	0,049	0,050
-440,022	-146,821	-0,056	0,003
-439,007	73,641	-0,053	0,040
-437,992	494,036	-0,072	-0,120
-436,978	-14,205	0,098	0,046
-435,963	-108,939	-0,144	0,022
-434,949	-108,780	0,100	0,015
-433,934	-106,789	-0,151	-0,024
-432,919	800,000	0,012	0,025
-431,905	18,944	0,022	0,013
-430,890	66,028	0,084	0,062
-429,876	-200,000	0,018	0,148
-428,861	26,389	-0,095	0,058
-427,846	-71,355	0,024	-0,006
-426,832	800,000	-0,030	-0,092
-425,817	348,861	-0,044	-0,063
-424,803	199,592	0,117	-0,131
-423,788	-35,803	-0,086	-0,034
-422,773	67,380	0,090	0,066
-421,759	-200,000	0,035	0,128
-420,744	-29,372	0,020	-0,008
-419,730	105,536	-0,078	0,068
-418,715	61,632	-0,101	-0,073
-417,701	214,635	-0,137	-0,158
-416,686	219,868	-0,120	-0,141
-415,671	-101,281	0,199	0,035
-414,657	-147,986	-0,066	-0,004
-413,642	-39,950	0,037	0,014
-412,628	75,670	-0,059	0,045
-411,613	-200,000	0,003	-0,223
-410,598	5,395	-0,064	0,034
-409,584	-56,688	0,092	0,030
-408,569	-76,542	0,014	0,004
-407,555	611,692	-0,041	-0,075
-406,540	-200,000	0,009	0,033
-405,525	800,000	-0,032	-0,096
-404,511	-156,131	-0,035	0,002
-403,496	106,048	0,031	0,027
-402,482	-200,000	0,045	-0,164
-401,467	-200,000	-0,004	0,075
-400,452	67,278	0,088	-0,065
-399,438	707,175	-0,023	-0,044
-398,423	705,700	0,045	0,087
-397,409	-110,454	0,077	0,011
-396,394	800,000	-0,028	-0,065
-395,379	800,000	-0,043	-0,104
-394,365	-200,000	-0,018	0,073
-393,350	-200,000	0,014	0,094
-392,336	203,326	-0,017	0,019
-391,321	-131,865	0,033	0,003
-390,306	800,000	0,028	-0,081
-389,292	210,262	0,050	-0,057
-388,277	-7,933	0,039	0,019
-387,263	180,982	-0,036	-0,038
-386,248	-200,000	-0,008	0,049
-385,233	-200,000	-0,013	0,077
-384,219	-75,373	0,103	-0,027
-383,204	26,735	-0,122	0,074
-382,190	85,479	-0,030	0,024
-381,175	373,050	0,030	0,044
-380,160	507,953	-0,036	-0,061
-379,146	800,000	-0,031	-0,066
-378,131	381,561	-0,045	0,068
-377,117	153,902	0,045	0,045
-376,102	-89,310	-0,143	0,030
-375,088	21,595	0,130	-0,077
-374,073	-200,000	0,008	0,079
-373,058	515,282	0,013	0,021
-372,044	39,689	0,072	0,047
-371,029	114,185	0,042	0,037
-370,015	149,818	-0,096	-0,094
-369,000	-200,000	0,030	0,108
-367,985	-200,000	-0,011	-0,037
-366,971	-33,702	-0,141	-0,056
-365,956	800,000	-0,020	0,051
-364,942	-91,328	0,083	-0,017
-363,927	195,243	-0,052	0,057
-362,912	27,109	0,050	-0,030
-361,898	-151,803	0,184	-0,010
-360,883	709,310	-0,039	-0,076
-359,869	367,971	0,094	-0,139
-358,854	-93,220	0,046	-0,009
-357,839	-148,184	0,109	0,006
-356,825	-200,000	-0,026	0,094
-355,810	800,000	-0,039	0,112
-354,796	800,000	0,028	0,064
-353,781	-52,274	0,015	-0,005
-352,766	118,419	0,074	0,066
-351,752	800,000	-0,034	0,072
-350,737	800,000	-0,077	-0,171
-349,723	336,031	0,047	0,066
-348,708	-200,000	-0,031	0,129
-347,693	800,000	0,038	-0,082
-346,679	87,803	0,134	-0,108
-345,664	239,125	0,016	-0,020
-344,650	429,451	0,070	-0,110
-343,635	129,803	-0,030	0,027
-342,620	366,397	0,046	0,067
-341,606	417,392	0,089	0,138
-340,591	42,722	-0,046	0,030
-339,577	30,041	0,103	-0,063
-338,562	800,000	-0,031	-0,068
-337,548	223,323	0,066	-0,077
-336,533	58,575	0,052	-0,037
-335,518	800,000	0,062	0,146
-334,504	-200,000	0,006	0,125
-333,489	-152,177	-0,018	0,001
-332,475	190,012	-0,064	-0,070
-331,460	800,000	-0,049	-0,116
-330,445	-12,680	0,081	-0,038
-329,431	800,000	0,019	-0,040
-328,416	-15,411	-0,085	0,039
-327,402	-65,722	0,064	-0,019
-326,387	800,000	0,014	0,040
-325,372	-200,000	-0,046	0,153
-324,358	17,995	-0,160	0,092
-323,343	-22,523	0,066	-0,029
-322,329	-102,036	0,069	0,012
-321,314	416,568	0,078	0,121
-320,299	-52,487	-0,041	0,014
-319,285	-176,955	0,033	-0,001
-318,270	218,724	0,068	-0,079
-317,256	-200,000	-0,006	0,096
-316,241	144,802	-0,025	-0,024
-315,226	407,570	0,119	0,183
-314,212	-45,259	-0,091	0,033
-313,197	385,948	0,037	-0,056
-312,183	800,000	-0,036	0,096
-311,168	-200,000	-0,009	-0,073
-310,153	-61,790	-0,109	0,033
-309,139	800,000	0,023	-0,055
-308,124	-109,186	0,067	-0,010
-307,110	-10,107	0,209	-0,100
-306,095	95,869	0,126	0,104
-305,080	116,804	0,014	0,013
-304,066	-200,000	-0,002	-0,050
-303,051	-200,000	-0,009	-0,084
-302,037	-200,000	0,051	-0,189
-301,022	46,672	0,037	-0,025
-300,008	800,000	-0,025	-0,057
-298,993	-97,538	-0,025	-0,005
-297,978	-2,048	-0,006	0,003
-296,964	-200,000	-0,017	-0,058
-295,949	144,099	-0,113	0,110
-294,935	800,000	-0,032	-0,089
-293,920	-15,841	-0,035	-0,016
-292,905	-100,793	0,057	0,010
-291,891	301,994	0,100	0,135
-290,876	22,361	0,023	0,013
-289,862	166,053	-0,122	-0,125
-288,847	800,000	-0,070	-0,145
-287,832	229,834	-0,097	-0,115
-286,818	680,405	0,058	0,110
-285,803	-80,586	-0,108	0,026
-284,789	-200,000	-0,017	0,055
-283,774	544,788	-0,065	-0,113
-282,759	-200,000	-0,010	0,063
-281,745	-24,500	-0,130	-0,056
-280,730	-49,894	-0,096	-0,033
-279,716	800,000	-0,045	-0,112
-278,701	-49,372	-0,159	0,055
-277,686	-181,418	0,064	0,001
-276,672	-200,000	0,003	-0,017
-275,657	-200,000	0,127	0,000
-274,643	800,000	0,002	-0,004
-273,628	62,508	-0,065	-0,047
-272,613	99,359	0,102	-0,085
-271,599	178,948	0,035	-0,037
-270,584	0,363	-0,003	0,002
-269,570	296,464	0,077	0,103
-268,555	-200,000	0,020	0,069
-267,540	175,524	0,049	0,051
-266,526	-98,742	-0,056	-0,010
-265,511	513,492	-0,063	-0,108
-264,497	-200,000	0,007	-0,124
-263,482	800,000	-0,038	0,105
-262,467	382,441	-0,078	0,116
-261,453	550,508	0,046	-0,080
-260,438	322,856	-0,067	-0,093
-259,424	-200,000	-0,012	-0,047
-258,409	800,000	0,072	-0,147
-257,395	-100,397	-0,015	0,003
-256,380	63,194	0,191	-0,138
-255,365	183,164	-0,020	0,021
-254,351	39,920	0,071	-0,046
-253,336	-200,000	0,030	0,097
-252,322	-58,665	-0,071	0,022
-251,307	-200,000	0,016	-0,129
-250,292	-200,000	-0,040	-0,182
-249,278	-200,000	0,014	-0,089
-248,263	143,561	0,092	0,088
-247,249	-92,721	0,136	0,027
-246,234	627,553	-0,051	-0,094
-245,219	800,000	-0,014	0,033
-244,205	-7,790	-0,032	-0,016
-243,190	-21,577	0,071	0,031
-242,176	-9,231	-0,059	0,028
-241,161	614,610	-0,097	0,177
-240,146	800,000	0,012	-0,030
-239,132	-200,000	-0,016	0,083
-238,117	-50,614	0,082	0,028
-237,103	-106,243	0,060	-0,010
-236,088	800,000	0,012	-0,038
-235,073	139,665	0,085	0,081
-234,059	-13,819	0,129	-0,060
-233,044	91,252	0,033	0,026
-232,030	-96,683	-0,029	0,006
-231,015	-200,000	-0,012	-0,108
-230,000	-49,919	-0,114	0,039
-228,986	-200,000	0,017	0,092
-227,971	-27,455	-0,110	-0,046
-226,957	800,000	0,015	0,033
-225,942	-200,000	-0,023	-0,084
-224,927	800,000	0,053	0,107
-223,913	800,000	0,026	0,079
-222,898	209,956	-0,056	-0,063
-221,884	-118,453	0,049	0,006
-220,869	-200,000	-0,015	0,084
-219,855	800,000	-0,048	-0,134
-218,840	-61,908	-0,126	-0,038
-217,825	243,716	0,027	0,033
-216,811	-46,541	-0,097	-0,034
-215,796	21,865	-0,081	-0,048
-214,782	-200,000	-0,004	0,037
-213,767	-200,000	0,038	-0,139
-212,752	-200,000	-0,006	0,099
-211,738	373,380	0,053	-0,078
-210,723	232,721	0,024	-0,029
-209,709	-2,206	0,072	-0,036
-208,694	-136,871	0,075	-0,006
-207,679	7,445	0,085	0,046
-206,665	256,291	0,129	-0,160
-205,650	144,889	-0,065	0,063
-204,636	-200,000	-0,011	-0,089
-203,621	-40,415	0,128	0,048
-202,606	-200,000	-0,026	0,148
-201,592	18,726	0,078	0,045
-200,577	-68,631	0,175	0,049
-199,563	32,925	0,098	0,061
-198,548	-96,687	0,157	0,030
-197,533	-157,849	0,117	0,005
-196,519	-5,812	0,035	0,017
-195,504	800,000	0,013	-0,028
-194,490	399,140	0,033	-0,051
-193,475	800,000	-0,035	-0,103
-192,460	-14,482	-0,080	0,037
-191,446	-200,000	0,006	-0,059
-190,431	20,731	0,104	0,060
-189,417	-200,000	-0,002	-0,123
-188,402	800,000	0,043	0,130
-187,387	-72,157	-0,124	0,033
-186,373	-200,000	-0,028	-0,112
-185,358	-200,000	0,010	0,066
-184,344	117,416	-0,083	0,074
-183,329	751,945	0,068	0,133
-182,315	-46,603	-0,077	0,027
-181,300	-200,000	-0,008	0,054
-180,285	173,223	0,010	0,011
-179,271	373,738	-0,068	-0,100
-178,256	715,701	0,063	0,122
-177,242	-200,000	0,007	0,121
-176,227	-38,255	-0,036	0,014
-175,212	-200,000	-0,024	0,155
-174,198	129,605	-0,045	0,041
-173,183	120,247	-0,073	-0,065
-172,169	-200,000	0,017	-0,159
-171,154	-84,642	-0,033	-0,007
-170,139	-200,000	-0,020	0,082
-169,125	-200,000	0,005	0,019
-168,110	-39,524	-0,030	-0,011
-167,096	-200,000	-0,028	0,171
-166,081	263,005	-0,078	0,098
-165,066	57,549	0,017	0,012
-164,052	231,940	0,062	-0,074
-163,037	-19,685	-0,071	0,031
-162,023	-56,839	0,083	0,026
-161,008	-13,618	0,121	0,056
-159,993	-200,000	0,012	0,040
-158,979	800,000	-0,057	-0,153
-157,964	-200,000	0,023	0,000
-156,950	372,624	-0,091	-0,133
-155,935	236,821	0,065	0,078
-154,920	453,489	-0,099	0,159
-153,906	464,853	0,072	0,116
-152,891	-94,429	0,086	0,017
-151,877	-13,296	-0,059	0,027
-150,862	800,000	0,039	0,112
-149,847	120,667	-0,055	0,049
-148,833	-200,000	-0,004	-0,063
-147,818	-200,000	-0,003	0,052
-146,804	259,476	0,029	0,036
-145,789	-43,622	-0,102	-0,037
-144,775	280,889	-0,065	0,084
-143,760	415,929	0,059	0,091
-142,745	-21,572	0,065	-0,028
-141,731	800,000	0,013	0,042
-140,716	72,765	0,041	0,031
-139,702	-96,584	0,108	0,020
-138,687	800,000	-0,015	-0,038
-137,672	-200,000	-0,046	0,173
-136,658	92,371	0,042	-0,034
-135,643	800,000	-0,091	-0,221
-134,629	800,000	-0,033	-0,076
-133,614	-198,294	0,034	0,000
-132,599	-200,000	0,021	-0,133
-131,585	380,230	0,058	0,086
-130,570	142,764	-0,070	0,067
-129,556	58,810	-0,169	-0,119
-128,541	45,521	-0,066	-0,044
-127,526	-92,163	0,128	-0,026
-126,512	392,653	-0,059	-0,089
-125,497	-200,000	0,048	0,163
-124,483	800,000	0,055	0,115
-123,468	800,000	0,033	-0,070
-122,453	-12,328	-0,045	0,021
-121,439	-126,368	-0,152	0,016
-120,424	348,252	0,025	-0,035
-119,410	-192,488	-0,078	-0,001
-118,395	-200,000	0,001	-0,010
