DTS Sentinel unit serial number:	SN410029Multiplexer serial number:	ORYXHardware model number:	OX2-SRSoftware version number:	ORYX F/W v4,00 Oryx Data Collector v3.7.2.0data status	okinstallation	B6 Nyhavnadifferential loss correction	single-endedforward channel	channel 2reverse channel	N/Adate	2023/12/08time	08:20:08forward acquisition time	300,00reverse acquisition time	0,00gamma	499,1914k internal	0,3176k external	0,3176temperature offset calibration	1,0000default loss term (dB/km)	0,3820temperature slope calibration	1,0000multiplexer offset coefficient	1,0000multiplexer slope coefficient	1,0000fibre end	0,00T internal ref (°C)	11,21T ext. ref 1 (°C)	-2,45T ext. ref 2 (°C)	-2,39length (m)	temperature (°C)	Stokes	anti-Stokes-744,400	-113,715	0,153	0,022
-743,385	-46,249	-0,161	-0,058
-742,371	-49,484	0,128	0,044
-741,356	-112,574	-0,342	-0,049
-740,342	-104,780	0,148	0,025
-739,327	-112,640	-0,351	0,051
-738,312	16,260	0,089	0,051
-737,298	-94,375	-0,317	-0,063
-736,283	78,658	0,125	0,098
-735,269	-109,219	-0,337	-0,052
-734,254	-48,845	0,265	0,093
-733,239	39,151	-0,489	-0,320
-732,225	-124,579	0,273	0,031
-731,210	259,930	0,058	0,074
-730,196	-77,923	-0,064	-0,016
-729,181	-13,893	0,064	0,030
-728,167	249,993	-0,017	0,021
-727,152	-153,191	-0,121	0,006
-726,137	270,937	-0,048	-0,062
-725,123	32,038	-0,119	-0,075
-724,108	-200,000	-0,029	-0,259
-723,094	-150,272	-0,135	-0,008
-722,079	-200,000	-0,009	-0,112
-721,064	116,340	-0,073	-0,065
-720,050	-200,000	-0,002	-0,042
-719,035	-100,153	-0,058	-0,010
-718,021	-38,579	0,035	-0,014
-717,006	34,785	-0,102	0,065
-715,991	65,336	-0,085	-0,063
-714,977	163,510	-0,050	0,051
-713,962	-200,000	0,046	-0,171
-712,948	-200,000	-0,009	-0,074
-711,933	-200,000	0,029	-0,104
-710,918	-68,299	0,004	-0,001
-709,904	800,000	-0,085	-0,201
-708,889	-200,000	-0,024	-0,111
-707,875	800,000	0,035	-0,073
-706,860	381,118	0,010	-0,014
-705,845	751,306	-0,041	-0,081
-704,831	800,000	0,044	-0,091
-703,816	572,520	-0,045	-0,081
-702,802	-124,291	0,072	0,008
-701,787	74,584	-0,153	-0,118
-700,772	-103,774	-0,064	-0,011
-699,758	243,099	0,070	-0,085
-698,743	-35,716	0,036	-0,014
-697,729	70,274	-0,061	0,046
-696,714	-200,000	-0,040	0,144
-695,699	90,621	-0,042	-0,034
-694,685	709,781	-0,045	-0,088
-693,670	800,000	-0,016	-0,048
-692,656	-92,201	-0,059	-0,012
-691,641	43,003	-0,068	-0,045
-690,627	800,000	0,041	0,082
-689,612	-64,466	-0,095	0,028
-688,597	-134,698	-0,116	-0,010
-687,583	-200,000	0,020	-0,090
-686,568	30,728	-0,020	-0,013
-685,554	208,470	0,046	-0,052
-684,539	-144,656	-0,033	-0,002
-683,524	178,800	-0,054	0,057
-682,510	-200,000	0,012	0,095
-681,495	487,415	-0,026	-0,043
-680,481	800,000	0,046	0,095
-679,466	-147,704	-0,224	0,014
-678,451	227,560	-0,062	-0,074
-677,437	-200,000	-0,013	0,044
-676,422	800,000	-0,027	-0,065
-675,408	-129,556	-0,172	-0,017
-674,393	418,647	0,052	0,082
-673,378	-128,737	-0,115	0,012
-672,364	-148,995	0,100	0,006
-671,349	311,262	-0,016	-0,023
-670,335	-200,000	-0,011	-0,062
-669,320	22,236	-0,130	0,077
-668,305	800,000	0,046	-0,116
-667,291	-200,000	-0,006	-0,078
-666,276	682,011	0,039	0,075
-665,262	-46,254	-0,156	0,056
-664,247	158,735	-0,028	-0,028
-663,232	-13,782	-0,058	-0,027
-662,218	-179,327	-0,031	0,000
-661,203	302,822	0,052	0,070
-660,189	-73,789	-0,054	-0,014
-659,174	-83,893	-0,149	-0,034
-658,159	-200,000	-0,010	-0,043
-657,145	96,032	-0,035	0,029
-656,130	-152,346	-0,145	0,008
-655,116	800,000	0,030	0,077
-654,101	-45,333	-0,103	0,037
-653,086	278,147	-0,100	-0,131
-652,072	-138,006	-0,160	0,013
-651,057	-200,000	-0,011	-0,097
-650,043	-200,000	0,016	0,067
-649,028	-65,227	-0,142	0,041
-648,014	136,379	0,053	0,050
-646,999	-100,032	-0,102	-0,018
-645,984	132,311	0,098	-0,092
-644,970	-200,000	0,006	-0,065
-643,955	19,033	0,009	-0,005
-642,941	146,122	-0,056	0,055
-641,926	-95,762	0,065	-0,013
-640,911	-62,802	-0,076	0,023
-639,897	-200,000	0,025	-0,086
-638,882	-200,000	-0,017	-0,079
-637,868	-200,000	0,011	-0,069
-636,853	-200,000	0,002	-0,117
-635,838	357,537	0,061	-0,089
-634,824	45,922	-0,042	-0,028
-633,809	-21,986	0,070	0,031
-632,795	800,000	0,080	0,163
-631,780	-86,145	-0,105	-0,023
-630,765	249,029	0,044	-0,054
-629,751	41,734	-0,035	0,023
-628,736	363,110	-0,081	-0,119
-627,722	566,339	-0,113	-0,201
-626,707	53,587	-0,176	-0,123
-625,692	-200,000	0,025	-0,085
-624,678	-200,000	-0,016	-0,121
-623,663	-106,355	-0,092	0,015
-622,649	174,899	-0,051	-0,054
-621,634	800,000	-0,074	-0,156
-620,619	-32,781	-0,021	0,008
-619,605	-200,000	-0,028	-0,147
-618,590	-200,000	-0,016	0,060
-617,576	-44,275	-0,110	-0,040
-616,561	-200,000	-0,037	-0,147
-615,546	534,272	-0,083	-0,145
-614,532	800,000	0,093	-0,215
-613,517	800,000	-0,026	-0,055
-612,503	54,583	-0,033	0,023
-611,488	-200,000	-0,022	0,084
-610,474	305,636	0,015	0,020
-609,459	-200,000	-0,055	-0,299
-608,444	800,000	-0,054	-0,167
-607,430	262,773	-0,107	-0,136
-606,415	-139,181	-0,065	-0,005
-605,401	793,452	-0,059	0,119
-604,386	-200,000	0,004	0,034
-603,371	-83,847	0,060	0,014
-602,357	-15,943	-0,053	0,024
-601,342	201,427	0,156	-0,175
-600,328	1,529	-0,070	-0,037
-599,313	-134,486	-0,196	-0,017
-598,298	-200,000	0,020	-0,064
-597,284	800,000	0,078	0,178
-596,269	180,934	0,059	0,063
-595,255	-88,883	-0,110	-0,024
-594,240	-26,424	-0,071	0,030
-593,225	38,775	0,057	0,037
-592,211	-200,000	0,009	-0,098
-591,196	30,758	0,030	0,019
-590,182	622,598	0,052	-0,095
-589,167	-59,926	0,153	0,047
-588,152	800,000	-0,045	0,130
-587,138	-200,000	-0,003	-0,090
-586,123	159,845	0,078	-0,079
-585,109	286,051	0,055	0,073
-584,094	-200,000	-0,015	0,106
-583,079	-199,042	0,070	-0,000
-582,065	-200,000	-0,006	-0,038
-581,050	800,000	-0,045	0,103
-580,036	-200,000	0,003	-0,093
-579,021	-30,879	-0,033	0,014
-578,006	-3,225	-0,046	0,023
-576,992	-200,000	-0,004	0,025
-575,977	-43,552	0,108	0,039
-574,963	770,577	-0,036	0,071
-573,948	184,663	-0,041	0,045
-572,934	194,278	0,025	-0,027
-571,919	-7,521	-0,035	0,017
-570,904	77,801	-0,124	-0,096
-569,890	345,485	-0,069	0,099
-568,875	41,689	-0,041	-0,027
-567,861	-35,795	-0,062	-0,024
-566,846	800,000	-0,023	0,066
-565,831	-96,899	-0,091	-0,017
-564,817	-200,000	0,007	0,069
-563,802	800,000	0,050	-0,107
-562,788	3,787	-0,157	0,083
-561,773	640,099	0,031	0,058
-560,758	-28,665	-0,071	0,029
-559,744	28,839	0,044	-0,027
-558,729	188,312	-0,032	0,034
-557,715	-200,000	-0,013	-0,061
-556,700	34,854	-0,038	-0,024
-555,685	2,833	0,046	0,024
-554,671	501,048	-0,018	0,030
-553,656	-200,000	0,028	-0,097
-552,642	84,057	0,061	0,049
-551,627	-7,475	-0,109	0,054
-550,612	800,000	0,026	-0,062
-549,598	337,367	-0,049	-0,070
-548,583	-200,000	0,006	-0,067
-547,569	-200,000	-0,030	-0,100
-546,554	-200,000	-0,006	0,130
-545,539	800,000	0,055	0,128
-544,525	800,000	-0,017	0,051
-543,510	-12,045	-0,045	-0,022
-542,496	234,069	0,132	-0,159
-541,481	-200,000	0,010	0,082
-540,466	800,000	0,025	0,070
-539,452	800,000	-0,076	-0,160
-538,437	227,550	-0,035	0,042
-537,423	-200,000	-0,009	0,058
-536,408	800,000	-0,078	-0,163
-535,393	-200,000	-0,015	-0,060
-534,379	-64,099	-0,096	-0,028
-533,364	328,627	-0,027	0,038
-532,350	800,000	0,025	0,065
-531,335	156,192	0,039	-0,039
-530,321	-5,590	0,044	-0,022
-529,306	100,469	0,042	0,036
-528,291	-122,555	-0,049	0,006
-527,277	800,000	0,044	-0,123
-526,262	-126,705	-0,191	0,020
-525,248	-200,000	-0,027	0,161
-524,233	800,000	0,081	0,208
-523,218	-200,000	-0,016	0,122
-522,204	-200,000	-0,017	0,077
-521,189	160,542	0,053	-0,054
-520,175	54,089	-0,088	-0,062
-519,160	236,303	-0,059	-0,071
-518,145	-200,000	0,002	0,092
-517,131	-111,974	0,106	-0,015
-516,116	-200,000	-0,010	0,086
-515,102	-37,413	-0,096	0,037
-514,087	-200,000	-0,027	-0,127
-513,072	568,921	-0,105	-0,186
-512,058	-14,222	0,045	-0,021
-511,043	58,537	-0,093	-0,066
-510,029	-123,024	0,091	0,011
-509,014	-29,115	0,138	0,057
-507,999	-200,000	0,007	0,056
-506,985	-33,072	-0,085	0,034
-505,970	800,000	-0,064	-0,174
-504,956	572,320	0,046	-0,081
-503,941	-200,000	0,007	0,087
-502,926	-200,000	-0,022	-0,085
-501,912	259,003	0,120	0,150
-500,897	-27,201	0,108	0,045
-499,883	-20,824	0,066	-0,029
-498,868	574,354	-0,062	-0,111
-497,853	47,622	-0,086	0,058
-496,839	107,141	-0,079	0,068
-495,824	45,843	0,135	0,091
-494,810	-200,000	-0,010	0,180
-493,795	175,725	-0,010	0,011
-492,781	-200,000	0,024	-0,166
-491,766	800,000	-0,045	-0,092
-490,751	530,583	-0,054	0,093
-489,737	143,065	0,142	0,137
-488,722	783,583	-0,031	-0,062
-487,708	-0,811	0,028	0,014
-486,693	800,000	-0,011	0,025
-485,678	174,384	0,108	0,113
-484,664	-200,000	-0,035	-0,126
-483,649	-200,000	-0,001	-0,052
-482,635	55,440	-0,151	0,106
-481,620	-142,079	-0,060	-0,004
-480,605	-200,000	-0,083	0,000
-479,591	800,000	-0,095	0,223
-478,576	520,415	-0,004	0,007
-477,562	16,622	0,040	0,023
-476,547	-23,009	-0,074	0,032
-475,532	800,000	0,037	0,082
-474,518	-200,000	0,007	0,042
-473,503	800,000	-0,038	0,098
-472,489	800,000	0,035	0,073
-471,474	27,619	0,052	-0,031
-470,459	-133,899	0,063	-0,006
-469,445	416,709	0,086	-0,133
-468,430	-79,285	-0,123	-0,030
-467,416	800,000	0,002	-0,004
-466,401	76,616	0,145	0,111
-465,386	205,677	-0,060	0,067
-464,372	-200,000	0,016	0,096
-463,357	104,072	-0,058	-0,050
-462,343	-23,906	0,042	-0,018
-461,328	-200,000	-0,007	0,117
-460,313	800,000	-0,048	0,124
-459,299	-74,732	0,112	0,029
-458,284	-44,802	-0,103	0,037
-457,270	199,675	0,026	0,029
-456,255	15,523	0,038	-0,022
-455,241	784,290	-0,038	-0,075
-454,226	-192,953	0,045	-0,000
-453,211	-200,000	0,015	-0,125
-452,197	-108,615	0,107	0,016
-451,182	-126,093	-0,012	0,001
-450,168	-102,731	0,102	-0,017
-449,153	800,000	0,022	-0,056
-448,138	-200,000	0,014	-0,087
-447,124	-200,000	0,047	-0,236
-446,109	-200,000	-0,033	0,124
-445,095	525,352	-0,063	0,108
-444,080	-104,492	-0,072	0,012
-443,065	-178,912	0,145	-0,002
-442,051	-200,000	0,021	0,069
-441,036	800,000	0,022	0,049
-440,022	13,317	0,130	0,073
-439,007	-35,365	0,061	-0,024
-437,992	208,042	-0,025	0,028
-436,978	-167,472	0,089	0,003
-435,963	-53,732	0,066	-0,022
-434,949	7,992	0,063	0,034
-433,934	-2,389	0,103	0,052
-432,919	177,157	-0,172	-0,182
-431,905	77,911	0,079	0,061
-430,890	-200,000	0,003	0,126
-429,876	228,466	0,085	0,100
-428,861	-142,637	-0,125	0,009
-427,846	93,030	-0,045	0,037
-426,832	271,770	-0,062	0,079
-425,817	218,485	-0,042	-0,049
-424,803	79,725	-0,026	0,020
-423,788	-200,000	-0,028	0,093
-422,773	-200,000	0,012	0,078
-421,759	-81,530	-0,084	0,020
-420,744	86,602	0,173	0,138
-419,730	800,000	-0,012	-0,027
-418,715	59,655	-0,075	-0,053
-417,701	800,000	-0,040	0,101
-416,686	-35,767	-0,120	-0,047
-415,671	-106,620	0,164	-0,026
-414,657	-87,542	-0,129	0,028
-413,642	-200,000	-0,012	-0,038
-412,628	-200,000	-0,006	-0,066
-411,613	-200,000	-0,008	0,043
-410,598	800,000	0,055	-0,149
-409,584	-200,000	0,009	-0,046
-408,569	434,590	0,040	0,063
-407,555	-17,967	-0,048	0,022
-406,540	-200,000	0,040	0,144
-405,525	748,807	0,024	-0,048
-404,511	-4,970	-0,100	-0,050
-403,496	42,781	0,052	-0,034
-402,482	-47,881	0,135	-0,047
-401,467	-61,825	-0,084	0,025
-400,452	-41,485	0,094	0,035
-399,438	357,125	-0,014	0,021
-398,423	593,751	0,054	-0,096
-397,409	359,408	0,052	0,075
-396,394	-200,000	0,016	-0,053
-395,379	-200,000	0,001	-0,021
-394,365	-12,849	0,100	0,047
-393,350	-137,372	0,168	0,014
-392,336	800,000	-0,025	0,077
-391,321	-96,634	0,084	0,016
-390,306	-19,290	-0,096	-0,043
-389,292	-112,536	-0,082	0,012
-388,277	-59,765	0,055	0,017
-387,263	208,262	0,025	0,029
-386,248	-3,309	0,160	0,080
-385,233	-200,000	0,032	0,106
-384,219	-200,000	0,004	0,054
-383,204	49,974	0,069	-0,047
-382,190	-4,368	-0,130	-0,065
-381,175	-97,018	0,193	0,036
-380,160	14,957	0,026	-0,014
-379,146	-200,000	0,037	0,199
-378,131	369,320	0,107	0,157
-377,117	-200,000	-0,009	0,135
-376,102	-170,933	-0,038	0,001
-375,088	-152,570	-0,110	-0,006
-374,073	-200,000	-0,009	-0,101
-373,058	-50,575	0,106	0,036
-372,044	-200,000	0,012	0,127
-371,029	370,457	0,027	-0,040
-370,015	-37,332	0,146	0,056
-369,000	-190,744	-0,063	0,000
-367,985	66,477	0,141	-0,104
-366,971	-94,506	0,079	-0,015
-365,956	240,814	0,082	-0,099
-364,942	-200,000	0,017	0,080
-363,927	182,091	0,126	0,134
-362,912	800,000	0,017	0,045
-361,898	-200,000	-0,007	-0,060
-360,883	239,541	0,086	-0,104
-359,869	19,078	0,153	-0,088
-358,854	-134,794	0,130	-0,011
-357,839	377,102	0,118	0,174
-356,825	-52,864	0,152	-0,050
-355,810	453,047	0,036	0,058
-354,796	-142,805	-0,149	0,010
-353,781	-41,923	-0,178	0,065
-352,766	-200,000	0,000	0,160
-351,752	70,828	-0,119	-0,088
-350,737	-62,488	0,031	0,009
-349,723	443,322	0,020	-0,031
-348,708	309,911	0,064	0,087
-347,693	-200,000	-0,005	-0,035
-346,679	800,000	0,051	-0,123
-345,664	310,327	-0,005	0,007
-344,650	800,000	-0,022	-0,058
-343,635	-104,425	0,140	0,023
-342,620	-97,065	-0,119	0,022
-341,606	-200,000	-0,005	0,051
-340,591	-200,000	-0,018	-0,128
-339,577	40,949	-0,031	-0,020
-338,562	253,313	-0,059	-0,073
-337,548	-133,751	-0,087	0,008
-336,533	197,800	-0,035	0,039
-335,518	-200,000	-0,005	0,020
-334,504	328,073	-0,024	-0,034
-333,489	800,000	0,023	-0,067
-332,475	7,079	-0,022	0,012
-331,460	225,663	-0,057	-0,067
-330,445	-200,000	0,009	-0,216
-329,431	34,449	0,091	-0,057
-328,416	220,967	-0,083	0,096
-327,402	-57,411	0,148	-0,047
-326,387	-122,612	0,082	-0,009
-325,372	-18,988	0,064	-0,029
-324,358	-151,562	-0,154	-0,008
-323,343	148,038	-0,064	0,062
-322,329	-200,000	0,012	0,112
-321,314	433,071	-0,118	-0,186
-320,299	223,140	-0,016	0,019
-319,285	-140,941	-0,076	-0,006
-318,270	58,187	0,073	-0,052
-317,256	-186,810	-0,104	-0,001
-316,241	-200,000	-0,003	0,036
-315,226	198,176	0,069	0,076
-314,212	-200,000	0,030	0,166
-313,197	589,900	0,095	0,170
-312,183	800,000	-0,013	-0,036
-311,168	-152,221	-0,144	0,007
-310,153	495,719	0,058	0,096
-309,139	-142,800	0,037	-0,003
-308,124	190,077	-0,062	0,067
-307,110	800,000	-0,027	0,055
-306,095	-61,964	0,085	-0,025
-305,080	91,883	-0,062	0,050
-304,066	670,705	0,021	-0,039
-303,051	-200,000	-0,033	-0,171
-302,037	-200,000	-0,016	0,062
-301,022	182,955	0,048	-0,051
-300,008	-74,368	-0,098	0,025
-298,993	38,238	0,059	0,038
-297,978	687,809	0,025	-0,047
-296,964	-200,000	-0,002	-0,078
-295,949	-76,061	0,136	-0,034
-294,935	121,084	-0,072	0,064
-293,920	278,739	-0,090	-0,116
-292,905	-32,790	0,129	-0,051
-291,891	-200,000	0,021	-0,067
-290,876	16,103	-0,088	-0,050
-289,862	-5,556	0,074	0,037
-288,847	61,784	0,097	-0,070
-287,832	-181,750	0,131	0,002
-286,818	381,321	0,071	0,105
-285,803	-16,081	-0,143	-0,065
-284,789	-200,000	-0,009	0,031
-283,774	91,564	0,048	-0,039
-282,759	752,317	-0,019	0,038
-281,745	-200,000	-0,022	0,075
-280,730	479,638	-0,057	-0,093
-279,716	800,000	-0,016	-0,043
-278,701	-84,753	0,156	-0,035
-277,686	-200,000	-0,020	0,123
-276,672	-26,279	0,115	0,049
-275,657	43,832	0,065	-0,043
-274,643	110,438	-0,038	-0,032
-273,628	353,380	-0,050	-0,072
-272,613	277,659	0,146	-0,188
-271,599	-143,413	0,028	-0,002
-270,584	273,820	0,025	0,031
-269,570	-57,612	0,073	-0,023
-268,555	11,434	-0,028	0,015
-267,540	800,000	-0,022	-0,052
-266,526	191,300	-0,093	-0,101
-265,511	-200,000	0,005	0,097
-264,497	-52,419	-0,103	0,034
-263,482	-99,348	0,072	-0,013
-262,467	108,046	-0,044	-0,038
-261,453	-200,000	-0,003	-0,022
-260,438	800,000	0,022	-0,046
-259,424	-200,000	0,003	-0,060
-258,409	80,310	-0,036	-0,028
-257,395	800,000	0,065	-0,183
-256,380	653,675	0,017	0,032
-255,365	-55,147	-0,103	-0,033
-254,351	-65,413	-0,120	-0,034
-253,336	-200,000	0,012	-0,045
-252,322	28,129	-0,039	-0,024
-251,307	-200,000	-0,002	-0,014
-250,292	-151,797	0,159	0,008
-249,278	19,547	-0,096	0,055
-248,263	-137,407	-0,088	0,007
-247,249	155,221	0,117	0,115
-246,234	194,887	0,031	0,034
-245,219	6,888	-0,170	-0,091
-244,205	-200,000	-0,009	-0,088
-243,190	-200,000	0,007	0,102
-242,176	-8,979	0,115	0,055
-241,161	524,150	0,060	0,102
-240,146	-165,809	0,108	-0,003
-239,132	84,511	-0,108	0,085
-238,117	800,000	0,032	-0,073
-237,103	-200,000	-0,032	-0,147
-236,088	-26,412	-0,131	0,055
-235,073	-166,167	0,034	0,001
-234,059	-45,733	0,051	0,018
-233,044	-32,220	-0,048	-0,019
-232,030	-40,097	-0,103	0,038
-231,015	36,728	-0,087	0,055
-230,000	132,338	0,105	-0,098
-228,986	-110,375	-0,085	-0,013
-227,971	-62,561	0,217	-0,064
-226,957	-22,069	-0,047	-0,020
-225,942	13,959	-0,050	0,028
-224,927	-79,816	-0,146	0,035
-223,913	250,163	-0,068	0,083
-222,898	-133,669	0,070	-0,006
-221,884	184,671	-0,064	0,068
-220,869	314,763	0,094	-0,127
-219,855	-13,824	-0,084	-0,039
-218,840	268,443	0,023	-0,029
-217,825	87,514	0,079	0,063
-216,811	800,000	0,016	-0,034
-215,796	-24,691	-0,149	-0,063
-214,782	-200,000	0,015	-0,145
-213,767	800,000	0,050	0,103
-212,752	-71,438	0,030	0,008
-211,738	-200,000	0,000	-0,056
-210,723	-34,282	-0,025	-0,010
-209,709	649,555	0,032	0,059
-208,694	-84,716	-0,101	0,023
-207,679	-200,000	-0,013	0,126
-206,665	-200,000	-0,008	0,167
-205,650	500,336	0,019	-0,032
-204,636	150,550	0,057	0,056
-203,621	-155,753	-0,059	-0,003
-202,606	800,000	0,026	-0,071
-201,592	118,539	-0,017	-0,015
-200,577	800,000	0,047	0,098
-199,563	800,000	-0,040	0,121
-198,548	465,231	-0,055	0,088
-197,533	-8,796	0,101	-0,049
-196,519	645,086	-0,025	0,046
-195,504	-113,544	-0,100	-0,014
-194,490	-27,460	0,040	-0,017
-193,475	-200,000	-0,011	0,115
-192,460	-200,000	0,005	-0,057
-191,446	-200,000	0,010	0,061
-190,431	-33,198	0,017	-0,007
-189,417	-12,132	-0,031	-0,015
-188,402	-200,000	-0,009	-0,109
-187,387	-15,403	-0,195	-0,089
-186,373	51,073	0,084	-0,057
-185,358	270,116	-0,100	-0,127
-184,344	800,000	-0,027	0,058
-183,329	384,952	0,062	0,092
-182,315	58,275	0,092	0,064
-181,300	-3,429	-0,113	0,056
-180,285	-200,000	-0,003	-0,010
-179,271	-200,000	0,023	-0,130
-178,256	0,502	0,057	0,029
-177,242	800,000	0,048	0,117
-176,227	800,000	-0,036	0,099
-175,212	352,917	-0,083	0,118
-174,198	31,533	0,033	-0,020
-173,183	800,000	-0,031	-0,087
-172,169	-200,000	-0,041	-0,162
-171,154	-106,360	0,087	-0,014
-170,139	-200,000	0,030	0,152
-169,125	-200,000	0,044	0,208
-168,110	-200,000	-0,015	-0,100
-167,096	212,671	-0,070	-0,079
-166,081	117,288	-0,064	0,056
-165,066	800,000	-0,065	-0,204
-164,052	-200,000	0,026	-0,167
-163,037	800,000	0,051	0,113
-162,023	494,943	0,077	0,127
-161,008	-71,400	-0,054	0,014
-159,993	-159,446	0,117	-0,005
-158,979	-52,153	0,040	-0,013
-157,964	131,730	0,117	-0,108
-156,950	-83,835	-0,131	0,030
-155,935	-200,000	0,016	0,128
-154,920	-13,584	0,044	0,020
-153,906	164,991	0,098	0,099
-152,891	51,148	-0,112	0,076
-151,877	-121,813	0,188	-0,022
-150,862	-149,729	-0,102	0,006
-149,847	192,693	0,082	0,089
-148,833	-200,000	-0,007	0,157
-147,818	60,754	0,095	-0,068
-146,804	73,094	-0,141	-0,106
-145,789	-200,000	0,007	0,176
-144,775	-200,000	0,014	0,048
-143,760	-200,000	0,007	-0,078
-142,745	145,845	-0,060	-0,057
-141,731	106,109	0,047	0,040
-140,716	491,190	-0,023	0,037
-139,702	-76,713	0,105	0,026
-138,687	-17,111	0,062	-0,028
-137,672	-200,000	0,012	0,121
-136,658	-20,924	-0,093	0,041
-135,643	173,174	0,053	0,054
-134,629	47,785	0,037	0,024
-133,614	-39,156	0,208	-0,078
-132,599	-131,227	0,118	-0,011
-131,585	800,000	0,019	0,055
-130,570	-200,000	-0,012	-0,050
-129,556	800,000	-0,014	-0,039
-128,541	-60,201	-0,158	0,048
-127,526	26,953	-0,043	-0,026
-126,512	-200,000	0,006	0,127
-125,497	-200,000	0,026	0,115
-124,483	250,649	0,113	0,138
-123,468	100,868	-0,022	-0,019
-122,453	-123,324	-0,112	0,013
-121,439	-166,597	-0,150	-0,004
-120,424	56,207	-0,017	0,012
