DTS Sentinel unit serial number:	SN410029Multiplexer serial number:	ORYXHardware model number:	OX2-SRSoftware version number:	ORYX F/W v4,00 Oryx Data Collector v3.7.2.0data status	okinstallation	B6 Nyhavnadifferential loss correction	single-endedforward channel	channel 2reverse channel	N/Adate	2023/12/08time	22:45:08forward acquisition time	300,00reverse acquisition time	0,00gamma	499,1914k internal	0,3158k external	0,3158temperature offset calibration	1,0000default loss term (dB/km)	0,3820temperature slope calibration	1,0000multiplexer offset coefficient	1,0000multiplexer slope coefficient	1,0000fibre end	0,00T internal ref (°C)	15,38T ext. ref 1 (°C)	-1,02T ext. ref 2 (°C)	-1,01length (m)	temperature (°C)	Stokes	anti-Stokes-744,400	-121,035	0,176	0,021
-743,385	-58,401	-0,463	-0,147
-742,371	-57,801	0,117	0,037
-741,356	-31,056	-0,233	0,097
-740,342	26,162	0,105	-0,064
-739,327	-9,964	-0,224	-0,109
-738,312	-181,551	-0,070	0,001
-737,298	-179,205	-0,433	0,007
-736,283	800,000	0,030	0,071
-735,269	74,805	-0,279	0,216
-734,254	-102,842	0,106	-0,018
-733,239	-58,273	-0,480	-0,153
-732,225	-121,264	0,045	0,006
-731,210	476,981	0,025	-0,041
-730,196	-34,091	0,068	-0,027
-729,181	-200,000	0,013	-0,137
-728,167	71,461	-0,065	-0,050
-727,152	-23,566	0,074	-0,032
-726,137	800,000	-0,054	-0,134
-725,123	800,000	-0,046	-0,125
-724,108	-181,332	-0,069	0,001
-723,094	53,501	-0,083	-0,059
-722,079	-200,000	-0,042	-0,140
-721,064	-200,000	-0,017	0,156
-720,050	-139,639	-0,155	0,012
-719,035	-30,246	-0,142	0,059
-718,021	37,281	-0,073	0,047
-717,006	183,335	-0,167	-0,182
-715,991	800,000	-0,070	-0,185
-714,977	366,404	-0,024	-0,036
-713,962	-200,000	0,004	-0,140
-712,948	100,636	-0,148	-0,126
-711,933	-200,000	-0,006	-0,039
-710,918	418,794	0,071	-0,112
-709,904	114,989	-0,057	0,052
-708,889	800,000	0,033	-0,072
-707,875	226,241	-0,096	-0,114
-706,860	-5,920	-0,051	-0,026
-705,845	524,737	0,063	-0,109
-704,831	253,573	0,070	-0,089
-703,816	-200,000	0,124	-0,000
-702,802	119,378	-0,041	-0,038
-701,787	-89,224	-0,111	0,024
-700,772	-200,000	-0,006	-0,084
-699,758	800,000	0,051	0,119
-698,743	-75,582	-0,084	0,022
-697,729	800,000	0,014	0,042
-696,714	4,606	0,090	-0,048
-695,699	-20,877	0,038	-0,017
-694,685	112,774	-0,028	-0,025
-693,670	46,300	-0,067	-0,046
-692,656	-68,745	0,093	0,026
-691,641	104,174	-0,060	0,052
-690,627	-150,963	-0,015	-0,001
-689,612	194,015	0,043	-0,048
-688,597	120,324	0,107	-0,097
-687,583	405,155	-0,035	-0,055
-686,568	-37,905	-0,106	-0,041
-685,554	800,000	0,089	-0,195
-684,539	800,000	0,017	-0,037
-683,524	800,000	0,030	0,094
-682,510	285,729	0,060	-0,080
-681,495	-28,997	-0,015	0,006
-680,481	-26,619	0,094	0,040
-679,466	-134,518	-0,134	-0,012
-678,451	12,938	0,016	-0,009
-677,437	25,006	0,023	-0,014
-676,422	362,750	0,018	-0,026
-675,408	-15,343	-0,108	-0,050
-674,393	-146,097	-0,091	-0,006
-673,378	-200,000	0,031	-0,114
-672,364	800,000	0,025	0,072
-671,349	377,863	-0,024	-0,036
-670,335	800,000	0,020	-0,059
-669,320	-173,697	0,161	0,003
-668,305	-72,967	-0,090	-0,024
-667,291	351,329	-0,017	-0,024
-666,276	-23,173	-0,040	0,018
-665,262	-144,550	-0,119	-0,008
-664,247	487,649	-0,025	0,043
-663,232	-200,000	0,025	0,099
-662,218	746,442	-0,069	0,137
-661,203	800,000	0,005	0,017
-660,189	7,305	-0,123	0,067
-659,174	-188,591	-0,060	-0,001
-658,159	-126,708	-0,054	0,006
-657,145	-9,052	-0,054	0,027
-656,130	-154,651	-0,098	-0,005
-655,116	44,787	0,117	0,079
-654,101	-134,166	-0,134	-0,012
-653,086	8,636	-0,084	-0,047
-652,072	-200,000	-0,015	0,070
-651,057	373,339	-0,021	-0,031
-650,043	140,285	0,048	-0,047
-649,028	-200,000	0,010	-0,139
-648,014	-200,000	0,001	-0,020
-646,999	-89,861	0,053	0,011
-645,984	-112,148	0,074	0,011
-644,970	45,906	-0,116	-0,079
-643,955	117,362	-0,110	-0,100
-642,941	800,000	-0,016	0,050
-641,926	-200,000	0,015	-0,051
-640,911	-200,000	-0,001	-0,008
-639,897	-92,009	-0,165	-0,034
-638,882	-200,000	0,020	0,138
-637,868	-155,694	-0,011	-0,001
-636,853	-200,000	0,013	-0,077
-635,838	-1,849	-0,029	-0,015
-634,824	-200,000	-0,007	0,149
-633,809	-200,000	-0,001	0,093
-632,795	463,397	-0,071	0,117
-631,780	415,274	-0,012	0,019
-630,765	-37,051	0,121	-0,047
-629,751	70,703	-0,119	-0,090
-628,736	80,639	-0,040	-0,032
-627,722	-75,815	0,121	-0,031
-626,707	-200,000	0,016	-0,070
-625,692	800,000	-0,012	0,024
-624,678	-2,741	-0,018	-0,009
-623,663	402,496	0,013	-0,021
-622,649	-200,000	-0,001	0,053
-621,634	-74,769	-0,151	0,040
-620,619	800,000	0,050	-0,107
-619,605	-200,000	-0,008	-0,188
-618,590	800,000	0,028	0,092
-617,576	-109,663	-0,104	-0,016
-616,561	-89,578	-0,014	-0,003
-615,546	-38,032	-0,127	0,049
-614,532	-13,401	-0,197	0,093
-613,517	-200,000	0,015	0,068
-612,503	-1,965	-0,080	-0,041
-611,488	82,667	-0,068	0,054
-610,474	90,389	0,098	0,080
-609,459	43,311	0,142	0,095
-608,444	-196,224	-0,089	0,000
-607,430	-38,591	-0,020	0,008
-606,415	-36,971	-0,075	-0,029
-605,401	43,906	-0,082	-0,055
-604,386	800,000	0,076	0,167
-603,371	-200,000	0,019	0,082
-602,357	64,733	0,081	0,060
-601,342	-200,000	0,024	-0,097
-600,328	-51,738	-0,090	-0,030
-599,313	-103,879	0,092	0,016
-598,298	72,415	-0,077	-0,059
-597,284	-101,806	0,071	-0,012
-596,269	-200,000	-0,007	-0,076
-595,255	-7,718	0,016	0,008
-594,240	800,000	0,026	0,070
-593,225	-200,000	-0,004	-0,086
-592,211	73,559	-0,033	-0,025
-591,196	311,727	0,094	0,130
-590,182	-100,694	0,026	-0,005
-589,167	338,511	0,058	0,083
-588,152	-200,000	0,009	-0,186
-587,138	21,564	0,081	-0,048
-586,123	249,876	-0,068	-0,085
-585,109	317,521	-0,084	-0,117
-584,094	19,461	0,100	0,059
-583,079	-126,500	0,099	0,011
-582,065	-200,000	-0,010	0,081
-581,050	-102,897	0,024	-0,004
-580,036	169,460	-0,078	0,081
-579,021	210,433	-0,051	0,059
-578,006	-200,000	-0,016	-0,122
-576,992	-115,583	-0,160	0,022
-575,977	-73,656	-0,141	-0,037
-574,963	-152,700	0,106	0,005
-573,948	239,746	0,054	0,066
-572,934	-64,448	-0,157	0,046
-571,919	351,869	-0,055	0,080
-570,904	393,611	-0,078	-0,120
-569,890	-121,743	0,076	0,009
-568,875	34,006	0,059	-0,037
-567,861	364,642	0,085	0,125
-566,846	252,416	-0,033	-0,042
-565,831	122,437	0,181	-0,165
-564,817	-23,224	-0,076	-0,033
-563,802	800,000	0,043	-0,127
-562,788	218,122	0,099	-0,116
-561,773	449,153	-0,059	-0,095
-560,758	428,737	0,061	-0,096
-559,744	-37,260	0,188	0,073
-558,729	477,119	-0,034	0,057
-557,715	-29,968	-0,055	0,023
-556,700	-200,000	-0,019	-0,091
-555,685	-11,778	-0,078	0,037
-554,671	800,000	-0,024	-0,051
-553,656	503,147	0,097	0,165
-552,642	-200,000	0,012	0,110
-551,627	-200,000	-0,046	0,169
-550,612	134,954	0,025	-0,024
-549,598	-110,799	0,108	-0,016
-548,583	800,000	-0,034	-0,073
-547,569	291,203	-0,016	-0,021
-546,554	-12,431	0,178	-0,085
-545,539	219,800	-0,052	0,061
-544,525	193,394	0,049	0,054
-543,510	-63,840	0,097	0,029
-542,496	386,844	-0,110	-0,167
-541,481	-83,693	-0,110	-0,025
-540,466	78,056	0,015	-0,012
-539,452	-82,594	0,076	0,018
-538,437	-75,939	0,072	0,019
-537,423	-117,217	-0,093	0,012
-536,408	800,000	-0,087	0,199
-535,393	62,027	-0,023	-0,017
-534,379	175,484	0,079	0,084
-533,364	-184,138	0,028	0,000
-532,350	-93,261	0,129	0,026
-531,335	466,154	-0,118	0,194
-530,321	622,844	0,024	0,044
-529,306	800,000	-0,056	-0,166
-528,291	692,295	-0,039	0,075
-527,277	135,321	-0,051	-0,049
-526,262	664,009	-0,071	-0,135
-525,248	311,588	0,110	-0,151
-524,233	800,000	0,018	-0,056
-523,218	-21,015	-0,040	0,018
-522,204	800,000	-0,013	0,036
-521,189	-116,239	-0,039	-0,005
-520,175	-127,086	0,068	-0,007
-519,160	-200,000	-0,006	-0,061
-518,145	124,626	0,088	-0,081
-517,131	-78,071	0,052	0,013
-516,116	-89,271	-0,137	0,029
-515,102	25,240	-0,114	-0,069
-514,087	355,921	-0,088	0,128
-513,072	17,244	0,025	0,014
-512,058	68,871	-0,074	0,055
-511,043	-200,000	-0,002	-0,021
-510,029	-83,034	0,066	-0,015
-509,014	-84,812	0,140	0,032
-507,999	248,127	0,041	-0,050
-506,985	-73,960	0,098	-0,026
-505,970	-200,000	0,014	-0,058
-504,956	269,095	-0,009	-0,012
-503,941	-6,496	0,012	0,006
-502,926	338,473	0,065	0,093
-501,912	800,000	0,038	0,081
-500,897	-12,801	-0,122	0,058
-499,883	2,442	0,044	0,023
-498,868	-109,979	0,047	-0,007
-497,853	-200,000	-0,020	-0,135
-496,839	90,047	-0,105	0,086
-495,824	-87,624	0,077	0,017
-494,810	800,000	0,011	-0,034
-493,795	273,372	0,058	0,075
-492,781	612,444	-0,062	-0,114
-491,766	-19,082	-0,147	0,067
-490,751	20,328	-0,110	-0,065
-489,737	-45,543	-0,042	0,015
-488,722	142,851	0,021	0,021
-487,708	-135,371	0,084	-0,007
-486,693	-148,461	-0,052	0,003
-485,678	-144,281	-0,029	-0,002
-484,664	-98,587	0,069	-0,013
-483,649	-21,060	0,091	0,040
-482,635	119,238	-0,045	-0,040
-481,620	10,884	-0,117	-0,065
-480,605	13,031	0,146	-0,082
-479,591	17,209	0,058	0,033
-478,576	95,471	-0,047	0,039
-477,562	80,396	-0,122	-0,096
-476,547	118,675	-0,156	-0,141
-475,532	647,602	-0,044	0,083
-474,518	431,347	-0,010	0,017
-473,503	445,640	0,023	0,037
-472,489	-200,000	0,018	0,110
-471,474	-200,000	0,026	0,189
-470,459	130,120	-0,054	-0,051
-469,445	540,192	0,021	0,036
-468,430	367,601	0,011	0,016
-467,416	-3,714	0,143	0,072
-466,401	-118,580	0,031	0,004
-465,386	-195,494	0,037	-0,000
-464,372	-147,421	0,050	-0,003
-463,357	46,494	0,053	-0,036
-462,343	-15,590	-0,071	0,033
-461,328	-9,559	0,072	-0,035
-460,313	-17,324	-0,046	-0,021
-459,299	-200,000	-0,004	0,042
-458,284	141,472	0,106	0,103
-457,270	-200,000	-0,003	0,027
-456,255	-170,155	0,094	0,002
-455,241	247,495	-0,067	0,082
-454,226	-200,000	-0,004	0,039
-453,211	-111,114	0,066	-0,010
-452,197	29,414	0,043	-0,027
-451,182	-200,000	-0,017	0,086
-450,168	-131,755	-0,110	0,010
-449,153	800,000	-0,036	-0,080
-448,138	800,000	-0,029	0,088
-447,124	74,385	0,120	-0,092
-446,109	-37,648	0,042	0,016
-445,095	-44,777	0,166	0,060
-444,080	-200,000	0,008	0,036
-443,065	-22,914	-0,116	0,051
-442,051	410,443	0,011	0,018
-441,036	-200,000	-0,015	-0,131
-440,022	-34,673	0,095	-0,038
-439,007	-6,322	-0,038	0,019
-437,992	-140,687	0,233	-0,017
-436,978	337,982	-0,059	0,084
-435,963	-200,000	-0,013	-0,085
-434,949	-200,000	0,006	0,084
-433,934	-41,337	-0,040	-0,015
-432,919	-92,743	-0,034	0,007
-431,905	343,129	0,063	-0,090
-430,890	-200,000	-0,002	0,034
-429,876	36,724	0,103	0,066
-428,861	-200,000	-0,011	0,066
-427,846	527,385	-0,001	-0,002
-426,832	83,073	0,116	-0,092
-425,817	-200,000	-0,005	-0,088
-424,803	-200,000	0,024	-0,110
-423,788	-45,476	-0,110	-0,039
-422,773	140,859	-0,016	0,015
-421,759	800,000	-0,056	0,114
-420,744	-103,537	-0,260	0,044
-419,730	-200,000	0,047	-0,163
-418,715	800,000	0,031	-0,067
-417,701	-19,566	-0,046	-0,021
-416,686	798,232	0,027	-0,055
-415,671	-200,000	0,010	0,047
-414,657	187,459	-0,049	0,053
-413,642	-200,000	-0,001	-0,156
-412,628	66,362	-0,121	-0,089
-411,613	800,000	0,047	0,144
-410,598	-200,000	0,003	-0,066
-409,584	477,123	-0,058	-0,095
-408,569	800,000	0,024	0,066
-407,555	800,000	0,070	-0,143
-406,540	167,503	-0,026	0,027
-405,525	800,000	-0,064	-0,152
-404,511	800,000	-0,044	-0,129
-403,496	800,000	0,028	-0,079
-402,482	-112,123	0,053	-0,008
-401,467	-66,852	0,073	-0,021
-400,452	800,000	0,068	0,163
-399,438	-59,145	-0,095	0,029
-398,423	361,796	-0,062	-0,091
-397,409	800,000	0,015	0,039
-396,394	-200,000	-0,027	0,135
-395,379	-200,000	0,013	0,063
-394,365	249,479	0,101	0,125
-393,350	142,727	-0,052	0,051
-392,336	19,152	-0,105	-0,061
-391,321	-200,000	-0,031	-0,185
-390,306	-200,000	0,002	-0,102
-389,292	-85,248	-0,028	0,006
-388,277	142,019	-0,121	0,116
-387,263	-48,674	-0,081	-0,028
-386,248	-92,846	0,147	-0,030
-385,233	-110,022	0,046	-0,007
-384,219	800,000	-0,083	-0,241
-383,204	-121,721	-0,075	-0,009
-382,190	800,000	0,040	-0,114
-381,175	433,829	0,050	-0,080
-380,160	215,755	0,031	-0,036
-379,146	-75,905	0,166	0,042
-378,131	65,884	-0,058	-0,043
-377,117	-61,968	-0,147	-0,044
-376,102	276,893	0,043	-0,055
-375,088	-200,000	-0,008	0,053
-374,073	132,538	-0,052	-0,048
-373,058	800,000	0,026	0,075
-372,044	-111,478	0,122	-0,018
-371,029	65,032	0,124	0,091
-370,015	187,956	-0,072	-0,079
-369,000	-200,000	0,007	-0,045
-367,985	-200,000	-0,018	0,067
-366,971	-25,963	-0,038	0,016
-365,956	34,791	0,076	0,048
-364,942	-65,223	-0,074	0,022
-363,927	736,588	0,033	0,064
-362,912	-26,523	-0,073	0,031
-361,898	411,042	-0,057	-0,088
-360,883	739,705	-0,059	-0,115
-359,869	238,670	-0,035	-0,042
-358,854	-113,704	0,052	-0,007
-357,839	487,699	0,108	0,180
-356,825	34,626	0,134	-0,085
-355,810	0,304	-0,084	-0,043
-354,796	-6,332	0,068	-0,034
-353,781	186,666	0,027	0,030
-352,766	-200,000	-0,084	0,000
-351,752	800,000	-0,013	-0,040
-350,737	-27,413	0,125	-0,052
-349,723	-29,432	-0,096	0,040
-348,708	-49,445	0,146	-0,050
-347,693	800,000	-0,040	-0,083
-346,679	-118,616	-0,181	0,023
-345,664	596,204	0,042	0,076
-344,650	503,228	0,036	0,060
-343,635	-33,482	0,126	0,050
-342,620	62,215	0,084	0,061
-341,606	-200,000	-0,015	-0,064
-340,591	-116,036	0,084	-0,011
-339,577	169,134	-0,070	0,072
-338,562	276,933	0,081	-0,104
-337,548	288,569	0,031	0,040
-336,533	800,000	-0,041	0,088
-335,518	32,055	0,146	0,091
-334,504	298,379	0,058	0,078
-333,489	131,194	0,056	-0,053
-332,475	-77,344	0,042	0,011
-331,460	438,111	0,050	0,079
-330,445	213,935	-0,015	-0,017
-329,431	-116,004	-0,106	0,014
-328,416	-135,807	-0,091	-0,008
-327,402	15,971	0,088	0,050
-326,387	800,000	-0,009	0,019
-325,372	-174,530	0,095	-0,002
-324,358	-98,998	-0,197	-0,036
-323,343	114,728	-0,197	-0,175
-322,329	-200,000	0,002	-0,010
-321,314	800,000	-0,012	0,027
-320,299	544,378	0,068	0,118
-319,285	43,338	0,048	-0,032
-318,270	800,000	-0,030	-0,086
-317,256	-3,788	-0,083	0,042
-316,241	5,958	0,034	0,018
-315,226	194,835	0,058	-0,064
-314,212	-127,333	0,166	0,017
-313,197	-200,000	-0,003	0,034
-312,183	-121,013	-0,102	-0,012
-311,168	66,661	0,077	0,056
-310,153	-82,856	-0,109	0,025
-309,139	48,725	-0,088	0,059
-308,124	-200,000	-0,001	0,021
-307,110	334,873	0,033	0,046
-306,095	739,139	-0,048	0,093
-305,080	290,343	0,056	0,074
-304,066	107,488	0,126	0,109
-303,051	-8,457	-0,075	0,036
-302,037	-33,440	-0,061	-0,024
-301,022	69,208	-0,058	-0,043
-300,008	-200,000	0,001	-0,071
-298,993	-53,032	0,028	0,009
-297,978	707,805	-0,073	0,141
-296,964	242,828	0,057	-0,069
-295,949	8,121	0,066	0,036
-294,935	-200,000	0,005	-0,168
-293,920	373,306	0,028	0,041
-292,905	660,754	0,079	0,148
-291,891	-200,000	-0,006	0,065
-290,876	-69,643	0,086	0,024
-289,862	135,443	0,021	-0,019
-288,847	-106,184	-0,046	-0,007
-287,832	312,096	-0,082	-0,112
-286,818	16,107	-0,061	0,034
-285,803	208,629	0,034	-0,038
-284,789	-186,823	-0,002	0,000
-283,774	-200,000	0,012	-0,116
-282,759	226,852	0,068	0,081
-281,745	184,676	-0,055	0,059
-280,730	489,558	-0,013	0,022
-279,716	-104,891	0,094	-0,016
-278,701	800,000	-0,047	0,095
-277,686	-200,000	0,002	0,065
-276,672	-135,226	0,117	-0,010
-275,657	50,839	-0,054	0,037
-274,643	-200,000	0,012	-0,093
-273,628	800,000	0,085	-0,255
-272,613	800,000	0,028	-0,080
-271,599	374,522	0,064	0,094
-270,584	15,829	0,105	-0,060
-269,570	65,716	-0,067	-0,049
-268,555	73,423	0,117	-0,089
-267,540	-45,705	-0,035	-0,012
-266,526	747,234	-0,078	-0,152
-265,511	-20,801	-0,043	0,019
-264,497	250,067	-0,068	-0,084
-263,482	-200,000	0,027	0,132
-262,467	-200,000	-0,018	0,100
-261,453	144,119	0,056	-0,054
-260,438	800,000	0,021	-0,047
-259,424	147,049	0,028	0,027
-258,409	-146,351	-0,052	0,003
-257,395	225,125	0,011	-0,013
-256,380	-107,223	-0,172	-0,027
-255,365	800,000	-0,033	0,087
-254,351	800,000	0,022	-0,054
-253,336	-37,623	-0,132	-0,051
-252,322	642,678	0,044	0,081
-251,307	800,000	0,038	-0,087
-250,292	320,367	0,024	0,033
-249,278	-109,331	-0,125	0,019
-248,263	800,000	-0,050	0,129
-247,249	708,460	0,037	-0,072
-246,234	74,625	-0,027	-0,021
-245,219	289,360	0,045	-0,059
-244,205	284,936	0,105	-0,137
-243,190	66,934	-0,070	-0,052
-242,176	-200,000	-0,021	0,078
-241,161	307,500	0,022	0,030
-240,146	-200,000	-0,019	0,083
-239,132	29,851	-0,056	-0,034
-238,117	-200,000	-0,001	-0,135
-237,103	-200,000	0,018	-0,096
-236,088	117,891	0,055	0,049
-235,073	41,798	-0,057	0,037
-234,059	502,201	-0,038	0,064
-233,044	491,791	0,035	0,058
-232,030	-172,388	-0,119	-0,003
-231,015	38,887	-0,089	-0,058
-230,000	-200,000	0,008	-0,098
-228,986	-200,000	-0,009	-0,128
-227,971	-26,303	0,086	-0,036
-226,957	800,000	0,009	-0,023
-225,942	-17,166	0,062	-0,028
-224,927	-200,000	0,004	-0,166
-223,913	-200,000	0,019	-0,067
-222,898	-200,000	-0,008	-0,069
-221,884	800,000	0,057	0,127
-220,869	800,000	-0,019	0,056
-219,855	800,000	0,032	-0,084
-218,840	-200,000	0,038	0,129
-217,825	137,613	0,047	-0,044
-216,811	170,766	0,049	-0,050
-215,796	-107,822	-0,099	0,015
-214,782	-4,837	-0,126	0,062
-213,767	-194,630	-0,074	-0,000
-212,752	-200,000	0,039	0,132
-211,738	-200,000	0,013	-0,120
-210,723	-112,366	-0,057	0,008
-209,709	-200,000	-0,021	-0,108
-208,694	800,000	0,022	-0,049
-207,679	-94,739	-0,122	0,024
-206,665	-200,000	0,013	-0,096
-205,650	-159,563	-0,121	0,005
-204,636	176,389	0,042	0,044
-203,621	-200,000	0,022	0,145
-202,606	800,000	0,023	0,061
-201,592	42,807	0,103	-0,068
-200,577	-130,695	-0,219	0,021
-199,563	230,330	0,050	0,059
-198,548	-200,000	-0,009	0,104
-197,533	13,199	0,184	-0,102
-196,519	-200,000	-0,012	-0,055
-195,504	-95,343	0,082	0,016
-194,490	-200,000	0,032	-0,104
-193,475	234,620	-0,039	0,046
-192,460	711,159	0,035	0,068
-191,446	-16,831	-0,042	-0,019
-190,431	-200,000	0,007	-0,027
-189,417	260,399	-0,094	0,117
-188,402	-33,578	-0,086	0,034
-187,387	342,104	-0,069	0,098
-186,373	42,967	-0,066	-0,043
-185,358	-33,069	0,030	0,012
-184,344	-200,000	-0,003	-0,065
-183,329	248,720	-0,020	-0,024
-182,315	-32,282	-0,061	-0,024
-181,300	154,206	0,111	0,110
-180,285	-200,000	0,010	0,076
-179,271	337,914	0,035	-0,050
-178,256	18,457	-0,041	-0,024
-177,242	-171,355	0,132	-0,003
-176,227	-118,975	0,125	-0,016
-175,212	800,000	-0,048	-0,125
-174,198	519,006	0,072	0,122
-173,183	-65,074	0,046	-0,013
-172,169	-200,000	-0,007	-0,038
-171,154	-200,000	0,020	-0,100
-170,139	112,560	-0,046	0,040
-169,125	-156,957	0,058	0,003
-168,110	800,000	-0,013	-0,028
-167,096	-200,000	0,005	0,081
-166,081	-200,000	0,010	0,116
-165,066	-200,000	0,019	0,063
-164,052	-200,000	0,005	0,092
-163,037	374,388	-0,154	0,226
-162,023	579,629	0,084	0,148
-161,008	461,985	-0,020	0,032
-159,993	800,000	-0,051	0,114
-158,979	-68,233	-0,154	0,043
-157,964	-96,769	0,208	0,039
-156,950	-9,532	-0,057	-0,027
-155,935	-153,724	0,106	-0,005
-154,920	102,980	-0,058	0,049
-153,906	424,901	0,090	0,141
-152,891	308,010	-0,040	0,054
-151,877	-60,943	0,069	-0,021
-150,862	43,050	0,051	-0,033
-149,847	75,602	0,026	0,020
-148,833	-65,027	0,062	-0,018
-147,818	-0,772	0,111	-0,056
-146,804	800,000	0,024	-0,053
-145,789	39,542	-0,168	-0,108
-144,775	-15,776	0,188	0,086
-143,760	17,883	-0,022	-0,013
-142,745	-11,750	-0,012	0,006
-141,731	397,368	0,018	-0,027
-140,716	285,901	-0,028	-0,036
-139,702	77,183	0,089	-0,068
-138,687	358,225	-0,049	0,071
-137,672	-200,000	0,004	-0,084
-136,658	-200,000	-0,011	-0,065
-135,643	-132,361	-0,088	-0,008
-134,629	-200,000	0,024	0,095
-133,614	800,000	0,022	-0,063
-132,599	800,000	-0,022	0,044
-131,585	-200,000	-0,002	0,032
-130,570	622,417	-0,036	0,066
-129,556	-7,223	0,087	-0,042
-128,541	61,747	-0,083	-0,059
-127,526	240,383	0,064	0,077
-126,512	40,688	0,064	0,041
-125,497	-114,974	0,069	0,009
-124,483	-200,000	0,019	0,062
-123,468	-200,000	-0,002	-0,107
-122,453	86,003	0,086	-0,068
-121,439	-92,074	-0,044	-0,009
-120,424	-200,000	0,018	-0,096
-119,410	326,200	-0,030	-0,042
