DTS Sentinel unit serial number:	SN410029Multiplexer serial number:	ORYXHardware model number:	OX2-SRSoftware version number:	ORYX F/W v4,00 Oryx Data Collector v3.7.2.0data status	okinstallation	B6 Nyhavnadifferential loss correction	single-endedforward channel	channel 2reverse channel	N/Adate	2023/12/09time	03:30:08forward acquisition time	300,00reverse acquisition time	0,00gamma	499,1914k internal	0,3153k external	0,3153temperature offset calibration	1,0000default loss term (dB/km)	0,3820temperature slope calibration	1,0000multiplexer offset coefficient	1,0000multiplexer slope coefficient	1,0000fibre end	0,00T internal ref (°C)	16,37T ext. ref 1 (°C)	0,44T ext. ref 2 (°C)	0,43length (m)	temperature (°C)	Stokes	anti-Stokes-744,400	3,664	0,064	-0,034
-743,385	-180,622	-0,234	-0,003
-742,371	29,944	0,067	0,042
-741,356	90,778	-0,171	0,141
-740,342	-200,000	-0,019	0,134
-739,327	-108,057	-0,427	0,068
-738,312	31,768	-0,134	-0,085
-737,298	-50,521	-0,328	-0,113
-736,283	-8,859	-0,032	-0,016
-735,269	-7,484	-0,151	0,075
-734,254	800,000	0,078	0,172
-733,239	-26,518	-0,409	-0,176
-732,225	-143,898	0,136	0,009
-731,210	74,567	0,047	0,036
-730,196	-41,280	-0,055	0,021
-729,181	-200,000	0,021	-0,078
-728,167	74,054	0,009	-0,007
-727,152	238,699	0,065	-0,080
-726,137	-200,000	-0,008	-0,086
-725,123	-129,502	-0,132	-0,013
-724,108	151,983	-0,082	-0,082
-723,094	-73,634	-0,108	0,029
-722,079	-200,000	-0,026	-0,198
-721,064	339,295	-0,019	-0,027
-720,050	-119,338	-0,027	-0,003
-719,035	560,464	-0,057	0,101
-718,021	800,000	-0,057	-0,119
-717,006	382,696	-0,093	-0,142
-715,991	-200,000	0,004	-0,132
-714,977	163,395	-0,131	-0,136
-713,962	-198,435	-0,088	0,000
-712,948	161,739	-0,097	-0,101
-711,933	171,300	0,073	0,077
-710,918	417,568	-0,055	0,086
-709,904	-67,654	-0,062	-0,018
-708,889	-200,000	0,040	-0,155
-707,875	245,633	-0,078	0,097
-706,860	42,527	-0,109	-0,073
-705,845	358,668	-0,046	-0,068
-704,831	184,046	0,049	0,054
-703,816	31,633	-0,123	-0,078
-702,802	202,689	-0,064	-0,073
-701,787	-53,555	-0,089	0,030
-700,772	-167,961	0,042	-0,001
-699,758	-200,000	0,001	-0,038
-698,743	800,000	-0,021	-0,049
-697,729	-75,692	0,133	0,035
-696,714	308,864	0,085	0,117
-695,699	458,826	-0,085	-0,140
-694,685	7,925	-0,080	0,044
-693,670	18,707	-0,149	-0,088
-692,656	262,926	-0,021	-0,027
-691,641	800,000	0,019	0,060
-690,627	-200,000	-0,020	0,081
-689,612	-200,000	0,019	0,078
-688,597	-72,906	-0,111	0,030
-687,583	22,565	-0,138	-0,083
-686,568	800,000	0,019	-0,040
-685,554	498,467	-0,018	-0,031
-684,539	-162,889	0,065	-0,002
-683,524	67,525	0,042	0,031
-682,510	-150,927	-0,120	0,007
-681,495	-200,000	-0,001	-0,092
-680,481	-60,167	-0,039	0,012
-679,466	68,718	-0,064	-0,049
-678,451	60,652	0,048	0,035
-677,437	359,570	-0,096	-0,141
-676,422	-44,714	0,119	0,044
-675,408	-36,508	-0,128	0,051
-674,393	-200,000	-0,015	0,083
-673,378	-132,917	0,155	-0,014
-672,364	-200,000	0,009	-0,294
-671,349	-200,000	-0,008	0,028
-670,335	268,713	-0,069	-0,089
-669,320	105,464	-0,058	0,051
-668,305	432,468	-0,057	0,092
-667,291	-168,912	-0,126	-0,003
-666,276	800,000	0,037	-0,094
-665,262	-82,620	0,060	-0,014
-664,247	112,575	-0,093	0,083
-663,232	-70,311	0,049	-0,013
-662,218	-151,133	0,087	0,005
-661,203	800,000	-0,037	0,081
-660,189	-36,064	-0,076	-0,030
-659,174	-62,427	-0,111	0,034
-658,159	-158,845	-0,115	0,005
-657,145	105,897	-0,082	0,071
-656,130	-36,945	0,048	-0,019
-655,116	83,964	-0,111	0,089
-654,101	-200,000	-0,007	-0,047
-653,086	161,007	-0,113	-0,116
-652,072	-119,584	-0,116	0,015
-651,057	140,952	-0,057	0,055
-650,043	82,700	-0,055	-0,044
-649,028	-200,000	-0,016	-0,105
-648,014	169,686	-0,110	-0,116
-646,999	54,891	-0,077	-0,055
-645,984	522,628	0,040	0,069
-644,970	800,000	-0,072	-0,183
-643,955	-101,076	0,036	-0,006
-642,941	-200,000	0,056	0,190
-641,926	51,449	0,104	-0,073
-640,911	-61,215	-0,096	-0,030
-639,897	144,290	0,029	0,029
-638,882	575,148	-0,051	0,092
-637,868	-200,000	0,016	-0,060
-636,853	-200,000	0,005	0,032
-635,838	206,704	-0,015	-0,018
-634,824	800,000	0,063	-0,146
-633,809	-200,000	-0,049	0,185
-632,795	22,479	-0,088	0,053
-631,780	-200,000	0,008	0,074
-630,765	-200,000	-0,014	0,062
-629,751	-200,000	0,004	0,239
-628,736	-64,794	-0,127	0,037
-627,722	-200,000	-0,001	-0,083
-626,707	313,614	-0,042	0,058
-625,692	58,488	0,040	0,029
-624,678	-54,497	0,109	0,036
-623,663	107,128	-0,019	-0,016
-622,649	318,097	-0,104	-0,145
-621,634	442,874	-0,098	-0,158
-620,619	191,574	-0,035	-0,039
-619,605	800,000	-0,037	0,084
-618,590	-200,000	-0,021	0,081
-617,576	120,237	-0,021	-0,019
-616,561	-47,014	-0,105	-0,038
-615,546	245,230	-0,006	-0,007
-614,532	-200,000	0,002	0,060
-613,517	-30,060	-0,126	0,052
-612,503	-200,000	-0,016	-0,134
-611,488	-200,000	0,009	-0,115
-610,474	800,000	0,016	0,041
-609,459	-23,900	0,095	0,042
-608,444	-200,000	0,001	0,024
-607,430	-122,680	0,029	0,003
-606,415	800,000	0,047	0,143
-605,401	94,456	0,014	0,012
-604,386	146,325	-0,094	-0,093
-603,371	181,370	0,085	0,092
-602,357	-143,469	0,002	0,000
-601,342	-132,616	0,179	-0,017
-600,328	-200,000	-0,014	0,064
-599,313	292,651	0,047	-0,064
-598,298	-200,000	0,002	-0,040
-597,284	51,943	0,099	0,069
-596,269	-183,416	0,107	0,001
-595,255	84,802	-0,067	0,054
-594,240	268,246	-0,051	-0,066
-593,225	-84,238	-0,089	-0,021
-592,211	800,000	0,019	-0,043
-591,196	800,000	0,057	-0,119
-590,182	164,623	0,042	0,043
-589,167	800,000	-0,022	0,052
-588,152	2,603	-0,099	0,052
-587,138	-185,967	-0,112	0,001
-586,123	-200,000	0,001	0,062
-585,109	629,990	0,059	-0,109
-584,094	384,333	-0,072	-0,109
-583,079	-200,000	-0,014	-0,063
-582,065	-200,000	0,001	0,094
-581,050	800,000	-0,034	0,077
-580,036	21,392	0,115	0,068
-579,021	125,222	-0,046	0,043
-578,006	-200,000	0,021	-0,168
-576,992	49,139	-0,115	0,079
-575,977	800,000	0,030	-0,068
-574,963	800,000	-0,024	0,057
-573,948	-200,000	0,008	-0,030
-572,934	-167,243	-0,152	0,004
-571,919	-8,758	-0,098	0,048
-570,904	430,991	0,015	-0,024
-569,890	47,697	0,105	-0,071
-568,875	800,000	0,032	-0,080
-567,861	31,562	0,132	0,083
-566,846	305,192	0,033	-0,045
-565,831	-87,800	0,101	0,022
-564,817	-56,457	-0,036	-0,012
-563,802	44,474	0,051	0,035
-562,788	103,724	-0,127	0,109
-561,773	-200,000	0,256	0,001
-560,758	705,154	-0,037	0,071
-559,744	-169,142	-0,030	0,001
-558,729	-139,758	-0,055	-0,004
-557,715	694,109	-0,078	-0,151
-556,700	-115,885	0,101	0,014
-555,685	-172,557	-0,040	0,001
-554,671	557,030	-0,051	0,091
-553,656	-159,882	0,155	-0,006
-552,642	409,230	0,060	0,094
-551,627	-200,000	0,006	0,114
-550,612	-101,746	0,036	-0,006
-549,598	-20,797	-0,128	-0,057
-548,583	-23,637	-0,146	-0,064
-547,569	561,815	-0,052	-0,092
-546,554	-200,000	0,017	-0,124
-545,539	142,399	0,016	0,016
-544,525	53,794	0,039	0,028
-543,510	-200,000	0,001	0,026
-542,496	433,744	-0,060	0,096
-541,481	800,000	-0,027	0,063
-540,466	380,111	0,057	-0,086
-539,452	759,691	-0,015	0,029
-538,437	-49,507	0,166	0,058
-537,423	552,458	0,069	-0,123
-536,408	94,885	0,092	-0,076
-535,393	-118,875	-0,144	0,018
-534,379	766,911	-0,086	0,173
-533,364	252,001	-0,033	0,042
-532,350	-7,513	-0,095	-0,047
-531,335	187,223	0,080	0,087
-530,321	-129,418	-0,049	0,005
-529,306	6,982	-0,057	-0,031
-528,291	729,816	-0,078	-0,154
-527,277	-135,740	-0,083	0,007
-526,262	-93,271	-0,088	-0,018
-525,248	96,994	-0,032	-0,027
-524,233	152,553	0,022	0,022
-523,218	271,384	-0,087	0,112
-522,204	-78,046	-0,092	0,023
-521,189	288,468	0,021	0,028
-520,175	-200,000	-0,021	0,091
-519,160	800,000	-0,030	-0,087
-518,145	619,623	-0,029	-0,054
-517,131	-200,000	-0,008	0,074
-516,116	-200,000	0,028	0,115
-515,102	-200,000	0,019	0,065
-514,087	283,743	-0,037	-0,049
-513,072	800,000	-0,048	-0,098
-512,058	-200,000	0,005	-0,066
-511,043	800,000	-0,025	0,076
-510,029	-200,000	0,011	0,138
-509,014	-186,508	0,134	-0,001
-507,999	-159,343	-0,153	-0,006
-506,985	-200,000	0,003	0,020
-505,970	-200,000	-0,000	-0,046
-504,956	-200,000	0,005	0,073
-503,941	-15,997	-0,073	0,034
-502,926	252,153	0,073	0,091
-501,912	-126,180	0,147	0,016
-500,897	192,770	-0,036	0,040
-499,883	-66,926	-0,076	-0,022
-498,868	-44,506	-0,154	0,056
-497,853	-111,592	0,063	-0,009
-496,839	-200,000	0,038	-0,178
-495,824	-92,273	0,101	-0,021
-494,810	800,000	-0,067	0,201
-493,795	800,000	0,031	0,064
-492,781	800,000	0,022	-0,072
-491,766	29,608	-0,026	-0,016
-490,751	485,429	0,042	-0,070
-489,737	800,000	-0,034	-0,088
-488,722	800,000	0,025	0,051
-487,708	-66,442	0,083	-0,024
-486,693	-200,000	-0,002	-0,006
-485,678	800,000	0,082	-0,167
-484,664	-200,000	-0,005	-0,110
-483,649	-200,000	0,000	-0,158
-482,635	800,000	-0,036	0,082
-481,620	800,000	0,069	0,195
-480,605	-15,520	0,102	0,048
-479,591	-123,407	0,154	0,018
-478,576	-200,000	-0,008	-0,079
-477,562	-200,000	0,003	-0,044
-476,547	272,051	0,045	0,058
-475,532	-128,047	0,103	-0,011
-474,518	800,000	0,026	0,078
-473,503	57,471	-0,052	-0,037
-472,489	800,000	-0,026	0,053
-471,474	-200,000	-0,010	0,037
-470,459	516,773	0,022	-0,038
-469,445	-117,312	-0,108	-0,014
-468,430	-170,117	0,143	-0,004
-467,416	267,110	0,036	0,045
-466,401	-73,567	0,088	-0,023
-465,386	-157,859	0,191	0,008
-464,372	-60,711	0,019	-0,006
-463,357	-122,884	-0,026	-0,003
-462,343	132,285	-0,040	-0,038
-461,328	246,652	0,046	-0,056
-460,313	-200,000	0,004	0,055
-459,299	178,680	0,126	0,134
-458,284	5,020	-0,063	-0,034
-457,270	-95,965	-0,067	-0,013
-456,255	182,167	-0,066	-0,071
-455,241	233,081	-0,016	0,020
-454,226	47,072	-0,082	0,056
-453,211	-91,959	0,105	-0,022
-452,197	-62,247	0,069	0,021
-451,182	-42,574	0,117	0,043
-450,168	-4,795	0,110	0,055
-449,153	800,000	0,023	0,053
-448,138	-93,173	-0,148	0,030
-447,124	-78,966	0,073	-0,018
-446,109	196,421	0,116	-0,129
-445,095	-42,958	-0,021	-0,008
-444,080	212,629	-0,026	-0,030
-443,065	-200,000	-0,005	0,060
-442,051	-94,801	-0,063	-0,012
-441,036	182,157	-0,151	-0,163
-440,022	564,686	0,026	0,046
-439,007	-200,000	-0,013	-0,052
-437,992	328,281	0,043	-0,060
-436,978	800,000	-0,007	0,022
-435,963	175,254	-0,150	0,159
-434,949	-41,019	-0,051	-0,019
-433,934	-27,073	0,092	-0,039
-432,919	463,405	-0,021	0,034
-431,905	-161,890	0,085	-0,003
-430,890	759,105	-0,055	0,109
-429,876	10,357	0,031	0,017
-428,861	434,380	0,092	0,147
-427,846	-85,203	0,157	-0,035
-426,832	269,402	-0,103	-0,133
-425,817	91,724	-0,108	-0,088
-424,803	243,040	0,081	0,099
-423,788	-101,921	-0,070	-0,012
-422,773	250,481	-0,044	0,055
-421,759	-132,474	0,033	-0,003
-420,744	426,740	0,036	0,058
-419,730	-128,929	0,105	-0,011
-418,715	758,413	-0,082	-0,163
-417,701	800,000	-0,049	-0,128
-416,686	800,000	0,048	0,126
-415,671	181,031	0,075	0,080
-414,657	-200,000	0,007	-0,025
-413,642	800,000	-0,044	-0,127
-412,628	800,000	0,023	0,065
-411,613	-200,000	0,003	-0,130
-410,598	-121,294	-0,084	-0,010
-409,584	-200,000	0,077	-0,280
-408,569	3,890	0,014	-0,008
-407,555	-101,979	-0,013	0,002
-406,540	1,540	0,048	0,025
-405,525	-200,000	-0,012	-0,042
-404,511	99,873	0,074	-0,062
-403,496	124,067	-0,038	-0,035
-402,482	-200,000	0,008	-0,066
-401,467	5,463	-0,086	-0,046
-400,452	326,286	0,083	0,116
-399,438	-59,886	-0,163	-0,050
-398,423	-0,388	0,086	-0,044
-397,409	-200,000	-0,020	0,064
-396,394	12,666	-0,087	0,049
-395,379	150,562	-0,121	0,120
-394,365	138,880	0,172	0,165
-393,350	181,202	0,009	-0,010
-392,336	297,950	-0,010	0,013
-391,321	-200,000	-0,001	-0,020
-390,306	336,943	-0,041	0,059
-389,292	-200,000	-0,026	-0,095
-388,277	373,926	0,069	-0,103
-387,263	75,904	0,128	0,098
-386,248	-72,335	-0,083	-0,022
-385,233	-200,000	0,016	0,092
-384,219	-200,000	0,012	0,068
-383,204	-200,000	-0,005	0,128
-382,190	-126,869	-0,032	0,003
-381,175	-110,021	-0,028	-0,004
-380,160	-101,099	0,138	0,024
-379,146	4,511	0,049	0,026
-378,131	-57,862	-0,067	-0,021
-377,117	-159,238	-0,187	-0,008
-376,102	-46,492	-0,046	0,016
-375,088	-134,644	-0,137	-0,012
-374,073	800,000	0,017	0,045
-373,058	-200,000	0,021	0,159
-372,044	5,297	0,060	0,032
-371,029	136,630	-0,045	-0,043
-370,015	36,524	-0,094	0,060
-369,000	-42,019	-0,089	-0,033
-367,985	-108,236	0,053	0,008
-366,971	59,185	-0,106	0,076
-365,956	800,000	-0,028	0,070
-364,942	-200,000	-0,000	-0,036
-363,927	-12,059	-0,032	-0,015
-362,912	800,000	-0,019	-0,057
-361,898	-200,000	-0,003	-0,079
-360,883	94,792	0,077	-0,064
-359,869	284,681	-0,013	-0,017
-358,854	50,362	0,061	0,042
-357,839	-200,000	0,005	0,035
-356,825	37,475	0,055	-0,035
-355,810	-200,000	-0,048	0,165
-354,796	-35,202	-0,127	0,050
-353,781	-200,000	-0,004	-0,061
-352,766	-131,256	-0,056	-0,005
-351,752	555,263	0,053	-0,093
-350,737	181,681	0,022	-0,023
-349,723	-62,656	0,088	0,026
-348,708	173,945	-0,053	-0,056
-347,693	0,818	-0,079	-0,041
-346,679	-80,077	0,029	-0,007
-345,664	179,648	-0,059	-0,063
-344,650	579,015	0,062	-0,111
-343,635	-53,426	-0,060	-0,020
-342,620	-65,842	0,043	-0,012
-341,606	528,714	0,081	-0,140
-340,591	27,418	-0,056	0,034
-339,577	561,917	0,013	-0,023
-338,562	71,550	-0,092	0,070
-337,548	10,929	0,154	-0,085
-336,533	-67,058	0,067	0,019
-335,518	-200,000	0,027	0,107
-334,504	-200,000	-0,000	0,034
-333,489	-102,564	0,097	-0,017
-332,475	21,581	-0,110	-0,065
-331,460	0,353	-0,154	0,080
-330,445	-100,691	0,166	-0,029
-329,431	-51,229	0,044	0,015
-328,416	-200,000	-0,004	0,070
-327,402	-95,862	0,127	0,024
-326,387	93,497	0,018	0,015
-325,372	-144,629	0,162	-0,011
-324,358	-200,000	-0,005	0,039
-323,343	-200,000	-0,026	0,094
-322,329	191,215	-0,061	-0,066
-321,314	640,421	0,071	0,131
-320,299	-200,000	0,023	0,076
-319,285	800,000	0,067	-0,154
-318,270	-119,860	-0,075	-0,009
-317,256	649,884	0,002	-0,004
-316,241	-147,001	-0,089	-0,005
-315,226	-52,983	-0,095	0,031
-314,212	452,285	-0,064	0,104
-313,197	-61,991	0,143	-0,043
-312,183	-98,208	-0,062	0,011
-311,168	317,291	-0,056	0,077
-310,153	190,416	-0,079	-0,086
-309,139	-9,851	-0,116	-0,056
-308,124	226,663	0,102	0,120
-307,110	800,000	-0,046	-0,139
-306,095	-49,252	0,065	0,022
-305,080	85,404	-0,067	-0,054
-304,066	-150,579	0,053	-0,003
-303,051	800,000	-0,034	-0,075
-302,037	-200,000	0,011	-0,115
-301,022	65,367	-0,079	-0,058
-300,008	72,483	0,097	0,074
-298,993	-57,395	0,120	0,038
-297,978	-200,000	-0,008	0,080
-296,964	34,277	0,072	-0,046
-295,949	-200,000	0,015	-0,069
-294,935	800,000	-0,035	0,089
-293,920	474,282	0,005	-0,008
-292,905	200,664	0,094	0,105
-291,891	-200,000	0,020	0,155
-290,876	94,344	-0,069	0,056
-289,862	-99,536	0,055	-0,010
-288,847	145,965	-0,069	-0,067
-287,832	-19,929	-0,086	0,038
-286,818	800,000	-0,067	0,143
-285,803	128,247	0,048	0,044
-284,789	-11,107	0,089	-0,042
-283,774	-90,784	0,115	-0,024
-282,759	109,268	0,069	-0,060
-281,745	64,318	-0,016	0,012
-280,730	-1,546	-0,004	0,002
-279,716	-93,746	0,020	0,004
-278,701	306,987	0,040	-0,054
-277,686	-19,503	0,111	-0,050
-276,672	-65,019	-0,160	-0,047
-275,657	-178,603	0,183	-0,003
-274,643	-143,374	-0,125	0,009
-273,628	-184,962	-0,013	0,000
-272,613	145,519	-0,053	-0,052
-271,599	60,500	0,104	0,075
-270,584	-112,478	0,136	0,020
-269,570	-7,863	0,038	0,018
-268,555	461,011	-0,047	0,077
-267,540	-85,053	-0,113	0,026
-266,526	189,295	0,036	0,039
-265,511	700,912	-0,039	-0,075
-264,497	-128,485	-0,118	-0,012
-263,482	381,481	-0,059	-0,088
-262,467	-200,000	0,022	0,130
-261,453	339,357	0,011	-0,016
-260,438	414,600	0,063	-0,097
-259,424	533,795	-0,049	0,084
-258,409	-123,568	-0,058	-0,007
-257,395	-56,502	-0,138	-0,044
-256,380	303,529	0,066	-0,088
-255,365	800,000	0,082	0,173
-254,351	800,000	-0,035	-0,113
-253,336	-200,000	0,002	-0,037
-252,322	-200,000	0,022	-0,118
-251,307	-14,799	0,126	0,058
-250,292	410,832	-0,037	0,057
-249,278	436,030	-0,066	-0,104
-248,263	-38,427	-0,059	-0,022
-247,249	71,026	0,081	0,061
-246,234	208,748	-0,028	-0,032
-245,219	373,696	0,065	-0,097
-244,205	39,814	0,075	-0,049
-243,190	-200,000	-0,046	-0,159
-242,176	-200,000	-0,001	-0,073
-241,161	-200,000	0,030	0,178
-240,146	-113,913	0,103	-0,014
-239,132	-186,710	-0,094	-0,001
-238,117	60,205	-0,110	-0,078
-237,103	165,280	-0,022	0,022
-236,088	-6,559	0,068	0,033
-235,073	-200,000	0,008	-0,032
-234,059	-44,124	0,108	0,039
-233,044	-200,000	0,020	0,103
-232,030	604,147	0,080	-0,145
-231,015	-117,804	0,169	-0,022
-230,000	197,406	-0,037	0,041
-228,986	-200,000	0,012	0,093
-227,971	800,000	-0,038	-0,079
-226,957	-77,500	0,083	-0,021
-225,942	103,923	-0,088	0,075
-224,927	-113,013	0,075	-0,011
-223,913	-72,724	-0,042	-0,011
-222,898	570,761	-0,057	-0,101
-221,884	-53,960	0,116	-0,038
-220,869	271,079	0,064	0,081
-219,855	380,117	0,050	0,074
-218,840	173,244	-0,027	-0,029
-217,825	-200,000	0,001	-0,187
-216,811	70,424	-0,087	-0,065
-215,796	-42,148	0,120	0,044
-214,782	-200,000	-0,009	-0,042
-213,767	800,000	-0,020	-0,051
-212,752	-200,000	0,014	0,056
-211,738	-74,640	-0,062	-0,016
-210,723	-116,656	0,212	-0,028
-209,709	-0,654	0,084	-0,043
-208,694	-200,000	0,003	-0,077
-207,679	-200,000	-0,005	-0,039
-206,665	223,359	-0,071	0,083
-205,650	179,790	-0,080	0,085
-204,636	116,053	0,088	0,078
-203,621	-70,298	-0,066	-0,018
-202,606	391,747	-0,026	0,038
-201,592	-64,991	-0,068	0,020
-200,577	250,846	-0,037	-0,046
-199,563	800,000	-0,045	-0,104
-198,548	800,000	0,022	0,046
-197,533	-2,578	-0,037	-0,019
-196,519	-75,741	0,115	-0,029
-195,504	-103,125	-0,050	0,009
-194,490	-200,000	0,026	-0,099
-193,475	187,222	-0,023	0,025
-192,460	724,773	-0,006	-0,011
-191,446	-69,434	-0,053	-0,014
-190,431	451,569	0,110	0,176
-189,417	-200,000	0,011	0,077
-188,402	229,468	0,052	-0,061
-187,387	190,435	-0,101	0,109
-186,373	-29,489	-0,037	-0,015
-185,358	423,628	-0,079	0,124
-184,344	-32,343	0,118	0,047
-183,329	129,419	-0,095	-0,088
-182,315	88,047	0,081	-0,065
-181,300	195,607	-0,111	-0,122
-180,285	-60,898	-0,076	0,023
-179,271	-55,462	-0,051	0,017
-178,256	800,000	-0,014	0,037
-177,242	-101,844	0,047	-0,008
-176,227	9,378	-0,036	0,020
-175,212	-200,000	-0,010	0,158
-174,198	-22,313	0,099	0,043
-173,183	589,263	-0,053	-0,095
-172,169	-200,000	-0,002	-0,101
-171,154	-151,529	0,125	0,007
-170,139	-110,708	-0,172	0,025
-169,125	-200,000	0,022	-0,155
-168,110	161,486	-0,031	-0,032
-167,096	10,047	-0,067	0,036
-166,081	-200,000	0,021	-0,215
-165,066	800,000	0,010	-0,029
-164,052	539,702	0,017	0,029
-163,037	-66,051	0,027	-0,008
-162,023	-88,093	-0,118	0,025
-161,008	-9,626	0,104	0,050
-159,993	-26,065	-0,046	-0,020
-158,979	-200,000	-0,015	0,050
-157,964	339,270	-0,032	0,045
-156,950	221,664	-0,016	0,018
-155,935	48,812	0,063	-0,043
-154,920	800,000	-0,027	-0,057
-153,906	-29,865	-0,119	-0,049
-152,891	-34,636	-0,051	-0,020
-151,877	-185,370	0,067	-0,001
-150,862	-141,162	-0,039	-0,003
-149,847	89,068	-0,016	-0,013
-148,833	183,076	-0,130	-0,139
-147,818	-200,000	0,042	0,168
-146,804	24,603	-0,043	0,025
-145,789	195,848	-0,053	-0,058
-144,775	-125,941	0,041	-0,004
-143,760	-142,764	-0,111	0,008
-142,745	204,177	-0,020	-0,022
-141,731	-200,000	0,025	-0,144
-140,716	-128,935	0,045	-0,005
-139,702	665,073	-0,070	0,132
-138,687	325,058	0,112	0,155
-137,672	233,196	-0,109	0,130
-136,658	-200,000	-0,013	0,085
-135,643	558,747	-0,097	-0,170
-134,629	800,000	0,040	0,099
-133,614	-44,478	0,077	-0,028
-132,599	106,671	-0,043	-0,036
-131,585	514,168	0,055	0,092
-130,570	-200,000	-0,017	-0,102
-129,556	709,404	-0,008	-0,016
-128,541	31,406	-0,141	-0,087
-127,526	219,530	-0,030	0,034
-126,512	800,000	0,014	0,042
-125,497	521,215	0,038	0,065
-124,483	71,075	0,081	-0,061
-123,468	-200,000	0,004	0,024
-122,453	-200,000	0,013	-0,078
-121,439	12,407	-0,055	0,031
-120,424	-200,000	-0,004	0,218
