DTS Sentinel unit serial number:	SN410029Multiplexer serial number:	ORYXHardware model number:	OX2-SRSoftware version number:	ORYX F/W v4,00 Oryx Data Collector v3.7.2.0data status	okinstallation	B6 Nyhavnadifferential loss correction	single-endedforward channel	channel 2reverse channel	N/Adate	2023/12/09time	16:50:08forward acquisition time	300,00reverse acquisition time	0,00gamma	499,1914k internal	0,3131k external	0,3131temperature offset calibration	1,0000default loss term (dB/km)	0,3820temperature slope calibration	1,0000multiplexer offset coefficient	1,0000multiplexer slope coefficient	1,0000fibre end	0,00T internal ref (°C)	20,93T ext. ref 1 (°C)	4,70T ext. ref 2 (°C)	4,69length (m)	temperature (°C)	Stokes	anti-Stokes-744,400	650,615	-0,064	-0,123
-743,385	131,714	-0,079	0,075
-742,371	-200,000	0,028	0,118
-741,356	265,533	-0,186	0,241
-740,342	-92,846	0,190	0,039
-739,327	-67,816	-0,298	0,086
-738,312	-73,570	0,158	0,043
-737,298	16,704	-0,289	0,170
-736,283	31,468	0,072	-0,046
-735,269	3,489	-0,247	-0,134
-734,254	800,000	0,038	-0,112
-733,239	-91,903	-0,406	-0,085
-732,225	800,000	0,039	0,103
-731,210	-88,056	0,096	-0,021
-730,196	-89,149	-0,057	-0,012
-729,181	-200,000	0,012	0,047
-728,167	800,000	0,098	-0,241
-727,152	39,173	-0,009	-0,006
-726,137	-50,741	-0,134	-0,047
-725,123	388,946	-0,055	-0,085
-724,108	129,346	-0,115	-0,109
-723,094	-132,055	-0,166	-0,016
-722,079	29,292	-0,105	-0,066
-721,064	-200,000	0,025	-0,145
-720,050	168,736	0,060	0,064
-719,035	3,577	-0,176	0,095
-718,021	-200,000	-0,023	-0,113
-717,006	82,211	-0,045	0,036
-715,991	72,596	-0,131	-0,101
-714,977	580,865	-0,029	-0,053
-713,962	91,819	-0,041	-0,034
-712,948	333,186	0,079	0,114
-711,933	17,899	-0,121	-0,071
-710,918	348,478	-0,101	-0,148
-709,904	16,249	-0,127	-0,074
-708,889	-77,021	-0,166	0,043
-707,875	-38,760	-0,112	-0,043
-706,860	-141,367	-0,063	0,005
-705,845	-45,660	0,094	-0,034
-704,831	-200,000	0,008	-0,052
-703,816	444,608	-0,016	-0,027
-702,802	166,622	-0,056	-0,059
-701,787	-145,833	-0,077	0,005
-700,772	800,000	0,115	-0,246
-699,758	800,000	-0,088	-0,269
-698,743	116,770	0,087	-0,079
-697,729	800,000	0,022	0,065
-696,714	-101,175	0,127	-0,023
-695,699	-200,000	-0,001	-0,104
-694,685	93,695	0,086	-0,072
-693,670	77,572	0,019	0,015
-692,656	-200,000	-0,019	-0,072
-691,641	-200,000	-0,004	-0,067
-690,627	800,000	-0,046	-0,112
-689,612	77,525	-0,028	0,022
-688,597	54,839	0,044	-0,031
-687,583	29,746	-0,096	-0,061
-686,568	149,687	-0,087	-0,087
-685,554	500,030	-0,027	-0,046
-684,539	-45,026	0,048	0,018
-683,524	-76,281	-0,063	-0,016
-682,510	-200,000	0,003	0,013
-681,495	0,880	-0,082	0,044
-680,481	-126,096	0,089	-0,010
-679,466	145,248	0,043	0,042
-678,451	218,465	0,012	0,015
-677,437	403,888	-0,046	0,073
-676,422	-114,008	0,102	-0,014
-675,408	-66,493	0,109	0,032
-674,393	208,961	0,020	-0,024
-673,378	-93,651	-0,145	-0,029
-672,364	-200,000	-0,010	-0,049
-671,349	-55,848	-0,106	-0,035
-670,335	511,630	-0,036	0,063
-669,320	54,716	0,119	0,085
-668,305	-200,000	-0,035	0,167
-667,291	800,000	0,022	0,065
-666,276	-47,027	0,062	0,022
-665,262	-149,198	-0,030	-0,002
-664,247	800,000	0,044	-0,142
-663,232	-1,592	0,010	0,005
-662,218	-43,010	0,013	-0,005
-661,203	115,175	0,041	0,037
-660,189	800,000	0,010	-0,028
-659,174	134,420	-0,046	-0,044
-658,159	12,726	-0,182	-0,104
-657,145	800,000	0,034	-0,107
-656,130	-200,000	0,015	-0,061
-655,116	800,000	0,025	0,070
-654,101	800,000	0,040	0,125
-653,086	206,812	-0,117	-0,136
-652,072	-200,000	-0,002	0,022
-651,057	121,349	-0,122	0,113
-650,043	-200,000	-0,061	-0,201
-649,028	192,897	0,047	-0,052
-648,014	27,831	0,090	0,056
-646,999	148,618	-0,056	-0,056
-645,984	221,277	0,126	-0,150
-644,970	-40,741	-0,029	-0,011
-643,955	-200,000	-0,024	-0,148
-642,941	112,684	-0,066	-0,059
-641,926	5,477	-0,102	-0,056
-640,911	-53,102	0,119	0,040
-639,897	-63,175	0,017	-0,005
-638,882	73,532	-0,128	0,099
-637,868	103,135	0,013	-0,012
-636,853	800,000	-0,037	-0,091
-635,838	-124,182	-0,111	-0,013
-634,824	426,089	-0,035	-0,055
-633,809	-67,801	-0,024	-0,007
-632,795	207,443	-0,096	0,111
-631,780	800,000	0,075	0,156
-630,765	-73,586	0,164	0,044
-629,751	800,000	-0,027	-0,078
-628,736	-200,000	0,010	0,040
-627,722	712,813	-0,069	0,137
-626,707	-15,561	-0,062	0,029
-625,692	79,094	0,149	0,118
-624,678	-75,376	0,059	0,016
-623,663	-119,794	0,072	0,009
-622,649	-33,572	-0,050	0,020
-621,634	22,766	-0,145	-0,087
-620,619	372,105	0,038	-0,057
-619,605	-31,715	0,156	0,064
-618,590	85,677	0,069	0,056
-617,576	533,556	-0,032	-0,057
-616,561	250,670	-0,082	-0,104
-615,546	-88,374	0,068	-0,015
-614,532	-43,100	0,129	-0,048
-613,517	167,791	0,060	0,063
-612,503	244,936	-0,034	-0,042
-611,488	115,871	0,030	0,028
-610,474	800,000	-0,055	0,118
-609,459	-10,842	0,094	-0,046
-608,444	-31,585	-0,095	-0,039
-607,430	771,481	-0,060	-0,122
-606,415	-200,000	0,017	-0,084
-605,401	800,000	-0,035	-0,092
-604,386	-85,705	0,063	0,014
-603,371	229,794	0,034	-0,041
-602,357	-96,409	-0,113	0,022
-601,342	800,000	-0,016	0,038
-600,328	-14,008	0,025	0,012
-599,313	355,011	-0,013	0,019
-598,298	222,165	-0,087	-0,103
-597,284	-200,000	-0,012	0,074
-596,269	-44,851	-0,060	-0,022
-595,255	-200,000	0,024	0,082
-594,240	-20,778	-0,142	-0,064
-593,225	472,308	0,096	-0,160
-592,211	-200,000	0,004	-0,026
-591,196	77,994	-0,044	-0,035
-590,182	-85,232	0,055	-0,013
-589,167	800,000	-0,024	0,051
-588,152	91,555	0,051	0,043
-587,138	-200,000	0,023	0,118
-586,123	445,712	0,012	0,020
-585,109	-111,400	0,011	-0,002
-584,094	-200,000	0,020	-0,094
-583,079	36,559	0,062	0,040
-582,065	642,088	-0,037	-0,069
-581,050	122,170	-0,032	-0,030
-580,036	151,380	0,188	0,190
-579,021	-84,620	-0,128	-0,030
-578,006	348,453	-0,071	-0,104
-576,992	-200,000	0,004	0,062
-575,977	-49,324	-0,110	0,039
-574,963	92,202	-0,086	0,071
-573,948	535,545	-0,023	-0,040
-572,934	102,925	0,101	0,088
-571,919	-50,551	0,085	0,029
-570,904	-44,028	0,067	0,025
-569,890	-59,280	-0,032	-0,010
-568,875	-97,342	-0,134	0,026
-567,861	-151,116	0,050	-0,003
-566,846	-143,125	-0,096	0,007
-565,831	-180,175	-0,039	-0,001
-564,817	-13,798	0,028	0,013
-563,802	-21,243	0,010	0,004
-562,788	52,022	0,053	-0,038
-561,773	-200,000	0,010	-0,089
-560,758	800,000	0,029	0,080
-559,744	210,219	-0,010	-0,011
-558,729	183,892	-0,087	0,095
-557,715	172,651	0,038	0,040
-556,700	-200,000	-0,009	-0,181
-555,685	-121,367	-0,063	-0,008
-554,671	-200,000	0,015	-0,083
-553,656	-200,000	0,013	0,075
-552,642	6,893	0,049	0,027
-551,627	-104,094	-0,046	0,008
-550,612	-72,165	0,066	-0,018
-549,598	-127,487	0,032	0,003
-548,583	-200,000	0,027	-0,094
-547,569	-8,918	0,119	-0,059
-546,554	-200,000	0,000	-0,064
-545,539	800,000	0,064	0,156
-544,525	18,431	-0,077	0,045
-543,510	147,693	-0,067	-0,067
-542,496	800,000	0,008	-0,020
-541,481	157,930	0,024	-0,025
-540,466	681,149	0,032	0,062
-539,452	510,732	0,018	0,030
-538,437	800,000	-0,050	0,149
-537,423	-71,642	0,094	-0,026
-536,408	800,000	0,013	0,033
-535,393	133,772	-0,082	-0,078
-534,379	-35,211	-0,005	0,002
-533,364	800,000	0,026	-0,057
-532,350	751,543	0,057	0,115
-531,335	-200,000	-0,017	0,076
-530,321	706,915	0,024	0,048
-529,306	84,115	0,082	-0,066
-528,291	138,845	-0,053	-0,052
-527,277	-200,000	0,005	0,071
-526,262	162,953	-0,116	-0,120
-525,248	231,636	0,030	0,037
-524,233	-200,000	-0,005	-0,065
-523,218	-108,207	0,042	-0,007
-522,204	347,114	0,070	-0,102
-521,189	-200,000	0,000	0,060
-520,175	564,815	0,015	-0,028
-519,160	385,473	0,026	-0,040
-518,145	-200,000	-0,004	0,125
-517,131	-127,524	0,077	-0,008
-516,116	-193,508	-0,152	-0,001
-515,102	-66,050	-0,064	-0,019
-514,087	362,453	-0,072	0,107
-513,072	255,990	0,053	-0,067
-512,058	-56,832	-0,100	0,032
-511,043	-200,000	0,021	-0,103
-510,029	-43,541	0,103	-0,038
-509,014	-200,000	-0,019	0,082
-507,999	28,485	-0,051	0,032
-506,985	-2,720	-0,105	0,054
-505,970	-103,772	-0,054	0,009
-504,956	57,232	-0,112	-0,080
-503,941	746,782	-0,069	-0,138
-502,926	446,406	-0,039	0,063
-501,912	-150,537	-0,066	-0,004
-500,897	-158,538	0,141	0,006
-499,883	-107,583	0,073	-0,012
-498,868	261,896	-0,111	-0,141
-497,853	257,193	-0,046	0,059
-496,839	-57,731	-0,023	-0,007
-495,824	502,365	0,081	0,138
-494,810	25,518	-0,046	0,028
-493,795	-134,703	0,144	-0,013
-492,781	800,000	-0,019	-0,041
-491,766	-146,368	0,011	-0,001
-490,751	-145,226	-0,086	0,006
-489,737	-29,280	-0,084	0,035
-488,722	800,000	-0,066	0,185
-487,708	-80,192	-0,122	0,030
-486,693	21,187	-0,091	0,054
-485,678	800,000	0,033	-0,098
-484,664	113,690	-0,055	0,049
-483,649	142,387	0,114	0,111
-482,635	800,000	0,016	-0,036
-481,620	128,099	-0,120	0,112
-480,605	-143,309	-0,047	0,003
-479,591	62,343	0,063	-0,046
-478,576	-111,418	-0,048	0,007
-477,562	143,626	-0,065	0,064
-476,547	749,472	0,038	-0,076
-475,532	-133,401	-0,090	-0,008
-474,518	623,333	0,058	0,109
-473,503	-200,000	0,007	-0,044
-472,489	272,288	0,125	0,163
-471,474	135,821	-0,056	0,054
-470,459	-21,446	-0,095	0,043
-469,445	-200,000	-0,034	-0,115
-468,430	800,000	-0,025	-0,075
-467,416	97,083	0,060	0,051
-466,401	-200,000	0,024	-0,093
-465,386	60,347	0,073	0,053
-464,372	-20,879	-0,014	-0,006
-463,357	-200,000	-0,016	-0,058
-462,343	800,000	-0,046	-0,150
-461,328	-103,615	-0,099	0,017
-460,313	-200,000	-0,018	0,070
-459,299	-88,724	-0,082	0,018
-458,284	-99,102	0,135	0,025
-457,270	-81,779	-0,023	-0,005
-456,255	800,000	-0,021	-0,063
-455,241	-163,180	-0,145	-0,005
-454,226	-143,927	-0,113	0,008
-453,211	141,450	0,104	-0,102
-452,197	-147,869	-0,135	0,008
-451,182	370,665	0,097	0,146
-450,168	-200,000	-0,000	0,139
-449,153	-121,584	-0,109	-0,013
-448,138	284,805	0,020	-0,026
-447,124	690,665	-0,021	-0,041
-446,109	-24,768	0,113	0,049
-445,095	800,000	0,046	0,114
-444,080	232,582	-0,068	-0,082
-443,065	202,380	0,026	0,030
-442,051	-200,000	-0,002	-0,045
-441,036	-83,018	-0,140	0,033
-440,022	-200,000	0,011	-0,072
-439,007	800,000	-0,031	-0,075
-437,992	330,144	0,063	0,089
-436,978	800,000	0,011	-0,025
-435,963	-200,000	0,017	0,065
-434,949	-200,000	0,002	-0,060
-433,934	154,383	-0,068	-0,069
-432,919	800,000	0,044	-0,118
-431,905	-101,952	0,024	0,004
-430,890	-200,000	0,006	-0,026
-429,876	99,573	-0,046	-0,039
-428,861	-47,609	-0,211	0,075
-427,846	-200,000	-0,001	-0,089
-426,832	-34,106	-0,093	-0,037
-425,817	800,000	0,052	-0,130
-424,803	79,041	0,129	-0,101
-423,788	-56,144	0,013	-0,004
-422,773	-200,000	0,001	-0,091
-421,759	-200,000	0,012	0,069
-420,744	43,587	0,145	0,097
-419,730	-196,349	-0,057	0,000
-418,715	178,516	-0,079	-0,085
-417,701	-123,832	0,101	-0,012
-416,686	-200,000	0,022	-0,086
-415,671	800,000	0,064	0,184
-414,657	800,000	-0,036	0,103
-413,642	20,008	-0,081	-0,048
-412,628	-200,000	0,009	-0,112
-411,613	470,692	0,093	0,155
-410,598	70,863	0,155	-0,118
-409,584	800,000	0,029	0,091
-408,569	800,000	0,016	0,035
-407,555	-146,953	0,046	0,003
-406,540	800,000	-0,050	-0,130
-405,525	-200,000	-0,017	-0,103
-404,511	-100,019	0,068	-0,012
-403,496	77,329	-0,127	-0,099
-402,482	0,294	0,203	0,106
-401,467	-35,490	-0,102	0,040
-400,452	408,591	0,036	0,056
-399,438	800,000	-0,027	-0,062
-398,423	-57,267	0,103	-0,033
-397,409	-13,572	-0,123	-0,058
-396,394	-200,000	-0,009	0,072
-395,379	349,396	-0,078	-0,113
-394,365	-24,373	0,077	0,034
-393,350	800,000	-0,031	0,069
-392,336	800,000	-0,012	0,031
-391,321	428,135	0,050	0,079
-390,306	-200,000	0,016	-0,161
-389,292	-200,000	-0,014	-0,093
-388,277	47,058	0,193	0,131
-387,263	-86,187	0,136	-0,030
-386,248	5,884	0,151	0,082
-385,233	320,158	0,025	0,035
-384,219	-34,223	0,037	-0,015
-383,204	-200,000	0,031	0,180
-382,190	-112,946	-0,041	-0,006
-381,175	137,733	0,021	-0,021
-380,160	-200,000	-0,012	0,097
-379,146	-60,082	0,167	-0,052
-378,131	117,158	-0,007	-0,006
-377,117	164,089	-0,074	0,077
-376,102	-200,000	-0,007	0,053
-375,088	2,921	-0,103	-0,055
-374,073	-110,119	-0,152	0,023
-373,058	-200,000	0,041	-0,137
-372,044	7,784	0,017	0,009
-371,029	91,031	-0,014	0,012
-370,015	-126,539	-0,137	-0,015
-369,000	800,000	0,061	0,165
-367,985	-200,000	0,023	-0,109
-366,971	-130,365	0,042	0,004
-365,956	800,000	0,029	-0,076
-364,942	116,625	0,084	-0,076
-363,927	800,000	0,017	0,052
-362,912	-5,684	-0,076	0,038
-361,898	380,065	-0,014	-0,021
-360,883	94,152	0,178	-0,148
-359,869	9,839	-0,039	0,021
-358,854	381,806	-0,024	0,036
-357,839	425,269	-0,045	0,071
-356,825	197,486	0,089	0,099
-355,810	-15,005	-0,061	-0,028
-354,796	-34,597	-0,180	-0,072
-353,781	-155,393	0,077	0,004
-352,766	800,000	0,031	0,087
-351,752	196,132	0,051	0,056
-350,737	-189,704	0,113	0,001
-349,723	181,542	-0,058	-0,062
-348,708	7,846	-0,087	0,047
-347,693	-200,000	-0,013	0,102
-346,679	800,000	-0,071	-0,166
-345,664	-200,000	0,010	-0,115
-344,650	165,256	-0,098	-0,101
-343,635	-153,617	-0,090	0,004
-342,620	-95,435	0,159	0,031
-341,606	-44,471	0,087	0,032
-340,591	-80,180	-0,071	-0,017
-339,577	35,026	-0,042	-0,027
-338,562	800,000	0,059	0,179
-337,548	-44,839	0,089	0,032
-336,533	-21,495	-0,075	0,034
-335,518	-200,000	0,034	-0,156
-334,504	93,970	0,032	0,027
-333,489	-55,829	-0,063	0,021
-332,475	85,055	-0,086	0,069
-331,460	-28,909	-0,136	0,057
-330,445	96,380	0,054	0,045
-329,431	800,000	-0,036	-0,099
-328,416	-24,166	-0,067	0,029
-327,402	-17,635	0,117	0,054
-326,387	196,468	0,096	0,108
-325,372	509,717	-0,066	-0,112
-324,358	-200,000	0,018	-0,125
-323,343	647,388	0,046	-0,087
-322,329	800,000	-0,033	0,093
-321,314	35,587	0,068	0,043
-320,299	-70,101	0,135	-0,037
-319,285	77,208	0,063	0,049
-318,270	-53,413	-0,042	-0,014
-317,256	194,108	-0,052	0,057
-316,241	-200,000	0,011	-0,141
-315,226	-100,930	-0,090	0,016
-314,212	-20,795	0,131	0,059
-313,197	-95,140	-0,069	-0,014
-312,183	-200,000	0,023	-0,082
-311,168	800,000	-0,067	-0,201
-310,153	337,662	0,113	-0,161
-309,139	203,967	-0,078	-0,089
-308,124	87,862	0,115	0,093
-307,110	-104,982	-0,062	0,010
-306,095	-200,000	0,012	0,152
-305,080	800,000	-0,018	0,050
-304,066	-179,542	-0,108	0,002
-303,051	-63,559	-0,105	0,031
-302,037	-200,000	0,018	-0,104
-301,022	-77,446	0,097	0,024
-300,008	120,371	0,091	0,082
-298,993	-4,926	0,136	-0,068
-297,978	-49,779	0,162	0,056
-296,964	800,000	-0,054	0,138
-295,949	-200,000	0,012	0,067
-294,935	-16,673	-0,053	-0,024
-293,920	332,046	0,024	-0,034
-292,905	43,534	0,189	0,126
-291,891	-66,307	0,028	0,008
-290,876	800,000	-0,029	0,074
-289,862	-50,133	0,046	0,016
-288,847	191,774	-0,019	-0,021
-287,832	54,557	0,107	0,075
-286,818	-15,735	-0,139	0,064
-285,803	230,723	0,088	0,105
-284,789	11,639	0,044	0,024
-283,774	-200,000	-0,020	-0,086
-282,759	-200,000	-0,009	-0,033
-281,745	49,078	0,049	-0,034
-280,730	560,129	-0,042	-0,074
-279,716	-132,731	-0,044	0,004
-278,701	800,000	0,046	-0,100
-277,686	35,060	0,103	-0,065
-276,672	800,000	0,064	0,135
-275,657	-36,137	-0,012	-0,005
-274,643	-200,000	-0,003	-0,015
-273,628	8,178	-0,105	0,057
-272,613	200,490	0,068	0,076
-271,599	-0,241	0,113	-0,059
-270,584	-200,000	-0,004	-0,050
-269,570	-68,925	0,106	-0,030
-268,555	800,000	0,026	-0,055
-267,540	-154,792	-0,165	-0,008
-266,526	-200,000	0,004	0,060
-265,511	419,670	-0,031	-0,049
-264,497	75,189	-0,022	-0,017
-263,482	122,751	-0,085	0,077
-262,467	-200,000	-0,003	0,123
-261,453	-13,931	-0,097	-0,046
-260,438	-148,891	-0,096	-0,006
-259,424	-200,000	0,026	0,114
-258,409	477,845	-0,036	-0,059
-257,395	-200,000	0,026	0,110
-256,380	-83,543	0,135	0,031
-255,365	-200,000	0,004	0,048
-254,351	-82,888	-0,146	0,034
-253,336	309,400	0,026	0,036
-252,322	-77,967	-0,138	-0,035
-251,307	-63,517	-0,090	0,027
-250,292	281,657	0,082	-0,108
-249,278	-47,294	-0,040	0,014
-248,263	-200,000	-0,043	-0,220
-247,249	-200,000	0,000	0,018
-246,234	217,446	0,068	-0,079
-245,219	-71,415	-0,141	-0,038
-244,205	-94,606	-0,121	0,024
-243,190	-129,026	0,058	0,006
-242,176	226,448	-0,061	0,072
-241,161	490,195	0,057	0,095
-240,146	321,480	0,029	0,040
-239,132	43,878	0,091	-0,061
-238,117	-10,095	0,033	-0,016
-237,103	-200,000	-0,043	-0,174
-236,088	-200,000	0,005	-0,067
-235,073	143,810	0,099	0,096
-234,059	-112,571	0,113	0,016
-233,044	-51,836	-0,042	-0,014
-232,030	576,321	-0,041	-0,073
-231,015	108,844	-0,019	-0,016
-230,000	-38,649	0,028	-0,011
-228,986	-200,000	-0,037	-0,156
-227,971	-24,065	0,129	-0,056
-226,957	-81,403	-0,055	-0,013
-225,942	-200,000	0,013	0,190
-224,927	493,786	-0,031	-0,052
-223,913	79,328	0,020	0,015
-222,898	-200,000	-0,017	0,100
-221,884	-200,000	0,002	-0,085
-220,869	75,936	-0,055	0,042
-219,855	800,000	0,058	0,171
-218,840	800,000	-0,029	-0,084
-217,825	336,416	0,016	-0,023
-216,811	153,205	-0,125	0,124
-215,796	-200,000	0,006	0,091
-214,782	149,114	-0,087	-0,085
-213,767	279,450	-0,032	0,041
-212,752	-108,110	0,029	-0,004
-211,738	-157,234	0,150	0,007
-210,723	39,766	-0,070	-0,046
-209,709	-4,820	-0,074	-0,037
-208,694	528,578	0,055	-0,095
-207,679	-125,143	0,112	0,012
-206,665	477,896	-0,026	-0,043
-205,650	4,506	0,031	0,016
-204,636	800,000	0,051	0,132
-203,621	-166,003	0,044	0,001
-202,606	-200,000	-0,011	0,038
-201,592	-155,016	-0,128	-0,006
-200,577	-95,478	-0,067	0,013
-199,563	-200,000	-0,003	0,043
-198,548	-30,488	0,015	0,006
-197,533	-1,941	0,143	0,073
-196,519	-200,000	-0,018	0,102
-195,504	-170,366	-0,066	0,002
-194,490	238,159	0,009	-0,011
-193,475	130,260	-0,091	-0,085
-192,460	-93,431	0,220	-0,044
-191,446	-38,871	-0,053	-0,020
-190,431	487,407	0,022	-0,037
-189,417	195,654	0,079	0,087
-188,402	800,000	-0,041	-0,101
-187,387	591,940	0,020	-0,035
-186,373	-124,000	-0,114	0,013
-185,358	645,286	-0,030	0,056
-184,344	-18,442	0,079	-0,036
-183,329	125,530	-0,047	0,043
-182,315	-144,670	-0,084	0,006
-181,300	312,200	0,036	-0,050
-180,285	-200,000	0,000	-0,175
-179,271	-200,000	-0,013	-0,057
-178,256	-200,000	0,015	0,054
-177,242	-43,978	0,031	-0,011
-176,227	442,659	-0,030	0,047
-175,212	800,000	-0,034	-0,072
-174,198	-200,000	-0,001	0,009
-173,183	-111,718	-0,157	0,023
-172,169	-11,658	0,058	0,028
-171,154	53,431	0,087	-0,060
-170,139	539,591	0,091	-0,158
-169,125	-57,519	0,115	0,036
-168,110	-200,000	0,029	0,114
-167,096	-200,000	0,032	-0,161
-166,081	-200,000	-0,007	0,096
-165,066	-10,446	-0,135	0,065
-164,052	-200,000	-0,013	-0,138
-163,037	-174,116	0,121	0,003
-162,023	-129,650	0,081	0,008
-161,008	129,473	0,072	0,067
-159,993	800,000	-0,051	0,132
-158,979	315,764	-0,047	0,064
-157,964	-1,760	-0,008	0,004
-156,950	-200,000	-0,015	-0,112
-155,935	304,102	-0,039	-0,053
-154,920	304,413	-0,026	0,035
-153,906	239,198	-0,077	0,093
-152,891	-200,000	-0,007	-0,044
-151,877	60,527	-0,109	0,078
-150,862	800,000	0,032	-0,092
-149,847	191,020	0,037	-0,040
-148,833	-102,051	0,048	-0,008
-147,818	682,740	0,030	-0,057
-146,804	54,703	0,115	0,080
-145,789	-200,000	-0,025	0,087
-144,775	151,541	0,040	0,040
-143,760	-200,000	0,003	-0,037
-142,745	-200,000	-0,001	-0,047
-141,731	60,725	0,151	-0,109
-140,716	-52,239	-0,056	0,019
-139,702	-79,356	0,027	0,007
-138,687	-116,827	0,050	-0,007
-137,672	18,753	0,101	0,059
-136,658	559,213	-0,072	-0,127
-135,643	-92,844	-0,120	-0,024
-134,629	-134,866	-0,093	-0,008
-133,614	-200,000	-0,016	-0,094
-132,599	106,183	0,095	0,082
-131,585	-200,000	0,009	-0,063
-130,570	633,363	0,048	0,089
-129,556	209,397	0,058	-0,066
-128,541	275,335	-0,027	0,035
-127,526	800,000	0,060	0,132
-126,512	36,774	0,124	0,079
-125,497	-200,000	-0,043	0,163
-124,483	-100,422	0,147	-0,026
-123,468	-157,726	0,067	-0,003
-122,453	-200,000	0,033	-0,139
-121,439	-151,175	-0,168	-0,009
-120,424	-103,260	0,102	-0,017
-119,410	-6,818	-0,030	0,015
-118,395	95,233	0,159	0,131
