DTS Sentinel unit serial number:	SN410029Multiplexer serial number:	ORYXHardware model number:	OX2-SRSoftware version number:	ORYX F/W v4,00 Oryx Data Collector v3.7.2.0data status	okinstallation	B6 Nyhavnadifferential loss correction	single-endedforward channel	channel 2reverse channel	N/Adate	2023/12/08time	20:50:08forward acquisition time	300,00reverse acquisition time	0,00gamma	499,1914k internal	0,3158k external	0,3158temperature offset calibration	1,0000default loss term (dB/km)	0,3820temperature slope calibration	1,0000multiplexer offset coefficient	1,0000multiplexer slope coefficient	1,0000fibre end	0,00T internal ref (°C)	15,20T ext. ref 1 (°C)	-1,39T ext. ref 2 (°C)	-1,41length (m)	temperature (°C)	Stokes	anti-Stokes-744,400	800,000	0,034	0,073
-743,385	-147,634	-0,259	0,016
-742,371	116,397	0,098	0,088
-741,356	-78,589	-0,389	0,097
-740,342	144,095	0,108	0,106
-739,327	-166,328	-0,334	0,010
-738,312	198,021	0,123	0,139
-737,298	-180,494	-0,363	0,005
-736,283	536,295	0,095	0,167
-735,269	-97,892	-0,164	0,031
-734,254	-200,000	-0,015	0,117
-733,239	-93,084	-0,390	-0,079
-732,225	800,000	0,071	0,188
-731,210	800,000	-0,089	0,183
-730,196	143,269	-0,076	0,075
-729,181	800,000	-0,019	-0,054
-728,167	-73,978	-0,088	0,023
-727,152	413,836	0,011	0,018
-726,137	-126,481	-0,175	-0,019
-725,123	800,000	-0,021	-0,047
-724,108	-200,000	0,002	-0,129
-723,094	33,128	-0,161	-0,103
-722,079	182,209	-0,052	0,056
-721,064	-123,361	-0,061	0,007
-720,050	-200,000	-0,021	-0,081
-719,035	318,116	-0,116	-0,162
-718,021	335,673	0,048	-0,068
-717,006	-200,000	-0,019	-0,104
-715,991	179,236	-0,129	-0,139
-714,977	197,113	-0,057	-0,065
-713,962	208,131	-0,138	-0,159
-712,948	800,000	0,023	-0,063
-711,933	-200,000	-0,006	0,097
-710,918	-15,208	-0,086	-0,040
-709,904	707,909	-0,021	-0,042
-708,889	800,000	-0,034	0,075
-707,875	114,725	-0,076	-0,068
-706,860	-129,010	0,104	-0,011
-705,845	-46,739	0,087	-0,031
-704,831	424,161	0,050	0,080
-703,816	800,000	-0,031	-0,075
-702,802	800,000	-0,018	0,051
-701,787	471,485	-0,059	0,099
-700,772	-200,000	-0,004	0,023
-699,758	-200,000	0,019	0,084
-698,743	45,923	0,091	0,062
-697,729	800,000	0,022	0,049
-696,714	190,993	0,059	0,066
-695,699	121,651	0,027	-0,025
-694,685	2,468	-0,079	0,042
-693,670	-200,000	0,034	-0,135
-692,656	-200,000	-0,018	-0,111
-691,641	28,289	-0,079	-0,049
-690,627	-111,914	0,060	-0,009
-689,612	-200,000	0,020	0,072
-688,597	33,002	-0,008	0,005
-687,583	165,406	-0,141	-0,147
-686,568	-200,000	0,007	-0,027
-685,554	118,009	-0,157	-0,142
-684,539	38,617	0,129	0,085
-683,524	34,529	0,089	0,057
-682,510	136,991	-0,153	0,147
-681,495	-200,000	-0,002	0,025
-680,481	-162,571	-0,085	0,003
-679,466	0,423	0,021	-0,011
-678,451	-200,000	-0,036	-0,142
-677,437	295,209	0,038	-0,052
-676,422	697,198	0,046	0,089
-675,408	-87,070	0,020	0,004
-674,393	-91,315	-0,106	0,022
-673,378	477,154	0,074	-0,123
-672,364	-200,000	0,011	-0,136
-671,349	-200,000	-0,046	-0,167
-670,335	217,319	0,013	-0,015
-669,320	53,894	-0,053	0,038
-668,305	84,522	-0,177	-0,142
-667,291	19,800	-0,110	0,065
-666,276	-200,000	-0,021	-0,077
-665,262	-64,626	-0,250	-0,074
-664,247	-56,894	-0,093	-0,030
-663,232	-135,457	0,055	-0,005
-662,218	-4,109	0,089	-0,045
-661,203	74,498	-0,044	-0,034
-660,189	-200,000	0,000	-0,128
-659,174	-67,573	0,012	-0,003
-658,159	-200,000	-0,003	-0,083
-657,145	-49,258	-0,088	-0,031
-656,130	-200,000	-0,017	0,088
-655,116	-200,000	0,002	0,025
-654,101	-97,702	-0,083	0,016
-653,086	208,972	-0,042	-0,048
-652,072	168,433	0,044	-0,046
-651,057	-34,152	-0,096	-0,039
-650,043	-62,330	-0,080	0,024
-649,028	-200,000	0,007	0,078
-648,014	81,691	0,053	0,042
-646,999	-80,981	-0,034	0,008
-645,984	99,097	0,010	0,009
-644,970	-111,840	0,076	0,011
-643,955	-56,596	-0,008	0,003
-642,941	-67,250	-0,057	-0,016
-641,926	-190,793	0,144	0,001
-640,911	484,844	-0,106	0,178
-639,897	-200,000	-0,007	0,166
-638,882	5,950	0,045	0,024
-637,868	26,943	0,127	-0,078
-636,853	-200,000	-0,008	-0,027
-635,838	335,760	-0,080	-0,114
-634,824	-200,000	-0,017	-0,093
-633,809	199,454	-0,089	0,100
-632,795	58,360	-0,076	0,055
-631,780	19,550	-0,029	0,017
-630,765	-200,000	0,014	0,078
-629,751	-200,000	-0,022	-0,160
-628,736	602,747	0,048	-0,087
-627,722	241,051	0,021	-0,025
-626,707	-58,927	-0,162	-0,051
-625,692	217,257	0,087	-0,102
-624,678	50,469	-0,084	0,058
-623,663	-37,174	-0,161	-0,063
-622,649	-5,540	-0,019	0,009
-621,634	9,653	-0,160	0,089
-620,619	40,492	0,078	0,052
-619,605	208,394	0,058	-0,067
-618,590	-100,937	-0,078	-0,014
-617,576	-200,000	0,006	-0,046
-616,561	-61,186	0,038	-0,012
-615,546	117,354	-0,048	-0,043
-614,532	209,009	-0,070	0,080
-613,517	-200,000	0,021	0,070
-612,503	699,933	0,049	-0,095
-611,488	800,000	0,033	-0,103
-610,474	-200,000	0,046	0,160
-609,459	-200,000	0,008	0,095
-608,444	-200,000	-0,017	-0,088
-607,430	56,775	-0,091	-0,065
-606,415	-200,000	0,005	-0,061
-605,401	-68,312	-0,072	0,020
-604,386	-119,020	0,122	0,016
-603,371	733,881	-0,054	-0,107
-602,357	-48,166	-0,159	0,056
-601,342	-17,168	-0,113	-0,052
-600,328	-200,000	-0,065	-0,218
-599,313	-200,000	-0,007	0,187
-598,298	-55,418	0,092	0,030
-597,284	800,000	0,014	-0,030
-596,269	16,996	-0,030	0,018
-595,255	-200,000	-0,002	0,110
-594,240	5,580	-0,040	-0,021
-593,225	636,347	0,024	-0,045
-592,211	800,000	0,024	0,066
-591,196	166,080	-0,013	0,014
-590,182	391,972	0,052	0,080
-589,167	510,695	-0,033	-0,056
-588,152	-200,000	0,014	-0,086
-587,138	-200,000	-0,004	0,089
-586,123	161,550	-0,073	0,075
-585,109	-165,853	-0,007	-0,000
-584,094	181,753	-0,040	0,044
-583,079	11,080	0,041	-0,023
-582,065	-87,563	0,099	-0,022
-581,050	-200,000	-0,008	0,116
-580,036	94,072	-0,024	-0,020
-579,021	800,000	0,027	0,068
-578,006	-48,726	0,025	-0,009
-576,992	-200,000	0,006	-0,051
-575,977	-163,892	-0,141	0,005
-574,963	-200,000	0,032	0,118
-573,948	119,257	-0,017	-0,016
-572,934	237,183	0,040	-0,048
-571,919	-143,465	-0,083	-0,006
-570,904	-182,459	-0,123	-0,002
-569,890	449,728	0,054	-0,088
-568,875	-95,698	0,102	0,020
-567,861	800,000	0,041	0,093
-566,846	241,152	0,030	0,036
-565,831	394,834	-0,052	-0,080
-564,817	-36,804	-0,118	0,046
-563,802	-46,536	-0,066	0,023
-562,788	-200,000	0,043	-0,147
-561,773	555,539	0,063	0,111
-560,758	-126,918	0,071	0,008
-559,744	130,816	0,089	-0,083
-558,729	-45,363	-0,038	-0,014
-557,715	-97,879	-0,152	-0,028
-556,700	-146,016	-0,125	-0,008
-555,685	-112,158	-0,116	0,017
-554,671	-150,405	-0,053	-0,003
-553,656	-40,646	0,085	0,032
-552,642	-114,504	-0,031	0,004
-551,627	-200,000	-0,005	0,039
-550,612	491,639	0,024	0,041
-549,598	-118,109	0,060	-0,008
-548,583	279,546	-0,055	-0,072
-547,569	800,000	-0,031	-0,089
-546,554	115,211	0,067	0,060
-545,539	-200,000	-0,001	-0,017
-544,525	495,488	0,055	0,093
-543,510	444,238	-0,046	0,073
-542,496	-200,000	-0,006	-0,149
-541,481	398,381	0,083	0,127
-540,466	529,783	0,015	0,026
-539,452	-200,000	0,007	0,034
-538,437	-200,000	-0,006	0,076
-537,423	-26,600	-0,136	0,058
-536,408	-70,170	-0,044	-0,012
-535,393	266,755	-0,105	-0,134
-534,379	-200,000	-0,008	0,043
-533,364	552,103	0,031	-0,054
-532,350	52,654	0,086	0,060
-531,335	132,365	0,047	0,045
-530,321	267,541	0,059	0,075
-529,306	-157,461	0,073	-0,003
-528,291	-142,284	-0,164	0,012
-527,277	148,029	-0,064	-0,064
-526,262	-60,495	0,148	-0,046
-525,248	-200,000	-0,040	-0,130
-524,233	240,200	0,041	0,050
-523,218	-200,000	0,022	0,163
-522,204	-45,959	-0,015	0,006
-521,189	-54,016	0,048	0,016
-520,175	-102,849	-0,063	-0,011
-519,160	617,255	-0,047	0,087
-518,145	-200,000	0,015	-0,056
-517,131	411,387	0,052	-0,082
-516,116	-22,426	0,165	0,073
-515,102	-200,000	-0,007	0,022
-514,087	34,292	-0,093	0,059
-513,072	-180,439	-0,159	0,002
-512,058	-75,949	-0,020	0,005
-511,043	220,411	0,045	-0,053
-510,029	-124,273	-0,013	-0,002
-509,014	-4,016	-0,082	-0,041
-507,999	58,941	-0,178	0,128
-506,985	428,785	0,040	-0,063
-505,970	204,913	0,043	-0,048
-504,956	-176,096	-0,110	-0,002
-503,941	-200,000	0,023	-0,074
-502,926	670,385	0,051	0,096
-501,912	-125,781	0,147	0,016
-500,897	-28,023	-0,137	-0,058
-499,883	147,042	0,041	0,040
-498,868	-200,000	-0,052	-0,221
-497,853	425,553	0,069	0,110
-496,839	46,782	0,033	-0,022
-495,824	49,546	0,146	0,100
-494,810	-118,614	-0,090	0,011
-493,795	-107,687	0,134	-0,021
-492,781	-0,222	0,122	0,063
-491,766	35,512	-0,125	-0,080
-490,751	82,211	0,060	-0,048
-489,737	72,411	0,047	0,035
-488,722	331,818	-0,079	0,111
-487,708	344,085	-0,009	0,013
-486,693	309,981	-0,042	0,058
-485,678	91,624	-0,129	0,106
-484,664	-23,418	-0,082	-0,036
-483,649	-28,672	-0,125	0,052
-482,635	90,834	0,213	0,174
-481,620	6,177	0,070	-0,038
-480,605	-200,000	-0,004	-0,056
-479,591	-57,028	0,188	0,060
-478,576	-94,411	-0,050	-0,010
-477,562	87,115	-0,050	-0,041
-476,547	-200,000	-0,014	-0,052
-475,532	-200,000	0,007	0,098
-474,518	719,323	-0,059	0,115
-473,503	151,952	0,015	-0,015
-472,489	181,025	-0,051	0,055
-471,474	-146,649	-0,007	0,000
-470,459	-107,707	-0,205	0,032
-469,445	-101,769	0,082	0,014
-468,430	-70,992	0,069	-0,019
-467,416	-200,000	0,013	0,045
-466,401	520,228	-0,034	0,058
-465,386	99,489	0,098	-0,083
-464,372	-40,733	0,044	0,016
-463,357	289,469	-0,061	0,080
-462,343	-65,412	0,135	-0,039
-461,328	3,022	-0,064	-0,034
-460,313	18,127	0,040	-0,023
-459,299	-197,233	0,098	0,000
-458,284	37,831	-0,050	0,032
-457,270	-200,000	-0,003	0,032
-456,255	-150,178	0,149	0,008
-455,241	193,419	-0,055	-0,061
-454,226	188,001	-0,038	-0,042
-453,211	-200,000	0,001	-0,134
-452,197	655,572	-0,069	-0,131
-451,182	-200,000	0,021	0,122
-450,168	800,000	0,037	0,099
-449,153	10,151	0,022	-0,012
-448,138	-200,000	0,001	-0,082
-447,124	800,000	-0,050	-0,142
-446,109	694,922	-0,033	-0,063
-445,095	175,436	0,070	-0,074
-444,080	800,000	0,020	0,043
-443,065	273,707	-0,059	0,076
-442,051	111,024	0,075	-0,065
-441,036	-105,920	-0,026	-0,004
-440,022	-103,878	-0,096	-0,016
-439,007	800,000	0,083	-0,179
-437,992	-77,503	0,048	0,012
-436,978	-122,800	0,138	0,016
-435,963	116,411	0,061	-0,055
-434,949	-111,275	0,154	-0,023
-433,934	-189,888	-0,200	0,002
-432,919	529,146	0,016	-0,028
-431,905	-200,000	0,012	0,086
-430,890	800,000	0,034	0,089
-429,876	271,068	-0,065	0,084
-428,861	224,075	-0,106	-0,125
-427,846	800,000	-0,004	0,008
-426,832	-126,716	-0,108	0,011
-425,817	103,892	-0,040	-0,034
-424,803	-82,691	-0,013	-0,003
-423,788	-60,117	0,128	0,039
-422,773	257,964	0,052	0,065
-421,759	-61,911	-0,102	-0,031
-420,744	-11,841	0,004	-0,002
-419,730	-200,000	0,009	0,055
-418,715	151,865	0,070	0,070
-417,701	800,000	0,044	0,134
-416,686	35,301	-0,071	-0,045
-415,671	-53,842	0,112	0,037
-414,657	-12,563	0,132	0,062
-413,642	-180,294	-0,052	-0,001
-412,628	800,000	0,079	-0,174
-411,613	800,000	-0,033	-0,103
-410,598	-45,876	-0,085	0,030
-409,584	398,373	0,046	-0,070
-408,569	-200,000	-0,016	0,059
-407,555	32,030	0,090	0,057
-406,540	-200,000	-0,014	-0,048
-405,525	204,808	0,061	-0,069
-404,511	87,751	-0,049	0,039
-403,496	-200,000	0,014	-0,202
-402,482	-109,445	0,145	0,022
-401,467	-200,000	0,005	-0,092
-400,452	61,498	0,145	0,105
-399,438	-6,361	-0,105	-0,052
-398,423	109,340	-0,051	-0,044
-397,409	30,755	-0,105	-0,065
-396,394	-8,955	0,066	-0,032
-395,379	428,330	-0,045	-0,072
-394,365	-98,508	-0,099	0,018
-393,350	794,617	0,072	0,145
-392,336	-102,226	-0,076	-0,013
-391,321	380,949	0,019	0,028
-390,306	-200,000	0,017	-0,106
-389,292	378,610	0,015	0,023
-388,277	17,764	0,048	-0,028
-387,263	-55,409	0,010	0,003
-386,248	91,723	0,025	0,021
-385,233	465,282	0,013	-0,021
-384,219	41,208	-0,004	-0,002
-383,204	539,613	0,039	0,068
-382,190	120,132	0,102	-0,092
-381,175	-200,000	0,004	0,030
-380,160	-49,013	0,137	0,048
-379,146	800,000	0,065	0,197
-378,131	-200,000	0,045	0,203
-377,117	35,701	-0,076	-0,048
-376,102	474,022	-0,051	-0,084
-375,088	80,267	-0,039	0,030
-374,073	-49,290	0,125	0,043
-373,058	261,211	0,086	-0,109
-372,044	800,000	0,029	-0,077
-371,029	181,567	0,071	-0,076
-370,015	-200,000	0,012	-0,160
-369,000	-136,128	0,059	-0,005
-367,985	-29,054	0,043	0,018
-366,971	-104,492	0,085	0,014
-365,956	-200,000	0,006	0,062
-364,942	-200,000	0,002	-0,035
-363,927	-90,378	-0,126	0,026
-362,912	525,259	-0,052	0,088
-361,898	154,071	0,058	-0,058
-360,883	-120,755	0,048	-0,006
-359,869	130,447	-0,031	-0,028
-358,854	95,878	0,040	0,034
-357,839	66,358	-0,103	-0,076
-356,825	170,969	0,073	-0,076
-355,810	-200,000	0,013	-0,067
-354,796	-113,789	0,075	-0,010
-353,781	-132,569	-0,066	0,006
-352,766	262,372	-0,047	-0,059
-351,752	-181,430	-0,133	0,002
-350,737	800,000	-0,032	0,080
-349,723	-200,000	0,029	0,096
-348,708	-129,235	0,053	0,005
-347,693	76,262	-0,069	0,053
-346,679	265,274	-0,045	-0,057
-345,664	-37,706	0,088	-0,034
-344,650	-200,000	0,004	-0,095
-343,635	-200,000	-0,015	0,059
-342,620	528,240	0,049	0,084
-341,606	-91,652	-0,082	-0,017
-340,591	72,675	-0,009	0,006
-339,577	-200,000	0,010	-0,054
-338,562	-122,144	-0,102	-0,012
-337,548	-44,218	0,187	-0,068
-336,533	29,923	0,057	-0,035
-335,518	-200,000	-0,012	-0,117
-334,504	-200,000	-0,011	-0,093
-333,489	450,763	0,072	-0,116
-332,475	-200,000	0,038	-0,240
-331,460	-200,000	0,019	-0,074
-330,445	-200,000	0,008	0,081
-329,431	800,000	0,052	0,114
-328,416	123,478	0,054	0,049
-327,402	-4,106	0,079	-0,040
-326,387	-81,114	-0,107	0,026
-325,372	-146,711	0,051	0,003
-324,358	-45,286	0,091	-0,033
-323,343	225,141	0,032	-0,038
-322,329	-102,369	-0,071	0,012
-321,314	-100,579	0,032	-0,006
-320,299	-200,000	-0,001	0,065
-319,285	-200,000	0,014	-0,058
-318,270	-88,678	-0,110	-0,024
-317,256	160,082	-0,100	0,102
-316,241	800,000	-0,006	0,013
-315,226	-200,000	0,013	-0,078
-314,212	-10,890	-0,051	-0,025
-313,197	23,467	-0,100	0,060
-312,183	629,526	0,034	0,063
-311,168	153,788	0,031	-0,030
-310,153	-200,000	0,009	-0,043
-309,139	26,471	-0,120	0,073
-308,124	-28,021	0,210	-0,087
-307,110	121,981	0,069	-0,062
-306,095	171,238	-0,055	0,057
-305,080	800,000	0,013	0,028
-304,066	19,789	-0,154	0,090
-303,051	733,333	-0,073	-0,143
-302,037	800,000	0,012	0,028
-301,022	800,000	0,009	-0,019
-300,008	-102,930	0,097	-0,017
-298,993	179,393	-0,131	0,139
-297,978	317,722	-0,054	0,074
-296,964	374,906	-0,028	0,042
-295,949	-47,132	-0,069	-0,024
-294,935	724,187	-0,048	-0,093
-293,920	-28,276	-0,082	-0,034
-292,905	-200,000	0,008	0,064
-291,891	-20,015	0,207	0,092
-290,876	433,768	0,079	0,125
-289,862	618,665	-0,059	0,108
-288,847	-50,093	-0,135	-0,046
-287,832	-68,881	-0,196	0,055
-286,818	76,271	0,053	-0,041
-285,803	-57,338	0,069	-0,022
-284,789	339,024	0,064	0,090
-283,774	-51,035	-0,099	0,033
-282,759	800,000	0,027	-0,073
-281,745	800,000	-0,037	-0,104
-280,730	617,477	0,037	-0,068
-279,716	332,048	0,098	-0,137
-278,701	50,104	-0,025	-0,017
-277,686	-28,545	-0,096	0,040
-276,672	4,120	0,128	0,067
-275,657	800,000	-0,075	-0,201
-274,643	-77,492	-0,131	-0,033
-273,628	731,230	-0,043	-0,083
-272,613	130,916	-0,092	-0,086
-271,599	-200,000	0,014	-0,089
-270,584	-96,277	0,093	-0,018
-269,570	361,041	0,068	0,098
-268,555	-200,000	0,010	0,185
-267,540	120,775	0,065	0,058
-266,526	61,701	-0,104	0,075
-265,511	42,509	0,085	-0,056
-264,497	385,960	0,016	0,024
-263,482	560,251	0,094	0,165
-262,467	309,277	0,017	-0,023
-261,453	-130,229	-0,097	-0,009
-260,438	46,791	0,046	-0,031
-259,424	-200,000	0,014	0,090
-258,409	-200,000	-0,031	-0,136
-257,395	-78,749	-0,069	0,017
-256,380	17,612	-0,025	-0,014
-255,365	26,548	0,182	0,110
-254,351	73,169	-0,118	-0,089
-253,336	-90,498	-0,062	0,013
-252,322	-64,459	0,047	0,014
-251,307	368,455	0,050	0,074
-250,292	800,000	-0,015	0,033
-249,278	100,509	-0,090	0,075
-248,263	203,176	-0,050	0,056
-247,249	-200,000	0,015	0,055
-246,234	101,733	0,075	-0,064
-245,219	800,000	-0,044	-0,132
-244,205	85,064	-0,100	0,079
-243,190	-200,000	-0,002	0,077
-242,176	800,000	0,041	0,107
-241,161	124,340	0,064	-0,058
-240,146	453,769	-0,031	0,050
-239,132	-62,693	-0,037	-0,011
-238,117	-200,000	0,009	-0,066
-237,103	85,108	0,075	-0,059
-236,088	800,000	-0,079	-0,159
-235,073	-124,902	0,174	-0,019
-234,059	-200,000	-0,006	-0,049
-233,044	169,767	-0,101	0,105
-232,030	685,027	0,023	0,043
-231,015	-12,373	0,075	0,036
-230,000	800,000	-0,014	0,041
-228,986	-84,215	0,079	0,018
-227,971	-7,533	-0,127	0,062
-226,957	-200,000	-0,005	0,176
-225,942	-200,000	0,025	-0,088
-224,927	-200,000	-0,039	-0,137
-223,913	103,110	-0,102	-0,087
-222,898	-200,000	0,000	-0,038
-221,884	-200,000	-0,006	0,066
-220,869	417,541	0,047	-0,072
-219,855	404,894	0,044	0,067
-218,840	14,027	0,034	0,019
-217,825	564,657	0,049	-0,086
-216,811	541,521	0,019	-0,033
-215,796	-103,890	-0,050	0,008
-214,782	800,000	-0,014	-0,042
-213,767	648,789	0,082	-0,151
-212,752	363,063	-0,056	0,081
-211,738	-200,000	0,014	-0,098
-210,723	-11,483	-0,086	-0,041
-209,709	-47,968	-0,101	-0,035
-208,694	174,630	-0,069	-0,072
-207,679	58,506	-0,083	0,059
-206,665	28,888	0,114	0,069
-205,650	229,705	-0,023	-0,027
-204,636	800,000	0,014	-0,037
-203,621	568,091	-0,026	0,045
-202,606	284,024	-0,104	-0,135
-201,592	-116,077	-0,026	-0,003
-200,577	8,441	0,085	-0,046
-199,563	5,724	0,110	0,059
-198,548	412,298	-0,040	-0,061
-197,533	-68,998	0,078	-0,022
-196,519	208,524	-0,090	-0,101
-195,504	271,422	-0,068	-0,087
-194,490	800,000	0,027	0,063
-193,475	-96,193	-0,015	0,003
-192,460	-84,338	0,092	-0,021
-191,446	71,358	0,089	0,067
-190,431	-200,000	-0,022	0,109
-189,417	218,436	0,045	0,051
-188,402	-135,354	-0,138	0,012
-187,387	-200,000	-0,017	-0,063
-186,373	623,916	0,072	-0,132
-185,358	404,346	-0,006	-0,009
-184,344	90,715	0,074	0,059
-183,329	84,653	-0,074	-0,058
-182,315	93,225	0,080	0,065
-181,300	258,125	0,037	0,046
-180,285	8,909	0,138	0,075
-179,271	-103,644	-0,110	-0,018
-178,256	-200,000	0,013	-0,101
-177,242	-111,626	0,087	0,013
-176,227	-200,000	0,009	0,066
-175,212	-11,925	-0,164	0,077
-174,198	-131,306	0,144	-0,014
-173,183	-176,439	-0,018	0,000
-172,169	-102,813	-0,089	-0,015
-171,154	-200,000	0,007	0,071
-170,139	222,190	0,116	-0,135
-169,125	-122,550	-0,120	-0,014
-168,110	-200,000	0,029	0,235
-167,096	-200,000	-0,014	0,058
-166,081	429,120	-0,040	-0,063
-165,066	97,524	-0,083	0,069
-164,052	726,791	0,073	0,141
-163,037	-200,000	0,036	0,132
-162,023	94,669	0,108	-0,088
-161,008	-200,000	0,015	0,100
-159,993	800,000	0,028	-0,075
-158,979	-6,840	-0,103	-0,050
-157,964	-200,000	0,001	-0,094
-156,950	496,179	0,019	-0,032
-155,935	58,133	-0,021	0,015
-154,920	-54,514	-0,015	-0,005
-153,906	334,570	0,054	0,076
-152,891	-88,274	0,111	0,024
-151,877	-81,007	-0,195	0,046
-150,862	-200,000	0,013	-0,076
-149,847	800,000	-0,060	-0,149
-148,833	800,000	0,022	0,064
-147,818	357,054	0,069	0,099
-146,804	40,092	0,088	0,057
-145,789	-200,000	0,009	0,051
-144,775	-200,000	-0,025	-0,132
-143,760	800,000	-0,015	0,037
-142,745	78,643	0,081	-0,062
-141,731	-67,962	-0,162	0,045
-140,716	-99,779	0,025	0,005
-139,702	-58,430	-0,064	-0,020
-138,687	281,120	0,021	-0,027
-137,672	39,446	-0,047	0,030
-136,658	433,711	0,077	0,121
-135,643	-3,388	0,034	0,017
-134,629	-46,458	-0,132	0,047
-133,614	-21,103	0,198	-0,087
-132,599	340,905	-0,076	0,106
-131,585	91,508	-0,086	0,069
-130,570	-200,000	0,021	-0,067
-129,556	442,319	-0,045	-0,071
-128,541	-49,824	-0,062	-0,021
-127,526	-200,000	0,051	-0,219
-126,512	1,375	-0,043	-0,022
-125,497	105,562	0,061	0,052
-124,483	-200,000	-0,004	-0,067
-123,468	-150,208	0,077	-0,004
-122,453	-200,000	0,010	0,080
-121,439	236,478	-0,032	0,038
-120,424	-66,331	0,149	-0,042
-119,410	-25,838	0,114	0,048
-118,395	31,000	0,070	-0,043
