DTS Sentinel unit serial number:	SN410029Multiplexer serial number:	ORYXHardware model number:	OX2-SRSoftware version number:	ORYX F/W v4,00 Oryx Data Collector v3.7.2.0data status	okinstallation	B6 Nyhavnadifferential loss correction	single-endedforward channel	channel 2reverse channel	N/Adate	2023/12/10time	13:25:08forward acquisition time	300,00reverse acquisition time	0,00gamma	499,1914k internal	0,3122k external	0,3122temperature offset calibration	1,0000default loss term (dB/km)	0,3820temperature slope calibration	1,0000multiplexer offset coefficient	1,0000multiplexer slope coefficient	1,0000fibre end	0,00T internal ref (°C)	22,77T ext. ref 1 (°C)	6,35T ext. ref 2 (°C)	6,37length (m)	temperature (°C)	Stokes	anti-Stokes-744,400	42,708	-0,027	0,018
-743,385	-93,448	-0,188	0,038
-742,371	378,136	0,109	-0,167
-741,356	-8,089	-0,285	0,143
-740,342	-21,221	-0,010	-0,005
-739,327	-22,142	-0,218	0,098
-738,312	-200,000	-0,027	-0,210
-737,298	-155,584	-0,332	-0,016
-736,283	-82,627	0,071	-0,017
-735,269	28,900	-0,139	0,087
-734,254	271,550	-0,041	-0,054
-733,239	8,023	-0,360	-0,200
-732,225	-19,364	-0,031	0,014
-731,210	43,720	0,067	0,045
-730,196	-2,389	-0,086	-0,045
-729,181	-134,553	-0,136	0,012
-728,167	-108,534	-0,085	-0,013
-727,152	-200,000	0,007	-0,078
-726,137	278,317	-0,007	-0,009
-725,123	-200,000	-0,004	-0,064
-724,108	401,296	-0,111	-0,174
-723,094	16,602	-0,107	-0,063
-722,079	-3,255	-0,111	-0,058
-721,064	-158,091	-0,106	-0,005
-720,050	-176,217	-0,046	0,001
-719,035	439,475	-0,077	-0,125
-718,021	138,352	-0,116	0,113
-717,006	-200,000	-0,010	0,098
-715,991	-126,975	-0,062	0,007
-714,977	247,825	0,070	-0,088
-713,962	284,246	-0,102	-0,137
-712,948	16,349	0,045	0,026
-711,933	569,073	0,057	-0,103
-710,918	800,000	-0,043	0,124
-709,904	-43,844	-0,169	-0,063
-708,889	-106,512	-0,089	0,015
-707,875	-200,000	-0,013	-0,111
-706,860	299,080	-0,032	-0,044
-705,845	249,887	0,029	-0,036
-704,831	-73,043	0,140	0,038
-703,816	460,490	0,038	-0,064
-702,802	69,972	0,091	-0,070
-701,787	-12,834	-0,057	-0,028
-700,772	24,844	-0,141	-0,087
-699,758	375,707	-0,027	0,042
-698,743	-29,765	0,046	-0,019
-697,729	189,505	-0,078	0,087
-696,714	-28,196	0,122	-0,052
-695,699	800,000	-0,023	-0,058
-694,685	-200,000	-0,004	-0,199
-693,670	-65,387	0,052	-0,016
-692,656	-200,000	0,031	0,197
-691,641	-105,346	0,035	0,006
-690,627	800,000	0,012	0,033
-689,612	141,723	0,026	-0,025
-688,597	-143,754	-0,123	0,009
-687,583	-96,152	-0,074	0,015
-686,568	221,661	-0,048	-0,057
-685,554	-200,000	0,023	-0,147
-684,539	65,549	0,096	-0,072
-683,524	-200,000	0,002	0,125
-682,510	-28,752	-0,109	-0,046
-681,495	378,571	-0,049	-0,074
-680,481	-93,022	-0,101	0,021
-679,466	289,262	-0,055	-0,074
-678,451	800,000	-0,072	-0,219
-677,437	-200,000	-0,057	-0,212
-676,422	238,226	0,131	0,162
-675,408	-137,323	-0,036	-0,003
-674,393	-200,000	0,024	-0,129
-673,378	-126,279	-0,225	-0,025
-672,364	145,031	-0,050	0,049
-671,349	-46,072	0,085	-0,031
-670,335	131,978	-0,051	0,049
-669,320	-181,309	-0,098	-0,001
-668,305	800,000	-0,032	-0,095
-667,291	-118,946	0,138	0,018
-666,276	-200,000	0,033	-0,127
-665,262	-49,940	-0,213	-0,075
-664,247	-139,729	0,061	-0,005
-663,232	-75,878	-0,051	0,013
-662,218	-200,000	-0,028	0,138
-661,203	-119,354	-0,056	0,007
-660,189	-200,000	0,013	-0,050
-659,174	-86,794	0,067	-0,015
-658,159	-200,000	0,020	0,072
-657,145	140,746	-0,104	-0,102
-656,130	489,639	-0,067	-0,113
-655,116	-146,582	0,166	-0,011
-654,101	91,675	0,101	0,084
-653,086	-200,000	0,019	0,078
-652,072	177,217	-0,066	0,072
-651,057	324,642	-0,073	-0,104
-650,043	39,656	0,037	-0,025
-649,028	-200,000	-0,029	-0,116
-648,014	-31,262	0,105	0,044
-646,999	-200,000	-0,017	0,067
-645,984	6,895	-0,015	0,009
-644,970	108,488	-0,096	-0,085
-643,955	259,474	-0,085	-0,109
-642,941	-122,852	0,032	-0,004
-641,926	425,500	0,066	-0,106
-640,911	599,846	-0,027	-0,049
-639,897	173,722	-0,060	-0,065
-638,882	123,305	-0,106	0,099
-637,868	-12,686	-0,025	0,012
-636,853	-94,503	-0,097	0,020
-635,838	800,000	-0,047	-0,118
-634,824	-200,000	0,018	0,067
-633,809	-74,955	0,173	0,046
-632,795	-93,414	0,058	-0,012
-631,780	-49,188	0,146	0,052
-630,765	-200,000	0,003	0,013
-629,751	466,698	0,067	0,112
-628,736	-26,475	-0,120	-0,052
-627,722	800,000	0,024	-0,062
-626,707	-112,155	0,056	0,008
-625,692	-200,000	-0,008	-0,054
-624,678	123,845	-0,086	-0,080
-623,663	-200,000	-0,007	0,025
-622,649	-3,948	-0,146	0,075
-621,634	-200,000	-0,017	-0,126
-620,619	-200,000	0,015	-0,140
-619,605	800,000	-0,010	0,027
-618,590	450,829	0,070	0,115
-617,576	-146,602	-0,053	0,003
-616,561	572,431	-0,067	-0,122
-615,546	62,907	-0,008	0,006
-614,532	4,986	-0,022	0,012
-613,517	651,384	-0,053	0,101
-612,503	32,529	0,049	0,031
-611,488	800,000	0,035	0,095
-610,474	-200,000	-0,017	0,108
-609,459	27,707	0,063	-0,039
-608,444	229,971	-0,016	-0,020
-607,430	-200,000	-0,025	-0,104
-606,415	-200,000	0,055	-0,181
-605,401	800,000	0,014	-0,029
-604,386	-118,554	-0,127	-0,016
-603,371	-200,000	0,011	0,105
-602,357	-200,000	0,039	0,173
-601,342	-95,661	-0,137	-0,027
-600,328	-104,394	-0,021	-0,004
-599,313	134,760	-0,062	-0,060
-598,298	-13,359	-0,005	0,002
-597,284	-55,002	0,049	0,016
-596,269	-200,000	0,013	0,052
-595,255	-200,000	-0,005	0,021
-594,240	-200,000	0,006	0,045
-593,225	505,476	0,080	-0,137
-592,211	38,441	-0,104	-0,069
-591,196	-30,579	-0,106	0,044
-590,182	351,859	0,044	0,065
-589,167	229,532	-0,055	0,067
-588,152	-200,000	0,018	0,077
-587,138	100,474	-0,076	-0,065
-586,123	800,000	-0,096	-0,264
-585,109	391,613	-0,061	-0,095
-584,094	13,229	-0,142	-0,081
-583,079	456,844	0,033	-0,054
-582,065	34,940	-0,087	0,056
-581,050	-200,000	0,005	-0,115
-580,036	800,000	-0,021	-0,059
-579,021	32,548	0,091	-0,058
-578,006	-200,000	0,008	-0,103
-576,992	98,160	0,095	-0,081
-575,977	-100,084	-0,067	-0,012
-574,963	34,676	0,062	0,040
-573,948	800,000	-0,021	-0,043
-572,934	800,000	0,043	0,090
-571,919	232,494	0,068	-0,083
-570,904	-80,629	-0,096	0,024
-569,890	26,501	0,111	-0,069
-568,875	-187,589	0,102	0,001
-567,861	-200,000	-0,013	0,119
-566,846	800,000	0,040	0,107
-565,831	25,794	-0,024	-0,015
-564,817	695,421	-0,031	0,060
-563,802	104,533	-0,059	0,051
-562,788	800,000	0,061	-0,152
-561,773	97,653	0,023	0,020
-560,758	800,000	0,068	0,162
-559,744	206,064	0,097	0,112
-558,729	800,000	0,021	0,043
-557,715	134,945	-0,056	0,054
-556,700	78,460	0,055	0,044
-555,685	800,000	-0,009	-0,023
-554,671	-114,346	-0,086	-0,012
-553,656	-73,341	0,056	0,015
-552,642	-23,826	0,111	0,049
-551,627	267,330	-0,029	0,038
-550,612	150,613	0,057	0,057
-549,598	625,432	0,024	0,044
-548,583	-86,690	-0,075	-0,017
-547,569	-200,000	0,018	-0,110
-546,554	-62,929	-0,119	0,036
-545,539	800,000	-0,035	0,106
-544,525	21,936	0,160	-0,096
-543,510	42,440	-0,075	0,050
-542,496	-150,490	-0,054	-0,003
-541,481	229,100	-0,092	-0,111
-540,466	611,830	-0,049	-0,091
-539,452	93,648	0,080	-0,067
-538,437	-140,920	-0,160	0,012
-537,423	40,243	-0,022	0,014
-536,408	-200,000	0,006	-0,053
-535,393	264,381	0,031	-0,040
-534,379	441,288	0,049	-0,079
-533,364	283,371	0,109	-0,145
-532,350	-27,439	0,085	0,036
-531,335	800,000	0,017	0,053
-530,321	731,108	-0,098	-0,196
-529,306	-45,699	0,122	0,044
-528,291	-79,979	0,020	0,005
-527,277	-26,274	0,113	0,049
-526,262	171,011	-0,040	-0,043
-525,248	-73,353	0,122	0,033
-524,233	56,151	0,020	0,014
-523,218	184,433	0,057	0,062
-522,204	800,000	-0,044	-0,104
-521,189	800,000	-0,015	0,036
-520,175	236,175	-0,030	0,037
-519,160	800,000	-0,024	0,051
-518,145	-145,287	0,143	0,009
-517,131	-200,000	-0,025	0,136
-516,116	603,484	0,017	0,032
-515,102	-90,352	-0,042	0,009
-514,087	-66,934	-0,079	0,023
-513,072	396,772	-0,018	0,028
-512,058	-135,640	-0,060	0,005
-511,043	435,482	-0,072	0,116
-510,029	611,405	-0,012	-0,023
-509,014	64,931	0,123	-0,092
-507,999	-130,882	-0,113	-0,011
-506,985	393,299	0,041	-0,063
-505,970	166,047	0,030	-0,032
-504,956	488,438	-0,037	-0,063
-503,941	800,000	0,023	0,073
-502,926	-200,000	0,002	0,010
-501,912	97,066	0,085	0,072
-500,897	-200,000	-0,003	0,027
-499,883	-175,079	0,021	-0,000
-498,868	355,123	-0,088	0,130
-497,853	3,573	-0,049	-0,026
-496,839	-182,613	0,106	-0,001
-495,824	-200,000	-0,002	0,013
-494,810	-48,834	-0,065	0,023
-493,795	-39,007	0,093	0,036
-492,781	-200,000	0,005	-0,032
-491,766	264,893	0,056	-0,073
-490,751	-153,579	0,034	-0,002
-489,737	800,000	-0,042	-0,133
-488,722	-200,000	-0,014	-0,101
-487,708	146,983	0,062	0,062
-486,693	257,370	0,015	-0,019
-485,678	-137,923	-0,065	0,005
-484,664	342,295	0,043	0,063
-483,649	45,988	0,127	-0,087
-482,635	800,000	0,076	-0,179
-481,620	45,709	-0,044	0,030
-480,605	312,555	0,055	0,076
-479,591	50,914	-0,035	0,024
-478,576	-200,000	0,009	-0,097
-477,562	-200,000	0,012	-0,150
-476,547	800,000	0,029	-0,069
-475,532	275,958	0,012	-0,016
-474,518	366,938	-0,029	0,044
-473,503	-79,784	0,059	0,014
-472,489	-200,000	-0,025	0,160
-471,474	-24,119	-0,091	-0,040
-470,459	-164,281	0,094	-0,003
-469,445	357,197	-0,046	0,067
-468,430	800,000	-0,017	-0,040
-467,416	-189,263	-0,051	-0,000
-466,401	800,000	0,046	0,126
-465,386	11,419	0,167	0,094
-464,372	-200,000	0,033	0,137
-463,357	24,988	0,076	-0,046
-462,343	3,233	0,105	0,056
-461,328	-21,341	0,061	-0,027
-460,313	463,327	0,070	-0,116
-459,299	-49,196	-0,054	0,019
-458,284	90,405	0,118	0,097
-457,270	-200,000	0,015	-0,050
-456,255	-200,000	-0,002	-0,008
-455,241	92,039	-0,062	0,051
-454,226	115,712	-0,096	-0,086
-453,211	-112,175	-0,024	-0,003
-452,197	-29,221	0,143	0,060
-451,182	324,216	-0,058	0,081
-450,168	800,000	-0,020	0,054
-449,153	-200,000	0,012	-0,048
-448,138	-48,652	0,017	-0,006
-447,124	800,000	0,040	-0,104
-446,109	-200,000	0,012	0,074
-445,095	-155,012	-0,093	-0,004
-444,080	90,594	0,065	-0,054
-443,065	524,294	-0,045	0,078
-442,051	800,000	0,018	-0,048
-441,036	1,622	-0,061	0,032
-440,022	402,472	0,069	0,108
-439,007	769,499	-0,065	0,132
-437,992	-54,734	0,121	0,040
-436,978	295,843	-0,060	-0,081
-435,963	140,716	0,092	-0,089
-434,949	-183,526	-0,105	0,001
-433,934	800,000	-0,048	-0,150
-432,919	286,287	-0,050	0,067
-431,905	800,000	-0,009	0,026
-430,890	146,373	-0,106	0,105
-429,876	320,543	0,066	0,092
-428,861	6,556	0,046	-0,025
-427,846	273,104	-0,036	-0,047
-426,832	-200,000	-0,007	0,046
-425,817	231,802	0,130	-0,158
-424,803	-102,634	0,079	0,014
-423,788	-200,000	-0,007	0,069
-422,773	-135,610	-0,135	0,012
-421,759	-14,039	-0,071	-0,034
-420,744	158,704	0,075	0,077
-419,730	-200,000	0,019	-0,165
-418,715	-200,000	-0,030	-0,216
-417,701	303,124	-0,051	0,070
-416,686	-143,524	-0,072	-0,005
-415,671	-5,360	0,081	0,041
-414,657	100,730	0,102	0,087
-413,642	800,000	0,042	0,091
-412,628	-16,992	-0,130	0,060
-411,613	379,635	0,023	-0,034
-410,598	-112,821	-0,165	0,024
-409,584	-182,269	0,146	0,002
-408,569	428,789	0,054	-0,086
-407,555	800,000	0,044	-0,094
-406,540	-29,425	0,054	0,023
-405,525	739,230	-0,047	-0,093
-404,511	-200,000	-0,027	-0,141
-403,496	-100,418	-0,041	-0,007
-402,482	-86,567	-0,071	-0,016
-401,467	-200,000	-0,005	-0,077
-400,452	-200,000	0,002	0,061
-399,438	-200,000	-0,030	0,142
-398,423	-200,000	0,025	-0,106
-397,409	250,461	-0,079	0,099
-396,394	-200,000	-0,007	0,080
-395,379	800,000	0,024	-0,073
-394,365	-184,562	0,093	-0,001
-393,350	-200,000	0,014	0,081
-392,336	-200,000	0,008	0,092
-391,321	-200,000	-0,064	-0,223
-390,306	159,091	-0,110	-0,113
-389,292	-108,287	-0,139	-0,022
-388,277	134,505	0,082	-0,078
-387,263	800,000	-0,039	-0,099
-386,248	-200,000	0,001	-0,106
-385,233	-200,000	-0,028	-0,101
-384,219	-156,816	0,080	-0,004
-383,204	73,457	0,042	0,032
-382,190	-200,000	-0,008	-0,061
-381,175	53,346	-0,031	-0,022
-380,160	395,256	-0,037	-0,057
-379,146	-34,443	-0,034	0,014
-378,131	60,573	0,107	0,078
-377,117	-131,769	-0,042	0,004
-376,102	-133,789	-0,088	-0,008
-375,088	-174,459	0,032	0,001
-374,073	-200,000	-0,016	-0,131
-373,058	800,000	0,071	-0,149
-372,044	543,346	0,032	0,056
-371,029	-200,000	0,006	0,202
-370,015	-200,000	-0,010	0,094
-369,000	-62,595	0,081	0,025
-367,985	436,879	-0,089	-0,143
-366,971	-200,000	-0,007	-0,068
-365,956	364,969	-0,059	-0,088
-364,942	-200,000	0,027	0,117
-363,927	-200,000	-0,005	0,063
-362,912	-42,782	0,035	-0,013
-361,898	-46,696	0,039	0,014
-360,883	-200,000	-0,001	-0,188
-359,869	-200,000	-0,012	-0,060
-358,854	493,042	-0,013	0,023
-357,839	-200,000	-0,015	0,157
-356,825	-117,871	0,247	0,032
-355,810	743,385	-0,031	0,062
-354,796	-89,280	-0,093	0,020
-353,781	335,526	-0,046	-0,065
-352,766	36,281	-0,096	-0,062
-351,752	-200,000	-0,001	-0,013
-350,737	-94,487	0,189	-0,037
-349,723	-99,420	0,104	0,019
-348,708	46,980	0,039	-0,027
-347,693	800,000	-0,030	-0,083
-346,679	-28,063	-0,078	-0,033
-345,664	-91,315	0,058	-0,012
-344,650	-200,000	0,029	0,107
-343,635	-200,000	0,033	0,124
-342,620	800,000	-0,054	0,138
-341,606	-200,000	-0,032	0,159
-340,591	-200,000	-0,009	0,078
-339,577	114,640	-0,059	-0,052
-338,562	67,965	-0,096	-0,072
-337,548	226,505	0,037	0,044
-336,533	76,034	-0,063	-0,049
-335,518	-68,257	0,143	-0,040
-334,504	103,594	0,027	0,024
-333,489	374,657	0,032	-0,048
-332,475	-16,070	-0,052	-0,024
-331,460	231,060	-0,076	-0,091
-330,445	148,611	-0,039	-0,038
-329,431	800,000	-0,027	-0,069
-328,416	578,527	0,080	-0,144
-327,402	9,404	0,047	0,026
-326,387	262,667	0,007	0,008
-325,372	800,000	0,031	-0,072
-324,358	-111,713	-0,106	-0,016
-323,343	-200,000	0,003	-0,065
-322,329	-200,000	0,013	-0,056
-321,314	732,014	0,043	-0,085
-320,299	-200,000	0,002	0,180
-319,285	4,713	0,082	-0,044
-318,270	-55,368	0,130	0,042
-317,256	-137,015	-0,123	0,010
-316,241	-116,439	-0,073	0,010
-315,226	-200,000	0,012	0,062
-314,212	-132,144	0,157	-0,015
-313,197	-69,235	0,046	0,013
-312,183	800,000	0,022	0,063
-311,168	-65,552	0,116	0,034
-310,153	211,337	-0,078	-0,090
-309,139	81,186	-0,126	-0,100
-308,124	-200,000	0,009	0,059
-307,110	800,000	0,043	0,106
-306,095	-79,724	0,046	-0,011
-305,080	632,135	0,019	0,035
-304,066	114,482	-0,089	0,080
-303,051	-2,846	-0,179	0,091
-302,037	409,676	-0,066	-0,102
-301,022	106,764	0,060	-0,052
-300,008	-200,000	-0,012	0,083
-298,993	800,000	0,037	0,082
-297,978	-200,000	-0,014	0,090
-296,964	800,000	-0,037	0,088
-295,949	-70,146	-0,044	-0,012
-294,935	210,840	0,118	0,137
-293,920	-47,620	0,150	0,053
-292,905	800,000	0,039	-0,086
-291,891	-200,000	-0,000	0,086
-290,876	149,761	0,046	0,046
-289,862	-200,000	0,038	0,000
-288,847	-64,531	0,021	-0,006
-287,832	-75,806	-0,215	-0,055
-286,818	83,397	0,025	0,020
-285,803	15,367	0,048	0,027
-284,789	258,882	0,044	0,056
-283,774	370,019	0,061	0,091
-282,759	-200,000	0,015	-0,134
-281,745	55,705	-0,125	-0,089
-280,730	-89,469	0,077	0,017
-279,716	132,155	0,065	-0,062
-278,701	-19,538	0,028	-0,013
-277,686	-200,000	0,022	-0,086
-276,672	42,679	0,052	-0,035
-275,657	-200,000	-0,017	0,084
-274,643	-79,365	-0,101	0,025
-273,628	118,328	-0,051	0,046
-272,613	-151,414	0,054	-0,003
-271,599	130,847	-0,080	-0,075
-270,584	489,883	0,038	0,063
-269,570	498,669	0,105	0,178
-268,555	-124,176	0,181	-0,021
-267,540	331,681	-0,052	-0,073
-266,526	-200,000	0,016	-0,055
-265,511	-57,841	-0,038	-0,012
-264,497	-200,000	0,016	-0,059
-263,482	84,930	0,097	-0,078
-262,467	-93,936	-0,106	0,021
-261,453	-200,000	-0,000	-0,028
-260,438	650,523	0,020	-0,037
-259,424	-102,589	-0,210	-0,036
-258,409	288,812	-0,040	0,053
-257,395	-200,000	0,004	0,217
-256,380	-200,000	-0,003	0,078
-255,365	5,902	0,003	0,001
-254,351	-200,000	-0,011	0,051
-253,336	47,982	0,024	-0,016
-252,322	10,633	-0,074	0,041
-251,307	-200,000	-0,030	-0,102
-250,292	600,240	0,041	0,075
-249,278	128,781	-0,077	-0,072
-248,263	-200,000	-0,032	0,105
-247,249	800,000	-0,024	0,069
-246,234	-78,212	-0,065	-0,016
-245,219	-58,950	-0,138	-0,043
-244,205	800,000	-0,032	0,066
-243,190	170,547	0,107	0,113
-242,176	-57,982	-0,110	0,035
-241,161	266,752	0,087	0,112
-240,146	507,423	-0,056	0,096
-239,132	-89,211	-0,052	-0,011
-238,117	800,000	-0,045	0,136
-237,103	6,686	0,060	0,033
-236,088	-119,613	-0,086	0,011
-235,073	616,058	0,042	0,078
-234,059	-200,000	0,035	0,200
-233,044	-200,000	0,001	0,085
-232,030	-64,932	0,101	-0,030
-231,015	14,511	0,053	-0,030
-230,000	-45,814	0,091	-0,033
-228,986	-200,000	0,014	-0,158
-227,971	800,000	0,009	0,027
-226,957	800,000	0,038	0,082
-225,942	246,641	0,098	0,122
-224,927	-154,565	0,065	0,003
-223,913	-200,000	-0,039	-0,140
-222,898	393,226	-0,035	0,054
-221,884	800,000	-0,027	-0,079
-220,869	493,891	0,025	-0,041
-219,855	677,623	-0,039	0,075
-218,840	800,000	-0,030	0,072
-217,825	800,000	-0,018	-0,052
-216,811	-81,287	-0,098	0,024
-215,796	800,000	0,057	-0,123
-214,782	-200,000	-0,008	-0,180
-213,767	501,156	-0,036	0,061
-212,752	246,901	-0,030	0,038
-211,738	-200,000	-0,018	-0,133
-210,723	800,000	0,034	-0,070
-209,709	-200,000	-0,012	0,081
-208,694	-200,000	-0,038	-0,144
-207,679	127,212	-0,080	-0,074
-206,665	568,078	-0,047	-0,083
-205,650	-64,179	0,041	0,012
-204,636	757,057	0,049	-0,097
-203,621	-33,685	-0,137	0,055
-202,606	-8,396	-0,170	-0,083
-201,592	-200,000	-0,012	-0,053
-200,577	-109,437	-0,110	0,017
-199,563	-2,309	0,022	0,011
-198,548	800,000	0,036	0,080
-197,533	-200,000	0,005	0,048
-196,519	93,258	0,131	-0,108
-195,504	13,792	0,035	0,020
-194,490	67,734	-0,129	0,096
-193,475	-200,000	-0,014	-0,108
-192,460	800,000	-0,030	0,064
-191,446	-200,000	0,027	0,123
-190,431	-20,378	0,052	-0,023
-189,417	36,445	0,139	0,089
-188,402	-15,160	-0,121	0,056
-187,387	1,543	-0,071	-0,037
-186,373	99,158	-0,063	-0,053
-185,358	-136,055	-0,056	0,005
-184,344	-47,744	0,037	-0,013
-183,329	-200,000	0,048	-0,186
-182,315	-126,769	0,048	0,005
-181,300	800,000	0,030	-0,073
-180,285	-200,000	-0,007	-0,032
-179,271	82,525	0,086	-0,068
-178,256	-200,000	0,010	-0,051
-177,242	800,000	-0,055	0,117
-176,227	-200,000	0,009	-0,119
-175,212	-200,000	0,011	0,086
-174,198	800,000	-0,008	0,021
-173,183	137,647	-0,034	0,033
-172,169	174,142	0,075	-0,079
-171,154	118,509	0,048	0,044
-170,139	-95,300	0,021	-0,004
-169,125	203,962	-0,070	0,079
-168,110	-200,000	0,031	0,161
-167,096	800,000	0,058	-0,139
-166,081	355,867	-0,036	0,052
-165,066	608,097	0,040	0,072
-164,052	800,000	0,049	0,107
-163,037	-13,441	0,029	0,014
-162,023	-200,000	-0,013	0,056
-161,008	-86,492	0,050	0,011
-159,993	-200,000	0,029	0,109
-158,979	27,419	-0,103	0,063
-157,964	120,133	-0,037	-0,034
-156,950	-80,235	-0,118	0,029
-155,935	157,529	-0,103	0,104
-154,920	-200,000	-0,009	0,077
-153,906	438,964	-0,022	-0,035
-152,891	-200,000	-0,002	0,028
-151,877	-200,000	0,005	-0,044
-150,862	275,689	0,020	-0,026
-149,847	-200,000	0,010	0,083
-148,833	128,991	0,142	0,132
-147,818	-103,645	-0,081	0,014
-146,804	800,000	-0,079	0,212
-145,789	-73,578	0,077	0,020
-144,775	-200,000	0,018	0,086
-143,760	-61,429	-0,176	0,054
-142,745	63,675	-0,085	-0,062
-141,731	554,459	0,058	0,101
-140,716	-200,000	0,001	0,031
-139,702	-164,303	-0,092	0,003
-138,687	800,000	-0,010	0,027
-137,672	-200,000	0,003	0,091
-136,658	60,332	-0,076	-0,055
-135,643	-113,096	-0,096	0,014
-134,629	40,090	0,055	-0,036
-133,614	-72,582	-0,075	-0,020
-132,599	529,294	-0,094	0,163
-131,585	139,673	0,075	0,072
-130,570	-23,500	-0,093	-0,040
-129,556	-200,000	0,026	-0,138
-128,541	357,920	0,067	0,098
-127,526	234,841	-0,103	-0,124
-126,512	383,919	0,056	-0,084
-125,497	25,573	0,142	0,086
-124,483	-17,451	0,097	0,044
-123,468	163,195	-0,069	0,071
-122,453	-106,666	-0,191	0,031
-121,439	523,347	0,031	-0,054
-120,424	208,823	-0,070	-0,079
-119,410	-200,000	-0,013	-0,041
