DTS Sentinel unit serial number:	SN410029Multiplexer serial number:	ORYXHardware model number:	OX2-SRSoftware version number:	ORYX F/W v4,00 Oryx Data Collector v3.7.2.0data status	okinstallation	B6 Nyhavnadifferential loss correction	single-endedforward channel	channel 2reverse channel	N/Adate	2023/12/09time	10:25:08forward acquisition time	300,00reverse acquisition time	0,00gamma	499,1914k internal	0,3139k external	0,3139temperature offset calibration	1,0000default loss term (dB/km)	0,3820temperature slope calibration	1,0000multiplexer offset coefficient	1,0000multiplexer slope coefficient	1,0000fibre end	0,00T internal ref (°C)	18,56T ext. ref 1 (°C)	2,30T ext. ref 2 (°C)	2,30length (m)	temperature (°C)	Stokes	anti-Stokes-744,400	-200,000	-0,003	-0,075
-743,385	-92,933	-0,209	0,043
-742,371	397,779	0,075	-0,116
-741,356	258,950	-0,130	0,166
-740,342	511,082	-0,026	-0,045
-739,327	-153,305	-0,276	-0,014
-738,312	304,512	0,051	-0,070
-737,298	93,296	-0,236	0,198
-736,283	-14,037	-0,005	-0,002
-735,269	237,104	-0,149	0,184
-734,254	231,813	0,036	0,044
-733,239	-130,430	-0,465	-0,046
-732,225	13,986	0,136	0,078
-731,210	800,000	0,030	0,067
-730,196	180,202	0,025	-0,028
-729,181	800,000	-0,019	-0,039
-728,167	-106,522	-0,166	-0,027
-727,152	-76,814	0,107	-0,028
-726,137	-200,000	-0,045	0,170
-725,123	-18,534	-0,128	0,059
-724,108	800,000	-0,037	-0,084
-723,094	291,479	-0,071	-0,095
-722,079	-140,176	-0,087	0,007
-721,064	222,583	-0,062	-0,075
-720,050	27,280	0,232	-0,144
-719,035	179,417	0,067	-0,073
-718,021	90,869	-0,128	-0,106
-717,006	73,444	-0,134	-0,104
-715,991	207,123	-0,120	-0,139
-714,977	-200,000	-0,010	0,032
-713,962	515,793	-0,056	0,098
-712,948	20,111	-0,072	-0,043
-711,933	-129,318	-0,099	-0,010
-710,918	-200,000	0,017	-0,148
-709,904	-72,189	-0,055	0,015
-708,889	86,363	-0,022	-0,018
-707,875	800,000	0,052	-0,126
-706,860	-132,181	-0,171	-0,016
-705,845	-200,000	-0,014	-0,128
-704,831	153,934	-0,140	-0,142
-703,816	343,078	-0,042	-0,061
-702,802	556,225	-0,071	-0,126
-701,787	641,484	0,060	-0,113
-700,772	-58,737	0,107	0,034
-699,758	227,310	0,052	-0,063
-698,743	800,000	-0,029	0,091
-697,729	800,000	0,037	0,113
-696,714	800,000	0,010	-0,027
-695,699	-200,000	-0,008	0,041
-694,685	103,309	0,095	-0,083
-693,670	170,342	-0,045	-0,048
-692,656	-2,568	0,041	-0,021
-691,641	31,895	0,105	-0,067
-690,627	163,270	0,174	0,181
-689,612	-200,000	-0,006	0,056
-688,597	-112,365	0,087	-0,013
-687,583	-121,253	-0,163	-0,020
-686,568	-200,000	0,014	-0,063
-685,554	98,726	-0,141	-0,120
-684,539	-200,000	-0,018	0,181
-683,524	-113,239	0,123	0,018
-682,510	49,952	0,063	-0,044
-681,495	-200,000	-0,001	-0,055
-680,481	-200,000	-0,031	0,110
-679,466	324,886	-0,004	-0,005
-678,451	-200,000	-0,006	0,074
-677,437	243,220	-0,051	0,064
-676,422	-200,000	-0,003	0,074
-675,408	70,486	-0,015	0,011
-674,393	-36,426	-0,063	-0,025
-673,378	800,000	0,030	0,082
-672,364	-45,743	-0,179	-0,065
-671,349	-104,192	-0,112	0,019
-670,335	-192,234	-0,064	-0,000
-669,320	761,963	0,018	-0,035
-668,305	8,899	-0,037	0,021
-667,291	800,000	-0,022	-0,053
-666,276	588,451	0,032	0,059
-665,262	24,403	-0,073	-0,044
-664,247	605,403	0,076	-0,140
-663,232	800,000	0,048	0,123
-662,218	-200,000	0,025	-0,115
-661,203	769,967	-0,020	-0,041
-660,189	90,092	0,041	-0,034
-659,174	800,000	0,022	-0,054
-658,159	460,868	-0,085	-0,140
-657,145	800,000	-0,048	-0,110
-656,130	-200,000	0,010	-0,073
-655,116	117,428	0,062	0,056
-654,101	-108,299	0,067	-0,011
-653,086	-93,658	-0,146	-0,029
-652,072	72,488	-0,019	-0,015
-651,057	55,648	-0,091	-0,065
-650,043	-200,000	-0,026	-0,135
-649,028	114,815	0,079	-0,071
-648,014	-144,319	0,108	-0,007
-646,999	-16,926	0,064	-0,030
-645,984	-45,728	-0,073	0,026
-644,970	459,697	-0,079	-0,131
-643,955	1,253	0,051	0,027
-642,941	-200,000	0,001	-0,019
-641,926	800,000	0,002	-0,006
-640,911	-200,000	0,023	-0,084
-639,897	-195,540	-0,040	0,000
-638,882	-118,037	-0,102	-0,013
-637,868	77,251	0,077	-0,060
-636,853	800,000	-0,017	-0,047
-635,838	-170,109	0,084	0,002
-634,824	54,436	0,061	-0,044
-633,809	95,124	-0,068	-0,057
-632,795	389,925	0,061	0,094
-631,780	-200,000	-0,008	0,074
-630,765	127,025	-0,086	-0,081
-629,751	-200,000	0,015	-0,088
-628,736	-1,531	-0,046	-0,024
-627,722	-130,069	-0,115	-0,011
-626,707	222,978	-0,054	0,065
-625,692	-200,000	-0,013	0,048
-624,678	-200,000	0,019	0,081
-623,663	219,805	-0,157	-0,186
-622,649	513,997	0,062	0,107
-621,634	-51,897	0,024	-0,008
-620,619	-200,000	0,017	-0,176
-619,605	800,000	-0,031	-0,071
-618,590	720,301	0,066	-0,131
-617,576	-200,000	-0,016	0,067
-616,561	427,583	-0,108	0,173
-615,546	-97,044	-0,171	-0,033
-614,532	-97,497	0,090	0,017
-613,517	800,000	0,012	-0,033
-612,503	-100,359	-0,085	0,015
-611,488	-2,411	-0,100	0,052
-610,474	10,152	0,075	0,042
-609,459	-49,429	-0,100	-0,035
-608,444	363,162	-0,070	-0,104
-607,430	406,216	0,013	0,020
-606,415	486,199	-0,039	0,066
-605,401	40,837	0,113	0,075
-604,386	15,470	0,017	0,010
-603,371	372,868	-0,070	0,106
-602,357	-46,032	0,024	0,009
-601,342	485,058	-0,042	0,071
-600,328	800,000	-0,040	-0,102
-599,313	-200,000	0,003	-0,010
-598,298	800,000	0,010	0,031
-597,284	71,600	0,060	0,046
-596,269	-161,843	0,023	-0,001
-595,255	-18,959	-0,047	-0,021
-594,240	13,908	-0,063	-0,036
-593,225	635,233	0,070	-0,131
-592,211	168,375	-0,062	-0,065
-591,196	515,485	-0,058	-0,100
-590,182	578,127	0,121	0,218
-589,167	-35,526	0,040	-0,016
-588,152	800,000	-0,014	-0,031
-587,138	-145,833	-0,067	0,004
-586,123	-171,433	-0,134	-0,003
-585,109	84,533	-0,020	0,016
-584,094	-24,926	-0,080	-0,035
-583,079	503,515	-0,041	0,070
-582,065	800,000	-0,074	-0,155
-581,050	397,322	-0,024	-0,037
-580,036	151,723	0,041	0,042
-579,021	41,166	-0,069	0,046
-578,006	106,458	-0,089	-0,078
-576,992	156,001	-0,083	-0,084
-575,977	800,000	-0,007	0,014
-574,963	244,910	-0,068	-0,085
-573,948	30,758	-0,075	-0,047
-572,934	58,656	0,050	-0,036
-571,919	37,334	-0,107	-0,070
-570,904	-200,000	0,017	-0,072
-569,890	540,684	-0,067	-0,118
-568,875	129,832	0,085	-0,081
-567,861	-200,000	-0,024	-0,149
-566,846	800,000	-0,012	-0,025
-565,831	-12,923	-0,050	-0,024
-564,817	-200,000	-0,003	0,112
-563,802	-200,000	-0,025	-0,136
-562,788	-200,000	-0,000	-0,112
-561,773	-200,000	-0,026	-0,102
-560,758	-138,548	0,047	0,004
-559,744	800,000	-0,049	0,117
-558,729	-200,000	-0,001	0,084
-557,715	90,486	0,034	-0,028
-556,700	-200,000	0,027	-0,133
-555,685	-200,000	-0,003	-0,111
-554,671	-200,000	0,040	0,143
-553,656	526,911	-0,063	0,110
-552,642	-46,384	0,163	-0,059
-551,627	-200,000	-0,031	0,110
-550,612	-200,000	-0,002	-0,054
-549,598	-67,605	0,060	0,017
-548,583	78,264	-0,051	0,040
-547,569	-97,037	-0,124	-0,024
-546,554	-200,000	-0,001	-0,006
-545,539	-200,000	0,001	-0,123
-544,525	477,185	-0,005	-0,008
-543,510	624,554	0,079	-0,148
-542,496	717,053	-0,074	-0,145
-541,481	-200,000	-0,005	-0,064
-540,466	-200,000	-0,041	-0,137
-539,452	-200,000	-0,001	0,094
-538,437	67,517	0,124	0,093
-537,423	-121,079	-0,036	0,004
-536,408	551,933	0,063	0,111
-535,393	19,433	-0,076	0,045
-534,379	68,700	-0,059	0,044
-533,364	-116,507	0,104	-0,014
-532,350	-15,585	0,013	0,006
-531,335	-200,000	0,002	-0,026
-530,321	103,489	-0,037	0,032
-529,306	575,373	0,042	-0,076
-528,291	-50,958	0,077	-0,026
-527,277	-185,350	-0,127	-0,001
-526,262	800,000	0,059	-0,125
-525,248	349,615	-0,090	0,131
-524,233	143,884	0,077	0,076
-523,218	-16,701	0,071	0,033
-522,204	-200,000	-0,011	-0,071
-521,189	-200,000	-0,008	-0,119
-520,175	-100,501	0,106	-0,019
-519,160	-137,591	-0,095	-0,008
-518,145	-12,103	0,208	-0,100
-517,131	101,823	0,119	-0,102
-516,116	-200,000	0,010	-0,083
-515,102	-3,265	-0,151	0,077
-514,087	160,550	0,046	0,047
-513,072	-200,000	-0,018	-0,099
-512,058	-33,547	-0,103	0,041
-511,043	-200,000	0,009	0,053
-510,029	91,795	0,089	0,073
-509,014	-200,000	-0,018	0,111
-507,999	-35,260	-0,078	-0,031
-506,985	129,538	0,091	0,085
-505,970	693,614	-0,122	0,237
-504,956	800,000	0,036	0,082
-503,941	-29,885	0,009	-0,004
-502,926	30,288	-0,134	0,084
-501,912	298,018	-0,086	0,117
-500,897	-200,000	0,044	0,213
-499,883	25,068	-0,101	-0,061
-498,868	414,946	0,089	-0,139
-497,853	800,000	-0,071	0,157
-496,839	800,000	0,005	-0,010
-495,824	168,979	-0,021	0,022
-494,810	-200,000	-0,004	0,080
-493,795	-200,000	0,028	-0,160
-492,781	-103,982	-0,078	0,013
-491,766	-200,000	0,014	0,105
-490,751	76,831	0,158	-0,123
-489,737	572,888	0,002	0,004
-488,722	800,000	0,072	0,152
-487,708	-127,179	0,115	-0,012
-486,693	-200,000	-0,010	0,196
-485,678	800,000	0,013	0,033
-484,664	37,035	-0,124	-0,080
-483,649	-39,879	0,110	-0,042
-482,635	-200,000	0,009	-0,136
-481,620	687,817	-0,056	-0,109
-480,605	800,000	0,032	0,095
-479,591	-109,609	0,032	-0,005
-478,576	-75,163	0,066	-0,017
-477,562	-158,924	-0,042	-0,002
-476,547	121,217	-0,064	-0,058
-475,532	-42,879	-0,076	-0,028
-474,518	100,082	0,072	0,062
-473,503	389,906	-0,049	0,075
-472,489	642,380	0,102	0,192
-471,474	800,000	0,016	-0,034
-470,459	389,767	-0,091	-0,139
-469,445	-83,129	-0,163	0,038
-468,430	260,093	0,038	-0,049
-467,416	-79,903	0,053	-0,013
-466,401	135,776	-0,065	-0,063
-465,386	110,362	0,084	-0,074
-464,372	-66,199	-0,070	0,020
-463,357	401,186	0,054	0,083
-462,343	123,242	-0,045	-0,042
-461,328	94,375	0,102	0,085
-460,313	-34,820	0,122	0,049
-459,299	-200,000	0,004	0,054
-458,284	-200,000	0,007	0,151
-457,270	358,709	-0,085	0,125
-456,255	697,965	-0,039	-0,075
-455,241	217,367	-0,045	-0,052
-454,226	-200,000	-0,008	-0,065
-453,211	140,043	0,098	0,095
-452,197	-200,000	0,023	0,086
-451,182	-110,702	0,110	-0,016
-450,168	-200,000	-0,007	-0,142
-449,153	-57,431	-0,149	-0,048
-448,138	-92,879	-0,011	0,002
-447,124	-84,119	0,122	-0,028
-446,109	-200,000	-0,002	0,032
-445,095	310,518	0,027	0,037
-444,080	-200,000	-0,028	0,131
-443,065	-59,139	0,149	0,047
-442,051	-200,000	-0,001	0,047
-441,036	-9,552	-0,176	-0,086
-440,022	295,465	-0,116	-0,155
-439,007	-200,000	0,008	-0,118
-437,992	26,969	0,149	-0,091
-436,978	301,558	0,064	0,087
-435,963	524,128	0,031	0,053
-434,949	438,796	-0,056	0,089
-433,934	-200,000	-0,000	-0,017
-432,919	-72,229	-0,034	-0,009
-431,905	177,072	0,029	0,031
-430,890	800,000	0,006	0,018
-429,876	71,101	0,106	-0,081
-428,861	-22,569	0,052	0,023
-427,846	800,000	0,022	-0,053
-426,832	-95,666	-0,127	-0,025
-425,817	93,656	0,060	-0,049
-424,803	21,970	-0,147	0,087
-423,788	556,779	-0,048	0,085
-422,773	-31,355	0,117	-0,048
-421,759	7,391	-0,021	-0,012
-420,744	300,534	-0,057	0,077
-419,730	-200,000	-0,009	0,100
-418,715	-200,000	0,021	0,110
-417,701	471,070	0,063	0,105
-416,686	800,000	-0,036	-0,116
-415,671	-12,353	0,115	-0,055
-414,657	800,000	-0,011	0,031
-413,642	41,698	0,085	-0,056
-412,628	800,000	0,078	-0,175
-411,613	72,460	-0,094	-0,071
-410,598	36,697	0,075	-0,048
-409,584	27,280	-0,107	-0,066
-408,569	683,253	0,041	-0,079
-407,555	-54,046	0,098	0,032
-406,540	501,913	-0,042	-0,071
-405,525	-89,772	0,109	-0,023
-404,511	-156,583	-0,097	-0,004
-403,496	-56,723	-0,065	0,021
-402,482	-82,650	0,058	0,014
-401,467	-200,000	0,025	0,176
-400,452	-200,000	0,042	0,249
-399,438	468,797	-0,030	0,049
-398,423	-93,820	-0,038	0,008
-397,409	195,367	-0,043	-0,048
-396,394	-200,000	-0,013	-0,091
-395,379	423,798	0,078	0,123
-394,365	-151,283	0,008	0,000
-393,350	105,113	0,078	0,067
-392,336	336,611	-0,094	-0,133
-391,321	-32,328	0,089	-0,036
-390,306	386,265	-0,061	0,093
-389,292	-9,313	-0,057	-0,028
-388,277	23,309	-0,058	0,035
-387,263	4,165	0,079	-0,042
-386,248	267,074	-0,073	0,094
-385,233	97,981	-0,092	0,077
-384,219	-200,000	0,004	-0,061
-383,204	356,419	0,025	-0,036
-382,190	-30,518	-0,095	0,039
-381,175	-51,083	0,111	-0,038
-380,160	-131,284	0,033	0,003
-379,146	-200,000	0,005	0,061
-378,131	800,000	-0,032	0,099
-377,117	442,575	-0,019	-0,030
-376,102	212,150	-0,051	-0,059
-375,088	-200,000	-0,030	-0,127
-374,073	23,867	0,072	0,043
-373,058	214,020	0,048	0,055
-372,044	-46,504	0,067	-0,024
-371,029	-200,000	-0,014	-0,083
-370,015	201,903	-0,071	0,080
-369,000	-200,000	-0,023	0,110
-367,985	-200,000	-0,006	-0,085
-366,971	800,000	-0,051	0,110
-365,956	-67,218	0,143	0,041
-364,942	610,223	0,086	0,157
-363,927	-200,000	0,009	0,069
-362,912	166,157	-0,074	0,076
-361,898	-200,000	0,004	-0,143
-360,883	187,595	0,087	0,095
-359,869	-82,244	-0,042	0,010
-358,854	-63,090	-0,079	0,024
-357,839	45,262	0,119	0,080
-356,825	480,223	0,062	0,102
-355,810	800,000	-0,010	0,025
-354,796	-50,925	-0,028	-0,009
-353,781	-22,867	-0,120	-0,053
-352,766	800,000	0,006	0,018
-351,752	-60,702	-0,110	-0,034
-350,737	126,201	0,041	-0,038
-349,723	-200,000	0,004	0,106
-348,708	53,175	0,198	0,139
-347,693	-118,651	-0,091	0,012
-346,679	-200,000	0,036	-0,153
-345,664	255,217	0,059	0,074
-344,650	287,913	-0,048	0,064
-343,635	17,783	0,072	-0,042
-342,620	513,793	0,028	0,048
-341,606	-200,000	0,009	-0,057
-340,591	-115,466	0,064	0,009
-339,577	-200,000	-0,003	-0,064
-338,562	107,393	-0,067	-0,058
-337,548	258,783	0,023	0,029
-336,533	-38,440	0,076	-0,029
-335,518	-115,641	0,126	-0,017
-334,504	-200,000	0,019	0,094
-333,489	6,690	0,054	0,029
-332,475	14,393	-0,097	-0,055
-331,460	-11,014	-0,095	0,046
-330,445	-200,000	0,003	-0,129
-329,431	-4,207	0,083	-0,042
-328,416	-108,893	0,049	0,008
-327,402	-200,000	0,021	-0,074
-326,387	-200,000	0,007	-0,028
-325,372	-100,531	-0,066	0,012
-324,358	-156,531	0,027	0,001
-323,343	106,698	-0,072	-0,063
-322,329	-17,200	0,032	0,015
-321,314	800,000	0,077	0,219
-320,299	-200,000	-0,021	0,137
-319,285	-200,000	0,029	0,109
-318,270	-15,203	-0,117	0,054
-317,256	160,421	-0,021	0,022
-316,241	800,000	0,013	0,037
-315,226	301,640	0,021	-0,028
-314,212	-86,889	0,130	0,029
-313,197	-107,074	0,159	-0,025
-312,183	649,994	0,046	-0,086
-311,168	-166,679	-0,186	0,006
-310,153	76,797	-0,037	0,029
-309,139	247,131	0,028	-0,034
-308,124	79,786	0,038	-0,030
-307,110	76,662	0,035	0,027
-306,095	-200,000	0,040	0,167
-305,080	8,438	0,018	-0,010
-304,066	-27,454	0,052	0,022
-303,051	-84,701	0,063	0,014
-302,037	-92,787	-0,085	0,017
-301,022	0,365	0,047	0,024
-300,008	800,000	0,044	-0,091
-298,993	531,261	-0,011	0,020
-297,978	66,360	0,056	0,041
-296,964	-82,557	-0,116	0,027
-295,949	764,980	-0,058	-0,115
-294,935	800,000	0,019	0,049
-293,920	-200,000	0,001	0,156
-292,905	610,493	0,032	-0,059
-291,891	74,319	-0,083	0,064
-290,876	800,000	0,023	0,056
-289,862	-24,565	0,160	-0,069
-288,847	800,000	-0,047	-0,124
-287,832	800,000	0,020	-0,042
-286,818	51,635	-0,094	-0,065
-285,803	61,242	0,080	-0,058
-284,789	-135,583	0,130	0,011
-283,774	-49,477	0,090	-0,031
-282,759	345,705	-0,033	-0,048
-281,745	800,000	0,096	-0,196
-280,730	-200,000	-0,036	-0,124
-279,716	584,295	-0,004	-0,007
-278,701	62,406	-0,023	0,017
-277,686	-25,518	-0,053	-0,023
-276,672	-15,039	0,029	0,013
-275,657	757,734	-0,038	0,074
-274,643	-30,563	-0,047	0,019
-273,628	-176,213	0,023	-0,000
-272,613	-200,000	0,005	0,098
-271,599	65,030	-0,055	0,040
-270,584	248,107	0,030	-0,037
-269,570	800,000	0,059	0,133
-268,555	-200,000	-0,023	-0,074
-267,540	519,093	0,051	-0,087
-266,526	102,654	0,080	0,068
-265,511	800,000	-0,062	0,163
-264,497	-200,000	0,010	0,038
-263,482	800,000	-0,031	-0,096
-262,467	66,490	0,034	-0,025
-261,453	476,384	-0,017	-0,027
-260,438	-98,422	-0,071	0,013
-259,424	-200,000	-0,002	0,061
-258,409	800,000	0,084	-0,217
-257,395	-200,000	0,016	-0,100
-256,380	368,765	0,037	0,054
-255,365	541,168	0,020	0,034
-254,351	-107,886	0,100	-0,016
-253,336	577,873	-0,066	0,117
-252,322	312,467	0,084	-0,115
-251,307	443,239	-0,019	-0,030
-250,292	800,000	0,042	0,094
-249,278	178,094	0,041	0,044
-248,263	-200,000	0,005	0,145
-247,249	84,223	0,051	-0,041
-246,234	800,000	-0,099	-0,267
-245,219	280,556	-0,027	0,035
-244,205	83,444	-0,129	-0,102
-243,190	-200,000	0,001	-0,026
-242,176	800,000	0,005	-0,011
-241,161	800,000	-0,004	0,008
-240,146	-200,000	-0,008	-0,063
-239,132	53,009	0,085	0,059
-238,117	-97,968	0,104	-0,019
-237,103	332,714	-0,026	-0,036
-236,088	-200,000	-0,008	-0,031
-235,073	-200,000	0,006	-0,082
-234,059	242,329	0,101	0,123
-233,044	-200,000	-0,020	0,218
-232,030	292,866	-0,043	0,057
-231,015	-97,916	-0,120	-0,022
-230,000	800,000	-0,040	-0,095
-228,986	245,589	-0,040	-0,049
-227,971	176,872	-0,038	0,040
-226,957	51,805	0,091	0,063
-225,942	611,822	0,045	0,083
-224,927	-75,907	-0,062	0,016
-223,913	88,217	-0,065	0,053
-222,898	159,408	-0,038	-0,038
-221,884	-200,000	-0,006	-0,049
-220,869	-122,542	0,090	-0,010
-219,855	-155,572	-0,064	-0,003
-218,840	37,226	0,022	-0,014
-217,825	102,039	-0,063	0,053
-216,811	189,570	-0,092	-0,100
-215,796	-103,514	0,026	-0,004
-214,782	-62,573	0,038	-0,011
-213,767	406,723	-0,037	-0,058
-212,752	-200,000	-0,003	0,040
-211,738	-200,000	0,022	0,081
-210,723	43,444	0,056	0,037
-209,709	800,000	0,039	0,103
-208,694	-99,626	0,008	-0,002
-207,679	23,886	0,082	0,049
-206,665	800,000	0,054	0,147
-205,650	800,000	-0,023	-0,064
-204,636	39,841	-0,060	-0,039
-203,621	-136,841	-0,105	0,009
-202,606	19,208	-0,119	-0,069
-201,592	800,000	-0,028	-0,086
-200,577	42,398	0,082	-0,054
-199,563	2,110	-0,078	-0,041
-198,548	-200,000	-0,028	0,162
-197,533	520,508	-0,006	0,011
-196,519	-200,000	0,001	0,065
-195,504	800,000	0,069	0,147
-194,490	-52,594	-0,030	-0,010
-193,475	225,622	-0,017	-0,021
-192,460	-65,746	0,077	0,022
-191,446	455,933	-0,041	0,066
-190,431	-200,000	0,009	-0,059
-189,417	272,477	0,020	-0,026
-188,402	-45,643	-0,060	0,021
-187,387	-200,000	0,020	0,117
-186,373	-200,000	-0,097	-0,000
-185,358	800,000	0,041	0,088
-184,344	-105,854	0,082	0,013
-183,329	-79,678	0,069	-0,017
-182,315	-200,000	0,004	0,136
-181,300	-200,000	-0,016	0,069
-180,285	122,136	-0,165	-0,150
-179,271	-115,862	-0,110	0,015
-178,256	36,607	0,065	-0,042
-177,242	-136,968	0,132	-0,011
-176,227	-200,000	0,015	-0,067
-175,212	-56,140	-0,068	-0,022
-174,198	-200,000	0,042	-0,137
-173,183	800,000	-0,027	-0,067
-172,169	-50,145	0,067	0,023
-171,154	-200,000	-0,007	-0,074
-170,139	-91,987	0,073	0,015
-169,125	174,066	0,036	0,038
-168,110	-24,243	-0,013	0,006
-167,096	-14,693	0,124	0,058
-166,081	-39,885	-0,139	-0,052
-165,066	344,323	-0,122	0,174
-164,052	-47,596	0,047	-0,016
-163,037	-200,000	-0,006	-0,068
-162,023	-158,965	-0,099	0,004
-161,008	84,483	0,128	0,102
-159,993	-200,000	0,005	-0,060
-158,979	228,762	0,101	-0,120
-157,964	29,333	-0,101	-0,062
-156,950	75,113	0,067	-0,051
-155,935	116,985	-0,120	-0,107
-154,920	-200,000	0,034	-0,122
-153,906	-200,000	0,002	0,057
-152,891	24,510	-0,101	-0,060
-151,877	800,000	0,022	-0,062
-150,862	120,455	0,033	-0,030
-149,847	100,765	-0,057	0,048
-148,833	54,852	0,069	-0,048
-147,818	800,000	0,027	0,071
-146,804	619,745	0,057	0,104
-145,789	-174,370	-0,121	-0,002
-144,775	295,251	-0,130	-0,173
-143,760	-14,776	0,059	0,027
-142,745	-200,000	0,002	-0,041
-141,731	306,559	0,072	-0,097
-140,716	446,141	0,045	0,071
-139,702	-20,137	0,043	0,019
-138,687	452,788	-0,053	0,085
-137,672	-200,000	0,008	-0,028
-136,658	-114,974	-0,140	-0,019
-135,643	-200,000	-0,007	-0,071
-134,629	-200,000	0,009	-0,139
-133,614	800,000	-0,022	0,059
-132,599	183,723	0,036	-0,039
-131,585	367,559	0,068	0,099
-130,570	397,783	-0,028	-0,043
-129,556	-13,637	-0,067	0,031
-128,541	-200,000	0,010	0,052
-127,526	107,771	-0,058	0,050
-126,512	800,000	0,052	-0,109
-125,497	-52,203	0,053	-0,018
-124,483	-139,239	-0,098	-0,008
-123,468	-58,725	0,109	0,034
-122,453	-91,940	-0,126	0,026
-121,439	298,001	0,074	0,099
-120,424	-200,000	-0,009	-0,143
-119,410	-137,363	-0,028	-0,002
