DTS Sentinel unit serial number:	SN410029Multiplexer serial number:	ORYXHardware model number:	OX2-SRSoftware version number:	ORYX F/W v4,00 Oryx Data Collector v3.7.2.0data status	okinstallation	B6 Nyhavnadifferential loss correction	single-endedforward channel	channel 2reverse channel	N/Adate	2023/12/08time	00:45:08forward acquisition time	300,00reverse acquisition time	0,00gamma	499,1914k internal	0,3165k external	0,3165temperature offset calibration	1,0000default loss term (dB/km)	0,3820temperature slope calibration	1,0000multiplexer offset coefficient	1,0000multiplexer slope coefficient	1,0000fibre end	0,00T internal ref (°C)	13,30T ext. ref 1 (°C)	-3,61T ext. ref 2 (°C)	-3,59length (m)	temperature (°C)	Stokes	anti-Stokes-744,400	800,000	0,014	0,033
-743,385	-164,445	-0,394	-0,013
-742,371	-60,598	0,211	0,065
-741,356	-77,202	-0,271	-0,069
-740,342	-12,614	0,128	0,061
-739,327	-40,566	-0,249	-0,095
-738,312	80,361	0,078	0,061
-737,298	-79,636	-0,279	-0,069
-736,283	3,694	0,231	0,124
-735,269	-110,353	-0,235	-0,036
-734,254	39,557	0,100	0,066
-733,239	-130,680	-0,597	-0,058
-732,225	14,063	0,246	0,140
-731,210	-200,000	0,011	-0,049
-730,196	-110,666	0,066	-0,010
-729,181	-200,000	-0,003	0,023
-728,167	-109,574	-0,163	-0,025
-727,152	206,319	0,033	-0,038
-726,137	634,051	0,040	0,074
-725,123	291,920	-0,066	-0,089
-724,108	-200,000	-0,050	-0,165
-723,094	315,791	-0,124	-0,173
-722,079	-107,571	0,064	-0,010
-721,064	-18,244	-0,061	0,028
-720,050	800,000	-0,046	0,104
-719,035	-69,131	-0,101	-0,028
-718,021	-73,519	-0,157	-0,042
-717,006	-26,135	-0,115	0,049
-715,991	-200,000	-0,003	-0,156
-714,977	800,000	0,045	-0,137
-713,962	-103,399	0,055	0,009
-712,948	-200,000	0,000	0,065
-711,933	332,451	0,114	-0,162
-710,918	45,389	0,015	0,010
-709,904	-200,000	-0,011	-0,123
-708,889	54,823	-0,148	-0,105
-707,875	-200,000	0,045	-0,212
-706,860	612,318	0,086	-0,159
-705,845	-122,419	0,166	-0,020
-704,831	247,943	0,043	0,054
-703,816	31,868	0,079	0,050
-702,802	-200,000	0,000	0,059
-701,787	729,096	0,028	-0,054
-700,772	444,507	-0,061	-0,098
-699,758	54,610	0,142	-0,100
-698,743	-76,337	0,047	-0,012
-697,729	-145,552	-0,072	0,005
-696,714	-200,000	0,031	0,106
-695,699	791,792	-0,022	-0,044
-694,685	-200,000	-0,012	-0,061
-693,670	-200,000	0,015	-0,085
-692,656	-200,000	0,011	-0,039
-691,641	28,104	0,050	0,031
-690,627	327,881	0,024	0,034
-689,612	-122,337	0,098	-0,012
-688,597	-80,039	0,084	-0,020
-687,583	-43,445	-0,125	0,046
-686,568	-69,114	0,015	0,004
-685,554	-151,078	-0,096	0,005
-684,539	86,507	0,013	0,011
-683,524	406,335	0,053	0,082
-682,510	0,578	-0,057	-0,030
-681,495	800,000	0,069	-0,149
-680,481	-157,975	0,091	-0,004
-679,466	675,828	-0,061	-0,117
-678,451	604,503	-0,019	0,035
-677,437	-72,111	0,145	0,039
-676,422	800,000	0,021	0,051
-675,408	-82,433	-0,126	0,030
-674,393	-27,444	-0,028	0,012
-673,378	-200,000	-0,015	-0,075
-672,364	-70,814	-0,010	0,003
-671,349	-200,000	-0,011	-0,053
-670,335	800,000	0,049	-0,107
-669,320	-62,604	-0,061	0,019
-668,305	448,759	-0,036	0,059
-667,291	-200,000	0,032	0,110
-666,276	-48,510	-0,095	-0,033
-665,262	29,221	0,124	-0,077
-664,247	92,369	-0,039	-0,032
-663,232	265,484	0,013	-0,017
-662,218	800,000	-0,053	0,131
-661,203	-200,000	0,024	0,101
-660,189	-141,759	0,115	-0,008
-659,174	-200,000	0,008	-0,080
-658,159	244,643	-0,040	-0,050
-657,145	-200,000	0,011	-0,154
-656,130	-200,000	0,004	0,077
-655,116	800,000	0,010	-0,023
-654,101	340,573	0,031	-0,044
-653,086	366,735	0,043	0,064
-652,072	11,769	-0,075	-0,042
-651,057	-126,108	-0,120	0,013
-650,043	-40,836	0,021	0,008
-649,028	-11,532	-0,097	0,047
-648,014	429,036	0,044	0,070
-646,999	-200,000	0,006	-0,070
-645,984	256,512	0,062	0,078
-644,970	796,466	0,032	-0,064
-643,955	323,798	-0,089	0,124
-642,941	-34,736	-0,117	0,046
-641,926	257,475	-0,069	-0,087
-640,911	-200,000	0,008	0,032
-639,897	800,000	0,030	0,089
-638,882	-200,000	-0,003	0,121
-637,868	-71,762	0,054	0,015
-636,853	-200,000	0,001	0,027
-635,838	-133,685	-0,110	0,010
-634,824	67,846	0,031	-0,023
-633,809	-200,000	0,008	0,064
-632,795	-200,000	0,025	0,099
-631,780	-1,177	0,049	-0,025
-630,765	-119,557	0,061	-0,008
-629,751	-3,871	-0,094	-0,048
-628,736	100,444	-0,099	0,084
-627,722	184,581	-0,095	-0,104
-626,707	-93,435	0,064	0,013
-625,692	800,000	0,045	0,106
-624,678	-176,684	0,140	-0,003
-623,663	-190,871	-0,101	-0,001
-622,649	-200,000	-0,017	0,071
-621,634	-110,569	-0,059	0,009
-620,619	-8,694	-0,040	0,020
-619,605	-200,000	0,004	-0,049
-618,590	-200,000	-0,026	0,115
-617,576	-200,000	0,001	0,169
-616,561	-200,000	0,016	0,078
-615,546	96,652	-0,050	-0,042
-614,532	800,000	-0,046	-0,095
-613,517	202,393	-0,060	0,067
-612,503	800,000	0,049	-0,136
-611,488	-200,000	-0,035	0,298
-610,474	-200,000	-0,004	-0,104
-609,459	800,000	0,045	-0,106
-608,444	128,236	0,150	0,140
-607,430	131,061	0,062	-0,058
-606,415	-106,389	-0,130	-0,021
-605,401	-200,000	0,024	0,137
-604,386	258,444	-0,015	0,019
-603,371	455,267	-0,028	-0,045
-602,357	-200,000	-0,020	-0,103
-601,342	800,000	0,033	-0,082
-600,328	441,680	-0,061	-0,098
-599,313	-37,338	0,076	0,029
-598,298	81,607	-0,060	-0,047
-597,284	106,193	0,096	-0,083
-596,269	356,201	0,061	0,089
-595,255	187,082	0,018	-0,020
-594,240	-120,620	-0,045	0,006
-593,225	-77,179	-0,061	-0,015
-592,211	39,218	0,024	0,016
-591,196	-80,090	-0,047	-0,011
-590,182	-48,088	-0,099	-0,035
-589,167	516,409	0,067	0,115
-588,152	235,647	0,057	0,069
-587,138	231,085	-0,095	0,114
-586,123	-200,000	-0,029	-0,140
-585,109	-132,972	-0,117	-0,011
-584,094	-6,186	-0,069	-0,035
-583,079	284,450	0,063	-0,082
-582,065	66,018	0,045	0,033
-581,050	175,136	0,034	0,036
-580,036	-56,642	-0,200	0,064
-579,021	-200,000	-0,018	-0,076
-578,006	344,507	-0,075	-0,108
-576,992	-200,000	0,017	-0,152
-575,977	-200,000	0,025	0,102
-574,963	-101,136	0,121	0,021
-573,948	800,000	0,025	0,067
-572,934	60,353	-0,025	-0,018
-571,919	771,815	0,052	-0,104
-570,904	-99,216	-0,130	0,024
-569,890	138,126	0,182	-0,174
-568,875	-200,000	0,013	-0,069
-567,861	335,507	0,089	-0,127
-566,846	-200,000	-0,014	0,117
-565,831	-66,676	-0,117	0,034
-564,817	62,262	0,093	-0,068
-563,802	-54,007	-0,058	0,019
-562,788	253,158	-0,039	-0,048
-561,773	375,699	0,067	0,099
-560,758	545,200	-0,065	0,114
-559,744	-30,629	-0,037	0,015
-558,729	84,440	0,063	0,051
-557,715	210,413	0,076	-0,087
-556,700	-200,000	0,028	-0,128
-555,685	-100,329	0,046	-0,008
-554,671	138,641	0,049	0,047
-553,656	94,136	0,120	0,099
-552,642	-58,234	0,022	-0,007
-551,627	116,086	-0,047	-0,042
-550,612	113,653	-0,023	-0,021
-549,598	-114,648	-0,027	0,004
-548,583	-200,000	0,011	-0,107
-547,569	-72,140	0,122	0,033
-546,554	291,273	-0,023	-0,030
-545,539	59,047	0,055	0,039
-544,525	-78,673	0,089	-0,022
-543,510	9,891	0,050	0,027
-542,496	292,037	-0,059	0,079
-541,481	-200,000	0,004	-0,042
-540,466	20,820	0,028	0,017
-539,452	-167,553	0,100	0,003
-538,437	33,886	-0,046	0,029
-537,423	-105,492	-0,024	-0,004
-536,408	208,032	-0,142	0,162
-535,393	-171,504	-0,070	0,002
-534,379	-200,000	0,020	0,107
-533,364	568,931	0,027	-0,048
-532,350	-200,000	-0,000	0,004
-531,335	-200,000	-0,004	-0,111
-530,321	459,373	0,065	-0,106
-529,306	800,000	-0,040	-0,085
-528,291	57,067	-0,071	0,050
-527,277	800,000	-0,044	-0,131
-526,262	224,748	0,036	0,043
-525,248	-200,000	0,023	0,181
-524,233	493,668	0,067	-0,113
-523,218	232,617	0,090	-0,108
-522,204	-200,000	0,006	0,063
-521,189	-70,924	-0,234	0,064
-520,175	-200,000	-0,028	0,095
-519,160	-10,659	0,102	-0,049
-518,145	800,000	0,014	-0,029
-517,131	-200,000	0,048	0,226
-516,116	259,845	0,095	0,120
-515,102	552,343	0,024	-0,043
-514,087	-200,000	0,008	-0,073
-513,072	800,000	-0,048	0,115
-512,058	800,000	0,028	-0,060
-511,043	-200,000	0,050	-0,194
-510,029	40,672	-0,091	-0,060
-509,014	-200,000	-0,013	-0,102
-507,999	-200,000	-0,013	0,086
-506,985	-177,345	-0,096	-0,002
-505,970	355,968	0,101	-0,147
-504,956	28,230	-0,027	0,016
-503,941	-158,760	-0,087	0,004
-502,926	212,608	-0,028	0,033
-501,912	-7,677	0,079	-0,039
-500,897	-158,057	0,163	-0,007
-499,883	-26,442	-0,110	0,047
-498,868	-21,835	-0,066	-0,029
-497,853	128,947	-0,095	0,088
-496,839	-200,000	0,008	-0,031
-495,824	267,308	-0,082	-0,105
-494,810	-200,000	0,039	0,131
-493,795	800,000	0,020	0,058
-492,781	35,418	-0,114	0,073
-491,766	124,488	-0,056	-0,052
-490,751	-200,000	0,011	0,053
-489,737	-200,000	-0,000	0,054
-488,722	-149,249	0,116	-0,007
-487,708	800,000	-0,069	0,141
-486,693	-70,215	0,105	0,029
-485,678	685,895	0,074	-0,141
-484,664	99,817	-0,070	-0,059
-483,649	-79,501	0,085	0,021
-482,635	-130,812	-0,027	-0,003
-481,620	48,601	-0,014	0,010
-480,605	435,363	0,046	0,073
-479,591	-200,000	-0,018	0,095
-478,576	53,883	-0,042	-0,029
-477,562	233,147	-0,020	-0,024
-476,547	-98,045	-0,137	-0,025
-475,532	667,732	0,026	-0,048
-474,518	569,708	0,028	-0,050
-473,503	108,695	0,111	0,097
-472,489	-105,680	0,165	0,027
-471,474	-58,007	0,042	-0,013
-470,459	-168,568	-0,042	-0,001
-469,445	800,000	0,040	-0,094
-468,430	541,506	-0,118	-0,206
-467,416	-31,463	0,063	-0,025
-466,401	-149,948	0,120	0,007
-465,386	329,102	-0,136	0,191
-464,372	-200,000	-0,005	0,075
-463,357	18,495	-0,054	-0,031
-462,343	800,000	-0,011	-0,028
-461,328	131,474	-0,103	-0,097
-460,313	-200,000	-0,010	-0,108
-459,299	-200,000	0,010	0,068
-458,284	196,028	-0,038	0,042
-457,270	-77,677	-0,122	0,031
-456,255	655,470	0,073	0,137
-455,241	800,000	-0,062	-0,142
-454,226	221,763	-0,100	-0,117
-453,211	77,250	0,080	-0,061
-452,197	-81,301	-0,115	0,027
-451,182	-200,000	-0,004	0,029
-450,168	288,623	-0,098	-0,129
-449,153	800,000	-0,052	-0,156
-448,138	73,676	-0,116	-0,088
-447,124	322,873	-0,098	-0,136
-446,109	800,000	0,053	0,122
-445,095	23,247	0,100	0,060
-444,080	442,945	-0,053	0,085
-443,065	-190,235	0,097	0,001
-442,051	-122,026	0,044	0,005
-441,036	77,980	-0,054	-0,042
-440,022	-25,452	-0,195	-0,084
-439,007	-162,534	0,132	0,005
-437,992	498,268	0,027	-0,045
-436,978	-112,031	0,028	-0,004
-435,963	800,000	0,059	0,179
-434,949	800,000	0,043	0,117
-433,934	-89,132	-0,020	0,004
-432,919	535,685	-0,016	0,028
-431,905	800,000	0,046	-0,100
-430,890	800,000	0,044	-0,127
-429,876	297,969	0,110	0,147
-428,861	-200,000	-0,022	0,079
-427,846	-200,000	-0,007	0,056
-426,832	73,603	0,015	0,011
-425,817	-22,165	-0,105	-0,046
-424,803	-200,000	0,036	-0,136
-423,788	-192,237	-0,054	0,000
-422,773	372,909	0,145	0,214
-421,759	-200,000	-0,051	0,198
-420,744	497,505	-0,087	0,146
-419,730	-61,452	-0,192	0,058
-418,715	-183,791	0,090	0,001
-417,701	184,136	-0,034	0,036
-416,686	78,847	0,058	-0,045
-415,671	-200,000	-0,020	0,107
-414,657	108,099	0,092	0,080
-413,642	-200,000	-0,012	-0,042
-412,628	-88,754	-0,064	-0,014
-411,613	-119,684	-0,036	0,004
-410,598	237,997	-0,042	-0,051
-409,584	89,799	0,027	-0,022
-408,569	800,000	0,008	0,020
-407,555	221,998	-0,093	0,109
-406,540	109,811	0,033	-0,029
-405,525	-200,000	-0,021	0,117
-404,511	-145,688	-0,108	0,007
-403,496	172,889	0,013	0,014
-402,482	323,609	-0,095	-0,132
-401,467	-59,331	0,158	-0,049
-400,452	-70,186	0,071	0,019
-399,438	42,315	0,169	0,111
-398,423	579,454	-0,058	0,103
-397,409	61,435	-0,112	-0,081
-396,394	36,070	-0,141	-0,090
-395,379	157,269	0,071	-0,071
-394,365	-29,753	-0,144	0,059
-393,350	324,191	0,095	0,131
-392,336	-200,000	0,024	0,108
-391,321	800,000	-0,041	-0,108
-390,306	346,027	-0,038	-0,054
-389,292	-173,205	-0,051	0,001
-388,277	-107,725	0,044	0,007
-387,263	800,000	0,059	-0,152
-386,248	-13,474	-0,094	-0,044
-385,233	421,440	0,058	0,091
-384,219	442,407	0,019	-0,031
-383,204	-132,016	-0,093	-0,009
-382,190	-112,166	-0,112	0,016
-381,175	-200,000	0,018	0,071
-380,160	-200,000	0,015	-0,109
-379,146	-200,000	0,058	0,231
-378,131	800,000	0,019	-0,054
-377,117	724,071	-0,052	0,101
-376,102	138,523	-0,096	-0,092
-375,088	-200,000	-0,009	-0,141
-374,073	-200,000	-0,011	0,048
-373,058	-200,000	0,027	0,144
-372,044	-117,500	0,114	-0,015
-371,029	-183,260	0,020	0,000
-370,015	-25,880	-0,081	0,034
-369,000	122,487	-0,037	-0,033
-367,985	800,000	-0,021	0,068
-366,971	-200,000	-0,011	-0,171
-365,956	-88,941	0,036	-0,008
-364,942	-200,000	-0,005	-0,052
-363,927	-109,681	-0,033	0,005
-362,912	55,212	-0,073	0,051
-361,898	-200,000	0,006	-0,021
-360,883	-200,000	0,008	-0,055
-359,869	255,364	0,052	-0,065
-358,854	34,234	0,118	0,075
-357,839	-93,121	0,121	0,024
-356,825	186,630	0,067	0,072
-355,810	-200,000	-0,052	0,177
-354,796	41,238	-0,036	-0,024
-353,781	167,272	-0,034	-0,035
-352,766	-143,972	-0,107	-0,007
-351,752	678,693	0,017	0,032
-350,737	20,309	-0,023	0,014
-349,723	-166,729	-0,096	-0,003
-348,708	67,654	-0,027	-0,020
-347,693	52,180	-0,099	-0,068
-346,679	-200,000	-0,009	0,031
-345,664	-81,080	0,030	-0,007
-344,650	94,498	-0,094	-0,077
-343,635	800,000	0,070	-0,159
-342,620	363,652	0,073	0,107
-341,606	-200,000	-0,020	0,117
-340,591	15,709	-0,107	0,061
-339,577	7,181	0,054	0,029
-338,562	75,482	-0,103	-0,079
-337,548	800,000	-0,018	0,040
-336,533	-119,068	0,067	0,008
-335,518	-200,000	0,014	0,055
-334,504	234,612	0,074	0,089
-333,489	17,343	-0,104	-0,060
-332,475	176,557	-0,015	-0,015
-331,460	165,191	-0,099	-0,101
-330,445	-75,526	0,178	-0,045
-329,431	463,601	0,088	0,142
-328,416	0,029	0,077	0,040
-327,402	-72,994	0,030	0,008
-326,387	235,881	-0,119	0,143
-325,372	-200,000	-0,003	0,081
-324,358	-200,000	0,017	-0,085
-323,343	800,000	0,012	-0,037
-322,329	-200,000	-0,020	0,070
-321,314	204,310	0,145	0,163
-320,299	150,945	0,041	-0,041
-319,285	-82,438	0,041	0,010
-318,270	-159,881	-0,110	-0,004
-317,256	-96,806	-0,157	-0,030
-316,241	286,938	0,030	0,039
-315,226	-21,007	0,099	-0,044
-314,212	-200,000	0,082	0,000
-313,197	-32,442	-0,142	-0,057
-312,183	-71,143	0,131	-0,035
-311,168	167,746	-0,064	-0,066
-310,153	134,334	-0,089	0,084
-309,139	-200,000	-0,002	-0,027
-308,124	800,000	0,075	0,168
-307,110	-44,699	0,078	0,028
-306,095	192,375	-0,060	-0,065
-305,080	28,984	-0,042	0,026
-304,066	-35,813	0,155	-0,060
-303,051	-50,188	-0,173	0,059
-302,037	-200,000	0,001	-0,048
-301,022	119,886	-0,136	0,122
-300,008	-96,265	0,124	-0,024
-298,993	-200,000	0,029	0,126
-297,978	-83,669	0,102	-0,023
-296,964	-150,934	-0,074	0,004
-295,949	332,245	0,094	-0,131
-294,935	58,705	0,045	0,032
-293,920	800,000	-0,021	0,051
-292,905	-75,895	0,111	0,028
-291,891	-200,000	-0,028	0,122
-290,876	-200,000	-0,004	-0,051
-289,862	160,146	-0,068	-0,068
-288,847	-200,000	0,026	-0,105
-287,832	-200,000	-0,059	-0,225
-286,818	-200,000	-0,006	0,041
-285,803	800,000	-0,046	0,122
-284,789	-24,170	-0,046	-0,020
-283,774	620,460	-0,040	0,073
-282,759	-163,914	-0,098	0,003
-281,745	-49,661	-0,075	-0,026
-280,730	-200,000	0,007	-0,185
-279,716	751,665	-0,020	0,040
-278,701	-27,081	0,192	-0,081
-277,686	800,000	0,016	0,033
-276,672	-200,000	-0,011	0,073
-275,657	136,806	0,077	0,073
-274,643	-117,952	-0,091	-0,012
-273,628	124,104	-0,042	-0,038
-272,613	38,402	-0,120	0,077
-271,599	-200,000	0,020	0,067
-270,584	-124,494	-0,052	-0,006
-269,570	-38,838	0,146	-0,055
-268,555	229,426	-0,126	0,149
-267,540	449,252	0,064	-0,102
-266,526	-11,051	-0,095	0,045
-265,511	800,000	-0,044	-0,091
-264,497	-200,000	0,025	-0,106
-263,482	-10,697	-0,078	-0,037
-262,467	45,169	0,075	0,050
-261,453	-91,569	-0,081	-0,017
-260,438	37,006	0,021	-0,013
-259,424	-27,560	0,077	0,032
-258,409	-136,148	-0,105	0,009
-257,395	-200,000	0,013	0,054
-256,380	557,441	0,067	0,116
-255,365	315,494	-0,037	0,050
-254,351	406,115	0,042	-0,064
-253,336	-82,381	-0,094	-0,022
-252,322	716,895	-0,039	-0,075
-251,307	-200,000	-0,018	-0,113
-250,292	50,982	0,113	0,077
-249,278	-200,000	0,017	0,057
-248,263	-200,000	-0,012	0,069
-247,249	14,522	0,115	0,065
-246,234	61,532	0,114	0,082
-245,219	-200,000	-0,011	-0,104
-244,205	78,406	-0,053	0,041
-243,190	-174,641	0,083	0,002
-242,176	313,455	0,060	0,081
-241,161	-200,000	0,018	-0,112
-240,146	-80,206	-0,082	0,020
-239,132	76,397	0,018	-0,014
-238,117	716,855	0,053	-0,102
-237,103	800,000	-0,074	-0,193
-236,088	-200,000	-0,021	-0,115
-235,073	186,840	0,108	0,116
-234,059	-200,000	0,032	-0,143
-233,044	141,681	-0,069	0,066
-232,030	-200,000	-0,013	-0,151
-231,015	134,582	-0,008	-0,008
-230,000	13,434	0,066	-0,037
-228,986	-200,000	-0,003	0,062
-227,971	-200,000	0,005	0,149
-226,957	-200,000	0,051	0,183
-225,942	9,435	0,188	-0,102
-224,927	735,654	-0,070	0,136
-223,913	235,653	-0,130	-0,155
-222,898	679,596	0,074	-0,140
-221,884	800,000	0,046	-0,115
-220,869	-200,000	-0,004	0,025
-219,855	-97,950	0,177	-0,033
-218,840	800,000	-0,058	0,159
-217,825	800,000	-0,015	0,040
-216,811	275,545	-0,135	-0,173
-215,796	254,413	0,093	-0,115
-214,782	285,927	0,043	-0,056
-213,767	-200,000	-0,002	-0,030
-212,752	180,956	0,020	-0,021
-211,738	-128,059	0,147	-0,015
-210,723	-8,497	0,067	0,032
-209,709	-200,000	-0,019	-0,114
-208,694	-5,662	-0,097	-0,048
-207,679	-200,000	0,028	-0,092
-206,665	485,614	0,024	-0,040
-205,650	-200,000	0,024	0,095
-204,636	-152,623	0,148	0,007
-203,621	-200,000	-0,009	0,122
-202,606	-12,249	0,126	-0,059
-201,592	-134,040	-0,133	0,012
-200,577	230,588	0,041	0,048
-199,563	-113,619	0,143	0,020
-198,548	323,418	-0,116	-0,160
-197,533	107,722	0,045	0,039
-196,519	461,890	-0,043	0,069
-195,504	-62,696	-0,015	-0,005
-194,490	-5,785	-0,064	-0,031
-193,475	148,305	-0,057	-0,056
-192,460	-49,147	-0,030	-0,010
-191,446	-60,675	0,203	-0,062
-190,431	33,550	-0,054	-0,034
-189,417	800,000	0,038	0,091
-188,402	-92,000	0,065	0,013
-187,387	-200,000	0,007	-0,028
-186,373	-18,104	0,056	0,025
-185,358	-58,838	0,088	-0,027
-184,344	104,734	0,105	-0,089
-183,329	-36,401	0,074	0,029
-182,315	218,170	-0,041	-0,047
-181,300	-200,000	0,004	0,058
-180,285	-200,000	-0,000	-0,061
-179,271	-200,000	0,003	0,117
-178,256	-200,000	-0,008	-0,048
-177,242	9,085	0,118	-0,064
-176,227	38,299	0,075	0,048
-175,212	205,020	-0,003	0,003
-174,198	37,953	0,054	-0,034
-173,183	-200,000	0,026	-0,088
-172,169	-61,125	-0,108	0,033
-171,154	800,000	0,025	-0,052
-170,139	490,249	-0,015	0,024
-169,125	-25,834	0,141	-0,059
-168,110	-68,222	-0,106	0,030
-167,096	-200,000	0,005	0,046
-166,081	-200,000	-0,028	-0,106
-165,066	67,343	-0,166	-0,122
-164,052	-200,000	0,003	-0,077
-163,037	-72,909	0,092	-0,024
-162,023	-200,000	-0,033	-0,137
-161,008	3,028	-0,058	-0,030
-159,993	-77,302	0,029	-0,007
-158,979	122,737	-0,053	0,048
-157,964	133,136	0,050	-0,047
-156,950	-64,194	-0,123	0,036
-155,935	-59,776	0,036	-0,011
-154,920	88,255	0,067	-0,054
-153,906	783,809	0,020	0,039
-152,891	800,000	0,071	-0,142
-151,877	128,624	-0,056	-0,052
-150,862	800,000	-0,033	-0,085
-149,847	-200,000	0,022	-0,136
-148,833	132,010	0,030	0,027
-147,818	-200,000	0,014	-0,111
-146,804	-72,209	-0,043	-0,011
-145,789	19,092	0,079	0,045
-144,775	663,552	-0,061	-0,114
-143,760	-200,000	-0,002	-0,125
-142,745	-29,837	-0,099	0,040
-141,731	46,898	-0,028	0,019
-140,716	-19,113	-0,039	-0,017
-139,702	-200,000	-0,004	0,137
-138,687	800,000	0,032	0,091
-137,672	-200,000	0,020	-0,103
-136,658	-200,000	0,018	-0,089
-135,643	50,590	-0,090	0,061
-134,629	603,437	0,035	0,062
-133,614	800,000	0,003	0,007
-132,599	103,879	-0,060	0,051
-131,585	-103,776	0,128	-0,021
-130,570	458,007	-0,137	0,220
-129,556	-48,498	-0,141	0,048
-128,541	-181,312	-0,109	0,002
-127,526	112,165	0,135	-0,117
-126,512	-200,000	0,006	-0,150
-125,497	316,246	0,018	0,024
-124,483	331,909	0,111	-0,155
-123,468	722,070	0,028	0,054
-122,453	-78,038	-0,128	-0,031
-121,439	-95,647	-0,144	0,027
-120,424	21,370	-0,100	-0,058
-119,410	71,853	0,139	0,104
