DTS Sentinel unit serial number:	SN410029Multiplexer serial number:	ORYXHardware model number:	OX2-SRSoftware version number:	ORYX F/W v4,00 Oryx Data Collector v3.7.2.0data status	okinstallation	B6 Nyhavnadifferential loss correction	single-endedforward channel	channel 2reverse channel	N/Adate	2023/12/07time	23:20:08forward acquisition time	300,00reverse acquisition time	0,00gamma	499,1914k internal	0,3164k external	0,3164temperature offset calibration	1,0000default loss term (dB/km)	0,3820temperature slope calibration	1,0000multiplexer offset coefficient	1,0000multiplexer slope coefficient	1,0000fibre end	0,00T internal ref (°C)	13,47T ext. ref 1 (°C)	-3,49T ext. ref 2 (°C)	-3,48length (m)	temperature (°C)	Stokes	anti-Stokes-744,400	-89,199	0,063	0,014
-743,385	-91,158	-0,137	0,029
-742,371	393,381	0,092	0,142
-741,356	-130,546	-0,329	0,032
-740,342	167,563	0,095	0,100
-739,327	-157,909	-0,426	-0,018
-738,312	78,271	0,081	-0,063
-737,298	-53,938	-0,313	0,104
-736,283	93,205	0,096	-0,080
-735,269	-92,684	-0,321	-0,066
-734,254	48,975	0,131	0,090
-733,239	-15,531	-0,537	-0,251
-732,225	-59,180	0,314	-0,099
-731,210	120,554	-0,165	-0,150
-730,196	687,539	-0,011	-0,021
-729,181	24,721	-0,056	0,034
-728,167	122,315	-0,046	0,043
-727,152	-1,869	-0,218	0,112
-726,137	40,267	-0,044	0,029
-725,123	800,000	0,015	-0,043
-724,108	271,199	-0,084	-0,109
-723,094	-190,379	-0,174	-0,001
-722,079	-200,000	-0,022	-0,117
-721,064	-3,511	0,080	-0,041
-720,050	8,705	0,109	0,060
-719,035	45,863	-0,034	-0,023
-718,021	800,000	-0,061	-0,152
-717,006	-120,957	-0,059	-0,007
-715,991	-48,536	-0,002	-0,001
-714,977	93,239	-0,030	-0,025
-713,962	-200,000	-0,074	-0,278
-712,948	800,000	-0,035	-0,074
-711,933	-200,000	0,016	-0,098
-710,918	-200,000	0,034	-0,166
-709,904	-2,900	0,046	-0,024
-708,889	-200,000	0,022	-0,076
-707,875	-200,000	0,003	-0,023
-706,860	800,000	-0,045	-0,098
-705,845	738,022	-0,026	0,051
-704,831	-200,000	-0,011	0,070
-703,816	4,477	-0,022	0,012
-702,802	800,000	-0,036	-0,111
-701,787	329,692	-0,049	-0,070
-700,772	170,968	0,104	-0,109
-699,758	326,926	-0,016	-0,023
-698,743	349,636	-0,050	0,072
-697,729	-175,510	0,127	0,002
-696,714	423,841	-0,020	-0,031
-695,699	116,511	-0,016	0,015
-694,685	800,000	-0,028	-0,064
-693,670	800,000	-0,017	0,037
-692,656	7,498	-0,106	-0,058
-691,641	-31,249	-0,039	0,016
-690,627	252,053	0,081	0,101
-689,612	-139,670	0,081	0,006
-688,597	-200,000	-0,007	-0,135
-687,583	-200,000	-0,048	-0,212
-686,568	104,071	-0,083	0,071
-685,554	-200,000	-0,018	0,121
-684,539	124,193	-0,076	-0,070
-683,524	398,533	-0,094	-0,145
-682,510	26,777	0,024	-0,015
-681,495	250,507	-0,052	-0,064
-680,481	-60,770	-0,172	0,053
-679,466	-200,000	-0,001	0,023
-678,451	719,138	-0,010	-0,019
-677,437	-137,221	0,110	0,009
-676,422	79,687	-0,053	0,042
-675,408	-4,280	0,142	0,072
-674,393	252,808	-0,070	-0,088
-673,378	-73,503	0,063	-0,017
-672,364	2,659	-0,114	0,060
-671,349	-200,000	0,007	-0,040
-670,335	-200,000	-0,015	0,099
-669,320	800,000	0,114	0,250
-668,305	-200,000	-0,000	-0,178
-667,291	382,763	0,028	-0,042
-666,276	365,375	0,022	-0,033
-665,262	-200,000	0,010	-0,071
-664,247	23,873	-0,209	0,126
-663,232	121,899	-0,038	-0,035
-662,218	184,840	-0,071	-0,077
-661,203	800,000	0,045	0,126
-660,189	21,867	-0,036	0,021
-659,174	800,000	-0,026	0,060
-658,159	11,898	-0,084	-0,047
-657,145	-49,665	0,066	-0,023
-656,130	800,000	-0,017	0,042
-655,116	114,790	-0,074	0,066
-654,101	-200,000	-0,018	0,121
-653,086	-14,004	-0,055	-0,026
-652,072	-100,117	-0,107	-0,019
-651,057	289,594	0,058	-0,077
-650,043	-200,000	0,014	-0,086
-649,028	-104,941	0,083	0,014
-648,014	-155,752	0,109	-0,005
-646,999	-11,279	-0,034	0,016
-645,984	800,000	-0,033	0,104
-644,970	800,000	0,056	-0,121
-643,955	-176,489	-0,050	-0,001
-642,941	725,054	-0,060	-0,117
-641,926	-133,595	-0,020	-0,002
-640,911	160,066	0,112	0,114
-639,897	-96,142	-0,082	-0,016
-638,882	267,363	-0,035	-0,044
-637,868	-200,000	-0,005	0,138
-636,853	-200,000	-0,027	-0,187
-635,838	-92,803	-0,028	0,006
-634,824	3,411	0,054	-0,029
-633,809	570,561	0,054	-0,097
-632,795	-84,424	-0,028	0,006
-631,780	-114,505	0,134	-0,019
-630,765	-200,000	0,033	-0,145
-629,751	-200,000	0,024	-0,143
-628,736	-106,553	-0,156	-0,025
-627,722	127,904	-0,017	0,016
-626,707	70,145	-0,066	0,050
-625,692	91,098	0,019	0,016
-624,678	800,000	-0,031	0,080
-623,663	376,699	-0,083	-0,125
-622,649	154,355	0,073	-0,073
-621,634	-73,591	-0,078	-0,021
-620,619	-172,681	-0,038	-0,001
-619,605	-200,000	-0,006	0,058
-618,590	-70,307	0,088	0,024
-617,576	-200,000	0,015	0,061
-616,561	117,059	-0,037	-0,034
-615,546	-116,990	-0,087	-0,012
-614,532	-122,536	-0,131	-0,015
-613,517	265,244	-0,114	0,146
-612,503	462,444	-0,014	-0,023
-611,488	-200,000	-0,010	0,034
-610,474	-107,809	-0,077	0,012
-609,459	-200,000	-0,020	0,106
-608,444	-87,157	-0,022	-0,005
-607,430	91,029	0,049	-0,040
-606,415	-200,000	0,003	0,053
-605,401	60,836	-0,087	-0,063
-604,386	117,437	0,038	-0,034
-603,371	-200,000	-0,090	0,000
-602,357	-200,000	0,019	0,088
-601,342	800,000	-0,006	-0,016
-600,328	-200,000	-0,002	-0,033
-599,313	800,000	0,043	-0,125
-598,298	-138,874	0,043	-0,003
-597,284	22,182	0,040	-0,024
-596,269	72,827	0,144	-0,110
-595,255	742,105	-0,043	0,085
-594,240	-101,578	0,046	-0,008
-593,225	425,958	0,061	-0,097
-592,211	186,064	0,056	0,061
-591,196	800,000	-0,015	-0,044
-590,182	335,588	0,045	0,064
-589,167	-130,109	-0,162	-0,016
-588,152	40,620	0,045	0,030
-587,138	-58,456	-0,099	-0,031
-586,123	-18,893	-0,111	-0,050
-585,109	-130,932	-0,200	-0,019
-584,094	-152,049	0,116	0,006
-583,079	132,230	0,083	-0,078
-582,065	-75,360	-0,056	0,014
-581,050	-200,000	0,025	-0,183
-580,036	116,448	-0,009	-0,008
-579,021	799,014	-0,088	-0,178
-578,006	-200,000	0,035	-0,116
-576,992	139,047	-0,094	0,091
-575,977	-101,060	0,083	0,015
-574,963	-2,023	-0,071	0,036
-573,948	17,220	-0,066	0,038
-572,934	-100,513	0,181	0,032
-571,919	38,221	-0,087	-0,057
-570,904	-47,699	0,025	0,009
-569,890	-200,000	0,034	-0,117
-568,875	-59,197	0,094	-0,029
-567,861	800,000	0,064	0,144
-566,846	574,567	0,051	0,091
-565,831	-200,000	-0,011	-0,055
-564,817	31,223	-0,035	-0,022
-563,802	-81,674	0,038	0,009
-562,788	800,000	-0,031	-0,068
-561,773	-200,000	-0,015	0,092
-560,758	198,829	-0,057	0,064
-559,744	-117,931	-0,034	-0,004
-558,729	-48,495	0,181	-0,063
-557,715	341,438	0,038	-0,054
-556,700	389,327	-0,038	-0,058
-555,685	-200,000	-0,005	-0,107
-554,671	-200,000	0,020	-0,091
-553,656	141,079	-0,054	-0,052
-552,642	536,485	-0,019	-0,033
-551,627	185,810	0,052	-0,057
-550,612	800,000	-0,060	-0,122
-549,598	132,115	-0,020	-0,019
-548,583	-200,000	0,013	0,061
-547,569	445,250	-0,016	-0,026
-546,554	32,722	0,041	0,026
-545,539	152,480	0,095	-0,095
-544,525	-200,000	-0,016	0,191
-543,510	500,212	-0,021	0,035
-542,496	-134,104	0,140	0,012
-541,481	-82,402	-0,051	0,012
-540,466	-200,000	0,025	0,150
-539,452	800,000	0,017	0,045
-538,437	-69,502	0,079	0,022
-537,423	-59,488	-0,074	0,023
-536,408	58,436	-0,064	-0,046
-535,393	-200,000	0,024	-0,092
-534,379	325,265	-0,146	-0,205
-533,364	-200,000	-0,012	-0,070
-532,350	-44,576	0,059	-0,021
-531,335	-137,578	-0,112	-0,009
-530,321	-200,000	-0,001	-0,047
-529,306	373,652	-0,023	0,034
-528,291	-138,241	-0,139	-0,011
-527,277	-200,000	-0,012	0,049
-526,262	-124,357	-0,177	0,020
-525,248	89,014	0,142	-0,115
-524,233	30,076	-0,112	0,069
-523,218	800,000	0,009	-0,023
-522,204	-51,428	0,105	0,036
-521,189	-200,000	0,034	-0,120
-520,175	43,899	-0,053	-0,035
-519,160	538,557	0,035	-0,060
-518,145	-56,877	0,122	0,039
-517,131	606,970	0,091	-0,167
-516,116	779,204	0,051	0,103
-515,102	-32,339	0,038	-0,015
-514,087	101,505	0,147	-0,124
-513,072	773,231	0,009	-0,019
-512,058	-120,690	-0,054	-0,007
-511,043	-86,816	-0,174	-0,039
-510,029	-121,295	0,075	0,009
-509,014	-200,000	-0,002	-0,050
-507,999	209,308	-0,087	0,099
-506,985	-200,000	-0,180	0,001
-505,970	-81,856	-0,069	-0,016
-504,956	-200,000	0,019	-0,064
-503,941	-200,000	-0,005	-0,036
-502,926	299,579	-0,038	-0,051
-501,912	-109,183	-0,081	-0,012
-500,897	223,710	0,033	0,039
-499,883	120,076	0,057	0,051
-498,868	-200,000	0,001	-0,056
-497,853	116,290	-0,121	0,108
-496,839	-200,000	0,001	0,036
-495,824	489,662	0,069	-0,115
-494,810	88,406	0,053	0,043
-493,795	434,570	0,054	0,086
-492,781	800,000	-0,028	0,083
-491,766	800,000	0,035	-0,084
-490,751	-169,205	0,029	-0,001
-489,737	-2,450	-0,049	-0,025
-488,722	81,347	-0,048	0,038
-487,708	483,290	0,030	-0,051
-486,693	-30,689	0,089	0,037
-485,678	25,608	0,090	-0,055
-484,664	599,929	-0,050	-0,091
-483,649	1,864	-0,128	0,067
-482,635	84,657	0,144	0,115
-481,620	430,211	0,057	0,091
-480,605	-77,457	0,127	0,032
-479,591	-200,000	0,016	0,063
-478,576	-6,760	-0,050	0,025
-477,562	-200,000	0,014	-0,079
-476,547	800,000	-0,004	-0,013
-475,532	-200,000	0,019	0,075
-474,518	274,812	0,034	0,044
-473,503	-98,213	-0,074	-0,014
-472,489	36,750	-0,045	0,029
-471,474	-6,946	0,080	-0,040
-470,459	-122,533	-0,176	-0,021
-469,445	375,598	0,070	-0,104
-468,430	-55,822	0,046	-0,015
-467,416	49,033	-0,076	-0,052
-466,401	19,259	0,163	-0,095
-465,386	-137,269	-0,071	0,006
-464,372	548,963	0,013	0,022
-463,357	-200,000	-0,007	-0,059
-462,343	117,115	0,079	0,070
-461,328	211,971	-0,040	-0,046
-460,313	95,727	0,042	0,035
-459,299	-73,633	-0,023	-0,006
-458,284	-142,186	-0,076	-0,005
-457,270	-200,000	-0,006	0,217
-456,255	800,000	0,014	0,040
-455,241	16,227	-0,136	0,078
-454,226	250,755	0,058	-0,072
-453,211	577,044	-0,014	0,024
-452,197	156,972	0,068	0,068
-451,182	800,000	-0,018	0,049
-450,168	-200,000	0,003	0,113
-449,153	-134,421	-0,084	-0,007
-448,138	-200,000	0,008	-0,029
-447,124	162,843	-0,091	-0,093
-446,109	6,615	-0,080	0,043
-445,095	-200,000	0,006	-0,030
-444,080	37,911	0,065	0,042
-443,065	781,882	-0,060	0,120
-442,051	-119,133	0,044	0,006
-441,036	144,701	0,086	-0,084
-440,022	-10,765	-0,105	-0,050
-439,007	-200,000	-0,011	0,065
-437,992	800,000	0,054	0,136
-436,978	-200,000	-0,012	0,049
-435,963	-38,148	0,149	0,057
-434,949	800,000	-0,048	0,117
-433,934	-18,888	0,011	-0,005
-432,919	132,964	-0,031	-0,029
-431,905	-156,699	-0,051	-0,002
-430,890	800,000	0,033	-0,075
-429,876	210,923	0,038	-0,044
-428,861	33,424	-0,028	-0,018
-427,846	-24,809	0,103	-0,044
-426,832	800,000	-0,033	-0,103
-425,817	-100,513	0,089	-0,016
-424,803	800,000	0,047	-0,132
-423,788	734,647	0,065	0,127
-422,773	-54,163	0,118	0,039
-421,759	-33,448	0,098	-0,039
-420,744	97,361	-0,063	-0,053
-419,730	75,405	0,040	-0,031
-418,715	-200,000	0,009	0,038
-417,701	145,376	-0,088	0,086
-416,686	-89,814	0,087	-0,018
-415,671	59,638	-0,065	0,046
-414,657	-34,368	-0,079	0,031
-413,642	200,005	0,075	0,084
-412,628	-19,483	0,125	0,056
-411,613	306,493	-0,030	-0,041
-410,598	800,000	-0,024	0,050
-409,584	-146,462	0,045	-0,003
-408,569	40,697	0,157	0,102
-407,555	216,940	-0,120	0,139
-406,540	-65,129	0,173	0,050
-405,525	-132,696	-0,137	0,013
-404,511	478,901	0,051	-0,084
-403,496	226,138	-0,079	-0,094
-402,482	552,382	-0,050	0,087
-401,467	173,774	0,055	-0,058
-400,452	778,182	-0,048	0,096
-399,438	143,189	0,087	0,084
-398,423	800,000	0,045	0,106
-397,409	89,139	0,032	0,025
-396,394	-200,000	-0,011	-0,098
-395,379	-133,180	-0,052	0,005
-394,365	-200,000	0,006	0,045
-393,350	64,203	-0,066	0,048
-392,336	489,296	0,059	0,099
-391,321	-135,509	-0,114	0,010
-390,306	-69,957	0,094	0,026
-389,292	543,045	-0,104	-0,181
-388,277	733,841	0,045	0,088
-387,263	77,241	-0,105	0,081
-386,248	-89,581	0,093	-0,020
-385,233	-200,000	0,014	0,060
-384,219	28,662	-0,058	-0,036
-383,204	374,648	0,067	-0,100
-382,190	-166,329	0,117	0,004
-381,175	84,857	0,035	-0,028
-380,160	-200,000	-0,026	0,087
-379,146	-200,000	-0,005	-0,092
-378,131	73,167	0,032	0,024
-377,117	800,000	0,043	-0,118
-376,102	-200,000	0,013	-0,219
-375,088	25,658	0,087	0,053
-374,073	-200,000	-0,002	-0,029
-373,058	-58,425	0,100	-0,031
-372,044	-122,516	-0,042	0,005
-371,029	-200,000	-0,002	-0,024
-370,015	800,000	-0,038	-0,086
-369,000	-200,000	0,004	0,032
-367,985	46,964	-0,059	-0,039
-366,971	800,000	0,037	-0,081
-365,956	421,595	0,042	0,066
-364,942	-58,781	0,045	-0,014
-363,927	800,000	0,012	0,033
-362,912	166,711	0,082	0,084
-361,898	552,449	-0,042	-0,073
-360,883	-32,090	0,135	-0,054
-359,869	-200,000	0,011	-0,074
-358,854	-200,000	0,013	-0,071
-357,839	-200,000	-0,011	0,086
-356,825	-200,000	-0,006	0,135
-355,810	-152,174	-0,060	-0,003
-354,796	-175,567	-0,073	0,001
-353,781	-144,740	0,147	-0,010
-352,766	74,292	-0,076	0,058
-351,752	800,000	-0,031	-0,092
-350,737	800,000	0,025	0,067
-349,723	-200,000	0,007	0,092
-348,708	-49,012	-0,140	-0,048
-347,693	42,470	-0,124	-0,081
-346,679	83,021	0,073	0,058
-345,664	-62,735	-0,116	-0,035
-344,650	-200,000	-0,007	-0,037
-343,635	32,538	-0,058	0,036
-342,620	-61,635	-0,074	-0,022
-341,606	-148,627	0,126	-0,007
-340,591	88,940	0,127	-0,102
-339,577	54,507	-0,120	0,084
-338,562	-200,000	-0,015	-0,096
-337,548	-132,045	-0,050	0,005
-336,533	-96,319	0,102	-0,019
-335,518	385,550	-0,009	-0,014
-334,504	-200,000	-0,024	0,151
-333,489	-96,572	-0,120	0,023
-332,475	55,317	-0,085	-0,059
-331,460	111,015	-0,144	-0,125
-330,445	800,000	0,029	0,074
-329,431	164,161	-0,137	0,140
-328,416	-65,136	0,042	-0,012
-327,402	149,143	-0,073	-0,072
-326,387	-129,485	-0,041	-0,004
-325,372	195,224	0,052	0,057
-324,358	800,000	-0,050	-0,111
-323,343	-93,497	0,117	-0,023
-322,329	-200,000	-0,044	-0,144
-321,314	202,887	0,056	0,063
-320,299	800,000	0,034	0,098
-319,285	-200,000	0,007	0,108
-318,270	260,075	-0,072	0,090
-317,256	250,037	-0,074	-0,091
-316,241	800,000	-0,010	0,026
-315,226	29,064	0,077	-0,047
-314,212	800,000	0,021	0,064
-313,197	-28,271	0,078	0,032
-312,183	-200,000	-0,002	-0,083
-311,168	-88,183	0,080	0,017
-310,153	-181,427	-0,070	-0,001
-309,139	-24,288	-0,063	-0,027
-308,124	329,379	-0,111	0,155
-307,110	83,705	0,102	-0,080
-306,095	4,588	0,035	0,018
-305,080	-74,336	0,084	0,022
-304,066	-131,991	-0,152	-0,014
-303,051	490,056	-0,071	-0,119
-302,037	116,147	-0,076	0,068
-301,022	59,127	-0,025	-0,018
-300,008	800,000	0,032	0,071
-298,993	42,004	0,109	0,071
-297,978	273,959	0,100	0,129
-296,964	452,196	-0,036	-0,058
-295,949	-23,195	-0,205	-0,089
-294,935	-81,670	-0,053	-0,013
-293,920	-100,017	0,131	0,023
-292,905	317,560	0,070	0,096
-291,891	-108,145	0,144	0,022
-290,876	-200,000	0,002	0,066
-289,862	666,112	-0,027	-0,050
-288,847	800,000	0,014	0,031
-287,832	-200,000	0,003	0,038
-286,818	-6,931	-0,121	-0,059
-285,803	136,027	0,019	-0,018
-284,789	369,146	0,050	0,073
-283,774	637,140	-0,034	-0,063
-282,759	-200,000	0,010	0,126
-281,745	23,108	-0,048	0,029
-280,730	646,567	0,025	-0,047
-279,716	-200,000	-0,016	0,068
-278,701	3,654	-0,029	0,015
-277,686	112,526	-0,063	-0,055
-276,672	-89,734	-0,018	0,004
-275,657	-90,721	-0,161	0,033
-274,643	-123,621	0,075	0,008
-273,628	-63,517	-0,116	0,034
-272,613	-200,000	0,007	0,108
-271,599	800,000	-0,006	-0,018
-270,584	-94,505	0,043	-0,008
-269,570	-5,541	0,079	0,039
-268,555	800,000	0,049	0,130
-267,540	21,508	-0,124	-0,073
-266,526	154,734	0,098	0,097
-265,511	-200,000	0,016	0,095
-264,497	-200,000	0,019	0,091
-263,482	-77,620	-0,013	-0,003
-262,467	-200,000	-0,024	-0,090
-261,453	800,000	-0,067	0,158
-260,438	-37,501	-0,148	-0,057
-259,424	-91,439	-0,065	-0,013
-258,409	-59,118	0,136	-0,042
-257,395	58,788	0,064	0,046
-256,380	-200,000	-0,008	-0,056
-255,365	543,727	-0,042	0,072
-254,351	116,309	0,118	0,105
-253,336	290,900	-0,057	0,075
-252,322	800,000	-0,041	-0,125
-251,307	-200,000	-0,005	-0,091
-250,292	253,724	0,092	0,114
-249,278	-200,000	-0,004	-0,046
-248,263	-200,000	0,011	-0,048
-247,249	596,201	-0,124	0,222
-246,234	154,042	0,093	0,092
-245,219	-92,343	-0,031	-0,006
-244,205	-44,981	0,076	-0,027
-243,190	-200,000	-0,002	0,043
-242,176	-200,000	-0,003	-0,077
-241,161	-191,303	0,091	-0,001
-240,146	627,995	0,031	-0,057
-239,132	-4,572	-0,045	0,022
-238,117	322,526	0,041	-0,056
-237,103	-130,731	0,125	-0,012
-236,088	7,645	-0,100	-0,054
-235,073	781,829	0,048	-0,096
-234,059	110,689	0,052	0,046
-233,044	46,559	0,066	0,044
-232,030	331,823	-0,064	-0,089
-231,015	39,127	-0,083	-0,053
-230,000	-100,806	0,133	-0,023
-228,986	800,000	0,027	0,079
-227,971	153,976	-0,097	-0,096
-226,957	677,522	-0,036	-0,067
-225,942	-200,000	-0,006	-0,025
-224,927	-57,850	0,110	0,034
-223,913	113,746	-0,088	-0,077
-222,898	41,997	-0,115	-0,075
-221,884	-200,000	-0,004	0,035
-220,869	-200,000	0,007	0,041
-219,855	237,061	0,038	-0,045
-218,840	-200,000	0,016	-0,072
-217,825	-42,162	-0,130	0,048
-216,811	-21,539	0,129	-0,056
-215,796	198,785	-0,090	-0,099
-214,782	128,810	0,075	0,069
-213,767	-200,000	0,002	0,052
-212,752	-200,000	0,025	-0,127
-211,738	498,927	-0,064	-0,107
-210,723	468,907	0,068	0,110
-209,709	-200,000	-0,004	-0,069
-208,694	88,818	-0,049	-0,039
-207,679	-200,000	0,008	0,109
-206,665	-200,000	0,006	0,138
-205,650	-27,194	0,089	-0,037
-204,636	-182,191	0,041	-0,001
-203,621	155,138	-0,058	-0,058
-202,606	697,251	0,047	0,090
-201,592	-27,637	-0,132	-0,055
-200,577	-200,000	-0,016	0,085
-199,563	278,473	0,041	-0,053
-198,548	170,842	0,124	-0,128
-197,533	60,617	-0,016	-0,011
-196,519	-82,269	0,107	0,025
-195,504	690,333	-0,032	0,061
-194,490	-15,636	0,018	0,008
-193,475	800,000	0,061	0,176
-192,460	26,883	-0,110	0,067
-191,446	800,000	-0,009	0,020
-190,431	-200,000	0,009	0,096
-189,417	-200,000	0,026	0,144
-188,402	-160,847	-0,075	0,003
-187,387	-113,699	0,104	-0,014
-186,373	800,000	0,070	0,143
-185,358	-117,267	-0,030	0,004
-184,344	196,933	-0,054	-0,059
-183,329	-23,976	0,085	0,036
-182,315	253,811	-0,028	0,035
-181,300	-200,000	0,020	0,079
-180,285	-70,023	0,022	-0,006
-179,271	325,135	0,051	-0,070
-178,256	-45,997	-0,116	-0,041
-177,242	-25,928	0,150	0,063
-176,227	-132,264	-0,112	0,010
-175,212	800,000	-0,026	0,078
-174,198	601,495	-0,102	-0,184
-173,183	0,146	-0,100	-0,051
-172,169	-122,876	0,024	0,003
-171,154	800,000	-0,042	-0,084
-170,139	105,089	0,116	-0,099
-169,125	22,669	0,068	0,040
-168,110	328,401	0,049	0,068
-167,096	-200,000	-0,008	0,072
-166,081	-138,292	-0,091	-0,007
-165,066	-200,000	0,030	-0,134
-164,052	-115,097	-0,134	0,018
-163,037	-67,029	0,023	0,006
-162,023	506,542	-0,081	0,136
-161,008	91,058	0,043	0,035
-159,993	6,716	0,060	-0,032
-158,979	-200,000	-0,001	0,025
-157,964	195,600	0,008	-0,009
-156,950	-132,706	0,096	0,009
-155,935	-158,117	0,070	0,003
-154,920	-13,386	0,079	-0,037
-153,906	215,575	-0,056	-0,064
-152,891	743,874	-0,013	0,025
-151,877	78,601	0,012	-0,009
-150,862	800,000	-0,026	-0,057
-149,847	-200,000	0,004	0,090
-148,833	317,335	-0,067	-0,092
-147,818	-200,000	0,031	0,169
-146,804	-200,000	0,000	0,085
-145,789	248,611	0,041	0,050
-144,775	-59,091	-0,060	0,018
-143,760	73,939	-0,080	0,060
-142,745	223,319	-0,058	-0,067
-141,731	-32,691	0,023	0,009
-140,716	-200,000	-0,002	0,035
-139,702	7,946	0,093	0,050
-138,687	800,000	0,027	0,080
-137,672	-200,000	0,020	-0,085
-136,658	604,950	0,024	0,042
-135,643	255,380	0,085	-0,104
-134,629	-200,000	0,004	-0,023
-133,614	169,457	0,068	-0,070
-132,599	-4,413	0,032	0,016
-131,585	190,349	-0,020	0,022
-130,570	-200,000	0,029	0,099
-129,556	-5,900	0,075	0,037
-128,541	5,899	-0,140	0,074
-127,526	247,693	0,057	0,069
-126,512	-200,000	0,053	0,238
-125,497	44,692	-0,028	-0,019
-124,483	29,207	-0,089	-0,054
-123,468	-200,000	0,010	-0,048
-122,453	800,000	-0,031	-0,066
-121,439	-161,259	0,112	0,004
-120,424	-13,108	0,023	0,011
-119,410	-19,395	0,047	-0,021
