DTS Sentinel unit serial number:	SN410029Multiplexer serial number:	ORYXHardware model number:	OX2-SRSoftware version number:	ORYX F/W v4,00 Oryx Data Collector v3.7.2.0data status	okinstallation	B6 Nyhavnadifferential loss correction	single-endedforward channel	channel 2reverse channel	N/Adate	2023/12/08time	16:10:08forward acquisition time	300,00reverse acquisition time	0,00gamma	499,1914k internal	0,3159k external	0,3159temperature offset calibration	1,0000default loss term (dB/km)	0,3820temperature slope calibration	1,0000multiplexer offset coefficient	1,0000multiplexer slope coefficient	1,0000fibre end	0,00T internal ref (°C)	15,10T ext. ref 1 (°C)	-1,48T ext. ref 2 (°C)	-1,47length (m)	temperature (°C)	Stokes	anti-Stokes-744,400	133,512	0,064	-0,061
-743,385	-106,960	-0,282	-0,046
-742,371	-200,000	-0,009	0,048
-741,356	-88,283	-0,314	0,069
-740,342	5,423	0,169	0,092
-739,327	-130,952	-0,412	0,040
-738,312	41,166	0,086	-0,057
-737,298	-173,639	-0,290	-0,006
-736,283	-50,134	0,192	-0,067
-735,269	-13,859	-0,127	0,060
-734,254	680,470	-0,030	0,058
-733,239	-67,029	-0,409	-0,118
-732,225	-18,866	0,105	0,048
-731,210	-3,648	0,084	-0,043
-730,196	-108,353	-0,118	-0,019
-729,181	-21,325	-0,053	-0,024
-728,167	59,983	0,032	-0,023
-727,152	-47,923	-0,083	-0,029
-726,137	38,013	-0,098	0,064
-725,123	-108,299	-0,091	-0,014
-724,108	800,000	0,017	-0,041
-723,094	-111,359	-0,086	-0,013
-722,079	495,920	0,025	-0,042
-721,064	-105,806	-0,068	0,011
-720,050	130,834	0,052	0,049
-719,035	-200,000	-0,036	0,217
-718,021	368,926	-0,024	0,036
-717,006	205,218	-0,027	0,031
-715,991	800,000	-0,134	-0,357
-714,977	-200,000	0,002	-0,083
-713,962	-124,465	0,076	0,009
-712,948	-109,083	-0,032	-0,005
-711,933	-70,842	0,076	0,021
-710,918	63,413	-0,096	-0,071
-709,904	-6,097	-0,039	-0,020
-708,889	-19,803	-0,092	-0,042
-707,875	800,000	0,023	-0,069
-706,860	800,000	0,008	-0,021
-705,845	63,454	-0,038	0,028
-704,831	115,420	0,037	0,033
-703,816	-200,000	-0,006	0,048
-702,802	800,000	0,035	-0,083
-701,787	-200,000	-0,002	0,071
-700,772	252,931	-0,038	-0,048
-699,758	144,979	0,086	0,085
-698,743	-102,833	0,070	-0,012
-697,729	-137,205	0,169	0,014
-696,714	83,407	-0,161	0,129
-695,699	-200,000	0,018	-0,103
-694,685	-200,000	0,003	-0,070
-693,670	706,385	-0,078	-0,152
-692,656	-200,000	-0,011	-0,086
-691,641	-118,522	-0,182	-0,023
-690,627	371,697	0,049	0,074
-689,612	378,367	-0,090	0,136
-688,597	118,058	0,085	-0,077
-687,583	153,577	-0,143	-0,144
-686,568	-200,000	0,017	-0,075
-685,554	19,308	0,213	-0,125
-684,539	-200,000	-0,006	-0,036
-683,524	800,000	-0,048	0,128
-682,510	-169,688	0,075	0,002
-681,495	800,000	0,015	0,046
-680,481	298,425	-0,156	-0,211
-679,466	30,423	-0,192	-0,121
-678,451	-44,492	0,118	0,043
-677,437	1,185	-0,011	0,006
-676,422	-200,000	-0,014	0,051
-675,408	169,274	0,027	0,028
-674,393	101,579	0,017	-0,015
-673,378	-102,784	-0,108	-0,019
-672,364	-35,856	-0,125	-0,049
-671,349	-183,729	-0,128	-0,002
-670,335	84,787	0,123	-0,099
-669,320	800,000	-0,033	0,077
-668,305	367,982	0,058	0,086
-667,291	76,350	-0,069	0,053
-666,276	-200,000	0,022	0,177
-665,262	-108,586	0,047	0,007
-664,247	-22,771	-0,136	-0,060
-663,232	24,163	0,079	0,048
-662,218	163,412	-0,019	0,020
-661,203	36,956	-0,162	-0,105
-660,189	-41,024	-0,109	-0,041
-659,174	110,019	0,038	-0,033
-658,159	310,700	-0,032	-0,044
-657,145	101,539	0,059	-0,050
-656,130	-26,514	-0,118	0,050
-655,116	-7,694	0,071	-0,035
-654,101	-58,201	0,194	-0,062
-653,086	-53,486	-0,058	-0,019
-652,072	800,000	-0,040	-0,095
-651,057	96,512	0,111	0,093
-650,043	-42,307	-0,153	-0,057
-649,028	800,000	0,029	-0,077
-648,014	-26,314	0,133	0,057
-646,999	-75,822	0,162	-0,042
-645,984	-59,497	-0,162	0,051
-644,970	-200,000	-0,040	0,131
-643,955	-92,710	0,105	0,021
-642,941	-200,000	0,004	0,020
-641,926	46,335	0,115	0,078
-640,911	176,647	-0,104	-0,111
-639,897	800,000	-0,019	0,042
-638,882	51,570	0,058	-0,040
-637,868	64,052	-0,167	0,123
-636,853	-47,788	-0,055	-0,020
-635,838	-200,000	-0,014	0,061
-634,824	302,115	-0,052	-0,071
-633,809	61,026	-0,061	-0,044
-632,795	-198,507	-0,069	0,000
-631,780	-14,947	-0,069	0,032
-630,765	3,600	-0,092	0,049
-629,751	278,907	-0,071	0,094
-628,736	166,720	-0,041	0,043
-627,722	800,000	-0,028	0,071
-626,707	-200,000	0,014	-0,076
-625,692	98,155	-0,021	-0,018
-624,678	-72,520	-0,188	0,050
-623,663	-147,695	-0,063	0,004
-622,649	-71,721	-0,115	-0,031
-621,634	-200,000	-0,021	-0,158
-620,619	-200,000	-0,051	-0,200
-619,605	-100,195	0,097	-0,018
-618,590	-200,000	-0,009	-0,153
-617,576	-200,000	0,011	-0,060
-616,561	-134,362	-0,052	-0,005
-615,546	91,094	-0,044	0,037
-614,532	800,000	-0,042	-0,106
-613,517	-200,000	-0,026	-0,136
-612,503	732,454	0,006	-0,012
-611,488	-158,565	0,083	0,003
-610,474	-200,000	0,005	-0,042
-609,459	96,028	-0,040	0,033
-608,444	156,816	0,020	0,020
-607,430	30,479	-0,092	0,058
-606,415	237,379	-0,046	-0,057
-605,401	800,000	0,005	0,011
-604,386	372,449	-0,099	0,148
-603,371	-200,000	-0,010	-0,111
-602,357	800,000	-0,057	-0,139
-601,342	-200,000	0,008	0,033
-600,328	-2,535	-0,085	0,044
-599,313	74,355	0,029	-0,023
-598,298	438,352	-0,033	0,053
-597,284	-52,319	0,069	-0,023
-596,269	217,066	0,030	-0,035
-595,255	85,823	-0,069	0,055
-594,240	58,278	0,048	-0,035
-593,225	800,000	-0,032	0,079
-592,211	-88,003	-0,084	-0,018
-591,196	223,664	-0,098	-0,116
-590,182	314,843	0,084	0,116
-589,167	800,000	0,038	0,080
-588,152	800,000	0,036	0,104
-587,138	12,140	0,095	-0,053
-586,123	2,386	-0,194	-0,103
-585,109	-200,000	-0,010	-0,095
-584,094	97,922	-0,088	0,074
-583,079	800,000	0,023	0,069
-582,065	-29,519	-0,109	-0,045
-581,050	-163,239	-0,085	0,003
-580,036	114,126	-0,110	0,098
-579,021	177,823	-0,067	-0,072
-578,006	-200,000	-0,016	-0,059
-576,992	-54,060	0,144	0,048
-575,977	162,521	0,083	-0,085
-574,963	156,310	-0,116	-0,117
-573,948	47,792	0,052	0,035
-572,934	-126,383	-0,051	0,006
-571,919	-200,000	-0,006	0,050
-570,904	475,667	-0,099	-0,164
-569,890	-200,000	0,001	-0,094
-568,875	83,591	0,034	-0,027
-567,861	-200,000	0,002	-0,033
-566,846	-200,000	0,023	0,197
-565,831	54,714	0,018	0,013
-564,817	127,754	0,059	0,054
-563,802	800,000	-0,028	-0,088
-562,788	-200,000	-0,008	-0,090
-561,773	-11,115	0,037	-0,018
-560,758	49,702	0,110	0,076
-559,744	-200,000	-0,018	0,117
-558,729	-25,578	0,160	0,069
-557,715	47,248	0,075	-0,051
-556,700	121,192	-0,102	-0,093
-555,685	631,124	-0,044	-0,081
-554,671	73,575	-0,065	-0,050
-553,656	-146,683	-0,011	-0,001
-552,642	-146,841	0,033	-0,002
-551,627	-19,746	-0,091	0,041
-550,612	-200,000	0,001	0,065
-549,598	-164,560	-0,035	0,001
-548,583	-28,865	-0,027	-0,011
-547,569	383,086	-0,036	-0,054
-546,554	-80,845	0,093	0,022
-545,539	-60,504	-0,105	-0,032
-544,525	292,528	0,052	0,070
-543,510	-200,000	0,012	-0,043
-542,496	-133,156	-0,078	-0,007
-541,481	-20,588	-0,078	0,035
-540,466	4,006	-0,088	0,047
-539,452	55,290	0,096	0,068
-538,437	-164,617	-0,024	0,001
-537,423	104,978	0,070	-0,061
-536,408	800,000	-0,024	-0,060
-535,393	34,565	-0,116	-0,074
-534,379	800,000	-0,079	-0,171
-533,364	-200,000	-0,026	-0,187
-532,350	-92,431	-0,025	-0,005
-531,335	122,671	-0,036	-0,033
-530,321	70,134	0,121	-0,092
-529,306	-5,335	-0,032	0,016
-528,291	-32,633	-0,172	0,069
-527,277	800,000	-0,045	-0,095
-526,262	-200,000	0,009	-0,106
-525,248	-200,000	-0,016	0,060
-524,233	749,231	-0,044	0,087
-523,218	-100,072	0,030	-0,005
-522,204	-34,948	0,041	-0,016
-521,189	562,153	-0,082	0,146
-520,175	109,863	-0,074	-0,065
-519,160	234,531	0,097	-0,118
-518,145	511,751	-0,025	0,043
-517,131	-110,223	0,038	0,006
-516,116	800,000	0,019	-0,043
-515,102	98,927	-0,075	0,063
-514,087	800,000	0,035	0,090
-513,072	139,742	0,178	-0,171
-512,058	171,152	-0,051	0,054
-511,043	-57,354	0,066	0,021
-510,029	287,622	0,084	0,112
-509,014	-200,000	0,020	-0,082
-507,999	6,163	-0,069	0,037
-506,985	273,106	-0,032	-0,041
-505,970	800,000	0,051	0,161
-504,956	288,947	0,036	-0,048
-503,941	800,000	0,052	-0,148
-502,926	51,507	-0,123	0,085
-501,912	174,834	0,042	0,044
-500,897	711,075	-0,096	-0,186
-499,883	800,000	0,009	0,028
-498,868	-124,635	-0,031	-0,004
-497,853	1,156	-0,163	0,085
-496,839	51,964	0,158	-0,110
-495,824	-77,793	0,041	0,010
-494,810	-200,000	0,035	0,172
-493,795	-138,710	0,094	0,007
-492,781	48,358	-0,164	-0,112
-491,766	-122,045	0,097	0,011
-490,751	800,000	0,042	-0,127
-489,737	12,817	0,080	-0,045
-488,722	-84,570	0,059	-0,013
-487,708	253,098	-0,115	-0,144
-486,693	-200,000	-0,010	0,074
-485,678	205,026	0,085	-0,097
-484,664	134,690	-0,071	-0,067
-483,649	46,203	-0,100	-0,068
-482,635	-200,000	-0,026	-0,098
-481,620	-200,000	0,012	-0,085
-480,605	29,996	0,021	-0,013
-479,591	123,693	0,135	0,124
-478,576	23,935	-0,057	0,034
-477,562	-48,942	-0,169	-0,059
-476,547	-132,810	0,108	0,010
-475,532	-17,521	0,083	0,038
-474,518	-85,431	-0,183	0,041
-473,503	-200,000	0,002	0,098
-472,489	-12,169	-0,030	0,014
-471,474	184,108	0,090	0,097
-470,459	197,143	-0,060	-0,067
-469,445	284,407	-0,062	-0,082
-468,430	800,000	-0,086	0,185
-467,416	-62,544	0,124	-0,037
-466,401	201,166	-0,079	0,089
-465,386	37,223	-0,058	0,038
-464,372	210,707	0,020	-0,023
-463,357	198,614	-0,036	-0,040
-462,343	30,549	-0,157	0,098
-461,328	543,302	-0,037	-0,064
-460,313	-19,878	0,058	0,026
-459,299	-200,000	0,003	0,119
-458,284	800,000	0,014	0,044
-457,270	800,000	0,036	0,099
-456,255	-49,875	-0,043	0,015
-455,241	-200,000	-0,025	-0,161
-454,226	800,000	0,028	-0,067
-453,211	536,693	-0,022	0,038
-452,197	48,417	0,067	-0,046
-451,182	-200,000	-0,007	-0,024
-450,168	800,000	0,041	-0,093
-449,153	163,230	-0,148	-0,151
-448,138	-200,000	0,000	-0,082
-447,124	102,802	0,040	-0,034
-446,109	-81,281	-0,196	0,047
-445,095	800,000	-0,014	0,044
-444,080	213,278	0,099	-0,114
-443,065	-200,000	-0,025	0,227
-442,051	800,000	-0,025	0,051
-441,036	-38,290	-0,107	0,041
-440,022	22,863	0,044	0,026
-439,007	-149,407	0,117	-0,007
-437,992	-75,126	0,106	0,027
-436,978	800,000	-0,056	0,147
-435,963	-200,000	-0,008	0,082
-434,949	301,461	0,018	0,025
-433,934	-200,000	0,001	-0,043
-432,919	416,328	0,056	0,087
-431,905	-165,494	-0,044	0,001
-430,890	800,000	-0,031	-0,068
-429,876	21,508	0,044	-0,026
-428,861	-72,623	0,079	0,021
-427,846	-15,870	-0,112	-0,052
-426,832	-200,000	0,024	-0,081
-425,817	207,152	0,016	-0,018
-424,803	-200,000	-0,007	0,059
-423,788	-122,284	0,047	0,006
-422,773	-200,000	0,004	0,179
-421,759	165,825	0,069	0,071
-420,744	42,803	-0,086	-0,057
-419,730	-99,781	0,121	-0,022
-418,715	108,649	0,022	-0,019
-417,701	-80,506	-0,005	0,001
-416,686	-138,129	0,222	-0,018
-415,671	163,920	0,088	0,090
-414,657	-74,397	-0,055	-0,014
-413,642	-146,591	0,098	-0,006
-412,628	800,000	-0,073	-0,170
-411,613	-51,728	-0,179	-0,060
-410,598	-200,000	-0,006	0,099
-409,584	-200,000	0,016	0,055
-408,569	800,000	0,027	-0,079
-407,555	800,000	0,063	0,183
-406,540	104,628	0,053	0,046
-405,525	-200,000	0,027	-0,127
-404,511	-7,827	0,020	-0,010
-403,496	-200,000	-0,001	-0,030
-402,482	466,484	0,024	-0,040
-401,467	-89,283	-0,009	-0,002
-400,452	-200,000	0,018	0,175
-399,438	800,000	-0,080	0,171
-398,423	-200,000	0,017	0,084
-397,409	127,145	-0,143	-0,132
-396,394	466,034	-0,021	-0,034
-395,379	800,000	0,003	0,007
-394,365	-13,820	0,165	-0,077
-393,350	54,513	0,132	0,092
-392,336	328,248	-0,051	-0,072
-391,321	-197,318	-0,059	-0,000
-390,306	435,432	-0,063	-0,100
-389,292	88,555	0,089	-0,072
-388,277	-200,000	0,010	-0,050
-387,263	37,583	0,023	-0,015
-386,248	-178,529	-0,086	0,001
-385,233	-3,471	-0,030	0,015
-384,219	800,000	0,060	0,181
-383,204	127,202	-0,101	-0,093
-382,190	361,175	0,052	-0,075
-381,175	61,034	0,050	-0,036
-380,160	505,558	0,060	-0,101
-379,146	-16,253	0,148	0,068
-378,131	657,878	-0,070	0,132
-377,117	510,729	0,055	-0,093
-376,102	169,560	-0,150	-0,156
-375,088	-71,803	-0,188	-0,050
-374,073	131,577	0,051	-0,048
-373,058	-88,399	0,018	0,004
-372,044	593,795	-0,017	-0,030
-371,029	-200,000	0,017	0,091
-370,015	-58,065	0,150	-0,047
-369,000	-154,070	0,104	0,005
-367,985	18,958	0,094	-0,055
-366,971	-200,000	-0,002	-0,130
-365,956	3,040	0,120	-0,063
-364,942	192,636	0,083	0,092
-363,927	-200,000	0,044	0,147
-362,912	-200,000	0,001	0,105
-361,898	-200,000	0,017	-0,067
-360,883	-27,964	0,023	0,010
-359,869	-53,663	-0,079	0,026
-358,854	800,000	-0,042	0,133
-357,839	800,000	0,052	0,112
-356,825	-200,000	0,012	0,044
-355,810	298,208	0,087	0,117
-354,796	140,412	-0,064	-0,061
-353,781	479,906	0,023	-0,038
-352,766	241,060	0,098	0,119
-351,752	190,074	0,025	-0,027
-350,737	-200,000	0,001	-0,125
-349,723	-200,000	-0,006	-0,089
-348,708	47,021	-0,044	0,030
-347,693	292,791	-0,044	-0,059
-346,679	5,806	-0,147	-0,079
-345,664	288,081	0,050	-0,066
-344,650	19,178	0,029	-0,017
-343,635	239,633	-0,051	-0,061
-342,620	800,000	0,010	0,024
-341,606	800,000	0,038	-0,084
-340,591	433,340	-0,054	0,085
-339,577	400,227	0,116	-0,177
-338,562	114,638	0,072	0,064
-337,548	430,853	0,030	0,048
-336,533	-200,000	0,006	0,188
-335,518	-8,764	0,098	0,047
-334,504	-200,000	-0,019	-0,086
-333,489	-52,490	-0,074	0,025
-332,475	-200,000	0,026	-0,104
-331,460	-79,364	0,043	-0,010
-330,445	244,995	0,044	-0,054
-329,431	467,745	-0,015	0,025
-328,416	128,899	-0,035	-0,033
-327,402	-45,513	0,141	0,050
-326,387	-0,787	-0,028	0,014
-325,372	800,000	-0,057	-0,123
-324,358	85,638	0,046	-0,037
-323,343	475,014	0,037	0,061
-322,329	767,849	0,045	-0,089
-321,314	27,104	0,059	-0,036
-320,299	18,580	-0,064	0,037
-319,285	-23,514	0,039	-0,017
-318,270	-71,734	0,074	-0,020
-317,256	800,000	0,079	-0,245
-316,241	-28,000	0,089	0,037
-315,226	670,701	0,023	-0,044
-314,212	-62,451	0,155	0,046
-313,197	127,880	0,060	0,056
-312,183	-200,000	0,020	-0,077
-311,168	-79,071	-0,102	-0,025
-310,153	682,366	-0,057	-0,109
-309,139	124,630	0,061	-0,056
-308,124	42,714	-0,149	0,098
-307,110	-200,000	0,001	0,033
-306,095	0,688	-0,217	0,112
-305,080	404,143	-0,068	0,105
-304,066	-187,749	0,112	0,001
-303,051	54,165	-0,107	0,074
-302,037	-200,000	-0,010	0,056
-301,022	-200,000	-0,005	0,107
-300,008	45,281	0,108	0,072
-298,993	81,729	0,135	0,106
-297,978	-29,258	0,025	-0,010
-296,964	129,524	-0,129	0,120
-295,949	800,000	0,064	-0,138
-294,935	356,030	-0,067	-0,097
-293,920	101,461	-0,033	-0,028
-292,905	42,124	0,078	0,051
-291,891	386,061	0,068	0,101
-290,876	652,934	-0,069	0,128
-289,862	-27,238	-0,074	-0,031
-288,847	106,553	-0,044	0,038
-287,832	-200,000	0,000	0,037
-286,818	-157,873	-0,043	-0,002
-285,803	800,000	0,050	0,108
-284,789	365,650	-0,073	0,107
-283,774	145,109	-0,029	0,028
-282,759	-13,979	-0,045	-0,021
-281,745	527,682	-0,039	0,067
-280,730	-200,000	-0,003	-0,020
-279,716	800,000	-0,017	0,034
-278,701	40,633	0,090	-0,058
-277,686	-153,980	-0,088	0,004
-276,672	373,567	-0,031	-0,046
-275,657	-200,000	-0,007	-0,026
-274,643	-8,630	-0,109	-0,053
-273,628	-111,225	-0,022	-0,003
-272,613	-15,093	0,062	-0,029
-271,599	800,000	0,066	0,137
-270,584	12,182	0,005	-0,003
-269,570	114,866	-0,022	-0,019
-268,555	800,000	-0,043	0,088
-267,540	-0,240	0,122	-0,062
-266,526	-200,000	0,003	0,061
-265,511	327,053	-0,039	0,054
-264,497	800,000	0,069	0,189
-263,482	258,291	0,030	0,038
-262,467	-56,787	-0,063	0,020
-261,453	800,000	0,009	0,027
-260,438	800,000	0,025	-0,070
-259,424	-200,000	-0,006	-0,047
-258,409	-80,090	0,076	0,018
-257,395	131,666	0,162	0,150
-256,380	-36,071	0,029	0,011
-255,365	800,000	0,066	0,145
-254,351	-127,389	-0,063	-0,007
-253,336	-200,000	0,105	-0,000
-252,322	800,000	-0,109	-0,219
-251,307	-101,008	-0,013	-0,002
-250,292	-200,000	-0,003	-0,030
-249,278	-149,669	0,072	-0,004
-248,263	-200,000	0,001	0,046
-247,249	-21,024	-0,053	0,023
-246,234	-200,000	-0,001	-0,018
-245,219	296,743	-0,025	0,034
-244,205	-43,466	0,085	0,031
-243,190	343,477	0,105	0,149
-242,176	800,000	-0,024	0,053
-241,161	-161,631	0,034	0,001
-240,146	96,231	0,068	-0,056
-239,132	175,538	-0,116	-0,122
-238,117	-134,582	-0,102	-0,009
-237,103	-200,000	-0,030	-0,142
-236,088	458,592	-0,049	0,079
-235,073	-140,193	0,121	-0,009
-234,059	-75,793	-0,054	-0,014
-233,044	184,634	0,167	0,180
-232,030	300,377	0,027	0,036
-231,015	-200,000	0,019	-0,078
-230,000	500,623	-0,063	-0,105
-228,986	800,000	-0,061	-0,134
-227,971	128,979	0,085	-0,079
-226,957	800,000	0,021	0,058
-225,942	471,230	0,029	-0,047
-224,927	-108,417	0,069	-0,011
-223,913	-193,156	0,054	0,000
-222,898	-58,317	0,167	-0,052
-221,884	800,000	0,026	0,070
-220,869	-30,236	0,062	-0,025
-219,855	-19,706	0,091	0,040
-218,840	-200,000	0,021	0,173
-217,825	-68,749	0,053	0,015
-216,811	-11,206	-0,071	-0,034
-215,796	225,150	-0,022	0,025
-214,782	-124,302	0,069	-0,008
-213,767	-126,583	-0,073	-0,008
-212,752	-190,705	-0,138	0,001
-211,738	25,098	0,122	-0,073
-210,723	-200,000	-0,014	0,052
-209,709	800,000	-0,033	0,081
-208,694	-12,851	0,065	-0,030
-207,679	-145,118	-0,157	0,010
-206,665	-34,937	0,260	0,102
-205,650	-200,000	-0,019	0,092
-204,636	-3,020	0,030	0,015
-203,621	57,784	0,059	0,041
-202,606	-200,000	-0,001	0,087
-201,592	800,000	-0,013	-0,032
-200,577	17,637	0,015	0,009
-199,563	582,277	0,052	-0,093
-198,548	-78,369	0,045	-0,011
-197,533	-31,743	-0,181	-0,073
-196,519	-15,616	0,164	-0,075
-195,504	-133,533	-0,041	0,004
-194,490	88,955	0,109	-0,088
-193,475	-173,753	-0,190	-0,004
-192,460	318,360	-0,106	0,145
-191,446	278,576	-0,024	0,031
-190,431	-200,000	-0,002	0,137
-189,417	-200,000	0,027	0,086
-188,402	800,000	-0,056	0,136
-187,387	-200,000	0,022	-0,084
-186,373	6,389	0,028	-0,015
-185,358	191,282	-0,025	-0,027
-184,344	121,386	-0,040	-0,036
-183,329	-115,444	0,089	0,012
-182,315	35,658	-0,044	-0,028
-181,300	428,210	0,052	-0,082
-180,285	8,944	0,057	0,031
-179,271	-200,000	-0,014	-0,094
-178,256	-200,000	0,005	0,048
-177,242	800,000	0,067	0,168
-176,227	62,951	0,023	-0,017
-175,212	-200,000	-0,023	-0,110
-174,198	800,000	-0,046	0,115
-173,183	-114,050	-0,144	-0,020
-172,169	-200,000	0,026	-0,153
-171,154	-87,292	-0,079	-0,017
-170,139	77,160	0,102	-0,078
-169,125	-200,000	0,021	-0,071
-168,110	-200,000	-0,020	0,069
-167,096	274,923	-0,066	0,085
-166,081	-83,034	-0,058	-0,013
-165,066	183,629	0,091	-0,097
-164,052	-56,626	-0,022	-0,007
-163,037	28,159	-0,073	0,045
-162,023	-12,243	0,009	0,004
-161,008	-200,000	0,021	-0,186
-159,993	291,292	0,060	0,079
-158,979	-103,700	0,024	0,004
-157,964	-200,000	0,006	-0,032
-156,950	-200,000	0,022	0,071
-155,935	202,681	0,061	0,068
-154,920	-200,000	0,030	0,186
-153,906	-200,000	0,007	0,039
-152,891	133,888	0,040	-0,037
-151,877	-28,691	-0,094	0,039
-150,862	103,815	-0,106	-0,090
-149,847	-106,852	0,099	-0,016
-148,833	249,071	0,073	0,089
-147,818	-200,000	0,003	0,124
-146,804	-200,000	-0,002	0,142
-145,789	-200,000	0,016	-0,068
-144,775	135,825	0,106	-0,099
-143,760	235,084	-0,104	-0,123
-142,745	60,941	-0,084	-0,060
-141,731	-100,018	0,141	-0,025
-140,716	411,313	0,070	-0,107
-139,702	800,000	0,031	-0,078
-138,687	-110,233	-0,060	0,009
-137,672	-200,000	-0,008	-0,051
-136,658	-32,897	-0,178	-0,071
-135,643	27,111	0,049	-0,029
-134,629	-200,000	-0,018	-0,064
-133,614	-200,000	0,015	-0,075
-132,599	800,000	0,072	0,147
-131,585	-200,000	0,005	-0,116
-130,570	-5,588	-0,172	-0,084
-129,556	421,337	0,073	-0,112
-128,541	800,000	-0,006	-0,017
-127,526	184,104	0,020	-0,022
-126,512	-31,495	0,101	-0,041
-125,497	-200,000	0,005	0,041
-124,483	546,506	0,030	0,051
-123,468	12,520	-0,059	-0,032
-122,453	800,000	0,015	-0,044
-121,439	800,000	-0,022	-0,055
-120,424	-146,651	-0,081	-0,005
-119,410	641,927	-0,070	0,129
-118,395	-117,370	0,079	-0,010
