DTS Sentinel unit serial number:	SN410029Multiplexer serial number:	ORYXHardware model number:	OX2-SRSoftware version number:	ORYX F/W v4,00 Oryx Data Collector v3.7.2.0data status	okinstallation	B6 Nyhavnadifferential loss correction	single-endedforward channel	channel 2reverse channel	N/Adate	2023/12/10time	20:10:08forward acquisition time	300,00reverse acquisition time	0,00gamma	499,1914k internal	0,3123k external	0,3123temperature offset calibration	1,0000default loss term (dB/km)	0,3820temperature slope calibration	1,0000multiplexer offset coefficient	1,0000multiplexer slope coefficient	1,0000fibre end	0,00T internal ref (°C)	22,31T ext. ref 1 (°C)	5,91T ext. ref 2 (°C)	5,94length (m)	temperature (°C)	Stokes	anti-Stokes-744,400	42,886	0,081	-0,055
-743,385	-25,701	-0,257	0,113
-742,371	-200,000	0,010	-0,037
-741,356	32,856	-0,059	0,038
-740,342	87,390	0,014	-0,011
-739,327	-74,570	-0,265	0,071
-738,312	-200,000	-0,002	0,059
-737,298	-137,896	-0,283	-0,023
-736,283	522,306	0,044	-0,077
-735,269	-92,924	-0,185	0,038
-734,254	-42,269	0,071	0,027
-733,239	-115,128	-0,400	-0,056
-732,225	232,917	0,030	-0,037
-731,210	110,509	-0,083	0,074
-730,196	800,000	0,020	0,053
-729,181	-200,000	-0,005	-0,038
-728,167	-200,000	0,015	-0,063
-727,152	-24,779	0,087	-0,039
-726,137	-51,712	-0,134	-0,046
-725,123	62,807	-0,198	-0,147
-724,108	251,179	-0,082	-0,104
-723,094	-76,902	-0,041	-0,010
-722,079	5,127	0,056	0,031
-721,064	785,437	-0,040	-0,082
-720,050	-200,000	-0,005	0,103
-719,035	13,820	-0,024	0,014
-718,021	108,312	-0,070	-0,062
-717,006	487,322	0,055	-0,094
-715,991	800,000	-0,039	-0,080
-714,977	-200,000	-0,001	-0,022
-713,962	-200,000	0,007	-0,127
-712,948	-200,000	-0,006	-0,113
-711,933	-200,000	0,014	-0,077
-710,918	-24,739	-0,012	0,005
-709,904	800,000	-0,044	-0,121
-708,889	21,314	0,059	-0,036
-707,875	-200,000	-0,019	-0,067
-706,860	-99,721	-0,137	-0,025
-705,845	-200,000	-0,008	-0,048
-704,831	-32,956	0,093	0,038
-703,816	-147,883	-0,170	-0,010
-702,802	-200,000	-0,013	-0,054
-701,787	-193,814	-0,128	-0,001
-700,772	-26,088	0,044	-0,019
-699,758	170,694	-0,141	0,150
-698,743	662,127	0,023	0,044
-697,729	-200,000	0,037	0,135
-696,714	-200,000	-0,012	-0,050
-695,699	270,859	-0,007	0,009
-694,685	800,000	0,043	-0,129
-693,670	-102,764	-0,112	-0,020
-692,656	-81,620	0,089	0,021
-691,641	800,000	0,028	-0,089
-690,627	-116,586	0,107	0,014
-689,612	357,357	0,024	0,036
-688,597	800,000	0,048	0,144
-687,583	-200,000	0,005	-0,073
-686,568	-200,000	0,029	-0,199
-685,554	-25,722	-0,095	-0,041
-684,539	800,000	0,043	-0,091
-683,524	-200,000	0,013	0,058
-682,510	-146,807	-0,060	0,004
-681,495	800,000	-0,032	-0,087
-680,481	-200,000	0,004	-0,081
-679,466	407,736	-0,063	-0,099
-678,451	112,276	-0,122	-0,109
-677,437	274,059	-0,074	0,097
-676,422	30,195	0,037	-0,023
-675,408	-200,000	0,007	-0,207
-674,393	-200,000	-0,019	0,094
-673,378	-20,243	0,020	-0,009
-672,364	-200,000	-0,039	-0,150
-671,349	-200,000	-0,008	-0,072
-670,335	376,457	-0,048	-0,073
-669,320	800,000	0,005	-0,011
-668,305	231,336	0,048	-0,059
-667,291	-75,367	-0,088	-0,023
-666,276	-35,177	0,080	-0,032
-665,262	106,180	-0,127	0,112
-664,247	-200,000	0,040	-0,143
-663,232	-164,406	-0,051	0,002
-662,218	-10,525	0,104	0,051
-661,203	371,985	0,023	0,034
-660,189	-200,000	0,014	0,060
-659,174	-144,528	-0,118	-0,008
-658,159	76,877	-0,109	-0,086
-657,145	514,970	-0,074	-0,129
-656,130	-167,357	-0,078	-0,002
-655,116	-107,976	0,059	0,009
-654,101	36,522	0,046	0,030
-653,086	66,857	-0,054	0,041
-652,072	116,678	-0,020	-0,019
-651,057	-136,243	-0,065	-0,006
-650,043	800,000	-0,020	-0,048
-649,028	110,479	-0,037	-0,033
-648,014	-200,000	0,002	-0,081
-646,999	-91,699	-0,125	-0,026
-645,984	-200,000	0,032	-0,132
-644,970	-34,164	0,035	0,014
-643,955	-77,941	-0,095	-0,024
-642,941	-82,000	-0,091	0,022
-641,926	-59,037	0,133	0,042
-640,911	-200,000	0,002	-0,061
-639,897	85,691	0,066	0,054
-638,882	-168,812	-0,032	-0,001
-637,868	183,135	-0,101	0,110
-636,853	443,653	-0,060	-0,098
-635,838	105,430	-0,101	-0,088
-634,824	306,258	-0,051	0,070
-633,809	-192,035	-0,064	-0,000
-632,795	-200,000	-0,021	0,182
-631,780	149,354	-0,058	0,058
-630,765	303,825	0,103	-0,143
-629,751	5,516	-0,117	-0,064
-628,736	249,565	-0,027	-0,034
-627,722	-54,830	-0,047	-0,016
-626,707	-154,878	0,031	0,001
-625,692	-125,521	0,064	0,007
-624,678	126,243	0,051	0,048
-623,663	483,364	-0,024	-0,041
-622,649	-200,000	-0,001	-0,055
-621,634	274,015	-0,081	-0,107
-620,619	-200,000	0,027	-0,148
-619,605	-200,000	0,022	0,150
-618,590	-48,865	-0,065	0,023
-617,576	800,000	-0,036	0,076
-616,561	-42,910	-0,074	0,028
-615,546	-200,000	0,012	0,191
-614,532	-88,768	-0,199	-0,044
-613,517	253,403	-0,023	-0,029
-612,503	62,653	0,078	-0,058
-611,488	-200,000	0,022	-0,083
-610,474	-62,571	-0,209	-0,064
-609,459	-200,000	0,025	-0,093
-608,444	230,476	-0,124	-0,151
-607,430	214,042	-0,035	-0,041
-606,415	12,905	-0,044	-0,025
-605,401	-200,000	0,025	0,166
-604,386	-85,371	0,097	-0,022
-603,371	599,285	-0,030	0,056
-602,357	728,937	-0,019	0,039
-601,342	-25,472	-0,128	0,056
-600,328	-131,142	0,141	-0,014
-599,313	676,582	-0,033	-0,063
-598,298	-200,000	0,008	-0,162
-597,284	397,982	-0,024	-0,037
-596,269	-23,058	-0,080	0,035
-595,255	27,158	0,048	0,030
-594,240	800,000	-0,053	0,169
-593,225	2,769	-0,128	-0,069
-592,211	569,982	-0,025	-0,045
-591,196	-31,199	0,235	0,098
-590,182	-127,714	0,082	-0,009
-589,167	93,812	0,039	0,033
-588,152	-200,000	0,003	0,043
-587,138	-170,322	-0,043	-0,001
-586,123	-96,344	-0,101	-0,020
-585,109	292,425	0,061	-0,082
-584,094	-138,848	-0,026	0,002
-583,079	-143,664	-0,028	0,002
-582,065	-200,000	0,035	0,116
-581,050	-136,693	0,129	0,011
-580,036	-200,000	-0,003	-0,069
-579,021	-200,000	-0,002	-0,028
-578,006	-186,659	-0,214	-0,002
-576,992	-62,317	-0,074	0,023
-575,977	117,224	-0,057	-0,052
-574,963	800,000	-0,025	-0,069
-573,948	264,900	-0,076	0,098
-572,934	-64,319	-0,108	0,032
-571,919	-200,000	-0,013	-0,109
-570,904	-200,000	-0,007	-0,041
-569,890	83,331	-0,063	0,051
-568,875	-200,000	0,014	-0,098
-567,861	-200,000	-0,113	0,000
-566,846	-48,282	-0,117	0,042
-565,831	-200,000	0,008	0,069
-564,817	167,612	0,037	-0,038
-563,802	211,876	-0,069	-0,080
-562,788	-77,847	-0,093	-0,024
-561,773	457,015	-0,107	-0,177
-560,758	203,008	0,118	0,136
-559,744	-200,000	0,002	-0,137
-558,729	273,936	0,017	-0,023
-557,715	800,000	-0,041	-0,093
-556,700	-47,034	-0,159	-0,057
-555,685	-200,000	-0,007	-0,131
-554,671	164,138	-0,055	0,057
-553,656	-57,887	-0,051	0,016
-552,642	235,896	0,089	0,110
-551,627	-35,245	0,105	-0,042
-550,612	800,000	-0,025	-0,082
-549,598	122,335	-0,093	-0,086
-548,583	777,073	0,016	0,032
-547,569	-200,000	-0,014	0,101
-546,554	-33,808	0,073	-0,029
-545,539	-61,426	-0,058	0,018
-544,525	88,030	0,132	0,108
-543,510	800,000	-0,036	-0,088
-542,496	800,000	0,033	0,091
-541,481	-74,477	-0,234	0,062
-540,466	-169,630	-0,028	0,001
-539,452	-18,466	0,055	0,025
-538,437	-200,000	0,015	0,075
-537,423	329,224	0,111	0,159
-536,408	-200,000	0,001	0,021
-535,393	-200,000	-0,018	-0,219
-534,379	-200,000	0,015	-0,054
-533,364	800,000	-0,044	-0,103
-532,350	-153,293	0,115	0,006
-531,335	-200,000	0,002	0,033
-530,321	-111,704	0,025	0,004
-529,306	-57,787	-0,039	-0,012
-528,291	380,708	-0,056	0,085
-527,277	-95,294	-0,041	-0,008
-526,262	-200,000	0,000	-0,048
-525,248	15,048	0,124	0,072
-524,233	-4,746	0,081	-0,041
-523,218	-200,000	-0,009	-0,054
-522,204	-8,440	-0,149	-0,074
-521,189	-31,698	0,168	0,069
-520,175	344,130	-0,128	-0,186
-519,160	208,055	-0,123	-0,142
-518,145	-200,000	0,015	0,082
-517,131	-200,000	0,012	0,135
-516,116	292,869	0,108	0,146
-515,102	-200,000	0,045	-0,183
-514,087	-108,998	-0,046	0,007
-513,072	-200,000	0,006	-0,134
-512,058	-200,000	0,004	0,034
-511,043	-40,684	0,191	0,073
-510,029	-90,824	0,061	0,013
-509,014	-48,964	0,141	0,050
-507,999	50,233	0,121	0,085
-506,985	-12,344	-0,165	-0,079
-505,970	-57,042	-0,092	-0,030
-504,956	800,000	-0,027	-0,083
-503,941	-200,000	0,002	-0,032
-502,926	43,731	-0,016	0,011
-501,912	166,995	0,015	0,016
-500,897	-26,936	0,072	-0,031
-499,883	-200,000	0,006	-0,124
-498,868	11,813	-0,073	0,042
-497,853	-200,000	0,009	0,059
-496,839	119,308	0,048	-0,044
-495,824	-200,000	-0,005	0,056
-494,810	326,632	0,091	0,129
-493,795	800,000	0,014	-0,047
-492,781	-200,000	-0,002	0,099
-491,766	-190,179	0,066	0,001
-490,751	204,941	0,099	0,114
-489,737	-200,000	-0,009	-0,100
-488,722	-200,000	0,014	0,068
-487,708	-93,906	0,094	0,019
-486,693	-200,000	0,016	0,169
-485,678	800,000	0,014	0,029
-484,664	-200,000	-0,008	0,131
-483,649	-130,263	-0,105	-0,010
-482,635	-194,036	0,069	0,000
-481,620	800,000	0,027	-0,071
-480,605	173,972	-0,053	-0,057
-479,591	-134,993	-0,037	0,003
-478,576	205,228	0,065	0,075
-477,562	800,000	0,041	-0,087
-476,547	187,616	-0,146	-0,161
-475,532	-77,878	0,123	-0,031
-474,518	212,814	0,040	-0,047
-473,503	-200,000	-0,012	0,135
-472,489	412,764	-0,042	0,066
-471,474	229,282	-0,084	0,102
-470,459	234,595	0,086	0,104
-469,445	205,870	-0,040	-0,046
-468,430	24,346	0,111	0,068
-467,416	-200,000	0,012	0,102
-466,401	-29,929	0,097	0,041
-465,386	98,234	0,072	0,062
-464,372	92,558	0,074	0,061
-463,357	-200,000	-0,002	0,079
-462,343	52,978	-0,041	0,029
-461,328	-38,143	-0,145	-0,057
-460,313	139,412	-0,026	-0,026
-459,299	-131,703	-0,049	-0,005
-458,284	-168,398	0,215	-0,006
-457,270	-200,000	0,002	0,020
-456,255	257,409	-0,060	0,076
-455,241	-29,210	-0,068	-0,029
-454,226	94,921	-0,040	-0,033
-453,211	-200,000	-0,013	0,052
-452,197	42,189	0,090	0,060
-451,182	582,664	0,097	0,175
-450,168	-14,290	-0,090	-0,043
-449,153	240,634	-0,091	-0,112
-448,138	-200,000	0,001	0,022
-447,124	41,507	-0,060	-0,040
-446,109	-200,000	-0,002	-0,078
-445,095	144,461	-0,063	0,062
-444,080	789,018	0,063	0,128
-443,065	90,863	0,018	0,014
-442,051	800,000	-0,015	-0,041
-441,036	-200,000	0,023	-0,104
-440,022	-70,870	-0,028	0,008
-439,007	-11,724	0,067	0,032
-437,992	800,000	-0,059	-0,123
-436,978	21,982	-0,058	-0,035
-435,963	-200,000	0,011	0,123
-434,949	38,227	0,127	-0,083
-433,934	83,268	-0,151	-0,121
-432,919	-141,265	-0,045	0,003
-431,905	129,696	-0,016	0,015
-430,890	-200,000	0,004	0,224
-429,876	800,000	0,025	-0,077
-428,861	18,748	-0,107	0,063
-427,846	295,817	0,067	-0,091
-426,832	-200,000	-0,044	-0,179
-425,817	-200,000	0,022	0,072
-424,803	671,414	0,060	-0,114
-423,788	2,960	0,134	0,071
-422,773	-200,000	0,005	0,049
-421,759	-117,500	0,131	0,017
-420,744	-191,401	-0,047	-0,000
-419,730	58,578	-0,040	-0,029
-418,715	321,748	-0,067	-0,095
-417,701	-96,723	-0,156	0,030
-416,686	-26,084	-0,062	0,027
-415,671	98,176	0,043	-0,036
-414,657	-28,250	0,207	0,088
-413,642	-85,425	-0,082	-0,019
-412,628	-38,883	-0,011	-0,004
-411,613	234,633	0,037	-0,045
-410,598	-13,615	0,030	-0,014
-409,584	407,581	-0,012	0,019
-408,569	6,171	0,028	-0,015
-407,555	159,294	-0,029	0,029
-406,540	-200,000	-0,023	0,251
-405,525	12,538	-0,023	-0,013
-404,511	-104,984	0,052	-0,009
-403,496	173,387	-0,084	0,089
-402,482	-200,000	-0,004	-0,063
-401,467	-89,936	0,046	0,010
-400,452	328,416	0,057	0,080
-399,438	-34,289	-0,040	0,016
-398,423	-200,000	-0,019	-0,165
-397,409	483,864	0,029	0,048
-396,394	568,504	0,073	-0,131
-395,379	-18,577	0,046	0,021
-394,365	49,579	0,038	0,026
-393,350	-39,571	0,082	0,032
-392,336	-200,000	-0,030	0,151
-391,321	76,293	-0,021	0,016
-390,306	-24,152	-0,070	0,031
-389,292	425,426	-0,029	0,046
-388,277	137,184	-0,059	0,057
-387,263	206,137	0,053	0,060
-386,248	54,257	-0,136	0,096
-385,233	-152,692	0,112	-0,006
-384,219	48,083	-0,101	0,069
-383,204	42,785	0,061	0,041
-382,190	32,421	0,023	-0,014
-381,175	-200,000	0,025	-0,095
-380,160	79,918	0,103	0,081
-379,146	-200,000	0,035	0,236
-378,131	344,866	-0,067	0,097
-377,117	48,823	-0,019	0,013
-376,102	33,894	0,098	-0,063
-375,088	-74,120	-0,129	0,034
-374,073	-200,000	0,005	-0,098
-373,058	-20,410	-0,066	-0,030
-372,044	-16,710	0,104	-0,048
-371,029	473,137	0,021	0,035
-370,015	34,320	0,101	-0,065
-369,000	282,763	-0,083	0,109
-367,985	269,366	-0,062	-0,080
-366,971	800,000	-0,026	0,053
-365,956	-200,000	0,025	0,103
-364,942	-60,495	-0,055	-0,017
-363,927	800,000	0,024	0,079
-362,912	-102,455	-0,132	-0,023
-361,898	392,046	-0,057	0,088
-360,883	800,000	-0,028	0,080
-359,869	-200,000	0,009	-0,044
-358,854	208,746	-0,030	-0,034
-357,839	-200,000	0,031	0,114
-356,825	24,033	0,044	-0,027
-355,810	177,630	0,005	-0,005
-354,796	-200,000	0,020	-0,091
-353,781	-59,574	-0,047	0,015
-352,766	-200,000	0,024	0,085
-351,752	238,679	-0,019	0,024
-350,737	-200,000	-0,011	0,080
-349,723	-200,000	0,000	-0,080
-348,708	-56,885	0,088	-0,028
-347,693	-200,000	-0,015	-0,176
-346,679	628,055	-0,061	-0,113
-345,664	528,722	0,041	0,071
-344,650	800,000	-0,076	0,178
-343,635	564,689	0,042	-0,076
-342,620	237,296	0,016	0,020
-341,606	-200,000	0,006	0,063
-340,591	-147,626	-0,050	-0,003
-339,577	-200,000	-0,009	-0,098
-338,562	-200,000	0,004	-0,049
-337,548	118,075	-0,089	-0,080
-336,533	115,860	0,095	0,085
-335,518	800,000	-0,029	0,079
-334,504	-200,000	-0,001	-0,077
-333,489	-166,234	-0,107	-0,003
-332,475	252,987	0,006	0,008
-331,460	-130,670	-0,116	0,011
-330,445	-200,000	-0,002	0,170
-329,431	-200,000	0,026	0,122
-328,416	332,520	0,061	-0,086
-327,402	-200,000	0,000	-0,087
-326,387	276,460	0,042	0,055
-325,372	174,503	-0,049	-0,052
-324,358	53,440	0,089	-0,063
-323,343	402,864	-0,030	-0,047
-322,329	30,608	0,072	0,045
-321,314	66,312	-0,014	0,011
-320,299	-200,000	-0,003	0,131
-319,285	130,890	0,096	0,090
-318,270	462,361	-0,076	-0,124
-317,256	800,000	-0,068	-0,196
-316,241	-200,000	0,002	-0,133
-315,226	800,000	0,017	-0,044
-314,212	-200,000	0,003	0,091
-313,197	-200,000	0,004	0,033
-312,183	-53,285	0,039	-0,013
-311,168	-167,159	0,175	-0,005
-310,153	108,657	0,026	0,023
-309,139	108,610	-0,079	0,069
-308,124	-123,307	0,144	0,017
-307,110	-108,120	0,152	-0,024
-306,095	594,703	-0,025	-0,045
-305,080	-200,000	0,016	0,134
-304,066	485,734	-0,029	0,049
-303,051	-92,795	0,092	-0,019
-302,037	-200,000	-0,015	-0,130
-301,022	27,807	0,096	-0,059
-300,008	-45,670	0,125	-0,045
-298,993	-200,000	0,008	-0,047
-297,978	800,000	0,044	0,100
-296,964	775,271	0,022	-0,043
-295,949	800,000	-0,049	-0,129
-294,935	141,409	-0,082	-0,080
-293,920	399,369	-0,085	-0,131
-292,905	-11,141	0,103	-0,050
-291,891	522,086	0,014	0,024
-290,876	337,673	0,075	-0,107
-289,862	-125,412	-0,116	-0,013
-288,847	-54,568	0,062	0,020
-287,832	220,594	-0,014	-0,016
-286,818	1,684	0,118	0,062
-285,803	-200,000	-0,010	-0,112
-284,789	800,000	-0,022	-0,050
-283,774	-200,000	0,030	0,113
-282,759	173,522	-0,013	0,014
-281,745	-7,946	0,036	-0,018
-280,730	341,880	-0,107	0,153
-279,716	-179,341	0,033	0,001
-278,701	-100,707	0,060	-0,011
-277,686	-200,000	0,016	-0,074
-276,672	800,000	0,068	-0,155
-275,657	-7,303	0,057	0,028
-274,643	130,387	-0,017	-0,016
-273,628	-200,000	-0,002	-0,057
-272,613	800,000	-0,036	0,083
-271,599	-200,000	0,027	0,096
-270,584	-86,697	-0,079	-0,018
-269,570	-200,000	-0,020	0,154
-268,555	100,913	-0,048	0,041
-267,540	144,687	-0,056	-0,054
-266,526	-200,000	0,042	0,162
-265,511	176,429	-0,062	-0,066
-264,497	24,266	0,136	-0,082
-263,482	8,801	0,069	0,038
-262,467	675,104	-0,017	-0,033
-261,453	-4,581	0,104	-0,052
-260,438	-200,000	-0,003	-0,029
-259,424	338,628	-0,086	-0,122
-258,409	-116,256	0,072	0,010
-257,395	42,103	0,067	0,044
-256,380	172,205	0,141	-0,148
-255,365	-200,000	0,040	0,197
-254,351	722,883	-0,019	-0,037
-253,336	-24,344	0,042	-0,018
-252,322	314,177	0,030	-0,041
-251,307	-200,000	0,027	0,134
-250,292	-131,928	-0,104	-0,010
-249,278	660,361	0,058	0,110
-248,263	-200,000	0,075	0,242
-247,249	332,833	-0,064	0,091
-246,234	-151,139	0,066	-0,004
-245,219	-200,000	0,000	-0,096
-244,205	173,034	-0,075	0,079
-243,190	-86,376	0,065	0,015
-242,176	-169,698	0,099	0,003
-241,161	-81,855	0,076	0,018
-240,146	-200,000	0,021	-0,268
-239,132	-97,344	-0,125	0,024
-238,117	-200,000	0,022	-0,085
-237,103	-110,311	-0,022	-0,003
-236,088	81,842	-0,106	-0,084
-235,073	800,000	-0,042	0,133
-234,059	34,170	0,043	-0,027
-233,044	38,530	0,197	0,128
-232,030	307,022	0,097	0,133
-231,015	-10,520	-0,152	-0,073
-230,000	-200,000	-0,007	-0,029
-228,986	255,622	-0,037	-0,046
-227,971	-42,310	0,126	-0,047
-226,957	-88,303	-0,099	-0,022
-225,942	-200,000	0,027	0,131
-224,927	138,428	0,065	-0,062
-223,913	403,953	0,107	-0,166
-222,898	-62,432	-0,113	-0,034
-221,884	76,314	-0,088	-0,068
-220,869	5,738	0,043	-0,023
-219,855	-200,000	0,004	-0,064
-218,840	-200,000	0,018	0,109
-217,825	800,000	0,036	-0,097
-216,811	-97,297	-0,103	0,020
-215,796	324,276	-0,040	-0,057
-214,782	423,793	0,018	-0,028
-213,767	580,318	0,042	0,076
-212,752	20,603	0,101	-0,060
-211,738	-92,236	0,085	-0,017
-210,723	800,000	0,032	0,071
-209,709	-155,289	-0,058	-0,003
-208,694	-73,823	0,115	0,030
-207,679	168,065	0,056	0,058
-206,665	42,169	0,080	-0,053
-205,650	633,317	0,067	-0,125
-204,636	177,254	0,041	0,043
-203,621	-41,813	-0,072	-0,027
-202,606	187,335	-0,013	-0,014
-201,592	154,572	-0,069	0,069
-200,577	42,883	-0,088	0,058
-199,563	142,230	0,032	0,031
-198,548	301,293	0,080	-0,108
-197,533	78,877	0,119	0,093
-196,519	-29,878	0,115	0,048
-195,504	-200,000	-0,027	-0,150
-194,490	171,949	0,058	-0,061
-193,475	40,836	-0,143	0,094
-192,460	-3,790	0,044	0,022
-191,446	-56,671	0,128	0,041
-190,431	-200,000	-0,002	-0,063
-189,417	255,167	-0,051	0,064
-188,402	-200,000	-0,004	-0,098
-187,387	-120,481	-0,083	-0,010
-186,373	800,000	-0,028	-0,074
-185,358	-75,360	0,067	0,017
-184,344	-200,000	0,002	-0,094
-183,329	-3,617	-0,075	-0,038
-182,315	-66,547	0,047	0,014
-181,300	-127,263	-0,051	-0,005
-180,285	800,000	-0,086	0,188
-179,271	-32,403	-0,159	-0,064
-178,256	-105,696	-0,044	-0,007
-177,242	215,064	0,033	0,039
-176,227	-62,612	0,118	-0,035
-175,212	82,340	-0,114	0,090
-174,198	474,716	0,049	-0,080
-173,183	-81,678	-0,172	-0,041
-172,169	206,111	-0,046	0,052
-171,154	-101,833	-0,036	-0,006
-170,139	-200,000	0,032	-0,172
-169,125	800,000	0,013	0,040
-168,110	-113,274	0,216	0,031
-167,096	-156,559	-0,055	0,002
-166,081	-116,939	-0,030	-0,004
-165,066	-200,000	0,011	-0,130
-164,052	194,511	0,049	0,054
-163,037	18,111	0,081	-0,047
-162,023	265,606	0,076	-0,097
-161,008	-46,044	-0,075	0,027
-159,993	-200,000	-0,003	0,022
-158,979	45,275	-0,007	0,005
-157,964	131,611	-0,036	-0,034
-156,950	-27,226	-0,048	-0,020
-155,935	28,797	-0,027	0,017
-154,920	-72,506	0,019	-0,005
-153,906	222,875	-0,048	0,056
-152,891	800,000	-0,051	0,157
-151,877	-55,989	-0,075	-0,024
-150,862	-142,211	-0,124	0,009
-149,847	190,401	0,051	-0,056
-148,833	-200,000	-0,025	-0,093
-147,818	214,561	0,048	0,055
-146,804	166,892	-0,114	-0,118
-145,789	800,000	0,034	0,075
-144,775	-0,290	-0,100	0,052
-143,760	55,238	-0,107	0,075
-142,745	-182,848	0,041	0,001
-141,731	-200,000	0,002	0,025
-140,716	164,941	-0,015	0,015
-139,702	800,000	0,020	0,053
-138,687	-82,436	0,059	-0,014
-137,672	-200,000	0,018	-0,095
-136,658	800,000	-0,070	-0,178
-135,643	-200,000	0,020	-0,119
-134,629	800,000	0,004	0,011
-133,614	-200,000	0,025	-0,098
-132,599	-65,072	0,062	-0,018
-131,585	800,000	0,041	0,098
-130,570	-15,011	0,058	-0,027
-129,556	-10,727	-0,036	0,017
-128,541	462,300	-0,048	-0,078
-127,526	148,510	-0,054	-0,053
-126,512	125,094	-0,094	0,086
-125,497	94,192	0,030	-0,025
-124,483	-200,000	-0,007	-0,099
-123,468	-200,000	0,005	-0,055
-122,453	-200,000	-0,005	0,074
-121,439	-90,075	-0,103	-0,022
-120,424	-200,000	0,022	0,076
