DTS Sentinel unit serial number:	SN410029Multiplexer serial number:	ORYXHardware model number:	OX2-SRSoftware version number:	ORYX F/W v4,00 Oryx Data Collector v3.7.2.0data status	okinstallation	B6 Nyhavnadifferential loss correction	single-endedforward channel	channel 2reverse channel	N/Adate	2023/12/07time	16:40:08forward acquisition time	300,00reverse acquisition time	0,00gamma	499,1914k internal	0,3164k external	0,3164temperature offset calibration	1,0000default loss term (dB/km)	0,3820temperature slope calibration	1,0000multiplexer offset coefficient	1,0000multiplexer slope coefficient	1,0000fibre end	0,00T internal ref (°C)	14,52T ext. ref 1 (°C)	-2,22T ext. ref 2 (°C)	-2,23length (m)	temperature (°C)	Stokes	anti-Stokes-744,400	-72,563	-0,058	0,016
-743,385	-78,775	-0,224	-0,056
-742,371	-33,141	0,168	0,068
-741,356	-142,952	-0,298	-0,021
-740,342	174,214	0,057	0,061
-739,327	-52,246	-0,174	-0,059
-738,312	-200,000	0,016	0,061
-737,298	-160,312	-0,311	-0,012
-736,283	800,000	0,006	-0,017
-735,269	-137,021	-0,186	-0,015
-734,254	-101,599	0,073	-0,013
-733,239	-30,961	-0,532	-0,220
-732,225	428,121	0,050	0,079
-731,210	160,813	0,114	0,117
-730,196	800,000	-0,080	-0,201
-729,181	-200,000	0,003	-0,052
-728,167	800,000	-0,031	-0,082
-727,152	-200,000	0,015	-0,071
-726,137	-46,902	-0,096	-0,034
-725,123	-127,909	-0,244	-0,025
-724,108	25,352	-0,108	-0,066
-723,094	220,289	0,007	0,009
-722,079	-105,260	-0,041	-0,007
-721,064	110,581	0,012	-0,011
-720,050	205,422	-0,057	0,065
-719,035	55,492	-0,101	0,072
-718,021	50,155	-0,115	-0,080
-717,006	78,027	-0,038	-0,029
-715,991	117,704	-0,073	-0,066
-714,977	630,118	-0,099	-0,186
-713,962	-200,000	0,025	-0,092
-712,948	239,485	0,040	0,049
-711,933	69,839	-0,086	-0,065
-710,918	-200,000	-0,031	-0,107
-709,904	153,550	-0,137	-0,138
-708,889	-200,000	0,002	-0,189
-707,875	26,204	-0,106	-0,065
-706,860	800,000	-0,018	-0,051
-705,845	-42,579	0,106	0,039
-704,831	138,491	-0,075	-0,072
-703,816	150,568	-0,119	0,119
-702,802	800,000	-0,024	0,078
-701,787	53,028	-0,103	0,073
-700,772	112,070	0,030	-0,027
-699,758	-31,563	0,078	0,032
-698,743	138,772	0,129	0,125
-697,729	227,560	0,098	0,117
-696,714	-28,596	-0,052	0,022
-695,699	598,761	-0,043	-0,079
-694,685	-200,000	-0,007	0,087
-693,670	-200,000	-0,014	0,116
-692,656	800,000	0,010	0,031
-691,641	405,902	0,026	-0,040
-690,627	-200,000	-0,004	0,019
-689,612	109,433	0,013	0,012
-688,597	175,653	0,047	-0,050
-687,583	-200,000	-0,018	0,101
-686,568	-135,457	-0,104	-0,009
-685,554	363,316	-0,048	0,071
-684,539	82,066	-0,116	0,092
-683,524	-109,063	0,050	-0,008
-682,510	-200,000	0,007	-0,065
-681,495	-51,044	-0,114	0,039
-680,481	-165,440	-0,100	-0,003
-679,466	55,564	-0,072	-0,051
-678,451	338,064	-0,099	-0,142
-677,437	800,000	-0,078	-0,220
-676,422	79,916	0,032	-0,025
-675,408	-200,000	0,000	-0,074
-674,393	-125,787	-0,017	-0,002
-673,378	-38,013	-0,060	-0,023
-672,364	-200,000	0,009	-0,155
-671,349	554,922	-0,077	-0,137
-670,335	-200,000	-0,012	-0,128
-669,320	27,087	0,027	-0,017
-668,305	-200,000	0,021	-0,080
-667,291	-200,000	-0,000	-0,034
-666,276	265,093	0,034	-0,043
-665,262	175,702	-0,120	0,128
-664,247	0,672	-0,020	-0,010
-663,232	-91,998	-0,056	0,012
-662,218	40,169	0,129	0,085
-661,203	28,411	-0,128	0,079
-660,189	-200,000	0,000	-0,160
-659,174	-43,583	-0,095	0,035
-658,159	15,281	-0,174	-0,100
-657,145	115,994	0,071	0,064
-656,130	-200,000	-0,007	0,052
-655,116	-44,216	-0,100	0,036
-654,101	216,538	-0,023	0,027
-653,086	-200,000	-0,028	-0,134
-652,072	-200,000	-0,004	0,016
-651,057	800,000	-0,035	-0,073
-650,043	81,065	-0,187	-0,148
-649,028	-104,764	-0,087	-0,015
-648,014	380,725	0,068	-0,103
-646,999	-200,000	-0,021	-0,070
-645,984	800,000	-0,037	0,082
-644,970	315,946	-0,064	-0,089
-643,955	50,067	0,054	0,037
-642,941	329,073	-0,054	-0,077
-641,926	532,986	-0,040	-0,070
-640,911	800,000	0,019	0,046
-639,897	403,241	0,055	-0,085
-638,882	106,219	0,072	0,062
-637,868	-45,460	0,063	-0,023
-636,853	-36,186	-0,100	0,039
-635,838	614,633	0,031	0,057
-634,824	50,130	0,098	-0,068
-633,809	800,000	0,034	0,074
-632,795	-99,250	0,029	0,005
-631,780	-66,666	0,052	0,015
-630,765	19,566	-0,094	-0,055
-629,751	800,000	-0,047	-0,109
-628,736	800,000	-0,021	0,047
-627,722	-101,868	0,065	0,011
-626,707	-114,551	0,019	-0,003
-625,692	-200,000	0,036	-0,178
-624,678	-199,572	0,067	-0,000
-623,663	-200,000	-0,012	0,044
-622,649	54,389	-0,078	-0,055
-621,634	-88,363	-0,188	-0,041
-620,619	328,433	0,070	-0,099
-619,605	143,799	-0,030	-0,029
-618,590	-49,951	-0,121	-0,042
-617,576	39,561	-0,143	-0,094
-616,561	641,137	0,008	-0,015
-615,546	296,436	-0,037	0,050
-614,532	-32,910	-0,024	0,010
-613,517	122,595	0,071	-0,065
-612,503	255,652	0,065	-0,082
-611,488	-135,532	-0,107	-0,009
-610,474	-146,560	-0,152	-0,010
-609,459	18,653	-0,054	0,032
-608,444	7,208	-0,148	0,080
-607,430	800,000	0,026	0,073
-606,415	57,408	-0,092	-0,066
-605,401	-53,525	0,117	0,039
-604,386	-200,000	-0,008	-0,071
-603,371	-158,313	0,049	0,002
-602,357	17,773	-0,008	-0,005
-601,342	-200,000	-0,002	-0,053
-600,328	264,177	0,028	-0,036
-599,313	350,945	-0,037	0,053
-598,298	-102,790	-0,244	-0,042
-597,284	-200,000	-0,015	-0,094
-596,269	9,083	0,035	0,019
-595,255	800,000	-0,033	0,074
-594,240	-200,000	-0,006	-0,068
-593,225	-19,378	-0,064	-0,029
-592,211	344,142	-0,026	-0,037
-591,196	57,717	0,007	-0,005
-590,182	764,360	0,007	-0,015
-589,167	-27,884	0,130	0,055
-588,152	13,984	-0,052	0,030
-587,138	450,461	0,055	0,089
-586,123	-154,414	-0,042	0,002
-585,109	-118,674	-0,068	-0,009
-584,094	213,933	-0,069	-0,080
-583,079	421,456	0,107	0,168
-582,065	-44,595	-0,152	0,055
-581,050	34,326	0,085	-0,054
-580,036	-31,989	-0,082	-0,033
-579,021	-200,000	0,024	-0,077
-578,006	-200,000	-0,007	-0,032
-576,992	-150,741	0,095	-0,005
-575,977	-200,000	-0,002	0,034
-574,963	800,000	-0,006	0,015
-573,948	-102,034	0,116	0,020
-572,934	-14,573	0,045	-0,021
-571,919	800,000	0,058	0,146
-570,904	176,943	0,031	0,033
-569,890	-200,000	0,001	-0,111
-568,875	165,089	0,159	-0,165
-567,861	161,752	-0,041	-0,042
-566,846	120,951	0,064	0,058
-565,831	800,000	-0,058	-0,187
-564,817	-200,000	0,006	-0,250
-563,802	128,423	-0,098	-0,091
-562,788	-16,238	-0,211	-0,097
-561,773	800,000	-0,045	-0,112
-560,758	-30,290	-0,101	-0,042
-559,744	-200,000	0,003	0,015
-558,729	-52,846	-0,067	0,022
-557,715	-200,000	-0,012	-0,128
-556,700	-57,633	0,101	0,032
-555,685	-104,335	-0,123	-0,021
-554,671	800,000	-0,101	-0,216
-553,656	-94,766	0,093	-0,018
-552,642	-6,058	0,076	0,038
-551,627	444,641	0,041	-0,066
-550,612	-43,739	0,087	-0,032
-549,598	-51,936	-0,073	-0,025
-548,583	159,867	0,034	-0,034
-547,569	-200,000	-0,007	0,097
-546,554	-181,068	0,038	0,001
-545,539	800,000	-0,042	-0,089
-544,525	-180,756	0,141	0,002
-543,510	63,388	0,060	-0,044
-542,496	-37,472	-0,136	-0,053
-541,481	729,572	-0,045	-0,089
-540,466	-104,072	0,086	-0,014
-539,452	-17,038	0,027	0,012
-538,437	800,000	0,017	0,043
-537,423	800,000	0,053	0,108
-536,408	-116,163	-0,035	0,005
-535,393	-86,764	-0,066	-0,015
-534,379	-50,605	-0,130	0,045
-533,364	-121,662	-0,012	-0,001
-532,350	-163,087	-0,081	-0,003
-531,335	5,370	0,161	0,087
-530,321	-67,419	-0,071	-0,020
-529,306	218,543	0,067	-0,079
-528,291	36,971	0,038	-0,025
-527,277	-200,000	-0,009	-0,075
-526,262	-24,028	0,175	-0,076
-525,248	-2,491	-0,168	0,086
-524,233	-72,027	0,133	0,036
-523,218	375,109	-0,081	-0,121
-522,204	-37,850	0,121	0,047
-521,189	800,000	-0,053	0,119
-520,175	115,397	0,011	0,010
-519,160	-200,000	0,003	0,016
-518,145	17,203	0,113	-0,065
-517,131	88,332	0,070	-0,057
-516,116	74,230	0,150	0,115
-515,102	48,831	0,073	0,050
-514,087	-70,172	0,059	0,016
-513,072	-200,000	0,007	-0,058
-512,058	460,009	-0,052	-0,085
-511,043	263,891	0,040	-0,051
-510,029	-107,724	0,040	0,006
-509,014	800,000	0,048	-0,133
-507,999	64,490	-0,107	0,078
-506,985	501,251	-0,042	-0,071
-505,970	604,684	-0,031	-0,056
-504,956	606,819	0,053	-0,096
-503,941	-41,257	0,094	0,035
-502,926	-200,000	-0,008	0,171
-501,912	-51,951	-0,116	-0,039
-500,897	2,439	-0,076	-0,040
-499,883	-200,000	-0,025	-0,112
-498,868	-36,134	-0,078	-0,030
-497,853	-200,000	-0,005	0,016
-496,839	-133,080	0,134	-0,012
-495,824	315,400	0,088	0,122
-494,810	-200,000	-0,002	0,139
-493,795	800,000	-0,020	0,050
-492,781	-47,558	0,062	-0,022
-491,766	-200,000	-0,016	-0,051
-490,751	-200,000	-0,001	-0,019
-489,737	-200,000	-0,025	-0,083
-488,722	90,779	-0,045	0,037
-487,708	139,754	0,020	0,019
-486,693	-200,000	-0,034	0,139
-485,678	270,601	-0,050	-0,064
-484,664	759,105	0,033	-0,066
-483,649	-200,000	-0,015	0,071
-482,635	269,654	-0,117	-0,150
-481,620	-24,717	-0,015	-0,007
-480,605	800,000	-0,047	-0,145
-479,591	-200,000	-0,011	-0,095
-478,576	-87,113	-0,091	-0,020
-477,562	-114,013	-0,122	0,017
-476,547	-12,910	-0,126	-0,059
-475,532	-10,887	0,129	0,062
-474,518	-192,516	0,136	-0,001
-473,503	-88,963	0,103	-0,022
-472,489	-200,000	0,009	0,140
-471,474	-106,050	-0,050	0,008
-470,459	195,478	-0,079	-0,088
-469,445	411,029	0,012	-0,018
-468,430	-83,735	-0,100	0,023
-467,416	206,794	-0,071	-0,081
-466,401	246,072	0,062	-0,076
-465,386	-200,000	-0,007	0,046
-464,372	-20,553	-0,111	0,050
-463,357	-200,000	-0,007	-0,130
-462,343	-2,984	-0,052	0,027
-461,328	-200,000	0,028	-0,096
-460,313	-80,362	0,098	0,024
-459,299	76,266	-0,060	0,046
-458,284	800,000	0,092	0,214
-457,270	441,258	0,052	-0,083
-456,255	-129,041	-0,183	-0,018
-455,241	165,854	-0,098	-0,101
-454,226	105,699	-0,024	-0,021
-453,211	-125,746	-0,118	-0,013
-452,197	-161,453	0,175	0,006
-451,182	-120,897	-0,138	0,017
-450,168	-98,642	0,139	-0,026
-449,153	-35,153	-0,054	0,021
-448,138	-18,270	-0,136	-0,062
-447,124	-200,000	-0,025	-0,094
-446,109	-200,000	-0,009	-0,034
-445,095	-200,000	-0,003	0,020
-444,080	84,067	0,135	0,107
-443,065	17,345	0,050	-0,029
-442,051	-200,000	-0,002	-0,114
-441,036	800,000	-0,035	-0,073
-440,022	800,000	-0,062	-0,136
-439,007	800,000	-0,037	-0,077
-437,992	-15,578	0,143	0,066
-436,978	34,737	0,088	0,056
-435,963	-4,423	-0,080	-0,040
-434,949	552,222	-0,077	0,134
-433,934	139,579	0,045	-0,043
-432,919	-200,000	0,018	-0,140
-431,905	-91,809	0,017	-0,003
-430,890	-14,324	0,084	0,039
-429,876	130,894	0,100	0,093
-428,861	333,097	-0,010	0,014
-427,846	-20,187	0,041	0,018
-426,832	9,685	0,061	0,033
-425,817	-200,000	-0,036	0,141
-424,803	174,323	0,085	0,089
-423,788	-13,534	0,047	-0,022
-422,773	228,122	-0,041	-0,049
-421,759	-47,920	0,038	0,013
-420,744	173,054	-0,091	-0,095
-419,730	-15,713	-0,070	0,032
-418,715	64,148	-0,069	-0,050
-417,701	31,874	0,163	-0,102
-416,686	6,419	0,038	0,020
-415,671	12,223	-0,067	0,037
-414,657	21,302	0,046	-0,027
-413,642	800,000	-0,030	0,080
-412,628	52,526	0,067	0,046
-411,613	394,052	0,092	0,140
-410,598	-200,000	0,018	0,089
-409,584	-104,396	0,204	-0,034
-408,569	-9,181	0,092	0,045
-407,555	800,000	-0,039	0,098
-406,540	-200,000	-0,031	0,128
-405,525	-200,000	0,012	0,071
-404,511	366,581	-0,043	-0,063
-403,496	136,160	0,094	0,089
-402,482	170,489	0,087	0,090
-401,467	-29,604	0,017	0,007
-400,452	-200,000	0,002	0,066
-399,438	43,419	-0,120	-0,080
-398,423	-200,000	-0,008	0,096
-397,409	800,000	-0,048	-0,109
-396,394	85,326	0,046	0,036
-395,379	52,763	-0,093	-0,064
-394,365	358,893	0,029	0,042
-393,350	800,000	0,014	0,038
-392,336	-200,000	-0,009	0,036
-391,321	-200,000	-0,021	0,071
-390,306	-103,456	-0,093	-0,016
-389,292	207,419	-0,036	0,041
-388,277	-200,000	0,009	0,068
-387,263	20,025	0,094	-0,055
-386,248	371,352	0,040	0,059
-385,233	286,233	-0,022	0,029
-384,219	-200,000	-0,003	0,142
-383,204	347,191	-0,026	-0,037
-382,190	-155,824	-0,173	0,008
-381,175	-200,000	-0,014	0,083
-380,160	101,361	0,057	0,048
-379,146	74,400	-0,128	0,097
-378,131	-200,000	0,020	-0,075
-377,117	-200,000	0,031	0,130
-376,102	37,882	0,052	-0,034
-375,088	35,584	-0,055	0,035
-374,073	83,390	0,109	-0,086
-373,058	492,170	0,029	-0,049
-372,044	36,659	0,081	0,052
-371,029	546,703	0,060	0,105
-370,015	-58,323	0,030	-0,009
-369,000	68,751	-0,069	-0,051
-367,985	147,420	0,105	-0,102
-366,971	641,369	-0,081	-0,150
-365,956	784,365	0,062	0,124
-364,942	344,842	0,042	0,060
-363,927	-200,000	-0,010	0,081
-362,912	55,358	-0,160	-0,112
-361,898	87,853	0,051	0,041
-360,883	214,291	-0,050	0,058
-359,869	226,800	-0,029	-0,034
-358,854	800,000	-0,008	-0,023
-357,839	287,787	0,088	0,116
-356,825	454,236	0,054	0,086
-355,810	105,642	-0,144	0,124
-354,796	-200,000	0,007	0,027
-353,781	179,438	-0,058	0,062
-352,766	171,818	0,064	0,067
-351,752	-200,000	-0,004	0,024
-350,737	13,242	-0,029	-0,016
-349,723	-200,000	-0,035	-0,121
-348,708	41,261	0,111	0,072
-347,693	-82,709	-0,058	0,014
-346,679	141,666	-0,110	0,105
-345,664	-78,972	-0,199	0,049
-344,650	-123,841	0,082	-0,009
-343,635	-75,614	-0,065	0,017
-342,620	127,453	-0,005	-0,005
-341,606	112,115	0,026	0,022
-340,591	242,470	0,047	-0,057
-339,577	175,913	-0,020	-0,021
-338,562	64,319	-0,025	0,018
-337,548	-200,000	0,003	0,182
-336,533	800,000	-0,014	0,040
-335,518	800,000	0,023	-0,070
-334,504	786,819	0,008	-0,016
-333,489	101,667	-0,084	0,071
-332,475	-200,000	0,012	0,102
-331,460	-28,337	-0,108	0,045
-330,445	35,324	-0,091	-0,058
-329,431	-200,000	-0,001	-0,076
-328,416	266,772	-0,049	0,062
-327,402	800,000	0,059	0,134
-326,387	119,955	0,018	0,016
-325,372	800,000	-0,091	-0,189
-324,358	-78,385	0,065	0,016
-323,343	-159,833	-0,097	-0,004
-322,329	161,883	0,052	0,053
-321,314	237,452	-0,058	-0,070
-320,299	800,000	0,025	0,061
-319,285	124,994	-0,073	-0,067
-318,270	-82,683	0,015	0,004
-317,256	215,464	0,005	0,005
-316,241	152,948	0,077	0,076
-315,226	-95,832	0,053	-0,010
-314,212	-200,000	0,014	0,201
-313,197	-39,954	-0,023	0,009
-312,183	-111,175	-0,083	0,012
-311,168	31,344	-0,076	0,047
-310,153	110,382	-0,047	-0,041
-309,139	241,100	0,075	-0,091
-308,124	238,809	-0,057	0,068
-307,110	-200,000	0,016	0,066
-306,095	-62,880	0,127	0,038
-305,080	-200,000	0,002	0,063
-304,066	99,495	0,033	-0,027
-303,051	-21,007	0,009	-0,004
-302,037	-200,000	0,005	0,100
-301,022	-113,623	-0,092	0,013
-300,008	-114,117	0,143	-0,020
-298,993	-200,000	0,023	0,126
-297,978	-106,888	0,042	-0,007
-296,964	800,000	0,041	-0,124
-295,949	-156,742	-0,057	-0,003
-294,935	435,553	-0,059	0,094
-293,920	158,437	-0,055	-0,055
-292,905	131,320	0,039	-0,036
-291,891	3,180	0,178	0,093
-290,876	-4,523	-0,035	-0,018
-289,862	106,403	0,022	0,019
-288,847	-69,129	-0,131	-0,036
-287,832	-13,284	-0,114	0,053
-286,818	483,921	0,025	-0,041
-285,803	76,650	0,083	-0,063
-284,789	4,021	-0,165	-0,087
-283,774	-98,365	-0,116	0,021
-282,759	-166,120	-0,097	-0,003
-281,745	-100,893	0,087	-0,015
-280,730	-4,988	-0,061	0,030
-279,716	18,820	0,026	-0,015
-278,701	-200,000	-0,002	0,032
-277,686	-200,000	0,002	0,010
-276,672	359,194	0,039	-0,057
-275,657	204,936	0,054	-0,061
-274,643	351,983	-0,051	-0,074
-273,628	72,458	-0,140	-0,105
-272,613	33,444	0,083	0,052
-271,599	-113,516	0,167	0,023
-270,584	-11,416	0,017	-0,008
-269,570	-149,970	-0,058	0,003
-268,555	250,737	0,073	0,089
-267,540	-84,210	0,029	0,007
-266,526	-172,727	-0,190	0,004
-265,511	39,223	0,146	-0,094
-264,497	800,000	-0,053	-0,109
-263,482	-131,110	0,099	0,009
-262,467	2,756	0,075	-0,039
-261,453	800,000	-0,017	0,035
-260,438	-114,327	0,079	-0,011
-259,424	50,166	0,042	-0,028
-258,409	-122,456	0,067	-0,008
-257,395	5,049	-0,123	0,065
-256,380	-200,000	-0,003	-0,067
-255,365	127,400	-0,015	-0,014
-254,351	800,000	-0,033	-0,081
-253,336	159,527	0,030	-0,030
-252,322	63,804	0,079	-0,057
-251,307	567,733	0,066	-0,116
-250,292	322,071	0,023	-0,032
-249,278	1,466	0,077	-0,040
-248,263	45,309	-0,107	0,071
-247,249	-85,101	-0,090	0,020
-246,234	-46,614	0,017	-0,006
-245,219	559,296	0,010	-0,017
-244,205	-45,758	-0,048	-0,017
-243,190	-177,447	0,158	-0,003
-242,176	-33,689	0,051	0,020
-241,161	-200,000	-0,024	0,082
-240,146	13,327	-0,058	-0,033
-239,132	-57,209	-0,065	0,021
-238,117	-200,000	-0,017	0,102
-237,103	362,508	0,068	-0,098
-236,088	-167,138	0,015	-0,000
-235,073	-200,000	0,027	0,108
-234,059	-200,000	-0,009	0,133
-233,044	142,187	0,031	0,029
-232,030	140,511	-0,026	-0,025
-231,015	55,187	-0,025	-0,017
-230,000	452,578	0,025	-0,039
-228,986	175,805	-0,116	-0,122
-227,971	400,372	0,064	0,097
-226,957	-200,000	0,041	0,169
-225,942	619,760	-0,045	0,081
-224,927	800,000	-0,012	0,024
-223,913	-5,847	0,050	0,025
-222,898	-126,833	0,107	0,011
-221,884	-200,000	0,020	-0,071
-220,869	-200,000	0,009	-0,053
-219,855	-62,812	-0,009	0,003
-218,840	-147,330	0,084	0,005
-217,825	800,000	-0,063	0,145
-216,811	789,160	0,023	-0,045
-215,796	-150,965	-0,026	-0,001
-214,782	-200,000	-0,009	0,102
-213,767	800,000	0,002	0,004
-212,752	-42,041	0,058	0,021
-211,738	-200,000	0,029	-0,095
-210,723	-200,000	-0,005	0,042
-209,709	449,212	-0,060	-0,096
-208,694	-200,000	0,029	-0,152
-207,679	-137,435	-0,052	-0,004
-206,665	-154,022	-0,064	0,003
-205,650	613,803	0,018	0,032
-204,636	30,260	0,061	-0,038
-203,621	98,803	0,050	-0,042
-202,606	343,096	0,013	0,019
-201,592	-200,000	0,014	0,048
-200,577	-100,089	-0,131	-0,023
-199,563	45,339	-0,058	0,038
-198,548	-200,000	-0,015	-0,104
-197,533	-200,000	0,034	0,156
-196,519	303,839	-0,062	0,083
-195,504	222,795	-0,123	-0,144
-194,490	-10,179	0,076	0,036
-193,475	-200,000	-0,036	-0,181
-192,460	66,780	0,056	-0,041
-191,446	-28,679	0,032	0,013
-190,431	535,829	0,026	0,045
-189,417	-200,000	0,013	0,149
-188,402	-58,928	0,034	0,010
-187,387	-200,000	0,005	0,139
-186,373	-34,156	0,072	-0,028
-185,358	800,000	0,008	-0,018
-184,344	179,768	-0,025	-0,027
-183,329	-28,718	0,112	0,046
-182,315	470,306	0,085	0,138
-181,300	-200,000	-0,005	-0,146
-180,285	-22,721	0,045	0,019
-179,271	-200,000	0,017	0,060
-178,256	-84,306	-0,111	-0,025
-177,242	160,707	-0,048	-0,048
-176,227	-200,000	0,005	0,077
-175,212	800,000	0,020	0,055
-174,198	485,200	0,022	-0,036
-173,183	-100,734	-0,085	-0,015
-172,169	65,692	-0,143	-0,104
-171,154	33,046	0,081	0,050
-170,139	-45,734	0,108	0,038
-169,125	800,000	0,044	0,106
-168,110	-200,000	-0,018	0,083
-167,096	-200,000	0,038	-0,146
-166,081	-200,000	0,011	0,077
-165,066	-97,487	-0,078	-0,014
-164,052	407,020	0,042	-0,064
-163,037	800,000	-0,055	0,126
-162,023	199,508	0,081	0,089
-161,008	81,667	0,071	0,055
-159,993	308,912	0,019	0,025
-158,979	253,369	0,117	0,144
-157,964	-200,000	-0,000	-0,045
-156,950	264,811	0,039	0,049
-155,935	-66,121	0,061	0,017
-154,920	-96,629	0,089	-0,017
-153,906	800,000	0,065	0,144
-152,891	81,603	0,042	-0,033
-151,877	368,115	0,090	-0,131
-150,862	158,450	0,101	-0,101
-149,847	-15,402	-0,095	-0,044
-148,833	-96,064	-0,060	-0,011
-147,818	-73,584	0,224	-0,058
-146,804	377,573	-0,059	0,087
-145,789	-41,492	0,073	0,027
-144,775	109,123	-0,084	-0,073
-143,760	-20,869	-0,022	-0,010
-142,745	85,964	-0,099	-0,078
-141,731	-48,600	0,151	-0,052
-140,716	124,716	0,092	0,084
-139,702	-13,265	0,059	-0,027
-138,687	-154,428	0,034	-0,002
-137,672	-86,369	-0,148	-0,032
-136,658	62,982	-0,044	0,031
-135,643	800,000	0,053	-0,119
-134,629	-134,734	0,029	-0,002
-133,614	355,163	0,070	-0,101
-132,599	800,000	-0,028	0,075
-131,585	-51,150	0,101	-0,034
-130,570	-149,417	-0,021	-0,001
-129,556	100,741	-0,091	0,076
-128,541	800,000	0,021	-0,045
-127,526	-158,160	0,061	-0,003
-126,512	800,000	-0,036	0,111
-125,497	436,926	0,039	-0,062
-124,483	1,557	0,115	0,059
-123,468	800,000	0,034	0,106
-122,453	800,000	0,042	0,124
-121,439	-128,102	-0,076	-0,008
-120,424	8,719	-0,170	-0,092
-119,410	-119,955	0,100	0,012
