DTS Sentinel unit serial number:	SN410029Multiplexer serial number:	ORYXHardware model number:	OX2-SRSoftware version number:	ORYX F/W v4,00 Oryx Data Collector v3.7.2.0data status	okinstallation	B6 Nyhavnadifferential loss correction	single-endedforward channel	channel 2reverse channel	N/Adate	2023/12/10time	07:25:08forward acquisition time	300,00reverse acquisition time	0,00gamma	499,1914k internal	0,3124k external	0,3124temperature offset calibration	1,0000default loss term (dB/km)	0,3820temperature slope calibration	1,0000multiplexer offset coefficient	1,0000multiplexer slope coefficient	1,0000fibre end	0,00T internal ref (°C)	22,62T ext. ref 1 (°C)	6,31T ext. ref 2 (°C)	6,30length (m)	temperature (°C)	Stokes	anti-Stokes-744,400	-200,000	-0,001	-0,092
-743,385	93,237	-0,126	0,106
-742,371	72,988	0,006	-0,005
-741,356	146,578	-0,304	0,304
-740,342	800,000	-0,046	0,114
-739,327	-35,199	-0,122	0,049
-738,312	-200,000	-0,053	-0,223
-737,298	-100,278	-0,317	0,058
-736,283	800,000	0,048	-0,120
-735,269	-104,251	-0,232	0,040
-734,254	-74,496	-0,056	-0,015
-733,239	-1,928	-0,357	-0,186
-732,225	294,892	0,039	-0,054
-731,210	243,648	0,151	0,189
-730,196	49,691	-0,072	0,050
-729,181	800,000	-0,024	-0,066
-728,167	-50,046	0,021	0,007
-727,152	264,220	0,072	-0,093
-726,137	165,674	-0,166	-0,175
-725,123	206,372	-0,055	-0,064
-724,108	-200,000	-0,008	-0,045
-723,094	167,238	-0,104	-0,111
-722,079	-200,000	-0,019	-0,139
-721,064	35,119	-0,086	0,056
-720,050	78,144	0,036	0,029
-719,035	-200,000	0,002	0,104
-718,021	-92,489	-0,115	0,024
-717,006	800,000	-0,035	0,080
-715,991	-200,000	-0,011	-0,094
-714,977	333,288	0,057	0,082
-713,962	300,181	-0,060	0,082
-712,948	800,000	-0,039	0,091
-711,933	40,918	0,117	-0,078
-710,918	800,000	-0,031	0,085
-709,904	-177,517	-0,097	-0,002
-708,889	-200,000	0,024	0,148
-707,875	4,972	-0,043	-0,023
-706,860	32,820	0,066	-0,043
-705,845	56,201	-0,039	0,028
-704,831	-7,994	-0,040	0,020
-703,816	-18,176	-0,041	0,019
-702,802	215,350	0,093	-0,110
-701,787	-200,000	-0,002	-0,032
-700,772	12,094	-0,027	0,015
-699,758	58,719	0,020	0,014
-698,743	-200,000	-0,001	0,065
-697,729	33,061	0,135	0,087
-696,714	485,254	0,006	0,011
-695,699	174,263	-0,042	-0,045
-694,685	-200,000	0,000	-0,149
-693,670	285,828	0,044	-0,059
-692,656	567,018	0,075	0,136
-691,641	-157,956	-0,068	0,003
-690,627	-162,588	-0,145	0,005
-689,612	80,522	-0,083	0,067
-688,597	183,506	0,044	-0,049
-687,583	-200,000	0,023	-0,082
-686,568	130,661	-0,071	-0,068
-685,554	-179,643	-0,103	-0,002
-684,539	245,813	0,074	0,093
-683,524	800,000	-0,040	0,089
-682,510	141,442	-0,122	0,120
-681,495	151,141	-0,023	-0,023
-680,481	-58,032	-0,092	-0,030
-679,466	537,109	-0,103	-0,183
-678,451	96,844	-0,075	-0,064
-677,437	410,273	0,019	-0,030
-676,422	-200,000	-0,024	0,171
-675,408	-43,842	-0,148	-0,055
-674,393	-200,000	0,037	-0,143
-673,378	-200,000	0,001	0,006
-672,364	-81,866	-0,050	-0,012
-671,349	-7,977	-0,046	0,023
-670,335	-68,013	-0,104	0,030
-669,320	46,291	-0,053	-0,037
-668,305	107,867	-0,093	0,083
-667,291	-200,000	-0,017	0,156
-666,276	-58,196	0,059	-0,019
-665,262	-55,182	-0,137	0,046
-664,247	76,411	0,055	0,043
-663,232	-200,000	0,007	0,025
-662,218	81,400	-0,057	0,046
-661,203	-26,052	0,096	-0,042
-660,189	109,961	-0,052	0,046
-659,174	97,454	-0,093	-0,079
-658,159	-200,000	0,008	-0,064
-657,145	800,000	0,007	0,023
-656,130	-90,133	-0,049	-0,011
-655,116	-200,000	0,019	0,066
-654,101	-30,944	0,149	-0,062
-653,086	538,415	-0,026	0,046
-652,072	-51,813	-0,094	-0,032
-651,057	-84,391	-0,010	0,002
-650,043	373,853	-0,109	-0,165
-649,028	-71,870	-0,041	0,011
-648,014	405,654	-0,034	0,053
-646,999	695,426	0,031	0,061
-645,984	-156,508	0,033	-0,001
-644,970	-200,000	0,018	0,103
-643,955	-18,822	0,132	0,061
-642,941	212,307	-0,058	-0,068
-641,926	-47,940	-0,118	-0,042
-640,911	800,000	0,036	-0,075
-639,897	-194,528	-0,041	0,000
-638,882	-200,000	-0,025	0,090
-637,868	391,664	-0,055	0,085
-636,853	-133,052	-0,096	-0,009
-635,838	534,592	0,083	-0,147
-634,824	-176,150	-0,136	-0,003
-633,809	780,572	0,034	0,070
-632,795	20,198	0,077	0,046
-631,780	83,637	0,065	0,052
-630,765	800,000	0,038	-0,118
-629,751	-31,654	-0,134	-0,055
-628,736	800,000	-0,019	0,060
-627,722	57,843	0,055	-0,040
-626,707	201,861	-0,067	-0,076
-625,692	33,075	0,035	0,022
-624,678	238,803	-0,036	0,044
-623,663	-20,041	-0,044	0,020
-622,649	286,334	-0,072	-0,096
-621,634	-200,000	-0,182	-0,000
-620,619	-49,994	-0,118	0,041
-619,605	800,000	0,031	-0,101
-618,590	10,755	0,134	-0,075
-617,576	-162,739	-0,101	0,004
-616,561	-200,000	-0,009	-0,061
-615,546	14,794	0,058	0,034
-614,532	163,981	-0,099	-0,104
-613,517	236,311	0,051	-0,062
-612,503	382,382	-0,003	-0,005
-611,488	183,890	-0,015	0,017
-610,474	-200,000	-0,027	0,098
-609,459	-200,000	-0,056	0,213
-608,444	-149,890	-0,080	-0,005
-607,430	-47,246	0,019	-0,007
-606,415	-66,632	-0,125	-0,037
-605,401	-173,694	0,054	-0,001
-604,386	177,601	0,043	0,047
-603,371	-200,000	0,026	0,085
-602,357	800,000	-0,047	0,107
-601,342	-83,880	-0,131	-0,031
-600,328	-95,405	-0,124	-0,025
-599,313	16,339	-0,149	-0,087
-598,298	677,577	0,015	-0,030
-597,284	800,000	-0,065	-0,142
-596,269	-121,439	-0,105	0,013
-595,255	-26,296	-0,209	-0,091
-594,240	800,000	-0,021	0,049
-593,225	-200,000	0,001	0,057
-592,211	460,089	-0,045	-0,074
-591,196	154,878	0,029	-0,029
-590,182	-200,000	-0,023	0,103
-589,167	-160,889	-0,050	-0,002
-588,152	460,715	0,115	0,191
-587,138	-63,648	-0,083	-0,025
-586,123	212,374	0,023	0,027
-585,109	-200,000	-0,013	-0,151
-584,094	-33,670	0,038	0,015
-583,079	199,015	-0,090	0,102
-582,065	90,582	-0,042	0,035
-581,050	-167,170	-0,048	0,001
-580,036	-200,000	-0,021	0,118
-579,021	92,316	-0,069	0,058
-578,006	-200,000	-0,028	-0,100
-576,992	692,522	0,046	-0,090
-575,977	162,655	0,088	0,091
-574,963	25,324	0,076	0,046
-573,948	-2,674	-0,181	-0,093
-572,934	104,536	0,065	0,057
-571,919	53,426	-0,060	-0,042
-570,904	-127,905	-0,078	-0,008
-569,890	-200,000	0,024	-0,106
-568,875	-101,835	-0,050	0,009
-567,861	-129,933	0,040	-0,004
-566,846	-140,872	-0,151	0,011
-565,831	-200,000	0,009	-0,093
-564,817	24,160	-0,045	-0,028
-563,802	-88,495	-0,050	0,011
-562,788	396,820	0,074	-0,116
-561,773	20,688	-0,147	0,088
-560,758	-1,189	0,093	0,048
-559,744	161,526	0,013	0,014
-558,729	-33,199	0,085	0,035
-557,715	436,130	-0,102	-0,165
-556,700	242,403	-0,123	-0,153
-555,685	-86,380	0,088	0,020
-554,671	-200,000	-0,000	-0,121
-553,656	493,401	0,097	-0,165
-552,642	-102,469	-0,062	0,011
-551,627	-200,000	-0,004	0,081
-550,612	102,703	-0,132	0,114
-549,598	-126,374	-0,083	0,009
-548,583	-47,636	-0,037	-0,013
-547,569	-200,000	-0,007	0,063
-546,554	-200,000	-0,007	0,101
-545,539	242,937	0,046	0,057
-544,525	-68,627	0,073	0,021
-543,510	62,896	0,019	0,014
-542,496	-200,000	-0,009	-0,059
-541,481	-18,323	-0,104	-0,048
-540,466	317,714	-0,034	-0,048
-539,452	-28,739	-0,107	0,045
-538,437	135,277	0,097	0,094
-537,423	-48,933	-0,064	-0,022
-536,408	800,000	0,045	-0,108
-535,393	-200,000	-0,012	-0,064
-534,379	154,639	-0,104	-0,105
-533,364	800,000	0,027	-0,083
-532,350	-103,941	0,123	-0,021
-531,335	-200,000	-0,003	-0,075
-530,321	-5,512	-0,064	-0,032
-529,306	-119,008	0,105	0,013
-528,291	483,622	-0,023	0,039
-527,277	13,281	0,119	-0,068
-526,262	90,005	-0,066	0,055
-525,248	488,716	-0,017	0,028
-524,233	-200,000	-0,017	0,069
-523,218	314,297	0,012	-0,017
-522,204	-200,000	-0,040	-0,162
-521,189	14,947	-0,107	-0,062
-520,175	-110,635	-0,107	0,016
-519,160	-109,409	-0,158	-0,025
-518,145	-158,373	0,080	0,003
-517,131	-200,000	-0,008	-0,120
-516,116	-74,231	0,031	-0,008
-515,102	800,000	0,066	0,166
-514,087	-23,199	-0,151	0,067
-513,072	800,000	0,043	-0,088
-512,058	-200,000	0,003	0,086
-511,043	800,000	-0,008	-0,024
-510,029	-16,791	0,043	0,020
-509,014	9,884	-0,028	-0,016
-507,999	-188,405	0,082	-0,001
-506,985	-108,536	-0,048	0,008
-505,970	-9,842	-0,134	-0,066
-504,956	-26,088	0,122	-0,053
-503,941	-200,000	0,014	-0,104
-502,926	182,405	0,082	0,090
-501,912	-95,425	0,102	-0,020
-500,897	237,002	-0,017	0,020
-499,883	-88,006	-0,088	-0,019
-498,868	529,523	0,016	0,027
-497,853	165,736	-0,116	-0,121
-496,839	483,983	0,034	0,058
-495,824	-200,000	-0,018	0,086
-494,810	-200,000	-0,003	-0,037
-493,795	-23,222	-0,170	-0,075
-492,781	800,000	0,031	-0,065
-491,766	729,892	-0,044	-0,087
-490,751	46,959	-0,092	-0,063
-489,737	379,858	-0,060	-0,090
-488,722	689,761	0,063	-0,123
-487,708	800,000	0,017	0,049
-486,693	800,000	-0,008	0,021
-485,678	-200,000	0,008	0,082
-484,664	-200,000	0,005	-0,043
-483,649	236,442	0,063	-0,078
-482,635	800,000	-0,022	-0,050
-481,620	333,794	0,078	-0,112
-480,605	-81,315	0,052	-0,013
-479,591	-200,000	-0,029	0,229
-478,576	-96,174	0,135	0,026
-477,562	-200,000	-0,055	0,240
-476,547	800,000	-0,030	-0,072
-475,532	654,058	0,028	0,052
-474,518	149,234	0,050	0,050
-473,503	10,217	0,073	0,041
-472,489	317,297	0,066	-0,092
-471,474	-176,103	-0,090	-0,002
-470,459	360,666	-0,067	0,099
-469,445	330,788	-0,088	-0,126
-468,430	-200,000	0,004	-0,015
-467,416	539,137	-0,091	-0,160
-466,401	-138,486	0,073	0,006
-465,386	325,909	0,029	-0,042
-464,372	-178,702	0,079	0,001
-463,357	133,050	-0,128	-0,122
-462,343	-200,000	0,008	-0,065
-461,328	-200,000	-0,013	0,049
-460,313	-118,488	0,138	0,018
-459,299	800,000	0,020	0,044
-458,284	-134,652	0,089	-0,008
-457,270	-94,719	-0,015	-0,003
-456,255	-12,065	-0,075	0,036
-455,241	134,860	-0,082	-0,079
-454,226	-130,594	0,043	0,004
-453,211	-200,000	0,001	0,039
-452,197	-34,089	-0,021	-0,009
-451,182	-64,566	0,108	0,032
-450,168	-17,649	-0,188	0,087
-449,153	-200,000	-0,018	-0,087
-448,138	301,299	-0,025	-0,034
-447,124	-200,000	0,009	-0,121
-446,109	-84,547	-0,052	0,012
-445,095	-200,000	0,016	0,083
-444,080	800,000	0,039	0,082
-443,065	-200,000	-0,013	0,057
-442,051	193,055	-0,016	-0,017
-441,036	379,233	-0,123	-0,187
-440,022	15,162	-0,087	0,050
-439,007	-64,489	0,065	0,019
-437,992	-200,000	0,016	0,150
-436,978	-117,022	0,114	-0,015
-435,963	-200,000	-0,023	0,088
-434,949	-74,761	0,038	-0,010
-433,934	-177,135	-0,138	-0,002
-432,919	182,720	0,082	0,089
-431,905	-200,000	-0,011	-0,052
-430,890	-119,109	-0,085	0,011
-429,876	-28,368	0,087	0,037
-428,861	-48,758	-0,082	0,029
-427,846	5,118	0,063	0,034
-426,832	176,570	-0,045	-0,048
-425,817	118,196	0,094	-0,086
-424,803	800,000	-0,040	0,111
-423,788	-62,212	0,101	0,031
-422,773	-7,340	0,162	0,081
-421,759	-124,995	-0,179	-0,020
-420,744	-103,024	0,148	-0,026
-419,730	105,567	-0,099	0,086
-418,715	78,834	-0,174	0,137
-417,701	543,466	-0,070	0,123
-416,686	26,947	0,077	0,047
-415,671	171,039	-0,036	0,038
-414,657	69,936	0,051	0,038
-413,642	192,759	0,086	-0,095
-412,628	337,960	-0,026	0,038
-411,613	800,000	0,015	0,032
-410,598	-130,786	0,102	0,010
-409,584	45,066	-0,066	-0,044
-408,569	219,559	-0,074	-0,088
-407,555	19,991	0,082	0,048
-406,540	-200,000	0,011	0,051
-405,525	-200,000	0,013	-0,082
-404,511	46,257	-0,099	0,067
-403,496	481,565	0,039	-0,066
-402,482	-200,000	-0,010	-0,063
-401,467	-200,000	-0,043	-0,139
-400,452	109,646	-0,019	-0,016
-399,438	-23,683	0,088	0,039
-398,423	-200,000	-0,039	0,142
-397,409	800,000	-0,072	-0,151
-396,394	206,241	0,104	-0,120
-395,379	-61,472	-0,125	-0,038
-394,365	800,000	-0,018	-0,055
-393,350	-200,000	0,000	0,060
-392,336	-18,978	-0,144	0,066
-391,321	211,244	-0,059	-0,068
-390,306	-185,393	-0,041	0,000
-389,292	-78,469	0,102	-0,025
-388,277	93,868	0,061	-0,051
-387,263	-100,091	0,128	-0,023
-386,248	-200,000	-0,014	-0,054
-385,233	-200,000	-0,007	-0,035
-384,219	-94,451	0,133	-0,026
-383,204	-143,526	-0,105	-0,007
-382,190	622,287	-0,020	-0,038
-381,175	32,111	0,100	-0,063
-380,160	171,431	0,107	-0,113
-379,146	-122,158	0,172	-0,021
-378,131	17,489	-0,080	-0,047
-377,117	0,039	0,108	-0,056
-376,102	119,959	-0,015	0,013
-375,088	800,000	0,044	0,098
-374,073	58,091	-0,048	0,035
-373,058	563,389	0,041	0,074
-372,044	-131,082	0,162	0,016
-371,029	-148,617	-0,128	0,008
-370,015	800,000	0,052	0,124
-369,000	696,822	-0,035	0,067
-367,985	-200,000	0,006	-0,047
-366,971	41,155	0,103	0,068
-365,956	-46,519	-0,054	-0,019
-364,942	-79,845	0,119	0,029
-363,927	262,301	0,027	-0,035
-362,912	221,011	-0,073	0,086
-361,898	-119,308	0,089	-0,011
-360,883	-83,429	0,055	0,013
-359,869	-68,824	0,077	0,022
-358,854	-25,991	-0,027	-0,011
-357,839	-200,000	-0,007	0,111
-356,825	144,550	-0,048	0,047
-355,810	371,293	0,034	0,050
-354,796	68,943	-0,088	-0,066
-353,781	-200,000	0,006	0,121
-352,766	322,244	-0,080	0,111
-351,752	800,000	0,022	-0,071
-350,737	-200,000	0,024	0,126
-349,723	-46,719	-0,027	0,010
-348,708	-200,000	-0,018	-0,101
-347,693	364,239	0,104	-0,155
-346,679	182,952	0,043	0,046
-345,664	-200,000	-0,016	-0,070
-344,650	399,333	-0,041	-0,063
-343,635	-200,000	0,042	0,151
-342,620	71,780	0,081	0,062
-341,606	0,512	0,101	0,053
-340,591	800,000	0,016	-0,043
-339,577	-62,958	0,070	0,021
-338,562	-200,000	-0,020	-0,074
-337,548	-200,000	0,001	0,010
-336,533	-66,900	0,140	-0,040
-335,518	-110,352	0,170	0,026
-334,504	800,000	-0,026	-0,054
-333,489	800,000	0,036	-0,077
-332,475	-200,000	0,016	-0,159
-331,460	249,970	0,063	0,078
-330,445	-200,000	-0,017	-0,107
-329,431	-48,711	0,140	0,049
-328,416	115,146	0,077	0,069
-327,402	224,613	0,085	0,101
-326,387	800,000	0,014	0,033
-325,372	-87,390	0,096	-0,021
-324,358	239,940	0,084	-0,102
-323,343	216,308	0,023	-0,026
-322,329	-173,853	0,061	-0,001
-321,314	-14,035	0,080	0,038
-320,299	-200,000	-0,041	-0,149
-319,285	-46,351	-0,064	-0,023
-318,270	800,000	-0,028	0,064
-317,256	7,709	0,105	-0,058
-316,241	90,809	-0,163	-0,134
-315,226	-101,274	0,099	0,018
-314,212	-16,540	0,112	-0,052
-313,197	152,544	-0,058	0,058
-312,183	146,643	0,026	0,026
-311,168	294,193	0,015	0,020
-310,153	0,856	-0,113	-0,059
-309,139	514,368	0,051	-0,088
-308,124	329,751	0,083	-0,117
-307,110	-134,606	-0,014	-0,001
-306,095	144,733	0,072	-0,071
-305,080	-200,000	0,009	0,030
-304,066	800,000	-0,026	0,056
-303,051	562,725	0,056	-0,099
-302,037	-105,612	-0,112	-0,018
-301,022	140,749	0,090	0,087
-300,008	134,704	0,112	0,106
-298,993	-45,413	0,111	0,040
-297,978	-200,000	0,011	-0,069
-296,964	-115,061	-0,093	0,013
-295,949	86,898	0,085	-0,069
-294,935	292,730	0,105	-0,141
-293,920	800,000	-0,026	0,076
-292,905	-86,283	-0,121	-0,027
-291,891	800,000	0,045	0,109
-290,876	216,033	-0,091	0,106
-289,862	-200,000	-0,014	0,111
-288,847	-99,458	0,128	-0,023
-287,832	-37,485	-0,168	-0,065
-286,818	-100,646	0,142	-0,025
-285,803	269,057	0,047	0,061
-284,789	482,577	-0,037	0,061
-283,774	-200,000	-0,022	0,222
-282,759	-131,965	-0,126	-0,012
-281,745	267,976	0,128	-0,165
-280,730	-200,000	0,020	-0,157
-279,716	-126,395	0,058	0,006
-278,701	-200,000	0,011	-0,110
-277,686	453,679	0,037	0,060
-276,672	-200,000	0,003	-0,013
-275,657	-200,000	-0,010	-0,065
-274,643	184,332	-0,018	0,019
-273,628	-200,000	0,030	-0,099
-272,613	550,579	-0,069	0,121
-271,599	-101,530	0,044	0,008
-270,584	-200,000	-0,003	0,091
-269,570	-14,924	0,039	0,018
-268,555	253,172	-0,051	0,064
-267,540	-200,000	0,015	-0,099
-266,526	-200,000	0,001	0,128
-265,511	181,389	0,093	0,100
-264,497	-200,000	-0,000	0,139
-263,482	800,000	0,032	0,077
-262,467	-60,956	0,018	-0,006
-261,453	84,855	-0,033	-0,026
-260,438	15,842	0,066	-0,038
-259,424	800,000	0,027	-0,073
-258,409	-60,092	-0,085	-0,026
-257,395	367,296	-0,041	0,060
-256,380	-102,741	0,176	-0,030
-255,365	170,597	0,100	0,104
-254,351	-123,149	0,197	-0,023
-253,336	-200,000	0,001	-0,077
-252,322	800,000	-0,045	-0,095
-251,307	-200,000	0,023	-0,141
-250,292	-200,000	-0,002	-0,039
-249,278	370,206	0,055	0,082
-248,263	-50,565	-0,082	0,028
-247,249	60,027	-0,049	0,036
-246,234	537,012	-0,006	-0,011
-245,219	16,888	-0,109	-0,063
-244,205	49,433	0,158	0,109
-243,190	-200,000	-0,051	-0,192
-242,176	42,221	0,055	0,036
-241,161	-200,000	0,024	0,141
-240,146	331,162	-0,082	0,116
-239,132	-71,536	0,059	-0,016
-238,117	-185,973	-0,132	-0,001
-237,103	-200,000	0,016	0,085
-236,088	800,000	0,086	-0,211
-235,073	-186,432	0,064	-0,001
-234,059	-107,048	0,088	-0,014
-233,044	800,000	0,051	0,128
-232,030	-107,828	0,070	0,011
-231,015	-14,098	-0,054	0,025
-230,000	86,357	-0,056	0,045
-228,986	-91,653	0,058	0,012
-227,971	-71,224	-0,114	0,031
-226,957	-200,000	-0,016	0,055
-225,942	155,350	0,081	0,082
-224,927	94,823	-0,070	-0,058
-223,913	-200,000	0,004	-0,085
-222,898	-51,375	-0,119	0,040
-221,884	-113,028	0,063	0,009
-220,869	800,000	0,017	-0,054
-219,855	-200,000	0,011	0,070
-218,840	-200,000	-0,014	0,105
-217,825	0,149	-0,072	-0,038
-216,811	78,939	0,031	-0,024
-215,796	-200,000	0,003	-0,018
-214,782	-200,000	-0,004	0,048
-213,767	-138,941	0,071	0,006
-212,752	301,030	0,032	-0,043
-211,738	-96,546	-0,005	-0,001
-210,723	800,000	0,044	0,106
-209,709	226,953	0,052	0,062
-208,694	-72,661	0,164	0,044
-207,679	-37,014	0,072	-0,028
-206,665	800,000	0,035	-0,084
-205,650	-200,000	0,017	-0,072
-204,636	-104,637	-0,084	-0,014
-203,621	-39,569	0,121	-0,046
-202,606	-51,462	0,067	-0,023
-201,592	324,176	0,022	0,031
-200,577	-200,000	0,021	-0,089
-199,563	-105,757	-0,087	-0,014
-198,548	67,278	-0,062	0,046
-197,533	-200,000	0,003	0,041
-196,519	211,704	0,070	0,080
-195,504	-200,000	-0,001	0,039
-194,490	800,000	0,022	-0,066
-193,475	45,067	-0,050	0,034
-192,460	-151,640	-0,102	0,005
-191,446	-129,788	-0,131	-0,013
-190,431	800,000	0,044	0,096
-189,417	75,197	-0,098	-0,075
-188,402	-141,876	0,137	0,010
-187,387	800,000	-0,018	0,054
-186,373	-200,000	-0,016	0,076
-185,358	275,397	0,073	-0,094
-184,344	-200,000	-0,019	0,131
-183,329	-44,030	0,120	-0,044
-182,315	-15,294	-0,074	-0,034
-181,300	-200,000	-0,008	0,087
-180,285	747,430	0,075	0,148
-179,271	-115,129	-0,143	0,020
-178,256	-120,190	-0,025	-0,003
-177,242	800,000	-0,045	0,113
-176,227	-67,549	-0,025	0,007
-175,212	190,246	0,028	0,030
-174,198	-200,000	0,021	-0,109
-173,183	20,058	0,032	-0,019
-172,169	-200,000	0,002	0,017
-171,154	0,496	0,056	-0,029
-170,139	-200,000	-0,043	0,143
-169,125	254,420	0,060	0,075
-168,110	691,605	0,040	-0,076
-167,096	-182,607	-0,160	0,002
-166,081	165,493	-0,068	0,070
-165,066	143,944	-0,016	0,015
-164,052	-129,419	-0,180	-0,018
-163,037	-11,517	-0,021	0,010
-162,023	-200,000	0,039	0,221
-161,008	-200,000	0,008	0,141
-159,993	113,033	-0,055	0,048
-158,979	-113,193	-0,040	-0,006
-157,964	-56,054	0,012	0,004
-156,950	218,861	-0,054	-0,063
-155,935	496,510	-0,046	-0,078
-154,920	58,700	0,087	-0,062
-153,906	64,755	0,064	-0,047
-152,891	800,000	-0,037	-0,104
-151,877	85,300	-0,121	0,097
-150,862	71,298	-0,048	-0,036
-149,847	60,070	-0,078	-0,056
-148,833	-200,000	-0,005	0,019
-147,818	-152,698	-0,080	0,004
-146,804	-200,000	-0,011	-0,088
-145,789	206,366	0,124	0,141
-144,775	509,552	-0,040	-0,069
-143,760	5,440	-0,105	-0,056
-142,745	-79,660	-0,196	0,048
-141,731	-59,170	0,088	-0,027
-140,716	484,568	-0,020	-0,033
-139,702	-200,000	-0,010	0,046
-138,687	-6,142	0,085	-0,042
-137,672	226,618	0,069	-0,082
-136,658	170,218	-0,065	-0,068
-135,643	-72,409	0,066	-0,018
-134,629	125,658	0,015	0,014
-133,614	-31,085	0,097	0,040
-132,599	-31,091	0,080	-0,033
-131,585	102,641	0,021	-0,018
-130,570	-121,656	-0,047	-0,006
-129,556	800,000	-0,020	-0,053
-128,541	252,714	0,094	-0,117
-127,526	-17,680	0,090	0,041
-126,512	338,701	0,018	0,025
-125,497	-200,000	-0,015	0,052
-124,483	-7,298	0,101	0,050
-123,468	21,720	-0,044	0,026
-122,453	52,881	-0,072	0,050
-121,439	-21,306	-0,108	-0,048
-120,424	158,093	-0,057	0,058
-119,410	800,000	-0,071	-0,175
