DTS Sentinel unit serial number:	SN410029Multiplexer serial number:	ORYXHardware model number:	OX2-SRSoftware version number:	ORYX F/W v4,00 Oryx Data Collector v3.7.2.0data status	okinstallation	B6 Nyhavnadifferential loss correction	single-endedforward channel	channel 2reverse channel	N/Adate	2023/12/08time	04:30:08forward acquisition time	300,00reverse acquisition time	0,00gamma	499,1914k internal	0,3165k external	0,3165temperature offset calibration	1,0000default loss term (dB/km)	0,3820temperature slope calibration	1,0000multiplexer offset coefficient	1,0000multiplexer slope coefficient	1,0000fibre end	0,00T internal ref (°C)	13,05T ext. ref 1 (°C)	-3,77T ext. ref 2 (°C)	-3,76length (m)	temperature (°C)	Stokes	anti-Stokes-744,400	-200,000	0,019	0,150
-743,385	-97,100	-0,370	0,071
-742,371	44,836	0,180	0,122
-741,356	-88,456	-0,275	0,060
-740,342	17,552	0,114	0,067
-739,327	-22,700	-0,328	-0,145
-738,312	51,305	0,119	-0,083
-737,298	-184,487	-0,308	-0,004
-736,283	-141,457	0,088	0,006
-735,269	-7,600	-0,203	-0,100
-734,254	168,489	0,072	0,075
-733,239	-1,814	-0,492	-0,254
-732,225	-39,624	0,026	0,010
-731,210	800,000	0,016	0,047
-730,196	-200,000	0,009	-0,061
-729,181	-12,179	-0,068	-0,033
-728,167	-200,000	-0,002	0,040
-727,152	800,000	0,039	-0,103
-726,137	-200,000	-0,008	-0,092
-725,123	587,706	0,067	-0,121
-724,108	502,255	0,027	-0,045
-723,094	786,278	-0,064	-0,130
-722,079	-50,256	-0,068	-0,023
-721,064	324,254	0,022	-0,031
-720,050	-93,168	-0,055	0,011
-719,035	-126,346	-0,124	-0,013
-718,021	637,221	-0,025	-0,047
-717,006	110,205	-0,109	-0,096
-715,991	117,001	-0,062	-0,056
-714,977	411,410	0,045	0,071
-713,962	-117,876	-0,098	-0,013
-712,948	660,356	-0,041	0,078
-711,933	800,000	-0,049	-0,157
-710,918	341,621	-0,073	0,106
-709,904	123,015	-0,077	0,071
-708,889	-200,000	0,008	-0,123
-707,875	-103,538	-0,115	-0,020
-706,860	-188,368	0,014	-0,000
-705,845	-32,125	0,179	0,073
-704,831	-200,000	0,014	0,118
-703,816	-200,000	-0,008	0,175
-702,802	183,789	-0,032	-0,035
-701,787	800,000	0,006	-0,013
-700,772	731,174	0,044	0,087
-699,758	-200,000	-0,010	-0,057
-698,743	103,550	-0,116	0,100
-697,729	91,501	0,130	0,108
-696,714	800,000	0,059	0,169
-695,699	-200,000	-0,004	-0,043
-694,685	-200,000	-0,008	-0,106
-693,670	800,000	-0,049	-0,145
-692,656	21,086	0,006	-0,004
-691,641	-156,254	0,091	-0,004
-690,627	-90,449	0,088	-0,019
-689,612	272,441	0,093	-0,121
-688,597	800,000	0,023	0,059
-687,583	162,704	-0,073	0,075
-686,568	-20,148	-0,187	-0,084
-685,554	-78,185	0,097	-0,024
-684,539	-200,000	0,020	-0,087
-683,524	28,988	-0,073	-0,045
-682,510	496,548	0,020	-0,033
-681,495	-65,178	-0,126	-0,037
-680,481	-110,352	-0,101	-0,015
-679,466	38,219	-0,045	0,029
-678,451	-200,000	-0,033	-0,132
-677,437	-200,000	-0,016	0,083
-676,422	20,196	0,076	0,045
-675,408	-25,210	-0,103	0,044
-674,393	-200,000	-0,017	0,105
-673,378	-79,493	-0,056	0,014
-672,364	-200,000	0,009	-0,051
-671,349	-7,032	0,025	-0,012
-670,335	113,372	-0,105	-0,094
-669,320	757,356	-0,008	0,016
-668,305	397,165	-0,062	0,096
-667,291	-146,736	-0,118	-0,007
-666,276	-200,000	0,006	0,071
-665,262	-177,313	-0,195	0,003
-664,247	-105,889	-0,143	0,023
-663,232	-47,277	-0,043	-0,015
-662,218	293,994	0,041	-0,055
-661,203	-200,000	-0,008	0,132
-660,189	509,953	-0,084	-0,143
-659,174	-200,000	-0,006	-0,168
-658,159	-40,775	-0,081	-0,031
-657,145	800,000	0,053	0,110
-656,130	-200,000	0,003	0,074
-655,116	611,609	0,069	0,127
-654,101	-200,000	-0,019	0,077
-653,086	800,000	0,035	0,107
-652,072	-158,359	-0,028	0,001
-651,057	241,052	0,061	-0,075
-650,043	-53,420	0,096	0,032
-649,028	144,631	0,025	-0,025
-648,014	244,313	0,055	0,068
-646,999	800,000	0,041	-0,108
-645,984	13,799	0,067	-0,038
-644,970	-119,116	-0,123	0,016
-643,955	63,831	-0,056	-0,041
-642,941	28,308	-0,077	-0,048
-641,926	32,458	-0,062	0,039
-640,911	-83,222	-0,178	0,041
-639,897	25,646	-0,068	0,042
-638,882	397,891	0,078	0,120
-637,868	-33,034	-0,122	0,049
-636,853	800,000	-0,016	-0,051
-635,838	-200,000	0,028	0,106
-634,824	-200,000	0,004	-0,045
-633,809	229,499	0,119	0,142
-632,795	-200,000	0,006	0,068
-631,780	141,909	-0,038	-0,037
-630,765	-97,796	-0,097	0,018
-629,751	-98,820	-0,136	-0,025
-628,736	800,000	-0,061	-0,163
-627,722	-195,548	0,212	-0,001
-626,707	-200,000	0,026	0,128
-625,692	800,000	0,038	0,101
-624,678	89,667	-0,067	0,054
-623,663	222,365	0,073	0,086
-622,649	-200,000	0,008	0,040
-621,634	-115,580	-0,102	-0,014
-620,619	-200,000	0,018	0,119
-619,605	250,721	-0,058	0,072
-618,590	-90,921	0,133	-0,028
-617,576	-121,965	-0,105	0,013
-616,561	442,692	0,028	-0,045
-615,546	-59,310	-0,025	-0,008
-614,532	-200,000	0,001	0,015
-613,517	-56,710	-0,106	-0,034
-612,503	-71,764	0,048	0,013
-611,488	-200,000	-0,009	0,175
-610,474	-200,000	-0,007	0,030
-609,459	26,019	0,063	0,039
-608,444	800,000	0,034	-0,094
-607,430	-200,000	-0,013	0,079
-606,415	47,912	0,068	-0,046
-605,401	235,197	0,041	-0,050
-604,386	-200,000	-0,019	0,106
-603,371	-200,000	0,018	-0,102
-602,357	342,020	-0,042	-0,061
-601,342	-45,707	0,102	-0,037
-600,328	-24,068	-0,145	-0,063
-599,313	291,641	-0,108	-0,143
-598,298	-27,425	-0,079	-0,033
-597,284	-10,227	0,191	0,092
-596,269	-200,000	-0,007	-0,117
-595,255	514,997	-0,032	-0,054
-594,240	29,593	-0,112	-0,070
-593,225	61,597	-0,059	-0,043
-592,211	38,451	-0,112	-0,073
-591,196	163,641	0,153	-0,157
-590,182	-137,825	0,070	-0,006
-589,167	128,271	-0,040	0,037
-588,152	722,731	0,055	-0,107
-587,138	273,586	-0,041	-0,053
-586,123	800,000	0,025	-0,069
-585,109	712,547	0,037	-0,072
-584,094	-129,337	-0,084	0,008
-583,079	303,077	-0,109	-0,148
-582,065	216,893	0,129	-0,150
-581,050	650,675	0,057	0,107
-580,036	82,497	-0,080	-0,063
-579,021	800,000	0,026	-0,060
-578,006	107,627	-0,050	0,043
-576,992	-78,575	0,155	0,039
-575,977	117,096	0,038	0,034
-574,963	572,638	-0,040	-0,071
-573,948	-200,000	-0,011	-0,041
-572,934	800,000	0,039	-0,082
-571,919	-112,480	-0,080	0,012
-570,904	113,980	0,112	-0,099
-569,890	750,128	-0,067	-0,133
-568,875	77,737	-0,124	-0,096
-567,861	473,321	0,026	0,043
-566,846	388,026	-0,024	-0,036
-565,831	-200,000	-0,111	0,000
-564,817	646,643	-0,051	-0,096
-563,802	161,572	-0,075	-0,077
-562,788	586,286	0,055	-0,099
-561,773	115,863	0,051	0,045
-560,758	146,838	0,139	0,136
-559,744	34,440	-0,048	-0,030
-558,729	-200,000	0,011	0,057
-557,715	-200,000	0,004	-0,038
-556,700	-200,000	0,002	-0,130
-555,685	-99,742	0,113	-0,021
-554,671	447,231	0,040	0,065
-553,656	5,804	0,159	-0,086
-552,642	748,871	-0,127	0,251
-551,627	800,000	-0,055	0,133
-550,612	-200,000	-0,007	0,038
-549,598	-200,000	0,004	0,030
-548,583	-200,000	0,029	-0,114
-547,569	-62,511	0,041	-0,012
-546,554	-200,000	0,018	-0,068
-545,539	-200,000	0,035	0,142
-544,525	-200,000	0,008	0,071
-543,510	800,000	0,022	0,054
-542,496	-200,000	-0,003	-0,042
-541,481	247,643	0,011	-0,014
-540,466	800,000	-0,020	0,048
-539,452	-200,000	-0,013	0,043
-538,437	-200,000	-0,010	0,082
-537,423	800,000	0,038	0,084
-536,408	-12,311	0,044	-0,021
-535,393	-200,000	-0,002	-0,012
-534,379	208,601	-0,075	-0,085
-533,364	-200,000	0,018	-0,067
-532,350	-200,000	0,021	-0,173
-531,335	2,466	0,088	0,046
-530,321	-86,106	0,025	0,005
-529,306	800,000	-0,022	-0,069
-528,291	-2,048	-0,071	0,036
-527,277	19,633	-0,060	0,035
-526,262	-114,332	-0,062	0,009
-525,248	-133,478	0,213	-0,019
-524,233	-200,000	0,028	0,137
-523,218	1,317	-0,116	-0,061
-522,204	110,794	0,075	0,066
-521,189	23,760	-0,076	0,046
-520,175	-17,792	-0,046	-0,021
-519,160	-200,000	-0,026	-0,096
-518,145	262,983	-0,027	0,035
-517,131	800,000	-0,040	-0,112
-516,116	-30,582	0,103	0,042
-515,102	-200,000	0,003	-0,031
-514,087	-32,213	0,136	-0,055
-513,072	9,310	0,134	-0,074
-512,058	800,000	0,051	-0,141
-511,043	-200,000	0,011	0,053
-510,029	-200,000	0,010	-0,106
-509,014	607,919	0,035	0,064
-507,999	800,000	-0,020	0,042
-506,985	327,697	-0,030	0,042
-505,970	800,000	-0,010	-0,021
-504,956	271,313	-0,056	-0,072
-503,941	156,371	-0,047	-0,047
-502,926	569,983	-0,045	0,081
-501,912	61,835	-0,026	-0,019
-500,897	-107,893	0,093	-0,015
-499,883	90,035	0,038	0,031
-498,868	-200,000	-0,010	-0,086
-497,853	352,590	-0,015	-0,021
-496,839	45,436	-0,078	-0,052
-495,824	800,000	0,034	0,105
-494,810	83,569	0,075	0,060
-493,795	8,401	-0,123	-0,067
-492,781	-148,424	-0,050	-0,003
-491,766	800,000	-0,042	-0,116
-490,751	-200,000	0,019	-0,088
-489,737	-200,000	0,014	0,091
-488,722	-200,000	0,028	0,180
-487,708	-60,236	0,101	0,031
-486,693	-116,059	-0,011	0,002
-485,678	-106,442	-0,033	0,005
-484,664	-92,491	-0,115	-0,023
-483,649	-200,000	-0,021	0,088
-482,635	385,595	0,093	0,140
-481,620	183,483	-0,030	0,032
-480,605	509,502	0,040	0,069
-479,591	800,000	-0,007	-0,018
-478,576	324,340	0,031	0,044
-477,562	-200,000	-0,004	0,073
-476,547	58,157	-0,088	-0,063
-475,532	144,978	-0,059	-0,057
-474,518	800,000	-0,015	0,047
-473,503	144,216	-0,105	0,102
-472,489	800,000	0,032	-0,069
-471,474	428,269	0,060	0,094
-470,459	800,000	0,069	-0,142
-469,445	53,752	0,120	-0,084
-468,430	365,739	0,041	-0,061
-467,416	-123,167	-0,089	-0,010
-466,401	0,111	0,169	-0,088
-465,386	32,199	0,077	-0,048
-464,372	-200,000	-0,002	-0,048
-463,357	-30,128	-0,148	-0,061
-462,343	-133,931	0,169	0,015
-461,328	-82,319	-0,089	0,021
-460,313	353,047	0,029	-0,042
-459,299	-161,446	0,082	0,003
-458,284	244,944	-0,104	0,127
-457,270	290,134	-0,020	0,027
-456,255	800,000	-0,025	0,061
-455,241	128,489	-0,039	-0,036
-454,226	-106,057	0,025	-0,004
-453,211	66,380	-0,070	0,052
-452,197	-200,000	-0,005	0,133
-451,182	-200,000	0,017	0,129
-450,168	67,728	0,058	0,043
-449,153	654,204	0,076	0,142
-448,138	-113,653	-0,092	-0,013
-447,124	134,294	-0,106	-0,100
-446,109	-200,000	0,007	-0,033
-445,095	315,951	0,065	0,090
-444,080	608,652	0,024	-0,044
-443,065	-42,232	0,101	-0,037
-442,051	67,232	-0,149	0,110
-441,036	-200,000	0,005	0,088
-440,022	-200,000	0,009	-0,113
-439,007	107,922	-0,045	-0,039
-437,992	-159,841	0,041	0,002
-436,978	800,000	0,030	-0,079
-435,963	800,000	-0,075	0,161
-434,949	-130,279	0,002	0,000
-433,934	-200,000	-0,021	-0,108
-432,919	249,410	-0,013	-0,016
-431,905	-81,588	0,084	0,020
-430,890	320,502	0,094	0,130
-429,876	-96,628	0,067	0,013
-428,861	-48,163	-0,075	-0,026
-427,846	393,974	-0,044	0,066
-426,832	264,446	0,101	-0,128
-425,817	-142,620	0,012	-0,001
-424,803	-80,011	0,061	0,015
-423,788	233,321	-0,050	0,060
-422,773	0,462	0,138	0,071
-421,759	96,657	-0,106	0,088
-420,744	26,014	-0,037	-0,022
-419,730	-200,000	-0,016	0,142
-418,715	-59,236	-0,033	-0,010
-417,701	194,878	0,059	-0,065
-416,686	-73,167	-0,046	-0,012
-415,671	-200,000	0,008	-0,088
-414,657	289,778	0,042	-0,055
-413,642	112,489	0,072	0,063
-412,628	-88,787	0,021	0,005
-411,613	251,056	0,083	0,103
-410,598	-57,849	-0,052	-0,016
-409,584	-66,721	-0,051	0,015
-408,569	-34,472	-0,088	-0,035
-407,555	142,820	0,068	0,066
-406,540	-200,000	0,005	0,049
-405,525	228,548	-0,123	-0,145
-404,511	90,961	-0,114	-0,092
-403,496	800,000	-0,017	-0,051
-402,482	-113,250	-0,007	0,001
-401,467	-200,000	0,007	-0,049
-400,452	-11,452	0,091	-0,043
-399,438	-54,590	0,099	0,032
-398,423	-200,000	0,008	-0,069
-397,409	-41,736	-0,058	-0,021
-396,394	800,000	-0,049	-0,132
-395,379	-145,131	0,038	0,002
-394,365	44,381	0,015	0,010
-393,350	-200,000	0,011	-0,131
-392,336	-116,244	0,022	0,003
-391,321	59,393	-0,081	0,058
-390,306	-200,000	0,006	-0,167
-389,292	-82,207	-0,027	0,006
-388,277	-200,000	0,012	0,067
-387,263	-200,000	0,020	0,116
-386,248	-200,000	0,007	-0,057
-385,233	-47,387	0,135	0,048
-384,219	-159,493	-0,123	-0,005
-383,204	-5,880	-0,021	-0,010
-382,190	-87,505	-0,035	0,008
-381,175	167,832	0,074	-0,077
-380,160	682,058	0,052	0,100
-379,146	255,032	0,043	0,054
-378,131	-157,377	0,085	0,004
-377,117	86,231	-0,051	-0,041
-376,102	184,391	-0,060	-0,064
-375,088	66,261	0,064	-0,047
-374,073	-120,889	0,053	0,006
-373,058	136,490	-0,226	0,213
-372,044	133,546	0,125	0,117
-371,029	649,718	0,087	0,162
-370,015	800,000	-0,016	-0,035
-369,000	98,992	0,042	-0,035
-367,985	-9,033	-0,091	0,044
-366,971	377,039	-0,109	-0,162
-365,956	-120,933	0,227	0,027
-364,942	345,901	0,006	-0,008
-363,927	-1,542	0,052	-0,026
-362,912	274,905	-0,069	-0,089
-361,898	800,000	0,057	-0,129
-360,883	-54,153	-0,038	0,013
-359,869	778,515	-0,034	0,067
-358,854	92,961	0,013	-0,011
-357,839	-34,338	-0,072	0,028
-356,825	410,814	0,043	0,067
-355,810	-200,000	0,008	0,058
-354,796	87,435	0,086	0,069
-353,781	117,362	0,085	-0,076
-352,766	80,671	-0,113	-0,088
-351,752	152,692	-0,030	0,029
-350,737	-200,000	0,039	0,138
-349,723	-200,000	0,019	0,075
-348,708	-181,695	-0,142	0,002
-347,693	-190,632	-0,103	-0,001
-346,679	1,527	0,059	0,030
-345,664	-172,622	-0,238	-0,005
-344,650	-200,000	-0,018	-0,121
-343,635	-81,436	0,198	-0,047
-342,620	-36,423	-0,059	0,023
-341,606	800,000	-0,015	-0,034
-340,591	142,947	-0,071	0,068
-339,577	800,000	-0,053	-0,155
-338,562	-70,628	0,071	-0,019
-337,548	-200,000	0,003	0,048
-336,533	124,780	-0,131	0,119
-335,518	-106,146	0,138	-0,022
-334,504	-110,546	-0,065	-0,010
-333,489	-37,628	0,072	-0,028
-332,475	66,631	-0,012	0,009
-331,460	-200,000	-0,024	-0,123
-330,445	116,231	-0,027	-0,024
-329,431	207,608	0,174	0,197
-328,416	800,000	0,033	0,083
-327,402	97,180	0,073	-0,060
-326,387	-200,000	-0,002	-0,148
-325,372	-47,777	-0,166	0,058
-324,358	-200,000	-0,008	0,064
-323,343	-200,000	-0,011	-0,092
-322,329	402,799	0,104	-0,158
-321,314	-200,000	0,017	0,099
-320,299	-0,077	0,179	-0,092
-319,285	-200,000	-0,030	0,186
-318,270	-104,725	0,041	0,007
-317,256	-89,982	0,134	-0,028
-316,241	-42,078	-0,082	-0,030
-315,226	61,067	-0,165	0,118
-314,212	800,000	-0,010	0,032
-313,197	800,000	-0,059	0,120
-312,183	4,362	0,139	0,073
-311,168	-43,375	-0,089	0,032
-310,153	44,748	-0,048	0,032
-309,139	-174,829	-0,102	0,002
-308,124	37,355	0,113	0,072
-307,110	471,221	0,018	0,030
-306,095	292,319	-0,033	0,044
-305,080	-200,000	-0,002	0,137
-304,066	-83,215	0,119	0,027
-303,051	93,466	-0,044	0,036
-302,037	-45,903	-0,159	0,056
-301,022	69,361	0,080	0,060
-300,008	-200,000	-0,013	-0,047
-298,993	-200,000	0,012	0,061
-297,978	259,873	-0,037	-0,046
-296,964	-200,000	-0,004	-0,077
-295,949	-200,000	-0,007	0,030
-294,935	664,915	-0,052	-0,098
-293,920	-43,413	-0,060	-0,022
-292,905	149,346	0,074	-0,072
-291,891	-80,287	0,090	0,021
-290,876	2,707	-0,017	0,009
-289,862	-139,300	0,056	-0,004
-288,847	-164,967	-0,191	0,006
-287,832	79,185	0,149	-0,115
-286,818	-156,146	0,048	0,002
-285,803	-66,851	0,092	0,026
-284,789	2,803	0,122	-0,064
-283,774	9,609	0,110	0,060
-282,759	-20,670	-0,085	-0,038
-281,745	74,322	0,101	-0,077
-280,730	-57,063	-0,169	0,054
-279,716	-200,000	0,005	-0,049
-278,701	-37,044	-0,076	-0,029
-277,686	279,768	-0,118	0,152
-276,672	30,535	-0,070	0,043
-275,657	-89,351	-0,064	-0,013
-274,643	177,788	-0,052	-0,054
-273,628	314,043	-0,055	-0,075
-272,613	23,886	-0,047	0,028
-271,599	103,268	0,045	0,038
-270,584	110,092	0,103	0,090
-269,570	-200,000	-0,018	0,139
-268,555	-200,000	0,001	0,068
-267,540	93,564	-0,099	-0,081
-266,526	100,753	-0,090	-0,075
-265,511	-42,958	0,051	-0,019
-264,497	-48,504	0,163	0,056
-263,482	293,887	-0,072	0,095
-262,467	258,329	0,081	0,101
-261,453	525,692	-0,092	-0,157
-260,438	-200,000	0,009	-0,214
-259,424	800,000	-0,007	0,018
-258,409	-119,368	-0,180	-0,022
-257,395	117,354	0,024	0,021
-256,380	249,841	0,076	0,093
-255,365	-87,953	-0,106	-0,023
-254,351	8,046	0,102	0,055
-253,336	-200,000	-0,004	-0,047
-252,322	91,221	0,047	0,038
-251,307	800,000	-0,050	-0,106
-250,292	800,000	0,041	-0,089
-249,278	-85,459	-0,078	0,017
-248,263	-183,037	0,097	-0,001
-247,249	69,581	0,062	0,046
-246,234	-200,000	0,025	-0,104
-245,219	800,000	-0,093	-0,239
-244,205	-200,000	-0,021	-0,094
-243,190	109,676	0,062	-0,054
-242,176	589,587	0,083	0,148
-241,161	-45,394	-0,046	0,016
-240,146	-6,567	0,006	-0,003
-239,132	-200,000	-0,039	-0,149
-238,117	304,214	0,066	0,088
-237,103	167,378	-0,128	0,131
-236,088	-200,000	-0,024	0,119
-235,073	309,404	-0,068	0,093
-234,059	374,057	-0,025	0,036
-233,044	169,364	-0,096	0,098
-232,030	526,677	0,060	-0,103
-231,015	32,569	0,029	-0,018
-230,000	17,512	-0,101	0,058
-228,986	-200,000	-0,001	0,044
-227,971	-71,483	0,076	-0,020
-226,957	77,211	-0,084	-0,065
-225,942	241,227	0,040	0,048
-224,927	319,621	-0,037	0,050
-223,913	-44,908	-0,212	-0,076
-222,898	800,000	0,029	-0,061
-221,884	-22,181	-0,067	0,029
-220,869	700,323	-0,023	0,044
-219,855	135,756	0,036	0,034
-218,840	170,190	-0,054	-0,056
-217,825	800,000	0,030	-0,078
-216,811	800,000	-0,031	0,079
-215,796	49,094	0,061	0,041
-214,782	-5,281	0,114	0,056
-213,767	90,746	0,041	0,033
-212,752	64,784	0,026	-0,019
-211,738	221,153	0,117	-0,135
-210,723	-70,441	-0,046	-0,013
-209,709	-34,302	-0,140	-0,055
-208,694	-55,452	0,070	0,023
-207,679	-200,000	-0,006	0,038
-206,665	-200,000	-0,017	0,131
-205,650	800,000	-0,014	0,040
-204,636	366,455	0,101	-0,147
-203,621	30,363	0,049	0,030
-202,606	-158,224	0,047	-0,002
-201,592	77,139	-0,082	-0,063
-200,577	9,888	0,105	0,057
-199,563	65,609	0,137	-0,100
-198,548	-30,547	0,090	-0,037
-197,533	269,344	0,052	-0,066
-196,519	-200,000	-0,001	0,094
-195,504	281,369	0,043	0,056
-194,490	-200,000	-0,007	-0,055
-193,475	156,163	-0,106	-0,105
-192,460	-163,016	-0,101	0,003
-191,446	-123,520	-0,125	-0,014
-190,431	-82,724	0,130	-0,030
-189,417	-140,271	-0,108	-0,008
-188,402	-200,000	-0,006	-0,036
-187,387	-28,611	-0,034	0,014
-186,373	-79,554	0,116	0,028
-185,358	115,757	0,053	0,047
-184,344	486,411	0,117	-0,193
-183,329	-45,896	0,103	0,036
-182,315	537,023	-0,043	0,075
-181,300	-142,887	-0,086	0,006
-180,285	376,542	0,059	-0,087
-179,271	-58,241	0,021	0,007
-178,256	462,545	0,028	0,046
-177,242	-200,000	0,002	-0,076
-176,227	-200,000	-0,022	0,175
-175,212	-102,305	-0,074	-0,013
-174,198	-200,000	-0,033	0,185
-173,183	-98,070	0,105	0,019
-172,169	800,000	0,023	0,071
-171,154	-5,106	-0,038	0,019
-170,139	213,630	0,122	-0,138
-169,125	12,417	0,029	0,016
-168,110	-200,000	0,009	0,149
-167,096	82,780	0,074	-0,058
-166,081	780,522	-0,081	0,160
-165,066	44,764	-0,053	-0,035
-164,052	800,000	-0,042	-0,100
-163,037	61,539	-0,018	-0,013
-162,023	77,248	0,075	0,058
-161,008	6,296	-0,068	0,036
-159,993	513,107	0,014	-0,023
-158,979	800,000	-0,037	-0,091
-157,964	789,628	-0,050	-0,099
-156,950	800,000	-0,023	-0,065
-155,935	-200,000	0,028	-0,135
-154,920	800,000	-0,036	0,091
-153,906	800,000	0,033	0,091
-152,891	800,000	-0,048	0,100
-151,877	183,642	0,053	-0,056
-150,862	277,945	-0,065	0,084
-149,847	84,754	0,061	-0,048
-148,833	-200,000	0,034	0,128
-147,818	-200,000	0,005	0,027
-146,804	-200,000	-0,045	0,147
-145,789	800,000	-0,042	0,119
-144,775	-3,870	-0,015	0,007
-143,760	347,117	0,007	0,010
-142,745	800,000	-0,019	-0,048
-141,731	143,779	-0,011	-0,010
-140,716	-185,354	0,132	-0,001
-139,702	39,430	-0,027	0,017
-138,687	800,000	-0,029	-0,079
-137,672	-200,000	0,033	0,179
-136,658	800,000	-0,027	-0,070
-135,643	44,346	-0,061	-0,040
-134,629	-82,805	-0,080	-0,018
-133,614	800,000	0,026	-0,053
-132,599	-50,377	0,082	-0,028
-131,585	202,398	0,037	-0,041
-130,570	104,511	-0,062	0,052
-129,556	766,930	0,064	-0,126
-128,541	-103,524	-0,150	-0,025
-127,526	-10,700	0,155	-0,073
-126,512	-2,774	-0,173	-0,086
-125,497	-153,505	0,137	0,007
-124,483	763,740	0,087	0,170
-123,468	9,334	0,128	-0,069
-122,453	-65,374	-0,134	-0,039
-121,439	-200,000	-0,015	0,063
-120,424	138,566	-0,060	0,056
-119,410	800,000	0,064	0,180
-118,395	555,792	0,139	0,242
