DTS Sentinel unit serial number:	SN410029Multiplexer serial number:	ORYXHardware model number:	OX2-SRSoftware version number:	ORYX F/W v4,00 Oryx Data Collector v3.7.2.0data status	okinstallation	B6 Nyhavnadifferential loss correction	single-endedforward channel	channel 2reverse channel	N/Adate	2023/12/09time	08:35:08forward acquisition time	300,00reverse acquisition time	0,00gamma	499,1914k internal	0,3139k external	0,3139temperature offset calibration	1,0000default loss term (dB/km)	0,3820temperature slope calibration	1,0000multiplexer offset coefficient	1,0000multiplexer slope coefficient	1,0000fibre end	0,00T internal ref (°C)	18,47T ext. ref 1 (°C)	1,93T ext. ref 2 (°C)	1,95length (m)	temperature (°C)	Stokes	anti-Stokes-744,400	-168,562	0,163	-0,005
-743,385	-104,216	-0,289	0,049
-742,371	86,055	0,110	-0,089
-741,356	14,925	-0,308	0,179
-740,342	-88,543	0,136	-0,030
-739,327	-100,951	-0,183	-0,033
-738,312	185,233	0,072	-0,080
-737,298	-69,968	-0,172	-0,048
-736,283	-200,000	0,015	0,065
-735,269	-118,893	-0,139	-0,018
-734,254	34,645	0,221	-0,143
-733,239	-78,187	-0,534	-0,135
-732,225	-68,683	0,072	0,020
-731,210	-200,000	-0,004	0,112
-730,196	-200,000	0,002	-0,084
-729,181	-200,000	0,024	-0,143
-728,167	-200,000	-0,014	0,116
-727,152	800,000	0,026	-0,083
-726,137	583,357	-0,094	0,172
-725,123	-66,760	-0,036	0,010
-724,108	-200,000	0,012	-0,044
-723,094	-39,194	-0,158	0,061
-722,079	-200,000	-0,016	-0,075
-721,064	-200,000	-0,017	-0,068
-720,050	707,709	0,014	-0,027
-719,035	-114,567	-0,081	0,011
-718,021	-67,939	-0,079	0,023
-717,006	84,844	-0,005	-0,004
-715,991	239,063	-0,066	-0,081
-714,977	-156,384	-0,085	0,004
-713,962	-106,969	-0,153	0,025
-712,948	-200,000	-0,017	0,119
-711,933	79,855	-0,076	-0,061
-710,918	-172,075	0,032	0,001
-709,904	-24,383	-0,065	-0,029
-708,889	346,779	0,046	-0,067
-707,875	129,537	-0,006	-0,005
-706,860	-200,000	0,018	0,164
-705,845	-146,137	0,077	-0,005
-704,831	-32,061	-0,068	0,028
-703,816	39,960	-0,040	-0,026
-702,802	-200,000	-0,011	0,090
-701,787	-35,723	0,186	0,074
-700,772	-79,023	0,105	-0,026
-699,758	-116,238	0,088	0,012
-698,743	-103,409	-0,028	-0,005
-697,729	90,938	-0,084	-0,070
-696,714	-66,759	0,156	0,045
-695,699	313,489	-0,079	0,110
-694,685	116,662	-0,059	0,054
-693,670	-1,159	-0,060	-0,031
-692,656	-200,000	-0,016	0,062
-691,641	-24,927	0,151	0,066
-690,627	61,453	0,126	0,093
-689,612	-200,000	0,007	0,026
-688,597	800,000	-0,039	0,087
-687,583	309,165	-0,039	0,054
-686,568	-200,000	-0,017	-0,114
-685,554	432,279	0,040	-0,064
-684,539	-69,646	0,218	-0,061
-683,524	-200,000	0,009	-0,056
-682,510	11,103	-0,041	0,023
-681,495	708,201	0,043	-0,085
-680,481	-90,657	-0,113	-0,024
-679,466	-200,000	-0,021	-0,159
-678,451	-2,997	-0,167	0,086
-677,437	-98,767	0,076	-0,014
-676,422	800,000	-0,006	0,014
-675,408	-200,000	-0,007	0,032
-674,393	-136,475	-0,138	0,012
-673,378	-200,000	0,009	0,098
-672,364	-55,721	-0,114	0,038
-671,349	138,159	-0,088	0,085
-670,335	-200,000	0,019	-0,165
-669,320	129,054	0,045	0,042
-668,305	-200,000	0,020	0,142
-667,291	-12,673	-0,047	0,022
-666,276	177,733	0,036	0,039
-665,262	-25,340	-0,078	-0,034
-664,247	-53,910	-0,076	-0,025
-663,232	43,978	0,052	0,035
-662,218	-10,200	0,076	-0,037
-661,203	-200,000	0,019	0,099
-660,189	-129,665	0,153	-0,015
-659,174	663,679	0,039	0,075
-658,159	705,272	0,013	0,026
-657,145	-200,000	0,005	-0,052
-656,130	230,022	0,091	-0,110
-655,116	-66,862	0,144	0,042
-654,101	433,025	-0,082	0,132
-653,086	-200,000	-0,001	-0,065
-652,072	800,000	-0,023	-0,049
-651,057	800,000	-0,020	-0,059
-650,043	-200,000	-0,015	0,058
-649,028	800,000	-0,028	-0,063
-648,014	-14,350	-0,162	-0,077
-646,999	800,000	0,005	-0,016
-645,984	800,000	0,021	0,064
-644,970	-200,000	0,022	0,167
-643,955	-60,305	-0,067	0,021
-642,941	164,696	-0,131	-0,136
-641,926	-90,940	-0,088	-0,018
-640,911	7,938	0,081	-0,045
-639,897	-200,000	0,004	0,044
-638,882	31,138	0,056	0,035
-637,868	800,000	-0,091	0,210
-636,853	159,504	-0,091	-0,093
-635,838	198,569	-0,027	0,030
-634,824	-69,116	-0,092	0,026
-633,809	671,741	-0,057	-0,110
-632,795	789,348	-0,024	-0,049
-631,780	228,924	0,111	-0,134
-630,765	-115,814	-0,036	-0,005
-629,751	-200,000	-0,012	0,081
-628,736	-200,000	-0,050	-0,220
-627,722	800,000	0,038	-0,083
-626,707	74,825	-0,071	0,055
-625,692	-84,860	0,071	0,016
-624,678	19,461	-0,032	0,019
-623,663	800,000	-0,025	0,078
-622,649	-67,462	0,109	-0,031
-621,634	-66,045	-0,161	0,047
-620,619	262,764	0,063	0,081
-619,605	-200,000	0,025	-0,164
-618,590	-200,000	0,018	-0,068
-617,576	152,527	-0,080	-0,081
-616,561	148,396	0,029	-0,029
-615,546	-200,000	0,007	-0,099
-614,532	1,780	-0,050	0,027
-613,517	-137,593	-0,075	0,006
-612,503	-61,005	-0,071	0,022
-611,488	-21,573	-0,035	0,016
-610,474	165,426	0,133	0,139
-609,459	-58,627	-0,076	-0,024
-608,444	-200,000	0,019	0,083
-607,430	-200,000	0,019	-0,188
-606,415	-200,000	-0,017	-0,187
-605,401	800,000	0,030	-0,066
-604,386	697,978	-0,044	-0,087
-603,371	-200,000	0,043	0,180
-602,357	-108,511	-0,096	-0,015
-601,342	800,000	0,024	-0,063
-600,328	207,849	-0,035	-0,041
-599,313	71,940	-0,032	-0,024
-598,298	606,484	0,038	-0,070
-597,284	-200,000	-0,003	-0,134
-596,269	-12,153	-0,059	0,028
-595,255	398,173	-0,010	0,015
-594,240	644,237	-0,061	-0,115
-593,225	225,087	-0,100	-0,119
-592,211	137,295	-0,107	-0,103
-591,196	-200,000	0,039	0,164
-590,182	-200,000	0,007	0,038
-589,167	500,485	-0,054	0,093
-588,152	-200,000	-0,009	0,040
-587,138	-29,558	-0,114	0,048
-586,123	-142,323	-0,126	-0,009
-585,109	18,849	-0,108	-0,064
-584,094	-200,000	0,008	0,039
-583,079	780,752	0,094	0,190
-582,065	-200,000	-0,005	-0,112
-581,050	800,000	-0,038	0,106
-580,036	-200,000	0,014	-0,050
-579,021	188,290	-0,026	-0,028
-578,006	224,628	-0,100	-0,120
-576,992	704,261	0,027	-0,053
-575,977	71,593	0,107	-0,082
-574,963	281,602	0,079	0,105
-573,948	14,813	0,038	-0,022
-572,934	92,178	0,031	-0,026
-571,919	-67,997	-0,112	0,032
-570,904	800,000	-0,021	-0,062
-569,890	-115,902	-0,066	0,009
-568,875	-200,000	0,004	0,128
-567,861	560,740	0,046	-0,082
-566,846	279,759	-0,090	-0,119
-565,831	57,369	-0,071	-0,051
-564,817	177,202	-0,052	0,056
-563,802	-200,000	-0,012	-0,183
-562,788	800,000	-0,040	-0,126
-561,773	-30,999	0,062	0,026
-560,758	800,000	-0,032	0,084
-559,744	111,346	0,103	0,091
-558,729	-171,105	0,027	0,001
-557,715	-200,000	-0,020	0,091
-556,700	-68,152	0,014	0,004
-555,685	-200,000	-0,006	0,123
-554,671	230,505	0,066	-0,080
-553,656	800,000	0,027	-0,075
-552,642	-146,678	-0,043	0,003
-551,627	800,000	0,032	0,087
-550,612	274,636	-0,070	-0,092
-549,598	800,000	-0,017	-0,046
-548,583	-200,000	-0,033	-0,199
-547,569	0,500	-0,033	-0,017
-546,554	-200,000	-0,009	0,103
-545,539	800,000	0,018	-0,045
-544,525	9,825	0,194	0,108
-543,510	-200,000	0,015	-0,081
-542,496	-92,211	-0,046	0,010
-541,481	-200,000	-0,008	-0,069
-540,466	-28,208	-0,013	0,006
-539,452	-200,000	-0,014	0,052
-538,437	210,008	-0,045	0,052
-537,423	-62,839	-0,109	-0,033
-536,408	-150,410	0,089	-0,005
-535,393	685,351	0,053	-0,101
-534,379	800,000	0,024	-0,056
-533,364	-161,301	-0,108	0,004
-532,350	-200,000	0,041	0,136
-531,335	800,000	-0,020	-0,060
-530,321	124,297	-0,050	0,046
-529,306	-200,000	-0,005	-0,031
-528,291	70,363	0,080	-0,060
-527,277	-200,000	-0,000	0,012
-526,262	-200,000	0,003	0,039
-525,248	345,675	-0,042	0,060
-524,233	-200,000	0,009	0,079
-523,218	-200,000	-0,012	0,115
-522,204	153,738	-0,111	0,112
-521,189	2,634	-0,191	-0,102
-520,175	800,000	-0,046	-0,111
-519,160	400,510	-0,061	0,094
-518,145	800,000	0,045	-0,146
-517,131	-116,137	0,150	-0,020
-516,116	193,040	0,143	0,159
-515,102	562,898	-0,076	0,135
-514,087	340,784	0,053	-0,076
-513,072	-15,572	0,079	-0,037
-512,058	-30,976	0,109	0,045
-511,043	800,000	-0,032	-0,098
-510,029	800,000	0,062	-0,142
-509,014	-200,000	0,002	-0,030
-507,999	2,327	0,012	0,006
-506,985	-103,811	-0,160	0,027
-505,970	800,000	0,027	-0,060
-504,956	-200,000	0,025	-0,183
-503,941	-100,714	0,042	-0,007
-502,926	-104,171	-0,123	-0,021
-501,912	-132,652	0,139	-0,013
-500,897	41,482	0,023	-0,015
-499,883	-111,584	0,099	0,015
-498,868	-56,924	-0,061	-0,020
-497,853	-95,994	-0,023	-0,004
-496,839	459,478	-0,023	-0,038
-495,824	563,584	-0,055	0,098
-494,810	-200,000	-0,002	0,020
-493,795	402,867	-0,048	-0,075
-492,781	197,186	0,057	-0,064
-491,766	200,545	-0,115	-0,130
-490,751	174,639	-0,044	0,047
-489,737	220,887	0,074	0,087
-488,722	-174,415	0,111	0,002
-487,708	-170,132	-0,114	-0,003
-486,693	-125,020	0,041	0,005
-485,678	800,000	0,043	0,129
-484,664	-41,073	0,055	-0,021
-483,649	58,147	-0,060	-0,043
-482,635	-200,000	-0,015	-0,062
-481,620	44,747	0,130	0,087
-480,605	119,913	-0,018	-0,016
-479,591	241,851	0,102	-0,126
-478,576	214,365	0,052	0,060
-477,562	55,349	-0,068	-0,048
-476,547	-200,000	-0,018	-0,146
-475,532	377,745	0,048	-0,072
-474,518	123,330	0,101	-0,093
-473,503	-200,000	-0,007	-0,033
-472,489	800,000	-0,003	-0,008
-471,474	73,805	-0,111	0,085
-470,459	-200,000	-0,014	-0,163
-469,445	-141,419	-0,027	-0,002
-468,430	-200,000	-0,002	0,129
-467,416	186,303	0,091	-0,100
-466,401	713,905	-0,041	0,081
-465,386	47,747	-0,097	0,066
-464,372	-77,239	0,113	-0,029
-463,357	800,000	0,020	0,056
-462,343	-120,588	0,088	-0,011
-461,328	-56,483	-0,126	-0,041
-460,313	-105,270	0,121	-0,020
-459,299	-88,127	-0,114	-0,025
-458,284	478,176	0,065	0,109
-457,270	124,187	-0,052	0,048
-456,255	516,861	0,012	0,021
-455,241	41,324	0,054	0,036
-454,226	-60,128	-0,110	-0,034
-453,211	335,021	0,038	-0,054
-452,197	-200,000	-0,002	0,070
-451,182	-39,784	0,073	0,028
-450,168	800,000	0,049	0,125
-449,153	533,277	0,049	0,086
-448,138	113,581	-0,093	-0,083
-447,124	-166,394	-0,046	-0,001
-446,109	-200,000	0,007	0,063
-445,095	-200,000	0,009	0,047
-444,080	342,877	0,012	0,018
-443,065	800,000	0,050	-0,122
-442,051	-200,000	-0,006	0,095
-441,036	-72,232	-0,029	-0,008
-440,022	28,320	0,131	-0,081
-439,007	-200,000	0,002	-0,079
-437,992	564,418	0,015	0,026
-436,978	343,031	-0,037	-0,053
-435,963	-95,514	0,111	0,022
-434,949	271,373	0,038	-0,049
-433,934	346,232	0,048	0,069
-432,919	195,223	-0,100	-0,112
-431,905	165,410	0,045	-0,047
-430,890	-32,550	0,186	0,076
-429,876	-200,000	0,035	0,177
-428,861	-86,127	0,072	-0,016
-427,846	237,001	0,008	0,010
-426,832	12,643	-0,159	-0,090
-425,817	-51,360	0,082	-0,028
-424,803	-200,000	0,035	-0,142
-423,788	-200,000	-0,017	0,073
-422,773	101,235	0,055	0,047
-421,759	-76,861	0,100	0,026
-420,744	45,810	0,118	-0,080
-419,730	609,758	-0,057	-0,105
-418,715	-0,732	0,005	0,002
-417,701	800,000	0,010	0,022
-416,686	426,753	0,036	-0,057
-415,671	-40,384	0,056	-0,021
-414,657	-101,117	0,007	-0,001
-413,642	-200,000	0,018	0,133
-412,628	-134,343	-0,029	-0,003
-411,613	391,854	-0,112	-0,170
-410,598	-78,076	-0,105	0,026
-409,584	800,000	0,050	0,122
-408,569	-200,000	-0,002	-0,013
-407,555	-47,964	0,110	0,039
-406,540	-200,000	0,010	-0,117
-405,525	-200,000	-0,018	0,126
-404,511	800,000	-0,015	-0,040
-403,496	-35,092	-0,111	-0,044
-402,482	-200,000	0,008	0,100
-401,467	-76,107	0,100	-0,026
-400,452	111,525	0,046	0,040
-399,438	-134,828	-0,009	0,001
-398,423	-79,020	0,127	0,031
-397,409	-9,225	0,094	0,046
-396,394	800,000	-0,005	-0,013
-395,379	75,509	0,139	-0,108
-394,365	269,311	-0,173	0,222
-393,350	47,917	0,110	0,075
-392,336	-200,000	0,023	0,153
-391,321	690,528	0,057	-0,110
-390,306	36,242	0,050	-0,032
-389,292	92,220	0,032	-0,027
-388,277	290,133	0,053	-0,071
-387,263	-86,876	0,011	-0,002
-386,248	78,525	0,107	0,083
-385,233	343,931	-0,076	0,109
-384,219	-135,066	0,034	-0,003
-383,204	13,879	-0,060	-0,034
-382,190	-13,956	0,074	-0,035
-381,175	-40,213	-0,115	-0,044
-380,160	-12,355	-0,051	-0,024
-379,146	-154,107	0,097	-0,005
-378,131	87,468	0,030	-0,024
-377,117	527,923	0,037	0,064
-376,102	-200,000	0,009	-0,109
-375,088	-53,396	0,134	-0,045
-374,073	-148,942	-0,127	0,007
-373,058	1,646	-0,046	0,024
-372,044	-75,093	-0,074	-0,019
-371,029	485,226	-0,034	0,057
-370,015	11,536	0,075	0,042
-369,000	-200,000	-0,002	0,173
-367,985	-140,231	0,076	0,006
-366,971	800,000	0,037	-0,085
-365,956	800,000	-0,021	-0,063
-364,942	800,000	-0,045	-0,113
-363,927	309,631	0,083	-0,114
-362,912	800,000	-0,013	-0,028
-361,898	251,067	-0,030	-0,038
-360,883	-47,360	0,019	-0,007
-359,869	73,269	-0,096	-0,073
-358,854	-112,204	-0,094	0,014
-357,839	167,343	0,194	0,202
-356,825	-200,000	-0,011	-0,240
-355,810	52,002	-0,092	0,064
-354,796	-144,515	0,056	0,004
-353,781	-74,483	-0,100	-0,026
-352,766	800,000	0,071	0,158
-351,752	-200,000	-0,004	0,114
-350,737	-54,418	0,123	-0,041
-349,723	800,000	0,061	-0,180
-348,708	181,772	0,071	0,076
-347,693	43,340	-0,058	-0,038
-346,679	-200,000	-0,000	-0,003
-345,664	-200,000	0,007	-0,056
-344,650	128,425	-0,062	-0,057
-343,635	-200,000	-0,019	-0,119
-342,620	125,756	-0,112	0,103
-341,606	390,655	0,048	0,073
-340,591	-116,484	0,074	0,010
-339,577	800,000	-0,032	0,067
-338,562	190,725	0,058	0,063
-337,548	174,034	-0,088	0,093
-336,533	383,139	0,036	0,054
-335,518	98,985	0,055	-0,046
-334,504	112,532	0,034	0,030
-333,489	251,587	-0,019	-0,023
-332,475	-59,858	-0,159	-0,049
-331,460	19,878	0,078	-0,046
-330,445	-35,944	-0,080	0,031
-329,431	253,521	0,036	-0,045
-328,416	345,486	-0,033	0,047
-327,402	176,716	0,022	0,023
-326,387	-20,341	0,066	-0,029
-325,372	-14,769	-0,155	0,072
-324,358	-200,000	-0,016	-0,076
-323,343	-49,301	0,128	-0,044
-322,329	0,004	-0,074	-0,039
-321,314	-100,630	-0,111	0,020
-320,299	671,962	-0,076	0,144
-319,285	-200,000	0,004	0,064
-318,270	-200,000	0,028	0,104
-317,256	-45,571	-0,104	0,037
-316,241	-200,000	0,004	-0,013
-315,226	-64,458	0,072	-0,021
-314,212	135,908	0,020	0,019
-313,197	106,936	0,041	0,035
-312,183	-200,000	-0,002	0,083
-311,168	800,000	0,043	-0,111
-310,153	-200,000	-0,026	0,109
-309,139	571,474	0,066	0,118
-308,124	800,000	0,018	0,040
-307,110	-35,599	0,061	0,024
-306,095	800,000	0,079	0,166
-305,080	617,177	-0,031	-0,056
-304,066	-177,603	0,077	0,001
-303,051	800,000	-0,062	0,166
-302,037	383,156	-0,012	0,018
-301,022	-95,821	-0,059	-0,011
-300,008	-177,528	-0,139	0,002
-298,993	-89,693	0,039	-0,008
-297,978	-200,000	-0,057	0,189
-296,964	41,510	-0,014	-0,009
-295,949	-153,243	-0,052	0,003
-294,935	-96,636	-0,092	0,017
-293,920	68,474	0,057	-0,042
-292,905	-200,000	-0,018	0,161
-291,891	131,420	0,048	0,045
-290,876	-18,883	0,088	0,040
-289,862	-10,423	-0,127	-0,061
-288,847	-200,000	-0,002	-0,099
-287,832	-94,466	-0,069	0,014
-286,818	74,419	0,114	0,087
-285,803	-33,508	0,022	0,009
-284,789	258,014	-0,049	-0,062
-283,774	365,536	0,039	-0,057
-282,759	28,325	-0,019	0,012
-281,745	69,227	-0,092	0,068
-280,730	-200,000	0,019	-0,065
-279,716	448,536	0,111	0,178
-278,701	-200,000	0,004	0,083
-277,686	496,697	-0,049	0,083
-276,672	-41,826	0,097	-0,036
-275,657	665,189	-0,013	-0,025
-274,643	-70,195	0,079	0,022
-273,628	77,124	-0,083	0,065
-272,613	83,670	0,067	0,053
-271,599	-200,000	-0,002	-0,058
-270,584	-129,634	-0,019	0,002
-269,570	-200,000	0,020	0,074
-268,555	108,619	0,091	-0,079
-267,540	447,975	0,019	-0,031
-266,526	432,764	-0,067	-0,106
-265,511	-108,911	-0,056	0,009
-264,497	800,000	-0,026	-0,067
-263,482	-78,125	0,087	-0,022
-262,467	-200,000	0,026	0,087
-261,453	-200,000	0,050	0,209
-260,438	555,461	0,031	0,054
-259,424	-200,000	-0,013	0,139
-258,409	-167,605	0,091	0,003
-257,395	-200,000	-0,016	-0,134
-256,380	104,812	0,035	0,030
-255,365	800,000	0,037	0,110
-254,351	-200,000	-0,009	0,110
-253,336	800,000	-0,028	0,082
-252,322	721,502	0,027	-0,053
-251,307	511,951	0,049	0,083
-250,292	-200,000	-0,008	0,065
-249,278	800,000	0,025	0,059
-248,263	-200,000	0,042	0,168
-247,249	-200,000	0,026	0,090
-246,234	-29,522	-0,135	-0,056
-245,219	-200,000	0,008	0,099
-244,205	-200,000	-0,025	0,137
-243,190	314,130	-0,126	-0,172
-242,176	-200,000	-0,008	-0,069
-241,161	800,000	-0,041	-0,091
-240,146	-38,175	0,085	0,033
-239,132	3,925	-0,025	-0,013
-238,117	800,000	-0,016	0,047
-237,103	14,975	-0,085	-0,048
-236,088	-200,000	0,008	0,055
-235,073	800,000	-0,024	0,055
-234,059	800,000	-0,128	0,302
-233,044	15,345	-0,111	0,063
-232,030	-85,973	-0,092	-0,021
-231,015	-200,000	0,030	-0,123
-230,000	297,802	0,039	0,053
-228,986	-13,852	0,129	-0,060
-227,971	74,594	-0,073	-0,056
-226,957	800,000	-0,052	0,130
-225,942	-147,833	0,087	0,005
-224,927	800,000	-0,040	-0,121
-223,913	-63,262	0,219	0,065
-222,898	-79,934	-0,167	-0,040
-221,884	-15,802	-0,112	-0,052
-220,869	514,812	-0,025	-0,043
-219,855	10,715	-0,060	-0,033
-218,840	202,187	0,025	-0,028
-217,825	194,653	0,061	-0,067
-216,811	-69,407	0,049	-0,013
-215,796	-200,000	0,003	-0,071
-214,782	-200,000	0,010	-0,100
-213,767	-200,000	-0,024	-0,133
-212,752	-66,911	0,192	0,055
-211,738	4,865	-0,017	0,009
-210,723	437,567	-0,056	-0,089
-209,709	-133,038	-0,068	-0,006
-208,694	-200,000	-0,018	-0,212
-207,679	424,153	0,043	0,067
-206,665	-200,000	0,000	-0,004
-205,650	-200,000	0,022	0,077
-204,636	613,530	-0,030	0,055
-203,621	101,400	-0,085	-0,072
-202,606	254,128	0,016	-0,020
-201,592	3,820	0,100	-0,053
-200,577	800,000	-0,024	0,051
-199,563	-157,552	-0,018	-0,001
-198,548	94,256	0,006	-0,005
-197,533	-200,000	0,005	0,102
-196,519	215,056	-0,041	0,047
-195,504	592,173	-0,030	0,055
-194,490	89,840	-0,009	-0,007
-193,475	148,694	-0,009	0,009
-192,460	200,738	0,035	0,039
-191,446	-137,567	0,098	-0,008
-190,431	4,905	-0,070	0,038
-189,417	-126,272	0,147	0,016
-188,402	800,000	0,076	-0,174
-187,387	800,000	-0,056	-0,162
-186,373	-63,502	-0,059	0,017
-185,358	-200,000	0,029	-0,170
-184,344	-19,908	-0,069	0,031
-183,329	354,765	0,025	0,036
-182,315	178,885	0,120	0,128
-181,300	800,000	-0,032	0,101
-180,285	800,000	0,024	-0,056
-179,271	-200,000	-0,014	-0,139
-178,256	-200,000	0,005	0,023
-177,242	-39,109	0,070	-0,026
-176,227	800,000	0,041	-0,110
-175,212	290,278	0,037	-0,048
-174,198	-130,207	0,031	0,003
-173,183	598,113	-0,008	-0,015
-172,169	-200,000	-0,014	-0,208
-171,154	22,187	-0,043	0,025
-170,139	-200,000	0,006	0,090
-169,125	343,710	0,065	0,092
-168,110	-200,000	0,029	0,155
-167,096	-126,293	-0,039	-0,004
-166,081	-65,779	0,054	0,016
-165,066	-16,186	-0,187	-0,086
-164,052	-147,457	0,079	0,005
-163,037	-200,000	0,011	0,036
-162,023	800,000	0,003	0,005
-161,008	193,171	0,052	0,057
-159,993	97,654	0,052	-0,043
-158,979	127,737	-0,038	-0,035
-157,964	800,000	-0,038	-0,088
-156,950	19,752	-0,163	-0,095
-155,935	47,822	0,107	0,072
-154,920	800,000	-0,068	0,194
-153,906	-200,000	-0,003	-0,020
-152,891	336,084	0,014	0,020
-151,877	250,127	-0,121	-0,149
-150,862	-200,000	-0,038	-0,140
-149,847	800,000	-0,012	0,027
-148,833	239,875	-0,068	0,082
-147,818	-200,000	0,018	0,107
-146,804	-200,000	-0,012	0,083
-145,789	-200,000	0,003	0,079
-144,775	529,598	-0,016	-0,028
-143,760	295,309	-0,073	-0,096
-142,745	800,000	-0,066	-0,146
-141,731	-200,000	-0,037	0,136
-140,716	800,000	0,056	0,125
-139,702	172,545	0,156	0,163
-138,687	-77,999	-0,125	0,031
-137,672	184,414	-0,017	0,018
-136,658	-68,968	0,043	-0,012
-135,643	394,110	0,064	-0,097
-134,629	219,513	-0,084	-0,097
-133,614	-200,000	0,027	-0,088
-132,599	168,184	-0,022	0,023
-131,585	-178,047	-0,082	-0,001
-130,570	-9,452	-0,107	-0,052
-129,556	-13,638	0,103	0,048
-128,541	-28,971	0,141	-0,059
-127,526	-38,918	-0,075	0,029
-126,512	-116,676	0,188	0,025
-125,497	-200,000	-0,011	0,149
-124,483	257,213	0,106	0,132
-123,468	227,436	0,119	-0,141
-122,453	-70,086	-0,129	0,035
-121,439	-200,000	0,011	0,174
-120,424	70,171	-0,094	0,070
-119,410	-200,000	0,012	0,225
