DTS Sentinel unit serial number:	SN410029Multiplexer serial number:	ORYXHardware model number:	OX2-SRSoftware version number:	ORYX F/W v4,00 Oryx Data Collector v3.7.2.0data status	okinstallation	B6 Nyhavnadifferential loss correction	single-endedforward channel	channel 2reverse channel	N/Adate	2023/12/10time	22:00:08forward acquisition time	300,00reverse acquisition time	0,00gamma	499,1914k internal	0,3123k external	0,3123temperature offset calibration	1,0000default loss term (dB/km)	0,3820temperature slope calibration	1,0000multiplexer offset coefficient	1,0000multiplexer slope coefficient	1,0000fibre end	0,00T internal ref (°C)	22,31T ext. ref 1 (°C)	6,11T ext. ref 2 (°C)	6,11length (m)	temperature (°C)	Stokes	anti-Stokes-744,400	-200,000	-0,000	-0,124
-743,385	51,528	-0,238	0,169
-742,371	-7,572	-0,112	-0,056
-741,356	-112,956	-0,130	0,019
-740,342	67,584	0,073	0,055
-739,327	-67,852	-0,235	0,068
-738,312	12,828	-0,085	-0,049
-737,298	-17,468	-0,170	-0,079
-736,283	-132,365	0,077	-0,007
-735,269	331,094	-0,141	0,203
-734,254	-200,000	-0,004	-0,052
-733,239	-140,490	-0,490	-0,037
-732,225	114,301	0,121	0,110
-731,210	105,918	-0,113	0,100
-730,196	-200,000	0,021	0,148
-729,181	96,426	-0,079	-0,067
-728,167	-138,345	-0,052	0,004
-727,152	29,668	0,241	0,152
-726,137	-34,174	-0,066	0,027
-725,123	117,445	-0,080	-0,074
-724,108	-200,000	0,015	-0,130
-723,094	-200,000	-0,007	-0,125
-722,079	800,000	-0,037	-0,092
-721,064	331,254	-0,019	-0,027
-720,050	-116,715	-0,068	-0,009
-719,035	71,336	0,043	-0,033
-718,021	21,250	-0,054	-0,033
-717,006	-53,650	-0,096	0,032
-715,991	-200,000	0,018	-0,129
-714,977	98,123	-0,034	-0,029
-713,962	-200,000	0,004	-0,024
-712,948	351,032	-0,035	0,051
-711,933	80,282	-0,082	0,066
-710,918	146,020	-0,047	-0,047
-709,904	125,317	-0,149	-0,139
-708,889	94,062	-0,143	-0,121
-707,875	-32,258	0,043	0,018
-706,860	-200,000	0,008	0,172
-705,845	-83,768	0,157	-0,037
-704,831	-53,161	0,109	0,037
-703,816	-110,168	-0,132	0,020
-702,802	-78,612	-0,078	-0,020
-701,787	-151,989	-0,154	0,008
-700,772	183,649	-0,067	0,074
-699,758	111,950	0,057	-0,051
-698,743	-200,000	-0,004	0,073
-697,729	-50,535	0,097	-0,034
-696,714	74,385	-0,059	-0,046
-695,699	-145,882	0,104	0,007
-694,685	800,000	-0,029	0,074
-693,670	800,000	-0,034	-0,103
-692,656	-200,000	0,001	0,024
-691,641	-50,898	0,114	0,040
-690,627	472,514	0,011	-0,019
-689,612	-82,299	-0,062	-0,015
-688,597	-33,837	-0,024	-0,010
-687,583	-148,264	-0,058	-0,004
-686,568	291,838	0,101	-0,137
-685,554	-200,000	0,028	-0,116
-684,539	-200,000	0,024	0,090
-683,524	15,257	0,028	-0,016
-682,510	800,000	-0,007	0,021
-681,495	-200,000	0,008	0,106
-680,481	209,423	0,044	-0,051
-679,466	47,930	-0,058	0,040
-678,451	-200,000	-0,004	-0,076
-677,437	800,000	-0,036	0,079
-676,422	-2,577	-0,099	-0,051
-675,408	93,197	0,055	0,046
-674,393	335,775	-0,028	-0,040
-673,378	-183,268	0,074	-0,001
-672,364	76,018	-0,028	0,022
-671,349	-109,302	-0,110	0,017
-670,335	-49,819	0,026	0,009
-669,320	800,000	-0,042	0,126
-668,305	92,151	-0,085	0,071
-667,291	-111,522	-0,106	0,016
-666,276	-2,165	0,012	0,006
-665,262	-45,199	-0,077	0,028
-664,247	-200,000	0,022	-0,078
-663,232	355,091	-0,057	-0,084
-662,218	20,748	0,024	0,015
-661,203	-200,000	0,006	-0,026
-660,189	-90,098	-0,122	0,026
-659,174	-200,000	0,004	-0,138
-658,159	192,457	0,050	-0,056
-657,145	523,707	0,045	-0,079
-656,130	88,805	0,089	-0,074
-655,116	260,147	-0,023	-0,030
-654,101	28,792	0,104	-0,065
-653,086	800,000	-0,070	-0,156
-652,072	525,444	-0,074	-0,131
-651,057	-25,646	-0,121	-0,053
-650,043	503,373	-0,037	0,064
-649,028	-29,200	0,057	0,024
-648,014	313,077	0,070	0,098
-646,999	-200,000	-0,057	-0,000
-645,984	12,831	0,080	0,046
-644,970	196,119	0,067	0,076
-643,955	10,287	-0,036	-0,020
-642,941	208,605	-0,037	-0,043
-641,926	631,473	0,077	-0,145
-640,911	-200,000	-0,009	-0,114
-639,897	800,000	0,013	-0,036
-638,882	800,000	-0,058	-0,142
-637,868	383,522	-0,061	-0,094
-636,853	18,832	-0,078	0,046
-635,838	-200,000	0,001	0,050
-634,824	421,202	-0,044	-0,071
-633,809	98,792	-0,085	-0,073
-632,795	-47,267	-0,096	-0,034
-631,780	100,416	-0,020	0,018
-630,765	96,865	0,015	-0,013
-629,751	-160,637	0,020	0,001
-628,736	34,924	-0,075	-0,049
-627,722	-118,668	-0,060	0,008
-626,707	-200,000	0,005	-0,068
-625,692	-49,025	-0,035	0,012
-624,678	-200,000	-0,005	0,083
-623,663	155,449	-0,057	-0,058
-622,649	800,000	-0,036	-0,094
-621,634	241,955	-0,052	-0,065
-620,619	-80,236	-0,029	0,007
-619,605	-40,510	0,061	-0,023
-618,590	800,000	-0,020	0,058
-617,576	128,593	0,045	0,042
-616,561	-131,332	-0,116	0,011
-615,546	476,454	0,035	0,059
-614,532	800,000	-0,040	0,090
-613,517	786,686	-0,042	-0,086
-612,503	-2,685	0,025	0,013
-611,488	62,018	-0,071	0,052
-610,474	387,376	0,041	0,063
-609,459	52,314	-0,076	0,054
-608,444	128,323	-0,150	-0,142
-607,430	580,523	-0,039	-0,071
-606,415	-149,399	-0,061	-0,004
-605,401	-200,000	-0,022	0,125
-604,386	244,010	-0,113	0,141
-603,371	70,703	-0,055	-0,042
-602,357	124,644	0,093	0,087
-601,342	463,975	-0,053	-0,089
-600,328	-57,042	-0,130	-0,042
-599,313	500,164	-0,046	0,079
-598,298	110,467	0,007	-0,006
-597,284	-120,501	0,058	0,007
-596,269	-95,736	-0,085	0,017
-595,255	-61,488	0,015	-0,005
-594,240	23,679	0,110	-0,067
-593,225	210,435	-0,055	-0,064
-592,211	758,436	-0,065	-0,131
-591,196	216,485	0,052	-0,062
-590,182	-186,421	0,090	-0,001
-589,167	-200,000	0,003	-0,026
-588,152	-200,000	0,041	0,219
-587,138	-117,441	-0,153	-0,020
-586,123	93,546	-0,019	-0,016
-585,109	-84,282	0,027	0,006
-584,094	127,740	-0,096	-0,090
-583,079	119,989	0,089	0,081
-582,065	121,585	0,017	0,016
-581,050	290,120	-0,011	-0,015
-580,036	406,603	0,059	-0,092
-579,021	456,913	0,018	-0,030
-578,006	313,130	-0,110	-0,154
-576,992	-200,000	-0,000	0,004
-575,977	-1,142	0,071	-0,037
-574,963	-200,000	0,025	0,125
-573,948	577,055	-0,009	-0,017
-572,934	-126,443	-0,018	-0,002
-571,919	-200,000	-0,018	-0,134
-570,904	-42,981	0,078	0,029
-569,890	599,359	0,052	0,095
-568,875	-166,374	-0,054	0,002
-567,861	-200,000	0,005	-0,170
-566,846	-200,000	-0,017	0,145
-565,831	-53,518	0,067	0,022
-564,817	237,698	-0,035	-0,043
-563,802	156,023	0,040	-0,041
-562,788	180,431	0,021	0,023
-561,773	-200,000	-0,026	-0,104
-560,758	36,650	-0,056	0,036
-559,744	40,246	0,057	0,038
-558,729	-7,241	0,078	-0,039
-557,715	-200,000	-0,009	-0,037
-556,700	-95,000	0,055	-0,011
-555,685	424,561	-0,009	-0,015
-554,671	-18,284	-0,045	0,021
-553,656	284,621	-0,062	0,083
-552,642	-133,171	-0,126	-0,012
-551,627	800,000	0,025	-0,061
-550,612	-94,942	-0,118	0,023
-549,598	-200,000	-0,014	-0,045
-548,583	-89,256	-0,073	-0,016
-547,569	-172,034	-0,075	0,002
-546,554	284,174	0,031	0,041
-545,539	47,006	0,090	0,062
-544,525	800,000	-0,034	-0,076
-543,510	-200,000	0,012	-0,141
-542,496	82,738	-0,057	-0,046
-541,481	219,230	-0,056	0,066
-540,466	-112,966	0,075	0,011
-539,452	200,461	0,049	-0,056
-538,437	-78,153	-0,137	0,035
-537,423	276,075	0,034	0,045
-536,408	98,083	0,043	-0,037
-535,393	54,884	-0,093	0,066
-534,379	-92,318	0,191	-0,039
-533,364	288,859	-0,126	0,170
-532,350	-83,359	0,121	0,029
-531,335	82,810	0,048	0,039
-530,321	93,196	0,083	-0,069
-529,306	800,000	-0,060	-0,136
-528,291	-200,000	0,020	-0,125
-527,277	58,408	0,059	-0,043
-526,262	454,436	0,016	0,027
-525,248	800,000	-0,006	-0,013
-524,233	451,002	0,068	-0,111
-523,218	800,000	0,035	-0,085
-522,204	-200,000	0,010	-0,081
-521,189	-200,000	0,028	-0,139
-520,175	703,505	-0,027	-0,052
-519,160	7,122	0,114	0,063
-518,145	800,000	0,052	0,123
-517,131	-200,000	0,017	0,088
-516,116	10,528	0,139	0,078
-515,102	233,998	0,011	0,013
-514,087	145,075	0,026	0,025
-513,072	185,670	-0,118	-0,130
-512,058	-1,722	-0,131	0,068
-511,043	446,087	-0,050	0,081
-510,029	-200,000	0,003	0,029
-509,014	-200,000	-0,012	-0,130
-507,999	59,583	0,105	-0,077
-506,985	-92,510	-0,235	-0,048
-505,970	-10,138	0,070	0,034
-504,956	-150,359	-0,122	0,007
-503,941	213,977	0,055	-0,064
-502,926	287,445	0,108	0,144
-501,912	-200,000	-0,027	0,097
-500,897	-23,246	-0,034	0,015
-499,883	327,675	0,060	0,086
-498,868	292,826	0,018	0,024
-497,853	-69,497	-0,053	-0,015
-496,839	391,146	-0,011	0,017
-495,824	415,127	0,053	-0,083
-494,810	125,531	-0,113	0,105
-493,795	-133,591	0,026	0,002
-492,781	-155,335	-0,079	0,004
-491,766	800,000	-0,068	-0,140
-490,751	-69,234	-0,051	-0,014
-489,737	-150,976	-0,061	0,003
-488,722	-169,112	0,146	0,004
-487,708	45,560	0,080	0,055
-486,693	33,918	0,074	0,048
-485,678	-48,323	0,012	0,004
-484,664	-200,000	-0,020	0,146
-483,649	110,163	-0,049	-0,043
-482,635	-200,000	-0,014	-0,103
-481,620	800,000	-0,012	-0,028
-480,605	98,409	-0,011	0,010
-479,591	-200,000	0,007	-0,029
-478,576	58,569	-0,070	-0,051
-477,562	102,664	0,098	0,085
-476,547	-162,718	-0,060	-0,002
-475,532	-200,000	-0,003	0,109
-474,518	51,702	0,045	0,032
-473,503	-176,626	0,034	-0,001
-472,489	-83,361	0,115	0,027
-471,474	800,000	-0,061	0,160
-470,459	-52,393	-0,022	-0,007
-469,445	139,879	-0,021	-0,020
-468,430	800,000	0,096	-0,217
-467,416	0,614	-0,123	-0,064
-466,401	-170,674	-0,023	0,001
-465,386	-200,000	0,018	0,072
-464,372	-200,000	-0,003	0,042
-463,357	-82,723	-0,129	0,031
-462,343	261,481	0,072	-0,092
-461,328	-32,733	-0,066	0,027
-460,313	-200,000	0,042	0,213
-459,299	-200,000	-0,004	0,026
-458,284	-80,386	0,148	0,036
-457,270	-143,564	0,156	0,011
-456,255	-25,878	-0,103	-0,044
-455,241	-99,691	-0,139	0,025
-454,226	-152,253	0,125	-0,007
-453,211	102,465	-0,068	0,059
-452,197	66,737	0,060	0,045
-451,182	-11,541	0,105	0,051
-450,168	-84,570	0,149	-0,034
-449,153	37,997	-0,048	-0,032
-448,138	-128,629	-0,140	-0,014
-447,124	-200,000	-0,009	0,072
-446,109	608,883	-0,067	0,123
-445,095	-108,244	-0,051	0,008
-444,080	250,154	0,082	0,103
-443,065	-200,000	-0,022	0,115
-442,051	269,740	0,071	-0,092
-441,036	-23,711	-0,101	-0,044
-440,022	-200,000	0,004	-0,058
-439,007	-138,692	0,046	0,004
-437,992	65,741	-0,064	0,047
-436,978	305,450	0,077	0,105
-435,963	-162,190	0,085	0,003
-434,949	-65,324	0,040	-0,012
-433,934	7,912	-0,058	0,032
-432,919	54,559	0,091	0,065
-431,905	98,949	-0,064	-0,054
-430,890	31,801	0,023	-0,015
-429,876	-200,000	-0,005	0,075
-428,861	-82,878	0,023	0,006
-427,846	330,024	-0,017	0,024
-426,832	-200,000	0,022	0,082
-425,817	-200,000	0,015	0,085
-424,803	74,099	0,066	-0,051
-423,788	-35,544	-0,045	0,018
-422,773	-200,000	0,018	0,124
-421,759	-200,000	-0,015	0,091
-420,744	-120,448	-0,102	-0,013
-419,730	-107,014	-0,097	0,016
-418,715	-200,000	-0,012	-0,060
-417,701	720,011	0,035	0,069
-416,686	-200,000	-0,029	0,118
-415,671	694,264	0,029	0,056
-414,657	-31,203	-0,069	0,029
-413,642	-200,000	-0,003	0,050
-412,628	-181,420	0,091	-0,001
-411,613	800,000	-0,019	-0,049
-410,598	7,563	-0,033	-0,018
-409,584	38,726	0,098	-0,065
-408,569	79,624	-0,069	-0,054
-407,555	-75,521	-0,099	0,026
-406,540	-69,688	0,095	-0,027
-405,525	-200,000	-0,005	0,096
-404,511	800,000	-0,062	-0,132
-403,496	77,980	-0,048	-0,037
-402,482	67,198	0,064	-0,048
-401,467	-200,000	0,007	0,026
-400,452	-150,889	0,055	0,003
-399,438	55,505	-0,028	-0,020
-398,423	-200,000	-0,011	0,064
-397,409	374,097	-0,048	-0,072
-396,394	245,446	0,091	-0,113
-395,379	317,917	0,053	0,074
-394,365	-68,620	0,057	0,016
-393,350	416,002	0,011	0,018
-392,336	137,535	-0,039	-0,037
-391,321	26,653	-0,121	-0,074
-390,306	-63,544	0,022	0,007
-389,292	-200,000	-0,022	-0,092
-388,277	-71,733	0,123	-0,034
-387,263	-92,051	0,079	-0,016
-386,248	-89,090	-0,026	0,006
-385,233	-12,159	0,105	0,050
-384,219	800,000	0,054	0,109
-383,204	66,432	-0,080	-0,060
-382,190	-200,000	-0,009	0,051
-381,175	36,973	0,070	-0,045
-380,160	-74,599	-0,144	-0,038
-379,146	-107,691	-0,035	0,006
-378,131	521,241	0,030	-0,051
-377,117	-123,489	-0,075	-0,009
-376,102	102,086	0,052	0,045
-375,088	-200,000	-0,024	-0,078
-374,073	157,226	0,032	-0,033
-373,058	-200,000	0,047	0,155
-372,044	-200,000	0,030	0,107
-371,029	34,458	-0,050	-0,032
-370,015	-154,060	-0,066	0,003
-369,000	352,324	-0,044	0,064
-367,985	111,219	-0,047	-0,042
-366,971	-17,106	0,120	-0,055
-365,956	-200,000	-0,025	0,107
-364,942	33,897	0,085	-0,054
-363,927	-76,403	-0,076	-0,020
-362,912	800,000	0,059	0,145
-361,898	541,998	0,067	-0,117
-360,883	-200,000	-0,007	-0,081
-359,869	-50,063	-0,049	0,017
-358,854	3,311	0,102	0,054
-357,839	-200,000	0,023	0,187
-356,825	800,000	0,066	0,163
-355,810	155,280	0,089	-0,090
-354,796	628,965	0,022	0,042
-353,781	-14,408	-0,078	0,037
-352,766	-200,000	0,046	-0,177
-351,752	2,715	0,089	0,047
-350,737	-200,000	0,008	-0,085
-349,723	800,000	0,045	0,144
-348,708	40,701	0,074	-0,049
-347,693	-200,000	-0,032	0,106
-346,679	22,902	-0,104	-0,063
-345,664	-56,661	-0,054	-0,018
-344,650	-131,474	0,072	0,007
-343,635	55,367	0,105	-0,075
-342,620	-55,594	0,144	0,047
-341,606	188,223	0,007	0,008
-340,591	800,000	0,057	-0,129
-339,577	189,679	-0,030	-0,033
-338,562	800,000	-0,014	0,028
-337,548	332,178	0,029	0,041
-336,533	96,537	0,111	0,093
-335,518	-200,000	0,015	-0,137
-334,504	-150,049	0,092	-0,005
-333,489	64,514	0,042	0,031
-332,475	800,000	-0,022	0,073
-331,460	-58,146	0,105	0,033
-330,445	256,110	0,022	-0,028
-329,431	800,000	0,015	-0,030
-328,416	-200,000	-0,024	0,093
-327,402	40,575	0,139	0,091
-326,387	-200,000	0,006	-0,115
-325,372	552,239	-0,040	-0,071
-324,358	-72,711	-0,115	-0,031
-323,343	800,000	-0,063	-0,167
-322,329	-200,000	0,005	-0,079
-321,314	800,000	0,021	-0,061
-320,299	-200,000	0,013	-0,045
-319,285	46,217	-0,103	-0,070
-318,270	467,172	0,081	-0,133
-317,256	289,213	-0,022	0,029
-316,241	-200,000	-0,006	0,056
-315,226	-200,000	-0,021	0,082
-314,212	800,000	0,036	0,093
-313,197	142,268	0,032	-0,031
-312,183	800,000	-0,052	0,132
-311,168	-200,000	0,027	-0,111
-310,153	-200,000	0,015	0,097
-309,139	133,663	-0,095	-0,090
-308,124	22,244	-0,114	0,068
-307,110	-16,019	-0,030	0,014
-306,095	453,431	0,037	0,060
-305,080	26,915	-0,063	0,039
-304,066	800,000	-0,028	-0,081
-303,051	25,316	0,156	-0,095
-302,037	-32,179	0,078	0,032
-301,022	-107,628	0,048	-0,008
-300,008	134,291	0,076	-0,072
-298,993	388,323	-0,089	0,136
-297,978	-147,309	-0,021	-0,001
-296,964	370,642	0,070	-0,105
-295,949	222,080	-0,079	-0,093
-294,935	-139,826	-0,117	-0,009
-293,920	164,633	0,031	0,032
-292,905	198,982	0,034	-0,038
-291,891	379,998	-0,022	-0,034
-290,876	-71,682	-0,023	-0,006
-289,862	118,966	0,108	0,097
-288,847	7,158	0,019	0,010
-287,832	-49,621	-0,057	0,020
-286,818	800,000	-0,048	-0,104
-285,803	126,733	0,068	0,063
-284,789	-71,860	-0,081	0,022
-283,774	-200,000	0,005	0,154
-282,759	142,434	0,085	0,083
-281,745	-190,595	-0,080	-0,001
-280,730	-200,000	-0,007	-0,109
-279,716	457,283	0,005	0,008
-278,701	-200,000	0,028	0,136
-277,686	183,071	0,056	-0,061
-276,672	-110,804	0,060	0,009
-275,657	-88,361	0,080	-0,017
-274,643	-200,000	-0,016	-0,108
-273,628	309,233	0,019	0,026
-272,613	-17,556	-0,169	-0,078
-271,599	-39,668	0,106	0,040
-270,584	-75,556	0,025	-0,006
-269,570	-200,000	-0,010	0,033
-268,555	-126,574	0,061	-0,007
-267,540	51,253	0,044	-0,030
-266,526	87,753	-0,088	-0,071
-265,511	-200,000	0,006	-0,089
-264,497	-200,000	0,030	0,110
-263,482	-102,166	-0,023	-0,004
-262,467	680,753	-0,027	0,051
-261,453	-96,895	0,029	0,005
-260,438	-56,582	-0,086	-0,028
-259,424	-103,381	-0,097	-0,017
-258,409	-200,000	-0,009	0,066
-257,395	-200,000	0,024	0,080
-256,380	-200,000	0,006	-0,021
-255,365	-2,997	0,018	0,009
-254,351	-40,988	0,009	0,003
-253,336	658,691	-0,068	-0,128
-252,322	107,801	0,067	-0,058
-251,307	-200,000	0,056	-0,217
-250,292	-11,865	-0,084	-0,040
-249,278	579,758	0,031	0,056
-248,263	-200,000	0,002	0,117
-247,249	-128,204	0,065	0,007
-246,234	-200,000	0,011	0,085
-245,219	-200,000	-0,009	-0,072
-244,205	-183,614	-0,072	0,001
-243,190	17,442	0,031	-0,018
-242,176	800,000	-0,039	0,087
-241,161	255,738	-0,028	-0,036
-240,146	-55,520	-0,037	0,012
-239,132	37,911	-0,013	0,008
-238,117	800,000	-0,032	-0,071
-237,103	54,528	-0,079	-0,055
-236,088	-80,257	0,139	-0,034
-235,073	24,821	0,049	0,030
-234,059	-200,000	0,007	-0,025
-233,044	146,046	0,036	0,035
-232,030	-200,000	-0,008	-0,046
-231,015	265,336	0,029	0,037
-230,000	-85,444	0,045	-0,010
-228,986	288,161	-0,104	-0,137
-227,971	-200,000	0,030	0,133
-226,957	686,482	0,073	0,141
-225,942	42,712	0,129	0,086
-224,927	-77,732	0,108	-0,027
-223,913	-200,000	-0,010	-0,038
-222,898	-7,084	0,063	0,031
-221,884	23,234	0,042	-0,025
-220,869	55,372	-0,045	0,032
-219,855	97,492	0,108	0,091
-218,840	-87,919	-0,018	-0,004
-217,825	-137,787	-0,126	-0,010
-216,811	197,448	-0,051	-0,057
-215,796	-200,000	0,023	-0,219
-214,782	-122,507	-0,098	-0,012
-213,767	-42,402	-0,069	-0,026
-212,752	-200,000	0,016	-0,077
-211,738	-73,205	0,106	-0,028
-210,723	23,056	-0,051	-0,030
-209,709	-200,000	0,002	-0,033
-208,694	-43,665	0,021	-0,008
-207,679	70,987	-0,085	-0,064
-206,665	-200,000	-0,001	-0,016
-205,650	-154,895	0,185	0,009
-204,636	-17,392	-0,176	0,080
-203,621	-200,000	0,012	-0,084
-202,606	800,000	0,012	0,030
-201,592	8,830	-0,157	-0,086
-200,577	79,052	-0,139	-0,109
-199,563	169,602	0,092	-0,096
-198,548	-200,000	-0,032	0,184
-197,533	-200,000	-0,010	-0,046
-196,519	-9,238	0,066	0,032
-195,504	-17,279	-0,141	-0,064
-194,490	-146,746	-0,191	-0,012
-193,475	-67,431	-0,073	-0,021
-192,460	81,993	-0,080	0,063
-191,446	-83,417	-0,134	0,031
-190,431	-200,000	-0,010	0,109
-189,417	-101,158	0,170	0,030
-188,402	212,795	0,023	-0,026
-187,387	204,228	-0,060	0,068
-186,373	-95,259	0,085	0,016
-185,358	-155,864	-0,088	0,004
-184,344	-73,431	0,108	0,028
-183,329	-200,000	0,003	0,072
-182,315	800,000	-0,017	0,040
-181,300	800,000	0,032	0,090
-180,285	-68,785	0,071	-0,020
-179,271	-200,000	-0,002	-0,173
-178,256	-29,964	0,121	-0,050
-177,242	-200,000	0,016	0,115
-176,227	-76,250	-0,064	0,016
-175,212	14,632	0,084	0,048
-174,198	35,546	-0,065	0,042
-173,183	256,949	0,044	-0,056
-172,169	-88,877	0,213	0,046
-171,154	-200,000	0,006	0,098
-170,139	121,741	-0,107	0,097
-169,125	14,088	-0,038	0,021
-168,110	-38,760	-0,036	0,014
-167,096	310,517	-0,085	0,116
-166,081	63,995	-0,124	0,091
-165,066	164,263	-0,064	-0,066
-164,052	262,444	0,035	0,044
-163,037	89,646	0,026	-0,021
-162,023	-117,336	0,122	0,016
-161,008	-200,000	0,000	-0,029
-159,993	34,730	0,056	0,036
-158,979	-200,000	-0,004	-0,028
-157,964	800,000	0,022	-0,049
-156,950	-200,000	0,006	-0,026
-155,935	800,000	0,033	-0,090
-154,920	-181,797	0,049	0,001
-153,906	-200,000	-0,005	-0,046
-152,891	-138,438	-0,048	0,004
-151,877	-200,000	0,018	0,128
-150,862	-70,373	-0,152	-0,042
-149,847	303,148	-0,069	-0,094
-148,833	265,532	0,063	-0,080
-147,818	-146,319	0,152	-0,010
-146,804	87,755	0,103	0,083
-145,789	800,000	0,033	0,094
-144,775	-200,000	0,021	-0,104
-143,760	120,348	0,116	-0,105
-142,745	800,000	0,026	0,070
-141,731	53,365	0,179	0,125
-140,716	-200,000	0,007	-0,047
-139,702	228,842	0,097	0,116
-138,687	-200,000	-0,015	0,055
-137,672	44,242	-0,068	-0,045
-136,658	756,672	-0,040	-0,079
-135,643	-200,000	0,015	-0,082
-134,629	440,646	-0,063	-0,100
-133,614	291,234	-0,053	-0,070
-132,599	55,412	0,142	-0,100
-131,585	-159,851	0,100	0,004
-130,570	800,000	-0,031	0,079
-129,556	111,679	-0,039	-0,034
-128,541	-200,000	-0,008	-0,133
-127,526	-200,000	0,025	-0,128
-126,512	-13,801	-0,038	0,018
-125,497	800,000	-0,007	-0,016
-124,483	48,897	-0,033	0,022
-123,468	-200,000	0,006	0,054
-122,453	800,000	-0,046	-0,121
-121,439	-106,311	0,124	0,020
-120,424	-121,930	-0,124	0,015
-119,410	680,408	0,068	0,129
-118,395	226,973	0,047	-0,056
