DTS Sentinel unit serial number:	SN410029Multiplexer serial number:	ORYXHardware model number:	OX2-SRSoftware version number:	ORYX F/W v4,00 Oryx Data Collector v3.7.2.0data status	okinstallation	B6 Nyhavnadifferential loss correction	single-endedforward channel	channel 2reverse channel	N/Adate	2023/12/08time	09:55:08forward acquisition time	300,00reverse acquisition time	0,00gamma	499,1914k internal	0,3165k external	0,3165temperature offset calibration	1,0000default loss term (dB/km)	0,3820temperature slope calibration	1,0000multiplexer offset coefficient	1,0000multiplexer slope coefficient	1,0000fibre end	0,00T internal ref (°C)	13,90T ext. ref 1 (°C)	-1,67T ext. ref 2 (°C)	-1,64length (m)	temperature (°C)	Stokes	anti-Stokes-744,400	-24,515	0,093	-0,041
-743,385	-83,424	-0,294	0,069
-742,371	-161,679	0,169	-0,006
-741,356	0,135	-0,333	0,174
-740,342	5,726	0,176	0,095
-739,327	-153,863	-0,394	0,019
-738,312	-75,140	0,199	0,052
-737,298	-166,835	-0,245	0,007
-736,283	-19,181	0,172	-0,078
-735,269	-200,000	-0,210	-0,000
-734,254	56,032	0,187	0,134
-733,239	-77,801	-0,524	-0,132
-732,225	58,142	0,151	0,109
-731,210	322,025	-0,059	0,083
-730,196	800,000	0,024	0,061
-729,181	-155,188	-0,113	0,005
-728,167	800,000	0,046	-0,109
-727,152	-87,692	-0,208	-0,046
-726,137	16,729	-0,127	-0,074
-725,123	66,547	-0,078	-0,058
-724,108	-200,000	0,001	0,005
-723,094	-200,000	0,038	-0,151
-722,079	-200,000	-0,012	-0,112
-721,064	86,113	0,064	-0,052
-720,050	80,973	-0,028	-0,022
-719,035	-183,343	0,066	-0,001
-718,021	82,675	0,095	-0,076
-717,006	60,436	-0,085	-0,062
-715,991	-117,002	-0,132	-0,017
-714,977	800,000	-0,068	-0,170
-713,962	-200,000	-0,016	-0,070
-712,948	-200,000	0,017	0,065
-711,933	-128,618	0,175	0,018
-710,918	-30,453	-0,102	0,042
-709,904	800,000	0,075	-0,214
-708,889	190,194	-0,032	-0,035
-707,875	0,484	-0,113	-0,059
-706,860	-114,837	-0,088	-0,012
-705,845	301,882	0,027	0,037
-704,831	-20,387	0,072	0,032
-703,816	-64,200	-0,013	0,004
-702,802	518,664	-0,033	-0,056
-701,787	-200,000	-0,003	-0,113
-700,772	50,408	0,040	-0,027
-699,758	461,425	-0,108	-0,177
-698,743	4,480	0,072	0,039
-697,729	-156,597	0,141	0,006
-696,714	250,457	-0,085	-0,106
-695,699	-105,439	-0,046	-0,008
-694,685	221,335	-0,071	-0,084
-693,670	-82,028	0,018	0,004
-692,656	-200,000	-0,005	-0,046
-691,641	-131,476	-0,137	-0,013
-690,627	-200,000	0,000	-0,054
-689,612	-55,852	-0,066	-0,021
-688,597	-200,000	-0,000	0,044
-687,583	-111,333	0,032	0,005
-686,568	-200,000	-0,015	0,099
-685,554	-200,000	0,002	-0,150
-684,539	-10,748	-0,042	0,020
-683,524	-200,000	0,012	0,102
-682,510	-174,447	-0,124	-0,003
-681,495	-200,000	-0,026	-0,140
-680,481	233,585	0,025	-0,030
-679,466	-98,113	-0,032	0,006
-678,451	-200,000	0,007	0,217
-677,437	-13,069	-0,099	-0,047
-676,422	800,000	0,058	-0,122
-675,408	126,900	0,041	-0,038
-674,393	198,698	0,039	0,044
-673,378	-200,000	0,028	-0,124
-672,364	-131,574	-0,084	0,008
-671,349	-27,251	0,113	0,048
-670,335	680,861	0,019	0,036
-669,320	-77,388	0,038	0,010
-668,305	13,883	-0,090	-0,051
-667,291	-144,819	-0,032	0,002
-666,276	429,636	-0,030	-0,048
-665,262	-200,000	0,000	-0,117
-664,247	95,162	-0,135	-0,113
-663,232	800,000	-0,035	0,083
-662,218	-200,000	-0,025	-0,127
-661,203	2,958	0,098	-0,052
-660,189	-76,240	-0,155	-0,040
-659,174	-200,000	0,007	-0,054
-658,159	-200,000	0,006	-0,053
-657,145	-200,000	0,023	-0,115
-656,130	171,521	0,065	-0,069
-655,116	800,000	-0,016	-0,044
-654,101	-164,884	-0,059	-0,002
-653,086	39,663	-0,039	-0,026
-652,072	800,000	-0,008	0,018
-651,057	-151,599	0,087	-0,005
-650,043	-108,851	-0,218	0,034
-649,028	-200,000	0,007	0,036
-648,014	739,421	0,073	-0,145
-646,999	-200,000	0,007	-0,026
-645,984	-134,835	-0,045	-0,004
-644,970	-200,000	-0,026	-0,154
-643,955	-200,000	0,002	0,058
-642,941	780,356	-0,032	-0,064
-641,926	800,000	-0,030	0,068
-640,911	120,931	0,087	0,079
-639,897	800,000	0,022	-0,064
-638,882	80,453	-0,021	0,017
-637,868	-200,000	0,036	-0,163
-636,853	189,864	-0,094	0,104
-635,838	63,547	0,049	-0,036
-634,824	-137,003	-0,104	-0,009
-633,809	-9,602	-0,036	0,017
-632,795	-200,000	0,006	-0,136
-631,780	-109,382	-0,104	0,016
-630,765	353,390	-0,057	-0,084
-629,751	800,000	-0,031	0,069
-628,736	502,221	-0,034	-0,058
-627,722	714,934	-0,077	-0,150
-626,707	-200,000	0,034	-0,117
-625,692	800,000	-0,048	0,130
-624,678	13,159	0,070	-0,040
-623,663	413,707	0,084	-0,131
-622,649	-200,000	0,007	-0,099
-621,634	-89,792	-0,131	-0,028
-620,619	-183,889	-0,084	0,001
-619,605	-107,124	-0,138	0,022
-618,590	-26,122	0,105	-0,045
-617,576	-71,520	-0,102	-0,028
-616,561	344,152	-0,034	-0,049
-615,546	-110,812	0,102	0,015
-614,532	322,321	-0,048	0,067
-613,517	-200,000	0,000	-0,100
-612,503	214,042	-0,013	-0,016
-611,488	-53,712	0,034	0,011
-610,474	800,000	0,061	-0,140
-609,459	-200,000	-0,008	-0,063
-608,444	386,203	0,055	-0,083
-607,430	-200,000	-0,026	-0,088
-606,415	92,238	0,012	-0,010
-605,401	-200,000	-0,012	-0,044
-604,386	-200,000	0,004	0,036
-603,371	-157,952	-0,049	0,002
-602,357	62,208	-0,136	-0,099
-601,342	-137,247	0,093	0,008
-600,328	69,448	-0,148	-0,111
-599,313	800,000	-0,026	-0,077
-598,298	-128,043	0,081	-0,008
-597,284	78,264	0,042	-0,032
-596,269	-173,618	0,072	0,002
-595,255	698,353	-0,070	0,134
-594,240	800,000	-0,044	0,095
-593,225	-200,000	-0,019	-0,085
-592,211	-82,594	-0,191	-0,045
-591,196	232,073	0,035	-0,042
-590,182	18,814	0,078	-0,045
-589,167	-151,589	0,080	0,004
-588,152	-200,000	-0,013	0,096
-587,138	-200,000	-0,003	-0,034
-586,123	-47,901	0,077	0,027
-585,109	130,079	0,057	0,053
-584,094	-200,000	-0,015	-0,063
-583,079	17,878	0,078	-0,045
-582,065	800,000	0,022	0,052
-581,050	332,406	0,058	0,082
-580,036	-115,269	-0,172	-0,024
-579,021	-200,000	-0,007	-0,052
-578,006	-78,567	-0,072	-0,018
-576,992	58,081	0,018	-0,013
-575,977	800,000	-0,045	-0,104
-574,963	800,000	-0,009	0,023
-573,948	-200,000	0,013	-0,050
-572,934	119,914	0,095	-0,086
-571,919	120,662	-0,158	-0,143
-570,904	-96,319	-0,065	-0,012
-569,890	-62,830	-0,124	0,037
-568,875	-141,165	0,141	-0,010
-567,861	121,554	0,080	0,073
-566,846	188,495	-0,016	-0,017
-565,831	54,057	0,101	-0,071
-564,817	51,638	-0,092	0,064
-563,802	105,000	-0,090	-0,077
-562,788	800,000	-0,018	0,047
-561,773	-200,000	0,017	-0,082
-560,758	-200,000	0,005	0,035
-559,744	800,000	-0,009	0,029
-558,729	-200,000	0,024	0,092
-557,715	45,656	-0,024	-0,016
-556,700	-200,000	-0,028	-0,102
-555,685	87,771	0,104	-0,084
-554,671	158,377	0,102	0,103
-553,656	-167,006	-0,028	-0,001
-552,642	-51,513	-0,051	-0,017
-551,627	83,019	-0,049	0,039
-550,612	800,000	0,011	-0,031
-549,598	173,252	-0,085	-0,089
-548,583	358,390	-0,031	0,045
-547,569	31,827	0,056	0,035
-546,554	566,191	0,034	0,061
-545,539	-60,940	0,057	-0,017
-544,525	-9,149	-0,083	0,041
-543,510	382,721	0,009	0,013
-542,496	109,611	0,120	0,105
-541,481	800,000	0,027	0,069
-540,466	-128,652	-0,127	0,013
-539,452	-200,000	0,029	0,114
-538,437	-114,128	0,040	0,006
-537,423	739,019	0,009	-0,019
-536,408	142,763	-0,047	-0,046
-535,393	185,609	-0,107	0,116
-534,379	32,386	-0,049	0,031
-533,364	-200,000	-0,007	0,176
-532,350	-140,569	-0,101	-0,008
-531,335	132,856	0,068	-0,064
-530,321	364,678	-0,040	0,059
-529,306	54,890	-0,039	-0,027
-528,291	800,000	-0,037	-0,086
-527,277	800,000	0,065	-0,136
-526,262	111,023	-0,070	-0,062
-525,248	90,695	0,104	0,085
-524,233	-48,000	0,037	0,013
-523,218	-126,933	-0,109	0,012
-522,204	-80,593	0,080	-0,019
-521,189	-47,711	-0,071	-0,025
-520,175	102,045	-0,113	-0,096
-519,160	-95,705	0,140	-0,027
-518,145	-9,364	0,100	0,049
-517,131	-110,495	0,137	0,021
-516,116	505,660	-0,034	0,058
-515,102	-17,859	-0,047	0,022
-514,087	58,447	-0,044	0,032
-513,072	800,000	0,073	-0,205
-512,058	-200,000	0,012	-0,148
-511,043	800,000	-0,043	0,089
-510,029	3,191	-0,044	0,023
-509,014	335,822	0,060	-0,085
-507,999	3,277	0,095	-0,050
-506,985	83,477	0,033	-0,026
-505,970	364,836	-0,049	-0,072
-504,956	557,586	-0,033	-0,058
-503,941	-200,000	-0,004	-0,149
-502,926	800,000	0,038	-0,083
-501,912	-200,000	-0,002	0,053
-500,897	-38,609	0,071	0,027
-499,883	286,522	0,035	-0,046
-498,868	51,524	-0,071	-0,049
-497,853	-69,956	-0,092	0,025
-496,839	-16,263	-0,047	0,022
-495,824	12,128	0,073	0,041
-494,810	239,094	-0,070	-0,085
-493,795	-154,325	0,066	0,003
-492,781	36,527	-0,114	0,073
-491,766	-23,662	0,042	-0,018
-490,751	433,608	-0,012	-0,020
-489,737	800,000	0,020	-0,053
-488,722	-19,331	-0,086	-0,039
-487,708	-35,126	0,074	-0,029
-486,693	-23,071	0,081	0,035
-485,678	-15,404	-0,084	-0,039
-484,664	-19,785	-0,094	-0,042
-483,649	-8,130	-0,085	-0,041
-482,635	99,544	-0,053	-0,044
-481,620	-200,000	0,017	0,060
-480,605	-60,913	0,086	0,026
-479,591	800,000	-0,042	0,106
-478,576	-200,000	0,006	-0,025
-477,562	139,478	0,010	-0,009
-476,547	290,663	-0,059	-0,078
-475,532	1,350	-0,064	-0,033
-474,518	92,554	0,065	0,053
-473,503	-200,000	-0,019	-0,104
-472,489	245,741	0,067	-0,082
-471,474	127,138	0,060	-0,056
-470,459	-200,000	-0,046	0,147
-469,445	-186,362	0,078	0,001
-468,430	-184,045	0,039	0,000
-467,416	-200,000	-0,011	-0,058
-466,401	-200,000	-0,015	0,195
-465,386	260,952	0,152	0,192
-464,372	149,779	0,074	0,073
-463,357	-39,698	-0,122	-0,046
-462,343	-142,459	-0,090	-0,006
-461,328	-136,570	0,148	-0,012
-460,313	10,862	0,122	0,068
-459,299	-200,000	0,023	0,179
-458,284	-30,442	-0,053	0,022
-457,270	-126,307	-0,097	-0,010
-456,255	-200,000	-0,041	-0,211
-455,241	-109,138	0,030	-0,005
-454,226	-186,573	-0,061	-0,001
-453,211	800,000	0,047	0,112
-452,197	-200,000	0,001	0,072
-451,182	720,076	-0,030	-0,058
-450,168	29,310	0,023	-0,014
-449,153	76,982	0,060	0,046
-448,138	800,000	-0,047	-0,121
-447,124	-67,938	0,092	0,026
-446,109	-200,000	0,017	0,061
-445,095	179,794	0,153	0,163
-444,080	137,754	-0,032	-0,031
-443,065	299,031	-0,050	0,066
-442,051	-200,000	-0,023	-0,144
-441,036	4,787	-0,116	-0,062
-440,022	257,764	0,066	-0,082
-439,007	-200,000	0,014	-0,153
-437,992	793,872	0,040	0,081
-436,978	800,000	0,012	0,032
-435,963	680,578	0,018	0,034
-434,949	800,000	-0,019	-0,038
-433,934	129,990	-0,060	-0,056
-432,919	650,957	-0,037	-0,069
-431,905	80,559	0,058	0,045
-430,890	800,000	-0,033	0,067
-429,876	182,230	0,123	0,132
-428,861	-200,000	0,020	0,098
-427,846	-200,000	0,003	-0,010
-426,832	206,517	0,052	-0,059
-425,817	800,000	0,019	-0,047
-424,803	-16,571	-0,025	-0,012
-423,788	29,589	-0,052	0,032
-422,773	-11,083	0,098	-0,047
-421,759	-200,000	-0,026	0,108
-420,744	-200,000	0,019	0,089
-419,730	800,000	0,030	0,083
-418,715	-153,387	0,079	0,004
-417,701	800,000	-0,031	-0,062
-416,686	800,000	0,016	-0,041
-415,671	570,720	0,063	-0,112
-414,657	-127,598	-0,112	-0,012
-413,642	-133,376	-0,081	0,007
-412,628	800,000	0,034	-0,097
-411,613	369,800	0,087	-0,129
-410,598	342,203	0,040	-0,057
-409,584	7,948	-0,011	0,006
-408,569	546,512	-0,065	-0,114
-407,555	-116,667	0,091	-0,012
-406,540	-69,244	-0,094	0,026
-405,525	800,000	-0,045	-0,130
-404,511	293,209	-0,092	0,122
-403,496	-31,388	-0,123	0,050
-402,482	-200,000	0,041	-0,144
-401,467	18,915	-0,067	-0,039
-400,452	800,000	0,025	-0,058
-399,438	536,025	0,029	-0,050
-398,423	135,147	0,089	-0,084
-397,409	101,285	-0,090	0,076
-396,394	72,242	-0,075	-0,056
-395,379	-131,952	0,108	0,010
-394,365	242,121	-0,018	-0,022
-393,350	5,729	0,081	0,043
-392,336	-143,040	-0,040	0,003
-391,321	-146,090	-0,042	-0,003
-390,306	800,000	-0,012	0,028
-389,292	-23,586	0,102	-0,044
-388,277	-44,859	0,009	-0,003
-387,263	-84,863	0,103	-0,023
-386,248	-94,255	0,040	0,008
-385,233	800,000	0,017	-0,037
-384,219	128,545	-0,063	-0,058
-383,204	800,000	-0,023	-0,053
-382,190	742,353	-0,015	-0,030
-381,175	71,528	-0,094	-0,071
-380,160	-137,083	0,088	-0,007
-379,146	159,079	0,061	0,062
-378,131	142,516	-0,072	0,069
-377,117	-200,000	-0,004	-0,023
-376,102	-26,663	-0,175	-0,074
-375,088	194,673	-0,169	-0,186
-374,073	50,058	-0,070	-0,048
-373,058	118,863	-0,044	0,039
-372,044	-116,139	0,145	0,019
-371,029	-111,047	0,141	-0,021
-370,015	-45,950	0,051	0,018
-369,000	249,609	-0,033	-0,040
-367,985	800,000	-0,022	-0,055
-366,971	-33,595	0,078	-0,031
-365,956	109,473	0,051	0,044
-364,942	51,571	-0,043	-0,030
-363,927	-189,283	-0,086	-0,001
-362,912	626,742	0,048	-0,089
-361,898	800,000	-0,027	-0,077
-360,883	-200,000	0,019	0,091
-359,869	-117,522	-0,040	-0,005
-358,854	438,055	0,033	0,052
-357,839	-200,000	0,015	-0,062
-356,825	375,863	0,078	0,115
-355,810	-200,000	0,010	-0,069
-354,796	-200,000	0,002	0,122
-353,781	-200,000	0,003	-0,036
-352,766	170,482	0,028	0,030
-351,752	-5,548	0,035	-0,017
-350,737	-200,000	0,013	0,046
-349,723	-200,000	-0,034	0,147
-348,708	-200,000	0,003	0,086
-347,693	-99,583	-0,117	-0,021
-346,679	-20,325	-0,162	0,072
-345,664	312,093	0,053	0,072
-344,650	-131,398	0,113	-0,011
-343,635	-200,000	0,005	-0,075
-342,620	158,475	0,075	0,076
-341,606	-92,159	-0,105	0,021
-340,591	-200,000	0,019	0,108
-339,577	-200,000	-0,023	0,189
-338,562	234,313	-0,079	0,095
-337,548	326,999	0,007	0,010
-336,533	-60,802	0,068	-0,021
-335,518	-122,769	0,012	0,001
-334,504	-200,000	-0,003	0,090
-333,489	-128,916	-0,067	-0,007
-332,475	-91,497	0,037	-0,008
-331,460	-142,956	-0,084	-0,006
-330,445	583,425	-0,013	0,022
-329,431	-60,145	0,087	0,027
-328,416	-108,747	-0,084	0,013
-327,402	4,404	0,070	0,037
-326,387	800,000	-0,041	0,113
-325,372	-42,546	0,039	0,014
-324,358	106,229	-0,133	0,114
-323,343	-40,730	-0,110	-0,041
-322,329	800,000	-0,017	-0,051
-321,314	-58,026	0,129	0,041
-320,299	-200,000	0,029	-0,139
-319,285	13,320	-0,019	-0,010
-318,270	252,157	0,021	-0,026
-317,256	34,074	0,036	0,023
-316,241	-200,000	0,008	-0,035
-315,226	-200,000	-0,005	0,112
-314,212	66,391	0,131	0,096
-313,197	-200,000	-0,008	0,046
-312,183	-92,530	0,160	-0,032
-311,168	-200,000	0,004	-0,057
-310,153	453,775	-0,057	-0,092
-309,139	800,000	0,089	0,191
-308,124	111,894	0,090	0,079
-307,110	-30,363	0,105	-0,043
-306,095	583,683	0,046	-0,081
-305,080	260,974	0,111	0,140
-304,066	800,000	-0,015	-0,030
-303,051	-68,739	0,099	-0,027
-302,037	139,649	-0,017	0,016
-301,022	-161,629	0,156	-0,006
-300,008	-42,596	-0,070	0,026
-298,993	-93,509	-0,022	-0,004
-297,978	-42,697	-0,096	-0,035
-296,964	-110,838	0,085	-0,013
-295,949	281,489	0,042	-0,055
-294,935	252,540	0,049	0,061
-293,920	-84,961	-0,069	0,016
-292,905	-200,000	-0,073	0,253
-291,891	800,000	-0,011	0,026
-290,876	-200,000	-0,024	-0,167
-289,862	-144,205	-0,090	-0,006
-288,847	800,000	-0,036	-0,108
-287,832	148,336	-0,077	-0,075
-286,818	800,000	-0,066	0,159
-285,803	276,402	-0,041	0,053
-284,789	11,376	0,079	-0,044
-283,774	62,071	0,149	0,107
-282,759	-199,176	-0,098	0,000
-281,745	-72,597	-0,209	-0,055
-280,730	53,611	-0,052	0,036
-279,716	-46,281	0,110	-0,039
-278,701	800,000	0,031	0,069
-277,686	27,295	0,039	0,023
-276,672	76,276	-0,050	0,038
-275,657	800,000	0,027	0,078
-274,643	-7,907	0,030	-0,015
-273,628	171,718	-0,085	-0,088
-272,613	-200,000	0,009	0,053
-271,599	147,118	0,085	0,083
-270,584	-200,000	0,018	0,135
-269,570	-21,004	0,058	0,026
-268,555	363,877	-0,060	0,087
-267,540	99,162	0,041	-0,035
-266,526	66,940	-0,052	-0,038
-265,511	-200,000	0,208	0,000
-264,497	-57,440	-0,122	-0,039
-263,482	-103,774	0,081	-0,014
-262,467	20,427	0,065	0,038
-261,453	-115,215	0,122	0,016
-260,438	421,340	-0,128	-0,199
-259,424	459,894	-0,031	-0,049
-258,409	-200,000	0,004	0,015
-257,395	800,000	0,044	0,131
-256,380	241,288	0,058	-0,070
-255,365	109,570	0,071	0,061
-254,351	-200,000	-0,004	0,097
-253,336	-200,000	0,017	0,106
-252,322	86,823	-0,067	0,053
-251,307	-70,583	0,071	0,019
-250,292	800,000	-0,017	-0,038
-249,278	95,123	0,053	0,044
-248,263	20,959	0,082	0,048
-247,249	-199,955	-0,176	-0,001
-246,234	-72,837	-0,030	0,008
-245,219	36,110	0,112	-0,071
-244,205	-200,000	-0,032	-0,218
-243,190	176,603	-0,039	-0,041
-242,176	84,417	0,161	0,127
-241,161	449,428	0,090	0,143
-240,146	-200,000	0,009	0,135
-239,132	-200,000	-0,008	0,046
-238,117	496,657	0,076	-0,126
-237,103	-24,338	-0,066	-0,028
-236,088	-29,952	-0,104	-0,043
-235,073	800,000	0,024	-0,054
-234,059	800,000	-0,017	0,041
-233,044	-22,271	0,055	-0,024
-232,030	-200,000	-0,006	-0,038
-231,015	228,335	-0,093	0,109
-230,000	17,127	0,062	-0,035
-228,986	207,244	0,051	0,058
-227,971	-200,000	-0,034	0,148
-226,957	24,258	0,100	0,059
-225,942	148,892	-0,076	0,074
-224,927	-58,743	-0,152	0,047
-223,913	-9,023	0,082	-0,039
-222,898	-200,000	-0,031	-0,128
-221,884	-200,000	-0,012	-0,108
-220,869	-200,000	-0,030	0,110
-219,855	-4,281	0,045	0,022
-218,840	-200,000	-0,038	0,147
-217,825	800,000	0,037	0,082
-216,811	-200,000	-0,005	-0,055
-215,796	800,000	0,051	0,138
-214,782	182,936	0,025	0,027
-213,767	800,000	0,036	-0,106
-212,752	48,019	0,047	0,032
-211,738	-200,000	0,002	0,045
-210,723	800,000	-0,019	-0,051
-209,709	-166,704	0,027	0,001
-208,694	661,136	-0,073	-0,136
-207,679	-98,052	-0,054	0,010
-206,665	562,279	0,069	0,120
-205,650	-200,000	-0,059	0,207
-204,636	94,282	-0,100	0,082
-203,621	-168,518	0,082	0,002
-202,606	543,639	-0,092	-0,159
-201,592	800,000	0,077	0,178
-200,577	-39,642	0,064	-0,024
-199,563	-7,516	-0,089	0,043
-198,548	-128,261	0,030	0,003
-197,533	800,000	0,026	0,053
-196,519	-200,000	-0,027	0,114
-195,504	230,774	-0,037	-0,044
-194,490	169,923	-0,103	-0,106
-193,475	800,000	0,040	-0,092
-192,460	-34,639	-0,092	0,036
-191,446	-136,896	-0,141	0,011
-190,431	-200,000	0,041	0,138
-189,417	-19,763	-0,080	0,035
-188,402	-200,000	-0,002	-0,031
-187,387	-180,478	-0,092	0,001
-186,373	-200,000	-0,020	0,082
-185,358	240,605	0,043	0,052
-184,344	226,536	0,052	0,061
-183,329	800,000	0,051	0,121
-182,315	213,952	0,112	0,127
-181,300	37,885	0,043	-0,027
-180,285	239,733	-0,047	-0,056
-179,271	800,000	-0,035	-0,076
-178,256	-200,000	-0,004	-0,024
-177,242	800,000	0,062	0,147
-176,227	-80,628	0,181	0,043
-175,212	-200,000	-0,037	-0,129
-174,198	297,123	-0,060	0,079
-173,183	-200,000	0,019	-0,092
-172,169	-103,466	0,075	-0,012
-171,154	800,000	0,056	-0,169
-170,139	-200,000	0,007	-0,037
-169,125	-58,427	-0,093	0,029
-168,110	-200,000	0,039	0,145
-167,096	139,859	0,025	0,023
-166,081	-132,998	-0,106	0,010
-165,066	-200,000	0,003	-0,142
-164,052	70,159	0,063	-0,046
-163,037	-59,355	-0,076	0,023
-162,023	339,214	0,076	0,106
-161,008	-188,896	-0,094	0,001
-159,993	138,332	-0,095	0,089
-158,979	13,285	0,029	0,016
-157,964	-153,290	-0,102	-0,005
-156,950	800,000	0,050	-0,101
-155,935	-137,123	-0,110	0,009
-154,920	287,731	0,096	0,125
-153,906	357,853	0,020	-0,028
-152,891	765,431	0,032	-0,062
-151,877	-200,000	-0,006	0,177
-150,862	-200,000	-0,007	0,049
-149,847	-200,000	0,024	0,122
-148,833	-200,000	-0,026	-0,140
-147,818	109,476	0,075	0,065
-146,804	320,441	0,027	0,037
-145,789	-95,452	-0,013	0,002
-144,775	-157,351	-0,179	-0,008
-143,760	-200,000	-0,009	-0,187
-142,745	8,435	-0,045	0,024
-141,731	408,920	0,112	-0,170
-140,716	253,253	-0,044	-0,054
-139,702	-200,000	0,011	0,134
-138,687	247,702	-0,101	0,122
-137,672	443,401	-0,007	0,011
-136,658	-153,233	-0,117	-0,006
-135,643	-200,000	-0,004	-0,157
-134,629	710,040	-0,053	-0,101
-133,614	529,611	0,065	-0,111
-132,599	-21,952	-0,181	-0,079
-131,585	437,839	0,071	-0,111
-130,570	-21,104	-0,046	-0,020
-129,556	-200,000	-0,014	-0,049
-128,541	-62,555	0,110	-0,033
-127,526	-25,617	0,035	-0,015
-126,512	-34,736	0,038	0,015
-125,497	-33,966	-0,026	-0,010
-124,483	409,808	-0,072	-0,110
-123,468	-200,000	0,015	0,106
-122,453	800,000	-0,067	0,174
-121,439	15,313	0,125	0,070
-120,424	-102,926	-0,074	-0,012
