DTS Sentinel unit serial number:	SN410029Multiplexer serial number:	ORYXHardware model number:	OX2-SRSoftware version number:	ORYX F/W v4,00 Oryx Data Collector v3.7.2.0data status	okinstallation	B6 Nyhavnadifferential loss correction	single-endedforward channel	channel 2reverse channel	N/Adate	2023/12/11time	08:05:08forward acquisition time	300,00reverse acquisition time	0,00gamma	499,1914k internal	0,3128k external	0,3128temperature offset calibration	1,0000default loss term (dB/km)	0,3820temperature slope calibration	1,0000multiplexer offset coefficient	1,0000multiplexer slope coefficient	1,0000fibre end	0,00T internal ref (°C)	18,31T ext. ref 1 (°C)	0,57T ext. ref 2 (°C)	0,58length (m)	temperature (°C)	Stokes	anti-Stokes-744,400	-55,062	0,043	0,014
-743,385	-58,400	-0,224	0,072
-742,371	77,696	-0,053	-0,042
-741,356	-34,099	-0,208	0,085
-740,342	800,000	-0,033	0,071
-739,327	-26,445	-0,222	0,096
-738,312	571,590	0,045	-0,082
-737,298	-144,311	-0,332	-0,023
-736,283	-72,359	-0,038	-0,010
-735,269	-83,930	-0,263	0,062
-734,254	42,119	0,056	-0,038
-733,239	-3,776	-0,442	-0,227
-732,225	-200,000	-0,039	-0,172
-731,210	-51,216	0,110	0,038
-730,196	-24,783	-0,045	0,020
-729,181	6,033	-0,161	-0,089
-728,167	-200,000	-0,003	0,016
-727,152	222,755	-0,034	0,041
-726,137	-109,993	-0,119	-0,018
-725,123	-88,542	0,108	0,024
-724,108	31,860	0,097	-0,062
-723,094	-200,000	-0,015	-0,085
-722,079	27,083	-0,139	-0,086
-721,064	133,949	0,155	-0,149
-720,050	219,397	-0,065	-0,078
-719,035	-200,000	-0,006	0,079
-718,021	158,276	-0,091	-0,094
-717,006	-119,608	-0,102	-0,013
-715,991	195,617	-0,122	-0,138
-714,977	-200,000	-0,015	-0,207
-713,962	-200,000	-0,015	-0,109
-712,948	194,095	-0,065	0,073
-711,933	507,520	-0,070	-0,120
-710,918	-10,960	-0,045	-0,022
-709,904	166,929	-0,037	-0,039
-708,889	800,000	-0,085	-0,195
-707,875	-200,000	0,036	0,123
-706,860	257,491	0,045	-0,057
-705,845	200,527	-0,045	-0,052
-704,831	520,888	0,114	0,200
-703,816	308,790	0,042	0,059
-702,802	-158,351	-0,084	0,004
-701,787	-200,000	-0,029	0,124
-700,772	800,000	0,041	-0,095
-699,758	-120,441	-0,027	0,003
-698,743	-200,000	-0,023	0,077
-697,729	-200,000	0,030	0,105
-696,714	-200,000	-0,003	0,082
-695,699	124,497	0,053	0,050
-694,685	-92,857	-0,065	0,013
-693,670	20,246	-0,032	-0,019
-692,656	21,364	-0,114	0,069
-691,641	143,677	-0,022	0,022
-690,627	285,643	-0,035	-0,047
-689,612	-27,649	-0,042	0,018
-688,597	-115,060	0,019	-0,003
-687,583	65,329	-0,035	-0,026
-686,568	-20,870	0,088	-0,040
-685,554	800,000	0,021	-0,054
-684,539	165,705	-0,058	-0,061
-683,524	214,932	-0,098	-0,115
-682,510	-51,854	0,099	0,034
-681,495	-44,237	0,089	-0,033
-680,481	415,146	-0,056	-0,088
-679,466	-103,350	0,059	0,010
-678,451	254,320	-0,038	-0,048
-677,437	-200,000	0,039	-0,132
-676,422	-37,118	-0,090	0,036
-675,408	759,903	-0,025	0,051
-674,393	-132,844	0,117	0,011
-673,378	-40,499	-0,091	0,035
-672,364	-5,236	-0,126	-0,064
-671,349	17,940	-0,035	-0,021
-670,335	-200,000	-0,011	0,067
-669,320	231,401	-0,073	-0,089
-668,305	23,641	-0,092	-0,056
-667,291	-200,000	0,038	-0,165
-666,276	63,825	-0,061	-0,046
-665,262	-200,000	0,010	-0,219
-664,247	800,000	-0,066	-0,187
-663,232	-200,000	0,015	-0,057
-662,218	-3,497	0,035	0,018
-661,203	112,578	0,063	-0,057
-660,189	-200,000	-0,019	-0,157
-659,174	103,599	-0,083	-0,073
-658,159	-200,000	-0,004	0,022
-657,145	291,458	-0,043	-0,058
-656,130	490,746	-0,052	-0,088
-655,116	-111,073	-0,108	-0,016
-654,101	-102,491	0,099	-0,017
-653,086	290,077	-0,040	-0,055
-652,072	-200,000	-0,038	-0,191
-651,057	335,340	-0,011	0,016
-650,043	-134,309	0,089	0,008
-649,028	-107,756	-0,037	-0,006
-648,014	800,000	0,016	0,043
-646,999	160,331	-0,019	0,019
-645,984	43,395	0,114	0,077
-644,970	-156,619	-0,033	0,002
-643,955	-200,000	-0,014	-0,104
-642,941	800,000	-0,036	-0,093
-641,926	-70,662	0,096	-0,027
-640,911	-137,375	-0,010	0,001
-639,897	-104,653	-0,110	0,019
-638,882	104,331	-0,072	-0,063
-637,868	-68,024	0,060	0,017
-636,853	301,385	-0,066	-0,091
-635,838	493,120	-0,063	-0,107
-634,824	800,000	-0,054	-0,143
-633,809	-200,000	-0,002	-0,025
-632,795	800,000	0,029	0,082
-631,780	-133,842	-0,147	0,013
-630,765	379,500	0,023	0,035
-629,751	-48,368	-0,096	-0,034
-628,736	-48,694	0,070	-0,025
-627,722	-200,000	-0,013	-0,047
-626,707	800,000	-0,035	-0,078
-625,692	396,072	0,059	0,091
-624,678	-101,925	-0,144	-0,025
-623,663	-121,988	-0,099	0,012
-622,649	433,760	-0,098	-0,159
-621,634	303,113	0,073	-0,101
-620,619	-200,000	0,012	-0,238
-619,605	-200,000	-0,011	-0,067
-618,590	-200,000	-0,007	0,098
-617,576	-200,000	0,014	-0,112
-616,561	-16,162	-0,122	-0,057
-615,546	-200,000	0,013	0,050
-614,532	95,018	0,020	0,017
-613,517	-92,165	-0,069	0,014
-612,503	95,095	0,070	-0,059
-611,488	-94,329	-0,086	-0,017
-610,474	396,744	0,063	0,098
-609,459	52,337	-0,050	0,036
-608,444	-68,523	0,088	-0,025
-607,430	119,307	-0,136	-0,124
-606,415	-200,000	-0,022	-0,155
-605,401	-200,000	-0,016	-0,054
-604,386	-44,296	-0,034	0,013
-603,371	-72,151	0,083	-0,023
-602,357	-200,000	0,003	-0,069
-601,342	-43,806	0,051	-0,019
-600,328	-8,098	0,110	0,055
-599,313	104,124	0,027	-0,024
-598,298	-3,147	0,053	-0,027
-597,284	3,374	-0,091	-0,049
-596,269	260,936	-0,029	0,037
-595,255	800,000	-0,055	-0,140
-594,240	45,858	0,074	-0,051
-593,225	238,870	-0,077	-0,095
-592,211	-76,712	-0,029	0,007
-591,196	-91,255	0,063	0,013
-590,182	-54,774	-0,054	-0,018
-589,167	392,930	0,036	0,055
-588,152	-10,899	-0,110	-0,054
-587,138	-200,000	-0,022	0,178
-586,123	19,833	-0,086	-0,051
-585,109	231,415	-0,054	-0,066
-584,094	437,167	-0,005	-0,008
-583,079	-200,000	0,004	-0,015
-582,065	-33,985	0,076	0,031
-581,050	800,000	-0,026	0,068
-580,036	292,030	-0,059	-0,080
-579,021	-49,624	-0,266	-0,093
-578,006	-138,525	-0,026	-0,002
-576,992	70,567	0,079	0,060
-575,977	175,606	-0,087	-0,093
-574,963	-200,000	0,004	-0,082
-573,948	101,391	-0,060	-0,051
-572,934	655,880	-0,046	0,089
-571,919	250,011	-0,112	-0,140
-570,904	-47,988	-0,156	0,055
-569,890	-4,286	-0,082	0,042
-568,875	-123,889	-0,042	-0,005
-567,861	-7,633	-0,081	0,040
-566,846	800,000	0,073	0,238
-565,831	-53,079	0,056	0,019
-564,817	-200,000	0,006	0,031
-563,802	-200,000	-0,053	-0,198
-562,788	800,000	-0,018	-0,059
-561,773	-200,000	0,011	0,065
-560,758	-71,608	-0,133	-0,037
-559,744	95,425	-0,025	0,021
-558,729	-34,800	0,038	-0,015
-557,715	65,177	-0,072	-0,054
-556,700	46,828	-0,051	-0,035
-555,685	800,000	-0,011	0,031
-554,671	-122,547	0,076	-0,009
-553,656	104,659	-0,017	-0,015
-552,642	-50,683	-0,060	-0,021
-551,627	348,381	0,065	0,095
-550,612	-9,025	0,020	0,010
-549,598	59,905	0,122	-0,089
-548,583	24,546	0,023	-0,014
-547,569	545,692	0,045	-0,080
-546,554	-152,300	-0,070	0,004
-545,539	-200,000	-0,017	0,087
-544,525	-88,626	0,171	-0,037
-543,510	-200,000	-0,036	-0,134
-542,496	778,271	-0,016	0,032
-541,481	1,227	-0,082	-0,043
-540,466	-56,663	-0,050	0,016
-539,452	159,627	0,097	0,100
-538,437	73,756	-0,146	-0,113
-537,423	103,907	0,048	-0,042
-536,408	-121,741	0,120	0,014
-535,393	-134,437	0,059	-0,005
-534,379	78,041	0,064	-0,050
-533,364	262,954	0,012	0,016
-532,350	-85,660	-0,094	0,021
-531,335	31,895	-0,081	-0,052
-530,321	401,852	-0,036	-0,056
-529,306	-200,000	-0,013	0,059
-528,291	-148,533	0,168	-0,010
-527,277	270,578	-0,014	-0,018
-526,262	256,562	-0,103	-0,130
-525,248	-70,197	-0,098	0,027
-524,233	-85,558	0,119	0,027
-523,218	-24,008	-0,120	-0,053
-522,204	-13,953	-0,095	-0,045
-521,189	24,340	-0,084	-0,051
-520,175	800,000	-0,051	-0,152
-519,160	-200,000	0,014	0,103
-518,145	151,991	0,103	-0,104
-517,131	312,933	-0,156	0,216
-516,116	-90,485	0,106	0,022
-515,102	-200,000	-0,025	0,087
-514,087	-101,708	-0,109	-0,019
-513,072	-98,692	-0,090	0,017
-512,058	-95,976	-0,075	0,015
-511,043	520,721	-0,052	-0,091
-510,029	-200,000	-0,016	0,060
-509,014	167,388	0,035	0,037
-507,999	-200,000	0,009	-0,069
-506,985	800,000	-0,065	-0,145
-505,970	-200,000	-0,005	0,026
-504,956	-16,596	-0,080	-0,037
-503,941	112,358	-0,039	-0,035
-502,926	-200,000	-0,029	0,163
-501,912	800,000	-0,034	-0,089
-500,897	-146,152	-0,125	-0,008
-499,883	-200,000	0,004	0,051
-498,868	-163,817	-0,121	-0,004
-497,853	275,787	-0,075	0,099
-496,839	44,781	-0,055	0,038
-495,824	-200,000	0,004	0,044
-494,810	98,256	-0,033	0,028
-493,795	324,524	-0,014	-0,020
-492,781	-200,000	-0,022	0,092
-491,766	107,129	-0,060	-0,053
-490,751	-24,075	0,068	-0,030
-489,737	-200,000	-0,011	0,101
-488,722	465,769	-0,052	0,086
-487,708	-85,215	-0,090	-0,021
-486,693	52,828	-0,046	-0,033
-485,678	-7,395	-0,044	-0,022
-484,664	800,000	0,008	-0,018
-483,649	-49,443	-0,137	-0,048
-482,635	-120,059	0,100	-0,012
-481,620	4,773	0,024	-0,013
-480,605	116,062	0,090	0,082
-479,591	101,373	-0,030	0,026
-478,576	-200,000	-0,004	0,130
-477,562	617,276	-0,041	0,075
-476,547	506,539	-0,083	0,143
-475,532	302,483	0,054	0,074
-474,518	404,716	0,045	0,070
-473,503	-51,831	0,099	-0,034
-472,489	800,000	-0,072	-0,187
-471,474	348,328	0,079	0,115
-470,459	615,554	-0,022	0,041
-469,445	158,011	-0,023	0,023
-468,430	-200,000	0,059	-0,210
-467,416	-32,144	0,188	0,077
-466,401	451,628	0,071	-0,116
-465,386	800,000	0,033	0,069
-464,372	-200,000	0,026	0,121
-463,357	49,511	0,065	0,045
-462,343	-76,632	-0,145	0,037
-461,328	800,000	0,039	-0,102
-460,313	800,000	-0,033	-0,074
-459,299	-74,165	0,128	-0,034
-458,284	800,000	-0,091	0,216
-457,270	192,537	0,065	0,072
-456,255	159,571	-0,039	-0,040
-455,241	-200,000	-0,008	-0,119
-454,226	-200,000	-0,012	0,077
-453,211	-200,000	-0,012	0,066
-452,197	-200,000	0,018	0,082
-451,182	48,425	0,142	-0,098
-450,168	-151,184	-0,036	-0,002
-449,153	-47,164	-0,096	0,034
-448,138	459,673	-0,075	0,124
-447,124	334,774	-0,086	-0,123
-446,109	23,763	0,024	-0,014
-445,095	-46,195	0,084	-0,030
-444,080	-114,763	0,089	-0,012
-443,065	13,440	0,044	0,025
-442,051	-68,997	-0,132	0,037
-441,036	18,923	0,075	0,044
-440,022	-4,300	-0,062	-0,031
-439,007	-67,182	-0,114	0,033
-437,992	-41,977	-0,056	0,021
-436,978	-91,438	0,180	0,037
-435,963	381,276	-0,072	0,110
-434,949	7,792	-0,174	-0,096
-433,934	282,325	-0,138	-0,183
-432,919	659,108	-0,017	0,033
-431,905	800,000	-0,017	-0,044
-430,890	143,092	0,069	0,067
-429,876	800,000	-0,007	0,018
-428,861	-200,000	0,004	0,069
-427,846	-40,306	0,060	-0,023
-426,832	22,169	0,036	0,021
-425,817	-200,000	-0,029	-0,177
-424,803	-182,442	-0,066	-0,001
-423,788	113,268	-0,090	0,080
-422,773	191,204	-0,137	0,152
-421,759	-94,253	0,095	0,019
-420,744	38,130	-0,111	0,073
-419,730	-20,497	0,086	0,039
-418,715	-28,541	-0,110	-0,046
-417,701	-126,141	-0,155	0,017
-416,686	635,072	-0,030	0,057
-415,671	-21,713	0,188	0,084
-414,657	800,000	0,046	0,125
-413,642	800,000	-0,040	-0,104
-412,628	800,000	-0,034	-0,078
-411,613	800,000	0,023	-0,047
-410,598	-200,000	0,005	-0,038
-409,584	-128,302	0,027	0,003
-408,569	282,411	0,049	-0,064
-407,555	-200,000	0,005	0,184
-406,540	578,277	-0,083	0,150
-405,525	637,597	-0,082	0,153
-404,511	4,863	0,082	-0,044
-403,496	205,643	-0,042	-0,048
-402,482	-200,000	-0,005	-0,183
-401,467	-120,541	0,111	-0,014
-400,452	420,746	0,063	0,100
-399,438	800,000	-0,004	0,011
-398,423	93,845	0,151	-0,125
-397,409	205,947	0,040	0,045
-396,394	-200,000	0,013	-0,064
-395,379	-152,000	-0,066	-0,003
-394,365	-200,000	-0,003	0,093
-393,350	-62,068	0,095	0,029
-392,336	518,085	0,095	0,163
-391,321	-74,173	0,106	-0,028
-390,306	-19,739	-0,140	0,063
-389,292	301,645	0,059	0,080
-388,277	84,245	0,048	-0,038
-387,263	800,000	0,025	0,059
-386,248	-200,000	-0,010	0,114
-385,233	-42,328	0,046	-0,017
-384,219	-21,997	0,157	-0,070
-383,204	330,312	-0,098	-0,140
-382,190	800,000	-0,035	-0,076
-381,175	-151,761	0,069	0,004
-380,160	-80,981	-0,036	0,009
-379,146	-200,000	0,010	0,033
-378,131	-114,195	-0,039	0,005
-377,117	111,068	-0,132	0,116
-376,102	-106,430	0,045	0,007
-375,088	5,540	0,063	0,034
-374,073	800,000	-0,047	0,107
-373,058	-45,361	0,103	-0,037
-372,044	-141,634	-0,107	-0,008
-371,029	800,000	0,058	0,124
-370,015	800,000	-0,030	0,072
-369,000	800,000	-0,048	-0,146
-367,985	800,000	0,053	-0,123
-366,971	-82,211	0,081	-0,019
-365,956	800,000	0,035	0,081
-364,942	-155,791	0,084	0,004
-363,927	139,449	0,121	0,117
-362,912	244,186	0,030	0,038
-361,898	33,400	-0,104	-0,066
-360,883	800,000	-0,042	-0,087
-359,869	800,000	0,063	-0,166
-358,854	566,428	0,032	-0,057
-357,839	121,505	0,068	0,063
-356,825	2,946	0,054	0,029
-355,810	39,727	0,063	-0,042
-354,796	111,043	0,098	-0,087
-353,781	-200,000	0,004	-0,096
-352,766	98,701	0,035	0,030
-351,752	363,602	-0,023	0,033
-350,737	474,242	0,106	0,176
-349,723	215,012	-0,084	0,098
-348,708	533,391	0,050	0,086
-347,693	-125,893	0,124	-0,014
-346,679	-200,000	0,011	0,086
-345,664	-200,000	0,022	0,073
-344,650	369,279	0,039	-0,058
-343,635	-13,487	0,132	0,063
-342,620	-139,958	-0,064	-0,005
-341,606	-49,647	-0,066	0,023
-340,591	286,857	-0,056	-0,074
-339,577	-200,000	0,005	0,039
-338,562	800,000	0,034	-0,073
-337,548	299,955	0,070	0,094
-336,533	-200,000	-0,018	0,076
-335,518	83,405	-0,068	0,055
-334,504	-105,124	0,154	-0,026
-333,489	-200,000	0,026	-0,105
-332,475	419,783	0,046	0,073
-331,460	800,000	-0,038	0,091
-330,445	199,593	-0,061	0,069
-329,431	800,000	0,043	-0,095
-328,416	127,665	-0,047	0,043
-327,402	-200,000	0,004	0,100
-326,387	132,627	-0,037	-0,035
-325,372	800,000	0,046	-0,130
-324,358	102,439	0,076	0,065
-323,343	-173,734	-0,188	-0,004
-322,329	-200,000	-0,002	-0,034
-321,314	28,897	0,058	-0,036
-320,299	252,623	0,070	-0,087
-319,285	-29,070	0,096	0,040
-318,270	-91,341	-0,054	0,011
-317,256	-33,662	-0,170	-0,068
-316,241	-21,006	0,066	-0,030
-315,226	-39,037	0,074	0,028
-314,212	800,000	0,029	-0,062
-313,197	-93,508	0,084	-0,017
-312,183	-2,307	-0,015	-0,008
-311,168	304,474	0,029	-0,040
-310,153	-200,000	-0,012	0,057
-309,139	64,368	0,041	0,030
-308,124	249,338	0,037	-0,046
-307,110	-129,083	-0,010	0,001
-306,095	410,301	0,053	0,082
-305,080	20,890	-0,038	-0,022
-304,066	800,000	-0,042	-0,119
-303,051	-127,281	0,072	-0,008
-302,037	-200,000	0,014	-0,084
-301,022	800,000	0,022	0,066
-300,008	16,606	0,083	0,048
-298,993	800,000	0,080	0,169
-297,978	-86,828	0,185	-0,041
-296,964	-65,929	-0,093	0,027
-295,949	284,853	-0,029	0,039
-294,935	-200,000	0,001	-0,023
-293,920	-200,000	0,004	0,015
-292,905	-200,000	-0,008	0,070
-291,891	-9,063	0,127	0,062
-290,876	608,438	-0,026	-0,047
-289,862	319,160	-0,079	-0,110
-288,847	480,701	-0,056	-0,093
-287,832	225,688	0,035	0,042
-286,818	156,865	0,053	-0,054
-285,803	-83,083	-0,067	-0,016
-284,789	-200,000	0,015	0,076
-283,774	-34,229	0,198	-0,079
-282,759	-200,000	-0,000	-0,001
-281,745	800,000	0,029	-0,085
-280,730	-200,000	0,000	-0,006
-279,716	404,461	0,143	0,221
-278,701	-200,000	0,027	0,118
-277,686	4,859	-0,059	0,032
-276,672	-119,890	0,055	0,007
-275,657	-200,000	0,014	0,073
-274,643	685,949	-0,100	-0,192
-273,628	145,856	-0,048	-0,047
-272,613	5,418	-0,100	0,054
-271,599	800,000	0,021	0,067
-270,584	-39,343	0,159	0,061
-269,570	-109,297	-0,008	0,001
-268,555	800,000	0,046	-0,137
-267,540	554,303	0,044	-0,078
-266,526	-128,733	0,174	0,018
-265,511	-14,573	0,084	-0,039
-264,497	50,327	-0,073	0,051
-263,482	800,000	0,030	-0,074
-262,467	-115,923	0,029	-0,004
-261,453	-33,048	0,117	0,047
-260,438	51,795	0,054	-0,038
-259,424	103,697	-0,048	-0,041
-258,409	167,543	-0,077	-0,080
-257,395	-27,913	0,130	-0,055
-256,380	-184,203	0,129	-0,002
-255,365	-154,982	0,140	-0,007
-254,351	44,758	0,056	-0,037
-253,336	-170,347	-0,176	0,004
-252,322	800,000	-0,055	-0,135
-251,307	-200,000	0,003	0,039
-250,292	5,544	-0,152	-0,082
-249,278	800,000	0,022	-0,056
-248,263	-142,908	0,050	-0,003
-247,249	57,799	0,078	0,056
-246,234	-200,000	0,001	0,031
-245,219	800,000	-0,073	0,153
-244,205	253,700	0,035	-0,044
-243,190	575,220	-0,048	-0,086
-242,176	107,904	-0,018	0,015
-241,161	-132,914	-0,047	-0,004
-240,146	304,075	0,051	0,069
-239,132	-104,447	0,088	-0,015
-238,117	-200,000	0,000	-0,025
-237,103	800,000	-0,038	-0,088
-236,088	135,411	0,076	0,072
-235,073	-200,000	-0,014	-0,136
-234,059	86,241	0,081	-0,065
-233,044	800,000	-0,031	0,067
-232,030	139,088	0,066	-0,063
-231,015	-6,403	0,002	0,001
-230,000	228,086	-0,084	-0,100
-228,986	-165,389	0,082	0,003
-227,971	23,843	-0,126	0,075
-226,957	-195,931	0,152	-0,001
-225,942	-54,483	0,043	0,014
-224,927	-200,000	-0,011	0,076
-223,913	203,867	0,012	-0,014
-222,898	-99,734	0,043	-0,008
-221,884	-60,700	-0,086	0,026
-220,869	173,420	-0,047	-0,050
-219,855	-200,000	-0,026	0,175
-218,840	-200,000	-0,007	0,052
-217,825	-84,477	-0,050	-0,011
-216,811	128,674	-0,092	0,085
-215,796	-200,000	-0,018	-0,118
-214,782	-115,852	0,024	-0,003
-213,767	-200,000	-0,000	-0,051
-212,752	-106,010	0,132	0,021
-211,738	800,000	0,041	-0,117
-210,723	24,738	0,055	-0,033
-209,709	-120,379	-0,123	-0,015
-208,694	800,000	0,042	0,132
-207,679	61,061	-0,101	0,073
-206,665	-172,371	0,104	0,002
-205,650	194,036	0,056	0,062
-204,636	49,275	-0,087	-0,060
-203,621	283,708	0,096	0,126
-202,606	-114,971	0,214	0,029
-201,592	64,678	-0,083	-0,061
-200,577	40,502	-0,061	-0,040
-199,563	-200,000	-0,006	-0,180
-198,548	-20,221	0,096	0,043
-197,533	308,762	-0,066	0,090
-196,519	-53,508	0,116	0,038
-195,504	216,198	0,048	0,056
-194,490	-133,921	-0,167	0,015
-193,475	126,067	0,092	-0,085
-192,460	237,827	-0,094	-0,114
-191,446	6,502	-0,082	0,044
-190,431	-1,363	0,099	0,051
-189,417	-200,000	0,016	0,085
-188,402	327,285	0,082	-0,115
-187,387	800,000	0,026	0,079
-186,373	405,812	0,101	0,156
-185,358	577,686	-0,048	-0,085
-184,344	-200,000	-0,003	0,096
-183,329	-79,520	-0,028	-0,007
-182,315	92,057	0,106	0,087
-181,300	800,000	0,056	0,145
-180,285	-200,000	0,016	-0,063
-179,271	-90,903	0,059	0,012
-178,256	800,000	-0,065	0,155
-177,242	-189,349	0,116	0,001
-176,227	48,365	-0,116	-0,079
-175,212	277,840	-0,014	-0,018
-174,198	-148,146	-0,076	0,005
-173,183	-200,000	0,005	0,019
-172,169	-200,000	-0,007	-0,054
-171,154	-136,454	0,064	-0,005
-170,139	-200,000	-0,010	0,043
-169,125	-173,024	-0,040	-0,001
-168,110	779,124	0,030	0,060
-167,096	-200,000	0,013	0,043
-166,081	800,000	-0,052	0,113
-165,066	-200,000	0,016	0,157
-164,052	214,198	-0,048	-0,055
-163,037	43,480	0,066	-0,044
-162,023	-200,000	-0,007	0,064
-161,008	800,000	0,026	0,062
-159,993	800,000	-0,014	-0,034
-158,979	4,847	-0,138	-0,073
-157,964	-116,409	-0,141	-0,019
-156,950	446,274	-0,063	0,101
-155,935	239,206	0,101	-0,122
-154,920	128,677	0,127	-0,118
-153,906	-200,000	-0,015	0,066
-152,891	41,980	0,101	0,067
-151,877	7,739	-0,045	0,025
-150,862	800,000	-0,047	0,135
-149,847	192,911	-0,018	0,020
-148,833	-101,277	-0,043	-0,008
-147,818	715,192	0,050	0,097
-146,804	-25,637	-0,145	0,062
-145,789	-200,000	-0,009	0,054
-144,775	17,519	0,089	0,051
-143,760	-157,728	0,020	0,001
-142,745	583,053	-0,095	-0,170
-141,731	7,047	0,086	-0,046
-140,716	-200,000	-0,004	0,087
-139,702	-133,698	-0,086	-0,008
-138,687	-200,000	-0,002	-0,104
-137,672	-200,000	0,007	-0,102
-136,658	601,343	0,073	-0,132
-135,643	800,000	-0,005	0,016
-134,629	800,000	0,032	-0,068
-133,614	-200,000	-0,012	0,165
-132,599	294,320	-0,031	0,042
-131,585	35,532	0,103	0,065
-130,570	738,068	0,027	0,052
-129,556	-200,000	-0,027	-0,121
-128,541	211,200	0,051	-0,059
-127,526	-109,500	0,092	0,014
-126,512	800,000	-0,047	-0,109
-125,497	-200,000	-0,009	0,041
-124,483	212,329	-0,045	-0,051
-123,468	800,000	0,029	0,071
-122,453	800,000	0,023	0,068
-121,439	-108,127	-0,092	-0,014
-120,424	204,710	-0,041	-0,046
-119,410	278,028	-0,051	0,066
