DTS Sentinel unit serial number:	SN410029Multiplexer serial number:	ORYXHardware model number:	OX2-SRSoftware version number:	ORYX F/W v4,00 Oryx Data Collector v3.7.2.0data status	okinstallation	B6 Nyhavnadifferential loss correction	single-endedforward channel	channel 2reverse channel	N/Adate	2023/12/10time	08:00:08forward acquisition time	300,00reverse acquisition time	0,00gamma	499,1914k internal	0,3123k external	0,3123temperature offset calibration	1,0000default loss term (dB/km)	0,3820temperature slope calibration	1,0000multiplexer offset coefficient	1,0000multiplexer slope coefficient	1,0000fibre end	0,00T internal ref (°C)	22,58T ext. ref 1 (°C)	6,32T ext. ref 2 (°C)	6,33length (m)	temperature (°C)	Stokes	anti-Stokes-744,400	61,910	-0,114	-0,085
-743,385	-37,933	-0,252	0,099
-742,371	218,250	0,029	-0,035
-741,356	23,820	-0,190	0,116
-740,342	-200,000	0,011	0,058
-739,327	3,651	-0,170	0,092
-738,312	-77,550	0,021	0,005
-737,298	69,762	-0,184	0,141
-736,283	48,849	0,159	-0,111
-735,269	57,464	-0,146	0,106
-734,254	-39,736	0,106	-0,041
-733,239	-34,003	-0,428	-0,174
-732,225	179,208	0,134	-0,146
-731,210	-3,965	-0,062	0,032
-730,196	800,000	-0,046	-0,111
-729,181	-63,279	-0,079	0,024
-728,167	126,741	0,016	0,015
-727,152	800,000	-0,037	-0,085
-726,137	-74,054	-0,188	0,050
-725,123	-73,758	-0,065	-0,017
-724,108	-79,558	0,176	-0,044
-723,094	-200,000	0,007	-0,041
-722,079	123,491	-0,056	-0,052
-721,064	-33,202	0,032	-0,013
-720,050	505,041	-0,046	-0,079
-719,035	349,204	0,032	-0,047
-718,021	37,280	-0,098	0,065
-717,006	446,207	0,079	-0,130
-715,991	-58,243	-0,021	0,007
-714,977	28,651	0,036	0,023
-713,962	-89,138	-0,100	0,022
-712,948	-200,000	-0,012	0,118
-711,933	-200,000	-0,020	-0,072
-710,918	4,190	0,043	0,023
-709,904	55,662	-0,035	-0,026
-708,889	-39,758	-0,034	-0,013
-707,875	-73,716	-0,105	0,028
-706,860	-92,850	-0,095	-0,019
-705,845	143,875	0,077	0,076
-704,831	-154,596	-0,152	0,007
-703,816	-125,452	0,053	-0,006
-702,802	800,000	0,042	-0,107
-701,787	-200,000	-0,010	-0,061
-700,772	329,145	-0,027	-0,039
-699,758	-172,005	-0,139	0,003
-698,743	-200,000	0,006	0,056
-697,729	134,507	0,082	0,079
-696,714	354,066	-0,005	-0,007
-695,699	-200,000	0,024	-0,079
-694,685	-0,781	-0,122	-0,064
-693,670	800,000	0,032	-0,088
-692,656	800,000	-0,019	0,062
-691,641	-200,000	0,020	-0,072
-690,627	800,000	0,054	-0,139
-689,612	127,638	-0,067	-0,063
-688,597	591,629	-0,084	0,154
-687,583	-164,666	0,025	-0,001
-686,568	-200,000	0,034	-0,172
-685,554	-40,180	-0,088	0,034
-684,539	-200,000	-0,001	-0,044
-683,524	193,266	-0,129	-0,146
-682,510	-34,197	0,104	0,042
-681,495	77,199	-0,091	0,072
-680,481	800,000	-0,077	-0,223
-679,466	-200,000	-0,046	-0,245
-678,451	32,693	-0,147	-0,094
-677,437	250,857	0,058	0,074
-676,422	25,481	0,040	-0,025
-675,408	-124,706	-0,109	0,012
-674,393	-110,206	-0,065	-0,010
-673,378	-78,303	-0,183	-0,046
-672,364	190,182	-0,079	-0,088
-671,349	448,132	-0,023	-0,037
-670,335	-200,000	0,014	-0,062
-669,320	64,093	-0,135	0,101
-668,305	564,789	0,056	-0,101
-667,291	800,000	0,033	0,108
-666,276	-200,000	-0,010	0,082
-665,262	138,555	-0,103	-0,101
-664,247	-52,325	-0,068	0,023
-663,232	800,000	-0,044	-0,099
-662,218	35,580	0,156	0,102
-661,203	-200,000	-0,044	-0,167
-660,189	462,752	-0,061	-0,102
-659,174	-13,089	-0,121	-0,058
-658,159	-200,000	-0,004	-0,110
-657,145	-200,000	0,024	0,081
-656,130	-200,000	-0,013	-0,092
-655,116	239,627	-0,021	0,026
-654,101	22,440	0,096	-0,058
-653,086	-88,829	-0,077	0,017
-652,072	-200,000	0,004	-0,078
-651,057	754,062	-0,028	-0,057
-650,043	-200,000	0,023	-0,122
-649,028	294,793	0,037	0,051
-648,014	-53,842	-0,023	-0,008
-646,999	544,951	-0,026	0,046
-645,984	-200,000	0,003	0,117
-644,970	13,564	-0,148	0,085
-643,955	10,556	-0,092	0,052
-642,941	99,577	0,073	-0,062
-641,926	62,331	-0,102	-0,075
-640,911	138,878	0,082	0,080
-639,897	-200,000	0,007	-0,036
-638,882	141,931	0,126	-0,124
-637,868	-130,345	-0,041	0,004
-636,853	-140,106	-0,074	-0,006
-635,838	-2,648	-0,054	-0,028
-634,824	-200,000	-0,025	-0,145
-633,809	248,220	0,050	-0,063
-632,795	-112,626	-0,120	-0,018
-631,780	-11,940	0,090	-0,043
-630,765	-200,000	0,000	0,042
-629,751	362,328	-0,051	0,076
-628,736	385,372	-0,092	-0,142
-627,722	558,893	-0,049	0,087
-626,707	-112,202	-0,068	0,010
-625,692	71,100	-0,107	0,082
-624,678	-63,174	0,136	-0,041
-623,663	800,000	-0,026	0,069
-622,649	20,621	0,058	-0,035
-621,634	-60,268	0,089	-0,028
-620,619	800,000	-0,033	-0,097
-619,605	206,769	-0,045	-0,052
-618,590	54,975	0,031	0,022
-617,576	554,080	-0,018	-0,032
-616,561	-49,344	0,080	0,028
-615,546	-191,141	-0,151	0,001
-614,532	84,578	0,070	-0,057
-613,517	-48,562	0,064	0,023
-612,503	-73,554	0,028	-0,008
-611,488	39,538	0,148	-0,098
-610,474	-200,000	0,004	-0,044
-609,459	-111,063	0,140	0,021
-608,444	175,234	0,075	-0,080
-607,430	-20,304	-0,173	-0,079
-606,415	59,901	-0,125	-0,091
-605,401	576,095	0,036	0,065
-604,386	-200,000	0,018	0,078
-603,371	414,923	-0,081	0,128
-602,357	-14,749	-0,084	0,040
-601,342	340,322	0,033	-0,048
-600,328	-24,993	-0,217	-0,095
-599,313	800,000	-0,032	-0,096
-598,298	5,019	0,177	-0,096
-597,284	-200,000	-0,004	-0,060
-596,269	-91,567	0,076	0,016
-595,255	800,000	-0,022	0,053
-594,240	157,940	-0,018	0,019
-593,225	221,739	-0,154	-0,184
-592,211	800,000	-0,031	0,069
-591,196	-200,000	-0,023	0,078
-590,182	800,000	0,057	0,145
-589,167	504,823	0,011	0,019
-588,152	60,452	0,058	-0,043
-587,138	-113,287	-0,108	0,015
-586,123	-114,361	-0,128	-0,018
-585,109	-200,000	0,026	0,131
-584,094	-200,000	0,011	-0,073
-583,079	284,476	-0,018	-0,024
-582,065	81,699	0,070	-0,056
-581,050	798,810	0,022	-0,045
-580,036	-200,000	-0,016	0,068
-579,021	392,498	-0,047	0,073
-578,006	800,000	-0,003	0,007
-576,992	-182,084	0,162	0,002
-575,977	-103,149	0,128	-0,022
-574,963	800,000	0,048	0,105
-573,948	-200,000	-0,002	0,086
-572,934	-83,247	-0,124	-0,029
-571,919	-200,000	0,004	-0,062
-570,904	84,480	0,029	-0,024
-569,890	755,201	-0,014	-0,027
-568,875	-47,598	0,157	-0,056
-567,861	723,701	-0,009	-0,017
-566,846	800,000	-0,022	0,057
-565,831	-115,994	0,115	-0,016
-564,817	106,328	-0,036	-0,032
-563,802	-38,752	-0,084	0,033
-562,788	-200,000	0,009	0,032
-561,773	115,505	-0,049	0,044
-560,758	-200,000	-0,019	0,090
-559,744	-21,688	-0,091	-0,041
-558,729	-200,000	0,009	0,039
-557,715	-169,511	-0,076	-0,002
-556,700	-181,731	0,051	-0,001
-555,685	-19,413	0,094	-0,043
-554,671	37,458	0,068	-0,045
-553,656	-66,750	-0,007	-0,002
-552,642	19,100	-0,042	0,025
-551,627	56,124	0,133	0,095
-550,612	50,230	-0,123	0,086
-549,598	-43,581	-0,111	-0,041
-548,583	-100,329	0,170	0,031
-547,569	320,787	-0,036	0,050
-546,554	-200,000	-0,000	0,015
-545,539	29,071	-0,075	-0,047
-544,525	800,000	-0,007	0,015
-543,510	572,045	-0,050	-0,090
-542,496	57,307	-0,049	-0,035
-541,481	38,433	0,073	0,048
-540,466	-160,103	0,157	0,006
-539,452	626,323	0,018	0,033
-538,437	501,744	-0,024	-0,041
-537,423	700,290	-0,038	0,074
-536,408	-200,000	-0,034	-0,163
-535,393	-140,098	-0,116	-0,009
-534,379	310,294	-0,085	-0,118
-533,364	-153,069	0,151	-0,008
-532,350	800,000	-0,019	-0,052
-531,335	-200,000	-0,003	0,020
-530,321	-134,180	-0,091	-0,008
-529,306	-66,509	-0,124	-0,036
-528,291	465,429	-0,080	-0,133
-527,277	-200,000	0,020	-0,080
-526,262	-27,616	-0,167	-0,072
-525,248	3,690	-0,097	-0,052
-524,233	-180,649	-0,033	-0,000
-523,218	-200,000	0,000	-0,048
-522,204	35,697	-0,112	0,073
-521,189	157,236	-0,097	0,100
-520,175	800,000	0,045	0,111
-519,160	-8,141	-0,012	0,006
-518,145	109,098	-0,166	-0,147
-517,131	800,000	-0,033	-0,084
-516,116	189,023	0,059	0,065
-515,102	46,118	-0,030	0,021
-514,087	-160,305	0,084	-0,003
-513,072	15,235	-0,123	-0,071
-512,058	-200,000	-0,004	0,044
-511,043	182,001	0,025	0,028
-510,029	-200,000	-0,021	0,110
-509,014	679,415	-0,091	0,175
-507,999	-124,764	0,138	-0,016
-506,985	452,985	-0,009	0,015
-505,970	297,823	-0,108	-0,148
-504,956	-200,000	0,023	-0,102
-503,941	-122,924	-0,100	0,012
-502,926	352,246	0,039	0,058
-501,912	-118,652	0,134	-0,017
-500,897	574,525	0,044	0,079
-499,883	-187,752	0,062	0,001
-498,868	-34,012	-0,077	-0,031
-497,853	56,832	-0,113	0,081
-496,839	800,000	-0,015	0,043
-495,824	-55,212	0,050	-0,017
-494,810	-200,000	-0,027	0,093
-493,795	172,634	-0,076	-0,081
-492,781	-200,000	-0,012	-0,068
-491,766	17,435	0,069	-0,040
-490,751	125,275	0,065	-0,061
-489,737	-23,573	-0,118	-0,052
-488,722	800,000	-0,026	0,076
-487,708	111,326	0,135	0,120
-486,693	514,119	0,050	0,086
-485,678	-115,872	-0,136	0,019
-484,664	217,974	-0,058	0,068
-483,649	800,000	0,015	0,041
-482,635	-200,000	-0,139	0,000
-481,620	-200,000	-0,014	0,073
-480,605	28,358	-0,092	-0,057
-479,591	325,041	-0,057	0,081
-478,576	499,214	0,076	0,130
-477,562	58,625	-0,019	-0,014
-476,547	800,000	-0,043	-0,102
-475,532	267,174	-0,045	0,058
-474,518	-200,000	-0,015	0,057
-473,503	524,451	0,032	-0,056
-472,489	-90,233	0,213	0,045
-471,474	112,002	-0,037	0,033
-470,459	7,570	-0,101	0,056
-469,445	31,126	0,033	-0,021
-468,430	-80,829	-0,122	-0,030
-467,416	579,366	0,043	-0,078
-466,401	-200,000	-0,014	-0,131
-465,386	-77,284	0,073	0,019
-464,372	134,463	0,077	-0,073
-463,357	-48,439	0,048	-0,017
-462,343	185,599	-0,081	0,089
-461,328	-124,727	0,026	0,003
-460,313	-200,000	-0,039	0,167
-459,299	256,267	-0,049	-0,062
-458,284	-75,532	-0,065	0,017
-457,270	-200,000	-0,008	0,121
-456,255	-92,406	0,005	0,001
-455,241	-200,000	-0,006	-0,090
-454,226	-200,000	0,010	-0,146
-453,211	-145,286	0,108	0,007
-452,197	-200,000	-0,008	0,089
-451,182	58,399	0,050	0,036
-450,168	-200,000	-0,049	-0,186
-449,153	113,650	-0,106	0,095
-448,138	-155,577	-0,166	-0,008
-447,124	44,687	-0,164	-0,111
-446,109	-11,176	0,064	-0,031
-445,095	-10,702	0,126	0,061
-444,080	525,977	0,045	0,078
-443,065	267,738	0,018	-0,023
-442,051	60,228	0,042	-0,031
-441,036	-200,000	-0,005	-0,050
-440,022	44,956	-0,040	-0,027
-439,007	-200,000	0,012	0,083
-437,992	-200,000	-0,015	0,091
-436,978	-200,000	0,022	0,097
-435,963	-125,814	0,079	-0,009
-434,949	-36,735	0,123	-0,048
-433,934	-200,000	-0,012	-0,090
-432,919	4,971	0,104	0,056
-431,905	634,426	0,043	-0,080
-430,890	-200,000	0,024	0,102
-429,876	800,000	-0,027	-0,066
-428,861	800,000	0,011	0,029
-427,846	90,768	0,075	0,062
-426,832	97,503	-0,121	-0,102
-425,817	262,616	-0,022	-0,028
-424,803	161,881	-0,047	0,049
-423,788	-127,837	-0,091	0,010
-422,773	800,000	-0,023	-0,067
-421,759	-99,507	0,027	-0,005
-420,744	-200,000	0,004	0,030
-419,730	-50,511	-0,101	-0,035
-418,715	800,000	-0,037	-0,076
-417,701	152,099	0,051	-0,052
-416,686	27,533	-0,032	0,020
-415,671	-200,000	0,019	0,116
-414,657	800,000	0,032	0,088
-413,642	800,000	0,035	0,074
-412,628	352,478	0,042	0,061
-411,613	-23,607	-0,106	-0,046
-410,598	181,711	-0,099	-0,107
-409,584	218,364	0,036	-0,043
-408,569	-34,750	0,118	0,047
-407,555	-200,000	0,007	-0,061
-406,540	-50,403	-0,101	-0,035
-405,525	406,454	0,107	-0,166
-404,511	218,725	-0,027	0,031
-403,496	-78,166	-0,079	-0,020
-402,482	800,000	-0,031	-0,093
-401,467	776,746	-0,036	0,072
-400,452	800,000	-0,062	0,171
-399,438	800,000	0,053	0,148
-398,423	-55,840	0,130	-0,043
-397,409	-24,787	-0,112	0,049
-396,394	800,000	-0,019	-0,051
-395,379	-106,372	-0,063	-0,010
-394,365	51,037	0,134	-0,093
-393,350	322,671	0,077	0,109
-392,336	117,485	0,160	0,144
-391,321	451,643	-0,045	-0,073
-390,306	238,003	0,048	-0,059
-389,292	177,256	0,019	0,021
-388,277	-124,554	0,068	-0,008
-387,263	65,733	0,049	0,037
-386,248	-65,518	0,083	0,024
-385,233	-200,000	0,001	0,038
-384,219	122,583	-0,088	-0,081
-383,204	800,000	0,044	-0,102
-382,190	-200,000	0,008	-0,104
-381,175	-121,239	-0,018	0,002
-380,160	-81,633	0,045	0,011
-379,146	177,479	0,113	-0,121
-378,131	-200,000	0,025	-0,137
-377,117	-116,080	0,095	0,013
-376,102	70,264	-0,083	-0,063
-375,088	-200,000	0,002	-0,203
-374,073	800,000	0,020	0,058
-373,058	-184,187	-0,094	0,001
-372,044	220,676	-0,062	0,073
-371,029	-200,000	0,024	0,223
-370,015	221,266	0,106	0,126
-369,000	-200,000	-0,008	0,068
-367,985	-200,000	-0,206	0,000
-366,971	25,758	0,047	-0,029
-365,956	76,030	0,071	-0,055
-364,942	71,536	-0,095	0,073
-363,927	800,000	-0,045	0,112
-362,912	293,683	0,031	0,042
-361,898	109,144	0,094	-0,083
-360,883	9,855	-0,099	0,055
-359,869	-122,146	-0,053	-0,006
-358,854	410,141	0,068	0,106
-357,839	102,111	-0,081	-0,069
-356,825	143,883	0,009	-0,009
-355,810	-200,000	0,008	0,053
-354,796	-200,000	0,015	-0,079
-353,781	4,829	0,033	0,018
-352,766	-127,823	-0,147	0,015
-351,752	-15,614	0,052	-0,024
-350,737	75,021	0,052	0,040
-349,723	-34,737	0,058	0,023
-348,708	560,878	-0,043	0,077
-347,693	122,879	-0,069	-0,064
-346,679	800,000	-0,048	-0,121
-345,664	-65,098	-0,080	0,024
-344,650	-109,881	0,023	-0,004
-343,635	-45,819	-0,008	0,003
-342,620	398,897	0,086	0,133
-341,606	93,700	0,066	0,055
-340,591	207,207	0,059	-0,067
-339,577	-77,109	-0,078	0,020
-338,562	800,000	0,022	0,062
-337,548	229,478	-0,066	0,080
-336,533	-133,963	-0,027	-0,002
-335,518	800,000	0,107	0,260
-334,504	-200,000	0,005	0,107
-333,489	-200,000	-0,009	0,062
-332,475	-200,000	0,005	-0,066
-331,460	206,529	0,059	-0,068
-330,445	-200,000	-0,004	0,027
-329,431	-200,000	0,006	0,036
-328,416	800,000	-0,044	0,131
-327,402	154,899	0,073	0,073
-326,387	-200,000	-0,062	-0,230
-325,372	135,984	-0,022	0,021
-324,358	-58,847	0,051	-0,016
-323,343	-200,000	-0,038	-0,213
-322,329	156,778	0,033	-0,034
-321,314	-200,000	0,038	0,210
-320,299	-56,572	0,148	-0,048
-319,285	-74,078	0,142	0,038
-318,270	800,000	0,040	0,085
-317,256	51,184	-0,141	-0,098
-316,241	141,777	-0,124	0,121
-315,226	800,000	-0,046	-0,135
-314,212	20,485	-0,099	0,058
-313,197	-146,655	0,078	0,005
-312,183	-131,146	-0,034	-0,003
-311,168	51,342	0,014	-0,010
-310,153	-200,000	-0,011	-0,074
-309,139	290,918	0,031	-0,041
-308,124	800,000	0,024	0,067
-307,110	702,712	0,030	0,057
-306,095	-200,000	-0,016	-0,055
-305,080	800,000	0,030	-0,065
-304,066	-200,000	-0,010	-0,046
-303,051	426,110	-0,044	-0,069
-302,037	-103,734	0,047	-0,008
-301,022	469,685	-0,068	0,112
-300,008	-49,703	0,015	0,005
-298,993	264,075	-0,092	-0,117
-297,978	19,277	0,098	-0,057
-296,964	-44,155	-0,083	-0,030
-295,949	146,169	-0,032	-0,032
-294,935	800,000	-0,007	-0,021
-293,920	-200,000	0,037	-0,131
-292,905	88,120	0,034	0,028
-291,891	-200,000	0,014	0,152
-290,876	55,535	0,131	0,092
-289,862	-26,443	0,094	-0,040
-288,847	-200,000	-0,015	-0,187
-287,832	-19,546	0,117	-0,053
-286,818	-29,514	0,103	0,043
-285,803	70,078	0,108	0,081
-284,789	800,000	0,049	0,129
-283,774	800,000	-0,049	0,100
-282,759	258,061	0,044	0,056
-281,745	147,695	-0,033	-0,033
-280,730	-200,000	-0,005	0,077
-279,716	1,177	-0,066	0,034
-278,701	150,831	-0,054	0,054
-277,686	-200,000	0,031	0,127
-276,672	83,225	-0,018	0,014
-275,657	740,741	-0,065	0,127
-274,643	-139,235	-0,102	-0,008
-273,628	114,923	-0,069	0,061
-272,613	800,000	0,011	-0,027
-271,599	-12,635	-0,007	-0,003
-270,584	256,619	0,015	-0,018
-269,570	100,639	0,031	-0,027
-268,555	-165,153	-0,049	0,002
-267,540	-128,873	-0,042	-0,004
-266,526	102,499	0,111	-0,095
-265,511	299,018	0,054	-0,073
-264,497	-200,000	-0,009	0,115
-263,482	273,569	0,052	0,068
-262,467	-200,000	0,017	0,081
-261,453	800,000	0,037	0,086
-260,438	-200,000	-0,028	-0,096
-259,424	-200,000	-0,016	-0,214
-258,409	-15,288	0,062	-0,029
-257,395	724,323	0,091	0,178
-256,380	67,516	0,121	-0,090
-255,365	-200,000	-0,029	-0,096
-254,351	-200,000	-0,018	-0,082
-253,336	-200,000	0,007	-0,061
-252,322	800,000	0,027	-0,068
-251,307	-96,541	0,053	0,010
-250,292	108,320	0,125	0,109
-249,278	-67,440	-0,022	0,006
-248,263	-59,778	0,050	-0,016
-247,249	-45,327	-0,080	0,029
-246,234	-200,000	0,011	0,118
-245,219	-36,846	-0,077	0,030
-244,205	-126,643	-0,073	-0,008
-243,190	16,614	0,031	-0,018
-242,176	-15,871	0,096	-0,044
-241,161	262,848	-0,083	-0,106
-240,146	800,000	0,031	0,092
-239,132	155,429	-0,033	-0,033
-238,117	800,000	0,029	0,082
-237,103	14,961	-0,120	-0,068
-236,088	800,000	-0,035	-0,075
-235,073	44,866	0,091	0,061
-234,059	-30,420	0,031	0,013
-233,044	121,675	-0,111	0,101
-232,030	149,497	0,011	0,011
-231,015	-142,569	0,088	-0,006
-230,000	582,511	0,044	0,079
-228,986	-94,415	0,178	-0,035
-227,971	19,391	0,007	-0,004
-226,957	284,681	-0,074	0,098
-225,942	112,051	0,112	-0,099
-224,927	56,110	-0,056	-0,040
-223,913	800,000	0,028	-0,092
-222,898	-200,000	-0,007	-0,057
-221,884	-79,751	-0,079	-0,019
-220,869	-141,321	0,061	0,004
-219,855	-48,083	0,092	-0,032
-218,840	-47,134	0,029	-0,010
-217,825	-103,999	0,018	-0,003
-216,811	-55,890	-0,091	-0,030
-215,796	154,761	0,026	0,026
-214,782	29,572	-0,009	-0,006
-213,767	73,352	-0,054	-0,041
-212,752	-120,955	0,037	-0,004
-211,738	14,274	0,130	-0,074
-210,723	-111,060	-0,136	-0,020
-209,709	800,000	-0,027	-0,074
-208,694	-18,918	-0,121	0,055
-207,679	243,719	0,093	0,114
-206,665	-63,418	0,061	0,018
-205,650	-55,588	-0,116	0,038
-204,636	-113,267	0,054	0,008
-203,621	185,942	-0,049	-0,053
-202,606	-87,365	-0,061	-0,013
-201,592	240,560	-0,022	-0,026
-200,577	-200,000	0,013	-0,069
-199,563	22,421	-0,134	-0,080
-198,548	800,000	-0,055	0,130
-197,533	-200,000	-0,011	0,156
-196,519	15,917	0,020	-0,011
-195,504	-79,839	0,018	-0,004
-194,490	-200,000	-0,011	-0,072
-193,475	732,744	-0,085	-0,167
-192,460	382,050	0,051	0,077
-191,446	511,423	-0,022	0,038
-190,431	286,927	-0,036	-0,048
-189,417	-30,859	-0,067	0,027
-188,402	-33,719	0,080	-0,032
-187,387	273,553	-0,060	-0,078
-186,373	-87,082	0,040	0,009
-185,358	166,736	0,019	-0,019
-184,344	395,328	0,061	0,093
-183,329	-46,921	0,112	0,040
-182,315	-200,000	-0,006	-0,076
-181,300	-110,098	-0,114	-0,017
-180,285	-200,000	-0,006	-0,107
-179,271	778,855	-0,045	0,090
-178,256	800,000	0,086	0,203
-177,242	68,511	0,069	-0,052
-176,227	800,000	-0,023	0,059
-175,212	-200,000	0,030	0,145
-174,198	-153,551	0,127	0,006
-173,183	800,000	-0,025	-0,050
-172,169	-32,201	0,018	-0,007
-171,154	-200,000	-0,001	-0,047
-170,139	-95,501	0,079	0,015
-169,125	124,973	-0,042	-0,039
-168,110	-172,041	0,106	-0,002
-167,096	348,871	0,032	-0,046
-166,081	-163,393	0,056	-0,002
-165,066	90,094	-0,095	-0,078
-164,052	414,978	0,034	-0,053
-163,037	800,000	-0,029	0,077
-162,023	121,287	0,080	0,072
-161,008	507,179	0,032	0,055
-159,993	-200,000	-0,011	-0,074
-158,979	-200,000	0,004	-0,105
-157,964	-52,370	0,100	-0,034
-156,950	-54,218	0,106	-0,035
-155,935	214,518	0,131	-0,152
-154,920	23,937	0,109	-0,065
-153,906	-59,423	0,049	0,015
-152,891	-84,009	-0,038	0,009
-151,877	101,094	0,013	0,011
-150,862	800,000	-0,011	0,030
-149,847	-38,335	-0,050	-0,019
-148,833	85,238	0,015	-0,012
-147,818	-37,019	-0,031	-0,012
-146,804	79,024	0,007	0,005
-145,789	762,895	-0,053	0,104
-144,775	-200,000	0,003	0,084
-143,760	708,054	0,060	-0,116
-142,745	52,806	-0,134	0,093
-141,731	50,730	-0,068	-0,047
-140,716	-40,065	-0,093	-0,035
-139,702	701,714	0,111	0,213
-138,687	-63,689	-0,054	0,016
-137,672	-27,609	-0,073	0,031
-136,658	715,467	0,031	0,061
-135,643	800,000	-0,019	0,053
-134,629	800,000	0,039	-0,117
-133,614	94,858	0,072	0,059
-132,599	800,000	0,018	-0,056
-131,585	-200,000	-0,017	0,237
-130,570	648,198	0,031	0,058
-129,556	232,795	0,030	0,037
-128,541	-200,000	-0,028	-0,149
-127,526	-16,087	-0,037	0,017
-126,512	449,082	0,093	0,150
-125,497	-77,693	0,013	0,003
-124,483	-200,000	0,044	0,153
-123,468	85,296	-0,062	0,050
-122,453	156,104	0,029	-0,030
-121,439	800,000	0,055	-0,135
-120,424	386,666	0,040	0,061
-119,410	463,127	-0,025	0,040
