DTS Sentinel unit serial number:	SN410029Multiplexer serial number:	ORYXHardware model number:	OX2-SRSoftware version number:	ORYX F/W v4,00 Oryx Data Collector v3.7.2.0data status	okinstallation	B6 Nyhavnadifferential loss correction	single-endedforward channel	channel 2reverse channel	N/Adate	2023/12/09time	18:50:08forward acquisition time	300,00reverse acquisition time	0,00gamma	499,1914k internal	0,3130k external	0,3130temperature offset calibration	1,0000default loss term (dB/km)	0,3820temperature slope calibration	1,0000multiplexer offset coefficient	1,0000multiplexer slope coefficient	1,0000fibre end	0,00T internal ref (°C)	21,06T ext. ref 1 (°C)	4,74T ext. ref 2 (°C)	4,72length (m)	temperature (°C)	Stokes	anti-Stokes-744,400	-200,000	-0,018	-0,079
-743,385	-50,386	-0,339	0,118
-742,371	11,135	0,068	-0,039
-741,356	-114,866	-0,366	0,051
-740,342	-200,000	-0,032	0,107
-739,327	145,039	-0,238	0,237
-738,312	800,000	0,022	-0,064
-737,298	-112,933	-0,195	0,028
-736,283	137,683	0,084	-0,082
-735,269	-139,148	-0,216	0,017
-734,254	-140,382	0,065	-0,005
-733,239	-115,284	-0,421	-0,058
-732,225	-200,000	-0,007	-0,044
-731,210	91,208	0,075	0,063
-730,196	-200,000	-0,010	-0,080
-729,181	-200,000	0,023	0,096
-728,167	-79,620	-0,068	-0,017
-727,152	84,605	-0,106	-0,086
-726,137	-10,936	-0,136	0,067
-725,123	-22,050	0,049	0,022
-724,108	-166,596	-0,217	-0,007
-723,094	-200,000	-0,017	-0,072
-722,079	-60,215	-0,034	0,011
-721,064	228,272	0,071	-0,087
-720,050	-91,876	0,017	0,004
-719,035	-78,534	-0,170	-0,043
-718,021	-172,934	-0,082	0,002
-717,006	-200,000	-0,005	-0,136
-715,991	-200,000	-0,075	-0,258
-714,977	800,000	-0,033	-0,083
-713,962	599,077	0,085	-0,157
-712,948	800,000	-0,026	0,057
-711,933	187,759	-0,093	0,103
-710,918	32,106	0,041	-0,027
-709,904	-200,000	-0,013	0,160
-708,889	729,655	-0,042	-0,085
-707,875	59,529	-0,076	0,056
-706,860	-83,907	0,033	-0,008
-705,845	-200,000	0,011	0,111
-704,831	800,000	0,009	-0,018
-703,816	-37,708	0,113	-0,044
-702,802	800,000	0,012	-0,032
-701,787	-35,873	-0,145	-0,058
-700,772	800,000	0,020	-0,050
-699,758	33,347	-0,124	-0,080
-698,743	430,025	-0,006	-0,010
-697,729	-51,159	-0,024	0,008
-696,714	325,553	-0,062	0,088
-695,699	-200,000	-0,006	-0,115
-694,685	162,282	-0,027	-0,028
-693,670	800,000	0,037	-0,110
-692,656	800,000	-0,009	-0,020
-691,641	-93,811	0,059	0,012
-690,627	6,264	-0,089	0,049
-689,612	-100,170	-0,142	-0,026
-688,597	-155,952	-0,164	0,008
-687,583	139,332	-0,093	0,091
-686,568	425,954	-0,083	-0,133
-685,554	-64,767	-0,153	0,046
-684,539	10,255	-0,027	-0,015
-683,524	424,213	0,095	0,152
-682,510	308,306	-0,089	0,123
-681,495	39,184	-0,075	0,050
-680,481	-21,625	-0,162	0,073
-679,466	800,000	-0,009	0,024
-678,451	-3,314	0,043	0,022
-677,437	38,668	0,082	-0,054
-676,422	2,989	0,036	0,019
-675,408	-77,376	0,052	-0,013
-674,393	-52,612	-0,022	-0,008
-673,378	-200,000	-0,019	-0,146
-672,364	800,000	0,041	-0,101
-671,349	-52,243	-0,141	-0,048
-670,335	-200,000	0,086	-0,000
-669,320	258,395	0,042	-0,054
-668,305	221,074	-0,126	0,150
-667,291	30,822	-0,019	0,012
-666,276	75,166	-0,114	-0,089
-665,262	-77,729	0,055	-0,014
-664,247	406,855	-0,069	-0,108
-663,232	420,735	0,041	0,065
-662,218	-100,347	-0,109	0,020
-661,203	-200,000	-0,005	0,063
-660,189	-34,889	-0,067	0,027
-659,174	-102,416	0,077	0,014
-658,159	-116,118	-0,128	-0,017
-657,145	713,003	0,040	-0,079
-656,130	155,093	-0,083	-0,084
-655,116	-200,000	-0,035	-0,124
-654,101	78,349	-0,068	-0,054
-653,086	367,985	-0,054	0,081
-652,072	-200,000	0,003	-0,109
-651,057	132,593	-0,082	-0,078
-650,043	-123,688	-0,117	-0,014
-649,028	309,707	0,026	-0,036
-648,014	-200,000	-0,025	-0,104
-646,999	66,736	-0,047	0,036
-645,984	800,000	-0,045	-0,123
-644,970	-140,278	-0,037	0,003
-643,955	55,495	-0,074	-0,053
-642,941	-200,000	-0,001	-0,010
-641,926	110,112	-0,057	0,051
-640,911	165,293	-0,052	-0,054
-639,897	-88,183	-0,013	0,003
-638,882	127,976	0,108	0,102
-637,868	-200,000	-0,024	0,101
-636,853	10,666	-0,100	-0,056
-635,838	800,000	-0,040	-0,117
-634,824	4,653	-0,130	-0,070
-633,809	-200,000	0,011	0,085
-632,795	376,421	0,085	0,129
-631,780	132,150	-0,053	0,050
-630,765	52,122	-0,162	-0,114
-629,751	582,026	0,036	0,065
-628,736	12,474	0,056	0,032
-627,722	-200,000	-0,021	-0,071
-626,707	800,000	-0,084	-0,174
-625,692	387,882	-0,006	-0,009
-624,678	204,057	0,061	-0,070
-623,663	616,430	0,014	-0,026
-622,649	252,742	-0,066	-0,083
-621,634	800,000	0,003	-0,011
-620,619	-0,738	0,112	-0,058
-619,605	11,049	-0,029	-0,017
-618,590	-200,000	0,005	-0,025
-617,576	-200,000	0,009	0,111
-616,561	-200,000	-0,033	0,107
-615,546	-200,000	0,038	-0,138
-614,532	42,963	0,054	-0,037
-613,517	-166,802	-0,110	0,003
-612,503	-200,000	0,007	0,092
-611,488	100,568	-0,067	0,058
-610,474	-200,000	0,022	0,146
-609,459	-45,421	0,053	0,019
-608,444	-64,618	-0,181	-0,054
-607,430	382,128	0,104	-0,158
-606,415	-129,894	-0,052	-0,005
-605,401	-6,713	-0,098	-0,049
-604,386	-132,394	-0,055	0,005
-603,371	-200,000	-0,012	-0,053
-602,357	-94,685	0,052	-0,010
-601,342	458,688	-0,054	0,089
-600,328	562,839	0,030	-0,054
-599,313	-104,684	-0,073	0,012
-598,298	51,347	-0,030	-0,021
-597,284	699,854	0,068	0,133
-596,269	-142,374	0,186	-0,013
-595,255	222,905	0,013	-0,015
-594,240	20,998	-0,110	0,066
-593,225	800,000	0,033	-0,088
-592,211	136,286	0,068	-0,065
-591,196	21,917	0,071	-0,043
-590,182	-48,345	-0,009	-0,003
-589,167	331,942	-0,019	-0,027
-588,152	130,538	0,059	0,056
-587,138	-200,000	0,009	-0,048
-586,123	70,335	-0,041	-0,031
-585,109	195,047	0,010	0,011
-584,094	-200,000	-0,001	-0,045
-583,079	-103,403	0,161	0,028
-582,065	292,795	0,018	0,025
-581,050	-102,689	0,107	-0,019
-580,036	-200,000	0,029	0,158
-579,021	60,564	-0,048	0,035
-578,006	-200,000	-0,015	0,106
-576,992	-200,000	-0,013	0,078
-575,977	-200,000	0,009	-0,078
-574,963	104,144	0,056	-0,048
-573,948	-200,000	0,005	0,070
-572,934	153,775	-0,094	-0,095
-571,919	139,417	-0,023	0,023
-570,904	49,817	-0,157	-0,109
-569,890	195,062	-0,053	-0,060
-568,875	304,001	-0,036	-0,050
-567,861	-12,609	-0,039	-0,019
-566,846	800,000	0,029	-0,061
-565,831	150,855	-0,061	-0,061
-564,817	-200,000	-0,002	-0,029
-563,802	800,000	0,049	0,134
-562,788	385,927	-0,074	-0,114
-561,773	336,375	0,036	0,052
-560,758	-200,000	0,009	-0,056
-559,744	-125,956	0,070	-0,008
-558,729	393,534	0,050	0,077
-557,715	800,000	0,033	-0,102
-556,700	197,387	0,054	0,061
-555,685	383,446	0,055	0,084
-554,671	60,917	0,070	0,051
-553,656	-40,062	-0,034	-0,013
-552,642	88,202	0,114	-0,093
-551,627	-99,411	0,137	0,025
-550,612	-94,837	0,097	-0,019
-549,598	800,000	-0,065	-0,175
-548,583	-69,604	-0,073	0,020
-547,569	-122,411	0,097	0,011
-546,554	27,976	-0,057	0,035
-545,539	41,578	-0,114	0,076
-544,525	-200,000	-0,019	0,185
-543,510	-45,903	-0,004	-0,001
-542,496	-92,678	-0,149	-0,030
-541,481	59,540	-0,080	-0,058
-540,466	-153,806	0,047	-0,002
-539,452	392,949	-0,050	0,078
-538,437	-69,420	0,125	-0,035
-537,423	212,152	-0,046	0,054
-536,408	800,000	-0,045	0,108
-535,393	331,341	-0,037	0,052
-534,379	800,000	-0,070	-0,163
-533,364	-200,000	-0,003	-0,011
-532,350	-200,000	0,037	0,220
-531,335	-31,890	-0,044	0,018
-530,321	-7,066	0,048	0,024
-529,306	-47,606	0,064	-0,023
-528,291	-64,793	-0,075	-0,022
-527,277	-200,000	-0,004	-0,099
-526,262	-9,541	0,049	0,024
-525,248	-71,519	0,049	0,013
-524,233	-200,000	0,011	0,089
-523,218	212,952	0,022	-0,026
-522,204	-33,221	-0,068	-0,027
-521,189	800,000	0,022	0,069
-520,175	-74,736	-0,038	0,010
-519,160	-99,916	-0,040	-0,007
-518,145	-55,948	0,082	-0,027
-517,131	421,111	-0,032	0,050
-516,116	-200,000	0,010	0,065
-515,102	-38,900	-0,067	0,026
-514,087	-116,548	0,095	-0,013
-513,072	-48,116	-0,173	0,061
-512,058	-32,027	-0,079	0,032
-511,043	678,277	-0,041	0,078
-510,029	-65,671	-0,145	0,042
-509,014	-84,846	-0,114	-0,026
-507,999	-53,402	0,119	0,040
-506,985	-132,413	0,067	0,006
-505,970	-132,590	-0,135	-0,013
-504,956	19,009	-0,037	0,022
-503,941	-200,000	-0,003	0,062
-502,926	-88,910	0,098	0,021
-501,912	-109,400	-0,089	0,014
-500,897	-2,608	-0,028	0,015
-499,883	-38,088	-0,025	-0,010
-498,868	-200,000	0,016	0,066
-497,853	-200,000	0,013	-0,120
-496,839	800,000	0,011	0,032
-495,824	158,087	-0,076	0,078
-494,810	-13,855	0,039	-0,018
-493,795	-37,325	0,029	0,012
-492,781	645,123	0,038	-0,071
-491,766	322,524	-0,069	-0,098
-490,751	76,113	-0,104	0,081
-489,737	78,418	0,034	-0,026
-488,722	800,000	-0,060	0,130
-487,708	-200,000	-0,019	0,080
-486,693	-112,429	-0,070	0,010
-485,678	668,872	0,075	-0,143
-484,664	-200,000	0,020	-0,169
-483,649	43,040	-0,090	-0,061
-482,635	-38,897	0,032	0,012
-481,620	-200,000	0,002	0,134
-480,605	800,000	0,034	0,101
-479,591	-200,000	0,015	0,139
-478,576	-200,000	0,003	-0,044
-477,562	800,000	-0,036	-0,084
-476,547	76,594	-0,101	0,079
-475,532	143,545	-0,070	0,069
-474,518	53,758	0,048	0,034
-473,503	79,457	0,047	0,037
-472,489	367,235	0,035	-0,052
-471,474	254,537	-0,053	0,067
-470,459	-163,588	-0,020	0,001
-469,445	619,882	-0,081	-0,150
-468,430	-200,000	-0,158	0,000
-467,416	-200,000	0,021	0,185
-466,401	96,286	0,091	0,076
-465,386	179,628	-0,024	0,026
-464,372	148,790	0,038	0,038
-463,357	-74,638	0,029	-0,008
-462,343	-200,000	0,009	0,044
-461,328	-175,872	-0,065	-0,001
-460,313	137,878	0,088	-0,085
-459,299	800,000	0,038	-0,080
-458,284	-200,000	-0,002	0,119
-457,270	-200,000	-0,012	0,075
-456,255	-17,616	0,069	-0,032
-455,241	141,614	-0,070	0,068
-454,226	-200,000	0,033	-0,149
-453,211	-169,054	-0,183	0,005
-452,197	-45,382	-0,098	-0,036
-451,182	-60,293	-0,051	-0,016
-450,168	127,763	0,094	0,088
-449,153	411,602	0,042	0,065
-448,138	-117,151	-0,187	0,025
-447,124	-96,109	0,045	0,009
-446,109	-40,349	-0,055	0,021
-445,095	-151,446	-0,138	0,007
-444,080	56,892	0,092	0,066
-443,065	-55,549	0,093	0,030
-442,051	-66,542	-0,059	-0,017
-441,036	436,607	0,022	0,036
-440,022	-200,000	0,039	-0,151
-439,007	800,000	-0,025	-0,074
-437,992	-188,437	-0,063	0,001
-436,978	117,774	0,064	-0,058
-435,963	117,146	-0,079	0,071
-434,949	-200,000	0,011	-0,050
-433,934	800,000	0,011	-0,033
-432,919	-200,000	0,035	-0,159
-431,905	-200,000	-0,003	-0,090
-430,890	16,194	0,076	0,044
-429,876	-130,621	-0,110	-0,011
-428,861	-21,177	-0,044	0,020
-427,846	26,021	0,043	-0,027
-426,832	111,098	-0,079	0,070
-425,817	-200,000	0,057	-0,208
-424,803	-85,135	-0,098	-0,022
-423,788	-200,000	0,012	-0,080
-422,773	171,043	0,059	0,062
-421,759	-5,724	0,089	0,045
-420,744	-200,000	-0,025	-0,082
-419,730	121,533	-0,053	-0,048
-418,715	348,521	-0,016	0,023
-417,701	-16,256	-0,060	0,028
-416,686	-18,885	-0,033	-0,015
-415,671	97,536	0,102	0,086
-414,657	185,471	0,043	0,047
-413,642	-200,000	0,017	0,067
-412,628	-65,028	0,061	0,018
-411,613	346,175	-0,043	-0,062
-410,598	-200,000	-0,009	0,032
-409,584	-166,024	0,127	0,004
-408,569	271,355	0,059	-0,077
-407,555	262,056	0,067	0,086
-406,540	160,577	-0,049	-0,050
-405,525	800,000	-0,039	-0,088
-404,511	-19,043	-0,082	-0,037
-403,496	-148,305	0,025	-0,001
-402,482	-98,276	0,033	-0,006
-401,467	360,528	0,078	0,114
-400,452	242,877	0,067	0,083
-399,438	-48,037	-0,075	0,026
-398,423	-122,437	0,047	-0,006
-397,409	-44,502	0,031	0,011
-396,394	-45,435	0,082	0,030
-395,379	-200,000	-0,005	0,129
-394,365	-81,124	0,110	0,027
-393,350	358,936	0,026	-0,038
-392,336	60,223	0,045	-0,033
-391,321	32,167	0,084	-0,053
-390,306	280,590	-0,038	-0,050
-389,292	-47,675	-0,046	-0,016
-388,277	244,115	-0,025	-0,031
-387,263	-200,000	-0,004	-0,070
-386,248	800,000	0,024	0,065
-385,233	214,639	-0,036	-0,042
-384,219	-200,000	0,013	-0,046
-383,204	800,000	-0,063	-0,197
-382,190	173,387	-0,040	-0,042
-381,175	498,163	0,063	0,107
-380,160	-200,000	0,007	-0,039
-379,146	1,439	-0,005	0,003
-378,131	-200,000	0,034	0,113
-377,117	165,509	-0,034	-0,035
-376,102	-96,086	0,127	-0,025
-375,088	42,678	-0,096	-0,064
-374,073	83,459	-0,114	-0,091
-373,058	-200,000	-0,027	0,088
-372,044	160,717	-0,025	0,025
-371,029	4,747	-0,049	0,026
-370,015	800,000	0,032	-0,067
-369,000	82,417	-0,108	-0,086
-367,985	-41,551	-0,037	-0,014
-366,971	800,000	-0,042	-0,086
-365,956	360,753	0,039	0,057
-364,942	-34,077	0,067	0,027
-363,927	66,428	0,032	-0,024
-362,912	23,699	0,119	0,071
-361,898	800,000	-0,030	-0,096
-360,883	-65,649	-0,099	-0,029
-359,869	-2,008	-0,106	-0,054
-358,854	70,358	0,046	0,035
-357,839	61,208	0,049	-0,036
-356,825	-1,003	0,102	0,053
-355,810	800,000	-0,031	0,096
-354,796	209,653	-0,021	0,024
-353,781	800,000	-0,058	-0,163
-352,766	-67,658	-0,114	-0,032
-351,752	-200,000	-0,028	-0,109
-350,737	-26,262	0,053	0,023
-349,723	-200,000	-0,011	0,043
-348,708	-30,684	0,072	0,030
-347,693	-200,000	-0,007	-0,126
-346,679	685,363	-0,022	0,042
-345,664	423,674	-0,103	-0,163
-344,650	-200,000	0,001	-0,129
-343,635	329,341	-0,080	0,112
-342,620	-115,842	0,141	0,019
-341,606	42,170	0,044	0,029
-340,591	152,150	0,041	-0,041
-339,577	14,447	-0,118	0,067
-338,562	-32,379	0,056	-0,023
-337,548	12,238	-0,149	-0,084
-336,533	-4,383	0,125	0,063
-335,518	800,000	0,027	0,082
-334,504	-95,844	0,037	-0,007
-333,489	63,034	0,072	0,053
-332,475	108,443	-0,077	-0,067
-331,460	1,187	0,091	-0,047
-330,445	-21,139	-0,139	0,062
-329,431	-23,166	-0,032	0,014
-328,416	580,239	0,048	-0,087
-327,402	-56,595	0,064	-0,021
-326,387	-80,897	-0,173	-0,042
-325,372	-8,462	0,119	0,058
-324,358	550,960	0,044	0,078
-323,343	627,156	-0,031	0,057
-322,329	132,674	-0,041	-0,039
-321,314	320,844	0,085	0,118
-320,299	800,000	0,043	0,098
-319,285	27,872	0,097	0,060
-318,270	250,978	0,076	0,094
-317,256	-74,878	-0,091	0,024
-316,241	-65,985	-0,077	-0,022
-315,226	81,004	0,083	-0,065
-314,212	-200,000	0,003	0,088
-313,197	15,007	0,077	0,044
-312,183	800,000	0,017	-0,045
-311,168	-41,202	-0,096	0,036
-310,153	50,939	-0,094	-0,065
-309,139	250,989	-0,038	-0,047
-308,124	34,327	-0,140	0,089
-307,110	113,042	0,137	0,122
-306,095	-200,000	0,028	0,146
-305,080	-96,992	-0,090	-0,017
-304,066	543,317	0,062	-0,109
-303,051	-165,437	-0,108	-0,003
-302,037	14,559	0,054	-0,031
-301,022	800,000	-0,038	-0,117
-300,008	-200,000	0,026	0,102
-298,993	-200,000	0,015	0,118
-297,978	54,902	0,135	0,095
-296,964	249,318	0,050	-0,062
-295,949	327,019	0,139	-0,195
-294,935	212,367	-0,059	-0,068
-293,920	-6,417	0,103	0,051
-292,905	-77,091	0,045	-0,011
-291,891	-123,779	-0,051	0,006
-290,876	695,672	0,093	0,179
-289,862	-200,000	0,015	-0,099
-288,847	-71,360	0,182	0,049
-287,832	313,500	0,026	-0,035
-286,818	83,208	-0,070	-0,055
-285,803	732,010	-0,047	0,092
-284,789	-89,829	-0,078	0,016
-283,774	-120,799	-0,112	-0,014
-282,759	-80,070	-0,063	-0,015
-281,745	371,022	0,059	-0,087
-280,730	299,438	0,038	-0,052
-279,716	-20,815	0,122	-0,055
-278,701	249,622	-0,012	-0,015
-277,686	306,121	-0,018	0,024
-276,672	-120,893	0,104	0,013
-275,657	189,093	-0,037	-0,041
-274,643	800,000	0,022	-0,061
-273,628	-200,000	-0,011	0,158
-272,613	-200,000	0,004	0,128
-271,599	26,968	0,104	-0,064
-270,584	-35,873	-0,081	0,032
-269,570	-200,000	-0,001	0,066
-268,555	156,548	-0,055	-0,055
-267,540	-174,831	0,055	0,001
-266,526	-200,000	-0,000	-0,045
-265,511	-200,000	-0,015	-0,146
-264,497	-65,354	0,109	-0,032
-263,482	-200,000	-0,004	0,127
-262,467	800,000	0,010	-0,027
-261,453	484,274	0,058	0,097
-260,438	-200,000	-0,006	0,054
-259,424	-22,372	-0,121	-0,053
-258,409	213,460	-0,144	-0,167
-257,395	-182,807	-0,032	-0,000
-256,380	-53,319	0,123	0,041
-255,365	-61,598	-0,064	-0,020
-254,351	-200,000	0,011	-0,078
-253,336	-200,000	-0,003	0,016
-252,322	230,189	-0,014	0,017
-251,307	8,581	-0,054	-0,029
-250,292	580,341	-0,072	0,130
-249,278	-47,434	0,158	-0,056
-248,263	97,759	-0,056	0,047
-247,249	-93,265	0,079	-0,016
-246,234	-200,000	0,063	-0,000
-245,219	-200,000	-0,024	-0,107
-244,205	800,000	-0,017	-0,052
-243,190	135,340	0,105	0,100
-242,176	-200,000	0,013	-0,083
-241,161	-200,000	0,002	-0,095
-240,146	-3,215	0,016	-0,008
-239,132	-168,411	0,052	0,001
-238,117	45,657	-0,104	-0,070
-237,103	800,000	-0,049	-0,139
-236,088	76,273	0,119	-0,092
-235,073	232,017	-0,046	0,056
-234,059	-104,898	0,129	-0,021
-233,044	27,155	0,138	0,084
-232,030	234,858	0,033	0,040
-231,015	-200,000	0,025	-0,092
-230,000	800,000	-0,006	0,013
-228,986	-48,031	0,008	0,003
-227,971	220,464	0,018	0,021
-226,957	128,265	-0,096	-0,089
-225,942	-67,879	0,124	0,035
-224,927	68,844	-0,057	-0,043
-223,913	-57,197	-0,036	-0,012
-222,898	-200,000	0,012	0,049
-221,884	-107,054	-0,083	0,013
-220,869	22,523	0,036	-0,022
-219,855	-200,000	0,017	0,097
-218,840	-106,446	0,068	-0,011
-217,825	-200,000	0,014	0,061
-216,811	-121,881	-0,185	-0,022
-215,796	-32,800	0,057	-0,023
-214,782	293,274	-0,029	0,038
-213,767	-149,627	0,150	0,008
-212,752	278,767	-0,063	0,082
-211,738	-152,037	0,121	-0,006
-210,723	-200,000	0,013	0,071
-209,709	800,000	0,045	-0,101
-208,694	-200,000	-0,019	-0,093
-207,679	-200,000	0,008	0,045
-206,665	-89,683	0,117	0,025
-205,650	-200,000	-0,017	-0,105
-204,636	96,063	0,031	0,026
-203,621	-51,551	-0,020	0,007
-202,606	219,702	0,053	-0,062
-201,592	98,697	-0,109	0,091
-200,577	-54,263	-0,111	0,037
-199,563	127,043	-0,056	0,051
-198,548	410,401	-0,080	0,124
-197,533	104,848	0,122	0,105
-196,519	446,399	-0,036	-0,057
-195,504	-200,000	-0,003	0,064
-194,490	-22,665	0,033	-0,015
-193,475	-200,000	-0,007	-0,031
-192,460	94,129	0,090	0,074
-191,446	314,481	-0,058	0,079
-190,431	-200,000	0,006	0,152
-189,417	-65,185	0,149	-0,043
-188,402	800,000	-0,021	0,059
-187,387	-146,980	-0,055	-0,003
-186,373	-108,635	-0,091	-0,014
-185,358	-136,764	-0,045	-0,004
-184,344	102,855	0,113	-0,096
-183,329	-107,093	0,021	0,003
-182,315	-93,788	0,047	0,009
-181,300	13,215	0,077	0,043
-180,285	800,000	-0,027	-0,062
-179,271	-200,000	-0,012	-0,074
-178,256	-73,348	-0,168	0,044
-177,242	-31,276	-0,056	-0,023
-176,227	169,655	0,040	-0,041
-175,212	-200,000	0,031	0,197
-174,198	-200,000	-0,046	-0,165
-173,183	80,732	0,069	0,054
-172,169	800,000	-0,028	-0,071
-171,154	202,737	0,081	-0,091
-170,139	440,059	0,056	-0,090
-169,125	32,533	0,034	-0,022
-168,110	98,878	0,126	0,106
-167,096	166,015	0,073	-0,075
-166,081	111,156	-0,046	0,040
-165,066	800,000	-0,032	-0,068
-164,052	425,435	0,060	-0,094
-163,037	77,701	-0,066	-0,051
-162,023	-200,000	-0,001	-0,010
-161,008	55,188	0,077	0,054
-159,993	-200,000	0,010	0,066
-158,979	-200,000	-0,006	0,027
-157,964	566,197	0,045	-0,079
-156,950	58,802	0,025	0,018
-155,935	511,692	0,089	0,151
-154,920	-200,000	0,006	0,110
-153,906	800,000	-0,008	-0,023
-152,891	-89,226	-0,059	0,013
-151,877	86,432	0,074	0,059
-150,862	800,000	0,048	-0,125
-149,847	-200,000	-0,003	-0,038
-148,833	800,000	0,033	0,104
-147,818	238,949	0,044	0,054
-146,804	144,487	0,095	0,092
-145,789	-4,883	0,084	0,042
-144,775	-29,779	-0,051	0,021
-143,760	-200,000	0,014	-0,074
-142,745	-93,276	-0,193	0,038
-141,731	21,729	-0,055	0,033
-140,716	-200,000	0,006	-0,070
-139,702	-200,000	-0,010	0,090
-138,687	-180,347	-0,070	0,001
-137,672	62,341	0,095	-0,069
-136,658	-157,192	0,056	-0,002
-135,643	-149,358	0,059	0,003
-134,629	-200,000	0,002	-0,019
-133,614	-71,435	-0,109	0,029
-132,599	-200,000	0,001	0,096
-131,585	-182,028	0,098	0,001
-130,570	23,679	-0,128	-0,076
-129,556	667,140	-0,074	-0,139
-128,541	381,734	0,135	-0,202
-127,526	647,162	0,043	-0,080
-126,512	63,160	-0,144	-0,105
-125,497	-67,472	0,112	-0,032
-124,483	589,183	-0,049	0,087
-123,468	280,538	0,027	0,035
-122,453	246,860	-0,076	-0,094
-121,439	658,537	-0,048	-0,090
-120,424	-19,334	-0,063	0,028
-119,410	-146,046	0,125	0,008
