DTS Sentinel unit serial number:	SN410029Multiplexer serial number:	ORYXHardware model number:	OX2-SRSoftware version number:	ORYX F/W v4,00 Oryx Data Collector v3.7.2.0data status	okinstallation	B6 Nyhavnadifferential loss correction	single-endedforward channel	channel 2reverse channel	N/Adate	2023/12/08time	19:00:08forward acquisition time	300,00reverse acquisition time	0,00gamma	499,1914k internal	0,3157k external	0,3157temperature offset calibration	1,0000default loss term (dB/km)	0,3820temperature slope calibration	1,0000multiplexer offset coefficient	1,0000multiplexer slope coefficient	1,0000fibre end	0,00T internal ref (°C)	15,25T ext. ref 1 (°C)	-1,40T ext. ref 2 (°C)	-1,39length (m)	temperature (°C)	Stokes	anti-Stokes-744,400	-200,000	0,015	0,066
-743,385	-176,533	-0,274	-0,005
-742,371	-18,213	0,095	0,043
-741,356	-77,550	-0,358	0,091
-740,342	238,054	0,079	0,097
-739,327	-152,829	-0,273	0,014
-738,312	46,454	0,104	0,071
-737,298	-137,160	-0,414	0,034
-736,283	-200,000	-0,007	-0,111
-735,269	-163,861	-0,291	0,010
-734,254	-49,809	0,113	0,039
-733,239	-95,512	-0,595	-0,117
-732,225	800,000	0,077	0,196
-731,210	800,000	-0,018	-0,056
-730,196	-86,076	-0,111	0,025
-729,181	26,314	-0,021	0,013
-728,167	40,384	0,031	-0,020
-727,152	-200,000	-0,002	-0,022
-726,137	-96,897	-0,108	0,021
-725,123	477,686	-0,041	0,069
-724,108	-36,107	-0,142	0,056
-723,094	116,562	-0,111	-0,100
-722,079	-200,000	-0,030	-0,128
-721,064	-200,000	-0,010	-0,071
-720,050	264,468	0,109	-0,140
-719,035	-109,496	-0,072	-0,011
-718,021	800,000	-0,014	0,041
-717,006	800,000	-0,059	-0,143
-715,991	-200,000	-0,014	-0,049
-714,977	40,847	-0,110	-0,073
-713,962	-105,597	-0,067	-0,011
-712,948	78,851	-0,092	0,072
-711,933	574,271	0,041	-0,074
-710,918	-200,000	-0,015	-0,087
-709,904	43,177	-0,055	-0,037
-708,889	444,510	-0,038	-0,062
-707,875	-200,000	-0,002	-0,015
-706,860	-172,711	-0,043	0,001
-705,845	-114,739	-0,125	0,017
-704,831	57,117	0,026	0,019
-703,816	-200,000	-0,028	0,122
-702,802	-7,806	0,019	-0,010
-701,787	106,295	0,063	-0,055
-700,772	83,724	-0,056	-0,045
-699,758	37,276	0,114	-0,074
-698,743	478,706	0,040	-0,067
-697,729	17,233	0,069	0,040
-696,714	800,000	-0,044	-0,111
-695,699	-200,000	-0,020	-0,121
-694,685	-21,047	-0,077	-0,034
-693,670	-174,237	0,142	-0,003
-692,656	108,805	-0,052	0,046
-691,641	-130,864	-0,042	0,004
-690,627	580,418	0,028	-0,050
-689,612	-90,607	-0,043	0,009
-688,597	-71,983	-0,046	-0,013
-687,583	101,760	-0,075	0,064
-686,568	-117,837	0,036	-0,005
-685,554	12,624	0,020	0,012
-684,539	149,200	-0,036	0,036
-683,524	388,457	0,056	-0,086
-682,510	299,084	-0,072	-0,098
-681,495	-81,745	0,187	-0,045
-680,481	115,220	-0,120	-0,108
-679,466	-200,000	0,017	-0,203
-678,451	-62,580	-0,105	0,032
-677,437	97,896	0,052	0,044
-676,422	-61,500	-0,122	0,038
-675,408	-142,434	-0,075	-0,005
-674,393	351,308	0,013	0,019
-673,378	-52,398	0,102	-0,034
-672,364	-200,000	-0,006	0,033
-671,349	-136,166	-0,039	0,003
-670,335	79,380	0,033	-0,026
-669,320	701,977	-0,034	0,066
-668,305	184,464	-0,074	0,080
-667,291	334,284	-0,080	0,115
-666,276	-71,638	-0,083	0,023
-665,262	774,174	-0,027	0,055
-664,247	-44,380	-0,038	-0,014
-663,232	48,700	-0,132	-0,091
-662,218	-26,432	0,067	0,029
-661,203	-200,000	-0,009	0,064
-660,189	319,874	0,053	0,075
-659,174	800,000	0,008	-0,019
-658,159	-130,101	-0,137	-0,014
-657,145	-57,305	-0,042	0,014
-656,130	-200,000	-0,028	0,112
-655,116	-200,000	-0,018	-0,102
-654,101	84,463	0,033	-0,027
-653,086	551,088	-0,035	-0,063
-652,072	-118,424	0,112	-0,014
-651,057	-200,000	-0,016	-0,098
-650,043	104,675	-0,047	0,040
-649,028	333,214	0,076	0,109
-648,014	377,553	0,040	0,060
-646,999	-110,984	0,068	0,010
-645,984	-26,202	-0,058	0,025
-644,970	800,000	-0,028	-0,085
-643,955	151,021	-0,050	-0,050
-642,941	-200,000	-0,011	-0,092
-641,926	-200,000	0,016	-0,067
-640,911	-58,273	0,066	-0,021
-639,897	178,421	0,069	0,074
-638,882	-141,134	-0,096	0,007
-637,868	-200,000	-0,003	-0,047
-636,853	120,082	-0,054	-0,049
-635,838	210,044	0,016	-0,018
-634,824	9,165	-0,139	0,077
-633,809	800,000	-0,017	0,050
-632,795	-29,163	-0,155	-0,065
-631,780	-200,000	0,004	0,087
-630,765	256,095	-0,029	0,036
-629,751	800,000	-0,054	-0,131
-628,736	298,806	-0,071	-0,096
-627,722	-26,520	-0,052	-0,022
-626,707	100,958	-0,025	-0,021
-625,692	-17,521	0,050	0,023
-624,678	-169,270	-0,075	-0,002
-623,663	-200,000	0,009	-0,067
-622,649	147,240	-0,105	-0,104
-621,634	800,000	-0,087	-0,191
-620,619	-200,000	-0,020	0,103
-619,605	181,832	0,078	-0,085
-618,590	-8,280	0,104	-0,051
-617,576	292,745	-0,099	0,133
-616,561	-15,347	0,035	-0,016
-615,546	60,538	0,017	-0,012
-614,532	800,000	-0,059	0,124
-613,517	6,036	0,105	-0,057
-612,503	-200,000	-0,009	-0,080
-611,488	108,203	-0,074	-0,065
-610,474	-90,589	0,023	-0,005
-609,459	500,035	-0,030	-0,051
-608,444	345,549	0,015	0,022
-607,430	139,205	-0,016	0,016
-606,415	284,402	-0,013	0,017
-605,401	199,690	-0,108	-0,122
-604,386	-123,105	-0,098	0,011
-603,371	-200,000	-0,005	0,049
-602,357	-200,000	-0,014	0,099
-601,342	374,564	0,089	-0,133
-600,328	-134,089	-0,134	0,012
-599,313	-108,788	0,047	-0,007
-598,298	-98,515	-0,166	0,031
-597,284	800,000	-0,025	-0,058
-596,269	472,373	0,020	-0,033
-595,255	-200,000	0,017	0,103
-594,240	121,520	-0,018	0,016
-593,225	-60,439	-0,183	0,057
-592,211	800,000	-0,040	-0,107
-591,196	251,295	0,028	-0,035
-590,182	-4,998	-0,076	0,038
-589,167	-106,806	0,118	-0,019
-588,152	-200,000	-0,016	0,059
-587,138	-39,024	-0,049	-0,019
-586,123	800,000	-0,046	-0,109
-585,109	-62,337	0,057	-0,017
-584,094	462,423	0,056	0,091
-583,079	25,968	0,094	0,057
-582,065	800,000	0,047	-0,112
-581,050	-20,256	-0,125	0,056
-580,036	800,000	0,047	-0,109
-579,021	-159,720	-0,117	0,005
-578,006	800,000	-0,046	-0,140
-576,992	57,649	0,024	-0,017
-575,977	-128,166	-0,021	-0,002
-574,963	-200,000	-0,010	0,082
-573,948	4,405	-0,157	-0,084
-572,934	489,077	0,048	0,081
-571,919	-200,000	-0,023	0,076
-570,904	-43,479	-0,063	-0,023
-569,890	-93,464	0,056	0,011
-568,875	182,799	-0,033	-0,035
-567,861	-200,000	-0,003	0,079
-566,846	-11,808	0,119	0,057
-565,831	226,804	0,067	0,080
-564,817	-101,778	-0,079	-0,014
-563,802	14,865	-0,155	-0,089
-562,788	192,445	0,092	-0,101
-561,773	-200,000	0,000	0,068
-560,758	48,453	0,043	-0,030
-559,744	128,049	0,045	0,042
-558,729	550,474	-0,038	-0,068
-557,715	-47,346	0,134	-0,048
-556,700	13,444	-0,088	-0,050
-555,685	24,763	0,069	-0,042
-554,671	19,840	-0,097	0,057
-553,656	800,000	0,051	0,107
-552,642	364,501	0,081	0,120
-551,627	-29,414	-0,017	0,007
-550,612	-52,501	0,016	-0,006
-549,598	-90,509	0,040	0,008
-548,583	426,622	0,030	0,048
-547,569	650,371	-0,051	-0,097
-546,554	28,832	0,036	0,023
-545,539	28,376	-0,042	0,026
-544,525	186,224	-0,027	0,030
-543,510	-200,000	0,011	-0,051
-542,496	-200,000	-0,037	-0,128
-541,481	-200,000	0,014	-0,137
-540,466	579,578	0,112	-0,202
-539,452	-200,000	0,022	-0,105
-538,437	800,000	-0,079	0,162
-537,423	62,862	-0,040	-0,029
-536,408	29,414	0,130	0,081
-535,393	800,000	-0,029	0,071
-534,379	67,650	-0,021	0,016
-533,364	281,393	-0,048	0,063
-532,350	-152,548	0,042	-0,002
-531,335	-31,444	0,105	0,043
-530,321	-60,957	-0,128	0,039
-529,306	86,370	-0,084	-0,068
-528,291	197,515	0,074	-0,083
-527,277	800,000	-0,036	-0,100
-526,262	-142,194	0,114	-0,008
-525,248	800,000	-0,021	0,051
-524,233	-200,000	-0,004	0,129
-523,218	-3,301	0,134	-0,068
-522,204	84,946	-0,149	0,119
-521,189	-200,000	-0,013	-0,113
-520,175	91,628	0,070	-0,057
-519,160	175,082	-0,090	0,095
-518,145	277,374	0,055	-0,072
-517,131	-200,000	-0,005	0,083
-516,116	644,795	0,018	0,033
-515,102	-95,447	-0,136	0,027
-514,087	585,659	0,081	-0,147
-513,072	55,002	-0,051	-0,036
-512,058	765,256	-0,051	-0,102
-511,043	124,902	-0,060	0,055
-510,029	-129,197	0,029	0,003
-509,014	203,268	0,054	-0,061
-507,999	-2,707	0,048	-0,025
-506,985	-11,375	-0,098	0,047
-505,970	-57,923	0,033	0,011
-504,956	-58,407	-0,096	-0,030
-503,941	-137,786	0,012	0,001
-502,926	-20,228	-0,116	-0,052
-501,912	10,989	-0,073	-0,041
-500,897	260,939	-0,095	0,120
-499,883	-144,877	0,108	0,007
-498,868	80,210	-0,099	-0,078
-497,853	800,000	-0,008	0,018
-496,839	-143,858	-0,066	-0,004
-495,824	-200,000	-0,027	0,126
-494,810	-49,222	0,030	0,011
-493,795	97,361	0,062	-0,052
-492,781	800,000	-0,029	-0,061
-491,766	800,000	0,034	-0,093
-490,751	-9,067	-0,148	-0,072
-489,737	-104,266	0,110	-0,018
-488,722	-174,050	0,167	-0,004
-487,708	-79,096	0,080	-0,020
-486,693	107,776	-0,057	-0,050
-485,678	119,396	0,088	-0,080
-484,664	-200,000	-0,114	0,000
-483,649	-200,000	0,004	0,090
-482,635	523,670	-0,021	-0,036
-481,620	-200,000	-0,003	-0,053
-480,605	-200,000	0,004	-0,119
-479,591	139,531	0,041	0,040
-478,576	57,239	0,062	-0,044
-477,562	232,388	0,044	-0,053
-476,547	-62,262	-0,100	-0,030
-475,532	-113,377	0,018	-0,002
-474,518	800,000	0,015	0,044
-473,503	-200,000	-0,011	0,070
-472,489	-44,993	0,160	-0,058
-471,474	21,881	-0,073	0,043
-470,459	263,188	0,075	-0,095
-469,445	-200,000	-0,006	0,097
-468,430	64,573	0,067	0,049
-467,416	574,535	0,036	0,065
-466,401	60,318	-0,060	0,044
-465,386	-100,862	0,116	0,021
-464,372	800,000	-0,028	0,082
-463,357	232,165	-0,096	-0,115
-462,343	800,000	0,026	0,080
-461,328	-101,826	0,009	0,002
-460,313	-74,730	-0,082	-0,021
-459,299	660,257	0,075	0,142
-458,284	-200,000	-0,018	0,176
-457,270	800,000	0,046	0,126
-456,255	535,774	0,070	-0,122
-455,241	-59,928	-0,044	-0,014
-454,226	754,161	-0,029	-0,057
-453,211	800,000	0,062	0,155
-452,197	535,312	-0,057	0,099
-451,182	-12,252	0,088	0,042
-450,168	-200,000	-0,001	0,013
-449,153	-95,100	0,041	-0,008
-448,138	-200,000	0,020	0,000
-447,124	-109,211	-0,195	-0,030
-446,109	0,247	0,132	-0,068
-445,095	800,000	-0,077	-0,207
-444,080	19,838	-0,061	0,036
-443,065	-3,660	0,106	-0,054
-442,051	728,867	0,045	-0,088
-441,036	26,865	-0,064	-0,039
-440,022	-61,470	-0,067	0,020
-439,007	-200,000	-0,003	0,029
-437,992	-200,000	0,009	0,050
-436,978	138,447	0,007	-0,006
-435,963	-51,085	-0,031	-0,011
-434,949	800,000	-0,065	-0,132
-433,934	191,408	-0,081	-0,089
-432,919	533,814	-0,037	0,064
-431,905	-200,000	0,004	-0,027
-430,890	404,165	0,142	-0,219
-429,876	800,000	-0,016	0,048
-428,861	81,123	-0,087	0,069
-427,846	-200,000	-0,021	0,117
-426,832	-200,000	0,002	-0,019
-425,817	-118,529	-0,099	0,013
-424,803	-200,000	-0,026	-0,099
-423,788	800,000	-0,049	0,109
-422,773	-200,000	0,023	0,138
-421,759	398,762	-0,089	0,136
-420,744	507,930	-0,049	-0,084
-419,730	64,728	0,069	-0,050
-418,715	-36,540	-0,074	0,029
-417,701	-35,323	0,138	-0,054
-416,686	-29,785	-0,085	0,035
-415,671	111,803	0,075	0,066
-414,657	52,946	-0,052	0,036
-413,642	55,391	0,092	-0,065
-412,628	-180,944	-0,091	-0,001
-411,613	-200,000	-0,007	-0,089
-410,598	87,549	-0,034	-0,028
-409,584	-143,709	-0,047	0,003
-408,569	-105,166	-0,042	-0,007
-407,555	98,454	0,109	0,091
-406,540	800,000	-0,023	-0,056
-405,525	-200,000	-0,024	0,000
-404,511	95,134	-0,108	-0,089
-403,496	-0,955	-0,178	-0,092
-402,482	-200,000	0,017	-0,065
-401,467	800,000	0,015	-0,045
-400,452	800,000	-0,040	0,091
-399,438	800,000	0,026	0,071
-398,423	-17,507	-0,075	0,034
-397,409	456,350	0,029	-0,047
-396,394	-185,261	0,030	-0,000
-395,379	-200,000	-0,007	-0,045
-394,365	-84,349	0,103	0,024
-393,350	-200,000	-0,017	0,131
-392,336	-148,425	0,077	0,005
-391,321	-149,204	-0,133	0,008
-390,306	600,202	0,004	0,008
-389,292	800,000	0,033	0,075
-388,277	-200,000	-0,025	-0,152
-387,263	10,684	0,099	-0,055
-386,248	430,500	0,080	0,126
-385,233	26,538	-0,047	0,029
-384,219	-3,697	0,158	0,079
-383,204	-49,711	0,025	-0,009
-382,190	-40,851	-0,024	-0,009
-381,175	214,849	0,029	-0,033
-380,160	69,959	0,125	0,094
-379,146	-200,000	0,003	0,069
-378,131	-94,106	-0,065	0,013
-377,117	-27,662	-0,054	0,023
-376,102	-84,713	-0,056	-0,013
-375,088	117,498	0,048	-0,043
-374,073	-47,894	0,064	-0,022
-373,058	23,369	0,070	-0,042
-372,044	351,270	0,088	0,127
-371,029	-120,261	-0,052	0,006
-370,015	-200,000	-0,010	-0,058
-369,000	203,183	-0,050	-0,056
-367,985	-200,000	0,005	0,029
-366,971	31,200	-0,104	-0,065
-365,956	-3,378	-0,089	-0,045
-364,942	-50,879	-0,098	0,033
-363,927	-200,000	0,008	0,181
-362,912	800,000	0,038	0,121
-361,898	-109,403	0,050	0,008
-360,883	17,124	-0,049	-0,028
-359,869	334,596	-0,023	0,032
-358,854	216,664	0,074	0,085
-357,839	-14,496	0,064	0,030
-356,825	-200,000	0,017	0,156
-355,810	-47,443	-0,070	0,025
-354,796	116,705	0,128	-0,114
-353,781	-200,000	-0,022	-0,105
-352,766	800,000	0,043	0,132
-351,752	311,997	-0,041	-0,056
-350,737	-49,120	0,162	-0,056
-349,723	711,690	-0,015	-0,028
-348,708	-200,000	0,014	0,051
-347,693	157,428	0,083	-0,083
-346,679	800,000	0,054	-0,114
-345,664	235,645	-0,077	-0,093
-344,650	800,000	0,022	0,052
-343,635	-46,172	0,089	-0,032
-342,620	-200,000	0,016	-0,090
-341,606	142,792	0,089	0,086
-340,591	-171,932	-0,063	0,001
-339,577	-176,799	0,120	0,002
-338,562	-200,000	0,027	-0,257
-337,548	-44,844	0,127	0,046
-336,533	27,882	0,225	0,137
-335,518	579,099	0,056	0,100
-334,504	50,524	-0,092	0,063
-333,489	-173,677	-0,072	-0,002
-332,475	153,987	0,042	-0,042
-331,460	34,897	0,135	-0,085
-330,445	142,137	0,086	0,083
-329,431	76,141	-0,033	0,025
-328,416	-18,547	0,166	-0,075
-327,402	-59,025	0,065	-0,020
-326,387	393,124	0,064	0,096
-325,372	-38,549	-0,094	0,036
-324,358	-88,114	0,054	-0,012
-323,343	-200,000	-0,008	-0,083
-322,329	-6,485	0,045	-0,022
-321,314	96,116	0,089	0,074
-320,299	-116,688	0,081	-0,011
-319,285	-200,000	0,011	0,126
-318,270	87,701	-0,105	-0,085
-317,256	154,941	0,033	-0,033
-316,241	360,860	0,065	-0,094
-315,226	735,829	-0,048	-0,094
-314,212	-120,179	-0,073	0,009
-313,197	-26,693	0,151	-0,064
-312,183	800,000	0,035	-0,073
-311,168	-200,000	0,002	-0,133
-310,153	800,000	0,044	-0,121
-309,139	99,789	-0,055	-0,046
-308,124	-200,000	-0,029	0,110
-307,110	-200,000	-0,013	0,079
-306,095	11,148	0,025	-0,014
-305,080	37,315	0,090	0,057
-304,066	85,573	0,084	-0,067
-303,051	800,000	-0,043	0,088
-302,037	167,422	0,072	-0,074
-301,022	-152,324	0,044	-0,002
-300,008	-200,000	0,002	0,090
-298,993	256,871	0,057	0,071
-297,978	-200,000	-0,044	0,180
-296,964	17,493	-0,057	-0,033
-295,949	-200,000	0,037	-0,123
-294,935	-46,011	-0,084	-0,030
-293,920	197,954	0,103	0,114
-292,905	-200,000	0,003	0,050
-291,891	-42,953	0,062	-0,023
-290,876	-200,000	-0,003	0,023
-289,862	-200,000	-0,021	-0,071
-288,847	-200,000	0,016	0,145
-287,832	-68,628	-0,114	0,032
-286,818	-200,000	0,008	0,103
-285,803	278,246	0,063	-0,082
-284,789	-146,418	-0,059	0,004
-283,774	800,000	0,044	-0,105
-282,759	800,000	-0,030	0,068
-281,745	-200,000	0,011	0,049
-280,730	-200,000	-0,005	-0,042
-279,716	-87,148	0,042	0,009
-278,701	-27,328	0,075	0,032
-277,686	599,096	-0,057	0,103
-276,672	-89,080	-0,052	0,011
-275,657	-200,000	0,003	-0,092
-274,643	800,000	-0,025	-0,073
-273,628	504,808	-0,039	-0,065
-272,613	-200,000	-0,024	-0,080
-271,599	-159,756	0,084	0,003
-270,584	-196,875	-0,140	0,001
-269,570	-200,000	-0,014	-0,053
-268,555	-23,546	-0,163	0,071
-267,540	-200,000	0,008	0,132
-266,526	347,270	-0,052	-0,074
-265,511	127,027	0,060	-0,055
-264,497	-143,211	-0,071	-0,005
-263,482	289,000	0,017	0,023
-262,467	770,179	-0,062	0,123
-261,453	-200,000	-0,014	0,085
-260,438	11,496	-0,105	0,058
-259,424	800,000	-0,057	0,156
-258,409	800,000	-0,047	-0,103
-257,395	-200,000	0,006	0,069
-256,380	-116,361	0,053	0,007
-255,365	66,380	0,075	-0,055
-254,351	-200,000	0,008	0,054
-253,336	174,623	-0,058	0,061
-252,322	800,000	-0,020	0,040
-251,307	350,753	0,101	-0,144
-250,292	37,614	-0,109	0,070
-249,278	-200,000	0,021	0,069
-248,263	-22,042	-0,099	-0,043
-247,249	-129,455	0,039	0,004
-246,234	170,578	-0,014	-0,015
-245,219	-39,459	0,123	-0,046
-244,205	-129,868	0,060	-0,006
-243,190	800,000	-0,002	0,005
-242,176	125,896	0,140	-0,128
-241,161	-15,916	0,146	0,067
-240,146	-200,000	-0,001	0,058
-239,132	-200,000	-0,012	0,089
-238,117	800,000	-0,025	-0,074
-237,103	-200,000	-0,011	-0,059
-236,088	-137,965	-0,034	-0,003
-235,073	-200,000	0,013	0,056
-234,059	-200,000	0,016	0,109
-233,044	-34,272	0,038	-0,015
-232,030	-200,000	-0,009	0,059
-231,015	3,966	-0,113	0,060
-230,000	-144,478	-0,139	-0,009
-228,986	800,000	0,015	-0,043
-227,971	-21,834	0,041	0,018
-226,957	-59,837	0,132	0,041
-225,942	-124,590	0,049	-0,005
-224,927	369,601	-0,031	-0,045
-223,913	255,715	-0,093	-0,115
-222,898	7,871	0,023	0,012
-221,884	-200,000	0,004	-0,061
-220,869	800,000	-0,012	0,033
-219,855	73,377	0,086	-0,065
-218,840	426,823	0,101	0,157
-217,825	256,879	0,094	0,116
-216,811	325,160	-0,074	-0,103
-215,796	352,185	-0,043	-0,062
-214,782	-148,092	-0,204	0,012
-213,767	-0,896	0,067	0,034
-212,752	-199,246	0,045	0,000
-211,738	132,837	0,030	0,028
-210,723	-200,000	-0,029	0,112
-209,709	-200,000	-0,000	-0,095
-208,694	-60,676	-0,023	0,007
-207,679	-78,904	-0,070	0,017
-206,665	32,698	0,121	0,075
-205,650	800,000	-0,059	0,128
-204,636	-200,000	0,031	0,147
-203,621	313,387	-0,036	0,050
-202,606	-200,000	-0,001	-0,050
-201,592	-109,926	0,058	-0,009
-200,577	-200,000	-0,023	0,138
-199,563	-200,000	0,003	-0,017
-198,548	-200,000	0,009	-0,074
-197,533	25,450	0,012	0,007
-196,519	40,431	-0,060	0,039
-195,504	197,485	0,039	0,043
-194,490	-151,586	-0,077	-0,004
-193,475	136,732	0,097	-0,092
-192,460	-93,008	0,132	0,026
-191,446	447,104	0,013	-0,020
-190,431	-52,963	0,120	-0,040
-189,417	-200,000	-0,031	-0,107
-188,402	-200,000	0,004	0,083
-187,387	-200,000	0,015	0,051
-186,373	-200,000	-0,028	-0,176
-185,358	-77,378	-0,075	0,019
-184,344	128,303	0,042	-0,039
-183,329	-200,000	0,003	0,015
-182,315	800,000	-0,018	-0,048
-181,300	152,059	-0,079	0,078
-180,285	-200,000	0,006	0,127
-179,271	-200,000	0,010	0,044
-178,256	485,280	-0,044	-0,073
-177,242	800,000	0,058	0,130
-176,227	-34,714	0,139	0,054
-175,212	59,618	-0,074	-0,052
-174,198	800,000	0,040	-0,080
-173,183	-161,626	-0,122	0,004
-172,169	21,111	0,087	0,051
-171,154	-200,000	0,010	-0,083
-170,139	-39,124	-0,117	0,044
-169,125	800,000	0,033	0,087
-168,110	-200,000	-0,004	-0,069
-167,096	-116,693	-0,105	0,014
-166,081	-54,075	-0,090	0,029
-165,066	-200,000	-0,001	0,103
-164,052	-200,000	-0,011	-0,035
-163,037	187,123	0,042	-0,045
-162,023	800,000	-0,055	0,115
-161,008	7,446	0,076	-0,041
-159,993	-112,155	0,117	-0,017
-158,979	-200,000	-0,022	-0,089
-157,964	84,107	-0,043	-0,034
-156,950	-38,691	-0,042	-0,016
-155,935	34,861	0,085	0,054
-154,920	494,466	0,004	-0,007
-153,906	12,707	0,052	0,029
-152,891	-79,923	-0,058	-0,014
-151,877	260,757	-0,087	-0,108
-150,862	800,000	0,082	-0,167
-149,847	-18,747	-0,186	-0,083
-148,833	-148,060	-0,066	0,004
-147,818	-179,120	0,168	-0,003
-146,804	-200,000	0,006	-0,116
-145,789	-200,000	-0,009	0,102
-144,775	-8,836	0,051	-0,024
-143,760	54,185	-0,023	0,016
-142,745	-131,345	-0,164	-0,015
-141,731	434,811	-0,026	0,041
-140,716	369,093	0,030	0,044
-139,702	476,184	-0,030	-0,049
-138,687	-200,000	0,006	0,086
-137,672	-159,948	-0,091	0,004
-136,658	-78,127	0,056	-0,014
-135,643	18,983	-0,075	-0,043
-134,629	219,649	0,056	-0,065
-133,614	800,000	0,049	0,111
-132,599	-98,735	-0,052	-0,009
-131,585	10,773	0,110	0,061
-130,570	285,714	0,054	-0,070
-129,556	178,021	0,045	-0,047
-128,541	0,463	0,120	0,061
-127,526	-200,000	-0,013	0,074
-126,512	-157,923	0,096	0,004
-125,497	-200,000	-0,005	0,104
-124,483	-60,120	0,057	0,017
-123,468	11,077	-0,087	0,048
-122,453	800,000	0,015	-0,039
-121,439	151,415	-0,107	0,105
-120,424	-169,357	0,175	-0,005
-119,410	197,832	0,075	-0,083
