DTS Sentinel unit serial number:	SN410029Multiplexer serial number:	ORYXHardware model number:	OX2-SRSoftware version number:	ORYX F/W v4,00 Oryx Data Collector v3.7.2.0data status	okinstallation	B6 Nyhavnadifferential loss correction	single-endedforward channel	channel 2reverse channel	N/Adate	2023/12/11time	02:50:08forward acquisition time	300,00reverse acquisition time	0,00gamma	499,1914k internal	0,3123k external	0,3123temperature offset calibration	1,0000default loss term (dB/km)	0,3820temperature slope calibration	1,0000multiplexer offset coefficient	1,0000multiplexer slope coefficient	1,0000fibre end	0,00T internal ref (°C)	21,54T ext. ref 1 (°C)	4,36T ext. ref 2 (°C)	4,39length (m)	temperature (°C)	Stokes	anti-Stokes-744,400	159,856	0,034	-0,036
-743,385	165,650	-0,209	0,221
-742,371	-186,847	0,157	0,002
-741,356	-93,178	-0,351	0,072
-740,342	36,355	0,055	0,036
-739,327	-180,857	-0,211	-0,003
-738,312	-200,000	-0,014	-0,179
-737,298	-30,885	-0,292	0,122
-736,283	20,731	0,193	-0,116
-735,269	-116,445	-0,427	0,058
-734,254	-200,000	0,004	-0,186
-733,239	-41,657	-0,422	-0,161
-732,225	-79,163	0,144	0,036
-731,210	5,504	0,045	0,025
-730,196	42,300	-0,092	0,062
-729,181	-200,000	-0,046	-0,156
-728,167	385,237	0,007	0,010
-727,152	397,690	0,013	-0,020
-726,137	-200,000	-0,008	-0,115
-725,123	109,353	-0,033	0,029
-724,108	250,363	-0,147	-0,187
-723,094	-146,758	-0,132	0,008
-722,079	105,767	-0,036	0,031
-721,064	96,742	-0,078	-0,067
-720,050	-200,000	0,027	-0,106
-719,035	-31,003	0,094	0,039
-718,021	-159,884	-0,094	0,004
-717,006	-125,698	-0,101	0,011
-715,991	800,000	-0,051	-0,154
-714,977	128,835	-0,109	-0,103
-713,962	129,437	-0,078	-0,074
-712,948	800,000	-0,023	0,052
-711,933	47,460	-0,120	0,083
-710,918	-70,203	0,121	-0,034
-709,904	800,000	-0,060	0,138
-708,889	-63,081	-0,070	0,021
-707,875	-96,407	-0,085	0,017
-706,860	-164,652	0,058	-0,002
-705,845	-200,000	0,009	0,048
-704,831	-200,000	0,002	0,025
-703,816	-144,946	0,016	0,001
-702,802	132,396	-0,111	-0,107
-701,787	-200,000	0,004	-0,102
-700,772	-200,000	0,010	-0,225
-699,758	48,241	-0,172	-0,119
-698,743	106,124	0,045	-0,040
-697,729	17,768	-0,060	-0,035
-696,714	-200,000	-0,026	0,140
-695,699	-128,591	-0,074	-0,008
-694,685	-200,000	0,020	-0,101
-693,670	-10,060	0,083	-0,041
-692,656	-200,000	-0,022	0,085
-691,641	70,651	0,117	-0,090
-690,627	-121,653	-0,014	0,002
-689,612	194,769	0,051	0,058
-688,597	12,625	-0,030	-0,017
-687,583	800,000	-0,040	0,097
-686,568	-106,562	-0,089	-0,015
-685,554	33,182	-0,081	-0,052
-684,539	-36,112	0,165	-0,066
-683,524	495,058	-0,039	-0,066
-682,510	162,096	-0,034	-0,035
-681,495	-106,150	0,067	0,011
-680,481	-200,000	0,019	0,065
-679,466	80,905	-0,068	-0,055
-678,451	-200,000	-0,007	0,069
-677,437	80,494	0,047	0,037
-676,422	637,262	-0,037	0,070
-675,408	33,262	-0,107	0,069
-674,393	83,849	0,076	0,061
-673,378	800,000	-0,043	-0,090
-672,364	800,000	0,077	0,178
-671,349	72,134	-0,153	0,118
-670,335	-55,296	0,038	-0,013
-669,320	-200,000	-0,004	-0,057
-668,305	63,458	0,075	0,056
-667,291	-67,883	-0,042	-0,012
-666,276	-200,000	-0,018	-0,106
-665,262	392,844	-0,071	-0,110
-664,247	-200,000	-0,009	0,062
-663,232	761,779	-0,010	0,020
-662,218	-200,000	0,003	0,077
-661,203	0,615	-0,015	0,008
-660,189	113,369	-0,074	-0,067
-659,174	56,594	0,066	-0,048
-658,159	62,338	-0,076	0,056
-657,145	-28,234	-0,116	0,050
-656,130	35,285	-0,110	-0,071
-655,116	-12,945	0,030	-0,015
-654,101	800,000	0,021	0,065
-653,086	164,370	0,074	0,078
-652,072	16,679	-0,081	0,047
-651,057	-10,901	-0,100	-0,049
-650,043	-32,850	-0,132	-0,054
-649,028	-200,000	0,005	0,030
-648,014	334,571	0,009	0,013
-646,999	144,750	-0,047	-0,046
-645,984	-97,611	0,076	-0,014
-644,970	13,409	0,032	0,019
-643,955	194,278	-0,080	-0,091
-642,941	515,146	-0,065	-0,112
-641,926	-200,000	0,028	-0,178
-640,911	-19,001	0,108	-0,050
-639,897	-200,000	0,015	0,156
-638,882	733,526	-0,053	0,105
-637,868	800,000	0,017	0,040
-636,853	800,000	-0,043	0,100
-635,838	-200,000	0,002	-0,074
-634,824	-32,989	0,088	0,036
-633,809	463,966	-0,045	-0,074
-632,795	-200,000	-0,011	0,112
-631,780	-65,204	-0,016	-0,005
-630,765	-92,230	-0,241	0,050
-629,751	-200,000	0,033	-0,110
-628,736	91,718	-0,106	-0,089
-627,722	14,439	-0,120	0,069
-626,707	-200,000	-0,017	-0,077
-625,692	800,000	0,021	-0,046
-624,678	-69,914	0,059	0,017
-623,663	52,007	-0,069	0,049
-622,649	-49,769	-0,144	0,050
-621,634	-200,000	0,012	0,119
-620,619	614,576	-0,016	-0,029
-619,605	178,012	0,023	-0,025
-618,590	104,393	0,038	0,033
-617,576	-138,500	0,125	-0,010
-616,561	247,510	-0,038	0,047
-615,546	-200,000	0,009	-0,087
-614,532	165,861	0,101	-0,107
-613,517	800,000	0,068	0,151
-612,503	-128,025	0,074	-0,008
-611,488	-33,791	0,124	-0,050
-610,474	-71,567	0,048	-0,013
-609,459	-200,000	0,007	-0,035
-608,444	120,867	-0,122	-0,113
-607,430	279,205	-0,135	-0,179
-606,415	-109,432	-0,146	-0,023
-605,401	43,469	-0,102	0,069
-604,386	800,000	0,030	0,083
-603,371	408,673	-0,121	0,191
-602,357	157,857	0,040	-0,041
-601,342	375,993	-0,075	-0,114
-600,328	-200,000	0,010	-0,064
-599,313	31,229	-0,043	-0,028
-598,298	-57,110	0,154	-0,050
-597,284	-54,876	0,120	0,040
-596,269	303,184	0,070	-0,096
-595,255	-15,078	-0,019	0,009
-594,240	643,911	0,048	-0,092
-593,225	127,041	-0,031	0,029
-592,211	256,308	-0,060	-0,077
-591,196	-145,383	0,052	-0,003
-590,182	-69,771	0,181	0,051
-589,167	283,134	0,062	0,083
-588,152	6,918	0,098	0,054
-587,138	-58,256	-0,192	-0,061
-586,123	12,264	-0,075	0,043
-585,109	-90,288	0,066	-0,014
-584,094	-132,415	-0,189	0,018
-583,079	-145,493	-0,082	-0,005
-582,065	138,630	-0,106	0,104
-581,050	395,708	0,027	-0,042
-580,036	249,049	-0,076	-0,095
-579,021	-49,427	0,060	0,021
-578,006	-91,083	-0,139	0,029
-576,992	-29,086	-0,084	-0,035
-575,977	-200,000	-0,001	0,028
-574,963	-162,433	0,055	0,002
-573,948	301,038	-0,033	0,045
-572,934	-87,787	-0,136	-0,030
-571,919	800,000	0,033	-0,108
-570,904	-200,000	0,031	-0,121
-569,890	160,312	-0,106	-0,110
-568,875	-200,000	-0,014	0,102
-567,861	131,674	-0,040	0,038
-566,846	19,161	-0,103	0,061
-565,831	778,996	0,015	-0,030
-564,817	710,062	-0,049	-0,096
-563,802	-200,000	-0,021	-0,149
-562,788	-200,000	0,051	-0,206
-561,773	800,000	-0,032	0,085
-560,758	-59,655	0,061	-0,019
-559,744	800,000	-0,018	0,054
-558,729	-200,000	-0,026	-0,100
-557,715	-200,000	0,015	-0,086
-556,700	800,000	-0,035	-0,089
-555,685	800,000	-0,029	-0,093
-554,671	312,767	0,089	-0,124
-553,656	296,549	-0,058	-0,079
-552,642	-200,000	0,014	0,150
-551,627	565,837	-0,095	0,172
-550,612	35,733	-0,102	0,066
-549,598	214,494	0,067	0,079
-548,583	208,201	0,050	0,057
-547,569	-200,000	-0,030	0,100
-546,554	6,158	0,099	0,054
-545,539	800,000	-0,030	0,094
-544,525	-200,000	-0,004	0,044
-543,510	616,260	-0,052	0,097
-542,496	286,141	0,059	-0,079
-541,481	800,000	-0,010	0,034
-540,466	-53,330	-0,058	-0,020
-539,452	41,002	0,114	0,076
-538,437	-200,000	-0,003	-0,019
-537,423	-99,551	0,076	0,014
-536,408	163,502	-0,017	-0,018
-535,393	77,774	0,021	0,016
-534,379	360,832	-0,151	-0,224
-533,364	-2,848	-0,095	-0,049
-532,350	-200,000	0,001	0,068
-531,335	-200,000	0,001	-0,025
-530,321	-78,697	0,061	-0,015
-529,306	-68,556	0,042	0,012
-528,291	-200,000	0,024	-0,116
-527,277	-200,000	0,003	-0,089
-526,262	-200,000	-0,010	-0,154
-525,248	-200,000	0,028	-0,149
-524,233	800,000	-0,022	0,057
-523,218	-200,000	-0,028	-0,115
-522,204	800,000	-0,026	0,083
-521,189	-200,000	-0,021	-0,144
-520,175	53,666	0,119	-0,084
-519,160	-50,408	-0,145	0,050
-518,145	-68,195	0,051	-0,015
-517,131	-200,000	-0,001	0,106
-516,116	-138,141	0,101	-0,008
-515,102	556,227	-0,108	-0,193
-514,087	46,562	0,038	-0,026
-513,072	127,409	-0,122	-0,115
-512,058	-200,000	0,024	-0,136
-511,043	158,947	0,012	0,012
-510,029	-160,587	-0,064	-0,002
-509,014	-106,372	0,092	0,015
-507,999	800,000	0,062	0,183
-506,985	799,672	0,039	0,079
-505,970	-200,000	-0,012	-0,099
-504,956	800,000	-0,064	-0,137
-503,941	-113,766	-0,093	0,013
-502,926	-74,660	0,048	0,013
-501,912	-200,000	-0,013	0,051
-500,897	-200,000	-0,009	-0,049
-499,883	-76,781	0,120	0,031
-498,868	-95,815	0,090	-0,018
-497,853	-146,067	0,058	0,004
-496,839	8,839	0,122	0,068
-495,824	800,000	0,060	0,133
-494,810	195,718	0,105	0,118
-493,795	-200,000	0,004	-0,089
-492,781	-190,506	-0,066	0,001
-491,766	-54,887	-0,117	0,039
-490,751	210,417	-0,012	0,014
-489,737	-107,885	0,103	0,016
-488,722	-35,625	0,121	0,048
-487,708	-58,030	0,052	0,017
-486,693	-200,000	-0,024	0,103
-485,678	-146,167	-0,098	-0,006
-484,664	320,964	0,005	0,006
-483,649	293,030	-0,054	0,073
-482,635	293,400	0,038	-0,051
-481,620	-144,970	0,062	0,004
-480,605	244,281	-0,112	-0,139
-479,591	264,409	0,005	-0,006
-478,576	167,814	-0,058	-0,061
-477,562	-68,839	-0,050	0,014
-476,547	-43,980	-0,087	0,032
-475,532	-200,000	-0,019	0,095
-474,518	-167,395	0,105	-0,003
-473,503	45,444	0,064	0,043
-472,489	7,024	-0,053	-0,029
-471,474	47,869	0,084	0,058
-470,459	-70,458	-0,082	0,023
-469,445	273,128	-0,074	-0,097
-468,430	156,416	-0,058	-0,059
-467,416	-9,645	0,091	-0,045
-466,401	82,456	0,110	0,088
-465,386	800,000	-0,044	0,100
-464,372	206,284	-0,046	0,053
-463,357	800,000	0,017	-0,037
-462,343	211,394	-0,097	-0,113
-461,328	254,138	0,095	0,119
-460,313	-157,725	0,123	-0,005
-459,299	104,442	-0,060	0,052
-458,284	-95,712	0,129	0,025
-457,270	187,741	-0,093	-0,102
-456,255	800,000	-0,020	0,062
-455,241	290,329	-0,047	-0,062
-454,226	-36,795	-0,037	0,015
-453,211	19,360	-0,087	0,051
-452,197	190,200	-0,036	-0,040
-451,182	-200,000	-0,006	-0,095
-450,168	-145,520	0,090	-0,006
-449,153	619,037	0,012	0,022
-448,138	800,000	0,044	-0,091
-447,124	-25,192	-0,110	-0,048
-446,109	353,326	0,045	-0,066
-445,095	-200,000	-0,012	0,105
-444,080	-200,000	0,015	0,127
-443,065	800,000	0,054	0,163
-442,051	-35,589	0,033	-0,013
-441,036	-200,000	-0,003	0,035
-440,022	263,637	0,077	-0,099
-439,007	-200,000	-0,005	-0,032
-437,992	-200,000	-0,006	-0,058
-436,978	-99,804	0,137	0,025
-435,963	-52,115	0,107	0,036
-434,949	-35,757	-0,160	0,064
-433,934	-200,000	0,018	-0,060
-432,919	-79,702	-0,147	-0,036
-431,905	11,424	0,086	-0,048
-430,890	-52,824	0,111	-0,037
-429,876	11,271	0,061	-0,034
-428,861	34,858	0,097	0,062
-427,846	192,997	0,039	0,043
-426,832	-9,150	-0,051	0,025
-425,817	800,000	-0,042	-0,100
-424,803	-171,284	-0,041	0,001
-423,788	-200,000	-0,003	-0,073
-422,773	267,064	0,065	0,084
-421,759	-200,000	0,014	0,160
-420,744	73,405	0,088	0,068
-419,730	-78,844	-0,192	-0,048
-418,715	-200,000	0,040	-0,159
-417,701	-44,454	-0,092	0,034
-416,686	-98,666	-0,051	0,009
-415,671	-200,000	-0,004	0,204
-414,657	-200,000	0,019	0,150
-413,642	139,572	0,039	0,038
-412,628	-153,838	0,108	-0,005
-411,613	-200,000	-0,008	-0,076
-410,598	38,101	-0,118	-0,077
-409,584	800,000	0,082	0,186
-408,569	30,676	0,074	-0,047
-407,555	16,516	0,080	0,046
-406,540	-200,000	0,009	-0,038
-405,525	800,000	-0,029	0,067
-404,511	-51,389	-0,052	0,018
-403,496	-200,000	0,003	0,041
-402,482	-64,432	0,055	-0,016
-401,467	-18,904	0,097	-0,044
-400,452	-81,437	-0,098	0,024
-399,438	12,355	0,104	0,059
-398,423	193,160	-0,050	-0,056
-397,409	43,952	-0,090	-0,061
-396,394	-11,578	0,012	-0,006
-395,379	-200,000	-0,027	-0,175
-394,365	-200,000	0,002	-0,026
-393,350	-110,227	0,085	0,013
-392,336	-156,010	-0,049	-0,002
-391,321	-200,000	0,008	-0,049
-390,306	-120,878	0,148	0,018
-389,292	800,000	-0,094	0,242
-388,277	-44,394	0,202	0,074
-387,263	14,188	-0,024	-0,014
-386,248	800,000	-0,034	0,078
-385,233	381,399	0,082	0,124
-384,219	129,706	-0,032	0,030
-383,204	218,465	-0,079	-0,093
-382,190	800,000	-0,052	-0,118
-381,175	-16,608	-0,022	0,010
-380,160	-200,000	-0,007	-0,044
-379,146	293,869	-0,081	0,109
-378,131	-183,154	0,036	0,000
-377,117	800,000	-0,013	0,030
-376,102	-156,945	0,131	-0,006
-375,088	606,034	0,016	-0,029
-374,073	-67,366	0,003	0,001
-373,058	154,689	-0,016	0,016
-372,044	-124,793	0,179	0,020
-371,029	800,000	0,008	0,017
-370,015	97,424	-0,015	-0,012
-369,000	585,199	0,018	-0,033
-367,985	800,000	-0,013	-0,039
-366,971	-129,686	0,065	0,006
-365,956	-200,000	0,023	0,094
-364,942	-200,000	0,005	0,064
-363,927	71,719	0,089	0,068
-362,912	677,870	0,023	-0,044
-361,898	-143,903	0,031	-0,002
-360,883	282,463	-0,074	0,098
-359,869	39,194	-0,084	-0,055
-358,854	800,000	0,055	0,162
-357,839	150,557	-0,029	-0,029
-356,825	90,381	-0,043	0,035
-355,810	173,537	-0,043	0,045
-354,796	4,804	-0,163	0,088
-353,781	-163,801	-0,151	0,005
-352,766	25,380	-0,090	0,055
-351,752	800,000	0,036	0,098
-350,737	168,865	0,090	0,095
-349,723	218,417	-0,097	0,114
-348,708	-200,000	-0,034	0,123
-347,693	800,000	-0,038	0,119
-346,679	-74,044	-0,043	-0,011
-345,664	-200,000	0,047	-0,184
-344,650	-45,540	0,158	0,057
-343,635	-200,000	-0,027	-0,118
-342,620	-72,521	0,145	-0,039
-341,606	-103,266	0,047	0,008
-340,591	-59,313	-0,208	-0,065
-339,577	-32,123	-0,075	-0,031
-338,562	-200,000	0,002	-0,040
-337,548	-200,000	0,002	0,063
-336,533	178,661	0,061	-0,066
-335,518	408,077	0,030	-0,046
-334,504	-15,876	0,089	0,042
-333,489	174,245	-0,031	-0,033
-332,475	-200,000	0,003	-0,029
-331,460	499,759	0,028	-0,048
-330,445	425,339	0,029	0,047
-329,431	-73,333	0,090	0,024
-328,416	382,747	-0,008	-0,011
-327,402	800,000	0,015	0,042
-326,387	-200,000	0,007	-0,107
-325,372	110,380	-0,078	-0,068
-324,358	138,055	0,050	-0,048
-323,343	419,591	-0,052	-0,082
-322,329	116,364	-0,005	-0,005
-321,314	800,000	-0,029	0,076
-320,299	-147,724	0,076	0,005
-319,285	-84,620	-0,078	0,018
-318,270	7,375	-0,013	0,007
-317,256	38,703	0,120	-0,078
-316,241	-15,184	0,054	0,025
-315,226	84,964	0,086	0,069
-314,212	-200,000	-0,032	0,130
-313,197	800,000	-0,025	0,060
-312,183	-200,000	0,014	0,059
-311,168	800,000	-0,024	-0,053
-310,153	-200,000	0,018	-0,121
-309,139	297,539	0,014	-0,019
-308,124	-76,246	-0,033	0,008
-307,110	584,488	0,063	0,113
-306,095	-200,000	-0,018	0,151
-305,080	-200,000	-0,037	0,176
-304,066	37,444	0,024	-0,015
-303,051	366,680	-0,101	-0,150
-302,037	176,456	-0,085	-0,091
-301,022	-200,000	-0,013	-0,053
-300,008	-70,030	0,018	0,005
-298,993	-72,034	0,076	0,021
-297,978	-72,243	-0,023	0,006
-296,964	-87,615	-0,059	-0,013
-295,949	26,640	-0,082	0,050
-294,935	457,366	-0,060	0,097
-293,920	-200,000	0,008	0,091
-292,905	461,491	-0,091	-0,149
-291,891	117,051	0,072	0,065
-290,876	-200,000	-0,060	0,000
-289,862	-108,097	-0,067	0,011
-288,847	-98,018	-0,074	-0,014
-287,832	-200,000	-0,028	-0,152
-286,818	180,341	0,014	0,015
-285,803	-68,765	0,124	-0,035
-284,789	79,866	0,132	0,104
-283,774	-147,452	-0,075	-0,005
-282,759	800,000	0,037	0,100
-281,745	-59,742	-0,124	-0,039
-280,730	11,917	0,110	-0,062
-279,716	347,402	-0,025	-0,036
-278,701	-200,000	0,009	-0,128
-277,686	800,000	0,047	-0,099
-276,672	800,000	-0,013	0,026
-275,657	-200,000	0,003	0,099
-274,643	771,868	-0,019	0,037
-273,628	-34,831	-0,013	-0,005
-272,613	-98,702	0,060	0,011
-271,599	-200,000	0,022	0,084
-270,584	800,000	0,016	-0,042
-269,570	85,268	-0,024	0,020
-268,555	-66,106	0,102	-0,030
-267,540	-11,542	-0,036	0,017
-266,526	48,217	-0,132	-0,091
-265,511	800,000	0,018	-0,057
-264,497	429,722	0,027	0,042
-263,482	55,522	0,119	-0,084
-262,467	-27,888	-0,008	-0,003
-261,453	800,000	-0,057	-0,146
-260,438	-10,376	-0,118	0,057
-259,424	-82,336	-0,091	0,022
-258,409	-14,303	0,080	0,038
-257,395	7,038	0,133	-0,072
-256,380	-16,099	-0,073	-0,034
-255,365	-118,867	0,094	-0,012
-254,351	-50,012	0,205	0,071
-253,336	-5,803	-0,161	-0,080
-252,322	4,957	-0,029	-0,015
-251,307	144,428	-0,063	0,062
-250,292	-112,423	0,026	0,004
-249,278	-13,073	0,132	-0,062
-248,263	273,769	0,044	-0,057
-247,249	800,000	0,030	-0,060
-246,234	-200,000	0,006	-0,084
-245,219	-152,712	0,021	0,001
-244,205	-69,417	-0,146	-0,041
-243,190	800,000	-0,033	-0,096
-242,176	8,706	0,062	-0,034
-241,161	686,909	-0,027	-0,052
-240,146	-200,000	0,033	0,153
-239,132	800,000	0,055	0,160
-238,117	187,094	-0,080	0,087
-237,103	800,000	-0,022	0,066
-236,088	112,930	0,105	-0,093
-235,073	-103,834	0,142	0,024
-234,059	224,759	0,070	-0,083
-233,044	50,004	0,133	0,092
-232,030	800,000	-0,005	0,013
-231,015	179,026	-0,074	0,079
-230,000	-24,656	-0,123	-0,053
-228,986	-32,213	-0,136	-0,055
-227,971	-108,352	0,051	-0,008
-226,957	304,589	0,096	-0,130
-225,942	800,000	0,064	0,141
-224,927	423,644	0,064	0,101
-223,913	-44,873	-0,087	0,031
-222,898	-70,379	-0,058	0,016
-221,884	-200,000	0,018	0,070
-220,869	-200,000	-0,003	0,036
-219,855	495,009	0,048	0,081
-218,840	200,257	-0,044	-0,049
-217,825	-200,000	0,014	0,102
-216,811	-54,926	-0,048	0,016
-215,796	-192,389	-0,036	0,000
-214,782	213,661	0,094	-0,109
-213,767	285,176	0,040	0,052
-212,752	583,300	-0,095	0,172
-211,738	-200,000	0,001	-0,007
-210,723	800,000	0,018	-0,047
-209,709	209,044	-0,077	0,088
-208,694	-94,887	0,037	0,007
-207,679	-55,914	-0,059	0,019
-206,665	-200,000	-0,021	0,084
-205,650	2,623	0,043	0,023
-204,636	-102,513	0,080	0,014
-203,621	-107,030	0,085	0,014
-202,606	30,382	-0,104	0,065
-201,592	-200,000	-0,042	-0,168
-200,577	-200,000	-0,033	-0,107
-199,563	43,879	-0,098	-0,065
-198,548	52,458	0,100	-0,069
-197,533	800,000	0,051	0,145
-196,519	376,615	0,066	0,098
-195,504	184,699	-0,045	-0,049
-194,490	800,000	-0,029	-0,086
-193,475	-29,595	-0,042	0,017
-192,460	194,605	0,085	-0,095
-191,446	150,346	-0,109	0,108
-190,431	-200,000	0,022	-0,084
-189,417	800,000	-0,026	0,063
-188,402	23,329	0,039	0,024
-187,387	-81,395	-0,106	0,025
-186,373	743,026	-0,048	-0,096
-185,358	266,151	-0,051	0,065
-184,344	88,329	0,057	0,046
-183,329	134,374	0,036	-0,034
-182,315	19,445	0,070	0,041
-181,300	769,853	0,029	0,058
-180,285	800,000	-0,053	-0,126
-179,271	-54,642	0,023	-0,008
-178,256	-37,753	0,047	0,018
-177,242	350,138	0,032	0,047
-176,227	-97,681	-0,073	0,014
-175,212	-200,000	0,035	-0,119
-174,198	143,807	0,072	-0,070
-173,183	188,013	0,042	-0,046
-172,169	-200,000	-0,009	0,117
-171,154	173,749	-0,074	-0,078
-170,139	374,237	-0,029	-0,044
-169,125	-71,226	0,250	0,068
-168,110	-121,650	-0,102	-0,012
-167,096	-200,000	0,043	-0,223
-166,081	800,000	0,007	0,016
-165,066	-27,241	-0,107	0,045
-164,052	-119,432	-0,107	-0,013
-163,037	355,299	0,088	0,128
-162,023	35,344	0,074	0,047
-161,008	800,000	-0,055	0,153
-159,993	-103,101	0,080	-0,014
-158,979	-200,000	-0,022	-0,073
-157,964	-52,174	0,039	-0,013
-156,950	-154,740	-0,095	-0,005
-155,935	99,194	0,113	0,095
-154,920	-200,000	0,005	-0,155
-153,906	-186,250	-0,065	-0,001
-152,891	87,240	-0,046	-0,037
-151,877	-116,058	-0,049	0,007
-150,862	-0,828	-0,137	-0,070
-149,847	776,333	-0,017	-0,034
-148,833	-200,000	0,018	-0,067
-147,818	800,000	0,008	0,024
-146,804	-200,000	-0,008	0,043
-145,789	198,548	0,109	0,122
-144,775	115,639	0,035	-0,032
-143,760	800,000	-0,018	-0,042
-142,745	-101,164	0,084	0,015
-141,731	12,891	0,056	-0,031
-140,716	-200,000	0,000	0,060
-139,702	-200,000	-0,004	0,094
-138,687	800,000	0,048	0,139
-137,672	674,803	-0,043	-0,081
-136,658	-107,744	-0,104	0,016
-135,643	505,536	-0,036	-0,061
-134,629	-200,000	0,006	-0,096
-133,614	-153,468	0,191	0,009
-132,599	800,000	0,028	0,081
-131,585	800,000	-0,033	0,082
-130,570	22,208	-0,138	0,082
-129,556	-123,903	-0,054	-0,006
-128,541	800,000	-0,009	-0,019
-127,526	191,290	0,072	0,079
-126,512	800,000	0,021	-0,060
-125,497	800,000	-0,066	0,189
-124,483	800,000	-0,034	-0,081
-123,468	-199,693	0,097	-0,000
-122,453	758,195	0,028	0,056
-121,439	383,722	-0,085	0,128
-120,424	-200,000	-0,023	-0,107
-119,410	-200,000	0,007	0,048
-118,395	800,000	-0,071	0,161
