DTS Sentinel unit serial number:	SN410029Multiplexer serial number:	ORYXHardware model number:	OX2-SRSoftware version number:	ORYX F/W v4,00 Oryx Data Collector v3.7.2.0data status	okinstallation	B6 Nyhavnadifferential loss correction	single-endedforward channel	channel 2reverse channel	N/Adate	2023/12/09time	00:50:08forward acquisition time	300,00reverse acquisition time	0,00gamma	499,1914k internal	0,3156k external	0,3156temperature offset calibration	1,0000default loss term (dB/km)	0,3820temperature slope calibration	1,0000multiplexer offset coefficient	1,0000multiplexer slope coefficient	1,0000fibre end	0,00T internal ref (°C)	15,64T ext. ref 1 (°C)	-0,71T ext. ref 2 (°C)	-0,69length (m)	temperature (°C)	Stokes	anti-Stokes-744,400	5,319	-0,003	-0,002
-743,385	-123,913	-0,405	0,047
-742,371	133,646	0,162	0,154
-741,356	-136,618	-0,254	-0,021
-740,342	506,843	0,084	0,144
-739,327	-106,796	-0,269	0,044
-738,312	800,000	-0,083	-0,200
-737,298	-129,914	-0,216	-0,022
-736,283	716,237	0,075	0,148
-735,269	-80,658	-0,281	-0,068
-734,254	-15,815	0,090	0,042
-733,239	-74,849	-0,553	-0,145
-732,225	87,653	0,117	0,095
-731,210	800,000	0,067	0,144
-730,196	800,000	-0,034	0,071
-729,181	115,213	-0,034	-0,031
-728,167	800,000	-0,021	-0,063
-727,152	-91,960	0,051	0,010
-726,137	540,851	-0,074	-0,131
-725,123	-12,483	-0,170	-0,081
-724,108	366,364	-0,060	-0,090
-723,094	-200,000	-0,001	-0,095
-722,079	437,927	0,040	-0,065
-721,064	-4,184	-0,089	0,045
-720,050	-175,960	-0,095	0,002
-719,035	-200,000	-0,025	0,139
-718,021	-129,423	-0,080	-0,008
-717,006	-150,958	-0,047	-0,003
-715,991	746,234	0,064	0,128
-714,977	-67,743	-0,181	-0,052
-713,962	800,000	0,047	-0,117
-712,948	-200,000	-0,003	0,114
-711,933	-200,000	0,015	-0,059
-710,918	-200,000	0,001	-0,067
-709,904	54,542	-0,100	-0,071
-708,889	116,328	-0,093	-0,084
-707,875	800,000	-0,051	-0,122
-706,860	772,881	-0,034	-0,069
-705,845	11,118	0,086	0,049
-704,831	-142,328	0,039	0,003
-703,816	-200,000	0,020	-0,130
-702,802	633,940	0,033	-0,061
-701,787	800,000	-0,056	-0,121
-700,772	800,000	0,022	0,051
-699,758	252,008	0,060	-0,075
-698,743	-46,295	0,070	-0,025
-697,729	441,872	0,053	0,086
-696,714	219,164	-0,091	0,107
-695,699	106,922	-0,128	-0,112
-694,685	-139,483	-0,171	0,013
-693,670	-200,000	-0,008	-0,103
-692,656	-114,495	-0,167	-0,023
-691,641	747,772	0,045	0,089
-690,627	-37,133	0,069	-0,027
-689,612	-1,560	0,075	0,039
-688,597	104,992	-0,033	0,029
-687,583	303,802	-0,079	-0,108
-686,568	800,000	-0,037	-0,089
-685,554	128,845	0,046	0,043
-684,539	370,339	0,026	0,039
-683,524	442,681	0,081	-0,131
-682,510	-200,000	0,001	0,043
-681,495	-200,000	-0,003	-0,105
-680,481	430,793	-0,048	-0,077
-679,466	-47,196	-0,226	-0,081
-678,451	-25,414	-0,050	0,022
-677,437	800,000	-0,034	0,083
-676,422	723,128	-0,042	0,083
-675,408	100,539	-0,186	-0,159
-674,393	56,453	-0,019	-0,013
-673,378	-200,000	0,020	-0,174
-672,364	-2,321	-0,127	0,065
-671,349	62,370	0,137	-0,100
-670,335	57,726	-0,084	-0,060
-669,320	-102,951	0,103	-0,018
-668,305	354,559	-0,070	0,103
-667,291	-200,000	0,006	-0,031
-666,276	288,868	-0,062	0,082
-665,262	-111,710	-0,122	-0,018
-664,247	536,212	-0,107	-0,187
-663,232	-86,267	-0,079	-0,018
-662,218	748,635	-0,004	-0,008
-661,203	74,849	-0,071	0,055
-660,189	568,095	-0,038	-0,069
-659,174	-21,392	0,032	-0,014
-658,159	800,000	-0,023	-0,059
-657,145	800,000	-0,019	-0,058
-656,130	-68,066	-0,077	0,022
-655,116	-149,038	0,051	-0,003
-654,101	800,000	0,027	0,077
-653,086	-200,000	0,006	0,081
-652,072	325,569	0,056	-0,079
-651,057	800,000	-0,018	-0,053
-650,043	-200,000	0,024	0,113
-649,028	-200,000	-0,002	-0,032
-648,014	-200,000	-0,005	0,096
-646,999	185,510	0,029	0,032
-645,984	6,419	-0,074	-0,040
-644,970	98,333	-0,048	-0,040
-643,955	-200,000	-0,018	-0,088
-642,941	-200,000	-0,001	-0,052
-641,926	-75,917	-0,123	0,032
-640,911	-43,786	0,063	-0,023
-639,897	-67,989	-0,057	-0,016
-638,882	800,000	0,009	0,022
-637,868	244,127	-0,106	0,131
-636,853	-90,339	-0,034	-0,007
-635,838	697,651	-0,019	0,036
-634,824	295,350	-0,034	0,046
-633,809	97,366	0,111	0,094
-632,795	-149,763	0,080	-0,005
-631,780	-30,670	-0,022	0,009
-630,765	82,100	0,081	0,065
-629,751	40,213	0,042	0,028
-628,736	-200,000	-0,015	-0,074
-627,722	62,539	0,030	0,022
-626,707	800,000	-0,013	-0,039
-625,692	-200,000	0,040	0,166
-624,678	-200,000	-0,010	0,166
-623,663	800,000	0,025	0,078
-622,649	60,330	-0,121	-0,088
-621,634	-131,436	-0,151	0,014
-620,619	59,964	0,081	-0,059
-619,605	281,984	0,057	0,076
-618,590	42,499	0,063	0,042
-617,576	-183,347	-0,130	-0,002
-616,561	-200,000	-0,015	0,093
-615,546	-200,000	-0,022	-0,108
-614,532	-200,000	0,002	0,078
-613,517	-200,000	-0,003	0,041
-612,503	288,605	-0,078	-0,104
-611,488	800,000	-0,033	-0,096
-610,474	79,629	0,074	0,058
-609,459	472,895	-0,069	-0,114
-608,444	330,595	0,061	0,087
-607,430	14,137	0,007	0,004
-606,415	-200,000	-0,034	-0,134
-605,401	225,131	-0,032	0,037
-604,386	-19,192	0,070	0,032
-603,371	-200,000	0,042	0,138
-602,357	328,565	-0,025	-0,035
-601,342	-36,696	0,131	-0,051
-600,328	661,904	-0,041	0,078
-599,313	-200,000	-0,006	-0,084
-598,298	73,471	-0,032	-0,025
-597,284	-50,216	0,091	0,031
-596,269	482,453	0,077	0,128
-595,255	-200,000	-0,025	0,131
-594,240	-200,000	-0,003	-0,080
-593,225	86,499	-0,169	-0,136
-592,211	-71,998	0,091	-0,025
-591,196	6,106	-0,083	0,045
-590,182	-109,581	-0,010	0,001
-589,167	69,165	0,011	-0,009
-588,152	-127,960	-0,100	-0,010
-587,138	-67,423	-0,126	-0,036
-586,123	-200,000	0,001	0,019
-585,109	800,000	0,016	-0,051
-584,094	171,113	-0,079	-0,083
-583,079	800,000	0,049	-0,112
-582,065	120,530	-0,032	0,029
-581,050	-102,242	0,070	-0,012
-580,036	-200,000	0,027	-0,139
-579,021	800,000	0,052	-0,117
-578,006	-68,653	-0,027	-0,008
-576,992	-200,000	0,012	-0,064
-575,977	-200,000	-0,015	-0,114
-574,963	-200,000	-0,024	-0,089
-573,948	-200,000	0,006	0,097
-572,934	-200,000	0,009	0,042
-571,919	-200,000	-0,029	-0,127
-570,904	-80,194	-0,057	0,014
-569,890	-200,000	-0,026	-0,115
-568,875	514,270	0,017	-0,028
-567,861	42,112	0,053	-0,035
-566,846	-83,918	0,098	-0,023
-565,831	800,000	-0,045	-0,109
-564,817	-200,000	-0,014	0,060
-563,802	-200,000	-0,002	-0,051
-562,788	-200,000	-0,009	-0,149
-561,773	-200,000	-0,008	0,111
-560,758	222,855	0,040	0,047
-559,744	-200,000	0,007	-0,149
-558,729	291,216	0,034	0,045
-557,715	-200,000	-0,012	-0,088
-556,700	186,666	0,056	0,061
-555,685	-200,000	-0,025	-0,127
-554,671	61,705	0,093	0,068
-553,656	-200,000	0,025	0,099
-552,642	405,222	-0,040	-0,062
-551,627	-200,000	0,003	0,127
-550,612	107,739	0,030	-0,027
-549,598	-65,645	-0,090	-0,026
-548,583	-200,000	-0,028	-0,095
-547,569	-153,210	0,035	-0,002
-546,554	-200,000	-0,013	0,073
-545,539	-42,138	0,096	-0,036
-544,525	-200,000	-0,005	-0,151
-543,510	-4,024	0,085	0,043
-542,496	800,000	-0,019	-0,049
-541,481	-200,000	0,011	0,071
-540,466	-14,995	-0,039	-0,018
-539,452	800,000	0,026	0,075
-538,437	-68,529	0,123	0,035
-537,423	-67,369	-0,094	0,027
-536,408	-200,000	-0,001	0,010
-535,393	71,559	-0,076	0,058
-534,379	-12,177	-0,107	-0,051
-533,364	-200,000	-0,004	-0,076
-532,350	457,224	0,076	0,123
-531,335	-85,869	-0,048	0,011
-530,321	21,569	-0,098	-0,058
-529,306	-44,601	0,048	0,018
-528,291	-200,000	-0,023	-0,120
-527,277	102,915	-0,027	0,023
-526,262	800,000	-0,078	-0,162
-525,248	-200,000	-0,021	0,087
-524,233	-89,430	-0,105	-0,022
-523,218	-63,915	0,005	0,002
-522,204	246,807	-0,089	0,110
-521,189	65,216	-0,116	-0,085
-520,175	575,321	0,018	0,031
-519,160	155,792	-0,066	-0,067
-518,145	336,889	-0,099	0,141
-517,131	800,000	0,040	0,107
-516,116	800,000	0,030	-0,062
-515,102	186,445	-0,192	-0,209
-514,087	56,171	-0,059	0,042
-513,072	-200,000	-0,001	0,113
-512,058	172,430	-0,021	0,022
-511,043	8,321	0,068	0,037
-510,029	64,972	0,087	0,064
-509,014	-44,352	0,072	0,026
-507,999	800,000	0,016	0,048
-506,985	-200,000	-0,002	0,121
-505,970	66,614	-0,129	0,096
-504,956	800,000	-0,022	0,058
-503,941	800,000	-0,019	-0,051
-502,926	179,569	0,041	0,044
-501,912	168,934	0,034	0,036
-500,897	-200,000	-0,023	0,104
-499,883	800,000	-0,034	0,077
-498,868	-90,737	-0,146	0,031
-497,853	-118,829	-0,114	-0,014
-496,839	68,695	0,052	0,039
-495,824	6,994	0,085	0,046
-494,810	-200,000	-0,005	0,052
-493,795	19,500	0,039	-0,023
-492,781	800,000	-0,017	-0,054
-491,766	-47,878	-0,144	-0,051
-490,751	-200,000	-0,022	-0,098
-489,737	129,782	0,014	-0,013
-488,722	-82,804	0,037	0,009
-487,708	-200,000	0,022	-0,110
-486,693	-200,000	0,001	-0,120
-485,678	-200,000	0,013	-0,142
-484,664	375,973	0,028	-0,042
-483,649	184,863	0,075	0,082
-482,635	-200,000	-0,006	0,041
-481,620	307,912	0,034	0,047
-480,605	68,119	-0,060	-0,045
-479,591	371,028	0,083	0,124
-478,576	-200,000	0,019	0,089
-477,562	-22,550	-0,071	-0,031
-476,547	-200,000	-0,025	0,123
-475,532	100,680	0,078	-0,066
-474,518	-106,195	-0,019	-0,003
-473,503	-12,293	0,036	0,017
-472,489	111,677	-0,079	0,070
-471,474	249,250	-0,109	0,136
-470,459	-200,000	-0,006	0,062
-469,445	-200,000	0,004	-0,229
-468,430	173,010	-0,095	-0,100
-467,416	268,099	0,043	-0,056
-466,401	-142,427	0,089	-0,006
-465,386	-47,750	0,052	0,018
-464,372	512,948	0,026	-0,045
-463,357	800,000	-0,089	-0,190
-462,343	191,115	-0,058	0,064
-461,328	-30,552	0,045	0,019
-460,313	117,392	0,065	-0,058
-459,299	-93,221	0,056	0,011
-458,284	800,000	0,018	0,054
-457,270	346,830	0,026	-0,037
-456,255	800,000	-0,022	0,059
-455,241	-200,000	-0,016	-0,080
-454,226	355,848	-0,059	-0,086
-453,211	272,764	0,069	0,089
-452,197	-182,420	0,150	-0,002
-451,182	261,288	-0,009	0,012
-450,168	-200,000	-0,001	-0,034
-449,153	240,153	-0,062	0,075
-448,138	-109,366	-0,100	-0,015
-447,124	-132,352	-0,172	0,016
-446,109	627,861	-0,033	0,061
-445,095	15,771	0,137	0,078
-444,080	-108,111	0,196	-0,031
-443,065	800,000	-0,064	0,134
-442,051	-200,000	-0,018	0,080
-441,036	-200,000	-0,003	-0,064
-440,022	-138,475	0,061	0,005
-439,007	-200,000	-0,002	0,070
-437,992	800,000	0,046	-0,095
-436,978	-200,000	0,024	0,140
-435,963	-200,000	0,012	0,167
-434,949	-58,107	-0,017	-0,006
-433,934	-200,000	-0,015	-0,086
-432,919	55,560	0,029	-0,020
-431,905	800,000	-0,034	-0,091
-430,890	385,752	0,020	0,030
-429,876	-200,000	0,021	-0,089
-428,861	-200,000	-0,016	0,136
-427,846	354,066	-0,028	0,040
-426,832	-200,000	-0,019	-0,068
-425,817	-200,000	0,014	-0,117
-424,803	80,915	-0,047	0,037
-423,788	142,701	0,036	-0,035
-422,773	255,350	0,104	0,130
-421,759	7,722	-0,091	0,049
-420,744	193,448	0,024	0,026
-419,730	-170,262	0,130	-0,003
-418,715	-111,450	-0,071	0,010
-417,701	135,778	0,021	0,020
-416,686	-104,373	-0,053	0,009
-415,671	164,559	-0,002	0,002
-414,657	-18,575	-0,042	-0,019
-413,642	-200,000	0,025	-0,113
-412,628	-200,000	0,015	-0,087
-411,613	527,713	-0,138	-0,238
-410,598	-200,000	-0,011	0,051
-409,584	-200,000	0,011	-0,130
-408,569	-79,781	0,076	-0,018
-407,555	175,685	-0,080	-0,084
-406,540	150,682	0,108	-0,107
-405,525	-111,241	-0,075	0,011
-404,511	-200,000	0,029	-0,148
-403,496	68,258	0,146	-0,109
-402,482	57,375	0,101	-0,072
-401,467	27,755	-0,088	0,054
-400,452	800,000	0,028	0,082
-399,438	-65,196	0,040	-0,012
-398,423	66,763	-0,047	-0,035
-397,409	-200,000	0,005	-0,026
-396,394	800,000	-0,030	-0,069
-395,379	-147,568	0,109	0,007
-394,365	-81,560	-0,068	0,016
-393,350	190,529	-0,078	0,086
-392,336	-200,000	-0,009	0,074
-391,321	-200,000	0,005	0,075
-390,306	-200,000	-0,002	0,008
-389,292	-23,301	-0,040	0,017
-388,277	632,151	0,049	0,090
-387,263	133,769	-0,040	0,037
-386,248	800,000	0,032	-0,066
-385,233	-200,000	-0,002	0,134
-384,219	281,581	0,042	0,055
-383,204	103,517	0,025	0,021
-382,190	117,361	-0,069	-0,062
-381,175	-43,868	0,132	0,048
-380,160	530,320	-0,032	0,056
-379,146	84,889	0,141	0,112
-378,131	-200,000	-0,017	0,078
-377,117	-200,000	-0,003	-0,061
-376,102	-200,000	-0,030	-0,196
-375,088	-200,000	-0,001	-0,012
-374,073	-179,075	0,074	0,001
-373,058	-27,001	-0,075	0,032
-372,044	53,291	0,121	0,084
-371,029	-54,263	-0,033	0,011
-370,015	-200,000	0,002	-0,042
-369,000	659,088	0,086	-0,161
-367,985	-72,370	-0,043	0,011
-366,971	-200,000	0,013	0,068
-365,956	86,075	0,120	0,096
-364,942	-40,891	-0,139	-0,052
-363,927	-200,000	-0,020	0,119
-362,912	4,856	0,051	0,027
-361,898	36,331	-0,089	0,057
-360,883	-200,000	0,008	-0,155
-359,869	440,500	0,061	-0,097
-358,854	-79,064	0,082	-0,020
-357,839	-2,918	0,110	-0,056
-356,825	254,373	-0,045	-0,057
-355,810	228,191	0,058	0,069
-354,796	800,000	-0,021	-0,058
-353,781	441,922	0,093	-0,148
-352,766	167,374	-0,154	0,159
-351,752	87,283	0,038	-0,031
-350,737	522,715	-0,038	-0,065
-349,723	-200,000	0,004	0,017
-348,708	139,877	0,038	0,037
-347,693	252,118	0,054	0,067
-346,679	800,000	0,022	-0,070
-345,664	-39,138	-0,071	0,027
-344,650	800,000	-0,026	0,060
-343,635	-81,833	-0,042	0,010
-342,620	11,157	0,078	0,043
-341,606	-200,000	-0,030	-0,114
-340,591	-18,502	-0,090	-0,041
-339,577	800,000	-0,037	0,095
-338,562	-59,752	-0,118	0,036
-337,548	-49,526	0,037	-0,013
-336,533	-200,000	0,010	0,105
-335,518	800,000	-0,032	0,064
-334,504	27,537	0,090	-0,055
-333,489	-200,000	-0,010	-0,148
-332,475	800,000	-0,039	0,088
-331,460	28,228	0,066	-0,041
-330,445	107,656	0,091	0,079
-329,431	-47,723	0,044	0,016
-328,416	-200,000	0,002	-0,010
-327,402	800,000	0,045	0,119
-326,387	4,887	-0,053	-0,028
-325,372	76,461	-0,077	-0,059
-324,358	172,701	-0,009	0,009
-323,343	-200,000	-0,014	-0,056
-322,329	383,180	-0,042	-0,063
-321,314	-200,000	0,019	0,091
-320,299	-80,831	-0,120	0,029
-319,285	140,074	0,066	0,063
-318,270	800,000	0,082	-0,197
-317,256	-200,000	-0,004	-0,030
-316,241	644,751	-0,053	-0,099
-315,226	104,125	0,027	-0,023
-314,212	193,619	0,022	-0,024
-313,197	-114,123	0,051	0,007
-312,183	289,831	-0,117	0,154
-311,168	-183,401	-0,141	-0,002
-310,153	800,000	-0,004	0,012
-309,139	-70,081	0,028	-0,008
-308,124	178,361	0,031	-0,033
-307,110	-69,619	0,082	0,023
-306,095	617,792	-0,039	0,071
-305,080	-33,321	0,097	0,039
-304,066	398,317	0,044	-0,067
-303,051	-7,840	-0,025	0,012
-302,037	-39,435	-0,090	-0,034
-301,022	800,000	-0,025	0,068
-300,008	-200,000	0,043	0,138
-298,993	-91,214	0,071	0,015
-297,978	-200,000	-0,011	-0,061
-296,964	144,891	0,054	-0,052
-295,949	-200,000	0,039	0,133
-294,935	745,968	-0,034	0,067
-293,920	800,000	0,074	-0,151
-292,905	134,864	0,124	0,117
-291,891	176,467	-0,101	0,106
-290,876	34,889	0,110	0,070
-289,862	-162,858	0,026	-0,001
-288,847	-35,851	-0,063	-0,025
-287,832	160,856	0,042	0,043
-286,818	-92,295	0,075	0,015
-285,803	800,000	-0,019	0,054
-284,789	-0,316	0,080	0,041
-283,774	354,764	-0,083	0,119
-282,759	-200,000	0,007	-0,057
-281,745	-36,070	-0,157	-0,061
-280,730	-200,000	0,006	-0,091
-279,716	53,713	-0,055	-0,038
-278,701	31,711	0,198	0,123
-277,686	-200,000	0,012	0,083
-276,672	73,271	0,086	0,065
-275,657	312,916	-0,062	0,085
-274,643	-173,891	0,011	-0,000
-273,628	800,000	0,028	-0,073
-272,613	624,010	-0,009	-0,016
-271,599	648,465	0,021	0,040
-270,584	-158,378	-0,131	0,005
-269,570	461,758	0,102	0,166
-268,555	-111,810	0,031	-0,005
-267,540	271,209	0,023	0,029
-266,526	-67,387	-0,144	0,041
-265,511	-200,000	0,012	0,081
-264,497	-105,260	0,044	-0,007
-263,482	-64,964	0,082	-0,024
-262,467	109,190	0,066	-0,057
-261,453	-122,858	-0,078	-0,009
-260,438	251,466	0,032	0,039
-259,424	800,000	-0,057	0,139
-258,409	-200,000	-0,011	-0,040
-257,395	-65,285	-0,101	0,029
-256,380	238,653	0,036	0,043
-255,365	-134,604	0,048	0,004
-254,351	-200,000	-0,026	-0,141
-253,336	-200,000	0,013	0,050
-252,322	-185,919	-0,228	-0,002
-251,307	-200,000	0,012	0,079
-250,292	-28,931	0,122	0,050
-249,278	-91,225	0,108	-0,022
-248,263	-118,944	0,095	-0,012
-247,249	11,290	0,021	0,012
-246,234	-200,000	-0,019	0,067
-245,219	687,935	-0,045	-0,086
-244,205	-109,420	-0,118	-0,018
-243,190	-200,000	-0,030	-0,105
-242,176	-109,653	0,100	0,015
-241,161	265,734	-0,106	-0,134
-240,146	-200,000	-0,026	-0,098
-239,132	800,000	-0,022	0,047
-238,117	65,238	-0,042	0,030
-237,103	-95,326	-0,096	-0,018
-236,088	-151,399	-0,088	0,005
-235,073	-200,000	-0,027	0,173
-234,059	457,682	0,042	0,068
-233,044	800,000	-0,034	0,087
-232,030	-97,234	0,034	0,006
-231,015	800,000	-0,025	-0,056
-230,000	395,681	0,024	0,037
-228,986	-200,000	-0,183	0,001
-227,971	97,562	0,071	-0,059
-226,957	-36,131	0,201	0,078
-225,942	-200,000	0,015	0,055
-224,927	-35,213	0,094	-0,037
-223,913	110,075	-0,086	-0,075
-222,898	-42,886	0,067	-0,024
-221,884	-28,727	-0,106	0,044
-220,869	148,525	0,042	0,041
-219,855	409,727	-0,022	0,034
-218,840	112,077	-0,084	-0,074
-217,825	529,395	-0,050	-0,085
-216,811	-134,700	0,056	0,005
-215,796	-67,218	-0,164	-0,046
-214,782	-200,000	0,001	-0,096
-213,767	-138,785	0,082	-0,006
-212,752	-21,765	0,111	0,049
-211,738	-200,000	0,012	-0,263
-210,723	800,000	-0,032	-0,089
-209,709	-200,000	-0,026	-0,257
-208,694	800,000	-0,015	-0,031
-207,679	-96,155	0,027	0,005
-206,665	211,046	0,034	-0,039
-205,650	-200,000	-0,017	0,109
-204,636	415,816	0,051	0,078
-203,621	304,817	0,003	-0,004
-202,606	262,396	0,019	-0,024
-201,592	-28,498	0,041	0,017
-200,577	-200,000	0,065	0,226
-199,563	37,130	0,134	0,086
-198,548	-86,619	0,106	-0,023
-197,533	-44,483	0,083	0,030
-196,519	559,235	-0,035	0,062
-195,504	-169,355	-0,129	0,003
-194,490	624,188	-0,045	-0,083
-193,475	226,571	0,038	-0,045
-192,460	-111,119	0,205	-0,030
-191,446	12,781	0,061	0,034
-190,431	-200,000	0,001	-0,018
-189,417	800,000	0,015	0,047
-188,402	160,631	-0,040	-0,040
-187,387	4,785	-0,023	-0,012
-186,373	96,477	0,058	-0,048
-185,358	-155,966	-0,108	0,005
-184,344	-139,635	0,082	0,006
-183,329	-200,000	0,027	0,126
-182,315	239,851	0,087	0,105
-181,300	-200,000	0,003	0,106
-180,285	413,072	0,080	-0,123
-179,271	556,238	-0,057	-0,099
-178,256	448,792	0,012	-0,019
-177,242	-80,164	0,094	0,022
-176,227	-200,000	0,014	-0,100
-175,212	100,411	-0,043	-0,036
-174,198	-200,000	0,005	0,022
-173,183	83,906	0,036	-0,028
-172,169	800,000	-0,012	0,036
-171,154	58,141	0,031	0,022
-170,139	-144,051	-0,047	-0,003
-169,125	800,000	-0,043	-0,113
-168,110	-200,000	0,027	0,147
-167,096	-200,000	-0,001	-0,088
-166,081	800,000	0,020	-0,050
-165,066	27,936	0,067	-0,041
-164,052	115,636	-0,149	-0,131
-163,037	-200,000	0,027	0,096
-162,023	-76,310	0,039	-0,010
-161,008	800,000	-0,034	-0,072
-159,993	151,919	0,112	0,110
-158,979	-19,459	-0,124	-0,055
-157,964	-200,000	0,028	-0,137
-156,950	-89,621	-0,125	0,026
-155,935	663,104	0,033	-0,061
-154,920	-200,000	0,012	-0,104
-153,906	800,000	0,037	0,098
-152,891	-147,570	-0,193	0,012
-151,877	-87,767	0,105	-0,023
-150,862	-10,773	-0,049	0,023
-149,847	-55,424	0,115	0,037
-148,833	-200,000	-0,023	0,141
-147,818	447,977	0,054	-0,087
-146,804	683,445	0,010	0,019
-145,789	-121,052	0,125	-0,015
-144,775	-56,923	-0,192	-0,061
-143,760	-200,000	0,004	0,123
-142,745	10,109	0,121	-0,066
-141,731	-200,000	-0,025	-0,088
-140,716	-114,870	0,102	0,014
-139,702	-200,000	-0,005	0,079
-138,687	-200,000	0,000	-0,002
-137,672	-13,287	-0,011	-0,005
-136,658	-200,000	-0,014	-0,044
-135,643	800,000	0,025	0,053
-134,629	800,000	0,024	0,073
-133,614	-8,611	0,119	0,058
-132,599	-200,000	0,028	0,102
-131,585	69,237	-0,093	-0,069
-130,570	274,141	0,054	-0,070
-129,556	-17,966	-0,113	-0,051
-128,541	-200,000	-0,010	-0,083
-127,526	272,244	-0,034	-0,043
-126,512	-40,230	-0,097	-0,036
-125,497	403,050	0,020	0,030
-124,483	1,323	0,030	0,015
-123,468	-52,559	-0,011	0,004
-122,453	130,739	0,038	-0,036
-121,439	157,755	-0,020	0,020
-120,424	-165,039	-0,072	-0,002
