DTS Sentinel unit serial number:	SN410029Multiplexer serial number:	ORYXHardware model number:	OX2-SRSoftware version number:	ORYX F/W v4,00 Oryx Data Collector v3.7.2.0data status	okinstallation	B6 Nyhavnadifferential loss correction	single-endedforward channel	channel 2reverse channel	N/Adate	2023/12/08time	05:00:08forward acquisition time	300,00reverse acquisition time	0,00gamma	499,1914k internal	0,3165k external	0,3165temperature offset calibration	1,0000default loss term (dB/km)	0,3820temperature slope calibration	1,0000multiplexer offset coefficient	1,0000multiplexer slope coefficient	1,0000fibre end	0,00T internal ref (°C)	13,03T ext. ref 1 (°C)	-3,77T ext. ref 2 (°C)	-3,76length (m)	temperature (°C)	Stokes	anti-Stokes-744,400	63,247	-0,081	0,060
-743,385	-133,673	-0,263	0,024
-742,371	421,827	0,146	0,231
-741,356	-169,431	-0,308	-0,008
-740,342	-157,264	0,117	-0,005
-739,327	-97,644	-0,440	-0,083
-738,312	-56,372	0,102	0,033
-737,298	-83,381	-0,404	-0,094
-736,283	-47,591	0,188	0,067
-735,269	-21,618	-0,242	-0,108
-734,254	-200,000	0,031	0,193
-733,239	-29,490	-0,474	-0,198
-732,225	-26,967	0,161	-0,069
-731,210	-200,000	0,007	-0,118
-730,196	800,000	-0,031	0,071
-729,181	-80,349	0,153	0,037
-728,167	-32,141	-0,142	0,058
-727,152	800,000	-0,033	-0,102
-726,137	-149,184	-0,117	-0,007
-725,123	202,913	-0,043	-0,049
-724,108	-132,398	-0,125	-0,012
-723,094	336,980	-0,078	-0,112
-722,079	153,766	-0,132	-0,133
-721,064	-200,000	0,039	-0,146
-720,050	161,836	0,074	0,076
-719,035	800,000	-0,028	-0,064
-718,021	162,444	-0,060	-0,062
-717,006	-100,308	-0,063	0,011
-715,991	-122,213	-0,148	-0,018
-714,977	31,363	-0,117	0,073
-713,962	800,000	-0,018	-0,057
-712,948	-50,986	-0,191	0,066
-711,933	289,507	-0,028	-0,038
-710,918	431,905	-0,036	0,058
-709,904	-52,263	-0,144	-0,049
-708,889	50,081	-0,051	-0,035
-707,875	-126,586	0,081	-0,009
-706,860	-131,681	0,044	0,004
-705,845	-8,795	0,047	-0,023
-704,831	670,949	-0,001	0,002
-703,816	0,468	0,007	-0,004
-702,802	-200,000	0,007	-0,122
-701,787	691,294	-0,053	-0,103
-700,772	764,193	0,057	-0,115
-699,758	521,722	0,031	0,054
-698,743	110,896	0,138	0,122
-697,729	240,563	-0,031	0,038
-696,714	-200,000	-0,032	0,125
-695,699	96,191	-0,087	0,073
-694,685	176,058	0,023	-0,024
-693,670	202,845	-0,025	-0,029
-692,656	654,276	-0,104	-0,198
-691,641	198,264	0,096	-0,108
-690,627	-200,000	0,019	-0,065
-689,612	800,000	-0,036	-0,092
-688,597	303,509	-0,027	-0,037
-687,583	-53,472	0,075	0,025
-686,568	800,000	-0,032	-0,076
-685,554	338,113	0,088	-0,125
-684,539	327,408	0,100	-0,141
-683,524	-85,216	-0,099	0,023
-682,510	125,879	0,068	0,063
-681,495	-200,000	-0,003	-0,044
-680,481	268,879	-0,003	-0,004
-679,466	46,668	-0,127	-0,086
-678,451	-27,733	-0,029	0,012
-677,437	454,933	-0,054	0,088
-676,422	-18,486	0,056	0,026
-675,408	-173,954	-0,064	0,001
-674,393	121,163	0,057	-0,052
-673,378	-200,000	-0,007	-0,175
-672,364	-200,000	0,026	-0,104
-671,349	-200,000	0,014	-0,119
-670,335	128,810	-0,120	-0,112
-669,320	-165,155	0,093	0,003
-668,305	-96,589	-0,038	0,007
-667,291	-200,000	-0,020	-0,279
-666,276	-59,611	-0,125	-0,039
-665,262	-107,720	0,146	-0,023
-664,247	266,464	-0,049	-0,063
-663,232	-13,435	-0,135	0,064
-662,218	-91,375	0,057	-0,012
-661,203	-142,346	0,087	0,006
-660,189	446,627	0,075	-0,122
-659,174	76,649	0,048	-0,037
-658,159	233,473	0,027	0,032
-657,145	800,000	0,019	-0,050
-656,130	-200,000	0,008	0,089
-655,116	-177,278	0,027	0,000
-654,101	-200,000	0,012	0,094
-653,086	-200,000	0,021	-0,075
-652,072	-165,261	-0,098	0,003
-651,057	-166,650	-0,074	0,002
-650,043	-111,200	0,074	0,011
-649,028	-200,000	-0,009	-0,081
-648,014	800,000	-0,077	-0,198
-646,999	-2,776	0,025	0,013
-645,984	42,136	-0,129	0,085
-644,970	-10,443	-0,050	-0,024
-643,955	-200,000	-0,003	-0,109
-642,941	320,612	-0,042	0,059
-641,926	-25,529	-0,113	-0,049
-640,911	152,706	-0,038	-0,038
-639,897	-119,375	0,077	0,010
-638,882	-200,000	-0,006	-0,127
-637,868	3,126	-0,082	-0,043
-636,853	-200,000	0,010	-0,114
-635,838	800,000	-0,044	-0,128
-634,824	0,577	-0,098	-0,051
-633,809	-141,846	0,105	-0,008
-632,795	-10,880	-0,051	0,024
-631,780	728,957	0,034	-0,066
-630,765	-59,661	0,119	0,037
-629,751	779,735	-0,040	-0,080
-628,736	-200,000	-0,027	-0,109
-627,722	231,354	0,086	-0,103
-626,707	-200,000	-0,021	-0,115
-625,692	69,359	0,082	0,062
-624,678	132,800	0,145	0,137
-623,663	313,008	0,045	0,062
-622,649	352,897	-0,048	-0,069
-621,634	6,274	-0,074	-0,040
-620,619	-200,000	0,015	0,062
-619,605	-45,090	0,022	0,008
-618,590	-200,000	-0,013	0,136
-617,576	404,482	0,034	0,053
-616,561	-131,438	0,101	0,010
-615,546	260,357	0,034	-0,044
-614,532	-200,000	-0,013	0,058
-613,517	95,890	-0,067	-0,056
-612,503	-200,000	0,019	0,111
-611,488	26,823	0,153	0,094
-610,474	800,000	0,050	-0,126
-609,459	27,590	-0,036	0,022
-608,444	721,983	0,014	0,028
-607,430	155,111	-0,069	-0,069
-606,415	162,956	-0,128	-0,132
-605,401	70,314	-0,110	0,083
-604,386	-200,000	-0,020	-0,106
-603,371	-106,529	0,091	0,015
-602,357	-58,002	0,022	0,007
-601,342	-100,259	0,070	0,013
-600,328	800,000	0,045	-0,096
-599,313	194,904	-0,063	-0,070
-598,298	-38,150	-0,115	-0,044
-597,284	800,000	0,047	0,111
-596,269	-17,506	0,045	-0,021
-595,255	-57,816	-0,039	-0,012
-594,240	800,000	-0,014	-0,043
-593,225	800,000	-0,015	-0,045
-592,211	-200,000	-0,013	-0,085
-591,196	-80,242	-0,087	0,021
-590,182	-200,000	-0,001	0,056
-589,167	-81,628	-0,077	-0,018
-588,152	-25,296	0,106	0,046
-587,138	152,139	-0,068	0,067
-586,123	-127,861	0,046	-0,005
-585,109	685,486	0,039	-0,075
-584,094	-105,394	-0,150	-0,025
-583,079	-137,282	0,149	-0,012
-582,065	-1,591	-0,024	-0,013
-581,050	243,225	0,100	0,123
-580,036	705,010	-0,052	-0,101
-579,021	-77,235	-0,170	-0,043
-578,006	8,079	-0,119	-0,065
-576,992	-32,109	-0,099	-0,040
-575,977	-200,000	0,012	-0,131
-574,963	-18,800	-0,027	-0,012
-573,948	-200,000	-0,007	-0,050
-572,934	321,342	0,045	-0,063
-571,919	-200,000	-0,021	-0,169
-570,904	-68,033	0,110	0,031
-569,890	-103,600	0,045	-0,008
-568,875	103,720	-0,087	0,074
-567,861	-200,000	-0,002	-0,027
-566,846	47,536	-0,092	-0,063
-565,831	-156,178	-0,156	-0,007
-564,817	25,644	0,028	0,017
-563,802	120,573	-0,168	0,152
-562,788	-89,710	0,176	0,037
-561,773	-71,631	0,071	0,019
-560,758	-200,000	-0,028	-0,174
-559,744	45,438	0,099	0,067
-558,729	-26,965	-0,105	-0,045
-557,715	800,000	0,019	-0,042
-556,700	358,005	-0,051	0,075
-555,685	-200,000	0,005	-0,113
-554,671	-107,238	0,043	-0,007
-553,656	625,117	-0,027	0,051
-552,642	-200,000	-0,008	0,157
-551,627	-200,000	-0,010	0,043
-550,612	-200,000	0,015	-0,170
-549,598	-200,000	0,013	-0,046
-548,583	354,567	0,059	-0,085
-547,569	25,367	-0,136	-0,083
-546,554	302,741	0,075	0,102
-545,539	800,000	0,035	-0,078
-544,525	-65,933	-0,149	-0,043
-543,510	-88,050	-0,066	-0,014
-542,496	-200,000	0,003	-0,133
-541,481	-154,395	0,102	0,005
-540,466	-2,712	0,088	0,045
-539,452	-119,718	0,161	0,020
-538,437	-45,964	-0,140	0,050
-537,423	-15,730	-0,066	0,031
-536,408	-200,000	-0,036	0,149
-535,393	-200,000	-0,035	-0,130
-534,379	-87,668	-0,037	0,008
-533,364	800,000	0,034	0,085
-532,350	157,960	0,041	0,042
-531,335	-65,371	0,103	0,030
-530,321	213,119	-0,046	0,053
-529,306	449,388	0,024	-0,039
-528,291	178,738	-0,052	-0,056
-527,277	31,485	-0,064	-0,040
-526,262	-200,000	0,014	0,123
-525,248	330,631	0,021	-0,030
-524,233	-200,000	-0,004	0,089
-523,218	176,549	-0,058	-0,061
-522,204	-200,000	0,017	0,127
-521,189	-200,000	-0,033	-0,135
-520,175	523,082	-0,069	-0,118
-519,160	330,986	-0,015	0,021
-518,145	-118,949	-0,127	0,016
-517,131	89,881	0,115	-0,094
-516,116	34,309	0,066	0,042
-515,102	-162,019	-0,022	-0,001
-514,087	-124,844	-0,111	-0,012
-513,072	-55,277	-0,108	0,035
-512,058	223,409	0,020	-0,023
-511,043	37,524	-0,117	0,076
-510,029	64,874	-0,055	0,041
-509,014	-1,555	0,124	0,064
-507,999	130,968	0,112	-0,105
-506,985	68,813	-0,146	-0,109
-505,970	800,000	-0,058	-0,182
-504,956	-200,000	-0,039	-0,203
-503,941	228,836	0,031	-0,037
-502,926	800,000	-0,041	0,100
-501,912	-15,345	-0,051	-0,024
-500,897	-11,182	0,136	0,065
-499,883	158,184	-0,075	0,076
-498,868	4,263	-0,125	-0,066
-497,853	108,459	-0,085	-0,074
-496,839	-200,000	-0,019	-0,092
-495,824	-39,680	0,185	0,070
-494,810	246,553	0,070	0,086
-493,795	-41,060	0,044	0,016
-492,781	748,301	0,086	-0,170
-491,766	800,000	-0,048	-0,120
-490,751	195,015	0,024	-0,026
-489,737	-200,000	-0,005	-0,026
-488,722	-179,053	-0,057	-0,001
-487,708	-80,865	0,062	0,015
-486,693	-4,716	0,068	0,034
-485,678	-19,138	-0,025	0,011
-484,664	800,000	-0,013	-0,039
-483,649	-95,988	-0,142	-0,027
-482,635	800,000	0,039	-0,119
-481,620	468,916	0,044	0,072
-480,605	102,468	-0,105	0,090
-479,591	-200,000	0,007	0,128
-478,576	800,000	0,034	0,075
-477,562	-141,525	-0,023	-0,002
-476,547	282,106	0,011	-0,015
-475,532	-200,000	0,011	-0,113
-474,518	72,971	-0,048	0,037
-473,503	330,268	0,026	0,037
-472,489	-2,207	0,047	-0,024
-471,474	-125,962	0,081	-0,009
-470,459	777,275	-0,013	0,025
-469,445	165,571	-0,046	0,048
-468,430	210,048	-0,009	-0,011
-467,416	198,004	-0,040	-0,045
-466,401	-2,284	-0,081	-0,041
-465,386	81,869	0,079	-0,062
-464,372	-200,000	0,001	-0,045
-463,357	-200,000	-0,016	-0,212
-462,343	-200,000	0,026	-0,114
-461,328	16,517	-0,143	-0,082
-460,313	800,000	0,028	-0,073
-459,299	404,569	-0,037	-0,058
-458,284	495,315	0,067	0,113
-457,270	-200,000	0,002	0,102
-456,255	800,000	0,037	-0,108
-455,241	474,483	-0,079	-0,131
-454,226	-142,640	-0,130	-0,009
-453,211	304,862	0,079	0,108
-452,197	145,249	0,102	0,099
-451,182	6,796	0,093	-0,050
-450,168	-100,517	-0,057	0,010
-449,153	-14,557	0,061	0,029
-448,138	800,000	-0,015	-0,033
-447,124	-200,000	0,002	0,061
-446,109	124,825	0,052	0,048
-445,095	-200,000	0,004	-0,149
-444,080	-22,197	-0,086	0,038
-443,065	-151,299	0,056	0,003
-442,051	-163,606	-0,216	-0,007
-441,036	-13,889	0,023	-0,011
-440,022	45,495	-0,019	0,013
-439,007	35,382	0,153	-0,097
-437,992	27,968	0,040	0,024
-436,978	225,135	0,100	0,117
-435,963	-108,734	-0,159	-0,024
-434,949	60,851	-0,023	-0,016
-433,934	-97,641	-0,159	0,030
-432,919	-117,331	-0,057	0,007
-431,905	-54,462	0,057	0,019
-430,890	800,000	0,018	0,046
-429,876	770,483	0,035	-0,070
-428,861	-200,000	0,020	0,145
-427,846	661,731	0,067	0,126
-426,832	543,882	0,038	0,067
-425,817	-200,000	-0,017	-0,093
-424,803	70,475	0,153	-0,114
-423,788	-200,000	0,013	0,187
-422,773	205,701	0,064	-0,072
-421,759	13,985	0,108	0,061
-420,744	-5,636	-0,045	-0,022
-419,730	-200,000	-0,010	0,113
-418,715	-85,572	-0,054	0,012
-417,701	-28,282	0,078	0,033
-416,686	-115,145	-0,040	-0,005
-415,671	-200,000	0,021	0,070
-414,657	-81,257	0,132	-0,031
-413,642	-200,000	-0,006	0,176
-412,628	-200,000	-0,024	0,091
-411,613	800,000	0,004	-0,011
-410,598	-200,000	0,005	-0,094
-409,584	-164,694	-0,062	0,002
-408,569	-105,632	0,061	-0,010
-407,555	289,350	0,016	0,021
-406,540	-200,000	0,007	-0,062
-405,525	-41,633	-0,094	0,035
-404,511	348,583	0,051	0,073
-403,496	61,058	-0,092	-0,066
-402,482	184,344	-0,055	-0,059
-401,467	46,834	0,044	0,030
-400,452	-12,636	-0,153	0,072
-399,438	158,462	-0,076	-0,077
-398,423	220,832	0,074	0,086
-397,409	800,000	-0,022	0,045
-396,394	38,688	-0,067	-0,043
-395,379	-200,000	-0,002	0,047
-394,365	-200,000	0,021	0,080
-393,350	-200,000	0,016	-0,078
-392,336	800,000	-0,035	0,096
-391,321	-200,000	-0,013	-0,070
-390,306	79,942	0,056	-0,043
-389,292	132,633	-0,019	0,018
-388,277	103,731	0,141	0,120
-387,263	-200,000	0,009	0,054
-386,248	-200,000	0,010	0,091
-385,233	34,686	-0,135	0,085
-384,219	5,985	-0,027	-0,015
-383,204	800,000	-0,038	0,084
-382,190	800,000	0,077	-0,193
-381,175	194,006	0,037	-0,041
-380,160	-200,000	-0,012	0,042
-379,146	-79,464	0,101	0,024
-378,131	30,433	-0,021	-0,013
-377,117	-200,000	0,006	0,048
-376,102	800,000	0,066	0,144
-375,088	98,535	0,057	0,048
-374,073	233,685	-0,077	0,092
-373,058	800,000	-0,060	0,147
-372,044	-200,000	0,011	0,105
-371,029	-200,000	0,026	0,164
-370,015	-200,000	-0,007	0,126
-369,000	-148,255	-0,146	-0,009
-367,985	800,000	-0,020	0,040
-366,971	284,756	0,078	0,102
-365,956	130,593	0,114	0,106
-364,942	-113,865	0,086	-0,012
-363,927	-200,000	0,000	0,024
-362,912	-75,744	-0,037	0,009
-361,898	587,218	0,068	0,122
-360,883	-200,000	0,008	0,045
-359,869	-200,000	-0,011	-0,034
-358,854	-122,423	0,071	0,008
-357,839	430,618	-0,101	0,158
-356,825	301,350	0,125	0,168
-355,810	800,000	0,009	0,021
-354,796	772,228	-0,077	-0,153
-353,781	-200,000	0,000	-0,097
-352,766	94,414	-0,132	0,108
-351,752	800,000	0,024	0,074
-350,737	-200,000	0,024	-0,076
-349,723	-200,000	0,016	0,061
-348,708	93,643	-0,057	0,047
-347,693	-200,000	-0,012	0,040
-346,679	-200,000	-0,011	-0,052
-345,664	-159,126	0,136	0,005
-344,650	-200,000	0,022	0,143
-343,635	168,405	0,045	0,047
-342,620	161,036	0,037	-0,038
-341,606	46,136	0,035	-0,023
-340,591	430,342	-0,090	-0,142
-339,577	-150,175	-0,146	0,008
-338,562	291,101	0,087	-0,115
-337,548	-82,451	0,174	-0,041
-336,533	-169,596	0,132	-0,003
-335,518	234,758	0,021	0,025
-334,504	-200,000	0,002	0,080
-333,489	-34,983	-0,126	-0,049
-332,475	800,000	-0,070	0,209
-331,460	-39,324	-0,079	-0,030
-330,445	800,000	0,040	-0,112
-329,431	800,000	-0,031	0,086
-328,416	15,206	0,091	0,051
-327,402	-133,995	0,233	0,021
-326,387	-200,000	0,028	-0,107
-325,372	800,000	-0,056	-0,127
-324,358	58,016	0,058	0,041
-323,343	356,770	-0,017	0,025
-322,329	-82,169	0,059	0,014
-321,314	-41,704	0,081	-0,030
-320,299	800,000	0,057	0,162
-319,285	36,529	-0,165	-0,105
-318,270	800,000	0,014	-0,029
-317,256	306,977	-0,046	0,062
-316,241	-200,000	-0,012	-0,170
-315,226	-200,000	0,009	-0,044
-314,212	800,000	-0,042	0,130
-313,197	-31,419	0,074	0,030
-312,183	37,919	-0,039	-0,025
-311,168	155,431	-0,015	-0,015
-310,153	278,656	0,037	0,047
-309,139	-49,951	-0,093	-0,032
-308,124	-15,017	-0,020	0,009
-307,110	103,517	0,106	0,090
-306,095	-200,000	-0,007	0,049
-305,080	800,000	-0,050	0,146
-304,066	-200,000	0,003	0,090
-303,051	67,462	-0,081	-0,060
-302,037	800,000	0,049	-0,113
-301,022	74,661	-0,109	0,083
-300,008	536,272	0,057	0,098
-298,993	-200,000	-0,020	0,099
-297,978	-200,000	0,002	-0,083
-296,964	800,000	-0,036	-0,086
-295,949	91,780	0,152	-0,123
-294,935	103,064	-0,102	-0,087
-293,920	-200,000	0,015	-0,114
-292,905	702,074	0,025	0,049
-291,891	800,000	0,027	0,084
-290,876	-200,000	0,012	-0,072
-289,862	509,214	-0,080	0,134
-288,847	-200,000	-0,014	0,065
-287,832	603,781	0,048	0,087
-286,818	-200,000	0,006	-0,066
-285,803	167,717	0,044	-0,045
-284,789	-90,322	-0,156	0,032
-283,774	-64,322	0,113	0,033
-282,759	-43,211	-0,132	0,048
-281,745	259,099	-0,027	-0,034
-280,730	-32,260	-0,126	-0,050
-279,716	-200,000	0,018	0,135
-278,701	24,549	-0,045	-0,027
-277,686	723,113	-0,026	0,050
-276,672	-26,559	-0,032	-0,013
-275,657	108,253	0,053	0,046
-274,643	800,000	-0,024	0,059
-273,628	108,679	-0,057	-0,049
-272,613	140,538	0,104	0,100
-271,599	-149,821	-0,108	0,006
-270,584	175,387	0,037	-0,038
-269,570	-111,854	0,138	0,020
-268,555	-200,000	0,012	-0,146
-267,540	-33,807	0,133	0,053
-266,526	-200,000	-0,003	0,090
-265,511	-11,689	-0,062	0,029
-264,497	-11,638	0,019	0,009
-263,482	-105,238	0,100	0,016
-262,467	-200,000	0,022	0,082
-261,453	-106,732	-0,034	0,005
-260,438	21,157	0,058	-0,034
-259,424	216,718	-0,074	-0,085
-258,409	-99,648	0,017	0,003
-257,395	41,084	-0,093	0,061
-256,380	-43,345	0,105	-0,038
-255,365	24,532	0,049	0,029
-254,351	-42,766	0,064	0,023
-253,336	-200,000	0,006	-0,071
-252,322	-200,000	-0,000	0,044
-251,307	58,327	-0,060	0,042
-250,292	-38,695	0,141	0,054
-249,278	225,906	0,037	0,044
-248,263	89,089	0,093	0,075
-247,249	179,297	-0,020	-0,021
-246,234	-18,317	0,098	-0,044
-245,219	-131,073	-0,061	0,006
-244,205	216,982	-0,060	-0,069
-243,190	336,219	0,089	0,125
-242,176	650,321	0,036	-0,068
-241,161	48,807	0,021	-0,014
-240,146	87,648	0,041	0,033
-239,132	-30,069	-0,137	0,056
-238,117	342,085	0,065	-0,092
-237,103	-200,000	0,040	-0,181
-236,088	-200,000	-0,002	-0,130
-235,073	16,573	0,031	-0,017
-234,059	-200,000	-0,004	0,043
-233,044	354,625	0,032	0,046
-232,030	-85,716	-0,153	-0,034
-231,015	-100,682	0,057	-0,010
-230,000	315,232	0,107	-0,146
-228,986	310,619	-0,034	-0,046
-227,971	800,000	0,011	-0,030
-226,957	-127,483	0,121	0,012
-225,942	-200,000	0,007	0,088
-224,927	32,559	-0,035	0,022
-223,913	330,718	-0,022	0,030
-222,898	78,685	0,099	0,076
-221,884	-200,000	-0,005	-0,064
-220,869	10,466	-0,087	-0,047
-219,855	127,690	0,098	0,090
-218,840	416,126	-0,098	0,151
-217,825	25,785	0,025	0,015
-216,811	614,525	0,019	-0,034
-215,796	36,891	0,103	-0,066
-214,782	226,604	-0,032	-0,037
-213,767	-200,000	0,009	-0,046
-212,752	507,669	-0,022	-0,036
-211,738	-200,000	0,020	0,075
-210,723	-200,000	0,003	-0,078
-209,709	347,678	0,041	-0,059
-208,694	273,422	-0,088	0,112
-207,679	800,000	0,062	-0,154
-206,665	800,000	0,028	0,056
-205,650	178,938	0,070	-0,074
-204,636	248,624	0,149	0,182
-203,621	88,907	0,037	0,030
-202,606	-200,000	-0,016	-0,072
-201,592	800,000	-0,046	0,096
-200,577	613,576	0,021	0,038
-199,563	-100,341	-0,035	0,006
-198,548	20,167	0,146	0,084
-197,533	-200,000	-0,005	0,130
-196,519	119,290	-0,026	0,023
-195,504	-200,000	-0,022	-0,076
-194,490	-200,000	0,017	-0,121
-193,475	-200,000	-0,011	-0,051
-192,460	288,839	0,075	0,098
-191,446	-200,000	-0,001	0,031
-190,431	360,823	0,083	-0,119
-189,417	800,000	0,045	0,098
-188,402	-35,682	0,083	0,032
-187,387	-200,000	0,003	0,025
-186,373	178,881	-0,137	-0,145
-185,358	-112,898	-0,120	-0,017
-184,344	-71,574	0,041	0,011
-183,329	22,083	-0,048	-0,028
-182,315	-133,286	-0,118	-0,011
-181,300	106,071	-0,022	-0,019
-180,285	-200,000	0,009	-0,080
-179,271	-16,204	-0,091	-0,041
-178,256	-200,000	-0,012	-0,080
-177,242	183,046	-0,040	0,043
-176,227	514,687	0,091	0,153
-175,212	-28,947	0,056	-0,023
-174,198	-19,793	-0,023	-0,010
-173,183	800,000	0,051	0,109
-172,169	-200,000	0,002	-0,107
-171,154	-5,360	0,095	-0,047
-170,139	-200,000	0,017	0,066
-169,125	-3,828	-0,079	0,039
-168,110	379,755	0,083	-0,123
-167,096	-200,000	-0,005	0,052
-166,081	303,822	-0,064	-0,086
-165,066	-200,000	-0,056	-0,186
-164,052	50,540	-0,086	-0,058
-163,037	-152,137	-0,075	0,004
-162,023	-48,815	-0,043	0,015
-161,008	245,554	-0,022	-0,026
-159,993	800,000	0,040	0,088
-158,979	151,827	0,060	-0,059
-157,964	188,561	-0,129	-0,139
-156,950	-176,081	-0,114	0,002
-155,935	377,567	0,077	0,113
-154,920	-200,000	0,003	0,040
-153,906	186,852	0,095	0,102
-152,891	-32,225	-0,093	0,037
-151,877	800,000	0,084	-0,173
-150,862	-200,000	-0,018	-0,091
-149,847	-90,643	0,089	-0,018
-148,833	-200,000	0,024	0,093
-147,818	96,780	0,041	-0,034
-146,804	800,000	0,037	-0,076
-145,789	-168,590	-0,095	-0,003
-144,775	209,255	0,116	0,131
-143,760	-200,000	-0,016	0,060
-142,745	-24,697	0,092	-0,039
-141,731	-200,000	0,017	0,082
-140,716	618,421	-0,053	0,096
-139,702	-5,786	0,084	0,041
-138,687	442,073	-0,036	0,057
-137,672	263,202	0,078	0,097
-136,658	-200,000	0,035	-0,206
-135,643	800,000	0,046	-0,127
-134,629	153,220	-0,047	0,046
-133,614	-200,000	-0,007	0,168
-132,599	298,416	0,064	-0,085
-131,585	-200,000	-0,024	0,096
-130,570	800,000	0,005	0,014
-129,556	661,968	0,046	-0,085
-128,541	-200,000	0,001	-0,005
-127,526	-200,000	-0,004	-0,034
-126,512	347,980	0,084	0,120
-125,497	-75,285	-0,150	-0,038
-124,483	696,031	-0,024	0,046
-123,468	-200,000	0,013	-0,119
-122,453	-200,000	0,014	0,094
-121,439	-28,480	-0,080	0,033
-120,424	18,807	0,031	-0,018
-119,410	-200,000	-0,007	0,108
