DTS Sentinel unit serial number:	SN410029Multiplexer serial number:	ORYXHardware model number:	OX2-SRSoftware version number:	ORYX F/W v4,00 Oryx Data Collector v3.7.2.0data status	okinstallation	B6 Nyhavnadifferential loss correction	single-endedforward channel	channel 2reverse channel	N/Adate	2023/12/11time	05:55:08forward acquisition time	300,00reverse acquisition time	0,00gamma	499,1914k internal	0,3127k external	0,3127temperature offset calibration	1,0000default loss term (dB/km)	0,3820temperature slope calibration	1,0000multiplexer offset coefficient	1,0000multiplexer slope coefficient	1,0000fibre end	0,00T internal ref (°C)	19,79T ext. ref 1 (°C)	2,93T ext. ref 2 (°C)	2,95length (m)	temperature (°C)	Stokes	anti-Stokes-744,400	-129,889	0,098	0,010
-743,385	-11,145	-0,191	0,093
-742,371	-79,810	0,221	0,055
-741,356	7,771	-0,160	0,089
-740,342	-142,635	0,062	0,004
-739,327	-130,747	-0,288	0,028
-738,312	-75,468	-0,017	-0,004
-737,298	-141,641	-0,347	0,026
-736,283	-200,000	-0,008	-0,144
-735,269	-194,637	-0,278	0,002
-734,254	800,000	0,081	-0,233
-733,239	-23,631	-0,423	-0,188
-732,225	87,028	0,019	0,016
-731,210	800,000	-0,039	0,084
-730,196	-138,224	-0,015	0,001
-729,181	-8,977	0,043	-0,021
-728,167	-69,539	-0,088	0,025
-727,152	639,503	0,103	-0,197
-726,137	467,879	-0,035	0,058
-725,123	800,000	0,021	0,049
-724,108	30,186	-0,125	-0,079
-723,094	-63,793	-0,111	-0,034
-722,079	-158,548	-0,077	0,003
-721,064	-200,000	0,007	-0,212
-720,050	-200,000	0,002	-0,066
-719,035	800,000	-0,040	-0,091
-718,021	-18,433	-0,122	-0,056
-717,006	-46,171	-0,120	-0,044
-715,991	-200,000	-0,011	0,038
-714,977	-35,368	-0,162	0,065
-713,962	201,730	-0,045	-0,052
-712,948	-200,000	-0,060	0,198
-711,933	-113,424	-0,121	0,017
-710,918	800,000	0,040	0,124
-709,904	130,629	-0,063	0,060
-708,889	800,000	-0,050	-0,131
-707,875	497,829	-0,087	-0,150
-706,860	11,811	-0,062	-0,035
-705,845	-128,442	0,110	-0,011
-704,831	-122,194	0,049	0,006
-703,816	493,253	-0,039	-0,067
-702,802	-10,965	-0,060	0,030
-701,787	62,880	-0,081	-0,060
-700,772	214,756	0,042	0,050
-699,758	800,000	-0,018	-0,045
-698,743	800,000	0,059	-0,131
-697,729	7,877	-0,096	-0,054
-696,714	459,257	0,044	0,073
-695,699	164,103	0,054	-0,057
-694,685	120,670	-0,112	-0,104
-693,670	-200,000	0,003	0,060
-692,656	800,000	0,034	0,090
-691,641	202,628	0,098	0,112
-690,627	800,000	0,018	-0,045
-689,612	34,245	-0,056	-0,036
-688,597	-115,716	-0,078	-0,011
-687,583	-96,324	-0,093	-0,018
-686,568	800,000	-0,044	-0,109
-685,554	800,000	-0,067	-0,194
-684,539	-200,000	-0,003	-0,109
-683,524	-66,770	0,063	0,018
-682,510	191,014	-0,040	0,045
-681,495	367,366	0,048	-0,072
-680,481	41,055	0,063	-0,042
-679,466	800,000	0,047	-0,151
-678,451	17,182	-0,165	-0,097
-677,437	13,328	0,066	0,038
-676,422	624,236	0,024	0,044
-675,408	204,587	0,080	-0,092
-674,393	194,991	-0,070	0,080
-673,378	800,000	-0,032	0,081
-672,364	-58,270	-0,105	-0,034
-671,349	-200,000	0,052	-0,000
-670,335	-88,710	-0,104	-0,023
-669,320	472,143	-0,058	0,098
-668,305	440,906	-0,055	0,089
-667,291	369,643	0,027	-0,041
-666,276	-99,857	-0,075	-0,014
-665,262	800,000	-0,036	-0,109
-664,247	-1,067	-0,040	-0,021
-663,232	-75,763	-0,110	-0,029
-662,218	-73,426	0,137	-0,037
-661,203	-103,720	-0,236	-0,041
-660,189	-200,000	-0,030	-0,135
-659,174	627,212	-0,074	-0,140
-658,159	-137,247	-0,145	0,012
-657,145	-113,862	-0,068	-0,010
-656,130	-33,607	0,148	-0,060
-655,116	-200,000	-0,039	0,175
-654,101	473,399	-0,066	0,110
-653,086	-200,000	0,012	0,062
-652,072	-143,766	-0,171	-0,012
-651,057	380,269	0,087	-0,133
-650,043	60,899	0,057	-0,042
-649,028	32,293	0,042	0,027
-648,014	111,127	-0,071	-0,064
-646,999	562,963	-0,011	-0,021
-645,984	800,000	-0,012	0,039
-644,970	127,812	0,061	-0,057
-643,955	579,227	-0,029	-0,053
-642,941	-200,000	0,010	-0,108
-641,926	208,875	-0,097	0,113
-640,911	90,237	-0,050	0,041
-639,897	142,537	0,072	0,071
-638,882	-58,076	-0,085	0,027
-637,868	-51,756	-0,055	0,019
-636,853	-200,000	-0,070	-0,241
-635,838	154,359	0,116	-0,119
-634,824	-161,223	-0,083	-0,003
-633,809	-184,165	-0,066	-0,001
-632,795	-200,000	-0,009	0,044
-631,780	-58,965	-0,037	-0,012
-630,765	327,617	-0,011	0,016
-629,751	-155,517	-0,090	-0,004
-628,736	-200,000	-0,009	-0,077
-627,722	559,772	-0,129	-0,232
-626,707	-200,000	-0,006	0,131
-625,692	228,935	0,103	0,124
-624,678	-200,000	-0,008	-0,139
-623,663	800,000	0,031	-0,065
-622,649	423,267	-0,046	-0,073
-621,634	-200,000	0,021	-0,163
-620,619	282,806	0,039	0,051
-619,605	159,391	-0,129	0,134
-618,590	-200,000	-0,010	-0,069
-617,576	-43,467	-0,087	0,032
-616,561	47,361	-0,080	0,055
-615,546	-54,284	-0,053	-0,018
-614,532	-26,274	-0,072	0,031
-613,517	24,831	-0,138	-0,084
-612,503	-200,000	0,003	-0,023
-611,488	-200,000	-0,002	-0,037
-610,474	588,213	0,033	-0,060
-609,459	800,000	0,014	0,039
-608,444	-69,051	-0,131	-0,037
-607,430	438,409	0,060	-0,097
-606,415	800,000	-0,049	-0,106
-605,401	-200,000	0,005	0,016
-604,386	32,607	-0,090	0,057
-603,371	-200,000	-0,006	-0,027
-602,357	150,307	0,091	0,091
-601,342	-43,336	0,098	0,036
-600,328	18,094	-0,104	0,061
-599,313	-126,218	-0,033	0,004
-598,298	782,060	-0,026	0,054
-597,284	64,123	-0,056	-0,042
-596,269	260,480	0,111	0,143
-595,255	800,000	-0,023	0,060
-594,240	-200,000	-0,018	-0,125
-593,225	800,000	-0,049	-0,130
-592,211	409,318	0,044	-0,069
-591,196	-200,000	0,015	-0,081
-590,182	79,000	-0,085	0,067
-589,167	-92,778	0,104	-0,021
-588,152	257,391	0,025	-0,033
-587,138	-3,469	0,073	0,037
-586,123	320,683	-0,081	-0,114
-585,109	94,505	-0,094	-0,079
-584,094	-48,134	0,065	0,023
-583,079	13,370	-0,067	0,038
-582,065	105,775	-0,012	0,011
-581,050	-11,662	-0,158	0,077
-580,036	-31,263	-0,064	0,027
-579,021	119,452	-0,043	-0,039
-578,006	-16,620	-0,047	0,022
-576,992	511,050	0,030	0,052
-575,977	-200,000	0,008	0,042
-574,963	-200,000	-0,010	0,077
-573,948	91,744	0,060	-0,050
-572,934	-91,528	-0,141	-0,029
-571,919	424,095	-0,069	-0,110
-570,904	-200,000	-0,000	-0,121
-569,890	-200,000	0,004	-0,071
-568,875	268,293	0,043	0,056
-567,861	-200,000	0,007	0,024
-566,846	303,378	-0,031	0,042
-565,831	-200,000	0,014	0,059
-564,817	-104,149	0,125	-0,021
-563,802	-82,296	-0,060	0,014
-562,788	-29,985	-0,075	0,031
-561,773	-116,254	0,208	-0,028
-560,758	-33,430	0,128	0,052
-559,744	-200,000	0,047	0,159
-558,729	800,000	-0,016	0,041
-557,715	174,704	-0,093	-0,100
-556,700	-200,000	0,002	0,027
-555,685	313,813	-0,101	-0,140
-554,671	-91,271	-0,034	-0,007
-553,656	800,000	0,016	0,040
-552,642	50,192	0,092	-0,064
-551,627	-200,000	-0,005	-0,059
-550,612	-31,594	-0,045	-0,019
-549,598	-138,093	-0,089	0,007
-548,583	-200,000	-0,002	-0,080
-547,569	427,384	0,040	-0,065
-546,554	545,793	0,025	0,044
-545,539	26,926	-0,048	-0,030
-544,525	800,000	0,043	0,139
-543,510	169,859	-0,089	-0,094
-542,496	-200,000	0,015	0,124
-541,481	531,448	-0,008	0,014
-540,466	28,773	-0,060	-0,037
-539,452	800,000	-0,018	0,046
-538,437	-28,667	0,108	0,046
-537,423	800,000	0,063	0,140
-536,408	449,390	0,107	0,175
-535,393	22,393	-0,112	0,068
-534,379	27,839	0,051	-0,032
-533,364	131,996	-0,035	0,034
-532,350	211,730	0,061	-0,071
-531,335	348,160	-0,140	0,205
-530,321	800,000	-0,019	-0,058
-529,306	-200,000	-0,033	0,113
-528,291	81,329	-0,029	-0,023
-527,277	-200,000	0,001	0,058
-526,262	800,000	-0,020	-0,052
-525,248	61,058	0,048	-0,035
-524,233	-61,333	0,051	0,016
-523,218	642,327	-0,028	0,053
-522,204	-161,927	0,040	0,001
-521,189	560,091	0,041	-0,073
-520,175	218,780	-0,062	-0,074
-519,160	-200,000	0,013	-0,148
-518,145	79,493	0,015	-0,011
-517,131	5,302	0,105	0,057
-516,116	-200,000	-0,003	0,135
-515,102	-200,000	-0,017	0,098
-514,087	-200,000	-0,038	-0,131
-513,072	301,918	0,043	-0,059
-512,058	348,737	0,018	-0,027
-511,043	283,356	-0,075	0,100
-510,029	-200,000	0,019	0,103
-509,014	-51,291	0,046	0,016
-507,999	321,010	0,060	-0,084
-506,985	55,576	-0,124	-0,088
-505,970	800,000	0,035	-0,093
-504,956	365,926	-0,094	-0,140
-503,941	-89,273	-0,096	0,021
-502,926	-104,064	0,164	-0,028
-501,912	223,667	-0,035	0,042
-500,897	-200,000	-0,002	0,191
-499,883	-200,000	-0,000	0,038
-498,868	117,384	-0,067	-0,061
-497,853	-33,513	-0,109	0,044
-496,839	-111,965	0,032	0,005
-495,824	-81,214	0,125	0,030
-494,810	209,975	-0,042	0,049
-493,795	56,606	0,101	-0,072
-492,781	770,641	-0,048	-0,098
-491,766	8,019	-0,038	-0,021
-490,751	241,795	-0,073	0,090
-489,737	-57,712	-0,034	0,011
-488,722	-200,000	-0,008	0,037
-487,708	800,000	-0,066	0,166
-486,693	10,553	-0,108	0,060
-485,678	-29,448	-0,153	-0,064
-484,664	96,332	0,163	-0,137
-483,649	18,989	0,123	-0,072
-482,635	800,000	-0,045	-0,127
-481,620	292,790	0,017	-0,023
-480,605	-200,000	-0,016	0,089
-479,591	-61,597	0,031	0,010
-478,576	8,268	-0,209	0,116
-477,562	-200,000	-0,009	0,070
-476,547	647,341	0,048	0,091
-475,532	-134,369	0,064	0,006
-474,518	-47,852	-0,058	0,021
-473,503	-130,764	0,180	0,018
-472,489	-200,000	0,000	-0,031
-471,474	234,633	0,049	0,059
-470,459	-116,489	0,063	-0,009
-469,445	-200,000	0,002	0,086
-468,430	99,221	0,058	0,049
-467,416	81,961	0,033	-0,026
-466,401	-200,000	-0,014	-0,093
-465,386	432,585	0,050	-0,081
-464,372	420,994	0,027	0,042
-463,357	61,957	-0,041	-0,030
-462,343	212,528	0,095	-0,111
-461,328	-200,000	0,006	0,088
-460,313	-30,082	-0,064	-0,027
-459,299	-102,373	0,109	0,019
-458,284	482,743	0,060	0,100
-457,270	800,000	0,023	0,065
-456,255	-39,488	-0,072	-0,028
-455,241	-154,919	0,003	-0,000
-454,226	300,746	-0,038	0,051
-453,211	139,930	0,084	0,082
-452,197	464,790	0,054	0,090
-451,182	-31,147	-0,088	-0,036
-450,168	257,022	0,042	0,054
-449,153	501,038	-0,034	-0,059
-448,138	-35,751	-0,061	-0,024
-447,124	239,789	-0,053	-0,066
-446,109	752,601	0,005	0,010
-445,095	-200,000	-0,004	0,062
-444,080	33,261	-0,019	-0,012
-443,065	749,111	-0,045	0,090
-442,051	800,000	-0,016	-0,044
-441,036	306,774	-0,006	-0,008
-440,022	-200,000	0,064	-0,209
-439,007	363,089	0,091	-0,135
-437,992	-112,503	0,071	-0,010
-436,978	30,500	0,107	0,067
-435,963	63,169	-0,106	0,078
-434,949	729,161	-0,031	0,062
-433,934	19,109	0,099	-0,058
-432,919	-34,375	-0,023	-0,009
-431,905	96,577	0,068	-0,057
-430,890	323,177	0,056	-0,078
-429,876	-93,965	0,059	0,012
-428,861	800,000	0,013	-0,037
-427,846	-115,003	0,066	-0,009
-426,832	-200,000	0,022	-0,147
-425,817	167,643	-0,103	0,107
-424,803	-123,677	-0,125	-0,014
-423,788	304,303	0,063	0,087
-422,773	648,642	-0,051	0,097
-421,759	-200,000	0,023	0,082
-420,744	40,535	0,155	0,103
-419,730	-200,000	0,004	-0,059
-418,715	53,543	-0,028	0,020
-417,701	-11,851	0,102	-0,049
-416,686	65,925	0,030	-0,022
-415,671	-200,000	-0,011	0,102
-414,657	51,387	-0,051	0,035
-413,642	-76,337	-0,095	-0,024
-412,628	747,102	0,044	0,087
-411,613	15,045	-0,168	-0,097
-410,598	160,975	-0,063	0,064
-409,584	-106,908	0,023	0,004
-408,569	-141,618	-0,048	-0,003
-407,555	-200,000	-0,026	0,106
-406,540	800,000	0,041	0,094
-405,525	-64,349	0,190	0,056
-404,511	176,820	-0,023	0,025
-403,496	-200,000	-0,008	0,080
-402,482	265,184	0,057	0,073
-401,467	-29,844	0,015	0,006
-400,452	79,154	0,081	-0,064
-399,438	151,635	-0,069	0,069
-398,423	-165,158	0,087	0,003
-397,409	-200,000	-0,016	-0,082
-396,394	-68,095	0,143	-0,041
-395,379	146,064	-0,046	0,045
-394,365	-122,402	0,033	0,004
-393,350	-139,925	0,068	0,005
-392,336	-35,620	0,084	0,033
-391,321	-0,066	-0,026	-0,013
-390,306	-200,000	-0,023	-0,076
-389,292	269,951	0,018	-0,023
-388,277	-129,275	-0,023	-0,002
-387,263	-82,194	-0,050	0,012
-386,248	87,363	-0,019	-0,015
-385,233	-109,460	-0,110	0,017
-384,219	150,598	0,061	-0,061
-383,204	-200,000	0,011	-0,183
-382,190	800,000	-0,046	-0,136
-381,175	-147,476	-0,016	-0,001
-380,160	-172,878	0,216	0,005
-379,146	422,326	-0,019	0,031
-378,131	-1,868	0,030	-0,016
-377,117	800,000	-0,007	-0,017
-376,102	-200,000	-0,008	0,045
-375,088	202,745	-0,126	-0,143
-374,073	83,495	0,099	-0,079
-373,058	-148,641	0,141	-0,008
-372,044	-200,000	0,008	0,036
-371,029	-200,000	-0,006	0,049
-370,015	-148,353	0,056	0,003
-369,000	97,895	-0,008	-0,006
-367,985	-45,898	0,002	-0,001
-366,971	-48,942	-0,040	-0,014
-365,956	-200,000	-0,003	0,051
-364,942	-167,159	0,067	-0,002
-363,927	42,468	0,060	0,040
-362,912	-200,000	0,016	-0,138
-361,898	151,527	0,037	-0,037
-360,883	800,000	0,007	0,017
-359,869	800,000	-0,057	-0,156
-358,854	36,100	-0,090	-0,058
-357,839	174,920	0,100	0,106
-356,825	-123,288	0,190	-0,022
-355,810	691,999	0,018	-0,034
-354,796	-100,472	-0,167	0,030
-353,781	22,384	-0,178	0,107
-352,766	621,612	-0,042	-0,078
-351,752	69,589	-0,070	0,053
-350,737	800,000	-0,032	0,099
-349,723	14,955	0,059	-0,034
-348,708	57,902	0,162	-0,116
-347,693	800,000	-0,026	0,053
-346,679	122,796	-0,030	-0,028
-345,664	393,116	-0,032	-0,049
-344,650	-137,264	0,105	-0,009
-343,635	462,386	-0,011	-0,019
-342,620	-111,591	0,145	0,021
-341,606	-41,828	-0,075	0,028
-340,591	800,000	-0,036	-0,104
-339,577	800,000	0,038	-0,089
-338,562	-200,000	0,014	-0,171
-337,548	-107,294	-0,042	-0,007
-336,533	800,000	0,090	0,199
-335,518	-135,305	0,165	-0,014
-334,504	-200,000	-0,003	0,070
-333,489	20,836	0,068	-0,040
-332,475	-146,902	-0,066	0,004
-331,460	1,972	0,112	-0,059
-330,445	-200,000	0,028	-0,142
-329,431	-200,000	-0,017	0,111
-328,416	775,684	0,032	0,064
-327,402	800,000	-0,053	-0,114
-326,387	-200,000	-0,010	0,059
-325,372	800,000	0,028	-0,064
-324,358	362,632	-0,025	-0,038
-323,343	-32,431	-0,124	-0,050
-322,329	-101,522	0,101	0,018
-321,314	-200,000	-0,015	0,061
-320,299	15,273	-0,047	-0,027
-319,285	136,413	0,078	0,074
-318,270	339,454	-0,033	0,047
-317,256	-172,781	-0,137	-0,003
-316,241	114,834	-0,022	-0,020
-315,226	30,677	-0,113	0,071
-314,212	800,000	0,023	0,053
-313,197	-200,000	-0,012	0,192
-312,183	800,000	-0,039	0,085
-311,168	800,000	-0,010	0,027
-310,153	406,845	-0,043	-0,067
-309,139	191,709	0,077	-0,086
-308,124	800,000	-0,012	-0,030
-307,110	359,430	-0,037	-0,055
-306,095	345,273	-0,037	-0,053
-305,080	284,503	0,030	0,039
-304,066	-134,440	0,093	-0,008
-303,051	-200,000	-0,014	0,081
-302,037	-1,451	0,140	0,072
-301,022	469,411	-0,068	-0,112
-300,008	61,105	0,149	0,108
-298,993	424,049	-0,025	-0,039
-297,978	378,845	0,064	-0,096
-296,964	73,654	0,050	0,038
-295,949	800,000	0,013	-0,032
-294,935	800,000	-0,008	0,019
-293,920	15,081	0,093	-0,053
-292,905	800,000	-0,009	0,024
-291,891	-200,000	-0,020	0,169
-290,876	198,180	-0,074	0,083
-289,862	-111,295	0,111	0,016
-288,847	13,710	-0,119	-0,067
-287,832	-20,060	0,016	0,007
-286,818	36,373	0,045	0,029
-285,803	800,000	0,023	-0,050
-284,789	-71,104	-0,049	-0,013
-283,774	12,130	0,090	0,050
-282,759	488,808	0,090	0,150
-281,745	-58,152	0,093	-0,029
-280,730	14,541	-0,100	-0,057
-279,716	-200,000	0,005	-0,052
-278,701	93,051	-0,128	0,106
-277,686	-200,000	-0,007	0,087
-276,672	-200,000	-0,010	0,095
-275,657	44,819	-0,058	0,039
-274,643	-68,129	-0,136	-0,039
-273,628	46,669	-0,059	-0,040
-272,613	-140,509	-0,074	0,006
-271,599	800,000	0,024	-0,052
-270,584	800,000	0,031	-0,082
-269,570	-20,449	0,079	-0,036
-268,555	800,000	0,026	-0,060
-267,540	-200,000	-0,021	-0,096
-266,526	415,468	-0,055	-0,086
-265,511	-150,374	-0,037	-0,002
-264,497	-156,008	0,077	0,004
-263,482	-6,131	0,046	0,023
-262,467	-200,000	-0,012	-0,085
-261,453	-22,123	0,036	0,016
-260,438	84,569	-0,040	-0,032
-259,424	-200,000	0,022	0,180
-258,409	109,607	-0,059	0,052
-257,395	184,995	0,060	0,065
-256,380	-97,183	-0,065	-0,012
-255,365	188,950	0,054	0,060
-254,351	-200,000	-0,009	0,096
-253,336	55,579	-0,069	0,049
-252,322	-200,000	-0,012	-0,122
-251,307	26,688	0,088	0,054
-250,292	15,171	0,038	-0,021
-249,278	-200,000	0,005	0,101
-248,263	110,904	0,071	-0,062
-247,249	360,284	-0,062	0,091
-246,234	-200,000	-0,019	-0,076
-245,219	419,556	-0,078	-0,123
-244,205	-200,000	-0,141	0,000
-243,190	-200,000	0,010	0,139
-242,176	800,000	0,041	-0,129
-241,161	-20,311	-0,116	0,052
-240,146	-8,048	-0,056	-0,027
-239,132	-76,292	-0,005	0,001
-238,117	-200,000	-0,041	0,149
-237,103	-62,852	0,090	0,027
-236,088	178,314	0,123	-0,131
-235,073	-100,790	0,187	-0,033
-234,059	-200,000	0,005	0,155
-233,044	-3,196	-0,167	-0,085
-232,030	-200,000	0,005	0,082
-231,015	-136,433	0,102	0,009
-230,000	100,766	0,074	-0,063
-228,986	-77,807	-0,110	0,027
-227,971	48,006	-0,091	-0,062
-226,957	-83,072	0,164	-0,038
-225,942	-200,000	-0,018	0,080
-224,927	477,474	-0,021	-0,034
-223,913	106,695	0,082	-0,071
-222,898	68,430	-0,081	-0,060
-221,884	85,264	0,017	-0,013
-220,869	-200,000	0,008	0,048
-219,855	-200,000	-0,009	-0,035
-218,840	-32,808	0,089	0,036
-217,825	-30,141	0,125	0,051
-216,811	114,976	-0,074	-0,065
-215,796	-84,687	-0,074	0,017
-214,782	-101,384	-0,007	0,001
-213,767	-166,332	-0,049	0,001
-212,752	800,000	0,011	0,031
-211,738	203,585	-0,056	0,063
-210,723	-71,990	0,083	0,022
-209,709	-81,188	-0,025	-0,006
-208,694	-16,108	-0,121	-0,056
-207,679	184,661	0,050	-0,054
-206,665	-200,000	0,022	0,074
-205,650	357,555	0,080	0,117
-204,636	-150,238	-0,031	0,002
-203,621	91,115	-0,114	-0,094
-202,606	56,939	0,077	-0,054
-201,592	53,613	0,050	0,035
-200,577	410,666	-0,075	-0,117
-199,563	-140,603	0,163	0,012
-198,548	800,000	0,017	0,051
-197,533	-29,465	0,115	0,048
-196,519	-200,000	0,010	-0,033
-195,504	507,060	-0,046	-0,079
-194,490	656,267	-0,012	-0,022
-193,475	23,321	-0,135	-0,080
-192,460	-200,000	0,044	-0,161
-191,446	494,105	0,021	0,035
-190,431	54,097	-0,003	0,002
-189,417	41,425	0,012	0,008
-188,402	-200,000	0,012	-0,078
-187,387	-200,000	-0,009	-0,078
-186,373	11,456	-0,044	-0,024
-185,358	800,000	0,013	-0,042
-184,344	-62,419	0,089	0,027
-183,329	-200,000	-0,019	0,111
-182,315	70,316	0,110	0,083
-181,300	-200,000	0,006	0,039
-180,285	-60,097	-0,077	0,024
-179,271	166,828	-0,040	-0,042
-178,256	-138,867	-0,093	-0,007
-177,242	-109,824	0,089	-0,014
-176,227	92,382	0,089	0,073
-175,212	-1,137	0,024	0,012
-174,198	26,252	-0,137	0,083
-173,183	800,000	0,048	-0,111
-172,169	-170,343	0,026	-0,001
-171,154	154,276	0,071	-0,071
-170,139	160,313	0,033	0,033
-169,125	304,466	-0,087	0,118
-168,110	6,118	-0,023	0,012
-167,096	-53,236	-0,078	0,026
-166,081	-67,173	0,005	0,002
-165,066	236,692	-0,077	-0,093
-164,052	-83,993	0,060	0,014
-163,037	68,358	0,048	0,036
-162,023	79,343	0,074	0,058
-161,008	-200,000	-0,007	0,115
-159,993	-200,000	-0,031	-0,115
-158,979	21,083	0,038	0,022
-157,964	594,908	0,026	-0,048
-156,950	424,294	-0,038	0,059
-155,935	339,491	-0,051	-0,073
-154,920	-75,427	-0,089	0,023
-153,906	-200,000	0,024	0,113
-152,891	217,117	-0,009	-0,010
-151,877	-73,928	-0,060	-0,016
-150,862	332,842	-0,014	0,020
-149,847	-60,629	0,039	-0,012
-148,833	35,971	-0,054	0,034
-147,818	78,053	0,115	0,089
-146,804	-91,051	-0,105	0,022
-145,789	-28,997	-0,170	0,071
-144,775	-200,000	0,002	-0,022
-143,760	231,091	0,117	-0,139
-142,745	-83,872	-0,110	-0,025
-141,731	-69,354	-0,140	-0,039
-140,716	181,767	-0,105	-0,113
-139,702	92,674	0,081	-0,066
-138,687	-11,462	0,065	0,031
-137,672	-48,895	0,057	-0,020
-136,658	-59,209	-0,071	-0,022
-135,643	-51,177	-0,180	-0,061
-134,629	-138,280	0,117	0,009
-133,614	43,229	0,063	-0,042
-132,599	-200,000	0,003	0,026
-131,585	703,630	-0,056	0,109
-130,570	-200,000	-0,010	-0,060
-129,556	-200,000	0,013	0,061
-128,541	99,843	-0,038	0,032
-127,526	800,000	-0,015	-0,042
-126,512	365,531	-0,020	0,029
-125,497	-104,485	-0,044	-0,007
-124,483	270,005	-0,035	0,044
-123,468	-200,000	-0,025	0,160
-122,453	364,820	-0,130	-0,191
-121,439	86,496	-0,090	-0,072
-120,424	22,693	-0,056	0,033
-119,410	-159,467	0,054	-0,002
