DTS Sentinel unit serial number:	SN410029Multiplexer serial number:	ORYXHardware model number:	OX2-SRSoftware version number:	ORYX F/W v4,00 Oryx Data Collector v3.7.2.0data status	okinstallation	B6 Nyhavnadifferential loss correction	single-endedforward channel	channel 2reverse channel	N/Adate	2023/12/10time	16:00:08forward acquisition time	300,00reverse acquisition time	0,00gamma	499,1914k internal	0,3123k external	0,3123temperature offset calibration	1,0000default loss term (dB/km)	0,3820temperature slope calibration	1,0000multiplexer offset coefficient	1,0000multiplexer slope coefficient	1,0000fibre end	0,00T internal ref (°C)	22,37T ext. ref 1 (°C)	6,04T ext. ref 2 (°C)	6,03length (m)	temperature (°C)	Stokes	anti-Stokes-744,400	-59,863	0,097	0,031
-743,385	87,346	-0,127	0,104
-742,371	1,122	0,092	0,049
-741,356	-74,123	-0,312	0,084
-740,342	9,569	0,127	0,071
-739,327	46,972	-0,079	0,055
-738,312	-3,970	0,073	-0,037
-737,298	-116,075	-0,298	0,041
-736,283	-200,000	0,010	-0,080
-735,269	-17,059	-0,156	0,073
-734,254	-39,285	0,097	0,038
-733,239	-59,736	-0,359	-0,114
-732,225	226,451	0,108	0,131
-731,210	-200,000	0,024	0,124
-730,196	-200,000	0,001	-0,081
-729,181	394,454	0,020	0,032
-728,167	-200,000	-0,026	-0,106
-727,152	-38,745	0,118	0,046
-726,137	-114,183	-0,190	-0,027
-725,123	800,000	0,012	0,029
-724,108	800,000	-0,019	-0,048
-723,094	-200,000	-0,037	-0,149
-722,079	-200,000	-0,012	-0,175
-721,064	-200,000	0,023	-0,123
-720,050	-200,000	-0,004	-0,059
-719,035	174,924	0,020	0,022
-718,021	445,684	0,081	-0,133
-717,006	-49,954	-0,108	0,038
-715,991	-200,000	-0,043	-0,170
-714,977	800,000	0,025	-0,053
-713,962	137,553	-0,029	-0,028
-712,948	800,000	-0,031	-0,091
-711,933	-200,000	0,035	-0,137
-710,918	-95,917	-0,176	0,035
-709,904	13,297	-0,131	-0,075
-708,889	2,650	-0,087	-0,047
-707,875	-200,000	-0,028	0,000
-706,860	96,262	-0,026	0,022
-705,845	28,681	0,049	0,031
-704,831	-200,000	-0,002	0,024
-703,816	556,613	0,016	0,029
-702,802	-10,762	0,155	-0,076
-701,787	451,982	0,072	-0,119
-700,772	19,402	0,054	0,032
-699,758	-13,651	-0,094	-0,045
-698,743	681,260	-0,082	0,160
-697,729	800,000	0,030	0,064
-696,714	-200,000	-0,013	-0,072
-695,699	-200,000	-0,013	-0,057
-694,685	81,573	0,067	0,054
-693,670	14,383	-0,079	-0,046
-692,656	-200,000	0,038	0,155
-691,641	-141,751	-0,062	0,005
-690,627	718,312	0,044	-0,088
-689,612	13,932	0,084	-0,049
-688,597	800,000	-0,050	-0,128
-687,583	399,263	-0,025	0,039
-686,568	-52,745	-0,125	0,043
-685,554	55,118	0,084	-0,060
-684,539	-190,145	0,133	0,001
-683,524	800,000	0,015	0,032
-682,510	-200,000	-0,021	0,157
-681,495	-168,441	-0,055	0,002
-680,481	165,025	-0,026	-0,027
-679,466	334,813	0,041	0,059
-678,451	-112,792	-0,009	-0,001
-677,437	-27,876	0,080	-0,034
-676,422	-96,063	0,072	0,014
-675,408	74,979	0,038	-0,029
-674,393	-200,000	-0,011	-0,077
-673,378	-200,000	-0,031	-0,151
-672,364	-200,000	0,018	-0,068
-671,349	676,320	-0,027	-0,053
-670,335	50,340	-0,047	0,033
-669,320	-79,591	-0,051	-0,013
-668,305	-12,770	0,137	0,066
-667,291	128,331	-0,057	0,054
-666,276	181,674	-0,029	0,032
-665,262	15,391	-0,046	-0,027
-664,247	-200,000	-0,009	-0,057
-663,232	148,759	0,031	-0,031
-662,218	-51,521	0,150	0,052
-661,203	31,729	0,070	-0,044
-660,189	640,259	0,063	-0,120
-659,174	800,000	0,015	-0,037
-658,159	468,361	0,033	-0,055
-657,145	-104,724	-0,039	-0,007
-656,130	-200,000	0,013	-0,153
-655,116	225,448	-0,025	-0,030
-654,101	800,000	-0,026	0,062
-653,086	-21,390	0,106	0,048
-652,072	-138,030	-0,077	0,006
-651,057	-95,108	0,146	0,029
-650,043	-194,088	-0,071	0,000
-649,028	-200,000	-0,007	-0,033
-648,014	424,163	-0,031	-0,049
-646,999	129,181	0,120	0,113
-645,984	8,325	-0,073	-0,041
-644,970	-200,000	-0,027	-0,134
-643,955	-200,000	-0,004	-0,043
-642,941	-117,677	-0,047	0,006
-641,926	-118,363	-0,111	-0,014
-640,911	705,587	-0,027	0,054
-639,897	171,685	0,021	-0,022
-638,882	-72,804	0,096	-0,026
-637,868	4,791	-0,159	-0,086
-636,853	-200,000	0,004	0,016
-635,838	-20,458	0,093	0,042
-634,824	-81,071	-0,095	0,023
-633,809	800,000	0,064	-0,185
-632,795	-200,000	0,006	0,060
-631,780	308,472	-0,066	0,092
-630,765	-124,111	-0,117	-0,013
-629,751	-200,000	-0,001	-0,115
-628,736	800,000	-0,047	-0,099
-627,722	25,791	0,049	-0,030
-626,707	-200,000	-0,008	-0,033
-625,692	-200,000	0,008	-0,068
-624,678	644,666	-0,039	0,073
-623,663	800,000	-0,017	-0,048
-622,649	-200,000	0,012	-0,112
-621,634	-119,100	-0,046	-0,006
-620,619	108,337	0,021	-0,019
-619,605	17,049	0,102	0,060
-618,590	-135,506	-0,063	0,006
-617,576	18,786	-0,032	-0,019
-616,561	753,876	-0,036	-0,072
-615,546	2,884	-0,184	-0,099
-614,532	-200,000	0,003	-0,121
-613,517	0,819	0,040	0,021
-612,503	800,000	0,061	-0,155
-611,488	114,727	-0,038	-0,034
-610,474	209,554	-0,088	0,102
-609,459	-87,386	-0,111	-0,025
-608,444	-24,854	0,095	-0,041
-607,430	-89,939	0,146	-0,031
-606,415	-77,043	-0,095	-0,025
-605,401	800,000	-0,015	0,046
-604,386	-200,000	0,000	-0,035
-603,371	52,485	0,078	0,055
-602,357	-197,447	0,094	-0,000
-601,342	-90,348	-0,122	0,026
-600,328	800,000	-0,044	-0,092
-599,313	-115,347	0,158	0,022
-598,298	7,716	-0,083	-0,046
-597,284	-200,000	0,001	-0,016
-596,269	759,380	0,019	0,039
-595,255	-200,000	0,009	-0,049
-594,240	38,811	-0,140	0,093
-593,225	-200,000	0,006	-0,085
-592,211	-200,000	0,008	-0,037
-591,196	-139,963	-0,123	0,009
-590,182	-133,429	0,136	-0,013
-589,167	-200,000	-0,025	-0,113
-588,152	8,524	-0,005	-0,003
-587,138	-200,000	-0,013	-0,103
-586,123	-200,000	0,010	0,050
-585,109	594,920	0,019	0,035
-584,094	800,000	-0,015	0,037
-583,079	-200,000	-0,004	0,087
-582,065	-0,955	-0,041	-0,021
-581,050	-49,467	0,136	-0,048
-580,036	-183,364	-0,173	0,002
-579,021	800,000	0,052	-0,114
-578,006	270,093	0,120	0,157
-576,992	-31,698	0,146	-0,060
-575,977	-200,000	-0,063	-0,000
-574,963	-28,109	0,059	-0,025
-573,948	50,961	-0,063	-0,044
-572,934	-200,000	0,000	0,002
-571,919	800,000	0,028	-0,062
-570,904	272,198	-0,002	-0,003
-569,890	-200,000	0,009	-0,046
-568,875	-89,159	0,040	-0,009
-567,861	-161,114	-0,079	-0,003
-566,846	800,000	0,054	0,117
-565,831	317,328	-0,040	-0,056
-564,817	662,242	0,018	0,035
-563,802	313,122	0,089	-0,124
-562,788	63,221	0,014	-0,010
-561,773	800,000	0,033	0,084
-560,758	-154,758	0,215	0,010
-559,744	140,127	-0,118	-0,116
-558,729	-200,000	0,013	0,141
-557,715	189,220	-0,019	-0,021
-556,700	800,000	0,034	0,083
-555,685	56,887	-0,084	0,060
-554,671	-200,000	-0,008	0,083
-553,656	-77,692	0,073	-0,019
-552,642	-6,901	0,059	-0,029
-551,627	-1,185	-0,080	-0,041
-550,612	-200,000	-0,003	0,092
-549,598	800,000	-0,016	-0,046
-548,583	-200,000	-0,021	0,141
-547,569	4,610	-0,041	-0,022
-546,554	423,456	0,041	0,066
-545,539	-6,538	0,057	-0,028
-544,525	-26,575	-0,078	-0,034
-543,510	-137,809	0,065	-0,005
-542,496	176,524	-0,094	-0,101
-541,481	-200,000	0,015	0,079
-540,466	579,360	0,027	-0,050
-539,452	-81,672	-0,035	-0,009
-538,437	79,440	0,037	-0,029
-537,423	99,538	0,050	-0,043
-536,408	58,139	0,032	-0,023
-535,393	161,439	-0,081	-0,084
-534,379	94,565	-0,048	-0,041
-533,364	477,315	0,027	0,046
-532,350	150,700	-0,023	-0,024
-531,335	-76,861	0,061	-0,016
-530,321	800,000	-0,022	-0,047
-529,306	800,000	0,011	0,030
-528,291	49,806	-0,017	-0,012
-527,277	47,195	-0,056	-0,038
-526,262	119,429	0,057	0,053
-525,248	444,151	0,067	0,108
-524,233	-61,230	0,203	0,063
-523,218	2,580	0,119	0,064
-522,204	800,000	-0,033	0,104
-521,189	127,637	-0,051	-0,048
-520,175	800,000	-0,012	-0,032
-519,160	-200,000	-0,007	-0,085
-518,145	705,470	-0,007	-0,014
-517,131	81,034	0,125	-0,099
-516,116	79,181	-0,020	0,016
-515,102	82,375	-0,025	0,020
-514,087	-200,000	0,009	-0,033
-513,072	-102,360	-0,034	-0,006
-512,058	800,000	-0,028	0,090
-511,043	-118,081	-0,152	0,020
-510,029	-79,025	0,091	0,023
-509,014	-200,000	0,026	0,107
-507,999	800,000	0,011	0,028
-506,985	696,788	-0,043	-0,084
-505,970	592,604	-0,046	0,084
-504,956	-200,000	-0,018	-0,133
-503,941	-200,000	-0,018	-0,061
-502,926	455,691	-0,005	-0,008
-501,912	561,359	0,009	0,016
-500,897	-114,727	0,074	0,010
-499,883	-48,276	-0,044	0,016
-498,868	-200,000	-0,017	-0,128
-497,853	156,784	-0,089	-0,091
-496,839	52,144	-0,053	-0,037
-495,824	-147,094	0,071	0,004
-494,810	33,132	0,107	0,068
-493,795	117,031	-0,103	0,094
-492,781	26,899	0,124	0,077
-491,766	-200,000	-0,001	0,028
-490,751	157,578	-0,087	-0,089
-489,737	-95,257	0,054	0,011
-488,722	-8,713	-0,069	0,034
-487,708	59,932	0,114	0,083
-486,693	-1,256	-0,117	0,061
-485,678	-51,983	0,008	0,003
-484,664	-200,000	0,020	-0,164
-483,649	-200,000	-0,051	-0,168
-482,635	72,759	0,111	0,085
-481,620	-200,000	0,002	-0,024
-480,605	-169,602	0,054	0,001
-479,591	-200,000	0,022	0,089
-478,576	133,127	-0,071	0,067
-477,562	-200,000	-0,023	-0,108
-476,547	-98,919	-0,169	0,031
-475,532	673,377	-0,012	-0,023
-474,518	-186,988	0,184	-0,002
-473,503	800,000	0,006	-0,014
-472,489	-200,000	0,003	0,021
-471,474	374,074	-0,058	-0,087
-470,459	-200,000	-0,004	-0,069
-469,445	122,305	-0,131	0,121
-468,430	800,000	0,063	-0,157
-467,416	-200,000	-0,028	-0,137
-466,401	172,207	0,089	0,095
-465,386	800,000	-0,040	0,093
-464,372	-200,000	0,018	0,111
-463,357	-200,000	0,021	-0,087
-462,343	-200,000	-0,005	0,067
-461,328	-200,000	-0,016	0,061
-460,313	33,490	0,059	-0,038
-459,299	95,015	0,069	-0,058
-458,284	78,618	0,068	0,053
-457,270	-22,629	-0,014	-0,006
-456,255	-1,257	-0,043	-0,022
-455,241	-65,020	-0,065	0,019
-454,226	-28,489	-0,219	-0,093
-453,211	800,000	0,015	-0,039
-452,197	-200,000	0,004	0,039
-451,182	-111,744	0,108	-0,016
-450,168	-200,000	0,011	0,099
-449,153	-200,000	0,003	0,103
-448,138	-200,000	0,020	0,089
-447,124	-200,000	-0,017	-0,059
-446,109	771,741	0,012	-0,025
-445,095	687,220	0,058	-0,112
-444,080	145,130	0,105	0,104
-443,065	370,193	-0,033	-0,049
-442,051	-64,723	-0,021	-0,006
-441,036	23,760	0,064	0,039
-440,022	264,975	0,073	-0,094
-439,007	-2,356	-0,041	-0,021
-437,992	633,533	-0,018	0,034
-436,978	311,913	0,013	0,019
-435,963	-41,635	0,032	0,012
-434,949	424,264	0,079	0,126
-433,934	-200,000	-0,008	-0,135
-432,919	397,676	-0,084	0,129
-431,905	-200,000	0,007	0,159
-430,890	-200,000	0,005	-0,087
-429,876	458,193	-0,045	0,074
-428,861	36,478	0,048	0,031
-427,846	-116,184	-0,091	-0,012
-426,832	39,410	-0,071	-0,047
-425,817	339,155	0,043	-0,061
-424,803	-200,000	-0,005	0,063
-423,788	-171,529	0,045	-0,001
-422,773	800,000	0,068	0,177
-421,759	800,000	-0,035	0,111
-420,744	-173,661	-0,031	-0,001
-419,730	154,128	0,079	0,080
-418,715	-200,000	0,019	-0,103
-417,701	-74,439	0,058	0,015
-416,686	-184,195	0,154	0,002
-415,671	126,513	-0,090	-0,084
-414,657	388,889	-0,038	-0,058
-413,642	800,000	0,034	0,083
-412,628	-40,323	-0,106	-0,040
-411,613	-200,000	-0,013	0,168
-410,598	-200,000	-0,013	-0,045
-409,584	-200,000	-0,018	0,129
-408,569	267,307	-0,032	0,041
-407,555	365,144	0,090	0,133
-406,540	29,007	0,040	0,025
-405,525	211,760	0,055	0,064
-404,511	344,163	-0,124	-0,179
-403,496	-200,000	-0,027	-0,091
-402,482	-78,967	-0,040	0,010
-401,467	-69,485	0,041	0,011
-400,452	-61,161	0,048	-0,015
-399,438	800,000	-0,030	-0,070
-398,423	297,452	0,030	-0,041
-397,409	82,233	0,141	0,112
-396,394	-200,000	0,020	-0,068
-395,379	-67,516	0,098	-0,028
-394,365	-200,000	0,006	-0,055
-393,350	-200,000	0,016	-0,099
-392,336	-52,556	0,086	0,029
-391,321	800,000	-0,093	0,211
-390,306	-200,000	0,017	0,058
-389,292	385,405	-0,075	0,115
-388,277	-78,897	-0,027	-0,007
-387,263	324,290	0,073	0,102
-386,248	-51,898	0,165	0,056
-385,233	303,529	-0,080	-0,110
-384,219	-23,293	0,096	0,042
-383,204	-8,595	0,067	0,033
-382,190	650,551	-0,046	-0,087
-381,175	46,126	0,100	-0,068
-380,160	-49,500	0,069	0,024
-379,146	-200,000	-0,013	0,103
-378,131	430,592	-0,007	0,011
-377,117	466,393	0,024	-0,039
-376,102	-53,313	-0,031	-0,010
-375,088	800,000	-0,002	-0,006
-374,073	-43,942	-0,086	0,032
-373,058	674,126	-0,023	0,044
-372,044	33,562	-0,125	0,079
-371,029	182,025	-0,077	-0,083
-370,015	-100,674	-0,009	0,002
-369,000	-195,813	-0,061	-0,000
-367,985	-200,000	0,007	-0,078
-366,971	106,549	0,126	-0,110
-365,956	429,918	-0,036	0,057
-364,942	-5,441	-0,143	0,072
-363,927	175,376	0,056	-0,060
-362,912	310,726	-0,105	0,145
-361,898	214,586	0,035	-0,040
-360,883	39,865	0,035	-0,023
-359,869	97,908	-0,103	-0,087
-358,854	589,422	0,047	-0,085
-357,839	-122,288	0,058	0,007
-356,825	-200,000	-0,028	0,141
-355,810	-200,000	-0,012	0,094
-354,796	800,000	-0,020	0,050
-353,781	-58,319	-0,169	-0,054
-352,766	1,375	0,086	-0,045
-351,752	-95,550	-0,093	0,018
-350,737	577,581	0,055	0,099
-349,723	26,294	0,039	-0,024
-348,708	-28,599	0,028	-0,012
-347,693	-118,262	-0,026	-0,003
-346,679	455,347	0,023	-0,038
-345,664	-200,000	-0,002	-0,112
-344,650	275,266	-0,062	-0,081
-343,635	81,694	0,139	0,111
-342,620	-200,000	0,003	-0,020
-341,606	-67,051	0,168	-0,048
-340,591	37,403	0,020	0,013
-339,577	-85,825	0,036	0,008
-338,562	266,118	-0,039	-0,050
-337,548	-108,837	-0,039	0,006
-336,533	-48,673	0,012	0,004
-335,518	800,000	0,015	-0,042
-334,504	-57,458	-0,142	0,046
-333,489	800,000	-0,032	0,085
-332,475	216,428	-0,070	0,082
-331,460	56,314	-0,012	-0,009
-330,445	-51,683	0,147	-0,050
-329,431	98,443	0,126	0,107
-328,416	-200,000	0,004	0,039
-327,402	-200,000	0,006	0,046
-326,387	360,882	0,046	-0,068
-325,372	353,873	0,022	0,033
-324,358	-4,609	-0,078	0,039
-323,343	209,419	-0,049	-0,056
-322,329	385,545	0,031	0,046
-321,314	431,766	-0,029	0,046
-320,299	-200,000	0,014	0,137
-319,285	-200,000	-0,002	0,097
-318,270	-109,853	0,096	0,015
-317,256	-151,492	-0,040	0,002
-316,241	-21,306	-0,069	-0,031
-315,226	-50,100	0,097	-0,034
-314,212	-65,809	-0,143	0,042
-313,197	-108,924	-0,045	-0,007
-312,183	-200,000	0,099	-0,000
-311,168	-55,178	-0,072	0,024
-310,153	-200,000	0,024	-0,078
-309,139	800,000	-0,064	-0,147
-308,124	18,561	0,145	-0,085
-307,110	-200,000	-0,019	0,134
-306,095	-93,876	0,133	-0,027
-305,080	-1,489	0,063	0,033
-304,066	-153,024	-0,028	0,001
-303,051	-168,305	-0,058	0,002
-302,037	800,000	0,067	-0,169
-301,022	-200,000	0,004	0,121
-300,008	123,746	0,100	0,092
-298,993	599,101	-0,042	0,077
-297,978	154,982	0,019	-0,020
-296,964	-71,312	-0,034	0,009
-295,949	1,936	-0,139	-0,073
-294,935	149,825	-0,116	-0,115
-293,920	800,000	-0,070	-0,191
-292,905	-2,746	-0,043	-0,022
-291,891	-200,000	-0,032	-0,125
-290,876	-200,000	-0,054	0,000
-289,862	-52,410	-0,078	0,026
-288,847	40,065	0,032	-0,021
-287,832	800,000	-0,040	-0,087
-286,818	-12,082	-0,144	0,069
-285,803	-84,306	0,098	-0,023
-284,789	503,214	0,057	-0,097
-283,774	353,720	0,042	-0,061
-282,759	431,064	-0,061	-0,097
-281,745	749,441	-0,029	-0,057
-280,730	86,588	-0,036	0,029
-279,716	-54,275	0,148	0,049
-278,701	-200,000	-0,008	-0,093
-277,686	30,528	0,068	-0,042
-276,672	800,000	0,024	-0,064
-275,657	-111,778	0,057	-0,008
-274,643	-20,650	0,015	0,007
-273,628	20,359	0,109	-0,064
-272,613	197,478	-0,038	-0,043
-271,599	-200,000	0,005	0,115
-270,584	207,391	0,074	0,084
-269,570	-99,663	-0,048	0,009
-268,555	-200,000	-0,008	0,073
-267,540	-200,000	-0,026	-0,094
-266,526	12,540	-0,020	-0,011
-265,511	-93,105	-0,125	0,025
-264,497	-200,000	0,025	0,105
-263,482	-200,000	0,013	-0,152
-262,467	800,000	-0,044	0,112
-261,453	-187,949	0,069	-0,001
-260,438	-16,114	-0,106	0,049
-259,424	101,473	0,054	0,046
-258,409	800,000	-0,029	-0,060
-257,395	378,358	0,048	0,072
-256,380	-132,270	-0,095	0,009
-255,365	-145,566	0,068	-0,004
-254,351	1,874	0,060	0,032
-253,336	-26,369	-0,146	-0,062
-252,322	-200,000	0,005	0,027
-251,307	-89,163	-0,072	-0,015
-250,292	800,000	0,055	-0,127
-249,278	-154,907	-0,128	0,006
-248,263	800,000	0,016	0,038
-247,249	-200,000	-0,003	-0,124
-246,234	800,000	0,043	-0,125
-245,219	-99,906	0,046	-0,008
-244,205	800,000	-0,027	-0,081
-243,190	-200,000	-0,013	-0,071
-242,176	6,462	-0,086	-0,047
-241,161	-3,954	-0,130	0,066
-240,146	86,376	-0,029	-0,023
-239,132	800,000	-0,047	0,131
-238,117	800,000	-0,013	-0,026
-237,103	17,797	-0,117	0,068
-236,088	546,699	0,103	0,181
-235,073	-200,000	-0,001	0,034
-234,059	-200,000	-0,002	0,072
-233,044	55,362	0,038	0,027
-232,030	343,565	0,021	-0,030
-231,015	800,000	-0,011	-0,031
-230,000	433,470	-0,045	0,071
-228,986	-200,000	-0,006	0,092
-227,971	203,603	-0,052	-0,058
-226,957	-62,715	0,019	-0,006
-225,942	-90,257	0,050	0,011
-224,927	18,219	0,124	0,072
-223,913	-200,000	0,053	-0,174
-222,898	39,826	-0,054	-0,036
-221,884	178,864	-0,017	0,018
-220,869	-200,000	-0,035	-0,148
-219,855	800,000	0,039	0,103
-218,840	-200,000	0,006	0,086
-217,825	-200,000	0,010	-0,101
-216,811	-200,000	-0,011	0,038
-215,796	-92,712	0,043	0,009
-214,782	-200,000	0,022	0,142
-213,767	-126,232	0,066	-0,007
-212,752	-155,409	-0,010	0,000
-211,738	-145,924	0,122	0,008
-210,723	355,826	0,013	0,019
-209,709	2,753	-0,134	-0,071
-208,694	-149,311	-0,159	0,009
-207,679	800,000	0,011	-0,034
-206,665	518,860	0,066	-0,113
-205,650	146,665	-0,093	0,092
-204,636	-4,216	0,109	-0,055
-203,621	157,287	0,049	0,050
-202,606	-101,840	-0,204	-0,036
-201,592	800,000	-0,038	-0,103
-200,577	27,723	-0,065	0,040
-199,563	-200,000	-0,015	0,152
-198,548	-94,136	0,072	-0,014
-197,533	-200,000	-0,005	-0,029
-196,519	-200,000	-0,013	-0,088
-195,504	188,715	-0,071	0,077
-194,490	198,882	-0,089	0,099
-193,475	294,391	0,046	0,062
-192,460	800,000	0,033	0,085
-191,446	253,651	-0,029	-0,036
-190,431	428,737	-0,073	0,116
-189,417	800,000	0,029	-0,091
-188,402	-200,000	0,011	-0,123
-187,387	-200,000	0,006	-0,094
-186,373	-200,000	-0,007	0,068
-185,358	800,000	0,086	0,178
-184,344	-197,756	0,154	0,001
-183,329	-200,000	0,010	0,132
-182,315	214,227	-0,029	-0,033
-181,300	101,474	0,067	-0,057
-180,285	-50,424	0,133	-0,045
-179,271	236,749	-0,065	-0,079
-178,256	-102,665	-0,033	0,006
-177,242	88,555	0,090	0,073
-176,227	59,961	0,087	0,063
-175,212	-200,000	0,015	0,199
-174,198	26,139	-0,074	0,045
-173,183	21,197	-0,039	0,023
-172,169	13,949	-0,043	-0,024
-171,154	-36,621	-0,033	-0,013
-170,139	-182,444	-0,065	-0,001
-169,125	-200,000	-0,014	0,063
-168,110	800,000	-0,036	-0,101
-167,096	-81,129	0,053	0,013
-166,081	462,304	0,070	0,114
-165,066	104,896	-0,090	-0,077
-164,052	-200,000	0,001	0,017
-163,037	-171,422	-0,077	0,002
-162,023	161,312	-0,024	-0,024
-161,008	-55,236	-0,063	-0,021
-159,993	-200,000	0,013	0,110
-158,979	-200,000	-0,010	0,155
-157,964	261,054	0,054	0,068
-156,950	-0,854	0,046	-0,024
-155,935	556,742	-0,005	0,010
-154,920	2,311	0,067	-0,035
-153,906	-74,289	0,129	-0,034
-152,891	709,034	0,029	0,055
-151,877	800,000	0,032	-0,075
-150,862	-200,000	-0,005	0,094
-149,847	-200,000	-0,019	-0,103
-148,833	151,261	-0,078	-0,077
-147,818	203,524	-0,068	-0,076
-146,804	77,565	0,124	0,096
-145,789	46,587	-0,089	0,060
-144,775	75,239	0,085	-0,065
-143,760	182,223	-0,032	-0,035
-142,745	68,423	0,028	0,021
-141,731	190,546	-0,058	0,064
-140,716	-200,000	-0,156	0,000
-139,702	3,053	0,126	-0,067
-138,687	-200,000	0,039	0,128
-137,672	-200,000	0,023	-0,162
-136,658	-9,451	-0,101	-0,049
-135,643	-92,089	-0,096	0,020
-134,629	75,813	-0,070	0,054
-133,614	800,000	0,033	-0,093
-132,599	800,000	-0,017	-0,041
-131,585	-200,000	-0,007	-0,048
-130,570	800,000	-0,022	0,060
-129,556	506,477	-0,032	0,055
-128,541	327,733	0,045	-0,064
-127,526	107,101	-0,090	0,078
-126,512	-86,932	0,162	0,036
-125,497	298,417	-0,081	-0,109
-124,483	-87,340	0,085	-0,019
-123,468	346,060	-0,035	-0,050
-122,453	-200,000	-0,002	0,083
-121,439	800,000	-0,027	0,059
-120,424	2,270	0,061	0,032
-119,410	-48,333	0,136	-0,048
