DTS Sentinel unit serial number:	SN410029Multiplexer serial number:	ORYXHardware model number:	OX2-SRSoftware version number:	ORYX F/W v4,00 Oryx Data Collector v3.7.2.0data status	okinstallation	B6 Nyhavnadifferential loss correction	single-endedforward channel	channel 2reverse channel	N/Adate	2023/12/10time	04:10:08forward acquisition time	300,00reverse acquisition time	0,00gamma	499,1914k internal	0,3125k external	0,3125temperature offset calibration	1,0000default loss term (dB/km)	0,3820temperature slope calibration	1,0000multiplexer offset coefficient	1,0000multiplexer slope coefficient	1,0000fibre end	0,00T internal ref (°C)	22,13T ext. ref 1 (°C)	6,15T ext. ref 2 (°C)	6,12length (m)	temperature (°C)	Stokes	anti-Stokes-744,400	-200,000	-0,010	-0,149
-743,385	22,614	-0,211	0,128
-742,371	800,000	0,027	0,059
-741,356	-129,349	-0,296	0,030
-740,342	356,719	0,052	0,078
-739,327	-62,132	-0,266	0,082
-738,312	31,275	-0,177	-0,113
-737,298	114,808	-0,210	0,191
-736,283	800,000	-0,046	-0,151
-735,269	46,548	-0,197	0,136
-734,254	-7,726	-0,067	-0,034
-733,239	-157,115	-0,468	-0,021
-732,225	-167,441	0,074	0,002
-731,210	504,640	0,053	0,091
-730,196	356,714	-0,021	0,031
-729,181	20,397	-0,149	0,090
-728,167	-63,432	-0,018	0,005
-727,152	-200,000	0,035	-0,124
-726,137	140,627	0,030	-0,029
-725,123	604,217	-0,044	0,082
-724,108	160,869	-0,127	-0,132
-723,094	164,810	-0,087	-0,091
-722,079	251,995	-0,039	-0,049
-721,064	174,483	0,117	-0,126
-720,050	-155,407	-0,080	-0,004
-719,035	-74,971	0,020	0,005
-718,021	-78,477	-0,072	-0,018
-717,006	-60,380	-0,057	-0,018
-715,991	351,419	-0,123	-0,181
-714,977	800,000	-0,074	-0,164
-713,962	148,268	0,098	-0,099
-712,948	800,000	0,024	0,052
-711,933	-165,817	0,193	-0,006
-710,918	-200,000	-0,002	0,037
-709,904	32,543	-0,100	-0,064
-708,889	155,282	-0,027	-0,028
-707,875	695,524	-0,090	-0,177
-706,860	-30,516	0,032	-0,014
-705,845	800,000	-0,014	-0,032
-704,831	-142,708	-0,168	-0,012
-703,816	-134,319	-0,121	-0,011
-702,802	127,246	0,025	-0,024
-701,787	-34,406	0,068	-0,028
-700,772	31,852	0,038	-0,025
-699,758	294,593	-0,125	-0,171
-698,743	-69,488	0,117	0,033
-697,729	-200,000	0,000	0,062
-696,714	-200,000	-0,003	-0,064
-695,699	-26,478	-0,070	-0,030
-694,685	-59,623	-0,041	0,013
-693,670	103,809	-0,059	0,052
-692,656	207,823	-0,008	0,009
-691,641	-87,702	-0,043	-0,010
-690,627	-200,000	0,010	-0,067
-689,612	-200,000	-0,004	0,073
-688,597	-31,240	-0,131	-0,055
-687,583	-200,000	-0,014	-0,120
-686,568	54,145	-0,078	0,056
-685,554	800,000	-0,024	0,068
-684,539	389,709	0,086	0,133
-683,524	-200,000	-0,005	0,043
-682,510	-130,895	-0,143	-0,014
-681,495	-200,000	-0,010	-0,106
-680,481	64,246	-0,084	-0,063
-679,466	-17,506	-0,040	-0,018
-678,451	561,706	-0,042	-0,076
-677,437	-200,000	-0,008	0,062
-676,422	293,079	-0,065	-0,088
-675,408	-68,690	-0,030	-0,009
-674,393	172,466	-0,067	-0,071
-673,378	-183,243	-0,170	-0,002
-672,364	-74,167	-0,055	0,015
-671,349	-57,721	0,092	0,030
-670,335	676,747	-0,012	-0,023
-669,320	-200,000	0,003	0,092
-668,305	-200,000	0,007	0,079
-667,291	800,000	0,016	-0,034
-666,276	-200,000	0,010	-0,054
-665,262	359,604	-0,088	0,131
-664,247	-1,632	0,007	-0,004
-663,232	-200,000	-0,009	-0,036
-662,218	-13,721	-0,162	-0,077
-661,203	-200,000	-0,017	0,058
-660,189	58,413	-0,057	-0,041
-659,174	-38,680	-0,143	-0,056
-658,159	-200,000	-0,030	-0,122
-657,145	189,688	-0,083	-0,093
-656,130	-200,000	0,010	0,034
-655,116	201,324	0,044	-0,050
-654,101	800,000	0,019	0,047
-653,086	-119,531	0,031	-0,004
-652,072	148,854	-0,056	-0,056
-651,057	-136,626	-0,154	-0,013
-650,043	210,297	-0,005	-0,006
-649,028	-61,161	0,086	-0,027
-648,014	-200,000	-0,006	0,048
-646,999	64,906	-0,088	-0,066
-645,984	600,295	0,012	-0,022
-644,970	179,023	0,033	0,036
-643,955	65,049	0,013	-0,009
-642,941	-75,327	-0,102	-0,027
-641,926	-37,304	0,077	0,030
-640,911	-26,571	0,075	0,032
-639,897	-111,399	0,129	-0,019
-638,882	-15,252	0,021	0,010
-637,868	316,661	-0,051	0,072
-636,853	-83,702	-0,045	-0,011
-635,838	21,914	-0,115	-0,069
-634,824	-95,571	-0,251	-0,049
-633,809	-34,101	0,065	-0,027
-632,795	450,215	-0,032	0,053
-631,780	4,750	0,065	0,035
-630,765	-158,241	-0,063	0,003
-629,751	43,731	0,061	-0,041
-628,736	800,000	-0,029	-0,066
-627,722	146,670	-0,031	-0,031
-626,707	800,000	0,039	0,092
-625,692	800,000	0,049	0,104
-624,678	120,143	-0,066	0,060
-623,663	800,000	-0,037	0,082
-622,649	547,520	-0,019	-0,033
-621,634	172,547	-0,043	-0,046
-620,619	-200,000	-0,003	-0,023
-619,605	-123,290	-0,057	0,007
-618,590	783,341	-0,066	0,136
-617,576	-200,000	-0,023	0,145
-616,561	400,082	-0,049	0,076
-615,546	-57,928	0,097	0,031
-614,532	-87,064	-0,111	-0,025
-613,517	-60,891	0,056	-0,018
-612,503	-200,000	-0,006	-0,069
-611,488	346,507	0,055	0,080
-610,474	102,862	0,172	0,149
-609,459	-101,215	-0,068	0,012
-608,444	800,000	0,024	0,065
-607,430	-200,000	-0,004	0,074
-606,415	-149,303	0,113	0,007
-605,401	454,293	0,011	-0,018
-604,386	-200,000	0,016	0,088
-603,371	-89,265	0,063	-0,014
-602,357	81,966	-0,061	0,049
-601,342	61,138	0,040	-0,029
-600,328	-61,711	-0,146	-0,045
-599,313	-200,000	0,030	-0,172
-598,298	45,416	-0,094	-0,064
-597,284	-100,028	0,074	-0,013
-596,269	169,216	-0,086	0,091
-595,255	239,850	0,036	-0,045
-594,240	-200,000	0,008	-0,054
-593,225	28,586	-0,053	0,033
-592,211	-106,359	-0,159	-0,026
-591,196	-200,000	0,021	0,165
-590,182	-57,598	0,141	0,045
-589,167	-189,417	-0,090	-0,001
-588,152	209,290	-0,035	-0,041
-587,138	-143,423	-0,079	0,006
-586,123	-123,764	-0,098	-0,011
-585,109	-200,000	-0,017	-0,085
-584,094	143,270	0,117	-0,116
-583,079	800,000	-0,025	-0,066
-582,065	-11,891	-0,061	-0,029
-581,050	189,598	-0,032	-0,036
-580,036	211,887	0,043	-0,050
-579,021	-125,082	0,095	0,011
-578,006	-70,269	-0,103	-0,029
-576,992	-200,000	0,042	0,156
-575,977	-148,978	0,090	-0,005
-574,963	-200,000	-0,008	0,085
-573,948	-29,946	0,094	0,040
-572,934	-200,000	0,003	0,097
-571,919	143,039	-0,052	-0,051
-570,904	-137,305	-0,073	-0,006
-569,890	-48,844	-0,055	-0,019
-568,875	-19,099	-0,078	-0,036
-567,861	-134,646	0,086	-0,008
-566,846	800,000	0,018	0,050
-565,831	662,029	0,031	0,059
-564,817	-81,990	-0,159	-0,038
-563,802	23,786	0,016	0,010
-562,788	780,416	0,060	-0,122
-561,773	716,687	0,036	0,071
-560,758	-89,320	0,099	-0,021
-559,744	-8,034	-0,027	0,014
-558,729	-39,585	0,103	-0,040
-557,715	24,422	-0,069	-0,042
-556,700	-200,000	-0,006	-0,049
-555,685	15,981	-0,084	0,049
-554,671	68,166	0,049	-0,037
-553,656	58,172	-0,066	0,048
-552,642	-200,000	-0,006	-0,067
-551,627	-200,000	0,014	-0,076
-550,612	800,000	0,041	-0,105
-549,598	-200,000	-0,013	-0,178
-548,583	800,000	0,040	-0,130
-547,569	237,927	-0,113	-0,139
-546,554	398,562	0,073	0,113
-545,539	23,614	-0,052	-0,032
-544,525	470,793	-0,037	-0,062
-543,510	-12,644	-0,149	-0,071
-542,496	800,000	0,042	-0,137
-541,481	553,127	-0,030	-0,053
-540,466	-72,594	-0,044	-0,012
-539,452	386,270	-0,059	0,090
-538,437	476,059	0,043	-0,073
-537,423	-103,732	-0,065	0,011
-536,408	800,000	-0,036	0,094
-535,393	-74,290	-0,117	0,031
-534,379	568,385	-0,061	0,109
-533,364	-52,839	-0,104	-0,035
-532,350	-121,031	0,090	-0,011
-531,335	45,549	-0,097	0,066
-530,321	53,168	0,103	-0,073
-529,306	-200,000	-0,005	0,152
-528,291	393,394	-0,064	-0,099
-527,277	110,213	0,011	-0,010
-526,262	-200,000	0,033	-0,176
-525,248	-194,041	0,129	-0,001
-524,233	-75,200	-0,073	0,019
-523,218	30,392	0,048	0,030
-522,204	800,000	-0,051	-0,135
-521,189	-75,542	0,033	0,009
-520,175	200,608	0,070	-0,080
-519,160	213,424	0,108	-0,126
-518,145	-200,000	-0,001	-0,016
-517,131	-67,047	0,100	0,029
-516,116	-52,493	0,153	-0,052
-515,102	97,788	-0,094	-0,080
-514,087	-200,000	-0,010	-0,163
-513,072	-38,715	-0,076	-0,029
-512,058	-12,581	-0,075	0,036
-511,043	294,246	0,050	-0,067
-510,029	800,000	-0,066	0,184
-509,014	-0,303	-0,104	0,054
-507,999	-56,497	0,041	0,013
-506,985	188,517	0,025	0,028
-505,970	195,059	0,054	-0,060
-504,956	-200,000	0,003	-0,179
-503,941	-200,000	0,040	-0,141
-502,926	800,000	-0,014	-0,042
-501,912	-165,149	0,044	0,001
-500,897	276,596	0,036	0,048
-499,883	800,000	0,033	0,080
-498,868	33,068	0,066	0,042
-497,853	-21,989	-0,035	0,016
-496,839	-200,000	0,012	0,163
-495,824	800,000	-0,072	0,181
-494,810	293,838	-0,054	0,073
-493,795	800,000	-0,049	0,144
-492,781	-61,310	-0,080	-0,025
-491,766	-19,357	-0,126	-0,058
-490,751	95,586	-0,072	0,061
-489,737	-79,518	0,091	-0,022
-488,722	5,273	0,098	0,053
-487,708	182,074	0,070	0,076
-486,693	-92,512	0,047	-0,010
-485,678	-200,000	-0,023	-0,099
-484,664	800,000	-0,028	-0,066
-483,649	-112,440	-0,128	0,019
-482,635	-200,000	0,021	0,098
-481,620	-200,000	0,007	-0,046
-480,605	-200,000	-0,019	-0,072
-479,591	800,000	0,032	-0,081
-478,576	-116,326	0,066	-0,009
-477,562	-114,655	0,075	0,010
-476,547	39,408	-0,081	0,054
-475,532	748,884	-0,025	0,050
-474,518	-200,000	-0,012	-0,158
-473,503	-200,000	0,021	-0,107
-472,489	-128,209	0,212	-0,022
-471,474	-10,052	0,023	-0,011
-470,459	777,234	0,027	0,055
-469,445	261,133	-0,058	0,074
-468,430	-3,904	-0,094	-0,048
-467,416	-200,000	0,005	0,053
-466,401	-185,938	0,009	0,000
-465,386	-200,000	0,022	0,105
-464,372	-29,923	-0,027	-0,011
-463,357	350,234	0,043	-0,063
-462,343	120,393	-0,021	0,019
-461,328	-93,612	0,059	-0,012
-460,313	800,000	-0,049	0,130
-459,299	446,602	0,069	0,113
-458,284	-200,000	0,014	-0,110
-457,270	-60,963	-0,046	-0,014
-456,255	-31,030	0,079	-0,033
-455,241	-200,000	-0,004	0,076
-454,226	-123,464	-0,035	0,004
-453,211	344,591	-0,067	-0,097
-452,197	-200,000	0,013	-0,103
-451,182	197,238	-0,036	0,040
-450,168	-200,000	-0,025	-0,090
-449,153	-169,696	-0,157	0,004
-448,138	-15,778	-0,109	0,051
-447,124	549,733	0,110	-0,195
-446,109	526,093	-0,098	-0,171
-445,095	-200,000	0,037	0,143
-444,080	28,195	0,060	-0,037
-443,065	172,177	0,040	0,042
-442,051	800,000	0,025	-0,052
-441,036	191,555	-0,021	-0,023
-440,022	62,048	-0,031	-0,022
-439,007	-112,665	-0,154	0,022
-437,992	-200,000	-0,004	0,061
-436,978	-200,000	0,026	0,145
-435,963	-200,000	-0,034	-0,000
-434,949	-93,638	-0,166	-0,033
-433,934	-56,306	0,087	0,028
-432,919	-134,519	-0,174	-0,015
-431,905	-158,122	-0,046	-0,002
-430,890	-135,087	0,110	-0,010
-429,876	256,584	0,138	0,175
-428,861	226,114	0,075	0,090
-427,846	-200,000	0,004	-0,097
-426,832	-116,297	-0,067	-0,009
-425,817	247,654	-0,076	-0,094
-424,803	-103,887	0,040	-0,007
-423,788	-200,000	0,039	-0,166
-422,773	800,000	0,042	0,086
-421,759	222,542	-0,066	0,078
-420,744	-200,000	-0,023	-0,144
-419,730	800,000	0,014	0,039
-418,715	589,630	-0,015	-0,027
-417,701	5,179	0,104	-0,056
-416,686	-200,000	0,021	-0,102
-415,671	-200,000	-0,015	-0,114
-414,657	318,125	0,054	-0,075
-413,642	800,000	0,019	-0,041
-412,628	92,837	-0,034	0,028
-411,613	-200,000	-0,025	-0,098
-410,598	23,433	0,064	-0,038
-409,584	-94,591	0,090	-0,018
-408,569	-76,149	0,049	-0,013
-407,555	143,858	-0,053	0,052
-406,540	-55,207	0,016	0,005
-405,525	800,000	-0,020	0,041
-404,511	-200,000	0,023	-0,083
-403,496	-53,424	0,033	0,011
-402,482	390,373	0,063	-0,096
-401,467	349,734	0,073	0,106
-400,452	-200,000	0,005	-0,026
-399,438	-147,886	-0,014	0,001
-398,423	-60,121	0,091	0,028
-397,409	-167,233	-0,160	-0,005
-396,394	138,323	0,043	0,042
-395,379	800,000	0,010	0,028
-394,365	-19,119	-0,056	0,025
-393,350	90,953	-0,038	0,032
-392,336	-200,000	0,027	0,146
-391,321	210,972	-0,082	0,095
-390,306	65,856	-0,034	0,025
-389,292	248,588	0,100	-0,124
-388,277	-200,000	0,017	-0,098
-387,263	253,962	0,045	-0,056
-386,248	-200,000	-0,004	0,023
-385,233	-200,000	0,007	-0,026
-384,219	436,337	0,079	-0,127
-383,204	533,481	0,037	-0,064
-382,190	-89,117	-0,102	0,022
-381,175	222,978	-0,086	-0,102
-380,160	139,412	0,060	-0,058
-379,146	-189,825	0,094	-0,001
-378,131	31,227	0,045	0,028
-377,117	198,584	-0,122	0,137
-376,102	-110,754	-0,088	0,013
-375,088	177,285	-0,013	-0,014
-374,073	-200,000	0,031	-0,158
-373,058	-200,000	-0,019	-0,078
-372,044	-200,000	0,010	0,044
-371,029	-200,000	-0,003	0,083
-370,015	-200,000	-0,004	-0,096
-369,000	118,458	0,075	-0,068
-367,985	179,505	-0,047	-0,051
-366,971	209,529	0,027	0,031
-365,956	-200,000	0,021	-0,133
-364,942	-57,580	-0,079	0,025
-363,927	-200,000	-0,010	0,162
-362,912	-101,519	0,010	-0,002
-361,898	800,000	0,023	-0,070
-360,883	110,553	-0,032	-0,029
-359,869	-200,000	0,013	-0,044
-358,854	-200,000	0,015	0,119
-357,839	33,217	0,076	0,048
-356,825	-46,146	0,036	0,013
-355,810	-137,969	0,102	0,008
-354,796	777,772	-0,074	0,149
-353,781	56,460	-0,025	0,018
-352,766	-200,000	-0,003	0,034
-351,752	-200,000	-0,014	0,059
-350,737	189,251	0,007	0,008
-349,723	122,988	-0,120	0,111
-348,708	206,485	-0,058	0,067
-347,693	-200,000	0,059	0,193
-346,679	347,456	-0,026	0,037
-345,664	-1,930	-0,081	-0,042
-344,650	537,267	0,045	-0,078
-343,635	478,582	0,021	-0,035
-342,620	-200,000	-0,002	-0,082
-341,606	-200,000	-0,014	-0,080
-340,591	-200,000	0,022	-0,094
-339,577	-61,835	-0,115	-0,035
-338,562	-200,000	-0,005	-0,032
-337,548	320,717	0,069	-0,097
-336,533	-200,000	-0,020	0,068
-335,518	800,000	-0,077	0,179
-334,504	-200,000	-0,006	0,142
-333,489	800,000	0,045	0,138
-332,475	360,879	0,041	0,061
-331,460	-11,597	-0,191	-0,092
-330,445	800,000	0,014	-0,029
-329,431	-48,604	-0,026	-0,009
-328,416	-114,188	-0,098	0,014
-327,402	-153,674	0,120	0,006
-326,387	-68,861	0,104	0,029
-325,372	-33,869	0,034	0,013
-324,358	342,144	-0,072	-0,103
-323,343	-200,000	0,010	-0,054
-322,329	-135,111	0,081	0,007
-321,314	50,588	-0,040	0,028
-320,299	800,000	0,043	-0,091
-319,285	-97,546	0,198	-0,037
-318,270	97,933	0,073	0,062
-317,256	427,969	0,011	-0,017
-316,241	178,592	-0,065	-0,069
-315,226	800,000	-0,032	-0,082
-314,212	-200,000	-0,009	-0,118
-313,197	-200,000	0,003	0,012
-312,183	-200,000	-0,009	0,033
-311,168	529,470	-0,061	0,106
-310,153	197,579	-0,081	-0,090
-309,139	45,324	-0,075	0,051
-308,124	800,000	-0,029	0,079
-307,110	-86,769	0,097	0,021
-306,095	-9,556	0,095	-0,046
-305,080	14,048	0,112	-0,063
-304,066	281,484	-0,047	-0,062
-303,051	-200,000	-0,021	-0,096
-302,037	800,000	0,055	-0,112
-301,022	-36,699	-0,078	0,030
-300,008	-200,000	0,026	0,089
-298,993	-135,834	0,027	-0,002
-297,978	63,503	0,052	-0,038
-296,964	-108,690	-0,025	0,004
-295,949	403,433	-0,032	-0,049
-294,935	-200,000	-0,005	0,078
-293,920	-200,000	0,006	0,038
-292,905	1,752	0,031	-0,016
-291,891	163,743	0,166	0,171
-290,876	-200,000	-0,015	-0,059
-289,862	-53,897	-0,034	0,011
-288,847	-200,000	0,016	-0,130
-287,832	800,000	-0,039	-0,096
-286,818	-182,445	-0,172	0,002
-285,803	800,000	0,044	0,104
-284,789	58,886	0,083	0,060
-283,774	90,659	0,062	0,051
-282,759	800,000	0,043	-0,088
-281,745	31,713	-0,189	-0,119
-280,730	800,000	-0,058	-0,169
-279,716	176,396	-0,023	0,024
-278,701	-153,412	-0,208	0,010
-277,686	355,430	-0,058	0,085
-276,672	800,000	-0,071	0,153
-275,657	47,479	-0,107	0,073
-274,643	800,000	-0,044	0,100
-273,628	800,000	0,030	0,090
-272,613	-93,759	-0,199	-0,040
-271,599	441,409	0,101	-0,163
-270,584	64,758	-0,119	0,088
-269,570	-200,000	-0,027	0,092
-268,555	85,103	-0,041	0,033
-267,540	800,000	-0,078	-0,176
-266,526	-116,147	0,076	-0,010
-265,511	-200,000	-0,017	0,087
-264,497	-200,000	0,005	0,070
-263,482	-144,198	0,092	-0,006
-262,467	189,237	0,048	-0,052
-261,453	-73,211	0,095	-0,025
-260,438	800,000	-0,050	0,120
-259,424	-138,626	0,001	-0,000
-258,409	28,567	-0,041	-0,025
-257,395	196,784	0,062	-0,069
-256,380	-61,974	0,072	-0,022
-255,365	-23,513	-0,065	-0,029
-254,351	38,429	0,055	0,036
-253,336	114,219	-0,202	0,179
-252,322	-200,000	0,022	-0,159
-251,307	-32,997	-0,159	0,064
-250,292	-70,423	0,080	-0,022
-249,278	-51,581	0,197	0,067
-248,263	-200,000	-0,010	0,176
-247,249	-200,000	-0,028	0,169
-246,234	44,839	0,084	-0,056
-245,219	-200,000	0,012	0,090
-244,205	155,352	-0,091	0,091
-243,190	-0,792	0,029	-0,015
-242,176	633,453	0,029	0,055
-241,161	-149,515	0,104	0,006
-240,146	-200,000	0,003	-0,049
-239,132	-19,494	0,039	0,018
-238,117	216,756	0,049	0,057
-237,103	-200,000	-0,012	0,057
-236,088	-105,993	-0,182	0,030
-235,073	-200,000	-0,000	0,052
-234,059	-68,624	0,089	0,025
-233,044	-200,000	-0,001	-0,020
-232,030	-147,502	-0,247	-0,015
-231,015	119,326	-0,145	0,131
-230,000	-200,000	0,006	-0,130
-228,986	-200,000	0,002	-0,043
-227,971	-89,305	0,086	0,018
-226,957	-81,160	0,114	0,027
-225,942	-155,172	0,046	0,002
-224,927	-74,931	0,041	-0,011
-223,913	-56,770	0,139	-0,045
-222,898	399,344	0,021	-0,033
-221,884	101,407	-0,052	0,044
-220,869	-29,852	0,212	0,088
-219,855	176,903	-0,029	-0,031
-218,840	332,791	0,073	0,103
-217,825	237,063	-0,034	-0,042
-216,811	800,000	0,040	-0,101
-215,796	17,625	-0,089	0,052
-214,782	2,544	0,112	-0,059
-213,767	-200,000	-0,024	0,111
-212,752	-22,369	0,069	0,030
-211,738	-22,382	-0,119	0,052
-210,723	-200,000	0,002	-0,045
-209,709	-95,002	0,077	0,015
-208,694	42,574	-0,019	0,013
-207,679	800,000	0,049	-0,112
-206,665	-5,078	-0,068	0,034
-205,650	-200,000	0,011	0,042
-204,636	49,702	0,057	0,039
-203,621	50,465	0,108	0,074
-202,606	-55,495	0,135	-0,044
-201,592	-142,695	-0,131	0,009
-200,577	335,347	0,091	-0,129
-199,563	200,222	-0,046	0,052
-198,548	-200,000	0,002	0,114
-197,533	-200,000	0,006	0,117
-196,519	130,250	0,112	-0,105
-195,504	-142,896	0,054	0,004
-194,490	76,357	0,094	-0,072
-193,475	-150,721	-0,095	0,005
-192,460	-33,601	-0,063	0,025
-191,446	128,759	0,052	0,049
-190,431	232,669	0,081	-0,098
-189,417	-144,453	-0,039	0,003
-188,402	137,708	-0,124	0,118
-187,387	43,504	-0,068	0,045
-186,373	16,970	0,145	0,084
-185,358	-176,349	0,058	0,001
-184,344	677,924	-0,021	0,041
-183,329	-200,000	0,013	0,183
-182,315	-169,227	0,119	-0,003
-181,300	-39,932	0,148	-0,056
-180,285	800,000	-0,060	-0,163
-179,271	-200,000	-0,007	-0,102
-178,256	-129,373	0,107	-0,011
-177,242	550,100	0,054	-0,094
-176,227	800,000	-0,016	-0,047
-175,212	-200,000	0,006	0,038
-174,198	34,097	-0,046	0,029
-173,183	448,551	0,036	0,058
-172,169	-200,000	0,011	-0,048
-171,154	-200,000	-0,029	-0,096
-170,139	-52,409	0,045	0,015
-169,125	-20,910	0,078	-0,035
-168,110	800,000	-0,016	0,050
-167,096	731,370	0,043	0,084
-166,081	800,000	-0,028	0,071
-165,066	-200,000	0,020	-0,090
-164,052	-18,935	0,071	0,032
-163,037	-14,436	-0,108	-0,050
-162,023	-200,000	0,033	0,107
-161,008	-200,000	0,007	0,036
-159,993	47,379	0,029	0,020
-158,979	-79,397	-0,116	0,028
-157,964	800,000	0,049	-0,122
-156,950	72,261	-0,061	-0,047
-155,935	-180,699	0,060	-0,001
-154,920	736,808	0,108	0,212
-153,906	-89,496	0,092	-0,020
-152,891	-10,506	-0,055	0,026
-151,877	114,896	-0,083	-0,074
-150,862	-105,843	0,095	-0,015
-149,847	800,000	0,032	0,075
-148,833	30,146	0,043	-0,027
-147,818	6,200	0,050	-0,027
-146,804	-90,206	0,046	0,010
-145,789	411,748	0,059	0,092
-144,775	713,500	-0,048	0,092
-143,760	-182,335	-0,122	0,002
-142,745	-200,000	0,006	-0,052
-141,731	-31,187	0,141	0,058
-140,716	-200,000	0,006	-0,091
-139,702	-200,000	0,002	0,098
-138,687	547,819	-0,086	0,150
-137,672	-200,000	0,036	0,122
-136,658	372,005	-0,057	-0,085
-135,643	800,000	-0,025	-0,079
-134,629	168,224	0,029	-0,030
-133,614	-200,000	-0,003	-0,097
-132,599	195,472	0,064	0,070
-131,585	414,279	0,031	0,049
-130,570	-113,515	-0,112	-0,016
-129,556	-147,379	0,094	0,006
-128,541	-200,000	0,008	0,046
-127,526	101,163	0,078	-0,066
-126,512	127,945	0,049	-0,045
-125,497	-78,065	0,033	0,008
-124,483	480,759	0,019	0,032
-123,468	800,000	-0,065	0,148
-122,453	-200,000	-0,009	-0,038
-121,439	-98,013	-0,052	0,010
-120,424	-112,979	-0,120	-0,017
