DTS Sentinel unit serial number:	SN410029Multiplexer serial number:	ORYXHardware model number:	OX2-SRSoftware version number:	ORYX F/W v4,00 Oryx Data Collector v3.7.2.0data status	okinstallation	B6 Nyhavnadifferential loss correction	single-endedforward channel	channel 2reverse channel	N/Adate	2023/12/10time	17:35:08forward acquisition time	300,00reverse acquisition time	0,00gamma	499,1914k internal	0,3122k external	0,3122temperature offset calibration	1,0000default loss term (dB/km)	0,3820temperature slope calibration	1,0000multiplexer offset coefficient	1,0000multiplexer slope coefficient	1,0000fibre end	0,00T internal ref (°C)	22,39T ext. ref 1 (°C)	6,05T ext. ref 2 (°C)	6,07length (m)	temperature (°C)	Stokes	anti-Stokes-744,400	327,032	-0,098	-0,141
-743,385	-114,927	-0,241	-0,034
-742,371	-179,533	0,185	-0,003
-741,356	205,112	-0,231	0,267
-740,342	-69,805	0,120	-0,034
-739,327	20,526	-0,267	0,161
-738,312	-76,369	0,132	-0,034
-737,298	-78,801	-0,234	0,059
-736,283	800,000	-0,006	-0,017
-735,269	494,242	-0,144	0,248
-734,254	209,725	0,050	-0,059
-733,239	-47,529	-0,448	-0,161
-732,225	-97,156	0,110	0,021
-731,210	-86,077	-0,016	0,004
-730,196	800,000	-0,072	0,151
-729,181	-33,836	0,023	0,009
-728,167	-200,000	-0,021	-0,139
-727,152	-200,000	-0,020	-0,127
-726,137	-174,061	-0,097	-0,002
-725,123	-200,000	-0,010	0,044
-724,108	261,910	-0,037	-0,049
-723,094	-17,757	-0,121	0,056
-722,079	-200,000	0,002	-0,092
-721,064	-200,000	0,007	-0,076
-720,050	18,251	-0,082	0,049
-719,035	166,341	-0,107	-0,113
-718,021	110,701	0,081	-0,072
-717,006	579,796	-0,067	-0,122
-715,991	800,000	-0,030	-0,074
-714,977	270,329	0,013	-0,017
-713,962	-59,885	-0,098	-0,031
-712,948	-54,398	-0,141	0,047
-711,933	-200,000	-0,007	0,067
-710,918	76,489	0,078	-0,061
-709,904	485,530	0,009	-0,015
-708,889	-200,000	0,009	-0,129
-707,875	-200,000	0,018	-0,061
-706,860	-91,633	0,091	-0,019
-705,845	148,393	0,023	-0,023
-704,831	-95,069	0,133	0,027
-703,816	390,951	-0,078	0,121
-702,802	-98,231	-0,109	-0,021
-701,787	-71,472	-0,055	0,015
-700,772	800,000	-0,040	-0,107
-699,758	196,119	-0,044	0,050
-698,743	-106,381	0,111	0,018
-697,729	115,689	-0,035	-0,032
-696,714	-101,450	-0,049	0,009
-695,699	32,789	-0,125	-0,080
-694,685	489,735	0,003	0,005
-693,670	571,593	0,091	-0,166
-692,656	300,553	-0,049	-0,068
-691,641	-58,920	-0,204	0,065
-690,627	77,603	-0,073	-0,057
-689,612	-200,000	0,015	0,116
-688,597	28,194	-0,052	0,032
-687,583	-200,000	0,033	-0,161
-686,568	-131,883	-0,125	-0,012
-685,554	484,060	0,019	-0,032
-684,539	-51,183	0,053	0,018
-683,524	253,572	0,028	-0,036
-682,510	800,000	-0,028	-0,089
-681,495	800,000	-0,031	0,092
-680,481	-70,148	-0,153	-0,043
-679,466	90,014	-0,126	-0,104
-678,451	-200,000	-0,004	0,083
-677,437	-200,000	0,002	0,084
-676,422	-200,000	0,009	0,208
-675,408	-132,998	-0,051	-0,005
-674,393	-200,000	0,002	-0,097
-673,378	196,356	-0,105	0,119
-672,364	-67,623	-0,193	-0,056
-671,349	29,852	0,059	0,037
-670,335	-200,000	0,007	-0,077
-669,320	-200,000	-0,007	0,108
-668,305	-200,000	-0,028	0,113
-667,291	-163,479	-0,166	-0,006
-666,276	566,062	0,052	-0,095
-665,262	800,000	-0,027	-0,059
-664,247	-200,000	-0,028	-0,130
-663,232	110,939	0,091	-0,081
-662,218	98,337	0,073	-0,062
-661,203	-17,184	-0,172	-0,080
-660,189	201,739	-0,046	-0,053
-659,174	-200,000	0,017	-0,091
-658,159	-45,147	0,058	0,021
-657,145	-200,000	0,015	-0,082
-656,130	12,884	-0,041	0,024
-655,116	-200,000	-0,002	0,027
-654,101	-145,863	0,134	-0,009
-653,086	-200,000	0,006	0,067
-652,072	28,461	-0,102	0,064
-651,057	-200,000	0,012	-0,189
-650,043	-147,690	-0,101	-0,006
-649,028	-46,242	0,101	0,037
-648,014	-200,000	0,011	0,077
-646,999	-200,000	-0,003	-0,040
-645,984	-143,756	-0,077	-0,005
-644,970	259,715	-0,045	-0,058
-643,955	-200,000	0,002	0,051
-642,941	41,864	-0,149	-0,100
-641,926	800,000	-0,012	-0,025
-640,911	-40,223	0,047	0,018
-639,897	-40,053	0,064	0,025
-638,882	193,031	-0,124	-0,139
-637,868	-23,027	0,123	-0,055
-636,853	-200,000	-0,023	-0,114
-635,838	5,068	-0,120	-0,065
-634,824	64,856	0,097	-0,073
-633,809	-200,000	0,025	0,105
-632,795	-200,000	0,014	-0,073
-631,780	29,077	0,060	0,038
-630,765	-163,136	-0,141	0,005
-629,751	-73,214	0,115	0,031
-628,736	121,956	0,013	0,012
-627,722	263,669	0,073	-0,095
-626,707	-4,403	-0,128	-0,066
-625,692	-105,566	-0,015	0,003
-624,678	-200,000	-0,011	0,056
-623,663	526,210	0,019	-0,034
-622,649	-68,741	-0,076	0,022
-621,634	153,782	-0,098	0,099
-620,619	3,176	0,086	0,046
-619,605	-156,229	0,020	-0,001
-618,590	-200,000	-0,007	-0,111
-617,576	800,000	-0,054	0,115
-616,561	-113,752	0,190	-0,027
-615,546	62,231	-0,072	-0,053
-614,532	-200,000	0,016	-0,144
-613,517	-151,567	0,065	-0,003
-612,503	-194,063	-0,203	-0,001
-611,488	290,911	0,069	-0,093
-610,474	-200,000	-0,027	-0,102
-609,459	-92,001	0,073	-0,015
-608,444	-143,158	-0,201	-0,014
-607,430	-78,689	0,101	-0,025
-606,415	-80,247	0,105	0,026
-605,401	-200,000	-0,005	0,019
-604,386	40,001	0,115	-0,076
-603,371	-200,000	-0,001	0,046
-602,357	-200,000	0,018	-0,163
-601,342	800,000	0,048	-0,142
-600,328	-200,000	0,014	0,060
-599,313	800,000	-0,030	0,088
-598,298	-200,000	-0,011	-0,136
-597,284	-25,574	-0,100	-0,044
-596,269	197,982	0,117	0,133
-595,255	-128,210	0,051	0,005
-594,240	-34,269	-0,121	-0,049
-593,225	-75,325	0,032	0,008
-592,211	461,031	-0,085	-0,140
-591,196	-200,000	0,016	-0,187
-590,182	130,634	-0,105	-0,099
-589,167	152,175	0,027	-0,027
-588,152	70,309	0,078	-0,059
-587,138	-121,693	0,156	-0,019
-586,123	-200,000	-0,016	-0,236
-585,109	407,701	0,039	-0,062
-584,094	800,000	0,033	-0,070
-583,079	-89,233	0,111	0,024
-582,065	-148,562	0,122	-0,007
-581,050	345,521	0,024	0,036
-580,036	304,146	0,050	0,069
-579,021	64,934	-0,030	-0,022
-578,006	-200,000	0,013	-0,042
-576,992	-200,000	-0,024	0,101
-575,977	61,852	0,219	-0,162
-574,963	152,539	-0,035	0,036
-573,948	-63,680	-0,170	-0,051
-572,934	-200,000	-0,041	0,159
-571,919	-8,206	0,076	0,038
-570,904	800,000	-0,072	-0,208
-569,890	800,000	0,050	-0,127
-568,875	-200,000	0,020	-0,116
-567,861	9,590	-0,139	0,078
-566,846	-200,000	0,005	0,024
-565,831	172,699	-0,112	0,120
-564,817	-75,656	-0,134	0,035
-563,802	-31,519	-0,091	0,038
-562,788	185,832	0,043	-0,048
-561,773	79,413	-0,031	-0,024
-560,758	67,751	0,078	0,059
-559,744	-164,670	-0,063	-0,002
-558,729	-20,889	-0,101	0,046
-557,715	800,000	0,023	-0,072
-556,700	-70,736	-0,092	0,026
-555,685	-43,330	0,125	0,047
-554,671	100,722	0,042	0,036
-553,656	-75,992	-0,044	0,012
-552,642	232,316	0,068	0,083
-551,627	800,000	-0,017	0,053
-550,612	-144,519	0,092	-0,006
-549,598	701,503	0,041	0,080
-548,583	144,450	-0,085	0,084
-547,569	-200,000	-0,007	-0,101
-546,554	-88,851	0,118	0,026
-545,539	-194,785	-0,023	-0,000
-544,525	171,418	-0,062	0,066
-543,510	-200,000	0,011	-0,083
-542,496	-200,000	-0,034	-0,115
-541,481	742,545	0,037	-0,074
-540,466	738,982	-0,010	0,020
-539,452	142,674	0,039	0,039
-538,437	239,599	0,081	0,100
-537,423	216,300	-0,075	-0,089
-536,408	-200,000	-0,013	0,094
-535,393	90,831	-0,028	-0,023
-534,379	266,234	-0,088	-0,114
-533,364	800,000	0,003	-0,007
-532,350	-200,000	-0,003	0,076
-531,335	380,972	0,090	0,137
-530,321	-200,000	-0,006	0,093
-529,306	800,000	-0,034	0,111
-528,291	292,618	-0,055	-0,074
-527,277	-200,000	-0,028	-0,143
-526,262	64,952	-0,070	-0,052
-525,248	-200,000	-0,029	-0,200
-524,233	-200,000	-0,008	-0,078
-523,218	426,141	0,066	0,105
-522,204	86,647	-0,061	0,050
-521,189	-8,944	0,069	-0,034
-520,175	800,000	0,035	0,075
-519,160	-200,000	0,046	-0,205
-518,145	-200,000	-0,004	-0,033
-517,131	462,717	0,017	0,029
-516,116	40,296	0,094	-0,062
-515,102	669,807	-0,024	0,046
-514,087	-43,143	-0,110	0,041
-513,072	800,000	0,011	0,025
-512,058	103,016	-0,083	-0,072
-511,043	174,651	-0,049	-0,053
-510,029	-41,314	-0,023	-0,009
-509,014	35,278	0,081	0,053
-507,999	800,000	0,033	-0,102
-506,985	33,100	0,080	0,051
-505,970	-91,802	-0,061	-0,013
-504,956	-200,000	0,033	0,000
-503,941	70,531	-0,072	-0,055
-502,926	800,000	0,041	0,109
-501,912	398,247	-0,081	0,125
-500,897	-26,483	0,177	0,076
-499,883	-200,000	0,024	-0,099
-498,868	-86,501	0,058	0,013
-497,853	-149,593	-0,155	0,009
-496,839	604,187	-0,049	0,090
-495,824	-165,919	0,120	0,004
-494,810	-200,000	-0,002	0,056
-493,795	800,000	0,040	0,086
-492,781	-200,000	0,006	0,027
-491,766	-65,290	-0,100	0,030
-490,751	501,598	0,037	-0,063
-489,737	4,982	-0,098	-0,053
-488,722	-157,611	0,042	0,002
-487,708	19,503	0,061	-0,036
-486,693	153,734	0,055	-0,056
-485,678	800,000	-0,065	-0,136
-484,664	156,505	-0,033	-0,034
-483,649	61,232	0,075	-0,055
-482,635	-96,486	-0,145	0,028
-481,620	-1,716	-0,094	-0,049
-480,605	43,064	0,051	-0,034
-479,591	-200,000	0,005	0,036
-478,576	800,000	0,006	0,015
-477,562	-200,000	0,001	-0,225
-476,547	7,411	0,032	0,018
-475,532	512,054	-0,106	-0,183
-474,518	24,791	0,033	0,020
-473,503	41,975	0,110	0,073
-472,489	2,938	-0,102	0,055
-471,474	-200,000	0,010	0,162
-470,459	352,718	0,027	-0,039
-469,445	102,112	-0,071	0,061
-468,430	-131,896	-0,127	0,012
-467,416	-163,410	0,039	0,001
-466,401	281,437	0,109	0,144
-465,386	-35,367	0,089	-0,035
-464,372	-89,716	0,061	0,013
-463,357	-45,628	-0,116	0,042
-462,343	724,606	0,041	-0,080
-461,328	800,000	-0,031	-0,096
-460,313	-200,000	0,006	-0,021
-459,299	-169,049	0,127	0,003
-458,284	-200,000	0,006	-0,064
-457,270	155,916	-0,106	-0,108
-456,255	-104,995	0,029	0,005
-455,241	329,639	-0,081	-0,115
-454,226	-35,284	-0,111	-0,044
-453,211	-200,000	0,004	-0,096
-452,197	63,952	0,042	-0,031
-451,182	-121,330	0,124	-0,015
-450,168	250,253	0,058	0,072
-449,153	-200,000	0,000	0,124
-448,138	-200,000	0,000	-0,004
-447,124	-152,040	-0,293	-0,015
-446,109	-200,000	0,014	-0,149
-445,095	-115,206	-0,046	-0,006
-444,080	-170,435	0,095	-0,002
-443,065	108,199	-0,047	-0,042
-442,051	582,922	-0,037	0,066
-441,036	69,178	-0,069	0,052
-440,022	261,837	0,051	-0,065
-439,007	568,859	-0,024	-0,043
-437,992	-200,000	0,017	0,092
-436,978	49,186	-0,119	0,082
-435,963	69,072	0,063	-0,048
-434,949	90,608	-0,092	-0,076
-433,934	202,415	-0,025	0,029
-432,919	69,856	0,073	0,055
-431,905	594,173	0,009	0,017
-430,890	-75,126	-0,075	0,020
-429,876	80,701	0,019	-0,015
-428,861	-91,270	0,085	0,018
-427,846	361,437	-0,045	-0,066
-426,832	-200,000	0,016	-0,105
-425,817	50,247	0,001	-0,001
-424,803	-43,193	-0,113	0,042
-423,788	437,296	-0,047	-0,075
-422,773	-176,678	0,108	-0,002
-421,759	103,995	0,015	0,013
-420,744	65,130	0,008	0,006
-419,730	800,000	0,036	-0,102
-418,715	197,320	0,047	-0,053
-417,701	282,432	-0,036	-0,048
-416,686	-43,215	0,067	-0,025
-415,671	778,473	-0,074	-0,149
-414,657	552,527	-0,045	-0,080
-413,642	0,158	-0,075	-0,039
-412,628	211,510	0,033	-0,038
-411,613	120,176	0,101	0,092
-410,598	283,615	0,043	0,057
-409,584	789,755	0,068	0,138
-408,569	203,007	0,054	-0,062
-407,555	164,907	0,032	0,034
-406,540	-200,000	0,003	-0,032
-405,525	-4,054	0,109	0,055
-404,511	235,440	-0,037	-0,045
-403,496	168,735	-0,073	0,077
-402,482	333,551	-0,039	0,055
-401,467	91,511	0,069	0,057
-400,452	262,914	-0,041	0,052
-399,438	-108,755	-0,105	-0,016
-398,423	186,277	-0,065	-0,071
-397,409	-87,968	-0,074	-0,016
-396,394	546,310	0,077	-0,137
-395,379	178,240	0,123	0,132
-394,365	741,264	-0,027	-0,054
-393,350	800,000	0,037	0,078
-392,336	210,668	0,043	0,050
-391,321	189,343	-0,091	0,100
-390,306	66,504	-0,128	-0,095
-389,292	800,000	0,037	-0,100
-388,277	-100,317	0,050	0,009
-387,263	95,571	-0,072	0,060
-386,248	383,103	0,065	0,099
-385,233	29,075	0,058	0,036
-384,219	-200,000	0,003	0,048
-383,204	167,212	-0,058	-0,061
-382,190	739,593	0,027	0,054
-381,175	-200,000	0,001	-0,069
-380,160	243,114	-0,064	-0,078
-379,146	189,626	0,100	0,110
-378,131	800,000	-0,066	0,162
-377,117	-200,000	-0,042	0,145
-376,102	139,078	-0,075	-0,073
-375,088	149,673	-0,123	-0,122
-374,073	-28,729	0,056	-0,023
-373,058	-153,308	-0,069	-0,003
-372,044	-152,424	-0,063	-0,003
-371,029	122,424	0,045	0,042
-370,015	-200,000	-0,016	0,087
-369,000	-113,196	-0,084	0,012
-367,985	-40,818	-0,120	-0,046
-366,971	-200,000	0,054	0,000
-365,956	-140,452	0,064	0,005
-364,942	55,548	-0,015	0,011
-363,927	-39,263	0,093	-0,036
-362,912	-18,199	0,074	-0,034
-361,898	-200,000	-0,008	0,113
-360,883	-121,331	-0,153	-0,018
-359,869	172,831	-0,053	-0,056
-358,854	129,899	0,105	-0,099
-357,839	-170,339	0,096	-0,002
-356,825	419,265	0,029	0,046
-355,810	-4,895	-0,070	0,035
-354,796	-92,790	-0,047	0,010
-353,781	-168,558	-0,041	-0,001
-352,766	-87,901	0,008	-0,002
-351,752	-102,232	0,009	-0,002
-350,737	259,835	0,024	-0,030
-349,723	800,000	0,081	0,168
-348,708	20,453	-0,091	-0,054
-347,693	592,423	-0,088	-0,161
-346,679	154,061	0,018	-0,018
-345,664	-136,458	0,089	-0,007
-344,650	-52,858	0,046	-0,015
-343,635	-11,679	0,089	0,043
-342,620	-88,712	0,042	0,009
-341,606	659,715	0,033	-0,063
-340,591	388,197	-0,065	-0,098
-339,577	-56,342	-0,048	-0,016
-338,562	-138,096	0,066	0,005
-337,548	7,319	0,070	-0,038
-336,533	29,810	0,086	0,054
-335,518	-200,000	0,004	0,112
-334,504	-200,000	-0,006	0,130
-333,489	-200,000	-0,023	0,175
-332,475	800,000	0,056	-0,146
-331,460	800,000	-0,040	-0,083
-330,445	348,402	-0,075	0,108
-329,431	23,247	-0,025	-0,015
-328,416	3,973	-0,038	0,020
-327,402	-200,000	-0,011	0,065
-326,387	800,000	0,028	-0,080
-325,372	800,000	-0,045	-0,131
-324,358	-200,000	0,021	-0,117
-323,343	-120,340	0,180	-0,022
-322,329	-12,083	0,072	-0,034
-321,314	27,974	-0,095	-0,059
-320,299	-128,968	-0,111	0,011
-319,285	235,115	-0,054	0,065
-318,270	-200,000	0,014	0,056
-317,256	192,722	-0,062	0,068
-316,241	-135,988	-0,090	-0,008
-315,226	-100,269	0,126	0,023
-314,212	-57,777	0,053	0,017
-313,197	-62,828	-0,077	0,023
-312,183	-163,765	-0,054	0,002
-311,168	-200,000	-0,017	-0,061
-310,153	-94,525	-0,124	0,024
-309,139	-97,402	-0,153	-0,029
-308,124	-200,000	0,054	0,182
-307,110	531,644	0,039	-0,068
-306,095	-52,472	-0,081	0,027
-305,080	27,760	0,082	0,050
-304,066	-200,000	-0,007	-0,076
-303,051	-97,478	-0,020	0,004
-302,037	240,643	-0,137	-0,167
-301,022	531,673	-0,089	-0,155
-300,008	21,732	0,119	0,071
-298,993	54,511	-0,096	0,068
-297,978	-200,000	0,009	0,106
-296,964	-200,000	-0,043	0,170
-295,949	-103,432	-0,113	-0,019
-294,935	-124,303	0,146	0,016
-293,920	800,000	-0,036	0,086
-292,905	-200,000	0,002	-0,033
-291,891	800,000	-0,015	-0,047
-290,876	118,095	-0,094	-0,085
-289,862	800,000	-0,026	0,071
-288,847	693,845	0,073	-0,142
-287,832	-200,000	-0,021	-0,174
-286,818	-200,000	-0,007	-0,117
-285,803	382,383	-0,039	0,059
-284,789	80,732	0,118	0,093
-283,774	-200,000	-0,020	0,145
-282,759	64,718	-0,034	0,025
-281,745	-132,147	-0,061	0,006
-280,730	-101,225	0,068	-0,012
-279,716	436,291	-0,044	0,070
-278,701	560,509	0,061	0,109
-277,686	-66,302	0,065	-0,019
-276,672	32,534	-0,071	0,045
-275,657	-68,014	0,060	0,017
-274,643	30,997	-0,093	-0,058
-273,628	64,067	-0,051	-0,038
-272,613	145,094	0,086	-0,084
-271,599	-200,000	0,037	0,134
-270,584	-73,062	-0,110	-0,029
-269,570	-200,000	0,007	0,078
-268,555	29,370	0,066	0,041
-267,540	-200,000	0,005	0,058
-266,526	108,775	-0,149	-0,130
-265,511	-140,884	0,089	-0,007
-264,497	23,069	0,031	-0,018
-263,482	171,888	-0,035	-0,037
-262,467	479,374	0,053	0,089
-261,453	-200,000	-0,005	0,083
-260,438	778,999	0,048	-0,096
-259,424	146,639	0,044	-0,044
-258,409	-200,000	0,013	0,096
-257,395	800,000	-0,054	0,153
-256,380	317,736	0,085	0,118
-255,365	-21,294	-0,057	0,026
-254,351	18,169	0,103	0,060
-253,336	-200,000	0,002	0,037
-252,322	446,716	0,056	-0,091
-251,307	119,542	0,040	0,036
-250,292	-69,403	0,116	-0,032
-249,278	-132,812	0,074	0,007
-248,263	-159,320	0,063	0,003
-247,249	-200,000	0,007	0,028
-246,234	-88,010	0,129	0,028
-245,219	-200,000	-0,021	0,071
-244,205	-4,070	-0,092	0,047
-243,190	29,309	0,124	0,077
-242,176	102,791	0,132	0,113
-241,161	-36,489	-0,091	0,036
-240,146	15,203	0,109	0,062
-239,132	-200,000	0,005	-0,129
-238,117	195,244	-0,079	-0,088
-237,103	519,638	0,030	-0,051
-236,088	410,296	0,030	0,047
-235,073	21,401	-0,158	0,093
-234,059	800,000	0,071	0,152
-233,044	361,399	0,048	0,071
-232,030	800,000	0,036	0,075
-231,015	-200,000	0,017	0,104
-230,000	800,000	-0,018	-0,046
-228,986	-200,000	0,033	0,124
-227,971	308,939	0,060	0,082
-226,957	29,386	-0,035	-0,022
-225,942	-200,000	-0,030	0,194
-224,927	152,965	0,060	0,060
-223,913	-7,154	0,073	0,036
-222,898	305,831	0,031	0,042
-221,884	-9,641	0,137	-0,067
-220,869	779,839	-0,022	0,045
-219,855	141,753	0,058	0,056
-218,840	-200,000	0,007	0,097
-217,825	113,919	0,093	-0,082
-216,811	800,000	0,067	0,152
-215,796	487,913	-0,028	-0,047
-214,782	-73,066	-0,114	-0,030
-213,767	-6,150	0,140	0,070
-212,752	-49,875	0,166	-0,057
-211,738	-200,000	-0,053	-0,234
-210,723	-34,278	-0,042	0,017
-209,709	-200,000	-0,016	0,072
-208,694	-133,322	0,147	0,013
-207,679	188,507	0,008	0,009
-206,665	800,000	0,017	0,056
-205,650	134,007	-0,108	0,102
-204,636	475,982	0,098	0,162
-203,621	-200,000	0,008	0,033
-202,606	-7,924	-0,073	0,036
-201,592	39,382	-0,029	0,019
-200,577	-71,770	-0,060	0,016
-199,563	-117,475	-0,125	0,016
-198,548	800,000	0,047	0,114
-197,533	358,659	0,010	0,015
-196,519	575,875	-0,069	-0,123
-195,504	-37,812	-0,065	-0,025
-194,490	-122,042	0,060	-0,007
-193,475	-200,000	-0,008	0,067
-192,460	202,225	0,052	-0,059
-191,446	70,501	-0,062	0,047
-190,431	510,706	-0,045	0,077
-189,417	334,567	0,085	0,121
-188,402	800,000	0,024	-0,052
-187,387	-200,000	-0,008	-0,081
-186,373	10,451	-0,034	0,019
-185,358	78,114	0,114	-0,089
-184,344	104,481	-0,035	-0,030
-183,329	243,332	0,049	0,060
-182,315	6,441	0,091	0,049
-181,300	80,020	0,079	0,062
-180,285	39,987	-0,059	-0,038
-179,271	-22,622	-0,087	0,038
-178,256	245,775	0,007	-0,008
-177,242	119,483	0,049	0,044
-176,227	432,856	-0,097	-0,153
-175,212	96,981	0,103	0,086
-174,198	-152,858	-0,090	-0,005
-173,183	-48,539	-0,118	-0,041
-172,169	275,094	-0,080	-0,104
-171,154	-200,000	0,001	0,033
-170,139	588,907	0,020	0,036
-169,125	800,000	-0,031	-0,077
-168,110	560,590	-0,057	0,100
-167,096	-200,000	0,003	-0,064
-166,081	-178,274	-0,083	0,001
-165,066	-127,564	-0,031	0,003
-164,052	718,836	0,054	0,105
-163,037	800,000	0,019	0,048
-162,023	-200,000	0,012	0,045
-161,008	-39,134	0,037	-0,014
-159,993	800,000	-0,028	0,083
-158,979	800,000	-0,038	0,113
-157,964	98,503	-0,079	-0,066
-156,950	-200,000	-0,042	-0,177
-155,935	192,431	0,034	-0,038
-154,920	106,979	0,048	0,042
-153,906	-155,655	0,160	-0,007
-152,891	-98,360	-0,138	0,025
-151,877	-129,287	-0,191	0,019
-150,862	89,850	0,074	0,060
-149,847	-200,000	0,002	-0,083
-148,833	800,000	0,056	0,169
-147,818	649,671	-0,027	0,051
-146,804	-8,457	0,113	0,055
-145,789	25,775	0,120	0,072
-144,775	-181,180	0,194	-0,003
-143,760	153,557	-0,117	-0,117
-142,745	-200,000	0,027	-0,183
-141,731	-53,831	0,107	-0,035
-140,716	-200,000	0,004	0,078
-139,702	-100,124	0,088	0,016
-138,687	-200,000	-0,031	0,138
-137,672	-121,544	0,084	0,010
-136,658	800,000	0,037	-0,080
-135,643	-127,943	-0,023	0,002
-134,629	245,888	0,033	-0,040
-133,614	-45,768	0,052	0,019
-132,599	-145,267	0,144	0,009
-131,585	-39,613	0,074	0,028
-130,570	117,493	-0,049	-0,044
-129,556	-38,941	0,018	-0,007
-128,541	-49,518	0,093	-0,032
-127,526	800,000	0,028	-0,061
-126,512	60,173	-0,083	0,060
-125,497	-81,490	0,017	0,004
-124,483	249,797	-0,074	0,092
-123,468	656,141	0,064	-0,121
-122,453	-198,926	-0,151	-0,001
-121,439	-200,000	-0,029	-0,160
-120,424	-124,279	0,027	0,003
-119,410	800,000	-0,041	0,092
-118,395	95,698	0,175	0,145
