DTS Sentinel unit serial number:	SN410029Multiplexer serial number:	ORYXHardware model number:	OX2-SRSoftware version number:	ORYX F/W v4,00 Oryx Data Collector v3.7.2.0data status	okinstallation	B6 Nyhavnadifferential loss correction	single-endedforward channel	channel 2reverse channel	N/Adate	2023/12/07time	19:25:08forward acquisition time	300,00reverse acquisition time	0,00gamma	499,1914k internal	0,3164k external	0,3164temperature offset calibration	1,0000default loss term (dB/km)	0,3820temperature slope calibration	1,0000multiplexer offset coefficient	1,0000multiplexer slope coefficient	1,0000fibre end	0,00T internal ref (°C)	14,01T ext. ref 1 (°C)	-3,01T ext. ref 2 (°C)	-3,03length (m)	temperature (°C)	Stokes	anti-Stokes-744,400	635,317	0,021	-0,039
-743,385	-148,769	-0,258	0,015
-742,371	3,139	0,142	0,076
-741,356	-134,044	-0,346	-0,031
-740,342	163,058	0,110	0,114
-739,327	-131,032	-0,340	-0,033
-738,312	-81,868	0,204	0,049
-737,298	-157,277	-0,387	-0,017
-736,283	-29,786	0,176	0,073
-735,269	-118,001	-0,227	0,030
-734,254	-103,967	0,054	0,009
-733,239	-65,353	-0,515	-0,152
-732,225	-32,344	0,166	0,068
-731,210	800,000	0,009	-0,024
-730,196	-200,000	-0,020	-0,103
-729,181	350,536	0,031	-0,045
-728,167	64,393	-0,125	-0,092
-727,152	179,020	0,039	-0,042
-726,137	108,229	0,085	0,075
-725,123	-44,857	-0,070	-0,025
-724,108	358,218	0,045	-0,066
-723,094	-200,000	-0,007	-0,090
-722,079	-77,267	-0,133	0,034
-721,064	-83,293	0,171	0,040
-720,050	467,710	-0,040	0,066
-719,035	74,606	-0,147	0,114
-718,021	-200,000	0,020	-0,084
-717,006	-105,280	-0,053	-0,009
-715,991	-200,000	-0,002	-0,118
-714,977	135,851	-0,081	0,078
-713,962	-200,000	-0,016	-0,084
-712,948	322,796	0,083	0,116
-711,933	-109,102	-0,163	-0,025
-710,918	321,511	-0,032	0,045
-709,904	63,448	-0,162	0,119
-708,889	-105,030	-0,059	-0,010
-707,875	304,585	-0,043	-0,059
-706,860	48,779	-0,021	-0,014
-705,845	-182,193	0,020	0,000
-704,831	-200,000	-0,025	0,141
-703,816	-107,817	0,127	-0,020
-702,802	-200,000	0,031	-0,114
-701,787	-200,000	-0,010	-0,045
-700,772	-90,996	-0,120	-0,025
-699,758	800,000	0,050	0,107
-698,743	-2,020	0,068	0,035
-697,729	343,376	-0,040	-0,058
-696,714	266,623	-0,055	-0,070
-695,699	800,000	-0,044	-0,109
-694,685	800,000	-0,038	-0,109
-693,670	-6,743	-0,044	-0,022
-692,656	800,000	0,035	-0,090
-691,641	-200,000	0,010	-0,094
-690,627	-200,000	-0,007	0,071
-689,612	800,000	0,052	0,110
-688,597	-152,230	0,088	-0,005
-687,583	-200,000	0,000	-0,014
-686,568	2,088	-0,137	-0,072
-685,554	-200,000	0,007	0,107
-684,539	13,542	0,127	0,072
-683,524	108,614	0,109	-0,096
-682,510	477,234	-0,019	0,032
-681,495	-200,000	-0,005	0,040
-680,481	-113,988	0,072	0,010
-679,466	-10,106	-0,102	-0,050
-678,451	-200,000	0,016	-0,122
-677,437	-76,448	0,082	-0,021
-676,422	-40,158	0,081	-0,031
-675,408	91,135	-0,061	-0,050
-674,393	-121,109	-0,024	0,003
-673,378	-195,988	0,226	-0,001
-672,364	-200,000	0,007	-0,089
-671,349	-168,278	-0,029	0,001
-670,335	382,999	-0,056	0,085
-669,320	800,000	-0,027	0,068
-668,305	381,093	0,053	-0,080
-667,291	-200,000	-0,017	-0,146
-666,276	-23,762	-0,072	0,032
-665,262	87,621	-0,027	-0,022
-664,247	599,225	-0,089	-0,163
-663,232	-54,467	0,182	0,060
-662,218	366,348	0,106	0,157
-661,203	69,353	-0,072	0,054
-660,189	-72,405	0,029	0,008
-659,174	64,795	0,080	-0,059
-658,159	52,062	-0,128	-0,089
-657,145	186,297	-0,136	-0,149
-656,130	-133,265	-0,067	-0,006
-655,116	-200,000	0,001	-0,105
-654,101	-200,000	0,032	-0,160
-653,086	-200,000	-0,002	0,066
-652,072	800,000	0,021	0,062
-651,057	721,680	0,016	-0,032
-650,043	-130,439	-0,133	-0,013
-649,028	27,055	0,087	0,054
-648,014	800,000	0,004	0,011
-646,999	800,000	0,028	-0,060
-645,984	800,000	0,022	0,052
-644,970	-81,456	-0,129	-0,031
-643,955	-102,799	-0,044	-0,008
-642,941	750,433	-0,034	0,067
-641,926	-130,733	0,058	0,006
-640,911	-200,000	-0,007	0,084
-639,897	-200,000	0,002	0,094
-638,882	800,000	-0,024	-0,077
-637,868	308,400	0,034	0,047
-636,853	299,453	-0,088	-0,120
-635,838	337,698	-0,038	-0,055
-634,824	-200,000	-0,003	-0,030
-633,809	-99,336	0,143	0,026
-632,795	-140,139	0,062	0,005
-631,780	87,697	-0,037	-0,030
-630,765	800,000	-0,030	0,077
-629,751	-200,000	0,007	0,065
-628,736	-200,000	-0,035	-0,139
-627,722	800,000	0,052	-0,121
-626,707	-200,000	-0,001	-0,068
-625,692	50,912	0,177	0,122
-624,678	191,363	-0,029	-0,032
-623,663	356,725	-0,007	0,010
-622,649	83,901	0,035	0,028
-621,634	122,709	0,058	-0,054
-620,619	800,000	-0,059	-0,148
-619,605	-200,000	-0,024	-0,098
-618,590	800,000	0,019	-0,046
-617,576	284,388	0,081	0,107
-616,561	-3,047	0,056	0,029
-615,546	-200,000	0,034	-0,162
-614,532	-125,780	-0,015	0,002
-613,517	-39,755	-0,097	-0,037
-612,503	-81,444	-0,079	-0,019
-611,488	800,000	0,013	0,030
-610,474	-200,000	-0,032	-0,109
-609,459	36,002	-0,022	-0,014
-608,444	-183,287	-0,125	0,002
-607,430	800,000	0,034	0,079
-606,415	113,394	-0,095	-0,084
-605,401	800,000	-0,019	-0,039
-604,386	-109,219	-0,021	0,003
-603,371	50,497	-0,094	0,065
-602,357	-200,000	-0,002	0,050
-601,342	446,194	0,099	-0,160
-600,328	665,118	0,032	-0,060
-599,313	-200,000	0,031	-0,171
-598,298	29,718	-0,125	0,078
-597,284	31,224	0,082	-0,051
-596,269	-124,197	-0,073	0,008
-595,255	2,018	0,050	0,026
-594,240	343,685	-0,086	0,124
-593,225	363,404	0,038	0,055
-592,211	-3,075	0,023	-0,012
-591,196	-36,609	0,089	-0,035
-590,182	65,840	-0,033	0,024
-589,167	-200,000	0,004	0,101
-588,152	800,000	0,023	0,062
-587,138	185,982	0,069	-0,075
-586,123	91,331	-0,076	-0,062
-585,109	800,000	0,068	-0,139
-584,094	408,582	-0,036	0,055
-583,079	136,109	-0,035	-0,034
-582,065	158,414	-0,033	-0,034
-581,050	-200,000	0,032	0,120
-580,036	-110,143	-0,056	0,008
-579,021	800,000	-0,003	-0,008
-578,006	233,555	-0,025	-0,030
-576,992	72,002	-0,089	0,068
-575,977	160,325	-0,089	-0,090
-574,963	-162,318	0,016	0,001
-573,948	-159,361	-0,042	0,002
-572,934	-75,795	-0,161	-0,041
-571,919	-200,000	0,002	-0,140
-570,904	285,251	-0,141	0,187
-569,890	-56,388	-0,105	-0,034
-568,875	66,144	-0,044	-0,033
-567,861	96,232	0,060	-0,050
-566,846	-200,000	-0,005	0,120
-565,831	-40,660	-0,139	-0,053
-564,817	23,525	-0,070	0,042
-563,802	-17,039	-0,050	-0,023
-562,788	623,269	0,039	-0,072
-561,773	503,979	0,032	-0,054
-560,758	22,106	0,042	0,025
-559,744	194,221	0,054	-0,060
-558,729	-200,000	-0,024	-0,100
-557,715	-200,000	0,051	0,179
-556,700	142,544	0,023	-0,022
-555,685	-200,000	-0,012	0,082
-554,671	187,904	-0,051	-0,056
-553,656	-200,000	-0,008	-0,068
-552,642	189,524	0,109	0,119
-551,627	-200,000	-0,011	-0,070
-550,612	800,000	0,032	-0,096
-549,598	-200,000	-0,023	-0,126
-548,583	2,709	0,076	0,040
-547,569	160,321	-0,071	0,073
-546,554	800,000	-0,026	-0,060
-545,539	-10,281	0,051	0,025
-544,525	572,563	0,051	-0,092
-543,510	-65,153	-0,082	0,024
-542,496	575,573	-0,028	-0,050
-541,481	800,000	0,044	-0,093
-540,466	-200,000	-0,014	-0,088
-539,452	321,832	-0,100	0,139
-538,437	-96,919	0,113	0,022
-537,423	-84,716	-0,106	-0,024
-536,408	-200,000	0,023	0,121
-535,393	18,529	0,008	0,004
-534,379	800,000	-0,027	-0,080
-533,364	-200,000	0,015	-0,080
-532,350	-110,699	0,089	0,013
-531,335	93,314	0,094	0,078
-530,321	92,289	-0,081	-0,067
-529,306	-124,987	0,036	-0,004
-528,291	800,000	-0,028	-0,085
-527,277	800,000	0,010	-0,027
-526,262	176,571	0,049	0,052
-525,248	-23,375	-0,025	0,011
-524,233	-137,870	0,101	0,008
-523,218	107,311	0,042	-0,037
-522,204	16,420	-0,142	-0,081
-521,189	-115,384	-0,215	-0,029
-520,175	60,407	-0,069	0,050
-519,160	44,339	0,134	0,089
-518,145	180,419	0,083	0,089
-517,131	248,351	-0,096	0,118
-516,116	242,572	-0,095	0,116
-515,102	4,969	-0,019	0,010
-514,087	113,421	0,080	-0,071
-513,072	-138,658	-0,061	-0,005
-512,058	-75,876	-0,073	-0,019
-511,043	-200,000	-0,008	0,093
-510,029	174,540	0,093	0,099
-509,014	-42,893	-0,022	-0,008
-507,999	-200,000	-0,005	0,033
-506,985	-56,500	0,072	-0,023
-505,970	42,338	-0,081	-0,054
-504,956	-108,643	-0,041	0,006
-503,941	146,872	0,080	-0,078
-502,926	103,443	0,047	0,040
-501,912	306,165	-0,064	0,087
-500,897	7,848	0,075	-0,041
-499,883	2,166	0,146	-0,076
-498,868	-200,000	-0,019	-0,115
-497,853	-112,484	-0,064	0,009
-496,839	-114,885	-0,110	0,015
-495,824	42,133	0,038	0,025
-494,810	51,757	0,142	0,098
-493,795	602,149	-0,018	0,032
-492,781	79,083	0,084	-0,066
-491,766	-158,593	0,098	0,004
-490,751	-200,000	0,008	-0,090
-489,737	46,489	-0,105	0,071
-488,722	-200,000	-0,017	0,162
-487,708	171,868	-0,030	0,031
-486,693	-200,000	-0,019	0,101
-485,678	-96,376	-0,048	-0,009
-484,664	-200,000	-0,014	-0,163
-483,649	172,847	-0,086	-0,090
-482,635	800,000	-0,023	-0,058
-481,620	-134,221	-0,050	-0,004
-480,605	-200,000	0,016	0,162
-479,591	-200,000	0,008	0,126
-478,576	-195,033	-0,050	0,000
-477,562	1,975	0,087	0,045
-476,547	88,477	0,059	0,047
-475,532	738,631	-0,049	0,096
-474,518	-66,478	0,215	-0,062
-473,503	-53,531	-0,055	0,018
-472,489	-118,831	0,093	-0,012
-471,474	173,501	-0,134	-0,141
-470,459	-166,455	-0,103	0,003
-469,445	51,586	-0,101	-0,070
-468,430	567,869	-0,026	-0,047
-467,416	800,000	0,069	0,196
-466,401	86,548	0,050	0,040
-465,386	407,946	0,086	0,132
-464,372	-83,441	0,100	-0,023
-463,357	-18,636	0,086	-0,039
-462,343	-11,129	0,053	0,025
-461,328	-200,000	-0,019	-0,121
-460,313	278,715	0,108	0,141
-459,299	800,000	0,052	0,134
-458,284	64,691	0,088	0,065
-457,270	-147,211	0,116	-0,007
-456,255	328,760	-0,050	0,070
-455,241	28,164	-0,081	-0,049
-454,226	-200,000	-0,032	0,135
-453,211	-200,000	0,017	0,145
-452,197	452,521	-0,076	0,123
-451,182	-200,000	0,014	-0,063
-450,168	-82,303	0,109	-0,026
-449,153	800,000	-0,047	-0,107
-448,138	-144,896	0,129	-0,008
-447,124	-119,552	-0,093	0,012
-446,109	108,819	0,070	-0,061
-445,095	-200,000	0,012	0,176
-444,080	414,256	0,072	0,112
-443,065	800,000	-0,039	-0,085
-442,051	31,668	-0,077	0,048
-441,036	-65,555	-0,112	-0,032
-440,022	800,000	-0,053	-0,147
-439,007	578,398	0,052	0,093
-437,992	503,754	0,077	-0,131
-436,978	1,528	-0,129	0,067
-435,963	276,554	0,054	-0,069
-434,949	-200,000	0,006	-0,211
-433,934	-44,052	-0,136	-0,049
-432,919	2,369	0,045	0,024
-431,905	294,326	0,063	0,083
-430,890	-200,000	0,006	-0,168
-429,876	252,436	0,071	-0,088
-428,861	105,398	-0,022	0,019
-427,846	-157,503	-0,135	0,006
-426,832	-200,000	0,000	-0,007
-425,817	458,243	-0,030	-0,048
-424,803	43,996	0,113	0,075
-423,788	-99,233	-0,031	-0,006
-422,773	-200,000	0,022	0,095
-421,759	104,060	0,081	0,069
-420,744	-150,144	-0,053	0,003
-419,730	77,429	0,044	-0,034
-418,715	-130,179	-0,079	0,008
-417,701	71,325	0,104	0,078
-416,686	-200,000	0,013	-0,142
-415,671	-38,293	0,067	-0,026
-414,657	345,155	0,107	0,153
-413,642	509,775	-0,052	0,089
-412,628	349,159	-0,083	-0,119
-411,613	-200,000	0,002	-0,046
-410,598	-200,000	-0,004	-0,084
-409,584	800,000	-0,017	0,043
-408,569	123,310	0,136	0,124
-407,555	226,519	0,049	-0,057
-406,540	-94,085	-0,073	0,014
-405,525	48,120	-0,048	0,032
-404,511	-200,000	-0,027	-0,096
-403,496	-200,000	0,014	-0,092
-402,482	800,000	0,038	0,081
-401,467	-3,679	0,070	0,035
-400,452	109,035	0,135	0,117
-399,438	-188,236	-0,066	-0,001
-398,423	800,000	0,045	0,134
-397,409	-200,000	-0,009	-0,038
-396,394	305,289	-0,075	-0,101
-395,379	800,000	0,012	0,035
-394,365	385,494	-0,095	0,143
-393,350	-200,000	0,005	0,127
-392,336	-200,000	-0,013	0,049
-391,321	-200,000	-0,003	0,027
-390,306	34,666	-0,126	-0,080
-389,292	206,292	-0,046	0,052
-388,277	-4,000	0,128	-0,064
-387,263	583,617	-0,060	-0,108
-386,248	4,009	0,068	0,036
-385,233	246,488	0,120	0,147
-384,219	435,070	-0,063	-0,099
-383,204	795,682	0,013	-0,025
-382,190	-138,638	-0,035	0,003
-381,175	800,000	0,017	-0,042
-380,160	-7,577	0,071	-0,035
-379,146	-200,000	0,011	-0,115
-378,131	-62,818	0,014	0,004
-377,117	-200,000	0,013	-0,090
-376,102	9,111	-0,122	-0,067
-375,088	800,000	0,008	-0,017
-374,073	-200,000	0,032	-0,169
-373,058	800,000	0,026	-0,058
-372,044	-7,410	0,120	0,059
-371,029	27,447	0,032	0,020
-370,015	479,976	0,029	-0,047
-369,000	39,346	-0,014	0,009
-367,985	-108,254	-0,091	0,014
-366,971	-200,000	-0,009	-0,056
-365,956	800,000	0,036	0,107
-364,942	429,292	0,006	-0,010
-363,927	-11,537	-0,020	-0,010
-362,912	800,000	-0,050	0,101
-361,898	222,284	0,123	0,144
-360,883	390,527	0,044	0,067
-359,869	-106,720	0,062	0,010
-358,854	645,938	-0,014	0,026
-357,839	-51,957	-0,057	0,019
-356,825	64,255	0,082	-0,059
-355,810	93,702	0,155	0,127
-354,796	470,093	0,047	-0,077
-353,781	-107,021	-0,055	0,009
-352,766	-169,593	-0,023	-0,001
-351,752	-200,000	0,011	0,048
-350,737	-122,050	0,112	0,013
-349,723	63,583	-0,133	-0,097
-348,708	-82,311	-0,090	0,021
-347,693	-113,926	0,069	-0,010
-346,679	800,000	-0,032	-0,092
-345,664	-200,000	0,003	0,078
-344,650	-191,426	0,008	0,000
-343,635	-200,000	0,013	0,104
-342,620	41,576	0,149	0,098
-341,606	800,000	-0,053	-0,119
-340,591	800,000	-0,017	-0,045
-339,577	320,299	-0,049	-0,068
-338,562	-200,000	0,016	-0,153
-337,548	-200,000	0,009	-0,102
-336,533	-133,455	-0,020	0,002
-335,518	-34,971	0,172	0,068
-334,504	111,074	-0,061	-0,053
-333,489	128,679	0,093	0,085
-332,475	-200,000	-0,030	-0,139
-331,460	283,420	0,053	0,070
-330,445	614,191	-0,023	0,042
-329,431	800,000	-0,034	0,070
-328,416	135,968	0,082	0,077
-327,402	-200,000	-0,046	0,000
-326,387	800,000	0,022	-0,048
-325,372	-200,000	0,009	-0,064
-324,358	800,000	-0,015	0,045
-323,343	-200,000	-0,009	0,042
-322,329	800,000	-0,053	0,119
-321,314	-200,000	0,018	0,096
-320,299	-200,000	0,023	0,113
-319,285	-16,542	-0,056	0,025
-318,270	147,093	-0,085	0,083
-317,256	758,434	-0,024	0,047
-316,241	-85,818	0,043	0,010
-315,226	800,000	0,046	0,124
-314,212	800,000	-0,009	0,023
-313,197	800,000	-0,043	-0,116
-312,183	-179,882	-0,068	0,001
-311,168	383,272	-0,027	0,041
-310,153	800,000	-0,011	-0,025
-309,139	-102,862	-0,087	-0,015
-308,124	-26,874	0,203	0,086
-307,110	116,622	0,122	0,108
-306,095	330,231	0,095	0,133
-305,080	-200,000	-0,007	-0,066
-304,066	381,572	0,058	0,087
-303,051	49,867	-0,092	-0,063
-302,037	72,829	0,098	-0,074
-301,022	-143,804	-0,069	0,005
-300,008	-53,544	0,054	-0,018
-298,993	338,605	0,032	0,045
-297,978	-173,881	-0,018	0,000
-296,964	-200,000	-0,010	-0,072
-295,949	-200,000	0,012	0,182
-294,935	-200,000	-0,018	-0,086
-293,920	674,456	-0,023	0,042
-292,905	0,358	-0,017	0,009
-291,891	-200,000	0,006	-0,035
-290,876	170,873	0,121	-0,126
-289,862	79,003	-0,110	0,085
-288,847	631,102	-0,052	0,096
-287,832	-36,190	0,035	-0,014
-286,818	-200,000	-0,003	0,013
-285,803	107,524	0,069	0,060
-284,789	95,195	-0,093	0,077
-283,774	-200,000	0,004	0,031
-282,759	-153,332	0,051	0,003
-281,745	29,363	-0,104	-0,064
-280,730	56,042	0,094	-0,066
-279,716	800,000	0,016	0,047
-278,701	124,044	-0,092	-0,083
-277,686	-79,396	0,063	0,015
-276,672	800,000	0,052	0,123
-275,657	-42,654	-0,125	-0,046
-274,643	-200,000	-0,028	0,094
-273,628	-47,993	-0,053	-0,018
-272,613	-84,803	-0,079	0,018
-271,599	-83,965	-0,057	-0,013
-270,584	-200,000	0,017	0,064
-269,570	-90,242	0,082	0,017
-268,555	-200,000	-0,010	0,122
-267,540	556,831	-0,036	-0,064
-266,526	17,751	-0,119	-0,068
-265,511	800,000	-0,017	0,044
-264,497	110,258	0,133	0,116
-263,482	-200,000	-0,013	-0,041
-262,467	800,000	0,039	-0,088
-261,453	-200,000	-0,018	-0,072
-260,438	246,862	0,067	0,082
-259,424	275,590	-0,061	-0,079
-258,409	-200,000	0,033	-0,237
-257,395	465,956	-0,056	-0,091
-256,380	185,966	0,057	0,061
-255,365	-12,958	0,178	0,083
-254,351	-2,333	-0,076	0,039
-253,336	-96,239	-0,140	-0,027
-252,322	7,520	-0,105	-0,057
-251,307	-84,357	0,075	0,017
-250,292	173,910	-0,034	-0,036
-249,278	175,038	-0,046	0,048
-248,263	175,636	0,057	0,060
-247,249	53,106	0,040	0,028
-246,234	-200,000	0,002	-0,098
-245,219	800,000	0,081	-0,215
-244,205	155,048	-0,049	-0,049
-243,190	800,000	0,067	-0,190
-242,176	-200,000	0,036	0,136
-241,161	354,011	-0,039	0,056
-240,146	174,112	-0,054	-0,057
-239,132	800,000	0,023	0,071
-238,117	-200,000	0,006	-0,156
-237,103	-200,000	-0,024	-0,106
-236,088	-7,007	-0,089	0,043
-235,073	-2,760	0,132	0,066
-234,059	-121,262	0,137	0,016
-233,044	-145,427	-0,038	0,002
-232,030	4,980	-0,114	-0,060
-231,015	800,000	-0,051	0,113
-230,000	-157,501	-0,082	0,003
-228,986	-200,000	0,026	-0,108
-227,971	-200,000	0,015	-0,054
-226,957	800,000	0,021	-0,047
-225,942	-200,000	-0,023	-0,077
-224,927	-200,000	-0,005	0,041
-223,913	77,335	0,099	-0,076
-222,898	40,396	0,017	0,011
-221,884	-20,462	0,050	0,022
-220,869	-200,000	-0,001	-0,038
-219,855	140,320	0,068	-0,065
-218,840	751,936	0,081	0,159
-217,825	-101,056	0,033	0,006
-216,811	800,000	0,037	-0,109
-215,796	800,000	0,022	0,067
-214,782	-200,000	-0,019	0,065
-213,767	1,299	0,048	-0,025
-212,752	8,418	0,101	-0,055
-211,738	-62,377	-0,095	-0,028
-210,723	546,097	-0,016	-0,028
-209,709	-200,000	-0,028	-0,102
-208,694	-200,000	0,013	-0,073
-207,679	-111,687	0,023	0,003
-206,665	-91,616	-0,049	0,010
-205,650	89,429	0,202	0,162
-204,636	800,000	-0,071	0,208
-203,621	196,216	-0,032	0,035
-202,606	-23,623	-0,130	-0,056
-201,592	486,552	0,038	0,062
-200,577	110,353	-0,093	-0,081
-199,563	800,000	-0,011	-0,028
-198,548	243,479	-0,062	-0,074
-197,533	800,000	-0,018	0,047
-196,519	-200,000	-0,001	0,076
-195,504	9,925	-0,112	0,061
-194,490	-200,000	0,015	0,097
-193,475	-200,000	-0,001	-0,161
-192,460	177,282	0,026	0,028
-191,446	-176,637	-0,067	0,001
-190,431	-12,866	0,147	-0,069
-189,417	-200,000	0,040	0,192
-188,402	629,396	0,047	0,085
-187,387	-200,000	0,016	-0,079
-186,373	-81,663	-0,097	-0,023
-185,358	-200,000	-0,035	-0,224
-184,344	800,000	-0,027	-0,055
-183,329	257,025	-0,087	0,107
-182,315	59,747	-0,063	0,045
-181,300	-200,000	-0,057	-0,204
-180,285	800,000	0,047	-0,096
-179,271	410,439	-0,015	0,023
-178,256	21,190	-0,065	-0,038
-177,242	-200,000	-0,009	0,053
-176,227	-200,000	-0,020	0,140
-175,212	800,000	-0,026	0,080
-174,198	324,558	0,107	-0,147
-173,183	800,000	0,050	-0,134
-172,169	-73,802	-0,156	-0,041
-171,154	-80,099	0,013	0,003
-170,139	-36,188	0,144	-0,056
-169,125	27,189	0,037	-0,022
-168,110	-200,000	0,025	0,274
-167,096	-123,462	-0,112	-0,013
-166,081	20,096	-0,044	0,025
-165,066	800,000	0,036	-0,083
-164,052	800,000	-0,023	-0,059
-163,037	725,280	0,025	0,048
-162,023	28,962	0,110	0,067
-161,008	195,397	-0,068	0,074
-159,993	-200,000	0,009	0,056
-158,979	147,550	-0,138	-0,134
-157,964	-200,000	-0,001	-0,033
-156,950	-118,778	-0,209	-0,026
-155,935	135,636	0,044	0,041
-154,920	311,291	-0,018	0,024
-153,906	256,999	-0,009	0,011
-152,891	800,000	-0,031	-0,072
-151,877	276,878	0,095	-0,122
-150,862	-200,000	0,037	-0,249
-149,847	-83,136	-0,100	-0,023
-148,833	131,159	-0,046	0,043
-147,818	-200,000	-0,015	-0,059
-146,804	800,000	-0,023	0,058
-145,789	400,949	-0,051	0,077
-144,775	-61,391	-0,053	0,016
-143,760	692,444	-0,094	-0,179
-142,745	160,913	-0,073	0,073
-141,731	800,000	0,009	-0,023
-140,716	-122,508	0,080	-0,009
-139,702	-200,000	-0,026	-0,148
-138,687	241,681	0,030	0,037
-137,672	730,950	-0,059	0,113
-136,658	-200,000	-0,015	-0,108
-135,643	275,680	-0,035	-0,044
-134,629	-200,000	-0,012	-0,049
-133,614	153,644	-0,074	-0,073
-132,599	183,049	0,113	0,120
-131,585	260,749	0,019	-0,024
-130,570	95,899	-0,039	0,032
-129,556	384,294	-0,025	0,037
-128,541	-182,168	0,109	0,001
-127,526	-89,168	-0,071	-0,015
-126,512	-148,539	0,085	0,005
-125,497	119,486	0,092	0,081
-124,483	-103,551	-0,057	0,010
-123,468	17,265	0,029	-0,016
-122,453	461,440	0,034	0,055
-121,439	39,088	-0,102	-0,066
-120,424	800,000	0,023	0,058
-119,410	-89,742	-0,147	-0,031
