DTS Sentinel unit serial number:	SN410029Multiplexer serial number:	ORYXHardware model number:	OX2-SRSoftware version number:	ORYX F/W v4,00 Oryx Data Collector v3.7.2.0data status	okinstallation	B6 Nyhavnadifferential loss correction	single-endedforward channel	channel 2reverse channel	N/Adate	2023/12/09time	17:45:08forward acquisition time	300,00reverse acquisition time	0,00gamma	499,1914k internal	0,3130k external	0,3130temperature offset calibration	1,0000default loss term (dB/km)	0,3820temperature slope calibration	1,0000multiplexer offset coefficient	1,0000multiplexer slope coefficient	1,0000fibre end	0,00T internal ref (°C)	21,01T ext. ref 1 (°C)	4,76T ext. ref 2 (°C)	4,75length (m)	temperature (°C)	Stokes	anti-Stokes-744,400	-5,422	0,094	-0,048
-743,385	-9,481	-0,166	0,082
-742,371	-101,148	0,134	-0,024
-741,356	3,816	-0,311	0,168
-740,342	-124,120	0,096	0,011
-739,327	110,587	-0,258	0,231
-738,312	385,501	-0,066	-0,101
-737,298	-13,096	-0,257	0,124
-736,283	-65,235	0,178	-0,053
-735,269	-129,869	-0,373	0,038
-734,254	277,190	-0,017	0,023
-733,239	-129,878	-0,357	0,036
-732,225	-177,788	0,047	0,001
-731,210	-119,170	-0,092	-0,012
-730,196	-66,509	0,144	0,042
-729,181	397,430	-0,052	-0,081
-728,167	800,000	-0,022	-0,065
-727,152	3,330	-0,089	-0,048
-726,137	-138,814	-0,141	-0,011
-725,123	11,696	-0,038	0,022
-724,108	-200,000	0,008	-0,082
-723,094	-1,933	-0,254	0,132
-722,079	-70,449	0,089	0,025
-721,064	-115,136	-0,023	-0,003
-720,050	-200,000	-0,021	-0,111
-719,035	-200,000	0,002	-0,069
-718,021	335,655	-0,119	-0,171
-717,006	39,074	-0,032	-0,021
-715,991	-11,733	-0,105	0,051
-714,977	-100,911	-0,174	-0,032
-713,962	-200,000	-0,010	-0,102
-712,948	136,339	-0,005	-0,005
-711,933	-200,000	0,000	0,074
-710,918	-200,000	0,013	-0,050
-709,904	777,280	0,063	-0,129
-708,889	-200,000	0,021	-0,081
-707,875	301,804	-0,077	-0,106
-706,860	-200,000	-0,009	-0,033
-705,845	-200,000	0,028	0,103
-704,831	800,000	0,043	0,109
-703,816	420,273	0,036	0,057
-702,802	-55,615	-0,098	0,033
-701,787	-50,736	-0,167	-0,058
-700,772	-102,520	0,011	-0,002
-699,758	-22,003	-0,045	0,020
-698,743	-59,408	0,138	-0,044
-697,729	-200,000	0,003	0,083
-696,714	800,000	-0,091	0,210
-695,699	131,998	0,105	-0,101
-694,685	-110,282	-0,202	0,031
-693,670	800,000	0,031	0,072
-692,656	-200,000	0,029	-0,133
-691,641	76,175	0,041	-0,032
-690,627	460,837	-0,071	-0,118
-689,612	320,146	-0,086	-0,122
-688,597	154,903	-0,065	-0,066
-687,583	-84,245	-0,057	0,013
-686,568	-93,079	-0,108	0,022
-685,554	800,000	0,026	-0,065
-684,539	279,807	0,007	0,010
-683,524	-28,397	-0,152	0,065
-682,510	-200,000	-0,028	0,140
-681,495	-200,000	-0,005	-0,050
-680,481	639,179	0,018	-0,034
-679,466	16,767	-0,095	-0,056
-678,451	196,046	-0,068	-0,076
-677,437	206,277	0,049	0,057
-676,422	-8,936	0,059	0,029
-675,408	-200,000	-0,025	0,118
-674,393	188,762	-0,084	0,094
-673,378	166,604	-0,047	0,050
-672,364	-115,977	0,044	0,006
-671,349	-141,412	0,065	0,005
-670,335	700,678	0,022	0,044
-669,320	800,000	-0,042	-0,107
-668,305	-103,710	-0,171	-0,029
-667,291	800,000	-0,031	0,080
-666,276	54,503	-0,054	-0,039
-665,262	-97,501	-0,023	0,004
-664,247	-77,280	0,008	-0,002
-663,232	165,747	-0,086	-0,091
-662,218	800,000	0,047	-0,113
-661,203	262,071	0,057	0,074
-660,189	298,435	-0,058	0,080
-659,174	-200,000	-0,016	-0,180
-658,159	800,000	-0,036	-0,080
-657,145	642,180	0,062	-0,118
-656,130	541,884	-0,068	-0,121
-655,116	51,670	-0,004	-0,003
-654,101	253,357	-0,028	-0,036
-653,086	-37,999	-0,091	-0,036
-652,072	-156,596	0,043	-0,002
-651,057	800,000	0,024	-0,077
-650,043	463,810	-0,025	-0,041
-649,028	-200,000	0,011	-0,057
-648,014	-58,425	-0,065	0,021
-646,999	-101,771	-0,040	-0,007
-645,984	376,915	-0,037	0,056
-644,970	-36,092	-0,139	-0,056
-643,955	-200,000	-0,007	-0,147
-642,941	147,852	-0,041	-0,041
-641,926	-200,000	-0,013	-0,067
-640,911	418,088	0,065	-0,103
-639,897	-99,652	-0,090	-0,017
-638,882	94,364	0,029	0,024
-637,868	-27,805	0,096	-0,041
-636,853	32,799	-0,131	0,084
-635,838	4,048	0,071	0,038
-634,824	800,000	-0,035	-0,106
-633,809	-42,335	0,121	0,046
-632,795	137,887	-0,074	0,072
-631,780	445,728	-0,014	0,023
-630,765	8,115	0,011	0,006
-629,751	122,488	0,135	-0,125
-628,736	587,593	-0,096	-0,176
-627,722	63,001	0,060	0,044
-626,707	88,238	0,101	-0,083
-625,692	27,123	-0,050	0,031
-624,678	37,433	0,133	0,087
-623,663	800,000	0,025	-0,071
-622,649	-51,617	-0,026	0,009
-621,634	-200,000	0,020	-0,103
-620,619	-47,363	0,141	0,051
-619,605	-53,506	-0,140	0,047
-618,590	-200,000	0,003	-0,101
-617,576	-87,922	0,168	-0,037
-616,561	-200,000	-0,001	0,084
-615,546	16,420	-0,033	0,019
-614,532	-35,541	-0,178	-0,071
-613,517	-200,000	0,015	-0,057
-612,503	800,000	0,013	-0,030
-611,488	-200,000	0,000	0,001
-610,474	-50,077	0,099	-0,035
-609,459	-200,000	-0,029	0,098
-608,444	-135,226	0,070	-0,006
-607,430	800,000	-0,008	-0,018
-606,415	-142,868	0,036	0,003
-605,401	261,652	-0,106	0,137
-604,386	-200,000	0,000	0,145
-603,371	-9,772	0,124	0,061
-602,357	-200,000	0,003	-0,105
-601,342	-200,000	0,009	0,068
-600,328	112,524	-0,032	-0,029
-599,313	-3,025	0,094	-0,048
-598,298	285,114	0,076	-0,102
-597,284	800,000	0,047	0,133
-596,269	-200,000	0,015	-0,111
-595,255	389,513	0,025	0,039
-594,240	543,763	-0,065	-0,116
-593,225	24,583	-0,034	0,021
-592,211	603,469	-0,058	-0,107
-591,196	332,844	-0,076	0,109
-590,182	215,615	0,032	0,037
-589,167	-31,340	-0,023	0,009
-588,152	-115,306	-0,115	0,016
-587,138	217,768	-0,104	0,123
-586,123	800,000	-0,064	-0,153
-585,109	51,285	0,067	-0,047
-584,094	11,544	-0,050	0,028
-583,079	-200,000	-0,020	-0,073
-582,065	68,501	0,052	0,040
-581,050	-200,000	0,033	0,121
-580,036	682,920	-0,027	-0,052
-579,021	-39,023	-0,073	0,028
-578,006	68,454	0,169	-0,128
-576,992	800,000	0,091	-0,234
-575,977	-200,000	0,010	-0,160
-574,963	328,812	0,115	0,163
-573,948	16,043	0,061	0,035
-572,934	800,000	-0,074	0,161
-571,919	260,824	-0,050	-0,063
-570,904	117,254	-0,069	-0,062
-569,890	293,504	0,063	-0,086
-568,875	-200,000	0,018	-0,091
-567,861	-127,955	0,004	0,000
-566,846	800,000	-0,037	0,094
-565,831	-168,199	0,133	-0,004
-564,817	800,000	-0,078	-0,212
-563,802	91,481	-0,054	-0,045
-562,788	-200,000	0,006	-0,074
-561,773	9,342	0,024	0,013
-560,758	-186,894	0,045	0,000
-559,744	-141,874	0,077	0,006
-558,729	-200,000	-0,016	0,078
-557,715	401,674	-0,011	-0,018
-556,700	224,468	-0,084	-0,101
-555,685	-7,424	-0,182	0,091
-554,671	-99,976	-0,127	-0,023
-553,656	326,178	-0,029	-0,042
-552,642	198,568	0,021	0,024
-551,627	-200,000	-0,001	0,056
-550,612	-86,652	0,119	-0,027
-549,598	-91,246	0,106	-0,022
-548,583	-200,000	0,000	-0,186
-547,569	148,571	-0,004	0,004
-546,554	196,332	-0,031	-0,034
-545,539	-120,592	0,029	-0,004
-544,525	272,663	-0,056	0,073
-543,510	-127,126	0,115	0,012
-542,496	55,931	-0,039	-0,028
-541,481	-200,000	0,016	0,096
-540,466	121,498	-0,067	0,062
-539,452	-200,000	-0,014	-0,075
-538,437	9,774	-0,094	-0,053
-537,423	-166,848	-0,020	-0,001
-536,408	-81,667	-0,116	-0,028
-535,393	-200,000	-0,014	-0,184
-534,379	353,229	-0,057	0,084
-533,364	366,292	0,019	0,028
-532,350	252,139	-0,049	0,062
-531,335	-82,935	-0,060	-0,014
-530,321	-160,230	0,149	-0,006
-529,306	800,000	-0,040	0,124
-528,291	186,119	-0,034	0,037
-527,277	172,334	-0,082	-0,087
-526,262	-200,000	0,015	0,110
-525,248	73,618	0,035	0,027
-524,233	-53,797	0,033	-0,011
-523,218	800,000	0,024	0,072
-522,204	-200,000	-0,022	-0,110
-521,189	50,966	-0,132	-0,092
-520,175	-200,000	0,000	0,148
-519,160	117,302	-0,080	-0,072
-518,145	-124,164	-0,081	-0,009
-517,131	-124,966	0,038	0,004
-516,116	166,143	0,081	0,085
-515,102	-200,000	0,011	0,040
-514,087	-4,843	-0,033	0,017
-513,072	-89,299	-0,030	0,006
-512,058	-200,000	-0,014	-0,118
-511,043	-153,225	0,104	0,005
-510,029	446,484	-0,025	-0,041
-509,014	-132,644	-0,042	0,004
-507,999	190,807	-0,014	-0,016
-506,985	-26,756	-0,149	0,064
-505,970	286,967	-0,112	-0,149
-504,956	-200,000	0,007	-0,038
-503,941	413,348	0,031	-0,048
-502,926	198,010	0,074	0,083
-501,912	15,085	-0,132	-0,076
-500,897	-100,010	-0,057	-0,010
-499,883	-200,000	0,006	-0,133
-498,868	17,333	0,178	-0,104
-497,853	800,000	0,025	0,066
-496,839	-103,609	0,097	0,017
-495,824	127,648	-0,075	0,070
-494,810	310,268	0,042	0,059
-493,795	61,248	-0,040	0,029
-492,781	49,758	-0,112	0,077
-491,766	232,769	0,012	-0,014
-490,751	53,796	0,069	-0,049
-489,737	-200,000	-0,017	-0,089
-488,722	-200,000	-0,018	0,132
-487,708	203,744	0,029	0,034
-486,693	-200,000	-0,009	0,074
-485,678	-94,946	-0,093	-0,018
-484,664	-69,481	0,115	-0,032
-483,649	-76,401	-0,069	0,018
-482,635	-200,000	-0,017	-0,080
-481,620	-155,231	-0,110	-0,005
-480,605	-200,000	-0,004	0,079
-479,591	580,475	0,033	-0,060
-478,576	-200,000	-0,032	0,145
-477,562	-200,000	-0,004	0,098
-476,547	-24,959	-0,126	0,055
-475,532	79,961	0,103	0,081
-474,518	39,047	-0,045	0,030
-473,503	546,483	-0,047	0,083
-472,489	-158,269	0,091	-0,004
-471,474	-200,000	-0,004	-0,091
-470,459	-57,590	-0,126	-0,040
-469,445	-200,000	-0,009	-0,058
-468,430	-167,789	-0,161	-0,005
-467,416	10,161	0,168	-0,094
-466,401	-5,012	0,044	0,022
-465,386	-40,869	0,096	0,036
-464,372	380,568	-0,049	0,074
-463,357	449,965	0,081	-0,133
-462,343	13,175	0,140	-0,080
-461,328	207,013	-0,040	-0,046
-460,313	370,869	0,029	-0,043
-459,299	96,733	0,069	0,058
-458,284	-179,157	0,077	-0,001
-457,270	69,190	0,112	0,085
-456,255	14,000	0,051	0,029
-455,241	-200,000	0,005	0,125
-454,226	260,094	-0,075	0,095
-453,211	238,147	0,058	0,071
-452,197	800,000	0,063	0,132
-451,182	-200,000	0,007	0,150
-450,168	-2,998	-0,007	0,004
-449,153	-18,316	0,060	-0,027
-448,138	300,008	-0,042	-0,057
-447,124	-89,296	0,055	0,012
-446,109	800,000	-0,042	-0,103
-445,095	94,329	0,040	-0,033
-444,080	-200,000	-0,036	-0,122
-443,065	-85,382	-0,093	0,021
-442,051	222,045	0,087	-0,103
-441,036	-200,000	-0,009	0,029
-440,022	800,000	-0,024	-0,065
-439,007	500,092	0,057	-0,096
-437,992	-200,000	-0,006	-0,035
-436,978	462,934	0,078	-0,129
-435,963	590,997	0,108	0,197
-434,949	97,048	-0,034	0,028
-433,934	447,968	-0,005	-0,008
-432,919	-200,000	0,021	-0,093
-431,905	-200,000	0,010	-0,100
-430,890	-50,473	0,037	0,013
-429,876	-200,000	-0,001	0,067
-428,861	78,318	-0,017	0,013
-427,846	193,169	-0,067	0,075
-426,832	-151,197	-0,119	-0,006
-425,817	-200,000	0,005	0,022
-424,803	628,627	-0,015	-0,028
-423,788	-200,000	-0,002	-0,119
-422,773	-106,239	-0,025	-0,004
-421,759	55,390	0,061	0,043
-420,744	98,260	0,050	-0,042
-419,730	-131,823	-0,105	0,010
-418,715	784,893	-0,030	0,061
-417,701	-25,211	-0,107	0,046
-416,686	121,011	-0,029	-0,027
-415,671	-200,000	0,018	-0,149
-414,657	389,188	0,049	0,075
-413,642	53,269	-0,127	0,089
-412,628	80,136	-0,028	-0,022
-411,613	-200,000	0,006	-0,050
-410,598	-200,000	-0,030	-0,119
-409,584	-39,304	-0,043	0,017
-408,569	-45,630	0,045	0,016
-407,555	-24,081	-0,046	0,020
-406,540	143,937	0,065	0,063
-405,525	-200,000	0,007	-0,064
-404,511	-200,000	0,015	0,075
-403,496	-142,714	-0,169	0,012
-402,482	-200,000	-0,007	0,081
-401,467	-200,000	0,025	0,090
-400,452	-200,000	0,026	0,094
-399,438	245,937	-0,016	0,020
-398,423	-11,194	-0,076	-0,037
-397,409	-200,000	-0,022	-0,122
-396,394	-200,000	-0,038	-0,124
-395,379	19,779	-0,139	0,082
-394,365	24,046	0,109	-0,066
-393,350	222,644	0,027	0,032
-392,336	72,691	-0,045	0,034
-391,321	84,968	0,085	-0,068
-390,306	-62,345	-0,091	0,028
-389,292	-12,332	-0,094	-0,045
-388,277	-65,455	-0,077	0,023
-387,263	-147,592	0,147	0,009
-386,248	-133,004	0,097	-0,009
-385,233	-34,921	0,046	-0,019
-384,219	91,416	-0,088	-0,072
-383,204	-200,000	-0,014	-0,093
-382,190	-200,000	-0,008	0,111
-381,175	791,298	-0,077	0,157
-380,160	800,000	-0,059	0,137
-379,146	800,000	0,088	0,190
-378,131	83,214	-0,107	0,085
-377,117	-189,137	-0,158	-0,001
-376,102	800,000	-0,030	-0,064
-375,088	-179,921	-0,066	-0,001
-374,073	26,334	-0,186	-0,113
-373,058	253,213	0,131	0,165
-372,044	72,409	-0,023	-0,018
-371,029	800,000	-0,008	-0,018
-370,015	466,539	-0,045	0,074
-369,000	19,767	-0,097	0,057
-367,985	-200,000	0,026	-0,096
-366,971	38,206	-0,074	-0,048
-365,956	-14,229	0,075	-0,035
-364,942	85,109	0,081	0,065
-363,927	800,000	0,043	0,092
-362,912	606,207	0,037	-0,068
-361,898	-200,000	-0,049	-0,177
-360,883	97,242	0,028	0,023
-359,869	425,848	-0,006	0,009
-358,854	-97,501	-0,143	0,027
-357,839	-2,746	0,126	0,064
-356,825	-43,346	-0,106	0,039
-355,810	341,841	-0,032	0,046
-354,796	46,569	-0,131	-0,089
-353,781	-200,000	-0,058	-0,252
-352,766	-39,468	0,080	0,030
-351,752	-200,000	0,029	-0,187
-350,737	17,475	0,068	-0,040
-349,723	149,070	0,055	0,055
-348,708	237,873	-0,071	0,086
-347,693	216,152	0,052	-0,061
-346,679	-83,295	0,082	0,019
-345,664	-91,627	0,110	0,023
-344,650	-200,000	-0,006	0,047
-343,635	360,101	0,026	0,038
-342,620	351,789	-0,068	0,099
-341,606	800,000	-0,029	-0,074
-340,591	736,463	-0,056	0,110
-339,577	-200,000	-0,004	0,036
-338,562	800,000	0,022	0,045
-337,548	-59,885	-0,052	0,016
-336,533	593,162	-0,062	-0,113
-335,518	21,997	-0,079	0,047
-334,504	14,514	-0,102	0,058
-333,489	-44,841	-0,069	0,025
-332,475	-200,000	-0,013	-0,044
-331,460	302,497	-0,063	-0,085
-330,445	-57,370	-0,094	0,030
-329,431	-200,000	-0,036	0,185
-328,416	-126,971	0,107	-0,011
-327,402	72,012	-0,054	0,041
-326,387	-200,000	0,003	-0,065
-325,372	157,276	-0,088	-0,089
-324,358	-122,311	-0,081	0,010
-323,343	-200,000	-0,020	-0,146
-322,329	-200,000	0,027	-0,147
-321,314	722,240	0,042	0,082
-320,299	-106,084	0,031	0,005
-319,285	-200,000	-0,009	0,059
-318,270	547,741	0,088	0,155
-317,256	800,000	0,014	0,033
-316,241	-200,000	0,021	0,099
-315,226	14,734	0,080	0,045
-314,212	-93,272	0,061	0,012
-313,197	-86,364	0,118	0,026
-312,183	149,849	-0,015	0,014
-311,168	-200,000	-0,013	-0,069
-310,153	310,945	-0,041	0,057
-309,139	-200,000	-0,023	0,111
-308,124	-200,000	0,008	0,055
-307,110	668,176	0,062	0,118
-306,095	800,000	0,051	0,121
-305,080	-81,725	0,141	-0,033
-304,066	-48,007	0,048	0,017
-303,051	-200,000	0,039	-0,184
-302,037	-180,494	-0,085	0,001
-301,022	-161,491	0,008	-0,000
-300,008	40,619	0,101	0,066
-298,993	146,976	0,082	0,080
-297,978	-169,112	-0,039	0,001
-296,964	-105,702	-0,092	-0,015
-295,949	-79,643	-0,055	-0,013
-294,935	-29,530	-0,042	0,018
-293,920	618,649	0,059	0,109
-292,905	800,000	-0,047	0,119
-291,891	800,000	0,052	0,106
-290,876	486,239	-0,074	0,124
-289,862	-19,903	-0,075	0,034
-288,847	-67,385	-0,072	0,021
-287,832	-25,544	0,044	-0,019
-286,818	-200,000	0,005	0,018
-285,803	-200,000	0,000	0,142
-284,789	-53,659	0,119	0,040
-283,774	17,721	-0,113	0,065
-282,759	266,424	0,025	0,032
-281,745	-200,000	0,001	-0,143
-280,730	-120,974	-0,114	0,014
-279,716	-67,288	0,019	0,005
-278,701	103,848	-0,084	0,072
-277,686	78,183	0,015	0,011
-276,672	-97,628	-0,118	0,022
-275,657	800,000	0,034	-0,104
-274,643	202,226	-0,059	-0,067
-273,628	800,000	-0,042	-0,116
-272,613	602,316	-0,043	0,078
-271,599	-88,046	0,140	0,031
-270,584	245,947	0,015	-0,018
-269,570	254,540	0,099	0,124
-268,555	800,000	0,042	-0,089
-267,540	387,632	-0,041	-0,062
-266,526	469,668	0,106	-0,175
-265,511	-184,163	-0,033	0,000
-264,497	-16,372	-0,055	-0,025
-263,482	800,000	0,040	0,109
-262,467	-200,000	0,014	0,152
-261,453	108,565	-0,071	0,062
-260,438	800,000	-0,014	-0,032
-259,424	130,953	-0,081	-0,076
-258,409	-150,745	-0,018	0,001
-257,395	-98,874	0,120	0,022
-256,380	-34,766	0,127	0,051
-255,365	-16,670	0,075	-0,034
-254,351	4,015	0,035	0,019
-253,336	-200,000	0,014	-0,213
-252,322	25,443	-0,083	-0,050
-251,307	-200,000	-0,029	-0,151
-250,292	-98,679	0,066	-0,012
-249,278	26,806	0,029	-0,018
-248,263	622,657	-0,028	-0,052
-247,249	131,875	0,081	-0,076
-246,234	-200,000	0,002	-0,133
-245,219	-21,437	0,144	0,064
-244,205	2,507	-0,050	-0,026
-243,190	-63,452	0,050	-0,015
-242,176	222,504	-0,056	0,065
-241,161	288,324	0,056	0,074
-240,146	27,226	0,125	-0,076
-239,132	32,404	0,065	-0,041
-238,117	65,155	-0,120	0,088
-237,103	-200,000	-0,018	0,075
-236,088	186,978	0,047	0,052
-235,073	299,961	0,017	0,023
-234,059	-11,715	0,141	0,067
-233,044	-48,287	0,080	-0,028
-232,030	-134,846	-0,176	-0,015
-231,015	22,560	-0,099	-0,059
-230,000	-36,013	0,092	0,036
-228,986	-68,885	0,070	0,020
-227,971	164,246	0,051	-0,053
-226,957	-64,179	-0,079	-0,023
-225,942	-87,534	0,125	0,027
-224,927	-121,284	0,115	0,014
-223,913	148,317	-0,050	0,049
-222,898	203,313	0,042	0,048
-221,884	159,589	-0,082	-0,083
-220,869	-200,000	0,018	0,062
-219,855	-46,516	0,052	-0,018
-218,840	459,309	0,049	-0,079
-217,825	92,862	-0,090	-0,074
-216,811	498,361	-0,010	-0,017
-215,796	-200,000	0,021	0,118
-214,782	-200,000	-0,034	-0,123
-213,767	32,777	0,106	-0,067
-212,752	800,000	-0,023	-0,059
-211,738	245,509	0,048	0,059
-210,723	-200,000	-0,031	0,100
-209,709	17,827	0,083	-0,048
-208,694	800,000	0,013	-0,033
-207,679	-200,000	0,005	-0,152
-206,665	-14,915	-0,106	0,050
-205,650	-200,000	0,012	0,071
-204,636	26,079	0,062	0,038
-203,621	24,220	0,109	0,065
-202,606	101,159	-0,134	0,114
-201,592	-200,000	0,005	-0,026
-200,577	-200,000	-0,006	0,104
-199,563	402,199	0,018	0,027
-198,548	-60,726	0,150	0,046
-197,533	800,000	-0,024	-0,065
-196,519	-89,184	0,093	-0,020
-195,504	2,765	-0,136	-0,071
-194,490	-139,844	-0,074	-0,006
-193,475	316,408	0,031	-0,043
-192,460	135,256	-0,039	-0,037
-191,446	-81,075	0,154	0,037
-190,431	800,000	0,031	0,079
-189,417	-200,000	-0,003	-0,090
-188,402	-200,000	0,012	-0,164
-187,387	-200,000	0,011	-0,096
-186,373	-28,732	-0,135	-0,056
-185,358	-13,120	0,029	0,014
-184,344	-124,902	0,133	-0,015
-183,329	102,605	0,125	0,106
-182,315	800,000	0,005	-0,015
-181,300	248,143	0,020	0,024
-180,285	-200,000	-0,001	-0,137
-179,271	-200,000	0,001	-0,109
-178,256	-200,000	0,019	-0,096
-177,242	183,156	0,122	0,132
-176,227	-81,349	-0,101	0,024
-175,212	-200,000	0,030	0,113
-174,198	317,999	-0,048	0,066
-173,183	800,000	-0,015	0,033
-172,169	53,297	-0,031	-0,021
-171,154	800,000	0,050	-0,135
-170,139	329,493	-0,039	0,054
-169,125	-200,000	0,074	-0,000
-168,110	411,229	-0,056	0,087
-167,096	108,536	0,092	-0,080
-166,081	800,000	0,040	-0,096
-165,066	-73,649	-0,180	-0,047
-164,052	-94,203	0,136	0,027
-163,037	116,372	0,040	0,036
-162,023	-153,947	0,145	-0,007
-161,008	-200,000	0,017	0,079
-159,993	-58,471	0,032	0,010
-158,979	-200,000	0,004	0,022
-157,964	-200,000	-0,014	0,085
-156,950	800,000	0,024	0,050
-155,935	800,000	0,059	0,120
-154,920	-41,369	-0,124	0,046
-153,906	-100,451	0,072	-0,013
-152,891	-86,922	-0,059	0,013
-151,877	800,000	-0,040	-0,097
-150,862	800,000	-0,049	-0,132
-149,847	98,614	-0,029	-0,024
-148,833	-169,105	-0,094	0,002
-147,818	112,812	0,044	0,039
-146,804	-62,291	0,115	-0,034
-145,789	-200,000	0,035	0,119
-144,775	318,234	-0,035	-0,049
-143,760	-18,845	0,120	-0,054
-142,745	-97,373	-0,144	0,027
-141,731	-118,116	-0,124	0,016
-140,716	-200,000	0,017	-0,082
-139,702	566,268	0,052	-0,092
-138,687	557,184	0,053	0,093
-137,672	-126,715	0,097	0,010
-136,658	-200,000	0,021	-0,068
-135,643	-200,000	-0,011	0,039
-134,629	114,141	-0,021	-0,018
-133,614	112,486	0,076	0,067
-132,599	-72,768	-0,028	-0,007
-131,585	-200,000	0,022	0,106
-130,570	800,000	-0,027	-0,056
-129,556	-71,779	0,180	0,048
-128,541	74,257	-0,069	-0,053
-127,526	-70,650	0,084	0,023
-126,512	181,125	-0,126	0,135
-125,497	56,007	0,094	0,066
-124,483	-200,000	-0,002	0,017
-123,468	-116,889	0,097	0,013
-122,453	-175,887	-0,075	0,001
-121,439	-133,336	-0,085	-0,008
-120,424	28,875	-0,105	0,064
-119,410	226,877	0,130	0,154
-118,395	-200,000	0,040	-0,182
