DTS Sentinel unit serial number:	SN410029Multiplexer serial number:	ORYXHardware model number:	OX2-SRSoftware version number:	ORYX F/W v4,00 Oryx Data Collector v3.7.2.0data status	okinstallation	B6 Nyhavnadifferential loss correction	single-endedforward channel	channel 2reverse channel	N/Adate	2023/12/10time	15:25:08forward acquisition time	300,00reverse acquisition time	0,00gamma	499,1914k internal	0,3122k external	0,3122temperature offset calibration	1,0000default loss term (dB/km)	0,3820temperature slope calibration	1,0000multiplexer offset coefficient	1,0000multiplexer slope coefficient	1,0000fibre end	0,00T internal ref (°C)	22,43T ext. ref 1 (°C)	5,90T ext. ref 2 (°C)	5,89length (m)	temperature (°C)	Stokes	anti-Stokes-744,400	255,793	-0,014	-0,018
-743,385	-146,074	-0,177	0,011
-742,371	198,155	0,037	0,042
-741,356	24,153	-0,208	0,128
-740,342	143,707	0,086	-0,085
-739,327	-128,409	-0,246	0,026
-738,312	-200,000	-0,011	-0,096
-737,298	-130,490	-0,247	0,025
-736,283	-200,000	0,009	-0,075
-735,269	109,366	-0,172	0,154
-734,254	800,000	-0,018	0,050
-733,239	-68,111	-0,221	-0,064
-732,225	215,836	0,054	-0,064
-731,210	143,132	0,088	0,087
-730,196	-55,192	-0,063	0,021
-729,181	-129,691	-0,054	0,006
-728,167	43,579	0,069	0,047
-727,152	-88,136	-0,112	0,025
-726,137	112,234	-0,150	-0,136
-725,123	-148,602	0,085	0,005
-724,108	33,059	-0,116	0,075
-723,094	92,623	-0,019	0,016
-722,079	-200,000	-0,029	-0,111
-721,064	387,671	0,024	-0,038
-720,050	-85,856	0,063	0,014
-719,035	-116,353	0,031	-0,004
-718,021	404,543	-0,125	-0,197
-717,006	-200,000	0,007	-0,109
-715,991	64,454	-0,020	-0,015
-714,977	259,146	-0,060	-0,078
-713,962	-200,000	0,006	-0,066
-712,948	202,199	0,033	-0,038
-711,933	339,411	0,031	-0,045
-710,918	156,061	-0,072	0,074
-709,904	567,526	-0,044	0,080
-708,889	420,292	0,045	-0,072
-707,875	206,310	-0,093	-0,108
-706,860	87,730	-0,082	0,068
-705,845	-77,974	-0,126	-0,032
-704,831	48,628	0,111	-0,078
-703,816	-138,724	0,065	0,005
-702,802	-108,868	-0,137	-0,022
-701,787	682,392	0,100	-0,194
-700,772	-86,555	0,084	-0,019
-699,758	800,000	-0,036	0,095
-698,743	32,547	-0,017	-0,011
-697,729	57,486	-0,071	0,052
-696,714	32,248	0,109	-0,070
-695,699	97,287	-0,056	-0,048
-694,685	-1,213	-0,119	0,063
-693,670	381,827	-0,107	0,164
-692,656	458,923	-0,067	0,111
-691,641	219,352	-0,019	-0,023
-690,627	-153,976	0,080	-0,004
-689,612	-200,000	-0,002	-0,032
-688,597	800,000	-0,017	0,042
-687,583	91,491	0,033	-0,028
-686,568	-85,710	-0,043	-0,010
-685,554	-200,000	0,021	0,126
-684,539	-200,000	0,023	-0,079
-683,524	28,895	0,156	-0,098
-682,510	-86,864	-0,121	0,027
-681,495	9,636	-0,124	0,070
-680,481	-200,000	-0,003	-0,063
-679,466	684,410	-0,042	0,082
-678,451	-57,617	-0,041	0,013
-677,437	-58,871	0,159	-0,051
-676,422	-200,000	0,010	-0,054
-675,408	-200,000	0,006	-0,065
-674,393	-47,818	-0,081	0,029
-673,378	-200,000	0,009	-0,104
-672,364	560,603	-0,082	-0,148
-671,349	-200,000	-0,008	-0,135
-670,335	-25,075	-0,033	0,015
-669,320	800,000	0,080	-0,193
-668,305	225,131	0,035	0,042
-667,291	348,180	-0,092	-0,135
-666,276	-126,912	0,051	0,006
-665,262	-94,654	-0,041	0,008
-664,247	-200,000	0,033	-0,122
-663,232	106,621	-0,031	0,028
-662,218	440,083	-0,058	0,095
-661,203	85,183	-0,133	-0,108
-660,189	-30,515	-0,127	-0,053
-659,174	44,793	0,035	-0,024
-658,159	537,421	-0,010	-0,018
-657,145	77,809	-0,092	-0,073
-656,130	-161,911	0,053	0,002
-655,116	800,000	0,029	0,069
-654,101	800,000	0,056	-0,174
-653,086	800,000	-0,022	0,052
-652,072	-19,507	0,059	-0,027
-651,057	-133,738	-0,148	0,013
-650,043	424,525	0,118	-0,189
-649,028	800,000	-0,051	-0,105
-648,014	-41,071	0,055	0,021
-646,999	564,777	-0,045	0,082
-645,984	503,309	0,048	-0,082
-644,970	800,000	0,018	-0,048
-643,955	59,784	-0,051	-0,037
-642,941	800,000	-0,054	-0,155
-641,926	-51,053	-0,144	0,050
-640,911	35,976	0,041	-0,027
-639,897	422,871	-0,073	0,117
-638,882	-200,000	0,019	0,093
-637,868	-200,000	0,001	0,019
-636,853	51,522	-0,025	-0,017
-635,838	38,017	0,071	-0,047
-634,824	127,836	-0,031	0,030
-633,809	-47,851	-0,072	-0,026
-632,795	800,000	0,091	-0,193
-631,780	41,272	-0,034	-0,022
-630,765	-200,000	0,051	-0,170
-629,751	399,063	0,027	-0,042
-628,736	25,914	-0,145	0,089
-627,722	254,205	-0,072	0,092
-626,707	800,000	0,041	-0,122
-625,692	-193,828	0,036	-0,000
-624,678	164,955	0,089	-0,094
-623,663	43,771	-0,059	0,040
-622,649	-1,768	-0,138	-0,072
-621,634	211,232	0,016	0,019
-620,619	64,626	0,045	-0,033
-619,605	619,190	0,035	-0,065
-618,590	800,000	0,028	0,069
-617,576	800,000	0,037	0,080
-616,561	55,148	-0,115	-0,082
-615,546	99,886	0,030	-0,026
-614,532	800,000	0,047	-0,133
-613,517	72,928	0,084	-0,065
-612,503	639,181	-0,062	0,118
-611,488	-200,000	-0,001	0,140
-610,474	-41,143	0,025	-0,010
-609,459	616,355	0,030	-0,055
-608,444	144,042	-0,012	-0,012
-607,430	-60,527	-0,037	0,011
-606,415	41,755	0,129	-0,087
-605,401	675,434	-0,031	0,061
-604,386	-18,664	-0,088	0,040
-603,371	-200,000	0,034	0,119
-602,357	-26,574	0,064	-0,028
-601,342	463,535	-0,048	-0,080
-600,328	-200,000	-0,029	-0,171
-599,313	-122,470	-0,062	0,007
-598,298	433,316	-0,013	-0,021
-597,284	-200,000	0,000	0,134
-596,269	-145,497	0,084	-0,006
-595,255	-200,000	0,003	0,104
-594,240	139,001	-0,022	-0,021
-593,225	358,642	0,093	-0,138
-592,211	-200,000	-0,014	-0,060
-591,196	-80,155	-0,161	0,040
-590,182	-200,000	0,005	0,108
-589,167	800,000	0,040	0,094
-588,152	135,008	-0,027	-0,026
-587,138	-200,000	-0,008	0,061
-586,123	112,840	-0,072	-0,065
-585,109	25,466	-0,094	-0,058
-584,094	-200,000	0,005	-0,033
-583,079	284,705	0,059	-0,079
-582,065	203,529	-0,084	-0,096
-581,050	66,809	-0,058	0,044
-580,036	-200,000	-0,005	-0,030
-579,021	579,838	-0,040	-0,073
-578,006	522,126	-0,098	-0,171
-576,992	703,763	-0,020	0,040
-575,977	-64,764	0,179	0,053
-574,963	309,316	-0,013	-0,018
-573,948	-200,000	0,012	0,044
-572,934	478,735	-0,043	0,072
-571,919	-23,150	-0,116	-0,051
-570,904	218,679	0,103	-0,122
-569,890	177,018	-0,105	-0,114
-568,875	-200,000	-0,004	0,070
-567,861	-200,000	-0,003	-0,047
-566,846	-57,185	-0,064	-0,021
-565,831	800,000	0,050	-0,146
-564,817	658,045	-0,014	0,026
-563,802	274,563	-0,023	-0,031
-562,788	194,376	-0,047	0,052
-561,773	-200,000	0,010	0,063
-560,758	-200,000	-0,010	-0,053
-559,744	92,575	-0,009	0,008
-558,729	-134,590	-0,133	0,012
-557,715	80,221	0,089	-0,071
-556,700	800,000	0,031	-0,093
-555,685	36,957	-0,085	-0,055
-554,671	800,000	-0,013	-0,040
-553,656	-200,000	-0,005	0,020
-552,642	-200,000	0,011	0,073
-551,627	546,547	-0,056	0,099
-550,612	369,167	0,061	0,092
-549,598	-71,508	0,027	0,007
-548,583	-104,122	-0,070	-0,012
-547,569	315,298	0,063	-0,088
-546,554	442,404	-0,043	-0,070
-545,539	40,135	0,077	0,051
-544,525	168,571	0,089	-0,094
-543,510	6,990	-0,076	-0,042
-542,496	-66,452	-0,031	-0,009
-541,481	800,000	-0,041	-0,125
-540,466	34,465	-0,072	-0,046
-539,452	76,915	0,089	0,070
-538,437	401,873	-0,036	-0,056
-537,423	33,060	-0,088	0,056
-536,408	-200,000	0,008	-0,039
-535,393	800,000	0,015	-0,048
-534,379	-200,000	-0,008	-0,118
-533,364	-79,146	-0,045	0,011
-532,350	86,550	-0,013	0,010
-531,335	-95,226	-0,097	0,019
-530,321	-200,000	-0,000	0,051
-529,306	365,229	0,065	0,097
-528,291	-164,632	-0,112	-0,004
-527,277	187,545	-0,068	0,075
-526,262	-200,000	-0,015	-0,110
-525,248	-150,091	0,122	-0,007
-524,233	732,024	0,016	-0,031
-523,218	-200,000	-0,000	0,006
-522,204	800,000	-0,039	-0,100
-521,189	-57,152	-0,089	-0,029
-520,175	800,000	-0,016	0,040
-519,160	478,346	-0,092	0,154
-518,145	-9,747	0,185	0,091
-517,131	-88,707	0,134	0,029
-516,116	157,200	0,106	-0,108
-515,102	800,000	-0,034	-0,076
-514,087	-103,933	-0,021	-0,004
-513,072	339,279	0,075	-0,108
-512,058	-175,193	-0,054	0,001
-511,043	-50,202	-0,132	0,046
-510,029	-200,000	0,008	-0,031
-509,014	-200,000	-0,001	-0,029
-507,999	711,426	-0,028	0,054
-506,985	-5,143	-0,058	-0,029
-505,970	800,000	-0,018	0,055
-504,956	441,545	-0,037	0,060
-503,941	137,090	-0,027	-0,026
-502,926	183,494	0,042	0,046
-501,912	262,102	0,046	0,058
-500,897	-200,000	0,009	0,155
-499,883	-47,867	0,162	0,058
-498,868	122,248	-0,064	-0,059
-497,853	230,344	-0,112	-0,135
-496,839	25,643	0,144	0,088
-495,824	800,000	0,030	0,087
-494,810	-120,015	0,050	-0,006
-493,795	-200,000	-0,012	-0,144
-492,781	800,000	0,047	-0,098
-491,766	800,000	-0,043	0,093
-490,751	43,833	-0,047	-0,032
-489,737	-200,000	-0,031	-0,157
-488,722	-50,671	0,074	-0,025
-487,708	601,520	0,049	-0,091
-486,693	54,275	-0,077	0,054
-485,678	87,995	0,002	0,002
-484,664	-200,000	-0,002	-0,058
-483,649	7,366	-0,151	0,083
-482,635	-84,118	-0,053	-0,012
-481,620	86,198	0,012	0,010
-480,605	51,383	0,112	0,078
-479,591	800,000	0,034	0,103
-478,576	465,551	-0,057	0,094
-477,562	-200,000	0,011	-0,145
-476,547	336,061	-0,072	-0,103
-475,532	-200,000	0,001	-0,046
-474,518	-200,000	-0,010	-0,052
-473,503	-55,003	0,045	0,015
-472,489	800,000	0,031	-0,084
-471,474	-200,000	-0,006	0,107
-470,459	800,000	-0,021	0,051
-469,445	25,456	0,100	-0,061
-468,430	25,280	-0,056	-0,034
-467,416	59,161	0,071	0,052
-466,401	-200,000	0,014	0,128
-465,386	55,300	0,015	0,011
-464,372	201,986	-0,050	0,056
-463,357	-200,000	-0,008	0,167
-462,343	800,000	-0,030	0,080
-461,328	-180,905	0,156	0,002
-460,313	-123,896	-0,133	-0,015
-459,299	55,337	0,017	-0,012
-458,284	553,054	0,040	0,070
-457,270	-188,552	0,085	-0,001
-456,255	690,857	0,041	0,079
-455,241	52,414	0,109	0,077
-454,226	-44,578	0,212	-0,078
-453,211	55,200	0,035	0,025
-452,197	19,063	0,063	0,037
-451,182	-106,569	0,032	-0,005
-450,168	754,821	0,050	0,101
-449,153	-167,069	0,004	-0,000
-448,138	-200,000	-0,005	0,089
-447,124	-70,356	-0,056	-0,016
-446,109	120,751	0,099	-0,091
-445,095	-200,000	-0,027	0,205
-444,080	-93,529	-0,086	-0,017
-443,065	-200,000	0,012	0,106
-442,051	417,228	0,026	0,040
-441,036	264,933	-0,053	0,069
-440,022	-200,000	0,005	-0,102
-439,007	-63,872	-0,110	-0,033
-437,992	15,194	-0,057	0,033
-436,978	321,692	-0,013	0,018
-435,963	-200,000	0,028	0,094
-434,949	800,000	-0,046	0,131
-433,934	432,021	-0,063	0,101
-432,919	71,813	-0,024	0,018
-431,905	-115,957	-0,048	-0,006
-430,890	515,696	-0,072	0,124
-429,876	-58,621	0,015	-0,005
-428,861	684,748	-0,038	0,073
-427,846	800,000	-0,039	0,088
-426,832	22,322	0,047	-0,028
-425,817	-200,000	-0,003	-0,095
-424,803	-78,718	-0,071	-0,018
-423,788	45,802	0,050	0,034
-422,773	158,613	0,105	0,107
-421,759	-86,991	-0,072	0,016
-420,744	-200,000	-0,024	0,144
-419,730	-77,739	0,105	-0,027
-418,715	-200,000	-0,017	-0,079
-417,701	-196,141	-0,067	-0,000
-416,686	20,865	0,043	0,025
-415,671	-143,520	0,086	-0,006
-414,657	-200,000	0,010	-0,043
-413,642	447,876	0,046	0,075
-412,628	-200,000	0,011	0,076
-411,613	613,975	0,040	0,075
-410,598	240,482	0,067	-0,082
-409,584	-200,000	0,012	-0,097
-408,569	392,249	0,072	0,111
-407,555	-200,000	-0,029	0,114
-406,540	42,219	-0,047	0,032
-405,525	-147,203	0,137	-0,008
-404,511	31,434	-0,093	-0,059
-403,496	312,806	-0,056	-0,078
-402,482	-200,000	-0,004	0,025
-401,467	202,371	-0,024	-0,027
-400,452	195,536	-0,094	0,105
-399,438	345,115	-0,067	0,097
-398,423	585,785	0,056	-0,102
-397,409	265,741	-0,090	0,116
-396,394	-200,000	0,009	-0,142
-395,379	-200,000	-0,031	-0,138
-394,365	800,000	0,056	-0,152
-393,350	-115,795	0,192	-0,026
-392,336	-62,406	-0,079	0,024
-391,321	-51,576	0,118	0,040
-390,306	-127,270	0,092	0,010
-389,292	723,205	-0,074	0,146
-388,277	-200,000	-0,012	0,110
-387,263	119,312	0,053	0,048
-386,248	-74,556	-0,035	-0,009
-385,233	210,464	-0,012	0,013
-384,219	-200,000	-0,001	0,074
-383,204	-200,000	-0,005	0,017
-382,190	-132,942	-0,071	-0,007
-381,175	45,385	0,048	0,033
-380,160	191,332	-0,025	0,028
-379,146	-48,103	0,054	0,019
-378,131	-7,629	-0,140	-0,069
-377,117	-200,000	-0,002	0,047
-376,102	53,610	-0,067	-0,047
-375,088	188,309	0,050	-0,055
-374,073	61,812	-0,065	-0,047
-373,058	-200,000	-0,012	0,049
-372,044	336,468	-0,031	-0,044
-371,029	93,500	-0,012	0,010
-370,015	-59,775	-0,042	-0,013
-369,000	-200,000	-0,026	-0,087
-367,985	-140,562	-0,103	-0,008
-366,971	64,518	0,027	-0,020
-365,956	26,090	0,077	0,047
-364,942	-200,000	-0,038	-0,130
-363,927	-200,000	0,005	0,134
-362,912	32,171	-0,170	0,107
-361,898	-200,000	-0,013	-0,109
-360,883	-200,000	-0,006	0,081
-359,869	800,000	0,046	-0,149
-358,854	-62,990	0,070	-0,021
-357,839	800,000	-0,018	-0,042
-356,825	-161,167	0,029	-0,001
-355,810	233,536	0,048	0,058
-354,796	347,043	0,021	0,031
-353,781	-155,277	-0,080	0,004
-352,766	-200,000	-0,016	-0,065
-351,752	800,000	0,018	0,043
-350,737	220,111	-0,054	-0,063
-349,723	49,775	0,080	-0,055
-348,708	-94,784	0,079	-0,016
-347,693	146,403	-0,123	-0,121
-346,679	45,695	0,025	-0,017
-345,664	108,971	-0,144	-0,127
-344,650	-2,568	0,128	0,065
-343,635	-90,564	0,050	0,010
-342,620	561,356	-0,054	0,096
-341,606	800,000	0,040	-0,089
-340,591	53,903	0,054	0,038
-339,577	800,000	-0,046	0,123
-338,562	137,311	-0,050	0,048
-337,548	-200,000	0,020	-0,077
-336,533	-200,000	-0,011	0,131
-335,518	27,182	0,090	0,055
-334,504	800,000	-0,069	0,148
-333,489	73,482	-0,017	0,013
-332,475	-200,000	-0,008	0,122
-331,460	-200,000	0,005	0,026
-330,445	80,895	-0,022	-0,018
-329,431	44,612	-0,097	0,065
-328,416	-88,813	0,067	0,015
-327,402	115,526	0,079	-0,071
-326,387	499,445	0,008	0,013
-325,372	800,000	0,055	-0,129
-324,358	-200,000	0,002	-0,021
-323,343	34,217	-0,056	-0,036
-322,329	-200,000	-0,031	0,126
-321,314	201,685	0,088	0,100
-320,299	-114,721	0,140	0,019
-319,285	-200,000	-0,004	0,036
-318,270	39,260	-0,176	0,116
-317,256	800,000	0,031	0,089
-316,241	-34,070	0,034	0,014
-315,226	-200,000	0,002	0,039
-314,212	-200,000	-0,005	-0,063
-313,197	-108,468	0,110	0,017
-312,183	800,000	-0,048	0,101
-311,168	-200,000	0,002	0,132
-310,153	33,535	-0,035	-0,022
-309,139	800,000	0,052	-0,140
-308,124	-57,768	-0,011	0,003
-307,110	-13,840	-0,051	0,024
-306,095	-200,000	0,011	0,121
-305,080	-118,152	-0,119	0,015
-304,066	-74,177	-0,153	0,040
-303,051	165,106	-0,047	-0,048
-302,037	-103,909	-0,060	-0,010
-301,022	64,693	0,022	-0,016
-300,008	800,000	0,034	0,095
-298,993	-33,505	0,165	0,066
-297,978	-200,000	0,014	0,051
-296,964	-200,000	0,008	-0,044
-295,949	92,665	-0,036	-0,029
-294,935	800,000	0,051	-0,122
-293,920	695,209	0,050	0,097
-292,905	-103,483	0,037	0,006
-291,891	800,000	0,037	-0,109
-290,876	436,004	-0,057	0,091
-289,862	313,621	-0,075	-0,104
-288,847	800,000	-0,017	-0,053
-287,832	-27,881	-0,120	-0,051
-286,818	-77,791	0,120	0,030
-285,803	-200,000	0,002	0,077
-284,789	800,000	0,029	-0,076
-283,774	-200,000	-0,019	0,083
-282,759	-200,000	-0,007	0,045
-281,745	55,052	-0,074	0,052
-280,730	-185,068	-0,155	-0,002
-279,716	-55,505	-0,144	0,047
-278,701	800,000	0,035	0,086
-277,686	650,542	0,043	0,081
-276,672	-51,791	0,193	0,066
-275,657	231,262	0,046	-0,055
-274,643	-53,396	-0,150	0,050
-273,628	34,804	-0,050	-0,032
-272,613	13,210	-0,061	-0,035
-271,599	65,881	0,174	0,129
-270,584	291,470	-0,060	0,081
-269,570	28,430	0,115	-0,071
-268,555	326,284	0,017	0,025
-267,540	-120,246	-0,112	0,014
-266,526	-200,000	0,000	-0,035
-265,511	119,377	-0,079	-0,072
-264,497	-41,846	0,055	0,021
-263,482	-34,685	-0,038	-0,015
-262,467	-183,218	0,164	-0,002
-261,453	283,929	0,003	-0,004
-260,438	396,846	-0,023	0,036
-259,424	-200,000	0,008	-0,070
-258,409	1,925	0,045	-0,023
-257,395	-148,509	0,040	-0,002
-256,380	167,314	0,031	0,032
-255,365	-200,000	0,037	0,135
-254,351	-41,169	0,181	0,068
-253,336	43,830	0,056	0,037
-252,322	63,503	-0,063	-0,046
-251,307	74,297	-0,015	-0,011
-250,292	-35,350	-0,086	-0,034
-249,278	800,000	0,050	-0,139
-248,263	-200,000	0,019	0,087
-247,249	134,401	-0,051	0,048
-246,234	118,836	-0,096	-0,086
-245,219	783,231	-0,090	-0,182
-244,205	-200,000	0,017	-0,145
-243,190	-30,727	-0,106	-0,044
-242,176	136,312	0,036	-0,035
-241,161	-119,333	0,065	0,008
-240,146	46,416	0,028	0,019
-239,132	332,822	0,036	-0,052
-238,117	-200,000	0,002	-0,065
-237,103	165,887	0,071	-0,073
-236,088	-200,000	0,015	0,085
-235,073	-200,000	0,016	-0,062
-234,059	-71,440	0,066	-0,018
-233,044	510,914	0,030	-0,051
-232,030	800,000	0,114	-0,243
-231,015	748,215	-0,054	-0,106
-230,000	33,444	-0,148	-0,094
-228,986	370,617	0,006	0,009
-227,971	-200,000	0,001	0,022
-226,957	-147,039	0,142	-0,009
-225,942	14,340	0,038	-0,022
-224,927	697,815	0,054	-0,105
-223,913	-200,000	0,028	-0,096
-222,898	-73,561	0,085	-0,022
-221,884	800,000	-0,016	-0,034
-220,869	800,000	-0,015	0,046
-219,855	-97,357	0,144	0,027
-218,840	-42,665	0,075	-0,028
-217,825	3,014	0,057	-0,030
-216,811	-101,248	-0,074	0,013
-215,796	-200,000	-0,001	-0,051
-214,782	800,000	0,067	-0,183
-213,767	-104,140	0,074	0,013
-212,752	12,344	0,043	-0,024
-211,738	-200,000	0,038	0,125
-210,723	-200,000	-0,017	0,086
-209,709	800,000	-0,046	0,105
-208,694	800,000	0,024	0,065
-207,679	-34,242	-0,058	-0,023
-206,665	288,524	0,021	0,028
-205,650	39,202	-0,059	0,039
-204,636	-24,861	0,084	-0,036
-203,621	12,971	0,092	0,052
-202,606	64,878	0,015	0,011
-201,592	720,271	-0,071	-0,139
-200,577	12,906	0,126	-0,071
-199,563	-200,000	-0,011	0,154
-198,548	800,000	0,033	0,067
-197,533	-126,992	-0,069	-0,007
-196,519	625,704	-0,023	-0,043
-195,504	-200,000	0,014	-0,056
-194,490	-200,000	0,032	-0,112
-193,475	786,505	0,037	-0,075
-192,460	-21,482	-0,043	-0,019
-191,446	491,601	0,052	0,086
-190,431	353,297	-0,067	-0,097
-189,417	23,375	0,062	0,037
-188,402	198,562	-0,072	-0,081
-187,387	269,254	0,041	-0,053
-186,373	-1,194	0,149	-0,077
-185,358	672,180	-0,031	0,059
-184,344	800,000	-0,035	-0,098
-183,329	-200,000	0,014	0,053
-182,315	-61,888	-0,057	-0,017
-181,300	349,944	-0,036	0,052
-180,285	245,563	0,062	0,076
-179,271	-55,417	-0,091	-0,029
-178,256	152,499	0,062	0,062
-177,242	-69,228	0,021	-0,006
-176,227	-200,000	0,023	-0,097
-175,212	303,347	0,073	-0,099
-174,198	-200,000	-0,001	0,071
-173,183	-200,000	-0,021	-0,183
-172,169	88,038	-0,034	0,027
-171,154	-12,712	0,060	-0,028
-170,139	-200,000	0,005	0,099
-169,125	137,206	0,046	0,044
-168,110	-47,522	0,057	0,020
-167,096	-200,000	-0,000	0,024
-166,081	564,212	-0,009	0,016
-165,066	-110,065	-0,163	-0,025
-164,052	-200,000	-0,032	-0,116
-163,037	-40,545	0,048	-0,018
-162,023	-200,000	0,014	0,093
-161,008	-146,342	-0,050	-0,003
-159,993	-10,250	-0,156	0,075
-158,979	800,000	0,043	-0,135
-157,964	-200,000	-0,043	0,138
-156,950	-200,000	-0,004	-0,104
-155,935	46,354	-0,080	0,054
-154,920	-200,000	0,002	0,121
-153,906	717,492	0,095	0,186
-152,891	-70,236	0,056	-0,015
-151,877	-102,561	-0,054	-0,009
-150,862	-36,114	0,061	-0,024
-149,847	4,963	-0,031	0,017
-148,833	-200,000	0,015	0,064
-147,818	-138,586	0,118	-0,009
-146,804	14,341	0,136	-0,077
-145,789	-28,500	0,031	-0,013
-144,775	-51,642	-0,119	-0,040
-143,760	-200,000	0,024	-0,114
-142,745	-13,293	0,094	-0,044
-141,731	-200,000	0,001	-0,096
-140,716	-168,946	-0,048	0,001
-139,702	-200,000	0,016	0,213
-138,687	65,912	0,023	0,017
-137,672	-200,000	-0,004	-0,022
-136,658	130,841	-0,113	0,105
-135,643	800,000	0,030	-0,086
-134,629	-200,000	-0,002	-0,190
-133,614	800,000	0,054	0,132
-132,599	-49,028	-0,091	0,031
-131,585	440,310	0,086	0,138
-130,570	-117,266	0,108	-0,014
-129,556	768,241	-0,036	-0,071
-128,541	-21,217	-0,105	-0,046
-127,526	241,731	0,013	-0,016
-126,512	-113,959	0,101	0,014
-125,497	-200,000	0,001	0,047
-124,483	228,491	0,124	0,148
-123,468	-97,949	0,198	0,037
-122,453	358,653	0,018	0,026
-121,439	312,882	-0,034	0,046
-120,424	-111,635	-0,132	-0,019
-119,410	433,533	0,118	-0,187
