DTS Sentinel unit serial number:	SN410029Multiplexer serial number:	ORYXHardware model number:	OX2-SRSoftware version number:	ORYX F/W v4,00 Oryx Data Collector v3.7.2.0data status	okinstallation	B6 Nyhavnadifferential loss correction	single-endedforward channel	channel 2reverse channel	N/Adate	2023/12/08time	18:30:08forward acquisition time	300,00reverse acquisition time	0,00gamma	499,1914k internal	0,3158k external	0,3158temperature offset calibration	1,0000default loss term (dB/km)	0,3820temperature slope calibration	1,0000multiplexer offset coefficient	1,0000multiplexer slope coefficient	1,0000fibre end	0,00T internal ref (°C)	15,25T ext. ref 1 (°C)	-1,23T ext. ref 2 (°C)	-1,22length (m)	temperature (°C)	Stokes	anti-Stokes-744,400	43,591	0,096	0,065
-743,385	-32,741	-0,290	0,118
-742,371	-11,190	0,055	-0,027
-741,356	-65,912	-0,219	0,064
-740,342	156,564	0,080	0,082
-739,327	-162,490	-0,305	-0,011
-738,312	-82,567	0,171	-0,040
-737,298	-158,057	-0,302	-0,013
-736,283	80,369	0,109	0,086
-735,269	-84,545	-0,222	-0,051
-734,254	72,474	-0,037	-0,028
-733,239	-200,000	-0,606	-0,000
-732,225	-200,000	0,221	0,000
-731,210	-200,000	0,011	-0,108
-730,196	-120,017	0,075	0,009
-729,181	800,000	-0,063	-0,155
-728,167	224,915	0,059	-0,071
-727,152	-159,829	-0,065	0,003
-726,137	-24,808	-0,070	-0,031
-725,123	144,757	0,056	-0,056
-724,108	-71,270	-0,031	-0,009
-723,094	800,000	-0,038	-0,122
-722,079	800,000	-0,054	-0,163
-721,064	800,000	-0,011	0,033
-720,050	47,725	-0,051	0,035
-719,035	-80,566	0,031	0,008
-718,021	800,000	-0,048	-0,137
-717,006	-200,000	0,002	-0,179
-715,991	220,839	-0,074	-0,088
-714,977	-111,588	-0,263	-0,039
-713,962	-200,000	-0,003	-0,079
-712,948	105,161	0,083	-0,072
-711,933	73,974	-0,093	0,072
-710,918	-200,000	0,021	-0,116
-709,904	800,000	0,039	0,091
-708,889	-200,000	-0,001	0,024
-707,875	-157,100	-0,102	0,004
-706,860	-33,110	-0,112	-0,045
-705,845	58,711	0,098	-0,071
-704,831	-200,000	-0,005	0,082
-703,816	94,132	-0,086	-0,072
-702,802	-85,876	0,075	0,017
-701,787	130,719	-0,138	0,131
-700,772	800,000	0,027	-0,064
-699,758	-77,415	-0,053	-0,014
-698,743	123,107	0,052	-0,048
-697,729	-200,000	-0,005	0,020
-696,714	464,566	-0,030	-0,049
-695,699	800,000	0,047	-0,113
-694,685	471,412	-0,083	-0,138
-693,670	726,651	-0,029	0,058
-692,656	-200,000	-0,042	0,000
-691,641	149,438	0,041	0,041
-690,627	333,099	-0,116	-0,165
-689,612	-200,000	0,009	0,033
-688,597	172,489	0,058	-0,062
-687,583	254,360	-0,122	-0,154
-686,568	-34,453	-0,059	-0,024
-685,554	245,388	-0,045	-0,056
-684,539	800,000	0,061	-0,128
-683,524	-200,000	-0,004	-0,049
-682,510	30,466	-0,078	-0,049
-681,495	702,961	-0,033	-0,064
-680,481	49,995	-0,114	0,079
-679,466	31,082	-0,081	-0,051
-678,451	-200,000	-0,022	-0,088
-677,437	800,000	0,021	-0,046
-676,422	22,581	-0,175	-0,105
-675,408	-200,000	-0,005	0,039
-674,393	729,102	0,033	0,066
-673,378	-94,859	-0,138	-0,027
-672,364	800,000	-0,035	-0,105
-671,349	143,917	-0,094	-0,092
-670,335	55,290	-0,021	0,015
-669,320	471,018	0,011	0,018
-668,305	16,442	-0,009	0,005
-667,291	138,757	-0,091	-0,088
-666,276	-200,000	0,012	-0,131
-665,262	70,842	0,091	-0,069
-664,247	1,860	-0,127	-0,067
-663,232	-41,183	-0,097	0,036
-662,218	71,533	-0,057	0,044
-661,203	-200,000	-0,011	0,053
-660,189	-133,627	-0,062	0,006
-659,174	192,685	-0,076	-0,084
-658,159	-131,041	-0,088	0,009
-657,145	-50,209	-0,093	0,032
-656,130	24,156	0,044	-0,027
-655,116	411,526	-0,030	-0,047
-654,101	207,493	-0,063	0,072
-653,086	56,358	0,093	-0,066
-652,072	-200,000	0,036	0,121
-651,057	-14,080	-0,120	0,057
-650,043	-200,000	0,006	-0,034
-649,028	-200,000	-0,030	-0,168
-648,014	194,046	0,038	-0,042
-646,999	-200,000	-0,002	-0,095
-645,984	267,529	0,078	0,101
-644,970	17,540	-0,033	-0,019
-643,955	427,859	0,075	-0,119
-642,941	-172,993	0,174	0,004
-641,926	-155,858	-0,150	0,007
-640,911	-200,000	0,019	-0,065
-639,897	-15,728	0,057	0,027
-638,882	-200,000	0,017	-0,139
-637,868	-105,048	-0,060	0,010
-636,853	-72,895	-0,072	-0,019
-635,838	-51,293	-0,059	-0,020
-634,824	-78,633	-0,146	0,036
-633,809	469,377	-0,016	-0,027
-632,795	-89,901	0,120	-0,025
-631,780	331,207	-0,067	0,095
-630,765	-23,033	-0,145	-0,064
-629,751	320,732	0,017	-0,023
-628,736	72,333	-0,085	0,065
-627,722	800,000	0,036	-0,113
-626,707	201,389	0,044	0,050
-625,692	103,640	0,060	-0,052
-624,678	124,621	-0,056	0,052
-623,663	-200,000	-0,107	0,000
-622,649	-43,755	0,055	-0,020
-621,634	286,359	-0,074	-0,098
-620,619	-200,000	0,028	-0,203
-619,605	42,989	0,072	-0,048
-618,590	-200,000	0,010	-0,140
-617,576	-101,738	0,082	0,014
-616,561	800,000	-0,025	0,069
-615,546	121,601	-0,080	0,073
-614,532	83,112	-0,121	-0,096
-613,517	-200,000	0,002	-0,047
-612,503	-80,692	0,048	0,012
-611,488	-107,407	-0,021	-0,003
-610,474	119,059	-0,027	0,025
-609,459	-200,000	0,000	-0,030
-608,444	-66,484	-0,092	-0,027
-607,430	191,245	-0,052	-0,058
-606,415	800,000	0,013	-0,030
-605,401	163,650	0,051	-0,052
-604,386	-200,000	0,005	0,043
-603,371	-200,000	-0,010	-0,084
-602,357	-108,840	0,011	-0,002
-601,342	20,809	-0,083	-0,049
-600,328	-56,536	0,154	-0,050
-599,313	0,144	-0,058	-0,030
-598,298	-200,000	-0,003	-0,144
-597,284	-36,235	0,121	0,048
-596,269	800,000	-0,018	-0,042
-595,255	26,738	-0,109	-0,067
-594,240	277,162	-0,070	-0,092
-593,225	-111,898	-0,106	-0,016
-592,211	-200,000	0,006	-0,145
-591,196	248,784	0,030	0,038
-590,182	30,232	0,016	0,010
-589,167	-200,000	0,011	0,088
-588,152	189,784	-0,102	0,112
-587,138	-14,298	0,100	-0,047
-586,123	-68,952	-0,061	-0,017
-585,109	113,729	-0,122	0,109
-584,094	-125,744	0,063	0,007
-583,079	-200,000	-0,034	-0,115
-582,065	-137,611	0,089	-0,007
-581,050	-200,000	-0,050	0,209
-580,036	268,956	-0,038	0,050
-579,021	214,120	0,036	-0,042
-578,006	149,333	0,099	0,098
-576,992	342,824	-0,028	-0,040
-575,977	-189,674	0,075	0,001
-574,963	-153,624	-0,035	0,002
-573,948	10,204	-0,102	0,056
-572,934	-200,000	-0,018	0,103
-571,919	800,000	0,020	0,049
-570,904	-14,440	0,079	-0,037
-569,890	-200,000	-0,009	-0,063
-568,875	129,631	0,082	-0,077
-567,861	-183,469	0,076	0,001
-566,846	259,879	-0,072	0,092
-565,831	41,515	-0,079	-0,053
-564,817	-200,000	-0,008	0,073
-563,802	-200,000	-0,003	-0,077
-562,788	-200,000	0,018	0,102
-561,773	800,000	-0,033	-0,087
-560,758	-48,520	-0,031	-0,011
-559,744	149,021	-0,113	-0,112
-558,729	-200,000	-0,029	-0,134
-557,715	-200,000	-0,039	-0,177
-556,700	125,730	0,060	-0,055
-555,685	-93,444	0,036	0,007
-554,671	138,960	0,111	-0,107
-553,656	221,041	-0,070	-0,083
-552,642	-200,000	-0,021	0,144
-551,627	111,129	0,093	0,082
-550,612	-23,878	-0,074	-0,032
-549,598	-200,000	0,005	-0,017
-548,583	71,671	-0,107	0,081
-547,569	10,538	-0,171	0,095
-546,554	-135,428	0,048	-0,004
-545,539	-200,000	-0,020	0,068
-544,525	63,090	0,023	-0,017
-543,510	340,146	-0,042	-0,060
-542,496	599,185	-0,032	0,058
-541,481	497,512	-0,100	0,170
-540,466	-200,000	-0,007	-0,077
-539,452	-200,000	-0,014	0,068
-538,437	-134,381	0,029	-0,003
-537,423	800,000	0,045	0,097
-536,408	-111,744	-0,038	0,006
-535,393	740,527	0,054	-0,106
-534,379	-200,000	0,002	-0,063
-533,364	450,287	0,073	-0,118
-532,350	1,461	0,052	0,027
-531,335	-200,000	0,007	-0,091
-530,321	548,009	-0,032	-0,056
-529,306	800,000	0,016	0,046
-528,291	704,525	-0,054	0,105
-527,277	-200,000	-0,013	-0,061
-526,262	-56,303	-0,081	-0,026
-525,248	-107,615	0,152	-0,024
-524,233	-30,465	0,016	-0,007
-523,218	-11,748	-0,164	0,078
-522,204	278,631	-0,102	0,133
-521,189	-2,235	-0,040	0,020
-520,175	206,610	0,053	-0,061
-519,160	187,584	-0,033	0,037
-518,145	-200,000	0,021	-0,100
-517,131	402,091	-0,056	-0,087
-516,116	-103,950	0,017	-0,003
-515,102	106,759	-0,066	-0,058
-514,087	800,000	-0,053	-0,163
-513,072	218,638	-0,093	-0,109
-512,058	-200,000	-0,038	0,147
-511,043	800,000	-0,020	0,061
-510,029	155,028	-0,016	0,016
-509,014	800,000	-0,036	0,086
-507,999	-200,000	0,016	-0,111
-506,985	203,279	-0,084	0,096
-505,970	800,000	-0,038	-0,079
-504,956	-37,491	0,078	-0,030
-503,941	-78,435	0,032	-0,008
-502,926	427,455	0,094	0,149
-501,912	-74,708	-0,074	0,019
-500,897	178,648	-0,056	0,060
-499,883	-200,000	-0,001	0,095
-498,868	-176,237	0,077	-0,001
-497,853	800,000	-0,045	0,105
-496,839	-200,000	-0,024	0,117
-495,824	609,071	-0,077	0,142
-494,810	800,000	0,042	0,106
-493,795	800,000	0,060	-0,129
-492,781	27,353	0,033	0,020
-491,766	-116,286	-0,078	0,010
-490,751	800,000	-0,030	0,062
-489,737	30,268	0,040	0,025
-488,722	-73,811	0,118	0,031
-487,708	-49,397	0,130	0,045
-486,693	-200,000	0,044	0,189
-485,678	-200,000	-0,008	0,038
-484,664	-75,895	0,111	0,029
-483,649	-200,000	0,009	-0,133
-482,635	219,535	0,042	-0,049
-481,620	513,261	-0,028	0,048
-480,605	-200,000	0,174	0,000
-479,591	52,648	0,135	-0,094
-478,576	-200,000	-0,014	0,104
-477,562	-102,157	-0,138	0,024
-476,547	-4,484	-0,100	-0,050
-475,532	800,000	0,012	0,036
-474,518	-36,660	0,080	0,031
-473,503	153,998	0,024	-0,024
-472,489	-200,000	0,017	-0,107
-471,474	27,389	-0,152	0,093
-470,459	800,000	-0,032	0,080
-469,445	-200,000	0,007	0,112
-468,430	283,878	0,035	0,046
-467,416	-34,982	0,165	0,065
-466,401	-22,820	0,079	0,035
-465,386	201,936	-0,034	-0,038
-464,372	-200,000	0,004	-0,076
-463,357	32,074	0,057	-0,036
-462,343	800,000	0,022	-0,068
-461,328	398,227	-0,110	-0,168
-460,313	-109,092	-0,077	0,012
-459,299	-52,332	-0,044	0,015
-458,284	-46,819	0,105	-0,037
-457,270	800,000	0,022	-0,070
-456,255	-20,485	0,036	-0,016
-455,241	800,000	-0,017	-0,041
-454,226	91,001	0,160	0,131
-453,211	185,105	0,060	0,065
-452,197	157,438	0,028	-0,029
-451,182	-200,000	-0,028	-0,153
-450,168	-50,179	-0,078	-0,027
-449,153	800,000	-0,045	-0,098
-448,138	800,000	-0,011	0,024
-447,124	29,663	0,108	0,067
-446,109	-200,000	-0,009	0,066
-445,095	177,164	0,138	-0,147
-444,080	-200,000	0,020	0,102
-443,065	800,000	-0,026	0,057
-442,051	800,000	-0,051	-0,118
-441,036	26,641	0,048	0,029
-440,022	95,378	-0,148	0,123
-439,007	-200,000	-0,001	0,040
-437,992	5,890	-0,107	-0,058
-436,978	-200,000	0,014	0,102
-435,963	180,075	0,097	0,103
-434,949	800,000	0,030	0,081
-433,934	77,105	-0,075	0,058
-432,919	449,775	0,030	-0,049
-431,905	-200,000	0,018	-0,080
-430,890	384,450	-0,014	0,021
-429,876	-147,640	-0,110	-0,007
-428,861	-58,427	0,032	0,010
-427,846	800,000	0,029	0,074
-426,832	-67,619	-0,113	0,032
-425,817	-30,250	0,050	-0,020
-424,803	-200,000	0,001	-0,026
-423,788	-100,096	0,064	0,012
-422,773	525,741	0,091	0,157
-421,759	84,629	0,108	0,086
-420,744	-200,000	-0,012	0,152
-419,730	-4,275	-0,014	-0,007
-418,715	-109,226	0,191	-0,029
-417,701	-156,057	-0,080	0,004
-416,686	121,050	0,035	0,032
-415,671	-200,000	-0,010	-0,073
-414,657	143,145	0,068	0,066
-413,642	-75,003	-0,082	0,021
-412,628	800,000	0,020	-0,052
-411,613	344,255	0,059	-0,084
-410,598	800,000	-0,027	-0,085
-409,584	145,623	0,080	0,078
-408,569	-53,878	0,125	0,041
-407,555	-144,566	0,043	-0,003
-406,540	29,477	-0,091	-0,056
-405,525	233,724	0,124	-0,148
-404,511	-200,000	-0,007	0,068
-403,496	-105,232	0,083	0,014
-402,482	-99,872	-0,111	0,020
-401,467	-200,000	-0,014	0,085
-400,452	-38,174	-0,040	-0,015
-399,438	326,185	0,027	0,037
-398,423	-81,587	-0,039	-0,009
-397,409	-200,000	0,031	-0,101
-396,394	800,000	-0,078	-0,164
-395,379	334,174	-0,060	-0,084
-394,365	713,007	0,034	-0,066
-393,350	-200,000	0,011	0,057
-392,336	-200,000	-0,005	0,130
-391,321	117,106	-0,018	-0,016
-390,306	-200,000	-0,027	-0,095
-389,292	800,000	-0,058	-0,142
-388,277	52,336	0,063	-0,044
-387,263	128,174	-0,033	0,030
-386,248	123,590	0,109	0,099
-385,233	-200,000	0,002	-0,131
-384,219	115,102	-0,056	-0,050
-383,204	173,590	-0,072	-0,075
-382,190	612,116	-0,043	-0,078
-381,175	72,248	0,037	-0,028
-380,160	197,582	0,150	0,166
-379,146	-200,000	-0,022	-0,071
-378,131	-200,000	0,004	0,059
-377,117	-12,671	0,121	0,057
-376,102	43,151	0,130	-0,086
-375,088	-120,762	-0,059	-0,007
-374,073	623,942	-0,021	-0,039
-373,058	-137,902	0,106	0,008
-372,044	800,000	0,028	0,085
-371,029	194,112	-0,179	0,197
-370,015	-12,343	0,045	0,021
-369,000	800,000	0,024	-0,078
-367,985	288,155	0,087	-0,115
-366,971	279,959	-0,024	0,031
-365,956	96,938	0,077	-0,064
-364,942	800,000	-0,031	-0,073
-363,927	-0,577	0,115	-0,059
-362,912	-59,108	-0,098	0,031
-361,898	-200,000	0,010	0,091
-360,883	280,546	-0,023	0,031
-359,869	-148,806	-0,041	-0,002
-358,854	296,141	0,074	0,099
-357,839	-200,000	0,009	0,234
-356,825	-111,899	-0,018	0,003
-355,810	-87,719	0,062	-0,013
-354,796	800,000	-0,064	-0,194
-353,781	800,000	-0,063	-0,129
-352,766	-200,000	0,040	-0,176
-351,752	14,096	-0,131	-0,074
-350,737	-200,000	0,012	0,174
-349,723	41,829	0,072	0,047
-348,708	304,661	0,026	0,035
-347,693	-25,946	0,022	-0,009
-346,679	-83,179	-0,112	0,026
-345,664	-200,000	-0,022	-0,074
-344,650	26,726	-0,077	-0,047
-343,635	12,273	0,158	0,088
-342,620	-20,237	-0,039	-0,017
-341,606	182,564	0,035	-0,038
-340,591	-200,000	0,017	0,101
-339,577	5,155	-0,075	-0,040
-338,562	-200,000	0,025	-0,108
-337,548	85,033	0,038	0,030
-336,533	800,000	-0,020	0,043
-335,518	448,950	0,032	-0,051
-334,504	-167,119	-0,061	-0,002
-333,489	45,265	-0,038	-0,025
-332,475	-70,023	-0,093	-0,026
-331,460	54,016	-0,022	0,016
-330,445	-200,000	0,022	0,167
-329,431	49,200	0,062	-0,043
-328,416	483,994	0,039	0,065
-327,402	77,922	0,057	-0,044
-326,387	322,106	0,053	0,074
-325,372	343,648	-0,069	-0,099
-324,358	462,439	0,031	-0,050
-323,343	800,000	-0,021	0,062
-322,329	-146,176	0,173	0,011
-321,314	-200,000	0,018	0,126
-320,299	-200,000	0,022	0,086
-319,285	131,372	-0,064	0,060
-318,270	-12,613	0,051	-0,024
-317,256	-200,000	0,020	0,076
-316,241	-21,425	-0,055	-0,024
-315,226	800,000	0,072	0,158
-314,212	800,000	0,034	-0,106
-313,197	62,752	0,014	0,010
-312,183	361,151	0,049	0,072
-311,168	-200,000	-0,024	-0,144
-310,153	-145,329	0,083	0,005
-309,139	-160,267	0,121	-0,005
-308,124	800,000	-0,019	-0,061
-307,110	-200,000	0,014	0,055
-306,095	-101,014	-0,065	0,011
-305,080	777,669	-0,038	-0,075
-304,066	-58,325	-0,034	0,011
-303,051	-200,000	0,002	-0,076
-302,037	396,565	0,060	-0,091
-301,022	-200,000	-0,035	-0,133
-300,008	59,515	0,043	0,031
-298,993	-200,000	-0,011	0,101
-297,978	285,769	-0,024	0,031
-296,964	-200,000	0,025	-0,110
-295,949	-39,706	0,041	0,015
-294,935	104,063	-0,069	0,059
-293,920	-65,364	-0,067	-0,019
-292,905	-12,546	0,033	0,015
-291,891	4,723	0,146	0,078
-290,876	774,448	-0,072	0,142
-289,862	540,711	0,072	0,125
-288,847	52,265	-0,086	0,059
-287,832	800,000	0,061	-0,145
-286,818	59,572	0,061	0,043
-285,803	-81,904	0,136	0,032
-284,789	-73,024	0,109	-0,029
-283,774	-170,612	-0,081	-0,002
-282,759	485,790	-0,048	0,079
-281,745	-200,000	0,010	-0,111
-280,730	317,404	-0,108	-0,148
-279,716	-200,000	0,003	-0,081
-278,701	-18,348	-0,120	-0,054
-277,686	20,177	0,194	0,113
-276,672	-200,000	0,003	0,113
-275,657	-200,000	-0,009	0,065
-274,643	94,502	0,078	-0,064
-273,628	28,942	0,095	0,058
-272,613	82,103	0,051	-0,040
-271,599	800,000	-0,048	0,154
-270,584	-200,000	-0,051	0,178
-269,570	-200,000	-0,017	-0,067
-268,555	-200,000	-0,004	0,030
-267,540	-69,268	-0,152	0,042
-266,526	174,905	-0,057	-0,060
-265,511	-56,680	-0,063	-0,020
-264,497	-147,829	-0,053	0,003
-263,482	480,963	0,065	0,108
-262,467	306,333	0,040	0,054
-261,453	-103,288	-0,089	-0,015
-260,438	-98,326	-0,030	-0,006
-259,424	-200,000	0,021	-0,077
-258,409	-25,257	-0,141	0,060
-257,395	116,430	0,043	-0,038
-256,380	434,317	0,009	0,014
-255,365	487,437	0,015	0,025
-254,351	96,576	0,073	-0,061
-253,336	-107,954	-0,036	0,006
-252,322	27,849	0,165	-0,100
-251,307	26,275	-0,062	0,037
-250,292	-40,752	0,097	0,036
-249,278	254,369	0,034	0,042
-248,263	-178,855	-0,095	0,002
-247,249	800,000	-0,035	0,102
-246,234	245,015	0,052	0,064
-245,219	0,915	-0,051	-0,026
-244,205	5,581	-0,159	-0,085
-243,190	800,000	0,021	-0,045
-242,176	502,657	0,026	0,043
-241,161	-23,295	0,130	-0,056
-240,146	800,000	0,013	0,034
-239,132	-200,000	-0,013	0,067
-238,117	65,371	-0,125	-0,091
-237,103	116,567	0,087	-0,077
-236,088	263,889	0,099	-0,124
-235,073	-13,572	-0,025	-0,012
-234,059	52,116	-0,125	0,086
-233,044	135,922	-0,112	0,105
-232,030	-30,509	-0,055	0,022
-231,015	-33,064	-0,135	0,054
-230,000	-172,361	0,062	-0,001
-228,986	48,488	-0,035	-0,023
-227,971	12,600	0,071	0,039
-226,957	103,197	-0,058	-0,049
-225,942	-119,689	-0,045	-0,006
-224,927	46,243	-0,038	0,025
-223,913	-177,786	-0,140	0,002
-222,898	-119,790	0,153	-0,019
-221,884	-98,287	-0,115	-0,021
-220,869	-200,000	0,007	-0,122
-219,855	126,188	0,078	-0,072
-218,840	800,000	0,033	0,071
-217,825	-122,238	0,068	-0,008
-216,811	275,588	0,010	-0,013
-215,796	-200,000	-0,003	-0,071
-214,782	-179,186	-0,101	0,002
-213,767	560,340	0,051	0,089
-212,752	363,817	0,091	0,133
-211,738	-88,674	-0,053	0,011
-210,723	118,339	0,042	-0,037
-209,709	-95,239	-0,076	-0,015
-208,694	-168,143	0,058	0,002
-207,679	-45,202	-0,059	-0,021
-206,665	-200,000	-0,004	0,057
-205,650	-200,000	0,006	-0,113
-204,636	-31,474	0,049	-0,020
-203,621	-40,854	-0,117	0,044
-202,606	20,120	0,093	0,054
-201,592	12,097	-0,045	-0,025
-200,577	202,230	-0,045	0,050
-199,563	632,642	0,081	-0,148
-198,548	264,933	0,068	0,086
-197,533	35,267	-0,099	0,062
-196,519	83,634	0,111	0,087
-195,504	571,597	-0,063	0,110
-194,490	-200,000	-0,007	-0,070
-193,475	-74,138	-0,054	-0,014
-192,460	264,952	-0,091	0,114
-191,446	-200,000	-0,013	0,053
-190,431	98,773	0,020	0,017
-189,417	800,000	0,044	0,127
-188,402	-0,054	-0,128	-0,066
-187,387	66,388	-0,049	0,036
-186,373	762,264	-0,052	-0,101
-185,358	-101,231	0,179	-0,031
-184,344	249,590	-0,063	-0,078
-183,329	243,896	0,097	0,118
-182,315	-67,136	-0,052	0,015
-181,300	800,000	-0,045	0,090
-180,285	34,371	0,014	0,009
-179,271	-200,000	0,015	-0,102
-178,256	300,511	0,085	-0,113
-177,242	-144,596	0,102	0,007
-176,227	417,954	0,041	-0,064
-175,212	108,358	0,074	0,064
-174,198	-87,823	0,013	0,003
-173,183	-36,468	0,059	-0,023
-172,169	-37,727	-0,090	-0,034
-171,154	-200,000	-0,008	0,108
-170,139	218,138	-0,035	-0,040
-169,125	8,907	0,081	0,044
-168,110	-62,980	-0,112	0,033
-167,096	29,804	-0,076	-0,046
-166,081	41,066	-0,035	-0,023
-165,066	-200,000	-0,066	-0,213
-164,052	-82,098	-0,036	0,008
-163,037	800,000	0,061	0,174
-162,023	774,333	-0,038	0,076
-161,008	-96,786	0,102	0,019
-159,993	-58,735	-0,099	0,031
-158,979	-200,000	0,000	-0,079
-157,964	325,406	0,056	-0,077
-156,950	336,303	-0,068	0,095
-155,935	768,891	-0,057	0,112
-154,920	-200,000	0,001	-0,026
-153,906	-64,851	0,068	0,020
-152,891	-200,000	-0,003	-0,116
-151,877	-150,689	0,143	0,008
-150,862	-91,434	-0,116	0,024
-149,847	800,000	-0,037	0,074
-148,833	198,221	-0,036	-0,040
-147,818	800,000	0,058	-0,168
-146,804	-114,879	0,093	-0,013
-145,789	-200,000	0,005	0,084
-144,775	67,019	-0,028	-0,021
-143,760	800,000	-0,048	-0,119
-142,745	25,602	-0,085	-0,051
-141,731	-51,769	0,046	0,015
-140,716	26,421	0,086	-0,052
-139,702	-200,000	0,015	0,067
-138,687	65,075	-0,023	0,016
-137,672	-66,086	-0,023	0,006
-136,658	79,215	-0,172	-0,133
-135,643	-200,000	-0,004	-0,040
-134,629	-200,000	0,012	0,059
-133,614	-200,000	0,002	-0,115
-132,599	800,000	0,050	0,121
-131,585	189,261	-0,012	-0,013
-130,570	800,000	-0,065	0,185
-129,556	186,262	-0,092	-0,098
-128,541	-200,000	0,007	0,024
-127,526	-200,000	0,009	0,028
-126,512	-30,754	0,061	0,025
-125,497	483,617	0,071	0,117
-124,483	-113,559	-0,040	-0,006
-123,468	-0,413	0,077	0,039
-122,453	-79,127	-0,208	0,050
-121,439	375,762	0,017	-0,025
-120,424	380,575	0,079	0,118
-119,410	-104,954	-0,022	0,004
