DTS Sentinel unit serial number:	SN410029Multiplexer serial number:	ORYXHardware model number:	OX2-SRSoftware version number:	ORYX F/W v4,00 Oryx Data Collector v3.7.2.0data status	okinstallation	B6 Nyhavnadifferential loss correction	single-endedforward channel	channel 2reverse channel	N/Adate	2023/12/08time	09:35:08forward acquisition time	300,00reverse acquisition time	0,00gamma	499,1914k internal	0,3166k external	0,3166temperature offset calibration	1,0000default loss term (dB/km)	0,3820temperature slope calibration	1,0000multiplexer offset coefficient	1,0000multiplexer slope coefficient	1,0000fibre end	0,00T internal ref (°C)	13,58T ext. ref 1 (°C)	-2,00T ext. ref 2 (°C)	-1,97length (m)	temperature (°C)	Stokes	anti-Stokes-744,400	-71,571	0,206	0,056
-743,385	-64,899	-0,209	0,062
-742,371	2,037	0,143	0,075
-741,356	-102,165	-0,251	-0,044
-740,342	48,940	0,076	0,053
-739,327	-178,518	-0,311	-0,005
-738,312	145,790	0,070	-0,069
-737,298	-25,074	-0,183	-0,079
-736,283	-200,000	-0,004	0,015
-735,269	-44,333	-0,232	-0,085
-734,254	800,000	-0,018	0,042
-733,239	-89,180	-0,536	-0,115
-732,225	420,780	0,134	0,211
-731,210	23,032	-0,091	0,055
-730,196	105,650	0,085	0,074
-729,181	800,000	-0,023	-0,067
-728,167	-165,230	-0,066	0,002
-727,152	800,000	-0,048	-0,123
-726,137	199,773	-0,033	0,037
-725,123	438,308	0,019	-0,030
-724,108	515,707	0,040	-0,069
-723,094	-200,000	0,018	-0,066
-722,079	24,602	-0,112	0,068
-721,064	-71,308	-0,028	-0,008
-720,050	517,261	0,039	-0,067
-719,035	6,225	0,041	0,022
-718,021	-200,000	0,005	0,032
-717,006	296,621	-0,115	-0,155
-715,991	-200,000	0,006	-0,030
-714,977	-17,342	-0,108	-0,050
-713,962	-40,219	-0,047	-0,018
-712,948	-200,000	-0,005	0,032
-711,933	608,232	-0,089	-0,164
-710,918	-176,258	-0,139	0,003
-709,904	20,716	-0,104	0,062
-708,889	18,733	-0,047	-0,027
-707,875	39,901	-0,160	-0,105
-706,860	-200,000	-0,013	0,044
-705,845	131,914	-0,063	0,059
-704,831	53,169	-0,017	-0,012
-703,816	-200,000	0,006	0,081
-702,802	800,000	-0,043	0,100
-701,787	101,585	-0,047	-0,040
-700,772	-177,015	-0,031	0,001
-699,758	-88,525	0,096	-0,021
-698,743	800,000	-0,046	0,145
-697,729	703,384	-0,011	-0,021
-696,714	-200,000	0,053	0,192
-695,699	800,000	-0,012	0,032
-694,685	191,931	0,056	-0,062
-693,670	456,418	-0,108	-0,177
-692,656	-200,000	-0,018	-0,068
-691,641	7,396	0,062	0,034
-690,627	-24,439	-0,120	0,052
-689,612	-200,000	0,016	-0,111
-688,597	10,600	-0,030	0,017
-687,583	38,625	0,021	-0,014
-686,568	-200,000	-0,001	0,103
-685,554	-200,000	-0,000	-0,129
-684,539	40,177	-0,082	0,054
-683,524	800,000	-0,031	-0,078
-682,510	-149,451	0,145	-0,008
-681,495	800,000	0,025	-0,064
-680,481	-154,086	-0,082	0,004
-679,466	84,561	-0,033	0,027
-678,451	73,974	0,085	-0,066
-677,437	-200,000	0,009	-0,072
-676,422	-17,171	0,096	0,044
-675,408	-200,000	-0,013	0,145
-674,393	-200,000	0,019	0,068
-673,378	320,850	-0,072	-0,101
-672,364	154,313	-0,040	-0,040
-671,349	29,461	0,111	-0,069
-670,335	-72,343	-0,054	-0,015
-669,320	113,729	-0,049	-0,044
-668,305	800,000	0,036	0,090
-667,291	-200,000	0,009	-0,074
-666,276	-200,000	0,009	-0,090
-665,262	345,085	0,028	-0,040
-664,247	573,818	0,029	0,052
-663,232	800,000	-0,047	0,122
-662,218	365,300	0,103	0,152
-661,203	677,848	0,082	-0,157
-660,189	-170,540	-0,035	0,001
-659,174	-18,890	-0,125	-0,057
-658,159	-28,565	-0,043	-0,018
-657,145	-200,000	0,004	0,129
-656,130	263,102	0,062	-0,080
-655,116	-34,991	0,066	0,026
-654,101	-142,405	-0,042	-0,003
-653,086	162,014	-0,117	-0,120
-652,072	800,000	0,029	0,060
-651,057	-200,000	-0,010	0,054
-650,043	800,000	-0,070	0,192
-649,028	-200,000	-0,001	-0,040
-648,014	-68,865	0,160	0,045
-646,999	-89,102	-0,047	-0,010
-645,984	-200,000	-0,008	0,066
-644,970	18,588	0,095	-0,056
-643,955	800,000	0,003	0,005
-642,941	227,718	-0,017	0,020
-641,926	283,330	0,108	0,142
-640,911	25,740	0,191	-0,116
-639,897	97,274	-0,142	0,119
-638,882	800,000	-0,044	0,102
-637,868	-21,397	-0,116	-0,051
-636,853	-200,000	0,034	-0,138
-635,838	226,863	0,047	-0,057
-634,824	-200,000	0,029	-0,144
-633,809	-68,924	-0,077	-0,022
-632,795	30,170	0,069	-0,043
-631,780	130,178	-0,118	-0,111
-630,765	49,433	0,074	0,051
-629,751	3,154	-0,068	-0,036
-628,736	537,569	-0,010	-0,017
-627,722	-200,000	-0,023	-0,112
-626,707	800,000	0,055	-0,150
-625,692	668,234	0,065	0,124
-624,678	59,496	0,006	0,004
-623,663	150,588	-0,084	0,084
-622,649	-45,411	-0,027	-0,010
-621,634	800,000	0,056	0,123
-620,619	-115,529	-0,141	0,019
-619,605	-160,610	-0,138	-0,005
-618,590	-200,000	-0,003	-0,045
-617,576	107,054	-0,023	-0,020
-616,561	800,000	-0,027	0,069
-615,546	-200,000	-0,025	-0,163
-614,532	19,948	-0,112	-0,066
-613,517	165,874	-0,104	-0,107
-612,503	-123,867	-0,129	0,015
-611,488	38,365	0,015	0,010
-610,474	-78,621	-0,109	-0,027
-609,459	-200,000	0,013	0,052
-608,444	-18,958	-0,080	-0,036
-607,430	486,476	-0,021	-0,035
-606,415	11,665	-0,031	0,018
-605,401	-18,217	-0,085	-0,039
-604,386	-200,000	0,006	0,058
-603,371	-21,877	-0,112	0,050
-602,357	2,327	0,046	-0,024
-601,342	-200,000	0,008	0,115
-600,328	305,738	0,036	-0,049
-599,313	88,754	-0,130	-0,106
-598,298	-86,225	-0,090	0,020
-597,284	-92,184	0,128	-0,026
-596,269	-200,000	0,003	0,039
-595,255	37,672	0,011	0,007
-594,240	-153,617	-0,067	-0,003
-593,225	82,587	0,118	-0,094
-592,211	-200,000	0,003	-0,263
-591,196	-200,000	0,004	-0,143
-590,182	800,000	-0,051	0,141
-589,167	-93,833	0,212	0,042
-588,152	221,499	-0,135	0,159
-587,138	-46,280	-0,065	-0,023
-586,123	-200,000	0,013	-0,049
-585,109	135,733	0,012	0,012
-584,094	-200,000	-0,017	-0,060
-583,079	800,000	-0,020	-0,051
-582,065	-42,525	-0,036	-0,013
-581,050	366,901	0,063	0,094
-580,036	-89,442	-0,147	0,031
-579,021	-26,484	-0,148	-0,063
-578,006	-101,031	0,069	-0,012
-576,992	153,637	0,036	0,036
-575,977	383,256	-0,035	-0,052
-574,963	800,000	0,007	-0,021
-573,948	-14,600	0,078	-0,036
-572,934	228,657	-0,149	0,177
-571,919	31,903	-0,070	0,044
-570,904	241,460	-0,079	-0,097
-569,890	-200,000	-0,033	0,118
-568,875	-200,000	0,001	-0,056
-567,861	-100,158	-0,070	0,013
-566,846	-37,297	0,092	0,036
-565,831	72,456	-0,096	-0,073
-564,817	-21,621	0,006	-0,003
-563,802	-200,000	-0,000	0,089
-562,788	-120,640	0,100	-0,012
-561,773	-90,941	0,053	0,011
-560,758	76,692	0,146	0,113
-559,744	-32,216	-0,047	-0,019
-558,729	28,766	-0,048	0,029
-557,715	-17,598	-0,123	-0,056
-556,700	-200,000	0,056	-0,187
-555,685	-200,000	-0,001	-0,023
-554,671	58,131	0,087	-0,062
-553,656	-200,000	0,012	-0,057
-552,642	-200,000	-0,001	0,051
-551,627	70,985	-0,051	-0,039
-550,612	427,514	-0,060	-0,095
-549,598	-13,840	0,036	0,017
-548,583	-200,000	-0,019	0,064
-547,569	-149,213	-0,063	-0,004
-546,554	-200,000	-0,008	0,047
-545,539	332,005	0,041	-0,057
-544,525	800,000	0,041	0,129
-543,510	64,698	-0,099	-0,073
-542,496	800,000	-0,042	-0,135
-541,481	242,521	-0,030	0,036
-540,466	-200,000	0,003	0,023
-539,452	800,000	0,041	-0,090
-538,437	14,810	-0,041	0,023
-537,423	-19,902	-0,047	-0,021
-536,408	44,529	-0,062	0,042
-535,393	67,646	0,075	0,056
-534,379	-13,184	-0,232	-0,110
-533,364	145,187	0,144	0,140
-532,350	-75,533	-0,067	0,017
-531,335	-200,000	0,001	-0,043
-530,321	66,833	0,046	0,034
-529,306	-53,690	0,015	-0,005
-528,291	210,297	0,071	-0,081
-527,277	-34,291	-0,065	0,026
-526,262	-200,000	-0,002	-0,015
-525,248	-93,893	-0,074	0,015
-524,233	27,165	-0,100	-0,061
-523,218	-79,140	-0,078	0,019
-522,204	-46,744	0,088	0,031
-521,189	800,000	0,035	0,111
-520,175	-200,000	-0,014	-0,092
-519,160	594,268	-0,094	-0,170
-518,145	196,989	0,066	0,073
-517,131	421,089	-0,050	0,078
-516,116	60,873	0,022	0,016
-515,102	385,708	0,018	-0,027
-514,087	-56,658	0,074	0,024
-513,072	-200,000	-0,020	-0,116
-512,058	-118,359	-0,154	-0,020
-511,043	-121,879	0,140	-0,017
-510,029	42,098	0,050	0,033
-509,014	102,225	0,026	-0,022
-507,999	-7,174	0,109	0,053
-506,985	100,682	-0,125	-0,106
-505,970	-200,000	0,049	-0,171
-504,956	17,766	-0,102	-0,059
-503,941	800,000	-0,051	0,133
-502,926	800,000	0,051	0,108
-501,912	25,788	0,023	0,014
-500,897	-200,000	0,005	0,035
-499,883	-20,567	-0,023	-0,010
-498,868	-126,433	-0,066	-0,007
-497,853	143,550	-0,049	-0,048
-496,839	-200,000	0,006	0,067
-495,824	193,499	-0,103	0,113
-494,810	657,011	-0,065	0,123
-493,795	800,000	0,033	0,105
-492,781	-11,642	-0,192	0,092
-491,766	-128,230	0,126	-0,013
-490,751	43,528	-0,020	0,013
-489,737	-8,141	-0,055	-0,027
-488,722	73,929	-0,063	0,048
-487,708	-56,709	0,078	-0,025
-486,693	-83,708	0,122	-0,028
-485,678	-43,555	-0,107	0,039
-484,664	518,046	-0,086	-0,147
-483,649	-84,448	-0,100	-0,023
-482,635	120,200	0,086	0,078
-481,620	99,249	0,057	-0,048
-480,605	281,771	-0,091	0,118
-479,591	30,323	0,020	0,012
-478,576	800,000	-0,036	0,098
-477,562	-57,421	-0,027	-0,009
-476,547	800,000	-0,018	0,043
-475,532	392,806	0,004	-0,006
-474,518	1,465	0,040	0,021
-473,503	-7,902	0,211	0,103
-472,489	800,000	0,036	0,076
-471,474	800,000	-0,051	0,109
-470,459	386,253	0,072	-0,109
-469,445	-81,185	0,035	0,008
-468,430	-102,346	0,078	0,013
-467,416	124,744	0,078	0,071
-466,401	-62,011	0,040	0,012
-465,386	-57,816	0,069	0,022
-464,372	-48,882	-0,129	0,045
-463,357	114,721	-0,083	0,073
-462,343	-200,000	0,034	-0,155
-461,328	800,000	-0,036	-0,075
-460,313	86,385	-0,077	0,062
-459,299	-56,035	0,126	0,041
-458,284	332,869	0,040	0,056
-457,270	125,496	-0,052	-0,047
-456,255	-200,000	0,019	-0,068
-455,241	-23,384	-0,188	0,082
-454,226	-200,000	-0,041	0,167
-453,211	205,520	0,106	-0,120
-452,197	-200,000	-0,001	-0,037
-451,182	-87,478	0,047	0,010
-450,168	73,831	0,119	-0,090
-449,153	-200,000	-0,016	0,122
-448,138	-5,289	-0,034	0,017
-447,124	-101,210	0,117	0,021
-446,109	-55,818	-0,096	-0,031
-445,095	-200,000	0,023	0,096
-444,080	95,687	0,086	0,071
-443,065	800,000	0,027	0,068
-442,051	800,000	0,029	-0,088
-441,036	-200,000	-0,017	0,084
-440,022	-96,807	0,043	-0,008
-439,007	744,635	0,020	-0,040
-437,992	-200,000	0,015	-0,095
-436,978	12,538	0,079	0,044
-435,963	-200,000	-0,002	0,044
-434,949	371,898	0,007	-0,010
-433,934	-200,000	-0,024	0,082
-432,919	10,949	-0,085	0,047
-431,905	-200,000	-0,007	0,055
-430,890	352,395	-0,057	-0,082
-429,876	-51,578	0,040	-0,013
-428,861	-121,204	-0,105	-0,013
-427,846	-52,705	-0,163	0,054
-426,832	-200,000	-0,002	-0,091
-425,817	699,184	-0,031	-0,060
-424,803	-176,256	0,187	0,003
-423,788	454,183	0,010	-0,016
-422,773	800,000	0,022	0,069
-421,759	800,000	-0,025	0,070
-420,744	684,294	-0,052	-0,099
-419,730	-32,733	0,186	-0,075
-418,715	-200,000	0,022	-0,083
-417,701	275,865	-0,026	-0,034
-416,686	800,000	0,013	0,041
-415,671	-200,000	0,003	0,066
-414,657	10,397	-0,097	-0,053
-413,642	-35,700	-0,149	0,058
-412,628	-200,000	0,004	-0,016
-411,613	243,587	0,081	0,099
-410,598	267,648	0,046	-0,059
-409,584	483,300	-0,017	-0,027
-408,569	800,000	0,041	0,116
-407,555	-51,211	-0,031	0,010
-406,540	-86,120	0,063	0,014
-405,525	-147,812	-0,080	0,005
-404,511	14,624	0,066	-0,037
-403,496	-200,000	0,028	-0,127
-402,482	-200,000	-0,034	-0,112
-401,467	800,000	-0,004	-0,013
-400,452	-200,000	-0,030	0,183
-399,438	111,571	0,039	-0,034
-398,423	-200,000	0,006	-0,029
-397,409	-132,009	0,082	0,008
-396,394	-200,000	-0,003	0,010
-395,379	163,413	0,123	0,126
-394,365	503,203	0,053	0,090
-393,350	-121,626	-0,089	-0,011
-392,336	58,077	0,041	-0,029
-391,321	531,682	-0,053	-0,092
-390,306	187,838	0,098	-0,106
-389,292	-107,348	-0,070	0,011
-388,277	152,000	-0,036	-0,035
-387,263	-200,000	0,009	0,072
-386,248	-80,627	0,061	0,015
-385,233	-44,243	0,088	-0,032
-384,219	158,372	0,072	0,073
-383,204	22,298	-0,067	-0,039
-382,190	800,000	-0,014	0,031
-381,175	800,000	-0,021	0,050
-380,160	-200,000	-0,044	0,146
-379,146	83,896	0,080	0,063
-378,131	-102,455	-0,044	-0,008
-377,117	-200,000	-0,012	0,090
-376,102	800,000	0,010	0,025
-375,088	-200,000	-0,009	-0,028
-374,073	134,711	0,070	0,066
-373,058	211,959	0,107	-0,122
-372,044	-148,856	0,073	0,004
-371,029	-200,000	0,036	0,128
-370,015	-200,000	-0,022	-0,097
-369,000	800,000	0,017	-0,045
-367,985	-83,525	0,040	-0,009
-366,971	-200,000	0,143	0,000
-365,956	549,264	0,064	-0,111
-364,942	-200,000	0,003	0,050
-363,927	-149,603	-0,045	0,003
-362,912	413,086	-0,020	-0,031
-361,898	-88,280	0,066	-0,014
-360,883	800,000	-0,057	-0,168
-359,869	192,397	0,031	0,034
-358,854	29,658	-0,115	-0,070
-357,839	-200,000	-0,016	0,081
-356,825	185,862	-0,143	0,155
-355,810	-200,000	-0,008	0,078
-354,796	712,720	-0,028	0,054
-353,781	-115,555	-0,064	0,009
-352,766	-124,905	-0,067	0,007
-351,752	132,997	-0,045	0,042
-350,737	-79,842	0,059	-0,014
-349,723	174,471	0,023	-0,024
-348,708	-7,733	-0,147	0,072
-347,693	104,218	-0,090	0,077
-346,679	-107,218	0,028	-0,004
-345,664	5,872	0,093	-0,050
-344,650	46,436	0,124	0,083
-343,635	-57,255	0,047	0,015
-342,620	541,448	-0,037	0,065
-341,606	-119,471	0,065	0,008
-340,591	63,284	-0,072	-0,052
-339,577	268,582	-0,029	0,037
-338,562	-200,000	-0,004	-0,096
-337,548	72,340	0,041	-0,031
-336,533	-200,000	0,018	0,090
-335,518	330,327	0,082	0,114
-334,504	128,422	0,132	0,121
-333,489	221,951	-0,032	-0,038
-332,475	-200,000	-0,017	-0,058
-331,460	-200,000	0,011	-0,037
-330,445	800,000	0,019	0,046
-329,431	-200,000	0,003	-0,025
-328,416	-153,457	0,113	-0,006
-327,402	51,446	-0,050	-0,034
-326,387	651,513	0,027	-0,049
-325,372	-200,000	0,002	-0,016
-324,358	56,587	0,053	-0,037
-323,343	-200,000	0,023	-0,093
-322,329	404,179	0,054	0,083
-321,314	43,408	0,082	0,054
-320,299	-200,000	-0,014	0,080
-319,285	18,203	0,111	-0,064
-318,270	-67,393	-0,156	0,044
-317,256	176,258	-0,047	-0,050
-316,241	-128,082	-0,022	0,002
-315,226	-65,767	0,043	-0,013
-314,212	-59,010	0,107	-0,033
-313,197	-200,000	0,007	0,104
-312,183	-200,000	0,035	0,114
-311,168	800,000	-0,055	-0,120
-310,153	-200,000	0,005	-0,026
-309,139	-181,391	-0,108	-0,001
-308,124	-28,137	0,058	0,024
-307,110	-200,000	-0,015	0,110
-306,095	60,986	0,069	0,050
-305,080	800,000	0,031	-0,073
-304,066	-200,000	-0,010	0,058
-303,051	250,807	0,022	-0,027
-302,037	-200,000	-0,001	-0,119
-301,022	-171,668	-0,022	-0,001
-300,008	55,977	0,049	-0,034
-298,993	-200,000	0,004	0,097
-297,978	17,711	-0,047	0,027
-296,964	146,214	-0,114	-0,110
-295,949	-200,000	-0,021	-0,096
-294,935	122,342	0,039	0,036
-293,920	-200,000	0,001	0,026
-292,905	401,701	0,054	0,082
-291,891	-200,000	0,023	-0,096
-290,876	5,159	0,206	0,109
-289,862	214,602	0,037	0,043
-288,847	-145,123	0,097	-0,006
-287,832	-200,000	0,011	-0,258
-286,818	-98,611	-0,144	0,026
-285,803	65,200	0,131	-0,096
-284,789	440,961	0,073	-0,115
-283,774	32,466	0,057	-0,035
-282,759	-11,947	-0,121	0,057
-281,745	365,323	0,091	0,133
-280,730	-41,686	-0,104	-0,039
-279,716	192,512	-0,033	0,036
-278,701	800,000	-0,027	-0,064
-277,686	-200,000	0,002	-0,013
-276,672	-200,000	-0,001	-0,132
-275,657	168,376	0,076	0,079
-274,643	800,000	-0,030	-0,082
-273,628	-74,993	-0,063	-0,016
-272,613	-75,847	0,056	0,014
-271,599	800,000	0,037	0,078
-270,584	4,414	0,131	-0,069
-269,570	-200,000	0,041	0,151
-268,555	-66,149	0,068	-0,019
-267,540	126,219	0,075	-0,068
-266,526	-200,000	0,020	-0,139
-265,511	-21,790	-0,058	-0,026
-264,497	287,041	-0,062	-0,081
-263,482	-128,562	-0,091	0,009
-262,467	-51,606	0,045	-0,015
-261,453	-115,233	0,107	0,014
-260,438	-200,000	0,014	-0,069
-259,424	16,960	-0,066	-0,037
-258,409	358,649	0,122	0,176
-257,395	-162,831	-0,043	-0,001
-256,380	70,034	0,032	0,024
-255,365	235,179	0,034	0,041
-254,351	-200,000	-0,024	0,118
-253,336	223,821	-0,044	0,051
-252,322	-103,745	-0,117	-0,020
-251,307	-200,000	-0,012	0,044
-250,292	-144,182	-0,108	0,007
-249,278	273,732	-0,022	-0,028
-248,263	-83,289	-0,062	-0,014
-247,249	-200,000	0,004	0,093
-246,234	800,000	-0,021	0,051
-245,219	800,000	-0,020	-0,042
-244,205	535,734	0,022	0,038
-243,190	-165,996	-0,030	0,001
-242,176	-200,000	0,015	0,050
-241,161	331,766	0,121	0,169
-240,146	800,000	0,029	0,075
-239,132	-200,000	-0,005	-0,035
-238,117	30,919	-0,162	0,100
-237,103	192,344	-0,041	-0,044
-236,088	-162,383	-0,025	0,001
-235,073	97,940	-0,065	-0,054
-234,059	505,201	-0,096	-0,161
-233,044	800,000	0,067	0,156
-232,030	-200,000	-0,026	-0,144
-231,015	-61,153	-0,037	-0,011
-230,000	-200,000	-0,016	-0,105
-228,986	-50,620	-0,042	0,014
-227,971	189,444	0,045	-0,049
-226,957	800,000	-0,014	0,035
-225,942	-200,000	-0,006	0,075
-224,927	-109,048	0,164	0,025
-223,913	-35,713	-0,164	-0,064
-222,898	144,623	0,041	-0,040
-221,884	126,540	0,024	0,022
-220,869	219,916	0,070	0,081
-219,855	224,986	-0,042	-0,049
-218,840	-200,000	-0,010	0,066
-217,825	141,485	-0,101	0,097
-216,811	-190,182	0,047	0,000
-215,796	800,000	0,053	-0,133
-214,782	334,994	0,025	-0,035
-213,767	500,836	-0,024	-0,041
-212,752	-155,629	0,120	0,005
-211,738	346,761	-0,061	0,086
-210,723	-200,000	-0,001	0,192
-209,709	-38,054	0,016	-0,006
-208,694	35,826	0,184	-0,116
-207,679	299,852	-0,019	-0,025
-206,665	-24,651	0,180	-0,077
-205,650	473,549	-0,048	0,079
-204,636	-61,073	0,114	-0,034
-203,621	800,000	-0,051	0,147
-202,606	800,000	-0,023	-0,073
-201,592	152,685	0,095	-0,094
-200,577	241,990	-0,113	0,137
-199,563	-200,000	0,012	-0,086
-198,548	631,949	0,015	0,027
-197,533	42,829	-0,045	-0,030
-196,519	-186,261	0,145	-0,001
-195,504	120,262	0,100	0,089
-194,490	-61,758	-0,126	-0,038
-193,475	483,203	0,122	-0,201
-192,460	-200,000	-0,006	-0,134
-191,446	22,437	-0,087	0,051
-190,431	-200,000	0,014	0,053
-189,417	150,312	0,045	0,044
-188,402	540,923	0,041	0,070
-187,387	-200,000	0,002	-0,074
-186,373	-200,000	0,013	-0,136
-185,358	230,109	-0,077	-0,090
-184,344	68,368	0,022	-0,016
-183,329	309,228	-0,036	0,049
-182,315	336,086	-0,043	-0,060
-181,300	453,368	0,041	-0,066
-180,285	-200,000	0,005	-0,043
-179,271	440,788	0,059	-0,093
-178,256	-200,000	0,008	-0,054
-177,242	60,016	0,044	0,032
-176,227	800,000	-0,050	0,145
-175,212	-43,550	0,037	-0,013
-174,198	-41,134	0,006	0,002
-173,183	-143,609	0,093	-0,006
-172,169	226,890	0,035	0,041
-171,154	800,000	0,034	-0,086
-170,139	-200,000	0,008	-0,165
-169,125	-200,000	-0,014	-0,113
-168,110	-95,606	0,051	-0,010
-167,096	52,912	0,060	0,041
-166,081	264,261	-0,088	-0,111
-165,066	-126,869	-0,126	0,013
-164,052	800,000	0,045	-0,130
-163,037	396,403	-0,053	0,080
-162,023	-200,000	0,023	0,138
-161,008	86,131	0,096	0,076
-159,993	800,000	0,021	0,050
-158,979	0,082	-0,180	0,092
-157,964	-100,469	-0,072	0,013
-156,950	800,000	-0,044	0,129
-155,935	800,000	0,021	-0,064
-154,920	-200,000	-0,001	-0,048
-153,906	800,000	0,064	-0,157
-152,891	15,034	-0,065	0,037
-151,877	800,000	-0,073	-0,157
-150,862	-200,000	-0,001	0,042
-149,847	40,564	0,094	-0,061
-148,833	154,271	-0,080	0,079
-147,818	-200,000	0,028	0,119
-146,804	622,927	-0,043	0,079
-145,789	-88,350	0,133	-0,028
-144,775	198,773	0,077	0,085
-143,760	800,000	-0,057	0,120
-142,745	25,044	-0,081	-0,048
-141,731	64,655	0,094	0,068
-140,716	140,425	-0,066	-0,062
-139,702	159,822	0,090	-0,090
-138,687	616,211	0,034	-0,061
-137,672	-200,000	-0,019	-0,130
-136,658	610,681	-0,017	-0,031
-135,643	175,438	-0,052	0,054
-134,629	476,363	-0,097	0,158
-133,614	-119,195	0,148	-0,018
-132,599	-9,896	0,099	0,047
-131,585	315,368	0,031	0,042
-130,570	800,000	-0,050	-0,147
-129,556	800,000	0,025	0,063
-128,541	-200,000	0,001	0,066
-127,526	-15,783	-0,070	0,032
-126,512	-200,000	0,006	-0,043
-125,497	14,992	0,066	-0,037
-124,483	239,768	-0,020	-0,024
-123,468	-79,238	0,023	-0,006
-122,453	-200,000	0,008	0,057
-121,439	155,573	0,024	0,024
-120,424	794,920	-0,054	0,107
-119,410	-200,000	-0,004	-0,096
