DTS Sentinel unit serial number:	SN410029Multiplexer serial number:	ORYXHardware model number:	OX2-SRSoftware version number:	ORYX F/W v4,00 Oryx Data Collector v3.7.2.0data status	okinstallation	B6 Nyhavnadifferential loss correction	single-endedforward channel	channel 2reverse channel	N/Adate	2023/12/08time	12:45:08forward acquisition time	300,00reverse acquisition time	0,00gamma	499,1914k internal	0,3159k external	0,3159temperature offset calibration	1,0000default loss term (dB/km)	0,3820temperature slope calibration	1,0000multiplexer offset coefficient	1,0000multiplexer slope coefficient	1,0000fibre end	0,00T internal ref (°C)	15,06T ext. ref 1 (°C)	-1,52T ext. ref 2 (°C)	-1,54length (m)	temperature (°C)	Stokes	anti-Stokes-744,400	194,940	0,058	-0,065
-743,385	-38,017	-0,245	-0,095
-742,371	255,921	0,039	0,049
-741,356	29,263	-0,253	0,158
-740,342	111,751	0,160	0,142
-739,327	-92,811	-0,230	-0,047
-738,312	-52,290	0,064	-0,022
-737,298	-35,524	-0,217	-0,086
-736,283	258,544	0,044	0,056
-735,269	-139,283	-0,346	0,027
-734,254	-200,000	0,005	-0,049
-733,239	-40,217	-0,500	-0,191
-732,225	68,016	0,193	0,146
-731,210	-200,000	-0,026	0,090
-730,196	-200,000	-0,007	-0,088
-729,181	-177,168	0,061	0,001
-728,167	21,323	-0,014	0,008
-727,152	410,659	-0,067	-0,105
-726,137	800,000	-0,041	-0,111
-725,123	25,869	-0,057	-0,035
-724,108	345,085	0,076	-0,110
-723,094	-200,000	-0,009	-0,059
-722,079	-80,452	-0,060	0,015
-721,064	-35,584	-0,004	-0,001
-720,050	800,000	0,015	-0,040
-719,035	-65,334	0,111	-0,033
-718,021	-71,833	-0,110	0,030
-717,006	-115,005	-0,084	0,012
-715,991	-174,603	-0,101	-0,002
-714,977	-137,841	-0,172	0,014
-713,962	-118,615	-0,177	-0,023
-712,948	214,214	0,110	-0,129
-711,933	709,604	-0,063	0,124
-710,918	-24,184	-0,110	0,048
-709,904	-129,935	-0,037	0,004
-708,889	800,000	-0,015	0,043
-707,875	800,000	-0,026	0,083
-706,860	10,500	-0,111	-0,062
-705,845	-200,000	0,012	0,149
-704,831	12,638	0,067	-0,038
-703,816	-87,950	-0,075	-0,016
-702,802	-96,844	-0,047	-0,009
-701,787	12,761	-0,135	0,077
-700,772	-75,569	-0,045	0,012
-699,758	800,000	0,033	-0,104
-698,743	416,147	-0,060	0,095
-697,729	-200,000	0,003	0,058
-696,714	-200,000	-0,004	0,041
-695,699	-200,000	-0,002	-0,025
-694,685	72,688	0,065	-0,050
-693,670	-200,000	0,007	-0,049
-692,656	136,114	-0,055	-0,053
-691,641	-85,495	-0,147	-0,033
-690,627	800,000	-0,028	0,067
-689,612	127,306	-0,048	-0,045
-688,597	-176,861	-0,165	-0,003
-687,583	-5,117	-0,228	-0,115
-686,568	800,000	-0,031	0,076
-685,554	-25,602	-0,047	0,020
-684,539	-4,555	0,089	0,045
-683,524	-200,000	0,009	-0,043
-682,510	-200,000	0,012	0,057
-681,495	-152,664	-0,187	-0,010
-680,481	138,905	0,018	-0,017
-679,466	-200,000	-0,039	-0,208
-678,451	-200,000	0,001	-0,045
-677,437	446,376	-0,037	0,059
-676,422	462,552	0,039	0,065
-675,408	-57,760	-0,082	-0,026
-674,393	-200,000	0,014	-0,090
-673,378	-126,343	-0,082	0,009
-672,364	-74,243	-0,105	-0,028
-671,349	-200,000	-0,019	0,066
-670,335	-155,952	-0,097	0,004
-669,320	-96,407	0,055	-0,011
-668,305	18,352	0,047	-0,028
-667,291	-200,000	0,023	0,133
-666,276	310,104	0,051	-0,071
-665,262	89,130	-0,009	0,008
-664,247	-200,000	-0,015	0,117
-663,232	-89,651	-0,065	0,014
-662,218	-200,000	0,018	0,061
-661,203	95,493	-0,063	0,053
-660,189	-176,248	0,128	0,002
-659,174	264,304	-0,099	-0,127
-658,159	-200,000	-0,012	-0,156
-657,145	13,468	0,152	-0,087
-656,130	-151,167	-0,143	-0,008
-655,116	-78,990	-0,064	0,016
-654,101	26,870	-0,020	0,012
-653,086	-5,871	-0,020	0,010
-652,072	-200,000	-0,013	-0,246
-651,057	149,377	-0,053	0,053
-650,043	-200,000	-0,010	0,101
-649,028	800,000	0,042	-0,135
-648,014	-90,029	0,126	0,027
-646,999	451,343	-0,031	-0,051
-645,984	-200,000	0,006	-0,099
-644,970	47,512	0,098	-0,067
-643,955	800,000	0,043	-0,103
-642,941	-200,000	-0,007	-0,128
-641,926	-200,000	0,046	-0,196
-640,911	342,873	-0,048	0,070
-639,897	46,851	-0,103	0,070
-638,882	-33,651	-0,087	0,035
-637,868	312,011	-0,039	-0,054
-636,853	-56,824	-0,062	0,020
-635,838	3,809	-0,083	-0,044
-634,824	-121,563	-0,038	0,005
-633,809	-21,032	-0,064	-0,028
-632,795	96,409	-0,195	0,164
-631,780	800,000	-0,077	0,223
-630,765	-133,485	-0,078	0,007
-629,751	-200,000	-0,000	-0,101
-628,736	-106,869	-0,119	-0,019
-627,722	800,000	0,018	-0,045
-626,707	-200,000	0,003	0,054
-625,692	-141,415	0,062	0,005
-624,678	189,134	0,036	-0,040
-623,663	-200,000	-0,032	-0,155
-622,649	-200,000	-0,004	-0,055
-621,634	8,156	-0,076	0,041
-620,619	146,402	-0,106	-0,104
-619,605	-127,330	-0,159	-0,017
-618,590	800,000	0,031	0,094
-617,576	134,791	0,055	0,052
-616,561	40,146	-0,043	0,028
-615,546	-100,819	-0,139	-0,025
-614,532	-32,696	-0,027	0,011
-613,517	40,038	-0,027	0,018
-612,503	-200,000	0,000	-0,050
-611,488	144,237	-0,018	0,018
-610,474	51,652	0,063	-0,044
-609,459	-99,019	0,075	0,014
-608,444	-79,874	-0,159	-0,039
-607,430	800,000	0,043	-0,134
-606,415	-159,641	-0,117	-0,005
-605,401	-200,000	-0,005	-0,032
-604,386	-33,381	0,114	-0,046
-603,371	800,000	0,003	0,009
-602,357	362,103	0,016	-0,023
-601,342	-135,820	-0,048	-0,004
-600,328	800,000	0,029	-0,088
-599,313	169,642	0,048	-0,051
-598,298	96,571	0,101	0,085
-597,284	-200,000	0,008	0,069
-596,269	264,916	-0,067	0,086
-595,255	800,000	0,034	-0,077
-594,240	-125,125	-0,041	0,005
-593,225	493,226	-0,025	-0,043
-592,211	72,652	-0,061	-0,047
-591,196	68,255	0,104	-0,078
-590,182	406,983	0,042	-0,065
-589,167	-141,390	0,215	-0,016
-588,152	68,511	-0,098	-0,074
-587,138	-23,572	0,067	0,030
-586,123	-200,000	0,005	0,033
-585,109	-101,431	-0,072	-0,013
-584,094	-52,609	0,047	-0,016
-583,079	800,000	-0,032	0,086
-582,065	-200,000	-0,026	0,085
-581,050	394,534	-0,088	0,135
-580,036	800,000	-0,023	0,069
-579,021	128,900	-0,060	-0,056
-578,006	-30,006	-0,072	-0,030
-576,992	-200,000	0,003	-0,058
-575,977	70,436	0,066	-0,050
-574,963	104,939	-0,124	0,107
-573,948	37,216	0,068	-0,044
-572,934	800,000	-0,045	0,132
-571,919	-133,337	-0,125	-0,011
-570,904	-200,000	-0,014	-0,073
-569,890	-33,653	-0,135	0,054
-568,875	-131,397	0,070	0,007
-567,861	3,450	0,055	0,029
-566,846	800,000	0,059	0,150
-565,831	800,000	0,032	0,090
-564,817	-58,939	0,070	-0,022
-563,802	-200,000	-0,006	0,039
-562,788	-48,771	-0,133	0,047
-561,773	11,195	-0,081	-0,045
-560,758	80,634	0,122	0,096
-559,744	-200,000	0,001	-0,142
-558,729	64,034	-0,006	0,004
-557,715	-77,028	-0,040	0,010
-556,700	489,778	-0,101	-0,170
-555,685	94,817	0,120	-0,100
-554,671	135,418	0,109	-0,104
-553,656	-200,000	0,003	-0,026
-552,642	297,506	0,036	-0,048
-551,627	-88,675	0,021	-0,004
-550,612	-200,000	0,004	-0,041
-549,598	-200,000	0,008	-0,041
-548,583	65,222	-0,193	-0,143
-547,569	-7,431	0,120	0,059
-546,554	-1,794	0,093	-0,047
-545,539	-181,743	-0,062	0,001
-544,525	123,208	-0,055	-0,051
-543,510	-200,000	-0,019	-0,109
-542,496	188,436	-0,038	0,042
-541,481	302,301	0,072	-0,098
-540,466	-200,000	-0,014	0,088
-539,452	-200,000	0,044	0,150
-538,437	166,997	0,050	0,052
-537,423	116,943	-0,053	0,048
-536,408	-200,000	0,015	-0,072
-535,393	301,253	-0,059	0,080
-534,379	34,610	-0,122	-0,078
-533,364	-191,459	-0,017	-0,000
-532,350	800,000	-0,042	0,091
-531,335	-200,000	-0,030	0,103
-530,321	-200,000	0,102	0,000
-529,306	17,348	0,072	0,042
-528,291	534,661	-0,058	0,101
-527,277	-200,000	-0,001	0,094
-526,262	-95,536	-0,054	0,010
-525,248	-102,253	0,038	-0,007
-524,233	4,414	0,026	0,014
-523,218	366,569	-0,079	0,116
-522,204	-64,213	0,108	0,032
-521,189	800,000	0,043	-0,118
-520,175	-200,000	-0,003	-0,108
-519,160	-119,907	0,068	0,008
-518,145	100,110	-0,136	-0,115
-517,131	-159,636	0,068	-0,003
-516,116	170,268	-0,062	0,065
-515,102	-200,000	0,024	0,106
-514,087	511,690	0,044	0,075
-513,072	800,000	-0,032	-0,084
-512,058	-200,000	0,005	0,035
-511,043	-200,000	0,009	0,126
-510,029	800,000	0,042	0,111
-509,014	440,263	0,047	-0,075
-507,999	-200,000	0,015	0,053
-506,985	399,518	-0,049	-0,076
-505,970	-200,000	-0,032	-0,162
-504,956	565,205	-0,055	0,097
-503,941	-200,000	0,014	-0,192
-502,926	-200,000	0,011	-0,118
-501,912	-184,100	-0,044	-0,001
-500,897	3,695	-0,152	-0,081
-499,883	109,279	0,057	0,050
-498,868	-11,598	0,102	0,049
-497,853	-200,000	-0,013	-0,095
-496,839	23,629	0,040	0,024
-495,824	-127,123	0,096	0,010
-494,810	589,025	0,081	0,147
-493,795	190,629	0,138	-0,152
-492,781	-200,000	-0,005	-0,062
-491,766	37,582	-0,084	0,055
-490,751	-182,884	0,069	-0,001
-489,737	377,862	-0,057	0,085
-488,722	90,764	0,061	0,050
-487,708	672,825	-0,036	0,068
-486,693	104,858	0,024	-0,021
-485,678	157,952	-0,028	-0,028
-484,664	-73,535	-0,047	-0,013
-483,649	168,880	-0,080	0,083
-482,635	406,381	0,020	-0,031
-481,620	800,000	-0,040	0,095
-480,605	218,888	0,069	-0,081
-479,591	191,209	0,029	-0,032
-478,576	800,000	0,025	-0,067
-477,562	433,462	-0,030	-0,048
-476,547	-100,432	0,048	0,009
-475,532	-110,960	-0,042	-0,006
-474,518	-200,000	-0,001	0,071
-473,503	105,374	0,138	0,119
-472,489	-200,000	-0,018	0,073
-471,474	81,694	-0,092	-0,072
-470,459	-148,099	-0,086	-0,005
-469,445	800,000	-0,048	-0,099
-468,430	-152,105	-0,077	-0,004
-467,416	24,700	0,103	-0,062
-466,401	122,838	0,069	0,063
-465,386	339,025	0,067	0,096
-464,372	-64,249	-0,062	0,018
-463,357	800,000	-0,033	-0,069
-462,343	800,000	0,028	-0,072
-461,328	800,000	-0,040	-0,110
-460,313	370,018	-0,041	0,061
-459,299	695,852	0,026	-0,050
-458,284	183,695	0,029	0,032
-457,270	36,845	-0,045	0,029
-456,255	800,000	-0,107	-0,227
-455,241	387,478	0,042	-0,063
-454,226	800,000	0,049	-0,116
-453,211	800,000	0,042	-0,127
-452,197	-33,406	0,072	0,029
-451,182	-92,419	0,066	0,013
-450,168	-200,000	0,012	-0,058
-449,153	800,000	-0,043	-0,103
-448,138	800,000	-0,027	0,070
-447,124	45,511	-0,017	0,011
-446,109	-43,388	-0,042	-0,016
-445,095	-47,020	0,041	-0,014
-444,080	-108,453	0,063	0,010
-443,065	-104,220	0,110	0,018
-442,051	-122,472	-0,057	-0,007
-441,036	-96,684	-0,105	-0,020
-440,022	-200,000	0,022	0,071
-439,007	-75,328	-0,018	0,005
-437,992	0,931	0,098	-0,051
-436,978	800,000	0,030	-0,064
-435,963	244,306	0,021	0,025
-434,949	-200,000	-0,000	-0,022
-433,934	426,347	0,030	0,047
-432,919	800,000	0,060	-0,142
-431,905	-107,644	-0,086	0,014
-430,890	-93,633	0,008	0,002
-429,876	-200,000	0,004	-0,014
-428,861	-70,842	0,089	0,024
-427,846	-53,473	-0,082	0,027
-426,832	145,159	-0,021	-0,020
-425,817	326,619	-0,099	-0,138
-424,803	233,133	0,015	0,018
-423,788	-200,000	-0,012	-0,172
-422,773	-76,528	0,166	-0,042
-421,759	-200,000	0,016	0,068
-420,744	-200,000	-0,021	-0,091
-419,730	-4,316	0,053	-0,026
-418,715	800,000	-0,016	-0,045
-417,701	27,950	-0,057	-0,035
-416,686	-76,305	0,067	-0,017
-415,671	223,814	0,044	-0,052
-414,657	42,444	-0,087	-0,058
-413,642	116,108	-0,025	0,023
-412,628	-125,719	0,107	0,012
-411,613	-76,148	-0,134	0,034
-410,598	220,140	0,068	0,080
-409,584	341,563	-0,049	-0,070
-408,569	-17,469	0,137	0,062
-407,555	-200,000	0,028	0,108
-406,540	88,902	0,053	0,043
-405,525	-100,071	-0,102	0,018
-404,511	-27,794	-0,052	-0,022
-403,496	-76,829	0,011	0,003
-402,482	-27,401	0,175	0,074
-401,467	-200,000	-0,014	0,062
-400,452	800,000	-0,030	0,071
-399,438	800,000	-0,022	0,056
-398,423	-200,000	-0,001	0,064
-397,409	800,000	0,026	0,081
-396,394	800,000	-0,022	-0,046
-395,379	110,404	-0,048	-0,042
-394,365	800,000	-0,049	-0,137
-393,350	10,638	0,173	-0,095
-392,336	800,000	-0,040	0,111
-391,321	800,000	-0,021	-0,047
-390,306	-48,975	0,068	0,024
-389,292	-26,869	0,175	-0,074
-388,277	800,000	0,003	-0,008
-387,263	536,617	0,058	0,101
-386,248	120,562	0,070	-0,063
-385,233	167,574	0,034	-0,035
-384,219	97,477	-0,084	0,070
-383,204	-38,655	-0,083	-0,032
-382,190	-110,077	-0,125	-0,019
-381,175	-13,619	-0,047	-0,022
-380,160	42,268	-0,008	0,006
-379,146	-200,000	0,017	0,147
-378,131	149,289	-0,078	0,076
-377,117	800,000	-0,024	0,052
-376,102	-35,449	-0,031	0,012
-375,088	30,117	-0,118	-0,073
-374,073	-68,868	0,039	-0,011
-373,058	800,000	-0,009	-0,021
-372,044	372,118	-0,089	0,131
-371,029	47,268	-0,039	-0,027
-370,015	-111,527	0,082	-0,012
-369,000	-164,797	-0,085	-0,003
-367,985	-200,000	0,001	0,042
-366,971	705,774	0,070	-0,134
-365,956	-110,250	0,032	-0,005
-364,942	-79,447	0,097	0,024
-363,927	120,111	-0,094	0,085
-362,912	110,950	0,025	-0,022
-361,898	-200,000	0,006	-0,086
-360,883	134,857	0,083	0,078
-359,869	320,384	0,052	-0,071
-358,854	224,948	-0,035	-0,041
-357,839	-200,000	-0,007	-0,046
-356,825	-200,000	-0,005	0,018
-355,810	-200,000	0,030	0,116
-354,796	0,841	0,081	0,042
-353,781	800,000	0,022	-0,068
-352,766	-200,000	-0,002	-0,067
-351,752	464,001	0,035	0,057
-350,737	383,191	0,042	0,063
-349,723	-82,737	0,081	0,019
-348,708	555,452	-0,028	-0,048
-347,693	-177,492	-0,111	-0,002
-346,679	-105,736	-0,076	-0,012
-345,664	-200,000	0,006	-0,038
-344,650	-31,060	0,117	-0,048
-343,635	126,708	0,099	0,091
-342,620	594,047	-0,054	0,097
-341,606	-156,914	-0,056	-0,002
-340,591	103,120	0,015	0,013
-339,577	262,900	-0,065	0,082
-338,562	-200,000	-0,010	0,144
-337,548	94,173	-0,046	-0,038
-336,533	594,603	0,024	-0,043
-335,518	-200,000	-0,020	0,142
-334,504	-200,000	-0,004	0,043
-333,489	800,000	-0,032	0,083
-332,475	-53,243	-0,059	-0,019
-331,460	800,000	-0,013	0,041
-330,445	-84,707	-0,195	0,044
-329,431	-24,600	0,036	0,015
-328,416	-49,300	0,123	0,042
-327,402	-40,901	-0,135	-0,051
-326,387	800,000	-0,119	0,245
-325,372	569,702	-0,046	0,082
-324,358	165,055	0,029	-0,030
-323,343	-200,000	0,021	-0,104
-322,329	709,101	0,032	-0,061
-321,314	-200,000	0,015	-0,053
-320,299	201,803	0,056	0,062
-319,285	258,153	-0,093	0,117
-318,270	-200,000	-0,004	-0,094
-317,256	800,000	-0,029	-0,069
-316,241	800,000	-0,040	-0,101
-315,226	5,446	0,041	0,022
-314,212	800,000	0,089	0,202
-313,197	104,813	-0,044	0,038
-312,183	-200,000	0,009	-0,046
-311,168	91,772	-0,086	0,070
-310,153	-200,000	0,011	0,091
-309,139	-30,355	0,070	0,029
-308,124	-27,397	0,122	-0,051
-307,110	-200,000	-0,035	-0,132
-306,095	-200,000	-0,018	0,139
-305,080	40,336	0,100	-0,065
-304,066	-3,599	-0,177	0,089
-303,051	-200,000	-0,031	-0,185
-302,037	172,411	-0,084	-0,088
-301,022	458,367	0,084	-0,136
-300,008	123,168	-0,042	0,038
-298,993	298,379	0,049	0,065
-297,978	341,127	0,040	-0,057
-296,964	800,000	-0,052	-0,109
-295,949	-91,932	0,125	0,025
-294,935	-200,000	-0,011	0,075
-293,920	148,907	-0,051	0,050
-292,905	-58,580	0,101	0,032
-291,891	-200,000	-0,039	0,164
-290,876	21,782	0,081	0,048
-289,862	-200,000	0,016	-0,116
-288,847	684,567	0,026	0,049
-287,832	-40,872	-0,153	-0,057
-286,818	612,998	-0,002	0,003
-285,803	800,000	-0,016	-0,036
-284,789	-200,000	0,104	0,000
-283,774	-200,000	-0,024	0,088
-282,759	51,240	-0,112	-0,077
-281,745	-200,000	0,029	-0,144
-280,730	436,322	0,037	-0,059
-279,716	800,000	0,049	-0,106
-278,701	-89,055	-0,152	-0,032
-277,686	468,188	-0,055	0,089
-276,672	800,000	-0,056	0,137
-275,657	195,326	0,137	-0,151
-274,643	-200,000	-0,060	-0,201
-273,628	630,295	-0,065	-0,120
-272,613	800,000	0,037	0,107
-271,599	800,000	0,060	0,146
-270,584	507,644	0,083	0,140
-269,570	-200,000	-0,011	-0,039
-268,555	-200,000	-0,013	0,128
-267,540	-116,025	0,098	0,013
-266,526	195,310	-0,084	-0,093
-265,511	-101,606	0,101	-0,018
-264,497	800,000	0,047	0,123
-263,482	316,225	0,031	0,042
-262,467	163,761	-0,026	0,027
-261,453	17,952	0,136	0,078
-260,438	-77,338	-0,026	-0,007
-259,424	-200,000	-0,025	-0,112
-258,409	-200,000	0,010	-0,174
-257,395	367,439	0,058	-0,086
-256,380	338,719	0,011	0,015
-255,365	250,737	0,030	0,037
-254,351	-200,000	0,006	-0,048
-253,336	597,742	-0,062	-0,111
-252,322	-200,000	-0,009	-0,081
-251,307	49,265	-0,107	-0,072
-250,292	704,537	-0,064	0,123
-249,278	332,354	0,050	0,070
-248,263	60,538	0,066	0,047
-247,249	1,165	0,145	0,075
-246,234	-129,879	0,043	-0,004
-245,219	236,599	-0,117	-0,141
-244,205	-16,607	0,068	-0,031
-243,190	-200,000	0,051	0,185
-242,176	-12,871	0,072	0,034
-241,161	310,575	0,039	0,054
-240,146	63,451	-0,074	0,054
-239,132	34,006	0,093	-0,058
-238,117	104,586	-0,206	-0,176
-237,103	-200,000	0,009	-0,158
-236,088	55,360	-0,095	-0,067
-235,073	94,417	-0,032	0,026
-234,059	-107,445	0,059	0,009
-233,044	-200,000	0,010	-0,074
-232,030	55,876	-0,065	0,045
-231,015	-200,000	-0,007	-0,031
-230,000	-200,000	-0,033	0,124
-228,986	-200,000	-0,002	0,014
-227,971	-46,923	0,100	-0,035
-226,957	-61,844	0,161	0,048
-225,942	223,990	-0,016	0,018
-224,927	421,048	0,020	-0,031
-223,913	-150,982	0,148	0,008
-222,898	-200,000	0,010	-0,104
-221,884	160,377	-0,074	0,075
-220,869	-200,000	-0,008	-0,092
-219,855	800,000	-0,072	0,154
-218,840	800,000	-0,020	0,056
-217,825	-22,748	-0,076	-0,033
-216,811	-37,410	-0,044	0,017
-215,796	-200,000	-0,014	-0,047
-214,782	214,515	-0,031	0,035
-213,767	356,930	0,057	0,083
-212,752	-200,000	-0,008	-0,041
-211,738	-200,000	0,000	0,029
-210,723	203,703	0,025	0,028
-209,709	113,582	0,041	0,036
-208,694	204,855	0,044	0,049
-207,679	28,446	0,182	0,111
-206,665	-122,849	-0,087	0,010
-205,650	-200,000	0,020	0,249
-204,636	-47,094	0,007	0,002
-203,621	17,091	-0,057	0,033
-202,606	800,000	0,034	0,083
-201,592	303,692	-0,096	0,129
-200,577	202,576	-0,040	0,044
-199,563	92,940	0,112	0,091
-198,548	506,708	0,088	0,148
-197,533	378,676	0,024	0,036
-196,519	-18,104	0,111	0,050
-195,504	429,159	0,045	0,070
-194,490	574,051	-0,028	-0,049
-193,475	-200,000	0,000	0,060
-192,460	-189,110	0,169	-0,001
-191,446	-54,117	0,088	-0,029
-190,431	-107,639	-0,040	-0,006
-189,417	-13,176	0,094	-0,044
-188,402	60,649	-0,122	0,087
-187,387	-23,259	-0,081	-0,035
-186,373	800,000	-0,047	0,110
-185,358	-178,025	-0,130	0,002
-184,344	-200,000	-0,007	0,133
-183,329	-18,440	0,059	0,026
-182,315	-56,575	0,073	0,023
-181,300	108,675	-0,110	0,095
-180,285	-79,196	-0,240	-0,058
-179,271	-175,537	-0,024	0,000
-178,256	-55,404	-0,058	-0,019
-177,242	800,000	0,029	0,073
-176,227	-200,000	-0,002	-0,111
-175,212	490,466	0,041	-0,068
-174,198	800,000	-0,029	0,066
-173,183	349,127	-0,020	0,029
-172,169	591,559	0,083	-0,148
-171,154	-200,000	0,006	0,048
-170,139	-27,964	0,097	0,040
-169,125	-56,835	-0,105	0,033
-168,110	-200,000	0,005	0,100
-167,096	-200,000	0,034	-0,116
-166,081	268,356	0,049	-0,062
-165,066	-200,000	0,015	-0,066
-164,052	79,267	0,127	-0,098
-163,037	800,000	0,063	-0,186
-162,023	166,873	0,087	0,089
-161,008	-65,956	0,101	-0,029
-159,993	-88,813	-0,027	0,006
-158,979	-114,155	-0,046	0,006
-157,964	22,738	-0,097	-0,057
-156,950	-200,000	-0,011	0,084
-155,935	317,123	-0,035	0,048
-154,920	120,876	-0,034	0,030
-153,906	-131,570	0,113	-0,011
-152,891	-13,353	0,061	-0,028
-151,877	-121,435	-0,119	0,014
-150,862	-128,832	-0,108	-0,011
-149,847	-33,417	-0,095	-0,038
-148,833	51,313	-0,041	0,028
-147,818	65,043	0,065	-0,047
-146,804	-37,587	0,060	0,023
-145,789	689,679	-0,095	-0,181
-144,775	21,899	-0,113	-0,066
-143,760	337,002	-0,011	-0,016
-142,745	-96,744	-0,045	-0,008
-141,731	397,807	0,038	0,057
-140,716	-200,000	0,024	0,130
-139,702	10,043	-0,077	-0,042
-138,687	59,302	0,036	-0,026
-137,672	-130,791	-0,017	-0,002
-136,658	24,078	-0,075	0,045
-135,643	52,258	-0,083	0,057
-134,629	800,000	0,034	0,077
-133,614	14,627	0,100	0,056
-132,599	800,000	-0,026	0,081
-131,585	800,000	0,048	0,113
-130,570	3,892	-0,105	0,055
-129,556	-25,638	-0,106	0,045
-128,541	202,592	-0,027	0,030
-127,526	705,135	0,081	0,155
-126,512	-200,000	0,025	0,161
-125,497	-169,504	0,097	-0,002
-124,483	-200,000	0,011	-0,049
-123,468	-142,806	0,131	0,009
-122,453	133,796	0,022	0,021
-121,439	-55,107	0,103	-0,033
-120,424	-200,000	-0,003	-0,089
-119,410	800,000	0,036	0,102
