DTS Sentinel unit serial number:	SN410029Multiplexer serial number:	ORYXHardware model number:	OX2-SRSoftware version number:	ORYX F/W v4,00 Oryx Data Collector v3.7.2.0data status	okinstallation	B6 Nyhavnadifferential loss correction	single-endedforward channel	channel 2reverse channel	N/Adate	2023/12/09time	09:55:08forward acquisition time	300,00reverse acquisition time	0,00gamma	499,1914k internal	0,3139k external	0,3139temperature offset calibration	1,0000default loss term (dB/km)	0,3820temperature slope calibration	1,0000multiplexer offset coefficient	1,0000multiplexer slope coefficient	1,0000fibre end	0,00T internal ref (°C)	18,50T ext. ref 1 (°C)	2,13T ext. ref 2 (°C)	2,13length (m)	temperature (°C)	Stokes	anti-Stokes-744,400	-111,117	0,038	-0,006
-743,385	-115,824	-0,255	0,035
-742,371	800,000	0,050	-0,123
-741,356	-116,075	-0,207	-0,028
-740,342	10,369	0,132	0,075
-739,327	-80,750	-0,280	0,068
-738,312	-156,667	0,116	0,005
-737,298	0,175	-0,327	0,172
-736,283	45,098	0,096	-0,066
-735,269	-146,562	-0,207	0,013
-734,254	-182,957	0,046	-0,001
-733,239	-148,396	-0,318	0,019
-732,225	-103,476	0,168	-0,029
-731,210	-63,435	-0,088	0,027
-730,196	-200,000	0,027	-0,092
-729,181	800,000	0,049	-0,135
-728,167	-55,369	0,085	-0,028
-727,152	-200,000	0,011	-0,062
-726,137	-200,000	-0,104	0,000
-725,123	506,128	0,008	0,013
-724,108	61,652	-0,064	-0,047
-723,094	102,440	0,008	0,007
-722,079	-200,000	-0,053	-0,194
-721,064	102,654	0,152	-0,132
-720,050	515,303	0,050	0,087
-719,035	-111,188	-0,064	-0,010
-718,021	-200,000	0,013	0,071
-717,006	23,313	0,085	0,051
-715,991	-189,305	-0,070	-0,001
-714,977	-200,000	-0,063	-0,000
-713,962	113,718	-0,070	0,063
-712,948	558,097	-0,051	-0,091
-711,933	187,956	-0,056	0,062
-710,918	266,232	0,101	0,130
-709,904	121,262	-0,050	-0,046
-708,889	-117,922	-0,200	0,026
-707,875	248,095	0,050	0,062
-706,860	387,881	-0,064	-0,098
-705,845	-106,852	0,067	0,011
-704,831	7,498	-0,100	-0,055
-703,816	429,027	-0,028	0,045
-702,802	-200,000	-0,019	-0,072
-701,787	-37,281	-0,140	-0,055
-700,772	66,882	0,099	-0,074
-699,758	800,000	0,021	-0,047
-698,743	-67,566	0,145	-0,042
-697,729	204,140	0,067	0,077
-696,714	-200,000	0,002	-0,026
-695,699	-200,000	-0,009	-0,049
-694,685	-105,028	0,010	-0,002
-693,670	800,000	-0,026	-0,078
-692,656	800,000	-0,081	0,175
-691,641	513,217	-0,059	-0,102
-690,627	-77,625	-0,113	0,029
-689,612	222,161	-0,050	-0,059
-688,597	294,353	-0,037	-0,050
-687,583	-68,367	-0,043	-0,012
-686,568	24,232	0,027	-0,016
-685,554	-51,373	-0,020	-0,007
-684,539	-78,445	0,125	0,031
-683,524	-126,520	-0,088	0,010
-682,510	305,589	-0,059	0,082
-681,495	800,000	0,036	0,083
-680,481	-117,175	-0,090	0,012
-679,466	203,348	-0,061	0,070
-678,451	-80,326	-0,073	0,018
-677,437	-137,547	0,079	0,007
-676,422	-200,000	0,033	0,119
-675,408	36,707	-0,128	0,083
-674,393	-200,000	0,006	-0,068
-673,378	79,236	-0,111	-0,088
-672,364	64,471	0,060	-0,045
-671,349	142,258	-0,114	-0,112
-670,335	-147,380	-0,123	0,008
-669,320	-200,000	0,016	-0,055
-668,305	-85,401	-0,044	-0,010
-667,291	793,665	-0,016	-0,032
-666,276	-200,000	0,009	-0,123
-665,262	37,799	0,058	-0,038
-664,247	571,619	-0,046	-0,084
-663,232	249,436	-0,065	-0,082
-662,218	-48,101	-0,153	0,054
-661,203	404,815	-0,050	0,078
-660,189	-41,690	-0,012	-0,005
-659,174	413,957	-0,042	-0,066
-658,159	582,062	-0,050	-0,092
-657,145	-153,147	0,113	0,006
-656,130	588,716	0,027	-0,050
-655,116	-149,668	-0,056	0,003
-654,101	599,020	0,093	0,171
-653,086	168,320	0,016	0,017
-652,072	-200,000	-0,001	-0,047
-651,057	82,254	-0,117	-0,093
-650,043	256,094	0,097	-0,123
-649,028	88,380	-0,107	0,088
-648,014	-98,009	0,059	0,011
-646,999	-81,305	0,081	-0,020
-645,984	462,746	-0,011	0,018
-644,970	-58,489	-0,052	-0,017
-643,955	-200,000	0,009	0,049
-642,941	-200,000	-0,013	0,055
-641,926	62,565	-0,079	-0,058
-640,911	800,000	0,104	-0,244
-639,897	-66,467	0,174	0,051
-638,882	-200,000	-0,024	0,183
-637,868	111,961	-0,040	-0,036
-636,853	93,468	-0,147	-0,123
-635,838	-200,000	0,005	-0,087
-634,824	-200,000	0,000	0,083
-633,809	406,518	0,112	-0,175
-632,795	499,665	0,067	0,114
-631,780	138,060	-0,052	0,050
-630,765	-200,000	0,016	0,068
-629,751	138,082	0,027	0,026
-628,736	-200,000	0,001	-0,032
-627,722	173,431	-0,113	-0,120
-626,707	36,275	0,039	-0,025
-625,692	78,634	0,112	0,088
-624,678	68,240	0,058	0,044
-623,663	51,953	-0,127	-0,089
-622,649	-99,486	-0,081	0,015
-621,634	-200,000	-0,005	-0,081
-620,619	93,341	0,051	-0,043
-619,605	-200,000	-0,026	0,130
-618,590	89,758	0,053	0,043
-617,576	-200,000	-0,018	0,119
-616,561	-200,000	-0,022	0,223
-615,546	-200,000	0,004	-0,115
-614,532	800,000	0,044	-0,120
-613,517	168,387	-0,098	-0,103
-612,503	-200,000	-0,004	-0,091
-611,488	-200,000	-0,029	0,166
-610,474	687,085	-0,069	0,135
-609,459	690,909	0,054	0,105
-608,444	141,800	-0,089	-0,087
-607,430	180,699	0,059	-0,064
-606,415	14,693	-0,072	0,041
-605,401	-128,876	0,158	-0,016
-604,386	26,797	-0,039	0,024
-603,371	-200,000	-0,006	0,154
-602,357	-200,000	0,010	-0,074
-601,342	-150,555	-0,120	0,007
-600,328	-66,361	0,113	-0,033
-599,313	-200,000	-0,014	-0,054
-598,298	101,191	-0,084	0,072
-597,284	87,717	-0,075	0,061
-596,269	40,984	0,099	-0,066
-595,255	-200,000	0,025	-0,085
-594,240	-58,942	-0,099	-0,031
-593,225	800,000	0,052	-0,143
-592,211	-200,000	-0,007	-0,221
-591,196	800,000	0,075	-0,228
-590,182	53,060	0,118	0,083
-589,167	-0,372	-0,108	-0,057
-588,152	-86,931	0,106	-0,024
-587,138	47,930	0,022	-0,015
-586,123	-105,866	-0,122	-0,020
-585,109	184,372	-0,148	0,162
-584,094	47,967	-0,058	0,040
-583,079	-7,681	0,052	0,026
-582,065	91,466	-0,046	-0,038
-581,050	-13,827	-0,080	-0,038
-580,036	-169,923	-0,127	-0,003
-579,021	35,545	-0,062	0,040
-578,006	308,682	-0,048	-0,066
-576,992	66,840	-0,029	-0,022
-575,977	73,329	0,092	-0,071
-574,963	-87,051	0,144	-0,032
-573,948	800,000	0,059	0,181
-572,934	19,023	-0,038	-0,023
-571,919	-200,000	0,013	-0,159
-570,904	-200,000	-0,089	0,000
-569,890	143,527	0,041	0,041
-568,875	-86,090	0,031	-0,007
-567,861	510,670	-0,030	-0,051
-566,846	-200,000	0,027	0,109
-565,831	80,703	-0,054	-0,043
-564,817	44,002	-0,012	0,008
-563,802	-200,000	-0,020	-0,110
-562,788	657,700	0,054	-0,104
-561,773	448,306	0,020	0,032
-560,758	10,552	0,112	-0,063
-559,744	551,563	-0,012	0,021
-558,729	-200,000	0,016	-0,069
-557,715	800,000	-0,016	0,037
-556,700	258,724	0,075	0,095
-555,685	255,429	0,047	-0,060
-554,671	149,239	0,035	-0,034
-553,656	-181,185	0,064	-0,001
-552,642	-66,900	-0,131	-0,038
-551,627	-200,000	-0,005	-0,136
-550,612	-99,749	-0,064	-0,012
-549,598	-200,000	0,015	-0,088
-548,583	36,614	-0,069	-0,045
-547,569	-140,760	-0,092	0,007
-546,554	-200,000	0,015	0,099
-545,539	502,005	0,010	0,017
-544,525	507,471	0,046	-0,079
-543,510	-27,700	-0,053	0,023
-542,496	535,462	0,072	-0,126
-541,481	118,377	-0,033	0,030
-540,466	31,273	-0,045	0,029
-539,452	800,000	0,027	0,085
-538,437	404,465	0,062	0,097
-537,423	-200,000	0,033	0,220
-536,408	477,649	-0,023	0,038
-535,393	800,000	-0,031	0,066
-534,379	651,676	0,066	0,125
-533,364	371,282	0,010	0,015
-532,350	371,071	-0,027	0,040
-531,335	-58,582	-0,091	0,029
-530,321	3,112	-0,082	0,044
-529,306	575,826	-0,047	0,085
-528,291	236,419	0,071	0,087
-527,277	800,000	0,063	-0,147
-526,262	385,335	0,032	0,048
-525,248	-200,000	-0,004	0,015
-524,233	-98,551	-0,145	-0,027
-523,218	156,206	-0,043	-0,043
-522,204	226,590	-0,055	-0,065
-521,189	332,917	0,016	-0,023
-520,175	461,289	-0,056	-0,092
-519,160	365,014	-0,091	-0,135
-518,145	-105,148	-0,077	-0,013
-517,131	-45,875	-0,105	-0,038
-516,116	-112,061	-0,035	-0,005
-515,102	252,603	-0,094	0,118
-514,087	579,395	-0,067	-0,121
-513,072	39,238	0,034	0,022
-512,058	-200,000	0,009	-0,157
-511,043	20,468	0,124	-0,073
-510,029	800,000	-0,050	-0,126
-509,014	259,199	0,093	0,118
-507,999	-103,327	0,049	-0,008
-506,985	385,665	0,029	0,045
-505,970	-85,045	0,072	-0,016
-504,956	-200,000	0,016	0,077
-503,941	117,327	-0,016	-0,014
-502,926	800,000	0,010	-0,025
-501,912	-200,000	0,019	0,082
-500,897	151,160	-0,020	0,020
-499,883	36,428	-0,023	0,015
-498,868	800,000	0,027	-0,076
-497,853	-200,000	-0,007	-0,057
-496,839	-200,000	-0,014	0,068
-495,824	800,000	0,029	-0,094
-494,810	289,571	-0,053	-0,071
-493,795	-51,961	0,042	-0,014
-492,781	-200,000	-0,026	0,107
-491,766	48,547	-0,168	-0,115
-490,751	-200,000	0,006	0,055
-489,737	-78,800	0,065	0,016
-488,722	-8,467	-0,029	0,014
-487,708	-102,882	0,116	-0,020
-486,693	-104,467	0,131	0,022
-485,678	800,000	-0,014	-0,028
-484,664	10,344	-0,062	-0,034
-483,649	23,868	0,069	0,042
-482,635	25,162	-0,114	0,069
-481,620	-200,000	0,029	0,163
-480,605	472,237	-0,004	-0,007
-479,591	-150,858	-0,117	0,006
-478,576	800,000	0,043	0,119
-477,562	-200,000	-0,014	-0,093
-476,547	43,357	0,030	-0,020
-475,532	800,000	0,079	-0,211
-474,518	-200,000	-0,010	-0,077
-473,503	377,314	0,047	-0,070
-472,489	800,000	-0,025	0,053
-471,474	393,377	-0,027	-0,042
-470,459	32,651	0,021	-0,013
-469,445	616,487	-0,076	-0,141
-468,430	800,000	-0,015	-0,038
-467,416	61,448	0,058	0,042
-466,401	220,392	-0,060	-0,071
-465,386	584,622	-0,013	0,024
-464,372	36,921	0,050	0,032
-463,357	0,866	-0,028	-0,015
-462,343	-200,000	-0,022	-0,121
-461,328	-74,610	-0,086	-0,023
-460,313	-200,000	0,001	-0,114
-459,299	800,000	0,023	0,065
-458,284	-8,464	0,115	-0,056
-457,270	-200,000	-0,008	-0,062
-456,255	-110,467	0,086	-0,013
-455,241	194,432	0,069	-0,076
-454,226	156,074	0,036	0,036
-453,211	137,921	0,103	0,099
-452,197	544,366	0,007	-0,012
-451,182	138,630	0,041	-0,039
-450,168	-200,000	-0,017	0,105
-449,153	160,856	-0,047	0,049
-448,138	-10,141	-0,111	-0,054
-447,124	-200,000	0,040	0,129
-446,109	-200,000	0,007	0,122
-445,095	-200,000	0,003	0,049
-444,080	308,093	0,063	-0,086
-443,065	166,049	-0,022	-0,023
-442,051	-200,000	-0,012	0,110
-441,036	-77,199	0,045	0,011
-440,022	-200,000	0,008	-0,030
-439,007	-39,299	-0,066	0,025
-437,992	-72,831	0,083	0,022
-436,978	-37,228	0,044	-0,017
-435,963	-200,000	-0,011	0,099
-434,949	45,703	0,116	0,078
-433,934	800,000	0,015	0,046
-432,919	-125,464	0,048	-0,005
-431,905	105,057	-0,025	-0,021
-430,890	-115,524	-0,085	0,012
-429,876	29,846	0,056	-0,035
-428,861	-200,000	-0,009	0,158
-427,846	800,000	-0,020	0,060
-426,832	-200,000	-0,001	0,055
-425,817	166,973	-0,035	-0,036
-424,803	-200,000	-0,015	0,063
-423,788	397,441	-0,049	0,075
-422,773	800,000	0,061	-0,141
-421,759	-180,513	-0,150	0,002
-420,744	233,744	0,117	0,141
-419,730	-98,956	0,030	-0,006
-418,715	69,577	-0,063	-0,048
-417,701	800,000	-0,022	0,050
-416,686	742,122	0,050	-0,099
-415,671	-2,926	0,113	-0,058
-414,657	35,327	-0,082	0,053
-413,642	150,397	0,105	0,104
-412,628	349,405	-0,057	0,082
-411,613	-157,008	-0,095	-0,004
-410,598	-200,000	0,000	0,058
-409,584	386,034	0,059	0,090
-408,569	-200,000	0,035	0,199
-407,555	18,170	-0,100	0,058
-406,540	800,000	-0,017	-0,042
-405,525	581,245	0,032	0,057
-404,511	-10,388	-0,149	-0,072
-403,496	800,000	-0,029	-0,070
-402,482	-59,341	0,047	-0,015
-401,467	800,000	-0,023	-0,057
-400,452	185,499	-0,062	0,068
-399,438	-200,000	0,047	-0,170
-398,423	-200,000	-0,023	-0,094
-397,409	33,018	-0,118	0,075
-396,394	-75,811	-0,125	-0,032
-395,379	-148,007	0,142	0,008
-394,365	-200,000	0,023	0,080
-393,350	-72,253	0,098	0,026
-392,336	231,523	0,125	0,150
-391,321	130,130	-0,128	-0,120
-390,306	125,754	-0,029	0,026
-389,292	42,810	0,045	-0,030
-388,277	-19,133	0,088	-0,040
-387,263	137,036	0,087	0,083
-386,248	43,151	0,056	0,037
-385,233	255,533	0,088	-0,111
-384,219	132,872	0,031	-0,029
-383,204	381,325	-0,068	0,103
-382,190	132,048	-0,071	-0,067
-381,175	-125,371	0,099	0,011
-380,160	85,288	-0,025	-0,020
-379,146	-63,009	-0,061	0,018
-378,131	-200,000	-0,010	0,155
-377,117	-35,494	0,082	0,032
-376,102	-200,000	-0,030	-0,156
-375,088	-200,000	0,001	-0,087
-374,073	355,939	0,015	0,022
-373,058	800,000	-0,034	-0,107
-372,044	-52,517	-0,027	-0,009
-371,029	102,350	-0,057	0,049
-370,015	6,016	0,033	-0,018
-369,000	36,189	-0,089	0,057
-367,985	-126,426	-0,060	0,006
-366,971	800,000	-0,050	-0,152
-365,956	-87,677	-0,098	-0,021
-364,942	-200,000	0,008	0,093
-363,927	800,000	0,026	0,081
-362,912	678,753	0,033	0,063
-361,898	-200,000	-0,023	0,076
-360,883	800,000	-0,063	-0,148
-359,869	-7,859	-0,016	0,008
-358,854	-144,603	-0,090	-0,006
-357,839	800,000	0,075	0,184
-356,825	-97,923	-0,078	0,015
-355,810	-200,000	0,001	-0,066
-354,796	516,198	-0,087	0,148
-353,781	-25,396	0,136	-0,059
-352,766	240,235	0,016	0,019
-351,752	296,197	0,077	0,103
-350,737	800,000	0,033	0,090
-349,723	-108,365	-0,153	0,024
-348,708	205,927	-0,070	0,080
-347,693	800,000	0,009	-0,027
-346,679	59,918	0,024	-0,018
-345,664	-200,000	-0,016	-0,058
-344,650	250,789	-0,013	0,017
-343,635	-200,000	0,017	0,099
-342,620	-47,494	0,035	-0,012
-341,606	-200,000	-0,005	-0,031
-340,591	284,085	0,039	0,051
-339,577	-150,991	-0,111	0,006
-338,562	-200,000	0,002	-0,145
-337,548	-81,011	0,052	0,012
-336,533	32,505	0,112	0,070
-335,518	-200,000	0,006	0,019
-334,504	91,141	-0,136	0,111
-333,489	229,658	-0,078	0,093
-332,475	45,380	-0,079	-0,053
-331,460	648,924	-0,052	0,097
-330,445	-200,000	-0,035	-0,134
-329,431	4,129	-0,066	-0,035
-328,416	-13,578	0,033	-0,015
-327,402	-34,114	0,039	0,015
-326,387	-200,000	0,005	0,078
-325,372	27,870	-0,089	-0,054
-324,358	62,462	-0,133	-0,097
-323,343	-200,000	-0,021	-0,170
-322,329	88,058	0,038	0,031
-321,314	800,000	-0,036	0,093
-320,299	-200,000	0,012	-0,151
-319,285	52,983	-0,105	-0,073
-318,270	142,163	0,082	-0,079
-317,256	-181,723	0,091	-0,001
-316,241	-105,027	0,079	-0,013
-315,226	-200,000	0,036	-0,139
-314,212	-22,656	0,062	0,027
-313,197	450,868	0,052	-0,085
-312,183	-200,000	-0,042	0,171
-311,168	-200,000	0,007	-0,055
-310,153	-56,545	0,048	0,015
-309,139	540,099	-0,007	0,013
-308,124	158,727	0,103	-0,105
-307,110	43,445	0,035	-0,024
-306,095	800,000	0,045	0,096
-305,080	363,179	0,058	-0,086
-304,066	374,845	0,078	0,117
-303,051	-37,353	0,061	-0,024
-302,037	412,670	0,056	0,087
-301,022	-69,537	-0,019	-0,005
-300,008	604,799	-0,012	0,022
-298,993	-157,016	0,061	-0,003
-297,978	5,979	0,020	-0,011
-296,964	224,546	0,057	0,068
-295,949	31,271	-0,120	-0,075
-294,935	-96,741	-0,050	0,009
-293,920	195,092	0,064	-0,071
-292,905	-25,450	0,163	0,070
-291,891	800,000	-0,025	-0,053
-290,876	186,515	0,084	0,091
-289,862	-22,581	-0,088	0,038
-288,847	-123,613	-0,050	0,006
-287,832	287,536	0,110	-0,146
-286,818	-63,166	-0,093	-0,028
-285,803	-200,000	-0,003	0,113
-284,789	-90,323	0,073	0,015
-283,774	39,420	0,022	0,015
-282,759	-70,666	0,166	-0,045
-281,745	133,831	0,042	0,040
-280,730	86,813	0,092	0,074
-279,716	-200,000	0,052	-0,178
-278,701	-200,000	-0,022	0,258
-277,686	-200,000	0,023	0,091
-276,672	579,944	0,033	0,060
-275,657	800,000	-0,041	0,105
-274,643	227,653	0,096	-0,114
-273,628	800,000	0,070	0,150
-272,613	-77,913	-0,066	0,016
-271,599	-91,253	0,110	0,023
-270,584	485,985	-0,009	-0,015
-269,570	74,516	0,039	0,030
-268,555	800,000	-0,016	0,049
-267,540	166,064	-0,089	-0,092
-266,526	287,493	-0,083	0,109
-265,511	800,000	-0,037	0,078
-264,497	133,038	0,038	-0,036
-263,482	-200,000	0,027	0,088
-262,467	121,423	0,111	0,101
-261,453	-200,000	0,017	0,056
-260,438	3,413	-0,086	-0,045
-259,424	-78,340	-0,093	-0,023
-258,409	-200,000	-0,022	0,165
-257,395	83,513	0,019	0,015
-256,380	539,217	0,038	-0,067
-255,365	255,417	-0,087	-0,109
-254,351	-200,000	-0,016	0,123
-253,336	230,499	-0,049	0,058
-252,322	800,000	0,023	-0,055
-251,307	526,903	-0,019	-0,033
-250,292	-126,769	0,055	0,006
-249,278	-110,907	0,129	-0,019
-248,263	-200,000	-0,031	0,103
-247,249	-55,329	-0,109	-0,035
-246,234	-200,000	-0,020	0,075
-245,219	-14,797	-0,139	-0,065
-244,205	371,645	0,035	-0,051
-243,190	-24,441	0,099	0,043
-242,176	-74,053	-0,031	-0,008
-241,161	-200,000	-0,011	0,061
-240,146	-1,113	-0,088	-0,045
-239,132	-127,580	0,048	-0,005
-238,117	-200,000	-0,002	-0,148
-237,103	-61,302	0,037	0,011
-236,088	800,000	0,022	-0,053
-235,073	19,918	0,102	-0,060
-234,059	800,000	-0,026	0,067
-233,044	-131,053	0,125	-0,012
-232,030	221,347	0,058	-0,068
-231,015	-200,000	-0,013	-0,063
-230,000	-200,000	-0,004	-0,044
-228,986	-200,000	0,040	-0,129
-227,971	-45,517	-0,046	0,017
-226,957	579,002	0,064	-0,114
-225,942	117,157	0,118	0,106
-224,927	-84,902	0,089	0,020
-223,913	-10,937	-0,053	0,026
-222,898	118,362	-0,101	-0,091
-221,884	772,280	0,073	0,145
-220,869	194,847	-0,081	0,089
-219,855	-76,305	0,123	0,031
-218,840	776,994	0,051	0,101
-217,825	-200,000	0,017	-0,092
-216,811	256,812	-0,020	-0,025
-215,796	-52,695	-0,127	0,042
-214,782	92,756	0,049	-0,040
-213,767	800,000	-0,036	-0,076
-212,752	338,549	-0,097	-0,137
-211,738	27,514	-0,093	-0,057
-210,723	-196,719	0,105	0,000
-209,709	-116,054	-0,151	-0,020
-208,694	800,000	-0,019	0,056
-207,679	76,909	0,065	-0,050
-206,665	55,649	-0,111	0,078
-205,650	-108,624	0,044	0,007
-204,636	136,322	0,041	-0,039
-203,621	153,410	0,062	-0,062
-202,606	-83,569	-0,071	-0,016
-201,592	412,546	-0,040	-0,061
-200,577	198,205	0,064	-0,071
-199,563	-88,896	-0,085	0,018
-198,548	-103,161	-0,066	-0,011
-197,533	71,070	-0,050	-0,038
-196,519	-200,000	0,018	0,086
-195,504	-93,336	0,051	-0,010
-194,490	-200,000	0,017	-0,087
-193,475	112,665	0,107	-0,094
-192,460	800,000	-0,046	-0,106
-191,446	63,151	-0,081	0,059
-190,431	292,704	0,077	-0,102
-189,417	223,765	-0,055	0,064
-188,402	91,086	0,055	0,045
-187,387	-200,000	-0,007	-0,052
-186,373	-117,136	-0,134	-0,018
-185,358	-200,000	-0,002	0,128
-184,344	-200,000	0,011	0,083
-183,329	485,232	0,068	0,114
-182,315	41,435	0,088	0,058
-181,300	800,000	0,014	-0,032
-180,285	-4,237	-0,058	0,029
-179,271	-84,742	-0,132	-0,030
-178,256	-126,220	0,133	0,014
-177,242	-200,000	0,032	-0,125
-176,227	145,229	0,057	0,055
-175,212	152,409	-0,013	0,013
-174,198	54,257	-0,076	-0,053
-173,183	138,080	0,066	0,063
-172,169	-200,000	0,043	-0,148
-171,154	-62,875	-0,023	0,007
-170,139	220,060	0,004	0,005
-169,125	149,319	0,104	-0,102
-168,110	147,473	0,010	0,009
-167,096	213,141	-0,138	0,158
-166,081	142,988	-0,061	-0,059
-165,066	-47,837	-0,088	-0,031
-164,052	-200,000	0,018	0,151
-163,037	-200,000	-0,022	0,070
-162,023	-200,000	-0,008	-0,105
-161,008	5,838	0,077	-0,041
-159,993	81,489	-0,051	-0,040
-158,979	236,804	-0,042	-0,051
-157,964	162,921	-0,103	-0,105
-156,950	800,000	-0,014	-0,029
-155,935	800,000	0,041	0,093
-154,920	-200,000	-0,008	-0,058
-153,906	800,000	-0,009	0,020
-152,891	-78,027	0,129	0,032
-151,877	116,604	0,079	-0,070
-150,862	-80,998	0,042	-0,010
-149,847	800,000	-0,061	0,172
-148,833	-59,941	-0,032	-0,010
-147,818	-108,984	0,118	-0,018
-146,804	-110,212	0,086	0,013
-145,789	-200,000	0,034	0,115
-144,775	-200,000	-0,037	0,160
-143,760	12,360	-0,053	0,029
-142,745	285,792	-0,080	-0,105
-141,731	11,631	0,143	-0,079
-140,716	800,000	-0,050	0,143
-139,702	800,000	-0,050	0,147
-138,687	56,024	-0,099	-0,070
-137,672	286,679	0,055	-0,072
-136,658	-72,950	-0,099	-0,026
-135,643	118,198	-0,129	-0,115
-134,629	800,000	-0,026	0,061
-133,614	690,094	0,065	0,124
-132,599	175,861	0,089	0,094
-131,585	800,000	0,019	-0,042
-130,570	54,317	-0,115	0,080
-129,556	-200,000	0,035	-0,124
-128,541	132,117	0,037	-0,034
-127,526	800,000	-0,048	0,113
-126,512	-72,362	0,073	-0,019
-125,497	-200,000	0,002	-0,051
-124,483	289,212	-0,077	-0,102
-123,468	109,026	0,122	0,106
-122,453	-42,558	-0,166	-0,061
-121,439	-86,368	-0,088	-0,019
-120,424	256,053	0,083	0,103
-119,410	129,108	0,081	-0,075
-118,395	298,962	-0,037	0,049
