DTS Sentinel unit serial number:	SN410029Multiplexer serial number:	ORYXHardware model number:	OX2-SRSoftware version number:	ORYX F/W v4,00 Oryx Data Collector v3.7.2.0data status	okinstallation	B6 Nyhavnadifferential loss correction	single-endedforward channel	channel 2reverse channel	N/Adate	2023/12/09time	08:50:08forward acquisition time	300,00reverse acquisition time	0,00gamma	499,1914k internal	0,3139k external	0,3139temperature offset calibration	1,0000default loss term (dB/km)	0,3820temperature slope calibration	1,0000multiplexer offset coefficient	1,0000multiplexer slope coefficient	1,0000fibre end	0,00T internal ref (°C)	18,46T ext. ref 1 (°C)	1,95T ext. ref 2 (°C)	1,96length (m)	temperature (°C)	Stokes	anti-Stokes-744,400	-200,000	-0,009	-0,071
-743,385	537,537	-0,111	0,197
-742,371	-123,568	0,126	-0,015
-741,356	134,207	-0,169	0,163
-740,342	-41,028	0,172	0,065
-739,327	-86,421	-0,207	0,047
-738,312	-200,000	0,014	0,126
-737,298	-8,268	-0,344	0,171
-736,283	-31,680	-0,029	-0,012
-735,269	-200,000	-0,283	0,001
-734,254	-200,000	-0,022	0,087
-733,239	-92,936	-0,508	-0,104
-732,225	-27,765	0,035	0,015
-731,210	86,853	-0,029	-0,023
-730,196	89,914	-0,040	-0,033
-729,181	609,944	-0,048	-0,090
-728,167	50,143	0,058	-0,040
-727,152	800,000	0,036	-0,083
-726,137	-66,449	-0,114	-0,033
-725,123	340,447	-0,110	-0,159
-724,108	-200,000	-0,016	-0,064
-723,094	103,079	-0,105	-0,091
-722,079	-200,000	0,025	-0,159
-721,064	75,390	0,108	0,084
-720,050	-168,624	-0,104	0,003
-719,035	165,522	-0,102	-0,107
-718,021	152,632	-0,070	0,071
-717,006	137,318	-0,072	-0,069
-715,991	51,899	-0,060	0,042
-714,977	60,995	-0,092	-0,067
-713,962	-200,000	-0,016	-0,067
-712,948	-18,769	0,041	0,019
-711,933	221,196	0,092	-0,109
-710,918	102,780	0,076	-0,066
-709,904	800,000	-0,043	-0,094
-708,889	789,685	0,036	-0,074
-707,875	800,000	-0,053	-0,149
-706,860	-0,053	-0,156	0,082
-705,845	800,000	0,052	0,127
-704,831	-108,238	-0,079	0,013
-703,816	-116,468	-0,058	-0,008
-702,802	800,000	-0,042	-0,086
-701,787	-37,399	-0,138	-0,054
-700,772	-111,378	-0,041	0,006
-699,758	504,027	0,063	0,108
-698,743	240,952	0,170	0,211
-697,729	-200,000	-0,008	0,147
-696,714	-200,000	0,006	-0,073
-695,699	181,988	-0,032	0,035
-694,685	99,869	-0,088	0,076
-693,670	-134,844	-0,093	0,008
-692,656	18,461	-0,035	0,021
-691,641	-200,000	0,027	0,105
-690,627	38,426	-0,034	-0,022
-689,612	-200,000	-0,038	-0,127
-688,597	-31,536	0,103	0,042
-687,583	174,498	0,039	0,041
-686,568	421,744	-0,062	0,099
-685,554	-98,978	0,019	0,004
-684,539	289,374	0,054	0,073
-683,524	667,470	-0,022	-0,042
-682,510	-53,478	-0,190	-0,064
-681,495	19,760	-0,009	0,005
-680,481	-1,896	-0,091	-0,047
-679,466	-200,000	-0,037	-0,273
-678,451	25,863	0,064	0,039
-677,437	-79,106	0,135	-0,034
-676,422	-10,623	0,032	-0,016
-675,408	80,144	-0,119	-0,095
-674,393	303,897	-0,048	0,066
-673,378	33,390	-0,075	0,048
-672,364	0,664	-0,051	0,027
-671,349	82,167	-0,008	0,007
-670,335	-39,421	-0,178	-0,069
-669,320	-157,423	0,031	-0,001
-668,305	25,088	0,055	0,033
-667,291	-200,000	0,003	-0,012
-666,276	225,206	0,024	-0,029
-665,262	-25,958	0,020	-0,009
-664,247	800,000	-0,020	0,046
-663,232	238,429	0,076	0,093
-662,218	-116,747	0,109	0,015
-661,203	-122,707	0,035	0,004
-660,189	165,802	-0,050	0,052
-659,174	-200,000	-0,001	-0,142
-658,159	214,086	0,045	0,052
-657,145	0,983	-0,141	-0,074
-656,130	-200,000	-0,001	0,017
-655,116	-200,000	-0,009	-0,141
-654,101	-55,911	0,090	-0,030
-653,086	-111,494	-0,081	-0,012
-652,072	262,094	-0,066	-0,085
-651,057	68,464	-0,101	-0,076
-650,043	181,776	-0,094	0,103
-649,028	134,850	0,125	-0,120
-648,014	93,259	0,069	0,057
-646,999	-14,040	-0,048	0,023
-645,984	175,184	0,110	0,118
-644,970	151,511	-0,115	0,116
-643,955	234,794	-0,058	-0,071
-642,941	-8,718	-0,135	-0,066
-641,926	800,000	0,014	0,047
-640,911	257,266	-0,066	-0,084
-639,897	-185,730	0,114	0,001
-638,882	-200,000	-0,002	-0,032
-637,868	-200,000	0,018	-0,109
-636,853	800,000	-0,046	-0,099
-635,838	-13,541	-0,148	-0,070
-634,824	56,085	0,104	-0,074
-633,809	800,000	0,018	-0,044
-632,795	102,883	-0,123	0,107
-631,780	-33,164	-0,034	-0,014
-630,765	-200,000	-0,003	-0,132
-629,751	766,033	0,051	-0,103
-628,736	-43,650	-0,112	-0,042
-627,722	-2,883	-0,073	0,038
-626,707	-165,857	0,071	-0,002
-625,692	800,000	0,061	0,140
-624,678	800,000	0,016	0,038
-623,663	268,408	0,058	-0,075
-622,649	-99,613	0,077	-0,014
-621,634	-100,014	-0,066	-0,012
-620,619	-200,000	0,022	-0,075
-619,605	-200,000	0,036	-0,126
-618,590	154,369	-0,042	-0,043
-617,576	106,704	-0,105	0,092
-616,561	-200,000	0,023	-0,085
-615,546	-51,351	-0,073	-0,025
-614,532	185,631	-0,099	-0,108
-613,517	417,900	0,030	0,047
-612,503	201,893	-0,044	-0,050
-611,488	-98,360	0,129	-0,024
-610,474	184,452	0,065	0,071
-609,459	-71,875	0,056	-0,015
-608,444	800,000	-0,010	-0,031
-607,430	800,000	-0,021	-0,061
-606,415	-72,189	-0,166	0,045
-605,401	-200,000	0,021	0,167
-604,386	136,194	0,161	0,155
-603,371	-200,000	-0,005	-0,081
-602,357	-200,000	0,009	-0,066
-601,342	24,725	-0,045	-0,027
-600,328	122,194	0,046	-0,042
-599,313	335,788	0,023	0,033
-598,298	-200,000	-0,000	-0,064
-597,284	-64,867	0,120	-0,036
-596,269	800,000	0,020	-0,043
-595,255	-154,948	-0,021	0,001
-594,240	800,000	-0,023	0,051
-593,225	-13,288	-0,067	0,032
-592,211	-116,235	-0,125	-0,017
-591,196	800,000	0,027	0,085
-590,182	-200,000	-0,003	0,019
-589,167	162,612	0,138	0,143
-588,152	106,814	-0,033	0,029
-587,138	-134,543	0,080	-0,007
-586,123	292,442	-0,101	-0,136
-585,109	-200,000	-0,010	-0,061
-584,094	-71,783	-0,082	-0,023
-583,079	75,389	0,053	-0,041
-582,065	611,376	0,016	-0,029
-581,050	126,411	0,120	-0,112
-580,036	800,000	-0,032	-0,092
-579,021	14,078	-0,036	-0,021
-578,006	-44,857	-0,088	-0,032
-576,992	66,248	0,138	-0,103
-575,977	-200,000	-0,023	0,142
-574,963	46,538	0,024	0,016
-573,948	148,264	0,076	0,076
-572,934	757,223	-0,030	-0,060
-571,919	800,000	0,067	-0,154
-570,904	324,980	-0,063	-0,088
-569,890	715,403	-0,061	-0,119
-568,875	-109,548	0,040	0,006
-567,861	122,359	0,094	0,087
-566,846	-65,084	-0,052	0,015
-565,831	-81,342	-0,263	-0,063
-564,817	-200,000	0,011	0,119
-563,802	24,679	0,090	-0,055
-562,788	-90,553	-0,142	-0,030
-561,773	-200,000	0,174	-0,000
-560,758	-200,000	-0,008	-0,041
-559,744	53,239	0,047	0,033
-558,729	-47,656	-0,119	0,042
-557,715	-124,501	-0,111	0,013
-556,700	-125,937	-0,095	0,010
-555,685	-16,648	0,051	0,024
-554,671	-200,000	0,019	0,065
-553,656	800,000	0,025	0,059
-552,642	217,314	0,096	0,113
-551,627	-187,289	-0,039	0,000
-550,612	13,291	-0,081	-0,046
-549,598	-0,326	0,050	-0,026
-548,583	427,633	0,065	-0,104
-547,569	-79,871	0,054	0,013
-546,554	257,657	-0,056	0,071
-545,539	14,663	-0,156	-0,090
-544,525	800,000	-0,046	0,123
-543,510	46,230	-0,052	-0,035
-542,496	-59,794	-0,128	-0,040
-541,481	-45,237	-0,025	0,009
-540,466	182,041	-0,082	0,089
-539,452	-200,000	0,027	0,117
-538,437	19,154	0,077	0,046
-537,423	800,000	-0,081	0,166
-536,408	-139,964	0,015	0,001
-535,393	183,775	-0,010	-0,011
-534,379	800,000	-0,077	-0,168
-533,364	45,932	0,055	0,037
-532,350	271,967	0,019	-0,024
-531,335	-200,000	-0,022	0,079
-530,321	-200,000	0,021	-0,072
-529,306	-200,000	0,006	-0,061
-528,291	-86,743	0,060	-0,013
-527,277	432,957	0,038	-0,061
-526,262	800,000	0,008	-0,017
-525,248	0,244	0,201	-0,105
-524,233	-118,285	-0,150	0,019
-523,218	146,689	0,110	0,109
-522,204	800,000	-0,015	0,042
-521,189	103,613	-0,048	0,042
-520,175	242,945	0,042	0,052
-519,160	800,000	0,044	-0,100
-518,145	-200,000	0,016	0,059
-517,131	30,127	0,065	0,041
-516,116	-200,000	0,002	0,011
-515,102	188,847	0,067	-0,074
-514,087	800,000	0,023	-0,047
-513,072	-90,375	-0,045	0,009
-512,058	30,881	0,104	-0,065
-511,043	-80,527	-0,110	-0,027
-510,029	-19,905	0,013	-0,006
-509,014	598,064	0,027	0,049
-507,999	662,799	0,036	-0,068
-506,985	800,000	0,016	-0,049
-505,970	476,689	-0,031	0,051
-504,956	443,813	0,059	-0,096
-503,941	100,668	-0,039	0,034
-502,926	41,848	0,053	0,035
-501,912	-200,000	0,027	0,098
-500,897	82,099	-0,044	0,035
-499,883	93,580	-0,055	-0,045
-498,868	210,341	0,080	-0,093
-497,853	-102,466	-0,129	-0,023
-496,839	-49,270	-0,117	-0,041
-495,824	316,877	-0,037	0,051
-494,810	28,248	-0,020	0,012
-493,795	-106,997	-0,107	0,017
-492,781	-37,857	-0,014	0,005
-491,766	-200,000	-0,002	-0,047
-490,751	-200,000	0,025	-0,105
-489,737	-119,286	0,030	-0,004
-488,722	162,915	0,042	-0,043
-487,708	-42,265	-0,101	0,038
-486,693	230,189	-0,028	0,034
-485,678	-145,303	0,069	-0,004
-484,664	-116,474	-0,170	-0,023
-483,649	768,135	0,030	-0,059
-482,635	-200,000	0,007	0,034
-481,620	708,454	0,037	0,071
-480,605	-200,000	0,020	0,082
-479,591	800,000	-0,038	0,100
-478,576	715,798	0,058	0,114
-477,562	454,544	0,053	0,087
-476,547	800,000	-0,018	0,047
-475,532	-200,000	-0,012	0,077
-474,518	73,128	-0,055	0,042
-473,503	-63,789	0,167	-0,050
-472,489	1,301	-0,086	0,045
-471,474	149,784	0,020	0,020
-470,459	592,359	0,054	-0,099
-469,445	100,918	0,018	-0,016
-468,430	-200,000	0,018	-0,069
-467,416	137,626	0,111	0,106
-466,401	744,531	-0,057	0,113
-465,386	-200,000	0,004	-0,047
-464,372	-95,805	-0,041	0,008
-463,357	800,000	0,059	0,128
-462,343	-109,275	-0,101	-0,016
-461,328	-200,000	-0,015	-0,051
-460,313	39,722	0,050	-0,033
-459,299	776,375	-0,017	0,034
-458,284	-163,143	0,064	0,002
-457,270	-200,000	-0,039	0,220
-456,255	-200,000	0,007	0,041
-455,241	800,000	-0,027	-0,062
-454,226	-200,000	-0,010	-0,047
-453,211	-133,070	-0,052	-0,005
-452,197	16,374	0,041	0,024
-451,182	190,606	-0,125	-0,138
-450,168	-200,000	-0,014	0,073
-449,153	800,000	-0,061	-0,131
-448,138	-200,000	-0,039	-0,127
-447,124	3,204	0,095	0,050
-446,109	-65,104	-0,163	0,048
-445,095	800,000	0,006	-0,018
-444,080	44,275	0,075	-0,050
-443,065	36,894	-0,014	-0,009
-442,051	369,380	0,050	0,074
-441,036	-200,000	-0,013	-0,072
-440,022	-92,483	-0,129	-0,026
-439,007	-200,000	0,004	-0,079
-437,992	-200,000	0,008	0,115
-436,978	800,000	0,029	-0,091
-435,963	-15,127	0,062	-0,029
-434,949	327,070	-0,078	0,110
-433,934	-200,000	-0,017	0,146
-432,919	191,158	-0,088	-0,097
-431,905	-200,000	0,010	-0,170
-430,890	800,000	0,024	0,051
-429,876	-84,827	0,161	0,037
-428,861	-200,000	-0,024	0,120
-427,846	-200,000	-0,003	0,178
-426,832	-42,120	-0,138	-0,051
-425,817	-200,000	0,000	0,073
-424,803	-200,000	0,007	-0,038
-423,788	448,559	-0,058	0,094
-422,773	-68,714	0,059	-0,017
-421,759	800,000	0,052	0,161
-420,744	800,000	-0,013	0,042
-419,730	162,474	0,063	-0,065
-418,715	-200,000	-0,006	-0,024
-417,701	190,795	-0,173	-0,191
-416,686	61,537	0,132	-0,096
-415,671	98,704	0,019	-0,016
-414,657	115,640	-0,101	0,091
-413,642	554,448	-0,051	-0,091
-412,628	-97,131	0,045	-0,008
-411,613	34,317	-0,057	0,037
-410,598	-200,000	-0,017	-0,102
-409,584	-29,778	-0,061	-0,025
-408,569	785,925	0,067	0,134
-407,555	100,265	-0,061	-0,052
-406,540	71,731	-0,051	-0,039
-405,525	161,507	-0,080	0,082
-404,511	232,887	-0,036	-0,043
-403,496	-40,196	-0,168	-0,064
-402,482	-200,000	-0,005	0,022
-401,467	262,135	0,035	0,045
-400,452	48,942	0,108	0,074
-399,438	518,169	-0,068	0,118
-398,423	425,493	0,058	0,092
-397,409	0,940	0,135	-0,070
-396,394	295,561	0,068	-0,091
-395,379	-8,403	-0,067	-0,033
-394,365	-200,000	0,006	0,023
-393,350	-71,849	0,086	-0,023
-392,336	800,000	0,016	-0,046
-391,321	-76,329	0,105	0,027
-390,306	-61,636	-0,113	0,035
-389,292	-102,880	0,047	0,008
-388,277	622,306	0,018	-0,033
-387,263	-51,383	0,094	0,032
-386,248	137,016	-0,062	0,060
-385,233	222,163	0,025	0,029
-384,219	800,000	-0,011	0,027
-383,204	-133,075	0,119	-0,011
-382,190	-6,478	-0,047	0,023
-381,175	-200,000	-0,018	0,129
-380,160	-136,759	0,090	-0,008
-379,146	308,088	0,034	-0,046
-378,131	-200,000	0,000	0,059
-377,117	-77,571	0,058	0,015
-376,102	350,806	0,020	-0,030
-375,088	-86,109	-0,149	0,033
-374,073	136,656	0,109	-0,104
-373,058	193,577	-0,044	-0,048
-372,044	800,000	0,037	0,091
-371,029	-17,238	-0,026	-0,012
-370,015	-51,028	-0,074	-0,025
-369,000	-200,000	0,023	-0,096
-367,985	800,000	-0,043	-0,092
-366,971	443,095	-0,016	0,025
-365,956	-116,220	0,097	-0,013
-364,942	-116,617	-0,082	0,011
-363,927	240,719	-0,032	0,039
-362,912	9,001	0,045	0,025
-361,898	797,111	-0,059	-0,120
-360,883	-197,530	0,134	-0,001
-359,869	-77,784	-0,198	-0,050
-358,854	94,465	0,094	0,078
-357,839	800,000	0,029	0,072
-356,825	-59,610	0,055	-0,017
-355,810	44,710	-0,086	0,058
-354,796	800,000	-0,029	-0,065
-353,781	800,000	-0,043	0,092
-352,766	-4,003	0,126	0,064
-351,752	721,221	0,043	0,085
-350,737	-200,000	0,022	0,077
-349,723	-12,370	0,038	0,018
-348,708	304,881	0,140	0,190
-347,693	68,544	-0,028	-0,021
-346,679	29,873	-0,181	-0,112
-345,664	-200,000	-0,002	-0,040
-344,650	800,000	-0,043	-0,127
-343,635	580,817	0,025	0,045
-342,620	67,826	0,151	0,113
-341,606	-9,299	0,064	0,031
-340,591	398,220	-0,069	0,106
-339,577	-49,458	-0,078	0,027
-338,562	663,760	-0,013	-0,024
-337,548	-200,000	0,016	0,172
-336,533	263,502	-0,055	0,070
-335,518	215,574	0,037	0,043
-334,504	-170,326	0,105	-0,003
-333,489	179,022	0,090	-0,096
-332,475	-200,000	0,012	-0,172
-331,460	-184,789	0,071	0,001
-330,445	-123,164	0,057	0,007
-329,431	-200,000	-0,003	-0,024
-328,416	800,000	0,021	0,063
-327,402	152,207	0,022	-0,022
-326,387	800,000	0,008	-0,023
-325,372	17,594	0,154	-0,089
-324,358	-72,067	-0,090	0,024
-323,343	-88,810	-0,043	-0,009
-322,329	-16,924	0,107	0,049
-321,314	-200,000	0,002	0,093
-320,299	674,544	0,035	-0,066
-319,285	-200,000	0,015	-0,071
-318,270	-32,437	0,043	0,017
-317,256	39,185	0,098	0,064
-316,241	-149,586	-0,081	-0,005
-315,226	800,000	-0,012	0,030
-314,212	-103,350	0,064	-0,011
-313,197	26,639	-0,103	0,063
-312,183	-200,000	-0,008	-0,092
-311,168	586,329	-0,077	-0,138
-310,153	-46,303	-0,050	0,018
-309,139	-30,981	0,039	0,016
-308,124	-113,867	0,187	0,026
-307,110	234,931	-0,079	-0,095
-306,095	800,000	-0,038	-0,107
-305,080	-200,000	-0,003	-0,063
-304,066	-32,437	-0,084	-0,034
-303,051	800,000	0,065	-0,132
-302,037	-200,000	-0,001	-0,041
-301,022	-200,000	-0,011	0,108
-300,008	-1,433	-0,090	0,046
-298,993	-200,000	-0,028	0,151
-297,978	-200,000	-0,005	-0,103
-296,964	-61,192	-0,051	0,015
-295,949	1,149	0,020	-0,010
-294,935	-173,050	-0,145	0,003
-293,920	-200,000	0,013	0,062
-292,905	161,452	-0,057	0,058
-291,891	110,425	0,057	-0,050
-290,876	246,898	-0,025	0,031
-289,862	-200,000	0,017	-0,131
-288,847	-137,425	-0,035	-0,003
-287,832	159,854	-0,051	0,052
-286,818	-200,000	0,010	-0,085
-285,803	-3,351	-0,019	0,010
-284,789	-89,850	0,212	0,045
-283,774	118,689	0,060	0,054
-282,759	39,132	-0,044	-0,028
-281,745	-126,728	-0,137	0,015
-280,730	800,000	0,008	0,023
-279,716	-200,000	0,018	0,141
-278,701	-200,000	0,052	0,171
-277,686	102,831	0,046	0,040
-276,672	-159,196	-0,087	0,004
-275,657	-19,875	0,087	0,039
-274,643	18,124	-0,039	-0,023
-273,628	-200,000	0,008	0,045
-272,613	-110,279	0,180	-0,027
-271,599	-24,872	0,054	0,023
-270,584	85,298	0,049	0,039
-269,570	52,399	0,058	0,040
-268,555	-16,706	-0,086	-0,040
-267,540	-126,769	-0,093	0,010
-266,526	88,872	-0,047	-0,038
-265,511	-100,870	0,076	-0,013
-264,497	800,000	0,018	-0,051
-263,482	-120,945	-0,112	-0,014
-262,467	-164,361	-0,081	0,003
-261,453	-83,930	-0,068	-0,016
-260,438	-200,000	0,001	-0,053
-259,424	220,498	0,050	0,058
-258,409	20,935	-0,029	-0,017
-257,395	67,193	0,062	-0,046
-256,380	-115,610	0,111	0,015
-255,365	-82,590	0,105	-0,025
-254,351	496,870	0,022	-0,037
-253,336	344,828	0,025	0,035
-252,322	4,007	-0,137	0,072
-251,307	181,132	-0,057	0,061
-250,292	55,527	0,098	0,069
-249,278	501,975	-0,040	0,067
-248,263	800,000	0,030	0,085
-247,249	472,278	-0,060	0,099
-246,234	55,906	0,126	-0,089
-245,219	8,192	-0,058	0,032
-244,205	776,495	-0,024	-0,049
-243,190	566,266	0,055	0,097
-242,176	469,404	-0,090	0,147
-241,161	-156,676	0,062	0,003
-240,146	-200,000	0,021	-0,087
-239,132	-200,000	-0,025	0,094
-238,117	800,000	-0,026	0,053
-237,103	282,315	-0,057	-0,075
-236,088	-171,870	-0,031	-0,001
-235,073	62,793	0,154	0,112
-234,059	-94,682	0,090	-0,018
-233,044	800,000	0,020	0,047
-232,030	-42,668	0,044	0,016
-231,015	-200,000	-0,028	-0,124
-230,000	-44,605	-0,017	0,006
-228,986	-68,121	-0,074	0,021
-227,971	-150,518	0,050	0,003
-226,957	-200,000	0,005	0,057
-225,942	-200,000	0,009	0,130
-224,927	-200,000	-0,001	-0,009
-223,913	-101,425	-0,240	0,042
-222,898	-159,629	0,135	-0,005
-221,884	36,072	-0,087	-0,056
-220,869	83,204	0,122	0,097
-219,855	176,502	0,061	0,064
-218,840	469,587	0,013	0,021
-217,825	-200,000	-0,013	-0,064
-216,811	18,029	-0,104	0,060
-215,796	-200,000	0,018	-0,074
-214,782	-19,530	0,072	-0,032
-213,767	145,791	-0,102	0,100
-212,752	800,000	-0,029	-0,061
-211,738	-95,100	-0,044	0,009
-210,723	-200,000	-0,008	-0,033
-209,709	5,091	-0,154	0,082
-208,694	230,449	-0,066	0,078
-207,679	731,602	0,031	-0,061
-206,665	122,218	-0,086	-0,078
-205,650	-131,686	0,061	-0,006
-204,636	43,293	0,058	0,039
-203,621	-200,000	-0,011	-0,075
-202,606	-200,000	-0,025	0,127
-201,592	263,858	0,041	-0,052
-200,577	501,735	-0,064	-0,108
-199,563	-200,000	-0,001	-0,120
-198,548	390,795	-0,042	0,063
-197,533	222,713	0,114	0,134
-196,519	19,855	0,049	0,028
-195,504	-200,000	0,003	-0,076
-194,490	154,448	-0,109	-0,109
-193,475	106,894	0,112	-0,097
-192,460	-200,000	-0,018	-0,134
-191,446	-200,000	-0,004	0,044
-190,431	-12,684	-0,051	-0,024
-189,417	-162,206	0,099	-0,004
-188,402	800,000	-0,020	-0,058
-187,387	280,454	0,031	-0,041
-186,373	-200,000	0,013	0,097
-185,358	-200,000	0,003	0,021
-184,344	-143,909	0,055	0,004
-183,329	-200,000	0,012	0,051
-182,315	4,382	-0,055	0,029
-181,300	89,828	0,017	-0,014
-180,285	59,748	0,110	-0,079
-179,271	-200,000	0,005	-0,056
-178,256	-200,000	0,031	-0,100
-177,242	-40,813	-0,128	-0,048
-176,227	-200,000	-0,014	-0,122
-175,212	-63,282	0,190	-0,056
-174,198	-200,000	0,025	-0,096
-173,183	-158,546	-0,096	-0,004
-172,169	249,833	0,086	-0,106
-171,154	-200,000	0,022	-0,120
-170,139	-99,602	0,083	-0,015
-169,125	-132,351	0,052	-0,005
-168,110	-85,315	-0,072	0,016
-167,096	125,906	-0,086	-0,078
-166,081	-200,000	-0,009	0,061
-165,066	23,735	-0,143	-0,085
-164,052	25,688	0,039	-0,023
-163,037	-102,243	-0,094	-0,016
-162,023	-200,000	0,012	0,078
-161,008	800,000	0,018	0,039
-159,993	-146,451	0,036	0,002
-158,979	54,304	0,023	-0,016
-157,964	-200,000	0,005	0,104
-156,950	-52,664	0,031	-0,010
-155,935	-200,000	-0,008	-0,095
-154,920	130,732	0,031	0,028
-153,906	-200,000	-0,036	0,126
-152,891	168,461	0,059	-0,061
-151,877	-200,000	0,002	-0,021
-150,862	-36,782	0,143	-0,055
-149,847	310,238	-0,084	-0,114
-148,833	-23,634	-0,066	0,028
-147,818	127,122	0,077	0,071
-146,804	536,695	-0,018	0,031
-145,789	208,677	-0,076	-0,086
-144,775	86,826	0,053	-0,042
-143,760	245,355	-0,061	-0,075
-142,745	-183,633	-0,237	-0,003
-141,731	800,000	0,032	0,071
-140,716	-29,111	0,118	-0,049
-139,702	800,000	0,026	0,071
-138,687	195,078	-0,137	0,151
-137,672	185,748	0,037	-0,040
-136,658	42,822	-0,049	-0,033
-135,643	43,511	-0,055	0,036
-134,629	-200,000	-0,013	-0,090
-133,614	345,856	0,066	0,094
-132,599	28,853	0,170	0,104
-131,585	167,365	-0,071	-0,073
-130,570	-38,218	-0,063	-0,024
-129,556	800,000	-0,030	-0,088
-128,541	63,110	-0,073	-0,053
-127,526	0,765	-0,103	-0,053
-126,512	172,896	-0,061	0,063
-125,497	-6,954	-0,093	0,045
-124,483	-88,578	0,088	-0,019
-123,468	800,000	-0,032	0,077
-122,453	15,459	0,099	0,056
-121,439	-133,629	-0,200	-0,018
-120,424	-200,000	0,006	0,044
-119,410	-45,703	-0,085	0,030
-118,395	22,850	-0,050	0,030
