DTS Sentinel unit serial number:	SN410029Multiplexer serial number:	ORYXHardware model number:	OX2-SRSoftware version number:	ORYX F/W v4,00 Oryx Data Collector v3.7.2.0data status	okinstallation	B6 Nyhavnadifferential loss correction	single-endedforward channel	channel 2reverse channel	N/Adate	2023/12/08time	01:10:08forward acquisition time	300,00reverse acquisition time	0,00gamma	499,1914k internal	0,3165k external	0,3165temperature offset calibration	1,0000default loss term (dB/km)	0,3820temperature slope calibration	1,0000multiplexer offset coefficient	1,0000multiplexer slope coefficient	1,0000fibre end	0,00T internal ref (°C)	13,26T ext. ref 1 (°C)	-3,60T ext. ref 2 (°C)	-3,60length (m)	temperature (°C)	Stokes	anti-Stokes-744,400	21,545	0,090	-0,054
-743,385	45,618	-0,142	0,096
-742,371	800,000	0,054	0,135
-741,356	-146,755	-0,255	0,016
-740,342	800,000	0,051	0,108
-739,327	-109,953	-0,367	0,056
-738,312	239,811	0,018	-0,023
-737,298	-135,192	-0,364	-0,032
-736,283	-19,145	0,162	0,074
-735,269	-122,077	-0,349	0,042
-734,254	57,596	0,030	-0,022
-733,239	-43,397	-0,505	-0,187
-732,225	56,030	0,129	-0,092
-731,210	-151,500	-0,102	0,005
-730,196	-200,000	-0,010	0,043
-729,181	-89,456	-0,134	-0,029
-728,167	-119,900	-0,086	0,011
-727,152	-200,000	0,031	-0,166
-726,137	-175,362	-0,116	0,002
-725,123	-200,000	0,012	0,046
-724,108	-21,791	-0,117	-0,052
-723,094	13,643	-0,031	0,018
-722,079	800,000	0,066	-0,180
-721,064	-22,823	0,080	0,035
-720,050	-30,562	0,009	-0,004
-719,035	386,075	-0,051	0,078
-718,021	800,000	-0,031	0,071
-717,006	13,938	-0,010	-0,006
-715,991	-36,353	-0,068	-0,027
-714,977	-121,466	-0,082	0,010
-713,962	8,992	-0,055	0,030
-712,948	517,257	0,068	0,117
-711,933	4,399	-0,158	0,085
-710,918	-2,235	0,112	0,057
-709,904	800,000	0,030	0,073
-708,889	800,000	-0,016	-0,040
-707,875	-200,000	-0,035	-0,138
-706,860	384,404	0,009	0,014
-705,845	-200,000	-0,008	-0,035
-704,831	212,455	0,078	0,091
-703,816	-20,716	-0,138	-0,062
-702,802	98,255	0,114	-0,096
-701,787	188,297	-0,036	0,040
-700,772	186,920	0,038	0,042
-699,758	800,000	0,023	-0,074
-698,743	-77,495	-0,062	0,016
-697,729	800,000	0,024	-0,060
-696,714	-95,502	0,073	0,014
-695,699	248,084	-0,133	0,165
-694,685	-200,000	0,005	-0,027
-693,670	-200,000	-0,024	-0,094
-692,656	732,824	-0,069	0,136
-691,641	-200,000	-0,001	-0,078
-690,627	74,722	0,075	-0,058
-689,612	7,949	-0,089	0,049
-688,597	-48,801	-0,057	-0,020
-687,583	-79,006	-0,163	-0,040
-686,568	85,355	-0,075	0,061
-685,554	-200,000	-0,005	-0,026
-684,539	-77,179	0,069	-0,018
-683,524	19,691	-0,017	0,010
-682,510	-61,787	0,102	-0,031
-681,495	-53,610	-0,138	-0,046
-680,481	-19,644	-0,067	-0,030
-679,466	321,780	-0,013	0,018
-678,451	161,377	-0,096	-0,099
-677,437	-16,663	-0,100	-0,046
-676,422	800,000	0,043	0,120
-675,408	-85,981	0,088	0,020
-674,393	-105,535	0,057	-0,009
-673,378	-200,000	-0,007	0,181
-672,364	800,000	-0,049	-0,125
-671,349	-60,261	-0,122	-0,038
-670,335	109,654	0,086	-0,076
-669,320	-200,000	-0,032	0,106
-668,305	800,000	-0,034	0,101
-667,291	169,846	-0,066	0,070
-666,276	-200,000	0,007	0,090
-665,262	-62,313	-0,048	0,015
-664,247	-200,000	-0,028	-0,107
-663,232	224,415	-0,034	-0,040
-662,218	1,043	-0,098	0,051
-661,203	-17,776	0,028	-0,013
-660,189	-200,000	-0,022	0,101
-659,174	-78,692	-0,128	0,032
-658,159	270,345	-0,035	0,045
-657,145	692,295	0,053	0,102
-656,130	340,846	0,026	-0,037
-655,116	-78,301	-0,116	0,029
-654,101	-51,042	0,071	-0,024
-653,086	195,900	0,029	0,032
-652,072	168,391	0,018	-0,019
-651,057	-108,643	-0,200	-0,031
-650,043	-93,176	-0,056	-0,011
-649,028	273,806	-0,052	0,068
-648,014	-200,000	-0,003	0,095
-646,999	125,957	-0,139	0,129
-645,984	-126,963	0,127	0,013
-644,970	-149,128	-0,112	-0,006
-643,955	-134,049	-0,221	-0,020
-642,941	-20,552	0,140	0,063
-641,926	-180,772	-0,017	-0,000
-640,911	-30,311	0,073	0,030
-639,897	-200,000	-0,003	-0,015
-638,882	701,067	0,059	0,115
-637,868	-0,249	-0,115	0,060
-636,853	-0,438	-0,075	-0,039
-635,838	-200,000	0,000	-0,034
-634,824	-82,924	-0,098	-0,023
-633,809	800,000	-0,045	0,120
-632,795	800,000	-0,012	0,032
-631,780	-12,684	0,143	-0,068
-630,765	-120,916	-0,098	-0,012
-629,751	-200,000	0,001	-0,058
-628,736	-200,000	0,044	-0,154
-627,722	614,445	0,029	-0,053
-626,707	515,774	-0,074	-0,127
-625,692	800,000	-0,050	-0,106
-624,678	800,000	-0,031	-0,082
-623,663	-114,422	-0,096	0,013
-622,649	178,462	-0,067	-0,072
-621,634	-200,000	0,003	-0,079
-620,619	800,000	0,013	0,040
-619,605	-120,610	0,117	0,014
-618,590	670,311	0,023	0,043
-617,576	-200,000	-0,005	-0,045
-616,561	-200,000	-0,012	0,109
-615,546	-50,376	-0,106	-0,036
-614,532	800,000	-0,082	0,211
-613,517	16,105	0,147	-0,084
-612,503	-200,000	-0,011	0,047
-611,488	-200,000	0,002	0,027
-610,474	800,000	0,031	0,074
-609,459	6,603	0,036	0,020
-608,444	12,892	0,030	0,017
-607,430	800,000	-0,075	-0,159
-606,415	121,721	0,088	-0,080
-605,401	1,359	-0,010	-0,005
-604,386	24,914	0,068	-0,041
-603,371	20,268	0,085	0,050
-602,357	-74,754	0,208	-0,054
-601,342	29,591	0,133	-0,083
-600,328	-47,873	-0,085	-0,030
-599,313	19,979	-0,091	-0,053
-598,298	123,312	0,084	0,077
-597,284	-40,488	-0,163	0,062
-596,269	377,401	0,082	0,122
-595,255	142,580	-0,006	0,006
-594,240	149,449	-0,024	-0,024
-593,225	-88,401	-0,110	-0,024
-592,211	292,586	-0,039	-0,052
-591,196	-140,023	-0,164	-0,012
-590,182	419,056	-0,033	-0,052
-589,167	-168,893	0,095	0,003
-588,152	44,936	0,095	0,064
-587,138	-91,512	-0,065	0,013
-586,123	11,500	-0,179	-0,100
-585,109	-200,000	-0,030	0,124
-584,094	482,518	-0,062	-0,103
-583,079	-200,000	-0,014	-0,053
-582,065	-36,935	-0,077	-0,030
-581,050	-10,065	0,132	-0,064
-580,036	684,632	0,039	-0,076
-579,021	-200,000	0,007	-0,105
-578,006	210,311	-0,079	0,091
-576,992	-24,598	-0,084	-0,036
-575,977	800,000	-0,008	0,022
-574,963	-154,360	0,070	-0,003
-573,948	177,523	-0,015	0,016
-572,934	347,443	-0,018	-0,026
-571,919	-16,682	0,044	0,020
-570,904	-4,192	-0,090	0,046
-569,890	171,825	0,031	-0,033
-568,875	-200,000	-0,002	0,069
-567,861	-0,161	0,040	-0,021
-566,846	800,000	0,024	-0,056
-565,831	270,624	-0,038	0,049
-564,817	90,428	0,099	0,081
-563,802	800,000	-0,036	0,102
-562,788	433,493	0,024	0,038
-561,773	-200,000	-0,006	-0,055
-560,758	96,737	-0,027	-0,023
-559,744	268,139	-0,097	0,124
-558,729	47,008	-0,095	0,065
-557,715	12,082	-0,114	-0,064
-556,700	-200,000	-0,013	0,043
-555,685	-200,000	-0,014	0,095
-554,671	25,094	0,066	-0,040
-553,656	42,830	-0,031	0,021
-552,642	-200,000	0,021	0,176
-551,627	374,151	0,041	-0,061
-550,612	-136,591	-0,149	0,012
-549,598	-90,990	0,139	0,029
-548,583	238,148	0,028	-0,033
-547,569	-200,000	-0,005	0,024
-546,554	-102,185	0,028	0,005
-545,539	-114,062	0,083	-0,012
-544,525	-31,533	-0,070	-0,029
-543,510	472,943	0,041	-0,068
-542,496	-82,598	-0,153	-0,036
-541,481	37,758	-0,147	-0,095
-540,466	162,301	-0,015	0,016
-539,452	149,306	-0,053	0,053
-538,437	789,794	0,031	0,063
-537,423	106,030	0,106	0,092
-536,408	800,000	0,017	-0,038
-535,393	573,497	-0,044	-0,079
-534,379	37,706	0,069	0,045
-533,364	108,036	0,067	-0,058
-532,350	63,362	0,082	0,060
-531,335	-84,199	-0,082	0,019
-530,321	-17,201	0,060	0,027
-529,306	82,445	-0,187	0,148
-528,291	59,462	-0,081	-0,058
-527,277	44,322	-0,055	-0,037
-526,262	-127,816	-0,025	-0,003
-525,248	800,000	-0,028	0,063
-524,233	-99,393	-0,122	-0,022
-523,218	-154,239	0,073	-0,004
-522,204	-128,449	-0,014	-0,001
-521,189	-200,000	0,002	-0,015
-520,175	101,930	-0,072	-0,061
-519,160	211,033	-0,084	-0,097
-518,145	-200,000	0,012	0,042
-517,131	669,104	-0,026	0,050
-516,116	800,000	-0,021	-0,067
-515,102	-4,390	-0,105	-0,053
-514,087	800,000	0,045	-0,101
-513,072	800,000	0,015	-0,044
-512,058	-86,298	0,120	-0,027
-511,043	-76,803	0,126	-0,032
-510,029	14,926	0,188	-0,107
-509,014	-157,701	-0,165	0,007
-507,999	-57,770	-0,119	0,038
-506,985	254,245	-0,051	-0,063
-505,970	-200,000	-0,005	-0,015
-504,956	-75,852	-0,030	0,008
-503,941	7,663	-0,058	0,032
-502,926	180,092	-0,136	-0,146
-501,912	-78,300	0,162	-0,040
-500,897	-61,927	-0,095	0,029
-499,883	312,269	0,055	-0,075
-498,868	-200,000	0,005	-0,055
-497,853	50,026	-0,032	-0,022
-496,839	47,814	0,161	-0,110
-495,824	222,674	0,049	-0,058
-494,810	312,486	0,068	0,093
-493,795	8,551	0,046	0,025
-492,781	800,000	-0,019	-0,057
-491,766	290,207	0,024	-0,032
-490,751	-200,000	0,037	0,141
-489,737	279,298	0,040	-0,052
-488,722	68,472	-0,075	-0,056
-487,708	455,747	0,077	0,124
-486,693	-194,609	-0,062	0,000
-485,678	478,527	0,030	-0,050
-484,664	397,212	0,052	0,079
-483,649	259,445	-0,016	0,020
-482,635	-52,385	-0,073	-0,024
-481,620	800,000	0,046	0,114
-480,605	104,442	0,047	-0,040
-479,591	-101,352	0,126	0,022
-478,576	-10,921	0,094	-0,045
-477,562	50,745	-0,111	0,076
-476,547	800,000	-0,071	0,161
-475,532	-64,683	-0,080	-0,023
-474,518	192,630	0,118	0,130
-473,503	369,465	-0,043	0,063
-472,489	776,690	0,052	0,104
-471,474	-56,150	-0,113	0,036
-470,459	-200,000	-0,035	-0,143
-469,445	-200,000	-0,030	-0,135
-468,430	-200,000	-0,026	0,084
-467,416	236,645	0,047	-0,057
-466,401	-53,771	-0,072	-0,024
-465,386	684,484	-0,029	0,055
-464,372	-200,000	0,006	-0,037
-463,357	-200,000	0,019	-0,074
-462,343	-138,878	0,048	-0,004
-461,328	247,344	-0,055	0,068
-460,313	282,543	0,105	0,137
-459,299	362,107	0,051	0,074
-458,284	43,108	0,080	-0,053
-457,270	-200,000	-0,065	-0,282
-456,255	-136,956	0,027	-0,002
-455,241	-143,051	-0,031	0,002
-454,226	183,766	0,023	-0,025
-453,211	-200,000	0,013	0,155
-452,197	-27,307	0,061	-0,026
-451,182	-138,912	-0,080	0,006
-450,168	1,476	0,175	-0,091
-449,153	-200,000	-0,016	-0,054
-448,138	800,000	-0,028	-0,087
-447,124	494,250	0,030	-0,051
-446,109	800,000	0,027	-0,062
-445,095	7,080	0,121	-0,065
-444,080	82,789	0,031	0,024
-443,065	122,812	-0,092	0,084
-442,051	90,010	0,051	0,041
-441,036	361,884	-0,078	-0,114
-440,022	183,324	0,040	0,043
-439,007	245,923	0,036	0,044
-437,992	-74,988	0,152	0,039
-436,978	-56,636	-0,028	-0,009
-435,963	270,082	0,049	0,063
-434,949	800,000	-0,010	0,024
-433,934	184,268	-0,009	0,010
-432,919	-200,000	0,003	-0,029
-431,905	331,629	0,069	-0,097
-430,890	-200,000	0,004	0,045
-429,876	-97,310	0,142	0,027
-428,861	89,598	0,066	0,054
-427,846	435,410	-0,007	0,012
-426,832	800,000	0,016	-0,049
-425,817	-134,805	-0,167	-0,015
-424,803	233,171	-0,048	-0,057
-423,788	418,088	-0,044	0,068
-422,773	-38,304	0,141	0,054
-421,759	-35,596	-0,041	-0,016
-420,744	-200,000	0,002	-0,032
-419,730	800,000	0,018	-0,058
-418,715	-57,588	0,162	0,051
-417,701	800,000	-0,003	-0,008
-416,686	-200,000	0,032	0,115
-415,671	457,948	0,086	0,139
-414,657	-200,000	0,011	0,072
-413,642	132,188	-0,085	0,080
-412,628	800,000	0,051	-0,156
-411,613	68,304	0,038	0,028
-410,598	-42,717	-0,123	0,045
-409,584	-200,000	0,019	-0,140
-408,569	-30,056	0,071	0,029
-407,555	800,000	-0,024	-0,077
-406,540	-46,471	0,195	0,069
-405,525	-66,382	-0,145	-0,041
-404,511	4,433	0,009	-0,005
-403,496	717,373	-0,036	0,071
-402,482	140,744	-0,045	-0,043
-401,467	-11,708	0,152	-0,072
-400,452	21,478	0,102	0,060
-399,438	-105,514	-0,097	-0,016
-398,423	359,137	0,083	0,120
-397,409	-200,000	-0,011	0,070
-396,394	800,000	0,072	0,194
-395,379	293,860	0,038	0,050
-394,365	-14,794	-0,037	0,017
-393,350	207,844	0,157	0,178
-392,336	-128,395	-0,131	0,013
-391,321	800,000	-0,061	-0,124
-390,306	-130,533	0,128	0,012
-389,292	-45,197	-0,094	-0,034
-388,277	-64,377	-0,076	-0,022
-387,263	-200,000	0,002	0,019
-386,248	27,157	-0,067	0,041
-385,233	115,187	0,033	-0,030
-384,219	-52,062	-0,107	-0,036
-383,204	-200,000	-0,011	0,042
-382,190	-200,000	0,006	-0,059
-381,175	-200,000	0,021	-0,143
-380,160	306,793	0,054	-0,073
-379,146	-60,610	0,040	0,012
-378,131	64,086	0,092	0,067
-377,117	-6,633	0,044	-0,022
-376,102	358,554	-0,042	-0,062
-375,088	800,000	-0,032	-0,068
-374,073	-200,000	-0,019	-0,151
-373,058	55,016	0,004	0,003
-372,044	800,000	-0,016	-0,042
-371,029	-44,390	-0,020	0,007
-370,015	800,000	-0,034	0,082
-369,000	-108,782	0,175	0,027
-367,985	-200,000	-0,026	0,089
-366,971	-200,000	-0,034	-0,164
-365,956	193,405	0,035	-0,038
-364,942	-88,937	0,130	-0,028
-363,927	-37,456	-0,051	-0,020
-362,912	-79,350	-0,140	-0,034
-361,898	-134,991	-0,027	0,002
-360,883	-200,000	-0,013	0,093
-359,869	219,762	-0,112	0,130
-358,854	92,659	-0,033	0,027
-357,839	-142,430	-0,050	0,004
-356,825	-97,779	0,153	0,028
-355,810	-200,000	-0,025	-0,117
-354,796	-3,068	-0,108	-0,055
-353,781	-200,000	-0,002	-0,120
-352,766	-51,825	0,062	0,021
-351,752	181,208	0,126	0,134
-350,737	82,980	0,104	0,082
-349,723	800,000	-0,047	0,101
-348,708	64,128	-0,029	-0,021
-347,693	-149,982	-0,023	0,001
-346,679	-33,314	-0,098	-0,039
-345,664	461,500	-0,070	-0,113
-344,650	-200,000	0,038	-0,196
-343,635	325,318	0,096	0,134
-342,620	-200,000	-0,005	-0,038
-341,606	-200,000	0,006	-0,034
-340,591	-81,115	-0,095	-0,023
-339,577	89,107	0,107	0,086
-338,562	616,988	0,018	0,033
-337,548	-62,301	0,106	-0,032
-336,533	35,682	-0,041	-0,026
-335,518	-200,000	0,048	0,178
-334,504	-92,316	-0,059	0,012
-333,489	372,810	0,019	-0,028
-332,475	120,952	-0,095	-0,085
-331,460	-119,931	-0,077	-0,009
-330,445	-38,519	0,028	-0,011
-329,431	-92,361	0,051	-0,010
-328,416	-141,063	-0,047	-0,003
-327,402	-2,668	0,056	-0,028
-326,387	46,892	0,081	0,055
-325,372	-200,000	-0,011	-0,060
-324,358	364,869	-0,067	0,098
-323,343	-90,411	0,064	0,013
-322,329	514,761	0,061	0,103
-321,314	39,491	0,078	0,051
-320,299	-10,450	-0,076	-0,036
-319,285	7,538	-0,045	0,024
-318,270	800,000	-0,016	-0,049
-317,256	28,558	-0,147	-0,090
-316,241	800,000	-0,025	-0,059
-315,226	572,493	0,042	-0,074
-314,212	-56,401	0,157	0,050
-313,197	-87,550	0,069	-0,015
-312,183	-82,839	-0,055	0,013
-311,168	59,182	0,077	0,055
-310,153	27,000	-0,112	0,068
-309,139	480,608	-0,058	0,096
-308,124	800,000	-0,014	-0,039
-307,110	9,396	0,146	0,080
-306,095	-200,000	-0,006	0,051
-305,080	-200,000	0,025	-0,082
-304,066	255,446	-0,021	0,026
-303,051	800,000	0,036	-0,076
-302,037	800,000	0,008	-0,016
-301,022	-200,000	0,018	-0,114
-300,008	24,783	-0,004	-0,003
-298,993	154,529	-0,059	0,059
-297,978	64,325	0,025	0,018
-296,964	489,955	-0,041	-0,069
-295,949	-137,789	-0,140	0,011
-294,935	-58,390	-0,099	0,031
-293,920	8,296	-0,052	-0,028
-292,905	-4,586	0,170	-0,085
-291,891	19,981	0,093	-0,054
-290,876	-110,747	-0,011	0,002
-289,862	30,935	-0,034	0,021
-288,847	-200,000	0,040	-0,169
-287,832	-102,755	0,076	0,013
-286,818	1,742	0,112	0,058
-285,803	187,206	0,092	0,099
-284,789	800,000	0,038	0,096
-283,774	584,747	0,079	0,140
-282,759	-90,954	-0,120	-0,025
-281,745	-8,103	-0,160	-0,078
-280,730	-200,000	0,005	-0,058
-279,716	-200,000	-0,024	-0,096
-278,701	8,485	-0,095	0,052
-277,686	-126,586	0,095	-0,010
-276,672	129,611	-0,141	0,130
-275,657	800,000	0,063	0,134
-274,643	122,849	-0,127	-0,115
-273,628	-200,000	-0,020	-0,068
-272,613	800,000	-0,049	-0,115
-271,599	-200,000	0,006	-0,036
-270,584	-19,353	0,111	-0,050
-269,570	136,060	0,094	0,088
-268,555	-46,431	-0,104	0,037
-267,540	-155,572	-0,095	0,004
-266,526	649,117	0,013	-0,024
-265,511	-200,000	-0,008	-0,073
-264,497	800,000	0,036	0,080
-263,482	73,132	0,078	-0,059
-262,467	240,825	-0,034	0,041
-261,453	407,733	0,057	0,087
-260,438	288,490	0,044	-0,058
-259,424	-85,953	0,041	0,009
-258,409	-126,188	0,108	0,012
-257,395	-79,296	0,151	-0,037
-256,380	-124,285	0,152	-0,017
-255,365	-107,880	0,095	-0,015
-254,351	184,830	-0,067	0,072
-253,336	91,177	0,080	-0,065
-252,322	-131,678	-0,126	0,012
-251,307	331,391	-0,022	-0,031
-250,292	800,000	0,022	0,061
-249,278	800,000	-0,045	-0,121
-248,263	437,699	-0,081	0,128
-247,249	72,055	0,038	0,029
-246,234	233,485	0,078	-0,093
-245,219	-36,629	-0,124	-0,048
-244,205	-200,000	0,016	-0,067
-243,190	-200,000	-0,032	0,164
-242,176	126,826	0,038	0,035
-241,161	-76,116	-0,100	-0,025
-240,146	-13,524	-0,151	0,070
-239,132	486,854	-0,004	0,006
-238,117	625,140	-0,060	0,110
-237,103	143,178	0,089	0,086
-236,088	-158,322	-0,078	0,003
-235,073	800,000	0,022	0,054
-234,059	-126,138	-0,091	0,010
-233,044	504,697	0,034	-0,057
-232,030	1,420	0,031	0,016
-231,015	-200,000	0,017	0,139
-230,000	-200,000	-0,004	0,024
-228,986	-191,587	-0,219	0,002
-227,971	-200,000	-0,039	-0,126
-226,957	-54,583	-0,014	-0,004
-225,942	90,928	-0,129	0,104
-224,927	800,000	0,018	0,058
-223,913	7,016	0,047	-0,025
-222,898	-200,000	0,013	-0,132
-221,884	130,205	0,103	-0,095
-220,869	27,480	0,084	-0,051
-219,855	-70,471	-0,037	-0,010
-218,840	104,471	0,051	0,043
-217,825	-34,306	0,044	0,017
-216,811	-42,686	0,074	-0,027
-215,796	-108,175	-0,122	-0,019
-214,782	-28,520	-0,095	0,039
-213,767	185,043	0,029	0,031
-212,752	-94,418	0,076	0,015
-211,738	-26,302	0,110	0,046
-210,723	-200,000	-0,029	-0,092
-209,709	121,027	-0,088	-0,079
-208,694	-66,468	-0,152	-0,043
-207,679	-2,802	0,083	-0,042
-206,665	-52,788	0,098	-0,032
-205,650	-26,148	0,079	0,033
-204,636	342,987	0,056	0,080
-203,621	348,314	-0,047	0,066
-202,606	-71,904	-0,082	0,022
-201,592	800,000	0,018	-0,047
-200,577	-200,000	-0,008	-0,156
-199,563	259,734	0,048	0,060
-198,548	800,000	0,025	0,071
-197,533	-200,000	0,000	0,092
-196,519	800,000	-0,045	-0,102
-195,504	-200,000	0,026	-0,092
-194,490	-200,000	0,021	0,197
-193,475	2,806	-0,107	0,056
-192,460	462,357	-0,068	-0,109
-191,446	35,781	-0,053	0,033
-190,431	758,470	0,022	0,042
-189,417	800,000	0,019	-0,042
-188,402	800,000	-0,023	-0,047
-187,387	162,984	-0,050	0,050
-186,373	-200,000	0,001	-0,112
-185,358	-200,000	0,009	0,130
-184,344	660,457	0,009	-0,017
-183,329	331,141	-0,076	0,106
-182,315	240,970	-0,012	0,014
-181,300	-200,000	0,022	-0,075
-180,285	-158,609	-0,061	-0,002
-179,271	-200,000	0,006	0,045
-178,256	544,732	0,060	0,104
-177,242	128,641	0,051	-0,047
-176,227	-4,138	-0,057	0,028
-175,212	23,773	0,039	0,023
-174,198	-22,890	0,078	-0,034
-173,183	47,391	0,118	-0,079
-172,169	-200,000	0,002	-0,204
-171,154	457,214	-0,034	-0,054
-170,139	500,475	0,016	-0,027
-169,125	-79,056	0,151	-0,037
-168,110	85,708	0,089	-0,071
-167,096	-20,889	-0,070	0,031
-166,081	800,000	-0,065	-0,155
-165,066	-161,435	0,047	0,002
-164,052	-200,000	0,002	0,067
-163,037	197,425	-0,022	-0,024
-162,023	-200,000	-0,023	0,195
-161,008	235,891	-0,080	-0,095
-159,993	-105,072	0,111	-0,018
-158,979	129,712	0,072	-0,066
-157,964	180,353	-0,070	0,074
-156,950	-1,405	-0,099	-0,050
-155,935	-200,000	0,012	0,053
-154,920	-200,000	0,035	0,189
-153,906	-200,000	0,006	0,105
-152,891	-102,526	-0,055	0,009
-151,877	-151,658	-0,255	0,013
-150,862	800,000	-0,025	0,052
-149,847	-145,463	0,089	0,006
-148,833	29,854	0,095	0,058
-147,818	-50,283	0,058	-0,020
-146,804	-48,368	0,174	0,060
-145,789	-50,745	0,152	0,051
-144,775	-10,568	-0,025	0,012
-143,760	800,000	0,052	-0,104
-142,745	333,953	0,058	-0,081
-141,731	-200,000	0,020	-0,081
-140,716	-34,618	-0,032	-0,013
-139,702	-35,585	0,114	-0,044
-138,687	66,136	-0,073	0,053
-137,672	800,000	0,073	-0,152
-136,658	-24,742	-0,048	-0,020
-135,643	-69,631	0,028	0,008
-134,629	-30,077	0,165	0,067
-133,614	0,303	0,109	0,056
-132,599	567,738	0,026	0,046
-131,585	-11,392	-0,088	0,042
-130,570	599,644	0,069	0,123
-129,556	-200,000	-0,007	-0,038
-128,541	630,930	-0,062	-0,113
-127,526	-200,000	-0,017	-0,107
-126,512	198,846	-0,091	-0,100
-125,497	-88,706	0,077	0,016
-124,483	-71,569	-0,044	-0,012
-123,468	800,000	-0,013	-0,038
-122,453	648,718	-0,049	-0,091
-121,439	31,615	0,129	-0,079
-120,424	-35,747	-0,109	-0,042
-119,410	-134,591	0,080	0,007
-118,395	800,000	0,040	0,110
