DTS Sentinel unit serial number:	SN410029Multiplexer serial number:	ORYXHardware model number:	OX2-SRSoftware version number:	ORYX F/W v4,00 Oryx Data Collector v3.7.2.0data status	okinstallation	B6 Nyhavnadifferential loss correction	single-endedforward channel	channel 2reverse channel	N/Adate	2023/12/08time	03:25:08forward acquisition time	300,00reverse acquisition time	0,00gamma	499,1914k internal	0,3165k external	0,3165temperature offset calibration	1,0000default loss term (dB/km)	0,3820temperature slope calibration	1,0000multiplexer offset coefficient	1,0000multiplexer slope coefficient	1,0000fibre end	0,00T internal ref (°C)	13,12T ext. ref 1 (°C)	-3,76T ext. ref 2 (°C)	-3,77length (m)	temperature (°C)	Stokes	anti-Stokes-744,400	-24,434	0,129	0,056
-743,385	-163,722	-0,273	0,009
-742,371	111,574	0,061	0,054
-741,356	-193,900	-0,367	-0,002
-740,342	-81,510	0,175	0,042
-739,327	-68,413	-0,299	-0,085
-738,312	-112,731	0,072	0,010
-737,298	27,982	-0,336	-0,208
-736,283	214,536	-0,022	0,025
-735,269	-188,183	-0,352	0,003
-734,254	-83,981	0,181	0,042
-733,239	-91,679	-0,495	-0,103
-732,225	256,241	0,094	0,118
-731,210	167,111	-0,060	-0,062
-730,196	78,604	-0,044	-0,035
-729,181	-100,487	-0,091	-0,016
-728,167	-200,000	-0,005	0,070
-727,152	-200,000	-0,028	-0,099
-726,137	800,000	-0,053	-0,171
-725,123	7,588	-0,117	-0,064
-724,108	-200,000	-0,054	-0,219
-723,094	424,947	-0,123	-0,196
-722,079	741,106	0,027	-0,054
-721,064	-136,640	0,105	0,009
-720,050	-200,000	-0,080	-0,000
-719,035	-152,948	-0,082	0,004
-718,021	-42,920	-0,058	-0,021
-717,006	381,648	0,023	-0,034
-715,991	-41,938	-0,101	-0,038
-714,977	243,853	-0,129	-0,159
-713,962	-136,747	-0,049	0,004
-712,948	-89,177	0,146	-0,031
-711,933	-200,000	0,000	-0,002
-710,918	-115,828	-0,113	-0,015
-709,904	-200,000	-0,050	-0,187
-708,889	-200,000	-0,013	-0,136
-707,875	-200,000	-0,018	-0,078
-706,860	-52,865	-0,136	0,046
-705,845	-105,506	0,103	0,017
-704,831	-200,000	-0,001	0,172
-703,816	-200,000	0,029	0,125
-702,802	-200,000	-0,009	-0,030
-701,787	396,711	-0,066	-0,102
-700,772	-200,000	-0,118	-0,000
-699,758	239,920	0,033	0,041
-698,743	-200,000	-0,002	0,049
-697,729	-95,769	-0,060	0,012
-696,714	161,133	0,030	0,030
-695,699	-200,000	0,011	-0,052
-694,685	15,446	0,090	0,051
-693,670	-180,795	-0,014	0,000
-692,656	800,000	-0,043	0,095
-691,641	-54,252	0,069	0,023
-690,627	171,511	-0,083	0,087
-689,612	-58,782	-0,035	-0,011
-688,597	19,983	-0,106	-0,062
-687,583	-172,892	-0,130	0,003
-686,568	-200,000	-0,011	-0,042
-685,554	-200,000	-0,021	-0,098
-684,539	139,241	0,018	0,017
-683,524	32,792	-0,099	-0,063
-682,510	-200,000	-0,003	0,055
-681,495	800,000	0,023	-0,066
-680,481	-29,628	-0,124	-0,052
-679,466	349,070	-0,074	-0,107
-678,451	-153,094	0,078	0,004
-677,437	-154,379	0,029	-0,001
-676,422	292,906	0,032	-0,042
-675,408	104,013	-0,068	0,058
-674,393	-200,000	-0,002	0,103
-673,378	102,301	-0,076	-0,066
-672,364	211,980	0,062	-0,072
-671,349	144,495	0,008	-0,008
-670,335	-113,275	0,089	-0,013
-669,320	-164,723	-0,050	-0,002
-668,305	-200,000	0,018	0,110
-667,291	-1,751	-0,117	-0,060
-666,276	382,359	0,022	-0,033
-665,262	-200,000	-0,014	-0,163
-664,247	279,667	-0,063	-0,083
-663,232	-35,937	0,027	0,010
-662,218	-200,000	-0,049	0,178
-661,203	-157,634	-0,088	-0,004
-660,189	-83,177	0,137	-0,032
-659,174	75,255	-0,060	0,046
-658,159	160,384	-0,051	0,052
-657,145	15,975	-0,028	-0,016
-656,130	-200,000	-0,007	0,149
-655,116	-200,000	-0,001	0,021
-654,101	-100,461	0,043	-0,008
-653,086	-200,000	-0,021	0,146
-652,072	-200,000	-0,007	0,057
-651,057	-200,000	-0,014	-0,087
-650,043	-200,000	0,004	0,032
-649,028	317,433	-0,098	-0,137
-648,014	431,643	-0,034	-0,054
-646,999	-174,063	0,154	0,003
-645,984	389,994	0,033	0,050
-644,970	-200,000	0,008	-0,174
-643,955	-200,000	-0,052	-0,233
-642,941	8,996	-0,155	-0,086
-641,926	-200,000	0,014	-0,060
-640,911	-200,000	0,013	-0,077
-639,897	433,888	0,036	-0,058
-638,882	-105,317	0,053	-0,009
-637,868	217,726	-0,061	-0,072
-636,853	-200,000	0,018	-0,063
-635,838	798,393	0,061	-0,124
-634,824	-200,000	0,038	-0,164
-633,809	78,526	-0,051	0,040
-632,795	800,000	-0,045	0,124
-631,780	50,337	0,094	0,065
-630,765	705,312	-0,053	-0,103
-629,751	-200,000	-0,011	0,057
-628,736	151,800	0,057	0,057
-627,722	-51,629	-0,070	-0,024
-626,707	83,404	0,036	0,029
-625,692	55,409	-0,079	0,056
-624,678	-110,700	-0,048	0,007
-623,663	-94,928	0,195	-0,038
-622,649	-200,000	-0,005	0,066
-621,634	116,901	0,100	0,090
-620,619	800,000	-0,033	0,067
-619,605	20,034	0,115	-0,068
-618,590	704,595	-0,021	-0,041
-617,576	-22,384	0,078	-0,034
-616,561	170,885	-0,027	-0,029
-615,546	121,921	0,057	0,052
-614,532	112,400	-0,065	-0,058
-613,517	-100,375	0,112	0,020
-612,503	-149,193	0,039	-0,002
-611,488	-161,940	0,073	0,003
-610,474	-200,000	-0,021	0,127
-609,459	79,707	0,056	-0,044
-608,444	165,355	-0,107	-0,111
-607,430	-83,190	0,101	-0,023
-606,415	-95,666	-0,101	-0,020
-605,401	-109,802	-0,105	-0,016
-604,386	-134,040	0,098	0,009
-603,371	800,000	0,073	0,196
-602,357	200,413	0,047	-0,053
-601,342	800,000	-0,012	0,037
-600,328	34,858	-0,084	0,053
-599,313	-200,000	0,007	0,092
-598,298	69,809	-0,033	-0,025
-597,284	-124,425	-0,178	0,020
-596,269	-188,557	-0,060	0,001
-595,255	-200,000	0,028	-0,103
-594,240	800,000	-0,041	-0,100
-593,225	-57,963	0,102	-0,032
-592,211	800,000	-0,057	-0,154
-591,196	499,455	0,071	0,120
-590,182	800,000	0,008	0,026
-589,167	800,000	0,020	0,062
-588,152	192,595	-0,034	-0,037
-587,138	98,218	0,087	-0,073
-586,123	109,203	-0,018	-0,016
-585,109	-17,323	0,019	-0,009
-584,094	800,000	0,043	-0,104
-583,079	118,482	0,072	0,065
-582,065	94,567	0,032	0,027
-581,050	323,619	-0,050	-0,070
-580,036	-54,353	-0,107	-0,035
-579,021	800,000	0,037	0,086
-578,006	102,899	0,069	0,059
-576,992	76,636	-0,108	0,084
-575,977	7,570	-0,092	-0,050
-574,963	379,888	-0,055	0,083
-573,948	-59,858	0,036	0,011
-572,934	-0,845	-0,074	0,038
-571,919	800,000	0,019	0,052
-570,904	-200,000	-0,014	-0,146
-569,890	-200,000	0,021	-0,077
-568,875	346,267	-0,048	-0,069
-567,861	-74,184	0,061	0,016
-566,846	-171,273	0,084	0,002
-565,831	-200,000	0,012	-0,087
-564,817	31,990	-0,082	0,051
-563,802	129,121	-0,050	-0,047
-562,788	-200,000	0,003	-0,124
-561,773	55,729	0,118	0,083
-560,758	136,598	0,070	-0,067
-559,744	800,000	-0,054	0,166
-558,729	-200,000	0,024	-0,153
-557,715	800,000	0,025	0,072
-556,700	-15,259	-0,098	-0,046
-555,685	487,519	0,017	0,029
-554,671	-88,586	0,156	-0,034
-553,656	-113,876	0,025	0,003
-552,642	-28,290	0,118	0,050
-551,627	-92,824	0,057	0,011
-550,612	102,459	-0,050	0,043
-549,598	-200,000	-0,022	-0,082
-548,583	800,000	-0,039	0,108
-547,569	-165,456	-0,114	0,004
-546,554	-34,854	-0,032	-0,013
-545,539	-200,000	0,021	0,167
-544,525	305,934	-0,060	0,082
-543,510	-200,000	-0,032	-0,150
-542,496	153,090	0,059	0,059
-541,481	741,062	0,047	0,093
-540,466	-156,877	-0,126	-0,006
-539,452	540,631	0,042	0,074
-538,437	-200,000	-0,000	0,002
-537,423	-44,503	-0,095	0,035
-536,408	46,327	-0,108	0,073
-535,393	800,000	0,055	-0,120
-534,379	147,839	-0,057	-0,056
-533,364	235,529	-0,102	0,123
-532,350	-162,880	0,117	0,004
-531,335	26,010	-0,052	-0,031
-530,321	-200,000	-0,026	0,155
-529,306	272,024	0,052	0,067
-528,291	562,707	0,036	0,064
-527,277	58,815	0,053	-0,038
-526,262	-114,307	-0,062	-0,009
-525,248	-135,397	0,081	-0,007
-524,233	360,635	0,042	0,062
-523,218	800,000	0,026	0,080
-522,204	45,571	-0,117	-0,079
-521,189	355,311	0,083	-0,121
-520,175	305,665	-0,122	-0,166
-519,160	-200,000	0,012	0,102
-518,145	5,397	-0,054	0,029
-517,131	-200,000	0,009	-0,094
-516,116	28,714	0,059	0,036
-515,102	-102,915	0,029	-0,005
-514,087	326,937	0,038	-0,053
-513,072	-33,647	-0,145	-0,058
-512,058	-200,000	-0,003	0,109
-511,043	800,000	0,100	0,251
-510,029	140,528	0,138	0,133
-509,014	-115,930	0,155	-0,021
-507,999	210,062	-0,045	0,052
-506,985	-200,000	0,006	0,028
-505,970	632,883	-0,050	-0,092
-504,956	534,028	-0,089	-0,155
-503,941	-142,687	0,047	-0,003
-502,926	-200,000	-0,011	0,039
-501,912	-64,619	0,044	-0,013
-500,897	-200,000	-0,015	0,088
-499,883	-200,000	-0,011	-0,122
-498,868	736,515	0,035	0,068
-497,853	48,535	-0,059	-0,041
-496,839	113,329	0,071	0,063
-495,824	145,497	-0,063	0,062
-494,810	-112,965	-0,039	0,006
-493,795	-116,997	0,079	-0,010
-492,781	-111,601	-0,139	0,020
-491,766	-38,884	0,031	0,012
-490,751	367,959	-0,070	-0,104
-489,737	800,000	-0,015	0,034
-488,722	-42,005	0,051	-0,019
-487,708	-0,531	0,012	-0,006
-486,693	800,000	0,011	-0,029
-485,678	800,000	0,047	-0,111
-484,664	25,605	-0,093	-0,056
-483,649	-200,000	0,026	-0,122
-482,635	388,787	-0,044	-0,066
-481,620	-64,990	0,149	0,043
-480,605	-200,000	-0,048	0,231
-479,591	162,615	-0,039	0,039
-478,576	-200,000	0,026	0,144
-477,562	-200,000	0,001	-0,070
-476,547	-132,280	-0,134	-0,012
-475,532	-111,393	0,116	-0,017
-474,518	61,534	-0,069	0,050
-473,503	-200,000	-0,031	-0,128
-472,489	588,137	0,045	-0,082
-471,474	-27,762	-0,148	-0,062
-470,459	-200,000	0,011	-0,259
-469,445	637,743	-0,156	-0,290
-468,430	-200,000	0,042	-0,136
-467,416	71,303	0,144	-0,108
-466,401	-200,000	0,028	0,121
-465,386	-200,000	0,032	0,116
-464,372	800,000	0,045	-0,129
-463,357	-200,000	-0,012	-0,105
-462,343	-50,280	-0,161	-0,055
-461,328	800,000	0,014	-0,029
-460,313	-200,000	-0,004	0,052
-459,299	-36,629	-0,139	-0,054
-458,284	-138,756	0,109	0,009
-457,270	800,000	0,038	0,107
-456,255	-200,000	0,035	0,121
-455,241	800,000	-0,048	-0,138
-454,226	8,539	0,051	0,028
-453,211	253,150	-0,063	0,079
-452,197	-31,474	0,048	0,020
-451,182	-84,269	0,072	-0,016
-450,168	39,068	0,035	-0,022
-449,153	-47,996	-0,126	0,044
-448,138	-200,000	-0,027	-0,110
-447,124	800,000	0,087	-0,253
-446,109	149,941	-0,068	0,067
-445,095	-76,437	-0,032	-0,008
-444,080	597,703	-0,038	-0,069
-443,065	-129,407	0,090	0,009
-442,051	134,312	0,022	-0,021
-441,036	-200,000	0,005	-0,017
-440,022	-155,631	-0,073	0,003
-439,007	103,386	-0,040	0,034
-437,992	555,704	0,053	-0,092
-436,978	-28,257	0,088	-0,037
-435,963	420,861	0,039	0,060
-434,949	-115,837	-0,007	0,001
-433,934	-95,333	-0,185	-0,036
-432,919	-82,621	-0,062	-0,014
-431,905	-136,850	0,184	-0,015
-430,890	-200,000	-0,012	0,086
-429,876	-5,099	0,053	0,027
-428,861	-52,634	-0,044	-0,015
-427,846	-54,796	0,108	0,035
-426,832	-200,000	-0,022	-0,102
-425,817	233,576	0,068	-0,081
-424,803	-137,109	0,049	-0,004
-423,788	122,279	-0,030	0,027
-422,773	-200,000	0,016	0,105
-421,759	-200,000	0,001	0,054
-420,744	-200,000	0,013	0,104
-419,730	64,094	-0,040	-0,029
-418,715	-200,000	0,008	0,068
-417,701	-54,373	0,076	-0,025
-416,686	71,257	0,088	-0,066
-415,671	49,242	0,081	0,055
-414,657	-44,494	-0,081	-0,029
-413,642	-141,297	0,128	0,009
-412,628	6,351	-0,110	-0,059
-411,613	106,734	-0,064	-0,055
-410,598	800,000	-0,063	0,132
-409,584	-200,000	-0,033	0,000
-408,569	287,305	0,058	0,077
-407,555	-200,000	0,010	-0,051
-406,540	-200,000	0,005	0,022
-405,525	-165,671	-0,112	-0,003
-404,511	-200,000	0,037	-0,166
-403,496	-105,878	0,052	-0,008
-402,482	325,978	0,087	0,121
-401,467	-12,248	0,135	0,064
-400,452	-200,000	0,042	0,150
-399,438	800,000	-0,041	-0,093
-398,423	-8,355	0,022	-0,011
-397,409	127,043	0,041	-0,038
-396,394	-65,728	-0,059	0,017
-395,379	-200,000	-0,013	-0,070
-394,365	-37,237	-0,116	0,045
-393,350	50,163	-0,034	-0,023
-392,336	103,568	-0,031	0,026
-391,321	74,161	0,114	-0,087
-390,306	-200,000	0,010	-0,184
-389,292	-200,000	0,002	-0,137
-388,277	800,000	0,047	0,100
-387,263	-200,000	0,004	-0,031
-386,248	3,169	0,038	0,020
-385,233	267,950	-0,040	-0,051
-384,219	127,233	-0,058	0,054
-383,204	65,271	0,035	-0,026
-382,190	-146,426	0,122	0,008
-381,175	800,000	0,017	-0,050
-380,160	247,913	0,064	0,079
-379,146	22,635	0,119	0,070
-378,131	-83,787	0,069	-0,016
-377,117	98,403	0,102	-0,085
-376,102	-200,000	0,009	0,083
-375,088	99,010	-0,084	0,071
-374,073	-200,000	0,007	-0,034
-373,058	84,224	0,048	-0,038
-372,044	-200,000	0,005	0,021
-371,029	-200,000	-0,005	0,083
-370,015	800,000	0,033	0,101
-369,000	-200,000	0,005	-0,107
-367,985	-84,958	-0,117	-0,026
-366,971	765,073	0,016	0,033
-365,956	329,757	0,030	0,043
-364,942	800,000	0,060	0,140
-363,927	397,755	-0,038	0,057
-362,912	128,103	-0,059	0,054
-361,898	125,191	-0,064	0,058
-360,883	360,438	0,068	-0,099
-359,869	318,639	0,076	-0,105
-358,854	800,000	-0,048	0,145
-357,839	-200,000	0,004	-0,013
-356,825	30,727	0,093	0,057
-355,810	438,616	0,022	-0,034
-354,796	300,473	-0,093	-0,125
-353,781	-87,865	-0,034	0,007
-352,766	320,996	-0,064	-0,088
-351,752	-200,000	-0,003	-0,049
-350,737	-104,426	-0,102	-0,017
-349,723	800,000	-0,048	0,138
-348,708	800,000	0,052	-0,131
-347,693	-55,738	-0,106	0,034
-346,679	67,117	-0,057	0,042
-345,664	-200,000	-0,028	-0,194
-344,650	94,715	-0,054	-0,044
-343,635	-113,321	0,073	-0,010
-342,620	-200,000	-0,007	-0,025
-341,606	63,408	-0,111	0,081
-340,591	800,000	0,051	0,134
-339,577	145,440	-0,041	-0,040
-338,562	800,000	-0,025	-0,063
-337,548	-200,000	0,026	-0,109
-336,533	130,529	0,097	0,090
-335,518	-148,865	-0,230	0,013
-334,504	30,203	0,010	0,006
-333,489	-109,056	-0,196	0,030
-332,475	-200,000	-0,037	-0,163
-331,460	269,409	-0,071	-0,090
-330,445	778,304	-0,007	0,015
-329,431	-145,436	-0,097	0,006
-328,416	-200,000	-0,007	0,039
-327,402	-44,217	0,050	0,018
-326,387	-200,000	0,006	0,033
-325,372	-109,632	0,105	-0,016
-324,358	-200,000	0,000	0,025
-323,343	800,000	-0,048	-0,129
-322,329	-79,127	0,128	-0,031
-321,314	252,014	0,061	0,076
-320,299	-184,492	-0,114	-0,001
-319,285	-97,882	-0,042	0,008
-318,270	142,287	-0,069	-0,067
-317,256	-200,000	0,003	-0,101
-316,241	177,243	-0,069	-0,073
-315,226	55,462	0,038	0,027
-314,212	800,000	0,040	0,084
-313,197	381,058	0,045	-0,067
-312,183	-200,000	0,015	-0,146
-311,168	-64,415	0,162	-0,047
-310,153	-39,211	-0,173	0,065
-309,139	-122,621	-0,059	0,007
-308,124	-86,599	0,073	0,016
-307,110	-200,000	-0,003	0,153
-306,095	679,017	0,092	0,175
-305,080	-48,659	-0,093	-0,032
-304,066	-70,999	-0,160	-0,043
-303,051	-200,000	-0,003	0,102
-302,037	-179,142	0,035	-0,001
-301,022	-18,098	0,053	-0,024
-300,008	-2,406	0,111	0,056
-298,993	751,109	-0,051	0,100
-297,978	20,705	-0,125	-0,073
-296,964	212,850	0,028	0,031
-295,949	800,000	0,044	0,108
-294,935	375,341	-0,040	-0,060
-293,920	-62,808	0,164	0,049
-292,905	-200,000	-0,007	0,035
-291,891	-200,000	-0,002	-0,036
-290,876	188,234	-0,009	0,010
-289,862	199,253	0,020	-0,022
-288,847	369,064	-0,107	-0,157
-287,832	6,744	0,117	0,063
-286,818	-144,157	0,113	0,008
-285,803	-172,490	-0,101	0,002
-284,789	101,560	-0,011	-0,009
-283,774	122,829	-0,049	-0,044
-282,759	-151,359	0,068	-0,004
-281,745	452,425	-0,051	-0,082
-280,730	-141,012	-0,020	0,001
-279,716	352,655	-0,037	-0,052
-278,701	-20,831	0,035	0,015
-277,686	-92,761	-0,077	0,015
-276,672	605,509	-0,016	-0,029
-275,657	-200,000	-0,001	0,036
-274,643	88,600	-0,074	-0,059
-273,628	-200,000	0,004	-0,091
-272,613	-200,000	0,004	-0,178
-271,599	35,825	-0,126	-0,080
-270,584	63,426	0,081	0,059
-269,570	385,840	0,037	-0,056
-268,555	16,106	-0,056	0,032
-267,540	-93,511	-0,093	0,018
-266,526	800,000	0,019	0,046
-265,511	247,314	-0,032	0,040
-264,497	148,134	0,072	-0,070
-263,482	720,488	0,032	0,062
-262,467	-200,000	-0,011	0,169
-261,453	-40,860	-0,051	-0,019
-260,438	-200,000	-0,010	-0,033
-259,424	62,868	0,034	0,025
-258,409	-200,000	0,013	-0,101
-257,395	39,222	-0,019	-0,012
-256,380	2,530	0,065	-0,034
-255,365	-200,000	0,024	0,117
-254,351	-200,000	0,008	0,123
-253,336	-134,474	0,095	0,008
-252,322	800,000	-0,044	-0,125
-251,307	290,507	-0,059	0,078
-250,292	340,767	0,033	0,047
-249,278	-200,000	-0,033	0,118
-248,263	-15,628	0,199	0,091
-247,249	-200,000	0,017	0,120
-246,234	108,100	-0,065	-0,056
-245,219	-72,711	0,080	0,021
-244,205	-112,722	0,051	0,007
-243,190	290,072	0,018	0,024
-242,176	336,655	0,102	0,143
-241,161	800,000	0,046	0,097
-240,146	60,148	0,061	0,044
-239,132	721,176	-0,035	0,068
-238,117	560,409	-0,058	0,102
-237,103	-200,000	-0,002	-0,062
-236,088	-200,000	-0,017	0,067
-235,073	-16,883	0,141	-0,064
-234,059	-70,912	0,116	-0,031
-233,044	-200,000	-0,002	-0,027
-232,030	-200,000	0,010	-0,036
-231,015	275,511	-0,037	0,047
-230,000	-36,186	-0,027	0,010
-228,986	-3,628	-0,137	0,069
-227,971	-65,247	0,070	0,020
-226,957	800,000	-0,022	0,055
-225,942	-200,000	-0,003	0,162
-224,927	-200,000	0,008	0,081
-223,913	-18,585	-0,028	-0,013
-222,898	800,000	-0,026	0,063
-221,884	-200,000	0,024	0,155
-220,869	312,018	0,104	-0,140
-219,855	-83,477	-0,081	-0,019
-218,840	-200,000	0,009	0,090
-217,825	-132,296	-0,095	0,009
-216,811	-200,000	0,006	-0,062
-215,796	529,615	-0,060	0,103
-214,782	-106,824	-0,038	-0,006
-213,767	-200,000	-0,005	-0,121
-212,752	65,617	-0,088	-0,064
-211,738	-105,862	0,055	-0,009
-210,723	-51,649	-0,148	-0,049
-209,709	800,000	-0,010	-0,020
-208,694	-200,000	-0,024	-0,081
-207,679	148,513	-0,065	0,063
-206,665	-200,000	0,003	0,079
-205,650	286,079	-0,117	0,153
-204,636	-47,648	0,122	0,042
-203,621	344,943	-0,062	-0,088
-202,606	-21,639	-0,104	-0,045
-201,592	-200,000	0,013	0,050
-200,577	119,812	-0,063	0,056
-199,563	-200,000	0,014	-0,062
-198,548	26,712	-0,060	0,036
-197,533	-109,596	0,100	-0,015
-196,519	642,054	-0,055	-0,102
-195,504	240,955	-0,103	-0,124
-194,490	187,265	0,077	-0,083
-193,475	-13,181	-0,051	-0,024
-192,460	424,199	-0,012	-0,019
-191,446	498,700	-0,026	0,043
-190,431	-71,731	0,187	0,050
-189,417	-9,315	-0,006	0,003
-188,402	500,380	0,069	-0,116
-187,387	-35,948	-0,070	-0,027
-186,373	20,224	-0,110	0,063
-185,358	295,280	-0,086	-0,113
-184,344	155,645	0,142	0,141
-183,329	-132,332	0,088	0,008
-182,315	430,828	0,073	0,115
-181,300	-58,633	0,028	0,009
-180,285	-45,060	-0,140	0,050
-179,271	-99,584	-0,084	0,015
-178,256	-200,000	-0,001	0,143
-177,242	-200,000	0,025	0,124
-176,227	168,730	0,026	-0,027
-175,212	347,070	-0,051	0,072
-174,198	-80,223	-0,100	-0,024
-173,183	-200,000	-0,016	-0,059
-172,169	-2,535	0,113	0,057
-171,154	-110,874	-0,064	0,009
-170,139	800,000	-0,013	-0,039
-169,125	-43,202	0,201	0,073
-168,110	800,000	0,064	0,190
-167,096	800,000	-0,016	-0,040
-166,081	-69,712	-0,061	-0,017
-165,066	243,886	-0,084	0,102
-164,052	370,920	0,062	0,091
-163,037	-200,000	-0,001	-0,051
-162,023	-43,933	0,110	-0,040
-161,008	307,698	-0,024	0,032
-159,993	-139,205	-0,082	0,006
-158,979	272,018	0,095	-0,120
-157,964	109,211	-0,061	0,052
-156,950	-200,000	-0,020	-0,067
-155,935	-79,985	0,033	0,008
-154,920	-200,000	0,016	0,132
-153,906	412,064	0,149	0,227
-152,891	-33,525	-0,031	-0,012
-151,877	143,366	0,059	-0,057
-150,862	49,343	0,015	-0,010
-149,847	96,954	0,160	-0,132
-148,833	54,446	0,039	0,027
-147,818	150,468	0,062	-0,061
-146,804	-200,000	-0,004	0,091
-145,789	39,619	-0,128	0,082
-144,775	488,076	0,033	0,054
-143,760	-200,000	-0,030	-0,183
-142,745	-200,000	-0,010	-0,106
-141,731	303,304	-0,022	-0,029
-140,716	-200,000	0,038	0,133
-139,702	-200,000	-0,006	-0,043
-138,687	-200,000	-0,022	0,135
-137,672	307,306	-0,075	0,101
-136,658	-24,424	-0,041	0,018
-135,643	313,118	0,060	-0,082
-134,629	192,790	-0,040	0,043
-133,614	-69,659	0,136	-0,037
-132,599	110,060	0,047	-0,040
-131,585	-44,033	0,107	0,039
-130,570	-200,000	-0,003	0,033
-129,556	323,330	0,035	0,048
-128,541	116,857	0,051	0,045
-127,526	6,515	0,048	-0,026
-126,512	637,160	-0,009	0,017
-125,497	-44,249	0,049	-0,017
-124,483	80,043	-0,043	-0,033
-123,468	-200,000	0,008	-0,073
-122,453	695,785	-0,051	-0,096
-121,439	-103,151	0,061	0,010
-120,424	800,000	-0,038	-0,101
