DTS Sentinel unit serial number:	SN410029Multiplexer serial number:	ORYXHardware model number:	OX2-SRSoftware version number:	ORYX F/W v4,00 Oryx Data Collector v3.7.2.0data status	okinstallation	B6 Nyhavnadifferential loss correction	single-endedforward channel	channel 2reverse channel	N/Adate	2023/12/10time	09:50:08forward acquisition time	300,00reverse acquisition time	0,00gamma	499,1914k internal	0,3123k external	0,3123temperature offset calibration	1,0000default loss term (dB/km)	0,3820temperature slope calibration	1,0000multiplexer offset coefficient	1,0000multiplexer slope coefficient	1,0000fibre end	0,00T internal ref (°C)	22,56T ext. ref 1 (°C)	6,34T ext. ref 2 (°C)	6,34length (m)	temperature (°C)	Stokes	anti-Stokes-744,400	341,087	-0,034	-0,050
-743,385	-97,759	-0,278	0,053
-742,371	-200,000	0,023	-0,112
-741,356	31,679	-0,258	0,165
-740,342	-15,335	0,061	-0,029
-739,327	-109,244	-0,356	0,056
-738,312	-200,000	0,025	-0,117
-737,298	-48,931	-0,231	0,082
-736,283	-59,445	-0,066	0,021
-735,269	229,904	-0,170	0,207
-734,254	-200,000	-0,013	0,122
-733,239	22,368	-0,335	-0,204
-732,225	-37,652	0,117	-0,046
-731,210	-30,050	0,114	0,048
-730,196	-157,439	0,088	-0,004
-729,181	-119,733	-0,060	0,008
-728,167	-200,000	-0,030	0,149
-727,152	800,000	0,050	0,149
-726,137	351,684	-0,056	-0,083
-725,123	143,102	-0,076	0,075
-724,108	-67,339	-0,138	-0,040
-723,094	-200,000	-0,034	-0,123
-722,079	-200,000	-0,040	0,142
-721,064	33,520	0,039	-0,025
-720,050	439,634	-0,022	0,036
-719,035	-200,000	0,004	0,115
-718,021	-116,144	-0,123	-0,017
-717,006	592,295	-0,047	-0,087
-715,991	151,712	0,092	0,093
-714,977	-200,000	0,004	-0,086
-713,962	-103,302	0,061	-0,011
-712,948	-148,352	-0,070	0,004
-711,933	252,219	0,007	0,009
-710,918	213,450	-0,044	0,052
-709,904	101,075	-0,069	-0,059
-708,889	-41,150	0,066	-0,025
-707,875	-200,000	0,027	-0,202
-706,860	135,886	0,039	-0,038
-705,845	216,215	-0,043	-0,050
-704,831	-180,402	0,121	0,002
-703,816	-200,000	-0,004	0,032
-702,802	30,082	-0,088	0,056
-701,787	-22,783	0,088	0,039
-700,772	-200,000	-0,010	-0,169
-699,758	69,506	0,102	0,078
-698,743	-200,000	0,033	0,123
-697,729	-83,585	0,144	0,034
-696,714	251,963	-0,132	0,168
-695,699	-72,543	0,071	0,019
-694,685	800,000	0,032	-0,104
-693,670	800,000	-0,055	0,139
-692,656	-159,937	-0,027	-0,001
-691,641	285,656	0,088	-0,118
-690,627	588,424	-0,043	-0,079
-689,612	287,105	-0,038	0,051
-688,597	786,368	0,053	-0,110
-687,583	800,000	-0,064	-0,137
-686,568	652,622	-0,075	-0,143
-685,554	-11,060	-0,123	-0,060
-684,539	-200,000	0,050	-0,207
-683,524	217,235	0,025	0,030
-682,510	-97,033	0,084	-0,016
-681,495	20,881	-0,043	-0,026
-680,481	800,000	-0,033	-0,077
-679,466	143,077	-0,156	-0,155
-678,451	121,747	-0,038	-0,036
-677,437	-152,421	0,054	0,003
-676,422	-59,530	0,108	0,034
-675,408	-0,824	-0,115	0,061
-674,393	2,342	-0,083	-0,044
-673,378	478,831	-0,051	-0,085
-672,364	119,990	0,043	-0,040
-671,349	158,348	-0,033	-0,034
-670,335	62,152	-0,208	-0,154
-669,320	126,607	0,099	0,094
-668,305	117,630	0,071	-0,065
-667,291	-64,794	-0,066	-0,020
-666,276	203,405	0,069	-0,079
-665,262	139,751	-0,053	-0,052
-664,247	-5,245	-0,067	-0,034
-663,232	-102,092	0,014	0,002
-662,218	-200,000	-0,002	0,099
-661,203	-200,000	0,001	0,080
-660,189	-200,000	-0,008	0,089
-659,174	-109,674	-0,064	0,010
-658,159	43,567	0,036	0,024
-657,145	186,640	-0,017	-0,019
-656,130	-200,000	0,003	-0,120
-655,116	387,893	0,030	0,046
-654,101	435,332	-0,025	0,041
-653,086	-200,000	-0,017	0,060
-652,072	409,600	-0,094	-0,149
-651,057	270,293	-0,028	-0,037
-650,043	-200,000	0,017	-0,270
-649,028	-87,350	0,079	-0,018
-648,014	72,199	-0,070	-0,054
-646,999	-26,877	0,091	0,039
-645,984	-94,648	-0,147	0,029
-644,970	644,749	0,032	-0,060
-643,955	2,142	-0,134	-0,072
-642,941	168,930	0,043	0,046
-641,926	800,000	0,045	-0,111
-640,911	-132,591	0,161	-0,015
-639,897	14,426	0,076	-0,044
-638,882	-52,522	-0,149	-0,051
-637,868	-200,000	0,030	0,111
-636,853	-200,000	-0,006	0,089
-635,838	126,168	-0,062	0,058
-634,824	800,000	0,028	-0,076
-633,809	155,672	0,046	0,047
-632,795	800,000	0,042	0,088
-631,780	91,078	0,098	-0,082
-630,765	-145,662	-0,061	-0,004
-629,751	-80,504	-0,130	-0,032
-628,736	188,209	-0,081	-0,090
-627,722	51,546	0,069	0,049
-626,707	-200,000	-0,020	-0,079
-625,692	70,598	-0,051	0,039
-624,678	171,557	-0,098	0,105
-623,663	-63,994	-0,176	-0,053
-622,649	800,000	-0,027	-0,059
-621,634	-200,000	-0,002	-0,071
-620,619	308,380	-0,038	-0,052
-619,605	800,000	0,027	-0,060
-618,590	-200,000	0,005	0,034
-617,576	800,000	-0,068	0,177
-616,561	-120,000	-0,059	0,007
-615,546	186,530	-0,009	0,010
-614,532	57,158	-0,094	-0,068
-613,517	-67,133	0,093	-0,027
-612,503	-43,667	-0,062	-0,023
-611,488	8,924	0,105	-0,058
-610,474	-77,628	0,046	-0,012
-609,459	-200,000	-0,016	0,066
-608,444	800,000	-0,054	0,127
-607,430	-138,138	-0,166	0,013
-606,415	-200,000	0,015	-0,135
-605,401	-200,000	-0,003	-0,058
-604,386	-73,704	0,013	0,003
-603,371	576,857	-0,041	-0,075
-602,357	800,000	-0,050	0,114
-601,342	-200,000	0,001	0,040
-600,328	800,000	-0,053	-0,133
-599,313	242,566	-0,068	0,085
-598,298	26,389	-0,030	-0,019
-597,284	800,000	-0,039	-0,082
-596,269	800,000	-0,008	-0,020
-595,255	599,182	-0,028	-0,052
-594,240	4,161	0,050	-0,027
-593,225	-70,078	0,009	-0,003
-592,211	-200,000	0,030	-0,099
-591,196	-185,454	-0,128	-0,001
-590,182	94,635	0,024	-0,020
-589,167	70,767	0,057	0,044
-588,152	-200,000	-0,036	0,146
-587,138	-200,000	0,003	0,055
-586,123	75,449	-0,021	0,016
-585,109	-200,000	0,027	-0,181
-584,094	506,867	-0,078	-0,135
-583,079	-200,000	0,000	0,106
-582,065	800,000	-0,053	-0,126
-581,050	342,114	-0,049	-0,071
-580,036	280,017	0,030	-0,040
-579,021	-13,453	-0,109	-0,052
-578,006	261,519	-0,071	-0,091
-576,992	273,230	-0,015	0,020
-575,977	338,466	-0,042	0,061
-574,963	167,556	0,113	0,119
-573,948	800,000	-0,055	0,148
-572,934	-129,223	0,085	-0,009
-571,919	-10,547	-0,044	-0,021
-570,904	187,844	-0,042	0,047
-569,890	83,700	-0,142	-0,114
-568,875	120,482	-0,133	0,123
-567,861	332,066	0,042	0,060
-566,846	-118,493	-0,080	0,010
-565,831	-200,000	-0,005	-0,066
-564,817	472,194	-0,021	-0,035
-563,802	142,829	-0,042	-0,042
-562,788	-79,731	-0,110	-0,027
-561,773	-36,686	0,007	0,003
-560,758	800,000	0,077	0,178
-559,744	128,664	-0,047	0,045
-558,729	-136,642	-0,118	-0,010
-557,715	514,948	0,038	-0,066
-556,700	261,747	-0,069	0,089
-555,685	-200,000	-0,013	-0,186
-554,671	37,026	0,087	-0,057
-553,656	6,387	0,040	0,022
-552,642	344,866	0,078	0,113
-551,627	112,822	-0,057	0,051
-550,612	228,335	-0,104	0,125
-549,598	531,776	-0,028	0,049
-548,583	-200,000	-0,027	0,196
-547,569	-200,000	-0,005	0,042
-546,554	-200,000	0,042	0,141
-545,539	-200,000	-0,015	0,166
-544,525	800,000	0,036	-0,077
-543,510	-200,000	-0,014	-0,061
-542,496	-24,985	-0,054	-0,023
-541,481	800,000	-0,009	-0,022
-540,466	474,781	0,025	-0,042
-539,452	-6,622	0,069	0,035
-538,437	-200,000	-0,003	0,106
-537,423	-200,000	0,038	0,191
-536,408	-200,000	-0,002	0,147
-535,393	-97,715	0,113	-0,021
-534,379	46,189	-0,030	-0,021
-533,364	800,000	0,047	-0,122
-532,350	194,332	0,097	0,109
-531,335	-143,228	0,100	-0,007
-530,321	119,020	0,130	0,118
-529,306	-131,704	0,118	-0,011
-528,291	-125,193	-0,052	-0,006
-527,277	-126,055	0,053	-0,006
-526,262	-73,822	-0,087	0,023
-525,248	329,303	0,013	-0,018
-524,233	339,214	0,049	0,070
-523,218	-15,502	0,033	-0,016
-522,204	263,372	-0,094	-0,121
-521,189	76,735	-0,042	-0,033
-520,175	121,623	-0,042	-0,039
-519,160	289,587	-0,068	0,092
-518,145	98,310	0,106	0,090
-517,131	800,000	0,026	0,060
-516,116	-200,000	0,001	0,083
-515,102	1,493	0,113	-0,060
-514,087	-200,000	0,018	0,067
-513,072	-200,000	-0,021	-0,075
-512,058	255,420	-0,035	-0,044
-511,043	-162,218	0,102	0,004
-510,029	-199,889	-0,117	0,000
-509,014	-101,584	-0,101	0,018
-507,999	-200,000	-0,014	0,090
-506,985	-22,322	-0,045	-0,020
-505,970	110,493	-0,043	0,038
-504,956	88,643	-0,032	-0,026
-503,941	197,695	0,017	0,019
-502,926	240,841	-0,049	0,060
-501,912	-13,915	0,036	0,017
-500,897	800,000	-0,012	-0,033
-499,883	-53,896	-0,071	-0,024
-498,868	-77,900	0,040	-0,010
-497,853	-28,320	-0,110	-0,047
-496,839	-9,889	-0,017	-0,008
-495,824	1,042	0,060	-0,032
-494,810	260,025	0,028	-0,036
-493,795	106,266	0,096	-0,084
-492,781	292,778	-0,084	0,113
-491,766	245,841	-0,031	0,039
-490,751	800,000	0,024	0,067
-489,737	-31,547	-0,149	0,062
-488,722	151,722	0,035	0,035
-487,708	-159,804	-0,016	0,001
-486,693	-31,337	-0,042	0,017
-485,678	241,048	-0,098	-0,121
-484,664	800,000	0,021	0,046
-483,649	422,383	0,011	0,017
-482,635	-47,306	0,055	0,020
-481,620	481,406	-0,005	0,009
-480,605	414,188	0,093	0,146
-479,591	27,333	0,090	-0,056
-478,576	616,662	-0,019	0,035
-477,562	356,585	-0,025	0,037
-476,547	800,000	-0,053	-0,110
-475,532	103,147	0,039	-0,034
-474,518	363,707	0,045	-0,067
-473,503	-4,733	0,172	0,087
-472,489	47,354	0,101	-0,069
-471,474	306,993	0,024	0,033
-470,459	-68,240	-0,120	-0,034
-469,445	347,728	0,049	-0,072
-468,430	19,338	-0,071	0,042
-467,416	-127,724	0,077	-0,008
-466,401	635,395	-0,011	-0,020
-465,386	800,000	0,016	0,047
-464,372	-200,000	0,002	-0,009
-463,357	402,806	-0,013	0,020
-462,343	67,591	0,085	-0,064
-461,328	-98,061	-0,122	-0,023
-460,313	800,000	0,034	0,076
-459,299	25,928	0,080	0,049
-458,284	327,895	0,042	0,060
-457,270	111,020	0,024	-0,021
-456,255	-126,226	-0,067	0,007
-455,241	-49,969	0,048	-0,017
-454,226	300,015	-0,081	0,110
-453,211	-200,000	0,009	-0,044
-452,197	199,889	0,132	0,149
-451,182	-107,956	0,118	0,019
-450,168	76,252	0,031	-0,024
-449,153	800,000	-0,034	-0,106
-448,138	-131,308	-0,139	-0,013
-447,124	-200,000	-0,014	-0,106
-446,109	-123,929	0,092	-0,011
-445,095	268,599	-0,048	0,063
-444,080	87,897	-0,115	-0,094
-443,065	210,579	0,113	-0,131
-442,051	61,738	0,078	-0,057
-441,036	-200,000	0,014	-0,086
-440,022	142,582	-0,067	-0,066
-439,007	65,033	-0,106	-0,079
-437,992	-71,757	0,120	-0,033
-436,978	-140,199	-0,139	0,011
-435,963	11,095	0,069	0,039
-434,949	268,235	0,097	0,125
-433,934	308,593	-0,066	0,092
-432,919	118,858	-0,069	-0,063
-431,905	745,269	-0,052	-0,104
-430,890	473,968	0,056	0,093
-429,876	-200,000	0,012	0,062
-428,861	-95,634	0,077	0,015
-427,846	166,251	-0,086	-0,090
-426,832	-200,000	0,013	-0,141
-425,817	-116,304	-0,085	-0,011
-424,803	-128,256	-0,079	0,008
-423,788	-200,000	-0,030	0,103
-422,773	-200,000	0,006	0,054
-421,759	74,030	0,050	-0,038
-420,744	307,605	0,071	-0,098
-419,730	-64,426	-0,082	-0,024
-418,715	800,000	0,031	-0,085
-417,701	-136,605	-0,101	0,008
-416,686	800,000	0,040	-0,130
-415,671	158,268	0,029	-0,029
-414,657	-200,000	0,011	0,091
-413,642	-18,235	0,071	0,033
-412,628	-32,414	-0,103	-0,042
-411,613	-105,341	-0,069	-0,011
-410,598	-200,000	0,009	-0,048
-409,584	-45,147	0,163	-0,059
-408,569	-87,173	0,064	-0,014
-407,555	221,088	0,084	-0,099
-406,540	229,254	0,065	0,078
-405,525	-141,759	-0,028	-0,002
-404,511	-200,000	0,033	-0,122
-403,496	-200,000	-0,034	-0,160
-402,482	-200,000	0,019	0,089
-401,467	247,072	-0,077	0,096
-400,452	728,660	0,028	-0,056
-399,438	130,160	-0,053	0,050
-398,423	-23,033	0,082	-0,036
-397,409	-132,098	0,014	0,001
-396,394	-119,361	-0,104	-0,013
-395,379	172,901	0,084	-0,089
-394,365	224,321	0,065	0,077
-393,350	68,955	-0,087	0,066
-392,336	141,937	0,013	-0,013
-391,321	-200,000	-0,009	-0,045
-390,306	-82,114	0,073	0,017
-389,292	-166,639	-0,039	-0,001
-388,277	800,000	-0,038	-0,095
-387,263	-200,000	-0,024	-0,146
-386,248	253,139	0,042	0,053
-385,233	-16,749	0,077	-0,036
-384,219	-107,915	-0,076	0,012
-383,204	800,000	-0,026	-0,057
-382,190	24,876	-0,150	0,091
-381,175	51,038	-0,060	-0,042
-380,160	-100,255	0,254	0,046
-379,146	23,118	0,092	0,056
-378,131	-1,050	0,072	-0,037
-377,117	40,162	0,063	0,042
-376,102	800,000	-0,075	0,170
-375,088	42,476	-0,111	-0,074
-374,073	-144,178	0,078	-0,005
-373,058	205,160	-0,087	0,100
-372,044	335,048	0,075	0,107
-371,029	428,744	-0,047	0,075
-370,015	31,817	-0,147	0,093
-369,000	-46,664	-0,065	0,023
-367,985	-200,000	-0,014	-0,255
-366,971	-200,000	-0,009	-0,162
-365,956	51,987	-0,121	-0,085
-364,942	43,218	0,136	0,091
-363,927	212,059	0,067	-0,077
-362,912	-53,412	-0,084	-0,028
-361,898	-104,273	-0,039	0,007
-360,883	-119,303	-0,113	-0,014
-359,869	-24,653	-0,143	-0,062
-358,854	-12,549	0,099	-0,047
-357,839	46,245	0,124	0,084
-356,825	-90,111	0,064	0,014
-355,810	-200,000	-0,016	0,087
-354,796	412,570	-0,014	-0,022
-353,781	443,599	-0,018	0,029
-352,766	-200,000	-0,017	-0,068
-351,752	303,646	0,013	0,018
-350,737	-200,000	0,001	0,151
-349,723	-200,000	0,022	0,078
-348,708	800,000	-0,054	0,123
-347,693	-47,790	0,063	0,022
-346,679	97,407	-0,063	-0,053
-345,664	-39,534	0,102	-0,039
-344,650	149,934	-0,046	0,046
-343,635	393,801	-0,082	0,125
-342,620	-119,817	0,094	-0,012
-341,606	-73,567	0,056	0,015
-340,591	-68,813	-0,056	-0,016
-339,577	490,039	-0,101	-0,169
-338,562	-200,000	-0,012	-0,119
-337,548	-200,000	-0,024	-0,097
-336,533	-80,113	0,138	-0,034
-335,518	142,954	-0,044	-0,043
-334,504	-6,660	-0,052	-0,026
-333,489	104,992	-0,061	0,053
-332,475	-70,322	-0,108	-0,030
-331,460	-78,855	0,093	-0,023
-330,445	-200,000	-0,007	0,081
-329,431	456,869	0,027	-0,044
-328,416	465,199	0,053	-0,087
-327,402	374,091	-0,086	0,129
-326,387	570,253	-0,032	-0,057
-325,372	279,859	-0,027	0,035
-324,358	-55,269	0,140	0,046
-323,343	-200,000	0,031	-0,150
-322,329	-135,209	0,039	0,003
-321,314	201,132	0,128	-0,144
-320,299	800,000	0,033	-0,091
-319,285	-1,968	0,078	0,040
-318,270	-200,000	-0,026	0,150
-317,256	93,421	-0,006	0,005
-316,241	97,111	0,108	0,090
-315,226	-200,000	-0,005	-0,073
-314,212	145,166	-0,088	-0,086
-313,197	-181,852	0,110	0,002
-312,183	-156,366	-0,123	0,006
-311,168	-200,000	0,009	-0,054
-310,153	-148,454	0,150	-0,009
-309,139	-57,426	0,116	0,037
-308,124	800,000	-0,083	0,198
-307,110	-200,000	-0,009	0,068
-306,095	251,211	0,086	0,107
-305,080	-129,421	-0,123	-0,012
-304,066	24,111	0,063	-0,038
-303,051	-56,647	-0,162	-0,052
-302,037	41,618	-0,011	0,008
-301,022	362,161	0,068	-0,100
-300,008	-142,169	0,077	0,006
-298,993	800,000	0,049	0,123
-297,978	-142,839	0,114	0,008
-296,964	70,584	-0,111	-0,084
-295,949	81,055	0,043	0,034
-294,935	-34,083	0,065	-0,026
-293,920	75,734	-0,059	0,046
-292,905	-44,528	-0,046	0,017
-291,891	200,262	0,082	0,092
-290,876	427,196	-0,078	0,124
-289,862	199,465	-0,056	0,063
-288,847	800,000	0,034	-0,098
-287,832	-173,508	-0,141	0,003
-286,818	27,660	-0,027	-0,017
-285,803	-38,589	-0,046	0,018
-284,789	-200,000	0,015	0,111
-283,774	19,295	0,133	0,078
-282,759	-119,627	-0,085	-0,011
-281,745	267,827	-0,127	-0,164
-280,730	65,760	0,060	-0,044
-279,716	-53,809	-0,092	-0,030
-278,701	102,976	0,051	-0,044
-277,686	-200,000	-0,009	0,103
-276,672	355,977	0,063	0,092
-275,657	63,247	-0,074	0,054
-274,643	-114,330	0,026	0,004
-273,628	192,339	-0,036	-0,039
-272,613	36,896	-0,064	0,042
-271,599	-6,133	0,146	0,073
-270,584	139,901	-0,019	0,018
-269,570	209,368	-0,064	-0,074
-268,555	85,161	-0,048	-0,038
-267,540	260,611	0,048	0,061
-266,526	238,989	-0,116	-0,142
-265,511	800,000	0,044	0,120
-264,497	-200,000	-0,026	-0,128
-263,482	800,000	0,068	0,179
-262,467	338,175	0,095	0,135
-261,453	229,252	0,128	0,153
-260,438	800,000	-0,020	-0,053
-259,424	348,245	-0,059	-0,085
-258,409	664,342	-0,025	0,047
-257,395	800,000	-0,083	0,169
-256,380	-200,000	-0,003	0,101
-255,365	-120,193	0,095	-0,012
-254,351	142,134	0,041	0,040
-253,336	800,000	-0,027	-0,057
-252,322	66,312	-0,065	-0,048
-251,307	-60,682	0,108	0,033
-250,292	183,606	0,088	-0,095
-249,278	-44,712	0,068	-0,025
-248,263	-87,772	0,046	-0,010
-247,249	254,342	0,128	0,160
-246,234	-71,550	0,051	-0,014
-245,219	683,027	-0,060	-0,115
-244,205	579,117	-0,083	-0,149
-243,190	800,000	0,045	-0,097
-242,176	37,188	0,024	0,015
-241,161	-17,063	-0,068	-0,031
-240,146	-200,000	0,007	0,049
-239,132	94,600	-0,010	0,008
-238,117	800,000	0,029	-0,086
-237,103	-200,000	0,005	-0,184
-236,088	-200,000	0,010	-0,089
-235,073	-46,373	-0,146	0,052
-234,059	-57,788	0,054	0,017
-233,044	-68,518	0,170	0,048
-232,030	-94,143	-0,129	0,026
-231,015	57,073	-0,093	-0,066
-230,000	-163,311	0,037	0,001
-228,986	-93,886	-0,209	-0,042
-227,971	-167,447	-0,049	-0,001
-226,957	-164,372	-0,078	-0,003
-225,942	-115,598	-0,060	0,008
-224,927	800,000	0,054	0,112
-223,913	101,607	0,012	-0,010
-222,898	332,244	0,051	-0,071
-221,884	314,140	-0,062	-0,085
-220,869	800,000	0,026	0,054
-219,855	11,109	0,126	0,070
-218,840	56,720	0,067	-0,047
-217,825	77,907	-0,076	0,059
-216,811	-8,608	-0,129	-0,063
-215,796	307,085	-0,116	-0,158
-214,782	583,012	-0,014	-0,025
-213,767	-200,000	-0,000	-0,065
-212,752	-200,000	-0,000	0,067
-211,738	104,550	0,148	0,127
-210,723	-17,034	0,077	0,036
-209,709	168,949	-0,020	0,021
-208,694	134,778	-0,096	-0,091
-207,679	63,489	0,044	0,032
-206,665	-54,889	0,081	0,027
-205,650	91,672	0,091	0,075
-204,636	-119,887	0,288	0,036
-203,621	-111,564	-0,079	-0,012
-202,606	350,257	0,032	-0,046
-201,592	-108,098	-0,054	0,009
-200,577	-142,811	-0,087	0,006
-199,563	-143,687	0,141	0,010
-198,548	541,263	0,065	0,114
-197,533	800,000	0,072	0,150
-196,519	153,587	0,078	0,078
-195,504	800,000	-0,017	-0,036
-194,490	800,000	0,012	0,025
-193,475	800,000	-0,020	-0,054
-192,460	-58,941	0,080	0,025
-191,446	-87,358	0,096	0,021
-190,431	-200,000	-0,035	0,132
-189,417	29,038	0,178	-0,110
-188,402	-200,000	0,016	-0,111
-187,387	-102,810	-0,033	0,006
-186,373	-200,000	0,005	0,020
-185,358	-200,000	-0,010	0,093
-184,344	575,417	-0,055	-0,098
-183,329	-70,327	-0,083	-0,023
-182,315	-200,000	0,036	0,137
-181,300	-200,000	-0,003	0,009
-180,285	800,000	-0,043	-0,124
-179,271	321,608	-0,035	-0,049
-178,256	800,000	-0,025	-0,079
-177,242	133,537	0,008	-0,007
-176,227	-200,000	-0,003	0,015
-175,212	-200,000	-0,006	0,074
-174,198	-60,394	0,125	-0,039
-173,183	94,979	-0,060	-0,050
-172,169	-200,000	-0,061	-0,202
-171,154	183,074	-0,171	-0,185
-170,139	-92,072	0,015	-0,003
-169,125	7,414	0,112	-0,061
-168,110	800,000	0,026	0,070
-167,096	1,036	0,138	0,072
-166,081	427,903	-0,053	-0,084
-165,066	-52,746	0,144	-0,048
-164,052	-72,150	-0,046	-0,012
-163,037	-106,418	-0,025	0,004
-162,023	-189,028	0,099	-0,001
-161,008	-99,187	0,024	0,004
-159,993	-200,000	-0,018	0,101
-158,979	20,829	0,125	-0,074
-157,964	-200,000	0,022	-0,120
-156,950	354,208	-0,037	0,053
-155,935	115,974	0,049	-0,044
-154,920	14,580	0,054	0,031
-153,906	800,000	-0,079	0,191
-152,891	-104,870	0,096	0,016
-151,877	-175,489	-0,110	-0,002
-150,862	300,527	0,026	-0,035
-149,847	345,738	0,038	-0,055
-148,833	18,562	0,047	0,027
-147,818	71,574	-0,122	0,092
-146,804	-200,000	-0,009	0,066
-145,789	299,623	0,044	0,059
-144,775	-50,895	0,038	-0,013
-143,760	132,754	-0,034	-0,032
-142,745	-80,334	0,034	-0,008
-141,731	-200,000	-0,015	-0,052
-140,716	-200,000	-0,002	0,029
-139,702	8,722	-0,066	-0,036
-138,687	168,692	0,008	0,008
-137,672	-148,870	0,077	0,004
-136,658	800,000	0,045	-0,122
-135,643	-200,000	-0,001	0,123
-134,629	-109,800	-0,033	0,005
-133,614	45,452	0,117	-0,079
-132,599	426,269	-0,120	0,189
-131,585	-18,236	0,218	0,099
-130,570	427,477	0,012	0,019
-129,556	10,291	-0,057	0,032
-128,541	-169,569	0,166	0,004
-127,526	-9,430	-0,137	0,066
-126,512	800,000	-0,033	0,088
-125,497	47,224	-0,054	0,037
-124,483	224,100	0,061	0,072
-123,468	800,000	-0,020	0,052
-122,453	171,871	0,042	-0,044
-121,439	497,173	0,043	-0,072
-120,424	92,099	0,029	0,024
-119,410	229,949	-0,044	0,053
