DTS Sentinel unit serial number:	SN410029Multiplexer serial number:	ORYXHardware model number:	OX2-SRSoftware version number:	ORYX F/W v4,00 Oryx Data Collector v3.7.2.0data status	okinstallation	B6 Nyhavnadifferential loss correction	single-endedforward channel	channel 2reverse channel	N/Adate	2023/12/11time	06:45:08forward acquisition time	300,00reverse acquisition time	0,00gamma	499,1914k internal	0,3125k external	0,3125temperature offset calibration	1,0000default loss term (dB/km)	0,3820temperature slope calibration	1,0000multiplexer offset coefficient	1,0000multiplexer slope coefficient	1,0000fibre end	0,00T internal ref (°C)	19,39T ext. ref 1 (°C)	2,52T ext. ref 2 (°C)	2,57length (m)	temperature (°C)	Stokes	anti-Stokes-744,400	-84,711	0,085	-0,020
-743,385	-9,768	-0,156	0,077
-742,371	-160,315	0,090	-0,004
-741,356	190,006	-0,156	0,175
-740,342	-25,047	0,051	-0,023
-739,327	-95,700	-0,383	0,076
-738,312	710,186	-0,069	0,137
-737,298	-16,454	-0,318	0,149
-736,283	495,161	0,024	0,042
-735,269	-178,613	-0,203	-0,003
-734,254	-175,520	0,135	-0,003
-733,239	-29,369	-0,287	0,122
-732,225	-4,288	0,063	-0,032
-731,210	800,000	-0,007	0,022
-730,196	-143,926	-0,090	-0,006
-729,181	523,269	-0,034	-0,060
-728,167	800,000	0,025	-0,059
-727,152	-200,000	-0,015	0,069
-726,137	107,422	-0,080	0,071
-725,123	34,211	-0,138	-0,089
-724,108	-79,601	-0,079	0,020
-723,094	80,681	-0,107	-0,086
-722,079	63,416	-0,080	-0,060
-721,064	-6,164	0,182	0,092
-720,050	68,266	-0,120	0,092
-719,035	-200,000	0,003	-0,183
-718,021	-143,173	-0,078	0,006
-717,006	800,000	0,011	-0,028
-715,991	247,613	-0,065	-0,082
-714,977	485,917	-0,060	-0,101
-713,962	800,000	-0,053	-0,119
-712,948	800,000	-0,002	-0,004
-711,933	-13,937	-0,043	0,020
-710,918	-42,332	-0,053	0,020
-709,904	-200,000	-0,010	-0,079
-708,889	-58,224	0,073	0,024
-707,875	-85,815	-0,067	-0,015
-706,860	403,141	-0,055	-0,086
-705,845	49,237	-0,147	-0,103
-704,831	-107,143	-0,026	0,004
-703,816	-200,000	-0,008	0,072
-702,802	-200,000	0,001	-0,004
-701,787	376,409	0,022	-0,034
-700,772	-124,213	-0,066	0,008
-699,758	800,000	-0,036	-0,091
-698,743	-62,047	0,114	0,035
-697,729	800,000	0,036	0,083
-696,714	-177,843	0,066	0,001
-695,699	164,758	-0,079	-0,083
-694,685	71,007	-0,097	-0,075
-693,670	18,207	0,142	-0,084
-692,656	-200,000	-0,002	-0,171
-691,641	35,723	-0,044	0,029
-690,627	-58,733	-0,158	-0,050
-689,612	-200,000	0,014	-0,072
-688,597	-55,190	-0,157	-0,052
-687,583	-8,195	-0,075	0,037
-686,568	182,744	0,033	0,036
-685,554	-90,588	0,145	-0,031
-684,539	-200,000	0,029	-0,181
-683,524	-22,658	-0,058	-0,026
-682,510	-32,334	-0,022	0,009
-681,495	330,146	0,056	0,080
-680,481	-200,000	-0,009	0,057
-679,466	800,000	-0,039	-0,120
-678,451	-200,000	0,002	-0,028
-677,437	-26,692	-0,082	-0,035
-676,422	110,558	-0,020	0,017
-675,408	132,417	0,087	-0,084
-674,393	213,977	-0,033	0,038
-673,378	180,330	-0,105	-0,115
-672,364	727,869	-0,060	-0,119
-671,349	-200,000	-0,028	-0,107
-670,335	359,874	0,113	0,168
-669,320	-200,000	0,025	0,170
-668,305	-200,000	-0,040	0,154
-667,291	-200,000	0,012	-0,098
-666,276	-13,157	-0,034	-0,016
-665,262	184,745	-0,022	0,024
-664,247	-70,802	-0,100	-0,028
-663,232	294,582	0,006	-0,008
-662,218	-200,000	0,017	0,061
-661,203	72,415	0,158	0,122
-660,189	190,115	-0,037	0,041
-659,174	-200,000	-0,008	-0,047
-658,159	-0,651	-0,114	0,060
-657,145	-59,297	-0,137	-0,043
-656,130	-200,000	0,019	0,093
-655,116	162,279	0,043	0,045
-654,101	800,000	-0,018	0,045
-653,086	-200,000	0,019	0,140
-652,072	-115,567	-0,119	0,016
-651,057	175,047	-0,026	-0,028
-650,043	404,364	-0,029	-0,046
-649,028	328,584	0,056	-0,081
-648,014	582,656	0,063	0,116
-646,999	-200,000	-0,031	-0,158
-645,984	-29,493	0,023	-0,010
-644,970	238,616	-0,050	0,062
-643,955	-87,519	0,046	0,010
-642,941	-2,231	-0,174	-0,091
-641,926	4,558	-0,071	0,038
-640,911	546,762	-0,011	0,020
-639,897	70,202	-0,080	-0,061
-638,882	5,092	-0,090	-0,049
-637,868	800,000	-0,058	-0,126
-636,853	800,000	-0,078	-0,249
-635,838	172,557	-0,037	-0,039
-634,824	-96,646	-0,078	0,015
-633,809	27,099	-0,087	-0,054
-632,795	-200,000	0,002	0,086
-631,780	11,696	0,093	0,053
-630,765	72,819	0,007	-0,005
-629,751	-200,000	0,007	0,052
-628,736	753,427	0,043	-0,087
-627,722	151,460	0,055	-0,056
-626,707	12,067	-0,066	0,038
-625,692	800,000	-0,013	0,033
-624,678	674,105	-0,036	0,069
-623,663	320,464	0,028	-0,040
-622,649	-200,000	-0,004	-0,038
-621,634	-117,815	0,143	-0,019
-620,619	763,718	-0,052	0,104
-619,605	-65,685	0,110	0,033
-618,590	-36,919	0,064	0,025
-617,576	55,459	0,036	0,026
-616,561	-18,961	-0,209	-0,096
-615,546	-200,000	-0,049	-0,197
-614,532	442,334	-0,041	-0,067
-613,517	-151,171	-0,132	0,007
-612,503	588,105	-0,048	-0,088
-611,488	49,248	-0,019	0,013
-610,474	-200,000	-0,006	-0,024
-609,459	165,597	-0,072	0,076
-608,444	228,455	-0,030	-0,036
-607,430	57,085	-0,077	-0,056
-606,415	41,971	0,052	0,035
-605,401	62,392	-0,083	-0,062
-604,386	32,407	-0,018	0,011
-603,371	274,662	-0,042	-0,056
-602,357	56,119	-0,051	-0,036
-601,342	110,448	-0,038	-0,034
-600,328	-200,000	-0,039	-0,130
-599,313	28,735	0,091	0,057
-598,298	-200,000	-0,000	-0,002
-597,284	-200,000	-0,017	-0,145
-596,269	800,000	0,007	0,021
-595,255	355,225	0,069	0,102
-594,240	462,413	0,038	-0,063
-593,225	800,000	-0,053	-0,115
-592,211	-17,017	-0,097	-0,045
-591,196	-200,000	-0,002	-0,064
-590,182	128,393	0,055	-0,052
-589,167	112,869	0,081	0,073
-588,152	28,529	0,046	0,029
-587,138	-174,425	0,008	0,000
-586,123	46,661	-0,077	-0,053
-585,109	113,690	-0,075	-0,067
-584,094	78,938	0,077	0,061
-583,079	-200,000	-0,013	-0,076
-582,065	64,444	-0,074	0,055
-581,050	17,707	0,127	0,074
-580,036	-23,733	0,028	0,012
-579,021	437,126	-0,084	0,136
-578,006	83,254	-0,154	-0,124
-576,992	-200,000	0,010	-0,122
-575,977	669,714	0,080	0,154
-574,963	26,860	-0,054	0,034
-573,948	-200,000	0,009	-0,080
-572,934	233,586	0,062	-0,075
-571,919	-111,771	0,057	-0,008
-570,904	4,416	-0,078	0,042
-569,890	-200,000	0,008	0,062
-568,875	-95,179	0,176	-0,035
-567,861	-200,000	0,003	0,032
-566,846	81,989	0,043	0,034
-565,831	162,876	-0,097	-0,101
-564,817	43,636	-0,082	-0,056
-563,802	-200,000	0,006	-0,080
-562,788	800,000	0,017	-0,037
-561,773	23,341	-0,059	0,036
-560,758	36,702	0,113	-0,074
-559,744	-200,000	0,011	-0,139
-558,729	110,252	-0,164	0,146
-557,715	-59,610	-0,068	-0,021
-556,700	759,773	0,020	0,040
-555,685	54,165	-0,009	-0,006
-554,671	184,082	0,024	-0,026
-553,656	-200,000	-0,005	-0,019
-552,642	159,474	0,126	0,130
-551,627	352,070	-0,048	0,070
-550,612	211,421	0,023	-0,027
-549,598	89,365	0,030	0,024
-548,583	-200,000	-0,001	-0,031
-547,569	768,153	-0,035	0,070
-546,554	-75,315	0,150	0,039
-545,539	73,814	0,061	-0,047
-544,525	310,766	0,067	-0,093
-543,510	178,738	0,068	-0,073
-542,496	-42,460	-0,090	0,034
-541,481	94,832	-0,069	-0,058
-540,466	144,192	-0,061	-0,060
-539,452	800,000	0,006	-0,016
-538,437	-126,595	0,060	0,007
-537,423	351,718	-0,062	0,091
-536,408	800,000	-0,043	0,128
-535,393	800,000	-0,039	-0,105
-534,379	50,134	0,162	-0,113
-533,364	-200,000	0,002	-0,034
-532,350	800,000	-0,045	0,095
-531,335	137,085	0,059	0,057
-530,321	-104,905	0,227	0,038
-529,306	-1,668	-0,189	-0,098
-528,291	-200,000	-0,005	0,020
-527,277	556,620	-0,023	0,042
-526,262	-47,700	-0,027	-0,010
-525,248	-97,348	0,095	0,018
-524,233	-200,000	-0,006	-0,088
-523,218	465,022	0,090	-0,149
-522,204	-123,327	0,070	0,008
-521,189	129,700	0,035	-0,033
-520,175	-10,638	0,182	-0,088
-519,160	226,479	-0,092	0,111
-518,145	226,628	0,052	-0,063
-517,131	132,689	0,075	-0,072
-516,116	-200,000	0,046	0,167
-515,102	-200,000	0,017	0,084
-514,087	-200,000	-0,004	0,139
-513,072	-141,395	-0,161	0,012
-512,058	191,083	0,053	-0,059
-511,043	-112,832	0,106	-0,015
-510,029	800,000	-0,029	0,067
-509,014	117,168	-0,041	-0,037
-507,999	800,000	-0,061	-0,127
-506,985	-47,277	-0,025	-0,009
-505,970	-89,968	0,038	-0,008
-504,956	-200,000	-0,006	-0,139
-503,941	87,766	-0,123	-0,100
-502,926	-200,000	0,011	0,193
-501,912	-5,672	0,056	0,028
-500,897	800,000	0,012	0,037
-499,883	219,880	-0,133	0,158
-498,868	30,943	-0,061	-0,038
-497,853	607,568	-0,042	-0,077
-496,839	162,672	0,057	-0,059
-495,824	-200,000	0,033	0,118
-494,810	-44,856	0,056	0,020
-493,795	-97,111	0,036	0,007
-492,781	-200,000	0,019	0,093
-491,766	-163,039	-0,138	0,005
-490,751	189,048	-0,019	0,021
-489,737	-200,000	0,030	-0,115
-488,722	-167,430	0,124	0,004
-487,708	-97,394	0,082	0,016
-486,693	-53,003	-0,125	0,042
-485,678	800,000	0,055	0,117
-484,664	-3,593	0,043	0,022
-483,649	-120,630	-0,067	0,008
-482,635	-32,376	-0,094	-0,039
-481,620	800,000	0,029	-0,069
-480,605	-35,797	0,006	-0,002
-479,591	2,905	0,093	-0,049
-478,576	-200,000	-0,003	-0,020
-477,562	800,000	0,030	-0,075
-476,547	416,649	-0,129	-0,203
-475,532	-83,537	0,057	0,013
-474,518	-186,433	0,039	-0,000
-473,503	28,515	-0,146	-0,091
-472,489	8,783	0,022	-0,012
-471,474	-21,927	-0,098	-0,044
-470,459	-42,402	-0,131	0,049
-469,445	800,000	0,036	-0,077
-468,430	-200,000	-0,101	0,000
-467,416	-200,000	-0,041	0,138
-466,401	118,594	-0,090	0,082
-465,386	-54,418	0,171	0,057
-464,372	21,454	0,098	0,058
-463,357	-200,000	-0,039	0,134
-462,343	219,420	-0,125	-0,148
-461,328	-200,000	-0,011	-0,079
-460,313	-200,000	-0,005	-0,025
-459,299	-44,776	0,158	0,058
-458,284	-76,347	0,103	-0,027
-457,270	16,396	0,155	0,090
-456,255	-200,000	-0,016	-0,166
-455,241	800,000	-0,028	0,085
-454,226	13,778	-0,066	0,038
-453,211	-200,000	0,002	-0,054
-452,197	176,757	0,118	0,126
-451,182	-200,000	0,013	0,102
-450,168	15,690	0,073	-0,042
-449,153	225,947	0,084	0,101
-448,138	-144,591	-0,209	-0,014
-447,124	-200,000	-0,009	-0,083
-446,109	405,729	-0,056	-0,088
-445,095	-200,000	0,014	0,199
-444,080	352,851	-0,031	-0,045
-443,065	560,544	-0,086	0,153
-442,051	-200,000	0,005	0,104
-441,036	-1,425	-0,116	-0,060
-440,022	292,977	0,033	-0,045
-439,007	-57,179	0,094	0,030
-437,992	107,304	-0,068	0,060
-436,978	289,216	0,022	0,029
-435,963	-62,532	0,114	0,035
-434,949	-200,000	-0,009	0,030
-433,934	-200,000	0,006	-0,102
-432,919	-200,000	-0,006	0,025
-431,905	-140,406	-0,155	-0,012
-430,890	382,834	0,018	0,028
-429,876	-156,786	0,028	-0,001
-428,861	86,279	0,032	-0,026
-427,846	238,601	0,056	-0,069
-426,832	-200,000	0,003	-0,126
-425,817	62,068	-0,065	-0,048
-424,803	-200,000	0,017	-0,078
-423,788	-18,387	0,092	0,042
-422,773	-200,000	0,018	-0,111
-421,759	-106,755	0,048	-0,008
-420,744	-200,000	-0,009	0,058
-419,730	-200,000	-0,013	0,066
-418,715	800,000	-0,055	-0,138
-417,701	-200,000	0,001	-0,034
-416,686	17,485	0,057	0,033
-415,671	130,807	0,092	-0,087
-414,657	78,041	0,061	0,048
-413,642	548,786	0,059	0,104
-412,628	744,271	-0,083	-0,165
-411,613	-156,513	0,010	0,000
-410,598	800,000	-0,026	0,054
-409,584	188,065	-0,082	0,090
-408,569	-52,266	-0,039	0,013
-407,555	-139,852	0,128	-0,010
-406,540	800,000	-0,077	-0,169
-405,525	68,739	-0,060	0,045
-404,511	-96,199	0,058	-0,011
-403,496	-200,000	-0,011	-0,060
-402,482	-200,000	-0,016	0,165
-401,467	800,000	0,034	0,098
-400,452	488,969	0,066	0,111
-399,438	-200,000	-0,017	0,126
-398,423	-200,000	0,007	0,050
-397,409	-200,000	-0,003	-0,044
-396,394	800,000	-0,045	-0,130
-395,379	35,082	-0,075	0,048
-394,365	277,555	-0,058	0,076
-393,350	-101,664	0,038	-0,007
-392,336	800,000	-0,068	0,152
-391,321	800,000	-0,026	0,056
-390,306	800,000	0,015	-0,041
-389,292	161,151	-0,066	0,068
-388,277	-3,576	-0,091	0,046
-387,263	79,437	0,054	0,042
-386,248	-30,135	-0,203	-0,084
-385,233	574,129	0,059	0,107
-384,219	590,495	0,020	-0,036
-383,204	-99,833	0,078	0,014
-382,190	165,693	-0,043	0,044
-381,175	800,000	-0,032	-0,071
-380,160	-200,000	0,003	0,018
-379,146	279,396	0,057	0,075
-378,131	-138,839	-0,092	-0,007
-377,117	66,223	-0,009	0,007
-376,102	-200,000	-0,012	-0,105
-375,088	-200,000	0,019	0,092
-374,073	-200,000	0,004	0,030
-373,058	-10,468	-0,150	0,073
-372,044	-85,445	-0,040	0,009
-371,029	-38,679	0,165	0,064
-370,015	12,951	-0,063	0,036
-369,000	-200,000	0,022	-0,074
-367,985	156,301	-0,045	0,046
-366,971	107,128	-0,110	-0,096
-365,956	535,499	-0,053	-0,093
-364,942	-100,611	0,092	0,017
-363,927	-58,089	0,093	0,029
-362,912	241,448	0,027	0,033
-361,898	-200,000	0,010	0,129
-360,883	67,523	-0,102	-0,077
-359,869	554,616	-0,032	0,057
-358,854	-131,682	0,151	0,014
-357,839	-98,901	0,091	-0,017
-356,825	38,219	-0,062	-0,040
-355,810	230,657	0,104	0,125
-354,796	-18,833	-0,066	-0,030
-353,781	90,006	0,017	-0,014
-352,766	153,296	0,082	0,082
-351,752	121,241	-0,128	-0,117
-350,737	310,322	-0,050	0,069
-349,723	-48,399	-0,070	0,024
-348,708	-140,795	0,092	0,007
-347,693	-200,000	0,002	-0,046
-346,679	-200,000	-0,014	-0,091
-345,664	-50,566	-0,096	0,033
-344,650	84,016	0,117	-0,094
-343,635	-200,000	0,001	-0,030
-342,620	-44,198	0,167	0,061
-341,606	464,276	-0,065	-0,106
-340,591	348,809	-0,017	-0,024
-339,577	-200,000	-0,006	0,133
-338,562	-68,882	-0,114	-0,032
-337,548	420,776	-0,041	0,065
-336,533	800,000	0,029	0,064
-335,518	34,480	0,065	0,042
-334,504	96,183	-0,103	0,086
-333,489	-99,562	0,065	-0,012
-332,475	563,854	-0,055	0,098
-331,460	-67,519	-0,139	-0,040
-330,445	3,807	0,033	-0,018
-329,431	-50,290	0,121	0,042
-328,416	-103,338	-0,037	-0,006
-327,402	408,297	0,019	0,029
-326,387	403,765	0,057	-0,088
-325,372	11,956	0,028	-0,016
-324,358	-0,682	-0,058	0,030
-323,343	-189,963	0,100	-0,001
-322,329	-84,509	0,095	-0,022
-321,314	-97,461	0,127	0,024
-320,299	-200,000	-0,052	0,205
-319,285	439,992	0,040	0,064
-318,270	-77,219	0,089	0,023
-317,256	124,379	-0,138	-0,127
-316,241	-97,795	-0,036	-0,007
-315,226	-11,293	0,081	0,039
-314,212	-200,000	-0,128	0,000
-313,197	800,000	-0,037	0,102
-312,183	437,951	-0,028	-0,045
-311,168	14,585	-0,065	-0,037
-310,153	-200,000	0,010	-0,045
-309,139	155,941	0,069	0,070
-308,124	126,806	0,077	0,072
-307,110	-132,016	0,122	0,012
-306,095	-100,017	0,059	0,011
-305,080	-200,000	-0,004	0,018
-304,066	800,000	0,002	0,006
-303,051	-66,097	-0,079	0,023
-302,037	-146,301	0,073	-0,005
-301,022	71,537	0,049	-0,037
-300,008	-129,838	0,149	-0,015
-298,993	-200,000	0,012	0,083
-297,978	115,969	0,095	0,085
-296,964	637,511	0,059	-0,111
-295,949	800,000	-0,008	0,018
-294,935	-51,009	-0,123	-0,042
-293,920	-200,000	0,017	-0,189
-292,905	-173,886	0,197	0,004
-291,891	155,594	0,120	0,121
-290,876	49,661	-0,063	0,043
-289,862	-200,000	0,008	-0,038
-288,847	5,915	-0,101	-0,054
-287,832	506,682	0,073	0,124
-286,818	800,000	-0,003	0,007
-285,803	-95,339	-0,034	0,007
-284,789	-4,000	0,124	-0,063
-283,774	-38,873	-0,046	-0,018
-282,759	239,126	-0,022	-0,027
-281,745	7,526	-0,038	0,021
-280,730	-200,000	0,011	-0,048
-279,716	-200,000	0,001	-0,032
-278,701	-200,000	-0,003	-0,147
-277,686	-54,911	0,079	0,026
-276,672	-17,856	-0,140	0,064
-275,657	-131,352	0,153	0,015
-274,643	511,101	-0,048	-0,081
-273,628	-128,431	0,108	-0,011
-272,613	265,493	-0,028	-0,035
-271,599	-103,699	-0,073	0,012
-270,584	-39,273	-0,126	0,048
-269,570	800,000	0,062	0,196
-268,555	-200,000	-0,012	0,055
-267,540	119,803	0,024	-0,022
-266,526	-200,000	0,023	0,161
-265,511	-115,183	-0,137	0,019
-264,497	-101,546	0,124	0,022
-263,482	216,526	0,088	0,103
-262,467	285,819	-0,054	0,071
-261,453	-200,000	0,048	-0,189
-260,438	800,000	-0,025	0,052
-259,424	-200,000	0,008	0,038
-258,409	800,000	-0,051	-0,144
-257,395	-6,600	0,030	-0,015
-256,380	64,914	-0,040	0,030
-255,365	-52,915	-0,079	0,026
-254,351	-3,086	-0,062	0,031
-253,336	-36,996	0,081	-0,031
-252,322	-200,000	0,006	0,110
-251,307	263,076	-0,085	0,109
-250,292	194,318	-0,010	-0,011
-249,278	-70,549	0,137	-0,038
-248,263	81,925	-0,131	0,103
-247,249	634,401	-0,041	0,077
-246,234	-200,000	-0,002	-0,154
-245,219	421,744	-0,059	-0,093
-244,205	-200,000	-0,026	-0,129
-243,190	-200,000	0,004	0,068
-242,176	136,540	0,027	-0,026
-241,161	-200,000	0,017	-0,055
-240,146	-200,000	-0,012	-0,091
-239,132	476,941	-0,006	0,011
-238,117	215,144	-0,087	-0,101
-237,103	-110,298	0,095	-0,014
-236,088	-79,092	-0,179	-0,044
-235,073	-39,270	0,039	-0,015
-234,059	-81,593	-0,078	0,019
-233,044	-119,015	0,060	0,008
-232,030	165,529	-0,106	-0,109
-231,015	800,000	-0,075	0,166
-230,000	800,000	-0,056	0,170
-228,986	391,726	-0,009	-0,014
-227,971	-34,122	0,033	0,013
-226,957	-40,641	0,128	0,048
-225,942	800,000	-0,026	-0,062
-224,927	-200,000	0,014	0,088
-223,913	-57,977	0,154	0,049
-222,898	800,000	-0,054	0,117
-221,884	144,123	0,019	0,018
-220,869	104,876	0,085	0,073
-219,855	368,726	0,041	0,061
-218,840	253,232	-0,035	-0,044
-217,825	-200,000	-0,001	0,061
-216,811	-99,149	0,044	-0,008
-215,796	-84,781	-0,115	0,026
-214,782	28,738	-0,069	0,042
-213,767	-200,000	0,010	0,076
-212,752	338,355	-0,063	0,090
-211,738	-200,000	0,005	-0,017
-210,723	-16,378	0,068	-0,031
-209,709	685,344	0,031	-0,059
-208,694	800,000	-0,013	-0,037
-207,679	800,000	-0,033	-0,097
-206,665	-200,000	0,026	-0,130
-205,650	-161,852	-0,040	-0,001
-204,636	-39,583	0,065	-0,025
-203,621	-29,870	0,082	-0,034
-202,606	-113,350	-0,052	-0,007
-201,592	-95,352	-0,041	0,008
-200,577	-44,267	-0,081	0,030
-199,563	-200,000	0,009	-0,053
-198,548	-137,904	0,178	0,014
-197,533	265,777	0,127	-0,162
-196,519	213,198	0,021	-0,024
-195,504	127,667	-0,085	-0,078
-194,490	113,936	0,073	-0,065
-193,475	461,266	0,029	-0,048
-192,460	-200,000	-0,024	-0,094
-191,446	-161,177	0,118	0,004
-190,431	257,867	-0,055	0,070
-189,417	-86,886	-0,072	0,016
-188,402	96,829	-0,069	-0,058
-187,387	97,142	-0,098	-0,082
-186,373	-33,266	0,137	-0,055
-185,358	800,000	0,051	-0,119
-184,344	800,000	-0,046	-0,098
-183,329	51,942	0,126	0,087
-182,315	-200,000	-0,026	0,086
-181,300	342,983	-0,109	0,156
-180,285	-200,000	0,030	-0,108
-179,271	-200,000	-0,033	-0,109
-178,256	-200,000	-0,001	-0,072
-177,242	43,620	0,061	0,040
-176,227	52,251	0,120	0,083
-175,212	623,586	0,025	-0,045
-174,198	-200,000	-0,005	-0,068
-173,183	-200,000	0,004	-0,055
-172,169	551,293	-0,050	0,089
-171,154	394,418	0,002	-0,002
-170,139	-45,116	0,039	-0,014
-169,125	-76,863	0,032	0,008
-168,110	238,951	0,066	0,080
-167,096	800,000	0,060	0,129
-166,081	-200,000	0,019	0,107
-165,066	126,366	-0,019	-0,017
-164,052	503,728	-0,036	0,061
-163,037	377,025	0,046	0,069
-162,023	-200,000	0,002	0,151
-161,008	-63,540	0,093	0,027
-159,993	-167,085	-0,224	0,007
-158,979	-115,522	0,071	-0,010
-157,964	-200,000	-0,018	-0,084
-156,950	-38,204	0,139	0,053
-155,935	-200,000	-0,001	0,043
-154,920	800,000	-0,038	0,111
-153,906	-27,924	0,151	-0,064
-152,891	-15,449	-0,227	-0,105
-151,877	800,000	-0,043	0,087
-150,862	-108,381	0,045	-0,007
-149,847	364,737	0,043	-0,064
-148,833	40,567	0,080	0,053
-147,818	190,560	-0,125	0,137
-146,804	-200,000	-0,006	0,076
-145,789	-32,182	0,006	-0,002
-144,775	800,000	-0,027	0,057
-143,760	-200,000	0,001	-0,059
-142,745	92,878	-0,046	-0,038
-141,731	-45,434	-0,045	0,016
-140,716	800,000	0,034	-0,070
-139,702	442,144	-0,096	0,153
-138,687	-165,977	-0,116	0,004
-137,672	-200,000	-0,020	0,106
-136,658	-58,501	0,055	-0,017
-135,643	88,974	0,067	0,054
-134,629	-157,344	0,067	0,003
-133,614	-40,440	-0,049	0,018
-132,599	153,886	0,030	-0,030
-131,585	-200,000	0,013	0,048
-130,570	800,000	0,035	-0,079
-129,556	-100,406	-0,096	0,017
-128,541	455,230	0,033	-0,054
-127,526	371,164	0,046	-0,069
-126,512	-33,387	0,075	0,030
-125,497	3,071	0,128	0,068
-124,483	-38,718	-0,105	-0,040
-123,468	800,000	-0,032	0,084
-122,453	-200,000	-0,007	-0,035
-121,439	38,413	-0,117	-0,076
-120,424	800,000	0,036	-0,096
-119,410	-200,000	0,015	0,051
