DTS Sentinel unit serial number:	SN410029Multiplexer serial number:	ORYXHardware model number:	OX2-SRSoftware version number:	ORYX F/W v4,00 Oryx Data Collector v3.7.2.0data status	okinstallation	B6 Nyhavnadifferential loss correction	single-endedforward channel	channel 2reverse channel	N/Adate	2023/12/07time	11:15:08forward acquisition time	300,00reverse acquisition time	0,00gamma	499,1914k internal	0,3200k external	0,3200temperature offset calibration	1,0000default loss term (dB/km)	0,3820temperature slope calibration	1,0000multiplexer offset coefficient	1,0000multiplexer slope coefficient	1,0000fibre end	0,00T internal ref (°C)	8,09T ext. ref 1 (°C)	-5,93T ext. ref 2 (°C)	-5,95length (m)	temperature (°C)	Stokes	anti-Stokes-744,400	-116,668	0,228	0,030
-743,385	99,451	-0,281	-0,236
-742,371	-181,163	0,079	0,001
-741,356	-149,986	-0,458	-0,026
-740,342	-94,936	0,341	0,067
-739,327	-52,078	-0,460	-0,154
-738,312	297,927	0,034	-0,046
-737,298	-43,028	-0,400	-0,147
-736,283	23,711	0,136	0,081
-735,269	-100,482	-0,273	-0,049
-734,254	-200,000	-0,008	0,068
-733,239	76,146	-0,456	-0,351
-732,225	124,016	0,136	0,124
-731,210	-200,000	-0,014	0,140
-730,196	158,302	-0,083	-0,083
-729,181	512,003	0,028	0,048
-728,167	50,782	-0,088	-0,061
-727,152	498,232	-0,097	-0,163
-726,137	356,401	-0,037	-0,053
-725,123	-200,000	0,036	-0,150
-724,108	-71,121	-0,164	-0,045
-723,094	-200,000	0,028	-0,181
-722,079	67,577	-0,136	-0,101
-721,064	555,672	-0,022	0,038
-720,050	145,658	0,062	-0,061
-719,035	105,212	-0,074	0,064
-718,021	216,922	-0,057	-0,066
-717,006	-115,980	-0,091	0,012
-715,991	-109,576	-0,068	0,010
-714,977	-71,015	-0,040	-0,011
-713,962	-200,000	0,007	0,024
-712,948	191,510	-0,101	0,111
-711,933	-200,000	-0,001	0,026
-710,918	-145,042	-0,041	-0,003
-709,904	417,691	-0,068	0,106
-708,889	7,089	0,080	0,043
-707,875	-56,912	-0,103	0,033
-706,860	31,410	-0,052	-0,033
-705,845	-73,573	0,186	-0,049
-704,831	800,000	-0,035	0,110
-703,816	800,000	-0,026	-0,070
-702,802	800,000	-0,042	-0,113
-701,787	265,608	-0,063	0,080
-700,772	-47,249	-0,058	-0,020
-699,758	-200,000	-0,027	0,090
-698,743	-73,099	0,113	0,030
-697,729	800,000	0,061	0,132
-696,714	-29,758	-0,030	0,012
-695,699	-6,043	0,059	0,029
-694,685	800,000	0,062	-0,170
-693,670	-42,009	-0,071	-0,026
-692,656	112,852	-0,105	0,093
-691,641	800,000	0,033	0,077
-690,627	800,000	-0,073	0,200
-689,612	-200,000	0,027	-0,094
-688,597	185,543	-0,035	0,037
-687,583	-58,242	-0,100	-0,031
-686,568	216,163	-0,084	0,097
-685,554	-200,000	-0,014	-0,058
-684,539	-200,000	0,024	-0,104
-683,524	89,456	0,073	0,059
-682,510	-75,115	-0,066	-0,017
-681,495	108,822	-0,123	-0,107
-680,481	222,896	-0,079	-0,093
-679,466	430,034	-0,040	-0,063
-678,451	-35,952	0,011	-0,004
-677,437	800,000	0,049	0,121
-676,422	-116,360	-0,053	-0,007
-675,408	65,990	0,048	-0,036
-674,393	-200,000	0,018	0,133
-673,378	111,769	0,027	0,024
-672,364	68,584	0,094	-0,070
-671,349	-77,683	-0,098	0,024
-670,335	-200,000	0,021	0,077
-669,320	-127,196	0,089	-0,009
-668,305	-90,269	-0,053	0,011
-667,291	-36,733	0,084	0,033
-666,276	17,848	-0,104	0,060
-665,262	-17,952	-0,100	0,045
-664,247	-200,000	-0,006	-0,126
-663,232	392,949	0,044	-0,067
-662,218	-54,960	0,064	0,021
-661,203	413,803	-0,023	0,035
-660,189	-200,000	-0,006	0,023
-659,174	249,026	-0,047	-0,058
-658,159	-43,543	-0,137	-0,050
-657,145	-184,352	-0,115	0,001
-656,130	174,824	0,089	-0,094
-655,116	-200,000	-0,006	-0,198
-654,101	-36,025	-0,109	-0,042
-653,086	-6,923	0,069	0,034
-652,072	-130,842	-0,104	-0,010
-651,057	43,556	-0,051	0,034
-650,043	49,090	-0,107	-0,073
-649,028	-200,000	0,003	-0,122
-648,014	-64,278	-0,053	0,015
-646,999	-200,000	-0,000	0,012
-645,984	-36,485	-0,035	0,014
-644,970	800,000	-0,034	-0,072
-643,955	-116,242	0,010	-0,001
-642,941	-123,008	-0,103	0,012
-641,926	-200,000	0,004	-0,050
-640,911	-11,624	-0,057	-0,027
-639,897	-47,953	-0,073	-0,025
-638,882	21,489	-0,181	-0,107
-637,868	-200,000	-0,018	0,069
-636,853	800,000	-0,056	-0,134
-635,838	-76,545	0,060	-0,015
-634,824	-123,551	-0,221	-0,025
-633,809	-200,000	0,001	0,096
-632,795	144,163	0,059	0,057
-631,780	-200,000	-0,027	-0,161
-630,765	144,487	0,080	-0,077
-629,751	-200,000	0,013	0,084
-628,736	96,629	-0,047	-0,039
-627,722	-134,443	-0,091	0,008
-626,707	146,897	0,062	-0,060
-625,692	800,000	0,010	-0,021
-624,678	100,714	0,062	-0,052
-623,663	-67,457	-0,083	0,023
-622,649	-111,253	-0,185	0,027
-621,634	-200,000	0,019	0,079
-620,619	-200,000	-0,022	0,121
-619,605	160,177	-0,069	0,070
-618,590	-19,022	-0,072	-0,032
-617,576	-200,000	-0,017	0,084
-616,561	369,553	0,056	-0,082
-615,546	-23,776	-0,056	-0,024
-614,532	71,829	0,048	-0,036
-613,517	275,279	0,067	-0,086
-612,503	361,435	0,013	-0,019
-611,488	87,944	0,112	0,089
-610,474	10,321	0,012	-0,007
-609,459	230,889	-0,127	0,151
-608,444	-200,000	-0,015	0,101
-607,430	-2,390	0,032	-0,016
-606,415	554,554	0,037	0,065
-605,401	-200,000	-0,014	-0,087
-604,386	271,852	0,014	0,018
-603,371	-6,958	0,046	-0,023
-602,357	0,147	-0,133	-0,068
-601,342	-21,451	-0,077	-0,034
-600,328	186,117	0,042	-0,046
-599,313	-128,630	-0,042	0,004
-598,298	-85,404	0,136	-0,030
-597,284	800,000	0,024	-0,054
-596,269	-69,628	0,089	-0,025
-595,255	-130,899	0,154	-0,015
-594,240	800,000	-0,027	-0,060
-593,225	499,764	-0,045	-0,076
-592,211	-27,622	-0,022	0,009
-591,196	800,000	-0,030	-0,092
-590,182	800,000	-0,043	0,126
-589,167	34,094	0,092	0,058
-588,152	85,347	0,080	0,063
-587,138	-42,022	-0,183	0,067
-586,123	121,771	-0,066	-0,059
-585,109	-66,395	-0,083	-0,024
-584,094	417,814	-0,080	-0,124
-583,079	-94,303	0,166	0,032
-582,065	86,959	0,048	-0,038
-581,050	60,091	-0,088	0,063
-580,036	-96,593	-0,184	-0,035
-579,021	146,925	0,119	-0,116
-578,006	800,000	0,039	-0,088
-576,992	44,321	-0,056	0,037
-575,977	166,843	0,013	-0,014
-574,963	800,000	0,046	0,131
-573,948	206,672	-0,058	0,066
-572,934	39,541	0,050	0,032
-571,919	78,953	-0,124	-0,096
-570,904	800,000	0,044	0,119
-569,890	800,000	0,010	-0,030
-568,875	-114,736	0,136	-0,019
-567,861	800,000	-0,004	-0,009
-566,846	171,963	0,109	-0,113
-565,831	491,748	0,063	0,104
-564,817	-200,000	-0,022	-0,180
-563,802	800,000	0,028	-0,088
-562,788	-80,947	0,146	-0,035
-561,773	73,788	-0,141	0,107
-560,758	196,707	0,155	0,171
-559,744	800,000	-0,050	0,117
-558,729	-55,884	0,106	0,034
-557,715	800,000	0,069	-0,149
-556,700	165,512	-0,088	-0,089
-555,685	-200,000	-0,000	-0,043
-554,671	84,931	0,036	0,028
-553,656	339,762	0,053	0,075
-552,642	800,000	-0,065	0,137
-551,627	-200,000	0,002	0,012
-550,612	331,266	-0,018	-0,026
-549,598	-69,694	-0,085	-0,023
-548,583	69,455	0,066	0,049
-547,569	-200,000	-0,008	0,180
-546,554	685,256	0,037	-0,070
-545,539	-47,785	0,078	-0,027
-544,525	99,438	0,036	-0,030
-543,510	2,185	0,074	0,038
-542,496	-14,028	-0,070	-0,033
-541,481	614,622	-0,112	-0,203
-540,466	347,310	0,055	-0,078
-539,452	800,000	-0,023	0,053
-538,437	-130,939	-0,102	0,010
-537,423	-200,000	-0,033	-0,106
-536,408	800,000	0,034	-0,072
-535,393	122,756	-0,105	0,095
-534,379	-55,740	-0,026	-0,008
-533,364	-102,667	-0,093	0,016
-532,350	13,322	0,018	0,010
-531,335	-200,000	0,003	0,018
-530,321	179,340	-0,022	-0,023
-529,306	-123,653	-0,113	-0,013
-528,291	-159,316	-0,154	-0,006
-527,277	-200,000	0,015	0,049
-526,262	-200,000	-0,008	0,069
-525,248	-105,338	0,117	-0,019
-524,233	183,708	-0,076	-0,081
-523,218	461,392	-0,055	-0,089
-522,204	-200,000	0,032	-0,105
-521,189	18,888	0,065	0,038
-520,175	414,536	-0,018	-0,027
-519,160	-200,000	-0,001	-0,099
-518,145	-92,071	0,109	0,022
-517,131	418,199	0,038	0,058
-516,116	147,938	0,078	0,076
-515,102	800,000	-0,047	0,107
-514,087	-82,587	0,078	-0,018
-513,072	-200,000	0,005	-0,081
-512,058	-167,390	-0,158	-0,004
-511,043	-47,330	-0,022	-0,008
-510,029	140,225	0,045	-0,043
-509,014	66,935	0,075	0,055
-507,999	-15,840	0,036	0,016
-506,985	-200,000	-0,013	-0,087
-505,970	-200,000	0,000	0,007
-504,956	800,000	0,013	-0,036
-503,941	-163,084	-0,144	0,005
-502,926	-54,498	0,237	-0,077
-501,912	587,961	-0,073	0,129
-500,897	314,484	0,117	0,159
-499,883	321,444	-0,051	0,071
-498,868	-200,000	0,009	-0,114
-497,853	-200,000	-0,021	-0,121
-496,839	800,000	-0,018	-0,050
-495,824	800,000	-0,032	-0,077
-494,810	-200,000	-0,002	0,020
-493,795	800,000	-0,055	-0,143
-492,781	-200,000	-0,027	0,096
-491,766	-38,297	-0,097	0,037
-490,751	-148,497	-0,031	-0,002
-489,737	475,841	0,077	-0,126
-488,722	-127,216	0,066	-0,007
-487,708	-133,221	-0,050	0,004
-486,693	48,907	0,066	-0,045
-485,678	-200,000	0,002	0,092
-484,664	-200,000	-0,040	-0,197
-483,649	-25,754	-0,106	0,045
-482,635	-0,272	0,069	0,035
-481,620	8,701	0,146	0,079
-480,605	800,000	0,033	0,083
-479,591	159,549	-0,025	-0,025
-478,576	10,931	-0,138	0,076
-477,562	800,000	-0,044	-0,119
-476,547	186,309	-0,022	0,024
-475,532	97,357	-0,138	-0,114
-474,518	-115,816	-0,070	0,009
-473,503	74,402	0,166	-0,126
-472,489	-4,617	-0,081	-0,040
-471,474	49,247	0,077	0,052
-470,459	-176,725	-0,118	-0,002
-469,445	-64,583	0,102	-0,030
-468,430	-100,969	-0,118	0,021
-467,416	53,692	-0,107	0,074
-466,401	-94,197	0,037	-0,007
-465,386	-97,126	-0,216	0,040
-464,372	15,061	0,047	0,026
-463,357	451,415	-0,016	-0,026
-462,343	262,680	-0,042	-0,053
-461,328	-129,543	-0,072	-0,007
-460,313	143,676	0,021	-0,020
-459,299	800,000	0,067	0,142
-458,284	-66,955	0,150	0,042
-457,270	36,770	-0,053	0,034
-456,255	-99,841	-0,004	0,001
-455,241	285,015	-0,089	-0,115
-454,226	17,293	-0,026	-0,015
-453,211	-200,000	0,003	-0,041
-452,197	-89,322	0,085	-0,018
-451,182	207,338	-0,043	-0,049
-450,168	-200,000	-0,008	0,055
-449,153	-200,000	0,001	0,143
-448,138	-50,170	-0,173	0,059
-447,124	800,000	-0,023	-0,071
-446,109	168,574	-0,069	-0,070
-445,095	141,078	0,090	0,086
-444,080	-125,580	0,095	0,010
-443,065	-200,000	-0,009	0,072
-442,051	130,458	0,151	0,140
-441,036	556,091	-0,066	0,115
-440,022	-200,000	0,004	-0,097
-439,007	51,007	0,105	0,071
-437,992	-85,589	-0,044	0,010
-436,978	192,873	-0,082	0,089
-435,963	692,349	-0,018	-0,035
-434,949	-34,732	-0,147	0,057
-433,934	-148,181	0,063	0,004
-432,919	135,974	0,064	0,060
-431,905	371,534	-0,019	-0,028
-430,890	226,423	0,039	0,046
-429,876	718,882	-0,031	-0,059
-428,861	-49,415	0,082	-0,028
-427,846	800,000	-0,034	-0,101
-426,832	12,303	-0,027	-0,015
-425,817	689,212	-0,038	-0,072
-424,803	-75,485	-0,124	0,031
-423,788	568,667	0,054	0,095
-422,773	800,000	-0,047	-0,101
-421,759	-132,411	0,101	-0,009
-420,744	438,964	0,058	-0,091
-419,730	-200,000	-0,012	-0,076
-418,715	543,810	-0,052	-0,090
-417,701	-67,900	0,049	0,014
-416,686	4,323	0,158	-0,083
-415,671	74,623	0,074	0,056
-414,657	224,731	0,082	0,095
-413,642	800,000	0,041	-0,099
-412,628	-200,000	0,046	0,148
-411,613	-200,000	-0,020	-0,128
-410,598	45,678	0,086	-0,057
-409,584	161,582	0,095	0,096
-408,569	280,140	-0,057	0,073
-407,555	800,000	-0,052	0,155
-406,540	85,606	0,047	0,037
-405,525	-200,000	-0,001	-0,018
-404,511	238,363	-0,108	0,129
-403,496	-94,087	-0,057	0,011
-402,482	-200,000	0,005	0,049
-401,467	-200,000	-0,004	-0,106
-400,452	-183,455	-0,077	-0,001
-399,438	118,128	0,046	0,041
-398,423	800,000	0,012	-0,025
-397,409	-133,857	-0,182	-0,016
-396,394	-200,000	0,003	-0,126
-395,379	115,180	0,050	-0,043
-394,365	644,426	0,036	0,066
-393,350	-200,000	0,041	0,214
-392,336	316,557	-0,080	0,108
-391,321	800,000	0,059	-0,176
-390,306	-27,304	0,102	-0,043
-389,292	-200,000	-0,005	-0,079
-388,277	-38,047	0,065	0,025
-387,263	-200,000	-0,010	0,113
-386,248	84,319	0,116	0,091
-385,233	-200,000	-0,005	-0,074
-384,219	800,000	0,028	-0,084
-383,204	108,028	-0,069	-0,059
-382,190	-200,000	0,031	-0,169
-381,175	-81,443	-0,209	-0,049
-380,160	72,108	0,049	0,037
-379,146	800,000	-0,016	0,038
-378,131	800,000	0,039	0,086
-377,117	753,220	0,019	0,038
-376,102	-200,000	-0,016	-0,097
-375,088	610,390	-0,067	0,120
-374,073	800,000	0,002	-0,005
-373,058	800,000	0,019	0,038
-372,044	255,551	0,170	-0,210
-371,029	800,000	0,028	0,078
-370,015	-183,871	0,058	0,001
-369,000	399,203	0,025	-0,037
-367,985	286,524	-0,071	-0,092
-366,971	23,884	0,064	-0,038
-365,956	60,326	0,061	-0,043
-364,942	800,000	-0,025	0,068
-363,927	-200,000	0,013	-0,045
-362,912	-146,863	-0,154	-0,009
-361,898	125,617	-0,065	-0,059
-360,883	15,100	-0,119	0,067
-359,869	-139,573	0,021	-0,002
-358,854	-119,376	-0,129	0,016
-357,839	-200,000	-0,013	0,081
-356,825	-122,441	0,059	0,007
-355,810	11,247	0,076	-0,042
-354,796	800,000	0,031	0,072
-353,781	-46,678	-0,172	-0,060
-352,766	-67,004	-0,026	-0,007
-351,752	163,223	-0,106	0,106
-350,737	395,125	0,028	0,042
-349,723	150,790	0,082	0,080
-348,708	-184,098	-0,062	-0,001
-347,693	-35,975	0,018	0,007
-346,679	130,302	-0,080	0,074
-345,664	-200,000	-0,036	-0,124
-344,650	-63,549	0,069	-0,020
-343,635	400,560	0,103	0,156
-342,620	-109,683	-0,008	-0,001
-341,606	-200,000	-0,011	0,083
-340,591	514,673	0,074	-0,124
-339,577	170,554	0,052	-0,053
-338,562	223,800	-0,080	0,093
-337,548	100,761	0,047	0,039
-336,533	618,016	0,095	0,171
-335,518	-200,000	0,017	-0,097
-334,504	-24,299	-0,144	0,061
-333,489	-200,000	-0,010	0,130
-332,475	-6,375	-0,064	0,031
-331,460	78,668	-0,107	-0,082
-330,445	-95,964	0,029	0,005
-329,431	209,970	-0,050	-0,056
-328,416	244,277	0,035	0,042
-327,402	-200,000	-0,006	0,125
-326,387	243,621	0,072	0,086
-325,372	200,490	0,012	0,013
-324,358	-200,000	0,007	-0,128
-323,343	28,231	-0,053	-0,032
-322,329	264,251	0,064	0,080
-321,314	-200,000	0,002	0,073
-320,299	-200,000	-0,005	0,055
-319,285	-200,000	-0,007	0,122
-318,270	-75,526	0,090	0,023
-317,256	-153,428	0,085	-0,004
-316,241	-200,000	0,000	-0,058
-315,226	39,749	0,057	-0,036
-314,212	-25,877	0,092	0,038
-313,197	-200,000	-0,010	0,070
-312,183	6,227	-0,018	-0,010
-311,168	29,424	-0,132	-0,080
-310,153	241,240	0,057	0,068
-309,139	-13,253	-0,096	-0,045
-308,124	-200,000	0,049	0,182
-307,110	503,745	0,007	-0,012
-306,095	458,985	0,058	0,093
-305,080	-61,042	-0,069	-0,021
-304,066	-200,000	0,001	0,022
-303,051	188,999	0,055	-0,059
-302,037	425,226	-0,026	0,039
-301,022	517,042	-0,019	-0,031
-300,008	21,590	0,096	0,056
-298,993	253,568	0,071	-0,087
-297,978	-145,152	0,234	-0,015
-296,964	-68,108	-0,084	-0,023
-295,949	96,880	-0,138	-0,113
-294,935	-41,168	0,116	-0,042
-293,920	-200,000	-0,028	0,117
-292,905	122,282	0,031	-0,027
-291,891	159,021	-0,113	0,112
-290,876	33,831	-0,027	-0,017
-289,862	32,353	-0,082	-0,050
-288,847	66,045	-0,029	-0,021
-287,832	36,752	-0,032	0,020
-286,818	800,000	0,023	-0,058
-285,803	-118,057	-0,068	0,009
-284,789	465,664	-0,039	-0,063
-283,774	-200,000	-0,003	0,113
-282,759	41,600	0,056	-0,036
-281,745	207,521	0,089	-0,100
-280,730	86,043	-0,083	-0,065
-279,716	-200,000	-0,017	-0,070
-278,701	12,554	0,126	0,069
-277,686	136,774	0,071	-0,066
-276,672	39,399	-0,064	-0,041
-275,657	272,895	0,072	-0,091
-274,643	-200,000	-0,028	-0,163
-273,628	48,900	-0,181	0,121
-272,613	23,949	0,080	0,047
-271,599	621,934	0,047	0,086
-270,584	4,646	0,118	0,062
-269,570	203,927	0,110	0,121
-268,555	800,000	-0,046	-0,096
-267,540	30,757	-0,102	0,062
-266,526	-26,796	-0,011	0,005
-265,511	-128,784	0,140	0,014
-264,497	37,843	0,013	-0,008
-263,482	-200,000	0,031	-0,111
-262,467	-169,172	-0,044	-0,001
-261,453	103,094	0,090	0,075
-260,438	-111,788	-0,193	-0,028
-259,424	10,004	-0,096	0,052
-258,409	158,939	-0,038	0,038
-257,395	30,126	-0,079	-0,048
-256,380	-108,061	0,169	0,026
-255,365	59,252	0,067	-0,047
-254,351	219,612	0,054	0,062
-253,336	-4,361	0,094	-0,046
-252,322	-38,524	0,040	-0,015
-251,307	-200,000	0,008	0,076
-250,292	-200,000	0,011	-0,047
-249,278	-200,000	0,016	0,063
-248,263	800,000	0,012	0,034
-247,249	-200,000	-0,003	0,144
-246,234	733,250	0,080	0,153
-245,219	6,174	-0,114	-0,060
-244,205	-137,011	0,005	-0,000
-243,190	-139,649	0,056	-0,004
-242,176	150,928	0,054	0,052
-241,161	-200,000	-0,007	0,106
-240,146	-27,864	-0,096	0,039
-239,132	-200,000	-0,013	0,104
-238,117	-93,790	0,160	0,031
-237,103	-94,929	0,033	-0,006
-236,088	162,568	0,113	0,113
-235,073	-162,699	0,062	-0,002
-234,059	147,934	-0,041	-0,039
-233,044	-42,235	0,126	-0,046
-232,030	800,000	-0,055	0,125
-231,015	-200,000	-0,026	-0,100
-230,000	-200,000	-0,003	-0,090
-228,986	6,367	-0,035	-0,018
-227,971	-72,339	-0,133	-0,035
-226,957	46,402	0,113	-0,074
-225,942	-200,000	0,027	-0,141
-224,927	-200,000	0,018	-0,073
-223,913	79,237	-0,123	0,094
-222,898	-200,000	-0,007	-0,039
-221,884	-200,000	-0,001	0,052
-220,869	-200,000	0,013	-0,085
-219,855	-79,548	0,143	0,034
-218,840	199,185	0,039	-0,043
-217,825	237,005	0,034	0,040
-216,811	-6,541	0,029	0,014
-215,796	-200,000	-0,021	-0,083
-214,782	797,611	-0,019	0,038
-213,767	-45,902	-0,187	0,065
-212,752	370,151	0,166	-0,240
-211,738	48,568	0,058	-0,039
-210,723	326,086	0,035	0,048
-209,709	-17,775	-0,133	0,059
-208,694	-31,450	-0,081	-0,032
-207,679	-59,416	-0,053	-0,016
-206,665	477,730	-0,060	-0,097
-205,650	4,766	-0,035	-0,018
-204,636	51,535	0,113	0,077
-203,621	30,654	-0,110	-0,067
-202,606	112,131	0,094	-0,081
-201,592	213,816	0,030	0,034
-200,577	800,000	-0,029	0,078
-199,563	-128,044	0,125	-0,013
-198,548	67,960	0,066	-0,048
-197,533	-28,160	0,104	-0,043
-196,519	220,490	0,074	0,084
-195,504	-23,806	-0,114	-0,049
-194,490	32,818	-0,111	-0,068
-193,475	-84,466	-0,079	0,018
-192,460	-200,000	-0,015	-0,056
-191,446	800,000	0,059	-0,127
-190,431	267,484	-0,120	0,150
-189,417	800,000	0,020	-0,061
-188,402	-200,000	0,000	0,006
-187,387	224,620	-0,044	-0,051
-186,373	-106,441	-0,146	0,023
-185,358	268,709	0,088	0,111
-184,344	391,665	-0,063	0,094
-183,329	-200,000	-0,009	0,062
-182,315	800,000	0,047	0,116
-181,300	800,000	-0,077	0,201
-180,285	41,630	0,110	-0,070
-179,271	-200,000	0,010	-0,127
-178,256	715,483	0,057	0,108
-177,242	-49,293	0,095	-0,032
-176,227	-200,000	-0,003	-0,017
-175,212	-151,581	-0,064	-0,003
-174,198	800,000	0,050	0,127
-173,183	537,075	-0,022	0,038
-172,169	385,482	0,090	-0,133
-171,154	54,434	-0,064	0,044
-170,139	-27,921	0,094	-0,039
-169,125	-14,940	0,012	-0,005
-168,110	37,775	0,049	-0,031
-167,096	-200,000	-0,017	0,064
-166,081	319,054	-0,055	-0,074
-165,066	65,925	0,050	0,036
-164,052	296,982	-0,037	-0,049
-163,037	150,684	-0,044	-0,042
-162,023	65,837	0,076	0,054
-161,008	-82,780	0,067	-0,015
-159,993	-200,000	-0,033	-0,115
-158,979	425,160	-0,014	-0,022
-157,964	72,181	-0,104	-0,077
-156,950	-84,527	0,096	-0,021
-155,935	-83,509	0,103	-0,023
-154,920	423,779	-0,013	0,019
-153,906	-0,253	0,073	0,037
-152,891	214,448	0,055	0,061
-151,877	36,318	0,105	-0,065
-150,862	-172,313	0,070	0,002
-149,847	-43,403	-0,103	0,037
-148,833	92,114	0,019	-0,015
-147,818	757,298	-0,025	0,049
-146,804	-29,283	-0,189	0,076
-145,789	373,075	0,051	0,073
-144,775	-200,000	0,032	-0,118
-143,760	-34,005	-0,090	-0,035
-142,745	-61,590	-0,136	0,040
-141,731	706,317	0,062	-0,117
-140,716	-200,000	0,011	-0,169
-139,702	-143,707	0,031	0,002
-138,687	32,614	0,070	0,043
-137,672	-200,000	-0,044	-0,142
-136,658	-146,812	-0,074	0,004
-135,643	-200,000	-0,005	0,067
-134,629	61,290	0,191	0,135
-133,614	-161,375	-0,103	0,004
-132,599	800,000	-0,019	0,044
-131,585	121,348	-0,029	0,026
-130,570	-200,000	0,030	-0,096
-129,556	-102,451	0,027	0,004
-128,541	800,000	-0,025	-0,073
-127,526	-200,000	0,019	-0,098
-126,512	-128,359	0,171	-0,017
-125,497	800,000	-0,071	0,143
-124,483	16,625	0,108	-0,060
-123,468	11,890	0,022	0,012
-122,453	351,173	-0,043	0,060
-121,439	18,993	0,025	-0,014
-120,424	-76,040	-0,042	0,010
-119,410	293,721	0,085	0,111
-118,395	29,185	0,018	-0,011
