DTS Sentinel unit serial number:	SN410029Multiplexer serial number:	ORYXHardware model number:	OX2-SRSoftware version number:	ORYX F/W v4,00 Oryx Data Collector v3.7.2.0data status	okinstallation	B6 Nyhavnadifferential loss correction	single-endedforward channel	channel 2reverse channel	N/Adate	2023/12/09time	07:00:08forward acquisition time	300,00reverse acquisition time	0,00gamma	499,1914k internal	0,3139k external	0,3139temperature offset calibration	1,0000default loss term (dB/km)	0,3820temperature slope calibration	1,0000multiplexer offset coefficient	1,0000multiplexer slope coefficient	1,0000fibre end	0,00T internal ref (°C)	18,56T ext. ref 1 (°C)	2,11T ext. ref 2 (°C)	2,12length (m)	temperature (°C)	Stokes	anti-Stokes-744,400	264,531	0,117	-0,151
-743,385	-101,053	-0,319	-0,058
-742,371	-123,040	0,082	-0,010
-741,356	-97,641	-0,263	0,050
-740,342	-73,724	0,104	0,028
-739,327	-19,330	-0,348	0,159
-738,312	800,000	0,015	-0,038
-737,298	-102,280	-0,270	0,048
-736,283	-102,703	0,113	-0,020
-735,269	-65,923	-0,184	0,054
-734,254	800,000	0,050	0,112
-733,239	-64,748	-0,438	-0,131
-732,225	-51,928	0,182	0,062
-731,210	416,817	-0,043	0,068
-730,196	232,473	0,033	-0,040
-729,181	-121,574	-0,136	0,017
-728,167	-76,201	-0,075	-0,019
-727,152	-200,000	-0,002	-0,114
-726,137	34,372	-0,106	-0,068
-725,123	411,725	-0,038	0,060
-724,108	-200,000	-0,093	-0,000
-723,094	120,755	-0,089	-0,082
-722,079	150,364	-0,038	0,038
-721,064	280,796	0,156	-0,207
-720,050	-74,581	-0,150	-0,040
-719,035	-200,000	0,024	-0,175
-718,021	-110,700	-0,074	0,011
-717,006	-200,000	0,007	0,045
-715,991	-55,523	-0,186	-0,061
-714,977	-34,518	-0,100	-0,040
-713,962	9,716	-0,123	-0,069
-712,948	395,149	0,114	0,176
-711,933	-200,000	-0,051	0,220
-710,918	-200,000	0,032	0,129
-709,904	28,176	-0,071	0,044
-708,889	800,000	-0,035	-0,104
-707,875	-200,000	-0,014	-0,050
-706,860	120,160	-0,063	-0,058
-705,845	436,878	-0,074	0,119
-704,831	322,891	0,037	0,053
-703,816	-3,861	-0,092	0,047
-702,802	-172,783	-0,203	-0,005
-701,787	143,453	-0,091	-0,090
-700,772	401,412	-0,015	-0,023
-699,758	-200,000	0,011	0,088
-698,743	-110,222	0,101	0,015
-697,729	-32,991	-0,119	0,049
-696,714	-83,393	0,084	0,020
-695,699	509,972	-0,045	0,077
-694,685	-200,000	-0,021	-0,097
-693,670	-4,041	-0,134	-0,069
-692,656	-6,244	-0,102	0,051
-691,641	800,000	-0,035	-0,077
-690,627	-48,207	0,135	0,048
-689,612	-200,000	-0,005	-0,032
-688,597	426,535	-0,027	0,043
-687,583	-87,155	-0,171	-0,038
-686,568	-200,000	-0,002	0,039
-685,554	-200,000	0,010	-0,117
-684,539	305,454	0,031	0,042
-683,524	21,310	0,032	0,019
-682,510	-135,852	0,172	-0,015
-681,495	-200,000	0,017	0,080
-680,481	202,726	-0,061	0,069
-679,466	43,284	-0,019	0,013
-678,451	4,915	-0,055	0,030
-677,437	-199,506	0,046	-0,000
-676,422	67,074	0,112	-0,085
-675,408	113,845	0,065	0,058
-674,393	-200,000	-0,011	0,086
-673,378	128,743	-0,032	0,030
-672,364	-73,783	-0,055	-0,015
-671,349	-178,395	-0,017	-0,000
-670,335	105,049	-0,167	0,146
-669,320	282,196	0,035	0,047
-668,305	302,495	-0,040	-0,055
-667,291	161,914	-0,066	0,069
-666,276	-32,117	-0,031	0,013
-665,262	-200,000	0,002	-0,086
-664,247	168,452	-0,020	0,021
-663,232	160,349	0,110	-0,114
-662,218	-200,000	0,043	0,181
-661,203	-200,000	0,015	0,073
-660,189	529,301	-0,026	0,045
-659,174	-119,956	-0,044	-0,006
-658,159	-141,693	-0,141	-0,010
-657,145	-200,000	0,017	-0,064
-656,130	-200,000	0,036	0,131
-655,116	-14,139	-0,071	-0,034
-654,101	-43,151	0,112	0,042
-653,086	290,099	-0,078	0,105
-652,072	-200,000	0,020	-0,094
-651,057	22,167	-0,129	-0,078
-650,043	800,000	-0,065	-0,157
-649,028	-102,208	-0,079	0,014
-648,014	5,301	0,071	0,038
-646,999	800,000	-0,017	0,048
-645,984	-61,303	-0,138	-0,043
-644,970	800,000	-0,027	-0,088
-643,955	30,868	-0,098	0,062
-642,941	-102,139	-0,039	-0,007
-641,926	90,798	-0,077	-0,064
-640,911	167,798	0,056	-0,059
-639,897	38,468	-0,035	0,023
-638,882	-200,000	-0,008	-0,090
-637,868	-48,990	-0,061	0,021
-636,853	-200,000	-0,003	-0,090
-635,838	251,921	0,078	-0,098
-634,824	800,000	-0,041	-0,130
-633,809	-200,000	-0,005	0,045
-632,795	-74,644	-0,048	-0,013
-631,780	800,000	0,031	0,087
-630,765	-138,078	0,071	-0,006
-629,751	800,000	-0,029	-0,084
-628,736	227,891	-0,098	-0,118
-627,722	-200,000	0,017	-0,065
-626,707	-200,000	-0,013	-0,048
-625,692	-200,000	-0,012	-0,091
-624,678	54,897	0,084	0,060
-623,663	-18,661	0,106	0,048
-622,649	800,000	-0,054	0,143
-621,634	40,178	-0,113	0,075
-620,619	108,355	0,032	-0,028
-619,605	800,000	-0,033	-0,083
-618,590	106,404	-0,075	0,066
-617,576	-180,862	0,056	0,001
-616,561	268,013	0,029	0,037
-615,546	52,901	-0,048	0,034
-614,532	800,000	-0,026	0,057
-613,517	-144,152	-0,041	0,003
-612,503	-90,788	-0,165	0,035
-611,488	237,964	0,072	0,089
-610,474	-124,503	-0,119	-0,013
-609,459	-48,512	-0,019	0,007
-608,444	-99,700	-0,046	0,008
-607,430	800,000	-0,044	-0,096
-606,415	128,787	-0,132	-0,124
-605,401	324,428	0,124	-0,175
-604,386	-19,765	0,042	0,019
-603,371	-65,750	0,117	-0,034
-602,357	97,287	0,068	0,058
-601,342	-56,290	-0,034	-0,011
-600,328	-200,000	0,003	-0,045
-599,313	-61,197	0,155	0,048
-598,298	-79,087	0,159	0,040
-597,284	12,339	-0,039	0,022
-596,269	405,396	0,047	-0,074
-595,255	-54,493	0,029	-0,010
-594,240	800,000	-0,073	-0,151
-593,225	44,306	0,062	-0,042
-592,211	-200,000	-0,035	-0,139
-591,196	-200,000	-0,014	0,047
-590,182	-103,806	-0,095	0,016
-589,167	-166,418	-0,080	0,002
-588,152	-110,238	0,107	0,016
-587,138	596,023	0,024	-0,044
-586,123	-200,000	0,012	-0,127
-585,109	3,657	-0,104	-0,056
-584,094	-16,550	0,087	0,040
-583,079	-34,800	0,076	0,031
-582,065	800,000	0,030	-0,078
-581,050	-200,000	0,011	-0,096
-580,036	315,734	0,044	-0,061
-579,021	322,515	0,023	0,032
-578,006	-200,000	-0,022	0,090
-576,992	-19,889	0,094	0,043
-575,977	329,315	-0,013	-0,018
-574,963	563,799	0,009	0,015
-573,948	800,000	0,023	0,058
-572,934	67,476	-0,061	0,046
-571,919	-117,523	-0,097	0,013
-570,904	-200,000	0,004	-0,134
-569,890	-78,539	0,077	-0,019
-568,875	-200,000	-0,004	0,013
-567,861	800,000	-0,039	0,117
-566,846	45,591	0,041	-0,028
-565,831	64,209	-0,087	-0,065
-564,817	657,661	0,051	0,097
-563,802	800,000	-0,010	-0,027
-562,788	800,000	0,045	-0,113
-561,773	-200,000	-0,003	0,147
-560,758	27,637	-0,023	0,014
-559,744	152,204	0,051	0,051
-558,729	800,000	0,010	-0,030
-557,715	162,519	-0,066	-0,068
-556,700	75,833	-0,125	0,097
-555,685	-200,000	-0,035	0,000
-554,671	-200,000	-0,000	-0,190
-553,656	-200,000	0,019	-0,096
-552,642	159,169	-0,085	0,087
-551,627	37,662	0,082	-0,054
-550,612	363,816	0,064	-0,095
-549,598	386,919	-0,040	-0,061
-548,583	156,682	-0,044	0,045
-547,569	284,557	-0,063	0,084
-546,554	-2,378	0,108	0,056
-545,539	800,000	0,040	-0,106
-544,525	-7,528	0,076	0,038
-543,510	-200,000	-0,005	-0,021
-542,496	-41,220	-0,111	0,042
-541,481	800,000	0,046	0,114
-540,466	92,466	-0,046	-0,038
-539,452	-200,000	-0,038	-0,132
-538,437	164,669	-0,081	-0,084
-537,423	161,168	-0,024	-0,025
-536,408	6,644	-0,059	0,032
-535,393	800,000	0,029	-0,063
-534,379	-200,000	-0,002	-0,053
-533,364	35,573	-0,092	-0,059
-532,350	-67,277	-0,060	-0,017
-531,335	-200,000	0,003	-0,102
-530,321	-200,000	-0,006	-0,111
-529,306	136,234	-0,063	0,060
-528,291	-200,000	-0,008	-0,120
-527,277	-131,365	-0,123	-0,012
-526,262	-200,000	-0,020	-0,132
-525,248	40,440	0,050	-0,033
-524,233	-82,154	0,099	-0,024
-523,218	136,301	0,033	0,032
-522,204	-200,000	0,003	-0,083
-521,189	-60,382	0,133	-0,041
-520,175	126,915	-0,022	-0,021
-519,160	-200,000	-0,001	-0,141
-518,145	-48,815	0,014	-0,005
-517,131	-104,315	0,075	0,013
-516,116	-44,099	0,170	0,062
-515,102	-200,000	-0,009	0,128
-514,087	-21,813	-0,012	0,005
-513,072	670,579	-0,044	0,084
-512,058	-5,860	-0,191	0,096
-511,043	800,000	0,053	0,141
-510,029	0,886	0,118	0,062
-509,014	6,491	0,045	-0,025
-507,999	150,764	0,011	-0,011
-506,985	-200,000	0,005	-0,068
-505,970	-200,000	0,004	-0,072
-504,956	800,000	0,038	-0,122
-503,941	-200,000	-0,001	0,056
-502,926	598,099	0,039	-0,072
-501,912	53,868	-0,115	0,081
-500,897	800,000	-0,018	-0,049
-499,883	800,000	-0,054	0,117
-498,868	47,268	0,104	-0,071
-497,853	199,510	-0,042	0,048
-496,839	24,206	0,089	-0,054
-495,824	-44,465	0,107	0,039
-494,810	-200,000	-0,020	0,123
-493,795	800,000	-0,048	0,154
-492,781	-76,699	-0,165	-0,042
-491,766	479,862	-0,011	0,019
-490,751	-200,000	-0,005	-0,098
-489,737	800,000	0,018	0,053
-488,722	800,000	0,017	-0,037
-487,708	-114,806	0,094	-0,013
-486,693	74,942	0,073	0,056
-485,678	-200,000	0,006	-0,067
-484,664	699,209	0,011	-0,022
-483,649	51,577	0,116	-0,081
-482,635	153,785	-0,024	-0,024
-481,620	579,114	0,019	0,033
-480,605	800,000	0,057	0,123
-479,591	-116,070	-0,160	0,022
-478,576	-200,000	0,013	0,151
-477,562	-200,000	0,042	0,212
-476,547	800,000	0,012	-0,039
-475,532	-199,124	-0,071	0,000
-474,518	24,025	0,138	0,083
-473,503	-33,080	0,148	-0,060
-472,489	136,072	0,081	0,077
-471,474	143,258	-0,079	-0,078
-470,459	800,000	0,044	-0,111
-469,445	-200,000	-0,009	-0,060
-468,430	800,000	0,027	0,057
-467,416	138,943	-0,043	-0,041
-466,401	44,209	0,045	0,030
-465,386	201,246	0,042	0,048
-464,372	40,319	-0,064	0,042
-463,357	-47,445	-0,064	-0,023
-462,343	-37,704	-0,128	-0,050
-461,328	433,624	0,086	0,137
-460,313	133,306	0,068	0,064
-459,299	-200,000	-0,003	0,100
-458,284	99,851	-0,060	-0,051
-457,270	800,000	0,046	0,124
-456,255	-70,810	0,096	0,026
-455,241	-80,484	0,123	-0,030
-454,226	233,728	-0,085	-0,103
-453,211	10,767	0,088	-0,049
-452,197	-50,749	0,120	0,041
-451,182	-200,000	0,008	-0,035
-450,168	-2,281	0,124	0,064
-449,153	-58,495	0,197	-0,062
-448,138	12,465	-0,059	-0,033
-447,124	-16,571	0,008	-0,004
-446,109	-77,819	0,079	0,020
-445,095	-97,226	0,106	-0,020
-444,080	-200,000	-0,007	0,045
-443,065	-200,000	-0,003	0,185
-442,051	-200,000	-0,014	0,062
-441,036	44,860	0,062	0,041
-440,022	401,732	0,066	0,102
-439,007	204,857	-0,026	0,029
-437,992	-200,000	0,001	0,117
-436,978	443,197	-0,037	0,060
-435,963	141,701	0,039	-0,038
-434,949	-12,829	-0,089	-0,042
-433,934	-6,280	0,034	0,017
-432,919	-124,919	-0,058	-0,006
-431,905	395,828	0,028	-0,043
-430,890	192,267	-0,062	-0,068
-429,876	94,315	0,076	-0,063
-428,861	66,991	-0,056	-0,041
-427,846	226,561	-0,107	-0,128
-426,832	-200,000	0,023	-0,096
-425,817	-200,000	-0,033	-0,124
-424,803	69,768	0,067	0,050
-423,788	-200,000	-0,002	0,038
-422,773	724,375	0,013	-0,025
-421,759	344,873	0,012	-0,017
-420,744	-200,000	0,022	-0,177
-419,730	-200,000	0,002	0,047
-418,715	-101,330	-0,154	0,027
-417,701	800,000	-0,048	0,102
-416,686	800,000	-0,020	-0,056
-415,671	-200,000	0,020	-0,067
-414,657	82,932	0,102	-0,081
-413,642	-200,000	-0,015	-0,093
-412,628	-200,000	0,011	0,081
-411,613	222,483	-0,048	0,057
-410,598	800,000	-0,014	0,034
-409,584	800,000	0,017	-0,053
-408,569	11,075	0,125	0,070
-407,555	38,804	0,074	0,048
-406,540	-200,000	-0,023	0,244
-405,525	615,870	-0,033	-0,060
-404,511	-37,043	0,095	-0,037
-403,496	-46,476	-0,062	0,022
-402,482	-110,401	0,037	0,006
-401,467	-200,000	-0,009	0,141
-400,452	48,988	0,058	-0,040
-399,438	16,511	-0,056	0,032
-398,423	10,499	-0,090	-0,050
-397,409	490,285	-0,024	0,041
-396,394	800,000	0,064	-0,171
-395,379	296,692	0,055	-0,074
-394,365	800,000	-0,040	0,108
-393,350	-200,000	-0,007	0,215
-392,336	83,146	-0,128	0,102
-391,321	800,000	0,030	0,088
-390,306	10,999	-0,073	-0,041
-389,292	-59,005	-0,092	0,029
-388,277	-65,165	0,050	-0,015
-387,263	800,000	0,028	0,061
-386,248	800,000	-0,014	0,036
-385,233	-200,000	-0,015	0,179
-384,219	167,620	0,024	0,025
-383,204	193,671	-0,040	0,045
-382,190	-200,000	-0,022	0,160
-381,175	-9,698	0,054	-0,026
-380,160	-119,359	0,125	-0,016
-379,146	-27,695	0,081	0,034
-378,131	-136,367	0,129	0,011
-377,117	-200,000	-0,012	-0,097
-376,102	-15,613	-0,199	0,092
-375,088	171,588	0,003	0,003
-374,073	-115,644	0,069	-0,009
-373,058	-122,392	-0,069	-0,008
-372,044	-200,000	0,021	-0,097
-371,029	-200,000	-0,004	0,053
-370,015	348,908	-0,036	-0,051
-369,000	2,077	0,054	-0,029
-367,985	28,872	-0,048	-0,030
-366,971	107,471	-0,049	-0,043
-365,956	53,614	0,045	-0,032
-364,942	-111,578	-0,077	-0,011
-363,927	-124,974	-0,029	-0,003
-362,912	21,476	-0,101	0,060
-361,898	392,519	-0,049	-0,074
-360,883	200,942	-0,054	-0,061
-359,869	74,357	-0,033	-0,025
-358,854	-200,000	-0,044	0,192
-357,839	41,147	0,012	0,008
-356,825	181,129	0,063	-0,068
-355,810	1,434	-0,047	0,025
-354,796	26,254	-0,094	0,057
-353,781	161,573	0,085	0,087
-352,766	-141,921	-0,127	-0,009
-351,752	-61,051	0,120	0,037
-350,737	-200,000	0,001	0,130
-349,723	-6,950	-0,043	-0,021
-348,708	-200,000	-0,002	0,052
-347,693	800,000	-0,022	0,057
-346,679	-74,320	-0,104	0,027
-345,664	800,000	0,060	0,130
-344,650	800,000	-0,029	-0,084
-343,635	-200,000	-0,026	0,119
-342,620	-87,329	0,080	-0,018
-341,606	161,037	0,093	0,095
-340,591	-200,000	-0,025	-0,085
-339,577	116,747	0,134	0,120
-338,562	-99,851	-0,048	-0,009
-337,548	121,798	0,066	-0,061
-336,533	323,620	0,075	-0,105
-335,518	-40,388	0,046	-0,018
-334,504	593,579	0,032	0,057
-333,489	800,000	0,007	-0,018
-332,475	62,571	-0,084	-0,061
-331,460	230,759	0,041	0,049
-330,445	394,622	-0,052	0,079
-329,431	800,000	0,027	0,083
-328,416	261,039	0,084	0,107
-327,402	87,546	0,037	0,030
-326,387	800,000	-0,033	-0,075
-325,372	800,000	-0,020	-0,054
-324,358	466,661	0,009	-0,015
-323,343	293,788	0,041	-0,055
-322,329	210,865	-0,024	0,027
-321,314	527,740	-0,095	-0,163
-320,299	283,242	0,025	-0,032
-319,285	149,221	0,079	0,078
-318,270	800,000	0,055	-0,117
-317,256	400,027	-0,074	-0,114
-316,241	-44,050	-0,030	0,011
-315,226	13,489	0,148	0,084
-314,212	-162,127	0,061	0,002
-313,197	-105,425	0,040	-0,007
-312,183	800,000	-0,047	-0,104
-311,168	330,047	-0,043	-0,060
-310,153	800,000	-0,049	-0,155
-309,139	800,000	-0,027	0,054
-308,124	-144,927	0,077	-0,005
-307,110	-200,000	0,007	-0,159
-306,095	211,166	0,033	-0,038
-305,080	800,000	0,065	0,167
-304,066	-200,000	0,008	-0,097
-303,051	-200,000	0,013	-0,127
-302,037	-59,462	-0,019	0,006
-301,022	800,000	0,066	0,139
-300,008	-200,000	-0,041	0,162
-298,993	800,000	-0,027	-0,080
-297,978	-53,307	0,038	-0,013
-296,964	413,448	0,042	-0,066
-295,949	45,489	-0,062	-0,042
-294,935	-200,000	-0,002	0,054
-293,920	800,000	0,054	0,156
-292,905	-141,265	0,153	-0,011
-291,891	201,885	0,109	0,123
-290,876	-200,000	-0,016	0,184
-289,862	34,140	-0,098	-0,062
-288,847	98,795	0,087	0,073
-287,832	-200,000	-0,027	-0,096
-286,818	800,000	-0,012	-0,025
-285,803	-61,110	0,008	-0,002
-284,789	167,836	0,047	-0,048
-283,774	-50,617	-0,098	-0,034
-282,759	-200,000	-0,024	-0,114
-281,745	-200,000	-0,025	0,082
-280,730	216,855	-0,107	0,125
-279,716	-200,000	-0,012	0,082
-278,701	-200,000	-0,006	-0,065
-277,686	800,000	-0,022	0,045
-276,672	-65,080	-0,116	0,034
-275,657	27,037	0,032	-0,020
-274,643	-104,270	-0,043	-0,007
-273,628	-41,727	-0,109	-0,041
-272,613	41,386	-0,029	0,019
-271,599	276,071	0,113	-0,146
-270,584	-173,715	0,094	0,002
-269,570	-200,000	0,024	0,082
-268,555	-122,947	-0,193	0,022
-267,540	90,349	0,061	-0,049
-266,526	-119,638	-0,073	0,009
-265,511	800,000	0,037	-0,109
-264,497	-200,000	-0,008	-0,068
-263,482	225,829	0,064	0,076
-262,467	-200,000	0,006	-0,077
-261,453	-113,167	0,059	-0,008
-260,438	-12,571	-0,095	0,045
-259,424	0,583	-0,139	-0,072
-258,409	82,216	0,054	-0,043
-257,395	-176,009	0,031	0,001
-256,380	-52,205	-0,053	0,018
-255,365	-8,597	0,070	0,034
-254,351	-200,000	-0,026	0,159
-253,336	-200,000	0,030	0,106
-252,322	353,142	-0,065	-0,094
-251,307	-58,706	-0,008	-0,002
-250,292	800,000	0,020	-0,053
-249,278	-47,191	0,204	0,072
-248,263	-32,966	-0,124	0,050
-247,249	800,000	0,027	-0,067
-246,234	396,433	0,055	-0,084
-245,219	94,212	-0,083	-0,069
-244,205	-61,596	-0,120	-0,036
-243,190	-200,000	0,008	0,109
-242,176	-37,416	0,145	-0,056
-241,161	33,442	0,167	-0,105
-240,146	-200,000	-0,023	-0,125
-239,132	-134,109	-0,096	-0,008
-238,117	491,377	-0,044	-0,073
-237,103	196,301	-0,076	0,084
-236,088	68,510	-0,042	0,031
-235,073	-136,878	-0,090	0,007
-234,059	-130,222	0,081	-0,008
-233,044	549,872	0,075	-0,132
-232,030	98,607	-0,049	0,041
-231,015	800,000	0,007	0,017
-230,000	170,977	-0,058	0,061
-228,986	127,321	-0,082	0,076
-227,971	-200,000	-0,015	0,067
-226,957	26,072	-0,072	0,043
-225,942	111,240	-0,085	0,074
-224,927	365,025	0,026	0,039
-223,913	229,848	-0,073	-0,087
-222,898	779,829	-0,058	-0,116
-221,884	-200,000	0,036	-0,143
-220,869	-36,027	-0,066	0,026
-219,855	800,000	-0,029	0,085
-218,840	-200,000	-0,001	-0,014
-217,825	-200,000	-0,001	0,006
-216,811	-200,000	-0,034	0,170
-215,796	52,926	-0,041	0,028
-214,782	63,241	-0,052	-0,038
-213,767	-200,000	-0,013	-0,185
-212,752	396,632	-0,056	-0,085
-211,738	-27,373	-0,100	0,042
-210,723	37,942	0,082	0,053
-209,709	320,550	0,039	-0,054
-208,694	800,000	-0,051	-0,141
-207,679	-200,000	-0,053	-0,195
-206,665	-80,222	0,124	-0,030
-205,650	-200,000	0,002	-0,115
-204,636	-89,188	0,102	0,022
-203,621	-123,915	-0,039	0,004
-202,606	-8,105	-0,070	0,034
-201,592	-155,859	-0,065	0,003
-200,577	-124,750	-0,056	-0,006
-199,563	246,888	0,055	0,067
-198,548	-200,000	0,045	0,169
-197,533	2,792	-0,029	0,015
-196,519	354,918	-0,071	0,103
-195,504	678,700	0,051	-0,097
-194,490	747,251	0,041	-0,080
-193,475	267,199	0,056	0,072
-192,460	800,000	0,035	-0,107
-191,446	-18,092	-0,214	0,097
-190,431	201,478	0,118	0,132
-189,417	-94,076	0,009	-0,002
-188,402	326,607	-0,030	0,041
-187,387	-200,000	0,043	-0,137
-186,373	-36,112	0,181	-0,071
-185,358	477,828	0,033	-0,055
-184,344	800,000	0,014	-0,028
-183,329	-200,000	-0,008	0,080
-182,315	701,616	0,055	0,107
-181,300	-200,000	-0,039	0,131
-180,285	64,911	-0,059	0,043
-179,271	252,164	-0,121	0,149
-178,256	-74,127	-0,102	0,027
-177,242	100,955	0,058	-0,049
-176,227	281,393	-0,108	-0,140
-175,212	6,561	-0,130	-0,070
-174,198	512,189	-0,055	0,094
-173,183	800,000	-0,029	-0,073
-172,169	-200,000	0,015	-0,089
-171,154	-200,000	-0,001	-0,115
-170,139	-200,000	0,010	-0,047
-169,125	275,485	0,038	0,049
-168,110	101,200	0,150	0,127
-167,096	800,000	-0,045	-0,099
-166,081	-93,959	-0,093	0,018
-165,066	800,000	-0,016	0,047
-164,052	-166,324	0,125	-0,004
-163,037	-200,000	-0,006	0,083
-162,023	-200,000	0,032	0,108
-161,008	-200,000	0,031	0,198
-159,993	800,000	-0,044	-0,104
-158,979	-90,643	0,079	-0,016
-157,964	525,697	0,038	-0,065
-156,950	568,917	0,032	-0,056
-155,935	-102,410	-0,046	-0,008
-154,920	-178,868	0,017	-0,000
-153,906	-200,000	0,078	0,260
-152,891	-200,000	-0,036	0,147
-151,877	319,586	-0,057	0,078
-150,862	800,000	-0,036	-0,091
-149,847	177,827	0,097	0,102
-148,833	338,793	-0,041	-0,058
-147,818	-200,000	0,041	0,140
-146,804	112,499	0,085	0,074
-145,789	42,536	-0,095	0,062
-144,775	29,902	-0,065	-0,040
-143,760	390,854	-0,051	0,076
-142,745	60,383	-0,100	-0,072
-141,731	195,555	0,094	0,104
-140,716	176,534	-0,004	0,004
-139,702	-200,000	0,021	0,067
-138,687	800,000	0,017	0,043
-137,672	38,800	-0,069	0,045
-136,658	-200,000	-0,026	0,098
-135,643	230,088	0,039	-0,046
-134,629	800,000	0,025	0,056
-133,614	-20,724	0,113	-0,050
-132,599	253,507	0,101	-0,125
-131,585	-87,590	-0,100	-0,022
-130,570	338,710	-0,071	-0,100
-129,556	800,000	-0,012	-0,029
-128,541	41,980	-0,080	0,052
-127,526	169,977	0,109	0,113
-126,512	120,156	-0,065	-0,058
-125,497	-200,000	-0,013	-0,095
-124,483	-97,586	0,089	0,016
-123,468	85,926	0,061	-0,049
-122,453	-200,000	0,005	-0,071
-121,439	136,526	-0,064	0,060
-120,424	800,000	0,022	0,057
-119,410	-200,000	-0,008	0,031
