DTS Sentinel unit serial number:	SN410029Multiplexer serial number:	ORYXHardware model number:	OX2-SRSoftware version number:	ORYX F/W v4,00 Oryx Data Collector v3.7.2.0data status	okinstallation	B6 Nyhavnadifferential loss correction	single-endedforward channel	channel 2reverse channel	N/Adate	2023/12/08time	18:00:08forward acquisition time	300,00reverse acquisition time	0,00gamma	499,1914k internal	0,3158k external	0,3158temperature offset calibration	1,0000default loss term (dB/km)	0,3820temperature slope calibration	1,0000multiplexer offset coefficient	1,0000multiplexer slope coefficient	1,0000fibre end	0,00T internal ref (°C)	15,20T ext. ref 1 (°C)	-1,25T ext. ref 2 (°C)	-1,24length (m)	temperature (°C)	Stokes	anti-Stokes-744,400	120,610	0,021	0,019
-743,385	-111,876	-0,295	0,043
-742,371	-152,864	0,219	-0,011
-741,356	-42,837	-0,359	0,134
-740,342	-43,211	0,174	0,065
-739,327	-115,609	-0,397	0,054
-738,312	-148,262	0,175	0,010
-737,298	-182,026	-0,334	-0,005
-736,283	-10,287	0,092	0,045
-735,269	-121,147	-0,398	-0,048
-734,254	-174,581	0,084	-0,002
-733,239	-76,224	-0,493	-0,127
-732,225	-155,599	0,128	-0,006
-731,210	-5,947	0,052	0,026
-730,196	335,729	-0,012	-0,017
-729,181	2,746	0,061	0,033
-728,167	-89,440	-0,137	-0,029
-727,152	800,000	-0,046	-0,109
-726,137	640,233	-0,065	0,123
-725,123	-178,096	-0,101	0,002
-724,108	-200,000	0,006	-0,094
-723,094	42,918	-0,056	-0,038
-722,079	-114,069	-0,127	-0,018
-721,064	64,274	0,007	-0,005
-720,050	-82,644	-0,176	0,042
-719,035	-200,000	0,007	0,032
-718,021	-5,971	-0,030	0,015
-717,006	17,961	-0,051	-0,030
-715,991	-76,721	-0,121	0,031
-714,977	800,000	-0,014	-0,029
-713,962	800,000	0,018	-0,056
-712,948	800,000	0,039	-0,086
-711,933	800,000	-0,004	0,010
-710,918	800,000	0,027	0,059
-709,904	-83,422	-0,128	0,030
-708,889	-189,919	-0,119	0,001
-707,875	304,692	-0,041	0,057
-706,860	632,518	0,073	-0,137
-705,845	556,259	-0,043	0,077
-704,831	98,231	-0,056	-0,048
-703,816	-105,032	0,100	-0,017
-702,802	510,589	0,035	-0,061
-701,787	-85,850	0,105	0,024
-700,772	-115,674	-0,086	-0,012
-699,758	-200,000	0,018	-0,085
-698,743	-136,423	0,160	0,013
-697,729	8,722	0,071	-0,040
-696,714	-18,246	0,149	0,068
-695,699	-11,492	-0,099	-0,048
-694,685	99,036	-0,080	-0,068
-693,670	-132,565	-0,140	0,013
-692,656	-17,649	0,069	-0,032
-691,641	41,141	0,057	-0,038
-690,627	60,135	0,051	-0,037
-689,612	-163,048	0,068	0,002
-688,597	-200,000	0,016	0,071
-687,583	-157,271	-0,232	-0,010
-686,568	260,118	0,040	0,050
-685,554	731,329	-0,088	-0,174
-684,539	66,813	0,130	-0,097
-683,524	449,670	0,033	-0,054
-682,510	800,000	-0,013	-0,029
-681,495	-185,442	-0,079	0,001
-680,481	-119,314	0,037	-0,005
-679,466	250,284	0,025	0,031
-678,451	294,557	-0,084	-0,113
-677,437	288,468	-0,061	-0,081
-676,422	-54,481	-0,074	0,025
-675,408	-24,391	0,053	0,023
-674,393	-46,556	0,079	0,028
-673,378	67,259	-0,021	0,016
-672,364	-200,000	-0,018	0,087
-671,349	80,918	0,035	-0,028
-670,335	159,054	0,050	-0,051
-669,320	-200,000	0,008	-0,199
-668,305	-33,916	0,073	-0,029
-667,291	-200,000	0,020	0,138
-666,276	800,000	-0,026	-0,071
-665,262	32,932	-0,071	-0,045
-664,247	355,561	-0,099	-0,144
-663,232	-83,341	-0,127	0,030
-662,218	215,587	0,057	0,066
-661,203	-200,000	0,037	0,146
-660,189	-65,617	-0,056	0,017
-659,174	-200,000	-0,012	-0,168
-658,159	322,720	-0,068	-0,095
-657,145	123,553	0,085	0,079
-656,130	-200,000	-0,018	-0,156
-655,116	800,000	-0,012	0,032
-654,101	-87,013	-0,082	-0,018
-653,086	800,000	0,012	-0,033
-652,072	-183,476	-0,147	0,002
-651,057	800,000	0,036	-0,086
-650,043	266,424	-0,100	-0,128
-649,028	46,202	0,086	-0,058
-648,014	-25,944	0,115	-0,050
-646,999	800,000	-0,004	0,010
-645,984	200,632	0,023	0,026
-644,970	800,000	-0,043	0,111
-643,955	-188,727	0,147	0,001
-642,941	181,121	-0,055	-0,060
-641,926	800,000	-0,052	0,140
-640,911	800,000	-0,028	-0,068
-639,897	128,678	-0,090	-0,084
-638,882	417,743	0,045	0,070
-637,868	-115,917	-0,083	-0,011
-636,853	-129,439	-0,025	0,002
-635,838	-200,000	0,003	-0,035
-634,824	24,867	-0,133	0,081
-633,809	468,471	-0,028	-0,046
-632,795	-200,000	0,004	-0,112
-631,780	78,139	0,050	0,040
-630,765	-200,000	-0,004	-0,018
-629,751	800,000	-0,021	-0,049
-628,736	-68,238	-0,013	0,004
-627,722	-200,000	-0,007	0,040
-626,707	22,789	-0,068	-0,041
-625,692	633,348	-0,046	-0,086
-624,678	-32,961	-0,161	0,065
-623,663	800,000	0,036	0,091
-622,649	178,089	-0,073	0,078
-621,634	-200,000	-0,004	0,038
-620,619	800,000	0,026	0,055
-619,605	98,542	-0,029	0,025
-618,590	-44,289	0,086	-0,031
-617,576	26,967	0,024	-0,015
-616,561	59,270	0,019	-0,014
-615,546	41,436	-0,081	-0,054
-614,532	-200,000	-0,019	-0,104
-613,517	-140,875	-0,013	-0,001
-612,503	405,979	-0,058	-0,090
-611,488	-90,170	0,226	-0,048
-610,474	-200,000	-0,011	0,073
-609,459	170,607	0,072	0,076
-608,444	-200,000	-0,004	-0,058
-607,430	67,862	0,033	0,025
-606,415	-200,000	-0,007	0,040
-605,401	800,000	0,011	0,026
-604,386	3,730	-0,052	-0,028
-603,371	-46,325	-0,100	0,036
-602,357	52,399	0,066	0,046
-601,342	72,709	-0,160	-0,122
-600,328	800,000	-0,053	-0,143
-599,313	27,525	-0,026	-0,016
-598,298	96,954	-0,033	-0,028
-597,284	800,000	0,036	0,094
-596,269	68,804	0,098	0,074
-595,255	25,913	-0,113	-0,069
-594,240	-200,000	-0,032	-0,107
-593,225	-109,997	0,203	-0,031
-592,211	96,036	-0,056	-0,047
-591,196	157,881	-0,032	-0,032
-590,182	-131,486	0,131	0,013
-589,167	14,240	-0,122	0,070
-588,152	800,000	0,043	-0,119
-587,138	-0,855	-0,020	0,010
-586,123	-200,000	-0,011	0,064
-585,109	31,307	0,074	-0,046
-584,094	267,311	-0,017	0,021
-583,079	-35,754	-0,031	-0,012
-582,065	-163,434	-0,088	-0,003
-581,050	-89,251	-0,075	-0,016
-580,036	68,279	-0,046	-0,034
-579,021	-85,968	-0,070	-0,016
-578,006	41,391	-0,081	0,053
-576,992	83,550	0,010	-0,008
-575,977	12,598	0,087	0,049
-574,963	-200,000	0,017	0,135
-573,948	-119,970	0,054	0,007
-572,934	15,377	0,054	0,031
-571,919	100,709	-0,039	0,033
-570,904	51,612	-0,164	-0,114
-569,890	233,371	-0,077	-0,093
-568,875	154,111	-0,061	-0,061
-567,861	129,788	0,078	0,073
-566,846	-200,000	0,016	0,098
-565,831	690,855	-0,067	-0,128
-564,817	-135,126	0,065	0,006
-563,802	63,315	-0,036	-0,027
-562,788	-150,258	-0,033	-0,002
-561,773	-43,656	0,117	0,043
-560,758	-18,758	0,100	0,045
-559,744	800,000	-0,044	0,114
-558,729	146,027	-0,069	0,068
-557,715	603,354	-0,067	-0,123
-556,700	11,809	-0,035	0,020
-555,685	800,000	-0,056	-0,134
-554,671	-157,909	0,071	-0,003
-553,656	45,882	0,100	0,067
-552,642	97,621	0,096	-0,081
-551,627	121,126	-0,058	0,053
-550,612	800,000	-0,073	0,153
-549,598	-200,000	0,025	-0,089
-548,583	-200,000	-0,006	0,023
-547,569	-177,807	0,056	-0,001
-546,554	-200,000	-0,006	0,061
-545,539	-200,000	0,009	0,125
-544,525	63,658	0,078	-0,057
-543,510	-200,000	-0,010	-0,125
-542,496	165,877	-0,078	-0,080
-541,481	15,061	-0,092	-0,052
-540,466	91,608	0,086	-0,070
-539,452	-77,459	0,159	0,040
-538,437	-200,000	-0,002	0,018
-537,423	-17,197	-0,221	-0,101
-536,408	127,532	-0,067	-0,062
-535,393	-50,530	0,155	-0,053
-534,379	-200,000	0,002	-0,013
-533,364	180,938	-0,093	0,100
-532,350	151,848	0,068	0,068
-531,335	493,835	-0,092	0,155
-530,321	-200,000	0,027	0,111
-529,306	-26,119	-0,099	-0,043
-528,291	169,579	0,090	-0,094
-527,277	-6,558	0,070	0,035
-526,262	-154,938	-0,085	-0,004
-525,248	-80,024	0,085	0,021
-524,233	44,623	0,111	0,074
-523,218	800,000	0,040	0,095
-522,204	800,000	-0,081	-0,201
-521,189	-46,080	-0,210	-0,075
-520,175	428,804	-0,030	-0,047
-519,160	-200,000	-0,025	0,083
-518,145	197,330	0,084	0,093
-517,131	-40,327	0,063	0,024
-516,116	15,289	-0,059	-0,034
-515,102	-95,778	-0,097	0,019
-514,087	-200,000	0,017	-0,145
-513,072	-140,818	-0,048	0,004
-512,058	-200,000	0,019	-0,077
-511,043	202,960	0,045	-0,051
-510,029	-200,000	0,019	0,066
-509,014	-200,000	0,010	0,142
-507,999	-100,735	-0,033	0,006
-506,985	116,636	-0,087	-0,078
-505,970	800,000	-0,052	-0,125
-504,956	-16,242	0,146	0,067
-503,941	281,898	0,118	0,155
-502,926	-200,000	0,042	0,137
-501,912	-200,000	0,023	0,110
-500,897	67,211	-0,072	0,054
-499,883	800,000	-0,078	-0,176
-498,868	166,918	0,123	-0,128
-497,853	-39,139	-0,070	-0,027
-496,839	-51,502	0,114	0,039
-495,824	-200,000	0,007	-0,047
-494,810	-91,366	-0,085	-0,018
-493,795	114,402	-0,013	-0,011
-492,781	91,424	0,068	-0,056
-491,766	-200,000	0,009	-0,141
-490,751	-105,856	-0,109	-0,018
-489,737	-159,788	0,068	0,003
-488,722	-51,842	0,041	0,014
-487,708	800,000	-0,024	0,051
-486,693	800,000	-0,047	0,122
-485,678	-60,994	-0,080	0,024
-484,664	-66,553	-0,101	0,029
-483,649	800,000	-0,014	0,035
-482,635	-200,000	0,011	-0,059
-481,620	116,880	-0,044	0,039
-480,605	800,000	0,038	-0,115
-479,591	-200,000	0,034	0,159
-478,576	-85,392	-0,050	-0,011
-477,562	-163,731	0,080	0,003
-476,547	543,378	-0,031	-0,055
-475,532	-200,000	-0,006	-0,056
-474,518	-35,396	0,012	-0,005
-473,503	-32,685	0,176	0,071
-472,489	-200,000	0,017	-0,094
-471,474	322,300	-0,066	0,092
-470,459	-64,621	-0,119	-0,035
-469,445	-29,799	-0,063	0,026
-468,430	-200,000	0,013	-0,081
-467,416	74,996	0,057	0,043
-466,401	-200,000	0,009	-0,053
-465,386	62,314	0,038	0,028
-464,372	263,494	-0,029	0,037
-463,357	-200,000	-0,063	0,228
-462,343	-200,000	0,002	-0,094
-461,328	49,644	0,055	-0,038
-460,313	646,627	-0,035	-0,065
-459,299	596,685	-0,055	0,099
-458,284	3,195	0,089	0,047
-457,270	31,519	-0,165	-0,103
-456,255	159,740	0,041	-0,041
-455,241	-200,000	-0,017	0,074
-454,226	-200,000	0,007	0,059
-453,211	212,561	0,112	-0,129
-452,197	-7,905	0,130	0,064
-451,182	236,047	0,038	0,046
-450,168	366,575	0,023	0,035
-449,153	44,656	0,172	0,115
-448,138	-181,781	0,063	-0,001
-447,124	574,449	-0,023	-0,041
-446,109	-96,461	-0,084	0,016
-445,095	800,000	0,025	-0,070
-444,080	-68,391	0,140	-0,039
-443,065	12,740	-0,127	-0,071
-442,051	271,449	-0,011	-0,015
-441,036	257,934	0,051	-0,064
-440,022	-200,000	-0,033	-0,144
-439,007	-97,084	-0,075	0,014
-437,992	-200,000	-0,016	-0,103
-436,978	-98,355	-0,187	-0,035
-435,963	800,000	-0,015	-0,033
-434,949	-0,495	0,043	0,022
-433,934	497,348	-0,005	-0,009
-432,919	87,129	-0,153	-0,123
-431,905	266,370	0,028	-0,036
-430,890	45,343	0,045	-0,030
-429,876	-87,900	0,077	0,017
-428,861	416,605	-0,035	0,055
-427,846	99,269	0,086	-0,073
-426,832	-41,834	0,038	-0,014
-425,817	800,000	-0,047	-0,127
-424,803	116,333	0,033	0,029
-423,788	192,168	-0,044	0,048
-422,773	800,000	0,021	0,048
-421,759	319,978	-0,083	0,115
-420,744	-16,387	-0,030	-0,014
-419,730	91,643	-0,057	-0,047
-418,715	176,898	-0,073	-0,078
-417,701	291,379	0,165	-0,219
-416,686	800,000	-0,018	0,053
-415,671	-200,000	-0,001	-0,052
-414,657	111,575	-0,042	0,037
-413,642	-200,000	-0,009	-0,056
-412,628	-92,715	-0,099	0,020
-411,613	57,049	-0,026	-0,018
-410,598	52,258	0,067	0,046
-409,584	-200,000	0,009	-0,047
-408,569	239,705	-0,074	0,089
-407,555	168,330	0,064	0,067
-406,540	-89,648	-0,079	0,017
-405,525	-24,471	0,010	0,004
-404,511	-118,600	0,043	0,005
-403,496	53,272	-0,086	0,060
-402,482	466,918	0,056	0,091
-401,467	292,303	-0,013	-0,017
-400,452	-63,802	-0,097	0,029
-399,438	800,000	-0,061	0,129
-398,423	319,834	0,071	-0,099
-397,409	-200,000	0,004	-0,040
-396,394	-20,343	0,101	0,045
-395,379	-200,000	0,010	0,134
-394,365	-13,526	0,098	0,046
-393,350	1,691	-0,105	0,055
-392,336	93,607	-0,058	0,048
-391,321	341,537	-0,024	-0,035
-390,306	-200,000	-0,020	-0,093
-389,292	101,973	0,014	0,012
-388,277	20,213	-0,099	-0,058
-387,263	62,167	0,083	-0,060
-386,248	-5,867	0,186	-0,092
-385,233	-136,761	0,085	-0,007
-384,219	-200,000	-0,004	0,027
-383,204	-200,000	0,012	-0,105
-382,190	-30,974	0,044	-0,018
-381,175	800,000	0,015	0,032
-380,160	-20,455	-0,056	0,025
-379,146	-200,000	-0,005	0,040
-378,131	111,760	0,105	-0,092
-377,117	-200,000	0,001	0,091
-376,102	-200,000	-0,007	-0,068
-375,088	634,202	-0,092	-0,171
-374,073	349,711	-0,027	0,039
-373,058	-18,960	0,080	-0,036
-372,044	23,973	0,043	0,025
-371,029	-200,000	0,003	0,049
-370,015	-121,309	-0,107	-0,013
-369,000	-200,000	0,002	0,032
-367,985	800,000	-0,048	0,098
-366,971	192,639	0,073	-0,080
-365,956	-200,000	0,034	-0,148
-364,942	444,568	0,061	0,098
-363,927	66,937	-0,089	-0,066
-362,912	-45,967	0,104	0,037
-361,898	800,000	-0,048	0,124
-360,883	800,000	-0,022	0,051
-359,869	-129,835	-0,052	-0,005
-358,854	202,746	0,052	-0,058
-357,839	-42,925	-0,057	-0,021
-356,825	299,113	-0,083	-0,111
-355,810	-55,333	0,104	0,034
-354,796	44,768	-0,025	-0,017
-353,781	-200,000	-0,015	0,087
-352,766	-72,023	-0,083	-0,022
-351,752	-93,446	0,122	-0,024
-350,737	441,346	-0,023	0,036
-349,723	332,508	0,020	0,027
-348,708	143,255	0,074	0,071
-347,693	-200,000	0,010	-0,074
-346,679	-151,652	-0,062	0,003
-345,664	-200,000	0,001	-0,018
-344,650	800,000	-0,049	0,109
-343,635	-200,000	-0,002	0,062
-342,620	800,000	0,009	0,019
-341,606	-200,000	-0,021	-0,073
-340,591	174,573	-0,100	-0,105
-339,577	236,179	-0,033	0,040
-338,562	101,467	0,144	-0,121
-337,548	-112,018	0,054	-0,008
-336,533	800,000	0,027	0,082
-335,518	198,808	0,068	-0,075
-334,504	-104,125	0,088	0,015
-333,489	276,256	0,111	-0,143
-332,475	139,359	-0,057	0,055
-331,460	-98,344	-0,046	0,009
-330,445	-103,324	0,092	0,016
-329,431	-200,000	0,042	0,158
-328,416	800,000	0,060	0,171
-327,402	112,392	-0,035	0,030
-326,387	800,000	-0,020	0,059
-325,372	-200,000	0,008	-0,037
-324,358	-45,628	-0,162	0,058
-323,343	64,238	0,081	-0,059
-322,329	800,000	-0,011	0,025
-321,314	-200,000	-0,017	-0,128
-320,299	800,000	0,046	-0,099
-319,285	800,000	-0,064	0,139
-318,270	-86,819	-0,136	-0,030
-317,256	-64,031	0,084	0,025
-316,241	243,877	-0,085	-0,104
-315,226	197,380	-0,021	-0,023
-314,212	234,842	0,054	0,065
-313,197	-145,310	-0,055	0,004
-312,183	-151,258	0,097	0,005
-311,168	-175,524	-0,073	-0,001
-310,153	-70,411	-0,050	0,014
-309,139	-181,566	-0,094	0,001
-308,124	187,553	0,053	-0,058
-307,110	321,561	0,078	0,108
-306,095	-54,704	0,088	0,029
-305,080	-65,656	0,062	-0,018
-304,066	31,365	-0,080	-0,050
-303,051	-7,538	-0,170	0,083
-302,037	77,255	0,030	-0,023
-301,022	800,000	0,073	0,173
-300,008	-115,629	-0,096	0,013
-298,993	800,000	0,068	0,153
-297,978	-200,000	-0,013	0,218
-296,964	98,600	-0,058	0,048
-295,949	-83,306	-0,107	0,025
-294,935	-111,642	0,211	0,031
-293,920	800,000	0,028	-0,074
-292,905	-13,568	0,092	0,043
-291,891	-6,993	0,109	-0,054
-290,876	-200,000	-0,021	-0,100
-289,862	500,487	-0,094	-0,158
-288,847	639,645	0,077	-0,142
-287,832	63,266	0,049	-0,035
-286,818	-160,522	-0,008	0,000
-285,803	117,832	0,114	0,101
-284,789	165,501	-0,095	0,098
-283,774	732,487	-0,016	0,031
-282,759	-72,413	0,126	0,033
-281,745	-30,709	0,094	0,038
-280,730	-200,000	0,024	-0,083
-279,716	-200,000	-0,015	-0,073
-278,701	-200,000	0,011	0,036
-277,686	-13,176	0,055	-0,026
-276,672	57,151	0,098	0,069
-275,657	-6,821	0,101	0,050
-274,643	-134,494	0,189	0,017
-273,628	342,922	-0,032	-0,046
-272,613	504,726	-0,078	0,131
-271,599	-183,010	0,069	0,001
-270,584	-30,769	-0,072	-0,029
-269,570	81,203	0,044	0,035
-268,555	203,976	0,082	0,093
-267,540	-32,706	-0,139	0,056
-266,526	226,307	0,038	-0,044
-265,511	91,658	-0,032	-0,026
-264,497	342,173	0,098	0,139
-263,482	-19,763	-0,128	-0,057
-262,467	69,232	0,101	0,075
-261,453	-200,000	0,007	0,029
-260,438	-128,289	-0,070	-0,007
-259,424	147,825	0,009	-0,009
-258,409	-98,987	0,161	-0,029
-257,395	800,000	0,033	-0,093
-256,380	-102,598	-0,066	0,011
-255,365	694,385	0,025	-0,048
-254,351	-9,159	-0,064	0,031
-253,336	-18,708	0,121	-0,055
-252,322	800,000	0,007	0,018
-251,307	136,701	-0,037	0,035
-250,292	6,452	-0,106	-0,057
-249,278	30,175	-0,061	-0,037
-248,263	800,000	0,030	-0,088
-247,249	800,000	-0,005	-0,017
-246,234	83,868	-0,066	0,052
-245,219	334,297	-0,062	-0,087
-244,205	800,000	0,030	0,071
-243,190	-200,000	-0,026	0,138
-242,176	548,708	-0,057	-0,099
-241,161	-200,000	0,006	0,106
-240,146	-200,000	0,002	-0,132
-239,132	59,290	-0,049	-0,035
-238,117	-200,000	0,009	0,043
-237,103	800,000	-0,034	0,094
-236,088	214,164	0,062	-0,071
-235,073	243,019	0,016	-0,020
-234,059	-200,000	0,011	-0,069
-233,044	151,861	0,030	0,030
-232,030	800,000	-0,043	-0,113
-231,015	-200,000	0,004	-0,119
-230,000	-200,000	-0,013	-0,095
-228,986	252,007	0,060	0,074
-227,971	-182,754	0,101	0,001
-226,957	-129,802	0,131	0,013
-225,942	226,126	0,061	0,071
-224,927	-200,000	-0,007	0,066
-223,913	690,626	-0,056	0,106
-222,898	123,169	-0,056	0,050
-221,884	336,453	-0,065	0,091
-220,869	-200,000	-0,008	0,155
-219,855	28,393	0,138	0,084
-218,840	-62,668	0,053	0,016
-217,825	-171,673	-0,032	0,001
-216,811	19,409	0,042	0,024
-215,796	-200,000	-0,014	-0,112
-214,782	767,422	-0,040	-0,079
-213,767	579,574	-0,045	0,080
-212,752	70,128	0,086	-0,064
-211,738	-7,698	-0,047	-0,023
-210,723	404,462	0,077	0,118
-209,709	-90,461	-0,209	0,043
-208,694	-122,630	0,061	-0,007
-207,679	416,800	0,054	-0,084
-206,665	-82,698	0,067	0,015
-205,650	402,444	0,039	0,059
-204,636	-33,878	-0,039	0,015
-203,621	243,945	-0,082	-0,099
-202,606	-9,471	0,008	0,004
-201,592	-95,906	-0,147	-0,028
-200,577	440,121	0,026	0,041
-199,563	28,457	-0,129	0,079
-198,548	370,937	0,009	0,013
-197,533	424,486	0,041	-0,063
-196,519	-200,000	0,006	-0,038
-195,504	-114,376	-0,046	-0,006
-194,490	170,953	-0,040	-0,041
-193,475	800,000	-0,060	-0,123
-192,460	8,658	-0,069	0,037
-191,446	-200,000	-0,010	0,038
-190,431	290,065	0,009	0,012
-189,417	-181,155	-0,069	0,001
-188,402	39,467	-0,120	0,077
-187,387	-200,000	0,048	-0,162
-186,373	231,543	0,025	-0,030
-185,358	183,785	-0,122	-0,130
-184,344	-45,714	0,101	0,036
-183,329	29,476	0,074	0,046
-182,315	-131,946	0,119	0,011
-181,300	75,273	0,092	0,070
-180,285	-63,279	-0,120	-0,036
-179,271	-200,000	-0,004	-0,100
-178,256	479,569	0,069	0,114
-177,242	-200,000	0,002	0,050
-176,227	499,911	-0,036	-0,060
-175,212	402,040	0,035	0,054
-174,198	335,857	0,044	-0,062
-173,183	403,552	0,028	-0,042
-172,169	800,000	-0,052	0,114
-171,154	800,000	0,061	-0,158
-170,139	44,254	0,034	-0,023
-169,125	-120,438	0,034	-0,004
-168,110	52,361	0,128	0,088
-167,096	379,648	-0,100	-0,148
-166,081	-200,000	0,001	0,099
-165,066	-200,000	-0,016	-0,060
-164,052	122,787	0,102	0,092
-163,037	800,000	0,011	-0,029
-162,023	800,000	0,020	-0,060
-161,008	800,000	-0,007	-0,018
-159,993	800,000	-0,085	0,193
-158,979	-70,917	-0,095	0,025
-157,964	147,855	-0,084	-0,082
-156,950	105,401	0,068	-0,058
-155,935	80,503	-0,073	-0,056
-154,920	-200,000	0,013	0,115
-153,906	-200,000	0,025	0,097
-152,891	56,580	-0,024	0,017
-151,877	-76,272	0,210	0,053
-150,862	-98,675	-0,128	0,023
-149,847	-4,095	0,021	-0,011
-148,833	84,325	0,022	-0,017
-147,818	-60,678	-0,178	-0,054
-146,804	-15,554	-0,054	-0,025
-145,789	-94,099	-0,209	0,041
-144,775	800,000	0,040	-0,106
-143,760	-68,727	0,162	0,045
-142,745	800,000	0,027	-0,055
-141,731	800,000	0,031	0,072
-140,716	-114,381	-0,084	-0,011
-139,702	800,000	0,009	-0,020
-138,687	152,166	0,017	0,017
-137,672	-200,000	-0,034	-0,160
-136,658	800,000	0,027	-0,055
-135,643	66,262	-0,072	-0,053
-134,629	-143,987	-0,170	0,011
-133,614	312,166	-0,048	-0,065
-132,599	724,161	0,050	0,097
-131,585	641,713	0,067	-0,123
-130,570	-116,171	0,011	0,001
-129,556	121,245	-0,019	-0,017
-128,541	114,451	-0,050	-0,044
-127,526	54,673	0,074	0,051
-126,512	-116,302	-0,121	-0,016
-125,497	800,000	0,038	-0,078
-124,483	800,000	0,024	0,051
-123,468	-15,646	0,094	0,043
-122,453	-200,000	-0,030	0,159
-121,439	-77,086	0,080	0,020
-120,424	800,000	-0,029	0,061
-119,410	-118,842	0,062	0,008
-118,395	-200,000	-0,032	0,120
