DTS Sentinel unit serial number:	SN410029Multiplexer serial number:	ORYXHardware model number:	OX2-SRSoftware version number:	ORYX F/W v4,00 Oryx Data Collector v3.7.2.0data status	okinstallation	B6 Nyhavnadifferential loss correction	single-endedforward channel	channel 2reverse channel	N/Adate	2023/12/10time	22:10:08forward acquisition time	300,00reverse acquisition time	0,00gamma	499,1914k internal	0,3122k external	0,3122temperature offset calibration	1,0000default loss term (dB/km)	0,3820temperature slope calibration	1,0000multiplexer offset coefficient	1,0000multiplexer slope coefficient	1,0000fibre end	0,00T internal ref (°C)	22,32T ext. ref 1 (°C)	6,12T ext. ref 2 (°C)	6,12length (m)	temperature (°C)	Stokes	anti-Stokes-744,400	520,180	-0,030	-0,052
-743,385	173,804	-0,110	0,118
-742,371	-91,774	0,085	0,018
-741,356	-4,889	-0,163	0,083
-740,342	37,808	0,071	-0,047
-739,327	74,162	-0,142	0,111
-738,312	80,537	-0,135	-0,108
-737,298	-18,183	-0,364	0,169
-736,283	-14,771	0,129	-0,061
-735,269	197,391	-0,136	0,154
-734,254	-200,000	0,007	-0,036
-733,239	-108,493	-0,385	-0,061
-732,225	-200,000	0,044	-0,171
-731,210	233,593	-0,038	-0,046
-730,196	43,003	0,030	0,020
-729,181	28,365	0,068	0,043
-728,167	-115,381	-0,086	-0,012
-727,152	147,824	0,052	0,052
-726,137	632,301	-0,047	-0,089
-725,123	25,581	0,126	-0,078
-724,108	246,578	-0,091	-0,114
-723,094	-84,079	-0,088	0,021
-722,079	800,000	-0,043	-0,137
-721,064	800,000	0,005	0,014
-720,050	-10,995	-0,297	0,145
-719,035	-200,000	-0,023	0,105
-718,021	-100,268	-0,070	0,013
-717,006	-70,382	-0,051	-0,014
-715,991	800,000	-0,061	-0,157
-714,977	-200,000	-0,023	-0,104
-713,962	-53,192	0,049	-0,017
-712,948	34,416	0,027	0,018
-711,933	-200,000	0,013	0,054
-710,918	-140,936	-0,021	0,002
-709,904	-20,356	-0,047	0,021
-708,889	125,171	-0,078	-0,074
-707,875	-200,000	-0,000	-0,064
-706,860	-200,000	-0,010	-0,116
-705,845	-2,205	0,144	-0,075
-704,831	800,000	0,050	-0,125
-703,816	89,757	-0,097	0,081
-702,802	-165,212	-0,072	-0,002
-701,787	800,000	0,033	-0,103
-700,772	800,000	-0,035	-0,106
-699,758	327,214	-0,036	0,052
-698,743	-200,000	0,010	0,075
-697,729	629,443	0,044	-0,083
-696,714	59,536	0,117	0,085
-695,699	60,218	-0,165	0,121
-694,685	-167,451	-0,083	-0,002
-693,670	97,910	0,034	-0,029
-692,656	57,583	0,066	0,048
-691,641	345,481	-0,056	0,082
-690,627	55,666	0,058	-0,042
-689,612	-132,707	-0,084	-0,008
-688,597	-200,000	0,006	-0,064
-687,583	-77,954	-0,056	-0,014
-686,568	-2,591	-0,006	0,003
-685,554	-133,304	0,109	0,010
-684,539	-200,000	0,017	0,137
-683,524	800,000	0,051	0,143
-682,510	800,000	0,035	0,085
-681,495	-200,000	-0,015	0,093
-680,481	-73,730	0,067	0,018
-679,466	579,584	-0,099	-0,181
-678,451	-200,000	-0,005	0,086
-677,437	800,000	0,014	-0,045
-676,422	57,133	0,059	0,043
-675,408	-136,520	-0,137	0,012
-674,393	-2,711	-0,250	-0,130
-673,378	800,000	-0,028	-0,091
-672,364	24,270	-0,078	-0,048
-671,349	201,299	0,039	-0,045
-670,335	-12,599	0,065	-0,031
-669,320	-43,601	0,015	0,006
-668,305	290,215	-0,099	-0,134
-667,291	-200,000	-0,009	-0,207
-666,276	-200,000	-0,019	0,081
-665,262	129,295	-0,045	0,043
-664,247	800,000	0,033	-0,083
-663,232	618,346	-0,020	-0,038
-662,218	800,000	0,033	-0,099
-661,203	-0,332	0,142	-0,075
-660,189	-48,157	0,051	-0,018
-659,174	-60,168	-0,131	0,041
-658,159	117,408	0,045	0,041
-657,145	327,701	-0,044	-0,062
-656,130	48,096	-0,063	0,043
-655,116	-200,000	-0,008	-0,060
-654,101	-200,000	-0,017	0,073
-653,086	-200,000	0,006	0,044
-652,072	-170,675	-0,032	0,001
-651,057	-200,000	0,010	-0,060
-650,043	800,000	0,021	-0,057
-649,028	-200,000	-0,021	0,079
-648,014	-200,000	0,010	0,045
-646,999	6,329	0,089	0,049
-645,984	-106,968	-0,077	-0,012
-644,970	-138,467	-0,080	-0,006
-643,955	-34,834	0,044	0,018
-642,941	-200,000	0,003	0,073
-641,926	-39,008	-0,053	-0,021
-640,911	743,718	-0,060	0,121
-639,897	-200,000	-0,006	0,032
-638,882	78,770	0,066	0,052
-637,868	-200,000	-0,004	-0,023
-636,853	307,316	0,037	-0,052
-635,838	249,799	-0,070	-0,089
-634,824	-10,938	-0,094	-0,046
-633,809	-84,905	-0,047	-0,011
-632,795	-28,563	0,094	0,040
-631,780	175,146	0,049	0,052
-630,765	-200,000	0,012	0,105
-629,751	193,948	-0,098	-0,110
-628,736	26,676	-0,034	0,021
-627,722	-3,867	-0,105	-0,054
-626,707	-200,000	-0,000	-0,066
-625,692	800,000	-0,024	-0,059
-624,678	-4,896	0,029	0,015
-623,663	-36,713	0,096	0,038
-622,649	48,981	-0,112	0,078
-621,634	800,000	0,040	-0,093
-620,619	118,291	-0,085	-0,078
-619,605	418,066	0,056	0,089
-618,590	9,214	-0,139	-0,077
-617,576	-136,101	0,232	0,020
-616,561	-200,000	0,008	0,033
-615,546	-200,000	-0,017	-0,115
-614,532	-200,000	-0,014	-0,097
-613,517	800,000	-0,022	-0,059
-612,503	-200,000	0,038	-0,144
-611,488	-140,231	0,027	-0,002
-610,474	568,965	-0,022	-0,041
-609,459	-44,483	0,050	0,018
-608,444	274,184	0,043	-0,056
-607,430	469,639	0,034	0,057
-606,415	413,767	0,015	0,024
-605,401	-128,184	0,127	-0,013
-604,386	135,939	0,051	-0,049
-603,371	262,727	-0,017	0,022
-602,357	-200,000	-0,003	-0,025
-601,342	-84,566	-0,078	0,018
-600,328	-200,000	0,000	-0,021
-599,313	171,241	-0,053	-0,056
-598,298	800,000	0,029	-0,070
-597,284	25,435	-0,030	0,019
-596,269	-200,000	0,005	-0,025
-595,255	73,204	-0,024	0,018
-594,240	-79,300	0,120	0,030
-593,225	800,000	-0,014	0,030
-592,211	14,609	-0,183	-0,105
-591,196	428,698	0,043	-0,069
-590,182	-200,000	-0,011	-0,074
-589,167	-77,741	0,123	-0,031
-588,152	48,414	0,060	-0,042
-587,138	174,994	-0,067	0,071
-586,123	-180,702	-0,092	0,001
-585,109	57,277	-0,045	0,033
-584,094	800,000	0,048	-0,123
-583,079	-149,942	0,103	-0,006
-582,065	264,853	0,091	0,117
-581,050	167,517	0,057	-0,060
-580,036	18,913	-0,093	-0,055
-579,021	563,848	-0,015	-0,028
-578,006	-72,081	0,060	-0,016
-576,992	-200,000	-0,006	-0,071
-575,977	210,284	0,073	-0,085
-574,963	87,969	0,090	-0,074
-573,948	800,000	0,021	0,060
-572,934	800,000	0,035	0,080
-571,919	111,779	0,090	-0,081
-570,904	77,492	-0,024	0,019
-569,890	-200,000	0,049	-0,225
-568,875	239,886	0,080	0,099
-567,861	-200,000	0,002	0,096
-566,846	-118,262	0,121	0,016
-565,831	-200,000	0,002	-0,049
-564,817	175,370	-0,062	0,067
-563,802	-200,000	0,000	0,039
-562,788	49,871	0,062	0,043
-561,773	368,539	0,088	-0,133
-560,758	-63,816	-0,078	-0,023
-559,744	126,967	-0,110	0,103
-558,729	-47,331	-0,059	0,021
-557,715	284,166	-0,075	0,100
-556,700	170,920	-0,102	-0,108
-555,685	-67,542	-0,111	0,032
-554,671	-200,000	-0,034	0,122
-553,656	169,123	-0,102	0,108
-552,642	381,476	-0,074	-0,113
-551,627	-200,000	-0,024	-0,124
-550,612	-200,000	0,001	-0,108
-549,598	-106,612	-0,074	-0,012
-548,583	127,114	-0,113	-0,107
-547,569	89,048	0,071	-0,058
-546,554	-121,687	-0,051	-0,006
-545,539	235,198	-0,120	-0,147
-544,525	-31,176	-0,068	-0,028
-543,510	-200,000	-0,009	-0,094
-542,496	553,761	0,041	-0,073
-541,481	-11,553	0,097	0,047
-540,466	-200,000	-0,019	-0,084
-539,452	107,248	-0,051	0,045
-538,437	-184,858	0,023	-0,000
-537,423	79,715	-0,075	0,059
-536,408	-126,681	-0,098	-0,011
-535,393	77,745	-0,021	0,016
-534,379	-200,000	-0,011	-0,065
-533,364	800,000	0,056	-0,183
-532,350	-91,871	0,131	-0,027
-531,335	34,918	0,083	-0,054
-530,321	800,000	-0,038	-0,085
-529,306	158,750	0,056	-0,057
-528,291	-78,197	-0,150	0,038
-527,277	-72,736	0,027	-0,007
-526,262	51,613	0,102	-0,071
-525,248	800,000	-0,046	-0,144
-524,233	-200,000	0,010	0,082
-523,218	-64,197	-0,068	-0,020
-522,204	627,618	0,059	-0,110
-521,189	100,398	-0,126	-0,108
-520,175	-52,864	-0,137	-0,046
-519,160	510,734	0,052	0,090
-518,145	111,955	0,024	-0,021
-517,131	-97,672	-0,028	-0,005
-516,116	-15,157	-0,070	-0,033
-515,102	186,468	0,047	-0,052
-514,087	401,869	-0,087	0,135
-513,072	174,755	0,017	-0,019
-512,058	20,606	0,041	-0,025
-511,043	12,443	-0,138	-0,078
-510,029	-200,000	-0,017	0,187
-509,014	-104,830	-0,051	0,008
-507,999	436,283	-0,033	0,054
-506,985	-200,000	-0,168	-0,001
-505,970	-200,000	0,034	-0,120
-504,956	-200,000	0,018	-0,125
-503,941	665,002	0,055	0,104
-502,926	800,000	0,036	0,090
-501,912	265,361	-0,080	-0,103
-500,897	-200,000	0,008	-0,051
-499,883	-116,213	-0,078	0,011
-498,868	95,292	0,029	-0,024
-497,853	83,484	-0,034	-0,027
-496,839	-22,510	0,154	0,068
-495,824	-76,116	-0,034	-0,009
-494,810	321,550	0,085	0,119
-493,795	-83,901	0,079	-0,018
-492,781	800,000	-0,030	-0,065
-491,766	-62,076	-0,124	-0,038
-490,751	-21,939	-0,061	0,027
-489,737	-200,000	0,008	-0,073
-488,722	-130,289	-0,102	0,010
-487,708	684,366	0,026	-0,051
-486,693	-137,535	0,026	0,002
-485,678	-200,000	-0,004	-0,101
-484,664	119,593	0,088	-0,080
-483,649	83,209	-0,064	-0,051
-482,635	-200,000	0,039	-0,142
-481,620	-140,851	-0,089	0,007
-480,605	-200,000	-0,001	0,018
-479,591	800,000	0,033	0,093
-478,576	-53,239	-0,088	0,030
-477,562	125,419	0,043	-0,040
-476,547	187,755	-0,127	0,140
-475,532	-200,000	0,019	-0,093
-474,518	800,000	-0,051	0,124
-473,503	375,445	-0,039	0,059
-472,489	-200,000	-0,014	0,099
-471,474	-200,000	-0,011	0,058
-470,459	-200,000	-0,014	-0,112
-469,445	-21,274	-0,066	0,030
-468,430	176,769	-0,034	-0,037
-467,416	-142,591	-0,128	-0,009
-466,401	800,000	-0,053	0,155
-465,386	-200,000	-0,010	0,073
-464,372	-76,737	0,128	-0,033
-463,357	-59,297	-0,214	-0,068
-462,343	247,280	-0,093	0,116
-461,328	78,564	0,024	0,019
-460,313	-164,212	-0,116	0,004
-459,299	187,664	0,068	0,075
-458,284	800,000	0,025	0,077
-457,270	-200,000	-0,028	0,099
-456,255	17,208	-0,053	-0,031
-455,241	54,125	0,042	0,030
-454,226	-200,000	-0,007	-0,180
-453,211	13,631	0,046	0,027
-452,197	-51,815	-0,087	0,030
-451,182	257,365	0,090	-0,115
-450,168	-200,000	-0,001	0,055
-449,153	102,579	0,101	0,087
-448,138	800,000	0,027	-0,068
-447,124	786,388	0,015	-0,030
-446,109	-21,140	-0,121	-0,054
-445,095	13,770	0,108	0,061
-444,080	297,061	0,113	0,154
-443,065	-200,000	-0,005	0,069
-442,051	-200,000	-0,031	-0,145
-441,036	537,794	0,019	0,033
-440,022	-200,000	0,022	-0,089
-439,007	800,000	-0,050	-0,118
-437,992	356,850	0,018	0,026
-436,978	473,497	0,038	0,063
-435,963	800,000	-0,014	-0,038
-434,949	-200,000	0,023	0,128
-433,934	169,192	-0,100	-0,106
-432,919	-200,000	-0,027	-0,105
-431,905	575,249	-0,030	-0,054
-430,890	-200,000	-0,023	-0,125
-429,876	10,186	0,093	0,052
-428,861	591,460	0,025	0,045
-427,846	-26,388	0,022	0,010
-426,832	96,665	0,053	0,045
-425,817	800,000	0,008	0,021
-424,803	-12,994	-0,056	0,027
-423,788	800,000	0,057	0,153
-422,773	135,088	0,077	0,074
-421,759	-200,000	-0,009	0,042
-420,744	-42,993	-0,079	-0,029
-419,730	800,000	0,048	-0,152
-418,715	232,466	-0,036	0,043
-417,701	-19,937	-0,023	-0,010
-416,686	27,510	-0,051	0,031
-415,671	-200,000	-0,011	0,069
-414,657	-52,542	0,136	-0,046
-413,642	642,782	-0,096	0,181
-412,628	131,469	-0,049	0,046
-411,613	-82,518	-0,052	0,012
-410,598	258,222	0,059	-0,074
-409,584	-4,892	0,052	0,026
-408,569	-84,326	0,094	-0,022
-407,555	336,497	-0,040	0,057
-406,540	67,920	-0,021	0,016
-405,525	-118,521	-0,044	0,006
-404,511	-39,111	0,015	0,006
-403,496	83,940	0,054	0,043
-402,482	-96,513	-0,044	0,008
-401,467	20,187	0,047	-0,028
-400,452	-200,000	-0,013	0,093
-399,438	301,663	0,159	0,217
-398,423	-200,000	-0,015	0,052
-397,409	382,282	-0,069	-0,105
-396,394	800,000	-0,024	-0,067
-395,379	-200,000	0,021	-0,131
-394,365	205,093	0,041	-0,047
-393,350	800,000	0,028	0,070
-392,336	800,000	0,027	-0,072
-391,321	-200,000	-0,005	-0,075
-390,306	800,000	-0,021	0,062
-389,292	432,480	0,026	0,042
-388,277	45,949	-0,085	-0,057
-387,263	-200,000	0,003	-0,011
-386,248	100,821	-0,083	0,071
-385,233	262,737	-0,022	0,028
-384,219	-45,153	-0,108	0,039
-383,204	-21,643	0,121	-0,054
-382,190	519,348	-0,017	-0,030
-381,175	-112,177	-0,032	-0,005
-380,160	-200,000	0,010	-0,126
-379,146	-117,327	0,027	-0,004
-378,131	-200,000	0,015	0,051
-377,117	800,000	0,091	-0,236
-376,102	800,000	0,021	0,059
-375,088	48,892	0,058	0,040
-374,073	468,442	-0,040	0,067
-373,058	-95,532	0,027	0,005
-372,044	-200,000	-0,017	0,120
-371,029	800,000	-0,009	-0,026
-370,015	-159,055	-0,097	0,004
-369,000	-200,000	-0,022	-0,077
-367,985	170,486	-0,089	-0,094
-366,971	213,055	0,041	0,048
-365,956	-200,000	0,007	-0,188
-364,942	800,000	0,019	-0,058
-363,927	-178,158	0,035	0,001
-362,912	-200,000	-0,010	-0,111
-361,898	-200,000	0,014	-0,179
-360,883	419,799	-0,051	0,080
-359,869	-57,633	-0,071	-0,023
-358,854	-65,679	0,105	-0,031
-357,839	-200,000	0,002	-0,054
-356,825	118,183	-0,052	-0,047
-355,810	69,381	0,100	-0,076
-354,796	-200,000	-0,017	0,069
-353,781	800,000	0,057	0,122
-352,766	15,647	0,044	0,026
-351,752	233,572	0,045	-0,054
-350,737	-200,000	-0,021	0,116
-349,723	-200,000	-0,018	0,107
-348,708	261,581	-0,025	-0,032
-347,693	800,000	0,037	-0,098
-346,679	446,418	-0,017	-0,028
-345,664	60,058	0,078	-0,056
-344,650	-200,000	0,001	0,087
-343,635	-200,000	-0,003	-0,062
-342,620	174,200	0,035	-0,038
-341,606	-200,000	0,017	0,119
-340,591	-60,694	-0,137	-0,042
-339,577	31,518	-0,194	-0,122
-338,562	-200,000	-0,015	-0,072
-337,548	-163,831	0,063	0,002
-336,533	-90,298	0,011	-0,002
-335,518	-100,873	-0,043	-0,008
-334,504	53,300	0,041	-0,028
-333,489	631,709	-0,054	0,101
-332,475	-43,885	-0,065	-0,024
-331,460	-200,000	0,012	-0,125
-330,445	-28,907	0,154	-0,065
-329,431	-49,892	0,119	0,041
-328,416	800,000	0,067	0,151
-327,402	-38,229	0,103	0,040
-326,387	-120,646	0,094	-0,012
-325,372	193,249	-0,065	0,072
-324,358	-200,000	-0,010	-0,106
-323,343	-102,982	-0,076	-0,013
-322,329	-200,000	0,005	0,024
-321,314	51,026	-0,084	-0,058
-320,299	800,000	0,057	0,170
-319,285	-66,748	0,116	0,033
-318,270	-89,128	-0,046	-0,010
-317,256	123,896	0,083	0,076
-316,241	203,220	0,052	0,058
-315,226	27,004	-0,034	-0,021
-314,212	663,325	-0,018	0,035
-313,197	800,000	-0,004	0,010
-312,183	-70,247	0,101	-0,028
-311,168	-200,000	-0,003	-0,123
-310,153	-142,714	0,147	0,010
-309,139	208,781	0,058	0,066
-308,124	-27,619	0,009	0,004
-307,110	95,704	0,110	-0,092
-306,095	218,761	0,075	-0,088
-305,080	-4,190	-0,056	-0,028
-304,066	-200,000	-0,170	-0,001
-303,051	-126,041	0,061	0,007
-302,037	-200,000	0,003	0,102
-301,022	-200,000	-0,029	0,144
-300,008	800,000	0,057	0,133
-298,993	2,391	0,098	-0,052
-297,978	-200,000	0,010	0,072
-296,964	-200,000	-0,020	0,103
-295,949	32,954	0,111	-0,070
-294,935	222,522	-0,035	0,041
-293,920	705,634	-0,020	-0,038
-292,905	-58,753	0,053	0,017
-291,891	-156,923	0,091	-0,004
-290,876	-200,000	0,008	-0,104
-289,862	800,000	-0,037	0,103
-288,847	-200,000	0,015	0,098
-287,832	23,965	-0,086	0,052
-286,818	209,614	0,023	-0,027
-285,803	33,344	-0,046	0,029
-284,789	-200,000	0,007	0,037
-283,774	-200,000	-0,021	0,070
-282,759	-200,000	-0,028	-0,199
-281,745	-195,841	-0,072	-0,000
-280,730	609,264	-0,040	0,073
-279,716	-200,000	0,020	0,082
-278,701	301,432	0,093	0,126
-277,686	-200,000	0,008	0,118
-276,672	179,924	0,024	-0,026
-275,657	-200,000	0,003	-0,011
-274,643	30,153	0,062	-0,039
-273,628	-200,000	0,001	-0,048
-272,613	-200,000	0,017	-0,062
-271,599	-106,244	0,025	-0,004
-270,584	729,975	0,072	0,142
-269,570	-73,570	0,116	-0,031
-268,555	800,000	0,039	0,085
-267,540	-200,000	-0,014	0,059
-266,526	96,932	-0,139	0,117
-265,511	499,819	-0,022	-0,037
-264,497	-54,124	0,034	0,011
-263,482	326,153	0,029	-0,040
-262,467	-200,000	0,008	-0,036
-261,453	245,143	-0,051	0,063
-260,438	168,892	0,038	0,039
-259,424	61,380	-0,102	-0,074
-258,409	-200,000	-0,010	-0,098
-257,395	-40,129	0,067	0,026
-256,380	10,468	0,066	0,037
-255,365	178,710	0,034	-0,037
-254,351	-111,467	0,063	-0,009
-253,336	-200,000	-0,044	-0,163
-252,322	-200,000	0,013	0,136
-251,307	23,832	-0,074	0,045
-250,292	94,870	-0,162	0,135
-249,278	-200,000	0,001	0,042
-248,263	160,005	0,068	0,069
-247,249	-48,814	0,025	-0,009
-246,234	800,000	-0,009	-0,025
-245,219	-161,765	-0,134	-0,005
-244,205	-16,201	-0,102	0,047
-243,190	-200,000	0,022	0,143
-242,176	-200,000	0,010	-0,138
-241,161	136,564	-0,119	0,114
-240,146	14,705	-0,057	0,033
-239,132	800,000	0,069	0,151
-238,117	-176,355	-0,067	0,001
-237,103	-78,234	0,054	0,014
-236,088	-200,000	-0,000	0,015
-235,073	-200,000	0,002	-0,041
-234,059	407,103	0,059	0,092
-233,044	-200,000	0,052	0,197
-232,030	159,475	-0,064	-0,065
-231,015	62,763	-0,155	-0,113
-230,000	354,964	0,044	-0,063
-228,986	64,789	0,064	-0,047
-227,971	-145,126	0,126	0,008
-226,957	291,621	0,047	0,062
-225,942	110,880	0,034	0,030
-224,927	-200,000	-0,001	-0,029
-223,913	97,162	-0,048	-0,040
-222,898	-200,000	0,004	0,077
-221,884	-87,514	-0,058	0,013
-220,869	172,085	-0,033	0,035
-219,855	79,122	0,160	-0,125
-218,840	-133,268	-0,057	-0,005
-217,825	46,709	-0,064	0,043
-216,811	230,793	-0,077	-0,092
-215,796	800,000	-0,061	-0,136
-214,782	800,000	0,005	0,011
-213,767	737,148	-0,014	0,028
-212,752	-1,763	0,140	0,072
-211,738	-200,000	0,008	-0,055
-210,723	176,470	0,015	0,016
-209,709	337,637	0,010	0,014
-208,694	-89,084	-0,092	-0,020
-207,679	718,438	0,035	-0,068
-206,665	19,138	-0,042	0,024
-205,650	442,365	0,097	0,156
-204,636	369,507	0,018	0,027
-203,621	513,090	0,031	0,054
-202,606	42,979	-0,061	-0,041
-201,592	800,000	0,069	-0,146
-200,577	254,974	-0,068	-0,085
-199,563	166,797	-0,070	-0,073
-198,548	-62,025	0,127	-0,038
-197,533	-200,000	0,009	0,074
-196,519	-200,000	0,006	0,098
-195,504	51,550	-0,088	-0,061
-194,490	-200,000	-0,006	0,161
-193,475	329,794	-0,028	0,040
-192,460	-96,391	-0,206	0,039
-191,446	-43,691	0,174	-0,064
-190,431	800,000	-0,023	0,069
-189,417	800,000	-0,060	0,143
-188,402	-200,000	0,010	-0,052
-187,387	-19,940	0,137	-0,061
-186,373	-63,978	-0,063	0,019
-185,358	800,000	0,037	0,097
-184,344	-20,139	0,126	0,056
-183,329	-103,899	-0,053	-0,009
-182,315	7,212	0,114	0,062
-181,300	-2,603	0,061	0,031
-180,285	-148,267	0,114	0,007
-179,271	160,962	0,074	0,075
-178,256	442,049	0,068	-0,109
-177,242	800,000	0,027	0,081
-176,227	191,851	-0,081	-0,089
-175,212	800,000	-0,012	0,039
-174,198	118,244	0,079	0,071
-173,183	-200,000	0,037	-0,175
-172,169	-83,169	-0,246	-0,057
-171,154	25,586	-0,043	-0,026
-170,139	30,234	0,050	-0,031
-169,125	-200,000	0,017	0,076
-168,110	-108,474	0,174	-0,027
-167,096	-200,000	-0,005	0,101
-166,081	88,423	0,162	0,131
-165,066	-91,308	0,026	-0,005
-164,052	-194,425	-0,064	-0,000
-163,037	-179,712	-0,018	0,000
-162,023	374,846	0,046	0,069
-161,008	-86,642	-0,217	0,048
-159,993	-200,000	0,012	0,058
-158,979	220,412	-0,019	0,023
-157,964	567,500	-0,012	-0,022
-156,950	-41,518	-0,084	0,031
-155,935	64,086	0,085	-0,062
-154,920	-200,000	0,018	0,113
-153,906	-109,456	0,067	-0,010
-152,891	745,379	0,094	0,185
-151,877	233,283	0,089	0,107
-150,862	390,898	-0,049	-0,074
-149,847	76,667	0,026	-0,020
-148,833	-188,957	-0,095	0,001
-147,818	-200,000	0,015	0,060
-146,804	190,509	0,064	0,070
-145,789	-10,535	0,087	-0,042
-144,775	-82,112	-0,119	0,028
-143,760	-200,000	0,006	0,110
-142,745	-200,000	0,019	-0,109
-141,731	-200,000	0,035	-0,154
-140,716	800,000	0,024	-0,062
-139,702	-82,214	0,060	-0,014
-138,687	93,556	-0,068	-0,056
-137,672	129,154	0,036	0,033
-136,658	-1,458	0,113	-0,058
-135,643	-59,920	-0,067	-0,021
-134,629	-154,891	-0,068	0,003
-133,614	126,186	0,092	-0,085
-132,599	-95,934	0,052	-0,010
-131,585	800,000	0,057	-0,150
-130,570	-119,079	-0,053	0,007
-129,556	-68,892	-0,077	0,021
-128,541	-53,123	0,067	-0,022
-127,526	-200,000	-0,019	0,162
-126,512	-46,406	0,103	0,037
-125,497	-200,000	0,006	0,046
-124,483	800,000	-0,023	0,069
-123,468	339,539	0,120	-0,170
-122,453	-93,421	-0,156	0,031
-121,439	-200,000	0,007	0,026
-120,424	-200,000	-0,006	-0,071
-119,410	-33,110	0,115	0,046
