DTS Sentinel unit serial number:	SN410029Multiplexer serial number:	ORYXHardware model number:	OX2-SRSoftware version number:	ORYX F/W v4,00 Oryx Data Collector v3.7.2.0data status	okinstallation	B6 Nyhavnadifferential loss correction	single-endedforward channel	channel 2reverse channel	N/Adate	2023/12/09time	17:20:08forward acquisition time	300,00reverse acquisition time	0,00gamma	499,1914k internal	0,3131k external	0,3131temperature offset calibration	1,0000default loss term (dB/km)	0,3820temperature slope calibration	1,0000multiplexer offset coefficient	1,0000multiplexer slope coefficient	1,0000fibre end	0,00T internal ref (°C)	20,99T ext. ref 1 (°C)	4,72T ext. ref 2 (°C)	4,71length (m)	temperature (°C)	Stokes	anti-Stokes-744,400	730,555	0,047	-0,094
-743,385	-106,337	-0,168	0,028
-742,371	296,355	0,065	-0,089
-741,356	39,879	-0,230	0,153
-740,342	800,000	-0,023	-0,054
-739,327	-153,095	-0,182	0,009
-738,312	19,775	0,029	0,017
-737,298	-119,117	-0,359	0,046
-736,283	800,000	0,023	-0,068
-735,269	9,172	-0,225	0,126
-734,254	105,061	-0,039	-0,034
-733,239	-119,949	-0,465	-0,059
-732,225	44,368	0,187	0,127
-731,210	185,496	0,045	-0,050
-730,196	-81,037	0,023	0,006
-729,181	8,541	0,080	0,044
-728,167	-169,703	0,110	-0,003
-727,152	800,000	-0,011	-0,028
-726,137	-200,000	-0,012	-0,161
-725,123	-200,000	-0,010	-0,081
-724,108	112,796	-0,102	-0,092
-723,094	800,000	-0,035	-0,081
-722,079	800,000	0,036	-0,097
-721,064	-200,000	0,014	0,089
-720,050	-200,000	-0,010	0,040
-719,035	800,000	-0,020	-0,044
-718,021	41,684	-0,023	-0,016
-717,006	800,000	-0,029	-0,086
-715,991	434,965	-0,074	-0,119
-714,977	196,804	-0,054	-0,061
-713,962	455,948	0,062	0,103
-712,948	-6,617	0,124	0,062
-711,933	73,636	-0,026	-0,020
-710,918	-200,000	-0,010	0,150
-709,904	-200,000	-0,041	0,187
-708,889	91,917	-0,151	-0,126
-707,875	311,013	-0,029	-0,041
-706,860	83,476	-0,067	-0,054
-705,845	-160,499	-0,087	0,003
-704,831	34,051	0,044	-0,028
-703,816	-23,233	0,077	-0,034
-702,802	168,547	-0,128	-0,136
-701,787	92,318	-0,076	-0,064
-700,772	800,000	-0,049	-0,125
-699,758	168,847	0,065	-0,069
-698,743	160,170	-0,046	0,047
-697,729	717,085	0,026	0,051
-696,714	-200,000	-0,001	-0,022
-695,699	162,407	-0,046	-0,048
-694,685	-200,000	0,025	-0,122
-693,670	-200,000	-0,025	0,104
-692,656	-54,934	0,120	-0,040
-691,641	-81,279	-0,065	-0,016
-690,627	-156,521	-0,125	-0,006
-689,612	-72,398	-0,039	0,011
-688,597	56,924	-0,082	-0,059
-687,583	-107,698	-0,121	-0,019
-686,568	800,000	-0,035	0,090
-685,554	129,414	0,010	0,009
-684,539	-76,185	0,077	-0,020
-683,524	-200,000	-0,027	0,104
-682,510	27,341	-0,093	-0,058
-681,495	75,632	-0,067	-0,052
-680,481	-173,978	-0,059	0,001
-679,466	-58,035	-0,150	-0,048
-678,451	486,811	-0,098	-0,166
-677,437	-200,000	-0,004	-0,090
-676,422	800,000	0,046	0,124
-675,408	230,679	0,025	0,030
-674,393	14,072	-0,043	0,024
-673,378	44,789	-0,063	-0,043
-672,364	-200,000	0,037	0,000
-671,349	-9,675	-0,073	0,036
-670,335	-200,000	0,006	-0,272
-669,320	-119,583	0,089	0,011
-668,305	-97,660	0,117	0,022
-667,291	-152,852	-0,148	-0,008
-666,276	-200,000	0,004	-0,060
-665,262	30,795	-0,045	-0,029
-664,247	423,230	-0,031	-0,050
-663,232	-129,491	-0,127	0,013
-662,218	800,000	-0,025	0,063
-661,203	676,751	0,068	0,131
-660,189	199,040	-0,064	0,073
-659,174	367,810	-0,078	-0,118
-658,159	-200,000	-0,055	-0,206
-657,145	800,000	-0,041	0,108
-656,130	-132,973	0,092	-0,009
-655,116	-179,488	-0,059	-0,001
-654,101	-69,618	0,089	0,025
-653,086	396,774	-0,024	0,038
-652,072	-200,000	-0,015	0,215
-651,057	-200,000	-0,004	0,101
-650,043	800,000	-0,039	-0,120
-649,028	-137,927	-0,134	0,011
-648,014	-16,874	0,098	0,046
-646,999	307,401	-0,047	0,065
-645,984	-164,950	-0,112	0,004
-644,970	-156,673	-0,057	-0,003
-643,955	530,475	-0,040	-0,070
-642,941	102,854	-0,114	-0,099
-641,926	372,735	-0,052	0,079
-640,911	287,800	-0,064	0,086
-639,897	-150,992	0,093	-0,005
-638,882	-26,403	-0,049	0,021
-637,868	-200,000	-0,009	-0,057
-636,853	-2,345	-0,180	-0,093
-635,838	110,418	-0,125	-0,111
-634,824	800,000	-0,028	-0,073
-633,809	367,246	0,054	0,081
-632,795	30,042	0,119	-0,075
-631,780	-60,706	0,087	0,027
-630,765	322,253	-0,069	0,098
-629,751	800,000	-0,026	-0,069
-628,736	-48,675	0,058	0,021
-627,722	-200,000	0,009	-0,108
-626,707	513,432	0,040	-0,069
-625,692	1,657	-0,064	-0,034
-624,678	-168,080	-0,104	0,003
-623,663	-22,707	-0,113	0,050
-622,649	441,977	0,059	-0,096
-621,634	800,000	-0,098	-0,224
-620,619	138,895	0,011	0,011
-619,605	47,739	-0,127	0,088
-618,590	38,465	0,009	-0,006
-617,576	-21,385	-0,099	0,045
-616,561	218,806	0,079	-0,094
-615,546	89,702	-0,116	-0,096
-614,532	-56,116	-0,081	0,026
-613,517	767,140	-0,022	0,044
-612,503	-200,000	-0,002	-0,025
-611,488	-160,636	0,082	-0,003
-610,474	-37,650	0,093	0,036
-609,459	116,967	0,031	-0,028
-608,444	-69,423	-0,143	0,040
-607,430	321,205	-0,011	0,015
-606,415	380,748	-0,107	-0,163
-605,401	-200,000	0,054	-0,191
-604,386	800,000	-0,046	-0,104
-603,371	-96,927	0,143	0,027
-602,357	-30,666	-0,179	0,075
-601,342	104,765	-0,023	0,020
-600,328	2,633	-0,124	0,066
-599,313	-74,193	-0,035	0,009
-598,298	-94,825	-0,085	-0,017
-597,284	-78,003	0,084	-0,021
-596,269	-53,285	0,074	0,025
-595,255	-116,046	0,143	0,019
-594,240	59,923	-0,093	-0,068
-593,225	800,000	0,039	-0,128
-592,211	11,759	-0,154	-0,087
-591,196	-37,925	0,100	-0,039
-590,182	286,977	0,059	0,079
-589,167	9,497	-0,043	0,024
-588,152	-31,130	0,068	-0,028
-587,138	20,684	-0,110	-0,066
-586,123	-200,000	0,026	-0,110
-585,109	-24,757	0,058	0,025
-584,094	-85,294	-0,135	-0,031
-583,079	-200,000	0,004	0,106
-582,065	19,761	0,056	0,033
-581,050	72,263	0,155	0,119
-580,036	24,019	-0,138	0,084
-579,021	68,386	0,092	0,070
-578,006	-200,000	0,014	-0,103
-576,992	-59,380	-0,075	0,024
-575,977	69,775	-0,071	0,054
-574,963	36,972	0,037	-0,024
-573,948	-95,678	0,019	0,004
-572,934	-12,444	0,072	-0,034
-571,919	-23,122	-0,040	-0,018
-570,904	-200,000	-0,006	0,053
-569,890	800,000	0,044	-0,134
-568,875	-21,367	0,106	-0,047
-567,861	-200,000	0,010	-0,053
-566,846	159,069	0,024	-0,024
-565,831	143,205	-0,027	-0,026
-564,817	-92,299	-0,112	0,023
-563,802	374,604	0,071	-0,107
-562,788	-137,189	-0,053	0,004
-561,773	-200,000	-0,013	0,066
-560,758	-119,071	0,182	0,023
-559,744	-200,000	0,006	0,033
-558,729	-200,000	-0,012	0,107
-557,715	800,000	-0,061	-0,137
-556,700	-46,402	-0,113	0,041
-555,685	506,184	-0,037	0,063
-554,671	9,484	0,065	-0,036
-553,656	800,000	-0,015	0,033
-552,642	-5,713	0,068	0,034
-551,627	168,926	0,007	-0,008
-550,612	154,879	0,035	-0,036
-549,598	296,218	-0,109	-0,148
-548,583	249,373	0,076	-0,096
-547,569	-200,000	0,025	-0,113
-546,554	301,950	0,103	0,142
-545,539	800,000	-0,017	0,045
-544,525	-200,000	0,025	-0,084
-543,510	-200,000	0,004	0,059
-542,496	484,025	0,016	-0,027
-541,481	-13,606	-0,046	-0,022
-540,466	156,848	0,050	0,051
-539,452	-200,000	-0,000	0,075
-538,437	-200,000	0,019	0,077
-537,423	-147,680	-0,028	-0,002
-536,408	358,133	-0,062	-0,091
-535,393	800,000	-0,047	-0,127
-534,379	-22,227	-0,083	0,037
-533,364	57,217	-0,076	0,055
-532,350	800,000	0,045	0,096
-531,335	-200,000	0,047	0,157
-530,321	-200,000	-0,029	0,148
-529,306	-200,000	0,010	0,114
-528,291	12,320	0,030	0,017
-527,277	-36,338	0,099	0,039
-526,262	359,773	0,066	-0,098
-525,248	-49,470	-0,027	0,009
-524,233	-200,000	0,001	-0,069
-523,218	-20,000	-0,043	0,019
-522,204	130,611	-0,089	0,084
-521,189	-134,054	0,100	0,009
-520,175	464,793	-0,097	-0,160
-519,160	65,859	-0,135	-0,100
-518,145	-134,859	0,151	-0,013
-517,131	483,325	-0,043	-0,073
-516,116	70,867	-0,150	-0,114
-515,102	800,000	-0,073	-0,167
-514,087	140,998	0,167	-0,163
-513,072	-200,000	-0,027	-0,113
-512,058	-73,482	-0,099	-0,026
-511,043	337,296	0,041	0,059
-510,029	251,585	0,087	0,109
-509,014	-58,303	-0,100	-0,032
-507,999	105,656	-0,116	-0,101
-506,985	-104,585	0,017	0,003
-505,970	-200,000	-0,010	0,121
-504,956	-54,646	0,099	-0,033
-503,941	-200,000	-0,002	-0,010
-502,926	-17,942	-0,104	0,048
-501,912	142,718	-0,021	0,020
-500,897	54,084	-0,026	-0,018
-499,883	297,436	-0,050	0,068
-498,868	-48,289	-0,044	-0,016
-497,853	-200,000	0,015	-0,174
-496,839	355,922	0,069	-0,102
-495,824	525,928	0,050	0,086
-494,810	800,000	0,037	0,098
-493,795	401,353	-0,046	-0,072
-492,781	9,456	0,004	-0,002
-491,766	800,000	-0,041	0,126
-490,751	98,543	0,088	-0,075
-489,737	-200,000	-0,004	-0,064
-488,722	419,298	-0,036	0,057
-487,708	143,006	0,025	0,024
-486,693	-0,741	-0,050	0,026
-485,678	800,000	0,011	-0,024
-484,664	-200,000	0,015	-0,086
-483,649	558,425	0,024	0,043
-482,635	800,000	0,068	0,143
-481,620	-71,649	0,031	-0,008
-480,605	-200,000	-0,011	0,097
-479,591	-200,000	-0,001	0,105
-478,576	800,000	0,057	0,122
-477,562	800,000	-0,021	-0,058
-476,547	11,040	-0,080	-0,045
-475,532	-8,305	-0,106	-0,052
-474,518	800,000	0,042	0,129
-473,503	55,558	0,082	0,058
-472,489	-97,884	0,066	0,012
-471,474	-69,789	-0,118	0,033
-470,459	200,443	0,030	0,034
-469,445	-200,000	0,000	0,039
-468,430	129,493	-0,027	-0,026
-467,416	-200,000	0,013	0,062
-466,401	20,244	-0,093	0,055
-465,386	-73,352	0,097	-0,026
-464,372	-200,000	-0,008	0,032
-463,357	-200,000	0,003	0,010
-462,343	661,033	0,048	0,091
-461,328	-200,000	-0,011	-0,080
-460,313	-142,494	-0,136	-0,010
-459,299	-154,647	0,078	0,004
-458,284	800,000	-0,009	0,021
-457,270	-90,358	-0,063	-0,013
-456,255	77,419	0,018	-0,014
-455,241	-47,980	-0,075	-0,026
-454,226	-200,000	0,035	-0,147
-453,211	-200,000	0,007	-0,091
-452,197	139,386	-0,053	0,051
-451,182	-200,000	0,001	0,063
-450,168	-23,287	0,070	0,031
-449,153	-200,000	-0,025	-0,104
-448,138	79,254	0,059	-0,046
-447,124	800,000	0,037	-0,116
-446,109	727,458	0,024	-0,046
-445,095	-200,000	0,038	0,150
-444,080	-200,000	-0,029	-0,141
-443,065	765,186	0,062	-0,124
-442,051	36,068	-0,050	0,032
-441,036	-200,000	-0,046	-0,150
-440,022	-200,000	-0,001	-0,018
-439,007	66,864	-0,022	0,017
-437,992	-119,095	0,186	-0,024
-436,978	-151,271	-0,085	0,005
-435,963	208,653	0,040	0,046
-434,949	800,000	0,013	0,026
-433,934	-200,000	-0,008	-0,084
-432,919	123,555	-0,069	-0,064
-431,905	-200,000	0,027	-0,160
-430,890	35,882	0,056	-0,036
-429,876	-200,000	0,003	-0,016
-428,861	158,376	0,022	-0,022
-427,846	157,222	0,124	0,126
-426,832	461,619	0,012	0,020
-425,817	37,191	-0,028	-0,018
-424,803	73,257	0,012	0,009
-423,788	-200,000	-0,020	0,098
-422,773	-200,000	0,008	0,118
-421,759	365,254	-0,017	0,025
-420,744	-200,000	0,004	-0,091
-419,730	-200,000	0,008	-0,081
-418,715	-200,000	0,009	-0,076
-417,701	-82,796	-0,055	0,013
-416,686	652,910	0,066	0,125
-415,671	800,000	0,056	0,118
-414,657	86,109	-0,140	0,113
-413,642	0,908	-0,065	-0,034
-412,628	-200,000	-0,027	-0,092
-411,613	60,006	-0,058	-0,042
-410,598	38,288	-0,089	-0,058
-409,584	214,821	0,108	0,126
-408,569	800,000	0,031	0,064
-407,555	227,113	0,080	0,096
-406,540	-200,000	-0,001	0,006
-405,525	88,373	-0,112	0,091
-404,511	456,794	0,102	-0,167
-403,496	-200,000	0,002	-0,137
-402,482	-27,290	-0,065	-0,028
-401,467	-8,907	0,093	0,045
-400,452	321,996	0,110	0,154
-399,438	-89,579	-0,098	-0,021
-398,423	800,000	0,015	-0,039
-397,409	800,000	0,051	-0,110
-396,394	-200,000	0,017	-0,190
-395,379	205,302	-0,106	-0,121
-394,365	-136,340	0,137	-0,012
-393,350	297,737	0,043	-0,058
-392,336	774,642	0,016	-0,032
-391,321	423,069	-0,042	0,066
-390,306	6,335	-0,008	0,005
-389,292	-143,563	0,023	-0,002
-388,277	-55,707	-0,008	-0,003
-387,263	800,000	-0,084	0,175
-386,248	-164,626	0,059	0,002
-385,233	562,190	-0,025	-0,044
-384,219	220,684	-0,021	-0,025
-383,204	351,002	0,057	0,083
-382,190	-4,631	-0,095	0,048
-381,175	-49,494	0,149	-0,052
-380,160	-84,525	-0,090	-0,021
-379,146	-122,581	0,068	-0,008
-378,131	447,994	-0,031	0,050
-377,117	114,088	-0,112	-0,100
-376,102	220,326	0,022	-0,026
-375,088	-102,302	-0,075	-0,013
-374,073	-59,320	0,140	-0,044
-373,058	64,968	-0,024	0,018
-372,044	-113,478	-0,155	0,022
-371,029	198,564	0,046	-0,052
-370,015	-200,000	-0,006	0,157
-369,000	203,490	-0,021	0,024
-367,985	615,001	0,024	0,043
-366,971	286,061	-0,090	0,119
-365,956	47,851	0,165	0,113
-364,942	-122,689	0,087	-0,010
-363,927	75,689	0,107	-0,083
-362,912	516,175	-0,047	0,080
-361,898	548,715	0,048	0,084
-360,883	59,156	0,026	-0,018
-359,869	-200,000	0,007	-0,093
-358,854	-123,914	0,055	0,006
-357,839	420,378	0,040	0,063
-356,825	-60,832	-0,106	-0,033
-355,810	800,000	0,026	0,075
-354,796	-200,000	-0,016	-0,138
-353,781	800,000	-0,072	-0,201
-352,766	-200,000	0,080	0,000
-351,752	-200,000	0,017	0,060
-350,737	-185,786	0,017	-0,000
-349,723	800,000	0,037	-0,080
-348,708	-28,639	0,096	-0,040
-347,693	-109,612	-0,047	0,007
-346,679	-200,000	-0,018	-0,127
-345,664	-200,000	-0,016	-0,100
-344,650	800,000	0,016	-0,044
-343,635	-89,707	0,079	-0,017
-342,620	-126,226	0,063	-0,007
-341,606	800,000	0,024	-0,068
-340,591	-117,347	-0,138	0,018
-339,577	79,834	0,057	0,045
-338,562	800,000	-0,047	-0,107
-337,548	-200,000	-0,008	-0,080
-336,533	-200,000	-0,008	0,110
-335,518	517,168	0,027	0,046
-334,504	-200,000	-0,018	0,129
-333,489	22,419	-0,077	-0,046
-332,475	102,745	-0,103	-0,088
-331,460	-14,190	-0,094	0,044
-330,445	591,330	0,048	0,087
-329,431	800,000	-0,015	-0,038
-328,416	9,143	-0,079	0,043
-327,402	800,000	-0,058	0,131
-326,387	553,518	0,076	0,134
-325,372	175,402	0,006	0,006
-324,358	-48,416	-0,114	0,040
-323,343	-77,295	-0,034	0,008
-322,329	70,313	0,074	-0,056
-321,314	-92,297	0,050	0,010
-320,299	251,793	0,085	0,106
-319,285	-200,000	-0,002	-0,111
-318,270	-61,728	-0,148	-0,045
-317,256	227,671	-0,061	-0,072
-316,241	107,692	-0,055	0,048
-315,226	-200,000	0,017	0,088
-314,212	800,000	0,021	0,059
-313,197	-177,794	0,046	-0,001
-312,183	-107,956	0,049	-0,008
-311,168	-200,000	-0,010	-0,097
-310,153	58,895	0,025	-0,018
-309,139	-21,285	-0,044	-0,020
-308,124	22,915	-0,107	0,064
-307,110	629,382	-0,025	-0,046
-306,095	219,475	0,092	0,108
-305,080	234,743	0,037	-0,045
-304,066	-50,211	-0,124	-0,043
-303,051	136,382	-0,059	-0,056
-302,037	-53,994	0,046	0,015
-301,022	106,065	-0,045	-0,039
-300,008	31,667	-0,046	-0,029
-298,993	10,732	0,069	0,039
-297,978	-200,000	0,008	-0,170
-296,964	-70,443	-0,115	0,032
-295,949	113,208	0,119	-0,105
-294,935	-194,803	-0,092	0,001
-293,920	57,488	-0,037	0,027
-292,905	696,628	0,068	-0,131
-291,891	-193,703	-0,077	0,000
-290,876	-200,000	-0,012	0,119
-289,862	-60,017	0,114	-0,035
-288,847	1,522	-0,054	0,028
-287,832	104,548	-0,065	-0,056
-286,818	390,552	0,111	-0,169
-285,803	-80,106	0,184	-0,045
-284,789	-200,000	0,052	0,190
-283,774	-117,640	0,073	-0,009
-282,759	-200,000	-0,020	0,069
-281,745	-200,000	0,020	0,108
-280,730	-44,929	-0,136	-0,049
-279,716	-200,000	0,000	-0,028
-278,701	800,000	0,033	0,071
-277,686	36,580	0,057	-0,037
-276,672	113,635	0,104	0,092
-275,657	596,109	0,079	-0,144
-274,643	-169,182	0,042	-0,001
-273,628	-200,000	0,020	-0,092
-272,613	-112,237	-0,100	0,015
-271,599	199,754	0,111	-0,124
-270,584	99,023	-0,068	-0,057
-269,570	-106,475	-0,039	-0,006
-268,555	-200,000	0,003	0,060
-267,540	72,916	-0,105	-0,080
-266,526	-200,000	0,003	-0,059
-265,511	-200,000	-0,029	0,159
-264,497	-200,000	-0,006	0,218
-263,482	104,527	0,071	-0,061
-262,467	114,614	0,045	0,040
-261,453	-200,000	0,011	0,066
-260,438	-56,137	-0,120	-0,039
-259,424	-200,000	-0,013	-0,054
-258,409	800,000	0,056	-0,166
-257,395	-171,895	0,117	0,003
-256,380	64,071	0,061	0,045
-255,365	296,157	0,050	0,066
-254,351	631,720	0,069	0,129
-253,336	-8,250	0,068	0,033
-252,322	134,903	0,034	0,033
-251,307	331,543	0,006	0,008
-250,292	168,538	-0,136	-0,142
-249,278	47,022	0,046	0,031
-248,263	2,326	-0,045	0,024
-247,249	379,792	0,047	-0,071
-246,234	609,015	-0,042	-0,076
-245,219	-74,322	-0,045	0,012
-244,205	49,753	-0,070	-0,048
-243,190	102,668	0,086	-0,073
-242,176	-45,236	-0,063	-0,023
-241,161	15,638	0,097	0,055
-240,146	361,175	-0,063	0,093
-239,132	-1,677	-0,035	0,018
-238,117	305,603	-0,093	0,126
-237,103	-200,000	0,001	-0,066
-236,088	-200,000	0,014	0,108
-235,073	532,517	0,016	0,027
-234,059	148,885	0,068	0,067
-233,044	-200,000	0,041	0,140
-232,030	-200,000	-0,035	0,146
-231,015	-162,501	0,051	-0,002
-230,000	-200,000	0,018	-0,070
-228,986	-200,000	0,031	-0,156
-227,971	-200,000	0,021	-0,146
-226,957	32,018	0,091	0,057
-225,942	212,410	-0,016	-0,018
-224,927	800,000	-0,032	0,071
-223,913	99,662	0,022	-0,019
-222,898	11,236	0,100	-0,055
-221,884	-200,000	-0,024	0,100
-220,869	544,728	-0,032	0,056
-219,855	-52,221	-0,120	-0,040
-218,840	-70,474	-0,009	-0,002
-217,825	800,000	-0,046	0,136
-216,811	-200,000	-0,008	0,090
-215,796	-47,605	0,097	-0,034
-214,782	800,000	0,053	-0,136
-213,767	-74,594	-0,119	0,031
-212,752	-84,072	0,087	-0,020
-211,738	281,585	0,083	-0,108
-210,723	-200,000	-0,005	0,119
-209,709	800,000	-0,023	0,068
-208,694	627,643	0,036	0,066
-207,679	-200,000	-0,005	0,030
-206,665	-142,889	0,061	0,004
-205,650	-200,000	-0,013	0,070
-204,636	59,548	-0,031	0,022
-203,621	-23,850	0,059	0,026
-202,606	-115,052	-0,098	-0,013
-201,592	112,729	-0,101	-0,089
-200,577	-200,000	0,011	0,048
-199,563	-175,911	0,078	0,001
-198,548	214,839	0,114	0,132
-197,533	800,000	0,046	0,109
-196,519	-194,962	0,094	-0,001
-195,504	-168,724	0,089	-0,002
-194,490	-200,000	0,003	0,024
-193,475	43,185	-0,104	0,069
-192,460	-200,000	0,012	0,198
-191,446	-200,000	0,002	0,038
-190,431	-200,000	-0,009	0,078
-189,417	421,135	-0,077	0,121
-188,402	-16,069	0,070	0,032
-187,387	732,545	-0,039	-0,076
-186,373	21,291	0,070	-0,041
-185,358	175,169	0,108	-0,114
-184,344	-132,149	-0,022	-0,002
-183,329	156,582	0,110	0,110
-182,315	-200,000	-0,009	-0,034
-181,300	-38,321	-0,045	-0,017
-180,285	-29,435	-0,068	-0,028
-179,271	-41,497	-0,066	-0,025
-178,256	-135,129	-0,191	-0,016
-177,242	-200,000	-0,028	0,117
-176,227	187,398	0,161	0,174
-175,212	-200,000	0,023	-0,090
-174,198	800,000	-0,038	-0,086
-173,183	-200,000	0,006	0,051
-172,169	-188,446	-0,058	-0,001
-171,154	132,262	0,044	0,041
-170,139	-71,125	0,057	-0,015
-169,125	362,652	0,091	0,133
-168,110	-200,000	-0,006	0,217
-167,096	-158,011	0,051	0,002
-166,081	800,000	0,049	-0,109
-165,066	261,442	-0,057	0,072
-164,052	-200,000	0,013	0,143
-163,037	-123,988	0,069	0,008
-162,023	-122,436	0,071	-0,008
-161,008	247,089	-0,066	0,081
-159,993	46,331	0,078	-0,053
-158,979	42,131	0,007	0,005
-157,964	-117,282	0,080	0,010
-156,950	-200,000	-0,004	0,022
-155,935	-73,563	0,143	0,037
-154,920	-72,304	-0,079	-0,021
-153,906	-200,000	0,006	0,166
-152,891	-200,000	-0,008	-0,095
-151,877	418,865	0,007	-0,012
-150,862	33,988	0,070	-0,044
-149,847	170,664	-0,045	0,047
-148,833	-200,000	0,001	-0,031
-147,818	28,804	-0,066	0,040
-146,804	-200,000	0,005	0,100
-145,789	-200,000	0,010	0,156
-144,775	269,110	-0,033	-0,042
-143,760	-200,000	-0,016	0,106
-142,745	376,936	-0,055	-0,082
-141,731	76,522	-0,072	-0,055
-140,716	36,282	-0,105	0,067
-139,702	115,644	0,083	0,073
-138,687	-200,000	0,023	0,073
-137,672	-73,290	0,018	0,005
-136,658	59,090	0,101	-0,072
-135,643	3,211	0,068	0,036
-134,629	669,982	-0,060	0,112
-133,614	-108,687	-0,067	0,010
-132,599	-71,168	-0,062	-0,017
-131,585	-105,001	0,084	0,014
-130,570	-116,621	-0,026	-0,003
-129,556	214,933	0,039	-0,045
-128,541	242,820	-0,142	-0,173
-127,526	800,000	-0,016	0,037
-126,512	-66,297	0,066	0,019
-125,497	-114,886	-0,043	0,006
-124,483	6,501	-0,114	0,061
-123,468	222,218	0,064	0,075
-122,453	205,741	0,062	0,070
-121,439	75,257	-0,107	-0,082
-120,424	29,572	-0,028	-0,017
-119,410	800,000	0,037	0,090
