DTS Sentinel unit serial number:	SN410029Multiplexer serial number:	ORYXHardware model number:	OX2-SRSoftware version number:	ORYX F/W v4,00 Oryx Data Collector v3.7.2.0data status	okinstallation	B6 Nyhavnadifferential loss correction	single-endedforward channel	channel 2reverse channel	N/Adate	2023/12/11time	09:30:09forward acquisition time	300,00reverse acquisition time	0,00gamma	499,1914k internal	0,3139k external	0,3139temperature offset calibration	1,0000default loss term (dB/km)	0,3820temperature slope calibration	1,0000multiplexer offset coefficient	1,0000multiplexer slope coefficient	1,0000fibre end	0,00T internal ref (°C)	16,66T ext. ref 1 (°C)	-0,83T ext. ref 2 (°C)	-0,88length (m)	temperature (°C)	Stokes	anti-Stokes-744,400	-30,090	0,208	-0,088
-743,385	-123,279	-0,219	0,026
-742,371	-200,000	-0,023	0,178
-741,356	-68,650	-0,222	0,063
-740,342	339,034	0,083	0,120
-739,327	-124,104	-0,238	-0,027
-738,312	-100,103	0,187	-0,034
-737,298	-105,678	-0,343	-0,057
-736,283	53,472	0,185	0,132
-735,269	-129,808	-0,278	0,028
-734,254	642,831	0,101	0,191
-733,239	-111,954	-0,488	-0,072
-732,225	-132,204	0,192	-0,018
-731,210	-78,215	-0,002	-0,001
-730,196	-200,000	0,048	-0,190
-729,181	-100,355	-0,190	0,035
-728,167	178,827	0,066	-0,071
-727,152	-200,000	-0,026	-0,245
-726,137	-84,977	-0,131	-0,030
-725,123	31,289	0,046	0,029
-724,108	460,820	-0,092	-0,152
-723,094	-35,506	-0,093	0,037
-722,079	193,978	0,037	-0,042
-721,064	-95,664	0,061	-0,012
-720,050	800,000	-0,040	-0,087
-719,035	405,212	0,028	0,044
-718,021	-155,330	-0,110	0,005
-717,006	-23,908	-0,051	0,023
-715,991	-200,000	-0,033	-0,122
-714,977	800,000	-0,027	-0,057
-713,962	800,000	-0,047	-0,153
-712,948	800,000	0,054	-0,118
-711,933	164,581	-0,102	0,107
-710,918	800,000	0,014	0,034
-709,904	-200,000	-0,028	-0,099
-708,889	-200,000	0,010	0,045
-707,875	-200,000	-0,003	0,138
-706,860	-31,286	0,097	-0,040
-705,845	-31,838	0,045	0,019
-704,831	-54,657	0,037	-0,012
-703,816	800,000	-0,029	0,083
-702,802	-130,524	-0,122	-0,012
-701,787	229,241	0,045	-0,055
-700,772	-99,043	-0,133	0,025
-699,758	29,793	0,092	-0,058
-698,743	89,993	0,122	0,101
-697,729	127,692	-0,063	-0,059
-696,714	-200,000	0,000	-0,019
-695,699	-200,000	-0,021	0,087
-694,685	-163,430	-0,088	-0,003
-693,670	-200,000	0,018	0,090
-692,656	800,000	0,063	0,139
-691,641	-200,000	0,025	-0,099
-690,627	-200,000	0,028	0,104
-689,612	800,000	0,027	0,078
-688,597	24,534	-0,013	0,008
-687,583	-107,073	-0,113	-0,018
-686,568	800,000	0,057	-0,132
-685,554	111,766	-0,077	-0,069
-684,539	-200,000	-0,026	0,105
-683,524	163,471	0,103	-0,107
-682,510	4,683	0,120	-0,065
-681,495	-200,000	-0,001	0,013
-680,481	86,315	0,045	0,037
-679,466	-110,274	-0,110	0,017
-678,451	800,000	-0,015	-0,032
-677,437	800,000	0,040	-0,117
-676,422	273,231	0,056	-0,073
-675,408	-200,000	0,031	-0,138
-674,393	351,882	0,066	-0,097
-673,378	-17,291	-0,139	0,065
-672,364	29,684	0,067	-0,042
-671,349	800,000	-0,038	0,093
-670,335	36,944	-0,113	0,074
-669,320	363,430	-0,048	0,071
-668,305	-86,137	0,032	-0,007
-667,291	-200,000	0,029	-0,199
-666,276	-200,000	-0,016	0,091
-665,262	397,193	-0,072	-0,112
-664,247	90,118	-0,057	0,047
-663,232	800,000	0,012	-0,039
-662,218	-200,000	-0,040	0,206
-661,203	81,646	-0,082	0,066
-660,189	175,382	-0,094	-0,101
-659,174	-3,614	-0,103	-0,053
-658,159	621,453	-0,045	-0,085
-657,145	73,346	-0,040	-0,031
-656,130	-15,327	0,081	0,038
-655,116	233,333	-0,068	-0,082
-654,101	-200,000	-0,000	0,066
-653,086	428,788	0,086	0,138
-652,072	800,000	-0,027	0,079
-651,057	36,739	-0,070	0,045
-650,043	-200,000	0,025	-0,080
-649,028	180,693	-0,092	-0,100
-648,014	408,520	0,110	0,172
-646,999	140,981	-0,032	0,031
-645,984	92,276	-0,026	0,022
-644,970	178,464	-0,129	-0,139
-643,955	-122,195	-0,076	0,009
-642,941	-59,911	-0,011	0,003
-641,926	800,000	0,036	-0,095
-640,911	197,705	-0,021	-0,024
-639,897	-200,000	-0,010	0,070
-638,882	-157,236	-0,062	0,003
-637,868	-87,117	0,042	0,009
-636,853	-77,685	-0,150	0,038
-635,838	-200,000	0,002	0,024
-634,824	800,000	-0,044	-0,103
-633,809	82,990	0,080	-0,065
-632,795	800,000	-0,007	-0,021
-631,780	-200,000	0,030	-0,112
-630,765	85,783	0,112	0,091
-629,751	-89,480	-0,089	0,019
-628,736	-164,186	-0,043	0,001
-627,722	-93,834	0,066	0,013
-626,707	-200,000	-0,011	-0,070
-625,692	-200,000	-0,021	-0,084
-624,678	172,789	-0,095	-0,101
-623,663	367,425	-0,126	0,188
-622,649	-86,943	-0,091	-0,020
-621,634	380,032	-0,058	0,088
-620,619	800,000	-0,036	-0,090
-619,605	800,000	-0,018	-0,040
-618,590	-53,030	-0,097	-0,033
-617,576	-200,000	-0,018	-0,128
-616,561	182,238	-0,102	0,112
-615,546	70,847	0,043	0,033
-614,532	107,487	-0,086	-0,076
-613,517	800,000	0,018	-0,049
-612,503	490,164	0,061	-0,104
-611,488	-32,601	0,123	0,050
-610,474	174,251	-0,012	0,013
-609,459	47,248	0,041	0,028
-608,444	732,441	-0,036	0,071
-607,430	-200,000	-0,009	0,123
-606,415	-123,028	-0,147	0,017
-605,401	-31,101	0,077	0,032
-604,386	214,362	0,060	-0,070
-603,371	284,577	0,066	0,088
-602,357	-110,377	0,130	0,020
-601,342	-56,098	-0,040	0,013
-600,328	-45,276	0,118	-0,043
-599,313	800,000	-0,077	-0,178
-598,298	182,886	0,116	-0,127
-597,284	-200,000	0,042	0,157
-596,269	90,519	-0,049	0,040
-595,255	21,602	0,063	0,037
-594,240	51,439	-0,181	-0,127
-593,225	-200,000	0,012	-0,043
-592,211	-200,000	0,026	-0,109
-591,196	-25,493	-0,017	0,008
-590,182	320,076	0,120	0,168
-589,167	85,145	-0,023	0,018
-588,152	584,246	-0,037	0,068
-587,138	-33,213	-0,103	-0,042
-586,123	-200,000	0,010	0,068
-585,109	-7,741	-0,105	0,052
-584,094	800,000	0,028	-0,066
-583,079	-200,000	-0,005	-0,021
-582,065	-171,418	0,124	-0,003
-581,050	50,766	0,045	-0,031
-580,036	-200,000	-0,009	0,082
-579,021	76,677	-0,127	-0,099
-578,006	74,360	-0,045	-0,035
-576,992	-200,000	0,006	-0,151
-575,977	800,000	-0,008	-0,017
-574,963	-200,000	0,030	-0,168
-573,948	-132,813	0,144	0,013
-572,934	-75,433	-0,127	-0,033
-571,919	-137,113	-0,191	-0,016
-570,904	-200,000	0,006	-0,100
-569,890	-90,189	-0,053	0,011
-568,875	429,675	-0,018	-0,029
-567,861	-200,000	-0,002	-0,027
-566,846	433,078	0,024	-0,039
-565,831	207,791	0,019	0,022
-564,817	49,753	-0,147	0,102
-563,802	137,290	-0,090	-0,087
-562,788	-200,000	-0,028	0,102
-561,773	761,037	0,052	0,104
-560,758	-93,538	0,035	-0,007
-559,744	72,748	-0,108	-0,083
-558,729	-41,211	0,068	-0,026
-557,715	-200,000	-0,018	-0,132
-556,700	-200,000	-0,036	-0,117
-555,685	-12,235	-0,112	-0,054
-554,671	351,546	0,056	-0,081
-553,656	129,578	0,041	-0,039
-552,642	-56,850	0,036	0,012
-551,627	800,000	0,062	0,129
-550,612	800,000	-0,063	-0,129
-549,598	800,000	-0,036	-0,090
-548,583	-93,050	-0,078	0,016
-547,569	-33,659	-0,109	-0,044
-546,554	-200,000	0,013	-0,132
-545,539	580,904	-0,024	-0,044
-544,525	173,568	0,033	0,036
-543,510	-200,000	-0,017	0,000
-542,496	-200,000	0,028	0,106
-541,481	800,000	0,035	-0,086
-540,466	-134,425	-0,034	-0,003
-539,452	-130,498	-0,058	0,006
-538,437	-6,941	0,078	-0,039
-537,423	800,000	0,048	0,114
-536,408	-103,586	-0,064	0,011
-535,393	99,398	0,058	-0,049
-534,379	-54,028	0,111	-0,037
-533,364	-200,000	0,003	-0,172
-532,350	-79,294	0,144	-0,036
-531,335	-28,532	0,102	-0,043
-530,321	-89,657	0,087	-0,019
-529,306	-70,915	-0,116	-0,032
-528,291	-200,000	0,006	0,030
-527,277	389,653	-0,037	0,056
-526,262	282,327	0,057	-0,076
-525,248	-200,000	0,009	0,070
-524,233	-200,000	-0,021	-0,081
-523,218	800,000	0,051	0,155
-522,204	69,096	0,065	0,049
-521,189	115,103	0,037	-0,033
-520,175	281,070	-0,032	0,043
-519,160	427,458	0,029	0,046
-518,145	-200,000	0,027	0,111
-517,131	800,000	-0,027	-0,074
-516,116	102,400	-0,039	-0,033
-515,102	642,383	0,040	-0,076
-514,087	19,103	-0,155	-0,091
-513,072	-69,796	0,063	-0,017
-512,058	-200,000	0,004	0,139
-511,043	800,000	-0,019	0,039
-510,029	-200,000	0,001	0,084
-509,014	257,328	-0,152	-0,192
-507,999	11,221	0,044	-0,025
-506,985	-200,000	0,001	0,063
-505,970	-35,289	-0,134	-0,053
-504,956	-200,000	-0,003	0,061
-503,941	800,000	-0,024	-0,075
-502,926	800,000	0,046	0,097
-501,912	-39,478	-0,046	0,018
-500,897	800,000	0,029	-0,092
-499,883	18,339	-0,064	0,037
-498,868	94,717	0,051	-0,042
-497,853	-200,000	0,002	0,084
-496,839	-200,000	0,010	-0,108
-495,824	-200,000	0,016	0,065
-494,810	196,360	0,097	0,109
-493,795	-200,000	-0,002	0,007
-492,781	103,347	0,028	-0,024
-491,766	-200,000	0,006	-0,108
-490,751	-200,000	-0,011	-0,071
-489,737	131,671	0,071	0,067
-488,722	-83,582	-0,093	0,022
-487,708	66,287	0,118	0,088
-486,693	91,293	0,045	-0,037
-485,678	-106,197	0,078	-0,013
-484,664	-29,503	-0,163	-0,068
-483,649	206,158	0,090	0,102
-482,635	-112,698	-0,023	0,003
-481,620	-200,000	0,006	0,046
-480,605	-133,708	0,171	0,015
-479,591	164,765	0,100	-0,104
-478,576	-158,115	-0,142	-0,006
-477,562	800,000	0,037	0,084
-476,547	-118,965	-0,100	0,013
-475,532	-95,554	0,066	0,013
-474,518	-200,000	0,014	0,073
-473,503	85,263	0,149	0,120
-472,489	-8,380	0,161	0,079
-471,474	-200,000	0,015	0,136
-470,459	278,226	-0,056	0,074
-469,445	378,027	0,101	-0,152
-468,430	267,013	-0,010	-0,012
-467,416	384,111	0,074	-0,113
-466,401	-46,509	0,045	-0,016
-465,386	-200,000	0,031	0,136
-464,372	800,000	-0,029	0,088
-463,357	3,336	-0,058	-0,031
-462,343	-200,000	0,008	0,065
-461,328	110,545	0,082	0,072
-460,313	266,133	0,046	-0,058
-459,299	-200,000	0,010	-0,073
-458,284	-55,794	0,043	-0,014
-457,270	299,750	0,062	0,084
-456,255	-200,000	0,011	0,165
-455,241	-20,248	-0,116	-0,052
-454,226	-93,449	0,075	0,015
-453,211	-53,094	-0,105	-0,035
-452,197	-200,000	0,002	0,085
-451,182	-59,178	-0,103	-0,032
-450,168	-79,805	0,130	0,032
-449,153	1,932	-0,078	0,041
-448,138	190,373	0,056	-0,062
-447,124	800,000	0,031	0,065
-446,109	-134,256	-0,124	0,011
-445,095	212,901	0,021	-0,024
-444,080	-200,000	-0,001	0,054
-443,065	800,000	-0,029	0,089
-442,051	-200,000	-0,012	0,082
-441,036	-153,547	-0,050	-0,003
-440,022	-200,000	0,010	0,051
-439,007	252,380	0,062	0,077
-437,992	-200,000	-0,009	0,030
-436,978	-11,125	0,034	0,016
-435,963	136,657	0,052	0,050
-434,949	800,000	-0,048	-0,113
-433,934	104,375	0,046	-0,039
-432,919	-32,012	-0,091	-0,037
-431,905	-200,000	0,033	0,174
-430,890	-200,000	-0,025	0,129
-429,876	287,385	0,052	-0,069
-428,861	192,618	-0,032	0,036
-427,846	-55,832	-0,103	0,033
-426,832	-200,000	0,002	0,100
-425,817	-200,000	0,021	-0,162
-424,803	-200,000	0,000	-0,094
-423,788	10,449	-0,067	-0,037
-422,773	-200,000	-0,013	0,136
-421,759	-200,000	-0,019	-0,108
-420,744	-200,000	-0,001	-0,160
-419,730	-35,011	-0,167	0,066
-418,715	190,502	-0,118	-0,130
-417,701	-87,947	-0,089	0,019
-416,686	800,000	0,021	0,043
-415,671	16,163	0,092	0,053
-414,657	185,138	0,052	0,057
-413,642	-104,152	0,114	-0,019
-412,628	-177,288	-0,090	0,002
-411,613	141,662	-0,068	0,066
-410,598	292,890	-0,077	-0,103
-409,584	-66,463	0,103	-0,030
-408,569	800,000	-0,012	0,028
-407,555	-15,688	0,144	0,067
-406,540	-92,581	0,042	-0,009
-405,525	-58,306	-0,040	-0,013
-404,511	-200,000	0,022	-0,104
-403,496	60,734	0,022	-0,016
-402,482	800,000	0,017	0,038
-401,467	92,897	-0,074	-0,061
-400,452	-63,948	-0,046	-0,014
-399,438	-90,461	0,134	-0,028
-398,423	-200,000	-0,019	-0,066
-397,409	-19,869	0,035	0,016
-396,394	-171,765	0,093	-0,002
-395,379	-200,000	0,001	0,167
-394,365	-125,786	0,185	-0,020
-393,350	800,000	0,036	-0,090
-392,336	175,061	-0,105	0,111
-391,321	800,000	-0,034	-0,088
-390,306	25,446	-0,116	0,070
-389,292	-200,000	-0,007	0,028
-388,277	85,176	0,038	-0,031
-387,263	-200,000	-0,005	-0,144
-386,248	175,754	0,132	-0,140
-385,233	616,937	-0,019	0,035
-384,219	800,000	0,019	-0,051
-383,204	-200,000	0,004	0,084
-382,190	-200,000	-0,028	-0,203
-381,175	-76,173	0,122	-0,031
-380,160	-200,000	0,002	-0,020
-379,146	370,238	-0,009	0,013
-378,131	-133,643	0,066	0,006
-377,117	-104,470	-0,024	0,004
-376,102	773,829	-0,045	-0,090
-375,088	-200,000	0,001	-0,066
-374,073	556,245	0,029	-0,051
-373,058	-200,000	0,006	-0,072
-372,044	139,059	-0,038	-0,037
-371,029	112,744	-0,159	0,141
-370,015	-193,029	0,123	-0,001
-369,000	-200,000	-0,002	0,051
-367,985	-115,082	-0,152	-0,021
-366,971	137,227	-0,061	0,058
-365,956	-139,394	0,085	0,007
-364,942	545,233	0,024	0,043
-363,927	-200,000	-0,000	-0,030
-362,912	14,581	0,114	-0,065
-361,898	224,048	0,064	0,075
-360,883	-124,036	-0,093	-0,011
-359,869	800,000	-0,026	-0,065
-358,854	800,000	-0,040	0,122
-357,839	-200,000	0,002	0,070
-356,825	90,473	0,109	0,089
-355,810	264,834	-0,110	-0,140
-354,796	-200,000	-0,006	-0,074
-353,781	204,522	-0,132	0,150
-352,766	-29,545	0,091	0,038
-351,752	-19,531	0,098	0,044
-350,737	370,630	0,056	0,084
-349,723	70,902	0,123	0,093
-348,708	800,000	-0,050	-0,159
-347,693	302,319	-0,010	0,014
-346,679	607,106	-0,099	-0,180
-345,664	-200,000	0,022	-0,146
-344,650	98,327	0,046	0,039
-343,635	800,000	-0,030	0,079
-342,620	-107,184	0,090	-0,014
-341,606	164,577	0,044	0,046
-340,591	-140,727	-0,081	-0,006
-339,577	-22,623	-0,038	0,017
-338,562	-200,000	-0,018	-0,098
-337,548	238,190	-0,026	-0,032
-336,533	-76,945	0,054	0,014
-335,518	-9,015	0,065	0,032
-334,504	-115,127	-0,097	0,013
-333,489	763,300	0,056	0,112
-332,475	-200,000	0,002	0,096
-331,460	469,594	-0,021	-0,034
-330,445	560,743	0,040	0,071
-329,431	800,000	0,036	0,097
-328,416	111,845	0,073	0,065
-327,402	-167,240	-0,100	0,003
-326,387	32,307	0,043	0,027
-325,372	22,398	-0,069	0,041
-324,358	221,295	0,084	0,099
-323,343	528,392	-0,106	0,183
-322,329	-154,931	0,063	-0,003
-321,314	0,593	0,108	0,056
-320,299	56,579	0,074	-0,053
-319,285	-200,000	-0,006	-0,120
-318,270	800,000	-0,053	0,110
-317,256	144,776	0,042	0,041
-316,241	205,678	-0,029	-0,033
-315,226	209,647	-0,049	-0,056
-314,212	-157,263	-0,066	0,003
-313,197	26,418	0,064	0,039
-312,183	-42,064	-0,111	-0,041
-311,168	504,702	-0,077	0,130
-310,153	-128,769	-0,154	-0,016
-309,139	800,000	0,052	-0,148
-308,124	115,546	0,091	-0,081
-307,110	175,613	-0,013	0,014
-306,095	33,501	0,057	-0,036
-305,080	263,187	-0,087	0,110
-304,066	320,021	0,076	-0,106
-303,051	-110,404	-0,050	0,007
-302,037	-35,591	-0,100	0,039
-301,022	62,664	0,017	-0,012
-300,008	754,232	0,074	0,147
-298,993	-200,000	-0,027	-0,231
-297,978	-102,626	0,060	0,010
-296,964	-200,000	0,004	-0,109
-295,949	800,000	0,054	-0,117
-294,935	-167,907	-0,124	-0,003
-293,920	800,000	0,015	0,035
-292,905	-89,591	0,064	0,013
-291,891	759,190	0,032	0,063
-290,876	-200,000	0,013	-0,090
-289,862	800,000	0,039	-0,119
-288,847	634,247	0,019	0,036
-287,832	28,353	0,092	-0,057
-286,818	610,951	0,016	0,030
-285,803	276,105	0,101	0,131
-284,789	800,000	0,049	0,146
-283,774	235,096	-0,040	-0,049
-282,759	800,000	0,039	-0,087
-281,745	-200,000	0,001	-0,095
-280,730	-152,578	0,013	-0,001
-279,716	-49,007	-0,048	0,017
-278,701	189,755	0,085	0,093
-277,686	52,204	-0,147	0,102
-276,672	14,074	-0,077	-0,044
-275,657	800,000	-0,016	-0,043
-274,643	-200,000	-0,002	0,019
-273,628	-14,741	0,004	0,002
-272,613	-167,083	0,094	-0,003
-271,599	-200,000	-0,015	-0,121
-270,584	411,877	0,068	0,106
-269,570	-12,677	-0,093	0,044
-268,555	-200,000	-0,003	-0,059
-267,540	800,000	-0,028	0,080
-266,526	-200,000	0,015	-0,074
-265,511	-200,000	0,006	0,045
-264,497	450,856	0,027	0,043
-263,482	-68,980	0,152	0,042
-262,467	-19,611	0,104	0,047
-261,453	-133,995	0,072	0,006
-260,438	-200,000	0,003	0,027
-259,424	-200,000	0,030	-0,099
-258,409	399,514	0,049	-0,074
-257,395	800,000	0,014	-0,041
-256,380	-200,000	0,001	0,113
-255,365	-200,000	0,033	0,156
-254,351	58,545	-0,084	-0,060
-253,336	111,804	-0,094	0,082
-252,322	800,000	0,026	0,069
-251,307	239,043	-0,044	0,053
-250,292	-101,426	0,163	0,029
-249,278	-200,000	-0,000	0,081
-248,263	-200,000	-0,018	0,105
-247,249	286,723	0,073	0,096
-246,234	449,097	-0,041	0,066
-245,219	-59,546	-0,219	-0,068
-244,205	-200,000	-0,020	-0,149
-243,190	531,793	-0,039	0,067
-242,176	-126,443	0,058	0,006
-241,161	800,000	0,009	0,024
-240,146	800,000	-0,012	0,027
-239,132	800,000	-0,020	0,058
-238,117	-200,000	0,032	-0,104
-237,103	77,600	-0,117	-0,090
-236,088	-200,000	0,023	-0,118
-235,073	171,133	0,025	0,026
-234,059	345,489	-0,059	0,085
-233,044	-200,000	0,012	0,138
-232,030	-200,000	-0,012	0,043
-231,015	-200,000	-0,050	-0,176
-230,000	800,000	-0,059	-0,165
-228,986	-200,000	0,005	-0,043
-227,971	-137,694	0,212	-0,017
-226,957	136,754	0,096	0,091
-225,942	-31,503	-0,059	0,024
-224,927	73,449	0,063	-0,048
-223,913	-91,419	-0,149	0,031
-222,898	-55,791	-0,096	-0,031
-221,884	484,618	-0,118	-0,197
-220,869	800,000	0,066	-0,139
-219,855	85,439	0,027	0,021
-218,840	-200,000	0,001	0,016
-217,825	-200,000	-0,002	0,098
-216,811	-26,806	-0,079	-0,033
-215,796	-185,222	-0,027	0,000
-214,782	437,275	-0,077	0,122
-213,767	-200,000	-0,003	-0,054
-212,752	-2,435	0,061	-0,031
-211,738	159,496	-0,045	0,046
-210,723	58,349	-0,017	-0,012
-209,709	-66,457	-0,099	0,028
-208,694	155,612	-0,069	-0,069
-207,679	24,741	0,008	0,005
-206,665	800,000	-0,014	-0,040
-205,650	-63,025	0,046	0,014
-204,636	-177,066	-0,113	-0,002
-203,621	165,697	-0,108	0,111
-202,606	326,532	0,040	0,055
-201,592	780,791	-0,075	-0,149
-200,577	115,612	0,072	0,064
-199,563	38,315	-0,021	0,014
-198,548	-200,000	0,033	0,157
-197,533	-200,000	0,003	0,027
-196,519	-43,112	0,060	-0,022
-195,504	-29,061	-0,059	0,024
-194,490	-200,000	-0,012	-0,129
-193,475	69,277	-0,037	0,027
-192,460	-37,673	0,162	-0,062
-191,446	65,107	0,056	0,041
-190,431	-72,940	-0,059	0,016
-189,417	-200,000	0,007	0,126
-188,402	-80,131	0,114	0,028
-187,387	-200,000	-0,015	-0,086
-186,373	249,538	0,012	-0,015
-185,358	-93,084	-0,032	-0,007
-184,344	-172,946	0,077	-0,002
-183,329	557,632	-0,061	-0,107
-182,315	554,192	0,057	0,099
-181,300	-63,729	0,135	0,040
-180,285	-200,000	0,015	0,099
-179,271	800,000	0,053	-0,142
-178,256	-54,312	-0,042	0,014
-177,242	223,651	-0,109	0,128
-176,227	738,279	0,065	0,126
-175,212	425,660	-0,050	0,079
-174,198	154,879	-0,031	0,031
-173,183	-135,236	-0,208	-0,018
-172,169	12,530	-0,016	-0,009
-171,154	800,000	-0,013	0,028
-170,139	-72,635	0,120	0,032
-169,125	140,393	0,039	0,038
-168,110	103,577	0,101	0,086
-167,096	179,619	0,035	0,037
-166,081	-200,000	-0,014	-0,064
-165,066	294,579	0,116	-0,154
-164,052	-159,304	-0,097	-0,004
-163,037	47,557	0,149	0,101
-162,023	190,646	-0,077	0,084
-161,008	-43,740	-0,042	-0,015
-159,993	12,015	0,174	-0,097
-158,979	279,241	-0,082	0,107
-157,964	800,000	-0,041	-0,095
-156,950	-32,283	0,022	-0,009
-155,935	190,827	0,022	-0,024
-154,920	-139,827	-0,119	-0,009
-153,906	-97,315	0,047	-0,009
-152,891	-200,000	-0,030	-0,130
-151,877	701,898	0,018	-0,034
-150,862	-104,629	-0,109	0,018
-149,847	800,000	-0,027	-0,058
-148,833	-61,674	0,060	0,018
-147,818	28,099	0,078	0,047
-146,804	712,260	0,032	0,062
-145,789	-200,000	-0,005	0,022
-144,775	543,463	0,053	0,092
-143,760	423,963	-0,052	-0,082
-142,745	-20,840	-0,011	-0,005
-141,731	800,000	0,060	0,178
-140,716	-200,000	-0,006	0,028
-139,702	-88,456	0,153	0,033
-138,687	-200,000	0,018	0,081
-137,672	67,405	0,069	-0,051
-136,658	-75,531	-0,108	0,028
-135,643	59,859	-0,050	-0,036
-134,629	99,555	-0,074	-0,062
-133,614	-200,000	0,020	-0,106
-132,599	-200,000	0,001	0,102
-131,585	254,932	0,028	0,035
-130,570	757,427	0,047	-0,093
-129,556	307,309	-0,120	-0,162
-128,541	-45,480	-0,069	-0,025
-127,526	-200,000	0,013	-0,068
-126,512	-31,952	0,188	-0,076
-125,497	-151,374	-0,076	0,004
-124,483	68,985	0,065	-0,048
-123,468	195,353	0,090	-0,099
-122,453	98,272	-0,038	-0,032
-121,439	181,114	-0,061	-0,065
-120,424	-200,000	-0,004	0,019
-119,410	-129,763	0,124	-0,012
