DTS Sentinel unit serial number:	SN410029Multiplexer serial number:	ORYXHardware model number:	OX2-SRSoftware version number:	ORYX F/W v4,00 Oryx Data Collector v3.7.2.0data status	okinstallation	B6 Nyhavnadifferential loss correction	single-endedforward channel	channel 2reverse channel	N/Adate	2023/12/11time	00:55:08forward acquisition time	300,00reverse acquisition time	0,00gamma	499,1914k internal	0,3122k external	0,3122temperature offset calibration	1,0000default loss term (dB/km)	0,3820temperature slope calibration	1,0000multiplexer offset coefficient	1,0000multiplexer slope coefficient	1,0000fibre end	0,00T internal ref (°C)	22,25T ext. ref 1 (°C)	5,61T ext. ref 2 (°C)	5,65length (m)	temperature (°C)	Stokes	anti-Stokes-744,400	324,165	0,046	-0,065
-743,385	272,865	-0,195	0,258
-742,371	50,917	-0,021	-0,015
-741,356	249,526	-0,201	0,255
-740,342	-44,291	0,040	-0,015
-739,327	-26,586	-0,224	0,097
-738,312	658,886	-0,076	-0,146
-737,298	-119,792	-0,196	0,025
-736,283	491,385	0,003	-0,005
-735,269	-33,722	-0,259	0,106
-734,254	364,577	-0,028	0,043
-733,239	-49,200	-0,323	-0,114
-732,225	-100,966	0,230	0,042
-731,210	353,525	-0,041	0,061
-730,196	800,000	-0,030	0,085
-729,181	14,276	-0,155	-0,090
-728,167	-34,332	0,125	-0,051
-727,152	-200,000	-0,016	0,106
-726,137	413,048	-0,032	-0,052
-725,123	-200,000	0,009	-0,089
-724,108	450,212	-0,025	-0,041
-723,094	385,351	-0,098	-0,152
-722,079	-200,000	-0,073	-0,262
-721,064	743,333	-0,044	0,088
-720,050	-200,000	0,001	-0,091
-719,035	-101,445	0,048	-0,009
-718,021	-11,254	0,041	-0,020
-717,006	-127,882	-0,184	-0,020
-715,991	270,726	-0,070	0,092
-714,977	169,912	-0,058	0,062
-713,962	-200,000	0,031	-0,150
-712,948	270,795	0,077	0,101
-711,933	800,000	0,037	-0,113
-710,918	800,000	-0,032	0,084
-709,904	-27,455	-0,097	-0,042
-708,889	506,602	0,023	0,041
-707,875	-200,000	-0,009	-0,087
-706,860	13,669	-0,108	-0,062
-705,845	202,427	0,056	-0,064
-704,831	-17,431	0,102	0,047
-703,816	-200,000	-0,020	-0,140
-702,802	327,546	0,023	-0,034
-701,787	-200,000	-0,018	-0,059
-700,772	382,546	-0,030	-0,046
-699,758	800,000	0,041	0,091
-698,743	103,933	0,074	-0,065
-697,729	800,000	0,010	-0,032
-696,714	-84,915	0,069	-0,016
-695,699	-22,171	-0,302	-0,136
-694,685	-88,871	-0,126	-0,028
-693,670	471,325	0,062	-0,105
-692,656	-200,000	-0,022	-0,105
-691,641	-131,872	0,055	-0,005
-690,627	-84,541	0,065	0,015
-689,612	-32,331	-0,063	-0,026
-688,597	-66,924	-0,108	-0,031
-687,583	320,416	-0,073	-0,103
-686,568	-200,000	0,002	-0,031
-685,554	142,254	0,123	-0,121
-684,539	-27,841	0,029	-0,013
-683,524	9,938	0,084	-0,047
-682,510	502,745	0,043	-0,074
-681,495	439,788	0,014	-0,023
-680,481	135,278	0,064	-0,062
-679,466	69,776	-0,046	-0,035
-678,451	-49,815	-0,099	-0,035
-677,437	154,522	-0,123	-0,126
-676,422	184,898	-0,108	0,119
-675,408	-48,139	-0,072	-0,026
-674,393	-200,000	-0,029	-0,116
-673,378	2,359	-0,032	0,017
-672,364	-77,112	-0,063	0,016
-671,349	232,195	-0,077	-0,094
-670,335	800,000	0,031	0,072
-669,320	-154,501	0,112	-0,005
-668,305	800,000	-0,022	-0,072
-667,291	14,276	-0,078	-0,045
-666,276	31,440	-0,072	-0,046
-665,262	800,000	-0,011	-0,031
-664,247	-137,709	-0,040	-0,003
-663,232	800,000	0,057	-0,164
-662,218	55,077	-0,062	-0,045
-661,203	4,288	-0,122	-0,066
-660,189	396,176	-0,038	0,059
-659,174	-85,380	-0,031	0,007
-658,159	22,866	-0,068	0,041
-657,145	-97,838	-0,141	-0,027
-656,130	-72,306	0,094	0,026
-655,116	44,057	-0,072	-0,049
-654,101	800,000	0,026	-0,068
-653,086	-9,164	-0,025	-0,012
-652,072	-200,000	-0,023	0,105
-651,057	20,254	0,093	-0,056
-650,043	458,451	-0,081	-0,135
-649,028	-147,273	0,100	-0,006
-648,014	800,000	0,031	0,091
-646,999	51,005	0,069	-0,048
-645,984	800,000	0,094	0,206
-644,970	-62,510	-0,125	-0,038
-643,955	332,911	-0,010	-0,014
-642,941	-200,000	-0,037	-0,166
-641,926	-32,609	-0,110	-0,045
-640,911	75,475	0,052	-0,041
-639,897	6,784	0,055	-0,031
-638,882	591,289	0,049	0,089
-637,868	-77,694	-0,055	-0,014
-636,853	-20,161	-0,063	0,029
-635,838	-200,000	0,020	-0,073
-634,824	-3,289	0,103	-0,053
-633,809	-17,516	0,061	0,029
-632,795	286,320	0,062	0,084
-631,780	25,270	0,081	-0,050
-630,765	-169,005	-0,089	0,002
-629,751	354,864	0,024	-0,035
-628,736	-200,000	0,001	-0,121
-627,722	-200,000	0,002	0,150
-626,707	206,581	-0,025	-0,029
-625,692	-95,393	0,111	-0,022
-624,678	5,305	-0,088	-0,048
-623,663	800,000	0,029	-0,075
-622,649	113,743	-0,108	-0,097
-621,634	259,037	-0,074	0,095
-620,619	-34,665	-0,141	-0,057
-619,605	112,570	0,050	-0,045
-618,590	641,807	-0,038	-0,071
-617,576	-129,829	0,048	-0,005
-616,561	-200,000	0,027	-0,089
-615,546	-148,482	0,168	0,010
-614,532	-138,259	-0,136	-0,011
-613,517	-45,954	0,070	-0,025
-612,503	365,211	0,069	0,103
-611,488	-200,000	-0,006	0,101
-610,474	-52,510	-0,027	0,009
-609,459	-38,856	-0,027	-0,011
-608,444	-5,196	0,086	0,044
-607,430	-200,000	0,000	-0,163
-606,415	170,978	-0,046	-0,049
-605,401	-200,000	-0,030	0,127
-604,386	379,010	0,046	-0,070
-603,371	800,000	-0,105	0,220
-602,357	214,886	0,036	0,043
-601,342	266,064	0,051	-0,066
-600,328	800,000	-0,011	0,025
-599,313	-33,447	-0,125	-0,051
-598,298	-200,000	-0,003	-0,065
-597,284	218,696	0,131	0,155
-596,269	-85,919	-0,069	-0,016
-595,255	-200,000	0,001	0,025
-594,240	6,512	-0,028	-0,016
-593,225	-100,738	0,039	-0,007
-592,211	-200,000	0,016	0,072
-591,196	703,917	-0,041	0,080
-590,182	362,364	0,039	0,059
-589,167	-200,000	0,017	0,062
-588,152	-200,000	-0,029	0,140
-587,138	-200,000	-0,003	-0,015
-586,123	430,362	-0,031	-0,049
-585,109	800,000	0,034	-0,107
-584,094	-19,560	0,075	0,034
-583,079	511,641	-0,049	-0,085
-582,065	-200,000	0,024	-0,116
-581,050	102,497	-0,132	0,114
-580,036	800,000	0,042	0,123
-579,021	147,199	-0,034	0,034
-578,006	-122,663	0,035	-0,004
-576,992	-200,000	0,003	-0,094
-575,977	-88,555	0,017	-0,004
-574,963	-187,438	-0,031	-0,000
-573,948	266,917	-0,025	0,032
-572,934	-200,000	-0,001	-0,005
-571,919	609,197	0,090	-0,167
-570,904	-200,000	0,004	-0,036
-569,890	-166,095	-0,097	-0,003
-568,875	586,990	0,053	0,096
-567,861	-200,000	-0,000	-0,024
-566,846	-128,854	0,112	0,011
-565,831	453,621	-0,027	0,044
-564,817	68,811	-0,084	-0,063
-563,802	800,000	-0,054	-0,141
-562,788	-200,000	-0,008	-0,056
-561,773	430,272	-0,026	0,041
-560,758	-90,256	0,089	0,019
-559,744	214,085	-0,102	0,120
-558,729	-104,338	0,097	0,016
-557,715	530,750	0,096	-0,169
-556,700	800,000	0,068	-0,171
-555,685	800,000	-0,022	0,068
-554,671	178,438	-0,021	-0,023
-553,656	-200,000	-0,004	0,105
-552,642	-182,806	0,027	0,000
-551,627	-66,064	-0,079	0,023
-550,612	54,916	0,135	-0,097
-549,598	-138,950	-0,107	-0,008
-548,583	-200,000	0,013	0,100
-547,569	705,309	0,015	-0,030
-546,554	800,000	-0,015	-0,033
-545,539	-48,230	-0,054	0,019
-544,525	7,595	0,115	0,063
-543,510	431,152	0,029	0,046
-542,496	25,060	-0,144	0,088
-541,481	-198,064	-0,143	-0,001
-540,466	51,041	0,053	0,037
-539,452	800,000	-0,061	0,139
-538,437	38,299	0,090	-0,059
-537,423	800,000	-0,057	0,142
-536,408	-200,000	-0,023	-0,142
-535,393	-1,824	-0,123	-0,064
-534,379	-200,000	-0,021	-0,095
-533,364	800,000	0,023	0,053
-532,350	434,480	-0,012	-0,020
-531,335	-172,957	0,127	0,003
-530,321	-200,000	-0,021	0,080
-529,306	-10,512	-0,120	0,059
-528,291	-37,175	0,045	-0,018
-527,277	182,062	-0,114	-0,124
-526,262	216,177	0,010	0,012
-525,248	146,333	-0,076	-0,075
-524,233	16,991	0,023	0,014
-523,218	-66,595	-0,075	0,022
-522,204	5,763	0,070	-0,038
-521,189	800,000	-0,027	-0,057
-520,175	-37,212	0,079	-0,031
-519,160	308,628	-0,031	0,043
-518,145	61,182	-0,021	0,015
-517,131	96,558	0,072	-0,061
-516,116	-121,675	0,083	0,010
-515,102	-200,000	-0,022	0,136
-514,087	81,491	-0,074	-0,059
-513,072	352,036	0,083	-0,121
-512,058	174,158	0,047	-0,050
-511,043	176,842	0,090	-0,096
-510,029	49,353	0,048	0,033
-509,014	73,026	0,087	-0,067
-507,999	800,000	-0,045	0,110
-506,985	253,937	-0,060	-0,076
-505,970	-41,380	-0,074	-0,028
-504,956	542,310	0,026	0,046
-503,941	615,861	0,059	0,109
-502,926	422,547	0,049	0,078
-501,912	541,535	-0,102	0,180
-500,897	-200,000	-0,001	0,139
-499,883	-82,332	0,026	0,006
-498,868	185,010	-0,084	-0,092
-497,853	800,000	0,004	-0,009
-496,839	-200,000	0,011	0,121
-495,824	-101,209	-0,156	0,028
-494,810	28,847	0,031	0,020
-493,795	-200,000	0,004	-0,038
-492,781	-200,000	0,003	-0,055
-491,766	-142,711	0,035	0,003
-490,751	-200,000	-0,022	-0,149
-489,737	800,000	0,038	-0,116
-488,722	-195,691	0,075	-0,000
-487,708	-200,000	-0,019	-0,097
-486,693	-200,000	0,004	0,014
-485,678	274,237	0,031	-0,041
-484,664	-77,309	0,029	0,007
-483,649	119,715	0,041	-0,037
-482,635	-200,000	-0,011	0,099
-481,620	166,622	0,123	-0,128
-480,605	138,771	0,051	0,049
-479,591	-83,180	-0,027	-0,006
-478,576	-200,000	-0,014	0,052
-477,562	58,597	0,077	-0,055
-476,547	-200,000	-0,025	-0,124
-475,532	800,000	0,039	-0,087
-474,518	-142,180	-0,050	0,004
-473,503	-200,000	0,020	0,170
-472,489	-139,879	0,138	-0,011
-471,474	65,902	-0,059	0,044
-470,459	800,000	0,068	-0,163
-469,445	7,058	-0,152	-0,083
-468,430	80,707	-0,019	-0,015
-467,416	-35,628	0,048	0,019
-466,401	690,679	0,083	0,160
-465,386	54,418	-0,075	-0,053
-464,372	75,867	0,078	0,061
-463,357	-54,545	-0,033	0,011
-462,343	55,891	-0,055	-0,039
-461,328	291,758	-0,066	-0,088
-460,313	800,000	0,024	-0,052
-459,299	-200,000	-0,021	0,104
-458,284	800,000	0,057	0,150
-457,270	-58,750	-0,050	0,016
-456,255	40,390	0,080	-0,053
-455,241	-90,837	-0,142	-0,030
-454,226	637,201	-0,079	-0,149
-453,211	-200,000	-0,026	0,090
-452,197	10,149	0,075	0,042
-451,182	-148,244	-0,074	0,004
-450,168	-155,141	0,026	0,001
-449,153	551,911	0,037	-0,065
-448,138	-38,930	-0,053	-0,021
-447,124	438,341	0,084	0,136
-446,109	106,117	0,011	-0,010
-445,095	-110,738	0,086	0,013
-444,080	4,677	-0,034	0,019
-443,065	137,401	-0,062	-0,059
-442,051	-39,432	-0,057	-0,022
-441,036	-61,916	0,017	-0,005
-440,022	-57,602	-0,142	-0,046
-439,007	67,035	-0,021	0,015
-437,992	-200,000	0,021	0,070
-436,978	-200,000	-0,004	0,024
-435,963	-27,081	0,119	0,051
-434,949	-84,557	-0,129	-0,030
-433,934	35,047	0,093	0,060
-432,919	-37,249	-0,091	0,036
-431,905	582,533	0,036	-0,066
-430,890	-200,000	0,002	-0,051
-429,876	-38,237	0,204	0,079
-428,861	-54,194	0,077	0,026
-427,846	324,972	-0,091	0,129
-426,832	270,348	0,024	-0,031
-425,817	237,867	0,127	-0,156
-424,803	42,438	-0,128	0,086
-423,788	311,023	0,056	-0,077
-422,773	24,974	-0,033	0,020
-421,759	399,024	-0,057	0,088
-420,744	-200,000	0,033	0,114
-419,730	800,000	0,040	-0,114
-418,715	800,000	-0,038	-0,087
-417,701	85,784	0,131	0,106
-416,686	-184,547	0,058	0,001
-415,671	-125,839	-0,008	-0,001
-414,657	-20,335	0,136	0,061
-413,642	-191,326	0,095	0,001
-412,628	-46,828	-0,158	-0,056
-411,613	-39,189	-0,166	0,064
-410,598	800,000	-0,012	-0,034
-409,584	-200,000	0,011	-0,092
-408,569	-72,350	0,008	0,002
-407,555	-39,278	0,081	-0,031
-406,540	12,615	0,060	0,034
-405,525	85,547	-0,079	0,064
-404,511	345,092	-0,059	-0,085
-403,496	-0,856	0,055	-0,028
-402,482	800,000	0,031	-0,068
-401,467	28,640	0,084	-0,052
-400,452	-39,484	0,074	-0,028
-399,438	354,596	-0,028	0,042
-398,423	350,294	0,044	0,064
-397,409	-90,052	-0,046	-0,010
-396,394	-141,313	0,104	-0,008
-395,379	800,000	0,023	0,066
-394,365	-200,000	-0,044	0,143
-393,350	-91,666	0,108	0,022
-392,336	241,577	-0,077	-0,095
-391,321	350,525	-0,074	-0,109
-390,306	782,211	0,045	-0,090
-389,292	-54,794	-0,018	-0,006
-388,277	800,000	0,029	0,063
-387,263	-200,000	0,035	0,203
-386,248	131,796	-0,106	0,101
-385,233	588,583	-0,024	0,043
-384,219	-105,585	-0,007	0,001
-383,204	-15,672	0,023	-0,011
-382,190	-48,031	-0,165	-0,058
-381,175	86,229	-0,156	-0,126
-380,160	590,433	-0,015	0,027
-379,146	800,000	0,026	0,056
-378,131	393,810	-0,025	-0,039
-377,117	-200,000	0,020	-0,134
-376,102	-7,050	-0,124	-0,062
-375,088	337,717	-0,060	-0,086
-374,073	-200,000	0,015	-0,088
-373,058	-200,000	-0,023	-0,090
-372,044	430,213	-0,013	0,021
-371,029	800,000	0,021	0,049
-370,015	800,000	-0,037	0,082
-369,000	-200,000	-0,002	-0,019
-367,985	55,523	-0,033	-0,024
-366,971	58,832	-0,104	-0,075
-365,956	776,575	-0,019	-0,038
-364,942	305,840	-0,024	-0,032
-363,927	235,983	-0,082	0,100
-362,912	272,576	0,070	0,091
-361,898	-192,925	0,121	0,001
-360,883	180,230	-0,054	-0,058
-359,869	-200,000	-0,011	0,052
-358,854	-200,000	0,011	0,108
-357,839	800,000	0,031	0,093
-356,825	-200,000	0,023	0,109
-355,810	800,000	-0,053	0,123
-354,796	800,000	0,020	-0,049
-353,781	7,132	-0,032	0,018
-352,766	565,556	0,036	0,064
-351,752	250,445	0,030	0,037
-350,737	-22,656	-0,064	0,028
-349,723	-184,386	0,053	-0,001
-348,708	-138,821	-0,113	-0,009
-347,693	-51,284	-0,175	0,060
-346,679	169,534	-0,053	-0,055
-345,664	-127,526	-0,091	-0,010
-344,650	-128,658	0,061	-0,006
-343,635	142,787	-0,100	-0,098
-342,620	68,959	0,080	0,060
-341,606	181,928	-0,069	-0,075
-340,591	-85,370	-0,086	0,019
-339,577	34,336	-0,088	-0,056
-338,562	374,708	-0,028	-0,042
-337,548	-200,000	0,015	0,099
-336,533	45,854	-0,057	0,038
-335,518	-192,423	0,100	0,001
-334,504	800,000	0,023	-0,072
-333,489	-77,532	0,141	-0,036
-332,475	631,238	0,079	-0,148
-331,460	299,969	0,107	-0,145
-330,445	800,000	-0,038	0,095
-329,431	363,267	-0,026	-0,038
-328,416	449,952	0,067	0,110
-327,402	-13,426	-0,071	-0,034
-326,387	-130,880	0,066	0,006
-325,372	-200,000	-0,047	-0,155
-324,358	86,931	-0,128	-0,103
-323,343	-200,000	-0,001	0,049
-322,329	413,444	0,031	0,048
-321,314	-200,000	0,036	0,121
-320,299	78,459	0,057	-0,045
-319,285	-200,000	0,004	-0,161
-318,270	-80,718	-0,147	-0,036
-317,256	800,000	-0,059	-0,169
-316,241	-110,618	0,064	0,010
-315,226	10,788	-0,063	-0,035
-314,212	568,345	-0,092	0,164
-313,197	-136,493	0,088	0,007
-312,183	721,881	-0,023	0,045
-311,168	-106,062	-0,081	0,013
-310,153	800,000	0,033	-0,085
-309,139	-149,759	-0,082	0,005
-308,124	35,903	0,027	-0,017
-307,110	800,000	0,026	0,071
-306,095	-200,000	0,028	-0,113
-305,080	15,566	-0,104	-0,060
-304,066	-45,549	-0,144	0,052
-303,051	-155,869	-0,069	0,003
-302,037	-200,000	0,037	-0,120
-301,022	-142,439	0,038	0,003
-300,008	-55,931	0,140	0,046
-298,993	346,255	0,036	-0,052
-297,978	126,654	-0,042	0,039
-296,964	2,270	-0,151	-0,080
-295,949	800,000	-0,042	-0,089
-294,935	-36,668	0,064	-0,025
-293,920	-127,940	-0,129	0,013
-292,905	58,935	0,037	0,026
-291,891	-27,007	0,050	-0,021
-290,876	-176,517	0,063	-0,001
-289,862	800,000	0,047	0,151
-288,847	-163,773	-0,054	-0,002
-287,832	-115,703	-0,042	-0,006
-286,818	-62,681	-0,073	-0,022
-285,803	400,311	0,070	-0,109
-284,789	-106,161	0,134	-0,022
-283,774	161,614	0,025	-0,026
-282,759	-105,614	-0,063	-0,010
-281,745	494,178	0,028	-0,048
-280,730	-200,000	0,006	-0,037
-279,716	482,723	-0,005	-0,008
-278,701	-101,231	-0,020	-0,004
-277,686	102,758	0,064	0,055
-276,672	19,903	0,044	0,026
-275,657	99,131	-0,095	-0,080
-274,643	-84,147	0,190	0,044
-273,628	800,000	-0,008	0,025
-272,613	-200,000	-0,015	0,102
-271,599	-140,537	-0,156	0,012
-270,584	59,581	0,084	0,060
-269,570	387,451	-0,076	0,115
-268,555	-200,000	0,001	-0,061
-267,540	-124,793	-0,041	0,005
-266,526	-200,000	-0,019	0,078
-265,511	-52,080	-0,067	-0,023
-264,497	28,916	0,004	-0,003
-263,482	59,454	0,176	0,127
-262,467	203,219	-0,047	0,054
-261,453	5,182	0,042	0,023
-260,438	-141,703	0,099	0,007
-259,424	-134,061	0,188	-0,017
-258,409	563,931	-0,085	0,150
-257,395	-200,000	0,042	0,178
-256,380	158,008	-0,089	0,090
-255,365	30,039	-0,028	0,018
-254,351	433,075	-0,092	-0,147
-253,336	800,000	0,065	0,136
-252,322	61,498	0,160	0,116
-251,307	-200,000	0,003	0,017
-250,292	-158,475	0,168	-0,007
-249,278	-88,367	-0,023	-0,005
-248,263	-200,000	-0,006	0,082
-247,249	-200,000	-0,034	-0,142
-246,234	-200,000	0,011	-0,035
-245,219	-120,265	-0,083	0,010
-244,205	-200,000	0,007	-0,085
-243,190	800,000	-0,054	0,123
-242,176	-47,673	0,209	0,074
-241,161	45,972	0,049	0,033
-240,146	94,456	0,058	0,048
-239,132	108,405	0,026	-0,023
-238,117	-36,486	-0,093	-0,036
-237,103	-72,692	-0,100	-0,027
-236,088	151,465	0,119	-0,119
-235,073	-71,614	0,197	0,053
-234,059	800,000	0,038	0,113
-233,044	110,580	-0,046	0,041
-232,030	160,395	-0,079	-0,080
-231,015	105,291	-0,072	-0,062
-230,000	-87,480	-0,058	-0,013
-228,986	800,000	-0,024	0,067
-227,971	696,464	-0,069	-0,134
-226,957	-113,505	-0,036	-0,005
-225,942	800,000	0,052	0,124
-224,927	-200,000	-0,014	0,128
-223,913	-200,000	0,008	-0,072
-222,898	800,000	-0,058	-0,123
-221,884	-200,000	0,014	0,077
-220,869	470,649	-0,032	0,053
-219,855	800,000	-0,031	0,076
-218,840	60,044	0,074	0,053
-217,825	-24,032	-0,034	0,015
-216,811	-200,000	0,022	0,098
-215,796	-200,000	-0,025	-0,122
-214,782	-200,000	-0,004	-0,130
-213,767	-200,000	0,005	-0,053
-212,752	-200,000	-0,009	-0,082
-211,738	204,015	-0,087	0,099
-210,723	800,000	0,040	0,117
-209,709	443,537	0,018	-0,029
-208,694	58,946	-0,113	-0,081
-207,679	136,916	0,107	-0,102
-206,665	-22,795	0,087	-0,038
-205,650	327,557	-0,052	0,072
-204,636	-200,000	-0,000	0,081
-203,621	-200,000	0,005	0,087
-202,606	-146,511	-0,165	0,010
-201,592	679,678	0,054	-0,102
-200,577	732,818	-0,098	-0,193
-199,563	800,000	-0,048	0,109
-198,548	800,000	0,061	0,139
-197,533	83,924	-0,005	-0,004
-196,519	162,260	0,067	0,068
-195,504	-200,000	0,018	-0,074
-194,490	-200,000	0,019	-0,070
-193,475	-14,296	-0,119	-0,056
-192,460	-200,000	0,004	-0,039
-191,446	800,000	0,076	0,178
-190,431	-200,000	-0,027	0,197
-189,417	800,000	-0,050	0,112
-188,402	159,683	0,052	-0,053
-187,387	800,000	-0,041	-0,113
-186,373	45,258	-0,064	-0,043
-185,358	-105,486	0,064	-0,011
-184,344	777,240	0,061	-0,123
-183,329	30,428	-0,079	0,049
-182,315	-200,000	0,003	-0,044
-181,300	21,009	0,130	-0,077
-180,285	-200,000	-0,002	0,079
-179,271	620,818	-0,074	0,136
-178,256	-36,141	0,086	0,034
-177,242	691,387	-0,009	0,017
-176,227	332,391	0,081	0,114
-175,212	-200,000	0,010	-0,063
-174,198	28,789	-0,088	-0,054
-173,183	-2,996	-0,040	0,020
-172,169	-152,244	0,072	-0,004
-171,154	-60,805	0,127	-0,039
-170,139	692,358	0,055	0,105
-169,125	-200,000	0,021	0,099
-168,110	13,411	0,046	0,026
-167,096	-1,118	-0,100	-0,052
-166,081	25,064	0,160	-0,097
-165,066	-200,000	0,005	-0,098
-164,052	-21,257	-0,091	0,040
-163,037	-200,000	0,009	0,116
-162,023	-11,875	0,074	-0,035
-161,008	63,415	-0,029	0,021
-159,993	-200,000	-0,034	-0,146
-158,979	-200,000	0,002	-0,071
-157,964	-200,000	-0,018	0,090
-156,950	-200,000	-0,005	-0,180
-155,935	-200,000	0,004	-0,093
-154,920	654,338	-0,063	0,118
-153,906	-146,223	0,172	-0,011
-152,891	536,134	0,071	-0,122
-151,877	44,417	-0,114	0,076
-150,862	-129,508	-0,046	0,005
-149,847	141,237	-0,058	0,056
-148,833	800,000	-0,059	-0,172
-147,818	24,702	0,073	-0,044
-146,804	800,000	0,046	-0,128
-145,789	163,395	0,133	0,136
-144,775	34,066	-0,024	0,015
-143,760	-73,784	-0,084	0,022
-142,745	72,906	-0,035	0,027
-141,731	135,197	0,057	-0,054
-140,716	200,084	0,122	0,136
-139,702	356,904	0,032	0,046
-138,687	731,711	0,054	0,106
-137,672	800,000	0,043	0,092
-136,658	-200,000	0,006	-0,095
-135,643	-116,885	0,047	0,006
-134,629	-33,624	0,038	0,015
-133,614	-153,415	-0,101	-0,005
-132,599	6,550	0,111	0,060
-131,585	141,926	-0,025	-0,024
-130,570	-200,000	-0,016	-0,087
-129,556	800,000	0,031	-0,093
-128,541	-135,066	-0,061	-0,005
-127,526	50,510	0,015	-0,010
-126,512	128,349	-0,088	0,082
-125,497	105,231	0,070	-0,061
-124,483	-200,000	-0,015	0,143
-123,468	149,161	0,029	-0,029
-122,453	798,374	-0,044	-0,090
-121,439	36,678	-0,015	0,010
-120,424	178,505	-0,076	-0,081
-119,410	800,000	-0,016	-0,042
