DTS Sentinel unit serial number:	SN410029Multiplexer serial number:	ORYXHardware model number:	OX2-SRSoftware version number:	ORYX F/W v4,00 Oryx Data Collector v3.7.2.0data status	okinstallation	B6 Nyhavnadifferential loss correction	single-endedforward channel	channel 2reverse channel	N/Adate	2023/12/07time	23:10:08forward acquisition time	300,00reverse acquisition time	0,00gamma	499,1914k internal	0,3165k external	0,3165temperature offset calibration	1,0000default loss term (dB/km)	0,3820temperature slope calibration	1,0000multiplexer offset coefficient	1,0000multiplexer slope coefficient	1,0000fibre end	0,00T internal ref (°C)	13,50T ext. ref 1 (°C)	-3,46T ext. ref 2 (°C)	-3,43length (m)	temperature (°C)	Stokes	anti-Stokes-744,400	-61,578	0,166	0,051
-743,385	-150,958	-0,353	0,019
-742,371	25,995	0,076	0,047
-741,356	-63,042	-0,288	-0,087
-740,342	-156,374	0,153	0,007
-739,327	-1,946	-0,108	0,055
-738,312	-129,638	0,093	-0,009
-737,298	-30,272	-0,344	-0,143
-736,283	-67,890	0,103	0,029
-735,269	-27,195	-0,256	-0,109
-734,254	162,320	0,086	0,089
-733,239	-2,433	-0,462	-0,237
-732,225	25,087	0,164	-0,100
-731,210	128,203	0,105	-0,098
-730,196	-200,000	0,004	0,062
-729,181	-38,083	-0,082	-0,032
-728,167	28,096	-0,094	0,058
-727,152	-18,348	0,031	0,014
-726,137	-200,000	0,028	-0,097
-725,123	-136,352	0,086	0,007
-724,108	86,669	-0,087	-0,070
-723,094	-65,787	0,047	0,014
-722,079	800,000	-0,063	-0,179
-721,064	369,752	-0,077	0,115
-720,050	306,114	0,051	-0,071
-719,035	-200,000	0,004	-0,057
-718,021	-200,000	-0,025	-0,114
-717,006	800,000	0,019	-0,050
-715,991	20,286	-0,051	-0,030
-714,977	6,569	-0,096	-0,052
-713,962	46,059	0,040	0,027
-712,948	800,000	0,050	-0,106
-711,933	274,612	0,047	0,061
-710,918	52,021	0,090	-0,063
-709,904	-132,961	-0,149	0,014
-708,889	-200,000	-0,013	0,058
-707,875	800,000	0,028	0,074
-706,860	-102,977	0,112	0,019
-705,845	-87,973	0,043	0,009
-704,831	60,953	0,047	0,034
-703,816	195,791	0,046	-0,052
-702,802	800,000	-0,005	0,017
-701,787	-145,659	-0,052	-0,003
-700,772	800,000	0,026	-0,064
-699,758	-82,303	0,086	-0,020
-698,743	-70,054	0,068	0,019
-697,729	-200,000	0,018	0,127
-696,714	-200,000	0,040	0,140
-695,699	453,432	0,032	0,052
-694,685	-200,000	0,002	0,081
-693,670	-200,000	0,013	-0,041
-692,656	-200,000	-0,024	-0,110
-691,641	800,000	0,048	0,128
-690,627	-200,000	-0,016	-0,073
-689,612	136,974	-0,044	-0,042
-688,597	-200,000	0,005	-0,019
-687,583	800,000	-0,045	-0,130
-686,568	800,000	0,068	-0,164
-685,554	291,708	-0,075	-0,101
-684,539	-200,000	0,007	0,036
-683,524	553,306	0,080	0,142
-682,510	-24,463	-0,152	-0,066
-681,495	209,210	-0,105	-0,121
-680,481	212,044	0,112	-0,130
-679,466	-169,573	-0,219	-0,006
-678,451	-149,696	0,046	-0,003
-677,437	-200,000	0,028	0,157
-676,422	-17,638	-0,041	-0,019
-675,408	-111,485	0,080	-0,012
-674,393	-29,114	-0,094	0,039
-673,378	425,248	-0,057	-0,090
-672,364	-4,021	0,052	0,027
-671,349	27,548	0,057	0,035
-670,335	300,918	-0,008	-0,011
-669,320	23,251	0,044	-0,027
-668,305	800,000	0,034	0,097
-667,291	-62,930	0,044	0,013
-666,276	172,168	-0,049	-0,051
-665,262	63,744	0,097	-0,071
-664,247	-137,142	0,129	0,011
-663,232	87,538	-0,047	-0,038
-662,218	383,968	0,083	0,125
-661,203	137,629	0,103	0,098
-660,189	382,103	-0,031	-0,047
-659,174	256,717	-0,036	-0,045
-658,159	-200,000	0,026	0,114
-657,145	-200,000	0,007	0,057
-656,130	37,384	-0,157	-0,102
-655,116	97,707	0,082	-0,069
-654,101	-112,579	-0,096	-0,014
-653,086	-115,281	0,109	0,015
-652,072	221,321	-0,190	-0,224
-651,057	516,305	0,010	-0,016
-650,043	-3,783	-0,033	-0,017
-649,028	-57,260	-0,092	0,030
-648,014	-200,000	0,022	0,149
-646,999	45,598	0,076	-0,052
-645,984	161,406	-0,068	0,069
-644,970	147,018	-0,097	-0,096
-643,955	97,559	0,032	0,027
-642,941	-58,046	-0,198	0,063
-641,926	249,836	-0,070	-0,088
-640,911	-51,405	0,039	-0,013
-639,897	-200,000	0,014	0,057
-638,882	-200,000	0,002	0,028
-637,868	-200,000	0,002	0,072
-636,853	-121,626	-0,063	-0,008
-635,838	-200,000	-0,004	-0,035
-634,824	800,000	0,043	-0,100
-633,809	-200,000	0,006	0,070
-632,795	-200,000	-0,001	0,040
-631,780	693,780	-0,028	0,054
-630,765	-157,710	-0,111	0,005
-629,751	-200,000	0,007	0,067
-628,736	-25,994	-0,104	-0,044
-627,722	94,857	0,014	-0,011
-626,707	-80,480	0,141	0,034
-625,692	800,000	-0,055	-0,126
-624,678	-5,205	0,040	0,020
-623,663	244,052	0,057	0,071
-622,649	-97,295	-0,114	0,021
-621,634	-108,394	-0,019	-0,003
-620,619	-128,849	-0,108	-0,011
-619,605	-102,569	0,132	0,023
-618,590	-50,961	-0,119	0,041
-617,576	-200,000	0,013	0,058
-616,561	-152,776	-0,044	0,002
-615,546	-75,107	-0,162	-0,042
-614,532	491,255	0,038	0,065
-613,517	437,113	-0,049	-0,078
-612,503	330,988	0,040	-0,056
-611,488	353,919	0,033	-0,048
-610,474	3,443	0,035	0,018
-609,459	63,593	-0,039	-0,029
-608,444	303,542	-0,052	-0,071
-607,430	105,394	0,047	-0,041
-606,415	-133,789	-0,142	0,013
-605,401	-200,000	0,014	0,073
-604,386	35,526	0,030	0,019
-603,371	-200,000	0,101	0,000
-602,357	214,269	-0,065	-0,075
-601,342	177,562	-0,152	0,162
-600,328	-112,061	-0,040	-0,006
-599,313	-200,000	0,006	-0,116
-598,298	440,360	-0,025	0,040
-597,284	27,908	0,086	0,053
-596,269	399,319	0,012	0,019
-595,255	-155,004	0,104	-0,005
-594,240	473,347	0,089	-0,147
-593,225	-97,669	-0,103	-0,019
-592,211	145,662	-0,124	-0,121
-591,196	60,534	-0,025	-0,018
-590,182	639,559	-0,048	0,089
-589,167	-40,632	-0,006	-0,002
-588,152	-200,000	0,025	0,095
-587,138	-200,000	-0,010	0,045
-586,123	-103,689	-0,112	0,019
-585,109	53,029	-0,034	0,023
-584,094	-200,000	0,025	0,160
-583,079	-39,265	0,102	0,039
-582,065	-123,294	-0,085	0,010
-581,050	-33,100	0,088	0,035
-580,036	-43,682	-0,077	0,028
-579,021	222,275	-0,036	-0,043
-578,006	-200,000	-0,012	0,172
-576,992	-53,318	-0,038	-0,013
-575,977	266,609	0,099	-0,127
-574,963	137,603	0,123	0,118
-573,948	-200,000	-0,007	0,085
-572,934	96,079	0,058	-0,048
-571,919	800,000	-0,078	-0,174
-570,904	-200,000	0,005	-0,058
-569,890	78,245	-0,111	-0,087
-568,875	-126,709	0,036	0,004
-567,861	35,340	-0,073	-0,046
-566,846	-200,000	-0,002	0,087
-565,831	-200,000	0,004	0,020
-564,817	-136,526	-0,133	0,011
-563,802	800,000	-0,035	-0,114
-562,788	800,000	-0,032	0,097
-561,773	23,834	0,049	-0,029
-560,758	-187,120	0,071	-0,001
-559,744	800,000	0,021	-0,047
-558,729	268,495	-0,086	-0,111
-557,715	-59,110	0,046	-0,014
-556,700	-200,000	-0,004	-0,088
-555,685	-60,240	0,099	0,031
-554,671	-200,000	-0,011	-0,085
-553,656	-132,832	0,087	-0,008
-552,642	-200,000	0,005	0,138
-551,627	21,335	0,090	0,053
-550,612	25,828	-0,072	0,044
-549,598	263,767	-0,040	-0,051
-548,583	557,455	-0,042	-0,073
-547,569	105,614	0,090	-0,078
-546,554	233,374	-0,038	0,046
-545,539	-200,000	0,003	0,051
-544,525	537,524	-0,041	-0,071
-543,510	-101,028	-0,136	-0,024
-542,496	-200,000	-0,030	-0,115
-541,481	16,985	-0,060	-0,035
-540,466	-200,000	0,001	-0,074
-539,452	-29,424	0,056	-0,023
-538,437	213,058	-0,161	0,186
-537,423	-200,000	-0,005	-0,090
-536,408	332,569	-0,025	-0,035
-535,393	213,115	0,021	-0,024
-534,379	800,000	-0,095	-0,213
-533,364	-200,000	0,013	0,061
-532,350	-200,000	0,008	0,025
-531,335	800,000	-0,044	0,107
-530,321	-200,000	0,020	-0,084
-529,306	19,207	-0,047	-0,028
-528,291	45,296	-0,153	-0,103
-527,277	800,000	-0,049	0,139
-526,262	800,000	0,032	0,098
-525,248	800,000	0,016	0,049
-524,233	417,049	0,038	0,059
-523,218	-200,000	0,014	-0,085
-522,204	-200,000	-0,018	-0,064
-521,189	-77,624	-0,040	-0,010
-520,175	800,000	-0,066	-0,161
-519,160	15,585	0,063	-0,036
-518,145	-51,397	0,168	0,057
-517,131	-200,000	0,010	0,065
-516,116	758,521	-0,036	0,072
-515,102	592,687	-0,064	-0,116
-514,087	-109,838	-0,149	0,023
-513,072	-1,187	-0,125	0,064
-512,058	-8,317	0,100	-0,049
-511,043	80,544	0,058	-0,046
-510,029	92,392	0,100	-0,083
-509,014	-6,004	0,020	-0,010
-507,999	6,920	0,097	0,053
-506,985	560,324	0,065	0,114
-505,970	128,411	-0,066	-0,062
-504,956	-200,000	0,005	0,097
-503,941	28,145	0,091	0,056
-502,926	644,869	0,085	-0,159
-501,912	79,859	-0,130	0,102
-500,897	-77,798	-0,011	-0,003
-499,883	-132,090	-0,070	0,007
-498,868	-200,000	0,014	-0,127
-497,853	-157,930	-0,022	0,001
-496,839	697,116	-0,038	0,073
-495,824	-30,885	0,070	-0,029
-494,810	-200,000	0,021	0,123
-493,795	258,270	0,080	0,101
-492,781	-200,000	0,006	-0,080
-491,766	-75,887	-0,156	0,040
-490,751	-25,266	-0,070	-0,030
-489,737	112,896	0,155	-0,136
-488,722	107,270	0,015	0,013
-487,708	-200,000	-0,008	-0,064
-486,693	347,731	0,036	-0,051
-485,678	112,988	-0,148	-0,131
-484,664	-166,956	0,044	0,001
-483,649	-177,462	0,066	0,001
-482,635	-1,424	0,115	-0,059
-481,620	-200,000	-0,006	-0,024
-480,605	-95,860	-0,032	0,006
-479,591	-138,065	-0,190	-0,015
-478,576	-133,669	-0,048	0,004
-477,562	101,188	-0,058	0,049
-476,547	-200,000	0,026	0,109
-475,532	-16,392	0,050	0,023
-474,518	-64,197	-0,051	-0,015
-473,503	42,151	0,052	-0,035
-472,489	-97,690	-0,097	-0,018
-471,474	800,000	-0,024	-0,056
-470,459	-110,410	-0,051	-0,008
-469,445	20,479	0,074	0,044
-468,430	-200,000	0,014	-0,052
-467,416	-103,041	-0,061	-0,010
-466,401	-200,000	-0,009	0,042
-465,386	586,535	0,076	0,137
-464,372	106,139	0,046	0,040
-463,357	-200,000	0,026	-0,086
-462,343	510,975	0,035	0,060
-461,328	-19,292	-0,065	-0,029
-460,313	0,341	-0,063	-0,033
-459,299	196,457	0,086	0,095
-458,284	800,000	-0,010	0,028
-457,270	-200,000	0,004	-0,027
-456,255	21,831	-0,022	-0,013
-455,241	346,851	0,109	-0,157
-454,226	-55,759	-0,028	0,009
-453,211	476,096	0,064	-0,106
-452,197	-79,502	0,101	0,025
-451,182	-13,967	0,124	-0,058
-450,168	-51,873	-0,024	0,008
-449,153	-200,000	-0,008	-0,114
-448,138	-136,058	-0,105	-0,009
-447,124	-48,638	-0,113	0,039
-446,109	248,960	0,040	0,050
-445,095	-169,446	-0,114	-0,003
-444,080	624,758	-0,027	-0,050
-443,065	-200,000	0,141	-0,000
-442,051	-33,406	0,069	0,027
-441,036	-200,000	0,025	-0,130
-440,022	-77,945	-0,092	-0,023
-439,007	13,733	-0,129	0,072
-437,992	-35,825	0,170	-0,066
-436,978	-70,085	-0,077	-0,021
-435,963	422,494	0,041	0,065
-434,949	58,838	-0,128	0,091
-433,934	202,647	-0,010	0,011
-432,919	-196,262	-0,142	-0,001
-431,905	-60,326	-0,150	0,046
-430,890	-200,000	0,009	0,086
-429,876	-106,119	0,149	0,024
-428,861	-200,000	-0,014	-0,047
-427,846	-200,000	-0,059	0,208
-426,832	-9,871	-0,057	0,027
-425,817	44,689	0,075	0,050
-424,803	160,398	0,076	0,077
-423,788	43,326	-0,047	0,031
-422,773	-200,000	0,026	0,146
-421,759	-200,000	0,016	0,083
-420,744	32,656	0,113	0,071
-419,730	-200,000	-0,018	-0,181
-418,715	-200,000	0,002	-0,136
-417,701	800,000	-0,021	-0,056
-416,686	-46,262	-0,088	-0,031
-415,671	-200,000	0,020	0,072
-414,657	39,743	0,111	0,072
-413,642	660,766	-0,102	-0,192
-412,628	91,900	-0,225	-0,184
-411,613	800,000	-0,008	-0,023
-410,598	-200,000	0,029	-0,094
-409,584	-101,552	-0,177	-0,031
-408,569	234,581	-0,087	0,104
-407,555	800,000	0,058	0,161
-406,540	192,166	0,071	0,077
-405,525	800,000	0,009	-0,024
-404,511	-117,828	0,146	-0,019
-403,496	-39,936	-0,038	0,014
-402,482	114,667	0,054	-0,048
-401,467	410,933	-0,043	0,067
-400,452	-200,000	-0,007	0,092
-399,438	-61,297	0,119	-0,036
-398,423	55,861	-0,019	-0,014
-397,409	330,883	-0,103	-0,145
-396,394	43,134	0,022	0,014
-395,379	398,372	-0,015	-0,023
-394,365	-200,000	0,000	0,048
-393,350	-163,642	-0,033	-0,001
-392,336	-39,520	-0,034	-0,013
-391,321	200,464	0,034	-0,038
-390,306	-1,645	-0,130	0,066
-389,292	147,164	-0,082	0,080
-388,277	-67,814	0,023	0,006
-387,263	48,955	0,121	0,082
-386,248	661,587	0,042	0,079
-385,233	800,000	0,020	-0,048
-384,219	-200,000	0,008	-0,137
-383,204	560,450	-0,047	-0,082
-382,190	-200,000	0,002	-0,139
-381,175	384,971	0,053	-0,079
-380,160	101,961	0,048	0,041
-379,146	-200,000	-0,024	0,094
-378,131	20,757	-0,089	-0,052
-377,117	800,000	0,025	0,061
-376,102	-67,290	0,092	-0,026
-375,088	136,455	0,058	0,055
-374,073	800,000	-0,052	-0,153
-373,058	-200,000	-0,002	0,195
-372,044	-33,518	0,066	-0,026
-371,029	-200,000	-0,005	0,039
-370,015	-106,288	-0,093	0,015
-369,000	141,414	-0,007	-0,006
-367,985	-118,498	-0,070	-0,009
-366,971	-200,000	-0,008	0,040
-365,956	-67,689	0,153	-0,043
-364,942	-120,114	0,042	0,005
-363,927	-24,672	0,051	-0,022
-362,912	-200,000	-0,013	0,046
-361,898	-200,000	0,004	-0,048
-360,883	800,000	-0,036	-0,116
-359,869	-200,000	-0,018	-0,075
-358,854	-88,503	0,079	0,017
-357,839	725,139	0,039	0,076
-356,825	-200,000	-0,017	0,111
-355,810	800,000	0,046	0,112
-354,796	73,860	0,030	-0,023
-353,781	-22,451	-0,158	0,069
-352,766	343,599	0,058	-0,083
-351,752	800,000	0,046	0,093
-350,737	-124,772	0,137	0,015
-349,723	-200,000	0,003	0,012
-348,708	18,095	-0,048	-0,028
-347,693	-12,552	0,045	0,021
-346,679	-200,000	0,025	-0,087
-345,664	594,183	-0,070	-0,126
-344,650	795,045	0,033	-0,065
-343,635	800,000	0,018	0,056
-342,620	-200,000	-0,008	0,117
-341,606	89,133	0,024	-0,019
-340,591	-162,760	-0,072	-0,002
-339,577	-200,000	-0,000	-0,082
-338,562	-200,000	0,005	-0,080
-337,548	360,790	-0,084	-0,122
-336,533	-123,877	-0,081	-0,009
-335,518	-200,000	-0,019	0,139
-334,504	-149,865	0,120	-0,007
-333,489	800,000	-0,020	-0,050
-332,475	-200,000	0,018	-0,089
-331,460	-200,000	0,012	-0,043
-330,445	-80,531	0,096	0,023
-329,431	-200,000	0,026	0,115
-328,416	-148,036	0,055	-0,003
-327,402	171,191	0,130	0,135
-326,387	-200,000	0,025	0,103
-325,372	78,277	-0,105	-0,081
-324,358	102,950	0,064	0,054
-323,343	320,285	-0,049	0,068
-322,329	526,494	0,025	-0,043
-321,314	-200,000	0,003	-0,066
-320,299	-70,381	-0,206	-0,056
-319,285	-88,352	-0,079	-0,017
-318,270	-85,174	-0,071	-0,016
-317,256	113,270	0,087	-0,076
-316,241	522,073	-0,067	0,115
-315,226	-45,031	0,056	-0,020
-314,212	800,000	0,050	0,151
-313,197	70,678	0,040	0,030
-312,183	65,470	0,044	0,032
-311,168	800,000	-0,027	0,083
-310,153	23,232	0,032	0,019
-309,139	-19,178	0,014	-0,006
-308,124	800,000	-0,041	-0,125
-307,110	-108,959	-0,048	-0,007
-306,095	35,186	0,055	0,035
-305,080	800,000	0,015	0,032
-304,066	800,000	0,030	-0,078
-303,051	61,897	-0,028	-0,020
-302,037	112,345	-0,019	0,016
-301,022	-29,033	0,069	0,029
-300,008	154,004	0,090	0,089
-298,993	-130,443	-0,125	0,012
-297,978	-127,213	-0,065	0,007
-296,964	29,177	-0,087	0,054
-295,949	346,147	-0,062	-0,088
-294,935	130,747	0,180	-0,167
-293,920	-200,000	-0,019	0,103
-292,905	262,845	0,129	0,162
-291,891	-18,111	0,125	0,056
-290,876	-171,704	-0,026	0,001
-289,862	124,500	0,030	-0,027
-288,847	-127,396	0,071	-0,007
-287,832	-200,000	-0,009	0,032
-286,818	-200,000	-0,018	0,072
-285,803	78,340	0,052	-0,040
-284,789	136,144	0,093	0,088
-283,774	-200,000	0,035	-0,159
-282,759	488,521	0,076	-0,125
-281,745	17,463	-0,096	-0,055
-280,730	-200,000	-0,002	-0,082
-279,716	705,080	-0,028	0,054
-278,701	-200,000	0,005	0,056
-277,686	800,000	0,029	0,064
-276,672	88,929	-0,039	0,032
-275,657	-55,555	0,145	-0,047
-274,643	40,292	-0,065	-0,042
-273,628	-200,000	0,010	0,035
-272,613	-161,588	0,067	-0,002
-271,599	47,620	0,070	-0,047
-270,584	-50,095	0,102	0,035
-269,570	-123,524	0,008	0,001
-268,555	-200,000	-0,022	-0,147
-267,540	-75,653	0,018	-0,005
-266,526	800,000	-0,031	0,085
-265,511	-161,806	0,054	0,002
-264,497	389,340	0,012	-0,019
-263,482	-175,465	0,061	0,001
-262,467	334,826	-0,045	0,063
-261,453	-200,000	-0,015	-0,071
-260,438	-200,000	0,010	-0,108
-259,424	800,000	0,039	-0,082
-258,409	-31,884	0,058	0,023
-257,395	-200,000	-0,039	0,128
-256,380	32,976	0,085	-0,053
-255,365	-200,000	0,028	0,091
-254,351	9,264	0,120	0,065
-253,336	-200,000	0,001	0,054
-252,322	163,893	-0,085	0,086
-251,307	-200,000	0,003	-0,060
-250,292	-200,000	0,015	0,067
-249,278	300,450	0,054	-0,072
-248,263	4,861	-0,037	0,019
-247,249	-112,206	-0,049	-0,007
-246,234	70,043	0,058	0,043
-245,219	-76,322	-0,123	-0,031
-244,205	157,721	-0,079	-0,079
-243,190	313,067	0,084	-0,114
-242,176	148,219	-0,087	0,085
-241,161	-59,771	0,196	0,060
-240,146	-69,775	0,114	0,031
-239,132	-200,000	-0,012	-0,045
-238,117	-200,000	0,002	-0,014
-237,103	31,348	-0,029	-0,018
-236,088	95,932	0,095	-0,078
-235,073	-200,000	-0,096	-0,000
-234,059	-52,456	0,100	0,033
-233,044	135,843	0,087	0,081
-232,030	294,862	0,053	0,070
-231,015	-32,513	-0,150	-0,060
-230,000	-69,298	-0,133	0,036
-228,986	-144,646	0,119	0,008
-227,971	97,714	-0,077	0,064
-226,957	45,389	0,132	0,087
-225,942	-200,000	0,006	0,053
-224,927	800,000	-0,010	0,024
-223,913	-71,442	-0,106	-0,028
-222,898	51,332	-0,049	0,033
-221,884	-127,525	0,044	-0,005
-220,869	-200,000	-0,007	0,053
-219,855	-200,000	-0,012	0,096
-218,840	185,750	-0,002	0,002
-217,825	-200,000	0,083	-0,000
-216,811	-47,945	0,112	-0,039
-215,796	341,025	-0,090	0,127
-214,782	-70,373	-0,077	0,021
-213,767	134,872	0,091	-0,086
-212,752	67,031	0,053	0,039
-211,738	159,206	-0,047	0,047
-210,723	-22,112	0,031	0,013
-209,709	340,038	-0,114	-0,161
-208,694	-200,000	-0,021	-0,160
-207,679	137,271	0,104	-0,098
-206,665	-200,000	-0,013	-0,083
-205,650	800,000	0,058	0,148
-204,636	-200,000	0,004	-0,097
-203,621	-1,642	0,081	0,041
-202,606	123,084	-0,059	0,053
-201,592	400,602	0,093	-0,141
-200,577	134,067	-0,051	0,048
-199,563	147,897	0,039	-0,038
-198,548	-200,000	0,033	0,120
-197,533	-200,000	-0,005	0,140
-196,519	54,537	-0,079	0,055
-195,504	214,336	-0,068	-0,077
-194,490	-200,000	0,007	-0,078
-193,475	28,989	-0,051	-0,031
-192,460	-150,361	0,168	0,009
-191,446	-200,000	-0,023	0,188
-190,431	-200,000	-0,020	0,094
-189,417	700,966	0,031	0,059
-188,402	514,185	0,032	-0,054
-187,387	262,061	-0,116	-0,145
-186,373	218,476	-0,127	-0,147
-185,358	340,931	0,054	0,076
-184,344	510,067	0,065	0,110
-183,329	-200,000	-0,002	-0,029
-182,315	800,000	-0,057	-0,141
-181,300	800,000	0,047	-0,101
-180,285	80,125	-0,119	0,092
-179,271	-200,000	0,003	-0,059
-178,256	-108,042	0,096	-0,015
-177,242	-118,299	0,112	0,014
-176,227	301,248	0,128	0,170
-175,212	766,999	0,043	0,084
-174,198	-133,782	0,102	-0,009
-173,183	-200,000	-0,009	-0,077
-172,169	-200,000	0,035	-0,146
-171,154	-200,000	-0,009	0,042
-170,139	-200,000	0,001	-0,053
-169,125	686,134	0,074	0,140
-168,110	-98,713	0,086	0,016
-167,096	101,028	0,022	0,018
-166,081	-149,305	-0,080	0,005
-165,066	304,553	-0,055	-0,074
-164,052	189,515	0,050	0,053
-163,037	66,367	-0,104	0,076
-162,023	-161,645	0,252	-0,009
-161,008	800,000	0,037	0,083
-159,993	219,138	0,035	-0,041
-158,979	410,486	0,009	-0,014
-157,964	-95,427	-0,138	0,026
-156,950	786,750	-0,087	-0,172
-155,935	79,638	-0,018	0,014
-154,920	-200,000	-0,012	-0,053
-153,906	126,106	-0,058	-0,052
-152,891	-200,000	0,010	-0,041
-151,877	-3,962	0,097	0,048
-150,862	-200,000	0,042	-0,158
-149,847	-122,929	-0,082	0,009
-148,833	452,366	-0,019	-0,030
-147,818	196,878	0,122	0,133
-146,804	800,000	-0,035	0,074
-145,789	-200,000	0,038	0,152
-144,775	-46,838	-0,072	0,025
-143,760	-59,775	0,144	-0,044
-142,745	-32,388	-0,040	0,016
-141,731	345,951	0,017	0,024
-140,716	-120,103	-0,095	-0,012
-139,702	800,000	0,035	0,097
-138,687	-200,000	-0,022	-0,096
-137,672	-57,592	-0,030	0,009
-136,658	-25,829	-0,072	0,030
-135,643	-117,463	-0,033	-0,004
-134,629	569,631	-0,036	0,063
-133,614	-200,000	-0,024	0,100
-132,599	483,751	0,048	0,079
-131,585	-200,000	0,007	0,044
-130,570	800,000	-0,039	0,086
-129,556	-93,332	-0,019	0,004
-128,541	800,000	-0,035	-0,091
-127,526	66,680	-0,179	-0,131
-126,512	173,095	0,093	0,097
-125,497	-84,129	0,135	0,031
-124,483	67,809	0,028	0,020
-123,468	-200,000	-0,017	-0,056
-122,453	788,647	0,072	-0,143
-121,439	-94,059	-0,213	0,042
-120,424	204,306	0,124	-0,138
-119,410	800,000	-0,033	-0,092
