DTS Sentinel unit serial number:	SN410029Multiplexer serial number:	ORYXHardware model number:	OX2-SRSoftware version number:	ORYX F/W v4,00 Oryx Data Collector v3.7.2.0data status	okinstallation	B6 Nyhavnadifferential loss correction	single-endedforward channel	channel 2reverse channel	N/Adate	2023/12/09time	03:45:08forward acquisition time	300,00reverse acquisition time	0,00gamma	499,1914k internal	0,3152k external	0,3152temperature offset calibration	1,0000default loss term (dB/km)	0,3820temperature slope calibration	1,0000multiplexer offset coefficient	1,0000multiplexer slope coefficient	1,0000fibre end	0,00T internal ref (°C)	16,50T ext. ref 1 (°C)	0,72T ext. ref 2 (°C)	0,73length (m)	temperature (°C)	Stokes	anti-Stokes-744,400	138,855	0,130	0,126
-743,385	-26,948	-0,334	-0,143
-742,371	-128,033	0,130	-0,014
-741,356	30,403	-0,251	0,158
-740,342	458,424	0,083	0,136
-739,327	-89,924	-0,258	0,055
-738,312	195,957	0,064	0,072
-737,298	-177,658	-0,292	0,005
-736,283	256,372	0,031	0,040
-735,269	-1,544	-0,334	0,174
-734,254	-200,000	-0,030	0,099
-733,239	-26,875	-0,507	-0,218
-732,225	-200,000	0,034	0,197
-731,210	164,387	-0,004	-0,004
-730,196	721,694	0,039	-0,077
-729,181	130,334	0,017	0,016
-728,167	-200,000	-0,009	0,090
-727,152	60,577	0,084	0,061
-726,137	-200,000	-0,028	-0,117
-725,123	465,117	-0,085	-0,140
-724,108	12,916	0,036	-0,021
-723,094	180,758	0,063	-0,069
-722,079	167,873	-0,014	0,014
-721,064	-90,834	0,014	-0,003
-720,050	549,444	0,070	-0,124
-719,035	-27,809	-0,126	-0,054
-718,021	-200,000	-0,031	-0,123
-717,006	312,480	-0,155	-0,215
-715,991	259,321	-0,034	-0,043
-714,977	273,838	0,079	-0,103
-713,962	62,630	-0,081	-0,060
-712,948	-200,000	-0,000	-0,128
-711,933	-200,000	0,007	-0,084
-710,918	-200,000	0,001	-0,090
-709,904	-200,000	-0,019	-0,203
-708,889	-25,094	-0,141	0,062
-707,875	800,000	0,013	-0,031
-706,860	-42,301	0,162	-0,061
-705,845	-31,818	-0,104	-0,043
-704,831	-200,000	0,004	-0,034
-703,816	800,000	-0,020	0,044
-702,802	116,468	-0,052	0,047
-701,787	28,028	-0,050	-0,031
-700,772	-200,000	0,025	-0,114
-699,758	-200,000	-0,018	-0,092
-698,743	17,504	0,121	-0,071
-697,729	-79,259	0,101	-0,025
-696,714	35,347	0,114	-0,073
-695,699	-200,000	0,003	0,043
-694,685	493,447	-0,028	-0,047
-693,670	-200,000	-0,008	-0,100
-692,656	800,000	-0,033	-0,090
-691,641	-200,000	0,003	-0,068
-690,627	156,340	0,063	0,064
-689,612	123,047	0,024	0,022
-688,597	-140,252	-0,103	0,008
-687,583	-99,514	-0,081	0,015
-686,568	255,344	-0,088	0,111
-685,554	-200,000	0,003	0,081
-684,539	-79,460	0,085	-0,021
-683,524	-200,000	-0,032	-0,189
-682,510	337,543	-0,011	0,016
-681,495	-200,000	-0,012	-0,052
-680,481	800,000	-0,040	-0,087
-679,466	9,271	-0,071	0,039
-678,451	800,000	-0,073	-0,153
-677,437	-42,449	-0,016	0,006
-676,422	800,000	-0,043	0,128
-675,408	-200,000	0,024	0,091
-674,393	-88,302	-0,177	0,039
-673,378	562,054	0,046	0,083
-672,364	-200,000	0,005	-0,058
-671,349	-200,000	-0,001	-0,028
-670,335	23,746	0,070	0,042
-669,320	503,914	-0,071	0,121
-668,305	800,000	-0,033	0,098
-667,291	48,979	-0,048	-0,033
-666,276	-9,187	-0,067	-0,033
-665,262	-1,583	-0,104	-0,054
-664,247	800,000	0,061	-0,163
-663,232	-129,716	0,052	0,005
-662,218	-102,681	0,109	-0,019
-661,203	105,637	-0,184	0,160
-660,189	141,091	-0,049	0,048
-659,174	-164,693	-0,030	0,001
-658,159	-200,000	-0,001	-0,111
-657,145	395,581	0,027	-0,041
-656,130	52,381	0,072	-0,051
-655,116	-200,000	0,023	0,100
-654,101	800,000	0,020	0,051
-653,086	-61,252	0,084	0,026
-652,072	4,375	-0,138	0,074
-651,057	271,288	-0,087	-0,113
-650,043	112,647	-0,079	-0,070
-649,028	-200,000	0,011	-0,112
-648,014	65,262	-0,072	0,054
-646,999	-52,508	0,033	-0,011
-645,984	800,000	0,065	-0,144
-644,970	-52,044	-0,112	-0,038
-643,955	-200,000	0,016	-0,104
-642,941	13,778	0,033	-0,019
-641,926	160,506	0,015	-0,016
-640,911	800,000	0,054	-0,126
-639,897	800,000	-0,043	-0,089
-638,882	263,928	0,087	-0,112
-637,868	800,000	-0,041	-0,122
-636,853	-200,000	0,020	-0,077
-635,838	-200,000	-0,004	-0,061
-634,824	304,775	-0,032	-0,044
-633,809	800,000	-0,049	-0,106
-632,795	-200,000	-0,005	0,130
-631,780	126,564	0,017	-0,016
-630,765	-47,561	-0,136	0,048
-629,751	-2,272	0,113	-0,058
-628,736	-33,772	-0,076	0,031
-627,722	-200,000	0,035	0,132
-626,707	-164,664	-0,030	-0,001
-625,692	-3,464	0,014	0,007
-624,678	375,451	0,082	-0,123
-623,663	38,738	0,044	-0,029
-622,649	-43,135	-0,082	0,030
-621,634	335,718	0,023	-0,033
-620,619	-200,000	0,001	0,118
-619,605	142,756	0,114	-0,111
-618,590	-200,000	-0,013	0,042
-617,576	-200,000	-0,032	-0,105
-616,561	175,074	0,104	0,111
-615,546	-200,000	-0,000	0,072
-614,532	230,337	-0,081	-0,098
-613,517	245,216	-0,044	0,054
-612,503	265,947	-0,032	-0,041
-611,488	800,000	0,035	-0,088
-610,474	2,047	-0,104	0,055
-609,459	341,309	-0,037	0,054
-608,444	-79,455	-0,115	-0,028
-607,430	220,917	0,060	0,071
-606,415	-33,709	-0,047	-0,019
-605,401	-167,381	-0,051	-0,001
-604,386	526,137	0,088	0,153
-603,371	-16,503	-0,111	0,051
-602,357	-99,849	-0,125	-0,023
-601,342	84,880	0,093	-0,075
-600,328	600,063	-0,100	-0,183
-599,313	-200,000	-0,001	-0,106
-598,298	-96,874	0,114	-0,022
-597,284	66,907	-0,102	0,076
-596,269	-74,112	-0,026	0,007
-595,255	800,000	0,022	0,049
-594,240	235,813	-0,041	0,050
-593,225	717,033	0,090	-0,176
-592,211	-200,000	0,017	-0,072
-591,196	-200,000	0,033	-0,116
-590,182	-200,000	-0,023	-0,139
-589,167	800,000	0,021	0,044
-588,152	800,000	0,046	-0,106
-587,138	-200,000	-0,012	0,104
-586,123	800,000	-0,048	-0,140
-585,109	-200,000	-0,025	-0,099
-584,094	-83,614	0,070	-0,016
-583,079	-200,000	0,017	0,065
-582,065	-200,000	0,001	-0,012
-581,050	-9,856	-0,035	-0,017
-580,036	-51,482	-0,072	-0,025
-579,021	-200,000	-0,014	-0,087
-578,006	290,876	0,094	-0,126
-576,992	-130,948	-0,155	-0,015
-575,977	800,000	-0,041	-0,119
-574,963	80,735	0,023	0,018
-573,948	-173,691	0,065	-0,001
-572,934	-98,682	0,075	-0,014
-571,919	29,059	-0,054	-0,034
-570,904	-200,000	0,023	0,133
-569,890	-200,000	-0,014	-0,116
-568,875	120,904	-0,094	0,085
-567,861	-69,810	-0,036	0,010
-566,846	-106,028	0,100	-0,016
-565,831	-98,015	-0,068	-0,013
-564,817	-200,000	0,009	0,030
-563,802	-200,000	-0,016	-0,058
-562,788	-200,000	-0,006	0,033
-561,773	397,801	0,045	-0,069
-560,758	3,463	0,123	0,066
-559,744	-199,767	-0,032	0,000
-558,729	-200,000	0,010	0,092
-557,715	168,767	0,116	-0,122
-556,700	20,389	-0,103	0,061
-555,685	111,869	0,034	0,030
-554,671	-10,335	-0,033	-0,016
-553,656	-114,597	0,061	0,009
-552,642	-145,804	0,056	0,004
-551,627	-40,984	-0,094	0,035
-550,612	305,451	-0,024	0,032
-549,598	170,614	0,035	-0,037
-548,583	-109,788	0,023	-0,004
-547,569	343,089	-0,026	0,037
-546,554	126,296	0,074	0,068
-545,539	-200,000	-0,007	0,096
-544,525	800,000	0,032	0,087
-543,510	-16,794	0,103	0,047
-542,496	92,008	-0,113	0,093
-541,481	160,402	0,078	-0,080
-540,466	112,097	0,039	-0,034
-539,452	73,709	0,148	0,113
-538,437	-57,316	-0,037	0,012
-537,423	-178,565	-0,065	-0,001
-536,408	-200,000	-0,004	0,053
-535,393	379,795	-0,109	-0,164
-534,379	-200,000	0,034	-0,117
-533,364	-200,000	0,004	-0,026
-532,350	-200,000	-0,010	-0,078
-531,335	-53,362	0,101	0,034
-530,321	-79,209	0,084	0,021
-529,306	23,446	-0,085	0,051
-528,291	88,498	-0,129	0,105
-527,277	800,000	0,021	0,051
-526,262	-9,494	-0,056	-0,027
-525,248	101,646	0,050	0,043
-524,233	-66,732	-0,080	0,023
-523,218	682,869	0,037	0,072
-522,204	29,219	-0,084	0,052
-521,189	483,786	-0,041	0,068
-520,175	-200,000	0,002	-0,101
-519,160	-132,051	0,056	0,005
-518,145	-19,204	-0,030	0,014
-517,131	-119,056	0,091	-0,012
-516,116	444,778	0,046	0,073
-515,102	-200,000	-0,019	-0,140
-514,087	210,190	-0,075	-0,086
-513,072	66,769	-0,173	0,129
-512,058	-200,000	0,009	-0,031
-511,043	201,025	0,114	0,129
-510,029	800,000	-0,030	0,095
-509,014	-84,741	0,101	-0,023
-507,999	87,053	-0,041	-0,033
-506,985	800,000	-0,012	-0,035
-505,970	86,866	-0,036	-0,029
-504,956	-12,383	-0,082	-0,039
-503,941	193,977	-0,074	-0,082
-502,926	800,000	0,036	-0,103
-501,912	28,061	-0,048	-0,030
-500,897	-200,000	-0,032	-0,153
-499,883	333,853	-0,039	-0,056
-498,868	-200,000	-0,006	-0,057
-497,853	-200,000	-0,034	0,121
-496,839	430,784	0,025	-0,040
-495,824	-200,000	-0,006	0,038
-494,810	-200,000	-0,003	0,067
-493,795	-200,000	-0,026	0,122
-492,781	-200,000	-0,014	-0,072
-491,766	800,000	-0,059	0,121
-490,751	621,216	-0,062	0,114
-489,737	-200,000	0,006	0,049
-488,722	-58,041	0,066	0,021
-487,708	249,784	-0,073	0,091
-486,693	210,975	-0,075	0,087
-485,678	120,851	0,069	-0,063
-484,664	-28,383	-0,069	-0,029
-483,649	677,232	-0,028	-0,053
-482,635	485,273	0,066	-0,111
-481,620	286,503	0,074	0,098
-480,605	-200,000	-0,014	0,147
-479,591	-200,000	-0,009	0,055
-478,576	-200,000	0,002	0,014
-477,562	527,242	-0,049	0,084
-476,547	-200,000	0,047	-0,199
-475,532	1,553	-0,054	0,028
-474,518	800,000	-0,049	0,122
-473,503	-200,000	0,000	-0,052
-472,489	800,000	0,048	-0,125
-471,474	122,874	-0,078	0,072
-470,459	800,000	0,041	0,119
-469,445	-200,000	0,021	-0,097
-468,430	375,722	0,037	0,055
-467,416	-56,893	-0,221	0,071
-466,401	223,038	0,099	0,117
-465,386	800,000	-0,030	-0,078
-464,372	-35,401	-0,092	-0,036
-463,357	126,988	0,051	0,047
-462,343	-137,233	-0,102	0,008
-461,328	373,885	-0,035	0,052
-460,313	-82,927	0,037	0,009
-459,299	602,025	0,018	-0,032
-458,284	353,800	0,023	0,034
-457,270	-200,000	0,018	0,117
-456,255	-200,000	0,018	0,107
-455,241	-126,283	-0,097	-0,010
-454,226	-200,000	0,019	-0,132
-453,211	-122,270	0,072	-0,009
-452,197	-200,000	-0,008	0,062
-451,182	150,053	0,068	0,067
-450,168	-116,677	-0,085	-0,011
-449,153	-19,453	-0,084	0,038
-448,138	-51,811	-0,086	-0,029
-447,124	73,733	0,091	-0,069
-446,109	-72,250	-0,194	-0,052
-445,095	-130,407	0,064	0,006
-444,080	20,161	0,053	-0,031
-443,065	-200,000	-0,018	-0,132
-442,051	747,615	-0,070	0,138
-441,036	-26,690	-0,154	-0,066
-440,022	207,887	-0,096	0,109
-439,007	-53,776	-0,085	0,028
-437,992	21,213	0,161	0,095
-436,978	-54,191	0,165	0,054
-435,963	-71,224	-0,149	-0,040
-434,949	727,238	0,023	0,046
-433,934	325,066	0,092	0,129
-432,919	795,339	-0,014	-0,029
-431,905	-200,000	0,023	0,074
-430,890	163,696	0,017	0,018
-429,876	-47,038	0,089	-0,032
-428,861	-200,000	-0,022	-0,137
-427,846	490,088	0,086	0,144
-426,832	-93,734	0,118	0,024
-425,817	-200,000	-0,003	-0,049
-424,803	-200,000	0,019	-0,113
-423,788	45,377	0,106	-0,071
-422,773	-81,159	0,055	-0,013
-421,759	-200,000	-0,010	0,055
-420,744	-83,694	-0,057	-0,013
-419,730	-200,000	-0,016	-0,111
-418,715	251,567	0,064	-0,079
-417,701	800,000	-0,047	-0,105
-416,686	-87,926	-0,037	0,008
-415,671	123,636	0,137	0,126
-414,657	-95,319	0,208	-0,040
-413,642	100,740	0,060	-0,050
-412,628	-200,000	-0,005	-0,150
-411,613	550,899	-0,062	-0,109
-410,598	0,682	0,072	0,037
-409,584	800,000	-0,039	0,091
-408,569	800,000	0,020	-0,042
-407,555	-200,000	-0,010	-0,052
-406,540	800,000	-0,023	-0,053
-405,525	94,246	0,053	-0,044
-404,511	-200,000	-0,022	-0,172
-403,496	-200,000	0,007	-0,220
-402,482	-200,000	0,009	0,037
-401,467	161,605	0,046	0,047
-400,452	431,068	-0,063	0,099
-399,438	-9,796	0,037	-0,018
-398,423	565,689	0,055	-0,098
-397,409	-200,000	-0,004	-0,171
-396,394	191,441	-0,035	-0,038
-395,379	-200,000	0,012	-0,076
-394,365	-200,000	-0,043	0,186
-393,350	469,766	0,045	0,074
-392,336	800,000	0,028	-0,065
-391,321	-134,858	-0,091	0,008
-390,306	-200,000	-0,017	0,143
-389,292	134,545	-0,082	0,078
-388,277	-4,362	0,071	0,035
-387,263	10,256	0,062	-0,034
-386,248	51,227	0,118	0,082
-385,233	-163,179	-0,063	0,002
-384,219	-36,998	0,102	-0,039
-383,204	-200,000	-0,023	-0,081
-382,190	-200,000	0,003	0,056
-381,175	800,000	-0,049	0,101
-380,160	-200,000	0,007	-0,054
-379,146	-59,642	-0,104	0,032
-378,131	-200,000	0,007	0,074
-377,117	800,000	-0,023	0,066
-376,102	-77,261	-0,055	-0,014
-375,088	-200,000	-0,031	0,101
-374,073	800,000	-0,009	0,023
-373,058	407,579	-0,058	0,090
-372,044	136,291	0,091	0,087
-371,029	-13,110	-0,041	0,019
-370,015	179,753	-0,076	0,081
-369,000	591,480	-0,070	0,127
-367,985	-38,860	-0,116	-0,044
-366,971	-78,647	0,139	-0,034
-365,956	-95,238	-0,152	-0,029
-364,942	115,914	0,026	0,023
-363,927	64,399	0,128	0,094
-362,912	182,019	0,032	0,035
-361,898	-109,578	-0,121	0,018
-360,883	238,967	-0,097	0,118
-359,869	-99,035	-0,030	0,005
-358,854	-200,000	0,066	-0,000
-357,839	-128,971	0,128	-0,013
-356,825	-6,162	0,150	-0,074
-355,810	-200,000	-0,169	0,000
-354,796	-200,000	-0,001	0,035
-353,781	105,933	-0,078	-0,067
-352,766	800,000	0,042	0,106
-351,752	451,881	-0,064	-0,103
-350,737	89,171	-0,033	-0,027
-349,723	800,000	-0,026	0,070
-348,708	213,270	-0,099	0,114
-347,693	-65,605	0,109	-0,031
-346,679	-91,774	-0,081	-0,017
-345,664	-15,980	0,092	-0,042
-344,650	118,692	-0,045	-0,041
-343,635	-38,493	0,117	-0,045
-342,620	430,980	-0,034	-0,053
-341,606	70,609	-0,013	0,010
-340,591	101,036	0,024	-0,020
-339,577	-62,740	0,032	0,010
-338,562	-200,000	0,004	-0,072
-337,548	800,000	-0,067	0,153
-336,533	-200,000	-0,002	-0,051
-335,518	1,884	0,088	0,046
-334,504	-200,000	0,015	0,050
-333,489	-200,000	0,005	0,057
-332,475	-100,389	0,042	-0,007
-331,460	800,000	0,047	-0,142
-330,445	800,000	0,040	-0,109
-329,431	172,232	-0,092	0,096
-328,416	8,987	0,115	0,063
-327,402	-200,000	-0,024	-0,080
-326,387	800,000	0,038	0,077
-325,372	1,317	-0,086	-0,045
-324,358	-86,336	0,039	0,009
-323,343	-61,183	-0,050	-0,015
-322,329	68,267	-0,012	0,009
-321,314	-2,433	0,122	0,062
-320,299	145,370	-0,083	0,080
-319,285	52,706	-0,088	-0,061
-318,270	224,678	-0,066	-0,078
-317,256	232,808	-0,044	-0,053
-316,241	-109,131	0,164	0,025
-315,226	76,054	0,075	0,058
-314,212	-108,227	0,044	-0,007
-313,197	-200,000	0,015	0,074
-312,183	-96,282	-0,052	0,010
-311,168	800,000	0,032	-0,064
-310,153	-43,224	-0,190	0,069
-309,139	-200,000	0,010	-0,089
-308,124	361,637	0,049	-0,071
-307,110	-13,965	-0,183	-0,086
-306,095	-93,505	0,142	0,028
-305,080	-1,540	-0,109	0,055
-304,066	-91,695	-0,017	0,003
-303,051	81,972	0,035	-0,027
-302,037	800,000	-0,013	-0,040
-301,022	21,472	0,064	0,038
-300,008	-11,593	0,095	-0,045
-298,993	239,849	0,104	0,125
-297,978	401,081	0,048	0,074
-296,964	-91,428	0,074	-0,015
-295,949	18,256	0,050	0,029
-294,935	-172,975	-0,132	-0,003
-293,920	44,999	0,083	-0,055
-292,905	-71,300	0,007	0,002
-291,891	-200,000	-0,002	0,047
-290,876	29,825	0,103	0,064
-289,862	-28,643	-0,108	-0,045
-288,847	-200,000	-0,005	-0,077
-287,832	139,596	-0,087	-0,083
-286,818	-200,000	0,025	0,085
-285,803	800,000	-0,038	0,095
-284,789	-200,000	0,004	-0,039
-283,774	800,000	-0,010	0,023
-282,759	-200,000	-0,007	-0,034
-281,745	85,941	-0,057	0,045
-280,730	552,572	0,108	0,188
-279,716	338,205	-0,084	-0,119
-278,701	-31,005	0,120	0,049
-277,686	475,183	0,100	0,164
-276,672	-200,000	-0,015	0,075
-275,657	100,770	-0,023	-0,020
-274,643	-200,000	-0,012	-0,137
-273,628	56,167	-0,094	-0,066
-272,613	-200,000	-0,008	-0,044
-271,599	800,000	0,033	-0,081
-270,584	706,071	-0,043	-0,082
-269,570	458,621	-0,051	0,082
-268,555	-200,000	-0,026	-0,131
-267,540	48,505	-0,036	-0,024
-266,526	-1,549	-0,060	-0,031
-265,511	-200,000	-0,004	-0,047
-264,497	-15,963	0,083	0,038
-263,482	-21,124	0,145	0,064
-262,467	-200,000	-0,008	-0,089
-261,453	-69,601	0,105	-0,029
-260,438	-200,000	-0,014	0,110
-259,424	415,749	-0,036	-0,056
-258,409	800,000	0,011	-0,028
-257,395	-200,000	0,004	-0,046
-256,380	36,126	0,161	0,102
-255,365	230,949	-0,115	0,137
-254,351	-200,000	-0,007	0,037
-253,336	-51,575	-0,057	0,019
-252,322	-36,324	0,037	0,014
-251,307	800,000	-0,024	0,066
-250,292	254,373	-0,079	-0,098
-249,278	-111,228	0,142	-0,021
-248,263	657,627	0,010	0,018
-247,249	176,243	0,038	-0,040
-246,234	192,613	-0,086	-0,094
-245,219	-62,016	-0,045	0,013
-244,205	-62,874	-0,061	0,018
-243,190	-200,000	0,010	0,121
-242,176	433,857	-0,043	-0,068
-241,161	-6,954	0,127	0,062
-240,146	332,794	0,043	-0,061
-239,132	-29,720	-0,038	0,016
-238,117	-56,185	0,153	-0,049
-237,103	-136,973	-0,127	-0,010
-236,088	-200,000	-0,024	-0,099
-235,073	-60,099	-0,033	0,010
-234,059	495,593	-0,025	0,042
-233,044	-20,980	0,107	0,047
-232,030	-200,000	0,006	-0,022
-231,015	51,909	-0,071	-0,049
-230,000	238,030	0,072	0,086
-228,986	-93,907	-0,042	0,008
-227,971	246,416	0,076	0,093
-226,957	-200,000	-0,044	0,151
-225,942	-200,000	0,005	0,016
-224,927	175,794	0,059	0,062
-223,913	47,870	-0,031	-0,021
-222,898	-200,000	-0,014	-0,107
-221,884	800,000	0,050	-0,126
-220,869	-200,000	-0,029	-0,108
-219,855	129,111	0,029	0,027
-218,840	54,017	0,081	0,056
-217,825	-22,577	-0,101	-0,044
-216,811	-19,536	-0,165	-0,073
-215,796	-200,000	-0,063	-0,000
-214,782	-80,253	-0,052	-0,013
-213,767	-200,000	0,005	-0,049
-212,752	54,712	0,099	0,069
-211,738	314,422	-0,071	0,096
-210,723	800,000	-0,013	-0,027
-209,709	153,837	0,022	0,022
-208,694	-200,000	0,017	-0,266
-207,679	-127,497	-0,091	-0,009
-206,665	-200,000	-0,005	0,135
-205,650	121,939	0,101	0,092
-204,636	-158,122	-0,104	0,004
-203,621	48,016	-0,038	0,026
-202,606	279,335	-0,066	-0,085
-201,592	-103,712	0,062	0,010
-200,577	426,017	-0,069	-0,108
-199,563	18,052	0,150	-0,086
-198,548	-200,000	-0,001	0,131
-197,533	23,611	-0,027	0,016
-196,519	-200,000	0,009	-0,103
-195,504	334,983	0,061	-0,085
-194,490	506,018	-0,048	-0,081
-193,475	-200,000	-0,003	-0,054
-192,460	-200,000	-0,008	0,036
-191,446	800,000	-0,061	0,148
-190,431	-200,000	0,028	0,176
-189,417	-200,000	-0,020	0,082
-188,402	452,655	0,079	-0,127
-187,387	-200,000	0,024	-0,096
-186,373	56,417	-0,076	0,053
-185,358	181,608	0,032	-0,034
-184,344	-200,000	0,023	0,177
-183,329	106,755	-0,040	-0,034
-182,315	219,410	0,025	0,029
-181,300	-5,368	-0,065	0,032
-180,285	-98,504	0,106	-0,019
-179,271	148,353	0,063	-0,062
-178,256	-200,000	-0,007	-0,027
-177,242	-200,000	-0,025	0,108
-176,227	192,938	0,128	0,140
-175,212	167,995	-0,069	0,071
-174,198	28,926	0,037	-0,023
-173,183	-77,790	-0,164	0,041
-172,169	-200,000	-0,029	0,104
-171,154	74,151	0,171	0,130
-170,139	-107,757	0,088	0,014
-169,125	-200,000	0,005	0,082
-168,110	-200,000	-0,037	-0,120
-167,096	800,000	0,034	0,100
-166,081	387,137	0,045	0,067
-165,066	-200,000	-0,030	-0,145
-164,052	-134,045	0,211	0,019
-163,037	-156,899	0,034	-0,001
-162,023	80,223	-0,032	0,025
-161,008	102,015	0,047	-0,040
-159,993	-68,218	0,073	0,020
-158,979	-200,000	-0,017	-0,172
-157,964	-29,594	-0,099	0,041
-156,950	800,000	0,060	-0,138
-155,935	800,000	-0,016	0,041
-154,920	-200,000	0,012	0,139
-153,906	-100,078	0,107	0,019
-152,891	-200,000	0,014	0,067
-151,877	-89,911	-0,050	0,010
-150,862	-65,286	0,056	-0,016
-149,847	-200,000	-0,012	0,072
-148,833	-200,000	-0,014	0,100
-147,818	-200,000	-0,023	0,094
-146,804	144,221	0,040	0,039
-145,789	-147,346	0,109	-0,007
-144,775	-138,105	-0,101	-0,008
-143,760	279,531	-0,090	0,117
-142,745	-200,000	0,011	-0,113
-141,731	-95,639	0,061	-0,012
-140,716	-200,000	-0,015	0,098
-139,702	-200,000	0,007	-0,115
-138,687	670,547	0,039	0,073
-137,672	-162,132	-0,036	-0,001
-136,658	-93,552	-0,059	-0,012
-135,643	81,328	0,023	0,018
-134,629	800,000	0,034	-0,072
-133,614	85,289	0,054	0,043
-132,599	-50,349	0,089	-0,030
-131,585	756,878	-0,035	-0,068
-130,570	-145,904	-0,068	-0,004
-129,556	751,861	0,070	-0,138
-128,541	143,042	0,095	0,091
-127,526	110,286	-0,129	0,112
-126,512	52,329	-0,093	0,064
-125,497	-200,000	0,052	0,172
-124,483	-12,791	-0,090	0,042
-123,468	-20,234	-0,035	-0,016
-122,453	-200,000	0,005	0,032
-121,439	62,103	0,073	0,052
-120,424	-61,382	0,050	0,015
