DTS Sentinel unit serial number:	SN410029Multiplexer serial number:	ORYXHardware model number:	OX2-SRSoftware version number:	ORYX F/W v4,00 Oryx Data Collector v3.7.2.0data status	okinstallation	B6 Nyhavnadifferential loss correction	single-endedforward channel	channel 2reverse channel	N/Adate	2023/12/10time	02:20:08forward acquisition time	300,00reverse acquisition time	0,00gamma	499,1914k internal	0,3125k external	0,3125temperature offset calibration	1,0000default loss term (dB/km)	0,3820temperature slope calibration	1,0000multiplexer offset coefficient	1,0000multiplexer slope coefficient	1,0000fibre end	0,00T internal ref (°C)	21,94T ext. ref 1 (°C)	5,73T ext. ref 2 (°C)	5,72length (m)	temperature (°C)	Stokes	anti-Stokes-744,400	521,722	-0,016	0,028
-743,385	-36,427	-0,214	0,085
-742,371	-169,388	0,038	-0,001
-741,356	127,956	-0,207	0,196
-740,342	800,000	0,086	0,194
-739,327	63,792	-0,336	0,251
-738,312	-146,375	0,161	0,010
-737,298	-56,034	-0,358	0,118
-736,283	-74,815	-0,034	0,009
-735,269	58,895	-0,147	0,107
-734,254	611,004	-0,025	-0,046
-733,239	-164,176	-0,442	-0,015
-732,225	-103,747	0,132	-0,023
-731,210	537,790	-0,060	0,107
-730,196	-81,964	0,027	0,007
-729,181	32,161	-0,041	-0,026
-728,167	556,974	0,094	0,169
-727,152	800,000	-0,054	0,156
-726,137	277,497	-0,095	0,126
-725,123	-9,621	-0,158	-0,078
-724,108	134,137	-0,042	-0,041
-723,094	404,386	-0,042	0,066
-722,079	67,071	-0,043	-0,032
-721,064	-95,565	0,206	0,041
-720,050	-70,660	0,069	-0,019
-719,035	-47,375	-0,135	-0,049
-718,021	321,112	-0,039	0,056
-717,006	-5,124	-0,099	-0,050
-715,991	294,245	-0,094	-0,128
-714,977	-200,000	-0,013	-0,102
-713,962	-59,858	-0,102	-0,032
-712,948	42,743	0,034	0,023
-711,933	262,120	-0,090	-0,116
-710,918	-65,629	-0,168	-0,050
-709,904	188,835	0,054	-0,060
-708,889	-2,405	-0,076	-0,039
-707,875	157,055	0,054	-0,055
-706,860	-118,395	-0,069	-0,009
-705,845	800,000	-0,029	0,076
-704,831	-106,616	-0,046	0,008
-703,816	102,596	-0,146	0,127
-702,802	118,168	0,084	-0,077
-701,787	-108,237	-0,021	-0,003
-700,772	-157,490	-0,034	-0,001
-699,758	426,770	0,031	-0,050
-698,743	800,000	0,025	-0,059
-697,729	588,582	0,018	-0,033
-696,714	-76,547	-0,028	0,007
-695,699	-45,042	-0,087	-0,032
-694,685	340,808	-0,077	-0,113
-693,670	800,000	-0,035	-0,097
-692,656	283,974	0,083	-0,111
-691,641	800,000	0,033	0,100
-690,627	46,316	-0,097	0,067
-689,612	-200,000	-0,000	0,060
-688,597	453,715	-0,027	0,044
-687,583	-200,000	-0,007	-0,038
-686,568	-30,749	0,107	0,045
-685,554	-113,228	-0,073	-0,011
-684,539	194,499	0,018	0,020
-683,524	-166,178	0,029	-0,001
-682,510	604,908	-0,055	0,103
-681,495	426,987	-0,051	-0,082
-680,481	122,557	-0,008	-0,007
-679,466	-0,080	-0,103	0,054
-678,451	-45,863	-0,076	-0,028
-677,437	294,462	0,086	0,117
-676,422	-200,000	-0,003	0,176
-675,408	34,105	-0,055	-0,035
-674,393	-200,000	0,000	0,042
-673,378	537,719	0,065	0,114
-672,364	-87,586	0,076	-0,017
-671,349	592,888	-0,033	0,061
-670,335	626,560	-0,011	-0,021
-669,320	-137,397	0,162	-0,013
-668,305	33,099	0,016	-0,010
-667,291	800,000	-0,007	-0,021
-666,276	-74,559	-0,133	-0,035
-665,262	-58,267	-0,062	-0,020
-664,247	52,759	-0,209	-0,148
-663,232	-200,000	0,040	-0,139
-662,218	-200,000	-0,005	0,148
-661,203	448,585	0,120	-0,197
-660,189	800,000	-0,026	-0,063
-659,174	-187,994	-0,122	0,001
-658,159	175,380	0,007	-0,007
-657,145	-200,000	0,012	-0,085
-656,130	0,435	0,061	0,032
-655,116	-62,218	0,144	-0,044
-654,101	-200,000	-0,024	0,127
-653,086	800,000	-0,027	0,082
-652,072	-124,934	-0,162	-0,018
-651,057	-92,279	0,113	0,023
-650,043	-167,343	-0,188	-0,005
-649,028	-68,555	-0,082	0,023
-648,014	124,315	0,026	-0,024
-646,999	470,815	-0,044	-0,075
-645,984	800,000	-0,042	-0,095
-644,970	800,000	0,028	-0,079
-643,955	800,000	-0,024	0,059
-642,941	187,034	0,126	-0,140
-641,926	-200,000	-0,007	0,023
-640,911	-138,570	0,032	-0,003
-639,897	221,231	0,042	0,050
-638,882	689,231	0,048	0,093
-637,868	-200,000	0,022	0,084
-636,853	-19,807	0,016	-0,007
-635,838	498,016	-0,051	0,087
-634,824	28,324	-0,069	0,043
-633,809	-140,304	0,088	0,007
-632,795	-200,000	-0,011	-0,043
-631,780	374,639	0,065	-0,098
-630,765	19,779	-0,059	0,035
-629,751	-200,000	-0,028	-0,112
-628,736	584,936	-0,053	-0,096
-627,722	-124,836	0,026	0,003
-626,707	307,305	-0,024	-0,033
-625,692	-33,435	-0,036	-0,015
-624,678	-100,018	-0,089	-0,016
-623,663	-200,000	-0,000	0,013
-622,649	146,976	-0,083	-0,083
-621,634	481,720	0,050	-0,085
-620,619	-200,000	-0,006	-0,075
-619,605	390,493	-0,061	0,094
-618,590	454,797	0,049	0,081
-617,576	-200,000	-0,019	0,075
-616,561	56,544	-0,043	0,031
-615,546	447,040	0,074	0,121
-614,532	174,616	0,033	-0,036
-613,517	-200,000	0,002	-0,104
-612,503	61,702	0,067	0,049
-611,488	3,743	-0,066	0,036
-610,474	-144,243	-0,048	0,003
-609,459	-59,031	0,041	0,013
-608,444	-116,226	-0,145	-0,020
-607,430	733,674	-0,015	-0,031
-606,415	-200,000	-0,020	-0,083
-605,401	425,229	0,007	0,011
-604,386	-200,000	-0,032	0,127
-603,371	-200,000	0,002	-0,031
-602,357	81,960	0,037	0,030
-601,342	132,892	0,035	0,033
-600,328	37,550	-0,169	-0,111
-599,313	202,983	0,020	0,023
-598,298	-200,000	0,003	0,028
-597,284	-200,000	-0,017	-0,087
-596,269	371,487	-0,059	-0,090
-595,255	280,245	0,026	-0,035
-594,240	-1,753	-0,106	-0,055
-593,225	148,823	0,048	-0,048
-592,211	144,140	0,032	-0,032
-591,196	26,734	0,095	-0,059
-590,182	337,923	-0,056	0,080
-589,167	167,595	-0,045	0,047
-588,152	-200,000	0,025	0,157
-587,138	-200,000	0,000	-0,046
-586,123	348,822	-0,062	0,091
-585,109	730,715	-0,052	0,104
-584,094	-31,275	-0,109	0,045
-583,079	-34,013	0,143	-0,058
-582,065	-80,720	-0,092	0,023
-581,050	12,666	0,043	0,025
-580,036	-200,000	0,002	0,016
-579,021	78,215	0,049	-0,039
-578,006	-200,000	0,001	-0,053
-576,992	124,066	-0,097	0,090
-575,977	98,094	0,068	0,058
-574,963	-200,000	-0,016	0,137
-573,948	-90,206	-0,098	0,021
-572,934	-200,000	0,019	0,098
-571,919	-58,357	-0,115	0,037
-570,904	436,787	-0,071	-0,115
-569,890	239,751	-0,066	-0,081
-568,875	800,000	-0,044	0,134
-567,861	-63,875	0,093	0,028
-566,846	-100,797	0,080	0,014
-565,831	43,028	0,094	0,063
-564,817	74,849	-0,062	-0,048
-563,802	800,000	-0,021	-0,047
-562,788	-164,704	-0,057	0,002
-561,773	800,000	0,021	0,054
-560,758	-200,000	0,008	0,093
-559,744	-200,000	-0,042	0,146
-558,729	-200,000	-0,017	0,131
-557,715	67,492	-0,084	-0,064
-556,700	121,494	-0,066	-0,061
-555,685	482,321	0,040	-0,068
-554,671	-41,482	0,098	-0,037
-553,656	-102,834	-0,087	0,015
-552,642	-200,000	-0,034	0,132
-551,627	-5,516	-0,048	0,024
-550,612	-91,263	-0,041	0,009
-549,598	-57,450	-0,084	-0,027
-548,583	81,232	-0,105	-0,084
-547,569	-200,000	-0,021	-0,127
-546,554	106,128	0,035	0,031
-545,539	-121,530	-0,090	0,011
-544,525	230,171	-0,035	0,042
-543,510	41,080	-0,097	0,065
-542,496	-165,557	-0,041	-0,001
-541,481	19,731	-0,115	0,069
-540,466	-73,468	-0,131	-0,035
-539,452	-200,000	0,000	0,116
-538,437	800,000	0,036	-0,080
-537,423	101,423	0,013	-0,011
-536,408	178,391	-0,076	0,082
-535,393	153,227	-0,050	0,050
-534,379	219,118	0,016	-0,019
-533,364	30,277	0,040	0,025
-532,350	800,000	0,046	-0,109
-531,335	-200,000	-0,016	-0,098
-530,321	-187,049	-0,034	0,000
-529,306	27,031	-0,054	-0,033
-528,291	481,300	-0,044	0,073
-527,277	-102,015	-0,085	-0,015
-526,262	12,906	0,076	-0,043
-525,248	-100,821	-0,099	0,018
-524,233	33,478	0,178	0,114
-523,218	-112,783	0,078	-0,011
-522,204	119,730	-0,019	-0,018
-521,189	644,900	0,033	-0,062
-520,175	441,011	-0,101	-0,164
-519,160	-139,817	-0,089	0,007
-518,145	89,447	-0,040	0,033
-517,131	-200,000	-0,009	0,051
-516,116	-100,555	0,073	-0,013
-515,102	570,568	0,008	-0,014
-514,087	-28,091	-0,062	-0,026
-513,072	-200,000	-0,002	-0,086
-512,058	-200,000	-0,034	0,137
-511,043	-200,000	-0,003	-0,141
-510,029	-16,721	0,064	-0,030
-509,014	522,003	-0,010	0,017
-507,999	-49,689	0,015	0,005
-506,985	61,045	0,021	0,015
-505,970	-200,000	-0,016	0,058
-504,956	84,245	-0,137	-0,111
-503,941	-70,609	0,068	0,019
-502,926	663,114	0,027	0,052
-501,912	-141,678	0,055	0,004
-500,897	-200,000	0,007	0,073
-499,883	0,732	-0,046	0,024
-498,868	219,822	0,068	-0,080
-497,853	-200,000	0,024	-0,235
-496,839	-6,609	0,082	-0,041
-495,824	342,074	0,043	0,062
-494,810	88,154	0,078	0,064
-493,795	34,029	0,089	0,057
-492,781	238,938	0,067	0,083
-491,766	47,286	-0,129	-0,088
-490,751	76,705	0,074	0,058
-489,737	113,719	-0,042	0,038
-488,722	605,464	0,069	0,127
-487,708	-200,000	0,001	-0,064
-486,693	800,000	-0,047	-0,105
-485,678	83,594	-0,134	0,108
-484,664	-38,885	-0,049	0,019
-483,649	1,208	0,036	-0,019
-482,635	800,000	0,077	-0,193
-481,620	30,009	-0,120	-0,075
-480,605	-200,000	0,017	-0,073
-479,591	672,719	-0,065	-0,125
-478,576	-200,000	0,014	0,080
-477,562	-55,936	-0,127	0,042
-476,547	41,951	0,058	-0,039
-475,532	136,895	-0,029	0,028
-474,518	460,319	-0,047	-0,078
-473,503	-200,000	-0,010	-0,066
-472,489	-49,813	-0,057	0,020
-471,474	-200,000	-0,024	-0,097
-470,459	-200,000	0,008	-0,057
-469,445	47,599	-0,023	0,016
-468,430	-95,215	0,074	0,015
-467,416	181,790	0,039	0,042
-466,401	-147,051	-0,032	0,002
-465,386	26,864	0,132	-0,081
-464,372	97,005	-0,067	-0,056
-463,357	78,587	0,073	-0,058
-462,343	-19,156	0,072	0,033
-461,328	-108,632	0,084	0,013
-460,313	139,842	0,084	-0,082
-459,299	-112,166	-0,013	-0,002
-458,284	-200,000	-0,005	0,060
-457,270	-106,558	0,095	-0,015
-456,255	299,414	-0,047	-0,063
-455,241	118,094	-0,062	-0,057
-454,226	75,210	-0,092	0,072
-453,211	800,000	0,014	-0,030
-452,197	-63,776	0,086	-0,026
-451,182	335,092	0,085	0,121
-450,168	-200,000	-0,007	-0,027
-449,153	-171,845	0,019	0,000
-448,138	-80,453	-0,054	-0,013
-447,124	800,000	0,060	-0,170
-446,109	322,393	-0,032	-0,045
-445,095	-69,314	-0,078	0,022
-444,080	-200,000	0,141	-0,000
-443,065	-200,000	0,016	-0,083
-442,051	-94,402	0,067	-0,013
-441,036	-200,000	0,004	0,026
-440,022	-200,000	0,032	-0,185
-439,007	-149,401	0,008	0,000
-437,992	-200,000	-0,028	0,130
-436,978	231,990	0,101	-0,123
-435,963	100,493	-0,095	-0,081
-434,949	-200,000	-0,003	0,069
-433,934	-33,131	-0,028	-0,011
-432,919	267,829	-0,128	-0,165
-431,905	-200,000	0,008	0,067
-430,890	-200,000	0,009	0,033
-429,876	588,481	0,025	0,045
-428,861	43,661	-0,051	-0,034
-427,846	81,063	0,022	-0,017
-426,832	799,174	-0,079	-0,161
-425,817	-200,000	0,004	0,037
-424,803	-143,269	0,101	-0,007
-423,788	-200,000	0,011	-0,105
-422,773	350,549	0,079	0,115
-421,759	29,604	-0,040	-0,025
-420,744	-200,000	-0,005	0,078
-419,730	800,000	0,043	0,121
-418,715	-105,196	-0,090	0,015
-417,701	-200,000	-0,011	0,087
-416,686	633,704	0,064	0,121
-415,671	-167,026	-0,042	-0,001
-414,657	282,678	0,026	0,035
-413,642	800,000	-0,022	-0,048
-412,628	-200,000	-0,015	-0,137
-411,613	-94,138	0,054	-0,011
-410,598	-200,000	0,021	-0,072
-409,584	-89,196	0,077	-0,017
-408,569	-70,044	0,072	0,020
-407,555	-200,000	0,010	0,060
-406,540	-200,000	-0,010	-0,060
-405,525	-200,000	0,006	-0,165
-404,511	122,211	-0,159	-0,146
-403,496	-122,810	0,051	0,006
-402,482	-122,036	0,059	0,007
-401,467	-44,038	-0,098	0,036
-400,452	50,613	-0,025	-0,018
-399,438	193,845	0,053	-0,060
-398,423	37,831	-0,088	-0,057
-397,409	800,000	0,039	-0,084
-396,394	-32,966	-0,025	0,010
-395,379	36,834	0,064	-0,041
-394,365	-43,821	0,109	0,040
-393,350	195,218	0,089	0,099
-392,336	-118,214	-0,118	0,015
-391,321	-111,479	0,043	-0,006
-390,306	86,849	0,059	0,048
-389,292	304,092	0,053	0,072
-388,277	-174,591	-0,084	-0,002
-387,263	-164,475	-0,018	-0,001
-386,248	91,389	-0,039	-0,032
-385,233	-200,000	0,012	0,055
-384,219	-3,378	-0,043	-0,022
-383,204	-200,000	-0,008	-0,038
-382,190	-200,000	0,014	-0,051
-381,175	117,507	-0,058	0,052
-380,160	800,000	-0,035	0,083
-379,146	-200,000	-0,007	-0,048
-378,131	800,000	-0,038	-0,123
-377,117	1,735	0,107	0,056
-376,102	-2,319	0,119	0,061
-375,088	676,934	0,032	-0,061
-374,073	-200,000	-0,003	0,060
-373,058	800,000	-0,012	-0,025
-372,044	115,977	0,045	0,040
-371,029	-23,496	0,035	0,015
-370,015	405,268	-0,047	0,073
-369,000	666,281	0,060	-0,114
-367,985	-200,000	-0,055	-0,210
-366,971	342,723	0,061	-0,088
-365,956	-200,000	0,011	0,133
-364,942	-84,065	0,151	0,035
-363,927	800,000	0,015	0,046
-362,912	800,000	0,020	-0,058
-361,898	-15,702	-0,120	-0,056
-360,883	-200,000	-0,030	-0,132
-359,869	-200,000	0,014	0,054
-358,854	-10,803	0,090	-0,044
-357,839	149,991	0,076	0,075
-356,825	-200,000	-0,003	0,037
-355,810	-73,593	-0,044	-0,012
-354,796	-88,146	-0,106	-0,023
-353,781	-144,160	-0,130	0,009
-352,766	50,510	-0,080	-0,055
-351,752	800,000	0,016	0,039
-350,737	501,529	0,078	0,133
-349,723	-200,000	-0,022	0,099
-348,708	-200,000	0,000	0,021
-347,693	172,450	-0,060	0,063
-346,679	800,000	-0,034	0,105
-345,664	25,536	-0,047	-0,029
-344,650	-65,000	0,105	-0,031
-343,635	-29,921	-0,057	0,024
-342,620	-97,452	0,096	0,018
-341,606	382,821	0,043	0,065
-340,591	-200,000	0,023	-0,076
-339,577	-168,831	-0,127	-0,003
-338,562	-200,000	0,016	-0,062
-337,548	-200,000	0,006	-0,093
-336,533	34,126	0,055	-0,035
-335,518	-84,591	-0,027	-0,006
-334,504	544,095	0,016	0,028
-333,489	501,570	-0,026	0,044
-332,475	563,265	-0,025	0,044
-331,460	-200,000	0,012	-0,063
-330,445	-200,000	-0,028	-0,099
-329,431	24,652	0,050	0,030
-328,416	658,734	-0,031	0,059
-327,402	-84,362	0,024	0,005
-326,387	43,275	0,063	-0,042
-325,372	-7,495	0,041	-0,020
-324,358	-200,000	-0,008	0,169
-323,343	61,366	-0,099	-0,072
-322,329	-111,636	0,109	-0,016
-321,314	-91,904	-0,059	-0,012
-320,299	-113,542	-0,016	0,002
-319,285	2,162	0,107	0,057
-318,270	365,034	0,036	0,053
-317,256	-90,267	-0,110	-0,023
-316,241	-200,000	-0,014	0,168
-315,226	98,059	-0,019	0,016
-314,212	35,021	0,068	0,043
-313,197	167,606	0,062	0,064
-312,183	49,533	-0,030	0,021
-311,168	-123,350	-0,086	0,010
-310,153	-90,967	0,064	0,013
-309,139	-71,271	0,071	0,019
-308,124	-3,080	0,054	0,028
-307,110	294,513	0,043	-0,057
-306,095	399,432	0,074	0,113
-305,080	360,904	0,104	0,152
-304,066	9,439	-0,111	-0,062
-303,051	-120,314	-0,161	0,020
-302,037	-76,490	0,084	-0,022
-301,022	800,000	0,056	0,142
-300,008	-139,032	0,110	-0,009
-298,993	-200,000	0,013	-0,043
-297,978	-72,721	-0,066	-0,018
-296,964	-200,000	0,013	-0,088
-295,949	46,723	-0,086	-0,058
-294,935	-200,000	-0,011	-0,110
-293,920	-125,695	-0,089	-0,010
-292,905	800,000	-0,036	0,081
-291,891	-200,000	0,090	0,000
-290,876	-107,849	0,045	0,007
-289,862	-62,508	-0,070	-0,021
-288,847	800,000	-0,016	-0,043
-287,832	24,564	0,102	-0,061
-286,818	-200,000	-0,011	-0,073
-285,803	-133,254	0,117	0,011
-284,789	-64,845	0,090	0,026
-283,774	659,912	0,024	-0,046
-282,759	-200,000	-0,025	-0,149
-281,745	147,653	-0,038	-0,037
-280,730	57,007	0,105	-0,075
-279,716	106,420	0,067	0,058
-278,701	638,717	0,049	-0,091
-277,686	-200,000	-0,015	0,066
-276,672	800,000	0,033	0,103
-275,657	-159,774	0,179	-0,007
-274,643	-77,444	-0,118	0,030
-273,628	-108,230	-0,150	0,023
-272,613	299,386	-0,029	-0,039
-271,599	-6,229	-0,022	0,011
-270,584	-200,000	0,031	0,171
-269,570	275,893	0,043	0,055
-268,555	-200,000	-0,009	0,053
-267,540	765,170	0,036	-0,073
-266,526	216,562	0,067	0,078
-265,511	-200,000	0,012	-0,097
-264,497	800,000	0,043	0,109
-263,482	216,599	0,143	0,167
-262,467	63,311	0,052	-0,038
-261,453	-89,793	-0,128	0,027
-260,438	-200,000	0,003	0,060
-259,424	800,000	0,005	-0,010
-258,409	183,258	0,101	-0,109
-257,395	285,811	0,041	0,054
-256,380	462,024	0,082	0,135
-255,365	800,000	0,033	-0,080
-254,351	102,193	-0,041	-0,035
-253,336	-200,000	-0,016	-0,105
-252,322	-0,295	-0,096	-0,050
-251,307	-31,150	0,086	-0,035
-250,292	113,406	0,073	0,065
-249,278	800,000	0,018	0,050
-248,263	188,662	0,056	-0,061
-247,249	172,066	0,029	0,030
-246,234	147,750	-0,030	-0,030
-245,219	-155,243	-0,146	-0,007
-244,205	-200,000	0,014	0,083
-243,190	-131,908	-0,120	0,011
-242,176	-107,549	0,103	-0,016
-241,161	800,000	-0,025	-0,074
-240,146	-80,148	0,040	-0,010
-239,132	516,430	0,066	-0,114
-238,117	-200,000	-0,030	-0,118
-237,103	-6,221	-0,076	-0,038
-236,088	-102,119	-0,140	0,024
-235,073	-22,947	0,046	-0,020
-234,059	-200,000	0,012	-0,061
-233,044	-200,000	-0,040	0,178
-232,030	496,333	-0,054	0,091
-231,015	594,982	-0,035	-0,063
-230,000	800,000	0,044	-0,140
-228,986	237,809	-0,080	0,097
-227,971	800,000	0,053	0,120
-226,957	338,264	-0,071	0,100
-225,942	-200,000	-0,021	-0,142
-224,927	-140,573	0,104	0,008
-223,913	102,153	-0,153	-0,130
-222,898	273,632	0,104	0,135
-221,884	800,000	-0,024	0,056
-220,869	-68,274	0,099	-0,028
-219,855	437,920	0,078	0,125
-218,840	152,986	-0,048	0,047
-217,825	800,000	0,049	-0,132
-216,811	169,744	-0,035	-0,037
-215,796	-144,231	0,039	0,003
-214,782	-200,000	-0,003	0,031
-213,767	69,403	-0,062	-0,047
-212,752	-32,830	0,049	0,020
-211,738	170,067	0,054	0,056
-210,723	800,000	-0,032	0,091
-209,709	24,077	0,083	0,050
-208,694	-45,008	-0,076	-0,028
-207,679	-200,000	0,007	0,104
-206,665	-200,000	-0,002	-0,010
-205,650	-200,000	0,028	-0,143
-204,636	800,000	0,021	0,046
-203,621	336,834	0,025	-0,035
-202,606	434,865	-0,079	0,125
-201,592	-93,723	-0,056	-0,011
-200,577	-8,975	0,024	-0,012
-199,563	-24,601	-0,062	0,027
-198,548	162,888	0,034	0,035
-197,533	-131,336	0,082	0,008
-196,519	-29,134	-0,037	-0,015
-195,504	-144,536	0,034	-0,002
-194,490	397,968	-0,042	0,065
-193,475	800,000	0,046	-0,106
-192,460	311,129	0,016	-0,021
-191,446	-25,438	0,090	0,038
-190,431	-55,470	0,052	0,017
-189,417	-126,436	-0,123	0,013
-188,402	-200,000	-0,050	-0,176
-187,387	63,637	-0,073	-0,053
-186,373	237,144	0,037	-0,045
-185,358	-200,000	0,012	0,067
-184,344	22,028	-0,071	0,042
-183,329	-200,000	0,006	0,197
-182,315	-200,000	-0,047	0,171
-181,300	800,000	-0,032	0,098
-180,285	-200,000	-0,000	0,023
-179,271	-111,590	-0,108	0,016
-178,256	32,181	0,031	-0,019
-177,242	-95,927	0,131	0,025
-176,227	503,527	0,055	0,094
-175,212	8,755	0,134	0,074
-174,198	153,507	0,095	-0,095
-173,183	800,000	0,043	-0,134
-172,169	39,255	-0,143	-0,093
-171,154	170,114	0,133	-0,138
-170,139	-200,000	-0,021	0,095
-169,125	-149,875	-0,040	-0,002
-168,110	800,000	-0,019	0,049
-167,096	-18,481	0,138	-0,062
-166,081	800,000	-0,016	0,041
-165,066	98,091	-0,027	0,023
-164,052	-200,000	-0,015	0,094
-163,037	-85,052	0,095	0,022
-162,023	404,966	-0,057	-0,088
-161,008	800,000	-0,031	0,063
-159,993	479,123	0,021	0,035
-158,979	-124,524	-0,092	0,010
-157,964	417,679	0,081	-0,127
-156,950	800,000	-0,035	0,082
-155,935	327,457	0,058	-0,081
-154,920	-112,314	0,011	0,002
-153,906	611,249	0,068	0,125
-152,891	4,980	-0,127	0,068
-151,877	800,000	0,021	-0,048
-150,862	800,000	-0,063	-0,198
-149,847	-132,867	0,040	0,004
-148,833	-45,578	0,054	-0,019
-147,818	-75,432	0,164	0,042
-146,804	800,000	-0,045	0,123
-145,789	800,000	0,057	0,133
-144,775	-44,249	-0,083	0,030
-143,760	5,821	-0,051	0,028
-142,745	-56,693	-0,028	-0,009
-141,731	-200,000	0,013	0,090
-140,716	-60,673	-0,108	-0,033
-139,702	-129,661	0,210	0,021
-138,687	-200,000	0,013	0,044
-137,672	782,464	-0,066	-0,131
-136,658	308,929	-0,108	-0,148
-135,643	106,931	-0,080	-0,069
-134,629	-200,000	-0,028	-0,092
-133,614	-200,000	-0,035	0,117
-132,599	221,550	0,107	0,125
-131,585	-200,000	-0,015	-0,111
-130,570	222,283	-0,117	-0,137
-129,556	-33,226	-0,159	-0,064
-128,541	315,786	-0,035	0,048
-127,526	268,941	0,025	0,032
-126,512	-200,000	0,003	0,041
-125,497	800,000	-0,007	-0,021
-124,483	-30,652	0,100	-0,041
-123,468	-46,487	-0,095	-0,034
-122,453	-200,000	-0,043	-0,291
-121,439	-84,518	-0,140	0,032
-120,424	-93,004	-0,031	-0,006
-119,410	-200,000	-0,006	-0,050
