DTS Sentinel unit serial number:	SN410029Multiplexer serial number:	ORYXHardware model number:	OX2-SRSoftware version number:	ORYX F/W v4,00 Oryx Data Collector v3.7.2.0data status	okinstallation	B6 Nyhavnadifferential loss correction	single-endedforward channel	channel 2reverse channel	N/Adate	2023/12/11time	05:00:08forward acquisition time	300,00reverse acquisition time	0,00gamma	499,1914k internal	0,3126k external	0,3126temperature offset calibration	1,0000default loss term (dB/km)	0,3820temperature slope calibration	1,0000multiplexer offset coefficient	1,0000multiplexer slope coefficient	1,0000fibre end	0,00T internal ref (°C)	20,22T ext. ref 1 (°C)	3,12T ext. ref 2 (°C)	3,12length (m)	temperature (°C)	Stokes	anti-Stokes-744,400	-200,000	0,017	-0,162
-743,385	737,680	-0,063	0,127
-742,371	-117,935	0,039	-0,005
-741,356	-17,429	-0,177	0,082
-740,342	155,164	0,066	0,068
-739,327	-125,385	-0,400	-0,045
-738,312	-126,570	0,132	-0,014
-737,298	-23,310	-0,248	0,110
-736,283	-63,013	0,097	0,030
-735,269	11,671	-0,184	0,105
-734,254	105,401	0,098	-0,086
-733,239	-34,878	-0,419	-0,169
-732,225	-70,869	0,134	-0,037
-731,210	-200,000	-0,006	0,030
-730,196	314,831	-0,039	0,055
-729,181	275,219	0,042	-0,056
-728,167	219,563	-0,072	-0,086
-727,152	-118,092	-0,036	0,005
-726,137	664,899	-0,046	0,088
-725,123	-139,895	-0,130	-0,010
-724,108	289,100	-0,110	-0,149
-723,094	-178,199	-0,139	-0,002
-722,079	-200,000	0,013	-0,074
-721,064	435,542	0,041	-0,067
-720,050	202,585	0,095	0,109
-719,035	143,360	-0,053	-0,052
-718,021	-200,000	-0,003	-0,201
-717,006	-55,789	-0,179	-0,059
-715,991	709,967	-0,045	-0,089
-714,977	-200,000	0,009	-0,131
-713,962	60,311	-0,059	0,044
-712,948	-97,331	0,059	0,011
-711,933	9,121	0,108	-0,060
-710,918	-181,509	-0,054	-0,001
-709,904	69,113	0,004	0,003
-708,889	195,629	-0,051	0,058
-707,875	-200,000	0,010	-0,035
-706,860	-200,000	0,006	-0,022
-705,845	26,847	-0,029	-0,018
-704,831	-12,215	0,128	-0,062
-703,816	-200,000	0,024	-0,148
-702,802	47,176	-0,176	-0,122
-701,787	109,446	0,070	-0,062
-700,772	-105,644	-0,064	0,011
-699,758	-30,322	0,021	-0,009
-698,743	-200,000	-0,048	0,180
-697,729	196,126	0,081	0,092
-696,714	-200,000	-0,013	0,088
-695,699	800,000	0,035	-0,103
-694,685	178,126	-0,075	-0,081
-693,670	326,366	0,068	0,096
-692,656	-46,600	0,113	0,041
-691,641	800,000	-0,018	-0,039
-690,627	-165,727	-0,058	0,002
-689,612	0,798	-0,040	-0,021
-688,597	529,947	-0,042	0,074
-687,583	-54,153	-0,068	-0,023
-686,568	-200,000	-0,021	-0,126
-685,554	-80,832	0,080	0,020
-684,539	-60,960	-0,021	0,007
-683,524	800,000	0,019	0,047
-682,510	-41,319	-0,143	0,054
-681,495	397,188	-0,041	-0,064
-680,481	-60,329	-0,054	0,017
-679,466	-200,000	-0,004	-0,053
-678,451	483,542	-0,083	0,141
-677,437	477,527	0,038	-0,065
-676,422	-200,000	-0,013	0,068
-675,408	340,533	-0,033	-0,048
-674,393	395,952	0,078	0,121
-673,378	-200,000	0,021	-0,085
-672,364	-156,622	-0,110	-0,005
-671,349	-133,354	-0,128	-0,012
-670,335	-1,146	0,129	0,067
-669,320	-72,540	0,127	0,034
-668,305	11,421	-0,168	0,095
-667,291	-93,420	0,069	0,014
-666,276	-30,533	-0,172	-0,072
-665,262	-200,000	-0,025	-0,090
-664,247	-137,189	0,158	0,013
-663,232	112,596	-0,090	0,081
-662,218	800,000	-0,004	0,012
-661,203	-137,837	0,128	-0,010
-660,189	87,257	0,041	-0,033
-659,174	-42,937	-0,082	-0,031
-658,159	-78,913	-0,154	-0,039
-657,145	-200,000	0,020	0,076
-656,130	99,395	-0,085	-0,073
-655,116	-200,000	-0,075	-0,000
-654,101	124,892	0,070	-0,066
-653,086	-200,000	-0,001	-0,085
-652,072	144,878	-0,038	0,037
-651,057	-81,255	0,103	0,025
-650,043	512,870	-0,068	-0,119
-649,028	-200,000	0,029	-0,150
-648,014	396,401	-0,055	-0,086
-646,999	800,000	-0,019	-0,063
-645,984	-200,000	-0,005	0,100
-644,970	-12,523	-0,041	0,020
-643,955	-38,213	-0,064	-0,025
-642,941	122,453	-0,072	0,067
-641,926	-87,396	0,061	-0,014
-640,911	161,549	0,099	0,102
-639,897	-9,876	0,069	0,034
-638,882	374,614	0,060	0,091
-637,868	-200,000	-0,014	0,106
-636,853	-73,029	-0,134	-0,036
-635,838	-61,521	0,102	-0,032
-634,824	-200,000	-0,002	-0,155
-633,809	-125,277	-0,087	0,010
-632,795	800,000	0,005	-0,010
-631,780	94,843	0,067	-0,057
-630,765	-61,647	0,096	0,030
-629,751	-132,311	-0,113	-0,011
-628,736	800,000	-0,033	0,069
-627,722	-99,011	-0,108	0,020
-626,707	-28,357	0,131	-0,056
-625,692	-1,425	0,036	0,019
-624,678	800,000	0,028	-0,066
-623,663	-193,915	-0,073	-0,000
-622,649	647,252	-0,048	-0,092
-621,634	800,000	-0,010	0,023
-620,619	-200,000	0,014	-0,068
-619,605	260,017	0,034	0,043
-618,590	148,235	-0,096	0,096
-617,576	163,031	-0,081	-0,085
-616,561	194,261	0,049	-0,055
-615,546	55,413	-0,111	-0,079
-614,532	404,432	0,075	-0,117
-613,517	-156,806	-0,003	-0,000
-612,503	800,000	0,037	-0,090
-611,488	-200,000	0,030	0,254
-610,474	213,759	-0,055	-0,065
-609,459	-4,853	0,022	-0,011
-608,444	-200,000	0,007	-0,029
-607,430	-33,676	0,018	0,007
-606,415	-200,000	0,016	-0,091
-605,401	800,000	0,037	0,109
-604,386	-200,000	0,000	0,080
-603,371	-75,335	-0,169	0,044
-602,357	-87,582	0,098	0,022
-601,342	721,214	-0,010	-0,020
-600,328	-24,352	0,152	-0,067
-599,313	-14,616	-0,128	-0,061
-598,298	-200,000	-0,036	-0,129
-597,284	-122,763	0,121	-0,014
-596,269	-33,423	0,068	-0,028
-595,255	58,298	-0,050	-0,036
-594,240	171,446	-0,032	0,034
-593,225	260,756	-0,107	-0,137
-592,211	800,000	-0,046	-0,107
-591,196	800,000	-0,046	-0,111
-590,182	-200,000	-0,005	-0,114
-589,167	-200,000	-0,016	0,085
-588,152	-113,923	0,065	-0,009
-587,138	-82,877	-0,247	-0,059
-586,123	44,357	-0,081	0,055
-585,109	-200,000	0,009	0,094
-584,094	800,000	0,033	-0,094
-583,079	-200,000	0,017	-0,076
-582,065	-69,063	0,125	0,035
-581,050	8,312	-0,061	-0,034
-580,036	66,960	0,117	-0,088
-579,021	-200,000	0,004	-0,019
-578,006	-200,000	0,023	0,138
-576,992	-200,000	0,015	-0,184
-575,977	-31,656	-0,155	0,064
-574,963	-69,455	0,067	0,019
-573,948	-51,079	0,081	-0,028
-572,934	88,997	0,067	-0,055
-571,919	800,000	0,012	-0,033
-570,904	176,127	-0,035	-0,038
-569,890	411,151	0,005	-0,008
-568,875	103,296	-0,064	-0,055
-567,861	-45,073	0,050	-0,018
-566,846	1,614	0,039	0,021
-565,831	435,506	-0,076	-0,122
-564,817	-19,444	-0,132	0,060
-563,802	-200,000	-0,016	0,108
-562,788	17,121	0,104	-0,061
-561,773	-48,926	0,063	0,022
-560,758	-200,000	0,023	0,084
-559,744	50,988	0,041	0,029
-558,729	153,189	0,057	0,057
-557,715	193,229	-0,068	0,076
-556,700	234,677	-0,080	-0,097
-555,685	55,920	0,049	0,035
-554,671	-200,000	-0,003	0,013
-553,656	-164,090	0,035	0,001
-552,642	-110,770	0,077	0,012
-551,627	-76,608	0,074	0,019
-550,612	-200,000	-0,005	0,032
-549,598	130,663	-0,113	-0,107
-548,583	503,280	0,052	0,090
-547,569	-200,000	-0,026	-0,089
-546,554	-200,000	-0,003	0,110
-545,539	800,000	-0,041	-0,095
-544,525	-134,016	0,116	-0,010
-543,510	800,000	-0,032	-0,074
-542,496	319,394	-0,051	-0,071
-541,481	290,650	-0,123	-0,165
-540,466	800,000	-0,016	-0,047
-539,452	-38,272	0,037	0,015
-538,437	44,252	0,163	0,110
-537,423	457,998	-0,030	0,049
-536,408	79,825	0,050	0,040
-535,393	165,679	-0,101	-0,105
-534,379	-112,685	0,049	-0,007
-533,364	493,504	0,058	0,098
-532,350	203,122	0,020	0,023
-531,335	211,194	0,144	0,168
-530,321	-188,972	-0,087	0,001
-529,306	44,688	-0,059	0,040
-528,291	-106,619	-0,051	-0,008
-527,277	-200,000	0,019	0,070
-526,262	-200,000	-0,012	0,085
-525,248	305,559	-0,064	0,088
-524,233	-96,681	0,119	0,023
-523,218	-200,000	0,017	0,062
-522,204	-200,000	0,050	0,184
-521,189	-133,000	0,078	-0,007
-520,175	203,956	-0,078	-0,089
-519,160	-36,985	0,166	-0,066
-518,145	28,667	0,099	-0,062
-517,131	22,927	0,090	-0,054
-516,116	-43,542	-0,171	0,063
-515,102	-200,000	0,008	0,045
-514,087	80,831	0,056	-0,044
-513,072	491,630	0,020	-0,033
-512,058	51,173	-0,102	-0,071
-511,043	-100,179	-0,086	-0,016
-510,029	172,449	0,073	0,078
-509,014	277,220	-0,065	-0,085
-507,999	306,075	0,047	0,065
-506,985	-200,000	-0,010	0,095
-505,970	-200,000	0,029	0,111
-504,956	-200,000	0,006	-0,037
-503,941	63,892	0,153	0,114
-502,926	61,192	-0,089	0,065
-501,912	-85,943	0,106	0,024
-500,897	-7,388	-0,034	-0,017
-499,883	800,000	0,036	-0,105
-498,868	452,775	0,056	-0,092
-497,853	169,148	-0,039	-0,042
-496,839	197,979	0,091	-0,102
-495,824	-200,000	-0,005	-0,139
-494,810	191,124	-0,065	0,072
-493,795	800,000	0,048	0,131
-492,781	238,936	-0,057	-0,070
-491,766	800,000	0,032	-0,097
-490,751	-39,500	-0,087	0,033
-489,737	-200,000	0,023	0,143
-488,722	295,541	0,126	0,171
-487,708	-51,975	-0,123	0,042
-486,693	-77,040	-0,109	-0,028
-485,678	-9,524	0,128	0,063
-484,664	-200,000	-0,008	0,032
-483,649	107,519	-0,079	0,069
-482,635	-200,000	-0,018	0,063
-481,620	-77,404	0,124	-0,031
-480,605	464,911	0,054	-0,089
-479,591	-200,000	-0,051	0,209
-478,576	360,220	0,059	0,087
-477,562	460,530	-0,095	-0,157
-476,547	-142,271	-0,095	-0,007
-475,532	400,789	0,056	-0,087
-474,518	85,049	0,070	0,056
-473,503	42,324	0,022	-0,014
-472,489	-107,239	-0,104	0,017
-471,474	258,102	0,038	-0,048
-470,459	-6,091	-0,109	-0,055
-469,445	110,448	-0,064	0,056
-468,430	-66,070	-0,107	0,031
-467,416	254,845	-0,046	0,058
-466,401	-200,000	-0,026	0,106
-465,386	-72,926	0,111	0,030
-464,372	418,139	0,086	-0,137
-463,357	-200,000	0,004	-0,136
-462,343	232,338	-0,091	-0,110
-461,328	419,100	-0,055	-0,087
-460,313	-18,405	0,063	0,029
-459,299	-75,218	0,054	0,014
-458,284	-16,344	0,082	0,038
-457,270	49,337	0,081	0,056
-456,255	-200,000	-0,005	0,066
-455,241	-132,527	-0,047	-0,004
-454,226	380,434	0,043	-0,066
-453,211	-34,045	0,084	0,034
-452,197	368,294	0,031	0,046
-451,182	258,354	-0,040	0,051
-450,168	-200,000	-0,023	-0,088
-449,153	156,829	-0,015	-0,016
-448,138	-9,559	-0,081	0,040
-447,124	800,000	0,035	0,082
-446,109	5,532	0,143	0,078
-445,095	-113,323	0,097	0,014
-444,080	81,320	-0,104	0,083
-443,065	-200,000	-0,013	0,097
-442,051	-107,770	0,080	-0,013
-441,036	-43,377	-0,022	-0,008
-440,022	-105,976	-0,152	0,025
-439,007	-101,192	0,012	-0,002
-437,992	800,000	-0,070	0,164
-436,978	495,225	0,069	0,117
-435,963	461,903	0,055	0,090
-434,949	156,005	-0,032	0,032
-433,934	800,000	-0,061	-0,191
-432,919	-25,713	-0,133	-0,057
-431,905	568,768	0,059	-0,106
-430,890	523,446	-0,036	0,062
-429,876	108,674	-0,099	0,087
-428,861	22,331	0,180	0,108
-427,846	412,136	-0,053	0,083
-426,832	-112,376	-0,102	0,015
-425,817	-12,875	-0,171	-0,081
-424,803	-29,926	0,048	-0,020
-423,788	-200,000	0,012	-0,057
-422,773	193,032	0,069	-0,077
-421,759	-171,322	-0,099	0,002
-420,744	-30,441	-0,092	0,038
-419,730	800,000	0,029	-0,089
-418,715	-200,000	-0,001	0,014
-417,701	-200,000	-0,013	-0,093
-416,686	-20,631	0,195	0,088
-415,671	-51,922	-0,075	0,025
-414,657	440,368	0,053	-0,086
-413,642	-200,000	-0,010	-0,134
-412,628	222,697	0,021	0,024
-411,613	800,000	-0,056	-0,127
-410,598	-97,641	-0,053	-0,010
-409,584	-46,002	-0,088	-0,032
-408,569	-129,240	0,019	0,002
-407,555	486,093	0,013	-0,022
-406,540	-90,005	-0,075	-0,016
-405,525	-84,544	-0,104	0,024
-404,511	800,000	0,011	0,034
-403,496	800,000	-0,029	-0,069
-402,482	-4,244	0,145	-0,073
-401,467	-137,276	-0,161	0,013
-400,452	-95,547	0,046	-0,009
-399,438	-70,498	0,032	-0,009
-398,423	68,889	-0,118	-0,089
-397,409	-40,981	0,025	0,009
-396,394	800,000	-0,061	-0,127
-395,379	542,044	-0,028	-0,050
-394,365	48,205	-0,153	0,105
-393,350	-200,000	0,044	0,182
-392,336	-106,444	-0,041	0,007
-391,321	19,371	-0,118	-0,069
-390,306	800,000	0,029	-0,063
-389,292	652,934	0,068	-0,129
-388,277	-200,000	-0,032	0,145
-387,263	-200,000	0,022	0,099
-386,248	613,499	0,058	0,108
-385,233	-132,064	0,026	-0,002
-384,219	413,568	-0,049	-0,077
-383,204	-78,568	0,058	0,015
-382,190	101,240	-0,149	-0,127
-381,175	-200,000	0,043	0,194
-380,160	-200,000	0,011	-0,092
-379,146	-200,000	0,003	-0,039
-378,131	-200,000	0,016	0,101
-377,117	-200,000	0,017	0,071
-376,102	-27,692	-0,100	0,042
-375,088	79,643	0,022	-0,017
-374,073	205,595	0,063	-0,072
-373,058	638,219	0,107	0,200
-372,044	187,580	0,050	0,054
-371,029	-71,231	0,118	0,032
-370,015	-69,787	0,125	-0,035
-369,000	306,932	-0,134	0,183
-367,985	-200,000	0,016	0,115
-366,971	-63,970	0,071	-0,021
-365,956	76,982	-0,053	0,041
-364,942	535,292	-0,022	-0,039
-363,927	299,040	-0,033	0,044
-362,912	138,554	-0,072	0,069
-361,898	-103,104	-0,213	0,037
-360,883	-111,631	0,018	-0,003
-359,869	766,075	-0,060	-0,120
-358,854	-72,737	0,055	-0,015
-357,839	83,173	-0,029	-0,023
-356,825	800,000	-0,037	-0,103
-355,810	25,558	0,082	0,050
-354,796	342,871	0,011	0,016
-353,781	167,381	-0,024	0,025
-352,766	800,000	-0,039	0,099
-351,752	772,065	0,076	-0,153
-350,737	57,195	0,146	-0,105
-349,723	61,179	0,124	-0,090
-348,708	-65,087	0,003	-0,001
-347,693	141,878	0,034	0,033
-346,679	-56,277	0,099	0,032
-345,664	-200,000	0,009	-0,047
-344,650	414,287	-0,081	0,127
-343,635	-160,958	-0,086	-0,003
-342,620	732,222	-0,049	0,097
-341,606	-48,857	0,229	-0,080
-340,591	-200,000	-0,031	-0,112
-339,577	-124,223	-0,065	0,007
-338,562	189,036	-0,052	-0,057
-337,548	-170,632	0,048	0,001
-336,533	800,000	0,067	0,192
-335,518	32,738	0,077	-0,049
-334,504	213,559	-0,082	0,095
-333,489	-200,000	0,042	-0,150
-332,475	800,000	-0,014	-0,042
-331,460	800,000	0,053	-0,160
-330,445	213,629	-0,113	0,131
-329,431	-25,750	-0,089	0,038
-328,416	-130,193	0,024	0,002
-327,402	-65,231	-0,040	-0,012
-326,387	-80,340	0,041	-0,010
-325,372	800,000	0,042	-0,102
-324,358	800,000	-0,045	-0,096
-323,343	-200,000	0,019	-0,105
-322,329	170,810	0,099	0,104
-321,314	172,969	0,110	-0,116
-320,299	326,601	-0,043	0,061
-319,285	487,637	-0,027	-0,046
-318,270	-200,000	0,027	-0,125
-317,256	65,850	0,072	-0,053
-316,241	696,967	0,038	-0,073
-315,226	190,671	0,044	-0,048
-314,212	-60,119	-0,013	-0,004
-313,197	-86,857	0,201	0,044
-312,183	263,097	0,092	-0,117
-311,168	80,384	0,045	0,035
-310,153	69,264	-0,145	-0,109
-309,139	-172,499	-0,095	0,002
-308,124	-32,338	0,057	0,023
-307,110	-141,105	-0,031	-0,002
-306,095	3,434	-0,063	0,033
-305,080	-200,000	-0,023	0,133
-304,066	-97,319	0,090	-0,017
-303,051	-200,000	-0,025	-0,082
-302,037	800,000	-0,032	-0,069
-301,022	125,242	-0,093	-0,086
-300,008	670,319	0,072	0,138
-298,993	-200,000	-0,002	0,098
-297,978	-69,238	-0,094	0,026
-296,964	-12,927	-0,111	0,053
-295,949	78,520	-0,052	-0,040
-294,935	444,771	-0,078	-0,126
-293,920	275,500	0,034	0,044
-292,905	26,453	0,155	0,094
-291,891	89,536	0,055	0,045
-290,876	122,720	-0,059	0,054
-289,862	-200,000	0,027	-0,100
-288,847	-111,153	0,069	0,010
-287,832	67,914	-0,084	-0,063
-286,818	7,940	0,096	0,052
-285,803	191,776	0,086	-0,094
-284,789	-200,000	-0,004	0,014
-283,774	-76,542	-0,070	0,018
-282,759	-200,000	0,027	-0,091
-281,745	43,207	0,087	0,058
-280,730	-200,000	0,013	-0,069
-279,716	800,000	0,010	0,027
-278,701	-155,428	0,067	0,003
-277,686	-93,657	0,113	0,023
-276,672	-59,086	0,090	0,028
-275,657	-83,322	-0,098	-0,023
-274,643	483,649	0,078	-0,130
-273,628	-5,119	0,090	-0,045
-272,613	-43,970	0,063	-0,023
-271,599	-200,000	0,013	-0,056
-270,584	316,527	-0,080	0,111
-269,570	-130,255	0,059	0,006
-268,555	319,104	0,050	-0,069
-267,540	-200,000	-0,029	-0,101
-266,526	-155,034	-0,144	-0,007
-265,511	-1,223	0,070	-0,036
-264,497	800,000	0,002	0,004
-263,482	-200,000	-0,000	0,036
-262,467	10,270	0,118	0,066
-261,453	800,000	0,006	0,017
-260,438	-200,000	-0,009	-0,094
-259,424	-200,000	0,016	-0,069
-258,409	12,856	0,039	-0,022
-257,395	221,775	0,101	0,119
-256,380	-200,000	0,038	0,150
-255,365	61,021	-0,043	0,031
-254,351	10,322	-0,206	0,114
-253,336	-96,329	-0,048	-0,009
-252,322	426,868	-0,048	-0,077
-251,307	-16,167	-0,098	0,045
-250,292	6,950	-0,138	-0,075
-249,278	-50,527	0,016	-0,006
-248,263	22,488	-0,063	0,038
-247,249	-42,988	-0,060	-0,022
-246,234	523,578	-0,064	-0,111
-245,219	791,283	-0,033	-0,067
-244,205	-133,936	-0,128	0,011
-243,190	184,347	0,097	0,105
-242,176	-126,871	0,074	-0,008
-241,161	425,211	0,051	0,081
-240,146	800,000	0,030	0,078
-239,132	-200,000	-0,020	0,126
-238,117	800,000	-0,016	-0,050
-237,103	800,000	0,053	0,137
-236,088	34,460	0,042	-0,027
-235,073	134,811	-0,049	0,046
-234,059	-200,000	-0,011	0,244
-233,044	-38,911	0,087	0,033
-232,030	-69,922	-0,053	0,015
-231,015	-85,722	0,089	-0,020
-230,000	149,495	-0,084	-0,084
-228,986	176,000	0,040	0,042
-227,971	409,551	-0,056	-0,086
-226,957	-15,808	-0,086	-0,040
-225,942	81,212	-0,070	-0,055
-224,927	800,000	0,053	0,148
-223,913	800,000	-0,058	-0,138
-222,898	800,000	0,048	-0,129
-221,884	-153,225	-0,049	0,002
-220,869	-200,000	-0,021	0,074
-219,855	-163,725	0,119	-0,004
-218,840	-100,319	-0,079	-0,014
-217,825	-200,000	0,001	0,113
-216,811	-129,495	-0,040	0,004
-215,796	-105,932	-0,100	0,016
-214,782	-200,000	0,022	-0,116
-213,767	-83,577	-0,050	0,012
-212,752	800,000	-0,019	0,062
-211,738	-67,781	0,112	0,032
-210,723	800,000	-0,045	0,108
-209,709	345,299	-0,018	0,026
-208,694	800,000	0,042	-0,096
-207,679	-200,000	-0,077	-0,255
-206,665	105,579	0,036	0,031
-205,650	-10,169	0,075	-0,036
-204,636	800,000	-0,024	-0,053
-203,621	192,160	-0,044	0,049
-202,606	461,211	0,065	-0,106
-201,592	-53,200	-0,140	-0,046
-200,577	-51,849	-0,148	-0,050
-199,563	87,953	0,071	0,057
-198,548	528,270	-0,018	0,032
-197,533	24,081	-0,130	0,078
-196,519	-200,000	-0,016	0,094
-195,504	76,764	0,036	-0,028
-194,490	223,744	0,067	0,079
-193,475	38,660	-0,115	0,075
-192,460	116,624	-0,076	0,068
-191,446	187,251	0,056	0,061
-190,431	-81,380	0,115	-0,027
-189,417	-97,077	-0,089	0,017
-188,402	-200,000	-0,018	0,091
-187,387	-44,167	-0,103	-0,037
-186,373	29,828	-0,040	-0,025
-185,358	-200,000	0,010	0,057
-184,344	31,464	-0,017	0,010
-183,329	462,675	-0,026	-0,042
-182,315	-200,000	0,005	0,067
-181,300	-36,192	0,174	0,068
-180,285	-101,391	-0,150	0,026
-179,271	800,000	0,061	-0,137
-178,256	58,646	0,082	0,059
-177,242	-200,000	0,003	0,171
-176,227	-50,758	0,040	-0,013
-175,212	-58,013	-0,040	-0,013
-174,198	364,315	-0,076	-0,112
-173,183	800,000	0,048	-0,104
-172,169	207,783	0,063	0,072
-171,154	258,279	0,084	0,105
-170,139	-135,897	-0,009	-0,001
-169,125	-11,646	0,075	-0,036
-168,110	-70,802	0,072	0,020
-167,096	109,443	0,054	0,047
-166,081	800,000	0,029	-0,059
-165,066	800,000	-0,011	-0,033
-164,052	213,528	-0,037	-0,043
-163,037	-147,535	-0,050	0,003
-162,023	99,589	-0,030	0,025
-161,008	-129,415	0,077	0,008
-159,993	-200,000	0,005	-0,026
-158,979	100,322	-0,027	-0,023
-157,964	57,198	0,050	-0,036
-156,950	412,941	-0,021	0,033
-155,935	142,789	0,022	0,022
-154,920	-200,000	-0,027	0,104
-153,906	174,391	0,015	0,016
-152,891	34,994	0,078	-0,050
-151,877	107,771	-0,061	-0,053
-150,862	-200,000	0,003	0,016
-149,847	521,277	0,044	0,075
-148,833	150,313	-0,069	-0,068
-147,818	276,848	0,046	-0,060
-146,804	800,000	-0,024	-0,049
-145,789	56,484	-0,102	0,072
-144,775	-182,294	-0,050	-0,001
-143,760	477,647	-0,063	-0,104
-142,745	440,273	-0,102	-0,163
-141,731	-200,000	-0,004	-0,042
-140,716	369,879	0,013	-0,019
-139,702	-200,000	-0,022	-0,087
-138,687	-48,606	0,041	0,014
-137,672	174,068	-0,114	0,120
-136,658	-200,000	-0,021	-0,103
-135,643	242,438	-0,064	0,078
-134,629	-10,534	-0,061	0,029
-133,614	102,919	-0,064	-0,055
-132,599	223,743	0,061	0,071
-131,585	90,475	0,077	0,063
-130,570	800,000	-0,044	0,093
-129,556	4,910	-0,156	-0,083
-128,541	-50,588	0,011	0,004
-127,526	64,960	0,115	0,084
-126,512	-53,350	0,063	0,021
-125,497	720,075	0,028	0,055
-124,483	-200,000	0,028	-0,110
-123,468	587,811	-0,007	-0,012
-122,453	79,673	-0,129	-0,100
-121,439	-200,000	0,005	-0,094
-120,424	701,418	-0,021	-0,040
-119,410	242,934	-0,098	0,119
