DTS Sentinel unit serial number:	SN410029Multiplexer serial number:	ORYXHardware model number:	OX2-SRSoftware version number:	ORYX F/W v4,00 Oryx Data Collector v3.7.2.0data status	okinstallation	B6 Nyhavnadifferential loss correction	single-endedforward channel	channel 2reverse channel	N/Adate	2023/12/09time	15:25:08forward acquisition time	300,00reverse acquisition time	0,00gamma	499,1914k internal	0,3132k external	0,3132temperature offset calibration	1,0000default loss term (dB/km)	0,3820temperature slope calibration	1,0000multiplexer offset coefficient	1,0000multiplexer slope coefficient	1,0000fibre end	0,00T internal ref (°C)	20,63T ext. ref 1 (°C)	4,55T ext. ref 2 (°C)	4,54length (m)	temperature (°C)	Stokes	anti-Stokes-744,400	26,156	-0,057	-0,035
-743,385	-44,670	-0,233	0,086
-742,371	311,169	0,126	0,176
-741,356	-84,622	-0,207	0,048
-740,342	482,952	0,042	-0,070
-739,327	-68,456	-0,268	-0,077
-738,312	-103,296	0,089	0,015
-737,298	-48,215	-0,303	0,108
-736,283	-200,000	0,003	-0,025
-735,269	-37,683	-0,245	0,096
-734,254	-200,000	-0,011	-0,046
-733,239	-102,916	-0,493	-0,086
-732,225	-157,207	0,160	-0,007
-731,210	-200,000	-0,038	0,221
-730,196	445,949	-0,032	0,053
-729,181	-37,865	-0,058	-0,023
-728,167	418,114	0,031	-0,050
-727,152	800,000	0,029	-0,060
-726,137	178,110	0,080	-0,087
-725,123	636,870	-0,047	0,089
-724,108	-116,095	-0,195	0,027
-723,094	227,842	-0,209	-0,253
-722,079	121,273	0,079	-0,073
-721,064	455,333	-0,054	-0,090
-720,050	-200,000	-0,008	-0,120
-719,035	-84,727	-0,131	0,030
-718,021	-125,897	-0,075	-0,008
-717,006	499,374	0,018	-0,031
-715,991	396,053	0,011	0,017
-714,977	-23,314	0,026	0,011
-713,962	48,080	-0,144	0,100
-712,948	-141,892	0,213	-0,016
-711,933	-200,000	0,028	-0,094
-710,918	-200,000	0,010	0,058
-709,904	194,998	-0,068	-0,076
-708,889	-168,453	-0,107	0,003
-707,875	-126,340	-0,188	-0,021
-706,860	-200,000	-0,014	-0,051
-705,845	800,000	0,030	-0,067
-704,831	-119,507	-0,079	0,010
-703,816	201,154	-0,115	0,132
-702,802	-89,340	-0,037	-0,008
-701,787	-50,468	-0,119	0,041
-700,772	85,227	0,053	-0,043
-699,758	126,835	-0,061	-0,057
-698,743	154,711	0,092	0,094
-697,729	614,477	0,051	0,094
-696,714	-1,310	-0,091	-0,048
-695,699	800,000	0,034	-0,077
-694,685	320,805	-0,144	-0,203
-693,670	-136,873	0,065	0,005
-692,656	505,497	-0,062	-0,107
-691,641	-200,000	0,013	0,069
-690,627	800,000	0,047	-0,102
-689,612	45,196	0,035	0,024
-688,597	-200,000	0,018	-0,084
-687,583	-87,991	-0,093	-0,020
-686,568	329,314	0,100	-0,142
-685,554	-8,559	-0,048	0,024
-684,539	-72,116	-0,131	0,036
-683,524	-150,179	0,043	-0,002
-682,510	103,977	-0,129	0,113
-681,495	-200,000	0,027	0,109
-680,481	274,284	0,088	0,115
-679,466	-200,000	-0,007	-0,121
-678,451	188,665	0,032	0,036
-677,437	389,325	-0,003	0,005
-676,422	271,560	-0,044	-0,058
-675,408	13,563	0,085	0,049
-674,393	-200,000	-0,002	-0,022
-673,378	-200,000	-0,037	-0,144
-672,364	-8,475	-0,069	-0,034
-671,349	-200,000	0,034	-0,166
-670,335	-200,000	-0,051	-0,183
-669,320	-200,000	-0,020	0,072
-668,305	537,202	-0,068	0,119
-667,291	233,379	-0,060	-0,074
-666,276	-59,479	-0,220	0,070
-665,262	65,581	-0,048	-0,036
-664,247	71,924	-0,068	-0,052
-663,232	-200,000	-0,007	-0,162
-662,218	463,565	0,097	0,161
-661,203	800,000	0,057	0,131
-660,189	-23,785	-0,084	-0,037
-659,174	-52,855	-0,125	-0,043
-658,159	549,204	0,014	-0,025
-657,145	327,319	-0,036	-0,051
-656,130	-200,000	-0,024	-0,099
-655,116	-125,522	0,116	0,013
-654,101	125,659	0,090	-0,084
-653,086	343,491	0,026	0,038
-652,072	64,372	-0,086	0,064
-651,057	-54,929	-0,034	-0,011
-650,043	-11,133	-0,175	-0,085
-649,028	134,058	0,014	-0,014
-648,014	-200,000	-0,024	0,119
-646,999	66,300	0,064	0,048
-645,984	489,320	-0,058	-0,098
-644,970	55,041	0,082	-0,059
-643,955	-171,172	-0,024	-0,001
-642,941	-15,756	-0,155	-0,073
-641,926	511,890	0,046	0,079
-640,911	800,000	-0,044	0,139
-639,897	-200,000	0,018	0,086
-638,882	232,791	-0,060	0,073
-637,868	-200,000	0,030	-0,126
-636,853	-18,021	-0,096	-0,044
-635,838	385,339	-0,038	-0,059
-634,824	-183,871	-0,050	-0,001
-633,809	25,503	0,067	0,041
-632,795	78,858	0,095	0,076
-631,780	-8,359	0,100	-0,050
-630,765	-200,000	0,002	-0,096
-629,751	62,131	0,074	-0,055
-628,736	77,683	0,121	-0,095
-627,722	101,385	0,051	-0,044
-626,707	-200,000	-0,001	0,012
-625,692	-77,157	-0,067	0,017
-624,678	-200,000	0,002	-0,044
-623,663	-200,000	-0,013	0,184
-622,649	80,839	-0,067	0,053
-621,634	189,265	-0,033	0,037
-620,619	8,707	-0,086	0,048
-619,605	-28,991	-0,086	-0,036
-618,590	319,315	-0,049	0,069
-617,576	174,564	-0,030	0,033
-616,561	-17,156	-0,075	0,035
-615,546	-97,679	-0,103	-0,019
-614,532	577,371	-0,067	-0,121
-613,517	17,163	-0,046	0,027
-612,503	-111,379	-0,121	0,018
-611,488	17,201	-0,017	0,010
-610,474	800,000	-0,001	-0,002
-609,459	800,000	-0,016	0,034
-608,444	-200,000	-0,000	-0,138
-607,430	23,106	-0,091	-0,055
-606,415	-200,000	0,011	-0,189
-605,401	17,431	0,033	-0,019
-604,386	45,596	-0,103	0,070
-603,371	379,988	0,081	0,123
-602,357	57,493	0,167	0,121
-601,342	25,406	0,147	0,090
-600,328	-49,868	-0,088	0,031
-599,313	800,000	0,049	0,100
-598,298	-200,000	0,005	-0,064
-597,284	-52,996	0,032	0,011
-596,269	91,058	0,034	-0,028
-595,255	55,158	0,050	0,036
-594,240	226,999	0,057	-0,068
-593,225	-200,000	-0,059	-0,206
-592,211	-5,565	0,057	-0,029
-591,196	-25,939	0,083	-0,036
-590,182	-17,712	0,048	-0,022
-589,167	354,442	0,098	0,145
-588,152	-135,599	-0,035	0,003
-587,138	171,052	-0,077	-0,082
-586,123	800,000	-0,030	-0,094
-585,109	-137,720	-0,121	-0,010
-584,094	-144,537	-0,121	0,008
-583,079	-91,298	0,166	0,035
-582,065	-200,000	-0,028	0,145
-581,050	-173,736	0,224	0,005
-580,036	658,691	0,057	0,109
-579,021	-200,000	-0,013	-0,055
-578,006	334,843	0,063	-0,090
-576,992	453,878	-0,050	-0,081
-575,977	15,027	0,069	-0,040
-574,963	-16,274	0,055	-0,026
-573,948	800,000	0,078	-0,192
-572,934	428,804	-0,043	-0,069
-571,919	-200,000	-0,032	-0,132
-570,904	-39,032	-0,079	0,031
-569,890	-72,820	0,043	-0,012
-568,875	486,038	0,076	0,128
-567,861	-200,000	-0,016	-0,103
-566,846	301,125	0,031	-0,043
-565,831	17,619	0,050	0,029
-564,817	1,503	0,051	0,027
-563,802	-200,000	0,008	-0,142
-562,788	-125,542	0,103	-0,011
-561,773	323,692	-0,061	-0,086
-560,758	166,307	0,107	0,112
-559,744	-37,606	0,034	0,013
-558,729	43,564	0,070	-0,047
-557,715	16,469	-0,007	-0,004
-556,700	701,991	-0,065	-0,127
-555,685	-108,687	-0,069	-0,011
-554,671	-98,686	-0,127	-0,024
-553,656	83,219	0,044	-0,036
-552,642	303,165	0,063	-0,086
-551,627	171,779	-0,068	0,072
-550,612	575,161	0,060	0,108
-549,598	-200,000	-0,012	-0,122
-548,583	-24,917	-0,093	-0,041
-547,569	-200,000	0,003	0,059
-546,554	318,028	-0,028	0,040
-545,539	-200,000	0,029	0,141
-544,525	73,510	0,109	0,084
-543,510	27,207	-0,044	0,027
-542,496	-152,571	-0,062	0,003
-541,481	-85,239	0,092	-0,021
-540,466	66,933	0,089	-0,067
-539,452	-122,150	-0,099	-0,012
-538,437	797,735	0,037	0,076
-537,423	-200,000	-0,001	0,110
-536,408	163,562	-0,057	0,059
-535,393	11,096	-0,109	-0,061
-534,379	22,853	-0,070	0,042
-533,364	-70,981	-0,151	0,042
-532,350	1,440	-0,060	-0,031
-531,335	-51,926	0,083	0,028
-530,321	-66,074	0,127	-0,037
-529,306	713,152	0,009	-0,018
-528,291	-200,000	0,017	-0,207
-527,277	612,670	-0,051	-0,094
-526,262	-200,000	0,005	0,058
-525,248	12,344	-0,026	0,015
-524,233	123,236	0,055	0,051
-523,218	658,846	0,021	0,039
-522,204	30,880	0,101	-0,064
-521,189	88,287	-0,070	0,057
-520,175	-200,000	0,004	0,033
-519,160	-200,000	-0,026	-0,085
-518,145	249,877	0,085	-0,107
-517,131	-53,977	0,071	0,024
-516,116	-4,023	-0,148	0,075
-515,102	-21,668	0,049	-0,022
-514,087	281,858	-0,056	-0,074
-513,072	800,000	0,025	0,053
-512,058	800,000	-0,079	-0,215
-511,043	800,000	0,056	0,129
-510,029	566,148	0,048	-0,087
-509,014	285,923	-0,025	0,033
-507,999	160,324	-0,092	-0,095
-506,985	-2,016	-0,103	-0,053
-505,970	800,000	-0,012	-0,028
-504,956	382,214	0,122	-0,186
-503,941	95,707	0,064	-0,054
-502,926	383,527	0,078	0,119
-501,912	561,025	-0,026	0,046
-500,897	220,213	0,082	0,097
-499,883	-56,847	-0,079	0,026
-498,868	800,000	0,020	0,055
-497,853	48,342	0,096	-0,066
-496,839	-48,990	0,075	-0,026
-495,824	-11,626	-0,094	0,045
-494,810	202,018	0,020	-0,022
-493,795	-200,000	-0,035	0,118
-492,781	-200,000	0,023	-0,113
-491,766	12,418	-0,064	0,036
-490,751	243,148	0,028	-0,035
-489,737	-155,993	-0,072	-0,003
-488,722	800,000	0,049	-0,108
-487,708	4,913	0,073	-0,039
-486,693	487,835	0,115	-0,193
-485,678	71,065	0,147	0,112
-484,664	716,698	-0,005	0,010
-483,649	-200,000	-0,008	-0,091
-482,635	-44,071	-0,096	0,035
-481,620	-140,106	0,148	-0,011
-480,605	-31,613	-0,077	-0,031
-479,591	-33,013	-0,097	-0,039
-478,576	800,000	-0,011	-0,025
-477,562	-200,000	-0,007	-0,186
-476,547	-72,452	-0,097	0,026
-475,532	215,709	-0,034	-0,040
-474,518	-121,783	0,080	0,010
-473,503	72,783	-0,146	0,112
-472,489	-132,652	-0,063	-0,006
-471,474	219,313	-0,121	0,143
-470,459	-7,258	-0,038	0,019
-469,445	706,006	-0,051	-0,100
-468,430	-74,191	-0,131	-0,035
-467,416	-145,819	0,140	-0,009
-466,401	-200,000	0,016	-0,060
-465,386	457,130	-0,041	-0,066
-464,372	74,902	-0,043	0,033
-463,357	473,440	0,070	-0,117
-462,343	-81,529	0,097	-0,023
-461,328	-13,685	-0,093	-0,044
-460,313	-54,290	0,089	-0,030
-459,299	191,079	0,076	-0,084
-458,284	-200,000	0,034	-0,218
-457,270	192,125	-0,055	-0,061
-456,255	71,266	-0,049	0,038
-455,241	800,000	0,078	-0,189
-454,226	800,000	0,038	-0,116
-453,211	213,995	0,097	0,112
-452,197	-200,000	-0,046	0,175
-451,182	-200,000	-0,017	0,088
-450,168	-200,000	-0,009	0,076
-449,153	509,040	0,019	-0,033
-448,138	8,657	-0,108	0,060
-447,124	13,846	0,027	0,015
-446,109	-200,000	0,003	-0,060
-445,095	222,649	-0,013	0,015
-444,080	292,999	-0,068	-0,092
-443,065	-200,000	-0,007	0,096
-442,051	800,000	-0,050	-0,119
-441,036	65,549	0,028	-0,021
-440,022	18,862	-0,051	0,030
-439,007	-65,574	-0,084	-0,024
-437,992	-116,506	0,230	0,031
-436,978	-146,507	0,105	-0,007
-435,963	-200,000	-0,002	0,011
-434,949	775,745	0,012	-0,024
-433,934	566,015	0,051	-0,091
-432,919	-27,304	-0,016	0,007
-431,905	292,136	0,058	0,078
-430,890	-200,000	-0,009	0,126
-429,876	653,936	0,033	0,063
-428,861	-200,000	-0,022	0,203
-427,846	87,693	0,103	0,084
-426,832	-200,000	-0,001	0,077
-425,817	360,212	-0,058	-0,085
-424,803	-200,000	-0,013	-0,098
-423,788	-11,164	0,015	0,007
-422,773	112,233	0,119	-0,105
-421,759	119,256	0,035	0,031
-420,744	800,000	0,020	-0,051
-419,730	95,850	-0,062	-0,052
-418,715	800,000	-0,037	-0,111
-417,701	8,713	-0,145	-0,080
-416,686	-42,973	0,129	0,048
-415,671	-17,425	0,065	0,030
-414,657	504,177	0,063	-0,107
-413,642	155,262	-0,024	0,024
-412,628	-200,000	0,072	0,000
-411,613	66,835	0,057	-0,043
-410,598	161,275	-0,057	0,058
-409,584	85,425	0,053	-0,043
-408,569	-79,154	0,189	0,047
-407,555	-200,000	0,014	-0,047
-406,540	-119,623	-0,057	0,007
-405,525	800,000	-0,090	0,193
-404,511	-200,000	-0,022	-0,089
-403,496	800,000	0,029	-0,078
-402,482	306,058	0,032	0,044
-401,467	2,261	0,108	0,057
-400,452	215,286	0,077	-0,089
-399,438	-78,929	0,090	-0,022
-398,423	-200,000	-0,008	-0,073
-397,409	-166,632	-0,154	-0,005
-396,394	800,000	-0,022	-0,049
-395,379	800,000	-0,005	-0,014
-394,365	-192,637	0,124	0,001
-393,350	362,703	0,034	0,050
-392,336	126,346	-0,061	0,057
-391,321	-37,420	-0,021	-0,008
-390,306	161,751	-0,023	-0,024
-389,292	-200,000	-0,009	-0,077
-388,277	200,934	-0,048	0,055
-387,263	800,000	-0,071	0,173
-386,248	241,242	-0,116	0,142
-385,233	10,186	0,071	-0,039
-384,219	800,000	-0,020	0,057
-383,204	800,000	0,038	-0,085
-382,190	-200,000	0,010	0,091
-381,175	740,979	0,011	0,023
-380,160	-200,000	0,018	-0,122
-379,146	-13,926	-0,012	0,006
-378,131	-45,511	-0,103	0,037
-377,117	65,332	0,111	0,082
-376,102	296,940	-0,098	-0,133
-375,088	-126,464	-0,133	-0,014
-374,073	157,723	-0,048	-0,049
-373,058	398,249	-0,045	-0,070
-372,044	-124,571	0,055	-0,006
-371,029	-200,000	-0,000	-0,004
-370,015	-78,782	-0,111	0,028
-369,000	800,000	-0,028	0,077
-367,985	785,053	0,047	-0,094
-366,971	581,857	-0,042	-0,075
-365,956	-200,000	-0,003	0,094
-364,942	-200,000	0,049	0,176
-363,927	348,736	-0,055	0,079
-362,912	800,000	-0,026	-0,054
-361,898	-161,312	0,080	-0,003
-360,883	-84,663	-0,034	0,008
-359,869	800,000	-0,070	-0,160
-358,854	-200,000	-0,022	-0,082
-357,839	112,357	0,097	0,086
-356,825	70,088	-0,045	0,034
-355,810	-200,000	0,008	0,030
-354,796	-103,949	-0,046	0,008
-353,781	-0,788	-0,113	0,058
-352,766	-34,840	-0,093	0,037
-351,752	800,000	0,049	0,120
-350,737	13,901	-0,066	0,037
-349,723	482,173	-0,097	-0,162
-348,708	-19,223	-0,039	0,018
-347,693	800,000	-0,035	-0,081
-346,679	-37,386	-0,039	-0,015
-345,664	-101,259	0,041	0,007
-344,650	-7,956	-0,046	-0,023
-343,635	434,846	-0,051	0,082
-342,620	62,863	-0,092	0,067
-341,606	800,000	-0,058	0,159
-340,591	73,195	0,047	0,036
-339,577	275,711	0,047	0,061
-338,562	41,143	-0,050	-0,033
-337,548	-88,848	-0,089	-0,019
-336,533	-200,000	0,012	0,093
-335,518	129,136	-0,092	-0,085
-334,504	61,845	0,133	-0,096
-333,489	171,289	-0,101	0,106
-332,475	-200,000	-0,026	-0,190
-331,460	-200,000	-0,026	-0,177
-330,445	800,000	-0,019	0,047
-329,431	289,322	0,054	0,072
-328,416	-200,000	-0,012	-0,043
-327,402	-169,376	0,039	0,001
-326,387	-200,000	0,016	-0,082
-325,372	47,454	-0,111	-0,075
-324,358	661,892	0,047	-0,088
-323,343	684,234	0,059	-0,112
-322,329	114,754	-0,086	0,077
-321,314	376,444	0,038	0,057
-320,299	-196,343	-0,169	-0,001
-319,285	458,468	0,072	-0,118
-318,270	-200,000	0,009	-0,034
-317,256	404,644	-0,048	0,074
-316,241	60,794	0,070	0,051
-315,226	-16,894	0,075	-0,034
-314,212	252,409	0,089	0,111
-313,197	49,446	0,082	0,057
-312,183	-78,435	0,078	0,019
-311,168	219,917	-0,092	0,108
-310,153	81,775	-0,101	-0,080
-309,139	60,823	0,020	-0,014
-308,124	-39,879	-0,070	0,027
-307,110	-200,000	0,033	-0,129
-306,095	-200,000	-0,000	-0,028
-305,080	75,173	-0,057	-0,044
-304,066	-200,000	-0,139	0,000
-303,051	77,275	-0,065	-0,051
-302,037	-77,904	-0,045	-0,011
-301,022	-16,907	-0,058	0,027
-300,008	-200,000	-0,017	-0,061
-298,993	800,000	0,059	-0,127
-297,978	-123,206	0,230	-0,027
-296,964	-200,000	-0,001	-0,114
-295,949	672,440	0,022	-0,042
-294,935	-200,000	-0,037	0,124
-293,920	218,583	0,004	-0,005
-292,905	-117,477	0,036	0,005
-291,891	-40,738	0,085	0,032
-290,876	800,000	0,057	-0,150
-289,862	-59,754	-0,040	0,012
-288,847	178,015	-0,036	-0,038
-287,832	12,309	0,031	-0,018
-286,818	800,000	0,032	-0,070
-285,803	-121,336	-0,107	-0,013
-284,789	-200,000	0,002	0,045
-283,774	53,290	-0,113	0,079
-282,759	-75,034	-0,116	0,030
-281,745	81,011	0,070	0,055
-280,730	800,000	0,025	0,061
-279,716	250,679	0,018	0,022
-278,701	158,272	0,107	0,109
-277,686	53,353	0,067	0,047
-276,672	-79,433	0,092	0,023
-275,657	-200,000	-0,048	0,239
-274,643	130,665	-0,027	-0,025
-273,628	-200,000	0,020	-0,119
-272,613	800,000	-0,010	-0,031
-271,599	-22,394	0,188	0,083
-270,584	457,729	-0,048	0,078
-269,570	800,000	-0,022	0,070
-268,555	743,945	-0,048	0,096
-267,540	20,650	0,037	-0,022
-266,526	-114,023	0,006	-0,001
-265,511	-30,881	-0,016	-0,007
-264,497	71,759	-0,062	0,047
-263,482	277,239	0,093	0,121
-262,467	800,000	-0,002	-0,006
-261,453	21,116	0,096	-0,057
-260,438	-185,026	-0,063	-0,001
-259,424	800,000	0,055	-0,123
-258,409	-16,084	-0,174	-0,080
-257,395	800,000	0,043	0,119
-256,380	635,113	0,106	0,197
-255,365	-200,000	0,002	-0,027
-254,351	800,000	-0,051	0,136
-253,336	-200,000	-0,005	-0,080
-252,322	-72,356	0,080	-0,022
-251,307	-2,354	-0,038	0,019
-250,292	-200,000	0,008	-0,072
-249,278	66,874	-0,057	-0,042
-248,263	129,819	0,094	0,088
-247,249	227,822	0,059	0,071
-246,234	-32,454	0,181	0,073
-245,219	-103,193	-0,252	-0,043
-244,205	800,000	0,039	-0,106
-243,190	-200,000	-0,018	0,069
-242,176	-93,447	-0,026	0,005
-241,161	86,118	-0,052	0,041
-240,146	-200,000	-0,030	-0,099
-239,132	-200,000	-0,002	0,121
-238,117	-200,000	-0,005	-0,092
-237,103	-200,000	0,012	-0,060
-236,088	5,287	0,059	0,031
-235,073	-200,000	-0,004	0,101
-234,059	-56,296	-0,072	0,023
-233,044	-165,855	-0,037	0,001
-232,030	563,694	0,016	-0,029
-231,015	592,959	0,041	0,073
-230,000	262,459	0,041	-0,051
-228,986	139,045	-0,069	0,066
-227,971	-200,000	0,001	0,021
-226,957	-24,264	0,131	-0,057
-225,942	-12,633	-0,090	-0,043
-224,927	-200,000	-0,015	-0,106
-223,913	102,637	0,078	0,066
-222,898	800,000	-0,034	0,086
-221,884	800,000	-0,035	0,095
-220,869	-84,004	0,043	-0,010
-219,855	343,902	-0,098	0,140
-218,840	800,000	0,012	0,029
-217,825	-184,318	-0,116	-0,001
-216,811	-200,000	0,003	0,081
-215,796	469,407	-0,070	-0,115
-214,782	375,039	0,043	-0,064
-213,767	-74,845	0,103	-0,027
-212,752	244,845	0,039	0,048
-211,738	109,295	0,084	0,073
-210,723	-200,000	0,007	-0,046
-209,709	-200,000	-0,011	-0,097
-208,694	471,148	0,032	-0,052
-207,679	-200,000	0,004	-0,117
-206,665	41,222	0,097	-0,064
-205,650	228,549	0,068	0,081
-204,636	-200,000	-0,031	0,146
-203,621	-110,662	-0,043	-0,006
-202,606	103,584	0,098	-0,084
-201,592	363,048	0,092	-0,136
-200,577	114,191	-0,093	-0,082
-199,563	153,175	0,053	0,053
-198,548	-200,000	0,015	0,194
-197,533	-200,000	-0,014	0,144
-196,519	134,933	0,058	-0,055
-195,504	-67,980	-0,116	0,033
-194,490	-200,000	-0,035	-0,162
-193,475	-49,296	0,174	0,060
-192,460	800,000	-0,034	0,101
-191,446	800,000	0,042	0,102
-190,431	62,626	0,059	0,043
-189,417	800,000	0,027	0,061
-188,402	-200,000	0,008	0,027
-187,387	33,772	-0,054	0,034
-186,373	-174,453	-0,129	0,003
-185,358	83,256	-0,054	-0,043
-184,344	77,916	0,069	0,054
-183,329	163,739	0,018	0,019
-182,315	14,706	0,065	0,037
-181,300	-87,393	-0,067	-0,015
-180,285	-145,317	-0,108	-0,007
-179,271	800,000	0,031	0,073
-178,256	28,558	0,095	0,059
-177,242	94,474	-0,106	0,087
-176,227	247,533	0,094	0,116
-175,212	-200,000	0,007	0,073
-174,198	-200,000	0,040	0,145
-173,183	16,493	-0,098	-0,056
-172,169	800,000	-0,014	-0,032
-171,154	287,828	0,045	-0,060
-170,139	573,023	0,036	-0,064
-169,125	-29,898	-0,059	0,024
-168,110	800,000	-0,026	0,058
-167,096	24,937	0,111	-0,067
-166,081	-98,699	0,070	-0,013
-165,066	-55,070	-0,102	0,033
-164,052	-200,000	0,042	0,182
-163,037	473,763	-0,044	0,072
-162,023	3,485	0,024	-0,013
-161,008	-113,395	0,083	-0,012
-159,993	-200,000	0,001	-0,010
-158,979	595,072	0,030	0,054
-157,964	360,471	0,054	-0,079
-156,950	-161,909	-0,130	0,005
-155,935	-200,000	0,010	0,068
-154,920	-91,941	-0,084	-0,017
-153,906	800,000	-0,021	0,057
-152,891	166,364	-0,173	0,178
-151,877	-200,000	-0,012	-0,133
-150,862	-200,000	0,001	-0,076
-149,847	800,000	0,027	-0,074
-148,833	-70,608	-0,125	0,034
-147,818	-200,000	-0,015	-0,056
-146,804	-19,863	0,091	0,040
-145,789	-147,440	-0,140	0,008
-144,775	-166,680	-0,137	0,004
-143,760	-47,825	0,045	0,016
-142,745	10,491	-0,046	-0,026
-141,731	-200,000	-0,010	-0,038
-140,716	-200,000	0,004	0,096
-139,702	-200,000	0,020	0,226
-138,687	800,000	0,035	0,096
-137,672	146,774	0,025	0,024
-136,658	-60,771	-0,098	-0,030
-135,643	-200,000	-0,045	-0,235
-134,629	94,708	-0,036	-0,030
-133,614	-58,461	0,053	0,017
-132,599	-200,000	0,035	0,139
-131,585	800,000	0,024	0,065
-130,570	-56,224	0,025	0,008
-129,556	-200,000	0,001	-0,019
-128,541	309,036	0,018	-0,024
-127,526	-21,733	0,098	-0,043
-126,512	800,000	-0,020	0,062
-125,497	-200,000	0,001	0,068
-124,483	173,640	0,054	-0,057
-123,468	-200,000	0,015	-0,084
-122,453	114,153	-0,052	0,046
-121,439	-25,226	-0,086	-0,037
-120,424	-152,733	-0,097	-0,005
-119,410	-200,000	-0,004	0,124
