DTS Sentinel unit serial number:	SN410029Multiplexer serial number:	ORYXHardware model number:	OX2-SRSoftware version number:	ORYX F/W v4,00 Oryx Data Collector v3.7.2.0data status	okinstallation	B6 Nyhavnadifferential loss correction	single-endedforward channel	channel 2reverse channel	N/Adate	2023/12/07time	11:30:08forward acquisition time	300,00reverse acquisition time	0,00gamma	499,1914k internal	0,3202k external	0,3202temperature offset calibration	1,0000default loss term (dB/km)	0,3820temperature slope calibration	1,0000multiplexer offset coefficient	1,0000multiplexer slope coefficient	1,0000fibre end	0,00T internal ref (°C)	8,51T ext. ref 1 (°C)	-5,39T ext. ref 2 (°C)	-5,40length (m)	temperature (°C)	Stokes	anti-Stokes-744,400	60,208	0,196	0,141
-743,385	-87,132	-0,342	-0,075
-742,371	199,265	0,131	0,147
-741,356	-132,769	-0,349	0,032
-740,342	115,503	0,223	0,198
-739,327	2,299	-0,147	-0,077
-738,312	-37,745	0,188	0,072
-737,298	-104,580	-0,442	-0,073
-736,283	-166,066	0,182	-0,006
-735,269	-85,161	-0,333	-0,075
-734,254	77,349	0,170	0,131
-733,239	-22,890	-0,640	-0,279
-732,225	-26,263	0,236	0,100
-731,210	13,268	-0,020	-0,011
-730,196	-59,644	0,059	-0,018
-729,181	-108,782	-0,122	0,019
-728,167	800,000	-0,032	0,081
-727,152	-200,000	0,010	-0,035
-726,137	42,016	-0,026	0,017
-725,123	-98,145	-0,072	0,013
-724,108	-44,241	-0,095	0,035
-723,094	209,891	-0,127	-0,145
-722,079	-200,000	0,019	-0,128
-721,064	-200,000	-0,024	0,187
-720,050	8,187	0,063	0,034
-719,035	141,388	-0,031	-0,029
-718,021	-200,000	-0,022	-0,112
-717,006	800,000	-0,059	-0,130
-715,991	800,000	-0,077	-0,242
-714,977	766,464	-0,061	-0,120
-713,962	-43,830	-0,036	-0,013
-712,948	315,984	0,098	-0,134
-711,933	376,719	0,030	0,045
-710,918	-48,650	-0,119	-0,041
-709,904	-200,000	0,016	-0,160
-708,889	-200,000	-0,036	-0,169
-707,875	80,671	-0,053	0,041
-706,860	12,675	0,123	0,069
-705,845	-144,284	-0,011	0,001
-704,831	-4,389	0,053	-0,026
-703,816	265,147	0,068	-0,086
-702,802	-75,043	0,062	-0,016
-701,787	1,164	0,069	0,036
-700,772	800,000	0,008	0,019
-699,758	-200,000	0,027	0,098
-698,743	-153,160	0,083	-0,004
-697,729	800,000	-0,014	0,033
-696,714	-182,504	0,062	-0,001
-695,699	24,515	-0,073	-0,044
-694,685	-200,000	0,001	-0,007
-693,670	-41,959	-0,172	0,063
-692,656	800,000	-0,045	0,105
-691,641	429,558	-0,050	0,079
-690,627	800,000	-0,036	0,111
-689,612	-200,000	0,008	-0,052
-688,597	-200,000	0,007	0,112
-687,583	-153,987	0,118	0,006
-686,568	344,309	0,077	-0,110
-685,554	-200,000	-0,014	-0,109
-684,539	-200,000	-0,002	-0,119
-683,524	-200,000	0,008	0,026
-682,510	174,499	0,032	-0,034
-681,495	-51,734	-0,152	-0,051
-680,481	800,000	-0,080	-0,193
-679,466	-119,687	0,061	-0,008
-678,451	-58,551	-0,082	0,026
-677,437	49,810	0,072	0,049
-676,422	-47,500	-0,041	0,014
-675,408	-55,392	-0,041	0,013
-674,393	-152,827	-0,020	0,001
-673,378	155,822	-0,044	0,044
-672,364	800,000	-0,028	0,072
-671,349	14,845	-0,147	-0,083
-670,335	8,152	0,128	0,069
-669,320	800,000	0,023	0,053
-668,305	223,496	0,045	-0,053
-667,291	800,000	0,035	0,106
-666,276	-147,646	0,152	0,009
-665,262	-42,707	-0,140	-0,051
-664,247	800,000	0,031	-0,063
-663,232	-63,859	-0,224	-0,066
-662,218	107,705	0,050	-0,043
-661,203	576,805	0,038	0,067
-660,189	800,000	0,025	0,057
-659,174	87,821	-0,048	0,038
-658,159	336,668	-0,108	-0,152
-657,145	-200,000	0,028	-0,132
-656,130	23,842	-0,063	-0,038
-655,116	-151,939	-0,033	0,002
-654,101	-21,886	0,063	0,028
-653,086	800,000	0,061	-0,139
-652,072	149,657	-0,120	0,118
-651,057	-179,229	-0,054	0,001
-650,043	-200,000	-0,001	-0,025
-649,028	-84,815	-0,052	-0,012
-648,014	800,000	-0,017	-0,042
-646,999	-200,000	-0,007	-0,088
-645,984	-200,000	0,028	0,098
-644,970	235,407	-0,092	-0,110
-643,955	-9,073	-0,026	-0,013
-642,941	42,594	-0,081	-0,054
-641,926	-107,615	-0,124	-0,019
-640,911	-45,252	0,057	0,021
-639,897	-117,502	-0,076	0,010
-638,882	202,705	0,025	0,028
-637,868	15,193	-0,105	-0,060
-636,853	-200,000	-0,002	0,060
-635,838	73,275	0,057	0,043
-634,824	220,158	-0,025	-0,029
-633,809	512,766	0,079	-0,134
-632,795	-200,000	0,026	0,087
-631,780	-114,003	0,066	-0,009
-630,765	-120,739	-0,089	-0,011
-629,751	-32,938	-0,073	0,029
-628,736	100,869	0,017	0,014
-627,722	708,287	-0,032	-0,061
-626,707	-200,000	-0,002	0,136
-625,692	606,020	0,055	0,100
-624,678	-200,000	0,017	0,061
-623,663	-81,162	-0,117	0,028
-622,649	-200,000	-0,004	0,078
-621,634	-115,862	-0,104	0,014
-620,619	-80,088	0,066	-0,016
-619,605	-200,000	-0,051	0,166
-618,590	800,000	0,031	0,099
-617,576	56,162	0,065	0,046
-616,561	-200,000	0,017	-0,077
-615,546	-200,000	-0,009	-0,046
-614,532	-200,000	0,002	-0,128
-613,517	800,000	-0,050	-0,114
-612,503	-200,000	-0,010	-0,123
-611,488	-200,000	-0,006	0,084
-610,474	-120,421	0,080	-0,010
-609,459	133,972	0,043	0,040
-608,444	-115,657	-0,051	0,007
-607,430	-159,523	-0,204	-0,008
-606,415	800,000	-0,017	-0,041
-605,401	-111,297	0,061	0,009
-604,386	-200,000	0,012	0,050
-603,371	21,879	0,090	-0,053
-602,357	-123,700	0,080	0,009
-601,342	680,433	-0,064	-0,120
-600,328	39,616	-0,111	-0,072
-599,313	-200,000	0,032	-0,160
-598,298	-200,000	-0,010	-0,038
-597,284	-8,826	0,128	0,062
-596,269	-200,000	0,025	-0,122
-595,255	-34,298	-0,145	-0,057
-594,240	715,522	-0,044	-0,084
-593,225	-111,351	0,096	0,014
-592,211	800,000	0,019	0,061
-591,196	-46,840	0,045	-0,016
-590,182	-200,000	0,025	0,092
-589,167	-2,995	0,064	0,032
-588,152	437,263	0,010	-0,015
-587,138	193,350	-0,074	0,081
-586,123	-61,056	-0,069	0,021
-585,109	-116,689	-0,094	0,012
-584,094	800,000	-0,042	-0,129
-583,079	68,202	-0,101	-0,075
-582,065	-200,000	-0,019	-0,139
-581,050	800,000	-0,057	-0,130
-580,036	9,915	-0,150	-0,082
-579,021	58,896	0,047	-0,033
-578,006	-10,895	0,042	0,020
-576,992	122,295	-0,058	0,053
-575,977	-200,000	-0,009	-0,047
-574,963	-91,078	0,092	-0,019
-573,948	-200,000	-0,020	0,122
-572,934	343,329	-0,077	-0,109
-571,919	239,732	-0,075	-0,090
-570,904	178,303	-0,036	-0,038
-569,890	-16,061	0,116	-0,053
-568,875	221,612	0,064	-0,074
-567,861	-200,000	0,009	-0,070
-566,846	-135,045	-0,074	-0,006
-565,831	645,992	0,023	0,042
-564,817	361,152	-0,020	0,029
-563,802	75,798	-0,149	-0,114
-562,788	-101,621	-0,059	-0,010
-561,773	588,793	0,015	-0,027
-560,758	-42,365	0,125	0,046
-559,744	4,459	-0,096	-0,050
-558,729	-141,049	0,119	0,009
-557,715	85,948	-0,049	0,039
-556,700	64,052	-0,182	-0,132
-555,685	0,346	-0,015	0,008
-554,671	-101,171	0,031	-0,005
-553,656	-93,993	0,105	0,021
-552,642	-20,027	-0,210	0,093
-551,627	109,131	0,072	-0,062
-550,612	352,467	-0,007	-0,009
-549,598	-76,968	-0,170	0,043
-548,583	296,707	0,029	-0,038
-547,569	-129,703	-0,027	0,003
-546,554	174,357	0,041	0,043
-545,539	321,986	0,064	-0,088
-544,525	20,211	0,164	0,095
-543,510	-200,000	0,006	-0,061
-542,496	-60,499	0,064	-0,019
-541,481	-32,754	-0,162	-0,065
-540,466	172,704	0,005	0,005
-539,452	-200,000	-0,017	0,098
-538,437	104,826	-0,029	0,024
-537,423	-67,211	0,111	0,031
-536,408	122,810	-0,129	0,117
-535,393	131,383	-0,032	-0,030
-534,379	-200,000	0,016	-0,069
-533,364	-200,000	-0,004	-0,037
-532,350	-28,686	0,147	0,061
-531,335	160,092	-0,130	0,131
-530,321	11,090	-0,075	-0,041
-529,306	54,477	-0,128	-0,089
-528,291	136,871	-0,011	-0,010
-527,277	-200,000	0,014	-0,242
-526,262	-115,017	-0,039	-0,005
-525,248	282,267	0,094	-0,122
-524,233	168,031	0,068	0,070
-523,218	403,822	0,053	-0,081
-522,204	-200,000	-0,008	-0,096
-521,189	444,441	-0,055	-0,087
-520,175	-200,000	-0,024	-0,113
-519,160	128,193	0,082	0,076
-518,145	315,837	0,040	-0,055
-517,131	-200,000	-0,003	0,127
-516,116	-200,000	-0,010	0,052
-515,102	179,315	0,080	-0,084
-514,087	800,000	0,045	-0,103
-513,072	234,167	-0,065	-0,077
-512,058	83,973	-0,120	0,094
-511,043	-200,000	-0,001	-0,056
-510,029	511,601	-0,019	0,032
-509,014	-115,380	-0,068	-0,009
-507,999	800,000	-0,026	0,067
-506,985	346,592	-0,047	-0,067
-505,970	-200,000	0,031	-0,151
-504,956	-200,000	0,008	-0,132
-503,941	275,525	-0,051	0,066
-502,926	301,110	0,080	0,106
-501,912	494,294	-0,063	-0,105
-500,897	13,844	0,023	-0,013
-499,883	226,426	-0,082	-0,096
-498,868	158,445	0,074	-0,074
-497,853	18,073	-0,142	0,082
-496,839	19,116	0,083	-0,048
-495,824	275,538	0,032	-0,041
-494,810	-142,177	0,145	-0,010
-493,795	-142,014	-0,161	-0,011
-492,781	-114,586	0,030	-0,004
-491,766	146,115	0,039	0,038
-490,751	123,031	0,056	0,051
-489,737	800,000	-0,037	0,085
-488,722	800,000	0,061	0,134
-487,708	800,000	-0,023	-0,064
-486,693	-2,173	-0,043	0,022
-485,678	800,000	0,029	0,070
-484,664	181,849	-0,114	-0,121
-483,649	-144,605	-0,085	-0,006
-482,635	-200,000	-0,015	0,057
-481,620	-200,000	-0,007	-0,135
-480,605	370,284	-0,061	0,089
-479,591	-103,886	0,058	-0,010
-478,576	-52,888	-0,085	0,028
-477,562	246,078	0,036	-0,043
-476,547	61,073	-0,041	0,030
-475,532	20,752	0,053	0,031
-474,518	-200,000	0,001	0,108
-473,503	132,370	0,064	0,060
-472,489	-121,468	-0,221	-0,026
-471,474	-53,811	-0,135	0,044
-470,459	27,932	-0,061	-0,037
-469,445	-169,471	-0,044	0,001
-468,430	-200,000	-0,002	-0,036
-467,416	72,453	0,205	0,153
-466,401	-200,000	0,005	-0,046
-465,386	-200,000	0,003	-0,060
-464,372	554,204	0,048	-0,084
-463,357	222,975	0,065	-0,075
-462,343	-200,000	-0,034	-0,120
-461,328	-140,540	0,078	-0,006
-460,313	164,222	-0,061	0,062
-459,299	-111,357	0,093	-0,014
-458,284	800,000	0,061	0,144
-457,270	579,440	-0,055	-0,098
-456,255	-200,000	-0,003	0,056
-455,241	661,789	0,033	-0,062
-454,226	-200,000	-0,009	-0,055
-453,211	-121,676	0,109	-0,013
-452,197	608,511	0,047	0,084
-451,182	199,364	0,049	0,054
-450,168	41,481	0,071	0,046
-449,153	-66,509	-0,039	0,011
-448,138	-200,000	0,002	-0,006
-447,124	-55,893	-0,126	0,040
-446,109	80,727	0,125	0,097
-445,095	-74,401	-0,061	0,016
-444,080	-200,000	-0,010	0,116
-443,065	-200,000	0,025	0,120
-442,051	-108,731	0,100	-0,015
-441,036	200,247	-0,035	-0,039
-440,022	92,102	-0,021	-0,017
-439,007	92,633	-0,055	-0,045
-437,992	710,860	-0,071	0,135
-436,978	-200,000	-0,002	-0,037
-435,963	-200,000	0,014	-0,101
-434,949	-200,000	0,001	0,039
-433,934	226,349	0,012	0,013
-432,919	263,513	0,117	-0,147
-431,905	-32,404	0,041	0,016
-430,890	323,930	0,058	0,079
-429,876	-86,782	-0,103	0,022
-428,861	198,440	-0,072	0,080
-427,846	192,275	0,079	-0,086
-426,832	127,366	-0,112	-0,102
-425,817	-73,811	0,104	-0,027
-424,803	-69,843	-0,003	0,001
-423,788	221,153	0,081	-0,094
-422,773	-154,364	0,126	0,006
-421,759	-153,376	0,110	-0,005
-420,744	168,008	0,028	0,029
-419,730	-17,727	0,030	0,013
-418,715	481,107	-0,056	-0,092
-417,701	396,603	0,067	-0,101
-416,686	-28,487	0,074	-0,031
-415,671	127,606	0,158	0,144
-414,657	-128,140	0,027	0,003
-413,642	225,169	-0,088	-0,103
-412,628	-200,000	-0,002	-0,019
-411,613	337,808	-0,035	-0,049
-410,598	306,661	-0,107	0,144
-409,584	-9,619	0,231	-0,110
-408,569	330,844	0,085	0,117
-407,555	185,044	-0,084	0,089
-406,540	-200,000	0,160	-0,000
-405,525	622,458	0,026	-0,047
-404,511	73,353	-0,161	0,121
-403,496	302,861	0,037	-0,049
-402,482	-125,864	-0,017	-0,002
-401,467	-35,177	-0,106	0,041
-400,452	-61,130	0,102	-0,031
-399,438	41,296	0,099	-0,064
-398,423	160,305	-0,115	-0,115
-397,409	-64,611	-0,149	-0,043
-396,394	95,606	0,105	-0,085
-395,379	800,000	0,053	0,127
-394,365	-200,000	-0,001	-0,020
-393,350	-46,626	0,066	0,023
-392,336	-120,919	-0,096	0,012
-391,321	-200,000	-0,011	0,087
-390,306	-200,000	-0,011	-0,049
-389,292	-66,461	-0,149	0,042
-388,277	-200,000	0,025	0,101
-387,263	-75,186	-0,137	0,035
-386,248	140,402	0,055	-0,052
-385,233	-85,779	0,170	0,038
-384,219	145,307	0,114	0,110
-383,204	164,855	0,018	-0,018
-382,190	-126,059	-0,007	0,001
-381,175	800,000	-0,021	0,048
-380,160	157,188	-0,093	0,092
-379,146	-142,393	0,045	-0,003
-378,131	-148,516	0,190	0,011
-377,117	-200,000	0,014	0,084
-376,102	-200,000	-0,012	-0,137
-375,088	49,155	-0,128	-0,086
-374,073	800,000	-0,055	-0,129
-373,058	129,715	0,065	0,059
-372,044	353,111	0,036	-0,051
-371,029	800,000	0,006	-0,014
-370,015	298,073	-0,007	0,009
-369,000	112,081	-0,059	-0,051
-367,985	-200,000	0,041	-0,170
-366,971	-144,885	0,027	-0,002
-365,956	280,100	-0,047	-0,060
-364,942	695,670	-0,073	0,138
-363,927	-53,461	-0,088	-0,029
-362,912	167,655	-0,063	-0,064
-361,898	-200,000	0,003	-0,085
-360,883	-200,000	-0,004	-0,037
-359,869	800,000	-0,032	0,089
-358,854	-38,197	-0,090	-0,034
-357,839	-40,243	0,151	0,056
-356,825	-200,000	-0,041	0,135
-355,810	112,423	-0,127	0,110
-354,796	375,335	0,015	-0,022
-353,781	-99,754	-0,071	-0,013
-352,766	632,113	-0,044	-0,080
-351,752	-200,000	-0,030	-0,147
-350,737	-200,000	-0,018	0,076
-349,723	-200,000	-0,025	0,085
-348,708	504,815	-0,015	0,025
-347,693	4,078	0,116	0,060
-346,679	-21,565	-0,012	0,005
-345,664	-200,000	-0,002	-0,052
-344,650	168,802	0,085	0,087
-343,635	79,949	-0,061	0,047
-342,620	322,373	-0,036	-0,049
-341,606	800,000	-0,011	0,027
-340,591	-50,141	0,072	-0,024
-339,577	-200,000	0,010	0,035
-338,562	77,103	0,117	-0,089
-337,548	-158,999	-0,183	0,007
-336,533	173,807	0,127	0,131
-335,518	32,804	0,115	0,071
-334,504	-50,924	-0,075	0,025
-333,489	-159,951	0,094	0,004
-332,475	4,033	0,083	-0,043
-331,460	173,900	-0,083	0,086
-330,445	-147,688	0,066	0,004
-329,431	1,230	0,140	0,072
-328,416	-163,341	0,107	-0,004
-327,402	-97,857	-0,091	-0,017
-326,387	-200,000	-0,005	0,050
-325,372	-119,448	-0,078	0,010
-324,358	-132,273	0,120	-0,011
-323,343	-200,000	0,080	0,000
-322,329	-200,000	-0,010	0,123
-321,314	168,132	-0,036	-0,036
-320,299	62,117	0,060	0,043
-319,285	800,000	-0,035	0,098
-318,270	800,000	-0,032	-0,075
-317,256	28,296	-0,110	-0,066
-316,241	63,483	-0,038	0,027
-315,226	66,251	-0,113	0,082
-314,212	-156,432	0,022	-0,001
-313,197	-200,000	-0,034	0,138
-312,183	-97,420	0,103	-0,019
-311,168	338,194	0,035	0,050
-310,153	-200,000	-0,023	-0,126
-309,139	490,400	0,023	-0,038
-308,124	800,000	0,022	0,063
-307,110	686,339	0,076	0,143
-306,095	-200,000	0,008	0,061
-305,080	288,785	-0,114	0,147
-304,066	162,691	-0,060	-0,060
-303,051	31,049	-0,048	-0,030
-302,037	103,413	0,146	0,122
-301,022	-94,122	0,100	-0,019
-300,008	-91,770	-0,046	0,009
-298,993	-144,704	-0,006	0,000
-297,978	-58,675	-0,084	-0,026
-296,964	-128,677	0,108	-0,011
-295,949	84,364	0,124	-0,097
-294,935	-48,961	-0,027	0,009
-293,920	800,000	0,041	0,089
-292,905	303,440	0,058	0,077
-291,891	212,677	-0,045	0,051
-290,876	201,813	0,048	-0,053
-289,862	792,081	-0,054	0,106
-288,847	-136,895	-0,149	0,012
-287,832	677,244	-0,015	0,028
-286,818	-31,375	0,085	-0,034
-285,803	-200,000	0,040	0,129
-284,789	0,466	0,134	0,068
-283,774	-200,000	-0,020	0,180
-282,759	9,622	-0,129	-0,070
-281,745	128,083	-0,012	0,011
-280,730	-28,074	0,134	0,055
-279,716	-200,000	-0,010	-0,074
-278,701	37,031	-0,056	0,035
-277,686	784,602	0,029	-0,056
-276,672	-200,000	-0,005	0,029
-275,657	-149,780	-0,086	0,005
-274,643	-39,755	0,105	-0,039
-273,628	800,000	-0,025	-0,065
-272,613	8,983	-0,130	-0,070
-271,599	575,036	0,062	0,109
-270,584	-200,000	0,016	-0,074
-269,570	-200,000	0,014	-0,048
-268,555	138,135	-0,055	-0,052
-267,540	308,943	0,031	0,041
-266,526	426,858	-0,041	0,063
-265,511	-66,854	0,116	-0,033
-264,497	-200,000	0,069	0,227
-263,482	-8,877	0,009	-0,004
-262,467	21,917	0,049	0,028
-261,453	-127,122	0,090	-0,009
-260,438	100,189	-0,045	-0,038
-259,424	-4,884	-0,074	-0,036
-258,409	139,063	-0,047	-0,044
-257,395	800,000	0,017	0,053
-256,380	800,000	-0,022	-0,050
-255,365	474,073	-0,054	-0,087
-254,351	767,153	0,087	-0,169
-253,336	-138,151	-0,120	0,009
-252,322	-25,576	-0,095	-0,040
-251,307	800,000	-0,045	-0,135
-250,292	-155,104	0,112	0,005
-249,278	62,874	0,065	0,047
-248,263	-200,000	-0,001	0,011
-247,249	800,000	0,040	-0,088
-246,234	-111,337	-0,102	0,015
-245,219	-200,000	-0,006	-0,045
-244,205	438,160	0,044	0,068
-243,190	12,855	-0,050	-0,028
-242,176	-142,504	0,198	0,014
-241,161	310,864	-0,096	0,128
-240,146	800,000	-0,081	-0,212
-239,132	-89,321	0,049	0,010
-238,117	346,374	0,005	-0,007
-237,103	101,995	0,042	-0,035
-236,088	565,767	0,041	0,072
-235,073	-142,908	0,035	-0,002
-234,059	182,613	0,068	-0,071
-233,044	312,902	-0,098	0,131
-232,030	23,039	0,100	0,058
-231,015	539,784	-0,016	-0,028
-230,000	153,044	-0,112	-0,110
-228,986	-56,626	0,102	-0,032
-227,971	-144,612	-0,104	-0,007
-226,957	100,107	0,102	0,085
-225,942	-58,995	-0,034	-0,010
-224,927	88,745	-0,038	0,030
-223,913	800,000	0,048	-0,136
-222,898	457,315	-0,035	0,055
-221,884	248,991	-0,085	-0,103
-220,869	800,000	-0,059	-0,122
-219,855	-200,000	0,009	-0,181
-218,840	-200,000	0,039	0,129
-217,825	-200,000	-0,002	0,069
-216,811	800,000	-0,031	0,067
-215,796	252,637	-0,077	-0,093
-214,782	2,365	-0,076	-0,039
-213,767	-14,346	0,005	0,002
-212,752	800,000	0,063	-0,141
-211,738	-7,578	0,050	-0,024
-210,723	139,416	-0,092	0,086
-209,709	-200,000	-0,015	-0,163
-208,694	-140,821	-0,036	-0,003
-207,679	-64,893	0,149	-0,043
-206,665	-70,205	0,047	0,013
-205,650	212,753	0,086	0,097
-204,636	642,927	0,066	0,121
-203,621	800,000	0,073	0,170
-202,606	-200,000	-0,017	0,075
-201,592	-197,150	-0,061	-0,000
-200,577	8,082	-0,096	-0,051
-199,563	658,160	0,059	0,109
-198,548	-200,000	0,029	0,095
-197,533	-143,054	0,101	0,007
-196,519	32,937	-0,107	-0,066
-195,504	-200,000	-0,022	-0,077
-194,490	644,639	0,088	-0,160
-193,475	-52,019	0,040	0,013
-192,460	142,850	-0,052	-0,049
-191,446	-68,665	0,020	0,005
-190,431	375,563	0,025	-0,037
-189,417	-70,742	-0,040	-0,011
-188,402	-121,870	0,102	0,012
-187,387	99,525	0,073	-0,060
-186,373	-98,437	-0,066	0,012
-185,358	83,931	0,079	0,061
-184,344	800,000	0,060	0,122
-183,329	-200,000	0,138	0,000
-182,315	800,000	-0,026	0,060
-181,300	800,000	-0,007	-0,016
-180,285	-157,293	-0,069	-0,003
-179,271	-21,738	0,081	0,035
-178,256	800,000	-0,083	0,165
-177,242	-200,000	0,033	0,116
-176,227	34,234	0,110	-0,068
-175,212	800,000	0,025	0,064
-174,198	-60,512	0,023	0,007
-173,183	-200,000	0,005	0,039
-172,169	800,000	-0,041	-0,090
-171,154	-54,913	0,126	0,040
-170,139	18,829	0,037	0,021
-169,125	361,756	0,077	-0,110
-168,110	-200,000	-0,029	0,142
-167,096	194,997	-0,027	0,029
-166,081	-13,610	-0,081	-0,037
-165,066	672,208	0,046	-0,084
-164,052	-47,810	-0,142	0,048
-163,037	800,000	0,042	0,124
-162,023	-200,000	0,005	0,075
-161,008	452,671	-0,080	0,126
-159,993	-200,000	0,011	-0,103
-158,979	66,561	-0,112	0,081
-157,964	166,780	-0,061	0,062
-156,950	800,000	-0,024	0,072
-155,935	276,920	-0,027	0,034
-154,920	-200,000	0,023	0,139
-153,906	-109,392	0,147	0,022
-152,891	144,530	-0,059	0,056
-151,877	103,341	-0,071	-0,059
-150,862	-200,000	-0,001	0,016
-149,847	-143,704	0,039	-0,003
-148,833	-66,270	0,117	0,033
-147,818	-75,512	0,021	0,005
-146,804	800,000	-0,023	-0,046
-145,789	-200,000	0,019	-0,063
-144,775	-200,000	0,001	-0,070
-143,760	-108,902	-0,080	-0,012
-142,745	-200,000	-0,011	-0,054
-141,731	18,989	-0,061	0,035
-140,716	236,609	0,093	0,109
-139,702	-0,497	-0,106	0,053
-138,687	265,057	0,061	0,075
-137,672	247,504	-0,079	-0,095
-136,658	-160,521	0,094	-0,004
-135,643	-57,885	-0,100	0,031
-134,629	-150,096	-0,067	-0,004
-133,614	-200,000	0,025	0,104
-132,599	-81,362	-0,088	-0,020
-131,585	293,092	-0,116	0,151
-130,570	104,669	0,048	0,040
-129,556	163,423	-0,006	0,006
-128,541	232,056	-0,055	-0,064
-127,526	-45,743	-0,135	-0,047
-126,512	71,985	0,042	-0,031
-125,497	-200,000	0,011	0,073
-124,483	24,344	0,021	0,012
-123,468	221,160	0,064	0,073
-122,453	40,754	-0,197	-0,126
-121,439	36,922	0,079	0,049
-120,424	-200,000	0,000	-0,027
-119,410	-200,000	-0,009	-0,152
