DTS Sentinel unit serial number:	SN410029Multiplexer serial number:	ORYXHardware model number:	OX2-SRSoftware version number:	ORYX F/W v4,00 Oryx Data Collector v3.7.2.0data status	okinstallation	B6 Nyhavnadifferential loss correction	single-endedforward channel	channel 2reverse channel	N/Adate	2023/12/10time	13:40:08forward acquisition time	300,00reverse acquisition time	0,00gamma	499,1914k internal	0,3122k external	0,3122temperature offset calibration	1,0000default loss term (dB/km)	0,3820temperature slope calibration	1,0000multiplexer offset coefficient	1,0000multiplexer slope coefficient	1,0000fibre end	0,00T internal ref (°C)	22,75T ext. ref 1 (°C)	6,30T ext. ref 2 (°C)	6,32length (m)	temperature (°C)	Stokes	anti-Stokes-744,400	800,000	0,025	-0,052
-743,385	26,806	-0,181	0,113
-742,371	33,313	-0,024	-0,016
-741,356	-45,355	-0,170	0,063
-740,342	-149,468	0,140	0,008
-739,327	-9,617	-0,142	-0,070
-738,312	800,000	0,053	-0,143
-737,298	12,144	-0,103	0,059
-736,283	-200,000	-0,019	-0,083
-735,269	111,344	-0,160	0,144
-734,254	-200,000	0,003	-0,079
-733,239	-99,701	-0,426	0,079
-732,225	48,041	-0,075	-0,052
-731,210	800,000	-0,020	0,052
-730,196	800,000	-0,013	-0,030
-729,181	424,134	-0,029	0,046
-728,167	175,979	-0,060	-0,064
-727,152	-57,688	0,052	0,017
-726,137	388,614	-0,038	-0,058
-725,123	-200,000	0,010	-0,101
-724,108	602,838	-0,076	-0,142
-723,094	615,356	-0,045	-0,085
-722,079	39,751	0,129	-0,086
-721,064	56,771	-0,086	0,063
-720,050	124,861	0,129	-0,121
-719,035	-115,351	-0,263	-0,037
-718,021	-200,000	-0,003	0,037
-717,006	77,602	0,014	-0,011
-715,991	87,972	-0,104	-0,085
-714,977	-200,000	-0,032	-0,166
-713,962	-200,000	-0,036	-0,127
-712,948	-200,000	0,000	-0,018
-711,933	116,647	-0,126	-0,115
-710,918	170,574	-0,073	-0,078
-709,904	-200,000	0,005	-0,083
-708,889	-94,117	-0,096	-0,019
-707,875	-17,875	-0,173	-0,081
-706,860	696,082	-0,052	0,102
-705,845	73,387	0,130	0,101
-704,831	800,000	-0,008	0,021
-703,816	-69,679	-0,144	0,041
-702,802	-200,000	0,016	-0,091
-701,787	-152,860	-0,141	-0,007
-700,772	-18,998	-0,087	-0,040
-699,758	800,000	0,037	0,112
-698,743	249,063	-0,033	0,042
-697,729	377,598	0,055	-0,084
-696,714	197,203	0,043	0,049
-695,699	-200,000	0,015	0,196
-694,685	800,000	0,016	-0,041
-693,670	-31,046	0,043	-0,018
-692,656	800,000	-0,022	0,045
-691,641	-131,800	0,129	-0,012
-690,627	46,271	-0,082	0,056
-689,612	-90,774	0,133	0,028
-688,597	-200,000	0,008	0,029
-687,583	131,264	-0,153	-0,147
-686,568	800,000	-0,066	-0,165
-685,554	-200,000	0,019	-0,098
-684,539	128,436	0,049	-0,046
-683,524	-56,975	-0,113	0,037
-682,510	800,000	0,098	0,219
-681,495	431,985	-0,097	-0,156
-680,481	-54,493	-0,113	-0,038
-679,466	-128,419	0,074	-0,008
-678,451	-200,000	-0,063	-0,217
-677,437	-200,000	-0,020	0,124
-676,422	-107,189	0,092	0,015
-675,408	575,181	0,043	-0,078
-674,393	69,641	-0,074	-0,056
-673,378	-167,298	0,042	0,001
-672,364	218,080	0,027	-0,032
-671,349	93,475	0,127	-0,107
-670,335	-200,000	0,000	-0,058
-669,320	-67,668	-0,025	-0,007
-668,305	-83,149	0,133	-0,032
-667,291	67,797	-0,203	0,154
-666,276	180,208	-0,079	0,086
-665,262	-200,000	0,028	-0,165
-664,247	56,023	0,061	-0,044
-663,232	240,620	0,104	-0,129
-662,218	-90,828	0,208	0,044
-661,203	-159,853	0,079	0,003
-660,189	309,767	0,034	-0,047
-659,174	613,268	-0,013	0,024
-658,159	94,899	0,030	-0,026
-657,145	-200,000	-0,034	-0,142
-656,130	-200,000	0,000	-0,124
-655,116	179,097	-0,048	0,052
-654,101	160,673	0,046	-0,048
-653,086	-148,004	-0,089	0,005
-652,072	-157,870	-0,114	-0,005
-651,057	-78,082	-0,075	-0,019
-650,043	-29,285	-0,043	-0,018
-649,028	92,492	-0,007	0,006
-648,014	-200,000	0,012	0,063
-646,999	-9,289	0,146	-0,072
-645,984	800,000	0,017	0,053
-644,970	800,000	0,038	0,092
-643,955	-107,596	-0,053	-0,008
-642,941	800,000	0,043	-0,097
-641,926	-200,000	0,001	-0,067
-640,911	349,143	0,069	0,102
-639,897	-22,082	0,017	0,008
-638,882	264,697	-0,035	0,045
-637,868	800,000	0,043	0,097
-636,853	-91,389	-0,138	-0,029
-635,838	6,537	-0,037	-0,020
-634,824	166,426	-0,036	-0,038
-633,809	-200,000	0,006	0,072
-632,795	97,111	0,087	0,074
-631,780	93,941	-0,094	0,079
-630,765	96,308	-0,014	-0,012
-629,751	38,726	-0,043	0,028
-628,736	-200,000	-0,006	0,040
-627,722	800,000	-0,051	-0,125
-626,707	-200,000	0,020	-0,094
-625,692	290,902	0,015	0,021
-624,678	800,000	0,019	-0,054
-623,663	271,906	0,059	-0,078
-622,649	235,597	-0,093	-0,114
-621,634	-104,230	-0,108	0,018
-620,619	-76,326	-0,094	-0,024
-619,605	-200,000	-0,020	0,101
-618,590	57,789	0,013	-0,009
-617,576	-47,067	0,088	-0,032
-616,561	254,708	0,035	-0,044
-615,546	-200,000	0,008	-0,066
-614,532	-22,370	0,059	-0,027
-613,517	84,256	-0,021	-0,017
-612,503	-200,000	-0,013	0,067
-611,488	34,498	0,083	0,053
-610,474	188,067	0,032	0,035
-609,459	229,781	-0,099	0,120
-608,444	-200,000	0,016	0,164
-607,430	-50,073	-0,098	-0,034
-606,415	-200,000	-0,017	0,101
-605,401	30,917	0,023	-0,015
-604,386	800,000	0,020	0,045
-603,371	-71,286	0,033	0,009
-602,357	800,000	0,026	0,066
-601,342	11,634	0,079	-0,045
-600,328	-200,000	0,007	-0,187
-599,313	800,000	-0,010	0,024
-598,298	29,790	-0,048	-0,030
-597,284	345,866	-0,069	0,101
-596,269	-200,000	-0,010	0,122
-595,255	9,033	0,029	-0,016
-594,240	-86,142	0,065	0,015
-593,225	47,150	-0,092	0,063
-592,211	-2,569	-0,133	0,069
-591,196	458,031	0,055	0,091
-590,182	-200,000	0,026	0,108
-589,167	-66,592	0,083	-0,024
-588,152	213,778	-0,130	0,153
-587,138	-10,888	-0,069	-0,034
-586,123	-119,290	-0,107	0,014
-585,109	584,934	0,013	0,024
-584,094	144,189	-0,095	-0,094
-583,079	204,532	-0,079	-0,091
-582,065	-200,000	-0,007	0,082
-581,050	91,441	0,080	0,066
-580,036	-32,923	-0,121	-0,050
-579,021	-69,751	0,052	0,015
-578,006	-142,012	-0,095	-0,007
-576,992	-82,143	0,023	-0,006
-575,977	187,111	-0,063	-0,070
-574,963	800,000	0,019	-0,045
-573,948	800,000	0,018	0,058
-572,934	119,569	-0,167	0,153
-571,919	-200,000	-0,026	0,251
-570,904	800,000	-0,057	-0,176
-569,890	-200,000	-0,004	-0,089
-568,875	154,228	-0,044	-0,044
-567,861	-200,000	0,016	0,076
-566,846	-12,575	0,091	0,044
-565,831	252,687	-0,075	-0,095
-564,817	200,503	0,009	-0,010
-563,802	162,419	-0,073	-0,076
-562,788	800,000	0,013	-0,030
-561,773	-102,490	0,074	-0,013
-560,758	107,038	-0,095	0,084
-559,744	-200,000	-0,007	0,058
-558,729	-59,593	-0,051	-0,016
-557,715	-200,000	-0,045	0,152
-556,700	-89,257	-0,078	-0,017
-555,685	-133,830	-0,063	-0,006
-554,671	188,547	0,033	-0,037
-553,656	-49,349	0,101	-0,035
-552,642	800,000	0,041	0,092
-551,627	-25,234	0,021	0,009
-550,612	-13,201	-0,091	-0,044
-549,598	739,064	-0,057	-0,114
-548,583	-200,000	0,009	-0,119
-547,569	-173,065	-0,066	-0,001
-546,554	169,945	-0,022	-0,023
-545,539	-117,294	0,095	0,013
-544,525	-143,789	-0,107	0,007
-543,510	533,068	0,069	0,122
-542,496	93,881	-0,060	0,050
-541,481	-4,821	-0,035	-0,018
-540,466	10,715	-0,065	0,036
-539,452	-72,202	-0,077	0,021
-538,437	-121,245	-0,066	-0,008
-537,423	-86,263	0,139	0,031
-536,408	-200,000	-0,006	-0,122
-535,393	-200,000	-0,007	-0,139
-534,379	231,448	0,057	-0,069
-533,364	-200,000	-0,009	-0,149
-532,350	-19,863	-0,082	0,037
-531,335	800,000	0,024	-0,067
-530,321	320,289	0,044	-0,062
-529,306	-200,000	-0,010	-0,077
-528,291	-61,964	-0,133	-0,041
-527,277	-7,954	-0,012	-0,006
-526,262	-200,000	0,045	-0,153
-525,248	-53,641	0,115	-0,039
-524,233	-61,905	-0,063	-0,020
-523,218	-200,000	0,015	0,152
-522,204	-200,000	0,019	0,115
-521,189	-200,000	-0,003	-0,018
-520,175	48,008	-0,061	-0,042
-519,160	-200,000	-0,012	-0,085
-518,145	50,756	0,174	-0,121
-517,131	-35,450	0,078	-0,031
-516,116	-83,396	0,028	0,007
-515,102	-115,043	-0,038	0,005
-514,087	-200,000	-0,019	-0,076
-513,072	229,238	-0,084	-0,101
-512,058	-200,000	-0,023	-0,128
-511,043	-145,889	0,056	0,004
-510,029	-13,422	-0,039	-0,019
-509,014	-200,000	-0,015	-0,060
-507,999	-133,620	0,089	0,008
-506,985	-135,364	0,131	0,011
-505,970	582,673	0,034	-0,061
-504,956	-200,000	-0,007	-0,118
-503,941	-89,809	0,072	0,015
-502,926	80,788	0,066	0,053
-501,912	-136,549	0,244	-0,021
-500,897	74,704	0,076	0,059
-499,883	800,000	-0,040	0,102
-498,868	-40,443	-0,170	-0,065
-497,853	90,323	-0,054	0,044
-496,839	323,412	-0,020	-0,028
-495,824	1,274	0,025	0,013
-494,810	139,933	0,018	-0,017
-493,795	-177,033	-0,062	0,001
-492,781	-21,212	0,088	-0,040
-491,766	-9,522	-0,068	-0,033
-490,751	507,641	-0,038	-0,065
-489,737	194,574	0,077	-0,086
-488,722	-200,000	0,013	-0,129
-487,708	13,532	0,154	0,088
-486,693	-200,000	0,025	0,093
-485,678	93,859	0,101	-0,084
-484,664	800,000	-0,025	-0,062
-483,649	37,185	-0,021	0,014
-482,635	-101,841	-0,056	0,010
-481,620	-91,354	-0,078	0,016
-480,605	-70,688	0,196	0,054
-479,591	-76,820	-0,041	-0,011
-478,576	800,000	0,077	0,158
-477,562	-120,763	-0,083	0,010
-476,547	-20,256	0,159	0,072
-475,532	800,000	-0,055	-0,173
-474,518	-134,165	-0,014	0,001
-473,503	382,590	0,066	-0,100
-472,489	-35,949	0,116	0,046
-471,474	-50,554	-0,070	0,024
-470,459	-200,000	-0,027	-0,118
-469,445	-31,313	-0,086	0,036
-468,430	-21,991	-0,101	-0,045
-467,416	243,052	-0,019	-0,024
-466,401	-147,725	-0,095	0,006
-465,386	-39,534	-0,060	0,023
-464,372	-200,000	0,001	-0,006
-463,357	-142,673	0,051	-0,004
-462,343	16,207	0,100	0,058
-461,328	-200,000	-0,028	0,106
-460,313	-200,000	-0,004	-0,030
-459,299	-171,162	-0,065	-0,002
-458,284	366,255	0,085	-0,127
-457,270	370,813	-0,074	0,111
-456,255	800,000	-0,020	-0,046
-455,241	78,176	-0,063	-0,049
-454,226	-200,000	-0,019	-0,145
-453,211	-120,390	0,107	0,013
-452,197	-69,044	-0,146	-0,041
-451,182	-86,811	-0,049	-0,011
-450,168	-200,000	-0,001	-0,075
-449,153	-200,000	0,023	0,084
-448,138	45,767	0,066	-0,045
-447,124	97,804	-0,070	0,060
-446,109	800,000	-0,003	-0,006
-445,095	-57,955	-0,079	0,025
-444,080	-29,543	-0,113	0,047
-443,065	-21,459	-0,070	-0,031
-442,051	-200,000	0,002	0,038
-441,036	121,763	0,058	-0,054
-440,022	-200,000	0,048	-0,168
-439,007	-142,130	0,050	-0,004
-437,992	-85,496	0,061	0,014
-436,978	456,061	-0,085	0,140
-435,963	-86,387	0,016	-0,004
-434,949	-36,301	-0,085	-0,034
-433,934	53,397	-0,030	-0,021
-432,919	103,098	0,108	0,093
-431,905	-200,000	0,003	-0,067
-430,890	-200,000	-0,014	-0,063
-429,876	210,768	-0,037	-0,043
-428,861	-200,000	-0,000	0,127
-427,846	172,084	0,104	0,110
-426,832	-119,073	0,060	-0,008
-425,817	-4,229	-0,182	-0,093
-424,803	19,331	0,034	-0,020
-423,788	-113,782	0,047	-0,007
-422,773	330,870	0,090	0,128
-421,759	229,898	-0,066	-0,080
-420,744	416,683	-0,054	0,085
-419,730	367,573	0,029	-0,043
-418,715	-53,229	0,078	-0,026
-417,701	-200,000	-0,027	-0,116
-416,686	-30,003	0,095	0,040
-415,671	209,829	0,036	0,042
-414,657	633,193	0,029	0,055
-413,642	800,000	0,017	-0,035
-412,628	800,000	-0,059	-0,183
-411,613	485,904	0,007	0,011
-410,598	236,720	0,100	-0,122
-409,584	-200,000	0,020	0,180
-408,569	-25,565	-0,043	0,019
-407,555	-135,011	0,108	0,009
-406,540	42,556	-0,073	0,049
-405,525	84,027	-0,070	-0,056
-404,511	-100,374	0,018	0,003
-403,496	-200,000	0,051	0,227
-402,482	-55,624	-0,088	0,029
-401,467	18,691	-0,052	-0,031
-400,452	-200,000	0,013	0,106
-399,438	-200,000	0,006	0,037
-398,423	-1,313	0,018	-0,009
-397,409	-103,938	0,113	0,019
-396,394	89,442	-0,100	0,082
-395,379	800,000	-0,026	-0,066
-394,365	251,105	0,116	-0,145
-393,350	-166,343	0,069	0,002
-392,336	13,612	0,051	0,029
-391,321	-200,000	-0,008	0,035
-390,306	-200,000	-0,006	0,072
-389,292	-162,678	-0,065	0,002
-388,277	-200,000	-0,004	0,027
-387,263	-34,231	0,123	-0,049
-386,248	216,510	-0,050	0,059
-385,233	-200,000	-0,001	-0,033
-384,219	-200,000	-0,011	-0,070
-383,204	-200,000	0,019	0,073
-382,190	-63,443	0,079	0,024
-381,175	-34,397	-0,099	-0,040
-380,160	322,295	0,031	0,044
-379,146	-200,000	-0,020	0,101
-378,131	-200,000	0,025	-0,084
-377,117	-200,000	0,027	0,090
-376,102	800,000	0,021	0,048
-375,088	800,000	0,024	-0,059
-374,073	-129,513	-0,032	0,003
-373,058	-69,873	-0,032	0,009
-372,044	130,935	0,055	-0,052
-371,029	-200,000	0,000	0,075
-370,015	94,563	0,089	-0,074
-369,000	20,360	0,035	-0,021
-367,985	-103,988	-0,102	-0,017
-366,971	-85,473	-0,099	-0,022
-365,956	-97,568	0,073	-0,014
-364,942	-93,284	-0,084	0,017
-363,927	-200,000	0,025	-0,116
-362,912	-200,000	-0,012	-0,051
-361,898	662,021	0,072	-0,136
-360,883	28,293	0,036	-0,022
-359,869	51,381	0,135	-0,094
-358,854	-109,641	-0,059	0,009
-357,839	-82,069	0,097	0,023
-356,825	262,987	0,038	-0,049
-355,810	-200,000	-0,003	-0,068
-354,796	-200,000	0,016	-0,103
-353,781	-200,000	-0,029	0,100
-352,766	466,029	0,030	-0,050
-351,752	402,231	-0,037	-0,057
-350,737	290,623	0,061	0,082
-349,723	172,266	-0,074	-0,078
-348,708	-76,149	0,081	-0,021
-347,693	-184,457	0,124	0,001
-346,679	234,592	-0,097	0,117
-345,664	332,105	-0,068	0,096
-344,650	24,730	-0,108	-0,066
-343,635	-9,439	0,064	-0,031
-342,620	-200,000	0,029	0,093
-341,606	-42,001	0,063	-0,023
-340,591	403,493	-0,070	-0,108
-339,577	-47,936	-0,062	-0,022
-338,562	443,087	0,041	0,066
-337,548	102,597	0,114	-0,098
-336,533	48,831	0,176	-0,121
-335,518	-200,000	0,007	-0,035
-334,504	-36,527	0,044	0,017
-333,489	-200,000	-0,017	0,153
-332,475	665,139	-0,031	-0,058
-331,460	47,126	-0,125	-0,085
-330,445	-52,965	0,062	0,021
-329,431	-200,000	0,004	0,083
-328,416	800,000	0,015	0,044
-327,402	-77,499	0,075	-0,019
-326,387	800,000	0,046	0,102
-325,372	-36,914	-0,070	0,027
-324,358	-95,475	-0,016	-0,003
-323,343	-31,723	0,151	-0,062
-322,329	-146,173	0,171	0,011
-321,314	-200,000	-0,011	-0,073
-320,299	-200,000	-0,000	-0,037
-319,285	34,374	-0,042	-0,027
-318,270	121,568	0,027	-0,024
-317,256	360,892	-0,112	-0,165
-316,241	-49,382	-0,045	-0,016
-315,226	-53,279	0,068	0,023
-314,212	285,209	-0,056	0,074
-313,197	171,605	0,077	0,081
-312,183	800,000	-0,038	0,092
-311,168	-200,000	-0,004	-0,061
-310,153	-200,000	-0,014	-0,112
-309,139	-97,544	-0,062	-0,012
-308,124	-87,937	0,069	0,015
-307,110	24,564	0,018	0,011
-306,095	-91,503	0,079	0,016
-305,080	-200,000	0,003	0,081
-304,066	87,014	0,020	-0,016
-303,051	5,318	-0,048	-0,026
-302,037	-90,185	-0,173	0,037
-301,022	147,780	0,044	-0,043
-300,008	-200,000	0,013	0,078
-298,993	375,710	-0,028	0,043
-297,978	-109,089	0,085	0,013
-296,964	151,224	-0,109	-0,109
-295,949	-92,703	-0,053	0,011
-294,935	9,406	0,106	0,058
-293,920	18,975	0,055	0,032
-292,905	-126,527	0,127	0,014
-291,891	-43,928	0,061	0,022
-290,876	-200,000	-0,020	0,161
-289,862	-200,000	0,001	0,049
-288,847	-62,600	0,110	-0,033
-287,832	241,714	-0,095	-0,117
-286,818	362,226	0,062	-0,091
-285,803	-200,000	0,005	0,044
-284,789	-81,757	0,048	-0,011
-283,774	105,353	0,020	-0,017
-282,759	510,420	0,048	0,082
-281,745	-4,343	-0,093	-0,047
-280,730	7,350	-0,094	-0,051
-279,716	-58,407	-0,135	-0,043
-278,701	116,632	0,027	-0,024
-277,686	-52,490	0,055	0,019
-276,672	-127,201	0,122	-0,013
-275,657	-117,674	0,044	0,006
-274,643	330,989	-0,029	0,041
-273,628	222,839	-0,064	-0,076
-272,613	43,924	0,066	-0,044
-271,599	-200,000	-0,007	-0,024
-270,584	134,006	0,069	0,065
-269,570	613,987	-0,075	0,137
-268,555	-200,000	-0,024	0,125
-267,540	-20,204	-0,079	0,035
-266,526	5,523	-0,111	0,060
-265,511	800,000	0,012	-0,037
-264,497	615,846	0,078	-0,144
-263,482	-142,685	0,065	0,005
-262,467	93,559	-0,033	0,027
-261,453	504,438	-0,042	-0,071
-260,438	505,202	-0,069	-0,117
-259,424	-200,000	0,001	0,066
-258,409	-200,000	-0,001	0,027
-257,395	225,155	0,029	0,034
-256,380	532,473	0,058	0,101
-255,365	17,756	0,097	0,056
-254,351	-67,719	-0,100	0,028
-253,336	-63,723	-0,111	0,033
-252,322	46,413	0,084	0,057
-251,307	-49,719	-0,078	0,027
-250,292	571,640	0,046	-0,082
-249,278	502,355	0,063	0,107
-248,263	208,989	0,088	0,101
-247,249	98,670	-0,019	0,016
-246,234	43,080	-0,133	0,088
-245,219	-99,369	0,069	0,013
-244,205	-200,000	-0,025	0,088
-243,190	-14,162	0,044	0,020
-242,176	-36,807	0,187	0,073
-241,161	-200,000	-0,049	0,164
-240,146	-109,199	0,040	-0,006
-239,132	133,261	-0,041	0,039
-238,117	-200,000	-0,032	-0,133
-237,103	-69,072	0,102	-0,028
-236,088	215,445	-0,029	-0,034
-235,073	46,090	-0,012	-0,008
-234,059	-200,000	-0,009	0,119
-233,044	453,664	0,073	0,119
-232,030	-13,825	-0,059	0,028
-231,015	800,000	-0,034	-0,108
-230,000	-74,983	-0,095	-0,025
-228,986	-175,215	-0,086	-0,002
-227,971	-200,000	-0,030	0,148
-226,957	181,225	0,083	0,090
-225,942	413,044	-0,037	-0,057
-224,927	252,677	0,019	-0,024
-223,913	4,188	0,023	-0,012
-222,898	-200,000	0,004	0,060
-221,884	-76,009	0,073	0,019
-220,869	-63,154	-0,072	0,022
-219,855	-200,000	-0,003	0,082
-218,840	61,840	-0,018	-0,013
-217,825	180,944	-0,094	-0,101
-216,811	-200,000	-0,014	-0,128
-215,796	-65,992	-0,075	-0,022
-214,782	-200,000	0,013	-0,065
-213,767	748,088	0,088	-0,174
-212,752	-200,000	-0,010	-0,055
-211,738	-149,996	-0,076	0,004
-210,723	416,750	-0,018	-0,028
-209,709	-103,923	-0,066	-0,011
-208,694	-166,936	-0,053	0,002
-207,679	433,303	0,043	-0,069
-206,665	93,073	-0,153	0,126
-205,650	-119,801	0,196	-0,024
-204,636	32,746	0,056	-0,036
-203,621	-48,991	0,058	0,020
-202,606	-200,000	-0,007	0,034
-201,592	-200,000	-0,014	0,131
-200,577	222,934	0,031	0,037
-199,563	266,773	-0,056	0,072
-198,548	608,263	0,056	-0,102
-197,533	499,712	0,049	0,083
-196,519	24,759	-0,055	-0,033
-195,504	127,506	0,013	0,012
-194,490	-200,000	-0,021	-0,089
-193,475	-200,000	-0,026	0,141
-192,460	420,681	0,087	0,137
-191,446	-200,000	-0,036	0,148
-190,431	-200,000	0,001	-0,012
-189,417	419,239	0,032	0,051
-188,402	41,926	-0,079	-0,052
-187,387	539,214	-0,068	0,119
-186,373	-113,863	-0,125	0,018
-185,358	-200,000	-0,017	-0,091
-184,344	461,317	-0,036	0,059
-183,329	-200,000	-0,004	0,087
-182,315	-152,609	-0,085	0,004
-181,300	-73,749	-0,065	-0,017
-180,285	-21,952	-0,105	-0,046
-179,271	-200,000	-0,001	-0,084
-178,256	37,848	-0,071	0,046
-177,242	306,757	0,112	-0,152
-176,227	-138,792	0,113	0,009
-175,212	-95,327	-0,115	-0,022
-174,198	800,000	0,021	0,045
-173,183	148,897	0,063	0,062
-172,169	-200,000	0,006	0,043
-171,154	-200,000	0,002	-0,066
-170,139	-200,000	0,014	-0,075
-169,125	-200,000	-0,033	0,150
-168,110	389,676	-0,065	-0,099
-167,096	406,139	0,044	-0,068
-166,081	-200,000	0,009	-0,102
-165,066	800,000	-0,064	-0,201
-164,052	374,429	0,050	0,075
-163,037	106,653	-0,085	0,073
-162,023	-175,157	0,182	0,004
-161,008	206,750	0,014	0,016
-159,993	231,717	0,112	0,134
-158,979	316,074	-0,077	-0,107
-157,964	6,253	-0,038	0,021
-156,950	-200,000	-0,007	-0,093
-155,935	800,000	0,014	-0,033
-154,920	96,564	0,066	0,055
-153,906	800,000	0,021	-0,055
-152,891	-200,000	0,009	0,060
-151,877	47,663	0,042	0,028
-150,862	180,340	-0,043	-0,046
-149,847	800,000	-0,018	0,049
-148,833	800,000	0,065	-0,139
-147,818	-94,475	0,307	0,060
-146,804	-200,000	0,008	0,032
-145,789	-24,087	0,077	0,034
-144,775	337,876	-0,070	-0,100
-143,760	166,550	-0,009	-0,009
-142,745	-52,228	-0,157	0,053
-141,731	-35,216	0,058	-0,023
-140,716	-154,719	0,120	-0,006
-139,702	-200,000	-0,020	-0,070
-138,687	176,695	-0,025	-0,026
-137,672	-200,000	-0,001	0,032
-136,658	211,943	-0,077	-0,088
-135,643	-200,000	-0,010	-0,034
-134,629	160,468	-0,049	0,050
-133,614	-115,185	0,148	-0,020
-132,599	-200,000	0,037	0,168
-131,585	104,874	0,015	-0,013
-130,570	477,779	0,048	-0,079
-129,556	717,326	0,032	-0,062
-128,541	344,633	-0,055	-0,079
-127,526	27,745	-0,132	0,081
-126,512	-140,214	0,070	-0,005
-125,497	-200,000	0,003	0,025
-124,483	181,635	0,064	0,069
-123,468	-100,426	0,029	0,005
-122,453	-11,533	0,074	-0,035
-121,439	749,474	-0,069	0,136
-120,424	-5,164	0,066	0,033
