DTS Sentinel unit serial number:	SN410029Multiplexer serial number:	ORYXHardware model number:	OX2-SRSoftware version number:	ORYX F/W v4,00 Oryx Data Collector v3.7.2.0data status	okinstallation	B6 Nyhavnadifferential loss correction	single-endedforward channel	channel 2reverse channel	N/Adate	2023/12/10time	17:45:08forward acquisition time	300,00reverse acquisition time	0,00gamma	499,1914k internal	0,3123k external	0,3123temperature offset calibration	1,0000default loss term (dB/km)	0,3820temperature slope calibration	1,0000multiplexer offset coefficient	1,0000multiplexer slope coefficient	1,0000fibre end	0,00T internal ref (°C)	22,40T ext. ref 1 (°C)	6,01T ext. ref 2 (°C)	6,05length (m)	temperature (°C)	Stokes	anti-Stokes-744,400	36,383	0,143	-0,094
-743,385	65,694	-0,239	0,181
-742,371	453,765	0,046	-0,076
-741,356	104,359	-0,191	0,167
-740,342	-200,000	-0,007	0,159
-739,327	800,000	-0,083	0,215
-738,312	173,088	-0,039	0,042
-737,298	77,915	-0,233	0,185
-736,283	535,985	-0,039	-0,069
-735,269	216,372	-0,153	0,181
-734,254	-32,169	0,087	-0,036
-733,239	-123,171	-0,393	-0,046
-732,225	158,741	0,138	0,143
-731,210	-41,512	-0,038	-0,015
-730,196	647,047	-0,035	-0,066
-729,181	-36,280	-0,177	-0,071
-728,167	-88,048	-0,063	-0,014
-727,152	739,902	0,061	0,122
-726,137	800,000	-0,014	-0,036
-725,123	-37,765	-0,072	0,029
-724,108	800,000	-0,016	-0,050
-723,094	800,000	-0,063	-0,192
-722,079	-49,973	-0,192	-0,068
-721,064	-200,000	-0,003	-0,099
-720,050	-84,657	-0,143	0,033
-719,035	-200,000	0,005	-0,047
-718,021	-200,000	0,007	-0,050
-717,006	107,957	-0,168	-0,149
-715,991	-200,000	-0,032	-0,144
-714,977	-61,458	-0,058	0,018
-713,962	800,000	-0,069	-0,160
-712,948	-5,948	-0,068	0,035
-711,933	339,296	0,033	0,048
-710,918	-200,000	0,009	-0,066
-709,904	-139,911	-0,092	-0,007
-708,889	431,031	-0,076	-0,124
-707,875	-126,688	-0,166	-0,018
-706,860	-200,000	-0,020	0,128
-705,845	304,629	0,072	-0,100
-704,831	36,327	-0,044	-0,029
-703,816	-200,000	0,024	-0,119
-702,802	535,426	0,026	-0,046
-701,787	25,689	-0,094	-0,058
-700,772	-37,871	-0,108	-0,042
-699,758	-130,693	0,123	-0,012
-698,743	-200,000	-0,004	-0,032
-697,729	399,015	-0,070	-0,109
-696,714	-175,235	0,045	0,001
-695,699	-88,393	-0,061	-0,013
-694,685	20,196	-0,106	-0,063
-693,670	94,316	-0,094	-0,079
-692,656	-115,780	-0,113	-0,016
-691,641	-200,000	0,002	-0,067
-690,627	135,545	0,057	0,055
-689,612	2,875	-0,072	0,039
-688,597	673,581	-0,063	0,122
-687,583	-200,000	-0,001	-0,088
-686,568	301,948	-0,084	-0,115
-685,554	-56,300	-0,131	-0,043
-684,539	-126,058	-0,129	0,014
-683,524	-71,112	0,064	0,018
-682,510	-200,000	0,007	0,061
-681,495	-200,000	-0,021	0,171
-680,481	-200,000	-0,007	0,068
-679,466	-200,000	-0,018	0,061
-678,451	31,654	0,052	0,033
-677,437	106,025	-0,085	-0,075
-676,422	398,760	0,053	-0,082
-675,408	-200,000	0,003	-0,028
-674,393	800,000	-0,036	-0,109
-673,378	-53,508	-0,065	-0,022
-672,364	-200,000	-0,015	-0,104
-671,349	2,697	-0,104	0,056
-670,335	-200,000	-0,024	-0,084
-669,320	-110,332	-0,046	0,007
-668,305	-65,259	0,072	-0,021
-667,291	-200,000	-0,028	-0,121
-666,276	5,839	-0,029	-0,016
-665,262	-120,981	0,095	-0,012
-664,247	212,462	0,044	0,051
-663,232	111,943	-0,033	-0,029
-662,218	52,857	0,147	0,104
-661,203	-200,000	0,005	0,028
-660,189	-7,035	0,066	-0,033
-659,174	77,104	-0,123	-0,097
-658,159	-182,549	-0,119	-0,002
-657,145	-200,000	-0,014	-0,072
-656,130	189,003	-0,085	0,094
-655,116	800,000	0,030	-0,068
-654,101	63,419	0,020	-0,015
-653,086	397,897	-0,037	0,058
-652,072	199,947	0,047	0,053
-651,057	92,038	-0,170	0,142
-650,043	-98,354	0,025	0,005
-649,028	105,430	0,081	-0,071
-648,014	800,000	0,049	-0,155
-646,999	19,597	-0,080	-0,047
-645,984	-92,830	-0,099	0,020
-644,970	-200,000	-0,002	-0,068
-643,955	-130,290	0,016	-0,002
-642,941	-200,000	-0,025	-0,106
-641,926	152,231	0,096	0,097
-640,911	800,000	-0,046	-0,099
-639,897	-89,333	-0,055	-0,012
-638,882	-44,289	0,062	0,023
-637,868	-200,000	0,011	-0,129
-636,853	0,577	-0,129	-0,068
-635,838	730,564	-0,046	0,091
-634,824	800,000	-0,050	0,113
-633,809	291,664	-0,128	-0,173
-632,795	-25,613	-0,036	0,016
-631,780	231,629	0,031	0,038
-630,765	-140,997	-0,093	0,007
-629,751	188,380	-0,034	-0,037
-628,736	9,261	-0,100	0,056
-627,722	-200,000	-0,045	0,155
-626,707	-31,365	0,087	0,036
-625,692	-165,108	0,108	0,003
-624,678	-119,082	0,032	-0,004
-623,663	41,187	-0,078	0,052
-622,649	800,000	0,004	0,010
-621,634	40,810	-0,171	-0,114
-620,619	-200,000	-0,018	-0,130
-619,605	-200,000	0,021	0,105
-618,590	-16,049	-0,023	0,011
-617,576	-59,486	-0,073	0,023
-616,561	-5,980	-0,117	0,059
-615,546	-200,000	0,005	-0,094
-614,532	16,217	0,079	-0,046
-613,517	800,000	-0,043	-0,100
-612,503	-200,000	-0,007	-0,142
-611,488	-37,139	-0,075	0,030
-610,474	-126,902	0,022	0,002
-609,459	84,187	0,116	-0,094
-608,444	-200,000	-0,026	0,115
-607,430	-200,000	-0,004	0,052
-606,415	266,071	-0,044	-0,057
-605,401	238,567	-0,014	0,017
-604,386	-178,588	0,060	-0,001
-603,371	-200,000	-0,002	0,080
-602,357	56,711	0,144	0,104
-601,342	284,876	-0,020	-0,026
-600,328	73,826	-0,071	-0,055
-599,313	76,289	-0,108	0,084
-598,298	-200,000	-0,005	-0,171
-597,284	94,910	0,053	-0,045
-596,269	169,706	0,060	-0,064
-595,255	-106,798	0,041	0,007
-594,240	-200,000	-0,024	0,103
-593,225	369,890	0,066	0,099
-592,211	168,759	-0,089	0,094
-591,196	163,233	-0,031	0,033
-590,182	-122,184	-0,079	0,009
-589,167	566,605	-0,024	0,043
-588,152	237,411	-0,096	-0,118
-587,138	800,000	0,004	0,008
-586,123	21,311	0,036	0,021
-585,109	-32,396	-0,020	0,008
-584,094	239,545	0,084	-0,103
-583,079	372,221	-0,061	0,092
-582,065	-66,555	0,039	-0,011
-581,050	-200,000	0,026	-0,088
-580,036	6,430	0,034	-0,019
-579,021	-200,000	0,001	0,034
-578,006	41,255	-0,094	-0,063
-576,992	232,531	0,106	-0,129
-575,977	36,218	0,030	0,019
-574,963	-112,362	-0,051	0,007
-573,948	154,126	-0,040	-0,041
-572,934	-200,000	0,014	0,105
-571,919	-200,000	-0,022	-0,117
-570,904	143,598	-0,097	0,095
-569,890	545,402	-0,034	0,060
-568,875	34,501	0,121	0,078
-567,861	157,606	0,048	-0,049
-566,846	45,344	-0,097	0,066
-565,831	492,788	-0,044	0,075
-564,817	800,000	-0,029	-0,093
-563,802	-200,000	-0,014	-0,103
-562,788	108,173	-0,048	-0,043
-561,773	-0,371	0,044	-0,023
-560,758	800,000	0,042	0,087
-559,744	-200,000	0,002	0,073
-558,729	149,168	0,085	-0,085
-557,715	232,348	0,010	-0,012
-556,700	800,000	0,025	-0,053
-555,685	273,634	0,106	0,139
-554,671	27,502	-0,032	-0,020
-553,656	485,440	0,020	0,033
-552,642	147,887	0,101	0,101
-551,627	93,959	0,053	-0,045
-550,612	200,391	-0,049	0,056
-549,598	-97,686	-0,036	0,007
-548,583	-200,000	-0,002	-0,102
-547,569	-97,141	0,035	0,007
-546,554	349,543	0,042	0,062
-545,539	-45,563	0,129	0,047
-544,525	-20,116	-0,097	0,044
-543,510	89,471	0,083	-0,069
-542,496	253,367	-0,084	0,106
-541,481	87,891	0,042	-0,034
-540,466	117,131	0,096	-0,088
-539,452	67,570	0,096	0,073
-538,437	107,393	-0,055	0,049
-537,423	-77,064	-0,158	0,041
-536,408	101,105	0,049	0,042
-535,393	-57,664	0,123	-0,040
-534,379	800,000	0,065	-0,142
-533,364	-22,849	0,044	0,020
-532,350	235,207	-0,086	0,106
-531,335	-200,000	0,015	-0,092
-530,321	704,395	0,030	-0,058
-529,306	133,303	-0,066	-0,063
-528,291	-200,000	-0,004	-0,105
-527,277	1,557	-0,083	-0,044
-526,262	-200,000	0,014	0,126
-525,248	-200,000	0,018	0,066
-524,233	136,453	-0,021	0,020
-523,218	164,456	0,025	0,026
-522,204	-99,316	-0,047	0,009
-521,189	308,778	-0,077	-0,107
-520,175	-146,921	0,032	-0,002
-519,160	242,380	0,073	0,090
-518,145	103,194	0,031	-0,027
-517,131	800,000	0,030	0,075
-516,116	263,206	0,048	-0,062
-515,102	-39,234	-0,086	0,033
-514,087	-82,264	0,158	-0,038
-513,072	-128,900	-0,097	-0,010
-512,058	-200,000	-0,030	-0,190
-511,043	-46,296	0,118	-0,042
-510,029	800,000	0,018	0,037
-509,014	83,058	-0,101	-0,081
-507,999	-9,326	0,066	0,033
-506,985	-146,888	0,065	0,004
-505,970	800,000	0,028	-0,083
-504,956	-94,453	-0,103	0,021
-503,941	431,762	-0,047	-0,076
-502,926	-38,706	0,066	0,026
-501,912	257,271	0,028	-0,035
-500,897	283,467	0,045	-0,059
-499,883	123,470	0,137	0,127
-498,868	800,000	-0,030	-0,094
-497,853	55,673	-0,142	-0,101
-496,839	-200,000	-0,043	0,151
-495,824	50,869	0,097	0,067
-494,810	-200,000	0,009	0,081
-493,795	19,028	0,067	-0,040
-492,781	800,000	-0,057	-0,180
-491,766	-200,000	-0,002	-0,016
-490,751	-143,561	-0,175	-0,012
-489,737	-200,000	0,000	-0,042
-488,722	-134,530	0,133	0,012
-487,708	-131,114	-0,039	-0,004
-486,693	-200,000	0,003	0,055
-485,678	-147,629	0,071	0,004
-484,664	-26,652	-0,071	-0,031
-483,649	-54,364	0,051	0,017
-482,635	-200,000	0,027	0,095
-481,620	-84,919	0,120	0,028
-480,605	-55,737	-0,081	-0,027
-479,591	63,283	0,102	0,076
-478,576	-109,977	-0,193	-0,030
-477,562	-171,147	-0,136	-0,003
-476,547	-20,204	0,055	-0,025
-475,532	-200,000	-0,007	0,045
-474,518	-200,000	0,030	0,142
-473,503	-122,857	0,114	-0,013
-472,489	384,543	0,109	0,166
-471,474	-79,247	-0,068	0,017
-470,459	-200,000	-0,006	0,062
-469,445	-58,860	-0,035	0,011
-468,430	-8,628	-0,208	-0,103
-467,416	100,900	0,070	-0,060
-466,401	21,999	-0,078	-0,047
-465,386	140,605	0,124	-0,120
-464,372	-47,152	0,068	0,024
-463,357	658,318	-0,045	0,086
-462,343	-200,000	0,011	0,056
-461,328	-200,000	0,001	0,013
-460,313	800,000	-0,026	0,077
-459,299	280,920	0,022	0,029
-458,284	207,871	0,045	0,052
-457,270	-200,000	0,016	-0,064
-456,255	-200,000	-0,031	0,201
-455,241	-200,000	-0,001	0,022
-454,226	208,563	0,012	0,014
-453,211	74,070	0,120	-0,093
-452,197	-12,258	0,072	-0,034
-451,182	299,270	-0,096	0,131
-450,168	71,167	-0,016	0,012
-449,153	216,004	0,028	0,033
-448,138	-49,804	0,052	-0,018
-447,124	-200,000	-0,007	-0,044
-446,109	-71,440	-0,086	-0,024
-445,095	-111,486	-0,071	-0,011
-444,080	-200,000	0,005	0,060
-443,065	-200,000	-0,021	0,101
-442,051	800,000	0,019	-0,059
-441,036	320,637	0,080	-0,113
-440,022	119,551	0,019	-0,017
-439,007	0,590	-0,076	-0,040
-437,992	-74,022	-0,098	-0,026
-436,978	266,936	0,138	0,178
-435,963	62,626	-0,073	-0,053
-434,949	3,198	-0,034	0,018
-433,934	552,053	-0,067	-0,118
-432,919	-200,000	-0,017	-0,083
-431,905	-107,836	0,107	0,017
-430,890	77,501	-0,072	-0,056
-429,876	-200,000	0,008	0,075
-428,861	-119,534	-0,035	0,004
-427,846	-28,320	0,086	0,036
-426,832	-200,000	-0,003	-0,073
-425,817	-118,657	-0,194	-0,025
-424,803	97,116	0,034	0,028
-423,788	226,853	-0,044	-0,052
-422,773	-25,900	0,173	0,075
-421,759	119,757	0,010	-0,010
-420,744	134,649	0,074	-0,071
-419,730	-123,438	-0,142	-0,016
-418,715	197,549	-0,014	-0,016
-417,701	-200,000	-0,005	-0,081
-416,686	-200,000	-0,006	-0,069
-415,671	84,283	-0,100	-0,080
-414,657	331,874	0,057	-0,081
-413,642	62,346	0,119	-0,087
-412,628	-41,351	0,095	-0,036
-411,613	-14,500	-0,100	-0,047
-410,598	429,388	-0,040	-0,063
-409,584	24,702	0,076	-0,046
-408,569	-200,000	-0,045	0,206
-407,555	800,000	0,030	-0,079
-406,540	232,288	-0,097	-0,117
-405,525	202,864	0,075	-0,085
-404,511	171,705	-0,044	-0,047
-403,496	-40,408	0,073	0,028
-402,482	-200,000	-0,002	-0,101
-401,467	-112,263	0,018	-0,003
-400,452	12,352	-0,077	-0,044
-399,438	-200,000	-0,002	0,077
-398,423	137,738	-0,013	-0,013
-397,409	-141,298	-0,160	-0,012
-396,394	-82,604	-0,163	0,038
-395,379	447,051	0,034	0,056
-394,365	111,124	0,043	0,038
-393,350	193,061	-0,029	-0,032
-392,336	267,605	0,108	0,140
-391,321	800,000	-0,020	0,050
-390,306	-131,922	-0,080	0,008
-389,292	-200,000	-0,010	0,038
-388,277	-200,000	0,001	0,048
-387,263	143,079	0,036	0,035
-386,248	-200,000	0,009	0,049
-385,233	49,521	-0,038	-0,026
-384,219	-66,845	0,050	0,014
-383,204	183,129	0,111	-0,121
-382,190	-200,000	-0,040	-0,133
-381,175	-107,981	0,097	-0,015
-380,160	800,000	-0,036	0,109
-379,146	-200,000	0,027	0,096
-378,131	232,677	0,044	0,053
-377,117	205,583	0,082	0,094
-376,102	800,000	0,056	-0,135
-375,088	505,177	-0,055	0,094
-374,073	-200,000	-0,005	-0,050
-373,058	-112,988	0,081	-0,012
-372,044	-200,000	0,006	0,082
-371,029	800,000	-0,028	-0,070
-370,015	-146,589	0,130	-0,008
-369,000	5,552	-0,080	-0,043
-367,985	800,000	-0,036	-0,107
-366,971	800,000	-0,011	0,035
-365,956	226,240	-0,050	0,059
-364,942	-200,000	-0,010	-0,040
-363,927	308,039	-0,096	0,131
-362,912	-162,488	-0,077	-0,003
-361,898	-103,781	-0,180	0,031
-360,883	-89,713	-0,157	0,034
-359,869	232,571	0,050	-0,061
-358,854	-200,000	-0,029	-0,106
-357,839	-200,000	-0,023	0,074
-356,825	-36,444	-0,130	0,051
-355,810	-39,949	-0,162	-0,062
-354,796	87,224	-0,042	-0,034
-353,781	800,000	0,017	-0,038
-352,766	-27,228	0,045	-0,019
-351,752	-105,896	-0,047	-0,008
-350,737	-112,468	0,076	0,011
-349,723	800,000	0,024	-0,069
-348,708	63,101	0,094	0,069
-347,693	258,584	-0,010	-0,012
-346,679	90,122	0,101	-0,083
-345,664	-189,220	0,056	0,000
-344,650	-62,930	0,055	-0,017
-343,635	-172,769	0,165	0,004
-342,620	-200,000	0,048	0,157
-341,606	-66,754	0,157	0,045
-340,591	277,691	-0,107	-0,140
-339,577	160,980	-0,105	0,107
-338,562	-74,062	0,090	0,024
-337,548	80,756	-0,067	-0,053
-336,533	448,920	0,062	-0,100
-335,518	800,000	0,018	-0,045
-334,504	-44,106	0,144	-0,053
-333,489	-200,000	-0,014	0,084
-332,475	800,000	-0,022	-0,069
-331,460	256,766	0,059	-0,075
-330,445	266,839	-0,028	-0,036
-329,431	800,000	0,024	-0,050
-328,416	212,640	-0,043	-0,050
-327,402	-87,978	-0,173	0,038
-326,387	-200,000	-0,003	-0,142
-325,372	165,619	-0,075	-0,078
-324,358	248,596	0,060	0,074
-323,343	-88,879	-0,048	-0,010
-322,329	582,974	-0,014	0,025
-321,314	292,182	-0,044	0,059
-320,299	268,236	-0,015	-0,019
-319,285	-200,000	0,032	0,107
-318,270	160,632	-0,109	0,112
-317,256	-29,511	0,048	-0,020
-316,241	-200,000	-0,008	-0,090
-315,226	800,000	0,012	-0,035
-314,212	349,381	0,042	0,060
-313,197	770,458	0,026	0,052
-312,183	-126,317	0,077	-0,008
-311,168	-2,906	0,044	-0,022
-310,153	-72,445	0,053	-0,014
-309,139	-107,398	0,084	0,013
-308,124	-200,000	0,016	-0,128
-307,110	800,000	0,047	0,098
-306,095	13,996	0,046	0,026
-305,080	152,633	-0,033	-0,033
-304,066	172,540	-0,090	-0,095
-303,051	-200,000	-0,016	-0,063
-302,037	274,351	-0,066	-0,085
-301,022	285,266	0,028	0,036
-300,008	-114,933	0,207	0,029
-298,993	-8,654	0,044	0,022
-297,978	-86,257	0,124	0,028
-296,964	135,177	0,026	0,025
-295,949	72,788	-0,094	-0,072
-294,935	-60,319	-0,124	0,038
-293,920	626,938	-0,014	0,026
-292,905	81,374	0,095	0,075
-291,891	800,000	0,016	-0,040
-290,876	379,816	0,047	0,071
-289,862	-200,000	-0,012	-0,045
-288,847	800,000	0,027	-0,082
-287,832	139,274	-0,106	0,102
-286,818	488,528	-0,064	0,107
-285,803	-80,129	0,142	0,035
-284,789	-7,895	-0,105	-0,052
-283,774	800,000	-0,055	0,134
-282,759	219,345	0,063	-0,074
-281,745	399,072	0,006	-0,009
-280,730	453,777	0,060	-0,098
-279,716	-200,000	-0,012	-0,041
-278,701	1,335	0,162	-0,085
-277,686	390,307	0,056	-0,086
-276,672	102,941	0,053	0,046
-275,657	-19,331	0,046	0,021
-274,643	-29,060	-0,064	-0,027
-273,628	67,178	-0,154	0,115
-272,613	800,000	0,049	0,108
-271,599	34,024	-0,042	-0,027
-270,584	-200,000	0,006	-0,022
-269,570	800,000	0,049	0,134
-268,555	6,205	-0,067	0,036
-267,540	-200,000	0,011	-0,120
-266,526	95,593	-0,057	-0,048
-265,511	-43,135	-0,067	-0,025
-264,497	-200,000	-0,001	0,119
-263,482	-33,710	0,132	-0,053
-262,467	289,684	-0,056	0,074
-261,453	-200,000	0,011	0,053
-260,438	234,749	-0,056	-0,067
-259,424	-200,000	0,022	-0,076
-258,409	65,748	-0,126	-0,093
-257,395	262,401	0,078	-0,099
-256,380	-200,000	0,013	-0,063
-255,365	-135,231	0,133	-0,011
-254,351	628,035	-0,028	0,051
-253,336	279,265	-0,088	-0,115
-252,322	418,551	-0,082	-0,129
-251,307	800,000	-0,048	-0,114
-250,292	-50,779	0,090	-0,031
-249,278	-165,171	0,059	-0,002
-248,263	-200,000	0,049	0,216
-247,249	-200,000	-0,000	-0,013
-246,234	-34,903	-0,079	0,032
-245,219	-35,952	-0,147	0,058
-244,205	113,798	0,105	0,093
-243,190	-171,789	0,058	0,001
-242,176	-19,580	-0,066	-0,030
-241,161	-200,000	-0,018	0,101
-240,146	-200,000	-0,002	-0,038
-239,132	-200,000	0,032	0,140
-238,117	-200,000	-0,023	0,134
-237,103	-200,000	0,009	-0,041
-236,088	-200,000	0,005	0,060
-235,073	-90,772	0,079	-0,017
-234,059	-21,307	0,099	-0,044
-233,044	-128,840	-0,139	-0,014
-232,030	134,828	-0,075	-0,071
-231,015	-122,678	-0,109	0,013
-230,000	800,000	0,051	-0,109
-228,986	-146,242	0,079	-0,005
-227,971	-28,936	0,032	-0,013
-226,957	228,574	0,051	-0,061
-225,942	-7,580	0,033	-0,016
-224,927	-200,000	0,024	0,127
-223,913	-200,000	0,006	-0,079
-222,898	-47,162	0,031	0,011
-221,884	-158,556	-0,111	0,005
-220,869	337,294	-0,041	0,059
-219,855	255,953	-0,036	0,045
-218,840	130,028	0,050	0,047
-217,825	800,000	-0,025	0,074
-216,811	-170,877	-0,028	-0,001
-215,796	65,987	0,038	-0,028
-214,782	-68,375	-0,133	0,037
-213,767	75,106	0,111	0,085
-212,752	-127,328	0,126	0,013
-211,738	-72,664	0,129	-0,034
-210,723	545,902	-0,056	0,098
-209,709	222,139	-0,058	-0,069
-208,694	-88,462	0,028	-0,006
-207,679	-156,108	-0,125	-0,006
-206,665	-57,947	0,179	0,057
-205,650	-71,576	0,025	0,007
-204,636	800,000	-0,064	0,166
-203,621	592,462	-0,046	-0,084
-202,606	34,140	-0,068	0,043
-201,592	606,830	-0,040	-0,073
-200,577	-132,899	0,054	0,005
-199,563	-155,710	-0,070	-0,003
-198,548	47,628	0,051	-0,034
-197,533	75,187	-0,107	-0,082
-196,519	-34,506	0,197	-0,078
-195,504	178,602	-0,039	0,042
-194,490	-180,874	-0,072	0,001
-193,475	672,394	0,032	-0,060
-192,460	90,990	-0,028	-0,023
-191,446	-200,000	0,022	-0,159
-190,431	-52,192	-0,091	0,031
-189,417	41,457	-0,170	0,112
-188,402	-7,520	0,114	-0,056
-187,387	330,101	-0,067	-0,094
-186,373	-200,000	0,015	0,065
-185,358	-200,000	-0,005	-0,097
-184,344	800,000	0,035	0,074
-183,329	-60,121	-0,133	-0,041
-182,315	-200,000	0,034	0,146
-181,300	800,000	-0,055	0,136
-180,285	283,312	0,031	-0,040
-179,271	-200,000	0,000	0,013
-178,256	4,116	0,058	0,031
-177,242	405,416	-0,108	0,166
-176,227	141,669	0,050	-0,048
-175,212	149,245	0,091	0,090
-174,198	217,842	-0,102	0,119
-173,183	-108,648	0,020	-0,003
-172,169	33,512	-0,168	-0,106
-171,154	152,003	0,097	0,096
-170,139	-94,937	0,089	0,017
-169,125	-200,000	-0,039	0,147
-168,110	-200,000	0,033	0,146
-167,096	800,000	0,044	-0,124
-166,081	-200,000	-0,017	-0,069
-165,066	-200,000	0,002	0,031
-164,052	800,000	0,010	0,027
-163,037	800,000	0,053	-0,132
-162,023	-62,576	0,053	-0,016
-161,008	-125,498	0,106	0,012
-159,993	-200,000	-0,010	0,224
-158,979	6,564	0,006	0,003
-157,964	-200,000	0,002	-0,008
-156,950	339,055	0,023	0,033
-155,935	800,000	-0,054	0,169
-154,920	-121,092	0,106	-0,013
-153,906	-200,000	0,001	0,168
-152,891	-5,707	0,068	0,034
-151,877	154,237	-0,069	-0,069
-150,862	-200,000	0,004	0,012
-149,847	110,483	-0,139	-0,122
-148,833	-47,589	0,053	0,019
-147,818	69,934	0,099	0,074
-146,804	72,433	0,085	0,064
-145,789	-22,354	-0,141	-0,062
-144,775	-200,000	-0,010	0,103
-143,760	-200,000	-0,003	-0,028
-142,745	769,869	-0,092	-0,182
-141,731	134,898	-0,062	-0,058
-140,716	47,618	0,053	-0,036
-139,702	-152,088	0,149	0,008
-138,687	162,294	0,059	-0,060
-137,672	76,295	-0,110	0,085
-136,658	-59,324	-0,203	-0,063
-135,643	800,000	-0,053	-0,112
-134,629	367,541	0,016	-0,024
-133,614	-55,347	-0,102	-0,033
-132,599	-200,000	0,013	0,108
-131,585	-200,000	0,006	0,056
-130,570	176,426	-0,102	-0,108
-129,556	-122,930	0,043	0,005
-128,541	360,501	-0,089	-0,129
-127,526	-10,540	-0,056	-0,027
-126,512	88,315	-0,025	0,020
-125,497	26,439	0,157	0,095
-124,483	-200,000	0,007	-0,069
-123,468	-200,000	-0,007	-0,069
-122,453	534,473	-0,045	-0,078
-121,439	-200,000	-0,016	0,104
-120,424	800,000	0,010	0,026
-119,410	-200,000	0,039	-0,156
