DTS Sentinel unit serial number:	SN410029Multiplexer serial number:	ORYXHardware model number:	OX2-SRSoftware version number:	ORYX F/W v4,00 Oryx Data Collector v3.7.2.0data status	okinstallation	B6 Nyhavnadifferential loss correction	single-endedforward channel	channel 2reverse channel	N/Adate	2023/12/09time	17:55:08forward acquisition time	300,00reverse acquisition time	0,00gamma	499,1914k internal	0,3130k external	0,3130temperature offset calibration	1,0000default loss term (dB/km)	0,3820temperature slope calibration	1,0000multiplexer offset coefficient	1,0000multiplexer slope coefficient	1,0000fibre end	0,00T internal ref (°C)	21,02T ext. ref 1 (°C)	4,76T ext. ref 2 (°C)	4,76length (m)	temperature (°C)	Stokes	anti-Stokes-744,400	-10,709	-0,015	0,007
-743,385	-7,351	-0,238	0,120
-742,371	-34,022	0,133	-0,054
-741,356	-99,570	-0,205	0,038
-740,342	328,465	0,059	0,084
-739,327	-112,025	-0,283	-0,042
-738,312	153,882	-0,057	-0,058
-737,298	-98,654	-0,210	0,039
-736,283	800,000	0,059	0,146
-735,269	230,437	-0,163	0,199
-734,254	-84,786	0,122	-0,028
-733,239	-80,460	-0,472	-0,116
-732,225	435,057	0,110	-0,178
-731,210	-200,000	0,019	0,067
-730,196	-200,000	0,004	-0,112
-729,181	-200,000	0,004	0,041
-728,167	-80,799	-0,055	0,013
-727,152	85,688	-0,148	0,121
-726,137	255,107	0,029	-0,036
-725,123	800,000	-0,051	-0,118
-724,108	-200,000	0,005	-0,169
-723,094	290,783	-0,084	-0,113
-722,079	-12,376	0,071	-0,034
-721,064	0,763	-0,077	0,041
-720,050	-200,000	0,027	0,105
-719,035	55,180	-0,102	-0,073
-718,021	191,549	-0,026	-0,030
-717,006	-22,545	-0,060	0,027
-715,991	-94,386	-0,043	0,009
-714,977	-112,756	-0,083	-0,012
-713,962	800,000	0,056	-0,116
-712,948	-200,000	-0,029	0,129
-711,933	800,000	0,033	0,101
-710,918	-85,575	0,008	0,002
-709,904	-66,152	-0,026	0,008
-708,889	-200,000	-0,005	-0,067
-707,875	55,874	-0,117	0,084
-706,860	-89,621	-0,158	0,034
-705,845	-200,000	0,003	0,070
-704,831	800,000	0,016	0,046
-703,816	-24,058	0,049	0,022
-702,802	71,659	-0,056	0,043
-701,787	-179,209	-0,189	0,003
-700,772	-200,000	0,025	0,126
-699,758	-200,000	0,005	-0,018
-698,743	-42,503	0,040	0,015
-697,729	-47,050	0,078	-0,028
-696,714	-12,030	0,056	-0,027
-695,699	-144,720	0,048	-0,003
-694,685	551,697	-0,084	0,150
-693,670	-120,713	-0,186	-0,023
-692,656	305,372	0,069	-0,095
-691,641	-200,000	-0,029	-0,171
-690,627	132,653	0,054	-0,052
-689,612	30,208	0,037	0,024
-688,597	482,373	0,052	0,087
-687,583	-79,247	0,073	0,018
-686,568	258,322	-0,080	-0,103
-685,554	370,331	-0,038	0,057
-684,539	-174,752	-0,037	-0,001
-683,524	10,873	0,052	0,029
-682,510	-152,829	-0,054	-0,003
-681,495	-42,816	-0,092	-0,035
-680,481	43,266	0,055	-0,037
-679,466	-200,000	0,008	-0,102
-678,451	-199,327	0,027	-0,000
-677,437	158,720	0,085	0,088
-676,422	-53,633	0,060	0,020
-675,408	-200,000	-0,004	-0,070
-674,393	-103,755	-0,146	-0,025
-673,378	-10,034	-0,213	-0,104
-672,364	-167,388	-0,081	-0,002
-671,349	211,226	-0,062	0,072
-670,335	453,725	-0,049	0,081
-669,320	-39,963	-0,162	-0,062
-668,305	800,000	0,048	-0,111
-667,291	-199,931	-0,023	0,000
-666,276	-200,000	-0,018	-0,139
-665,262	-161,491	0,086	-0,003
-664,247	137,751	0,026	0,026
-663,232	-200,000	0,009	0,081
-662,218	-103,204	0,179	0,031
-661,203	-130,047	-0,144	0,014
-660,189	-200,000	-0,005	0,053
-659,174	-18,597	-0,087	0,040
-658,159	-130,341	0,084	0,008
-657,145	-111,496	-0,020	0,003
-656,130	-136,541	-0,063	0,005
-655,116	287,447	-0,018	0,024
-654,101	-19,923	-0,029	0,013
-653,086	50,987	0,044	-0,031
-652,072	-119,995	0,070	-0,009
-651,057	-72,254	-0,062	-0,017
-650,043	-42,814	-0,056	0,021
-649,028	136,998	-0,079	0,077
-648,014	-72,971	-0,057	-0,015
-646,999	211,333	0,137	0,160
-645,984	53,383	0,094	-0,066
-644,970	-98,340	-0,148	-0,028
-643,955	-161,804	-0,152	-0,006
-642,941	-200,000	-0,189	0,001
-641,926	436,697	0,072	-0,117
-640,911	-200,000	0,005	0,110
-639,897	60,930	-0,116	0,085
-638,882	-200,000	-0,007	-0,097
-637,868	-50,577	0,039	-0,013
-636,853	-96,964	-0,105	0,020
-635,838	735,312	-0,032	-0,065
-634,824	-200,000	0,019	0,160
-633,809	-200,000	-0,009	-0,122
-632,795	-200,000	0,000	-0,016
-631,780	-98,480	-0,018	-0,003
-630,765	-200,000	0,027	0,101
-629,751	355,188	-0,062	-0,091
-628,736	-200,000	0,008	-0,063
-627,722	398,932	-0,025	0,038
-626,707	11,494	-0,062	0,035
-625,692	457,179	0,025	-0,041
-624,678	800,000	0,018	0,058
-623,663	-200,000	-0,040	0,188
-622,649	-112,952	-0,138	-0,020
-621,634	133,353	0,071	0,068
-620,619	146,364	0,068	0,068
-619,605	-122,019	-0,149	-0,018
-618,590	-200,000	-0,011	-0,091
-617,576	-200,000	-0,005	0,058
-616,561	-200,000	-0,013	0,131
-615,546	59,593	-0,076	-0,055
-614,532	93,528	-0,186	-0,155
-613,517	-200,000	-0,004	0,015
-612,503	-200,000	0,006	-0,135
-611,488	-115,111	0,054	-0,008
-610,474	-35,691	-0,015	-0,006
-609,459	-200,000	0,012	0,060
-608,444	-97,733	-0,056	-0,011
-607,430	800,000	-0,022	-0,056
-606,415	65,581	-0,039	-0,029
-605,401	-178,791	-0,059	-0,001
-604,386	10,926	0,091	-0,051
-603,371	550,814	0,054	0,096
-602,357	800,000	-0,030	-0,077
-601,342	415,006	0,028	-0,044
-600,328	87,704	-0,136	-0,111
-599,313	-10,772	0,059	-0,029
-598,298	-138,127	-0,051	0,004
-597,284	-200,000	0,003	0,180
-596,269	-113,403	0,096	0,014
-595,255	-65,870	-0,172	0,050
-594,240	800,000	-0,035	0,075
-593,225	-200,000	0,006	-0,088
-592,211	201,803	-0,144	-0,165
-591,196	-200,000	-0,003	0,034
-590,182	303,379	0,038	0,053
-589,167	-157,127	-0,027	-0,001
-588,152	-6,741	0,034	-0,017
-587,138	800,000	-0,036	-0,108
-586,123	-200,000	0,001	0,005
-585,109	76,690	-0,093	-0,073
-584,094	80,532	-0,109	-0,087
-583,079	-48,764	-0,139	-0,049
-582,065	451,045	0,070	0,115
-581,050	-131,316	0,114	0,011
-580,036	-56,738	-0,099	-0,032
-579,021	800,000	-0,029	-0,062
-578,006	-51,958	-0,020	0,007
-576,992	636,827	0,059	-0,112
-575,977	800,000	-0,005	0,013
-574,963	394,042	0,102	0,158
-573,948	703,112	-0,016	-0,032
-572,934	-115,408	-0,144	0,020
-571,919	37,031	-0,094	-0,061
-570,904	-200,000	0,039	-0,170
-569,890	-145,382	-0,089	0,006
-568,875	-44,894	-0,034	-0,012
-567,861	91,295	0,127	0,105
-566,846	-40,655	-0,148	-0,056
-565,831	110,630	0,004	0,004
-564,817	800,000	-0,040	-0,101
-563,802	800,000	-0,048	-0,124
-562,788	93,203	-0,087	-0,073
-561,773	8,587	-0,030	0,017
-560,758	-121,793	0,175	-0,021
-559,744	-48,506	0,187	0,066
-558,729	-200,000	-0,031	0,122
-557,715	129,168	-0,078	-0,074
-556,700	284,537	-0,052	-0,069
-555,685	-200,000	-0,030	-0,114
-554,671	800,000	-0,020	0,045
-553,656	800,000	-0,043	-0,129
-552,642	135,312	0,071	0,068
-551,627	-200,000	0,028	-0,138
-550,612	-84,577	-0,029	-0,007
-549,598	800,000	0,040	-0,102
-548,583	11,626	-0,067	-0,038
-547,569	-200,000	-0,041	-0,187
-546,554	-200,000	0,001	0,005
-545,539	-32,429	-0,080	0,033
-544,525	800,000	0,027	0,068
-543,510	-200,000	0,011	0,132
-542,496	171,875	-0,012	-0,013
-541,481	-200,000	-0,012	-0,066
-540,466	-57,986	0,052	0,017
-539,452	-119,116	0,093	0,012
-538,437	-200,000	0,025	-0,089
-537,423	800,000	-0,023	-0,047
-536,408	-94,516	-0,137	-0,027
-535,393	-200,000	-0,032	-0,201
-534,379	-118,545	-0,141	-0,018
-533,364	-154,149	0,032	-0,002
-532,350	143,165	0,113	0,111
-531,335	-182,159	0,158	-0,002
-530,321	-200,000	-0,002	0,059
-529,306	-200,000	0,036	0,132
-528,291	263,098	-0,130	-0,167
-527,277	-200,000	-0,010	-0,121
-526,262	-200,000	0,016	-0,080
-525,248	-200,000	0,010	-0,047
-524,233	18,640	0,017	0,010
-523,218	-106,738	0,021	0,003
-522,204	269,788	-0,043	0,056
-521,189	74,334	-0,061	-0,047
-520,175	-200,000	-0,013	0,047
-519,160	-114,695	-0,088	0,012
-518,145	699,047	0,079	0,154
-517,131	-200,000	-0,039	0,167
-516,116	-30,908	0,083	0,035
-515,102	-95,468	0,076	-0,015
-514,087	515,788	0,035	0,061
-513,072	609,391	-0,038	-0,071
-512,058	78,496	0,064	0,051
-511,043	-200,000	-0,006	0,152
-510,029	-52,002	0,014	-0,005
-509,014	92,962	-0,094	0,078
-507,999	-200,000	0,002	0,090
-506,985	800,000	-0,035	0,084
-505,970	202,630	-0,050	-0,057
-504,956	800,000	0,053	-0,139
-503,941	-200,000	0,030	-0,152
-502,926	17,131	0,049	-0,029
-501,912	-12,404	0,074	-0,036
-500,897	-75,967	-0,114	-0,030
-499,883	541,879	-0,041	-0,073
-498,868	-136,696	-0,081	0,007
-497,853	-200,000	0,023	-0,186
-496,839	49,684	0,026	-0,018
-495,824	-28,761	0,097	0,041
-494,810	32,966	0,079	0,050
-493,795	-138,944	-0,059	0,005
-492,781	108,845	0,030	-0,026
-491,766	680,864	0,030	0,057
-490,751	256,986	-0,048	-0,061
-489,737	-54,003	-0,076	-0,025
-488,722	800,000	0,037	0,096
-487,708	22,880	0,117	-0,071
-486,693	218,828	-0,065	-0,077
-485,678	10,382	0,124	-0,070
-484,664	147,325	0,079	-0,078
-483,649	-70,303	0,038	-0,011
-482,635	-32,430	-0,066	-0,027
-481,620	-88,273	-0,146	-0,032
-480,605	366,687	-0,037	0,056
-479,591	488,412	0,036	0,061
-478,576	-76,936	-0,070	0,018
-477,562	800,000	0,051	-0,113
-476,547	-72,593	-0,075	0,020
-475,532	800,000	-0,044	0,092
-474,518	800,000	0,028	0,077
-473,503	318,104	0,115	0,161
-472,489	109,825	0,047	0,042
-471,474	-200,000	-0,034	0,121
-470,459	101,718	-0,153	0,131
-469,445	-29,409	0,099	0,041
-468,430	-200,000	-0,006	-0,083
-467,416	49,931	0,073	0,050
-466,401	32,643	-0,088	0,056
-465,386	466,308	0,014	0,023
-464,372	-118,581	0,032	-0,004
-463,357	-200,000	-0,003	-0,034
-462,343	-23,010	-0,081	-0,036
-461,328	249,627	-0,048	-0,059
-460,313	-200,000	0,101	-0,000
-459,299	205,966	0,027	0,031
-458,284	245,165	0,070	-0,087
-457,270	52,210	-0,100	0,070
-456,255	101,139	0,084	0,072
-455,241	-114,950	-0,020	0,003
-454,226	800,000	-0,044	0,100
-453,211	-200,000	-0,001	-0,146
-452,197	-86,662	0,038	0,009
-451,182	34,087	0,058	-0,037
-450,168	-66,006	-0,084	0,025
-449,153	-111,296	-0,125	0,019
-448,138	-200,000	-0,018	0,061
-447,124	800,000	0,006	-0,019
-446,109	-200,000	-0,001	0,104
-445,095	-4,275	0,122	-0,062
-444,080	189,111	-0,075	-0,083
-443,065	-17,289	0,025	-0,012
-442,051	800,000	0,024	-0,075
-441,036	83,959	-0,053	-0,042
-440,022	-200,000	0,007	-0,043
-439,007	800,000	0,018	0,043
-437,992	-147,485	-0,055	0,003
-436,978	0,722	0,098	0,051
-435,963	-200,000	0,022	0,184
-434,949	800,000	-0,050	-0,146
-433,934	800,000	-0,063	0,163
-432,919	800,000	-0,025	-0,056
-431,905	800,000	0,049	-0,107
-430,890	19,231	0,044	0,026
-429,876	425,919	0,024	0,039
-428,861	-200,000	0,024	0,093
-427,846	-68,710	-0,092	0,026
-426,832	800,000	0,058	0,121
-425,817	-200,000	0,014	-0,081
-424,803	-167,017	0,117	-0,003
-423,788	-200,000	0,022	0,081
-422,773	587,751	0,051	-0,092
-421,759	226,556	0,101	-0,120
-420,744	800,000	-0,033	0,087
-419,730	-200,000	-0,010	0,118
-418,715	415,123	0,049	-0,077
-417,701	-190,871	-0,075	0,001
-416,686	137,708	0,054	-0,052
-415,671	800,000	0,029	0,082
-414,657	-96,460	0,052	0,010
-413,642	-67,786	-0,139	0,040
-412,628	6,821	0,062	0,034
-411,613	-74,329	0,031	0,008
-410,598	724,632	-0,041	-0,080
-409,584	38,670	0,123	0,080
-408,569	411,481	0,067	0,104
-407,555	-200,000	-0,014	0,112
-406,540	-200,000	0,009	0,170
-405,525	-0,627	0,019	0,010
-404,511	-62,069	-0,112	0,034
-403,496	-200,000	0,021	-0,095
-402,482	-124,677	0,113	0,013
-401,467	-140,929	0,113	-0,008
-400,452	32,890	0,086	-0,055
-399,438	-200,000	0,026	0,108
-398,423	-57,159	0,130	0,042
-397,409	48,116	-0,106	-0,072
-396,394	-200,000	-0,016	-0,091
-395,379	213,942	0,026	-0,030
-394,365	800,000	0,033	0,079
-393,350	-97,805	0,043	-0,008
-392,336	-200,000	-0,002	-0,017
-391,321	280,676	-0,121	-0,160
-390,306	-95,165	-0,075	0,015
-389,292	109,485	-0,063	-0,055
-388,277	-48,880	-0,069	0,024
-387,263	-38,108	0,082	-0,032
-386,248	800,000	0,013	0,034
-385,233	201,815	0,006	-0,006
-384,219	769,970	0,031	-0,062
-383,204	100,427	-0,022	0,018
-382,190	-43,592	0,059	0,022
-381,175	-19,059	-0,027	-0,012
-380,160	179,806	0,051	-0,055
-379,146	800,000	0,094	0,227
-378,131	-200,000	-0,000	0,134
-377,117	-167,832	0,121	-0,003
-376,102	-3,640	0,097	0,049
-375,088	-98,474	-0,129	0,024
-374,073	800,000	0,040	-0,097
-373,058	270,017	0,078	-0,100
-372,044	-131,707	-0,016	0,002
-371,029	800,000	-0,013	-0,027
-370,015	-41,188	-0,142	-0,053
-369,000	326,865	0,039	-0,055
-367,985	-25,535	0,074	-0,032
-366,971	8,402	0,048	0,026
-365,956	697,358	0,025	-0,048
-364,942	10,894	0,080	-0,044
-363,927	-200,000	-0,004	0,047
-362,912	7,230	0,052	-0,028
-361,898	35,977	-0,072	-0,046
-360,883	-36,730	0,074	-0,029
-359,869	194,327	-0,050	-0,056
-358,854	98,240	0,038	0,032
-357,839	194,820	0,042	-0,047
-356,825	800,000	0,035	-0,099
-355,810	-92,581	-0,090	-0,018
-354,796	-11,047	-0,031	0,015
-353,781	-117,339	-0,105	0,014
-352,766	-84,488	-0,096	0,022
-351,752	-200,000	-0,019	0,108
-350,737	-200,000	0,006	0,038
-349,723	70,206	0,114	-0,086
-348,708	97,012	0,115	0,097
-347,693	34,056	0,109	0,070
-346,679	80,823	0,071	-0,056
-345,664	-200,000	0,016	0,123
-344,650	-115,141	0,047	0,007
-343,635	152,889	0,059	-0,059
-342,620	48,573	0,061	0,042
-341,606	-83,490	0,025	-0,006
-340,591	-159,094	-0,111	-0,005
-339,577	-200,000	-0,012	0,079
-338,562	68,230	0,060	-0,045
-337,548	222,491	0,133	0,157
-336,533	-200,000	0,020	0,074
-335,518	-102,274	0,056	0,010
-334,504	-200,000	-0,007	0,128
-333,489	110,709	0,067	-0,059
-332,475	329,459	-0,017	0,023
-331,460	-68,563	0,018	0,005
-330,445	-174,068	-0,218	0,005
-329,431	120,292	-0,021	0,019
-328,416	-99,211	-0,078	-0,014
-327,402	273,370	0,039	0,050
-326,387	129,546	-0,039	-0,037
-325,372	212,568	-0,082	0,094
-324,358	372,572	-0,080	-0,120
-323,343	-75,241	-0,075	-0,019
-322,329	-200,000	0,006	0,028
-321,314	653,508	-0,033	0,062
-320,299	-9,843	-0,086	-0,042
-319,285	188,293	0,037	-0,041
-318,270	-54,089	0,035	-0,012
-317,256	-200,000	0,020	-0,075
-316,241	106,740	-0,041	0,035
-315,226	98,201	0,036	0,030
-314,212	-76,517	0,087	0,022
-313,197	-22,226	-0,110	0,049
-312,183	800,000	0,036	-0,079
-311,168	239,000	-0,052	-0,063
-310,153	-9,924	-0,094	-0,045
-309,139	73,083	-0,096	0,073
-308,124	27,787	0,078	0,048
-307,110	252,964	0,215	0,268
-306,095	357,362	0,007	0,010
-305,080	-25,695	-0,027	0,011
-304,066	238,662	-0,119	-0,145
-303,051	228,340	-0,041	0,049
-302,037	-108,877	0,106	0,016
-301,022	-200,000	-0,002	-0,164
-300,008	-200,000	-0,006	0,149
-298,993	633,094	0,084	0,155
-297,978	800,000	0,031	0,070
-296,964	-85,300	-0,128	-0,029
-295,949	154,358	-0,044	-0,044
-294,935	-200,000	-0,001	-0,054
-293,920	-200,000	0,033	-0,164
-292,905	429,713	0,062	0,098
-291,891	177,644	0,094	0,100
-290,876	-86,144	-0,059	-0,013
-289,862	228,452	0,071	0,085
-288,847	267,139	0,045	0,058
-287,832	-200,000	0,012	-0,112
-286,818	398,355	-0,027	-0,042
-285,803	115,082	0,098	0,088
-284,789	617,139	-0,013	0,024
-283,774	-123,953	-0,122	-0,014
-282,759	400,768	0,046	-0,070
-281,745	-29,073	-0,073	-0,031
-280,730	511,099	0,049	-0,083
-279,716	116,193	-0,034	0,030
-278,701	-11,362	0,193	-0,093
-277,686	610,081	0,027	0,049
-276,672	-200,000	0,016	0,052
-275,657	-200,000	-0,012	-0,057
-274,643	68,502	-0,107	-0,080
-273,628	221,912	0,054	0,064
-272,613	-52,047	-0,074	-0,025
-271,599	-118,196	0,082	0,011
-270,584	-200,000	0,001	0,090
-269,570	-128,613	0,137	-0,014
-268,555	-66,315	-0,081	-0,023
-267,540	131,806	-0,058	-0,055
-266,526	-3,502	-0,080	0,040
-265,511	-44,451	0,093	-0,034
-264,497	28,250	-0,043	-0,026
-263,482	-88,076	0,054	-0,012
-262,467	326,930	-0,024	-0,034
-261,453	100,217	0,052	0,044
-260,438	54,117	0,076	-0,053
-259,424	-200,000	0,024	-0,187
-258,409	-145,739	-0,118	-0,008
-257,395	-23,990	-0,085	-0,037
-256,380	-200,000	-0,021	0,106
-255,365	-24,550	0,167	-0,072
-254,351	800,000	0,035	-0,108
-253,336	678,669	-0,033	0,062
-252,322	499,182	-0,085	-0,143
-251,307	800,000	0,037	-0,112
-250,292	326,716	0,112	0,157
-249,278	-51,399	0,090	-0,031
-248,263	256,589	-0,082	-0,103
-247,249	185,897	0,019	-0,020
-246,234	-72,067	-0,041	-0,011
-245,219	29,284	-0,067	0,042
-244,205	-200,000	0,023	-0,134
-243,190	800,000	-0,059	-0,149
-242,176	-200,000	0,012	0,052
-241,161	800,000	0,059	0,162
-240,146	-200,000	-0,011	0,084
-239,132	-200,000	-0,034	0,129
-238,117	167,321	-0,047	0,049
-237,103	-200,000	0,010	-0,101
-236,088	327,354	-0,075	-0,105
-235,073	-126,891	0,115	0,012
-234,059	25,915	-0,061	0,037
-233,044	-200,000	-0,006	0,045
-232,030	775,300	0,003	0,006
-231,015	105,183	0,092	0,079
-230,000	-200,000	0,007	0,072
-228,986	-187,939	0,103	-0,001
-227,971	-169,773	0,067	-0,002
-226,957	147,586	-0,025	0,024
-225,942	232,337	0,100	0,120
-224,927	176,133	-0,039	-0,042
-223,913	-33,328	-0,090	-0,036
-222,898	-118,418	0,045	-0,006
-221,884	93,103	0,072	0,059
-220,869	140,202	0,117	0,113
-219,855	-59,754	-0,138	0,043
-218,840	-200,000	0,010	0,043
-217,825	94,896	-0,114	-0,095
-216,811	56,728	-0,040	0,028
-215,796	-200,000	-0,010	-0,065
-214,782	-9,149	0,124	0,060
-213,767	-115,126	0,059	0,008
-212,752	-200,000	0,014	-0,086
-211,738	-200,000	-0,007	-0,025
-210,723	-200,000	0,012	-0,046
-209,709	-200,000	0,002	-0,118
-208,694	800,000	0,043	0,109
-207,679	800,000	0,052	-0,107
-206,665	-80,007	-0,052	0,013
-205,650	-89,369	0,197	0,042
-204,636	44,429	0,073	0,049
-203,621	-200,000	0,022	0,000
-202,606	257,402	0,028	0,035
-201,592	-152,852	-0,070	-0,004
-200,577	106,722	0,052	-0,045
-199,563	374,135	-0,041	-0,060
-198,548	265,732	0,011	-0,014
-197,533	736,058	-0,032	0,063
-196,519	-200,000	-0,004	0,035
-195,504	-200,000	-0,000	-0,040
-194,490	125,687	0,066	0,061
-193,475	690,741	-0,014	0,026
-192,460	-200,000	0,003	0,095
-191,446	-53,563	0,092	-0,030
-190,431	42,272	-0,017	-0,011
-189,417	32,322	0,055	0,035
-188,402	11,146	-0,087	-0,049
-187,387	-109,099	0,023	-0,004
-186,373	257,447	-0,013	-0,017
-185,358	-68,466	-0,035	-0,010
-184,344	-21,243	-0,045	-0,020
-183,329	-16,139	-0,120	0,056
-182,315	-200,000	-0,008	0,112
-181,300	141,207	-0,041	-0,039
-180,285	-200,000	-0,016	-0,073
-179,271	-92,232	0,023	-0,005
-178,256	478,825	0,032	0,052
-177,242	318,118	-0,053	0,074
-176,227	-76,748	0,114	0,029
-175,212	108,151	0,049	0,042
-174,198	-38,414	-0,060	-0,023
-173,183	-90,356	0,082	0,017
-172,169	356,878	-0,014	0,021
-171,154	-60,658	0,032	-0,010
-170,139	-63,017	0,128	-0,038
-169,125	280,374	-0,049	-0,064
-168,110	-136,715	-0,220	-0,018
-167,096	188,400	-0,096	0,105
-166,081	-200,000	0,020	-0,116
-165,066	-200,000	-0,013	-0,136
-164,052	-200,000	-0,025	-0,222
-163,037	562,016	-0,009	0,016
-162,023	765,812	0,062	0,123
-161,008	-200,000	0,007	0,108
-159,993	-10,894	-0,084	0,040
-158,979	94,190	-0,062	0,051
-157,964	732,373	0,039	-0,077
-156,950	586,041	0,036	0,064
-155,935	-112,659	0,108	-0,016
-154,920	141,739	0,030	-0,029
-153,906	800,000	0,070	0,216
-152,891	24,797	-0,078	-0,047
-151,877	-80,683	-0,030	-0,007
-150,862	12,525	0,060	-0,034
-149,847	696,209	-0,063	-0,122
-148,833	417,253	0,044	-0,069
-147,818	-107,391	0,130	0,021
-146,804	-117,650	0,038	-0,005
-145,789	107,001	-0,076	0,066
-144,775	12,027	0,090	0,050
-143,760	229,538	0,071	0,085
-142,745	52,848	0,037	-0,026
-141,731	-200,000	0,011	0,059
-140,716	699,229	0,021	0,041
-139,702	336,758	0,078	0,111
-138,687	-28,843	-0,029	0,012
-137,672	30,758	0,147	0,091
-136,658	-29,100	-0,048	-0,020
-135,643	-200,000	0,001	0,099
-134,629	800,000	0,041	0,100
-133,614	-200,000	0,057	0,197
-132,599	-44,152	0,048	0,017
-131,585	125,138	0,084	-0,077
-130,570	59,942	-0,078	0,056
-129,556	38,050	-0,093	0,060
-128,541	132,350	-0,086	-0,081
-127,526	-46,540	-0,035	-0,012
-126,512	800,000	0,030	0,088
-125,497	-200,000	0,013	0,107
-124,483	-200,000	-0,017	0,192
-123,468	-133,306	0,052	-0,005
-122,453	136,311	-0,006	-0,006
-121,439	800,000	-0,019	0,054
-120,424	481,547	-0,023	-0,038
-119,410	9,603	-0,065	-0,036
