DTS Sentinel unit serial number:	SN410029Multiplexer serial number:	ORYXHardware model number:	OX2-SRSoftware version number:	ORYX F/W v4,00 Oryx Data Collector v3.7.2.0data status	okinstallation	B6 Nyhavnadifferential loss correction	single-endedforward channel	channel 2reverse channel	N/Adate	2023/12/10time	05:25:08forward acquisition time	300,00reverse acquisition time	0,00gamma	499,1914k internal	0,3124k external	0,3124temperature offset calibration	1,0000default loss term (dB/km)	0,3820temperature slope calibration	1,0000multiplexer offset coefficient	1,0000multiplexer slope coefficient	1,0000fibre end	0,00T internal ref (°C)	22,42T ext. ref 1 (°C)	6,44T ext. ref 2 (°C)	6,42length (m)	temperature (°C)	Stokes	anti-Stokes-744,400	-200,000	-0,005	-0,111
-743,385	67,510	-0,164	0,125
-742,371	-84,245	0,130	0,031
-741,356	52,207	-0,230	0,163
-740,342	-29,574	0,086	0,036
-739,327	-21,031	-0,172	0,078
-738,312	-200,000	-0,029	-0,149
-737,298	-83,618	-0,219	0,052
-736,283	-105,770	0,102	0,017
-735,269	160,552	-0,210	0,218
-734,254	-200,000	0,002	0,052
-733,239	-25,305	-0,410	-0,180
-732,225	65,131	0,073	0,055
-731,210	-75,556	-0,077	0,020
-730,196	246,776	0,075	-0,094
-729,181	9,944	0,025	-0,014
-728,167	-20,842	0,119	0,054
-727,152	7,800	-0,051	0,028
-726,137	800,000	-0,055	-0,157
-725,123	-97,659	-0,061	0,012
-724,108	0,027	-0,138	-0,073
-723,094	563,061	-0,051	0,092
-722,079	516,490	-0,046	-0,081
-721,064	383,502	0,057	-0,088
-720,050	-93,301	-0,070	-0,014
-719,035	-200,000	0,029	0,107
-718,021	-33,145	-0,053	0,022
-717,006	1,193	0,091	0,048
-715,991	-187,998	-0,077	0,001
-714,977	293,658	-0,104	-0,141
-713,962	304,205	0,028	0,038
-712,948	-200,000	-0,006	-0,181
-711,933	531,905	-0,023	-0,040
-710,918	316,225	-0,055	-0,078
-709,904	65,594	0,040	0,030
-708,889	-76,093	-0,159	-0,041
-707,875	506,192	0,040	-0,070
-706,860	800,000	-0,032	-0,102
-705,845	-200,000	0,003	0,060
-704,831	-45,570	0,052	0,019
-703,816	-200,000	0,005	0,028
-702,802	-200,000	-0,018	-0,061
-701,787	800,000	-0,081	-0,184
-700,772	17,084	0,036	0,021
-699,758	113,779	0,045	-0,041
-698,743	-3,549	-0,034	0,018
-697,729	166,582	-0,056	0,060
-696,714	-21,255	0,100	0,045
-695,699	128,531	0,066	-0,063
-694,685	-75,368	0,080	-0,021
-693,670	-92,680	-0,045	0,009
-692,656	-59,383	0,136	0,043
-691,641	-192,723	0,086	-0,001
-690,627	91,872	-0,011	-0,009
-689,612	92,027	0,119	0,100
-688,597	114,865	0,105	-0,095
-687,583	-200,000	-0,022	-0,089
-686,568	429,426	-0,061	-0,098
-685,554	675,143	-0,074	0,144
-684,539	-31,001	0,167	0,070
-683,524	650,073	-0,043	-0,082
-682,510	235,509	-0,052	0,064
-681,495	242,793	-0,079	0,098
-680,481	-30,357	-0,150	-0,063
-679,466	495,523	-0,043	-0,074
-678,451	-200,000	-0,030	-0,137
-677,437	-91,659	-0,084	-0,018
-676,422	524,758	-0,054	-0,094
-675,408	-179,654	-0,119	-0,002
-674,393	800,000	0,041	0,101
-673,378	170,822	-0,153	-0,163
-672,364	309,374	-0,082	-0,114
-671,349	28,023	-0,020	-0,012
-670,335	-97,528	0,051	0,010
-669,320	-86,236	0,058	-0,013
-668,305	-40,823	-0,090	-0,034
-667,291	-200,000	-0,006	-0,045
-666,276	-0,358	-0,033	0,017
-665,262	-200,000	-0,008	-0,030
-664,247	-104,101	-0,224	-0,038
-663,232	-174,371	0,138	0,003
-662,218	-143,306	-0,015	0,001
-661,203	338,685	-0,066	0,096
-660,189	119,580	-0,068	0,063
-659,174	144,438	-0,159	-0,158
-658,159	107,945	-0,093	0,083
-657,145	312,794	-0,068	-0,094
-656,130	-167,401	-0,054	-0,002
-655,116	800,000	-0,036	0,075
-654,101	-57,784	0,077	-0,025
-653,086	800,000	0,012	0,025
-652,072	800,000	-0,036	-0,105
-651,057	-200,000	-0,031	-0,152
-650,043	138,739	-0,073	0,072
-649,028	-130,809	-0,086	0,008
-648,014	136,127	0,045	0,044
-646,999	-52,752	-0,011	-0,004
-645,984	674,992	-0,025	-0,048
-644,970	200,328	-0,036	0,041
-643,955	800,000	-0,020	-0,046
-642,941	800,000	0,059	-0,143
-641,926	14,277	-0,020	-0,012
-640,911	-200,000	0,006	0,102
-639,897	800,000	-0,031	0,076
-638,882	175,780	-0,037	0,040
-637,868	-200,000	-0,003	0,066
-636,853	-200,000	0,024	-0,112
-635,838	697,929	0,022	-0,044
-634,824	-57,274	-0,084	-0,027
-633,809	800,000	-0,013	0,032
-632,795	37,899	-0,100	-0,066
-631,780	-93,823	-0,066	-0,013
-630,765	562,665	0,050	-0,091
-629,751	258,846	0,037	-0,047
-628,736	800,000	-0,063	-0,143
-627,722	497,566	-0,032	-0,055
-626,707	-200,000	0,007	0,052
-625,692	23,449	-0,074	0,045
-624,678	192,867	-0,072	0,080
-623,663	35,000	-0,032	-0,021
-622,649	-200,000	-0,033	-0,180
-621,634	800,000	0,004	-0,009
-620,619	-93,638	-0,078	-0,016
-619,605	-200,000	-0,000	-0,009
-618,590	800,000	0,019	0,049
-617,576	-200,000	-0,038	0,181
-616,561	800,000	-0,041	-0,105
-615,546	460,234	-0,057	-0,095
-614,532	-66,418	-0,141	-0,041
-613,517	40,771	-0,117	-0,078
-612,503	-135,616	0,031	-0,003
-611,488	-27,162	0,073	0,031
-610,474	775,568	0,022	-0,045
-609,459	800,000	-0,005	-0,016
-608,444	-200,000	-0,014	-0,074
-607,430	265,956	-0,043	0,055
-606,415	605,906	-0,029	-0,054
-605,401	-23,047	-0,109	0,049
-604,386	457,247	0,035	-0,059
-603,371	-200,000	0,008	-0,112
-602,357	82,799	0,125	-0,101
-601,342	512,865	-0,060	-0,104
-600,328	267,578	-0,069	-0,089
-599,313	800,000	0,005	0,013
-598,298	-22,369	-0,026	0,012
-597,284	43,098	0,157	0,106
-596,269	-200,000	0,032	0,203
-595,255	226,278	0,015	0,018
-594,240	43,000	0,057	-0,039
-593,225	-152,939	-0,119	-0,006
-592,211	-200,000	0,002	0,042
-591,196	-63,426	0,062	0,019
-590,182	111,451	-0,072	0,064
-589,167	-138,797	0,087	0,007
-588,152	800,000	0,033	0,073
-587,138	41,615	0,070	-0,047
-586,123	-200,000	0,000	0,026
-585,109	406,896	-0,010	0,016
-584,094	-61,508	-0,013	0,004
-583,079	-54,356	0,104	-0,035
-582,065	255,154	0,041	0,052
-581,050	82,125	-0,024	-0,019
-580,036	800,000	-0,052	-0,143
-579,021	317,724	-0,040	-0,056
-578,006	800,000	-0,042	-0,126
-576,992	800,000	-0,055	-0,134
-575,977	-200,000	0,009	-0,204
-574,963	-200,000	-0,012	-0,060
-573,948	-115,594	-0,066	0,009
-572,934	4,437	0,058	0,031
-571,919	800,000	-0,082	-0,172
-570,904	85,979	-0,073	0,059
-569,890	370,934	-0,031	0,047
-568,875	-61,664	0,040	0,012
-567,861	-62,259	0,160	0,049
-566,846	135,897	0,035	0,033
-565,831	-126,879	0,166	0,018
-564,817	800,000	-0,063	-0,182
-563,802	256,644	-0,067	0,085
-562,788	298,690	-0,037	-0,051
-561,773	800,000	-0,027	0,060
-560,758	800,000	-0,058	0,122
-559,744	777,789	-0,047	-0,096
-558,729	671,151	-0,066	-0,127
-557,715	800,000	-0,050	-0,119
-556,700	800,000	0,044	-0,139
-555,685	-200,000	-0,001	-0,153
-554,671	-200,000	-0,017	-0,137
-553,656	42,906	-0,013	-0,009
-552,642	-69,275	0,147	-0,041
-551,627	179,607	-0,038	0,042
-550,612	-200,000	0,010	0,042
-549,598	-88,894	-0,125	-0,027
-548,583	-104,399	-0,146	-0,025
-547,569	-113,908	0,044	0,006
-546,554	-200,000	-0,010	-0,046
-545,539	-63,716	0,083	0,025
-544,525	112,282	-0,066	-0,059
-543,510	87,704	-0,072	-0,059
-542,496	-69,752	0,057	-0,016
-541,481	800,000	0,015	-0,045
-540,466	800,000	-0,030	-0,087
-539,452	66,426	0,006	0,004
-538,437	77,552	0,090	-0,070
-537,423	-200,000	0,010	0,062
-536,408	-200,000	-0,013	-0,082
-535,393	-86,836	0,113	0,025
-534,379	39,201	0,045	-0,030
-533,364	800,000	-0,029	0,083
-532,350	16,248	-0,076	-0,044
-531,335	311,651	0,081	0,113
-530,321	-165,526	0,094	-0,003
-529,306	-200,000	-0,026	0,162
-528,291	23,409	0,102	0,062
-527,277	75,482	-0,115	-0,090
-526,262	162,905	-0,077	-0,080
-525,248	5,493	-0,101	0,055
-524,233	-200,000	-0,010	-0,065
-523,218	56,600	-0,119	-0,086
-522,204	800,000	0,024	-0,062
-521,189	15,111	-0,125	-0,072
-520,175	156,028	0,059	0,060
-519,160	-44,041	-0,078	-0,029
-518,145	-200,000	0,017	0,068
-517,131	77,388	0,021	0,016
-516,116	-12,986	-0,015	-0,007
-515,102	-173,634	-0,066	-0,001
-514,087	116,643	-0,028	-0,026
-513,072	7,365	-0,100	0,055
-512,058	105,336	0,072	-0,063
-511,043	65,591	0,031	-0,023
-510,029	-200,000	0,003	-0,058
-509,014	-200,000	-0,003	0,012
-507,999	-200,000	-0,031	0,118
-506,985	299,592	-0,008	-0,011
-505,970	-0,003	-0,103	-0,054
-504,956	-200,000	-0,009	0,074
-503,941	800,000	-0,023	0,058
-502,926	-200,000	0,004	-0,064
-501,912	-200,000	0,025	-0,110
-500,897	751,708	-0,009	0,019
-499,883	-57,748	-0,099	0,032
-498,868	-15,158	0,060	-0,028
-497,853	-60,210	0,112	0,035
-496,839	800,000	0,010	-0,023
-495,824	92,528	0,025	0,021
-494,810	-200,000	0,002	-0,052
-493,795	-74,534	-0,037	0,010
-492,781	-31,095	0,056	-0,023
-491,766	92,383	-0,004	0,004
-490,751	-200,000	-0,033	-0,121
-489,737	800,000	-0,008	0,019
-488,722	-118,332	-0,082	0,011
-487,708	643,787	0,066	0,125
-486,693	156,268	0,032	0,032
-485,678	59,791	0,069	0,050
-484,664	41,289	-0,109	-0,073
-483,649	-200,000	-0,016	-0,090
-482,635	233,054	0,074	-0,090
-481,620	-73,198	0,084	0,023
-480,605	-9,893	0,058	0,028
-479,591	-200,000	-0,006	0,091
-478,576	800,000	-0,017	-0,040
-477,562	800,000	-0,039	-0,087
-476,547	-200,000	-0,002	-0,016
-475,532	-200,000	-0,040	-0,133
-474,518	-200,000	-0,015	0,069
-473,503	42,656	0,060	-0,040
-472,489	530,868	0,082	0,144
-471,474	-200,000	0,009	0,073
-470,459	-200,000	0,006	-0,078
-469,445	-200,000	-0,024	-0,158
-468,430	800,000	-0,020	-0,045
-467,416	-71,959	-0,059	0,016
-466,401	85,060	0,079	0,064
-465,386	800,000	0,031	0,069
-464,372	71,876	0,086	0,066
-463,357	-200,000	-0,005	0,089
-462,343	-200,000	0,009	-0,097
-461,328	141,042	0,080	0,078
-460,313	-33,923	-0,165	0,067
-459,299	-120,473	0,033	0,004
-458,284	-200,000	-0,013	0,064
-457,270	-129,506	-0,177	0,018
-456,255	-54,755	0,035	-0,011
-455,241	175,912	-0,019	-0,020
-454,226	-200,000	-0,002	0,014
-453,211	-91,792	0,150	-0,031
-452,197	216,684	-0,072	-0,085
-451,182	11,391	0,182	0,103
-450,168	800,000	-0,040	-0,098
-449,153	-200,000	0,023	-0,090
-448,138	67,757	-0,047	0,035
-447,124	93,732	0,067	0,056
-446,109	-200,000	-0,008	0,027
-445,095	-41,625	0,135	0,051
-444,080	-128,132	0,055	-0,006
-443,065	-200,000	0,024	-0,104
-442,051	175,154	0,127	-0,136
-441,036	54,792	-0,035	-0,025
-440,022	476,626	-0,045	-0,076
-439,007	147,147	0,067	-0,067
-437,992	-200,000	-0,000	-0,002
-436,978	-184,921	0,128	0,001
-435,963	32,178	-0,032	0,020
-434,949	-200,000	0,023	-0,090
-433,934	266,909	-0,046	0,060
-432,919	45,186	-0,121	0,082
-431,905	-200,000	-0,025	-0,125
-430,890	-200,000	-0,044	-0,177
-429,876	800,000	-0,041	-0,117
-428,861	3,939	-0,068	0,037
-427,846	-120,228	0,067	-0,008
-426,832	-200,000	-0,021	-0,145
-425,817	123,010	0,063	0,058
-424,803	93,623	0,068	0,057
-423,788	-72,186	0,023	0,006
-422,773	41,917	-0,054	-0,036
-421,759	-33,454	-0,072	0,029
-420,744	-87,011	-0,057	-0,013
-419,730	-200,000	0,012	0,042
-418,715	-200,000	0,004	-0,210
-417,701	-23,759	-0,120	0,053
-416,686	-96,652	0,044	-0,008
-415,671	-92,726	0,063	0,013
-414,657	-106,492	0,047	0,008
-413,642	-32,764	-0,118	0,048
-412,628	283,866	-0,058	-0,077
-411,613	-200,000	0,009	0,035
-410,598	-200,000	0,003	0,054
-409,584	153,520	-0,081	0,082
-408,569	-100,139	0,101	-0,018
-407,555	-122,443	0,014	-0,002
-406,540	-57,841	0,088	0,028
-405,525	794,589	-0,020	0,040
-404,511	800,000	-0,039	-0,089
-403,496	-34,617	-0,049	0,020
-402,482	-200,000	-0,012	-0,059
-401,467	-200,000	-0,013	0,159
-400,452	8,805	0,131	0,072
-399,438	-117,843	0,182	0,024
-398,423	296,868	-0,058	-0,079
-397,409	416,489	0,014	-0,023
-396,394	797,416	0,029	-0,059
-395,379	-88,259	0,091	-0,020
-394,365	-200,000	-0,008	0,093
-393,350	800,000	0,060	0,161
-392,336	-42,494	-0,020	0,007
-391,321	285,457	-0,079	-0,104
-390,306	-200,000	-0,001	0,063
-389,292	-132,133	-0,068	-0,006
-388,277	64,296	-0,008	-0,006
-387,263	135,486	-0,092	0,088
-386,248	608,075	0,089	0,165
-385,233	-130,897	-0,102	0,010
-384,219	-81,915	0,073	0,017
-383,204	800,000	-0,011	-0,030
-382,190	-77,355	-0,157	0,040
-381,175	29,070	-0,113	0,070
-380,160	-116,457	-0,019	0,003
-379,146	800,000	0,015	0,032
-378,131	-161,221	0,085	0,003
-377,117	49,754	-0,063	0,043
-376,102	-13,151	-0,033	0,016
-375,088	417,359	0,020	-0,032
-374,073	40,815	-0,146	-0,096
-373,058	-106,047	0,066	-0,011
-372,044	-121,338	0,166	0,020
-371,029	503,454	0,086	0,147
-370,015	253,481	-0,097	0,121
-369,000	106,008	-0,026	0,023
-367,985	-51,174	-0,035	-0,012
-366,971	-7,807	-0,092	-0,046
-365,956	-200,000	0,031	0,110
-364,942	354,711	0,033	-0,048
-363,927	-92,076	0,017	0,003
-362,912	-34,038	0,127	-0,051
-361,898	-86,928	-0,079	0,018
-360,883	349,021	-0,026	0,038
-359,869	-200,000	0,002	0,036
-358,854	-200,000	-0,008	-0,083
-357,839	166,466	0,135	-0,141
-356,825	246,606	0,143	0,177
-355,810	-200,000	0,002	-0,017
-354,796	8,731	0,060	-0,033
-353,781	800,000	0,037	0,089
-352,766	115,376	0,082	-0,074
-351,752	-200,000	-0,007	0,037
-350,737	-82,696	-0,020	0,005
-349,723	-140,905	0,047	0,004
-348,708	800,000	0,051	0,138
-347,693	85,218	-0,011	-0,009
-346,679	1,729	-0,053	0,028
-345,664	-129,908	-0,059	-0,006
-344,650	179,813	0,043	-0,046
-343,635	-8,146	0,064	0,031
-342,620	-111,826	0,122	-0,018
-341,606	27,103	-0,132	0,081
-340,591	-200,000	0,042	-0,164
-339,577	25,656	0,048	-0,030
-338,562	-200,000	-0,019	-0,157
-337,548	526,689	0,051	0,089
-336,533	-135,285	0,074	-0,006
-335,518	-200,000	0,014	0,156
-334,504	8,295	0,059	0,032
-333,489	-200,000	-0,004	0,015
-332,475	-37,589	-0,060	0,024
-331,460	422,278	-0,086	0,135
-330,445	-56,262	-0,072	0,023
-329,431	800,000	0,040	0,083
-328,416	-60,463	-0,104	0,032
-327,402	800,000	-0,025	-0,079
-326,387	-98,870	-0,045	-0,008
-325,372	170,523	-0,131	-0,138
-324,358	222,830	-0,051	0,060
-323,343	-141,531	-0,106	0,008
-322,329	216,510	0,056	-0,065
-321,314	800,000	-0,025	-0,077
-320,299	-59,673	0,089	-0,028
-319,285	35,519	0,068	-0,044
-318,270	55,622	-0,076	0,054
-317,256	50,484	0,153	0,106
-316,241	-200,000	0,034	0,154
-315,226	-69,176	0,124	0,035
-314,212	-69,070	0,052	-0,015
-313,197	800,000	-0,069	0,154
-312,183	180,635	0,077	0,082
-311,168	175,123	-0,051	-0,054
-310,153	226,580	0,075	-0,089
-309,139	-151,860	-0,081	0,004
-308,124	142,363	0,036	-0,035
-307,110	-200,000	-0,010	-0,062
-306,095	216,787	0,031	0,036
-305,080	-170,145	-0,130	-0,003
-304,066	538,756	0,055	-0,096
-303,051	26,758	0,053	-0,032
-302,037	-28,704	-0,095	0,040
-301,022	-87,673	-0,093	-0,020
-300,008	152,246	0,048	-0,048
-298,993	124,715	-0,008	-0,007
-297,978	225,735	0,053	0,064
-296,964	-22,832	-0,063	0,028
-295,949	-39,391	-0,081	0,031
-294,935	82,593	0,018	0,014
-293,920	-200,000	0,048	-0,165
-292,905	800,000	0,036	-0,106
-291,891	-12,881	0,064	0,030
-290,876	653,265	0,091	-0,172
-289,862	46,903	0,075	0,051
-288,847	800,000	0,022	0,060
-287,832	-55,759	-0,066	-0,022
-286,818	68,073	0,028	-0,021
-285,803	800,000	-0,037	0,085
-284,789	93,280	0,077	0,063
-283,774	191,218	0,050	0,055
-282,759	44,606	0,114	0,076
-281,745	33,420	-0,103	-0,065
-280,730	-49,676	-0,139	0,048
-279,716	-39,155	-0,024	0,009
-278,701	234,651	-0,056	0,068
-277,686	-200,000	-0,004	-0,035
-276,672	-98,941	-0,102	-0,019
-275,657	-113,887	0,077	-0,011
-274,643	222,959	0,077	-0,091
-273,628	409,703	0,043	-0,067
-272,613	-200,000	-0,011	-0,038
-271,599	-200,000	-0,010	-0,041
-270,584	238,457	0,042	0,051
-269,570	-200,000	-0,010	-0,090
-268,555	-192,773	-0,041	0,000
-267,540	44,537	-0,022	0,015
-266,526	-200,000	0,008	-0,084
-265,511	32,181	-0,047	0,030
-264,497	239,682	-0,043	0,053
-263,482	-200,000	-0,004	-0,046
-262,467	-200,000	-0,009	0,044
-261,453	-200,000	0,007	-0,078
-260,438	800,000	-0,059	-0,121
-259,424	-78,326	0,056	-0,014
-258,409	800,000	-0,022	-0,055
-257,395	386,477	0,092	-0,140
-256,380	-200,000	0,029	0,157
-255,365	-200,000	-0,023	-0,125
-254,351	-89,546	-0,084	0,018
-253,336	800,000	0,055	0,137
-252,322	140,010	-0,101	-0,097
-251,307	-50,338	-0,097	-0,033
-250,292	-79,093	-0,099	0,024
-249,278	89,010	-0,025	0,021
-248,263	109,824	0,193	0,170
-247,249	800,000	0,030	0,079
-246,234	800,000	-0,010	-0,025
-245,219	-178,114	0,068	0,001
-244,205	-12,063	0,077	-0,037
-243,190	9,843	-0,109	0,060
-242,176	50,396	-0,046	-0,032
-241,161	156,270	-0,048	0,049
-240,146	-155,730	-0,044	-0,002
-239,132	-200,000	-0,018	0,105
-238,117	234,076	-0,009	-0,010
-237,103	671,445	0,017	0,033
-236,088	-200,000	-0,022	0,091
-235,073	22,451	0,122	0,073
-234,059	609,714	-0,048	0,088
-233,044	-85,946	0,090	-0,020
-232,030	-143,782	-0,036	-0,002
-231,015	-68,896	-0,106	-0,030
-230,000	-200,000	0,043	-0,145
-228,986	-172,864	0,103	-0,002
-227,971	-200,000	-0,030	0,154
-226,957	96,830	-0,185	0,155
-225,942	-18,597	0,106	0,048
-224,927	86,269	-0,013	-0,011
-223,913	-131,204	-0,144	-0,014
-222,898	180,935	0,082	-0,088
-221,884	-200,000	0,020	0,067
-220,869	-52,334	-0,030	0,010
-219,855	26,013	-0,061	-0,037
-218,840	713,250	-0,049	0,095
-217,825	116,204	0,071	0,063
-216,811	85,619	0,020	0,016
-215,796	147,509	-0,057	0,056
-214,782	450,256	-0,043	-0,069
-213,767	170,630	-0,022	0,023
-212,752	3,525	0,062	0,033
-211,738	84,740	0,058	0,046
-210,723	408,464	0,018	-0,029
-209,709	-200,000	0,001	0,040
-208,694	-2,447	0,102	0,052
-207,679	662,618	0,072	-0,136
-206,665	56,675	-0,087	-0,062
-205,650	252,618	-0,033	-0,042
-204,636	-175,649	0,060	0,001
-203,621	621,246	0,066	0,123
-202,606	268,842	0,126	0,162
-201,592	701,134	-0,047	-0,091
-200,577	-200,000	-0,011	-0,122
-199,563	57,554	0,045	-0,032
-198,548	-36,342	0,079	0,031
-197,533	403,533	-0,146	0,225
-196,519	-200,000	0,026	0,140
-195,504	-200,000	-0,015	0,112
-194,490	-146,832	-0,081	0,005
-193,475	800,000	-0,007	-0,015
-192,460	277,592	-0,061	0,079
-191,446	113,349	0,054	-0,048
-190,431	-200,000	0,016	0,082
-189,417	8,099	0,063	0,034
-188,402	211,724	-0,055	0,063
-187,387	-67,229	-0,162	0,046
-186,373	93,085	0,080	-0,066
-185,358	118,131	-0,101	-0,091
-184,344	-200,000	0,029	0,137
-183,329	-134,133	0,112	0,010
-182,315	800,000	-0,071	0,155
-181,300	-200,000	0,001	-0,109
-180,285	236,897	0,028	0,033
-179,271	78,921	0,086	0,067
-178,256	35,250	0,075	-0,048
-177,242	120,570	0,090	-0,081
-176,227	-17,998	0,046	0,021
-175,212	-161,009	0,139	0,005
-174,198	-200,000	0,017	-0,063
-173,183	-200,000	0,003	0,069
-172,169	-108,967	0,149	0,023
-171,154	-200,000	0,001	-0,111
-170,139	51,867	-0,057	0,039
-169,125	800,000	-0,026	-0,071
-168,110	103,373	0,120	0,102
-167,096	800,000	-0,041	0,093
-166,081	188,536	-0,094	0,102
-165,066	-27,208	0,062	-0,026
-164,052	-48,565	0,141	0,049
-163,037	-66,716	-0,062	0,018
-162,023	29,155	0,109	0,067
-161,008	800,000	-0,056	0,163
-159,993	-79,729	0,026	0,006
-158,979	-200,000	-0,018	0,146
-157,964	-200,000	-0,029	-0,094
-156,950	-200,000	0,005	0,058
-155,935	800,000	-0,040	-0,096
-154,920	447,160	0,072	0,115
-153,906	44,392	0,112	0,075
-152,891	-200,000	-0,029	0,125
-151,877	237,129	0,100	0,121
-150,862	-109,574	0,067	-0,010
-149,847	-200,000	0,012	-0,080
-148,833	108,356	0,090	-0,078
-147,818	800,000	0,029	-0,094
-146,804	800,000	-0,002	0,005
-145,789	77,996	0,068	-0,053
-144,775	-32,108	-0,077	-0,031
-143,760	800,000	0,045	-0,111
-142,745	-36,041	-0,049	-0,019
-141,731	800,000	-0,020	-0,047
-140,716	710,387	-0,037	0,072
-139,702	498,910	-0,009	-0,015
-138,687	184,333	0,038	-0,041
-137,672	451,548	-0,059	0,095
-136,658	-200,000	0,000	-0,049
-135,643	168,566	0,095	-0,098
-134,629	-96,092	0,092	0,018
-133,614	-127,851	-0,095	0,010
-132,599	-200,000	0,020	0,133
-131,585	-115,903	0,073	-0,010
-130,570	800,000	-0,023	-0,047
-129,556	-180,730	0,080	0,001
-128,541	-189,370	0,097	0,001
-127,526	-98,962	-0,022	0,004
-126,512	332,054	-0,081	0,115
-125,497	84,635	0,018	-0,014
-124,483	-92,448	0,021	-0,004
-123,468	-140,900	-0,137	0,010
-122,453	177,812	-0,096	0,101
-121,439	125,523	-0,042	0,039
-120,424	-200,000	0,024	-0,128
-119,410	135,235	0,037	0,035
-118,395	-37,128	0,121	-0,047
