DTS Sentinel unit serial number:	SN410029Multiplexer serial number:	ORYXHardware model number:	OX2-SRSoftware version number:	ORYX F/W v4,00 Oryx Data Collector v3.7.2.0data status	okinstallation	B6 Nyhavnadifferential loss correction	single-endedforward channel	channel 2reverse channel	N/Adate	2023/12/11time	09:55:08forward acquisition time	300,00reverse acquisition time	0,00gamma	499,1914k internal	0,3140k external	0,3140temperature offset calibration	1,0000default loss term (dB/km)	0,3820temperature slope calibration	1,0000multiplexer offset coefficient	1,0000multiplexer slope coefficient	1,0000fibre end	0,00T internal ref (°C)	16,25T ext. ref 1 (°C)	-1,17T ext. ref 2 (°C)	-1,19length (m)	temperature (°C)	Stokes	anti-Stokes-744,400	93,102	0,138	-0,116
-743,385	-56,432	-0,410	0,134
-742,371	-92,174	0,133	0,028
-741,356	-116,027	-0,300	0,041
-740,342	99,933	0,098	0,084
-739,327	-117,411	-0,336	0,045
-738,312	-28,818	0,041	-0,017
-737,298	-164,723	-0,247	0,008
-736,283	77,416	0,091	-0,072
-735,269	-1,932	-0,237	0,123
-734,254	-114,212	0,083	0,012
-733,239	-73,044	-0,500	-0,135
-732,225	385,701	0,113	0,173
-731,210	-200,000	0,007	0,232
-730,196	795,499	-0,022	0,045
-729,181	-124,384	0,133	0,015
-728,167	-200,000	-0,015	0,145
-727,152	800,000	-0,064	0,141
-726,137	-200,000	-0,006	0,034
-725,123	-138,063	-0,152	0,012
-724,108	-200,000	-0,003	0,074
-723,094	32,992	0,053	-0,034
-722,079	-30,932	-0,063	-0,026
-721,064	800,000	-0,030	0,090
-720,050	-200,000	-0,014	0,195
-719,035	-200,000	0,018	-0,065
-718,021	-95,823	-0,016	-0,003
-717,006	-112,009	-0,174	-0,026
-715,991	44,559	-0,082	-0,056
-714,977	596,296	-0,042	-0,078
-713,962	63,715	0,053	0,039
-712,948	144,755	-0,076	-0,075
-711,933	66,230	0,067	-0,050
-710,918	109,776	0,052	-0,046
-709,904	-145,520	0,047	-0,003
-708,889	-94,708	-0,107	0,021
-707,875	349,768	-0,041	-0,060
-706,860	800,000	-0,021	-0,060
-705,845	800,000	0,027	-0,069
-704,831	34,117	-0,091	-0,059
-703,816	-42,604	-0,027	0,010
-702,802	-28,177	-0,093	-0,039
-701,787	783,889	0,051	-0,104
-700,772	169,114	-0,118	-0,124
-699,758	457,348	0,024	-0,039
-698,743	57,783	0,159	0,115
-697,729	-69,999	-0,038	-0,011
-696,714	800,000	-0,013	0,030
-695,699	263,694	-0,067	0,087
-694,685	-200,000	-0,051	-0,212
-693,670	800,000	-0,048	-0,112
-692,656	396,330	-0,032	-0,049
-691,641	-101,347	0,074	-0,013
-690,627	800,000	0,007	-0,016
-689,612	-200,000	0,005	-0,110
-688,597	800,000	-0,040	-0,116
-687,583	327,378	-0,114	-0,162
-686,568	135,311	-0,034	-0,033
-685,554	167,668	0,040	-0,042
-684,539	-155,514	-0,127	-0,006
-683,524	-132,595	0,047	-0,004
-682,510	-200,000	-0,009	-0,056
-681,495	-92,595	-0,041	-0,008
-680,481	-16,574	0,047	-0,022
-679,466	-1,924	-0,169	0,087
-678,451	-200,000	0,035	-0,144
-677,437	-32,572	0,095	0,039
-676,422	-103,186	-0,105	0,018
-675,408	-200,000	-0,027	0,127
-674,393	-200,000	-0,027	-0,094
-673,378	437,347	-0,013	-0,021
-672,364	-200,000	-0,009	-0,181
-671,349	-200,000	0,009	-0,053
-670,335	-200,000	0,011	-0,179
-669,320	-200,000	0,010	-0,077
-668,305	159,090	-0,111	0,114
-667,291	-31,430	0,092	0,038
-666,276	30,900	-0,179	-0,113
-665,262	158,173	-0,030	-0,031
-664,247	-83,402	-0,078	-0,018
-663,232	125,283	0,038	0,036
-662,218	6,495	-0,099	-0,054
-661,203	-88,774	0,097	0,021
-660,189	365,177	-0,078	-0,117
-659,174	248,757	0,058	-0,072
-658,159	-200,000	-0,002	-0,023
-657,145	455,886	0,022	-0,036
-656,130	-157,499	-0,030	0,001
-655,116	343,483	-0,047	0,068
-654,101	482,117	-0,046	0,078
-653,086	-79,058	-0,010	0,002
-652,072	527,526	-0,044	-0,076
-651,057	-200,000	-0,018	-0,089
-650,043	-179,209	-0,080	-0,001
-649,028	-200,000	-0,007	0,054
-648,014	479,053	0,027	-0,045
-646,999	800,000	-0,053	-0,123
-645,984	73,294	-0,026	-0,020
-644,970	191,485	0,084	-0,093
-643,955	37,771	-0,111	-0,072
-642,941	-200,000	0,007	-0,098
-641,926	78,575	-0,115	-0,091
-640,911	-200,000	0,002	-0,098
-639,897	71,838	0,119	0,091
-638,882	19,536	-0,131	0,077
-637,868	160,925	-0,098	0,101
-636,853	65,981	-0,059	0,044
-635,838	133,919	-0,034	-0,033
-634,824	179,247	-0,051	-0,055
-633,809	68,577	-0,045	0,034
-632,795	800,000	-0,059	0,122
-631,780	800,000	-0,047	0,104
-630,765	60,914	0,081	0,059
-629,751	-43,168	-0,193	-0,072
-628,736	25,328	-0,039	-0,024
-627,722	-10,006	0,038	0,019
-626,707	800,000	0,043	-0,089
-625,692	-200,000	-0,013	0,113
-624,678	570,856	0,030	0,054
-623,663	-200,000	0,006	-0,087
-622,649	33,513	-0,091	-0,058
-621,634	-168,398	-0,094	0,003
-620,619	73,788	-0,119	-0,092
-619,605	30,580	0,070	-0,044
-618,590	455,918	0,008	-0,012
-617,576	800,000	-0,003	0,007
-616,561	-200,000	-0,021	0,095
-615,546	-133,230	-0,063	-0,006
-614,532	93,922	-0,042	0,035
-613,517	35,947	-0,061	-0,039
-612,503	21,298	-0,140	0,084
-611,488	11,509	-0,047	-0,026
-610,474	800,000	0,025	0,054
-609,459	800,000	0,033	-0,075
-608,444	-200,000	-0,012	0,076
-607,430	-67,357	-0,099	-0,029
-606,415	8,884	-0,164	-0,091
-605,401	155,093	0,117	0,118
-604,386	-77,761	-0,080	0,020
-603,371	-128,365	-0,114	-0,012
-602,357	-200,000	0,007	0,146
-601,342	-200,000	0,012	0,041
-600,328	800,000	-0,032	0,067
-599,313	508,491	-0,100	0,173
-598,298	800,000	0,008	-0,016
-597,284	486,514	-0,063	-0,106
-596,269	341,986	0,057	0,083
-595,255	-167,382	0,082	-0,002
-594,240	226,111	-0,109	0,131
-593,225	-47,345	-0,163	-0,058
-592,211	-200,000	0,022	-0,075
-591,196	-118,895	-0,114	-0,015
-590,182	-152,128	0,081	0,004
-589,167	-58,518	0,216	0,069
-588,152	114,608	-0,037	-0,033
-587,138	-200,000	0,005	-0,177
-586,123	127,657	-0,073	-0,068
-585,109	-135,765	-0,043	-0,004
-584,094	-200,000	0,010	0,122
-583,079	45,270	0,109	0,074
-582,065	-200,000	-0,129	0,000
-581,050	-151,904	0,126	-0,007
-580,036	-200,000	0,000	0,048
-579,021	800,000	-0,032	-0,104
-578,006	347,561	-0,048	-0,070
-576,992	-200,000	-0,003	0,059
-575,977	-130,778	0,131	0,013
-574,963	-23,743	0,126	0,055
-573,948	326,873	-0,074	-0,105
-572,934	-153,810	-0,050	0,002
-571,919	-80,819	-0,156	-0,038
-570,904	800,000	0,028	-0,068
-569,890	-38,779	-0,120	0,046
-568,875	-200,000	-0,008	0,061
-567,861	83,226	0,060	0,048
-566,846	105,745	-0,045	0,039
-565,831	-154,140	0,026	-0,001
-564,817	-111,044	-0,090	-0,013
-563,802	159,473	0,061	-0,063
-562,788	-118,263	-0,044	-0,006
-561,773	-200,000	-0,009	0,080
-560,758	-200,000	-0,010	0,076
-559,744	-67,092	-0,121	-0,035
-558,729	-125,569	0,073	0,008
-557,715	328,335	-0,097	-0,138
-556,700	180,422	0,049	-0,053
-555,685	-200,000	0,006	0,077
-554,671	-127,200	0,073	-0,008
-553,656	-120,742	0,154	-0,019
-552,642	-84,936	-0,040	-0,009
-551,627	-200,000	0,014	-0,046
-550,612	192,061	0,022	0,025
-549,598	218,268	-0,049	-0,058
-548,583	-94,314	-0,148	-0,030
-547,569	-58,550	-0,041	-0,013
-546,554	90,099	-0,116	-0,095
-545,539	53,826	0,068	0,048
-544,525	-48,644	-0,081	-0,029
-543,510	-200,000	-0,030	-0,109
-542,496	-166,769	-0,029	-0,001
-541,481	106,586	-0,031	-0,027
-540,466	-166,810	-0,066	0,002
-539,452	800,000	-0,012	-0,032
-538,437	800,000	0,033	0,072
-537,423	43,091	0,117	0,078
-536,408	-98,426	-0,064	-0,012
-535,393	-26,332	0,068	-0,029
-534,379	800,000	0,011	0,025
-533,364	435,970	-0,030	-0,048
-532,350	-76,818	0,036	0,009
-531,335	-68,647	0,051	-0,014
-530,321	59,694	-0,017	-0,012
-529,306	-102,180	-0,121	-0,021
-528,291	38,990	0,073	0,048
-527,277	91,800	-0,102	-0,084
-526,262	-62,511	-0,041	0,012
-525,248	-200,000	0,028	0,118
-524,233	206,280	-0,091	-0,105
-523,218	-2,714	0,115	0,059
-522,204	-200,000	0,028	0,115
-521,189	184,539	-0,130	0,142
-520,175	-193,332	0,053	0,000
-519,160	-45,175	0,054	-0,020
-518,145	71,334	-0,106	-0,081
-517,131	-200,000	0,008	0,226
-516,116	-86,382	-0,057	-0,013
-515,102	-200,000	0,009	-0,124
-514,087	-200,000	-0,008	-0,055
-513,072	201,877	0,048	0,055
-512,058	-200,000	0,009	-0,073
-511,043	-144,666	-0,056	-0,004
-510,029	-200,000	-0,026	0,156
-509,014	-50,486	-0,030	-0,010
-507,999	-48,379	-0,115	0,040
-506,985	-16,570	-0,037	-0,017
-505,970	41,720	0,037	-0,024
-504,956	79,679	-0,130	-0,102
-503,941	-94,028	0,182	0,036
-502,926	800,000	-0,042	0,129
-501,912	-200,000	0,021	0,239
-500,897	-69,440	0,159	0,045
-499,883	-8,355	-0,158	-0,078
-498,868	-75,969	-0,077	-0,020
-497,853	-119,138	0,146	-0,018
-496,839	110,772	0,128	-0,113
-495,824	588,511	-0,060	0,110
-494,810	322,764	-0,029	-0,041
-493,795	607,600	-0,066	-0,122
-492,781	250,663	0,099	0,123
-491,766	481,433	0,017	0,028
-490,751	800,000	-0,072	0,173
-489,737	656,039	-0,034	-0,065
-488,722	-159,179	0,071	-0,003
-487,708	59,248	0,056	0,040
-486,693	107,068	0,032	-0,028
-485,678	-200,000	0,003	0,075
-484,664	101,709	-0,106	0,090
-483,649	85,171	-0,107	-0,086
-482,635	-142,414	-0,057	-0,004
-481,620	62,903	0,188	0,138
-480,605	-200,000	-0,018	-0,063
-479,591	314,423	0,030	0,041
-478,576	-85,310	-0,068	-0,016
-477,562	-29,643	0,087	0,036
-476,547	731,264	0,031	0,062
-475,532	-200,000	-0,012	-0,099
-474,518	396,922	0,026	0,040
-473,503	-200,000	0,013	0,136
-472,489	489,778	0,015	0,024
-471,474	-28,115	0,156	0,066
-470,459	-5,464	-0,034	0,017
-469,445	-200,000	0,016	-0,064
-468,430	-200,000	0,004	-0,025
-467,416	57,699	-0,074	0,053
-466,401	-112,238	0,135	-0,020
-465,386	-25,758	0,100	0,043
-464,372	-200,000	-0,008	0,072
-463,357	580,450	0,024	0,044
-462,343	109,588	-0,033	-0,029
-461,328	-34,425	-0,071	-0,029
-460,313	800,000	0,032	-0,102
-459,299	38,641	0,058	-0,038
-458,284	361,590	0,039	0,058
-457,270	720,011	-0,025	-0,050
-456,255	-200,000	0,018	0,070
-455,241	-160,807	-0,094	0,004
-454,226	450,054	-0,030	-0,049
-453,211	800,000	-0,019	-0,050
-452,197	82,529	-0,026	-0,021
-451,182	-128,241	0,108	0,011
-450,168	-113,131	-0,043	-0,006
-449,153	91,895	-0,045	-0,037
-448,138	680,773	-0,020	-0,039
-447,124	-174,710	-0,058	-0,001
-446,109	800,000	-0,020	0,062
-445,095	-200,000	0,001	0,114
-444,080	-200,000	0,004	0,016
-443,065	800,000	-0,018	-0,041
-442,051	-54,890	0,026	0,009
-441,036	-200,000	-0,024	0,136
-440,022	-118,324	-0,077	0,010
-439,007	241,392	-0,015	0,018
-437,992	446,051	0,030	-0,049
-436,978	-200,000	0,007	-0,048
-435,963	759,224	0,065	0,129
-434,949	7,199	-0,114	-0,062
-433,934	62,349	-0,036	-0,026
-432,919	800,000	-0,040	-0,100
-431,905	-103,224	0,179	0,031
-430,890	-140,976	0,061	0,005
-429,876	800,000	0,054	0,115
-428,861	800,000	0,035	-0,087
-427,846	-4,670	-0,076	0,038
-426,832	-200,000	0,014	0,153
-425,817	-148,212	-0,037	0,002
-424,803	26,602	0,097	0,059
-423,788	-52,769	-0,088	-0,030
-422,773	-66,201	0,121	0,035
-421,759	309,883	-0,024	-0,033
-420,744	-164,068	0,075	0,002
-419,730	150,131	0,030	-0,030
-418,715	800,000	0,023	-0,056
-417,701	-200,000	0,004	-0,063
-416,686	491,404	0,032	0,054
-415,671	-83,654	-0,016	-0,004
-414,657	-200,000	0,019	0,168
-413,642	301,575	0,075	-0,101
-412,628	726,134	-0,074	-0,144
-411,613	626,776	-0,072	-0,134
-410,598	34,183	-0,081	0,052
-409,584	-200,000	-0,016	0,115
-408,569	118,552	0,103	0,093
-407,555	-200,000	0,003	0,080
-406,540	-101,212	-0,190	0,034
-405,525	373,528	0,051	-0,077
-404,511	-200,000	0,008	0,154
-403,496	601,439	-0,058	0,106
-402,482	-200,000	0,007	-0,036
-401,467	-200,000	-0,009	0,031
-400,452	-96,840	0,076	0,014
-399,438	-200,000	-0,012	-0,079
-398,423	-138,419	-0,177	-0,014
-397,409	800,000	-0,076	-0,164
-396,394	230,619	0,089	0,106
-395,379	434,177	0,049	-0,078
-394,365	515,534	0,017	0,029
-393,350	-200,000	0,007	0,193
-392,336	354,480	0,079	-0,115
-391,321	-57,576	-0,127	0,040
-390,306	-0,076	-0,103	-0,053
-389,292	-129,048	0,112	0,011
-388,277	241,391	0,092	-0,113
-387,263	-77,242	-0,023	-0,006
-386,248	175,092	-0,087	0,092
-385,233	734,297	0,021	0,042
-384,219	-200,000	0,015	0,090
-383,204	-171,353	-0,044	-0,001
-382,190	189,447	0,076	-0,083
-381,175	800,000	-0,064	0,151
-380,160	2,623	0,090	-0,048
-379,146	-105,717	-0,016	0,003
-378,131	-147,134	-0,081	-0,005
-377,117	240,850	-0,044	-0,054
-376,102	-57,081	-0,062	0,020
-375,088	67,963	-0,081	-0,061
-374,073	800,000	0,025	0,073
-373,058	396,546	0,069	0,105
-372,044	-166,294	0,111	-0,003
-371,029	167,047	0,065	0,068
-370,015	-2,050	0,042	0,021
-369,000	-132,245	0,081	0,008
-367,985	-86,606	-0,081	0,018
-366,971	-115,623	0,160	0,022
-365,956	320,842	-0,017	-0,024
-364,942	151,115	0,021	0,021
-363,927	800,000	0,046	-0,103
-362,912	154,790	-0,053	-0,053
-361,898	-125,543	-0,082	-0,009
-360,883	258,590	-0,070	-0,089
-359,869	99,092	-0,072	-0,060
-358,854	-200,000	-0,039	-0,127
-357,839	18,430	0,100	-0,058
-356,825	131,223	-0,114	0,107
-355,810	-142,528	0,156	0,011
-354,796	-200,000	-0,001	-0,126
-353,781	-200,000	0,027	-0,184
-352,766	-200,000	0,024	-0,077
-351,752	800,000	0,028	0,058
-350,737	-200,000	0,018	0,062
-349,723	684,011	0,013	-0,024
-348,708	6,472	-0,162	0,088
-347,693	31,068	0,034	0,021
-346,679	-145,391	-0,016	-0,001
-345,664	-58,457	-0,036	-0,011
-344,650	-71,714	0,107	-0,029
-343,635	206,377	0,092	0,105
-342,620	416,867	0,027	-0,043
-341,606	800,000	0,039	0,083
-340,591	-200,000	-0,015	0,054
-339,577	-8,341	0,124	0,061
-338,562	69,334	-0,103	-0,077
-337,548	-200,000	0,020	0,108
-336,533	800,000	0,022	0,052
-335,518	497,293	-0,019	0,032
-334,504	14,818	-0,114	-0,065
-333,489	7,783	-0,035	-0,019
-332,475	-200,000	-0,007	-0,031
-331,460	-200,000	-0,031	-0,199
-330,445	-2,355	0,050	-0,025
-329,431	800,000	-0,056	-0,153
-328,416	-65,803	0,054	-0,016
-327,402	344,903	0,075	-0,108
-326,387	-200,000	0,005	0,044
-325,372	-41,896	-0,117	0,044
-324,358	120,899	0,079	-0,071
-323,343	-111,931	0,099	-0,014
-322,329	-200,000	0,001	0,037
-321,314	95,948	0,043	-0,036
-320,299	800,000	0,070	0,152
-319,285	172,155	0,006	0,007
-318,270	800,000	0,024	-0,050
-317,256	800,000	-0,028	-0,066
-316,241	75,565	0,125	-0,096
-315,226	421,936	-0,037	-0,057
-314,212	319,533	0,091	0,126
-313,197	128,375	0,089	0,083
-312,183	18,137	-0,064	0,037
-311,168	800,000	-0,036	-0,101
-310,153	-200,000	-0,005	-0,078
-309,139	104,053	-0,137	-0,117
-308,124	162,309	0,087	-0,089
-307,110	-114,187	-0,065	-0,009
-306,095	-200,000	-0,012	0,093
-305,080	-200,000	0,005	-0,110
-304,066	109,052	-0,106	-0,092
-303,051	-200,000	-0,004	-0,030
-302,037	712,049	-0,069	-0,134
-301,022	434,928	0,101	-0,161
-300,008	-200,000	-0,005	0,052
-298,993	800,000	-0,027	0,065
-297,978	-187,812	0,062	0,001
-296,964	-78,068	-0,079	-0,020
-295,949	20,073	-0,091	-0,053
-294,935	-200,000	0,019	-0,082
-293,920	339,497	0,038	-0,053
-292,905	-108,438	0,102	0,016
-291,891	88,799	0,093	-0,075
-290,876	77,512	0,074	0,057
-289,862	-200,000	0,015	0,071
-288,847	185,390	0,077	-0,083
-287,832	-200,000	-0,001	-0,019
-286,818	175,486	0,087	0,092
-285,803	800,000	-0,057	-0,135
-284,789	-200,000	0,024	-0,130
-283,774	-200,000	0,005	-0,052
-282,759	-0,368	-0,093	-0,048
-281,745	-98,477	-0,053	-0,010
-280,730	160,041	0,098	0,099
-279,716	20,195	0,046	0,027
-278,701	-22,028	-0,021	0,009
-277,686	261,960	-0,094	0,119
-276,672	-200,000	0,016	0,090
-275,657	124,917	-0,110	0,101
-274,643	526,175	-0,038	0,066
-273,628	-17,509	0,141	-0,064
-272,613	207,710	-0,046	0,053
-271,599	-17,959	-0,014	-0,007
-270,584	-200,000	-0,027	-0,093
-269,570	-200,000	0,013	0,063
-268,555	-200,000	0,029	-0,111
-267,540	23,190	-0,089	-0,053
-266,526	-200,000	-0,028	-0,114
-265,511	-76,668	0,163	-0,041
-264,497	-200,000	0,013	-0,073
-263,482	316,431	0,025	0,035
-262,467	-200,000	-0,008	-0,028
-261,453	800,000	0,059	0,160
-260,438	26,173	-0,190	0,115
-259,424	422,050	0,112	-0,176
-258,409	230,555	-0,033	0,040
-257,395	-200,000	-0,029	-0,106
-256,380	-200,000	0,004	-0,115
-255,365	800,000	0,026	0,061
-254,351	-30,433	0,193	0,079
-253,336	-200,000	-0,015	-0,105
-252,322	118,676	0,053	-0,048
-251,307	277,507	0,037	-0,048
-250,292	800,000	-0,047	-0,131
-249,278	-22,415	0,141	-0,062
-248,263	55,990	0,055	0,039
-247,249	-0,616	0,096	0,050
-246,234	-200,000	0,004	0,115
-245,219	147,745	-0,079	0,077
-244,205	-110,126	-0,090	-0,013
-243,190	-58,362	0,095	0,030
-242,176	-8,132	0,144	0,070
-241,161	294,859	0,104	-0,138
-240,146	-16,688	0,016	-0,007
-239,132	139,527	-0,050	-0,048
-238,117	-200,000	0,018	-0,148
-237,103	-143,960	0,171	-0,012
-236,088	214,519	0,078	-0,090
-235,073	-12,827	0,125	0,059
-234,059	800,000	0,018	-0,047
-233,044	140,047	-0,058	0,056
-232,030	-168,333	-0,106	-0,003
-231,015	-200,000	0,016	-0,113
-230,000	-174,718	-0,016	0,000
-228,986	-200,000	-0,001	-0,136
-227,971	-200,000	0,022	-0,086
-226,957	-88,438	-0,081	0,017
-225,942	-200,000	-0,033	0,205
-224,927	-17,731	0,032	0,014
-223,913	22,457	0,172	0,102
-222,898	135,358	0,096	0,091
-221,884	366,333	-0,035	-0,051
-220,869	-200,000	0,005	0,103
-219,855	216,528	0,088	0,102
-218,840	109,081	0,072	0,062
-217,825	278,802	0,030	-0,039
-216,811	-200,000	-0,005	0,117
-215,796	800,000	0,042	-0,114
-214,782	147,337	0,020	0,020
-213,767	151,281	0,070	-0,069
-212,752	-200,000	-0,003	0,015
-211,738	-101,636	0,044	0,008
-210,723	800,000	-0,010	-0,028
-209,709	-200,000	-0,001	0,005
-208,694	400,920	-0,053	-0,080
-207,679	94,753	-0,038	0,032
-206,665	600,274	0,103	0,187
-205,650	522,664	0,026	-0,044
-204,636	-200,000	0,002	-0,135
-203,621	522,959	-0,028	0,049
-202,606	-200,000	-0,027	-0,172
-201,592	109,800	0,034	-0,030
-200,577	-200,000	-0,030	-0,151
-199,563	264,926	0,069	0,088
-198,548	-107,161	-0,066	0,011
-197,533	-200,000	0,003	0,033
-196,519	58,618	-0,060	0,043
-195,504	-200,000	-0,009	-0,045
-194,490	-60,651	-0,180	-0,055
-193,475	-200,000	-0,039	-0,167
-192,460	-155,491	0,090	0,004
-191,446	-61,018	0,020	0,006
-190,431	-123,102	0,104	-0,012
-189,417	-200,000	-0,001	0,170
-188,402	-200,000	-0,013	0,094
-187,387	800,000	-0,031	0,092
-186,373	-6,150	0,044	-0,022
-185,358	-200,000	0,013	0,150
-184,344	-63,110	-0,060	0,018
-183,329	800,000	0,046	0,121
-182,315	94,487	0,017	0,014
-181,300	-29,368	-0,141	-0,058
-180,285	314,909	-0,026	-0,036
-179,271	-78,036	-0,149	0,037
-178,256	-86,707	-0,080	0,018
-177,242	-97,730	0,126	0,023
-176,227	-7,678	0,050	0,024
-175,212	-129,304	-0,038	-0,004
-174,198	-141,491	0,031	-0,002
-173,183	-86,707	0,080	0,018
-172,169	-148,119	0,032	-0,002
-171,154	24,499	-0,030	0,018
-170,139	-46,174	0,104	0,037
-169,125	137,245	0,046	0,044
-168,110	205,690	-0,063	0,071
-167,096	-200,000	0,087	-0,000
-166,081	-67,661	-0,040	0,011
-165,066	-102,919	-0,108	-0,018
-164,052	431,377	0,077	-0,122
-163,037	-154,502	0,055	0,003
-162,023	800,000	0,032	0,083
-161,008	181,958	-0,071	0,076
-159,993	42,314	0,104	0,069
-158,979	369,520	-0,050	-0,074
-157,964	402,812	0,051	-0,078
-156,950	-200,000	0,001	-0,007
-155,935	-14,931	0,148	0,068
-154,920	-200,000	-0,012	-0,039
-153,906	202,785	0,080	-0,090
-152,891	34,225	-0,085	0,054
-151,877	136,593	0,036	0,034
-150,862	-200,000	-0,015	-0,084
-149,847	-138,718	-0,027	0,002
-148,833	572,867	0,055	-0,098
-147,818	-40,294	0,055	0,021
-146,804	435,135	0,013	-0,021
-145,789	-11,651	0,099	0,047
-144,775	202,099	0,050	-0,056
-143,760	235,942	0,066	-0,079
-142,745	-200,000	-0,018	0,097
-141,731	146,008	0,145	0,141
-140,716	234,562	0,076	0,091
-139,702	-200,000	-0,008	0,067
-138,687	-3,268	-0,023	0,012
-137,672	135,532	0,013	0,013
-136,658	-105,817	0,154	-0,025
-135,643	-200,000	0,000	0,080
-134,629	689,099	0,008	0,015
-133,614	468,610	0,024	-0,039
-132,599	201,087	-0,054	-0,061
-131,585	-1,657	-0,106	0,054
-130,570	282,252	-0,025	0,032
-129,556	-21,730	-0,011	-0,005
-128,541	70,231	0,045	-0,034
-127,526	-149,112	-0,089	0,005
-126,512	-200,000	-0,008	0,067
-125,497	-1,462	0,119	0,060
-124,483	-200,000	-0,007	0,121
-123,468	28,573	-0,068	0,041
-122,453	-200,000	-0,023	-0,089
-121,439	201,386	0,038	0,043
-120,424	274,893	-0,085	0,109
