DTS Sentinel unit serial number:	SN410029Multiplexer serial number:	ORYXHardware model number:	OX2-SRSoftware version number:	ORYX F/W v4,00 Oryx Data Collector v3.7.2.0data status	okinstallation	B6 Nyhavnadifferential loss correction	single-endedforward channel	channel 2reverse channel	N/Adate	2023/12/07time	19:50:08forward acquisition time	300,00reverse acquisition time	0,00gamma	499,1914k internal	0,3164k external	0,3164temperature offset calibration	1,0000default loss term (dB/km)	0,3820temperature slope calibration	1,0000multiplexer offset coefficient	1,0000multiplexer slope coefficient	1,0000fibre end	0,00T internal ref (°C)	13,94T ext. ref 1 (°C)	-3,04T ext. ref 2 (°C)	-3,04length (m)	temperature (°C)	Stokes	anti-Stokes-744,400	-43,387	0,086	-0,032
-743,385	-22,542	-0,152	-0,068
-742,371	128,430	0,123	0,115
-741,356	-120,938	-0,308	0,038
-740,342	48,059	0,218	0,150
-739,327	-111,339	-0,413	-0,061
-738,312	80,911	0,071	-0,056
-737,298	-137,064	-0,244	-0,020
-736,283	-153,254	0,056	0,003
-735,269	-84,458	-0,269	-0,062
-734,254	-66,493	0,206	0,060
-733,239	11,398	-0,478	-0,269
-732,225	2,349	0,244	0,130
-731,210	436,135	0,008	0,012
-730,196	-12,932	0,024	0,011
-729,181	672,101	0,035	-0,066
-728,167	-127,967	0,048	-0,005
-727,152	-200,000	-0,014	0,054
-726,137	800,000	-0,037	0,106
-725,123	-68,111	-0,084	-0,024
-724,108	292,560	-0,157	-0,211
-723,094	800,000	-0,067	-0,166
-722,079	-200,000	0,030	-0,156
-721,064	63,897	-0,069	-0,051
-720,050	-14,934	-0,037	-0,017
-719,035	-200,000	-0,028	-0,096
-718,021	-59,558	-0,111	-0,035
-717,006	-2,327	-0,151	0,078
-715,991	-141,821	0,077	-0,006
-714,977	221,087	-0,088	-0,104
-713,962	800,000	-0,025	-0,061
-712,948	800,000	0,050	0,145
-711,933	800,000	-0,007	-0,024
-710,918	-124,604	0,186	-0,021
-709,904	-21,544	-0,048	-0,021
-708,889	-111,573	-0,082	-0,012
-707,875	-200,000	-0,015	0,080
-706,860	800,000	0,008	0,024
-705,845	-133,863	0,064	0,006
-704,831	-42,243	0,113	0,042
-703,816	-61,931	0,010	0,003
-702,802	-182,962	0,038	0,000
-701,787	360,891	-0,010	-0,015
-700,772	505,266	-0,086	-0,146
-699,758	800,000	0,005	-0,013
-698,743	19,846	0,135	0,079
-697,729	-22,888	-0,210	0,093
-696,714	-104,323	-0,123	-0,021
-695,699	800,000	-0,029	-0,094
-694,685	800,000	-0,064	-0,171
-693,670	-200,000	-0,011	-0,073
-692,656	800,000	0,031	0,081
-691,641	-55,781	0,181	0,059
-690,627	295,852	-0,022	-0,029
-689,612	-88,454	0,133	0,029
-688,597	-200,000	0,037	-0,123
-687,583	237,763	-0,051	-0,062
-686,568	-61,230	-0,061	0,019
-685,554	176,473	0,085	0,091
-684,539	58,914	-0,065	-0,047
-683,524	373,394	0,091	-0,136
-682,510	206,478	0,039	-0,045
-681,495	119,390	0,069	-0,062
-680,481	-52,049	-0,033	0,011
-679,466	-15,555	-0,071	0,033
-678,451	-200,000	-0,013	0,095
-677,437	17,583	0,122	0,071
-676,422	119,762	-0,101	0,092
-675,408	104,083	-0,140	0,121
-674,393	66,569	-0,109	-0,081
-673,378	-200,000	-0,010	-0,058
-672,364	-109,595	-0,082	-0,013
-671,349	-200,000	-0,007	0,045
-670,335	-200,000	0,007	-0,103
-669,320	-39,546	0,076	0,029
-668,305	-200,000	0,055	-0,000
-667,291	-142,071	-0,130	-0,009
-666,276	-27,241	0,200	0,085
-665,262	-13,952	-0,091	-0,043
-664,247	-200,000	0,008	-0,106
-663,232	-144,473	-0,225	-0,015
-662,218	110,018	0,091	-0,080
-661,203	-35,652	0,135	-0,054
-660,189	-119,523	0,057	0,007
-659,174	545,361	-0,052	-0,091
-658,159	800,000	0,017	-0,040
-657,145	-53,811	0,031	-0,010
-656,130	-200,000	0,016	-0,083
-655,116	474,279	0,039	0,064
-654,101	83,249	-0,128	0,102
-653,086	96,600	-0,045	-0,038
-652,072	373,910	0,076	-0,114
-651,057	98,087	0,083	0,070
-650,043	280,122	-0,109	-0,143
-649,028	364,172	0,041	-0,060
-648,014	-132,882	-0,038	-0,004
-646,999	39,154	0,097	0,063
-645,984	-200,000	-0,009	-0,087
-644,970	-200,000	0,004	-0,017
-643,955	-200,000	-0,007	0,089
-642,941	-157,437	0,150	0,007
-641,926	57,159	0,027	-0,019
-640,911	9,986	0,080	-0,044
-639,897	-200,000	0,003	0,084
-638,882	357,590	0,052	0,077
-637,868	708,127	0,052	-0,101
-636,853	29,958	-0,055	-0,034
-635,838	-133,825	-0,152	0,014
-634,824	-11,284	0,038	-0,018
-633,809	-200,000	0,017	-0,071
-632,795	235,733	0,073	0,089
-631,780	216,736	-0,030	0,036
-630,765	26,825	0,052	0,032
-629,751	-130,760	0,065	-0,006
-628,736	-200,000	-0,012	-0,050
-627,722	283,260	0,042	-0,055
-626,707	530,535	-0,024	0,042
-625,692	-200,000	0,029	0,111
-624,678	800,000	0,035	-0,078
-623,663	543,340	0,058	-0,101
-622,649	-200,000	-0,005	-0,145
-621,634	-20,447	-0,048	0,022
-620,619	333,850	0,068	-0,097
-619,605	193,597	0,111	0,123
-618,590	42,006	0,104	0,069
-617,576	258,897	-0,048	0,061
-616,561	13,256	-0,052	0,029
-615,546	800,000	-0,061	-0,160
-614,532	-200,000	-0,015	-0,196
-613,517	-200,000	0,010	0,034
-612,503	-200,000	-0,020	-0,068
-611,488	191,310	-0,075	-0,082
-610,474	95,182	-0,128	0,107
-609,459	-166,110	-0,052	-0,002
-608,444	-200,000	0,028	-0,104
-607,430	44,091	0,061	0,041
-606,415	800,000	-0,055	-0,135
-605,401	-64,433	0,094	-0,028
-604,386	-200,000	0,009	0,059
-603,371	800,000	-0,002	0,007
-602,357	-200,000	0,003	-0,118
-601,342	-152,970	-0,050	0,003
-600,328	308,251	-0,043	0,059
-599,313	153,772	-0,044	-0,044
-598,298	800,000	-0,017	0,040
-597,284	-14,545	-0,078	0,037
-596,269	-200,000	-0,024	0,152
-595,255	728,203	-0,031	-0,060
-594,240	486,508	-0,101	-0,170
-593,225	16,156	-0,074	-0,042
-592,211	176,553	-0,025	0,027
-591,196	800,000	-0,048	0,127
-590,182	-127,747	0,067	0,007
-589,167	281,043	0,124	0,162
-588,152	800,000	-0,051	0,133
-587,138	111,088	0,082	-0,072
-586,123	404,545	-0,077	-0,119
-585,109	-200,000	-0,017	-0,177
-584,094	-13,470	0,127	-0,060
-583,079	-32,252	-0,116	0,047
-582,065	432,936	-0,035	0,056
-581,050	-200,000	-0,011	-0,042
-580,036	520,891	-0,038	-0,066
-579,021	563,191	0,046	-0,081
-578,006	261,490	0,014	-0,018
-576,992	172,040	-0,072	-0,075
-575,977	-200,000	-0,005	-0,082
-574,963	-98,857	0,122	0,022
-573,948	185,251	-0,043	0,046
-572,934	-131,249	-0,126	-0,012
-571,919	-200,000	-0,005	-0,031
-570,904	174,168	0,033	-0,035
-569,890	-200,000	0,015	-0,069
-568,875	-155,410	0,075	0,004
-567,861	-200,000	-0,007	-0,095
-566,846	-162,332	0,065	-0,002
-565,831	-153,335	-0,079	-0,004
-564,817	-139,082	-0,023	0,002
-563,802	800,000	0,024	-0,058
-562,788	-200,000	-0,012	0,175
-561,773	-106,391	0,136	0,022
-560,758	603,782	-0,021	0,038
-559,744	-200,000	-0,004	0,056
-558,729	-127,952	0,049	0,005
-557,715	242,935	-0,042	0,052
-556,700	81,397	0,067	-0,053
-555,685	2,684	0,109	-0,058
-554,671	800,000	-0,049	0,125
-553,656	233,563	0,099	0,119
-552,642	-102,687	0,097	-0,017
-551,627	-200,000	0,011	0,076
-550,612	-46,456	-0,073	0,026
-549,598	800,000	0,022	-0,059
-548,583	-200,000	-0,015	-0,077
-547,569	-106,543	-0,089	0,014
-546,554	504,621	0,059	-0,099
-545,539	447,157	-0,098	0,157
-544,525	-99,295	0,057	-0,010
-543,510	-105,771	-0,044	-0,007
-542,496	173,800	-0,102	0,108
-541,481	-160,025	0,103	0,004
-540,466	-41,424	-0,197	-0,073
-539,452	800,000	-0,025	-0,059
-538,437	506,839	-0,048	-0,082
-537,423	800,000	-0,040	-0,100
-536,408	37,213	-0,049	0,031
-535,393	133,471	0,020	0,019
-534,379	10,638	-0,034	0,019
-533,364	-97,807	-0,116	0,022
-532,350	-109,665	0,032	0,005
-531,335	228,273	-0,033	0,039
-530,321	608,447	-0,031	-0,056
-529,306	-28,277	-0,066	0,028
-528,291	-200,000	0,016	-0,103
-527,277	26,604	0,028	-0,017
-526,262	6,752	-0,180	-0,097
-525,248	-8,035	0,055	0,027
-524,233	-200,000	0,020	-0,207
-523,218	-144,581	-0,127	0,008
-522,204	800,000	0,016	0,043
-521,189	800,000	0,031	-0,084
-520,175	-200,000	0,016	-0,101
-519,160	-200,000	0,009	-0,119
-518,145	250,733	-0,013	0,016
-517,131	-77,221	-0,101	-0,025
-516,116	-200,000	0,004	-0,023
-515,102	-200,000	-0,004	-0,156
-514,087	-117,682	-0,140	-0,018
-513,072	-200,000	-0,024	-0,147
-512,058	-29,794	0,130	-0,054
-511,043	-200,000	-0,027	0,103
-510,029	-200,000	0,004	0,022
-509,014	800,000	0,026	-0,083
-507,999	118,180	0,036	0,032
-506,985	-136,600	-0,124	-0,010
-505,970	-200,000	0,001	-0,067
-504,956	434,683	-0,067	-0,107
-503,941	737,375	0,043	-0,084
-502,926	-200,000	-0,020	0,064
-501,912	-200,000	0,031	0,117
-500,897	287,811	-0,088	0,117
-499,883	-1,183	0,085	-0,044
-498,868	-103,638	-0,067	-0,011
-497,853	-200,000	-0,012	-0,054
-496,839	800,000	-0,025	-0,066
-495,824	33,958	0,029	-0,019
-494,810	-200,000	-0,009	-0,045
-493,795	800,000	-0,035	-0,095
-492,781	61,243	-0,083	-0,060
-491,766	-200,000	0,002	0,065
-490,751	-91,985	-0,025	-0,005
-489,737	9,686	-0,032	-0,018
-488,722	-200,000	0,015	0,102
-487,708	-137,347	0,142	0,012
-486,693	23,853	0,060	0,036
-485,678	-21,079	-0,108	0,048
-484,664	-200,000	-0,009	-0,109
-483,649	40,585	-0,121	-0,079
-482,635	-200,000	0,023	0,108
-481,620	-200,000	-0,048	0,191
-480,605	-200,000	0,015	0,071
-479,591	-79,702	-0,037	-0,009
-478,576	-10,205	-0,067	0,032
-477,562	-78,171	-0,108	-0,027
-476,547	-63,022	-0,115	-0,034
-475,532	28,411	-0,106	0,065
-474,518	-200,000	0,015	0,056
-473,503	800,000	0,057	0,118
-472,489	-123,378	0,083	0,010
-471,474	290,499	-0,142	0,188
-470,459	800,000	-0,042	0,092
-469,445	126,859	0,086	-0,079
-468,430	-200,000	-0,014	0,054
-467,416	19,442	0,044	0,026
-466,401	15,113	-0,126	-0,072
-465,386	-0,591	0,107	-0,055
-464,372	-50,863	-0,192	0,065
-463,357	-78,362	-0,052	0,013
-462,343	-62,506	-0,049	-0,015
-461,328	81,256	0,162	0,127
-460,313	-170,563	0,121	-0,003
-459,299	-118,720	-0,041	0,005
-458,284	800,000	-0,044	0,136
-457,270	162,709	0,091	0,093
-456,255	475,645	-0,060	0,099
-455,241	278,549	-0,040	-0,052
-454,226	-200,000	0,004	-0,078
-453,211	-200,000	-0,005	0,059
-452,197	-134,204	0,057	0,005
-451,182	800,000	0,028	0,079
-450,168	-106,033	0,048	-0,008
-449,153	-96,212	0,049	-0,009
-448,138	-200,000	-0,024	0,116
-447,124	-5,790	0,120	0,060
-446,109	69,347	0,023	0,017
-445,095	315,277	0,104	0,143
-444,080	4,824	-0,041	0,022
-443,065	-200,000	0,005	-0,053
-442,051	-89,387	-0,108	-0,023
-441,036	153,232	0,034	-0,034
-440,022	-16,284	-0,038	-0,017
-439,007	394,514	0,052	-0,079
-437,992	-2,503	0,112	0,057
-436,978	-83,211	-0,027	0,006
-435,963	-106,610	0,203	-0,033
-434,949	-83,088	0,036	0,008
-433,934	-200,000	-0,013	0,069
-432,919	87,611	0,023	0,018
-431,905	-107,159	0,084	-0,013
-430,890	-36,988	0,040	-0,016
-429,876	372,746	-0,039	0,058
-428,861	482,937	0,061	0,101
-427,846	127,537	-0,059	0,055
-426,832	-200,000	-0,007	-0,031
-425,817	-117,334	-0,036	-0,005
-424,803	435,376	-0,034	-0,053
-423,788	-77,676	0,135	-0,034
-422,773	-200,000	-0,040	0,197
-421,759	-44,231	0,155	0,056
-420,744	-200,000	-0,002	0,048
-419,730	-109,904	0,036	0,005
-418,715	800,000	-0,036	-0,081
-417,701	-77,179	-0,081	-0,020
-416,686	-200,000	0,011	0,091
-415,671	-200,000	-0,023	-0,083
-414,657	92,306	-0,081	-0,066
-413,642	37,185	-0,138	0,089
-412,628	-5,225	-0,029	0,015
-411,613	-200,000	-0,112	-0,000
-410,598	358,302	0,063	-0,091
-409,584	-85,878	0,160	0,036
-408,569	800,000	0,011	0,034
-407,555	-60,535	0,088	-0,027
-406,540	162,583	-0,051	0,052
-405,525	800,000	-0,032	0,072
-404,511	-185,427	-0,145	-0,002
-403,496	572,845	-0,034	0,061
-402,482	800,000	0,024	-0,061
-401,467	-135,742	0,035	-0,003
-400,452	-30,980	-0,082	-0,033
-399,438	-22,454	0,081	-0,035
-398,423	180,741	-0,110	-0,117
-397,409	-200,000	0,017	-0,097
-396,394	286,224	-0,085	-0,112
-395,379	603,279	0,082	0,149
-394,365	-68,684	0,018	-0,005
-393,350	74,483	0,081	0,061
-392,336	200,734	0,072	0,081
-391,321	-127,718	0,074	0,008
-390,306	491,143	-0,069	-0,115
-389,292	260,663	0,057	0,072
-388,277	-114,652	-0,158	0,022
-387,263	614,282	0,061	-0,111
-386,248	-200,000	-0,010	0,111
-385,233	452,146	-0,049	-0,079
-384,219	673,596	0,032	0,060
-383,204	800,000	-0,046	-0,112
-382,190	-200,000	0,014	-0,052
-381,175	-30,129	0,121	-0,050
-380,160	-200,000	-0,008	0,067
-379,146	14,194	0,130	0,073
-378,131	-200,000	-0,004	-0,020
-377,117	800,000	0,012	-0,035
-376,102	354,025	0,040	-0,057
-375,088	215,600	-0,032	-0,037
-374,073	173,045	0,100	-0,104
-373,058	59,914	0,034	0,025
-372,044	-91,211	0,147	-0,030
-371,029	476,378	0,033	0,054
-370,015	-128,333	-0,096	-0,010
-369,000	56,142	0,017	0,012
-367,985	-24,253	-0,009	-0,004
-366,971	253,254	0,055	-0,069
-365,956	163,335	-0,190	-0,193
-364,942	401,184	0,026	-0,040
-363,927	-43,330	0,155	0,057
-362,912	286,240	0,046	0,060
-361,898	-32,891	-0,079	0,032
-360,883	-22,088	-0,051	0,022
-359,869	800,000	-0,044	-0,101
-358,854	-119,390	0,094	0,012
-357,839	220,766	-0,033	0,038
-356,825	-13,086	0,064	0,030
-355,810	800,000	-0,017	0,037
-354,796	-200,000	0,015	-0,090
-353,781	87,401	-0,110	-0,088
-352,766	-86,752	0,053	0,012
-351,752	53,102	0,124	-0,086
-350,737	127,947	0,107	0,098
-349,723	-200,000	-0,016	0,207
-348,708	61,765	-0,036	0,026
-347,693	106,853	-0,042	-0,036
-346,679	58,253	-0,139	-0,098
-345,664	87,235	0,076	-0,061
-344,650	-99,856	0,108	0,019
-343,635	-200,000	-0,010	0,123
-342,620	316,885	0,014	0,019
-341,606	-127,953	-0,068	-0,007
-340,591	-80,497	-0,017	-0,004
-339,577	195,363	0,027	-0,030
-338,562	1,122	-0,107	-0,056
-337,548	-66,165	0,022	0,006
-336,533	-84,943	0,194	0,044
-335,518	800,000	-0,056	-0,125
-334,504	115,034	-0,041	0,036
-333,489	-95,629	-0,150	0,029
-332,475	22,325	0,033	-0,019
-331,460	108,334	-0,059	-0,051
-330,445	-76,167	-0,030	0,007
-329,431	752,978	0,057	-0,112
-328,416	-32,332	0,078	0,032
-327,402	457,782	0,040	0,065
-326,387	135,617	-0,071	0,067
-325,372	92,684	0,044	-0,036
-324,358	182,235	0,079	-0,085
-323,343	-200,000	-0,011	-0,088
-322,329	-200,000	0,009	0,065
-321,314	-159,915	0,018	0,001
-320,299	32,796	0,087	0,054
-319,285	231,645	-0,101	0,120
-318,270	-200,000	-0,002	-0,101
-317,256	94,426	0,084	-0,069
-316,241	99,279	-0,038	0,032
-315,226	-200,000	0,007	0,065
-314,212	-200,000	0,011	0,111
-313,197	59,123	0,052	-0,037
-312,183	385,750	-0,074	0,111
-311,168	89,665	0,101	0,081
-310,153	-57,602	0,045	0,014
-309,139	-200,000	-0,029	-0,111
-308,124	-200,000	-0,002	-0,025
-307,110	-92,004	0,089	0,018
-306,095	-128,481	0,027	0,003
-305,080	20,176	0,132	0,077
-304,066	72,613	-0,163	0,123
-303,051	-113,266	-0,093	0,013
-302,037	800,000	0,017	-0,053
-301,022	172,333	-0,037	0,039
-300,008	-200,000	-0,005	0,117
-298,993	-73,151	0,058	-0,015
-297,978	65,237	-0,071	0,052
-296,964	216,842	-0,060	-0,070
-295,949	271,895	-0,081	-0,104
-294,935	10,771	-0,029	-0,016
-293,920	2,122	0,073	0,038
-292,905	800,000	-0,046	0,123
-291,891	-106,235	0,128	-0,021
-290,876	-145,007	-0,024	-0,002
-289,862	800,000	0,033	0,088
-288,847	-200,000	-0,029	0,110
-287,832	800,000	-0,069	0,154
-286,818	613,036	0,037	0,068
-285,803	242,408	0,058	-0,070
-284,789	800,000	0,064	0,141
-283,774	-55,356	-0,061	0,020
-282,759	-14,578	-0,091	0,042
-281,745	11,370	-0,136	-0,075
-280,730	592,398	0,068	-0,122
-279,716	-18,855	-0,047	-0,021
-278,701	-1,538	0,049	0,025
-277,686	-19,155	0,124	-0,055
-276,672	800,000	-0,035	0,107
-275,657	-200,000	0,012	0,068
-274,643	-5,451	0,075	0,037
-273,628	154,518	-0,069	-0,068
-272,613	3,300	0,078	-0,041
-271,599	-73,775	-0,108	-0,028
-270,584	18,397	0,142	-0,081
-269,570	-122,226	-0,052	0,006
-268,555	-60,084	0,107	0,033
-267,540	800,000	0,025	-0,052
-266,526	-111,689	-0,182	-0,026
-265,511	-200,000	-0,001	-0,016
-264,497	-200,000	0,014	0,098
-263,482	118,127	0,067	0,060
-262,467	-200,000	-0,011	0,055
-261,453	9,803	-0,111	-0,061
-260,438	-27,401	0,049	-0,020
-259,424	-44,366	0,041	0,015
-258,409	-200,000	-0,035	-0,207
-257,395	-146,260	0,084	-0,005
-256,380	-73,553	-0,076	-0,020
-255,365	-200,000	0,037	0,123
-254,351	-200,000	0,011	0,099
-253,336	700,563	-0,013	-0,025
-252,322	-69,937	-0,102	-0,028
-251,307	-200,000	0,004	0,016
-250,292	-122,669	0,204	0,024
-249,278	-200,000	0,013	0,080
-248,263	-182,817	0,089	0,001
-247,249	-200,000	0,003	0,105
-246,234	583,252	0,011	-0,020
-245,219	-200,000	0,022	-0,141
-244,205	-49,249	-0,115	0,039
-243,190	511,804	0,049	0,082
-242,176	-200,000	0,018	0,081
-241,161	-200,000	0,028	0,089
-240,146	121,971	0,085	0,077
-239,132	107,896	-0,055	0,048
-238,117	-69,393	0,047	-0,013
-237,103	-88,632	-0,069	-0,015
-236,088	-200,000	0,021	0,096
-235,073	800,000	0,022	-0,050
-234,059	508,555	-0,047	-0,080
-233,044	-146,069	-0,068	-0,004
-232,030	186,569	0,064	0,069
-231,015	-112,753	-0,074	-0,010
-230,000	-83,377	0,097	0,022
-228,986	-200,000	0,019	-0,165
-227,971	372,131	-0,055	-0,080
-226,957	-144,147	0,036	0,002
-225,942	133,824	0,045	-0,042
-224,927	-200,000	0,031	-0,137
-223,913	-130,075	-0,045	-0,004
-222,898	-60,815	-0,092	0,028
-221,884	-47,585	0,035	0,012
-220,869	98,751	-0,028	0,023
-219,855	36,463	0,109	-0,069
-218,840	51,296	0,062	-0,042
-217,825	-77,358	-0,145	0,036
-216,811	-32,463	0,086	0,035
-215,796	800,000	0,029	0,065
-214,782	-200,000	0,011	-0,060
-213,767	-200,000	0,001	-0,015
-212,752	571,205	-0,021	0,037
-211,738	800,000	0,028	0,078
-210,723	4,806	0,052	0,027
-209,709	323,599	-0,043	0,059
-208,694	800,000	-0,065	-0,172
-207,679	800,000	0,022	0,047
-206,665	743,441	0,064	0,124
-205,650	74,292	0,118	0,089
-204,636	-200,000	0,011	-0,098
-203,621	-200,000	0,025	0,128
-202,606	-200,000	0,015	-0,143
-201,592	-200,000	-0,008	-0,100
-200,577	94,560	0,041	0,033
-199,563	800,000	-0,015	-0,048
-198,548	-40,269	0,043	0,016
-197,533	800,000	0,042	0,109
-196,519	-105,701	-0,062	0,010
-195,504	800,000	0,042	-0,113
-194,490	543,293	0,011	-0,020
-193,475	-89,641	-0,166	-0,035
-192,460	178,505	0,044	0,046
-191,446	-56,653	-0,052	0,017
-190,431	-24,866	0,044	0,019
-189,417	800,000	-0,031	0,069
-188,402	86,315	-0,066	-0,052
-187,387	800,000	-0,027	-0,074
-186,373	-200,000	0,013	-0,084
-185,358	800,000	-0,027	-0,055
-184,344	800,000	-0,030	0,081
-183,329	-103,556	0,055	-0,009
-182,315	-52,762	0,063	0,021
-181,300	-200,000	0,031	-0,102
-180,285	-200,000	-0,057	-0,000
-179,271	-200,000	0,004	-0,027
-178,256	468,862	0,024	-0,040
-177,242	-41,667	0,165	0,061
-176,227	-200,000	0,010	-0,040
-175,212	-200,000	0,018	0,080
-174,198	226,809	-0,109	0,128
-173,183	-147,524	0,071	-0,004
-172,169	800,000	-0,033	-0,073
-171,154	-2,805	0,083	0,042
-170,139	-17,351	0,046	-0,021
-169,125	800,000	-0,035	0,069
-168,110	132,602	-0,065	0,060
-167,096	254,010	0,033	0,040
-166,081	-130,532	-0,138	0,013
-165,066	800,000	-0,089	-0,182
-164,052	374,387	-0,047	-0,068
-163,037	369,438	-0,050	0,073
-162,023	727,491	0,101	0,196
-161,008	-200,000	0,025	0,109
-159,993	800,000	0,025	-0,066
-158,979	226,148	-0,042	-0,049
-157,964	75,713	0,018	0,013
-156,950	692,073	-0,102	-0,193
-155,935	59,947	-0,095	-0,067
-154,920	800,000	0,016	0,044
-153,906	-118,363	-0,202	-0,025
-152,891	-200,000	0,008	-0,031
-151,877	800,000	0,025	-0,054
-150,862	-200,000	-0,024	0,112
-149,847	332,518	0,083	-0,116
-148,833	-200,000	0,002	0,021
-147,818	-69,443	0,089	-0,024
-146,804	-42,940	0,068	-0,025
-145,789	112,533	-0,052	0,045
-144,775	-54,692	0,103	0,033
-143,760	21,203	-0,044	-0,026
-142,745	-106,178	0,136	0,022
-141,731	280,524	0,027	-0,035
-140,716	-200,000	0,144	-0,000
-139,702	800,000	-0,023	0,056
-138,687	49,074	0,127	-0,085
-137,672	800,000	-0,018	-0,047
-136,658	-129,461	-0,114	0,011
-135,643	-73,879	-0,034	-0,009
-134,629	800,000	0,045	0,122
-133,614	-59,648	0,043	-0,013
-132,599	-59,613	0,045	0,014
-131,585	-69,020	0,089	-0,024
-130,570	800,000	-0,031	-0,095
-129,556	500,488	-0,057	0,094
-128,541	-81,723	-0,079	0,018
-127,526	-200,000	-0,010	0,096
-126,512	-200,000	-0,003	-0,013
-125,497	212,550	-0,149	0,169
-124,483	800,000	0,043	0,123
-123,468	93,386	-0,088	-0,071
-122,453	-101,947	-0,161	0,028
-121,439	15,697	0,104	0,059
-120,424	-200,000	-0,014	0,068
-119,410	36,516	0,160	0,101
