DTS Sentinel unit serial number:	SN410029Multiplexer serial number:	ORYXHardware model number:	OX2-SRSoftware version number:	ORYX F/W v4,00 Oryx Data Collector v3.7.2.0data status	okinstallation	B6 Nyhavnadifferential loss correction	single-endedforward channel	channel 2reverse channel	N/Adate	2023/12/08time	03:00:08forward acquisition time	300,00reverse acquisition time	0,00gamma	499,1914k internal	0,3165k external	0,3165temperature offset calibration	1,0000default loss term (dB/km)	0,3820temperature slope calibration	1,0000multiplexer offset coefficient	1,0000multiplexer slope coefficient	1,0000fibre end	0,00T internal ref (°C)	13,14T ext. ref 1 (°C)	-3,71T ext. ref 2 (°C)	-3,72length (m)	temperature (°C)	Stokes	anti-Stokes-744,400	-108,947	0,137	0,021
-743,385	-60,366	-0,266	-0,083
-742,371	-83,116	0,092	-0,022
-741,356	-133,772	-0,225	0,020
-740,342	-72,580	0,122	0,033
-739,327	-51,168	-0,220	-0,075
-738,312	-200,000	-0,009	0,168
-737,298	-124,461	-0,397	-0,045
-736,283	-166,537	0,079	-0,002
-735,269	-70,984	-0,207	0,057
-734,254	30,057	0,206	0,129
-733,239	-116,760	-0,549	-0,073
-732,225	-140,248	0,166	0,013
-731,210	618,351	-0,051	-0,095
-730,196	800,000	-0,031	-0,080
-729,181	800,000	-0,030	0,064
-728,167	120,276	0,109	-0,100
-727,152	-2,021	0,067	-0,035
-726,137	53,272	-0,093	-0,066
-725,123	-200,000	0,025	-0,086
-724,108	-106,768	-0,134	0,022
-723,094	-68,444	-0,062	-0,017
-722,079	800,000	-0,028	-0,088
-721,064	285,105	-0,054	0,071
-720,050	-200,000	-0,040	0,171
-719,035	-10,560	-0,088	-0,043
-718,021	231,785	-0,020	-0,024
-717,006	800,000	-0,065	-0,185
-715,991	-200,000	-0,016	-0,131
-714,977	416,603	-0,052	-0,082
-713,962	-52,797	-0,097	0,033
-712,948	320,761	0,007	0,010
-711,933	674,053	0,074	0,141
-710,918	-13,187	-0,138	-0,066
-709,904	74,388	-0,056	-0,044
-708,889	137,814	-0,115	-0,111
-707,875	686,652	-0,037	0,071
-706,860	-128,575	-0,081	0,008
-705,845	-200,000	0,008	-0,132
-704,831	800,000	0,046	-0,094
-703,816	800,000	-0,027	-0,073
-702,802	168,087	0,004	-0,004
-701,787	15,585	-0,082	0,047
-700,772	-200,000	0,014	-0,066
-699,758	36,348	0,094	-0,061
-698,743	290,259	0,082	0,110
-697,729	730,683	-0,063	0,123
-696,714	-73,189	-0,080	0,021
-695,699	108,642	0,065	-0,057
-694,685	-200,000	0,005	-0,068
-693,670	-200,000	-0,015	-0,097
-692,656	-38,479	-0,069	-0,027
-691,641	150,917	0,137	0,137
-690,627	694,861	-0,019	0,036
-689,612	163,608	-0,140	-0,145
-688,597	-138,132	0,118	-0,009
-687,583	800,000	-0,023	-0,069
-686,568	189,440	0,033	-0,036
-685,554	97,091	-0,049	0,041
-684,539	-200,000	0,004	-0,028
-683,524	91,645	0,109	0,090
-682,510	800,000	-0,024	-0,060
-681,495	-200,000	-0,006	-0,058
-680,481	-200,000	0,026	-0,142
-679,466	-200,000	0,011	-0,158
-678,451	-200,000	0,025	0,000
-677,437	659,126	-0,008	-0,016
-676,422	-170,703	-0,096	-0,002
-675,408	37,868	-0,103	0,067
-674,393	-200,000	0,034	-0,169
-673,378	734,660	-0,038	-0,074
-672,364	-200,000	0,042	-0,165
-671,349	-90,958	-0,113	-0,024
-670,335	-75,579	0,143	0,037
-669,320	-200,000	0,019	0,090
-668,305	50,078	-0,036	-0,025
-667,291	270,516	0,065	0,084
-666,276	8,791	-0,075	-0,041
-665,262	800,000	0,032	-0,102
-664,247	800,000	0,022	-0,063
-663,232	433,589	0,014	0,023
-662,218	125,062	-0,042	0,039
-661,203	262,135	0,019	0,024
-660,189	-123,457	-0,080	0,009
-659,174	546,831	-0,068	-0,120
-658,159	166,143	-0,073	-0,075
-657,145	41,780	-0,115	0,076
-656,130	285,020	-0,043	-0,057
-655,116	58,702	0,017	0,012
-654,101	-64,525	-0,139	-0,041
-653,086	800,000	0,046	0,110
-652,072	-200,000	0,016	-0,072
-651,057	306,965	-0,067	-0,092
-650,043	-200,000	-0,008	-0,030
-649,028	800,000	0,071	-0,156
-648,014	-135,139	-0,091	0,008
-646,999	-129,394	0,067	-0,007
-645,984	-86,432	-0,060	0,013
-644,970	-200,000	-0,015	0,048
-643,955	-200,000	-0,028	-0,172
-642,941	-117,051	-0,119	-0,016
-641,926	-111,440	-0,022	0,003
-640,911	155,437	0,055	-0,055
-639,897	-200,000	-0,019	0,084
-638,882	800,000	-0,047	-0,098
-637,868	-25,958	0,113	0,049
-636,853	-135,584	-0,094	-0,008
-635,838	-200,000	0,009	-0,062
-634,824	800,000	-0,051	-0,106
-633,809	144,453	0,053	-0,051
-632,795	392,150	-0,037	-0,056
-631,780	783,081	-0,019	0,038
-630,765	-122,295	-0,229	-0,027
-629,751	-63,585	-0,069	-0,021
-628,736	800,000	-0,012	-0,033
-627,722	39,380	-0,052	-0,034
-626,707	217,607	-0,022	0,026
-625,692	720,787	0,044	0,086
-624,678	295,043	0,026	-0,035
-623,663	800,000	0,016	0,051
-622,649	-200,000	0,006	-0,124
-621,634	-200,000	0,008	-0,059
-620,619	289,896	-0,055	-0,073
-619,605	-200,000	0,057	0,189
-618,590	800,000	0,035	0,078
-617,576	-200,000	0,001	-0,072
-616,561	553,019	-0,062	0,110
-615,546	127,179	-0,078	-0,073
-614,532	800,000	-0,029	0,070
-613,517	-76,103	-0,044	0,011
-612,503	-200,000	0,007	-0,141
-611,488	311,571	-0,050	0,068
-610,474	800,000	-0,012	0,029
-609,459	398,482	0,039	0,059
-608,444	-131,870	-0,120	0,011
-607,430	86,561	-0,150	-0,121
-606,415	-63,123	-0,197	0,059
-605,401	-74,492	0,043	0,011
-604,386	-7,032	0,109	-0,054
-603,371	-200,000	0,021	-0,070
-602,357	-200,000	0,001	0,060
-601,342	-200,000	-0,012	-0,100
-600,328	370,978	0,036	-0,053
-599,313	272,554	0,062	-0,080
-598,298	58,099	-0,007	-0,005
-597,284	50,155	-0,033	0,023
-596,269	13,528	0,097	-0,055
-595,255	-177,767	-0,076	0,001
-594,240	-158,699	0,047	0,002
-593,225	-200,000	-0,005	-0,099
-592,211	-200,000	-0,005	-0,019
-591,196	275,775	0,091	0,118
-590,182	-42,375	0,127	0,047
-589,167	-43,057	-0,075	0,028
-588,152	-200,000	0,009	0,115
-587,138	141,961	-0,099	0,096
-586,123	800,000	0,032	-0,086
-585,109	326,295	0,037	-0,052
-584,094	-200,000	-0,059	-0,202
-583,079	-62,328	-0,029	-0,009
-582,065	-109,209	-0,145	-0,022
-581,050	-200,000	-0,018	0,083
-580,036	63,642	0,082	-0,060
-579,021	800,000	0,044	-0,104
-578,006	-92,858	-0,149	-0,030
-576,992	57,156	-0,103	0,073
-575,977	102,164	-0,028	-0,024
-574,963	-200,000	-0,039	0,185
-573,948	-64,771	0,101	-0,030
-572,934	-200,000	-0,020	-0,090
-571,919	492,116	-0,045	-0,076
-570,904	240,544	0,029	-0,035
-569,890	-200,000	0,009	0,097
-568,875	800,000	0,033	-0,076
-567,861	116,933	-0,070	0,063
-566,846	405,786	0,016	-0,025
-565,831	225,655	-0,071	0,084
-564,817	340,678	0,040	-0,057
-563,802	146,378	-0,136	-0,133
-562,788	31,932	-0,028	-0,018
-561,773	252,710	-0,050	0,063
-560,758	4,657	-0,015	0,008
-559,744	56,208	0,035	0,025
-558,729	-127,073	0,011	-0,001
-557,715	352,834	-0,047	-0,069
-556,700	-95,500	-0,085	-0,016
-555,685	-49,244	0,051	0,018
-554,671	87,216	-0,059	0,048
-553,656	-34,972	-0,035	0,014
-552,642	227,922	0,010	-0,012
-551,627	-4,397	-0,020	0,010
-550,612	800,000	0,049	0,123
-549,598	-74,967	0,176	-0,046
-548,583	288,928	-0,049	-0,065
-547,569	458,969	0,072	-0,117
-546,554	318,384	-0,031	0,043
-545,539	51,984	0,082	0,057
-544,525	-3,473	0,033	0,017
-543,510	6,525	-0,039	-0,021
-542,496	-24,328	0,065	-0,028
-541,481	-73,664	-0,054	0,014
-540,466	-200,000	-0,001	-0,080
-539,452	-72,379	0,139	0,037
-538,437	800,000	-0,014	-0,035
-537,423	-16,186	-0,106	0,049
-536,408	-200,000	-0,040	-0,177
-535,393	-132,860	-0,036	0,003
-534,379	259,407	0,036	0,045
-533,364	35,403	0,071	0,046
-532,350	38,931	-0,154	-0,100
-531,335	-51,160	0,071	-0,024
-530,321	88,520	-0,158	-0,128
-529,306	-200,000	-0,006	-0,023
-528,291	-122,169	0,099	-0,012
-527,277	800,000	-0,049	-0,101
-526,262	-87,254	-0,156	0,034
-525,248	-132,305	-0,016	-0,002
-524,233	55,842	0,067	0,047
-523,218	800,000	0,033	-0,078
-522,204	13,792	0,078	-0,044
-521,189	-30,515	0,098	-0,040
-520,175	405,988	-0,111	-0,171
-519,160	-72,805	0,157	-0,042
-518,145	-141,055	-0,191	-0,014
-517,131	638,738	0,032	0,060
-516,116	7,229	-0,041	-0,022
-515,102	-200,000	0,007	-0,063
-514,087	25,279	0,028	-0,017
-513,072	800,000	-0,045	0,097
-512,058	333,414	0,019	0,027
-511,043	800,000	0,046	0,115
-510,029	800,000	0,065	0,175
-509,014	4,212	-0,031	-0,017
-507,999	7,024	-0,054	0,029
-506,985	-200,000	0,020	-0,085
-505,970	18,013	-0,106	-0,062
-504,956	334,036	-0,003	0,005
-503,941	58,233	-0,064	0,046
-502,926	-200,000	-0,008	0,119
-501,912	255,575	-0,068	0,085
-500,897	9,833	-0,068	0,037
-499,883	-133,951	0,105	-0,009
-498,868	518,223	-0,119	-0,203
-497,853	800,000	-0,027	-0,066
-496,839	496,419	0,091	-0,153
-495,824	277,759	-0,089	0,116
-494,810	-200,000	0,005	-0,018
-493,795	-2,640	0,219	0,111
-492,781	71,098	-0,054	0,041
-491,766	800,000	-0,023	-0,059
-490,751	307,575	-0,086	0,117
-489,737	47,689	-0,057	0,039
-488,722	110,652	0,059	0,051
-487,708	-200,000	-0,015	0,060
-486,693	800,000	0,033	0,093
-485,678	326,677	0,035	-0,049
-484,664	153,511	0,076	0,076
-483,649	-200,000	0,003	-0,161
-482,635	-200,000	-0,012	-0,092
-481,620	205,315	0,053	-0,060
-480,605	14,946	0,097	0,055
-479,591	800,000	0,057	0,117
-478,576	36,399	-0,038	0,025
-477,562	53,441	-0,047	0,033
-476,547	-200,000	0,001	0,043
-475,532	-200,000	0,021	0,128
-474,518	110,452	0,074	0,064
-473,503	-200,000	0,007	0,039
-472,489	-65,819	0,146	-0,042
-471,474	-200,000	-0,024	-0,112
-470,459	140,259	0,039	-0,038
-469,445	-200,000	0,017	0,060
-468,430	31,573	0,040	0,025
-467,416	47,229	0,057	0,039
-466,401	41,510	-0,089	0,058
-465,386	-200,000	-0,009	-0,040
-464,372	424,420	-0,022	-0,034
-463,357	47,569	-0,056	0,038
-462,343	115,333	-0,071	0,063
-461,328	358,810	0,050	-0,073
-460,313	-110,881	-0,064	-0,010
-459,299	-200,000	-0,005	0,096
-458,284	426,257	-0,042	-0,067
-457,270	-200,000	0,001	-0,024
-456,255	800,000	-0,059	-0,120
-455,241	-5,093	-0,081	-0,041
-454,226	-178,329	-0,123	0,002
-453,211	-200,000	-0,006	-0,034
-452,197	648,614	0,025	0,047
-451,182	-2,283	0,165	0,084
-450,168	-136,402	-0,071	-0,006
-449,153	303,011	-0,049	0,066
-448,138	-99,875	-0,168	-0,030
-447,124	800,000	-0,031	0,072
-446,109	-111,415	0,078	0,011
-445,095	161,993	0,104	-0,106
-444,080	7,772	-0,035	0,019
-443,065	-200,000	-0,003	0,071
-442,051	0,219	0,056	0,029
-441,036	800,000	0,051	0,121
-440,022	500,020	-0,017	0,028
-439,007	227,946	-0,039	0,046
-437,992	-200,000	0,010	0,049
-436,978	31,607	0,047	-0,029
-435,963	110,286	0,113	0,099
-434,949	121,120	-0,057	0,052
-433,934	174,999	0,141	0,148
-432,919	-128,117	0,074	0,008
-431,905	151,702	-0,054	-0,053
-430,890	-200,000	-0,009	0,136
-429,876	800,000	0,031	0,076
-428,861	-95,542	0,055	-0,011
-427,846	152,555	-0,058	0,058
-426,832	-200,000	-0,010	-0,068
-425,817	-51,103	0,060	-0,020
-424,803	800,000	0,020	0,052
-423,788	-200,000	-0,018	0,078
-422,773	-43,059	-0,042	-0,015
-421,759	-101,728	0,052	-0,009
-420,744	36,367	-0,114	-0,073
-419,730	-64,219	0,011	-0,003
-418,715	-56,156	-0,171	-0,055
-417,701	53,833	0,038	0,027
-416,686	394,806	-0,038	0,058
-415,671	442,778	-0,023	0,036
-414,657	144,107	-0,020	0,019
-413,642	-71,648	-0,156	-0,042
-412,628	203,284	-0,060	-0,068
-411,613	173,184	-0,031	-0,032
-410,598	-9,530	-0,064	-0,031
-409,584	-200,000	-0,012	-0,051
-408,569	800,000	0,027	-0,065
-407,555	-26,049	-0,068	-0,029
-406,540	194,251	-0,056	0,061
-405,525	-2,235	-0,200	-0,102
-404,511	-62,624	-0,113	-0,034
-403,496	377,880	0,050	0,074
-402,482	-75,492	0,117	0,030
-401,467	53,144	-0,024	0,017
-400,452	-101,109	0,139	-0,024
-399,438	138,463	-0,102	-0,097
-398,423	-39,086	0,083	-0,032
-397,409	-200,000	-0,040	0,142
-396,394	437,233	-0,069	0,109
-395,379	-166,648	-0,113	0,003
-394,365	23,517	0,129	0,077
-393,350	25,770	0,044	0,027
-392,336	567,388	-0,053	-0,094
-391,321	-200,000	-0,008	0,035
-390,306	-200,000	0,006	-0,053
-389,292	-23,196	-0,124	-0,054
-388,277	404,212	0,016	-0,025
-387,263	-200,000	-0,006	0,061
-386,248	-200,000	0,012	0,081
-385,233	89,879	-0,060	0,049
-384,219	-52,632	0,052	-0,017
-383,204	578,140	0,019	-0,033
-382,190	-78,052	0,052	0,013
-381,175	-200,000	-0,010	0,049
-380,160	-109,892	0,029	-0,004
-379,146	-200,000	-0,026	0,106
-378,131	185,136	0,050	-0,054
-377,117	-200,000	-0,002	-0,018
-376,102	-200,000	-0,008	-0,157
-375,088	-200,000	-0,003	0,012
-374,073	-200,000	0,003	-0,034
-373,058	123,072	0,112	0,102
-372,044	15,038	0,176	0,100
-371,029	252,870	0,031	-0,038
-370,015	-89,601	-0,096	0,020
-369,000	18,854	-0,058	-0,034
-367,985	-200,000	-0,000	-0,007
-366,971	107,638	0,072	0,062
-365,956	-148,507	0,104	0,006
-364,942	529,549	-0,067	-0,115
-363,927	676,664	0,035	0,065
-362,912	28,504	-0,029	0,018
-361,898	-0,939	0,128	0,065
-360,883	127,516	0,016	0,014
-359,869	-200,000	0,001	0,181
-358,854	-5,952	0,032	0,016
-357,839	800,000	-0,054	0,174
-356,825	-200,000	0,004	-0,069
-355,810	-200,000	-0,001	-0,035
-354,796	115,731	-0,079	-0,070
-353,781	731,264	-0,043	-0,083
-352,766	404,094	-0,059	-0,090
-351,752	422,378	-0,018	-0,028
-350,737	52,595	0,017	-0,012
-349,723	-200,000	-0,011	0,038
-348,708	147,605	0,034	0,033
-347,693	112,135	-0,074	0,065
-346,679	-200,000	0,002	0,128
-345,664	651,041	0,043	0,080
-344,650	115,043	0,078	0,069
-343,635	-200,000	0,002	0,079
-342,620	-200,000	0,007	0,072
-341,606	237,853	0,091	-0,109
-340,591	-200,000	-0,029	-0,124
-339,577	-85,155	-0,065	0,015
-338,562	518,209	-0,073	-0,124
-337,548	14,115	0,059	-0,033
-336,533	7,607	0,089	0,048
-335,518	18,912	0,099	-0,057
-334,504	-4,238	0,145	0,072
-333,489	194,636	0,010	-0,011
-332,475	-200,000	0,001	0,109
-331,460	149,553	0,094	-0,092
-330,445	276,008	0,062	0,080
-329,431	-102,183	0,114	-0,020
-328,416	63,382	-0,038	-0,028
-327,402	95,326	-0,115	0,095
-326,387	-200,000	0,018	-0,090
-325,372	-32,367	-0,114	0,046
-324,358	-25,092	-0,115	-0,049
-323,343	-33,980	-0,128	0,051
-322,329	-1,230	-0,120	0,061
-321,314	219,745	0,097	0,112
-320,299	800,000	-0,016	0,041
-319,285	-150,817	0,048	-0,003
-318,270	159,769	0,085	0,085
-317,256	-98,763	-0,068	0,012
-316,241	-200,000	-0,007	0,057
-315,226	59,534	-0,061	0,043
-314,212	800,000	0,003	0,008
-313,197	-137,409	0,138	0,011
-312,183	720,920	0,083	-0,160
-311,168	56,142	-0,044	0,031
-310,153	629,227	-0,027	-0,050
-309,139	800,000	0,003	0,010
-308,124	77,241	0,099	0,076
-307,110	800,000	0,026	-0,074
-306,095	-51,209	0,097	0,033
-305,080	-200,000	0,026	0,094
-304,066	-200,000	-0,028	-0,105
-303,051	-200,000	0,005	-0,089
-302,037	-150,290	-0,041	0,002
-301,022	599,080	0,086	0,154
-300,008	12,966	0,012	-0,007
-298,993	90,806	0,064	0,052
-297,978	589,485	-0,029	0,052
-296,964	-50,873	0,044	-0,015
-295,949	-200,000	0,003	0,047
-294,935	16,944	0,070	-0,040
-293,920	-200,000	0,016	0,083
-292,905	361,000	0,015	-0,022
-291,891	729,190	0,041	0,079
-290,876	-175,240	0,066	-0,001
-289,862	49,350	0,075	0,051
-288,847	-200,000	-0,021	-0,086
-287,832	-200,000	0,004	0,050
-286,818	112,451	0,015	0,013
-285,803	-200,000	-0,006	0,052
-284,789	-200,000	-0,006	-0,034
-283,774	417,121	0,028	-0,044
-282,759	-200,000	-0,004	-0,182
-281,745	10,427	-0,104	0,057
-280,730	800,000	-0,020	-0,061
-279,716	394,878	-0,060	0,090
-278,701	210,546	0,107	0,121
-277,686	342,183	-0,032	0,045
-276,672	-16,120	0,153	0,070
-275,657	-163,481	-0,042	-0,001
-274,643	119,012	-0,045	-0,040
-273,628	-200,000	-0,015	-0,087
-272,613	800,000	0,033	-0,096
-271,599	726,177	0,099	0,192
-270,584	145,656	0,038	0,037
-269,570	-200,000	0,034	-0,172
-268,555	800,000	-0,038	0,109
-267,540	-58,401	-0,135	-0,042
-266,526	800,000	-0,044	-0,103
-265,511	-103,633	-0,150	0,025
-264,497	454,969	0,020	0,033
-263,482	-101,960	-0,136	0,023
-262,467	35,321	0,084	0,053
-261,453	6,228	-0,065	-0,035
-260,438	-59,651	0,020	-0,006
-259,424	-200,000	0,013	-0,177
-258,409	-200,000	0,014	-0,057
-257,395	69,029	0,177	0,131
-256,380	-200,000	0,013	-0,054
-255,365	178,694	0,100	0,106
-254,351	-200,000	0,009	-0,087
-253,336	12,325	0,117	-0,065
-252,322	451,540	0,033	-0,053
-251,307	-23,918	-0,079	-0,034
-250,292	562,420	-0,025	0,044
-249,278	-20,514	0,075	-0,033
-248,263	744,395	0,049	0,096
-247,249	-1,581	0,078	-0,039
-246,234	-200,000	0,004	-0,131
-245,219	-200,000	-0,017	-0,072
-244,205	800,000	-0,060	-0,136
-243,190	-200,000	0,015	-0,098
-242,176	800,000	0,048	-0,105
-241,161	59,498	-0,092	0,066
-240,146	267,813	0,057	-0,072
-239,132	260,767	-0,039	-0,048
-238,117	-69,127	-0,067	-0,019
-237,103	-200,000	-0,028	-0,162
-236,088	440,567	-0,032	0,051
-235,073	-27,106	-0,016	0,007
-234,059	195,347	0,075	0,083
-233,044	119,921	0,083	-0,074
-232,030	-110,164	0,201	0,030
-231,015	117,107	0,040	-0,035
-230,000	-79,083	-0,154	0,037
-228,986	220,587	0,125	0,145
-227,971	739,384	-0,053	0,102
-226,957	194,315	0,103	0,112
-225,942	259,816	-0,032	0,040
-224,927	590,434	-0,033	-0,059
-223,913	-12,336	-0,104	-0,049
-222,898	21,924	0,062	-0,036
-221,884	51,298	-0,060	-0,041
-220,869	55,022	0,006	-0,004
-219,855	-165,351	0,066	-0,002
-218,840	-200,000	-0,016	0,109
-217,825	198,163	-0,064	0,071
-216,811	85,135	0,104	-0,083
-215,796	-81,419	-0,048	-0,011
-214,782	140,002	-0,126	0,119
-213,767	-76,693	0,122	0,030
-212,752	-26,696	0,083	0,035
-211,738	-200,000	-0,028	0,121
-210,723	90,141	0,073	0,059
-209,709	800,000	0,041	0,110
-208,694	-200,000	0,000	-0,033
-207,679	364,831	0,050	0,072
-206,665	-200,000	-0,008	0,069
-205,650	-200,000	0,005	-0,059
-204,636	800,000	0,011	-0,032
-203,621	-179,133	0,124	0,002
-202,606	83,664	0,054	-0,043
-201,592	-100,678	-0,149	-0,026
-200,577	-118,842	0,136	-0,017
-199,563	335,606	-0,051	0,072
-198,548	-200,000	0,020	0,119
-197,533	401,097	0,037	0,056
-196,519	-200,000	-0,014	0,077
-195,504	-200,000	0,008	-0,121
-194,490	-26,559	0,024	-0,010
-193,475	-17,164	-0,021	-0,010
-192,460	-85,998	-0,042	0,009
-191,446	-200,000	-0,011	-0,039
-190,431	-24,858	-0,030	0,013
-189,417	-200,000	-0,001	-0,037
-188,402	-200,000	-0,008	0,044
-187,387	800,000	-0,037	-0,090
-186,373	-200,000	-0,004	0,049
-185,358	-128,164	-0,066	-0,007
-184,344	-60,521	0,110	-0,033
-183,329	353,352	-0,058	-0,082
-182,315	23,544	0,148	-0,087
-181,300	-200,000	-0,005	-0,067
-180,285	10,045	0,032	-0,018
-179,271	-21,031	-0,131	-0,057
-178,256	295,240	-0,044	-0,058
-177,242	-23,412	0,113	-0,049
-176,227	-200,000	-0,019	-0,088
-175,212	-138,872	0,095	-0,007
-174,198	59,656	-0,009	-0,007
-173,183	-200,000	0,002	-0,045
-172,169	-200,000	-0,009	-0,041
-171,154	216,100	-0,079	0,090
-170,139	193,066	0,036	0,039
-169,125	800,000	-0,001	0,004
-168,110	130,598	-0,033	-0,030
-167,096	-200,000	-0,019	-0,098
-166,081	-200,000	0,019	-0,113
-165,066	-113,855	0,006	-0,001
-164,052	69,511	0,135	0,100
-163,037	62,109	-0,033	0,023
-162,023	-109,042	0,119	-0,018
-161,008	193,171	0,031	-0,034
-159,993	800,000	0,011	-0,026
-158,979	-200,000	-0,028	-0,095
-157,964	-57,721	-0,053	-0,017
-156,950	-200,000	-0,013	0,045
-155,935	-200,000	0,002	-0,067
-154,920	217,011	0,048	0,055
-153,906	-200,000	0,012	0,068
-152,891	-136,250	0,025	0,002
-151,877	141,916	-0,096	0,092
-150,862	-200,000	0,005	-0,142
-149,847	6,730	-0,094	-0,050
-148,833	271,205	0,049	0,063
-147,818	73,209	0,142	0,107
-146,804	-117,324	-0,204	-0,026
-145,789	87,983	0,048	0,038
-144,775	-153,029	0,035	-0,002
-143,760	-200,000	-0,004	-0,089
-142,745	-200,000	-0,011	-0,105
-141,731	-2,074	-0,074	0,037
-140,716	-200,000	-0,002	-0,046
-139,702	100,497	0,085	-0,071
-138,687	82,914	0,067	-0,052
-137,672	-120,871	0,116	-0,014
-136,658	95,838	-0,072	-0,059
-135,643	800,000	0,013	-0,031
-134,629	-200,000	-0,012	-0,051
-133,614	-200,000	0,012	-0,071
-132,599	-38,176	0,039	0,015
-131,585	255,573	-0,001	-0,001
-130,570	69,500	-0,052	0,038
-129,556	-165,094	-0,089	0,003
-128,541	-200,000	-0,027	0,090
-127,526	800,000	0,045	-0,091
-126,512	24,555	0,050	0,030
-125,497	49,490	0,075	0,051
-124,483	-196,703	0,045	-0,000
-123,468	-92,152	0,043	0,009
-122,453	-200,000	-0,004	0,051
-121,439	29,813	-0,050	-0,031
-120,424	-200,000	-0,004	-0,023
-119,410	149,264	-0,056	-0,055
