DTS Sentinel unit serial number:	SN410029Multiplexer serial number:	ORYXHardware model number:	OX2-SRSoftware version number:	ORYX F/W v4,00 Oryx Data Collector v3.7.2.0data status	okinstallation	B6 Nyhavnadifferential loss correction	single-endedforward channel	channel 2reverse channel	N/Adate	2023/12/08time	08:55:08forward acquisition time	300,00reverse acquisition time	0,00gamma	499,1914k internal	0,3169k external	0,3169temperature offset calibration	1,0000default loss term (dB/km)	0,3820temperature slope calibration	1,0000multiplexer offset coefficient	1,0000multiplexer slope coefficient	1,0000fibre end	0,00T internal ref (°C)	12,64T ext. ref 1 (°C)	-2,26T ext. ref 2 (°C)	-2,21length (m)	temperature (°C)	Stokes	anti-Stokes-744,400	-103,604	0,108	0,018
-743,385	-185,359	-0,456	-0,005
-742,371	98,549	0,129	0,109
-741,356	-86,070	-0,309	0,070
-740,342	11,392	0,154	0,086
-739,327	-111,596	-0,239	0,035
-738,312	27,046	0,100	0,062
-737,298	-90,950	-0,199	0,042
-736,283	-49,548	0,068	-0,024
-735,269	-43,442	-0,277	-0,102
-734,254	68,107	0,161	0,121
-733,239	16,416	-0,496	-0,287
-732,225	83,234	0,160	0,128
-731,210	-200,000	-0,006	0,021
-730,196	-27,080	0,087	-0,037
-729,181	-105,756	-0,292	-0,048
-728,167	-200,000	0,026	-0,087
-727,152	-150,225	-0,049	0,003
-726,137	37,236	0,076	0,049
-725,123	63,304	-0,213	-0,157
-724,108	60,979	-0,148	-0,107
-723,094	293,851	0,045	-0,060
-722,079	31,491	0,042	-0,027
-721,064	79,372	0,029	0,023
-720,050	-200,000	-0,005	-0,022
-719,035	-112,770	-0,054	-0,008
-718,021	-200,000	-0,029	-0,177
-717,006	355,237	-0,123	-0,181
-715,991	-200,000	0,016	-0,153
-714,977	800,000	0,015	0,039
-713,962	800,000	-0,013	0,030
-712,948	507,635	-0,016	-0,027
-711,933	450,108	0,052	0,084
-710,918	-109,459	-0,199	-0,031
-709,904	800,000	0,058	-0,129
-708,889	-20,257	-0,082	-0,037
-707,875	282,332	-0,063	0,083
-706,860	-61,879	-0,019	-0,006
-705,845	107,805	0,073	0,064
-704,831	-82,206	0,120	0,029
-703,816	9,533	0,104	-0,057
-702,802	-22,336	-0,138	-0,061
-701,787	800,000	0,026	-0,083
-700,772	-157,139	-0,149	-0,007
-699,758	800,000	0,049	0,145
-698,743	77,976	0,034	0,027
-697,729	26,545	0,094	-0,057
-696,714	-200,000	-0,002	-0,036
-695,699	97,515	-0,177	-0,149
-694,685	0,618	0,084	0,044
-693,670	-200,000	-0,008	-0,038
-692,656	466,417	0,062	-0,102
-691,641	60,263	0,089	-0,065
-690,627	-200,000	0,001	0,155
-689,612	-25,873	-0,039	-0,017
-688,597	-200,000	-0,026	0,100
-687,583	-200,000	-0,005	-0,064
-686,568	567,804	-0,087	-0,156
-685,554	-200,000	0,005	-0,036
-684,539	-102,488	-0,064	0,011
-683,524	265,464	0,090	0,116
-682,510	-38,604	-0,117	0,045
-681,495	273,499	0,041	-0,053
-680,481	717,350	0,049	-0,097
-679,466	-200,000	0,022	-0,155
-678,451	-200,000	-0,005	-0,047
-677,437	429,953	0,058	0,092
-676,422	25,214	-0,082	0,050
-675,408	800,000	0,018	-0,045
-674,393	-200,000	-0,013	-0,061
-673,378	-200,000	0,016	-0,064
-672,364	83,560	-0,057	-0,046
-671,349	800,000	0,036	-0,105
-670,335	-200,000	0,009	-0,118
-669,320	-200,000	-0,006	0,099
-668,305	-163,893	0,127	0,004
-667,291	-156,956	-0,054	-0,002
-666,276	800,000	-0,060	-0,129
-665,262	259,932	-0,092	-0,117
-664,247	-200,000	-0,002	-0,032
-663,232	-200,000	0,014	-0,114
-662,218	-29,786	0,096	-0,040
-661,203	769,604	-0,042	0,083
-660,189	800,000	-0,026	0,059
-659,174	148,971	-0,132	-0,131
-658,159	-200,000	-0,011	-0,117
-657,145	258,193	-0,012	0,015
-656,130	53,076	0,027	-0,019
-655,116	-200,000	0,004	-0,030
-654,101	-200,000	0,020	-0,091
-653,086	57,705	-0,173	-0,124
-652,072	287,854	0,017	-0,023
-651,057	504,098	-0,017	-0,029
-650,043	160,565	-0,096	-0,098
-649,028	295,992	-0,020	-0,027
-648,014	94,789	-0,167	0,139
-646,999	800,000	-0,016	-0,036
-645,984	800,000	0,020	0,046
-644,970	-200,000	0,009	-0,058
-643,955	348,169	-0,064	-0,092
-642,941	-15,534	-0,108	-0,050
-641,926	-160,299	-0,029	0,001
-640,911	-69,119	0,037	0,010
-639,897	-200,000	-0,021	0,082
-638,882	-200,000	-0,003	0,036
-637,868	39,346	0,073	-0,048
-636,853	800,000	-0,043	-0,131
-635,838	-200,000	-0,015	0,109
-634,824	-200,000	0,009	-0,055
-633,809	-119,428	0,024	-0,003
-632,795	-200,000	0,010	0,034
-631,780	4,571	0,158	-0,085
-630,765	-92,164	-0,160	-0,033
-629,751	130,258	-0,158	-0,148
-628,736	264,347	0,046	0,058
-627,722	800,000	-0,008	-0,019
-626,707	-121,085	0,110	-0,013
-625,692	-200,000	-0,012	0,044
-624,678	546,413	0,021	-0,037
-623,663	800,000	0,025	-0,066
-622,649	132,940	-0,076	-0,072
-621,634	-200,000	-0,014	0,059
-620,619	-38,811	-0,071	-0,027
-619,605	-183,503	0,153	-0,002
-618,590	-200,000	0,002	-0,055
-617,576	-200,000	-0,013	0,054
-616,561	-200,000	0,007	0,033
-615,546	-32,325	-0,081	-0,033
-614,532	216,478	-0,080	-0,093
-613,517	-200,000	-0,030	-0,147
-612,503	-149,705	0,040	0,002
-611,488	-4,616	0,048	0,024
-610,474	-20,577	0,064	-0,028
-609,459	-54,828	0,019	0,006
-608,444	-200,000	-0,007	-0,030
-607,430	-200,000	0,008	-0,080
-606,415	-63,690	-0,087	-0,026
-605,401	-79,398	0,101	0,025
-604,386	171,756	0,038	-0,040
-603,371	-200,000	0,013	-0,052
-602,357	800,000	-0,026	-0,059
-601,342	-200,000	-0,012	-0,095
-600,328	-200,000	-0,019	-0,124
-599,313	-78,104	-0,188	0,047
-598,298	189,398	0,076	0,084
-597,284	800,000	0,024	-0,063
-596,269	-200,000	0,003	0,025
-595,255	46,264	-0,021	-0,014
-594,240	71,982	0,120	-0,091
-593,225	-143,073	-0,117	0,008
-592,211	31,886	-0,082	-0,051
-591,196	9,660	0,066	-0,036
-590,182	-200,000	0,025	-0,106
-589,167	-200,000	-0,007	-0,073
-588,152	94,140	0,043	0,035
-587,138	-200,000	0,025	-0,119
-586,123	-200,000	0,061	-0,204
-585,109	-200,000	0,034	0,135
-584,094	-200,000	-0,040	-0,141
-583,079	252,731	0,045	-0,056
-582,065	-31,132	0,010	0,004
-581,050	-148,322	0,023	-0,001
-580,036	-71,910	-0,113	-0,030
-579,021	800,000	0,049	-0,127
-578,006	-79,491	0,148	-0,036
-576,992	-81,384	-0,012	0,003
-575,977	341,414	0,081	-0,116
-574,963	-34,985	-0,045	-0,018
-573,948	-137,535	-0,098	-0,008
-572,934	-99,234	-0,119	0,022
-571,919	153,789	-0,123	-0,123
-570,904	17,478	0,071	-0,041
-569,890	36,701	-0,053	-0,034
-568,875	800,000	-0,040	-0,123
-567,861	-200,000	0,003	0,021
-566,846	523,657	-0,059	-0,102
-565,831	332,208	-0,008	0,011
-564,817	-110,826	-0,027	0,004
-563,802	800,000	-0,040	-0,091
-562,788	423,446	-0,023	-0,036
-561,773	-200,000	-0,015	-0,052
-560,758	359,087	-0,036	0,053
-559,744	800,000	0,034	-0,069
-558,729	-139,465	0,051	-0,004
-557,715	-200,000	-0,035	-0,147
-556,700	-136,395	-0,109	0,009
-555,685	-200,000	0,002	0,126
-554,671	700,872	0,023	0,045
-553,656	-54,905	-0,109	-0,036
-552,642	256,032	0,087	0,109
-551,627	-3,796	0,019	-0,010
-550,612	800,000	-0,060	0,158
-549,598	81,542	0,056	0,044
-548,583	-94,890	-0,104	0,020
-547,569	230,656	0,077	0,093
-546,554	657,132	0,064	0,120
-545,539	759,553	0,083	-0,164
-544,525	253,116	-0,132	0,165
-543,510	-200,000	-0,013	-0,062
-542,496	-200,000	-0,018	-0,164
-541,481	-59,983	0,056	0,017
-540,466	140,497	0,081	-0,078
-539,452	800,000	-0,027	-0,070
-538,437	159,178	0,061	0,062
-537,423	-200,000	0,014	0,055
-536,408	165,911	0,137	-0,141
-535,393	-200,000	-0,035	-0,181
-534,379	522,152	-0,059	0,102
-533,364	-156,206	-0,124	-0,006
-532,350	800,000	0,025	0,054
-531,335	451,932	0,041	0,066
-530,321	84,045	0,041	-0,032
-529,306	428,662	0,057	-0,089
-528,291	13,276	-0,096	0,054
-527,277	-200,000	-0,041	-0,184
-526,262	-65,051	0,110	0,032
-525,248	588,819	0,074	0,133
-524,233	-200,000	-0,002	-0,060
-523,218	-28,314	0,098	0,041
-522,204	137,240	0,023	0,022
-521,189	164,305	-0,087	-0,089
-520,175	167,648	-0,107	-0,111
-519,160	-200,000	-0,002	0,024
-518,145	85,575	-0,049	-0,039
-517,131	75,100	0,093	-0,071
-516,116	-96,472	-0,029	0,006
-515,102	-137,794	-0,095	0,008
-514,087	-200,000	-0,004	0,195
-513,072	18,644	0,057	0,033
-512,058	-33,948	-0,167	-0,067
-511,043	42,687	-0,092	0,061
-510,029	-200,000	-0,010	-0,067
-509,014	-1,319	0,033	-0,017
-507,999	800,000	0,018	0,046
-506,985	-200,000	-0,008	-0,083
-505,970	-200,000	-0,019	-0,085
-504,956	800,000	0,034	0,099
-503,941	289,185	0,009	-0,012
-502,926	-8,914	0,124	-0,060
-501,912	-200,000	0,010	-0,093
-500,897	147,377	-0,093	0,091
-499,883	63,064	-0,084	0,061
-498,868	800,000	-0,031	-0,071
-497,853	227,432	-0,087	0,103
-496,839	-200,000	-0,013	0,091
-495,824	69,233	-0,019	-0,014
-494,810	-200,000	-0,008	0,083
-493,795	800,000	-0,009	-0,026
-492,781	-200,000	-0,012	0,053
-491,766	-66,332	-0,028	-0,008
-490,751	-200,000	-0,020	0,115
-489,737	28,572	-0,043	0,027
-488,722	-171,478	0,092	0,002
-487,708	-200,000	-0,021	0,073
-486,693	800,000	0,033	0,080
-485,678	-118,913	-0,234	-0,030
-484,664	15,714	0,049	-0,028
-483,649	212,879	-0,009	-0,011
-482,635	-200,000	0,002	0,012
-481,620	800,000	0,024	0,061
-480,605	-158,501	0,089	-0,004
-479,591	193,033	0,044	-0,048
-478,576	240,496	0,064	0,078
-477,562	-200,000	0,005	0,079
-476,547	800,000	-0,036	-0,115
-475,532	-89,744	-0,077	0,016
-474,518	133,349	-0,045	0,042
-473,503	243,888	-0,060	0,073
-472,489	800,000	-0,036	0,087
-471,474	207,724	0,073	0,083
-470,459	71,435	-0,139	-0,105
-469,445	-200,000	-0,002	-0,116
-468,430	-200,000	-0,028	0,123
-467,416	-200,000	-0,014	-0,074
-466,401	-200,000	0,001	-0,045
-465,386	-200,000	-0,011	0,082
-464,372	800,000	-0,024	-0,072
-463,357	107,144	-0,017	-0,015
-462,343	193,526	-0,016	0,018
-461,328	-150,938	0,067	0,004
-460,313	800,000	0,051	-0,119
-459,299	-3,108	-0,119	-0,060
-458,284	-144,869	-0,102	-0,007
-457,270	-200,000	-0,002	0,047
-456,255	-63,085	0,077	-0,023
-455,241	101,388	-0,050	0,042
-454,226	370,523	-0,084	-0,124
-453,211	-12,797	0,160	-0,076
-452,197	-0,823	0,105	0,054
-451,182	800,000	0,050	0,104
-450,168	437,383	0,022	-0,034
-449,153	197,481	-0,116	-0,129
-448,138	-20,052	-0,135	0,060
-447,124	800,000	-0,031	0,067
-446,109	-200,000	0,012	0,041
-445,095	597,715	0,036	-0,065
-444,080	-24,404	-0,078	0,034
-443,065	-200,000	0,000	-0,154
-442,051	-13,421	-0,098	-0,046
-441,036	-200,000	-0,007	-0,075
-440,022	143,848	-0,085	-0,083
-439,007	-157,224	0,026	-0,001
-437,992	201,818	0,028	-0,031
-436,978	800,000	0,070	0,188
-435,963	-17,692	-0,143	-0,065
-434,949	20,853	-0,027	0,016
-433,934	-200,000	0,037	0,135
-432,919	141,568	-0,068	-0,065
-431,905	-5,380	-0,061	0,030
-430,890	800,000	-0,036	0,086
-429,876	-200,000	0,027	0,129
-428,861	200,011	-0,029	-0,032
-427,846	117,351	0,041	-0,037
-426,832	-200,000	0,005	-0,040
-425,817	-200,000	-0,013	0,074
-424,803	-200,000	-0,019	-0,089
-423,788	-69,987	0,082	0,022
-422,773	568,168	0,089	0,157
-421,759	-29,448	0,063	0,026
-420,744	-200,000	-0,009	0,095
-419,730	-21,727	-0,059	0,026
-418,715	800,000	0,066	-0,150
-417,701	-96,205	-0,066	0,013
-416,686	-79,745	0,149	-0,036
-415,671	653,909	-0,021	-0,040
-414,657	-23,871	-0,113	0,049
-413,642	-198,161	0,076	-0,000
-412,628	800,000	-0,023	-0,072
-411,613	-27,590	0,027	-0,011
-410,598	-200,000	-0,004	-0,053
-409,584	800,000	-0,049	0,109
-408,569	-110,735	-0,078	0,012
-407,555	-63,720	0,112	0,033
-406,540	800,000	0,016	-0,034
-405,525	-92,583	-0,083	-0,017
-404,511	89,787	0,134	-0,108
-403,496	-35,525	-0,087	-0,034
-402,482	693,128	0,028	0,054
-401,467	-110,404	0,097	0,014
-400,452	-39,874	0,025	-0,009
-399,438	-92,274	-0,047	0,010
-398,423	800,000	0,048	0,112
-397,409	119,675	0,007	-0,006
-396,394	213,512	0,064	0,073
-395,379	-162,960	0,035	0,001
-394,365	-87,219	0,208	-0,045
-393,350	800,000	0,025	0,064
-392,336	-32,580	-0,047	0,019
-391,321	800,000	0,035	0,085
-390,306	-200,000	0,008	0,058
-389,292	-200,000	-0,046	0,157
-388,277	-65,551	-0,078	-0,023
-387,263	-200,000	-0,002	0,064
-386,248	-150,874	0,021	-0,001
-385,233	203,477	-0,041	-0,046
-384,219	-102,097	0,205	0,035
-383,204	-137,382	0,111	-0,009
-382,190	-55,136	-0,161	0,052
-381,175	-169,275	0,066	-0,002
-380,160	-57,743	0,073	-0,023
-379,146	-200,000	0,015	0,128
-378,131	35,200	0,090	0,057
-377,117	194,318	-0,023	0,025
-376,102	254,432	0,018	-0,023
-375,088	327,076	0,052	0,072
-374,073	-153,864	0,083	0,004
-373,058	127,991	-0,049	0,045
-372,044	-4,471	-0,112	-0,056
-371,029	100,893	0,042	-0,036
-370,015	50,063	-0,029	0,020
-369,000	-200,000	-0,006	0,027
-367,985	78,328	0,065	-0,050
-366,971	-200,000	-0,030	0,101
-365,956	-13,057	-0,025	0,012
-364,942	-104,083	0,021	-0,003
-363,927	-1,623	0,113	0,058
-362,912	-200,000	-0,000	0,049
-361,898	-46,495	-0,031	0,011
-360,883	147,797	-0,073	-0,071
-359,869	800,000	0,028	-0,062
-358,854	800,000	-0,017	-0,041
-357,839	126,352	0,087	0,080
-356,825	-200,000	-0,008	0,198
-355,810	-40,327	-0,068	0,025
-354,796	170,766	-0,075	0,078
-353,781	-71,319	-0,104	-0,028
-352,766	-200,000	0,001	-0,059
-351,752	207,126	-0,067	0,075
-350,737	223,566	-0,023	0,027
-349,723	800,000	-0,042	0,133
-348,708	-11,298	0,037	-0,018
-347,693	176,348	0,149	-0,157
-346,679	-35,308	0,105	-0,041
-345,664	139,334	-0,016	-0,015
-344,650	-17,843	0,112	-0,051
-343,635	47,029	0,090	0,061
-342,620	-200,000	-0,020	0,131
-341,606	244,702	0,060	-0,074
-340,591	214,771	-0,025	-0,028
-339,577	-100,793	-0,167	-0,030
-338,562	229,595	-0,081	0,096
-337,548	313,213	0,025	-0,034
-336,533	323,297	-0,043	0,059
-335,518	645,119	0,031	0,058
-334,504	800,000	-0,014	0,033
-333,489	-200,000	0,005	-0,079
-332,475	800,000	0,018	0,054
-331,460	281,759	0,015	-0,020
-330,445	208,289	0,071	0,081
-329,431	-200,000	-0,040	0,157
-328,416	800,000	0,079	0,234
-327,402	207,211	0,084	-0,094
-326,387	-200,000	0,011	-0,083
-325,372	-93,655	-0,071	-0,014
-324,358	202,853	-0,121	-0,135
-323,343	-200,000	0,036	-0,206
-322,329	357,221	0,063	0,090
-321,314	190,946	-0,089	-0,097
-320,299	67,109	0,083	0,061
-319,285	-38,488	0,140	0,053
-318,270	-200,000	-0,036	-0,152
-317,256	128,906	-0,026	-0,024
-316,241	-69,335	0,023	-0,006
-315,226	99,156	0,165	-0,137
-314,212	294,999	-0,078	0,104
-313,197	-141,991	-0,020	-0,001
-312,183	-64,302	-0,108	-0,032
-311,168	800,000	0,023	-0,066
-310,153	-200,000	-0,006	-0,149
-309,139	-200,000	0,022	0,117
-308,124	-200,000	-0,012	0,061
-307,110	-200,000	-0,082	-0,000
-306,095	-200,000	-0,005	-0,070
-305,080	-126,372	-0,061	-0,007
-304,066	262,688	0,052	0,066
-303,051	177,149	-0,105	-0,111
-302,037	-48,171	-0,137	-0,047
-301,022	310,732	0,069	0,094
-300,008	387,136	0,038	0,057
-298,993	800,000	0,008	0,018
-297,978	-200,000	0,007	-0,065
-296,964	-200,000	-0,015	-0,245
-295,949	-123,917	0,167	-0,019
-294,935	280,181	-0,078	-0,100
-293,920	439,356	0,091	-0,144
-292,905	-65,056	0,078	-0,023
-291,891	800,000	0,018	0,053
-290,876	306,634	-0,087	0,117
-289,862	146,839	-0,081	0,079
-288,847	-200,000	0,013	-0,145
-287,832	36,825	-0,017	-0,011
-286,818	-71,822	-0,076	0,020
-285,803	74,602	-0,025	-0,019
-284,789	-32,628	0,045	0,018
-283,774	-200,000	0,010	0,031
-282,759	-36,813	0,206	-0,079
-281,745	-177,869	-0,090	0,002
-280,730	-22,750	-0,065	-0,028
-279,716	8,013	0,032	-0,017
-278,701	-28,149	0,116	-0,048
-277,686	-200,000	0,018	-0,131
-276,672	129,195	0,088	-0,081
-275,657	359,089	-0,084	-0,122
-274,643	193,954	0,068	0,074
-273,628	-75,760	-0,195	-0,049
-272,613	800,000	-0,030	-0,073
-271,599	-76,321	0,131	0,033
-270,584	373,411	-0,061	0,090
-269,570	-200,000	-0,002	0,050
-268,555	534,138	-0,081	0,140
-267,540	27,574	0,092	0,056
-266,526	97,136	-0,031	-0,025
-265,511	-200,000	-0,009	0,065
-264,497	799,070	0,040	0,081
-263,482	177,041	0,021	0,022
-262,467	-11,269	0,075	0,036
-261,453	225,284	0,086	0,101
-260,438	-200,000	0,017	0,107
-259,424	-200,000	0,001	-0,018
-258,409	800,000	0,016	0,036
-257,395	18,204	0,088	0,050
-256,380	-200,000	0,018	0,066
-255,365	786,086	0,066	0,131
-254,351	-200,000	-0,022	0,075
-253,336	588,605	0,049	-0,088
-252,322	156,940	-0,033	0,033
-251,307	66,178	-0,058	0,042
-250,292	-200,000	0,003	0,017
-249,278	211,487	0,051	-0,058
-248,263	4,141	0,133	0,070
-247,249	-41,653	-0,083	-0,031
-246,234	-88,044	-0,082	0,018
-245,219	-158,901	-0,108	0,004
-244,205	800,000	-0,031	-0,092
-243,190	-96,600	0,061	0,012
-242,176	-39,226	0,097	-0,037
-241,161	-200,000	0,005	-0,055
-240,146	22,419	-0,181	-0,106
-239,132	388,124	0,017	-0,026
-238,117	212,306	-0,057	0,064
-237,103	-200,000	-0,003	0,071
-236,088	-178,345	-0,154	-0,003
-235,073	-200,000	0,027	0,143
-234,059	92,956	0,109	-0,088
-233,044	105,160	-0,049	-0,042
-232,030	64,569	0,061	0,044
-231,015	-173,893	-0,098	-0,002
-230,000	800,000	0,003	-0,007
-228,986	393,406	0,044	0,067
-227,971	112,070	0,131	0,114
-226,957	134,713	-0,093	0,087
-225,942	-5,724	-0,088	-0,043
-224,927	-62,891	0,086	-0,025
-223,913	-200,000	-0,002	0,124
-222,898	-200,000	0,005	-0,076
-221,884	-55,118	-0,066	0,021
-220,869	24,168	-0,114	0,068
-219,855	383,556	-0,009	0,014
-218,840	260,872	-0,078	-0,097
-217,825	203,942	0,023	0,026
-216,811	50,840	-0,138	-0,094
-215,796	-200,000	0,027	-0,097
-214,782	-200,000	0,023	-0,076
-213,767	-69,397	0,144	0,039
-212,752	-157,068	0,070	-0,003
-211,738	-22,061	0,013	-0,006
-210,723	-200,000	0,012	0,058
-209,709	-200,000	-0,032	-0,140
-208,694	800,000	-0,026	0,075
-207,679	239,599	-0,119	0,143
-206,665	-43,552	0,063	-0,023
-205,650	248,825	0,069	-0,084
-204,636	139,426	0,141	0,134
-203,621	-200,000	-0,010	0,036
-202,606	-25,640	0,064	0,027
-201,592	-200,000	-0,005	-0,026
-200,577	480,570	-0,047	0,077
-199,563	-53,738	-0,082	0,027
-198,548	-131,186	0,149	0,014
-197,533	251,960	0,058	0,071
-196,519	228,444	-0,103	0,121
-195,504	-107,552	0,058	-0,009
-194,490	41,561	0,047	0,031
-193,475	-200,000	-0,015	-0,084
-192,460	34,688	0,074	-0,046
-191,446	-200,000	0,017	0,103
-190,431	141,888	-0,053	-0,051
-189,417	31,794	-0,101	0,062
-188,402	-110,166	0,052	0,008
-187,387	516,018	-0,045	0,075
-186,373	677,773	-0,003	0,006
-185,358	-200,000	0,024	0,090
-184,344	-21,099	0,110	0,048
-183,329	268,281	0,089	0,113
-182,315	800,000	0,009	0,019
-181,300	629,761	-0,042	0,077
-180,285	382,888	0,099	-0,146
-179,271	-18,655	-0,046	0,020
-178,256	562,614	-0,012	0,021
-177,242	-40,714	-0,080	-0,030
-176,227	-123,508	-0,102	0,011
-175,212	-200,000	-0,010	0,078
-174,198	25,684	-0,072	-0,043
-173,183	337,854	0,054	-0,075
-172,169	-200,000	-0,009	-0,032
-171,154	-51,210	0,033	0,011
-170,139	346,388	-0,013	-0,018
-169,125	235,262	0,081	0,097
-168,110	-69,855	0,116	0,032
-167,096	-60,746	0,009	0,003
-166,081	119,885	-0,014	0,012
-165,066	80,944	0,151	0,117
-164,052	137,615	-0,058	0,054
-163,037	-200,000	0,018	0,137
-162,023	-4,593	0,159	0,078
-161,008	800,000	-0,023	0,051
-159,993	-200,000	0,025	0,097
-158,979	-200,000	0,032	-0,109
-157,964	-200,000	-0,009	0,063
-156,950	343,492	-0,128	-0,181
-155,935	-200,000	-0,001	0,005
-154,920	-200,000	0,012	0,053
-153,906	67,865	0,006	-0,005
-152,891	9,955	0,112	-0,061
-151,877	-172,495	-0,140	-0,003
-150,862	-200,000	0,029	-0,201
-149,847	-117,774	-0,180	0,023
-148,833	203,077	0,083	-0,092
-147,818	74,961	0,090	0,068
-146,804	163,202	0,080	0,081
-145,789	800,000	-0,061	0,122
-144,775	-160,753	-0,074	-0,003
-143,760	31,584	-0,116	0,071
-142,745	-104,356	0,107	0,018
-141,731	-4,381	0,059	0,029
-140,716	155,574	-0,059	-0,058
-139,702	800,000	0,016	0,046
-138,687	-200,000	0,011	0,127
-137,672	-200,000	0,013	-0,098
-136,658	602,571	0,039	-0,070
-135,643	43,923	-0,134	-0,088
-134,629	-24,584	-0,106	-0,045
-133,614	-188,437	0,137	0,001
-132,599	800,000	-0,044	-0,117
-131,585	80,858	-0,110	0,085
-130,570	-144,360	-0,022	0,001
-129,556	-200,000	0,010	-0,044
-128,541	193,579	-0,076	-0,082
-127,526	202,727	0,034	-0,038
-126,512	-41,114	0,106	0,039
-125,497	-66,501	0,018	0,005
-124,483	-200,000	0,006	0,134
-123,468	207,495	-0,110	-0,123
-122,453	-152,732	0,089	-0,004
-121,439	104,113	0,107	0,091
-120,424	649,291	-0,069	-0,127
