DTS Sentinel unit serial number:	SN410029Multiplexer serial number:	ORYXHardware model number:	OX2-SRSoftware version number:	ORYX F/W v4,00 Oryx Data Collector v3.7.2.0data status	okinstallation	B6 Nyhavnadifferential loss correction	single-endedforward channel	channel 2reverse channel	N/Adate	2023/12/11time	07:50:08forward acquisition time	300,00reverse acquisition time	0,00gamma	499,1914k internal	0,3128k external	0,3128temperature offset calibration	1,0000default loss term (dB/km)	0,3820temperature slope calibration	1,0000multiplexer offset coefficient	1,0000multiplexer slope coefficient	1,0000fibre end	0,00T internal ref (°C)	18,61T ext. ref 1 (°C)	0,94T ext. ref 2 (°C)	0,96length (m)	temperature (°C)	Stokes	anti-Stokes-744,400	27,028	-0,117	0,073
-743,385	-141,985	-0,246	0,018
-742,371	218,033	0,132	0,157
-741,356	-50,921	-0,298	0,104
-740,342	800,000	-0,005	-0,010
-739,327	-133,805	-0,404	-0,037
-738,312	538,470	0,024	0,043
-737,298	-113,248	-0,172	0,025
-736,283	-163,289	0,019	0,001
-735,269	-24,440	-0,183	0,081
-734,254	270,314	-0,038	-0,050
-733,239	-52,529	-0,398	-0,136
-732,225	-197,785	0,195	-0,001
-731,210	-95,408	-0,053	0,010
-730,196	226,011	0,017	-0,020
-729,181	-105,672	0,110	-0,018
-728,167	-104,067	0,092	-0,016
-727,152	800,000	-0,011	0,025
-726,137	-33,878	-0,131	-0,053
-725,123	-200,000	-0,021	-0,148
-724,108	52,992	-0,168	-0,120
-723,094	-73,123	-0,080	-0,022
-722,079	-27,425	-0,032	-0,014
-721,064	1,080	0,074	0,040
-720,050	169,824	0,019	0,021
-719,035	65,662	-0,112	-0,085
-718,021	-200,000	-0,011	-0,037
-717,006	-80,157	-0,076	0,019
-715,991	-50,523	-0,160	-0,056
-714,977	18,935	-0,115	0,068
-713,962	-58,254	-0,015	0,005
-712,948	-136,853	-0,137	-0,012
-711,933	800,000	0,034	-0,083
-710,918	15,334	-0,044	0,026
-709,904	44,180	0,112	0,077
-708,889	574,750	-0,041	-0,075
-707,875	393,132	0,051	-0,079
-706,860	252,560	0,072	-0,092
-705,845	276,919	0,071	-0,094
-704,831	387,681	0,114	0,176
-703,816	-200,000	-0,006	0,081
-702,802	367,038	0,026	-0,039
-701,787	-200,000	-0,018	-0,112
-700,772	372,508	0,016	0,025
-699,758	712,520	0,026	-0,051
-698,743	800,000	0,041	0,105
-697,729	93,660	0,026	0,021
-696,714	9,023	0,085	-0,048
-695,699	-52,807	-0,042	-0,014
-694,685	-4,211	-0,056	-0,029
-693,670	197,774	-0,019	0,021
-692,656	-139,304	-0,072	-0,006
-691,641	-200,000	-0,002	0,019
-690,627	800,000	0,040	-0,088
-689,612	573,391	-0,091	-0,166
-688,597	-66,957	0,076	0,022
-687,583	192,532	-0,012	0,014
-686,568	-200,000	0,010	0,046
-685,554	227,616	-0,046	-0,056
-684,539	134,695	0,082	-0,079
-683,524	767,980	-0,030	-0,060
-682,510	800,000	-0,012	0,033
-681,495	263,585	-0,107	0,138
-680,481	120,706	-0,011	0,010
-679,466	59,457	-0,219	-0,160
-678,451	800,000	-0,034	0,099
-677,437	-27,697	-0,060	-0,026
-676,422	800,000	0,023	0,057
-675,408	-71,864	-0,161	-0,044
-674,393	14,451	-0,119	-0,069
-673,378	-108,279	-0,063	0,010
-672,364	-141,161	-0,048	0,004
-671,349	-200,000	-0,047	-0,170
-670,335	342,895	0,078	-0,114
-669,320	594,824	0,033	-0,060
-668,305	-95,576	0,016	0,003
-667,291	800,000	0,020	0,054
-666,276	800,000	-0,036	0,075
-665,262	171,964	-0,067	-0,071
-664,247	800,000	-0,071	-0,195
-663,232	557,164	-0,054	-0,098
-662,218	212,295	0,135	0,158
-661,203	-48,132	0,087	0,031
-660,189	162,627	-0,060	-0,063
-659,174	-200,000	-0,009	0,140
-658,159	800,000	0,021	-0,064
-657,145	-88,829	-0,097	-0,021
-656,130	-200,000	0,032	-0,176
-655,116	-60,135	-0,164	0,051
-654,101	472,801	-0,060	0,101
-653,086	-200,000	0,001	-0,124
-652,072	391,274	-0,096	-0,148
-651,057	1,215	-0,114	-0,061
-650,043	-200,000	0,001	0,007
-649,028	397,283	0,014	0,022
-648,014	24,754	-0,037	0,022
-646,999	-173,746	0,076	0,002
-645,984	198,068	-0,056	-0,063
-644,970	379,489	-0,070	-0,107
-643,955	140,120	-0,117	-0,115
-642,941	30,050	-0,082	0,052
-641,926	-8,000	-0,055	-0,028
-640,911	800,000	-0,053	-0,152
-639,897	494,458	0,040	0,068
-638,882	-200,000	0,005	0,091
-637,868	362,996	0,061	0,091
-636,853	-25,825	-0,058	0,025
-635,838	-130,293	-0,126	0,013
-634,824	-101,024	-0,119	0,021
-633,809	-3,126	0,148	-0,076
-632,795	115,596	0,136	0,124
-631,780	-76,755	0,103	-0,027
-630,765	-114,071	-0,114	-0,016
-629,751	-173,327	0,170	-0,004
-628,736	30,977	-0,119	-0,076
-627,722	-200,000	0,027	-0,092
-626,707	115,609	0,018	-0,016
-625,692	-18,652	-0,079	0,037
-624,678	-19,778	-0,110	0,050
-623,663	-200,000	0,006	-0,072
-622,649	-33,408	-0,066	-0,027
-621,634	800,000	0,042	-0,091
-620,619	-88,902	-0,050	-0,011
-619,605	800,000	-0,021	0,052
-618,590	-76,293	0,123	-0,032
-617,576	33,305	-0,148	0,095
-616,561	1,965	-0,055	-0,029
-615,546	331,760	-0,057	-0,081
-614,532	34,404	0,025	0,016
-613,517	-200,000	0,010	-0,074
-612,503	628,613	0,033	0,063
-611,488	800,000	-0,037	-0,079
-610,474	-200,000	0,010	0,071
-609,459	-200,000	0,004	-0,156
-608,444	149,877	0,077	-0,078
-607,430	328,878	-0,078	-0,111
-606,415	800,000	-0,042	-0,116
-605,401	-200,000	-0,006	-0,049
-604,386	-103,812	0,108	-0,019
-603,371	280,911	-0,025	-0,033
-602,357	-171,949	-0,128	-0,003
-601,342	629,532	-0,042	0,080
-600,328	1,754	0,053	-0,028
-599,313	-170,774	-0,066	0,002
-598,298	-109,071	0,146	0,023
-597,284	-200,000	0,013	0,113
-596,269	800,000	0,044	0,114
-595,255	515,613	0,016	0,028
-594,240	446,130	0,034	0,055
-593,225	-200,000	-0,059	-0,211
-592,211	126,315	-0,170	-0,160
-591,196	139,650	0,039	-0,038
-590,182	-82,677	-0,043	-0,010
-589,167	-200,000	-0,001	0,140
-588,152	134,592	0,116	0,111
-587,138	-200,000	0,002	-0,032
-586,123	800,000	-0,034	0,080
-585,109	494,943	-0,038	-0,065
-584,094	-90,863	0,127	0,027
-583,079	800,000	-0,020	0,062
-582,065	81,820	0,061	0,049
-581,050	800,000	-0,012	0,034
-580,036	185,193	0,023	0,026
-579,021	-200,000	0,005	-0,087
-578,006	43,066	-0,167	0,113
-576,992	-200,000	0,016	-0,087
-575,977	-34,802	-0,030	-0,012
-574,963	-103,431	0,082	0,014
-573,948	800,000	-0,023	0,052
-572,934	-130,542	-0,023	0,002
-571,919	728,411	0,093	-0,184
-570,904	800,000	-0,013	0,037
-569,890	417,865	-0,039	-0,062
-568,875	-117,863	0,260	0,034
-567,861	-2,261	-0,121	0,062
-566,846	-200,000	0,001	-0,131
-565,831	524,777	0,053	-0,093
-564,817	-131,235	-0,206	0,020
-563,802	-200,000	-0,004	0,033
-562,788	-200,000	0,026	-0,087
-561,773	132,613	0,088	-0,084
-560,758	-116,640	0,086	-0,012
-559,744	800,000	0,025	-0,066
-558,729	800,000	-0,070	0,156
-557,715	61,661	0,062	0,046
-556,700	-108,289	0,062	0,010
-555,685	-13,126	-0,071	-0,034
-554,671	-200,000	0,007	-0,129
-553,656	-200,000	0,027	0,153
-552,642	800,000	-0,027	0,069
-551,627	24,307	0,058	-0,036
-550,612	238,007	0,062	0,076
-549,598	-200,000	-0,016	0,073
-548,583	371,301	-0,061	-0,091
-547,569	-200,000	0,033	-0,138
-546,554	-69,970	0,038	0,011
-545,539	31,142	0,105	-0,067
-544,525	-81,408	0,119	-0,029
-543,510	-125,764	-0,062	0,007
-542,496	40,689	-0,008	-0,005
-541,481	28,280	0,058	-0,036
-540,466	-41,034	-0,091	0,034
-539,452	275,665	0,008	0,010
-538,437	-86,851	0,040	-0,009
-537,423	-200,000	-0,003	-0,015
-536,408	13,733	-0,087	0,050
-535,393	800,000	0,019	-0,057
-534,379	-200,000	0,016	-0,102
-533,364	-187,070	-0,045	0,000
-532,350	370,865	-0,022	-0,034
-531,335	103,467	0,072	-0,063
-530,321	169,150	-0,058	0,061
-529,306	125,618	-0,094	0,088
-528,291	285,477	0,023	-0,030
-527,277	637,268	-0,021	0,039
-526,262	157,120	-0,078	-0,080
-525,248	-97,323	0,078	-0,015
-524,233	-200,000	0,009	0,070
-523,218	-2,229	0,079	0,041
-522,204	-200,000	0,024	0,129
-521,189	-125,969	0,005	-0,001
-520,175	446,618	0,061	-0,099
-519,160	84,597	-0,065	-0,052
-518,145	-101,602	0,032	0,006
-517,131	-200,000	-0,024	-0,079
-516,116	71,904	0,049	0,037
-515,102	-200,000	-0,001	0,093
-514,087	-53,553	-0,081	0,027
-513,072	-64,956	-0,022	0,007
-512,058	-200,000	0,008	0,046
-511,043	800,000	-0,028	0,062
-510,029	-200,000	-0,002	0,111
-509,014	711,284	0,051	-0,101
-507,999	-138,793	-0,115	-0,009
-506,985	58,828	0,033	0,024
-505,970	-164,352	0,084	-0,003
-504,956	-200,000	0,033	-0,131
-503,941	9,866	-0,049	-0,027
-502,926	800,000	0,049	0,102
-501,912	-200,000	0,017	0,097
-500,897	82,573	-0,035	0,028
-499,883	232,880	-0,031	-0,038
-498,868	-200,000	0,020	-0,073
-497,853	53,202	-0,028	-0,020
-496,839	462,913	0,075	-0,124
-495,824	-56,696	0,047	0,015
-494,810	-167,072	0,154	0,005
-493,795	-119,163	-0,044	-0,006
-492,781	-45,388	-0,107	-0,039
-491,766	18,475	0,081	-0,048
-490,751	123,415	-0,089	-0,082
-489,737	-104,112	0,087	0,015
-488,722	-0,244	-0,083	-0,043
-487,708	800,000	-0,007	0,020
-486,693	800,000	-0,027	-0,071
-485,678	800,000	-0,042	0,128
-484,664	-92,738	-0,059	-0,012
-483,649	-200,000	0,004	0,018
-482,635	-200,000	-0,006	-0,025
-481,620	35,320	0,087	0,056
-480,605	40,983	0,061	-0,041
-479,591	-77,235	-0,057	-0,015
-478,576	64,488	-0,024	-0,017
-477,562	-200,000	0,011	-0,055
-476,547	-200,000	-0,017	-0,105
-475,532	7,802	-0,050	-0,027
-474,518	180,000	-0,080	-0,086
-473,503	-6,905	0,101	-0,051
-472,489	669,273	-0,023	0,045
-471,474	-150,182	-0,143	0,008
-470,459	226,507	0,044	-0,053
-469,445	-200,000	-0,034	0,140
-468,430	-154,972	-0,109	-0,005
-467,416	-108,707	-0,157	0,025
-466,401	800,000	0,042	0,124
-465,386	278,099	0,048	0,063
-464,372	158,196	-0,042	-0,043
-463,357	-200,000	0,004	0,062
-462,343	757,330	0,067	-0,134
-461,328	558,152	0,068	-0,120
-460,313	186,451	0,059	0,065
-459,299	127,628	0,044	0,041
-458,284	-200,000	0,022	0,129
-457,270	-200,000	-0,007	0,036
-456,255	-113,349	-0,156	-0,022
-455,241	-82,333	0,064	0,015
-454,226	800,000	-0,032	0,067
-453,211	-200,000	-0,010	0,172
-452,197	748,782	0,089	0,177
-451,182	-200,000	-0,011	0,103
-450,168	800,000	0,045	0,110
-449,153	-200,000	0,005	-0,017
-448,138	393,055	0,077	0,119
-447,124	532,114	-0,060	-0,105
-446,109	238,521	-0,049	-0,060
-445,095	-71,103	0,055	-0,015
-444,080	-97,945	0,103	-0,019
-443,065	117,785	-0,076	-0,069
-442,051	800,000	0,011	-0,034
-441,036	73,016	-0,041	0,032
-440,022	37,035	-0,030	0,020
-439,007	-58,432	-0,115	-0,036
-437,992	-20,034	-0,066	-0,030
-436,978	-62,689	0,122	-0,037
-435,963	413,177	0,026	-0,041
-434,949	556,346	0,061	-0,109
-433,934	-200,000	-0,011	-0,038
-432,919	-200,000	-0,056	-0,189
-431,905	-200,000	0,016	-0,098
-430,890	-200,000	-0,007	0,145
-429,876	-169,267	0,016	-0,000
-428,861	215,021	0,072	0,084
-427,846	-200,000	-0,032	0,110
-426,832	-200,000	-0,041	-0,205
-425,817	-1,871	-0,160	0,083
-424,803	800,000	-0,034	0,092
-423,788	800,000	0,003	0,007
-422,773	484,124	0,099	0,165
-421,759	-50,990	0,165	0,056
-420,744	1,609	0,013	-0,007
-419,730	-59,642	-0,057	0,018
-418,715	800,000	0,034	0,082
-417,701	800,000	-0,071	0,176
-416,686	-57,266	-0,025	0,008
-415,671	-200,000	-0,011	-0,122
-414,657	-200,000	0,029	0,193
-413,642	40,727	0,038	-0,025
-412,628	91,914	0,076	0,063
-411,613	656,524	0,014	0,026
-410,598	-40,206	-0,155	-0,059
-409,584	-200,000	0,021	-0,074
-408,569	108,079	-0,050	0,044
-407,555	800,000	0,053	0,132
-406,540	99,467	-0,049	0,042
-405,525	92,414	-0,092	-0,077
-404,511	-200,000	-0,005	-0,081
-403,496	-89,926	0,051	0,011
-402,482	800,000	-0,028	0,061
-401,467	68,134	-0,090	-0,068
-400,452	33,934	-0,065	-0,041
-399,438	354,159	-0,145	0,212
-398,423	58,586	-0,018	0,013
-397,409	100,079	-0,109	-0,093
-396,394	479,945	-0,014	0,023
-395,379	25,275	-0,061	-0,037
-394,365	277,643	0,066	0,086
-393,350	-200,000	-0,000	0,035
-392,336	-200,000	-0,053	0,175
-391,321	-200,000	-0,001	-0,028
-390,306	-200,000	0,006	0,100
-389,292	763,267	-0,058	-0,116
-388,277	800,000	-0,054	0,122
-387,263	-99,545	0,109	-0,020
-386,248	-200,000	-0,004	-0,036
-385,233	185,499	0,092	0,100
-384,219	99,785	-0,147	0,125
-383,204	-51,525	-0,109	-0,037
-382,190	-200,000	0,004	-0,061
-381,175	-104,289	-0,116	-0,020
-380,160	800,000	-0,044	0,102
-379,146	-200,000	-0,027	0,104
-378,131	-200,000	0,026	0,238
-377,117	-78,883	0,101	0,025
-376,102	-60,550	0,022	0,007
-375,088	-108,005	0,070	-0,011
-374,073	147,457	0,029	-0,029
-373,058	-89,627	0,131	-0,028
-372,044	670,612	-0,037	0,070
-371,029	507,201	-0,006	0,010
-370,015	681,443	0,017	-0,033
-369,000	800,000	-0,041	-0,106
-367,985	-200,000	0,012	-0,154
-366,971	-11,978	0,105	-0,050
-365,956	-67,191	0,111	-0,032
-364,942	-100,292	0,030	-0,005
-363,927	-30,726	0,094	0,039
-362,912	222,601	-0,023	-0,028
-361,898	2,867	-0,036	0,019
-360,883	-200,000	-0,014	-0,072
-359,869	-132,732	0,078	-0,007
-358,854	-200,000	0,022	0,093
-357,839	42,661	0,048	-0,032
-356,825	800,000	0,039	0,120
-355,810	80,194	0,068	0,054
-354,796	800,000	0,016	0,040
-353,781	-200,000	0,016	-0,256
-352,766	440,607	0,013	-0,021
-351,752	364,273	0,056	-0,083
-350,737	-145,772	-0,027	-0,002
-349,723	278,633	0,067	-0,087
-348,708	384,347	-0,064	0,097
-347,693	278,756	0,034	0,044
-346,679	36,405	0,056	-0,036
-345,664	145,279	-0,073	-0,072
-344,650	-30,409	-0,082	-0,034
-343,635	-79,911	0,091	-0,022
-342,620	253,844	0,065	-0,081
-341,606	15,434	-0,122	-0,070
-340,591	-64,407	0,149	0,044
-339,577	800,000	-0,010	-0,022
-338,562	241,933	-0,107	-0,132
-337,548	49,029	0,077	0,053
-336,533	-76,072	-0,083	-0,021
-335,518	-49,982	0,004	0,001
-334,504	-120,404	0,131	0,016
-333,489	800,000	-0,025	0,068
-332,475	-123,539	-0,114	-0,013
-331,460	741,116	-0,013	-0,026
-330,445	-39,282	0,084	-0,032
-329,431	-31,438	0,071	0,029
-328,416	403,852	0,012	0,018
-327,402	385,119	0,030	-0,045
-326,387	574,369	0,061	-0,109
-325,372	519,843	-0,025	-0,043
-324,358	-200,000	0,015	-0,052
-323,343	-200,000	0,010	0,195
-322,329	13,817	0,055	-0,031
-321,314	-25,133	0,045	0,020
-320,299	-38,446	-0,146	0,056
-319,285	441,263	-0,014	0,022
-318,270	-200,000	-0,017	-0,073
-317,256	-3,695	0,070	0,035
-316,241	-22,078	0,017	-0,007
-315,226	66,083	0,055	-0,041
-314,212	-84,823	0,132	-0,030
-313,197	-68,993	0,049	0,014
-312,183	146,650	0,052	-0,051
-311,168	118,344	-0,150	-0,135
-310,153	44,081	-0,076	0,051
-309,139	25,063	-0,069	-0,042
-308,124	-142,479	-0,025	0,002
-307,110	-200,000	0,028	0,104
-306,095	66,945	-0,100	0,075
-305,080	-89,817	-0,094	0,020
-304,066	360,506	0,050	-0,073
-303,051	-200,000	-0,007	-0,078
-302,037	82,290	-0,030	0,024
-301,022	-170,513	0,055	-0,001
-300,008	-55,587	0,065	-0,021
-298,993	800,000	0,004	-0,013
-297,978	-5,269	0,059	-0,030
-296,964	-200,000	-0,004	0,061
-295,949	-200,000	-0,029	0,098
-294,935	-200,000	-0,011	-0,064
-293,920	573,042	-0,016	-0,029
-292,905	800,000	-0,046	-0,146
-291,891	-122,801	0,018	0,002
-290,876	177,619	-0,056	-0,059
-289,862	71,397	0,028	0,021
-288,847	693,247	0,021	0,040
-287,832	-200,000	-0,013	-0,075
-286,818	-115,852	0,040	-0,005
-285,803	376,555	-0,053	0,079
-284,789	4,678	0,082	0,044
-283,774	-115,213	-0,063	0,009
-282,759	800,000	-0,024	-0,059
-281,745	-200,000	0,003	0,018
-280,730	-200,000	0,039	-0,127
-279,716	375,577	0,035	-0,053
-278,701	-200,000	-0,000	0,102
-277,686	-200,000	-0,008	0,090
-276,672	184,739	0,171	0,186
-275,657	287,836	-0,021	-0,028
-274,643	9,847	-0,021	0,011
-273,628	800,000	0,020	-0,049
-272,613	-195,911	-0,092	0,000
-271,599	259,526	-0,083	0,105
-270,584	165,016	-0,048	-0,049
-269,570	660,345	0,041	0,078
-268,555	-27,492	-0,203	0,086
-267,540	119,986	-0,078	-0,070
-266,526	-67,229	0,062	0,018
-265,511	-200,000	-0,006	-0,108
-264,497	0,385	0,112	-0,058
-263,482	-138,652	-0,122	0,010
-262,467	-65,701	0,100	0,029
-261,453	174,467	-0,058	-0,061
-260,438	-151,175	-0,070	-0,004
-259,424	107,739	0,021	-0,019
-258,409	280,692	-0,054	0,071
-257,395	800,000	-0,042	-0,107
-256,380	-200,000	0,006	0,040
-255,365	84,265	0,079	0,063
-254,351	-49,983	-0,137	-0,047
-253,336	272,754	0,071	-0,092
-252,322	800,000	0,043	-0,124
-251,307	57,358	-0,061	-0,043
-250,292	142,042	0,073	-0,070
-249,278	75,149	-0,045	-0,035
-248,263	800,000	-0,047	-0,124
-247,249	800,000	0,063	-0,152
-246,234	287,916	-0,035	0,046
-245,219	-48,226	-0,014	-0,005
-244,205	800,000	0,030	0,072
-243,190	120,247	-0,065	0,059
-242,176	-200,000	0,025	0,140
-241,161	138,534	0,031	-0,029
-240,146	5,289	-0,147	0,079
-239,132	95,142	-0,052	-0,043
-238,117	132,717	0,054	-0,051
-237,103	373,193	-0,047	-0,070
-236,088	800,000	0,061	-0,132
-235,073	-135,375	0,078	-0,007
-234,059	205,450	0,030	0,034
-233,044	-200,000	-0,045	0,172
-232,030	86,681	-0,040	-0,032
-231,015	-21,863	0,082	-0,036
-230,000	101,592	-0,059	-0,050
-228,986	-200,000	0,016	-0,076
-227,971	3,970	0,049	0,026
-226,957	141,707	0,107	-0,103
-225,942	229,638	0,071	-0,085
-224,927	800,000	0,035	0,078
-223,913	525,494	-0,044	-0,076
-222,898	-51,910	-0,040	-0,013
-221,884	-150,618	-0,158	0,009
-220,869	-106,749	0,117	-0,019
-219,855	78,144	0,102	0,079
-218,840	-81,756	-0,122	0,029
-217,825	-200,000	-0,025	-0,101
-216,811	-69,281	-0,086	0,024
-215,796	-200,000	0,038	-0,158
-214,782	-200,000	0,021	-0,148
-213,767	404,731	0,068	0,105
-212,752	61,098	0,125	0,091
-211,738	-145,461	0,117	-0,008
-210,723	-185,806	-0,070	-0,001
-209,709	431,915	0,007	0,010
-208,694	-200,000	-0,005	0,088
-207,679	-18,168	-0,083	-0,038
-206,665	243,733	0,085	-0,105
-205,650	288,834	-0,023	0,030
-204,636	-200,000	0,029	-0,120
-203,621	-9,640	0,105	0,051
-202,606	-31,150	-0,108	0,044
-201,592	408,516	0,005	0,008
-200,577	762,013	-0,012	0,025
-199,563	-114,367	-0,071	0,010
-198,548	-200,000	0,014	0,064
-197,533	-40,860	0,032	0,012
-196,519	34,033	0,112	0,071
-195,504	24,523	-0,076	-0,046
-194,490	-123,175	0,090	-0,010
-193,475	267,228	0,067	-0,086
-192,460	800,000	0,048	0,104
-191,446	234,118	0,039	-0,047
-190,431	-58,547	0,138	0,043
-189,417	-200,000	0,012	-0,057
-188,402	-72,859	-0,097	-0,026
-187,387	141,480	-0,045	-0,043
-186,373	-69,434	-0,085	0,024
-185,358	590,600	-0,022	-0,040
-184,344	-200,000	-0,008	0,098
-183,329	317,119	0,071	0,099
-182,315	-107,358	0,104	0,016
-181,300	-28,247	-0,123	0,052
-180,285	67,987	-0,039	-0,029
-179,271	-26,197	-0,045	-0,019
-178,256	-182,116	-0,090	0,001
-177,242	-200,000	-0,020	0,159
-176,227	-41,339	0,096	0,036
-175,212	-200,000	-0,057	0,000
-174,198	800,000	-0,021	-0,043
-173,183	800,000	0,021	0,053
-172,169	-74,459	0,056	0,014
-171,154	-29,127	0,148	0,061
-170,139	800,000	0,022	0,056
-169,125	45,275	0,099	0,067
-168,110	56,929	0,065	0,046
-167,096	-85,863	0,142	-0,032
-166,081	626,402	-0,097	0,179
-165,066	14,465	-0,065	-0,037
-164,052	303,080	-0,050	-0,067
-163,037	-200,000	0,001	0,025
-162,023	-200,000	0,015	0,122
-161,008	-61,060	-0,105	-0,032
-159,993	596,125	-0,086	0,156
-158,979	84,673	0,084	-0,067
-157,964	-200,000	0,004	0,069
-156,950	800,000	0,047	-0,134
-155,935	73,911	-0,078	0,060
-154,920	321,738	0,061	0,084
-153,906	332,610	0,176	0,247
-152,891	-124,329	-0,133	-0,015
-151,877	85,849	0,085	-0,068
-150,862	691,836	-0,030	0,058
-149,847	-200,000	-0,031	-0,212
-148,833	-116,262	-0,162	-0,022
-147,818	800,000	0,015	-0,047
-146,804	-151,281	0,023	0,001
-145,789	-0,212	-0,072	0,037
-144,775	5,510	-0,072	-0,039
-143,760	800,000	-0,038	-0,102
-142,745	-200,000	0,005	-0,031
-141,731	-106,982	0,140	-0,022
-140,716	19,664	-0,128	-0,075
-139,702	800,000	0,012	0,030
-138,687	800,000	-0,030	-0,062
-137,672	800,000	0,050	-0,155
-136,658	-150,419	-0,156	0,009
-135,643	-200,000	0,000	0,070
-134,629	-188,923	0,042	0,000
-133,614	-107,720	0,164	0,026
-132,599	-133,439	0,063	0,006
-131,585	-40,593	-0,043	-0,016
-130,570	800,000	0,041	0,099
-129,556	5,176	-0,124	-0,066
-128,541	-27,684	-0,038	0,016
-127,526	-200,000	0,033	0,125
-126,512	-44,234	0,130	-0,047
-125,497	58,126	-0,063	0,045
-124,483	55,416	0,098	0,069
-123,468	36,773	-0,078	0,050
-122,453	-200,000	0,015	-0,074
-121,439	-93,680	-0,063	0,013
-120,424	-2,955	0,106	0,053
-119,410	63,831	0,101	0,074
-118,395	144,551	0,138	0,134
