DTS Sentinel unit serial number:	SN410029Multiplexer serial number:	ORYXHardware model number:	OX2-SRSoftware version number:	ORYX F/W v4,00 Oryx Data Collector v3.7.2.0data status	okinstallation	B6 Nyhavnadifferential loss correction	single-endedforward channel	channel 2reverse channel	N/Adate	2023/12/08time	06:10:08forward acquisition time	300,00reverse acquisition time	0,00gamma	499,1914k internal	0,3165k external	0,3165temperature offset calibration	1,0000default loss term (dB/km)	0,3820temperature slope calibration	1,0000multiplexer offset coefficient	1,0000multiplexer slope coefficient	1,0000fibre end	0,00T internal ref (°C)	13,00T ext. ref 1 (°C)	-3,82T ext. ref 2 (°C)	-3,80length (m)	temperature (°C)	Stokes	anti-Stokes-744,400	-200,000	-0,005	0,135
-743,385	-135,366	-0,357	0,031
-742,371	-73,028	0,104	-0,028
-741,356	-86,739	-0,226	-0,050
-740,342	-200,000	0,017	0,135
-739,327	-184,246	-0,356	0,004
-738,312	315,230	-0,032	0,045
-737,298	-62,730	-0,293	-0,089
-736,283	84,001	0,175	0,140
-735,269	-115,049	-0,248	0,034
-734,254	237,359	0,107	0,131
-733,239	-103,177	-0,558	-0,096
-732,225	-14,975	0,236	0,111
-731,210	-200,000	0,002	0,149
-730,196	45,844	0,044	-0,030
-729,181	-0,186	0,039	-0,020
-728,167	-200,000	0,005	-0,067
-727,152	-151,945	0,055	0,003
-726,137	146,695	-0,084	-0,083
-725,123	61,580	-0,086	-0,063
-724,108	-200,000	-0,018	-0,099
-723,094	401,695	-0,079	-0,123
-722,079	315,888	-0,122	-0,170
-721,064	36,457	0,061	0,039
-720,050	385,778	0,108	0,165
-719,035	-75,281	-0,208	-0,054
-718,021	800,000	-0,029	-0,081
-717,006	-200,000	0,000	-0,034
-715,991	-200,000	-0,013	-0,089
-714,977	-21,280	-0,111	-0,049
-713,962	359,752	0,078	-0,115
-712,948	-110,028	0,112	0,017
-711,933	16,060	-0,114	0,066
-710,918	-111,849	0,117	0,017
-709,904	245,632	-0,083	-0,103
-708,889	-200,000	0,002	-0,158
-707,875	-200,000	-0,001	-0,035
-706,860	-95,158	-0,131	0,026
-705,845	-200,000	0,005	0,155
-704,831	-123,745	0,057	0,007
-703,816	-200,000	0,012	0,042
-702,802	-200,000	0,028	0,129
-701,787	-41,128	-0,071	-0,027
-700,772	800,000	-0,039	0,089
-699,758	800,000	-0,023	-0,060
-698,743	-200,000	0,024	0,095
-697,729	-200,000	0,023	0,108
-696,714	-119,857	-0,052	0,006
-695,699	-200,000	0,014	-0,145
-694,685	491,258	-0,071	-0,121
-693,670	-32,100	0,057	-0,023
-692,656	-200,000	-0,004	0,074
-691,641	-177,136	-0,066	0,001
-690,627	444,221	-0,011	0,018
-689,612	264,836	-0,113	0,145
-688,597	336,331	0,091	0,130
-687,583	5,095	0,043	0,023
-686,568	170,941	0,021	-0,022
-685,554	800,000	0,025	0,066
-684,539	-75,126	0,061	0,016
-683,524	96,619	0,067	-0,056
-682,510	-142,546	-0,120	0,009
-681,495	213,956	0,082	0,096
-680,481	23,730	-0,041	-0,025
-679,466	441,847	-0,072	-0,116
-678,451	101,062	-0,061	0,052
-677,437	-200,000	-0,009	-0,075
-676,422	437,694	0,030	0,048
-675,408	800,000	-0,016	0,039
-674,393	-151,953	-0,084	0,004
-673,378	-126,673	-0,094	-0,010
-672,364	800,000	0,058	-0,178
-671,349	-31,478	-0,074	0,031
-670,335	800,000	-0,009	0,028
-669,320	-200,000	0,032	-0,104
-668,305	800,000	-0,056	0,159
-667,291	800,000	-0,041	0,097
-666,276	-46,883	-0,060	-0,021
-665,262	-200,000	-0,014	-0,068
-664,247	49,296	-0,102	0,071
-663,232	574,065	-0,007	-0,013
-662,218	-44,278	0,041	0,015
-661,203	-200,000	0,024	-0,105
-660,189	148,561	0,066	-0,066
-659,174	800,000	-0,042	0,086
-658,159	200,311	-0,056	0,063
-657,145	-131,259	-0,189	0,018
-656,130	-60,612	-0,109	0,034
-655,116	-97,231	-0,049	0,009
-654,101	78,428	-0,056	0,044
-653,086	-200,000	-0,003	0,029
-652,072	-200,000	-0,009	-0,062
-651,057	800,000	-0,044	-0,118
-650,043	-96,987	0,092	0,017
-649,028	-142,345	-0,211	-0,015
-648,014	-97,634	0,102	0,019
-646,999	-200,000	-0,003	0,024
-645,984	296,089	0,025	-0,034
-644,970	-97,593	-0,116	-0,022
-643,955	-38,541	-0,079	0,031
-642,941	-33,393	0,077	-0,031
-641,926	-32,436	0,042	-0,017
-640,911	-136,488	0,059	-0,005
-639,897	180,674	0,056	0,060
-638,882	32,503	0,105	0,066
-637,868	-200,000	-0,011	-0,144
-636,853	-40,681	-0,060	-0,023
-635,838	-132,872	-0,069	-0,006
-634,824	271,009	0,087	-0,112
-633,809	-130,581	-0,037	0,004
-632,795	93,223	0,061	0,051
-631,780	-99,899	0,111	-0,020
-630,765	-200,000	0,004	0,186
-629,751	-63,153	-0,065	0,020
-628,736	560,375	-0,072	-0,127
-627,722	799,621	0,021	-0,043
-626,707	652,207	0,051	0,097
-625,692	-53,639	0,076	0,025
-624,678	84,347	0,066	-0,053
-623,663	-200,000	0,029	-0,109
-622,649	-80,157	-0,129	-0,031
-621,634	-89,182	-0,135	0,029
-620,619	-121,824	-0,109	-0,013
-619,605	30,250	0,094	0,058
-618,590	-200,000	0,019	0,079
-617,576	-98,586	-0,068	-0,013
-616,561	419,111	-0,053	-0,084
-615,546	800,000	-0,036	-0,089
-614,532	-200,000	-0,011	-0,085
-613,517	-200,000	0,013	-0,071
-612,503	-200,000	-0,010	0,110
-611,488	5,965	0,089	0,048
-610,474	-75,633	0,247	-0,064
-609,459	347,848	-0,085	-0,122
-608,444	121,701	-0,081	0,074
-607,430	584,310	-0,061	-0,110
-606,415	631,481	0,018	0,034
-605,401	-91,530	-0,107	0,022
-604,386	-200,000	0,003	0,077
-603,371	284,562	-0,032	-0,042
-602,357	-149,170	0,090	-0,005
-601,342	-200,000	0,002	-0,116
-600,328	371,464	-0,064	-0,096
-599,313	-5,045	0,045	-0,022
-598,298	52,999	-0,023	0,016
-597,284	-200,000	0,011	-0,072
-596,269	-129,808	-0,087	-0,009
-595,255	-150,331	-0,076	0,004
-594,240	-143,770	-0,051	0,003
-593,225	26,464	0,056	-0,034
-592,211	-200,000	0,015	-0,052
-591,196	-114,099	-0,103	0,014
-590,182	-56,076	-0,064	-0,021
-589,167	-118,720	0,139	0,018
-588,152	47,048	0,088	0,060
-587,138	164,630	-0,069	-0,071
-586,123	-200,000	0,031	-0,160
-585,109	-40,177	-0,016	-0,006
-584,094	-153,642	0,122	0,006
-583,079	-200,000	0,002	0,038
-582,065	-200,000	0,022	0,081
-581,050	-70,914	0,050	0,014
-580,036	21,083	-0,095	0,056
-579,021	-200,000	0,012	-0,071
-578,006	-200,000	-0,010	0,040
-576,992	35,008	0,150	-0,096
-575,977	-200,000	0,012	-0,107
-574,963	547,067	-0,027	-0,048
-573,948	-58,877	0,133	-0,042
-572,934	137,633	0,054	0,052
-571,919	800,000	-0,054	0,152
-570,904	-12,407	-0,069	0,033
-569,890	-111,936	0,176	-0,026
-568,875	-59,929	0,121	-0,038
-567,861	-158,514	0,029	-0,001
-566,846	-200,000	0,023	0,106
-565,831	800,000	-0,035	0,072
-564,817	244,081	-0,011	-0,013
-563,802	-81,613	0,109	0,026
-562,788	-200,000	0,002	-0,079
-561,773	72,593	0,032	-0,024
-560,758	173,428	-0,076	-0,081
-559,744	-16,664	0,020	-0,009
-558,729	9,246	-0,051	-0,028
-557,715	800,000	0,053	-0,145
-556,700	35,241	0,091	-0,058
-555,685	-200,000	0,014	0,081
-554,671	673,850	-0,021	0,040
-553,656	-95,919	-0,038	-0,007
-552,642	36,749	-0,084	-0,054
-551,627	800,000	-0,053	-0,118
-550,612	771,894	0,004	0,008
-549,598	-2,661	-0,071	-0,036
-548,583	-147,969	-0,045	0,003
-547,569	-60,286	-0,070	0,022
-546,554	-200,000	-0,010	0,106
-545,539	-200,000	0,016	-0,087
-544,525	-200,000	-0,006	0,063
-543,510	-77,302	0,065	-0,016
-542,496	91,132	-0,049	0,040
-541,481	-18,049	0,063	0,029
-540,466	-119,846	0,071	0,009
-539,452	62,205	-0,078	0,057
-538,437	-200,000	-0,018	-0,126
-537,423	-200,000	0,001	0,089
-536,408	-137,354	-0,177	-0,014
-535,393	-200,000	-0,053	-0,180
-534,379	-176,906	0,114	0,002
-533,364	800,000	-0,044	-0,139
-532,350	129,256	-0,032	0,030
-531,335	-200,000	-0,006	0,098
-530,321	-41,664	0,112	-0,042
-529,306	17,380	0,038	-0,022
-528,291	-88,368	-0,031	-0,007
-527,277	800,000	0,031	-0,089
-526,262	800,000	-0,030	-0,093
-525,248	252,900	-0,102	-0,128
-524,233	43,728	0,112	0,075
-523,218	273,184	-0,040	0,052
-522,204	-200,000	-0,003	-0,016
-521,189	-169,638	-0,059	-0,002
-520,175	-48,618	-0,120	-0,042
-519,160	-200,000	-0,008	0,035
-518,145	37,673	0,066	0,043
-517,131	130,292	0,122	-0,114
-516,116	227,485	-0,040	-0,048
-515,102	545,973	0,040	0,070
-514,087	800,000	-0,003	-0,008
-513,072	-200,000	0,023	0,076
-512,058	800,000	-0,057	0,169
-511,043	800,000	-0,042	0,109
-510,029	431,705	0,028	0,044
-509,014	800,000	0,057	0,120
-507,999	303,145	0,070	-0,095
-506,985	327,630	-0,105	-0,148
-505,970	-103,654	-0,115	-0,020
-504,956	78,541	-0,043	-0,033
-503,941	-200,000	-0,008	-0,039
-502,926	-200,000	-0,009	0,082
-501,912	-200,000	0,015	0,048
-500,897	230,408	0,127	-0,151
-499,883	-130,694	-0,117	0,011
-498,868	58,807	-0,087	0,062
-497,853	208,540	0,046	0,052
-496,839	188,198	-0,080	0,087
-495,824	-200,000	-0,019	0,064
-494,810	-200,000	-0,011	-0,037
-493,795	-74,725	-0,061	-0,016
-492,781	-97,131	0,018	0,003
-491,766	0,075	0,054	0,028
-490,751	-94,752	0,113	-0,022
-489,737	3,852	-0,150	0,080
-488,722	800,000	-0,105	0,231
-487,708	407,029	0,114	0,175
-486,693	800,000	-0,079	0,208
-485,678	314,594	0,040	0,054
-484,664	316,850	-0,064	-0,089
-483,649	-109,162	-0,107	0,016
-482,635	3,782	0,076	-0,040
-481,620	116,433	-0,133	-0,119
-480,605	-200,000	-0,043	0,145
-479,591	800,000	0,038	0,078
-478,576	23,372	-0,050	0,030
-477,562	89,397	-0,163	-0,132
-476,547	49,509	-0,108	0,074
-475,532	653,314	0,035	0,067
-474,518	-100,471	0,074	-0,013
-473,503	439,868	0,066	-0,105
-472,489	794,570	-0,014	-0,028
-471,474	-78,630	-0,125	-0,031
-470,459	-141,717	0,063	0,005
-469,445	-74,663	-0,111	0,029
-468,430	-91,371	-0,074	0,015
-467,416	68,120	0,085	-0,063
-466,401	-200,000	0,004	0,057
-465,386	-94,120	-0,032	0,006
-464,372	-200,000	0,019	0,119
-463,357	-146,630	-0,120	-0,007
-462,343	-200,000	0,009	0,059
-461,328	63,182	-0,024	-0,017
-460,313	-200,000	-0,003	-0,056
-459,299	-57,313	0,137	0,043
-458,284	-200,000	-0,043	0,168
-457,270	-169,420	0,124	0,003
-456,255	-116,687	0,038	-0,005
-455,241	-91,776	0,128	0,026
-454,226	-91,390	0,132	-0,027
-453,211	-91,018	-0,005	0,001
-452,197	-157,029	0,032	0,001
-451,182	127,499	-0,049	0,045
-450,168	298,760	-0,076	0,103
-449,153	173,015	0,052	-0,055
-448,138	-37,134	0,071	0,028
-447,124	592,667	-0,021	-0,039
-446,109	23,393	0,081	0,048
-445,095	446,205	0,063	0,101
-444,080	216,548	-0,091	0,106
-443,065	-200,000	-0,003	0,093
-442,051	-181,904	0,105	-0,001
-441,036	442,423	-0,071	0,114
-440,022	-175,732	0,074	-0,001
-439,007	800,000	-0,009	0,025
-437,992	-200,000	0,010	0,035
-436,978	800,000	-0,018	-0,039
-435,963	-105,047	-0,088	-0,014
-434,949	567,306	0,097	-0,173
-433,934	800,000	0,004	-0,013
-432,919	-200,000	0,025	-0,157
-431,905	449,512	-0,070	-0,112
-430,890	-71,850	0,092	0,025
-429,876	800,000	0,027	-0,055
-428,861	-200,000	-0,001	0,097
-427,846	42,498	-0,126	-0,083
-426,832	-114,611	0,087	0,012
-425,817	-200,000	0,020	-0,070
-424,803	31,029	0,114	0,071
-423,788	800,000	0,039	0,104
-422,773	197,652	0,093	0,103
-421,759	18,068	0,070	-0,041
-420,744	-19,369	0,081	0,037
-419,730	-80,074	-0,073	0,018
-418,715	172,162	-0,073	0,076
-417,701	295,324	0,115	0,153
-416,686	136,570	-0,024	0,023
-415,671	97,918	0,016	-0,013
-414,657	60,028	0,068	0,049
-413,642	-45,257	0,095	0,034
-412,628	800,000	-0,039	-0,122
-411,613	-96,010	0,046	-0,009
-410,598	216,846	-0,028	0,032
-409,584	-47,727	-0,040	0,014
-408,569	-100,051	0,104	-0,019
-407,555	-89,559	-0,037	0,008
-406,540	555,473	0,041	-0,073
-405,525	800,000	-0,034	-0,099
-404,511	-141,822	0,096	-0,007
-403,496	151,681	-0,137	-0,136
-402,482	-200,000	0,005	-0,053
-401,467	800,000	-0,028	0,084
-400,452	-200,000	-0,046	0,187
-399,438	473,097	0,044	-0,072
-398,423	-200,000	0,034	0,129
-397,409	-143,888	-0,125	0,008
-396,394	45,817	0,044	-0,029
-395,379	800,000	-0,034	-0,092
-394,365	572,988	0,022	-0,039
-393,350	800,000	0,067	-0,153
-392,336	800,000	-0,018	-0,047
-391,321	51,659	0,111	-0,077
-390,306	-200,000	-0,004	0,062
-389,292	-200,000	0,004	-0,035
-388,277	601,555	0,048	-0,086
-387,263	0,240	-0,016	0,008
-386,248	162,350	0,093	0,095
-385,233	800,000	0,013	0,029
-384,219	-200,000	-0,004	-0,096
-383,204	-29,572	0,059	0,024
-382,190	-90,661	-0,066	0,014
-381,175	-121,841	-0,060	-0,007
-380,160	-126,204	0,035	-0,004
-379,146	-72,650	-0,046	0,012
-378,131	366,635	0,135	0,198
-377,117	384,011	-0,034	-0,052
-376,102	224,329	0,065	-0,076
-375,088	672,366	-0,055	-0,104
-374,073	-200,000	-0,004	-0,058
-373,058	-200,000	0,005	0,095
-372,044	-179,562	0,112	0,002
-371,029	-140,343	-0,068	-0,005
-370,015	2,646	-0,047	0,024
-369,000	800,000	-0,056	-0,121
-367,985	282,300	0,084	-0,109
-366,971	-200,000	0,007	-0,030
-365,956	-200,000	-0,001	0,046
-364,942	-53,647	0,071	0,023
-363,927	-200,000	0,001	0,054
-362,912	124,886	0,036	-0,033
-361,898	450,526	-0,055	-0,088
-360,883	-200,000	0,026	-0,134
-359,869	183,894	-0,066	0,070
-358,854	529,566	0,018	-0,031
-357,839	800,000	0,017	0,039
-356,825	-28,864	-0,076	0,032
-355,810	-200,000	0,006	0,033
-354,796	-173,961	-0,130	-0,003
-353,781	581,032	-0,074	0,132
-352,766	800,000	-0,065	-0,140
-351,752	-163,456	0,051	-0,002
-350,737	-135,019	0,120	0,010
-349,723	30,638	-0,084	0,052
-348,708	-200,000	-0,020	0,088
-347,693	-200,000	-0,033	-0,121
-346,679	100,169	-0,075	0,063
-345,664	-18,605	0,086	0,039
-344,650	-200,000	0,002	-0,011
-343,635	-200,000	0,004	-0,048
-342,620	-151,700	0,173	0,009
-341,606	3,377	-0,064	0,034
-340,591	-61,874	-0,015	0,005
-339,577	-200,000	0,018	0,060
-338,562	29,820	-0,131	-0,080
-337,548	-200,000	0,021	0,136
-336,533	800,000	0,036	0,088
-335,518	-45,733	-0,096	0,034
-334,504	-200,000	0,044	-0,173
-333,489	1,638	0,090	0,047
-332,475	800,000	-0,028	-0,075
-331,460	114,908	-0,092	0,081
-330,445	-200,000	-0,024	-0,078
-329,431	20,133	0,076	0,044
-328,416	17,055	-0,065	-0,037
-327,402	-200,000	0,001	0,073
-326,387	800,000	0,046	0,109
-325,372	-148,204	-0,147	-0,009
-324,358	-103,856	0,018	-0,003
-323,343	-62,326	-0,024	-0,007
-322,329	800,000	0,021	0,061
-321,314	90,848	0,092	0,074
-320,299	307,353	0,030	0,041
-319,285	-41,611	-0,133	0,049
-318,270	-200,000	-0,027	-0,151
-317,256	-47,570	-0,053	0,018
-316,241	-200,000	0,000	0,073
-315,226	264,430	0,046	0,059
-314,212	263,717	0,078	0,098
-313,197	-134,799	0,102	0,009
-312,183	-200,000	-0,006	0,111
-311,168	-200,000	-0,030	-0,137
-310,153	-200,000	-0,021	-0,099
-309,139	277,940	-0,146	-0,188
-308,124	-200,000	0,027	-0,124
-307,110	-74,682	0,171	-0,044
-306,095	-149,983	0,064	-0,004
-305,080	217,582	-0,026	-0,029
-304,066	-54,750	-0,098	0,032
-303,051	-200,000	-0,009	-0,184
-302,037	-101,088	0,065	-0,011
-301,022	-200,000	-0,001	-0,005
-300,008	139,604	0,008	-0,008
-298,993	85,595	0,053	-0,042
-297,978	-69,655	0,062	-0,017
-296,964	18,425	-0,091	0,052
-295,949	-63,444	0,098	0,029
-294,935	-200,000	-0,025	-0,114
-293,920	25,443	0,054	-0,032
-292,905	-200,000	-0,031	0,114
-291,891	-20,230	-0,116	0,051
-290,876	-24,029	0,042	-0,018
-289,862	-200,000	0,007	0,050
-288,847	-151,345	-0,080	0,004
-287,832	800,000	0,045	0,103
-286,818	-200,000	-0,016	0,091
-285,803	110,674	0,045	0,039
-284,789	-191,270	0,226	0,002
-283,774	800,000	-0,039	0,081
-282,759	-84,869	-0,043	0,010
-281,745	272,812	-0,078	-0,099
-280,730	800,000	0,036	-0,085
-279,716	47,813	-0,045	0,030
-278,701	-50,287	0,055	0,019
-277,686	-200,000	0,041	0,155
-276,672	399,683	0,068	0,104
-275,657	-41,917	-0,054	0,020
-274,643	-132,925	-0,195	0,018
-273,628	522,231	-0,027	0,046
-272,613	800,000	-0,057	-0,128
-271,599	-200,000	-0,045	-0,164
-270,584	-200,000	0,008	0,106
-269,570	315,380	-0,069	-0,094
-268,555	183,154	-0,090	0,096
-267,540	72,592	-0,113	0,085
-266,526	800,000	0,042	0,131
-265,511	-200,000	0,006	0,160
-264,497	-150,736	0,102	0,006
-263,482	-74,008	0,114	0,030
-262,467	800,000	0,078	0,177
-261,453	85,517	-0,146	-0,115
-260,438	-98,984	-0,092	-0,017
-259,424	-200,000	-0,019	-0,098
-258,409	-101,561	-0,080	-0,014
-257,395	275,210	0,044	0,056
-256,380	-76,621	0,051	-0,013
-255,365	-200,000	-0,025	0,088
-254,351	0,667	-0,101	-0,052
-253,336	-200,000	0,012	-0,079
-252,322	-126,141	-0,068	0,007
-251,307	-92,992	-0,148	-0,029
-250,292	-175,394	-0,062	0,001
-249,278	800,000	0,057	-0,132
-248,263	800,000	0,008	-0,017
-247,249	-147,816	0,067	0,004
-246,234	-200,000	-0,020	0,085
-245,219	-43,621	0,057	-0,021
-244,205	330,982	0,099	-0,137
-243,190	65,472	0,063	0,046
-242,176	-200,000	0,005	0,068
-241,161	-200,000	0,007	0,097
-240,146	-200,000	0,009	0,073
-239,132	-116,223	-0,054	0,007
-238,117	194,661	-0,095	-0,104
-237,103	28,940	0,156	-0,095
-236,088	-40,681	0,007	-0,003
-235,073	-200,000	-0,013	0,155
-234,059	-33,895	-0,067	-0,027
-233,044	800,000	-0,005	0,015
-232,030	720,230	-0,063	-0,121
-231,015	-179,242	-0,008	-0,000
-230,000	128,290	-0,026	-0,024
-228,986	71,422	0,124	-0,092
-227,971	626,317	-0,024	0,044
-226,957	800,000	0,021	0,058
-225,942	146,880	-0,069	-0,067
-224,927	49,804	0,022	0,015
-223,913	-58,643	0,091	-0,028
-222,898	-26,172	-0,216	-0,091
-221,884	-200,000	-0,020	-0,086
-220,869	800,000	0,004	-0,011
-219,855	-46,839	0,087	0,030
-218,840	419,647	-0,023	-0,036
-217,825	49,420	0,136	-0,092
-216,811	800,000	0,008	-0,017
-215,796	-200,000	0,005	-0,168
-214,782	-92,801	0,207	-0,041
-213,767	-200,000	-0,000	-0,005
-212,752	0,261	0,058	-0,030
-211,738	242,473	-0,054	-0,065
-210,723	800,000	0,014	-0,035
-209,709	-87,995	0,033	-0,007
-208,694	-71,308	-0,109	-0,029
-207,679	-118,141	0,017	0,002
-206,665	182,621	-0,025	-0,027
-205,650	-200,000	0,000	-0,024
-204,636	-200,000	0,015	0,122
-203,621	531,174	-0,016	-0,027
-202,606	6,384	0,067	-0,036
-201,592	48,854	-0,126	0,085
-200,577	439,192	-0,031	-0,049
-199,563	-200,000	-0,001	0,087
-198,548	-121,568	-0,174	-0,021
-197,533	800,000	-0,014	0,037
-196,519	800,000	0,025	0,058
-195,504	800,000	-0,026	0,068
-194,490	-200,000	-0,004	-0,056
-193,475	24,576	-0,071	0,042
-192,460	0,869	-0,034	-0,018
-191,446	45,950	0,043	0,028
-190,431	-200,000	-0,016	0,105
-189,417	-200,000	-0,022	0,136
-188,402	88,366	0,088	-0,071
-187,387	12,734	-0,045	-0,025
-186,373	424,849	-0,033	0,051
-185,358	787,983	-0,036	0,071
-184,344	21,854	0,101	0,059
-183,329	-200,000	0,007	0,094
-182,315	700,581	-0,031	-0,060
-181,300	-68,982	-0,138	-0,038
-180,285	104,643	0,074	-0,063
-179,271	27,642	-0,068	-0,041
-178,256	251,654	-0,012	0,015
-177,242	51,321	0,054	0,037
-176,227	-62,269	0,094	0,028
-175,212	10,031	-0,057	-0,031
-174,198	-200,000	0,022	0,088
-173,183	-200,000	0,019	-0,136
-172,169	-117,702	-0,043	-0,006
-171,154	-101,297	0,190	0,033
-170,139	800,000	0,041	0,109
-169,125	800,000	0,042	0,086
-168,110	2,644	0,063	0,033
-167,096	236,791	-0,040	-0,048
-166,081	-200,000	0,006	0,139
-165,066	498,339	-0,089	-0,147
-164,052	-200,000	-0,023	0,094
-163,037	-168,219	0,119	0,003
-162,023	183,906	-0,043	-0,046
-161,008	561,558	-0,034	-0,059
-159,993	157,501	-0,056	-0,056
-158,979	-200,000	0,020	-0,155
-157,964	644,681	0,044	-0,082
-156,950	-150,161	-0,037	-0,002
-155,935	-45,396	-0,068	-0,024
-154,920	560,537	0,038	0,067
-153,906	524,162	0,034	-0,057
-152,891	261,650	0,108	0,135
-151,877	87,106	0,038	0,030
-150,862	-74,826	-0,167	-0,043
-149,847	515,177	0,035	-0,059
-148,833	-59,854	0,073	0,022
-147,818	69,152	0,049	0,036
-146,804	800,000	0,047	-0,139
-145,789	-200,000	0,000	0,034
-144,775	31,221	0,098	-0,060
-143,760	370,196	0,037	-0,054
-142,745	37,191	0,041	0,026
-141,731	202,158	0,036	0,039
-140,716	113,295	0,095	0,083
-139,702	10,534	-0,088	-0,048
-138,687	146,344	0,066	0,064
-137,672	-86,395	-0,206	-0,045
-136,658	197,685	-0,040	-0,044
-135,643	181,100	-0,087	-0,092
-134,629	33,221	-0,006	0,003
-133,614	800,000	0,041	0,090
-132,599	602,328	-0,032	-0,057
-131,585	-200,000	-0,020	-0,068
-130,570	-17,939	-0,025	0,011
-129,556	81,089	-0,088	-0,068
-128,541	-184,574	0,019	0,000
-127,526	98,162	0,088	-0,073
-126,512	-200,000	0,012	-0,042
-125,497	-200,000	0,005	0,091
-124,483	156,500	0,087	-0,086
-123,468	62,790	0,083	0,060
-122,453	225,683	-0,082	-0,096
-121,439	-97,180	-0,051	-0,010
-120,424	-64,217	0,028	0,008
-119,410	-103,717	0,159	0,026
