DTS Sentinel unit serial number:	SN410029Multiplexer serial number:	ORYXHardware model number:	OX2-SRSoftware version number:	ORYX F/W v4,00 Oryx Data Collector v3.7.2.0data status	okinstallation	B6 Nyhavnadifferential loss correction	single-endedforward channel	channel 2reverse channel	N/Adate	2023/12/09time	14:50:08forward acquisition time	300,00reverse acquisition time	0,00gamma	499,1914k internal	0,3133k external	0,3133temperature offset calibration	1,0000default loss term (dB/km)	0,3820temperature slope calibration	1,0000multiplexer offset coefficient	1,0000multiplexer slope coefficient	1,0000fibre end	0,00T internal ref (°C)	20,56T ext. ref 1 (°C)	4,31T ext. ref 2 (°C)	4,32length (m)	temperature (°C)	Stokes	anti-Stokes-744,400	-92,561	-0,035	0,007
-743,385	-180,247	-0,248	-0,004
-742,371	109,438	0,107	0,096
-741,356	84,831	-0,220	0,179
-740,342	294,608	0,087	0,119
-739,327	-77,211	-0,273	-0,070
-738,312	-200,000	-0,015	-0,146
-737,298	-123,748	-0,304	0,035
-736,283	-72,282	0,189	-0,052
-735,269	-93,347	-0,282	0,058
-734,254	-8,268	0,082	-0,041
-733,239	-107,729	-0,265	-0,043
-732,225	-93,960	0,075	-0,015
-731,210	-72,966	-0,093	0,025
-730,196	519,716	-0,046	-0,080
-729,181	40,974	-0,058	-0,039
-728,167	-200,000	0,005	0,043
-727,152	-101,667	-0,106	0,019
-726,137	800,000	-0,019	-0,056
-725,123	498,879	-0,047	-0,080
-724,108	318,671	-0,037	-0,052
-723,094	800,000	-0,027	-0,069
-722,079	335,180	-0,072	-0,104
-721,064	800,000	-0,007	0,020
-720,050	36,555	-0,048	0,032
-719,035	307,146	0,074	-0,102
-718,021	673,805	0,098	0,190
-717,006	-200,000	-0,000	-0,120
-715,991	-200,000	-0,016	-0,154
-714,977	-60,241	-0,187	-0,059
-713,962	-56,747	-0,059	-0,019
-712,948	-38,957	-0,062	-0,024
-711,933	800,000	0,055	0,126
-710,918	-200,000	0,029	0,109
-709,904	8,921	-0,103	-0,057
-708,889	-55,260	-0,018	-0,006
-707,875	-68,505	-0,153	-0,044
-706,860	800,000	0,029	-0,072
-705,845	-200,000	0,034	-0,145
-704,831	282,316	0,033	-0,044
-703,816	-200,000	-0,003	0,084
-702,802	-108,677	-0,014	-0,002
-701,787	-200,000	-0,005	-0,022
-700,772	266,158	0,057	-0,074
-699,758	800,000	-0,011	0,034
-698,743	-200,000	0,007	0,119
-697,729	-200,000	-0,007	0,034
-696,714	411,896	0,033	-0,053
-695,699	-200,000	-0,007	-0,082
-694,685	694,381	0,068	-0,132
-693,670	-200,000	-0,052	-0,198
-692,656	449,544	-0,048	0,079
-691,641	228,320	0,018	-0,022
-690,627	70,250	0,081	-0,062
-689,612	-200,000	0,019	-0,068
-688,597	108,634	-0,055	-0,048
-687,583	93,257	-0,094	-0,079
-686,568	-39,144	-0,182	-0,071
-685,554	152,849	0,104	-0,106
-684,539	800,000	-0,013	-0,036
-683,524	-26,015	-0,058	-0,025
-682,510	-200,000	0,011	-0,069
-681,495	-200,000	0,008	-0,191
-680,481	-90,788	-0,075	0,016
-679,466	-4,393	-0,135	-0,069
-678,451	213,237	0,101	-0,119
-677,437	-200,000	-0,014	-0,052
-676,422	-200,000	0,023	-0,077
-675,408	446,455	-0,004	0,006
-674,393	-200,000	0,010	-0,111
-673,378	-200,000	0,018	-0,092
-672,364	-69,861	0,075	0,021
-671,349	-200,000	-0,037	-0,130
-670,335	800,000	0,007	-0,019
-669,320	27,030	-0,087	0,054
-668,305	-200,000	0,002	-0,015
-667,291	-4,364	-0,110	0,056
-666,276	299,872	-0,067	-0,092
-665,262	-200,000	-0,013	-0,199
-664,247	-182,211	-0,024	0,000
-663,232	800,000	0,071	-0,169
-662,218	-124,052	0,178	0,020
-661,203	-200,000	0,013	0,089
-660,189	453,042	-0,076	-0,124
-659,174	-200,000	-0,015	-0,085
-658,159	204,670	-0,096	-0,111
-657,145	761,621	-0,089	-0,180
-656,130	-200,000	-0,021	0,124
-655,116	-8,826	0,040	0,020
-654,101	-89,573	0,140	0,030
-653,086	-194,223	-0,102	-0,001
-652,072	128,861	-0,041	-0,038
-651,057	170,373	-0,113	-0,119
-650,043	-200,000	0,064	-0,000
-649,028	46,318	0,086	-0,059
-648,014	-200,000	0,016	0,079
-646,999	-200,000	0,010	0,048
-645,984	-78,098	-0,059	0,015
-644,970	289,848	-0,017	-0,022
-643,955	-200,000	0,008	-0,090
-642,941	243,021	-0,055	-0,069
-641,926	360,505	-0,070	-0,104
-640,911	-12,233	-0,098	-0,047
-639,897	323,464	0,065	0,092
-638,882	321,739	0,072	-0,102
-637,868	406,577	-0,043	0,067
-636,853	-124,641	-0,118	0,013
-635,838	800,000	-0,017	-0,040
-634,824	3,197	0,087	0,047
-633,809	800,000	-0,019	-0,057
-632,795	-200,000	-0,008	-0,037
-631,780	-100,669	-0,057	-0,010
-630,765	-200,000	-0,012	-0,158
-629,751	-36,884	-0,092	-0,036
-628,736	19,622	0,047	-0,028
-627,722	-142,370	0,086	-0,006
-626,707	3,729	0,045	-0,024
-625,692	-54,457	0,018	0,006
-624,678	46,361	-0,074	0,051
-623,663	785,426	0,036	0,074
-622,649	536,691	0,037	0,065
-621,634	-0,246	-0,025	0,013
-620,619	-124,536	0,119	-0,014
-619,605	138,108	-0,147	-0,143
-618,590	-72,607	0,062	-0,017
-617,576	800,000	0,020	-0,060
-616,561	452,977	-0,038	0,062
-615,546	-200,000	-0,004	-0,027
-614,532	-80,190	-0,098	-0,024
-613,517	136,965	-0,051	0,049
-612,503	456,532	0,049	0,081
-611,488	-116,777	-0,028	-0,004
-610,474	800,000	0,021	0,058
-609,459	104,767	-0,053	-0,046
-608,444	-52,488	-0,048	-0,016
-607,430	-200,000	-0,009	-0,085
-606,415	-19,399	-0,062	-0,028
-605,401	-95,952	-0,044	-0,009
-604,386	241,401	-0,073	-0,090
-603,371	-28,661	-0,029	0,012
-602,357	-56,149	-0,145	-0,047
-601,342	-200,000	0,018	-0,081
-600,328	355,568	-0,071	-0,105
-599,313	-200,000	-0,035	-0,147
-598,298	29,591	0,025	0,016
-597,284	-200,000	-0,005	0,065
-596,269	-8,547	0,059	0,029
-595,255	47,811	0,032	0,022
-594,240	-24,428	0,139	-0,061
-593,225	-200,000	0,005	0,077
-592,211	-200,000	0,031	-0,203
-591,196	106,633	0,067	-0,059
-590,182	-58,559	0,067	0,021
-589,167	-200,000	0,029	-0,098
-588,152	219,282	0,092	0,109
-587,138	-118,845	0,105	0,014
-586,123	800,000	0,037	0,077
-585,109	-80,809	-0,016	-0,004
-584,094	89,423	-0,078	0,064
-583,079	18,589	0,130	-0,076
-582,065	174,568	0,143	0,153
-581,050	-200,000	0,004	0,077
-580,036	-200,000	-0,022	0,113
-579,021	800,000	-0,017	-0,042
-578,006	-40,718	0,048	-0,018
-576,992	-155,260	-0,071	-0,003
-575,977	-200,000	0,025	-0,111
-574,963	230,316	0,056	0,068
-573,948	278,240	0,041	0,053
-572,934	365,169	-0,058	-0,086
-571,919	-200,000	-0,013	-0,054
-570,904	-34,853	0,053	0,021
-569,890	800,000	0,022	0,064
-568,875	800,000	0,033	0,076
-567,861	11,279	0,084	-0,047
-566,846	-52,211	-0,095	0,032
-565,831	-143,241	-0,049	0,003
-564,817	4,223	-0,084	-0,045
-563,802	-200,000	-0,009	-0,149
-562,788	800,000	0,008	-0,021
-561,773	800,000	-0,049	-0,129
-560,758	432,693	0,075	0,120
-559,744	800,000	-0,048	-0,108
-558,729	-88,588	-0,117	0,026
-557,715	197,688	0,094	0,106
-556,700	129,268	-0,033	-0,031
-555,685	-112,254	-0,056	-0,008
-554,671	757,550	-0,037	-0,074
-553,656	659,409	0,044	-0,084
-552,642	-200,000	-0,018	0,292
-551,627	-200,000	0,010	-0,069
-550,612	151,983	0,115	-0,115
-549,598	167,444	0,086	-0,090
-548,583	63,948	-0,045	-0,033
-547,569	-148,388	-0,012	0,001
-546,554	-91,047	0,123	-0,026
-545,539	-36,007	0,075	0,030
-544,525	509,071	0,057	0,098
-543,510	-95,520	-0,177	-0,035
-542,496	108,152	0,073	0,064
-541,481	-8,806	0,078	-0,038
-540,466	2,040	0,088	-0,047
-539,452	-83,609	-0,029	0,007
-538,437	-200,000	0,000	-0,130
-537,423	172,196	-0,045	0,048
-536,408	-200,000	0,005	-0,083
-535,393	-34,697	-0,105	-0,042
-534,379	-0,840	-0,117	-0,061
-533,364	-200,000	-0,007	0,110
-532,350	41,892	0,050	0,033
-531,335	45,334	-0,048	0,033
-530,321	-43,123	0,025	-0,009
-529,306	140,884	-0,036	-0,035
-528,291	800,000	-0,053	-0,135
-527,277	800,000	0,029	0,060
-526,262	667,898	-0,059	0,112
-525,248	-200,000	-0,013	0,053
-524,233	-200,000	0,016	0,101
-523,218	35,433	-0,055	0,036
-522,204	50,629	-0,103	-0,072
-521,189	451,643	-0,076	-0,124
-520,175	800,000	-0,056	-0,156
-519,160	616,048	0,034	0,063
-518,145	-107,818	0,019	-0,003
-517,131	800,000	-0,055	-0,163
-516,116	-200,000	0,028	0,111
-515,102	-39,638	0,051	-0,019
-514,087	679,410	0,025	-0,048
-513,072	228,437	0,017	-0,021
-512,058	-200,000	0,013	0,180
-511,043	800,000	-0,014	0,032
-510,029	800,000	0,019	0,052
-509,014	108,805	-0,032	0,028
-507,999	-131,135	0,106	-0,010
-506,985	258,685	0,045	-0,057
-505,970	311,883	0,070	-0,097
-504,956	-200,000	-0,017	-0,144
-503,941	122,388	-0,032	-0,030
-502,926	-24,232	0,053	0,023
-501,912	-166,854	0,106	0,003
-500,897	-42,206	-0,104	0,039
-499,883	-200,000	-0,003	0,013
-498,868	48,853	-0,060	-0,042
-497,853	20,446	0,062	-0,037
-496,839	-16,351	0,103	-0,048
-495,824	800,000	-0,029	0,074
-494,810	-43,361	0,116	-0,043
-493,795	75,618	-0,012	-0,009
-492,781	-200,000	0,000	0,069
-491,766	800,000	0,023	-0,070
-490,751	-200,000	-0,005	-0,057
-489,737	245,730	-0,066	0,082
-488,722	-200,000	0,000	0,026
-487,708	-200,000	-0,014	0,092
-486,693	-6,378	0,025	0,013
-485,678	-57,298	0,150	-0,048
-484,664	157,622	-0,069	0,070
-483,649	800,000	-0,043	0,129
-482,635	34,019	0,082	0,053
-481,620	-88,150	-0,005	0,001
-480,605	800,000	0,043	-0,132
-479,591	-123,969	0,061	-0,007
-478,576	-200,000	0,001	0,022
-477,562	-91,665	-0,128	-0,026
-476,547	-200,000	0,021	0,087
-475,532	21,006	-0,048	0,029
-474,518	800,000	0,037	-0,096
-473,503	-14,007	-0,042	0,020
-472,489	186,756	-0,040	-0,043
-471,474	-200,000	-0,007	-0,083
-470,459	-8,610	0,105	-0,051
-469,445	95,961	-0,128	-0,107
-468,430	734,406	0,030	-0,059
-467,416	-200,000	0,017	-0,088
-466,401	114,553	0,171	0,153
-465,386	-200,000	-0,008	-0,051
-464,372	-200,000	0,007	-0,025
-463,357	800,000	0,031	-0,100
-462,343	211,980	-0,087	-0,101
-461,328	199,458	0,056	-0,063
-460,313	-200,000	0,001	0,023
-459,299	86,551	0,138	0,111
-458,284	800,000	-0,064	0,131
-457,270	277,093	0,022	-0,029
-456,255	9,101	-0,125	-0,069
-455,241	334,537	-0,049	-0,070
-454,226	175,359	-0,110	0,118
-453,211	194,233	0,106	-0,118
-452,197	800,000	0,007	-0,017
-451,182	397,301	0,046	-0,071
-450,168	-200,000	-0,011	0,055
-449,153	-4,852	0,033	-0,017
-448,138	-9,713	-0,062	0,030
-447,124	-200,000	0,013	-0,062
-446,109	-24,128	0,210	-0,092
-445,095	-45,079	0,034	-0,013
-444,080	401,691	-0,048	0,075
-443,065	-200,000	0,007	0,052
-442,051	161,626	0,010	-0,010
-441,036	800,000	-0,032	-0,082
-440,022	553,581	-0,014	0,025
-439,007	538,067	0,062	0,108
-437,992	-200,000	0,045	0,155
-436,978	74,319	-0,079	0,061
-435,963	-16,196	0,088	0,041
-434,949	154,288	0,063	-0,064
-433,934	-200,000	0,016	-0,067
-432,919	800,000	-0,049	0,118
-431,905	363,127	0,030	-0,044
-430,890	653,026	0,084	0,159
-429,876	-87,228	0,084	-0,019
-428,861	206,118	-0,108	-0,124
-427,846	-200,000	0,045	-0,168
-426,832	-194,926	0,098	-0,001
-425,817	77,580	-0,025	0,019
-424,803	-23,032	0,081	0,036
-423,788	363,712	0,163	-0,242
-422,773	-2,346	0,008	-0,004
-421,759	-200,000	0,009	0,046
-420,744	-200,000	-0,013	0,075
-419,730	47,755	0,136	-0,093
-418,715	-31,633	0,077	0,032
-417,701	167,190	0,012	-0,012
-416,686	-91,560	-0,081	0,017
-415,671	149,537	0,047	0,046
-414,657	-89,355	0,098	-0,021
-413,642	-200,000	0,009	-0,064
-412,628	800,000	-0,005	-0,014
-411,613	115,616	-0,044	0,039
-410,598	127,284	0,033	0,031
-409,584	274,214	-0,065	0,084
-408,569	-24,089	0,015	-0,006
-407,555	164,696	-0,150	0,155
-406,540	-200,000	-0,008	0,026
-405,525	-95,582	-0,123	-0,024
-404,511	-200,000	0,006	-0,027
-403,496	153,514	-0,051	0,051
-402,482	-200,000	-0,004	0,027
-401,467	-200,000	0,018	0,097
-400,452	90,451	0,045	-0,037
-399,438	-184,852	0,080	0,001
-398,423	800,000	0,026	-0,060
-397,409	-200,000	-0,000	0,041
-396,394	-200,000	0,011	0,054
-395,379	-135,528	0,186	0,016
-394,365	-200,000	-0,013	0,052
-393,350	-43,920	0,021	-0,008
-392,336	-200,000	-0,001	0,006
-391,321	-123,386	-0,110	0,013
-390,306	-25,455	-0,055	0,024
-389,292	-200,000	-0,033	0,152
-388,277	-82,523	0,022	-0,005
-387,263	500,822	-0,036	0,061
-386,248	800,000	0,056	-0,116
-385,233	581,553	-0,026	0,048
-384,219	201,966	0,019	0,021
-383,204	114,186	-0,083	0,074
-382,190	-58,769	-0,135	0,042
-381,175	267,857	-0,016	0,021
-380,160	-142,138	0,099	-0,007
-379,146	-23,688	-0,058	0,025
-378,131	-200,000	0,039	0,144
-377,117	245,960	-0,051	0,063
-376,102	383,996	-0,018	-0,027
-375,088	219,458	0,061	0,071
-374,073	-81,235	-0,107	-0,026
-373,058	-178,687	0,056	0,001
-372,044	352,962	0,051	-0,074
-371,029	-63,694	-0,088	0,026
-370,015	385,472	-0,048	0,072
-369,000	57,278	-0,185	0,132
-367,985	-80,965	0,067	0,016
-366,971	9,913	0,088	0,049
-365,956	-200,000	-0,005	0,066
-364,942	-135,059	0,080	-0,007
-363,927	-117,889	-0,073	-0,009
-362,912	8,874	0,102	0,056
-361,898	-200,000	0,014	0,102
-360,883	-90,781	-0,127	-0,027
-359,869	148,756	0,067	-0,066
-358,854	-200,000	-0,010	0,103
-357,839	800,000	0,010	-0,022
-356,825	-36,861	0,151	0,059
-355,810	220,383	-0,035	-0,041
-354,796	-200,000	-0,010	0,229
-353,781	372,947	-0,067	-0,100
-352,766	-200,000	0,011	-0,109
-351,752	-2,236	0,168	-0,086
-350,737	173,364	-0,140	0,148
-349,723	-157,232	0,084	0,004
-348,708	265,210	0,039	0,049
-347,693	-135,862	-0,089	-0,008
-346,679	800,000	0,031	-0,080
-345,664	800,000	0,017	-0,054
-344,650	-142,647	0,126	0,009
-343,635	248,264	-0,028	0,034
-342,620	-90,920	0,174	-0,036
-341,606	-200,000	-0,031	0,147
-340,591	609,450	-0,033	0,061
-339,577	625,673	-0,073	-0,136
-338,562	428,581	0,041	-0,065
-337,548	-200,000	-0,016	-0,141
-336,533	800,000	0,078	0,163
-335,518	-76,967	-0,054	-0,014
-334,504	211,499	0,094	0,108
-333,489	109,776	-0,055	0,048
-332,475	-54,707	-0,153	-0,050
-331,460	179,348	0,042	0,045
-330,445	-53,709	0,082	-0,027
-329,431	-200,000	-0,002	-0,043
-328,416	-13,953	0,029	-0,014
-327,402	-14,105	0,054	-0,025
-326,387	800,000	0,030	-0,065
-325,372	135,964	-0,032	-0,030
-324,358	408,014	-0,065	-0,101
-323,343	257,876	0,051	-0,064
-322,329	38,040	-0,014	0,009
-321,314	8,680	0,062	0,034
-320,299	311,002	0,064	-0,087
-319,285	155,656	0,027	0,027
-318,270	-19,951	-0,198	-0,089
-317,256	800,000	-0,054	-0,135
-316,241	63,351	-0,067	0,049
-315,226	24,891	0,081	-0,049
-314,212	-200,000	-0,011	0,043
-313,197	-200,000	-0,001	-0,114
-312,183	83,333	0,077	-0,061
-311,168	-100,465	-0,074	-0,013
-310,153	800,000	-0,016	0,047
-309,139	338,555	-0,064	0,091
-308,124	-62,585	0,212	0,064
-307,110	-200,000	0,002	0,130
-306,095	-200,000	-0,010	-0,041
-305,080	-200,000	0,003	-0,046
-304,066	338,899	-0,085	-0,121
-303,051	35,226	-0,061	0,039
-302,037	-142,469	-0,123	-0,009
-301,022	800,000	0,029	-0,062
-300,008	-41,499	0,002	-0,001
-298,993	800,000	-0,035	-0,103
-297,978	627,831	-0,034	0,062
-296,964	-142,536	-0,136	-0,010
-295,949	800,000	0,017	-0,044
-294,935	89,089	-0,025	-0,020
-293,920	-200,000	-0,012	-0,087
-292,905	106,779	0,068	-0,059
-291,891	-142,849	0,132	-0,009
-290,876	800,000	0,017	0,037
-289,862	-200,000	0,015	0,087
-288,847	161,242	-0,061	-0,062
-287,832	105,768	-0,049	-0,042
-286,818	-200,000	-0,018	0,221
-285,803	-200,000	-0,007	-0,072
-284,789	201,030	0,042	0,048
-283,774	90,697	0,042	0,034
-282,759	-17,141	-0,156	0,071
-281,745	-80,885	0,017	0,004
-280,730	-19,144	0,008	0,004
-279,716	-52,330	0,105	-0,035
-278,701	-48,647	-0,047	0,017
-277,686	-200,000	-0,001	-0,043
-276,672	-150,672	0,053	-0,003
-275,657	-200,000	-0,011	-0,087
-274,643	-131,451	-0,194	0,018
-273,628	-131,810	-0,053	-0,005
-272,613	-200,000	0,018	0,067
-271,599	254,987	-0,098	0,122
-270,584	800,000	-0,036	0,113
-269,570	30,195	0,118	0,074
-268,555	179,064	0,076	0,081
-267,540	-200,000	-0,013	-0,091
-266,526	279,574	0,074	0,096
-265,511	5,836	0,045	0,024
-264,497	12,289	-0,009	-0,005
-263,482	-29,345	0,119	-0,050
-262,467	75,455	0,032	-0,025
-261,453	-200,000	0,002	0,047
-260,438	-200,000	-0,007	0,066
-259,424	139,412	-0,072	-0,069
-258,409	-32,616	-0,017	-0,007
-257,395	-140,006	0,112	-0,008
-256,380	-53,134	0,098	0,033
-255,365	-90,230	0,102	-0,021
-254,351	-28,140	-0,049	0,021
-253,336	800,000	-0,033	-0,087
-252,322	79,917	0,061	0,048
-251,307	-105,314	-0,126	-0,021
-250,292	-200,000	-0,002	0,100
-249,278	140,476	0,065	0,062
-248,263	195,334	0,027	0,030
-247,249	-200,000	0,030	0,209
-246,234	-68,485	-0,116	0,033
-245,219	-200,000	0,009	0,060
-244,205	-39,115	-0,069	0,026
-243,190	20,564	-0,138	-0,081
-242,176	32,872	-0,016	-0,010
-241,161	-126,182	0,064	0,007
-240,146	-200,000	0,014	-0,076
-239,132	95,707	-0,094	-0,078
-238,117	193,546	-0,075	-0,083
-237,103	800,000	-0,045	0,100
-236,088	-200,000	-0,012	-0,043
-235,073	-125,130	-0,018	0,002
-234,059	-200,000	0,001	0,067
-233,044	800,000	-0,036	0,103
-232,030	-200,000	0,004	0,034
-231,015	-4,817	-0,118	-0,059
-230,000	134,280	-0,083	-0,079
-228,986	190,001	0,085	0,093
-227,971	800,000	-0,021	0,063
-226,957	-136,148	-0,084	0,007
-225,942	-200,000	-0,020	-0,190
-224,927	-31,277	-0,058	0,024
-223,913	-49,815	0,071	-0,024
-222,898	-169,967	-0,048	0,001
-221,884	-121,663	0,130	-0,015
-220,869	-200,000	-0,053	0,173
-219,855	13,132	0,192	-0,108
-218,840	-107,426	-0,028	0,004
-217,825	70,936	-0,100	0,075
-216,811	-200,000	0,015	-0,058
-215,796	202,536	0,033	0,038
-214,782	365,342	0,067	-0,098
-213,767	742,983	0,020	0,040
-212,752	800,000	0,042	0,129
-211,738	-86,958	-0,078	-0,017
-210,723	7,573	0,012	-0,006
-209,709	-79,491	-0,122	-0,030
-208,694	26,059	-0,103	0,062
-207,679	-143,322	0,068	0,005
-206,665	-200,000	-0,004	0,042
-205,650	-30,372	0,076	0,031
-204,636	-131,027	0,138	0,013
-203,621	-73,154	-0,086	0,023
-202,606	-26,413	-0,034	-0,015
-201,592	563,671	0,040	0,071
-200,577	800,000	-0,046	-0,095
-199,563	91,737	-0,044	-0,036
-198,548	7,812	-0,085	-0,046
-197,533	130,384	0,021	-0,020
-196,519	98,641	0,074	-0,062
-195,504	-3,167	-0,090	-0,045
-194,490	-12,446	-0,101	-0,048
-193,475	57,462	0,053	0,037
-192,460	-200,000	0,023	0,096
-191,446	800,000	0,044	0,110
-190,431	13,385	-0,050	-0,028
-189,417	-177,216	0,079	-0,001
-188,402	800,000	0,060	-0,167
-187,387	-144,069	-0,236	-0,016
-186,373	-58,103	-0,106	0,033
-185,358	-98,067	0,106	-0,020
-184,344	-200,000	0,009	0,049
-183,329	5,713	0,027	-0,014
-182,315	-82,812	-0,048	0,011
-181,300	203,529	-0,047	0,053
-180,285	597,760	-0,046	-0,083
-179,271	-200,000	-0,011	0,037
-178,256	577,960	0,015	-0,026
-177,242	-200,000	0,015	0,087
-176,227	-29,643	0,063	0,026
-175,212	800,000	0,043	0,107
-174,198	-112,607	-0,080	-0,012
-173,183	-200,000	0,006	0,030
-172,169	473,535	-0,062	-0,103
-171,154	-181,984	-0,056	0,001
-170,139	293,512	-0,095	0,126
-169,125	111,308	0,043	0,037
-168,110	800,000	0,069	-0,149
-167,096	-200,000	-0,016	0,113
-166,081	800,000	-0,009	-0,019
-165,066	328,018	-0,071	-0,100
-164,052	-154,073	-0,019	0,001
-163,037	637,325	-0,035	0,065
-162,023	-200,000	0,008	-0,028
-161,008	-41,820	0,112	0,041
-159,993	283,610	-0,022	0,029
-158,979	-66,674	-0,066	0,019
-157,964	-191,338	-0,189	-0,001
-156,950	43,749	-0,079	0,052
-155,935	611,899	0,052	-0,094
-154,920	154,335	0,090	-0,090
-153,906	34,874	-0,083	0,053
-152,891	-0,218	0,061	-0,032
-151,877	214,496	-0,064	-0,073
-150,862	-200,000	-0,008	-0,137
-149,847	-37,729	-0,129	0,050
-148,833	48,289	-0,060	0,040
-147,818	-200,000	0,182	0,000
-146,804	-200,000	-0,002	-0,081
-145,789	264,551	-0,056	-0,071
-144,775	-200,000	-0,010	0,119
-143,760	140,799	-0,055	-0,053
-142,745	800,000	0,038	-0,085
-141,731	-24,551	0,097	0,042
-140,716	34,302	-0,064	-0,040
-139,702	491,873	0,017	0,029
-138,687	134,497	-0,024	-0,022
-137,672	-200,000	-0,018	0,059
-136,658	-200,000	-0,042	-0,159
-135,643	215,901	0,029	-0,034
-134,629	-200,000	-0,010	0,070
-133,614	-200,000	-0,012	-0,053
-132,599	33,177	0,030	0,019
-131,585	87,129	0,086	0,069
-130,570	683,282	0,058	-0,110
-129,556	40,848	-0,137	-0,089
-128,541	800,000	-0,040	-0,086
-127,526	-59,785	-0,033	-0,010
-126,512	-200,000	-0,007	0,178
-125,497	33,848	0,150	0,094
-124,483	-14,296	0,087	-0,040
-123,468	-151,583	0,040	-0,002
-122,453	-109,295	0,030	0,005
-121,439	800,000	0,018	0,036
-120,424	-67,310	0,135	-0,038
