DTS Sentinel unit serial number:	SN410029Multiplexer serial number:	ORYXHardware model number:	OX2-SRSoftware version number:	ORYX F/W v4,00 Oryx Data Collector v3.7.2.0data status	okinstallation	B6 Nyhavnadifferential loss correction	single-endedforward channel	channel 2reverse channel	N/Adate	2023/12/09time	13:10:08forward acquisition time	300,00reverse acquisition time	0,00gamma	499,1914k internal	0,3137k external	0,3137temperature offset calibration	1,0000default loss term (dB/km)	0,3820temperature slope calibration	1,0000multiplexer offset coefficient	1,0000multiplexer slope coefficient	1,0000fibre end	0,00T internal ref (°C)	19,92T ext. ref 1 (°C)	4,73T ext. ref 2 (°C)	4,70length (m)	temperature (°C)	Stokes	anti-Stokes-744,400	-75,405	0,158	0,042
-743,385	-107,334	-0,216	0,035
-742,371	-200,000	0,020	0,090
-741,356	-113,660	-0,195	0,028
-740,342	465,617	-0,030	-0,050
-739,327	-174,544	-0,233	0,005
-738,312	-52,937	0,095	0,032
-737,298	-163,409	-0,368	-0,013
-736,283	23,908	0,065	-0,040
-735,269	2,606	-0,190	0,102
-734,254	789,367	0,004	-0,008
-733,239	-100,384	-0,403	-0,073
-732,225	-153,731	0,063	-0,003
-731,210	144,880	0,059	0,058
-730,196	800,000	-0,027	-0,078
-729,181	-30,386	-0,095	0,040
-728,167	800,000	-0,016	-0,041
-727,152	169,314	0,028	-0,029
-726,137	-39,353	-0,221	0,085
-725,123	82,477	-0,124	-0,100
-724,108	153,357	-0,125	-0,127
-723,094	86,474	-0,081	-0,066
-722,079	800,000	0,058	-0,126
-721,064	-77,239	-0,105	0,027
-720,050	379,428	-0,041	-0,062
-719,035	71,579	-0,076	0,059
-718,021	-67,429	0,048	0,014
-717,006	800,000	-0,027	0,079
-715,991	800,000	-0,053	0,114
-714,977	424,280	0,030	-0,047
-713,962	-82,265	-0,078	-0,019
-712,948	-200,000	0,029	0,175
-711,933	77,636	-0,070	-0,055
-710,918	-69,437	0,135	-0,038
-709,904	-57,202	-0,078	-0,025
-708,889	-200,000	-0,016	0,105
-707,875	-122,131	-0,081	0,010
-706,860	-94,524	-0,090	-0,018
-705,845	-3,475	0,041	0,021
-704,831	103,444	0,029	-0,025
-703,816	-60,642	0,120	-0,037
-702,802	-200,000	0,025	-0,141
-701,787	-200,000	0,032	-0,135
-700,772	-200,000	-0,007	0,081
-699,758	26,527	-0,074	-0,046
-698,743	248,855	-0,097	-0,122
-697,729	-200,000	-0,003	0,078
-696,714	-200,000	-0,020	-0,118
-695,699	184,650	-0,085	0,093
-694,685	-178,598	-0,092	-0,002
-693,670	7,001	-0,145	-0,080
-692,656	-37,480	0,119	0,047
-691,641	646,628	-0,051	0,096
-690,627	-78,888	0,152	0,038
-689,612	140,411	0,045	-0,044
-688,597	36,549	0,027	0,017
-687,583	4,372	-0,077	-0,041
-686,568	174,277	-0,027	0,029
-685,554	38,450	0,081	0,053
-684,539	451,521	-0,072	0,119
-683,524	209,481	0,003	-0,003
-682,510	58,537	-0,051	0,037
-681,495	-131,839	0,100	0,010
-680,481	19,933	-0,107	0,064
-679,466	75,458	-0,076	-0,059
-678,451	381,819	-0,026	0,040
-677,437	-35,272	-0,129	-0,052
-676,422	98,813	0,048	-0,041
-675,408	-200,000	-0,011	-0,074
-674,393	597,788	-0,049	-0,091
-673,378	688,553	-0,021	0,041
-672,364	146,979	0,044	-0,044
-671,349	-119,550	0,094	0,012
-670,335	220,149	0,046	-0,055
-669,320	-200,000	0,020	-0,072
-668,305	800,000	0,030	-0,074
-667,291	392,923	-0,066	0,103
-666,276	-200,000	0,003	-0,089
-665,262	-120,917	-0,150	-0,018
-664,247	-77,869	0,125	-0,032
-663,232	800,000	0,030	0,090
-662,218	177,939	-0,099	0,107
-661,203	139,071	0,049	0,048
-660,189	116,399	-0,090	0,081
-659,174	-200,000	-0,001	-0,027
-658,159	-45,678	0,012	-0,004
-657,145	-200,000	0,043	-0,204
-656,130	234,991	-0,085	0,104
-655,116	-200,000	0,008	0,083
-654,101	175,608	-0,057	0,061
-653,086	-101,226	-0,098	0,018
-652,072	-20,089	-0,143	-0,065
-651,057	-200,000	-0,015	-0,087
-650,043	134,748	-0,058	0,056
-649,028	-152,352	0,066	-0,003
-648,014	800,000	0,040	-0,094
-646,999	-200,000	-0,006	0,055
-645,984	33,072	-0,032	-0,021
-644,970	-35,879	-0,202	-0,081
-643,955	-40,277	-0,051	-0,019
-642,941	800,000	-0,047	-0,097
-641,926	-200,000	-0,018	-0,064
-640,911	616,614	-0,013	-0,024
-639,897	752,107	0,018	0,035
-638,882	652,321	0,038	-0,073
-637,868	-122,688	-0,130	-0,015
-636,853	-200,000	0,002	-0,072
-635,838	394,207	0,035	-0,054
-634,824	31,318	0,007	-0,004
-633,809	237,163	0,065	0,079
-632,795	-200,000	-0,009	-0,145
-631,780	800,000	0,032	-0,076
-630,765	-156,510	0,062	-0,003
-629,751	-120,183	-0,087	0,011
-628,736	800,000	-0,028	0,079
-627,722	30,100	-0,113	-0,071
-626,707	-200,000	-0,007	0,109
-625,692	800,000	0,012	0,037
-624,678	-200,000	0,026	0,167
-623,663	761,223	0,024	0,049
-622,649	-39,209	0,121	-0,047
-621,634	-200,000	0,003	0,036
-620,619	-200,000	0,002	-0,078
-619,605	73,216	-0,063	0,049
-618,590	204,381	-0,103	0,118
-617,576	-200,000	-0,023	0,080
-616,561	234,032	0,037	-0,045
-615,546	643,088	-0,052	-0,099
-614,532	159,227	-0,056	-0,057
-613,517	-141,882	-0,150	0,011
-612,503	328,531	0,033	-0,048
-611,488	800,000	-0,020	-0,048
-610,474	-61,561	-0,080	0,025
-609,459	-13,516	0,112	-0,053
-608,444	-71,752	-0,068	0,019
-607,430	74,120	0,054	-0,042
-606,415	-147,282	-0,016	0,001
-605,401	-41,606	0,074	0,028
-604,386	-160,430	0,156	-0,006
-603,371	-200,000	-0,004	-0,097
-602,357	-200,000	-0,007	-0,056
-601,342	-19,752	0,069	-0,031
-600,328	-111,733	-0,141	-0,021
-599,313	143,456	-0,034	0,034
-598,298	800,000	0,028	0,082
-597,284	284,093	-0,088	-0,117
-596,269	80,313	0,072	-0,057
-595,255	800,000	0,058	0,172
-594,240	-74,038	-0,165	0,044
-593,225	800,000	0,046	-0,138
-592,211	-200,000	0,073	-0,260
-591,196	800,000	0,022	-0,060
-590,182	-69,077	-0,059	0,017
-589,167	-71,007	0,044	-0,012
-588,152	800,000	0,025	-0,065
-587,138	-200,000	0,020	-0,139
-586,123	55,701	0,088	-0,063
-585,109	800,000	-0,075	-0,167
-584,094	-117,695	-0,078	0,010
-583,079	800,000	0,050	-0,111
-582,065	800,000	0,011	0,033
-581,050	-80,233	0,178	-0,044
-580,036	44,681	-0,041	-0,028
-579,021	-55,182	0,050	-0,016
-578,006	-188,596	0,087	-0,001
-576,992	-200,000	-0,002	-0,066
-575,977	-200,000	0,016	-0,071
-574,963	664,477	-0,024	-0,046
-573,948	15,543	-0,087	-0,050
-572,934	-200,000	-0,028	0,124
-571,919	458,285	0,025	0,042
-570,904	800,000	-0,076	-0,200
-569,890	116,933	-0,109	0,099
-568,875	63,272	-0,156	-0,115
-567,861	415,274	0,059	-0,094
-566,846	290,524	0,083	0,111
-565,831	-83,509	-0,146	0,034
-564,817	800,000	0,056	-0,126
-563,802	-200,000	-0,002	-0,103
-562,788	116,937	0,112	-0,101
-561,773	-200,000	-0,040	0,144
-560,758	800,000	0,059	0,145
-559,744	191,991	-0,113	0,125
-558,729	25,270	0,135	0,082
-557,715	-58,741	-0,134	-0,042
-556,700	443,953	-0,038	0,061
-555,685	-200,000	-0,008	-0,037
-554,671	700,812	0,020	-0,039
-553,656	800,000	0,084	0,175
-552,642	-200,000	0,015	0,145
-551,627	-200,000	-0,017	0,066
-550,612	3,862	0,025	0,013
-549,598	-11,758	-0,080	0,038
-548,583	800,000	-0,023	-0,064
-547,569	-200,000	-0,013	-0,064
-546,554	192,168	0,066	-0,073
-545,539	800,000	-0,021	0,060
-544,525	208,555	0,030	-0,034
-543,510	-169,113	-0,190	-0,005
-542,496	-200,000	-0,010	0,080
-541,481	-200,000	-0,028	-0,098
-540,466	-1,417	-0,110	-0,057
-539,452	280,151	-0,083	0,109
-538,437	-110,852	-0,006	-0,001
-537,423	800,000	0,033	0,078
-536,408	373,830	0,078	-0,117
-535,393	-96,035	0,122	0,024
-534,379	-93,848	-0,139	-0,028
-533,364	70,123	-0,053	-0,040
-532,350	-100,571	0,148	-0,027
-531,335	11,100	-0,143	-0,080
-530,321	279,375	0,115	0,152
-529,306	800,000	-0,085	0,201
-528,291	-200,000	-0,007	0,032
-527,277	-88,816	-0,140	-0,030
-526,262	800,000	-0,021	-0,049
-525,248	43,772	-0,043	0,029
-524,233	-117,852	0,193	0,025
-523,218	1,968	0,105	-0,056
-522,204	-11,971	-0,115	-0,055
-521,189	800,000	-0,030	-0,063
-520,175	62,892	0,007	0,005
-519,160	96,986	0,021	-0,018
-518,145	-200,000	-0,004	-0,021
-517,131	-200,000	0,002	0,018
-516,116	-33,135	0,050	-0,020
-515,102	-143,356	-0,141	0,010
-514,087	-200,000	-0,000	0,019
-513,072	424,691	0,015	0,024
-512,058	303,663	0,049	-0,067
-511,043	800,000	0,081	0,171
-510,029	-27,241	0,087	-0,037
-509,014	106,424	-0,011	-0,009
-507,999	130,353	-0,088	-0,083
-506,985	237,504	0,086	-0,105
-505,970	347,868	-0,033	-0,048
-504,956	-51,813	-0,039	-0,013
-503,941	171,842	0,058	0,061
-502,926	199,050	0,072	-0,081
-501,912	800,000	-0,009	0,021
-500,897	-200,000	0,005	-0,087
-499,883	-160,323	-0,115	-0,004
-498,868	-200,000	-0,007	-0,119
-497,853	-67,503	-0,096	-0,028
-496,839	-73,957	-0,147	-0,039
-495,824	-200,000	0,012	0,137
-494,810	-200,000	0,008	0,106
-493,795	686,577	0,022	-0,043
-492,781	-99,444	-0,031	-0,006
-491,766	-66,833	-0,056	-0,016
-490,751	165,135	0,145	-0,150
-489,737	17,282	-0,097	0,057
-488,722	23,248	0,091	-0,055
-487,708	129,695	-0,028	-0,027
-486,693	800,000	0,045	0,117
-485,678	117,100	-0,131	-0,118
-484,664	-200,000	-0,000	-0,114
-483,649	-114,756	0,083	-0,012
-482,635	213,298	0,038	0,045
-481,620	-147,542	0,106	0,006
-480,605	9,534	0,056	-0,031
-479,591	-200,000	0,022	-0,099
-478,576	-88,709	0,034	-0,007
-477,562	-200,000	-0,003	0,033
-476,547	35,617	-0,109	0,070
-475,532	718,490	-0,008	-0,015
-474,518	-92,965	0,134	0,027
-473,503	-81,331	-0,089	-0,021
-472,489	13,991	0,069	0,039
-471,474	800,000	0,077	0,191
-470,459	-200,000	0,007	0,183
-469,445	-91,643	0,040	-0,008
-468,430	-200,000	0,022	0,112
-467,416	-200,000	-0,005	0,020
-466,401	-3,176	-0,034	-0,017
-465,386	-100,643	0,141	0,025
-464,372	800,000	0,034	-0,073
-463,357	800,000	0,034	0,074
-462,343	55,403	-0,103	-0,073
-461,328	-72,875	-0,099	-0,026
-460,313	800,000	0,049	0,112
-459,299	-118,339	0,073	0,009
-458,284	-200,000	0,037	0,130
-457,270	800,000	0,014	0,034
-456,255	78,486	-0,095	-0,075
-455,241	10,623	-0,171	-0,095
-454,226	-110,255	0,057	0,009
-453,211	-55,146	0,227	0,074
-452,197	-200,000	0,007	-0,024
-451,182	-200,000	-0,004	-0,012
-450,168	-200,000	-0,021	-0,089
-449,153	800,000	-0,075	0,157
-448,138	800,000	-0,031	-0,099
-447,124	86,131	0,059	-0,047
-446,109	225,343	-0,092	-0,110
-445,095	800,000	-0,011	0,025
-444,080	303,407	0,075	0,102
-443,065	190,070	0,024	0,027
-442,051	-55,251	-0,053	-0,018
-441,036	-52,938	0,109	-0,037
-440,022	-87,566	-0,084	-0,018
-439,007	449,486	-0,032	-0,052
-437,992	-170,147	0,080	0,002
-436,978	-200,000	0,022	0,132
-435,963	-200,000	0,027	0,108
-434,949	94,277	0,044	-0,036
-433,934	97,917	-0,050	0,042
-432,919	800,000	0,064	-0,130
-431,905	523,274	-0,033	-0,058
-430,890	324,985	0,070	0,098
-429,876	-200,000	0,027	0,251
-428,861	-96,649	0,011	-0,002
-427,846	800,000	-0,000	0,001
-426,832	-59,802	-0,083	-0,026
-425,817	92,271	0,082	-0,068
-424,803	-60,528	0,035	-0,011
-423,788	12,033	0,135	0,076
-422,773	-200,000	0,031	0,122
-421,759	-35,479	0,166	-0,066
-420,744	74,294	0,057	-0,044
-419,730	562,576	-0,075	-0,134
-418,715	364,104	-0,017	0,025
-417,701	413,554	0,043	0,068
-416,686	244,881	-0,076	0,094
-415,671	-58,696	0,145	-0,046
-414,657	-200,000	-0,039	0,196
-413,642	713,292	-0,053	-0,104
-412,628	800,000	-0,021	-0,059
-411,613	-200,000	-0,008	-0,098
-410,598	148,221	0,017	-0,016
-409,584	800,000	0,047	-0,099
-408,569	401,398	-0,050	0,078
-407,555	-200,000	-0,003	-0,117
-406,540	-54,385	0,126	-0,042
-405,525	290,724	-0,055	0,074
-404,511	72,688	-0,101	-0,077
-403,496	26,095	-0,064	-0,039
-402,482	-200,000	-0,000	-0,057
-401,467	-180,623	0,111	-0,002
-400,452	-60,747	0,027	0,008
-399,438	31,369	-0,031	0,020
-398,423	449,940	-0,065	0,105
-397,409	193,228	-0,083	0,092
-396,394	-85,559	0,087	-0,020
-395,379	-33,447	-0,115	-0,046
-394,365	-200,000	0,016	0,051
-393,350	-18,730	-0,036	-0,016
-392,336	78,938	-0,067	0,052
-391,321	483,557	-0,061	-0,102
-390,306	-100,947	-0,078	0,014
-389,292	510,189	0,060	-0,103
-388,277	-49,728	0,008	-0,003
-387,263	-200,000	0,007	0,123
-386,248	-200,000	0,002	0,064
-385,233	-169,669	0,150	-0,004
-384,219	-87,579	0,176	-0,039
-383,204	193,423	-0,039	-0,043
-382,190	109,215	-0,072	-0,063
-381,175	99,157	0,034	-0,029
-380,160	-200,000	-0,015	-0,082
-379,146	-16,894	0,112	-0,052
-378,131	98,838	-0,126	-0,106
-377,117	-200,000	0,013	0,087
-376,102	375,728	0,051	-0,076
-375,088	160,308	-0,041	0,042
-374,073	132,342	0,091	0,086
-373,058	-200,000	0,000	0,010
-372,044	386,718	0,027	-0,041
-371,029	-200,000	-0,006	-0,058
-370,015	-148,785	0,057	0,003
-369,000	35,546	0,137	0,088
-367,985	-60,011	-0,062	-0,019
-366,971	66,981	0,065	0,048
-365,956	768,143	-0,057	0,114
-364,942	-200,000	0,007	0,071
-363,927	237,339	0,102	-0,124
-362,912	127,122	0,064	-0,060
-361,898	-200,000	0,013	-0,104
-360,883	800,000	0,044	-0,092
-359,869	96,380	0,033	-0,027
-358,854	-200,000	-0,044	-0,200
-357,839	-80,253	0,147	0,036
-356,825	-142,417	0,084	0,006
-355,810	-107,246	-0,086	-0,014
-354,796	8,245	-0,091	-0,050
-353,781	82,009	0,039	-0,031
-352,766	20,734	-0,044	-0,026
-351,752	-200,000	-0,027	0,110
-350,737	-200,000	0,001	-0,012
-349,723	-200,000	0,025	0,155
-348,708	-200,000	0,007	-0,046
-347,693	-200,000	0,008	0,136
-346,679	89,955	0,105	0,086
-345,664	29,829	0,037	0,023
-344,650	-200,000	0,018	0,141
-343,635	-200,000	-0,028	0,132
-342,620	800,000	0,033	0,099
-341,606	-31,337	0,228	-0,093
-340,591	298,845	0,032	0,043
-339,577	-57,581	-0,074	0,024
-338,562	-146,301	-0,130	-0,008
-337,548	171,350	-0,022	-0,023
-336,533	800,000	-0,042	-0,098
-335,518	-200,000	0,017	0,086
-334,504	125,369	0,058	0,054
-333,489	8,966	-0,034	-0,019
-332,475	175,951	-0,070	-0,074
-331,460	72,614	-0,189	-0,144
-330,445	26,394	-0,012	0,007
-329,431	49,142	0,103	-0,071
-328,416	800,000	0,070	0,148
-327,402	-73,048	0,078	-0,021
-326,387	-175,548	0,118	-0,002
-325,372	-122,243	-0,088	-0,010
-324,358	191,236	-0,041	0,045
-323,343	-126,407	0,027	-0,003
-322,329	-119,670	0,051	-0,006
-321,314	401,669	-0,009	0,013
-320,299	-200,000	-0,001	0,089
-319,285	433,965	-0,065	-0,104
-318,270	-176,431	-0,116	0,002
-317,256	-13,911	0,115	0,054
-316,241	222,753	-0,100	-0,118
-315,226	137,356	-0,027	0,026
-314,212	-32,850	0,095	0,039
-313,197	383,759	0,067	0,101
-312,183	800,000	0,043	0,113
-311,168	153,584	-0,105	-0,105
-310,153	-141,090	-0,072	0,005
-309,139	-91,007	0,029	0,006
-308,124	199,594	-0,056	0,063
-307,110	70,403	0,106	0,080
-306,095	800,000	-0,049	0,124
-305,080	194,598	-0,066	0,073
-304,066	800,000	-0,047	-0,138
-303,051	-14,219	-0,155	-0,073
-302,037	134,004	-0,056	-0,053
-301,022	-200,000	0,026	-0,089
-300,008	515,186	0,049	-0,083
-298,993	800,000	0,080	0,193
-297,978	274,502	-0,054	0,070
-296,964	172,703	-0,074	-0,078
-295,949	218,818	-0,031	-0,036
-294,935	-200,000	-0,011	-0,072
-293,920	556,244	-0,059	-0,104
-292,905	106,716	0,061	-0,052
-291,891	28,930	0,085	-0,052
-290,876	-200,000	-0,003	-0,026
-289,862	-200,000	0,029	-0,146
-288,847	800,000	0,038	-0,094
-287,832	800,000	-0,032	-0,090
-286,818	-200,000	-0,002	-0,076
-285,803	-139,097	0,099	0,008
-284,789	-200,000	0,020	0,122
-283,774	800,000	-0,070	0,162
-282,759	-9,242	0,080	0,039
-281,745	183,178	-0,081	0,087
-280,730	-13,637	-0,109	-0,051
-279,716	-200,000	-0,021	-0,079
-278,701	800,000	-0,013	0,027
-277,686	-55,962	0,137	-0,044
-276,672	-200,000	-0,008	0,171
-275,657	-127,960	0,200	-0,021
-274,643	-173,076	-0,092	0,002
-273,628	-64,733	-0,113	-0,033
-272,613	-200,000	-0,006	-0,103
-271,599	126,172	-0,045	0,042
-270,584	-200,000	0,005	0,110
-269,570	-24,966	-0,054	-0,023
-268,555	-122,823	0,072	-0,008
-267,540	90,435	-0,112	0,091
-266,526	-134,783	-0,189	-0,016
-265,511	409,894	-0,044	0,068
-264,497	17,617	-0,060	-0,035
-263,482	-144,879	0,094	-0,006
-262,467	800,000	0,021	-0,045
-261,453	800,000	-0,004	0,010
-260,438	-48,022	-0,094	-0,033
-259,424	108,346	-0,057	-0,049
-258,409	-80,033	-0,133	0,032
-257,395	281,403	-0,036	0,047
-256,380	4,470	-0,014	-0,007
-255,365	800,000	0,060	0,171
-254,351	-6,846	-0,109	0,054
-253,336	-200,000	0,003	0,126
-252,322	453,450	0,031	0,050
-251,307	38,324	-0,041	0,026
-250,292	69,208	-0,043	0,032
-249,278	-52,387	0,134	-0,045
-248,263	-165,715	0,151	-0,005
-247,249	800,000	-0,045	0,107
-246,234	-200,000	0,024	0,088
-245,219	747,675	0,027	-0,053
-244,205	32,967	-0,080	-0,050
-243,190	330,713	0,066	0,093
-242,176	383,469	0,109	0,164
-241,161	776,360	-0,060	0,120
-240,146	800,000	-0,040	0,080
-239,132	-124,362	0,102	-0,011
-238,117	-22,942	-0,075	-0,033
-237,103	-200,000	0,027	-0,140
-236,088	-200,000	0,006	-0,060
-235,073	462,465	0,036	-0,058
-234,059	-200,000	0,000	0,067
-233,044	-200,000	0,044	0,147
-232,030	145,254	-0,087	-0,085
-231,015	417,709	-0,056	-0,088
-230,000	800,000	-0,071	0,146
-228,986	-200,000	0,006	-0,062
-227,971	-135,768	-0,105	0,009
-226,957	-125,634	-0,097	0,011
-225,942	-200,000	-0,007	0,157
-224,927	-100,958	0,057	0,010
-223,913	-99,552	0,009	0,002
-222,898	-200,000	0,022	-0,088
-221,884	-82,300	-0,156	0,037
-220,869	-94,576	0,043	0,009
-219,855	-176,105	0,120	0,002
-218,840	-77,830	-0,046	-0,012
-217,825	800,000	0,019	0,044
-216,811	-200,000	0,002	0,028
-215,796	-200,000	-0,015	0,079
-214,782	800,000	0,038	0,079
-213,767	-35,574	-0,049	-0,019
-212,752	-32,430	-0,092	0,037
-211,738	800,000	-0,029	0,060
-210,723	-200,000	-0,001	-0,100
-209,709	229,019	0,065	-0,077
-208,694	253,605	-0,047	-0,059
-207,679	68,618	-0,037	-0,028
-206,665	800,000	-0,041	0,105
-205,650	-45,234	0,135	0,048
-204,636	-121,773	0,089	0,011
-203,621	800,000	0,031	-0,091
-202,606	62,499	-0,023	-0,016
-201,592	-200,000	0,001	-0,119
-200,577	-200,000	0,004	-0,018
-199,563	800,000	0,041	-0,098
-198,548	638,530	-0,027	0,049
-197,533	-200,000	-0,010	0,104
-196,519	40,426	0,103	0,067
-195,504	81,806	-0,101	-0,080
-194,490	-200,000	-0,019	-0,064
-193,475	314,963	-0,042	0,058
-192,460	800,000	-0,071	0,188
-191,446	49,532	0,037	0,025
-190,431	-3,188	0,122	0,062
-189,417	-42,286	0,038	0,014
-188,402	-84,147	0,053	-0,012
-187,387	-100,708	-0,178	0,032
-186,373	-200,000	0,013	-0,046
-185,358	69,449	-0,102	0,077
-184,344	-43,947	0,132	-0,048
-183,329	709,329	0,029	0,056
-182,315	800,000	0,051	-0,161
-181,300	-84,743	0,074	0,017
-180,285	-200,000	-0,001	0,071
-179,271	-200,000	-0,029	-0,198
-178,256	483,776	-0,026	-0,043
-177,242	800,000	0,036	0,095
-176,227	800,000	0,019	0,041
-175,212	800,000	0,063	0,144
-174,198	-56,030	-0,029	-0,009
-173,183	-200,000	-0,004	-0,128
-172,169	-48,719	-0,102	-0,035
-171,154	271,805	-0,032	0,042
-170,139	-200,000	0,022	-0,075
-169,125	135,220	0,071	0,067
-168,110	-174,978	0,093	-0,002
-167,096	-145,877	0,024	-0,002
-166,081	-66,982	0,110	-0,031
-165,066	-94,668	0,050	-0,010
-164,052	-200,000	0,019	0,069
-163,037	-200,000	-0,024	0,218
-162,023	-200,000	-0,005	0,183
-161,008	800,000	-0,020	-0,060
-159,993	-200,000	0,009	-0,061
-158,979	6,285	-0,037	-0,020
-157,964	602,006	-0,061	-0,110
-156,950	800,000	-0,080	-0,164
-155,935	-59,058	0,051	0,016
-154,920	800,000	-0,057	0,170
-153,906	-200,000	0,023	0,144
-152,891	-200,000	-0,006	-0,042
-151,877	61,459	-0,133	-0,096
-150,862	-192,336	0,086	-0,001
-149,847	-75,658	-0,027	0,007
-148,833	800,000	-0,009	-0,027
-147,818	800,000	0,045	-0,137
-146,804	-135,260	-0,012	-0,001
-145,789	-200,000	0,013	0,094
-144,775	-200,000	0,005	0,098
-143,760	5,030	-0,031	-0,017
-142,745	-200,000	-0,005	0,046
-141,731	800,000	0,026	-0,057
-140,716	501,471	-0,088	0,147
-139,702	-200,000	0,018	0,085
-138,687	693,145	0,025	0,048
-137,672	395,474	0,081	0,123
-136,658	-88,665	0,054	0,012
-135,643	-64,667	0,124	0,036
-134,629	458,342	-0,046	-0,075
-133,614	-77,838	-0,104	0,026
-132,599	-54,902	0,178	0,058
-131,585	-200,000	-0,026	0,192
-130,570	-97,385	0,095	-0,018
-129,556	-8,015	-0,106	0,052
-128,541	54,962	-0,105	-0,074
-127,526	343,008	-0,026	0,037
-126,512	-70,425	0,062	0,017
-125,497	-190,484	-0,044	-0,000
-124,483	-97,897	0,149	-0,028
-123,468	412,869	-0,053	0,082
-122,453	75,950	-0,157	-0,120
-121,439	-117,990	-0,131	0,017
-120,424	733,166	-0,038	0,074
