DTS Sentinel unit serial number:	SN410029Multiplexer serial number:	ORYXHardware model number:	OX2-SRSoftware version number:	ORYX F/W v4,00 Oryx Data Collector v3.7.2.0data status	okinstallation	B6 Nyhavnadifferential loss correction	single-endedforward channel	channel 2reverse channel	N/Adate	2023/12/09time	08:25:08forward acquisition time	300,00reverse acquisition time	0,00gamma	499,1914k internal	0,3139k external	0,3139temperature offset calibration	1,0000default loss term (dB/km)	0,3820temperature slope calibration	1,0000multiplexer offset coefficient	1,0000multiplexer slope coefficient	1,0000fibre end	0,00T internal ref (°C)	18,50T ext. ref 1 (°C)	1,94T ext. ref 2 (°C)	1,93length (m)	temperature (°C)	Stokes	anti-Stokes-744,400	215,199	-0,056	0,066
-743,385	-106,341	-0,198	0,033
-742,371	14,533	0,135	0,078
-741,356	-148,565	-0,210	-0,013
-740,342	800,000	-0,014	0,045
-739,327	-176,731	-0,210	0,004
-738,312	-200,000	0,003	-0,048
-737,298	-101,071	-0,278	0,050
-736,283	-11,438	-0,053	-0,026
-735,269	-119,325	-0,115	-0,015
-734,254	-200,000	0,005	-0,061
-733,239	3,325	-0,390	-0,210
-732,225	-86,247	0,232	-0,053
-731,210	175,504	0,100	0,107
-730,196	800,000	-0,066	-0,181
-729,181	-200,000	-0,014	-0,093
-728,167	-200,000	-0,009	-0,064
-727,152	800,000	-0,025	0,054
-726,137	-28,265	-0,130	-0,055
-725,123	800,000	-0,061	-0,175
-724,108	-200,000	0,002	-0,108
-723,094	-73,320	-0,060	-0,016
-722,079	-200,000	-0,005	-0,037
-721,064	14,294	0,011	0,006
-720,050	800,000	-0,019	-0,041
-719,035	70,934	-0,111	-0,085
-718,021	644,028	-0,094	-0,178
-717,006	800,000	-0,036	0,107
-715,991	-14,124	-0,095	-0,045
-714,977	226,545	-0,062	-0,075
-713,962	-125,637	-0,095	0,011
-712,948	-144,449	0,131	0,009
-711,933	-25,977	-0,092	-0,040
-710,918	-200,000	0,003	-0,014
-709,904	800,000	-0,038	-0,105
-708,889	94,388	-0,087	-0,073
-707,875	93,962	-0,091	-0,077
-706,860	-200,000	0,033	-0,154
-705,845	-151,399	0,117	0,006
-704,831	-122,889	0,049	0,006
-703,816	-118,187	-0,060	-0,008
-702,802	-5,632	0,062	0,032
-701,787	48,690	0,017	0,012
-700,772	283,145	0,067	0,089
-699,758	721,713	-0,037	-0,073
-698,743	-80,447	0,074	0,018
-697,729	-43,045	0,091	-0,034
-696,714	-200,000	0,008	0,056
-695,699	92,564	0,032	0,027
-694,685	-54,508	-0,180	0,060
-693,670	315,332	-0,101	-0,142
-692,656	5,468	0,094	-0,051
-691,641	-115,039	-0,085	-0,012
-690,627	-200,000	-0,001	0,077
-689,612	-121,203	0,036	0,004
-688,597	-54,513	-0,074	0,025
-687,583	556,694	0,029	0,053
-686,568	89,977	-0,144	-0,119
-685,554	-116,075	-0,106	-0,014
-684,539	-200,000	-0,027	-0,105
-683,524	-200,000	-0,023	-0,174
-682,510	-130,369	0,078	-0,008
-681,495	-163,629	-0,122	0,004
-680,481	-200,000	0,029	-0,100
-679,466	800,000	-0,017	-0,041
-678,451	480,220	-0,040	-0,067
-677,437	-104,281	-0,066	-0,011
-676,422	800,000	0,027	-0,062
-675,408	800,000	-0,024	-0,077
-674,393	-200,000	0,002	-0,136
-673,378	495,887	-0,045	-0,077
-672,364	50,332	-0,083	0,058
-671,349	495,221	0,015	-0,025
-670,335	-81,667	-0,134	0,032
-669,320	419,974	-0,058	0,093
-668,305	-57,144	-0,080	0,026
-667,291	800,000	0,034	-0,081
-666,276	-200,000	-0,012	-0,045
-665,262	473,941	0,113	-0,190
-664,247	-57,812	0,088	0,028
-663,232	-200,000	-0,006	0,098
-662,218	800,000	0,061	0,143
-661,203	-50,948	0,078	0,027
-660,189	-150,084	0,046	0,003
-659,174	32,581	-0,015	-0,009
-658,159	800,000	0,023	0,052
-657,145	-200,000	0,001	-0,052
-656,130	566,594	0,039	0,069
-655,116	-200,000	-0,011	0,087
-654,101	-98,547	-0,056	-0,010
-653,086	-200,000	-0,002	-0,096
-652,072	-200,000	0,022	-0,076
-651,057	-200,000	0,030	-0,119
-650,043	-78,880	-0,102	-0,025
-649,028	-200,000	-0,010	0,059
-648,014	352,518	-0,049	-0,072
-646,999	556,916	0,009	-0,017
-645,984	-39,510	-0,065	-0,025
-644,970	-68,029	-0,033	-0,009
-643,955	409,913	0,085	-0,133
-642,941	-200,000	0,001	-0,105
-641,926	-200,000	-0,005	-0,034
-640,911	468,300	0,093	0,154
-639,897	-200,000	0,000	0,010
-638,882	79,610	0,095	0,075
-637,868	-200,000	0,001	-0,136
-636,853	153,978	-0,041	-0,041
-635,838	734,067	-0,032	-0,064
-634,824	-75,901	-0,021	-0,006
-633,809	-200,000	0,030	0,125
-632,795	-19,993	-0,047	0,021
-631,780	714,268	0,055	0,108
-630,765	54,915	-0,035	-0,025
-629,751	17,548	0,045	-0,026
-628,736	-109,575	-0,082	0,013
-627,722	-3,710	0,115	0,059
-626,707	-112,501	-0,221	0,032
-625,692	144,621	0,073	-0,072
-624,678	458,898	0,090	0,148
-623,663	-200,000	-0,003	0,032
-622,649	-63,185	-0,203	-0,061
-621,634	236,919	-0,031	0,038
-620,619	-200,000	0,015	-0,124
-619,605	-42,809	0,063	0,024
-618,590	-200,000	-0,018	0,086
-617,576	-140,888	-0,068	0,005
-616,561	205,928	0,079	0,090
-615,546	82,387	-0,026	-0,021
-614,532	475,053	0,047	-0,079
-613,517	800,000	0,016	-0,050
-612,503	-118,348	0,056	0,007
-611,488	363,573	-0,036	0,053
-610,474	-200,000	-0,001	0,021
-609,459	130,826	-0,047	-0,044
-608,444	-200,000	0,007	0,052
-607,430	79,129	-0,085	-0,067
-606,415	599,851	-0,033	-0,060
-605,401	-100,746	0,110	0,020
-604,386	-200,000	-0,018	0,066
-603,371	-200,000	0,022	-0,136
-602,357	530,682	0,013	0,023
-601,342	-48,164	-0,066	-0,023
-600,328	-200,000	-0,042	0,148
-599,313	-200,000	0,012	0,040
-598,298	40,376	0,108	-0,072
-597,284	-5,436	-0,085	-0,043
-596,269	511,629	0,055	0,095
-595,255	-25,387	0,033	-0,014
-594,240	-32,068	-0,055	0,023
-593,225	14,233	0,154	-0,088
-592,211	442,167	-0,126	-0,204
-591,196	-200,000	0,001	0,079
-590,182	-36,501	-0,010	-0,004
-589,167	800,000	-0,028	0,066
-588,152	270,967	0,017	0,021
-587,138	-200,000	-0,007	-0,040
-586,123	800,000	-0,038	-0,077
-585,109	-200,000	0,023	0,102
-584,094	-156,333	-0,078	0,004
-583,079	99,297	0,153	0,130
-582,065	-76,619	-0,119	0,031
-581,050	147,463	0,095	0,094
-580,036	-15,954	-0,055	0,026
-579,021	420,279	-0,064	-0,102
-578,006	257,608	-0,015	-0,019
-576,992	139,676	0,078	0,076
-575,977	-54,327	0,052	-0,017
-574,963	77,507	0,096	-0,075
-573,948	-39,239	-0,158	0,061
-572,934	187,790	-0,012	-0,013
-571,919	-17,583	-0,117	-0,054
-570,904	-84,715	-0,048	0,011
-569,890	-94,330	0,085	-0,017
-568,875	-200,000	-0,000	0,026
-567,861	251,177	-0,035	0,044
-566,846	-37,731	0,076	0,030
-565,831	-200,000	-0,004	0,059
-564,817	287,800	-0,034	-0,046
-563,802	800,000	-0,025	-0,058
-562,788	446,610	0,055	0,089
-561,773	533,975	0,031	0,054
-560,758	67,259	-0,029	-0,022
-559,744	1,476	-0,105	-0,055
-558,729	213,768	-0,077	-0,089
-557,715	254,964	-0,021	-0,026
-556,700	465,968	-0,049	0,081
-555,685	-200,000	0,002	-0,053
-554,671	-71,184	0,089	0,024
-553,656	-200,000	0,000	-0,097
-552,642	-32,070	0,102	-0,042
-551,627	367,488	0,057	-0,085
-550,612	-118,276	-0,118	-0,015
-549,598	-200,000	-0,021	-0,166
-548,583	-102,436	-0,081	-0,014
-547,569	-8,997	-0,041	-0,020
-546,554	-200,000	-0,001	-0,009
-545,539	30,512	-0,083	-0,052
-544,525	-108,495	0,086	0,013
-543,510	229,657	-0,072	-0,087
-542,496	-200,000	-0,008	-0,116
-541,481	-200,000	-0,013	-0,057
-540,466	-200,000	0,004	-0,145
-539,452	-134,327	0,131	0,012
-538,437	-200,000	-0,014	0,148
-537,423	32,605	0,062	0,040
-536,408	12,954	0,051	-0,029
-535,393	800,000	0,047	0,132
-534,379	-40,021	-0,069	0,026
-533,364	69,301	0,088	0,067
-532,350	-200,000	0,034	-0,142
-531,335	527,516	-0,021	-0,037
-530,321	246,568	0,054	-0,067
-529,306	229,877	-0,054	0,066
-528,291	423,315	0,017	0,027
-527,277	800,000	0,023	0,055
-526,262	158,444	-0,014	0,015
-525,248	-200,000	0,005	0,112
-524,233	-67,593	0,105	-0,030
-523,218	-200,000	0,019	-0,089
-522,204	-51,293	-0,062	-0,021
-521,189	-69,628	0,112	0,031
-520,175	-75,710	-0,046	-0,012
-519,160	557,341	0,047	0,085
-518,145	-62,779	0,051	-0,015
-517,131	346,340	0,043	-0,062
-516,116	-84,013	0,069	-0,016
-515,102	-200,000	0,010	-0,093
-514,087	770,245	0,021	-0,041
-513,072	340,362	-0,094	-0,135
-512,058	-200,000	-0,003	-0,011
-511,043	-127,729	-0,104	0,011
-510,029	84,542	0,015	-0,012
-509,014	-200,000	0,028	-0,095
-507,999	-200,000	-0,005	0,074
-506,985	-76,168	-0,060	0,015
-505,970	105,679	-0,121	-0,105
-504,956	352,635	-0,037	-0,055
-503,941	-200,000	0,011	-0,148
-502,926	36,871	0,077	0,050
-501,912	-199,927	0,119	0,000
-500,897	-200,000	-0,017	-0,101
-499,883	159,708	0,005	-0,005
-498,868	-200,000	-0,019	0,063
-497,853	233,644	0,017	0,020
-496,839	783,112	-0,029	-0,060
-495,824	-200,000	0,004	-0,023
-494,810	388,826	-0,042	-0,064
-493,795	-9,679	0,018	0,009
-492,781	-200,000	0,001	0,052
-491,766	53,006	0,086	-0,061
-490,751	1,479	-0,125	0,066
-489,737	-102,440	0,040	0,007
-488,722	800,000	-0,019	0,040
-487,708	-83,136	0,137	-0,032
-486,693	-16,511	0,011	0,005
-485,678	631,122	0,036	0,067
-484,664	-145,642	-0,102	-0,007
-483,649	-11,777	-0,058	0,028
-482,635	21,932	0,026	0,016
-481,620	249,096	0,117	0,145
-480,605	-200,000	-0,011	0,126
-479,591	177,472	-0,017	0,018
-478,576	-53,882	-0,080	0,027
-477,562	-107,150	-0,052	0,008
-476,547	-200,000	0,004	-0,175
-475,532	672,780	0,083	0,159
-474,518	709,796	0,012	-0,024
-473,503	203,847	0,026	0,029
-472,489	47,710	0,122	0,083
-471,474	-47,784	-0,125	0,044
-470,459	45,228	0,032	0,021
-469,445	-158,578	-0,044	0,002
-468,430	706,381	0,020	0,039
-467,416	-97,637	0,067	-0,013
-466,401	772,875	0,047	-0,094
-465,386	-70,132	0,106	0,029
-464,372	-38,744	0,043	0,017
-463,357	610,343	-0,003	-0,005
-462,343	800,000	0,039	-0,094
-461,328	281,832	-0,024	0,031
-460,313	31,125	0,084	-0,053
-459,299	40,639	0,104	-0,068
-458,284	109,207	-0,051	0,044
-457,270	102,895	-0,047	-0,040
-456,255	63,097	-0,109	-0,080
-455,241	800,000	0,007	0,022
-454,226	-111,407	-0,148	-0,022
-453,211	800,000	-0,059	0,178
-452,197	469,329	-0,070	0,116
-451,182	95,154	-0,089	0,074
-450,168	-4,006	0,085	-0,043
-449,153	-104,271	-0,046	-0,008
-448,138	145,061	-0,109	-0,107
-447,124	-87,175	-0,148	0,033
-446,109	38,485	-0,075	-0,049
-445,095	83,462	-0,086	-0,068
-444,080	800,000	0,061	0,139
-443,065	800,000	0,069	0,157
-442,051	-38,457	-0,039	0,015
-441,036	173,886	-0,051	-0,054
-440,022	800,000	-0,056	-0,116
-439,007	625,775	0,042	0,077
-437,992	-30,669	0,101	0,042
-436,978	-39,866	-0,089	0,034
-435,963	-180,507	-0,074	-0,001
-434,949	162,123	0,075	-0,077
-433,934	800,000	-0,031	-0,081
-432,919	114,979	-0,182	-0,163
-431,905	-145,104	0,168	0,011
-430,890	-200,000	0,015	0,109
-429,876	800,000	0,059	-0,125
-428,861	-200,000	0,004	-0,065
-427,846	-40,625	0,048	-0,018
-426,832	-75,321	-0,074	0,019
-425,817	92,547	-0,140	-0,116
-424,803	-175,000	-0,071	-0,001
-423,788	11,514	0,066	0,037
-422,773	-200,000	0,011	0,096
-421,759	277,426	-0,058	-0,076
-420,744	-85,880	-0,143	0,032
-419,730	-200,000	0,020	-0,081
-418,715	-115,677	-0,204	-0,028
-417,701	85,833	0,038	0,031
-416,686	686,180	-0,054	0,104
-415,671	246,803	-0,018	0,022
-414,657	90,321	-0,066	0,054
-413,642	-200,000	0,009	0,037
-412,628	76,704	-0,085	-0,066
-411,613	257,274	-0,059	0,075
-410,598	-200,000	-0,005	0,100
-409,584	7,439	0,068	0,037
-408,569	-200,000	-0,009	0,117
-407,555	486,635	0,061	-0,103
-406,540	16,584	0,091	-0,052
-405,525	-200,000	0,027	-0,121
-404,511	-200,000	-0,059	-0,000
-403,496	290,761	-0,074	-0,098
-402,482	155,573	0,100	0,101
-401,467	-89,335	-0,031	-0,007
-400,452	-26,118	0,067	-0,029
-399,438	283,217	-0,044	0,059
-398,423	170,477	0,131	-0,138
-397,409	800,000	0,024	-0,051
-396,394	229,282	-0,100	-0,119
-395,379	800,000	-0,046	0,142
-394,365	58,103	0,103	-0,074
-393,350	-200,000	0,020	0,090
-392,336	132,156	0,101	-0,095
-391,321	247,797	-0,032	0,040
-390,306	-59,439	-0,068	0,021
-389,292	800,000	0,009	-0,026
-388,277	-134,638	0,117	-0,010
-387,263	128,837	0,048	-0,045
-386,248	-200,000	0,018	-0,064
-385,233	-92,870	-0,065	-0,013
-384,219	800,000	0,033	-0,082
-383,204	254,748	-0,071	-0,089
-382,190	-116,344	0,178	-0,024
-381,175	-200,000	-0,023	-0,095
-380,160	-73,337	0,128	-0,034
-379,146	-93,836	0,136	-0,027
-378,131	29,606	-0,054	0,033
-377,117	-107,747	0,085	0,013
-376,102	359,950	0,056	0,082
-375,088	188,126	-0,055	0,060
-374,073	800,000	0,022	0,045
-373,058	69,030	-0,066	0,050
-372,044	-60,748	-0,021	-0,006
-371,029	57,368	-0,024	-0,017
-370,015	-42,399	-0,076	0,028
-369,000	-158,477	-0,039	-0,002
-367,985	-58,801	-0,075	-0,024
-366,971	707,460	0,042	-0,082
-365,956	110,177	0,051	-0,045
-364,942	72,102	0,029	0,022
-363,927	-200,000	-0,015	0,124
-362,912	91,381	0,008	-0,006
-361,898	245,996	0,048	-0,059
-360,883	800,000	-0,005	0,014
-359,869	260,084	-0,031	0,040
-358,854	15,427	0,042	-0,024
-357,839	415,540	0,087	0,136
-356,825	-64,471	0,077	0,023
-355,810	-31,088	-0,016	0,006
-354,796	14,315	0,059	0,033
-353,781	489,408	0,049	-0,081
-352,766	134,808	-0,044	-0,042
-351,752	-200,000	0,026	-0,097
-350,737	193,978	0,043	-0,048
-349,723	27,537	0,099	0,061
-348,708	689,597	-0,054	-0,104
-347,693	-63,101	-0,161	0,048
-346,679	-182,834	-0,128	-0,002
-345,664	-200,000	-0,007	-0,120
-344,650	-42,782	0,129	0,048
-343,635	-93,894	-0,013	-0,002
-342,620	-200,000	0,009	0,081
-341,606	800,000	-0,013	0,034
-340,591	-200,000	0,015	0,074
-339,577	-154,037	-0,058	-0,003
-338,562	-1,739	0,094	-0,048
-337,548	97,771	0,077	0,065
-336,533	-35,074	0,011	-0,004
-335,518	216,678	0,052	-0,061
-334,504	-200,000	0,016	-0,099
-333,489	-200,000	-0,018	0,073
-332,475	800,000	0,034	0,107
-331,460	-200,000	0,003	-0,049
-330,445	-36,137	0,095	0,037
-329,431	800,000	-0,087	0,198
-328,416	-130,271	0,100	0,010
-327,402	-28,707	-0,044	0,018
-326,387	-200,000	-0,013	0,092
-325,372	-1,512	-0,081	-0,041
-324,358	-200,000	-0,006	-0,027
-323,343	273,521	-0,098	0,127
-322,329	-193,006	0,037	-0,000
-321,314	-200,000	-0,004	0,045
-320,299	800,000	-0,031	-0,089
-319,285	800,000	-0,056	0,128
-318,270	97,572	-0,030	0,025
-317,256	-96,100	-0,080	0,015
-316,241	398,416	-0,037	0,056
-315,226	-140,877	-0,013	-0,001
-314,212	-193,150	0,083	0,001
-313,197	48,359	0,035	-0,024
-312,183	116,492	0,070	-0,063
-311,168	800,000	0,004	0,009
-310,153	-200,000	-0,007	-0,033
-309,139	800,000	0,077	-0,157
-308,124	-66,705	0,138	0,040
-307,110	80,113	-0,085	0,067
-306,095	49,931	-0,028	-0,019
-305,080	-33,801	0,090	0,036
-304,066	-39,911	-0,112	-0,042
-303,051	-86,681	0,078	0,017
-302,037	56,513	0,151	-0,107
-301,022	54,357	0,125	-0,088
-300,008	-113,083	0,078	-0,011
-298,993	-110,027	-0,030	-0,005
-297,978	-45,342	-0,100	0,036
-296,964	58,454	0,072	0,051
-295,949	-189,174	-0,062	0,001
-294,935	-200,000	-0,014	0,101
-293,920	-111,424	0,062	-0,009
-292,905	800,000	0,008	0,022
-291,891	36,132	0,104	0,066
-290,876	-15,203	0,004	-0,002
-289,862	-107,015	-0,055	-0,009
-288,847	-200,000	-0,020	-0,158
-287,832	149,731	-0,099	-0,098
-286,818	164,350	0,082	0,084
-285,803	800,000	0,044	-0,109
-284,789	-95,698	-0,086	0,017
-283,774	449,133	-0,017	-0,027
-282,759	-81,740	-0,136	0,032
-281,745	-200,000	-0,024	-0,090
-280,730	-200,000	-0,006	-0,086
-279,716	267,296	0,044	0,056
-278,701	164,421	-0,070	0,072
-277,686	126,118	0,093	0,086
-276,672	63,874	-0,058	0,042
-275,657	369,280	0,080	0,118
-274,643	800,000	0,030	0,088
-273,628	388,102	0,048	0,072
-272,613	-16,136	-0,227	-0,104
-271,599	-200,000	-0,013	0,075
-270,584	12,581	0,161	0,090
-269,570	22,825	0,107	-0,064
-268,555	800,000	-0,040	-0,124
-267,540	-23,453	0,059	0,026
-266,526	-22,927	-0,121	-0,053
-265,511	800,000	-0,018	-0,055
-264,497	89,577	0,031	0,025
-263,482	255,032	0,023	-0,029
-262,467	-91,781	0,081	-0,017
-261,453	19,432	-0,099	0,058
-260,438	-200,000	-0,032	-0,131
-259,424	800,000	0,051	0,152
-258,409	288,106	-0,033	-0,043
-257,395	-200,000	-0,006	0,027
-256,380	-200,000	-0,012	-0,084
-255,365	-64,266	-0,081	-0,024
-254,351	86,123	0,022	-0,018
-253,336	-200,000	0,043	0,222
-252,322	-200,000	-0,001	-0,069
-251,307	-200,000	0,001	-0,132
-250,292	94,190	-0,161	-0,133
-249,278	-200,000	-0,015	0,066
-248,263	405,398	0,021	0,032
-247,249	141,618	0,020	-0,019
-246,234	220,458	-0,109	-0,127
-245,219	311,449	0,113	-0,155
-244,205	-4,677	0,053	-0,027
-243,190	224,386	0,038	-0,045
-242,176	214,164	0,090	0,104
-241,161	422,199	0,077	0,121
-240,146	257,821	-0,042	0,053
-239,132	-39,425	0,152	0,058
-238,117	-0,260	0,025	-0,013
-237,103	19,161	-0,191	0,111
-236,088	349,773	-0,081	0,117
-235,073	45,159	0,132	0,089
-234,059	312,212	0,140	0,192
-233,044	633,789	-0,022	0,041
-232,030	-200,000	-0,002	-0,014
-231,015	223,542	-0,029	-0,034
-230,000	-200,000	0,017	-0,079
-228,986	-200,000	-0,011	0,064
-227,971	800,000	0,047	-0,127
-226,957	-133,557	0,006	0,001
-225,942	-200,000	-0,015	-0,051
-224,927	521,229	-0,025	-0,044
-223,913	-84,966	-0,043	0,010
-222,898	207,223	0,038	-0,043
-221,884	754,268	-0,041	-0,081
-220,869	503,630	-0,052	0,088
-219,855	21,812	0,040	0,024
-218,840	-35,380	0,155	0,061
-217,825	-200,000	0,007	-0,032
-216,811	97,898	0,054	-0,045
-215,796	760,355	-0,051	-0,102
-214,782	398,008	0,042	0,063
-213,767	-61,169	0,150	0,046
-212,752	-200,000	-0,029	0,092
-211,738	-157,240	0,135	0,006
-210,723	27,570	0,046	-0,028
-209,709	800,000	0,022	0,056
-208,694	-145,129	-0,155	-0,010
-207,679	-128,255	-0,075	-0,008
-206,665	648,646	0,038	0,070
-205,650	-144,334	-0,083	0,005
-204,636	-12,493	0,066	-0,031
-203,621	181,424	-0,072	-0,077
-202,606	-15,580	-0,142	-0,065
-201,592	386,114	0,105	0,158
-200,577	154,515	0,051	0,051
-199,563	-200,000	-0,030	-0,122
-198,548	426,176	0,033	0,052
-197,533	609,791	-0,033	0,060
-196,519	301,604	-0,044	-0,059
-195,504	800,000	-0,017	0,038
-194,490	-26,783	0,094	0,040
-193,475	96,904	0,103	-0,086
-192,460	-200,000	0,001	0,063
-191,446	-200,000	0,014	0,132
-190,431	-200,000	0,016	0,102
-189,417	59,405	0,052	-0,037
-188,402	247,990	-0,004	-0,005
-187,387	-79,574	-0,053	-0,013
-186,373	-200,000	-0,003	-0,113
-185,358	20,144	-0,073	0,043
-184,344	215,399	0,049	0,056
-183,329	-200,000	-0,037	0,160
-182,315	-160,155	-0,143	-0,006
-181,300	565,698	-0,140	-0,248
-180,285	-108,223	0,065	0,010
-179,271	-2,710	-0,142	-0,072
-178,256	435,957	0,045	-0,071
-177,242	516,507	-0,011	-0,019
-176,227	-200,000	-0,040	0,212
-175,212	79,236	-0,062	0,048
-174,198	-200,000	-0,005	0,070
-173,183	221,465	0,026	-0,030
-172,169	-36,892	-0,115	-0,044
-171,154	-63,886	-0,165	-0,049
-170,139	252,746	0,045	-0,056
-169,125	800,000	0,047	0,101
-168,110	-200,000	0,032	0,000
-167,096	-131,932	0,068	-0,006
-166,081	-102,627	-0,213	0,036
-165,066	-76,790	0,146	-0,037
-164,052	-180,649	0,009	-0,000
-163,037	88,742	-0,149	0,120
-162,023	179,764	0,085	0,091
-161,008	202,811	-0,054	0,061
-159,993	-154,541	-0,061	0,003
-158,979	-200,000	-0,000	-0,002
-157,964	-91,681	-0,130	-0,027
-156,950	188,575	0,030	-0,033
-155,935	13,840	0,053	-0,030
-154,920	169,455	0,117	0,121
-153,906	94,219	0,066	-0,054
-152,891	-200,000	-0,000	0,003
-151,877	-200,000	-0,018	0,149
-150,862	96,555	-0,101	0,084
-149,847	-200,000	0,018	-0,136
-148,833	-58,464	0,162	-0,051
-147,818	-6,989	-0,055	-0,027
-146,804	-150,071	-0,053	-0,003
-145,789	-165,300	0,086	0,003
-144,775	-200,000	-0,012	0,081
-143,760	532,954	-0,033	0,057
-142,745	-200,000	0,005	-0,174
-141,731	-95,333	0,077	0,015
-140,716	800,000	0,040	-0,088
-139,702	21,908	-0,079	0,047
-138,687	-200,000	0,006	0,169
-137,672	-200,000	-0,040	0,158
-136,658	800,000	-0,039	-0,109
-135,643	-13,794	-0,147	-0,068
-134,629	-0,449	-0,018	-0,009
-133,614	17,887	-0,046	0,026
-132,599	-200,000	0,000	0,175
-131,585	-200,000	-0,008	0,029
-130,570	-17,709	0,072	-0,033
-129,556	-20,156	-0,053	-0,024
-128,541	141,358	0,081	0,078
-127,526	-117,429	0,062	0,008
-126,512	-43,120	0,091	0,033
-125,497	552,400	-0,051	0,089
-124,483	33,126	-0,050	0,032
-123,468	298,413	0,056	-0,074
-122,453	46,911	-0,046	0,031
-121,439	290,055	0,083	-0,110
-120,424	396,380	-0,062	0,094
-119,410	725,420	0,025	0,047
