DTS Sentinel unit serial number:	SN410029Multiplexer serial number:	ORYXHardware model number:	OX2-SRSoftware version number:	ORYX F/W v4,00 Oryx Data Collector v3.7.2.0data status	okinstallation	B6 Nyhavnadifferential loss correction	single-endedforward channel	channel 2reverse channel	N/Adate	2023/12/10time	06:00:08forward acquisition time	300,00reverse acquisition time	0,00gamma	499,1914k internal	0,3124k external	0,3124temperature offset calibration	1,0000default loss term (dB/km)	0,3820temperature slope calibration	1,0000multiplexer offset coefficient	1,0000multiplexer slope coefficient	1,0000fibre end	0,00T internal ref (°C)	22,53T ext. ref 1 (°C)	6,47T ext. ref 2 (°C)	6,44length (m)	temperature (°C)	Stokes	anti-Stokes-744,400	800,000	-0,044	-0,101
-743,385	59,458	-0,240	0,176
-742,371	-200,000	-0,001	0,029
-741,356	-156,179	-0,218	0,010
-740,342	308,916	-0,013	-0,018
-739,327	-119,636	-0,229	0,029
-738,312	626,462	-0,085	-0,160
-737,298	-78,346	-0,201	0,051
-736,283	-38,938	0,122	-0,048
-735,269	-44,096	-0,247	0,092
-734,254	-109,001	0,052	-0,008
-733,239	-22,967	-0,473	-0,212
-732,225	-144,294	0,168	-0,011
-731,210	800,000	0,009	-0,029
-730,196	-143,284	-0,096	0,007
-729,181	-114,366	-0,024	-0,003
-728,167	800,000	0,063	-0,150
-727,152	-58,969	0,067	-0,021
-726,137	-78,140	-0,153	0,039
-725,123	-18,398	-0,111	-0,051
-724,108	8,200	-0,077	-0,043
-723,094	179,214	0,023	0,025
-722,079	-200,000	-0,005	-0,169
-721,064	475,904	0,030	0,050
-720,050	-200,000	-0,029	-0,231
-719,035	55,668	0,063	-0,046
-718,021	24,250	-0,019	-0,012
-717,006	74,263	-0,115	-0,089
-715,991	108,871	0,016	-0,014
-714,977	-48,527	-0,168	0,060
-713,962	347,914	-0,039	-0,057
-712,948	-200,000	0,007	-0,190
-711,933	-22,482	0,015	-0,007
-710,918	-200,000	0,000	-0,110
-709,904	474,752	-0,027	-0,045
-708,889	-45,828	-0,055	-0,020
-707,875	145,683	-0,073	-0,072
-706,860	475,767	-0,025	0,043
-705,845	-70,193	-0,103	0,029
-704,831	-200,000	-0,021	-0,148
-703,816	-200,000	-0,003	0,025
-702,802	58,914	-0,067	-0,049
-701,787	800,000	-0,027	-0,087
-700,772	-156,050	-0,124	0,006
-699,758	-89,079	-0,091	-0,020
-698,743	800,000	0,027	-0,074
-697,729	-74,173	-0,051	-0,014
-696,714	306,143	0,033	-0,046
-695,699	19,828	-0,026	-0,016
-694,685	-200,000	-0,001	0,043
-693,670	200,709	-0,020	-0,023
-692,656	516,320	-0,017	-0,029
-691,641	800,000	0,013	-0,037
-690,627	-64,346	0,075	-0,023
-689,612	-200,000	-0,018	0,063
-688,597	-132,883	-0,053	-0,005
-687,583	-173,335	-0,101	0,002
-686,568	800,000	0,034	-0,102
-685,554	516,057	0,014	0,025
-684,539	-200,000	0,019	0,189
-683,524	116,948	0,040	-0,036
-682,510	-200,000	0,036	-0,133
-681,495	-200,000	-0,002	0,031
-680,481	37,609	0,090	-0,060
-679,466	-89,342	-0,151	-0,033
-678,451	-85,199	-0,073	-0,017
-677,437	538,710	0,047	0,083
-676,422	233,556	0,043	-0,052
-675,408	-7,403	-0,166	-0,083
-674,393	-97,119	-0,085	0,016
-673,378	374,352	-0,082	-0,125
-672,364	-11,556	-0,068	0,033
-671,349	421,532	-0,060	-0,096
-670,335	800,000	0,024	-0,072
-669,320	-39,753	0,088	0,034
-668,305	-200,000	0,020	0,103
-667,291	706,678	-0,091	-0,179
-666,276	-200,000	-0,008	-0,064
-665,262	281,479	0,062	-0,083
-664,247	44,824	0,013	-0,009
-663,232	800,000	0,037	0,086
-662,218	-71,826	0,120	-0,033
-661,203	96,691	0,133	0,113
-660,189	433,451	0,026	0,042
-659,174	-31,223	0,010	-0,004
-658,159	608,516	-0,102	-0,189
-657,145	116,180	-0,048	-0,044
-656,130	58,818	0,049	0,035
-655,116	-200,000	0,013	-0,069
-654,101	-200,000	-0,019	-0,116
-653,086	-200,000	-0,014	-0,088
-652,072	210,560	-0,054	-0,063
-651,057	-59,025	-0,024	-0,008
-650,043	-20,243	0,109	-0,050
-649,028	-119,584	-0,083	-0,011
-648,014	-65,306	0,046	-0,014
-646,999	202,983	-0,033	-0,038
-645,984	209,084	-0,068	0,080
-644,970	170,534	-0,097	-0,103
-643,955	-103,467	-0,050	-0,009
-642,941	-148,334	0,071	0,004
-641,926	-161,310	-0,045	-0,002
-640,911	456,005	0,060	0,100
-639,897	-18,673	-0,069	0,032
-638,882	-200,000	-0,013	-0,085
-637,868	-32,390	-0,090	0,037
-636,853	254,075	0,065	0,083
-635,838	-200,000	0,029	-0,113
-634,824	-22,398	0,082	0,037
-633,809	-183,154	0,102	0,001
-632,795	800,000	-0,036	0,101
-631,780	410,493	-0,036	-0,057
-630,765	75,027	-0,120	0,094
-629,751	-200,000	0,030	-0,116
-628,736	-200,000	-0,056	-0,191
-627,722	-200,000	-0,002	-0,049
-626,707	-185,155	0,118	-0,001
-625,692	-42,362	0,055	0,021
-624,678	26,606	0,019	0,012
-623,663	-200,000	0,016	-0,083
-622,649	116,862	-0,129	-0,117
-621,634	-192,232	-0,156	-0,001
-620,619	-200,000	-0,034	-0,119
-619,605	-200,000	0,031	-0,117
-618,590	198,936	0,104	-0,118
-617,576	278,328	-0,119	0,158
-616,561	-145,043	0,019	0,001
-615,546	-56,798	-0,085	0,028
-614,532	-23,402	-0,187	-0,083
-613,517	-200,000	-0,015	-0,088
-612,503	-200,000	-0,011	-0,088
-611,488	-200,000	-0,019	0,113
-610,474	82,741	-0,112	-0,090
-609,459	800,000	0,048	-0,127
-608,444	480,711	-0,051	-0,085
-607,430	22,911	0,103	-0,063
-606,415	-138,946	0,089	0,007
-605,401	-200,000	0,020	0,111
-604,386	-200,000	0,021	-0,093
-603,371	89,654	0,078	0,064
-602,357	286,522	-0,090	-0,121
-601,342	800,000	-0,006	-0,015
-600,328	135,650	-0,083	0,080
-599,313	-200,000	-0,011	-0,119
-598,298	-89,421	0,062	0,013
-597,284	-200,000	-0,010	0,184
-596,269	102,131	0,093	-0,080
-595,255	800,000	-0,032	-0,067
-594,240	-200,000	-0,001	-0,189
-593,225	153,548	-0,064	0,065
-592,211	-139,500	-0,042	-0,003
-591,196	-200,000	-0,017	0,074
-590,182	-200,000	0,018	0,060
-589,167	-200,000	-0,009	-0,078
-588,152	632,525	0,030	-0,057
-587,138	-68,675	-0,085	-0,024
-586,123	-57,959	0,092	-0,030
-585,109	387,406	-0,085	-0,131
-584,094	200,570	0,029	-0,033
-583,079	-133,670	0,052	-0,005
-582,065	800,000	-0,005	-0,010
-581,050	-200,000	0,009	0,135
-580,036	-200,000	0,007	-0,068
-579,021	40,005	-0,058	-0,038
-578,006	-200,000	0,011	-0,066
-576,992	-84,581	0,123	-0,028
-575,977	-141,269	0,076	-0,006
-574,963	-84,251	0,018	0,004
-573,948	444,957	-0,017	-0,028
-572,934	362,747	-0,075	0,112
-571,919	-122,686	-0,198	0,023
-570,904	800,000	-0,017	-0,054
-569,890	17,009	-0,039	-0,023
-568,875	-16,153	-0,023	-0,011
-567,861	35,953	-0,011	0,007
-566,846	228,987	-0,065	0,078
-565,831	-200,000	-0,006	0,027
-564,817	732,903	0,021	0,041
-563,802	-200,000	-0,010	-0,086
-562,788	119,348	-0,064	0,059
-561,773	164,147	0,043	0,045
-560,758	-162,349	0,021	-0,001
-559,744	-200,000	0,017	0,114
-558,729	214,507	0,061	-0,071
-557,715	-200,000	-0,018	-0,103
-556,700	-200,000	-0,003	-0,048
-555,685	420,130	0,025	0,040
-554,671	61,650	0,048	0,035
-553,656	-107,302	0,136	-0,022
-552,642	800,000	0,030	0,095
-551,627	-200,000	-0,013	0,086
-550,612	-81,834	-0,074	-0,018
-549,598	547,781	-0,090	-0,160
-548,583	-42,812	-0,082	-0,031
-547,569	124,269	-0,065	-0,061
-546,554	356,031	0,059	-0,088
-545,539	6,901	-0,079	0,043
-544,525	-200,000	-0,015	0,092
-543,510	-110,935	-0,005	-0,001
-542,496	800,000	0,015	-0,048
-541,481	25,987	-0,079	0,049
-540,466	256,277	-0,029	-0,036
-539,452	-200,000	-0,012	-0,091
-538,437	-66,268	0,128	-0,038
-537,423	-159,001	0,051	-0,002
-536,408	156,657	0,024	-0,024
-535,393	-136,974	-0,031	-0,003
-534,379	-200,000	0,001	-0,055
-533,364	188,207	-0,043	0,047
-532,350	-200,000	0,007	0,148
-531,335	203,630	-0,055	-0,063
-530,321	-117,991	0,007	-0,001
-529,306	-78,782	0,122	-0,031
-528,291	-200,000	0,007	-0,048
-527,277	627,304	-0,034	-0,063
-526,262	236,097	-0,016	-0,019
-525,248	-13,339	0,118	0,056
-524,233	800,000	-0,041	0,130
-523,218	-121,593	0,100	-0,012
-522,204	-200,000	-0,003	-0,028
-521,189	-73,070	-0,134	0,036
-520,175	-129,821	-0,157	0,016
-519,160	63,092	0,128	-0,095
-518,145	92,821	0,114	-0,095
-517,131	282,266	0,060	-0,079
-516,116	-15,989	-0,135	0,063
-515,102	-200,000	-0,017	0,055
-514,087	-127,788	0,004	-0,000
-513,072	-200,000	0,013	-0,100
-512,058	-103,959	-0,098	-0,017
-511,043	92,745	-0,050	-0,042
-510,029	-89,745	0,074	0,016
-509,014	677,256	0,059	0,113
-507,999	-20,680	0,104	0,047
-506,985	23,773	-0,051	0,031
-505,970	294,772	0,017	-0,023
-504,956	244,529	0,043	-0,054
-503,941	89,969	0,103	-0,085
-502,926	-200,000	-0,002	0,016
-501,912	-200,000	0,016	0,084
-500,897	56,134	-0,086	-0,062
-499,883	-92,850	-0,089	-0,018
-498,868	-129,309	-0,126	-0,013
-497,853	-49,392	-0,061	0,021
-496,839	138,681	0,034	0,033
-495,824	800,000	0,038	0,083
-494,810	800,000	-0,025	0,081
-493,795	360,730	0,068	0,101
-492,781	-200,000	-0,007	0,056
-491,766	-200,000	-0,008	0,082
-490,751	800,000	0,068	-0,164
-489,737	425,643	0,072	0,114
-488,722	237,440	-0,041	0,050
-487,708	427,154	0,015	-0,024
-486,693	-11,535	0,106	-0,051
-485,678	164,302	0,032	0,033
-484,664	37,967	-0,073	0,048
-483,649	213,169	-0,039	-0,045
-482,635	113,119	-0,044	0,039
-481,620	82,935	0,131	-0,105
-480,605	617,276	-0,004	-0,007
-479,591	217,551	-0,059	-0,069
-478,576	160,641	-0,089	0,091
-477,562	-200,000	0,007	-0,080
-476,547	128,494	-0,039	0,037
-475,532	342,057	-0,032	0,046
-474,518	-166,733	-0,052	-0,002
-473,503	724,807	-0,025	-0,050
-472,489	-121,586	0,121	-0,015
-471,474	-92,872	-0,121	0,025
-470,459	-7,189	-0,102	-0,051
-469,445	24,142	0,084	-0,051
-468,430	-181,196	0,123	-0,002
-467,416	497,891	-0,065	-0,111
-466,401	36,241	0,117	0,076
-465,386	800,000	0,026	0,073
-464,372	445,147	0,051	0,084
-463,357	413,309	-0,034	0,054
-462,343	45,469	-0,015	-0,010
-461,328	7,752	0,104	0,057
-460,313	338,361	-0,029	-0,041
-459,299	-200,000	-0,035	0,121
-458,284	-162,697	0,148	0,005
-457,270	-200,000	0,018	-0,081
-456,255	-14,605	0,029	0,013
-455,241	-22,018	-0,048	-0,021
-454,226	-30,018	-0,042	0,018
-453,211	332,316	0,079	-0,113
-452,197	-53,474	0,034	0,012
-451,182	528,366	0,061	0,107
-450,168	-200,000	-0,004	0,188
-449,153	-13,186	-0,054	-0,026
-448,138	-200,000	0,002	-0,059
-447,124	-200,000	-0,010	-0,039
-446,109	270,985	-0,086	0,112
-445,095	565,220	0,003	-0,006
-444,080	28,999	-0,050	-0,031
-443,065	143,328	-0,016	0,016
-442,051	-172,647	-0,061	0,001
-441,036	800,000	0,029	-0,067
-440,022	-200,000	-0,013	-0,046
-439,007	800,000	-0,029	0,085
-437,992	750,260	0,008	-0,017
-436,978	800,000	-0,039	0,093
-435,963	800,000	-0,047	0,122
-434,949	-124,799	-0,047	0,005
-433,934	361,364	0,050	-0,074
-432,919	-200,000	0,016	0,116
-431,905	-200,000	0,006	0,019
-430,890	311,795	0,039	0,054
-429,876	154,984	0,121	0,122
-428,861	18,019	0,073	0,043
-427,846	186,419	-0,017	0,018
-426,832	7,094	0,043	-0,024
-425,817	-200,000	-0,033	-0,124
-424,803	710,991	0,083	0,162
-423,788	24,011	0,093	0,056
-422,773	-200,000	0,004	0,053
-421,759	108,686	-0,058	0,051
-420,744	122,538	0,071	-0,065
-419,730	-30,077	-0,101	0,042
-418,715	126,831	0,028	-0,026
-417,701	800,000	-0,027	0,072
-416,686	-73,328	0,061	-0,016
-415,671	-137,675	0,101	-0,008
-414,657	48,419	0,013	-0,009
-413,642	-54,566	0,007	-0,002
-412,628	151,814	0,094	0,094
-411,613	-48,949	-0,114	0,040
-410,598	-200,000	0,008	0,115
-409,584	109,376	0,100	0,088
-408,569	800,000	-0,015	0,038
-407,555	90,259	0,056	-0,046
-406,540	800,000	0,035	-0,081
-405,525	611,801	-0,055	-0,101
-404,511	-119,761	-0,109	0,014
-403,496	-61,253	0,055	0,017
-402,482	55,396	-0,060	-0,043
-401,467	-200,000	-0,003	0,051
-400,452	-200,000	-0,022	0,074
-399,438	-151,965	0,076	-0,004
-398,423	192,366	-0,036	-0,040
-397,409	-108,628	-0,095	0,015
-396,394	800,000	-0,024	-0,077
-395,379	-200,000	-0,003	0,079
-394,365	800,000	-0,044	0,124
-393,350	-200,000	-0,005	0,102
-392,336	592,708	0,121	0,220
-391,321	-200,000	-0,006	-0,019
-390,306	-111,432	0,021	-0,003
-389,292	-200,000	0,015	-0,060
-388,277	77,928	0,140	0,110
-387,263	-200,000	0,012	0,094
-386,248	-66,286	0,123	0,036
-385,233	-200,000	-0,011	0,106
-384,219	37,847	-0,098	0,064
-383,204	400,017	-0,033	0,052
-382,190	-200,000	0,003	-0,037
-381,175	-178,195	0,107	0,002
-380,160	87,068	0,061	-0,049
-379,146	-72,435	0,046	0,012
-378,131	-200,000	-0,017	0,142
-377,117	583,219	-0,097	0,176
-376,102	800,000	0,036	-0,099
-375,088	-200,000	-0,003	-0,038
-374,073	-120,030	0,050	-0,006
-373,058	-160,878	0,099	0,004
-372,044	-26,864	0,077	0,033
-371,029	20,812	-0,066	-0,039
-370,015	-200,000	-0,019	-0,139
-369,000	757,028	-0,050	-0,099
-367,985	-200,000	0,010	-0,088
-366,971	-89,143	-0,071	-0,015
-365,956	686,628	-0,042	-0,080
-364,942	-70,907	0,079	0,022
-363,927	265,017	0,094	0,121
-362,912	75,020	0,095	0,074
-361,898	-44,968	-0,121	0,044
-360,883	168,399	-0,089	-0,093
-359,869	-200,000	0,012	-0,043
-358,854	653,748	-0,039	-0,074
-357,839	-33,763	0,041	-0,017
-356,825	800,000	0,032	0,103
-355,810	-200,000	0,007	0,056
-354,796	800,000	-0,043	0,101
-353,781	-69,453	-0,201	0,056
-352,766	-153,033	-0,142	0,007
-351,752	-79,101	-0,047	0,012
-350,737	-161,954	0,103	0,004
-349,723	-1,009	0,105	0,054
-348,708	220,079	0,037	-0,044
-347,693	-200,000	-0,004	-0,062
-346,679	-99,728	-0,015	0,003
-345,664	37,796	-0,089	0,058
-344,650	339,299	-0,095	0,136
-343,635	131,629	0,061	0,058
-342,620	-3,893	0,060	0,030
-341,606	3,693	0,099	0,053
-340,591	93,529	-0,025	0,021
-339,577	-65,792	0,055	-0,016
-338,562	-200,000	0,012	-0,044
-337,548	262,630	-0,023	0,029
-336,533	165,303	-0,059	-0,062
-335,518	156,880	0,128	0,130
-334,504	-200,000	-0,039	0,209
-333,489	18,489	-0,073	-0,042
-332,475	-12,385	-0,163	-0,078
-331,460	-200,000	-0,008	-0,074
-330,445	-200,000	0,017	-0,134
-329,431	762,911	0,010	0,019
-328,416	-200,000	-0,007	0,230
-327,402	514,720	-0,086	0,149
-326,387	-200,000	-0,023	0,138
-325,372	111,608	0,059	-0,052
-324,358	-200,000	0,020	-0,068
-323,343	141,816	-0,073	0,071
-322,329	353,200	0,045	-0,066
-321,314	255,344	-0,056	-0,070
-320,299	-200,000	0,002	0,064
-319,285	800,000	-0,011	0,032
-318,270	340,000	-0,082	-0,118
-317,256	-99,587	0,121	-0,022
-316,241	800,000	0,030	-0,074
-315,226	544,658	0,032	0,056
-314,212	19,166	-0,035	0,020
-313,197	-200,000	0,032	-0,116
-312,183	482,316	0,048	0,079
-311,168	-116,099	-0,049	-0,007
-310,153	-113,989	0,076	-0,011
-309,139	9,768	0,037	0,021
-308,124	-200,000	0,003	0,013
-307,110	-84,858	0,087	0,020
-306,095	474,352	0,066	0,110
-305,080	800,000	-0,074	0,163
-304,066	366,961	-0,034	-0,050
-303,051	-200,000	0,002	-0,156
-302,037	800,000	-0,022	-0,050
-301,022	-200,000	-0,020	0,071
-300,008	-140,824	0,080	-0,006
-298,993	84,490	-0,121	0,097
-297,978	-119,703	0,081	-0,010
-296,964	388,047	-0,016	-0,025
-295,949	58,928	-0,058	-0,042
-294,935	-88,291	0,072	-0,016
-293,920	800,000	0,061	0,133
-292,905	-16,494	0,064	0,030
-291,891	500,161	0,003	0,006
-290,876	-122,058	0,063	-0,007
-289,862	-172,726	0,049	-0,001
-288,847	-127,595	-0,107	-0,011
-287,832	145,390	-0,081	-0,079
-286,818	-200,000	-0,009	-0,105
-285,803	733,995	-0,044	0,087
-284,789	154,959	0,043	-0,043
-283,774	50,634	0,091	-0,063
-282,759	-91,254	-0,163	0,034
-281,745	800,000	-0,033	-0,088
-280,730	800,000	-0,019	-0,053
-279,716	172,927	0,069	0,073
-278,701	-200,000	0,000	0,013
-277,686	435,658	0,006	0,009
-276,672	12,625	0,025	-0,014
-275,657	-200,000	0,025	-0,134
-274,643	161,016	-0,024	0,025
-273,628	20,082	-0,101	0,060
-272,613	800,000	-0,033	-0,086
-271,599	143,506	-0,064	0,063
-270,584	800,000	-0,009	0,020
-269,570	-200,000	-0,002	0,013
-268,555	240,849	-0,101	-0,124
-267,540	46,750	-0,050	-0,034
-266,526	-13,909	0,159	0,075
-265,511	295,740	0,014	-0,019
-264,497	23,527	-0,043	0,026
-263,482	23,896	0,079	0,048
-262,467	-200,000	0,019	0,095
-261,453	243,229	0,070	-0,085
-260,438	800,000	-0,032	-0,098
-259,424	-91,734	0,058	0,012
-258,409	101,945	-0,057	-0,048
-257,395	-200,000	0,032	-0,129
-256,380	-1,718	0,041	0,021
-255,365	356,804	0,078	0,114
-254,351	-43,750	0,043	0,016
-253,336	-140,140	-0,164	0,012
-252,322	74,597	-0,075	-0,058
-251,307	384,679	-0,058	0,088
-250,292	42,075	-0,061	-0,041
-249,278	-200,000	-0,003	-0,076
-248,263	79,435	-0,073	-0,057
-247,249	185,503	-0,033	-0,036
-246,234	-200,000	-0,009	0,114
-245,219	36,520	-0,087	-0,056
-244,205	-200,000	-0,008	-0,148
-243,190	-91,978	-0,049	-0,010
-242,176	45,347	0,054	-0,036
-241,161	373,978	0,096	0,143
-240,146	-23,329	0,098	0,043
-239,132	294,994	-0,042	-0,057
-238,117	69,777	0,046	0,034
-237,103	-91,948	-0,090	0,019
-236,088	218,192	0,017	0,020
-235,073	-79,820	0,148	-0,036
-234,059	7,244	0,098	-0,053
-233,044	-200,000	0,031	0,213
-232,030	42,909	-0,124	0,082
-231,015	-116,779	-0,078	-0,010
-230,000	173,741	-0,105	-0,111
-228,986	800,000	-0,031	-0,095
-227,971	-200,000	0,001	0,057
-226,957	61,351	0,032	-0,023
-225,942	-134,440	0,113	0,010
-224,927	515,259	0,042	-0,073
-223,913	-200,000	-0,026	-0,106
-222,898	-56,902	0,076	0,024
-221,884	800,000	0,031	0,072
-220,869	42,259	0,031	-0,020
-219,855	-200,000	-0,009	-0,104
-218,840	-200,000	0,009	0,063
-217,825	-113,126	-0,023	-0,003
-216,811	-200,000	0,015	-0,118
-215,796	-200,000	-0,036	-0,143
-214,782	20,215	-0,105	-0,062
-213,767	800,000	0,060	0,125
-212,752	-200,000	-0,009	0,030
-211,738	-42,212	-0,054	-0,020
-210,723	176,636	0,063	0,067
-209,709	-61,358	-0,032	0,010
-208,694	-177,392	-0,057	-0,001
-207,679	173,292	-0,081	-0,085
-206,665	-69,653	0,259	0,072
-205,650	11,488	0,153	-0,085
-204,636	-86,746	-0,013	0,003
-203,621	-62,335	0,094	-0,028
-202,606	8,225	0,131	0,072
-201,592	-200,000	0,032	-0,110
-200,577	800,000	0,038	-0,107
-199,563	-58,958	0,003	0,001
-198,548	-112,573	0,121	0,017
-197,533	103,642	0,057	-0,049
-196,519	800,000	0,050	0,140
-195,504	241,249	-0,036	-0,044
-194,490	-81,787	-0,071	-0,017
-193,475	-200,000	0,036	-0,174
-192,460	101,388	-0,106	-0,090
-191,446	-150,699	0,079	0,004
-190,431	-200,000	-0,011	0,048
-189,417	-97,809	-0,055	-0,010
-188,402	-200,000	-0,013	0,138
-187,387	680,342	-0,049	-0,093
-186,373	-110,944	-0,074	-0,011
-185,358	-200,000	0,013	-0,092
-184,344	-93,478	0,116	0,023
-183,329	351,010	0,085	0,123
-182,315	-200,000	-0,001	-0,019
-181,300	33,403	-0,105	0,066
-180,285	-70,036	0,091	0,025
-179,271	182,081	0,047	-0,051
-178,256	716,349	-0,046	-0,090
-177,242	-200,000	-0,011	-0,046
-176,227	83,360	0,036	-0,028
-175,212	-108,028	-0,054	-0,009
-174,198	-144,416	-0,073	-0,005
-173,183	63,659	-0,061	-0,045
-172,169	-200,000	0,010	-0,036
-171,154	800,000	-0,033	0,093
-170,139	-162,477	0,062	-0,002
-169,125	150,852	-0,010	0,010
-168,110	-4,608	-0,142	0,071
-167,096	-200,000	0,037	-0,167
-166,081	-102,223	0,094	-0,016
-165,066	177,744	-0,073	-0,078
-164,052	-92,863	-0,070	0,014
-163,037	-200,000	-0,013	-0,093
-162,023	307,659	-0,111	0,152
-161,008	-115,011	0,023	-0,003
-159,993	800,000	0,030	-0,083
-158,979	-134,607	-0,042	-0,004
-157,964	800,000	-0,030	-0,061
-156,950	727,782	0,041	0,081
-155,935	-66,027	0,192	0,056
-154,920	-200,000	0,011	0,085
-153,906	336,511	-0,028	-0,040
-152,891	58,413	-0,086	-0,061
-151,877	-23,375	-0,034	-0,015
-150,862	-200,000	0,055	-0,181
-149,847	-200,000	0,028	-0,138
-148,833	77,157	0,022	0,017
-147,818	-14,406	0,070	0,033
-146,804	800,000	-0,042	-0,094
-145,789	384,005	0,036	0,054
-144,775	-200,000	0,018	0,112
-143,760	-144,431	0,063	0,004
-142,745	-27,935	-0,110	0,046
-141,731	-61,526	0,075	0,023
-140,716	105,344	0,084	-0,072
-139,702	-200,000	-0,002	0,029
-138,687	205,108	-0,087	-0,098
-137,672	800,000	-0,052	-0,112
-136,658	-150,894	-0,052	0,003
-135,643	-11,739	-0,032	0,015
-134,629	-9,503	-0,084	-0,040
-133,614	-52,001	0,049	0,016
-132,599	800,000	0,059	0,129
-131,585	800,000	0,044	0,111
-130,570	-23,814	-0,056	-0,024
-129,556	156,625	0,086	0,087
-128,541	-12,606	-0,109	0,052
-127,526	-0,716	-0,053	-0,027
-126,512	-200,000	-0,020	-0,108
-125,497	-39,126	0,042	-0,016
-124,483	-63,356	0,228	-0,068
-123,468	-200,000	-0,016	-0,260
-122,453	800,000	-0,034	-0,088
-121,439	-200,000	0,006	-0,066
