DTS Sentinel unit serial number:	SN410029Multiplexer serial number:	ORYXHardware model number:	OX2-SRSoftware version number:	ORYX F/W v4,00 Oryx Data Collector v3.7.2.0data status	okinstallation	B6 Nyhavnadifferential loss correction	single-endedforward channel	channel 2reverse channel	N/Adate	2023/12/10time	07:15:08forward acquisition time	300,00reverse acquisition time	0,00gamma	499,1914k internal	0,3123k external	0,3123temperature offset calibration	1,0000default loss term (dB/km)	0,3820temperature slope calibration	1,0000multiplexer offset coefficient	1,0000multiplexer slope coefficient	1,0000fibre end	0,00T internal ref (°C)	22,62T ext. ref 1 (°C)	6,32T ext. ref 2 (°C)	6,31length (m)	temperature (°C)	Stokes	anti-Stokes-744,400	-176,314	-0,059	-0,001
-743,385	445,648	-0,119	0,196
-742,371	-66,633	0,114	0,033
-741,356	68,884	-0,222	0,170
-740,342	-35,148	0,094	-0,038
-739,327	-108,848	-0,307	0,048
-738,312	87,513	0,235	-0,193
-737,298	-92,658	-0,196	0,041
-736,283	472,577	0,031	-0,053
-735,269	417,745	-0,150	0,240
-734,254	294,585	0,090	-0,122
-733,239	-73,048	-0,325	-0,088
-732,225	-49,877	0,149	0,053
-731,210	-85,784	-0,030	-0,007
-730,196	-2,427	-0,086	-0,045
-729,181	-200,000	0,006	-0,025
-728,167	77,508	-0,114	-0,091
-727,152	-15,225	-0,050	-0,024
-726,137	800,000	-0,054	0,171
-725,123	800,000	-0,025	-0,083
-724,108	-77,931	-0,202	-0,052
-723,094	800,000	-0,023	0,073
-722,079	107,265	-0,056	0,050
-721,064	800,000	0,024	0,053
-720,050	83,349	-0,065	0,053
-719,035	656,988	-0,044	-0,084
-718,021	578,829	0,034	-0,062
-717,006	-200,000	-0,021	-0,074
-715,991	-88,324	-0,057	0,013
-714,977	98,478	-0,020	-0,017
-713,962	74,867	-0,075	-0,059
-712,948	-57,056	0,141	0,046
-711,933	-49,293	-0,033	0,012
-710,918	191,473	0,057	0,064
-709,904	118,204	-0,115	0,106
-708,889	-200,000	-0,003	-0,164
-707,875	302,407	-0,127	-0,176
-706,860	469,624	0,072	-0,121
-705,845	267,278	0,019	0,024
-704,831	188,635	0,094	0,105
-703,816	380,464	0,063	0,096
-702,802	-9,662	-0,069	-0,034
-701,787	-71,686	-0,155	0,043
-700,772	522,571	-0,009	-0,017
-699,758	-97,083	-0,156	-0,030
-698,743	-97,850	0,055	0,010
-697,729	152,332	0,105	0,107
-696,714	-200,000	0,006	-0,070
-695,699	-65,655	0,079	-0,023
-694,685	-104,258	-0,090	-0,015
-693,670	-67,311	-0,244	-0,071
-692,656	54,536	-0,075	0,054
-691,641	222,608	0,070	-0,083
-690,627	-1,868	0,074	0,039
-689,612	270,998	-0,040	0,052
-688,597	-200,000	-0,022	-0,096
-687,583	-58,335	-0,107	-0,034
-686,568	800,000	-0,057	-0,154
-685,554	-200,000	-0,004	-0,026
-684,539	-200,000	0,007	0,141
-683,524	593,123	-0,059	0,109
-682,510	800,000	0,031	-0,096
-681,495	173,700	-0,115	-0,123
-680,481	486,036	-0,064	-0,109
-679,466	280,585	-0,007	-0,010
-678,451	364,803	0,114	0,170
-677,437	-200,000	-0,001	-0,036
-676,422	127,567	0,021	-0,020
-675,408	19,076	0,099	-0,059
-674,393	111,164	-0,045	-0,040
-673,378	308,622	-0,088	-0,122
-672,364	69,500	-0,104	-0,079
-671,349	-77,002	-0,165	-0,043
-670,335	-49,684	0,157	0,055
-669,320	-47,275	-0,207	0,075
-668,305	270,383	0,032	-0,042
-667,291	354,357	-0,012	-0,018
-666,276	800,000	0,052	-0,140
-665,262	800,000	0,072	-0,159
-664,247	-200,000	-0,010	0,047
-663,232	-200,000	-0,039	0,149
-662,218	-24,397	0,040	-0,018
-661,203	-157,943	-0,079	0,003
-660,189	-17,886	-0,124	-0,058
-659,174	800,000	-0,041	-0,132
-658,159	-200,000	-0,008	-0,030
-657,145	-200,000	0,030	-0,145
-656,130	21,159	-0,107	-0,064
-655,116	-155,434	0,072	0,003
-654,101	-118,921	0,084	0,011
-653,086	-20,769	-0,105	0,048
-652,072	-200,000	-0,008	0,098
-651,057	-200,000	-0,004	-0,033
-650,043	7,914	-0,070	0,039
-649,028	-200,000	0,028	-0,098
-648,014	221,510	-0,047	0,056
-646,999	-200,000	0,013	-0,156
-645,984	617,382	-0,056	-0,105
-644,970	-200,000	-0,023	-0,113
-643,955	285,588	-0,126	-0,169
-642,941	-62,935	-0,156	0,047
-641,926	800,000	0,038	-0,079
-640,911	-199,064	0,073	0,000
-639,897	-115,512	0,136	0,019
-638,882	-200,000	0,020	0,165
-637,868	-200,000	-0,008	0,053
-636,853	-97,964	-0,137	-0,026
-635,838	13,786	0,043	-0,025
-634,824	800,000	-0,017	-0,049
-633,809	197,378	0,033	-0,037
-632,795	800,000	-0,005	0,011
-631,780	800,000	0,061	0,147
-630,765	-26,518	-0,091	-0,040
-629,751	-160,568	0,063	0,002
-628,736	-1,168	-0,176	0,092
-627,722	800,000	-0,056	-0,139
-626,707	-200,000	0,013	-0,054
-625,692	800,000	0,017	0,049
-624,678	-18,369	-0,048	0,022
-623,663	118,597	-0,057	-0,053
-622,649	112,409	0,048	-0,043
-621,634	207,273	-0,085	-0,098
-620,619	34,047	0,105	0,068
-619,605	-200,000	-0,039	0,134
-618,590	232,735	0,090	-0,110
-617,576	-118,940	0,105	0,013
-616,561	510,743	-0,065	-0,113
-615,546	778,607	0,044	-0,089
-614,532	800,000	-0,030	-0,065
-613,517	41,789	0,102	-0,068
-612,503	-89,213	-0,024	-0,005
-611,488	126,164	-0,031	-0,029
-610,474	-3,220	0,047	-0,024
-609,459	186,617	0,030	-0,033
-608,444	557,668	0,077	-0,138
-607,430	-158,732	-0,120	-0,005
-606,415	-200,000	-0,014	-0,063
-605,401	-17,658	0,100	0,046
-604,386	768,224	0,021	0,043
-603,371	157,582	0,070	0,072
-602,357	800,000	0,035	0,072
-601,342	37,700	-0,074	-0,049
-600,328	800,000	-0,070	-0,225
-599,313	-200,000	-0,009	-0,076
-598,298	800,000	0,062	-0,136
-597,284	116,657	0,015	-0,014
-596,269	800,000	0,013	-0,030
-595,255	800,000	-0,052	0,150
-594,240	-200,000	-0,019	0,128
-593,225	39,768	-0,002	-0,001
-592,211	-144,753	-0,125	-0,008
-591,196	410,171	0,059	0,092
-590,182	36,006	0,099	0,064
-589,167	-200,000	0,014	0,122
-588,152	-200,000	-0,001	0,143
-587,138	-83,100	-0,020	-0,005
-586,123	348,076	0,008	-0,012
-585,109	328,958	0,097	0,138
-584,094	-70,195	0,140	0,039
-583,079	-200,000	-0,012	-0,048
-582,065	-113,675	0,126	0,018
-581,050	-200,000	0,005	-0,087
-580,036	38,148	-0,089	0,058
-579,021	251,106	-0,028	-0,036
-578,006	-79,046	-0,119	0,030
-576,992	800,000	0,011	-0,026
-575,977	258,686	-0,051	0,066
-574,963	294,139	-0,071	0,096
-573,948	-200,000	0,003	-0,034
-572,934	-104,505	-0,114	-0,019
-571,919	-137,862	-0,020	-0,002
-570,904	513,151	-0,038	-0,065
-569,890	-52,645	0,019	-0,007
-568,875	-200,000	0,014	0,090
-567,861	-102,507	0,064	0,011
-566,846	800,000	-0,033	-0,095
-565,831	-37,849	0,064	-0,025
-564,817	666,126	-0,004	0,008
-563,802	342,180	-0,072	-0,105
-562,788	116,866	-0,082	-0,075
-561,773	298,631	-0,075	-0,103
-560,758	-54,034	-0,035	0,012
-559,744	-70,961	0,126	0,035
-558,729	-200,000	-0,023	0,148
-557,715	174,240	-0,064	-0,069
-556,700	-82,073	0,060	0,014
-555,685	539,507	-0,076	-0,134
-554,671	800,000	-0,022	-0,070
-553,656	-200,000	0,004	-0,074
-552,642	-100,170	0,131	0,024
-551,627	65,375	-0,072	0,054
-550,612	18,668	-0,028	-0,017
-549,598	-200,000	-0,011	0,084
-548,583	-13,290	-0,108	-0,052
-547,569	88,459	0,050	0,041
-546,554	-7,673	0,078	-0,039
-545,539	-200,000	-0,016	-0,139
-544,525	-101,237	0,136	-0,024
-543,510	-146,783	-0,109	-0,007
-542,496	58,988	0,025	0,018
-541,481	1,129	-0,020	0,011
-540,466	-99,812	-0,136	-0,025
-539,452	800,000	0,055	-0,129
-538,437	69,192	-0,102	-0,077
-537,423	-14,522	-0,058	0,027
-536,408	-10,344	-0,129	0,063
-535,393	493,838	-0,022	-0,037
-534,379	-200,000	-0,000	-0,060
-533,364	223,059	-0,118	-0,141
-532,350	760,313	-0,043	-0,087
-531,335	-27,374	0,028	0,012
-530,321	-122,225	-0,118	-0,014
-529,306	82,122	-0,050	-0,040
-528,291	-200,000	-0,006	-0,101
-527,277	3,302	-0,041	-0,022
-526,262	-200,000	0,025	-0,107
-525,248	156,853	0,039	0,040
-524,233	-74,412	0,053	0,014
-523,218	-150,248	0,043	0,002
-522,204	170,266	0,070	0,074
-521,189	-61,905	0,054	-0,017
-520,175	305,202	-0,082	0,113
-519,160	23,744	-0,024	-0,015
-518,145	-38,057	-0,040	0,015
-517,131	196,547	0,066	0,075
-516,116	-12,369	0,058	0,028
-515,102	390,842	-0,090	0,138
-514,087	-63,476	-0,028	0,008
-513,072	800,000	0,030	-0,080
-512,058	-200,000	-0,004	0,026
-511,043	96,736	-0,032	0,027
-510,029	714,923	0,060	-0,118
-509,014	-47,530	0,115	0,041
-507,999	-112,888	0,061	-0,009
-506,985	755,818	-0,015	0,029
-505,970	92,376	-0,048	-0,040
-504,956	201,208	-0,057	-0,065
-503,941	-176,766	-0,069	0,001
-502,926	389,655	0,022	0,033
-501,912	-27,492	0,118	0,050
-500,897	95,377	0,122	-0,103
-499,883	-200,000	-0,003	0,105
-498,868	-31,684	-0,098	-0,040
-497,853	-200,000	0,006	-0,046
-496,839	-200,000	0,012	0,149
-495,824	800,000	0,015	0,044
-494,810	-28,709	0,096	-0,041
-493,795	-25,649	-0,084	-0,037
-492,781	800,000	-0,057	-0,179
-491,766	-146,600	-0,215	0,014
-490,751	-200,000	-0,026	-0,140
-489,737	-200,000	-0,002	0,056
-488,722	280,469	0,070	0,092
-487,708	-76,656	0,078	-0,020
-486,693	321,768	-0,046	-0,065
-485,678	-200,000	-0,035	0,162
-484,664	316,348	-0,016	-0,023
-483,649	744,885	-0,035	-0,069
-482,635	598,495	0,071	-0,130
-481,620	-102,267	-0,059	0,010
-480,605	624,380	0,086	0,161
-479,591	-95,627	0,157	0,031
-478,576	141,773	0,041	-0,040
-477,562	260,837	-0,075	0,097
-476,547	-200,000	0,029	-0,122
-475,532	-200,000	-0,016	-0,188
-474,518	-81,255	-0,130	0,031
-473,503	-200,000	-0,011	0,047
-472,489	15,607	0,100	-0,058
-471,474	-42,583	0,089	0,033
-470,459	-200,000	-0,016	-0,055
-469,445	308,332	-0,104	-0,144
-468,430	330,652	-0,068	0,097
-467,416	-1,106	0,067	-0,035
-466,401	90,868	0,022	0,018
-465,386	391,897	0,050	0,077
-464,372	800,000	-0,032	0,092
-463,357	271,054	-0,076	-0,099
-462,343	-136,763	0,039	-0,003
-461,328	-157,500	-0,116	0,005
-460,313	-200,000	0,004	0,094
-459,299	3,899	0,069	-0,037
-458,284	38,476	0,012	0,008
-457,270	51,401	0,051	-0,035
-456,255	800,000	-0,021	0,053
-455,241	263,704	-0,035	0,044
-454,226	-200,000	0,008	-0,200
-453,211	29,628	-0,053	0,033
-452,197	170,858	-0,055	0,059
-451,182	-200,000	0,013	-0,046
-450,168	-200,000	0,050	0,199
-449,153	-200,000	-0,009	0,069
-448,138	-50,077	-0,096	-0,033
-447,124	382,566	0,042	-0,064
-446,109	800,000	-0,025	-0,060
-445,095	-200,000	-0,013	-0,068
-444,080	-200,000	0,022	0,130
-443,065	-200,000	-0,016	-0,069
-442,051	-60,970	0,087	0,027
-441,036	-200,000	-0,025	0,138
-440,022	-200,000	0,039	-0,193
-439,007	-200,000	-0,025	0,095
-437,992	800,000	0,032	0,099
-436,978	176,784	-0,044	-0,047
-435,963	-200,000	-0,006	-0,064
-434,949	-90,267	0,023	-0,005
-433,934	56,367	-0,101	-0,072
-432,919	-200,000	0,008	0,069
-431,905	800,000	-0,025	0,057
-430,890	54,339	0,115	-0,082
-429,876	455,530	-0,014	0,023
-428,861	121,648	0,068	-0,063
-427,846	-150,521	-0,077	0,004
-426,832	-69,909	-0,094	0,026
-425,817	-200,000	-0,006	-0,139
-424,803	40,555	-0,072	0,048
-423,788	-200,000	-0,008	0,092
-422,773	-200,000	0,032	0,161
-421,759	800,000	0,036	0,075
-420,744	-18,303	0,015	-0,007
-419,730	-26,723	0,167	-0,072
-418,715	376,488	-0,046	0,069
-417,701	706,668	-0,034	0,066
-416,686	521,122	-0,053	0,092
-415,671	-56,735	0,198	-0,064
-414,657	218,941	0,063	0,074
-413,642	46,314	0,092	0,063
-412,628	205,374	-0,099	0,114
-411,613	-142,507	-0,160	0,011
-410,598	-200,000	0,016	0,117
-409,584	-200,000	0,012	0,158
-408,569	129,379	-0,009	0,009
-407,555	-42,744	-0,113	0,042
-406,540	308,585	-0,057	0,078
-405,525	-133,125	0,051	0,005
-404,511	495,235	0,086	-0,146
-403,496	-200,000	0,010	0,069
-402,482	-200,000	-0,006	-0,068
-401,467	236,992	0,049	0,060
-400,452	57,186	0,041	-0,030
-399,438	800,000	0,023	-0,054
-398,423	433,436	0,024	-0,039
-397,409	-200,000	0,010	-0,043
-396,394	4,718	-0,048	-0,026
-395,379	27,475	0,029	0,018
-394,365	-134,728	0,148	-0,013
-393,350	-200,000	0,006	0,066
-392,336	383,240	-0,056	0,085
-391,321	285,796	-0,027	0,036
-390,306	48,203	-0,137	-0,094
-389,292	449,965	-0,044	-0,071
-388,277	-31,260	-0,054	0,022
-387,263	89,408	0,022	-0,018
-386,248	573,204	-0,036	0,065
-385,233	-86,994	0,132	0,029
-384,219	-200,000	0,017	-0,063
-383,204	-133,158	0,052	-0,005
-382,190	267,698	0,050	-0,064
-381,175	87,315	-0,050	-0,041
-380,160	11,732	0,064	-0,036
-379,146	-92,313	-0,061	0,012
-378,131	111,049	-0,065	0,057
-377,117	279,780	0,050	0,065
-376,102	411,093	-0,074	-0,116
-375,088	-200,000	-0,017	-0,115
-374,073	-200,000	0,014	0,060
-373,058	-4,054	0,069	0,035
-372,044	800,000	0,013	0,029
-371,029	81,983	-0,102	0,081
-370,015	5,505	0,108	0,058
-369,000	-200,000	0,007	-0,150
-367,985	-43,564	-0,101	-0,037
-366,971	-79,687	0,045	0,011
-365,956	198,995	-0,011	0,012
-364,942	60,352	-0,025	0,018
-363,927	191,667	0,037	-0,041
-362,912	800,000	0,048	0,101
-361,898	62,501	0,037	-0,027
-360,883	-130,955	-0,133	-0,013
-359,869	234,757	-0,025	0,031
-358,854	145,154	-0,114	-0,112
-357,839	-200,000	-0,016	0,076
-356,825	116,546	0,079	0,071
-355,810	-166,174	0,068	-0,002
-354,796	800,000	-0,023	0,049
-353,781	406,358	-0,024	-0,038
-352,766	-200,000	0,006	-0,127
-351,752	41,449	0,046	-0,030
-350,737	-17,277	0,069	-0,032
-349,723	19,878	0,080	0,047
-348,708	409,795	0,098	0,153
-347,693	-62,262	-0,140	0,042
-346,679	-200,000	0,010	-0,035
-345,664	-200,000	-0,001	-0,131
-344,650	-7,740	-0,064	0,031
-343,635	-200,000	-0,001	0,073
-342,620	-158,982	0,062	-0,003
-341,606	-98,876	-0,105	0,019
-340,591	86,716	-0,117	-0,094
-339,577	-36,778	0,060	-0,023
-338,562	-113,201	-0,102	-0,015
-337,548	248,136	-0,050	-0,063
-336,533	800,000	0,046	0,095
-335,518	114,552	-0,089	0,079
-334,504	580,325	-0,030	0,054
-333,489	145,331	-0,041	-0,040
-332,475	176,101	-0,043	0,046
-331,460	63,317	0,030	-0,022
-330,445	-200,000	0,016	-0,065
-329,431	-38,227	0,129	0,050
-328,416	-52,781	0,067	0,023
-327,402	1,558	-0,082	0,043
-326,387	88,809	-0,054	0,044
-325,372	67,384	-0,052	-0,039
-324,358	-47,112	-0,120	-0,043
-323,343	613,063	0,066	-0,122
-322,329	221,309	0,053	0,062
-321,314	66,708	0,047	-0,035
-320,299	-200,000	0,020	0,121
-319,285	61,987	-0,061	-0,045
-318,270	-200,000	-0,004	-0,050
-317,256	775,829	-0,029	0,059
-316,241	800,000	-0,035	-0,103
-315,226	800,000	-0,026	0,064
-314,212	-200,000	-0,010	0,123
-313,197	457,531	-0,035	0,056
-312,183	50,902	0,022	0,015
-311,168	9,025	0,123	-0,068
-310,153	-99,936	0,023	-0,004
-309,139	41,066	-0,085	-0,056
-308,124	452,013	-0,027	0,044
-307,110	-8,053	0,066	0,032
-306,095	97,887	0,084	0,071
-305,080	-50,213	0,052	-0,018
-304,066	35,781	-0,057	0,037
-303,051	218,455	-0,105	-0,123
-302,037	278,573	-0,090	-0,118
-301,022	-200,000	0,007	0,033
-300,008	-1,786	-0,095	-0,049
-298,993	386,993	0,027	0,041
-297,978	-122,512	-0,054	0,006
-296,964	-200,000	-0,015	-0,097
-295,949	-142,061	-0,136	-0,010
-294,935	-15,493	0,085	0,039
-293,920	-55,141	-0,028	0,009
-292,905	-200,000	0,018	0,123
-291,891	51,157	-0,090	-0,062
-290,876	800,000	0,006	-0,018
-289,862	432,224	0,103	0,164
-288,847	687,759	-0,079	0,151
-287,832	-4,731	0,104	0,052
-286,818	7,528	0,070	-0,038
-285,803	-200,000	0,006	0,156
-284,789	800,000	-0,067	0,140
-283,774	-35,272	0,062	0,024
-282,759	348,280	-0,013	-0,018
-281,745	208,820	-0,065	0,075
-280,730	-113,733	-0,065	-0,009
-279,716	-200,000	-0,007	-0,050
-278,701	30,903	0,066	0,041
-277,686	-96,722	-0,147	-0,028
-276,672	-88,848	0,176	0,038
-275,657	552,680	0,033	0,058
-274,643	690,412	0,050	-0,097
-273,628	12,538	-0,016	0,009
-272,613	66,669	-0,088	-0,066
-271,599	-200,000	-0,002	0,063
-270,584	56,660	-0,049	0,035
-269,570	-200,000	0,023	0,140
-268,555	390,448	-0,045	-0,068
-267,540	-178,245	0,150	-0,003
-266,526	42,499	-0,022	0,015
-265,511	-200,000	0,008	-0,077
-264,497	295,552	-0,077	-0,103
-263,482	-125,883	0,104	0,011
-262,467	753,333	-0,015	0,030
-261,453	173,479	0,050	0,053
-260,438	-31,494	0,021	-0,008
-259,424	-17,556	0,055	0,025
-258,409	-48,010	0,208	0,073
-257,395	180,728	0,043	-0,046
-256,380	-115,312	0,133	0,018
-255,365	800,000	-0,040	0,113
-254,351	800,000	0,102	0,323
-253,336	800,000	-0,024	0,078
-252,322	-17,210	-0,081	-0,037
-251,307	141,662	0,095	-0,092
-250,292	-69,074	0,068	-0,019
-249,278	400,364	0,115	-0,177
-248,263	158,908	-0,087	-0,088
-247,249	-200,000	-0,015	0,081
-246,234	800,000	0,025	-0,060
-245,219	-200,000	-0,002	0,163
-244,205	-200,000	0,012	-0,081
-243,190	800,000	0,037	0,076
-242,176	164,194	0,092	-0,095
-241,161	-56,331	0,132	0,043
-240,146	138,420	0,114	-0,110
-239,132	-200,000	-0,030	-0,105
-238,117	27,233	-0,102	0,062
-237,103	-132,871	0,074	-0,007
-236,088	-179,877	-0,037	-0,001
-235,073	358,667	0,105	0,154
-234,059	800,000	-0,025	0,056
-233,044	239,532	0,038	0,046
-232,030	88,392	-0,058	-0,047
-231,015	-200,000	-0,014	-0,129
-230,000	-79,294	0,074	0,018
-228,986	-74,426	-0,049	-0,013
-227,971	206,232	-0,002	0,003
-226,957	-200,000	-0,030	0,152
-225,942	-200,000	0,004	0,035
-224,927	-200,000	0,026	0,186
-223,913	-200,000	0,004	-0,098
-222,898	75,738	-0,040	0,031
-221,884	418,462	-0,054	0,085
-220,869	-115,199	0,093	-0,013
-219,855	-45,125	0,086	0,031
-218,840	-200,000	-0,002	-0,041
-217,825	800,000	0,035	-0,102
-216,811	-200,000	0,001	-0,072
-215,796	115,380	-0,118	-0,105
-214,782	-38,287	0,169	-0,065
-213,767	-143,721	0,117	0,008
-212,752	171,506	-0,104	-0,109
-211,738	57,282	0,062	-0,044
-210,723	-200,000	0,034	0,127
-209,709	86,537	-0,055	-0,044
-208,694	-12,270	-0,170	0,081
-207,679	3,758	0,091	0,048
-206,665	17,754	-0,140	-0,081
-205,650	179,145	0,105	0,112
-204,636	800,000	0,026	0,065
-203,621	-200,000	-0,005	0,035
-202,606	800,000	0,020	-0,050
-201,592	-70,078	-0,080	-0,022
-200,577	388,865	-0,058	-0,087
-199,563	-200,000	0,021	0,146
-198,548	185,330	-0,059	-0,064
-197,533	701,164	0,079	0,153
-196,519	-200,000	0,055	0,180
-195,504	800,000	0,018	0,056
-194,490	-200,000	0,005	0,036
-193,475	25,043	0,042	0,026
-192,460	-52,775	0,112	0,037
-191,446	-0,484	-0,008	-0,004
-190,431	314,231	-0,090	-0,124
-189,417	429,200	-0,041	-0,065
-188,402	326,195	0,010	-0,014
-187,387	-3,097	0,033	-0,017
-186,373	-200,000	0,018	-0,108
-185,358	199,741	0,097	0,109
-184,344	-200,000	0,001	0,012
-183,329	-200,000	0,033	0,150
-182,315	-104,045	-0,011	-0,002
-181,300	-200,000	-0,016	-0,055
-180,285	245,470	-0,108	-0,133
-179,271	-200,000	0,038	-0,164
-178,256	-89,349	-0,018	0,004
-177,242	-200,000	-0,002	-0,018
-176,227	136,460	0,136	0,129
-175,212	-34,549	0,080	-0,032
-174,198	217,431	-0,097	0,113
-173,183	-41,901	0,055	-0,020
-172,169	424,908	0,090	-0,142
-171,154	800,000	0,007	-0,023
-170,139	-200,000	0,004	-0,021
-169,125	31,636	-0,092	0,058
-168,110	800,000	0,030	-0,082
-167,096	-175,701	-0,114	-0,002
-166,081	323,753	-0,015	0,021
-165,066	-12,938	-0,055	0,026
-164,052	353,232	-0,054	-0,079
-163,037	-200,000	0,021	0,092
-162,023	208,548	0,079	0,090
-161,008	205,246	0,029	0,033
-159,993	-52,664	-0,030	-0,010
-158,979	-200,000	0,008	-0,079
-157,964	386,782	0,021	-0,031
-156,950	-200,000	0,040	-0,190
-155,935	61,528	-0,043	-0,031
-154,920	84,650	0,038	-0,030
-153,906	800,000	-0,009	0,022
-152,891	510,476	-0,024	0,041
-151,877	404,862	-0,079	0,121
-150,862	-200,000	-0,014	0,073
-149,847	308,157	0,056	-0,077
-148,833	-14,510	0,072	0,034
-147,818	-200,000	0,012	-0,075
-146,804	640,900	0,071	-0,133
-145,789	800,000	0,011	-0,031
-144,775	251,480	0,087	-0,108
-143,760	800,000	-0,026	0,063
-142,745	340,584	-0,030	-0,042
-141,731	629,643	-0,032	0,060
-140,716	800,000	0,066	0,134
-139,702	141,084	0,056	0,054
-138,687	-122,486	0,094	0,011
-137,672	132,532	0,050	-0,047
-136,658	-200,000	-0,007	0,041
-135,643	-200,000	-0,000	0,051
-134,629	121,084	0,048	-0,044
-133,614	-130,411	0,076	-0,007
-132,599	-200,000	0,018	-0,074
-131,585	-200,000	0,026	-0,116
-130,570	147,086	0,028	0,028
-129,556	54,496	-0,082	-0,057
-128,541	-141,802	-0,097	-0,007
-127,526	-200,000	0,010	-0,072
-126,512	20,866	-0,041	0,024
-125,497	29,431	0,066	-0,040
-124,483	-114,798	0,099	-0,014
-123,468	229,890	0,031	-0,037
-122,453	511,324	-0,033	0,057
-121,439	-53,744	-0,080	-0,026
-120,424	318,864	-0,024	-0,034
-119,410	163,379	-0,032	-0,033
