DTS Sentinel unit serial number:	SN410029Multiplexer serial number:	ORYXHardware model number:	OX2-SRSoftware version number:	ORYX F/W v4,00 Oryx Data Collector v3.7.2.0data status	okinstallation	B6 Nyhavnadifferential loss correction	single-endedforward channel	channel 2reverse channel	N/Adate	2023/12/08time	20:15:08forward acquisition time	300,00reverse acquisition time	0,00gamma	499,1914k internal	0,3158k external	0,3158temperature offset calibration	1,0000default loss term (dB/km)	0,3820temperature slope calibration	1,0000multiplexer offset coefficient	1,0000multiplexer slope coefficient	1,0000fibre end	0,00T internal ref (°C)	15,19T ext. ref 1 (°C)	-1,36T ext. ref 2 (°C)	-1,38length (m)	temperature (°C)	Stokes	anti-Stokes-744,400	-104,852	-0,058	0,010
-743,385	-91,088	-0,260	0,055
-742,371	800,000	0,066	0,168
-741,356	-83,017	-0,312	0,073
-740,342	-119,654	0,115	0,014
-739,327	-67,089	-0,254	0,073
-738,312	-200,000	0,035	0,132
-737,298	-125,307	-0,317	-0,035
-736,283	-159,766	0,225	-0,009
-735,269	-81,860	-0,319	0,076
-734,254	-200,000	-0,021	0,075
-733,239	-84,975	-0,452	-0,104
-732,225	-93,862	0,253	0,051
-731,210	-200,000	0,005	-0,021
-730,196	-119,701	-0,124	-0,016
-729,181	-200,000	-0,026	0,107
-728,167	11,956	0,066	0,037
-727,152	349,302	-0,061	0,088
-726,137	135,982	0,084	-0,080
-725,123	-200,000	-0,033	-0,112
-724,108	-200,000	0,019	-0,109
-723,094	97,175	-0,049	-0,041
-722,079	-200,000	0,011	-0,066
-721,064	-95,822	-0,113	-0,022
-720,050	371,850	-0,073	-0,109
-719,035	334,062	-0,083	-0,119
-718,021	-200,000	0,006	-0,024
-717,006	-60,290	-0,098	-0,031
-715,991	348,025	-0,062	-0,091
-714,977	-178,338	-0,073	0,001
-713,962	2,609	0,089	0,047
-712,948	-69,341	0,031	-0,009
-711,933	-200,000	0,018	-0,107
-710,918	-200,000	-0,024	0,131
-709,904	-200,000	0,003	-0,100
-708,889	-59,522	-0,039	0,012
-707,875	-200,000	-0,007	-0,036
-706,860	-1,053	-0,046	-0,024
-705,845	800,000	0,061	0,157
-704,831	-21,634	0,176	0,079
-703,816	62,232	-0,105	0,077
-702,802	225,947	-0,032	0,039
-701,787	800,000	-0,023	0,052
-700,772	259,389	0,023	0,029
-699,758	-200,000	-0,016	-0,143
-698,743	252,327	0,057	-0,071
-697,729	-200,000	-0,017	0,058
-696,714	-200,000	0,008	0,060
-695,699	148,185	-0,123	0,122
-694,685	247,935	0,053	-0,066
-693,670	-11,656	-0,066	-0,032
-692,656	240,807	0,052	-0,064
-691,641	112,617	-0,119	-0,106
-690,627	800,000	-0,029	0,062
-689,612	800,000	0,012	-0,031
-688,597	75,620	0,071	0,055
-687,583	800,000	-0,038	-0,102
-686,568	-38,299	0,028	-0,011
-685,554	455,271	-0,043	-0,070
-684,539	-200,000	-0,006	0,094
-683,524	16,725	-0,075	0,044
-682,510	-200,000	-0,005	-0,043
-681,495	-200,000	-0,008	-0,100
-680,481	271,639	0,071	0,092
-679,466	439,042	-0,071	-0,114
-678,451	-70,736	-0,088	-0,024
-677,437	542,529	-0,054	-0,096
-676,422	238,058	-0,057	0,070
-675,408	-17,157	-0,075	0,035
-674,393	-200,000	-0,013	0,046
-673,378	229,341	-0,098	-0,118
-672,364	-200,000	0,022	-0,090
-671,349	646,497	-0,035	0,065
-670,335	-200,000	0,026	0,102
-669,320	20,922	-0,107	0,064
-668,305	800,000	0,010	-0,023
-667,291	-36,613	-0,100	-0,040
-666,276	316,676	-0,044	-0,062
-665,262	800,000	-0,046	-0,115
-664,247	-40,655	-0,150	-0,057
-663,232	-87,689	-0,057	0,012
-662,218	-26,490	-0,128	-0,055
-661,203	-200,000	0,026	0,112
-660,189	-200,000	-0,002	-0,021
-659,174	-159,638	-0,068	0,003
-658,159	-106,241	0,027	0,004
-657,145	-30,581	0,053	-0,022
-656,130	444,523	-0,036	-0,058
-655,116	-69,117	-0,131	0,037
-654,101	596,038	0,048	0,087
-653,086	-200,000	0,003	-0,031
-652,072	-66,540	-0,124	0,036
-651,057	-22,781	-0,226	-0,100
-650,043	542,053	-0,078	0,138
-649,028	800,000	0,035	-0,080
-648,014	-13,036	-0,094	-0,045
-646,999	800,000	0,057	0,143
-645,984	-200,000	0,023	-0,079
-644,970	320,236	-0,030	-0,042
-643,955	46,650	-0,166	-0,113
-642,941	369,906	-0,000	-0,001
-641,926	-200,000	-0,002	-0,070
-640,911	52,460	0,010	0,007
-639,897	-86,944	-0,228	0,051
-638,882	507,129	0,028	-0,049
-637,868	-200,000	0,008	0,035
-636,853	-200,000	-0,043	-0,178
-635,838	800,000	-0,010	-0,031
-634,824	50,602	-0,144	0,100
-633,809	800,000	0,033	0,090
-632,795	52,487	-0,056	0,039
-631,780	-11,516	-0,068	0,033
-630,765	84,000	-0,110	-0,088
-629,751	154,191	-0,106	-0,107
-628,736	226,140	-0,021	-0,025
-627,722	59,718	-0,026	0,019
-626,707	562,809	-0,026	-0,047
-625,692	800,000	0,015	0,042
-624,678	70,617	-0,065	0,050
-623,663	-57,283	-0,109	0,035
-622,649	219,384	0,054	0,063
-621,634	-154,696	-0,265	-0,013
-620,619	800,000	-0,032	-0,078
-619,605	800,000	-0,042	0,103
-618,590	-73,605	-0,039	-0,010
-617,576	526,499	0,030	0,052
-616,561	-24,103	0,062	0,027
-615,546	104,578	0,029	0,025
-614,532	205,400	-0,055	0,063
-613,517	734,368	0,035	0,069
-612,503	-104,165	-0,102	-0,017
-611,488	800,000	0,074	0,161
-610,474	488,151	0,055	0,092
-609,459	-153,157	-0,074	0,004
-608,444	107,753	0,071	0,062
-607,430	40,126	0,041	0,027
-606,415	61,377	-0,054	0,039
-605,401	800,000	0,024	-0,067
-604,386	34,276	0,131	0,084
-603,371	396,759	-0,047	-0,073
-602,357	-28,850	0,058	-0,024
-601,342	145,976	-0,111	0,109
-600,328	-80,713	-0,019	-0,005
-599,313	-200,000	0,006	0,076
-598,298	122,899	-0,064	-0,058
-597,284	30,113	-0,075	-0,047
-596,269	74,484	0,079	-0,061
-595,255	212,989	0,025	0,029
-594,240	-20,436	-0,038	-0,017
-593,225	-200,000	0,014	-0,106
-592,211	394,155	0,062	0,094
-591,196	-200,000	0,002	-0,028
-590,182	-45,071	-0,060	-0,022
-589,167	-98,037	0,022	0,004
-588,152	239,851	0,085	0,103
-587,138	-34,073	-0,068	0,027
-586,123	178,858	-0,061	-0,065
-585,109	800,000	0,026	-0,076
-584,094	-144,093	0,058	0,004
-583,079	13,693	0,057	-0,032
-582,065	185,066	0,053	-0,058
-581,050	-156,560	0,078	0,004
-580,036	-200,000	0,005	-0,023
-579,021	-200,000	-0,009	-0,074
-578,006	68,027	-0,027	-0,020
-576,992	800,000	0,048	-0,140
-575,977	38,592	-0,086	-0,056
-574,963	128,406	-0,067	-0,062
-573,948	-51,010	0,106	-0,036
-572,934	800,000	-0,059	-0,135
-571,919	-200,000	-0,006	0,023
-570,904	679,205	-0,048	-0,093
-569,890	-200,000	-0,019	-0,110
-568,875	-132,450	-0,048	0,004
-567,861	-21,608	0,008	0,004
-566,846	800,000	-0,036	0,097
-565,831	800,000	0,018	-0,046
-564,817	54,773	0,137	-0,097
-563,802	297,305	-0,013	0,018
-562,788	483,218	-0,035	-0,058
-561,773	771,719	0,059	-0,119
-560,758	-200,000	0,005	-0,121
-559,744	633,425	0,037	-0,069
-558,729	-25,698	-0,129	0,056
-557,715	243,775	-0,062	-0,076
-556,700	-64,472	0,084	-0,025
-555,685	-200,000	0,047	-0,154
-554,671	238,541	-0,019	-0,023
-553,656	124,078	0,022	0,021
-552,642	43,465	0,090	-0,060
-551,627	-92,543	0,040	-0,008
-550,612	800,000	-0,014	0,033
-549,598	203,127	-0,059	-0,067
-548,583	-76,769	-0,072	-0,018
-547,569	74,214	-0,036	-0,028
-546,554	-113,659	0,208	-0,029
-545,539	92,068	0,087	0,072
-544,525	-200,000	-0,036	0,126
-543,510	-61,491	0,022	-0,007
-542,496	105,781	0,029	-0,025
-541,481	800,000	0,042	-0,098
-540,466	480,774	-0,041	-0,068
-539,452	-200,000	-0,020	0,143
-538,437	127,691	0,053	0,049
-537,423	-75,148	-0,055	-0,014
-536,408	-69,808	-0,064	-0,018
-535,393	-93,949	-0,179	-0,036
-534,379	658,966	0,099	-0,186
-533,364	-200,000	0,028	-0,190
-532,350	-197,338	-0,038	-0,000
-531,335	206,579	0,116	0,132
-530,321	800,000	0,043	0,118
-529,306	733,532	-0,059	-0,117
-528,291	-200,000	-0,028	-0,150
-527,277	-200,000	-0,035	-0,187
-526,262	-200,000	-0,003	-0,113
-525,248	14,357	-0,054	-0,031
-524,233	800,000	-0,024	-0,051
-523,218	127,558	0,022	0,021
-522,204	-109,541	-0,152	0,023
-521,189	-139,200	-0,061	-0,005
-520,175	-200,000	-0,008	-0,114
-519,160	-59,055	-0,063	0,020
-518,145	59,057	-0,057	0,041
-517,131	800,000	-0,037	-0,076
-516,116	-22,509	-0,021	0,009
-515,102	-200,000	-0,002	-0,028
-514,087	-200,000	0,034	0,131
-513,072	6,836	0,135	0,073
-512,058	197,705	-0,088	-0,098
-511,043	303,349	0,041	-0,055
-510,029	208,855	-0,035	0,040
-509,014	-69,307	0,061	-0,017
-507,999	-200,000	0,033	0,146
-506,985	224,445	-0,045	-0,054
-505,970	623,767	0,060	0,112
-504,956	-200,000	-0,002	0,012
-503,941	-200,000	-0,007	0,027
-502,926	-0,288	-0,045	-0,023
-501,912	146,333	0,117	0,115
-500,897	-118,992	-0,036	-0,005
-499,883	-120,375	-0,140	-0,017
-498,868	-98,523	0,085	-0,016
-497,853	83,170	-0,175	-0,139
-496,839	116,646	0,097	0,087
-495,824	-200,000	-0,024	0,127
-494,810	217,507	0,054	-0,063
-493,795	30,944	-0,199	0,124
-492,781	-24,118	0,163	-0,071
-491,766	-200,000	0,014	-0,075
-490,751	381,542	-0,116	-0,175
-489,737	109,232	0,014	-0,012
-488,722	380,620	0,029	0,044
-487,708	-180,584	0,144	-0,002
-486,693	800,000	0,041	-0,095
-485,678	-200,000	0,012	-0,043
-484,664	68,018	-0,031	0,023
-483,649	179,889	0,030	-0,032
-482,635	605,437	-0,013	0,024
-481,620	34,380	0,136	0,087
-480,605	-200,000	0,006	0,056
-479,591	23,717	-0,043	0,026
-478,576	98,315	0,110	0,092
-477,562	274,098	0,056	0,072
-476,547	-93,188	-0,082	0,017
-475,532	273,765	0,087	0,112
-474,518	-200,000	-0,004	0,045
-473,503	-46,821	0,025	0,009
-472,489	-93,776	0,060	-0,012
-471,474	217,401	0,056	-0,065
-470,459	140,385	-0,115	-0,111
-469,445	219,290	-0,132	-0,155
-468,430	80,645	-0,016	-0,012
-467,416	-200,000	0,002	0,007
-466,401	-200,000	0,009	-0,039
-465,386	130,615	-0,034	-0,032
-464,372	164,884	-0,099	0,102
-463,357	-200,000	-0,000	0,065
-462,343	-200,000	-0,032	-0,185
-461,328	521,624	-0,072	-0,124
-460,313	-71,505	0,067	0,018
-459,299	95,822	0,070	0,058
-458,284	257,761	-0,071	0,089
-457,270	-200,000	0,004	0,025
-456,255	-200,000	0,014	0,089
-455,241	-200,000	0,026	0,120
-454,226	-157,313	0,015	-0,001
-453,211	677,282	-0,023	0,044
-452,197	-115,807	0,179	-0,024
-451,182	29,532	0,062	-0,038
-450,168	800,000	0,016	0,052
-449,153	-200,000	0,039	0,131
-448,138	793,907	-0,024	0,049
-447,124	-200,000	-0,007	-0,030
-446,109	70,120	-0,042	0,031
-445,095	-53,917	0,142	0,047
-444,080	800,000	-0,005	-0,013
-443,065	524,052	-0,014	0,024
-442,051	-74,059	0,135	-0,036
-441,036	-102,440	-0,134	-0,023
-440,022	-14,748	0,027	-0,013
-439,007	-106,453	0,056	0,009
-437,992	800,000	0,036	-0,088
-436,978	-79,899	0,063	0,015
-435,963	-200,000	0,020	-0,128
-434,949	800,000	-0,015	0,040
-433,934	690,834	-0,052	-0,100
-432,919	-89,830	-0,083	0,018
-431,905	-90,352	0,038	-0,008
-430,890	189,781	0,080	-0,088
-429,876	128,849	0,024	0,022
-428,861	800,000	0,034	-0,102
-427,846	800,000	0,047	-0,098
-426,832	184,870	0,050	-0,054
-425,817	800,000	-0,021	-0,045
-424,803	800,000	-0,035	-0,085
-423,788	800,000	-0,033	-0,070
-422,773	-112,366	0,071	0,010
-421,759	-71,091	0,123	-0,033
-420,744	-53,469	-0,102	0,034
-419,730	-57,318	-0,129	-0,041
-418,715	-200,000	0,011	-0,122
-417,701	-14,091	-0,041	0,019
-416,686	-79,742	0,039	-0,009
-415,671	-64,302	0,147	-0,043
-414,657	-102,949	0,034	0,006
-413,642	-200,000	0,008	-0,056
-412,628	302,054	0,097	-0,131
-411,613	282,505	-0,076	-0,100
-410,598	320,657	0,052	-0,072
-409,584	-80,601	-0,171	-0,041
-408,569	-36,562	-0,089	-0,035
-407,555	-103,466	-0,058	0,010
-406,540	115,188	-0,051	0,045
-405,525	800,000	-0,009	-0,021
-404,511	-90,757	-0,168	-0,035
-403,496	163,524	-0,017	0,017
-402,482	91,443	0,090	-0,074
-401,467	-200,000	-0,000	0,111
-400,452	366,632	-0,079	0,117
-399,438	-200,000	-0,008	-0,218
-398,423	-200,000	0,031	-0,107
-397,409	-200,000	0,003	-0,173
-396,394	371,656	-0,050	-0,074
-395,379	-200,000	0,002	0,128
-394,365	490,615	0,060	0,100
-393,350	73,798	0,050	-0,038
-392,336	800,000	-0,012	-0,032
-391,321	-200,000	-0,004	-0,101
-390,306	-55,500	-0,080	0,026
-389,292	-200,000	-0,007	0,083
-388,277	-147,620	0,098	0,006
-387,263	394,460	-0,066	0,100
-386,248	233,302	-0,096	-0,115
-385,233	419,340	0,039	-0,062
-384,219	-200,000	0,000	-0,033
-383,204	35,299	0,072	0,046
-382,190	-112,819	-0,065	-0,009
-381,175	693,223	-0,049	-0,094
-380,160	-6,331	0,082	-0,041
-379,146	800,000	-0,038	0,098
-378,131	800,000	-0,038	-0,095
-377,117	50,040	-0,075	0,051
-376,102	-130,988	-0,031	-0,003
-375,088	648,741	-0,034	0,063
-374,073	-200,000	-0,001	0,019
-373,058	34,566	0,093	-0,059
-372,044	429,359	0,036	0,057
-371,029	250,314	-0,049	-0,060
-370,015	27,167	-0,093	-0,056
-369,000	-164,008	0,036	-0,001
-367,985	-200,000	-0,020	0,090
-366,971	143,474	-0,061	0,059
-365,956	-200,000	0,013	0,080
-364,942	-22,350	0,050	-0,022
-363,927	-200,000	-0,001	-0,035
-362,912	-200,000	-0,102	0,000
-361,898	28,782	0,085	-0,052
-360,883	-4,719	-0,042	-0,021
-359,869	413,465	-0,060	0,094
-358,854	17,663	0,079	-0,046
-357,839	-200,000	0,005	-0,078
-356,825	779,543	0,107	0,213
-355,810	634,136	-0,076	0,141
-354,796	7,257	-0,056	0,030
-353,781	-65,387	0,046	0,013
-352,766	50,971	0,025	-0,017
-351,752	-117,222	0,122	-0,016
-350,737	-71,436	0,028	0,008
-349,723	-15,656	0,148	0,068
-348,708	-200,000	0,010	0,132
-347,693	-141,811	0,078	-0,006
-346,679	276,265	-0,057	0,073
-345,664	322,442	0,007	-0,009
-344,650	-200,000	-0,017	-0,057
-343,635	-75,857	-0,096	0,025
-342,620	-200,000	0,005	0,041
-341,606	-200,000	0,023	0,117
-340,591	-121,311	-0,135	0,016
-339,577	-57,114	0,088	0,028
-338,562	800,000	0,027	-0,080
-337,548	-200,000	0,009	0,052
-336,533	800,000	-0,030	0,080
-335,518	-200,000	0,026	-0,163
-334,504	800,000	-0,009	-0,027
-333,489	-200,000	0,014	-0,072
-332,475	800,000	-0,036	-0,078
-331,460	62,319	-0,073	0,053
-330,445	-47,281	-0,101	-0,035
-329,431	-68,884	0,114	0,032
-328,416	-12,782	-0,050	0,024
-327,402	-106,530	-0,062	0,010
-326,387	268,894	0,037	0,048
-325,372	-147,889	0,054	-0,003
-324,358	800,000	-0,016	-0,050
-323,343	271,052	0,049	0,062
-322,329	-200,000	0,000	-0,038
-321,314	15,405	0,075	0,042
-320,299	-200,000	0,006	-0,025
-319,285	391,684	-0,050	-0,075
-318,270	56,879	0,059	0,042
-317,256	-32,066	-0,075	-0,030
-316,241	-200,000	-0,023	-0,125
-315,226	-130,914	0,115	-0,011
-314,212	800,000	-0,026	-0,057
-313,197	71,987	0,132	0,100
-312,183	-151,141	0,065	0,003
-311,168	36,078	0,094	0,060
-310,153	-38,690	-0,049	0,019
-309,139	64,422	0,029	-0,021
-308,124	800,000	0,037	0,103
-307,110	-200,000	-0,026	0,119
-306,095	65,909	-0,150	0,110
-305,080	-38,064	0,065	-0,025
-304,066	-88,361	0,012	-0,002
-303,051	304,541	-0,071	-0,096
-302,037	-149,334	-0,055	-0,003
-301,022	2,383	-0,111	0,058
-300,008	339,432	0,023	0,033
-298,993	601,039	0,064	0,116
-297,978	-200,000	0,037	0,166
-296,964	129,265	-0,063	0,058
-295,949	467,266	0,058	0,095
-294,935	84,127	-0,064	0,051
-293,920	-200,000	-0,009	-0,087
-292,905	800,000	0,050	0,109
-291,891	-200,000	-0,009	0,154
-290,876	-200,000	0,012	-0,071
-289,862	-200,000	-0,031	-0,132
-288,847	800,000	0,027	0,077
-287,832	-200,000	0,001	0,167
-286,818	-126,413	0,064	-0,007
-285,803	17,704	-0,153	0,088
-284,789	-157,917	-0,066	-0,003
-283,774	-24,183	0,035	0,015
-282,759	30,056	-0,083	0,051
-281,745	315,029	0,029	-0,039
-280,730	-123,374	-0,198	-0,023
-279,716	128,799	0,084	-0,078
-278,701	-68,358	0,021	-0,006
-277,686	-39,466	0,153	0,058
-276,672	349,986	-0,031	-0,045
-275,657	568,889	0,044	0,078
-274,643	-194,415	-0,050	-0,000
-273,628	321,167	-0,091	0,125
-272,613	-40,634	-0,011	-0,004
-271,599	-200,000	0,002	-0,073
-270,584	-200,000	0,015	0,077
-269,570	665,913	-0,080	0,150
-268,555	149,319	0,135	0,132
-267,540	-119,160	-0,176	-0,022
-266,526	-129,691	-0,050	-0,005
-265,511	800,000	0,042	0,087
-264,497	-200,000	-0,037	-0,165
-263,482	-119,553	0,173	-0,021
-262,467	39,312	0,110	0,071
-261,453	44,181	-0,077	-0,051
-260,438	67,375	-0,048	0,035
-259,424	27,277	0,042	-0,026
-258,409	100,213	0,050	0,042
-257,395	-200,000	-0,022	0,151
-256,380	400,861	0,057	-0,087
-255,365	-200,000	0,027	0,182
-254,351	-53,913	-0,093	0,031
-253,336	700,939	-0,043	0,082
-252,322	-132,935	0,049	-0,004
-251,307	-121,107	0,042	-0,005
-250,292	-61,560	-0,031	-0,009
-249,278	-200,000	0,024	-0,116
-248,263	71,610	0,032	0,024
-247,249	-200,000	-0,039	0,219
-246,234	-200,000	0,003	-0,112
-245,219	-200,000	-0,003	-0,036
-244,205	-73,941	0,047	-0,012
-243,190	-45,916	0,081	0,029
-242,176	-39,686	0,181	-0,068
-241,161	69,631	0,099	0,073
-240,146	-42,678	0,071	0,026
-239,132	-76,992	-0,073	-0,018
-238,117	210,815	-0,026	-0,030
-237,103	-194,912	0,118	-0,001
-236,088	-200,000	-0,019	0,072
-235,073	-14,617	0,144	0,067
-234,059	-200,000	0,007	0,057
-233,044	82,985	0,026	0,020
-232,030	-200,000	0,031	-0,107
-231,015	-200,000	0,002	0,024
-230,000	227,394	-0,077	-0,090
-228,986	616,461	-0,051	-0,093
-227,971	-33,543	0,141	-0,056
-226,957	800,000	0,002	-0,007
-225,942	-42,697	0,056	0,020
-224,927	-200,000	-0,016	0,086
-223,913	-27,373	-0,144	0,060
-222,898	-200,000	0,013	0,046
-221,884	-50,216	-0,101	0,034
-220,869	-200,000	-0,003	0,021
-219,855	-5,186	0,078	0,039
-218,840	-200,000	0,013	0,146
-217,825	114,283	0,055	0,048
-216,811	140,824	-0,058	-0,056
-215,796	800,000	0,026	-0,062
-214,782	550,178	-0,050	-0,087
-213,767	126,034	0,083	0,076
-212,752	-19,410	0,025	0,011
-211,738	-96,240	-0,103	0,019
-210,723	-96,375	0,087	0,017
-209,709	301,853	-0,059	-0,079
-208,694	800,000	0,028	-0,082
-207,679	101,153	0,066	-0,055
-206,665	33,333	-0,093	0,058
-205,650	175,865	0,056	0,059
-204,636	-200,000	0,003	0,031
-203,621	-200,000	-0,001	0,140
-202,606	26,786	0,110	0,067
-201,592	-200,000	0,001	-0,134
-200,577	-200,000	0,001	-0,079
-199,563	242,817	-0,033	0,041
-198,548	-200,000	-0,040	0,189
-197,533	-83,373	-0,072	-0,017
-196,519	697,157	-0,089	0,170
-195,504	-75,737	-0,095	0,024
-194,490	-200,000	-0,002	-0,031
-193,475	800,000	-0,033	-0,092
-192,460	800,000	-0,030	-0,090
-191,446	128,100	0,060	-0,055
-190,431	305,973	-0,035	-0,047
-189,417	280,086	-0,091	0,118
-188,402	-104,987	0,091	0,015
-187,387	90,505	-0,024	0,020
-186,373	50,380	-0,089	-0,061
-185,358	-40,577	0,119	-0,044
-184,344	-116,960	0,100	-0,013
-183,329	-200,000	0,004	0,052
-182,315	639,553	-0,079	0,145
-181,300	-200,000	0,004	0,139
-180,285	61,776	-0,036	0,026
-179,271	-63,584	0,051	0,015
-178,256	-15,317	-0,060	-0,028
-177,242	-200,000	0,010	0,109
-176,227	-200,000	0,001	0,035
-175,212	-200,000	0,015	0,165
-174,198	-200,000	0,018	-0,076
-173,183	-12,633	-0,027	-0,013
-172,169	70,930	-0,092	-0,069
-171,154	145,923	0,025	-0,024
-170,139	-29,733	0,073	0,030
-169,125	-100,991	0,096	0,017
-168,110	-200,000	0,010	0,068
-167,096	406,263	0,069	-0,106
-166,081	7,626	-0,105	0,057
-165,066	-200,000	-0,005	-0,042
-164,052	82,016	0,006	-0,005
-163,037	-200,000	0,003	-0,154
-162,023	-60,139	0,111	-0,034
-161,008	222,675	0,061	0,071
-159,993	-200,000	0,015	0,099
-158,979	-105,542	0,152	0,025
-157,964	-58,449	0,201	-0,062
-156,950	-41,247	0,061	-0,023
-155,935	800,000	0,042	0,102
-154,920	-9,223	0,029	-0,014
-153,906	-19,563	-0,068	-0,030
-152,891	76,329	-0,056	0,042
-151,877	-109,048	0,089	0,014
-150,862	-20,456	-0,074	0,032
-149,847	324,903	-0,030	-0,042
-148,833	-200,000	0,016	0,092
-147,818	389,023	0,035	-0,052
-146,804	68,374	0,041	0,030
-145,789	369,606	-0,004	0,006
-144,775	190,136	0,065	0,070
-143,760	-200,000	-0,040	-0,185
-142,745	89,203	0,081	-0,065
-141,731	-200,000	0,002	-0,014
-140,716	-200,000	0,022	0,133
-139,702	212,777	-0,038	0,043
-138,687	-102,635	-0,075	-0,013
-137,672	-174,941	-0,061	0,001
-136,658	-108,055	-0,123	-0,019
-135,643	-38,122	-0,103	-0,039
-134,629	518,986	-0,021	0,036
-133,614	-124,483	0,117	-0,013
-132,599	-200,000	-0,005	-0,027
-131,585	-123,672	0,142	-0,016
-130,570	57,239	0,045	0,031
-129,556	800,000	0,026	0,083
-128,541	-200,000	0,027	-0,112
-127,526	-107,240	0,057	-0,009
-126,512	800,000	0,023	0,071
-125,497	-200,000	0,000	0,220
-124,483	362,495	-0,127	0,184
-123,468	-200,000	0,015	-0,075
-122,453	-200,000	0,000	-0,096
-121,439	-200,000	-0,005	0,084
-120,424	451,758	0,046	-0,073
