DTS Sentinel unit serial number:	SN410029Multiplexer serial number:	ORYXHardware model number:	OX2-SRSoftware version number:	ORYX F/W v4,00 Oryx Data Collector v3.7.2.0data status	okinstallation	B6 Nyhavnadifferential loss correction	single-endedforward channel	channel 2reverse channel	N/Adate	2023/12/10time	03:10:08forward acquisition time	300,00reverse acquisition time	0,00gamma	499,1914k internal	0,3125k external	0,3125temperature offset calibration	1,0000default loss term (dB/km)	0,3820temperature slope calibration	1,0000multiplexer offset coefficient	1,0000multiplexer slope coefficient	1,0000fibre end	0,00T internal ref (°C)	22,00T ext. ref 1 (°C)	5,82T ext. ref 2 (°C)	5,79length (m)	temperature (°C)	Stokes	anti-Stokes-744,400	609,628	0,063	-0,118
-743,385	800,000	-0,094	0,279
-742,371	-42,309	0,107	0,041
-741,356	27,711	-0,167	0,105
-740,342	165,387	-0,029	0,030
-739,327	187,711	-0,150	0,167
-738,312	-82,674	0,025	-0,006
-737,298	-42,112	-0,245	0,093
-736,283	800,000	0,024	-0,058
-735,269	-57,173	-0,198	0,064
-734,254	-200,000	-0,010	-0,062
-733,239	-49,607	-0,443	-0,156
-732,225	575,097	0,066	0,120
-731,210	301,582	0,028	-0,039
-730,196	352,934	-0,013	-0,020
-729,181	800,000	-0,011	-0,029
-728,167	-57,478	0,120	0,039
-727,152	-48,177	0,035	0,012
-726,137	92,608	-0,054	0,046
-725,123	-89,128	-0,117	-0,026
-724,108	516,529	-0,045	-0,079
-723,094	-68,346	-0,097	-0,028
-722,079	367,705	-0,070	-0,105
-721,064	-17,804	-0,124	-0,058
-720,050	177,744	-0,047	0,051
-719,035	800,000	0,050	0,111
-718,021	2,247	-0,102	0,055
-717,006	122,652	-0,035	-0,033
-715,991	70,092	-0,035	0,027
-714,977	-103,248	-0,221	0,038
-713,962	-113,276	-0,084	0,012
-712,948	-50,065	0,100	-0,035
-711,933	800,000	-0,050	-0,108
-710,918	-160,764	0,066	-0,003
-709,904	800,000	0,061	-0,144
-708,889	800,000	-0,020	-0,056
-707,875	800,000	-0,027	-0,060
-706,860	361,333	-0,034	-0,050
-705,845	-152,910	0,091	0,005
-704,831	230,809	-0,053	0,064
-703,816	340,826	0,034	0,049
-702,802	-200,000	0,012	0,060
-701,787	-200,000	-0,010	-0,094
-700,772	-146,651	-0,160	0,010
-699,758	-72,980	0,062	-0,017
-698,743	-107,457	-0,074	0,012
-697,729	519,368	-0,011	0,020
-696,714	788,512	-0,065	-0,133
-695,699	800,000	-0,064	-0,191
-694,685	800,000	-0,030	-0,067
-693,670	36,105	-0,127	0,083
-692,656	-1,357	-0,045	-0,023
-691,641	3,821	-0,074	0,040
-690,627	212,069	-0,118	0,138
-689,612	696,635	0,012	0,024
-688,597	-200,000	-0,001	-0,039
-687,583	-200,000	0,008	-0,093
-686,568	98,947	-0,086	-0,073
-685,554	161,068	0,022	0,023
-684,539	-200,000	0,000	0,046
-683,524	-76,958	-0,135	0,035
-682,510	-23,324	-0,078	-0,035
-681,495	-55,010	0,039	0,013
-680,481	292,744	-0,055	-0,074
-679,466	29,438	-0,100	-0,063
-678,451	-200,000	0,003	0,064
-677,437	800,000	0,035	0,094
-676,422	60,031	0,115	0,084
-675,408	-76,202	-0,088	-0,023
-674,393	-200,000	0,000	0,027
-673,378	-60,989	-0,053	-0,016
-672,364	800,000	0,016	0,041
-671,349	-200,000	0,044	-0,261
-670,335	19,652	0,093	0,055
-669,320	800,000	-0,032	-0,071
-668,305	150,457	-0,050	-0,050
-667,291	100,358	-0,088	-0,076
-666,276	-55,381	-0,163	-0,054
-665,262	-174,579	-0,118	0,002
-664,247	-110,235	-0,071	0,011
-663,232	3,180	0,114	-0,061
-662,218	-131,950	0,115	-0,011
-661,203	-200,000	0,027	0,087
-660,189	222,356	-0,098	0,117
-659,174	29,867	-0,059	0,037
-658,159	13,958	-0,014	-0,008
-657,145	-81,586	0,040	0,010
-656,130	-200,000	0,013	-0,050
-655,116	729,749	-0,032	0,064
-654,101	800,000	0,012	0,027
-653,086	-19,928	-0,034	-0,016
-652,072	-35,580	0,033	0,013
-651,057	549,769	0,037	0,065
-650,043	7,640	-0,061	0,034
-649,028	-160,942	-0,069	-0,003
-648,014	110,053	-0,077	-0,068
-646,999	146,354	0,031	0,031
-645,984	272,134	-0,080	0,104
-644,970	800,000	0,008	-0,024
-643,955	-200,000	-0,014	0,049
-642,941	800,000	0,042	-0,121
-641,926	-200,000	0,015	-0,097
-640,911	-200,000	0,009	0,156
-639,897	300,092	0,024	0,033
-638,882	227,830	-0,078	0,094
-637,868	-42,107	-0,031	0,012
-636,853	157,982	0,070	-0,072
-635,838	-26,534	-0,037	-0,016
-634,824	486,874	-0,063	-0,107
-633,809	-200,000	-0,016	0,071
-632,795	110,273	0,081	0,072
-631,780	12,078	0,064	0,037
-630,765	501,866	-0,045	0,077
-629,751	68,609	-0,018	-0,014
-628,736	55,736	-0,011	0,008
-627,722	272,318	0,110	-0,144
-626,707	11,602	0,035	-0,020
-625,692	560,716	0,039	0,070
-624,678	149,570	0,017	-0,017
-623,663	-48,325	-0,022	-0,008
-622,649	414,904	-0,038	0,061
-621,634	401,161	-0,009	-0,014
-620,619	778,760	0,045	-0,092
-619,605	800,000	0,024	-0,056
-618,590	-80,265	-0,094	0,023
-617,576	543,205	0,057	0,102
-616,561	407,111	0,029	-0,045
-615,546	-200,000	0,014	0,080
-614,532	-200,000	-0,019	-0,143
-613,517	58,661	-0,094	-0,068
-612,503	406,299	-0,020	-0,031
-611,488	81,573	-0,033	0,026
-610,474	800,000	0,042	0,111
-609,459	800,000	-0,069	0,156
-608,444	424,820	0,065	-0,104
-607,430	-200,000	-0,015	-0,142
-606,415	74,688	-0,078	-0,060
-605,401	-56,512	0,108	-0,035
-604,386	-13,511	0,117	-0,056
-603,371	50,352	-0,045	-0,031
-602,357	647,207	0,015	0,028
-601,342	800,000	-0,036	-0,112
-600,328	-34,280	-0,163	-0,066
-599,313	-103,600	0,114	-0,020
-598,298	-51,716	0,024	-0,008
-597,284	800,000	-0,025	-0,054
-596,269	-103,496	0,101	0,017
-595,255	388,867	0,034	0,052
-594,240	-200,000	0,009	0,042
-593,225	800,000	-0,051	-0,165
-592,211	-97,406	0,151	0,029
-591,196	395,316	-0,036	-0,056
-590,182	-17,911	0,093	-0,043
-589,167	-200,000	0,029	-0,118
-588,152	398,092	0,064	-0,100
-587,138	505,804	-0,030	0,052
-586,123	-105,571	-0,136	-0,023
-585,109	800,000	-0,047	-0,125
-584,094	-200,000	-0,003	-0,164
-583,079	-200,000	0,002	0,031
-582,065	318,350	0,042	0,059
-581,050	187,330	0,039	-0,043
-580,036	-37,335	-0,060	-0,024
-579,021	33,814	0,031	-0,020
-578,006	259,209	0,052	0,067
-576,992	-200,000	-0,002	0,139
-575,977	-153,158	0,025	0,001
-574,963	340,838	0,102	-0,148
-573,948	-200,000	0,011	-0,120
-572,934	49,353	-0,078	-0,054
-571,919	230,947	-0,140	-0,170
-570,904	800,000	0,012	-0,029
-569,890	-56,931	0,056	0,018
-568,875	-200,000	-0,015	-0,058
-567,861	800,000	0,040	0,101
-566,846	-200,000	-0,006	0,063
-565,831	136,989	-0,033	-0,032
-564,817	185,873	0,088	0,096
-563,802	473,834	-0,038	-0,064
-562,788	-200,000	-0,015	0,049
-561,773	-144,929	0,111	0,007
-560,758	58,921	0,042	-0,030
-559,744	-131,996	-0,142	-0,014
-558,729	22,683	-0,065	-0,039
-557,715	800,000	-0,026	-0,059
-556,700	523,016	-0,070	-0,122
-555,685	389,320	0,051	-0,079
-554,671	149,432	0,011	-0,011
-553,656	392,147	0,033	0,051
-552,642	-51,247	0,137	0,047
-551,627	-45,031	-0,013	-0,005
-550,612	-200,000	-0,003	-0,068
-549,598	-145,146	-0,126	-0,008
-548,583	-200,000	-0,014	0,047
-547,569	91,797	0,030	-0,025
-546,554	281,096	0,036	0,048
-545,539	122,523	-0,081	-0,075
-544,525	244,642	0,072	-0,090
-543,510	-12,921	0,105	0,050
-542,496	8,907	0,061	-0,034
-541,481	49,412	0,019	-0,014
-540,466	164,878	0,076	0,079
-539,452	800,000	-0,057	-0,148
-538,437	-95,062	0,051	0,010
-537,423	224,118	0,071	-0,085
-536,408	800,000	0,029	-0,072
-535,393	336,478	-0,008	0,011
-534,379	51,357	-0,065	-0,046
-533,364	132,464	0,009	0,008
-532,350	-5,642	0,022	-0,011
-531,335	27,344	0,043	-0,027
-530,321	-200,000	0,040	0,200
-529,306	-47,222	-0,084	0,030
-528,291	-71,543	0,023	-0,006
-527,277	-200,000	-0,009	0,121
-526,262	652,465	-0,051	0,097
-525,248	800,000	-0,006	-0,016
-524,233	-17,259	0,046	-0,021
-523,218	800,000	0,078	0,174
-522,204	-200,000	-0,044	0,164
-521,189	-153,512	0,072	-0,004
-520,175	-200,000	0,006	-0,169
-519,160	-125,602	0,062	-0,007
-518,145	-56,300	0,032	-0,010
-517,131	-200,000	-0,022	0,131
-516,116	-85,162	0,103	-0,024
-515,102	383,383	0,058	0,088
-514,087	571,921	0,064	0,115
-513,072	671,179	0,049	0,093
-512,058	-200,000	-0,047	0,167
-511,043	-20,506	0,170	0,077
-510,029	-200,000	0,028	0,123
-509,014	124,963	0,087	-0,081
-507,999	13,168	0,089	0,051
-506,985	800,000	-0,035	-0,090
-505,970	210,986	-0,096	-0,112
-504,956	27,674	-0,105	-0,065
-503,941	-200,000	0,004	-0,204
-502,926	-40,305	-0,107	-0,041
-501,912	-98,466	0,102	0,019
-500,897	288,994	-0,011	0,015
-499,883	756,858	-0,047	-0,095
-498,868	788,402	-0,068	-0,139
-497,853	294,891	0,036	0,049
-496,839	246,777	0,084	0,105
-495,824	-62,965	-0,176	0,053
-494,810	-200,000	-0,013	0,076
-493,795	-5,190	-0,089	0,045
-492,781	-179,342	-0,160	0,003
-491,766	-200,000	0,012	0,056
-490,751	545,622	-0,023	-0,041
-489,737	-200,000	-0,005	0,019
-488,722	-146,411	-0,060	-0,004
-487,708	-137,782	0,023	-0,002
-486,693	84,747	-0,076	-0,061
-485,678	376,342	0,078	0,117
-484,664	-200,000	0,000	-0,021
-483,649	-200,000	0,000	-0,029
-482,635	800,000	0,023	-0,050
-481,620	749,586	-0,037	0,074
-480,605	-115,822	0,154	-0,021
-479,591	-200,000	-0,008	0,038
-478,576	800,000	-0,062	0,133
-477,562	-200,000	0,012	0,045
-476,547	800,000	0,020	-0,043
-475,532	-133,768	-0,170	0,015
-474,518	800,000	0,038	-0,105
-473,503	254,765	0,056	-0,070
-472,489	33,635	0,040	0,025
-471,474	800,000	-0,002	0,005
-470,459	330,728	-0,060	-0,085
-469,445	-200,000	0,036	-0,128
-468,430	-200,000	-0,025	0,086
-467,416	800,000	-0,013	-0,040
-466,401	-30,760	-0,043	0,018
-465,386	-200,000	-0,015	-0,060
-464,372	14,477	-0,201	-0,115
-463,357	800,000	-0,033	-0,086
-462,343	27,177	-0,129	0,080
-461,328	-200,000	-0,012	-0,082
-460,313	244,724	-0,014	-0,017
-459,299	-200,000	0,003	0,040
-458,284	-89,400	-0,180	0,039
-457,270	-200,000	-0,025	0,102
-456,255	246,220	-0,043	-0,053
-455,241	800,000	0,038	-0,097
-454,226	-108,820	-0,131	0,020
-453,211	144,898	-0,013	-0,012
-452,197	233,292	0,033	-0,040
-451,182	-66,551	-0,058	0,017
-450,168	-200,000	0,024	0,131
-449,153	-122,573	-0,021	-0,002
-448,138	412,235	0,005	-0,007
-447,124	644,568	0,057	-0,107
-446,109	-124,083	-0,169	0,019
-445,095	-200,000	0,024	0,146
-444,080	-77,463	0,114	0,029
-443,065	143,218	0,097	-0,095
-442,051	800,000	-0,050	-0,119
-441,036	-200,000	-0,044	-0,189
-440,022	102,751	-0,069	-0,060
-439,007	-200,000	0,023	0,170
-437,992	158,266	-0,046	0,047
-436,978	800,000	-0,033	-0,076
-435,963	487,849	0,072	0,121
-434,949	521,565	0,095	0,164
-433,934	-165,604	0,108	-0,003
-432,919	-27,716	-0,200	0,085
-431,905	-200,000	-0,014	-0,141
-430,890	8,774	-0,075	0,042
-429,876	64,612	0,028	-0,021
-428,861	-200,000	0,004	0,045
-427,846	-152,452	-0,099	0,005
-426,832	-200,000	0,003	-0,068
-425,817	60,508	-0,094	-0,068
-424,803	-173,397	-0,137	-0,003
-423,788	-95,387	-0,093	-0,018
-422,773	800,000	-0,026	0,075
-421,759	-189,150	-0,084	0,001
-420,744	5,427	-0,022	0,012
-419,730	185,668	-0,068	0,074
-418,715	161,138	-0,093	0,096
-417,701	304,217	0,053	-0,073
-416,686	98,976	0,118	-0,100
-415,671	-120,453	0,084	0,010
-414,657	-200,000	-0,003	-0,129
-413,642	-37,253	0,105	0,041
-412,628	-43,279	-0,169	-0,063
-411,613	-200,000	-0,018	-0,070
-410,598	-200,000	0,007	-0,200
-409,584	-157,547	0,158	-0,007
-408,569	198,214	-0,039	0,044
-407,555	5,017	0,071	0,038
-406,540	538,152	0,051	-0,089
-405,525	180,546	-0,066	-0,071
-404,511	-13,132	-0,033	0,016
-403,496	97,145	0,012	-0,010
-402,482	-200,000	0,003	-0,063
-401,467	118,207	-0,044	0,039
-400,452	8,786	0,097	0,053
-399,438	363,086	-0,052	-0,077
-398,423	-94,008	-0,139	0,028
-397,409	-200,000	0,008	-0,037
-396,394	-109,381	0,035	0,005
-395,379	800,000	-0,046	-0,109
-394,365	-136,052	0,107	0,009
-393,350	171,198	0,065	-0,068
-392,336	232,746	0,012	0,014
-391,321	-37,393	-0,067	0,026
-390,306	-50,451	-0,076	0,026
-389,292	-200,000	0,025	-0,138
-388,277	-55,241	-0,114	-0,037
-387,263	-135,224	0,207	-0,018
-386,248	-0,593	0,044	0,023
-385,233	0,703	-0,102	-0,053
-384,219	-200,000	0,032	0,125
-383,204	492,353	0,075	-0,127
-382,190	799,115	-0,051	-0,103
-381,175	121,976	0,056	-0,051
-380,160	-52,889	-0,084	-0,028
-379,146	267,995	0,017	0,022
-378,131	234,640	-0,043	-0,052
-377,117	-200,000	-0,005	-0,047
-376,102	433,168	-0,053	0,086
-375,088	-166,296	0,104	-0,003
-374,073	800,000	-0,006	-0,015
-373,058	323,099	-0,062	-0,087
-372,044	57,848	0,075	0,054
-371,029	-72,066	0,087	0,024
-370,015	-24,762	0,128	0,055
-369,000	-200,000	0,007	0,038
-367,985	-9,323	-0,047	-0,023
-366,971	-200,000	0,003	-0,151
-365,956	-70,121	0,082	-0,023
-364,942	-95,680	0,047	-0,009
-363,927	11,468	-0,097	0,054
-362,912	-200,000	0,014	0,111
-361,898	-66,581	-0,014	0,004
-360,883	-200,000	0,005	-0,037
-359,869	-77,680	0,005	-0,001
-358,854	-131,100	0,015	0,001
-357,839	-18,823	0,254	-0,115
-356,825	800,000	-0,042	0,092
-355,810	621,611	-0,016	0,030
-354,796	-95,858	0,014	-0,003
-353,781	800,000	0,033	-0,086
-352,766	569,419	0,025	-0,044
-351,752	-200,000	0,000	0,066
-350,737	-33,352	0,144	0,058
-349,723	-116,829	0,067	-0,009
-348,708	-200,000	0,015	0,049
-347,693	-83,934	0,133	0,031
-346,679	-123,190	-0,099	-0,011
-345,664	26,258	0,104	-0,063
-344,650	800,000	0,050	-0,109
-343,635	-76,082	-0,146	0,038
-342,620	-84,377	-0,043	-0,010
-341,606	-200,000	0,025	-0,098
-340,591	-200,000	-0,027	0,111
-339,577	-200,000	-0,001	0,035
-338,562	114,368	0,033	-0,030
-337,548	208,470	-0,065	-0,075
-336,533	210,565	0,167	0,193
-335,518	-65,096	-0,104	0,031
-334,504	48,641	-0,035	-0,024
-333,489	-200,000	-0,005	0,079
-332,475	-72,093	-0,124	0,034
-331,460	524,734	0,047	-0,082
-330,445	183,282	-0,174	0,188
-329,431	-200,000	-0,011	-0,071
-328,416	-57,777	0,070	0,022
-327,402	800,000	0,023	-0,054
-326,387	34,464	-0,097	-0,062
-325,372	800,000	0,018	0,045
-324,358	-200,000	0,011	0,089
-323,343	800,000	0,043	0,101
-322,329	-200,000	0,021	0,083
-321,314	119,291	0,079	0,072
-320,299	727,101	-0,020	-0,038
-319,285	-200,000	0,006	0,101
-318,270	200,810	-0,079	0,089
-317,256	-200,000	0,029	0,111
-316,241	107,889	-0,074	0,064
-315,226	581,694	0,039	-0,071
-314,212	-200,000	0,005	-0,103
-313,197	-75,282	0,067	0,017
-312,183	-200,000	-0,013	-0,087
-311,168	-54,285	-0,155	-0,051
-310,153	627,475	-0,075	-0,139
-309,139	-91,254	0,052	0,011
-308,124	800,000	0,057	0,124
-307,110	489,651	-0,031	-0,052
-306,095	284,959	0,029	0,038
-305,080	-24,643	-0,208	0,090
-304,066	171,034	-0,054	0,056
-303,051	65,806	-0,091	-0,067
-302,037	-6,092	0,072	-0,036
-301,022	160,151	0,056	-0,058
-300,008	-200,000	0,012	0,041
-298,993	359,609	-0,067	0,098
-297,978	-13,514	-0,065	0,031
-296,964	-0,346	0,076	-0,039
-295,949	54,375	0,035	-0,024
-294,935	-117,880	0,081	0,011
-293,920	800,000	0,023	0,073
-292,905	-16,963	-0,135	0,062
-291,891	-89,937	0,019	-0,004
-290,876	-121,355	0,108	-0,013
-289,862	800,000	-0,035	-0,094
-288,847	-200,000	-0,011	-0,047
-287,832	-200,000	-0,023	-0,083
-286,818	800,000	-0,025	-0,081
-285,803	701,565	0,045	-0,087
-284,789	399,595	0,066	0,102
-283,774	6,113	-0,069	-0,038
-282,759	705,294	-0,094	0,182
-281,745	107,761	-0,091	-0,079
-280,730	369,460	-0,062	-0,092
-279,716	800,000	-0,042	0,103
-278,701	697,620	-0,018	-0,034
-277,686	0,398	0,136	-0,071
-276,672	-200,000	0,004	0,060
-275,657	273,386	0,047	0,061
-274,643	800,000	-0,015	0,035
-273,628	-65,262	-0,078	0,023
-272,613	-166,177	0,069	0,002
-271,599	62,894	0,102	-0,075
-270,584	-200,000	-0,017	0,101
-269,570	-200,000	-0,005	0,094
-268,555	-192,976	-0,131	-0,001
-267,540	-46,131	0,082	-0,029
-266,526	-200,000	-0,044	-0,143
-265,511	505,359	0,078	-0,133
-264,497	-5,289	0,074	-0,037
-263,482	-200,000	0,038	0,126
-262,467	47,052	0,102	0,069
-261,453	50,104	0,080	0,055
-260,438	-66,308	0,059	-0,017
-259,424	-200,000	-0,033	0,114
-258,409	-200,000	0,016	-0,077
-257,395	125,531	0,103	-0,095
-256,380	-200,000	0,010	-0,050
-255,365	189,170	0,026	0,028
-254,351	-200,000	-0,021	-0,134
-253,336	-160,949	0,048	0,002
-252,322	463,866	0,020	-0,033
-251,307	-38,492	-0,117	-0,045
-250,292	784,583	-0,064	0,129
-249,278	-65,686	0,025	-0,007
-248,263	-200,000	-0,015	-0,053
-247,249	-200,000	0,019	0,235
-246,234	-200,000	0,015	-0,070
-245,219	199,213	0,096	-0,108
-244,205	-200,000	0,006	0,102
-243,190	-200,000	-0,008	-0,048
-242,176	-20,467	0,113	-0,050
-241,161	70,534	0,141	0,106
-240,146	800,000	0,014	-0,046
-239,132	-117,858	-0,118	0,015
-238,117	229,701	0,079	-0,094
-237,103	-200,000	0,010	-0,217
-236,088	-79,473	0,121	-0,030
-235,073	-200,000	-0,020	0,075
-234,059	309,272	0,066	0,090
-233,044	-200,000	0,041	0,188
-232,030	520,908	0,064	-0,110
-231,015	-70,620	-0,111	-0,030
-230,000	-88,455	-0,090	0,019
-228,986	-200,000	-0,006	0,087
-227,971	-200,000	-0,010	0,035
-226,957	800,000	-0,045	0,124
-225,942	184,812	-0,120	0,130
-224,927	631,001	0,016	-0,030
-223,913	44,810	0,086	-0,058
-222,898	52,911	0,080	-0,056
-221,884	-48,751	-0,046	0,016
-220,869	-200,000	-0,009	0,036
-219,855	-40,203	0,097	0,037
-218,840	18,285	0,120	0,070
-217,825	-92,406	-0,215	-0,044
-216,811	249,380	-0,023	-0,028
-215,796	551,010	0,057	-0,101
-214,782	-200,000	-0,002	0,065
-213,767	19,607	0,085	0,050
-212,752	800,000	0,054	-0,127
-211,738	-121,418	0,055	0,007
-210,723	-122,742	-0,100	0,012
-209,709	-40,282	-0,113	-0,043
-208,694	-9,859	0,090	0,044
-207,679	800,000	-0,019	0,053
-206,665	800,000	-0,038	0,086
-205,650	191,041	0,038	-0,042
-204,636	-28,319	0,048	-0,020
-203,621	453,791	-0,083	0,134
-202,606	13,531	-0,067	-0,038
-201,592	800,000	0,045	-0,108
-200,577	107,614	-0,080	-0,070
-199,563	716,491	0,058	0,112
-198,548	800,000	-0,002	0,006
-197,533	-200,000	-0,014	-0,047
-196,519	-200,000	0,025	0,091
-195,504	427,102	-0,026	-0,040
-194,490	800,000	0,049	-0,147
-193,475	301,837	-0,092	0,124
-192,460	-200,000	0,005	0,020
-191,446	251,776	0,091	0,113
-190,431	700,391	-0,070	0,135
-189,417	-200,000	-0,022	0,076
-188,402	-123,344	0,208	0,024
-187,387	-200,000	-0,004	-0,063
-186,373	-82,339	-0,162	-0,038
-185,358	274,837	0,102	0,132
-184,344	800,000	0,013	0,040
-183,329	92,833	0,014	0,011
-182,315	473,706	0,075	0,124
-181,300	-200,000	-0,023	0,189
-180,285	144,404	-0,060	0,058
-179,271	390,567	-0,096	-0,145
-178,256	13,881	-0,133	0,075
-177,242	-71,700	0,149	-0,040
-176,227	-38,205	0,084	0,032
-175,212	697,578	-0,035	0,067
-174,198	-200,000	0,004	0,111
-173,183	800,000	0,012	0,031
-172,169	110,665	-0,050	-0,044
-171,154	251,746	0,060	0,075
-170,139	421,805	-0,092	0,144
-169,125	800,000	-0,036	0,085
-168,110	560,247	-0,063	0,111
-167,096	692,095	0,051	0,097
-166,081	150,980	-0,034	0,033
-165,066	-61,213	-0,063	-0,019
-164,052	800,000	-0,015	0,037
-163,037	-71,769	-0,063	-0,017
-162,023	47,273	0,034	0,023
-161,008	-60,804	0,090	-0,028
-159,993	252,080	-0,036	0,044
-158,979	165,583	-0,086	-0,089
-157,964	-38,091	0,093	0,036
-156,950	-49,660	-0,197	0,068
-155,935	800,000	0,040	0,113
-154,920	-13,483	-0,012	0,006
-153,906	121,647	0,077	-0,070
-152,891	-200,000	0,002	-0,039
-151,877	-200,000	-0,000	0,026
-150,862	-24,689	-0,140	0,060
-149,847	52,345	0,081	0,056
-148,833	251,029	-0,096	0,119
-147,818	502,439	0,051	-0,086
-146,804	-200,000	0,006	-0,039
-145,789	27,043	0,091	0,056
-144,775	-27,940	-0,121	-0,051
-143,760	128,900	0,138	0,128
-142,745	-200,000	-0,006	-0,089
-141,731	104,218	-0,035	-0,030
-140,716	-200,000	0,005	0,048
-139,702	-200,000	-0,020	0,086
-138,687	215,798	0,036	0,042
-137,672	26,886	-0,068	-0,041
-136,658	-19,462	-0,101	-0,046
-135,643	101,386	0,024	-0,020
-134,629	11,901	-0,061	-0,034
-133,614	-74,361	0,032	-0,008
-132,599	190,178	-0,095	0,103
-131,585	15,906	0,096	0,055
-130,570	-79,045	0,032	-0,008
-129,556	-10,520	-0,113	0,054
-128,541	-200,000	-0,002	-0,136
-127,526	800,000	-0,042	-0,097
-126,512	-200,000	0,002	0,026
-125,497	329,280	-0,038	0,053
-124,483	238,391	-0,125	-0,151
-123,468	-130,186	-0,138	-0,014
-122,453	-200,000	0,002	-0,056
-121,439	139,644	0,054	0,051
-120,424	-200,000	0,036	-0,239
-119,410	800,000	0,021	-0,056
