DTS Sentinel unit serial number:	SN410029Multiplexer serial number:	ORYXHardware model number:	OX2-SRSoftware version number:	ORYX F/W v4,00 Oryx Data Collector v3.7.2.0data status	okinstallation	B6 Nyhavnadifferential loss correction	single-endedforward channel	channel 2reverse channel	N/Adate	2023/12/08time	20:25:08forward acquisition time	300,00reverse acquisition time	0,00gamma	499,1914k internal	0,3158k external	0,3158temperature offset calibration	1,0000default loss term (dB/km)	0,3820temperature slope calibration	1,0000multiplexer offset coefficient	1,0000multiplexer slope coefficient	1,0000fibre end	0,00T internal ref (°C)	15,20T ext. ref 1 (°C)	-1,36T ext. ref 2 (°C)	-1,37length (m)	temperature (°C)	Stokes	anti-Stokes-744,400	-79,737	0,147	0,036
-743,385	-130,192	-0,284	0,028
-742,371	-17,000	0,169	0,079
-741,356	-65,326	-0,335	0,099
-740,342	-200,000	0,004	-0,033
-739,327	-104,599	-0,321	-0,054
-738,312	-60,039	0,227	0,071
-737,298	-11,552	-0,321	-0,155
-736,283	331,036	0,060	-0,086
-735,269	-78,028	-0,373	0,094
-734,254	160,528	0,106	0,109
-733,239	-71,074	-0,541	-0,149
-732,225	-29,802	0,097	0,041
-731,210	-5,859	-0,012	0,006
-730,196	23,412	-0,024	0,014
-729,181	-72,326	0,046	0,012
-728,167	800,000	-0,055	-0,124
-727,152	35,099	-0,108	-0,069
-726,137	1,036	-0,091	0,048
-725,123	19,606	-0,078	-0,046
-724,108	4,620	-0,117	0,063
-723,094	150,104	-0,120	-0,120
-722,079	-9,367	0,088	-0,043
-721,064	-150,832	-0,091	0,005
-720,050	-200,000	0,021	0,106
-719,035	47,116	0,060	0,041
-718,021	81,596	0,077	0,062
-717,006	-183,133	-0,089	0,001
-715,991	246,073	-0,032	-0,039
-714,977	151,706	-0,079	0,079
-713,962	-200,000	-0,025	-0,107
-712,948	77,709	0,062	-0,049
-711,933	-67,498	0,060	-0,017
-710,918	800,000	-0,089	-0,190
-709,904	402,098	-0,066	-0,102
-708,889	17,072	-0,050	0,029
-707,875	-98,764	-0,142	0,026
-706,860	-200,000	-0,005	0,056
-705,845	-200,000	-0,012	-0,042
-704,831	157,931	0,015	0,015
-703,816	-200,000	0,059	0,197
-702,802	800,000	-0,043	0,131
-701,787	-8,315	-0,076	-0,037
-700,772	-200,000	-0,015	-0,135
-699,758	275,582	0,071	-0,093
-698,743	725,210	0,036	0,072
-697,729	123,319	0,070	0,065
-696,714	-84,449	0,018	-0,004
-695,699	130,836	0,050	-0,047
-694,685	800,000	-0,018	0,056
-693,670	-46,395	0,081	-0,029
-692,656	-127,103	-0,091	0,010
-691,641	800,000	0,019	-0,052
-690,627	800,000	0,052	-0,130
-689,612	-134,413	-0,111	0,010
-688,597	-200,000	-0,030	-0,108
-687,583	132,678	-0,115	-0,109
-686,568	-89,597	-0,109	0,023
-685,554	747,631	-0,057	-0,113
-684,539	485,619	0,061	-0,103
-683,524	93,687	-0,037	0,031
-682,510	176,802	0,018	-0,019
-681,495	800,000	0,036	0,089
-680,481	-200,000	0,019	-0,114
-679,466	-133,097	0,031	-0,003
-678,451	-96,626	-0,189	-0,036
-677,437	590,627	0,076	-0,139
-676,422	286,077	0,072	-0,095
-675,408	231,889	0,017	0,021
-674,393	493,078	-0,009	0,016
-673,378	49,402	-0,082	0,057
-672,364	295,485	0,063	0,085
-671,349	-36,890	-0,042	0,016
-670,335	-121,954	-0,060	-0,007
-669,320	-200,000	0,015	-0,066
-668,305	539,893	-0,087	0,152
-667,291	-168,913	-0,113	0,003
-666,276	-110,264	-0,158	-0,024
-665,262	484,683	0,016	-0,027
-664,247	58,701	-0,020	-0,014
-663,232	800,000	0,047	-0,117
-662,218	-61,344	0,132	0,041
-661,203	11,236	-0,097	0,054
-660,189	-200,000	0,006	0,033
-659,174	114,678	-0,050	0,045
-658,159	-200,000	-0,014	-0,061
-657,145	800,000	0,047	-0,098
-656,130	-6,358	0,064	-0,032
-655,116	628,735	0,030	0,056
-654,101	699,515	0,051	0,100
-653,086	168,088	0,171	0,179
-652,072	87,807	-0,093	0,076
-651,057	-200,000	0,005	-0,143
-650,043	291,553	0,022	0,029
-649,028	-200,000	-0,016	-0,061
-648,014	22,269	-0,070	-0,042
-646,999	-200,000	0,012	0,055
-645,984	475,881	0,046	0,076
-644,970	-200,000	-0,008	-0,084
-643,955	-68,356	-0,041	0,012
-642,941	-12,929	-0,170	0,081
-641,926	800,000	-0,093	-0,223
-640,911	800,000	0,016	0,040
-639,897	-200,000	-0,004	0,079
-638,882	21,018	0,106	-0,063
-637,868	-49,250	-0,112	-0,039
-636,853	299,375	0,036	-0,049
-635,838	-200,000	0,057	0,216
-634,824	373,768	0,070	-0,105
-633,809	8,818	-0,117	0,065
-632,795	352,269	-0,051	0,075
-631,780	-1,703	-0,048	0,025
-630,765	-10,598	0,102	-0,050
-629,751	-83,952	0,024	0,006
-628,736	-150,189	-0,045	0,003
-627,722	-118,386	-0,038	-0,005
-626,707	800,000	0,054	-0,157
-625,692	-66,522	0,184	0,053
-624,678	-200,000	-0,036	0,164
-623,663	139,299	-0,025	0,024
-622,649	-75,367	-0,041	0,011
-621,634	800,000	-0,019	0,041
-620,619	-21,366	-0,081	0,036
-619,605	800,000	0,023	-0,059
-618,590	-200,000	0,005	-0,090
-617,576	-91,599	-0,121	0,025
-616,561	-152,758	0,057	0,003
-615,546	800,000	-0,058	-0,134
-614,532	93,376	-0,056	-0,047
-613,517	-200,000	0,010	-0,076
-612,503	-200,000	-0,005	0,043
-611,488	-72,007	0,110	-0,030
-610,474	-25,930	-0,106	0,046
-609,459	85,684	-0,053	-0,043
-608,444	175,285	-0,030	0,032
-607,430	-102,321	0,081	-0,014
-606,415	-200,000	-0,009	-0,106
-605,401	-0,671	-0,061	-0,031
-604,386	-200,000	0,003	-0,035
-603,371	-58,804	-0,064	0,020
-602,357	-31,093	0,025	-0,010
-601,342	-200,000	-0,009	0,054
-600,328	-107,091	-0,094	0,015
-599,313	-200,000	0,007	-0,031
-598,298	19,981	0,062	-0,037
-597,284	312,362	0,063	0,087
-596,269	-177,545	-0,057	0,001
-595,255	192,257	0,037	0,041
-594,240	800,000	0,040	0,126
-593,225	-8,924	-0,203	-0,100
-592,211	8,918	-0,112	-0,062
-591,196	-15,211	-0,076	-0,036
-590,182	581,415	0,041	0,073
-589,167	635,169	-0,040	0,075
-588,152	31,024	-0,035	-0,022
-587,138	533,222	0,064	0,111
-586,123	-12,201	-0,124	-0,059
-585,109	24,601	0,169	0,102
-584,094	217,830	-0,065	-0,077
-583,079	268,791	0,044	-0,057
-582,065	800,000	0,038	-0,116
-581,050	510,276	0,041	0,069
-580,036	-112,024	-0,219	0,032
-579,021	-85,330	-0,047	0,011
-578,006	316,077	0,035	0,048
-576,992	42,905	-0,075	-0,050
-575,977	-63,554	0,113	-0,034
-574,963	102,472	-0,162	0,139
-573,948	201,221	0,060	0,068
-572,934	-108,080	-0,020	-0,003
-571,919	23,185	-0,034	0,020
-570,904	-21,317	-0,060	-0,027
-569,890	-200,000	0,025	0,173
-568,875	146,039	0,057	-0,056
-567,861	-200,000	-0,001	0,015
-566,846	336,753	0,061	0,086
-565,831	-200,000	0,008	-0,118
-564,817	-43,876	-0,123	-0,045
-563,802	-144,643	-0,039	0,003
-562,788	800,000	-0,015	0,035
-561,773	-55,915	-0,035	-0,011
-560,758	-185,177	0,161	-0,002
-559,744	-50,404	-0,130	0,045
-558,729	235,347	0,057	0,069
-557,715	152,942	0,058	0,058
-556,700	800,000	-0,030	-0,092
-555,685	401,472	0,023	-0,036
-554,671	-21,860	0,132	-0,058
-553,656	15,491	0,019	0,011
-552,642	180,106	-0,023	0,025
-551,627	173,292	-0,023	0,024
-550,612	148,207	-0,135	-0,134
-549,598	89,446	-0,047	-0,038
-548,583	-200,000	-0,013	-0,053
-547,569	225,098	0,029	0,034
-546,554	308,485	0,031	0,042
-545,539	-200,000	0,007	0,089
-544,525	318,583	0,037	-0,051
-543,510	346,719	-0,048	0,069
-542,496	144,716	-0,103	-0,101
-541,481	-46,773	-0,068	-0,024
-540,466	57,519	-0,147	-0,105
-539,452	800,000	0,036	-0,085
-538,437	-94,540	0,075	-0,015
-537,423	559,156	-0,059	-0,104
-536,408	-1,745	-0,043	-0,022
-535,393	-43,972	-0,085	-0,031
-534,379	18,797	-0,139	-0,081
-533,364	800,000	-0,015	-0,035
-532,350	-200,000	-0,017	-0,085
-531,335	-77,470	0,094	-0,024
-530,321	-144,715	-0,094	-0,006
-529,306	15,973	0,070	-0,040
-528,291	-200,000	-0,022	-0,104
-527,277	-150,721	-0,038	0,002
-526,262	793,576	0,011	0,023
-525,248	7,785	-0,036	0,020
-524,233	483,879	0,063	0,104
-523,218	-48,414	0,022	0,008
-522,204	356,592	0,037	0,054
-521,189	116,641	-0,106	-0,095
-520,175	-101,669	0,061	-0,011
-519,160	489,386	-0,075	0,126
-518,145	27,115	0,114	-0,070
-517,131	-200,000	-0,001	-0,049
-516,116	6,442	0,122	0,066
-515,102	-200,000	-0,014	0,109
-514,087	-115,562	0,009	0,001
-513,072	-68,924	0,056	0,016
-512,058	587,621	0,003	-0,006
-511,043	-200,000	0,003	-0,119
-510,029	-22,735	-0,144	0,063
-509,014	-200,000	-0,001	-0,074
-507,999	633,442	0,025	0,047
-506,985	481,083	-0,037	0,061
-505,970	554,697	-0,017	-0,030
-504,956	-161,450	-0,017	-0,001
-503,941	147,895	-0,051	0,050
-502,926	222,360	-0,021	-0,024
-501,912	-200,000	0,037	-0,129
-500,897	544,178	-0,052	0,091
-499,883	243,325	0,155	0,190
-498,868	177,753	-0,046	0,049
-497,853	336,729	0,084	-0,119
-496,839	30,546	0,083	-0,052
-495,824	-200,000	-0,001	0,100
-494,810	-31,332	0,006	0,002
-493,795	75,124	-0,088	0,068
-492,781	-178,250	0,095	-0,002
-491,766	-81,366	-0,044	0,011
-490,751	-94,914	-0,162	-0,032
-489,737	-6,953	0,172	-0,085
-488,722	371,214	0,058	0,087
-487,708	-200,000	0,017	0,104
-486,693	20,546	-0,051	0,030
-485,678	800,000	0,019	-0,044
-484,664	-171,297	-0,084	-0,002
-483,649	-80,716	0,054	0,013
-482,635	129,261	0,069	0,064
-481,620	-126,690	-0,107	-0,011
-480,605	-200,000	0,009	0,065
-479,591	-200,000	-0,021	0,101
-478,576	-7,013	0,044	-0,022
-477,562	-118,207	0,063	-0,008
-476,547	47,825	-0,040	-0,027
-475,532	-200,000	0,019	-0,077
-474,518	64,271	0,208	0,152
-473,503	177,947	0,041	0,044
-472,489	-154,105	-0,054	0,003
-471,474	-100,345	0,109	0,020
-470,459	19,600	-0,115	0,067
-469,445	-200,000	0,005	-0,104
-468,430	371,789	0,047	0,070
-467,416	800,000	-0,039	-0,086
-466,401	-139,425	0,094	0,007
-465,386	-200,000	0,011	-0,065
-464,372	-39,786	-0,073	0,028
-463,357	800,000	-0,050	-0,141
-462,343	-112,418	-0,084	-0,012
-461,328	800,000	-0,019	0,062
-460,313	82,344	-0,095	-0,075
-459,299	-51,720	0,071	-0,024
-458,284	82,620	0,132	0,104
-457,270	-200,000	0,012	-0,062
-456,255	-200,000	-0,018	-0,061
-455,241	743,123	-0,047	-0,093
-454,226	73,455	0,107	-0,082
-453,211	-200,000	0,001	0,005
-452,197	-200,000	-0,008	-0,057
-451,182	181,933	-0,049	-0,053
-450,168	-200,000	0,015	-0,064
-449,153	82,937	0,035	-0,028
-448,138	-200,000	-0,010	-0,075
-447,124	-22,140	-0,155	-0,068
-446,109	-200,000	-0,014	0,078
-445,095	739,857	-0,035	-0,070
-444,080	115,476	0,055	0,049
-443,065	-200,000	-0,029	0,095
-442,051	-200,000	-0,001	-0,050
-441,036	102,078	-0,156	-0,133
-440,022	31,252	0,120	0,075
-439,007	17,707	0,114	0,066
-437,992	223,401	0,033	0,039
-436,978	800,000	-0,018	-0,051
-435,963	265,577	-0,038	-0,049
-434,949	800,000	-0,025	-0,079
-433,934	300,928	-0,141	0,191
-432,919	-1,978	-0,040	-0,020
-431,905	-132,490	0,136	0,013
-430,890	-138,437	-0,089	0,007
-429,876	-200,000	-0,013	0,084
-428,861	800,000	-0,014	-0,039
-427,846	51,919	-0,139	-0,096
-426,832	-124,169	-0,083	-0,009
-425,817	286,570	-0,007	-0,009
-424,803	44,466	-0,057	0,038
-423,788	-106,612	0,159	0,026
-422,773	180,229	-0,057	0,060
-421,759	-112,948	0,066	0,009
-420,744	85,957	-0,107	0,085
-419,730	-106,351	0,053	-0,009
-418,715	-41,493	-0,085	0,032
-417,701	327,656	0,012	-0,017
-416,686	-40,797	-0,122	0,046
-415,671	-146,551	0,066	0,004
-414,657	30,708	0,149	0,093
-413,642	37,585	-0,062	-0,040
-412,628	-200,000	0,025	0,143
-411,613	628,288	-0,067	-0,123
-410,598	-200,000	0,007	-0,060
-409,584	-200,000	0,140	0,000
-408,569	53,547	0,020	0,014
-407,555	-200,000	0,002	-0,065
-406,540	800,000	0,007	0,018
-405,525	596,603	-0,105	-0,189
-404,511	187,072	-0,025	-0,027
-403,496	174,698	-0,061	-0,064
-402,482	-200,000	0,018	0,147
-401,467	800,000	0,020	0,064
-400,452	-200,000	-0,002	0,078
-399,438	-175,523	0,054	-0,001
-398,423	-97,967	-0,046	-0,008
-397,409	10,043	-0,080	-0,044
-396,394	5,958	0,090	0,048
-395,379	-29,133	-0,092	-0,038
-394,365	-179,145	0,112	0,002
-393,350	90,495	-0,065	0,053
-392,336	231,457	0,102	0,122
-391,321	112,182	-0,076	0,067
-390,306	-140,861	-0,102	-0,008
-389,292	323,555	0,054	0,075
-388,277	10,866	0,030	0,016
-387,263	757,986	0,038	0,076
-386,248	-200,000	-0,005	0,056
-385,233	800,000	0,056	-0,114
-384,219	181,772	0,038	-0,040
-383,204	-200,000	-0,015	0,086
-382,190	-133,524	-0,068	0,006
-381,175	138,102	0,095	-0,090
-380,160	800,000	-0,035	0,085
-379,146	311,346	0,008	0,010
-378,131	796,513	-0,033	-0,065
-377,117	-200,000	-0,005	0,072
-376,102	190,071	0,098	0,107
-375,088	800,000	-0,004	0,008
-374,073	-119,574	-0,049	-0,006
-373,058	15,146	0,093	0,053
-372,044	22,327	-0,078	0,046
-371,029	267,864	0,057	-0,073
-370,015	-200,000	0,022	0,185
-369,000	38,418	0,132	-0,085
-367,985	-200,000	-0,009	-0,039
-366,971	-127,171	-0,090	0,009
-365,956	83,913	0,107	0,085
-364,942	420,001	0,088	0,137
-363,927	-84,842	0,073	-0,016
-362,912	164,224	0,059	-0,060
-361,898	271,927	0,049	0,063
-360,883	-45,485	-0,087	-0,031
-359,869	120,467	-0,096	-0,087
-358,854	-200,000	0,013	-0,074
-357,839	-33,678	-0,076	0,031
-356,825	27,668	0,116	0,071
-355,810	26,457	0,050	0,030
-354,796	518,971	-0,036	-0,061
-353,781	-19,471	0,030	-0,013
-352,766	68,324	-0,037	0,028
-351,752	-147,929	0,110	-0,007
-350,737	159,095	-0,094	0,095
-349,723	4,501	-0,116	0,062
-348,708	-200,000	0,012	-0,103
-347,693	36,082	-0,061	-0,039
-346,679	-200,000	0,025	-0,095
-345,664	-200,000	0,028	-0,146
-344,650	-200,000	-0,011	0,037
-343,635	-200,000	0,011	0,170
-342,620	-95,919	0,052	-0,010
-341,606	658,566	-0,077	0,145
-340,591	-18,625	-0,088	0,040
-339,577	35,336	0,062	-0,039
-338,562	94,158	-0,077	-0,063
-337,548	-144,116	-0,091	-0,006
-336,533	14,445	-0,125	0,071
-335,518	-200,000	-0,010	-0,058
-334,504	89,313	-0,027	-0,022
-333,489	-162,066	-0,059	0,002
-332,475	-75,032	0,074	-0,019
-331,460	-200,000	0,033	-0,134
-330,445	129,162	-0,081	0,075
-329,431	-54,315	0,036	-0,012
-328,416	19,316	0,184	0,107
-327,402	550,804	0,025	-0,044
-326,387	577,454	0,018	-0,032
-325,372	800,000	-0,040	-0,098
-324,358	-200,000	-0,000	-0,107
-323,343	-25,674	-0,131	-0,056
-322,329	-200,000	0,015	0,058
-321,314	-126,091	0,148	0,016
-320,299	-46,830	0,031	-0,011
-319,285	-15,144	0,066	0,030
-318,270	-59,952	-0,141	0,044
-317,256	-84,205	0,073	-0,017
-316,241	-200,000	0,030	-0,097
-315,226	-89,131	-0,054	-0,012
-314,212	800,000	0,010	0,025
-313,197	40,662	0,087	-0,057
-312,183	101,953	-0,123	0,104
-311,168	77,527	-0,027	0,021
-310,153	800,000	-0,024	-0,057
-309,139	-91,070	0,081	0,017
-308,124	-114,469	0,023	-0,003
-307,110	39,748	0,073	-0,048
-306,095	-73,550	0,140	0,037
-305,080	-163,625	0,124	-0,004
-304,066	658,860	0,046	0,085
-303,051	-35,818	-0,156	-0,061
-302,037	-200,000	0,030	0,144
-301,022	-135,269	0,129	0,011
-300,008	-79,319	0,065	-0,016
-298,993	753,254	0,035	-0,069
-297,978	-34,357	0,084	0,033
-296,964	8,108	-0,067	0,036
-295,949	-43,227	-0,113	-0,041
-294,935	270,454	-0,049	0,063
-293,920	179,701	0,108	-0,115
-292,905	-23,120	0,042	-0,018
-291,891	30,185	-0,009	0,005
-290,876	-200,000	-0,024	0,123
-289,862	99,302	0,076	0,064
-288,847	-78,367	0,036	0,009
-287,832	-55,102	-0,083	-0,027
-286,818	268,137	0,068	0,086
-285,803	-22,692	0,087	0,038
-284,789	-80,632	0,089	-0,021
-283,774	800,000	0,009	0,020
-282,759	-140,672	0,119	0,009
-281,745	-80,910	0,018	-0,004
-280,730	-200,000	-0,058	0,208
-279,716	102,269	0,074	0,063
-278,701	288,599	0,079	0,103
-277,686	-200,000	0,011	0,209
-276,672	-110,319	0,127	0,019
-275,657	-200,000	0,005	-0,103
-274,643	48,082	-0,210	-0,142
-273,628	-123,264	0,100	-0,011
-272,613	177,604	-0,060	-0,063
-271,599	-200,000	-0,007	0,042
-270,584	149,119	0,070	0,069
-269,570	-58,291	0,139	0,044
-268,555	-200,000	-0,003	-0,091
-267,540	-123,115	-0,151	0,017
-266,526	-200,000	0,004	-0,053
-265,511	-17,317	0,060	0,027
-264,497	-200,000	0,003	-0,020
-263,482	-200,000	0,019	0,118
-262,467	-200,000	-0,001	0,040
-261,453	800,000	-0,015	0,041
-260,438	-200,000	0,023	-0,082
-259,424	-200,000	0,007	-0,049
-258,409	113,804	-0,065	-0,057
-257,395	86,189	0,053	-0,043
-256,380	-64,751	-0,022	0,006
-255,365	54,352	0,118	0,082
-254,351	-59,304	-0,049	-0,015
-253,336	-127,165	-0,096	0,010
-252,322	307,840	0,032	-0,043
-251,307	136,889	-0,091	0,086
-250,292	269,299	-0,054	-0,068
-249,278	-200,000	0,031	0,210
-248,263	182,986	0,072	0,077
-247,249	-93,484	-0,107	-0,021
-246,234	101,276	0,047	0,040
-245,219	-137,717	0,107	0,009
-244,205	191,055	0,106	-0,116
-243,190	800,000	0,041	-0,098
-242,176	246,199	-0,056	-0,069
-241,161	-143,354	0,042	0,003
-240,146	-138,583	0,107	-0,008
-239,132	-34,100	0,194	0,077
-238,117	370,718	0,032	0,047
-237,103	800,000	-0,077	-0,219
-236,088	-112,790	0,052	0,007
-235,073	800,000	0,028	-0,070
-234,059	-76,966	-0,030	0,007
-233,044	-22,095	-0,034	0,015
-232,030	165,409	-0,073	-0,075
-231,015	800,000	0,038	-0,097
-230,000	252,814	0,069	-0,085
-228,986	800,000	-0,021	0,046
-227,971	315,655	-0,062	0,084
-226,957	-110,392	0,072	0,011
-225,942	800,000	0,012	-0,027
-224,927	135,910	-0,081	-0,076
-223,913	37,298	0,058	0,037
-222,898	-200,000	-0,008	-0,058
-221,884	233,125	0,056	-0,067
-220,869	-200,000	0,008	-0,085
-219,855	-200,000	0,006	-0,033
-218,840	-200,000	-0,018	0,064
-217,825	-200,000	-0,008	-0,060
-216,811	-200,000	-0,020	0,072
-215,796	674,350	-0,028	-0,053
-214,782	-200,000	-0,003	-0,071
-213,767	126,670	-0,103	0,094
-212,752	377,282	-0,052	-0,077
-211,738	800,000	-0,016	0,038
-210,723	-31,135	-0,096	0,039
-209,709	353,369	-0,035	0,051
-208,694	481,564	0,076	-0,126
-207,679	-200,000	0,020	-0,110
-206,665	-97,484	-0,163	0,030
-205,650	-200,000	0,006	0,064
-204,636	-190,657	0,119	0,001
-203,621	-200,000	0,011	0,043
-202,606	-200,000	0,012	-0,038
-201,592	800,000	-0,020	-0,061
-200,577	-200,000	0,015	-0,150
-199,563	27,670	0,033	-0,020
-198,548	-200,000	-0,007	-0,107
-197,533	-200,000	-0,010	-0,092
-196,519	39,445	-0,058	0,037
-195,504	-47,589	0,057	-0,020
-194,490	-111,228	0,022	-0,003
-193,475	27,485	0,010	-0,006
-192,460	-200,000	-0,006	0,061
-191,446	110,499	0,058	-0,050
-190,431	-43,856	-0,035	0,013
-189,417	110,547	0,108	-0,093
-188,402	-88,238	-0,038	-0,008
-187,387	114,290	-0,035	-0,031
-186,373	-3,287	-0,110	-0,055
-185,358	625,919	0,085	0,155
-184,344	800,000	0,021	-0,061
-183,329	-200,000	-0,013	0,063
-182,315	303,640	0,073	-0,098
-181,300	-51,307	-0,034	0,011
-180,285	179,987	-0,061	-0,065
-179,271	-200,000	0,011	-0,178
-178,256	11,906	0,075	-0,041
-177,242	-169,797	0,057	0,001
-176,227	-200,000	-0,005	0,120
-175,212	448,915	0,039	0,063
-174,198	186,351	-0,057	-0,061
-173,183	130,025	-0,083	-0,076
-172,169	3,429	-0,128	-0,067
-171,154	800,000	0,020	0,044
-170,139	-6,555	0,021	-0,010
-169,125	21,273	-0,015	0,008
-168,110	383,451	0,073	-0,109
-167,096	-99,993	-0,108	-0,019
-166,081	106,695	-0,102	0,087
-165,066	36,225	0,063	0,040
-164,052	-24,655	0,096	0,041
-163,037	190,433	0,054	0,058
-162,023	800,000	-0,040	0,116
-161,008	517,488	0,069	0,117
-159,993	268,820	0,038	0,049
-158,979	-200,000	-0,009	-0,056
-157,964	800,000	-0,012	-0,035
-156,950	-25,927	-0,036	-0,015
-155,935	-25,613	0,101	0,043
-154,920	-200,000	0,041	0,206
-153,906	111,754	0,066	0,057
-152,891	-78,370	-0,087	-0,021
-151,877	-200,000	-0,007	-0,099
-150,862	-67,536	-0,101	-0,028
-149,847	107,219	0,077	-0,066
-148,833	-200,000	0,086	-0,000
-147,818	112,779	0,040	-0,035
-146,804	-200,000	0,036	-0,163
-145,789	-151,927	0,105	0,005
-144,775	589,222	0,062	0,110
-143,760	783,530	0,039	-0,077
-142,745	-200,000	0,012	-0,078
-141,731	-200,000	0,017	-0,114
-140,716	-200,000	0,019	-0,171
-139,702	272,810	-0,036	-0,046
-138,687	542,242	-0,010	-0,017
-137,672	-108,702	0,252	0,038
-136,658	114,064	0,027	0,024
-135,643	24,669	-0,046	0,027
-134,629	-200,000	0,008	0,148
-133,614	-72,567	0,087	0,023
-132,599	-112,553	0,019	-0,003
-131,585	-200,000	-0,012	0,095
-130,570	2,255	-0,099	0,052
-129,556	-10,548	0,071	0,034
-128,541	266,542	-0,071	0,090
-127,526	-200,000	0,030	-0,100
-126,512	800,000	0,040	0,096
-125,497	10,843	0,069	0,038
-124,483	358,278	-0,115	0,166
-123,468	-6,105	0,130	0,064
-122,453	66,346	-0,051	0,037
-121,439	800,000	-0,035	-0,084
-120,424	642,571	-0,077	-0,142
-119,410	76,646	-0,062	0,047
-118,395	-200,000	-0,010	0,072
