DTS Sentinel unit serial number:	SN410029Multiplexer serial number:	ORYXHardware model number:	OX2-SRSoftware version number:	ORYX F/W v4,00 Oryx Data Collector v3.7.2.0data status	okinstallation	B6 Nyhavnadifferential loss correction	single-endedforward channel	channel 2reverse channel	N/Adate	2023/12/07time	17:35:08forward acquisition time	300,00reverse acquisition time	0,00gamma	499,1914k internal	0,3164k external	0,3164temperature offset calibration	1,0000default loss term (dB/km)	0,3820temperature slope calibration	1,0000multiplexer offset coefficient	1,0000multiplexer slope coefficient	1,0000fibre end	0,00T internal ref (°C)	14,43T ext. ref 1 (°C)	-2,49T ext. ref 2 (°C)	-2,49length (m)	temperature (°C)	Stokes	anti-Stokes-744,400	-117,765	-0,027	0,004
-743,385	-165,042	-0,179	-0,006
-742,371	3,792	0,089	0,048
-741,356	-35,838	-0,134	-0,053
-740,342	210,084	0,057	0,066
-739,327	-77,325	-0,284	-0,072
-738,312	-39,918	0,125	-0,048
-737,298	-163,042	-0,312	0,011
-736,283	-38,748	0,066	0,026
-735,269	-140,028	-0,308	0,024
-734,254	-23,082	0,108	0,047
-733,239	24,735	-0,432	-0,263
-732,225	-138,668	0,234	0,019
-731,210	267,035	0,058	0,074
-730,196	-108,212	-0,095	0,015
-729,181	800,000	-0,011	-0,033
-728,167	-200,000	-0,001	-0,097
-727,152	-200,000	-0,001	-0,103
-726,137	-200,000	0,002	0,034
-725,123	800,000	0,045	-0,110
-724,108	-18,101	-0,061	-0,028
-723,094	197,382	-0,073	-0,082
-722,079	-70,403	-0,173	-0,048
-721,064	-80,590	-0,168	0,041
-720,050	686,667	0,031	-0,061
-719,035	-148,784	-0,029	0,002
-718,021	-31,554	-0,111	0,046
-717,006	-45,863	-0,158	-0,057
-715,991	82,554	-0,105	-0,084
-714,977	54,942	-0,103	-0,073
-713,962	133,184	0,077	0,073
-712,948	-200,000	0,009	-0,154
-711,933	44,360	0,047	0,032
-710,918	-81,835	0,096	-0,023
-709,904	-72,011	-0,110	-0,030
-708,889	336,130	0,058	-0,084
-707,875	123,726	-0,060	-0,055
-706,860	-200,000	-0,010	-0,149
-705,845	-200,000	0,012	-0,097
-704,831	262,395	-0,055	0,070
-703,816	290,592	-0,064	0,085
-702,802	800,000	-0,041	-0,129
-701,787	-200,000	-0,016	-0,088
-700,772	-172,636	-0,172	0,004
-699,758	88,605	0,115	0,094
-698,743	800,000	-0,041	0,129
-697,729	-62,452	0,014	-0,004
-696,714	160,330	0,105	0,108
-695,699	-119,945	0,104	0,013
-694,685	161,006	-0,105	-0,108
-693,670	502,028	-0,041	0,069
-692,656	-157,278	0,032	0,001
-691,641	280,989	-0,052	0,069
-690,627	187,197	-0,106	0,116
-689,612	86,359	-0,133	0,108
-688,597	6,281	-0,068	-0,037
-687,583	-41,037	0,082	-0,031
-686,568	-200,000	0,060	-0,207
-685,554	43,226	-0,057	-0,038
-684,539	357,008	-0,046	0,067
-683,524	-200,000	-0,005	-0,036
-682,510	140,832	-0,050	-0,049
-681,495	400,477	-0,087	-0,134
-680,481	-50,519	-0,173	-0,060
-679,466	148,597	-0,087	-0,086
-678,451	-94,109	-0,051	-0,010
-677,437	800,000	-0,041	-0,106
-676,422	-130,943	0,089	0,009
-675,408	800,000	-0,050	0,126
-674,393	-200,000	0,000	0,058
-673,378	800,000	-0,046	-0,137
-672,364	-70,424	-0,069	0,019
-671,349	2,028	-0,205	0,108
-670,335	412,349	0,016	-0,025
-669,320	-200,000	0,009	-0,045
-668,305	1,095	-0,096	0,051
-667,291	280,431	-0,007	0,009
-666,276	4,593	-0,222	-0,119
-665,262	102,671	-0,122	-0,105
-664,247	800,000	-0,041	-0,125
-663,232	-16,925	-0,024	-0,011
-662,218	-55,293	0,081	-0,027
-661,203	800,000	-0,066	0,145
-660,189	3,595	-0,112	0,060
-659,174	-121,400	-0,052	0,006
-658,159	-102,010	0,064	-0,011
-657,145	266,441	-0,047	-0,060
-656,130	155,695	0,047	-0,048
-655,116	-200,000	0,006	0,061
-654,101	209,260	0,068	-0,078
-653,086	800,000	0,052	0,156
-652,072	-14,586	-0,108	-0,051
-651,057	-86,192	-0,068	-0,015
-650,043	48,678	-0,074	0,051
-649,028	-200,000	-0,049	-0,000
-648,014	-199,279	0,055	0,000
-646,999	-43,971	-0,073	0,027
-645,984	800,000	-0,029	-0,075
-644,970	414,893	0,017	0,027
-643,955	-79,745	0,030	0,007
-642,941	198,017	-0,035	-0,040
-641,926	424,728	0,083	0,131
-640,911	-200,000	0,026	-0,114
-639,897	64,673	0,151	0,111
-638,882	-76,605	-0,051	0,013
-637,868	-35,198	-0,170	-0,068
-636,853	-200,000	-0,040	-0,148
-635,838	-200,000	-0,010	-0,184
-634,824	-200,000	-0,008	-0,029
-633,809	155,125	0,033	0,034
-632,795	-66,751	-0,120	0,035
-631,780	175,287	0,037	-0,040
-630,765	41,987	0,138	-0,091
-629,751	569,036	-0,067	-0,121
-628,736	196,636	-0,096	0,108
-627,722	299,604	-0,032	-0,043
-626,707	149,336	0,053	0,052
-625,692	-37,017	-0,053	-0,021
-624,678	800,000	0,012	0,038
-623,663	-145,890	-0,064	0,004
-622,649	143,128	0,077	-0,075
-621,634	800,000	0,035	-0,088
-620,619	238,891	-0,064	-0,078
-619,605	-80,165	-0,024	0,006
-618,590	247,122	0,044	-0,055
-617,576	76,830	0,084	0,065
-616,561	-35,104	0,133	-0,053
-615,546	-76,192	-0,047	0,012
-614,532	-200,000	-0,049	-0,170
-613,517	43,158	0,020	0,013
-612,503	-11,864	0,109	-0,052
-611,488	158,861	-0,123	-0,125
-610,474	286,754	-0,091	0,120
-609,459	-200,000	-0,008	0,159
-608,444	777,888	0,030	0,061
-607,430	158,340	0,058	-0,059
-606,415	177,821	-0,120	0,128
-605,401	-200,000	0,000	0,043
-604,386	-38,467	0,100	0,038
-603,371	-200,000	0,015	0,104
-602,357	105,584	-0,134	-0,116
-601,342	-48,062	-0,077	-0,027
-600,328	76,576	-0,107	-0,083
-599,313	800,000	-0,022	-0,063
-598,298	-113,663	0,047	0,007
-597,284	18,224	0,096	0,056
-596,269	-83,557	0,072	0,017
-595,255	-52,272	-0,049	0,017
-594,240	800,000	-0,046	0,127
-593,225	-200,000	0,018	-0,175
-592,211	-200,000	0,004	-0,040
-591,196	8,819	-0,086	0,047
-590,182	121,239	0,059	-0,054
-589,167	-200,000	0,001	-0,014
-588,152	-174,680	0,142	0,003
-587,138	-65,734	-0,097	0,028
-586,123	-200,000	-0,006	-0,026
-585,109	2,025	-0,060	0,032
-584,094	108,429	0,119	0,104
-583,079	-200,000	-0,016	0,100
-582,065	567,548	0,116	0,207
-581,050	-91,117	0,152	-0,032
-580,036	170,147	-0,078	0,082
-579,021	-200,000	0,004	-0,108
-578,006	284,892	0,070	-0,092
-576,992	81,242	0,015	0,012
-575,977	685,813	0,081	-0,155
-574,963	278,146	0,042	-0,055
-573,948	120,816	0,041	0,038
-572,934	800,000	-0,073	-0,160
-571,919	800,000	0,016	-0,038
-570,904	-55,965	-0,054	0,017
-569,890	318,469	0,081	-0,112
-568,875	-200,000	0,006	0,155
-567,861	-83,457	0,086	0,020
-566,846	-200,000	-0,022	-0,075
-565,831	-31,632	-0,087	0,036
-564,817	-145,387	-0,196	0,013
-563,802	61,017	0,051	0,037
-562,788	800,000	0,058	-0,118
-561,773	-109,102	-0,092	0,014
-560,758	-12,801	-0,027	0,013
-559,744	7,022	-0,027	-0,014
-558,729	-110,548	-0,056	-0,008
-557,715	800,000	-0,031	-0,096
-556,700	800,000	-0,041	-0,098
-555,685	-21,263	0,103	-0,046
-554,671	51,294	-0,093	0,064
-553,656	706,117	-0,025	0,048
-552,642	-127,605	0,092	0,010
-551,627	150,747	-0,035	-0,035
-550,612	-21,424	0,098	0,043
-549,598	404,494	-0,031	-0,048
-548,583	-93,179	-0,066	0,013
-547,569	-82,811	-0,056	0,013
-546,554	-200,000	-0,007	0,111
-545,539	386,106	-0,052	0,079
-544,525	-16,765	0,120	-0,055
-543,510	128,424	-0,019	-0,018
-542,496	149,625	0,045	-0,044
-541,481	-200,000	-0,001	0,022
-540,466	228,411	0,039	-0,046
-539,452	259,318	0,045	-0,057
-538,437	538,577	0,049	0,085
-537,423	-185,679	0,054	-0,001
-536,408	-200,000	-0,003	0,017
-535,393	443,466	-0,034	-0,055
-534,379	-200,000	0,005	-0,076
-533,364	-200,000	-0,000	-0,079
-532,350	-200,000	0,005	0,034
-531,335	-40,437	0,098	0,037
-530,321	800,000	-0,005	-0,014
-529,306	-200,000	-0,049	-0,162
-528,291	-43,245	-0,107	-0,039
-527,277	800,000	-0,027	-0,075
-526,262	287,780	0,031	-0,041
-525,248	-22,057	0,048	0,021
-524,233	-200,000	0,013	0,196
-523,218	712,950	0,060	-0,117
-522,204	-10,461	0,098	0,047
-521,189	121,857	-0,100	0,091
-520,175	-200,000	0,025	-0,116
-519,160	176,712	0,059	-0,063
-518,145	-11,213	0,101	0,048
-517,131	372,858	-0,093	0,139
-516,116	482,475	-0,041	0,067
-515,102	19,278	-0,026	-0,015
-514,087	-200,000	0,039	-0,154
-513,072	-200,000	-0,015	-0,054
-512,058	-42,858	0,132	0,048
-511,043	-122,213	-0,104	-0,012
-510,029	92,310	0,095	0,078
-509,014	14,556	0,074	-0,042
-507,999	-200,000	-0,017	0,057
-506,985	-200,000	-0,015	-0,058
-505,970	800,000	0,002	-0,006
-504,956	152,918	-0,051	-0,051
-503,941	800,000	-0,032	0,069
-502,926	-70,789	0,097	0,027
-501,912	-77,786	-0,077	0,019
-500,897	44,289	-0,084	0,056
-499,883	69,511	-0,170	0,127
-498,868	-88,679	-0,106	-0,023
-497,853	800,000	0,034	-0,089
-496,839	-162,164	-0,085	-0,003
-495,824	158,820	0,031	-0,031
-494,810	800,000	-0,078	0,171
-493,795	-200,000	0,012	0,058
-492,781	495,967	-0,075	-0,126
-491,766	-200,000	0,008	0,066
-490,751	262,784	-0,066	-0,083
-489,737	-147,617	-0,098	0,006
-488,722	-76,368	0,055	0,014
-487,708	800,000	-0,017	0,048
-486,693	-169,062	-0,140	-0,004
-485,678	181,251	0,067	0,072
-484,664	-44,941	0,074	-0,027
-483,649	-200,000	-0,010	-0,048
-482,635	-200,000	0,006	-0,155
-481,620	27,918	-0,050	0,031
-480,605	693,231	0,043	-0,083
-479,591	83,847	0,074	0,059
-478,576	-34,164	-0,156	0,062
-477,562	-10,411	0,037	-0,018
-476,547	-59,940	-0,017	-0,005
-475,532	70,785	0,103	0,077
-474,518	306,275	-0,056	-0,076
-473,503	-200,000	0,004	0,074
-472,489	-119,859	-0,101	-0,013
-471,474	-200,000	-0,003	0,057
-470,459	-61,055	0,179	-0,055
-469,445	-200,000	-0,005	-0,080
-468,430	215,025	0,083	-0,096
-467,416	-200,000	0,006	0,077
-466,401	-76,212	-0,050	-0,013
-465,386	-174,107	0,046	0,001
-464,372	-117,101	0,107	-0,014
-463,357	141,474	-0,044	-0,042
-462,343	90,018	0,059	-0,048
-461,328	157,726	-0,017	-0,017
-460,313	-46,857	0,163	0,058
-459,299	113,904	0,040	-0,035
-458,284	-88,957	-0,096	-0,021
-457,270	-122,955	-0,127	-0,015
-456,255	-34,717	0,117	-0,046
-455,241	227,007	-0,045	-0,053
-454,226	-200,000	0,000	-0,108
-453,211	90,472	-0,035	0,029
-452,197	-82,973	0,189	-0,044
-451,182	-81,943	-0,087	0,021
-450,168	108,286	0,020	0,018
-449,153	84,431	0,058	-0,046
-448,138	581,984	-0,029	-0,052
-447,124	800,000	-0,053	-0,162
-446,109	-90,007	-0,104	0,022
-445,095	-200,000	-0,018	0,097
-444,080	800,000	-0,032	0,084
-443,065	800,000	0,063	0,134
-442,051	-200,000	-0,020	0,074
-441,036	-168,946	0,032	0,001
-440,022	-200,000	0,009	-0,082
-439,007	195,634	0,036	0,040
-437,992	-200,000	-0,012	0,039
-436,978	-200,000	-0,001	-0,058
-435,963	151,458	-0,069	0,068
-434,949	-200,000	0,006	0,028
-433,934	122,892	0,037	0,034
-432,919	-33,099	0,014	-0,006
-431,905	95,235	0,125	-0,103
-430,890	198,943	-0,053	-0,059
-429,876	186,455	0,083	0,090
-428,861	638,053	-0,007	-0,013
-427,846	-200,000	0,013	-0,067
-426,832	68,958	-0,029	0,021
-425,817	-38,024	-0,042	-0,016
-424,803	-44,440	-0,093	0,033
-423,788	-131,429	-0,070	-0,007
-422,773	-2,254	0,072	-0,036
-421,759	2,556	-0,071	0,037
-420,744	144,247	-0,075	0,073
-419,730	-1,356	0,098	-0,050
-418,715	800,000	-0,021	-0,064
-417,701	-200,000	0,014	0,062
-416,686	-200,000	0,002	-0,084
-415,671	-200,000	-0,020	0,155
-414,657	-128,438	0,066	-0,007
-413,642	292,340	-0,066	-0,088
-412,628	-32,493	-0,123	-0,049
-411,613	-117,884	0,106	0,014
-410,598	-158,213	0,021	0,001
-409,584	63,565	0,040	0,029
-408,569	154,961	-0,089	-0,089
-407,555	-96,674	0,151	-0,029
-406,540	-72,719	0,039	0,010
-405,525	-65,843	-0,083	-0,024
-404,511	165,687	-0,059	-0,061
-403,496	-91,568	-0,110	-0,023
-402,482	657,474	0,045	0,085
-401,467	-200,000	0,014	0,130
-400,452	500,859	0,038	0,064
-399,438	182,833	-0,077	0,083
-398,423	10,996	0,047	0,026
-397,409	-25,697	-0,092	0,039
-396,394	4,434	-0,054	-0,028
-395,379	800,000	0,019	-0,046
-394,365	-200,000	0,004	0,020
-393,350	106,611	0,025	0,021
-392,336	73,410	0,081	0,061
-391,321	486,591	-0,031	-0,052
-390,306	562,289	0,045	0,079
-389,292	-143,587	-0,071	0,005
-388,277	55,665	-0,066	-0,046
-387,263	461,001	0,035	0,057
-386,248	383,147	0,085	0,128
-385,233	-200,000	-0,003	0,050
-384,219	18,152	0,108	-0,062
-383,204	134,935	-0,053	-0,050
-382,190	-23,436	-0,156	0,068
-381,175	5,639	0,050	0,027
-380,160	800,000	0,013	-0,029
-379,146	-200,000	0,002	0,024
-378,131	800,000	0,020	0,044
-377,117	800,000	0,003	0,008
-376,102	-200,000	0,001	0,021
-375,088	-54,696	-0,027	0,009
-374,073	-3,806	0,133	0,067
-373,058	-120,599	0,093	-0,011
-372,044	22,076	0,012	0,007
-371,029	-200,000	0,041	0,145
-370,015	800,000	0,026	-0,067
-369,000	-106,610	-0,054	0,009
-367,985	-200,000	-0,008	-0,059
-366,971	-151,193	-0,062	0,003
-365,956	-200,000	0,035	-0,111
-364,942	800,000	0,021	0,062
-363,927	241,296	-0,025	0,031
-362,912	-29,379	0,027	-0,011
-361,898	-153,706	0,101	0,005
-360,883	-59,692	-0,109	0,034
-359,869	-200,000	0,009	0,201
-358,854	-200,000	0,010	0,137
-357,839	800,000	-0,052	0,135
-356,825	-37,953	0,108	-0,041
-355,810	-200,000	-0,008	-0,129
-354,796	59,566	-0,160	0,114
-353,781	-200,000	-0,011	-0,063
-352,766	80,933	0,068	-0,053
-351,752	709,896	0,065	-0,124
-350,737	-200,000	-0,040	-0,132
-349,723	800,000	0,016	-0,039
-348,708	113,590	0,082	0,072
-347,693	-200,000	0,009	-0,066
-346,679	800,000	0,004	0,010
-345,664	-101,383	-0,111	-0,019
-344,650	-32,285	-0,066	0,027
-343,635	800,000	-0,007	-0,018
-342,620	-200,000	-0,010	0,130
-341,606	-192,453	-0,165	-0,001
-340,591	140,718	0,030	0,029
-339,577	-64,628	0,075	-0,022
-338,562	227,654	-0,041	-0,049
-337,548	-41,544	-0,023	-0,008
-336,533	65,160	0,054	-0,040
-335,518	-200,000	0,012	-0,172
-334,504	116,562	0,124	-0,110
-333,489	-200,000	0,035	0,125
-332,475	-13,334	0,063	0,029
-331,460	-104,358	-0,072	-0,012
-330,445	-200,000	-0,016	-0,076
-329,431	-82,793	-0,034	-0,008
-328,416	-29,233	-0,129	0,053
-327,402	-139,647	0,021	-0,002
-326,387	-185,071	-0,062	-0,001
-325,372	-49,419	0,050	-0,017
-324,358	7,426	-0,073	-0,039
-323,343	-200,000	0,002	-0,061
-322,329	720,031	0,065	0,126
-321,314	81,884	0,091	0,072
-320,299	-200,000	0,065	0,247
-319,285	369,440	0,050	0,073
-318,270	-200,000	-0,012	0,180
-317,256	-146,969	0,037	0,002
-316,241	-134,599	-0,108	-0,009
-315,226	800,000	-0,028	0,070
-314,212	800,000	0,036	0,079
-313,197	-47,019	-0,180	0,063
-312,183	-71,322	-0,063	-0,017
-311,168	-200,000	0,010	0,112
-310,153	-200,000	-0,005	-0,048
-309,139	-86,694	-0,013	-0,003
-308,124	274,322	0,049	-0,063
-307,110	165,746	0,056	0,058
-306,095	-38,911	-0,181	0,069
-305,080	-200,000	-0,002	0,103
-304,066	-59,352	-0,154	-0,048
-303,051	502,872	-0,060	-0,101
-302,037	800,000	-0,028	0,071
-301,022	318,609	0,118	0,163
-300,008	-133,307	0,136	-0,012
-298,993	-200,000	-0,025	0,121
-297,978	-200,000	0,005	-0,050
-296,964	365,900	0,052	-0,076
-295,949	308,220	-0,081	0,109
-294,935	12,772	-0,065	-0,036
-293,920	-122,338	0,047	0,005
-292,905	144,277	-0,052	-0,050
-291,891	357,598	0,028	0,041
-290,876	800,000	-0,034	0,101
-289,862	-200,000	0,007	-0,071
-288,847	-144,057	-0,021	-0,001
-287,832	265,984	0,012	-0,015
-286,818	148,173	-0,012	-0,012
-285,803	103,307	-0,073	0,062
-284,789	800,000	-0,070	-0,155
-283,774	-70,458	0,185	0,050
-282,759	-142,901	0,041	-0,003
-281,745	-47,787	0,134	-0,047
-280,730	-94,369	0,034	-0,007
-279,716	134,789	0,023	-0,022
-278,701	86,137	0,100	0,080
-277,686	-200,000	0,000	-0,038
-276,672	-200,000	-0,003	0,018
-275,657	-200,000	0,014	0,166
-274,643	800,000	-0,018	0,037
-273,628	309,355	-0,024	0,032
-272,613	800,000	0,026	-0,061
-271,599	-74,189	0,080	0,021
-270,584	-58,044	0,078	0,024
-269,570	-200,000	0,005	0,084
-268,555	193,176	-0,025	-0,027
-267,540	-200,000	-0,028	-0,094
-266,526	-9,619	-0,105	-0,051
-265,511	89,129	0,028	-0,023
-264,497	401,112	0,041	0,063
-263,482	-200,000	0,023	0,106
-262,467	-152,672	0,175	0,009
-261,453	41,767	0,038	0,025
-260,438	454,541	-0,046	-0,073
-259,424	173,411	0,058	-0,061
-258,409	164,217	-0,109	-0,111
-257,395	-27,959	0,086	0,036
-256,380	-48,115	-0,075	0,026
-255,365	800,000	0,005	0,011
-254,351	-200,000	-0,003	-0,012
-253,336	260,872	-0,095	-0,119
-252,322	800,000	-0,025	-0,059
-251,307	664,679	0,018	-0,034
-250,292	-200,000	-0,040	-0,134
-249,278	0,892	-0,070	-0,036
-248,263	-126,978	0,134	0,014
-247,249	302,182	-0,050	0,066
-246,234	53,023	0,033	0,023
-245,219	110,488	0,097	-0,084
-244,205	800,000	-0,041	-0,116
-243,190	28,950	0,087	0,053
-242,176	59,049	-0,012	-0,008
-241,161	20,288	0,086	0,050
-240,146	-200,000	0,000	0,001
-239,132	-7,626	0,028	0,013
-238,117	91,587	-0,063	0,051
-237,103	446,322	-0,060	0,095
-236,088	-200,000	0,040	0,191
-235,073	-200,000	-0,017	0,098
-234,059	-74,276	0,133	0,034
-233,044	250,571	0,023	-0,028
-232,030	301,635	-0,037	0,049
-231,015	-200,000	0,033	-0,144
-230,000	85,770	-0,058	0,046
-228,986	800,000	0,015	-0,034
-227,971	-34,664	0,090	0,035
-226,957	-200,000	0,007	0,049
-225,942	-96,686	0,281	-0,053
-224,927	235,856	-0,073	0,088
-223,913	-108,403	0,123	0,019
-222,898	-200,000	-0,015	-0,096
-221,884	-65,251	-0,006	-0,002
-220,869	206,212	0,065	0,073
-219,855	43,797	0,041	0,027
-218,840	-200,000	0,018	0,074
-217,825	-122,874	-0,105	-0,012
-216,811	129,692	0,048	-0,045
-215,796	-47,632	-0,104	0,036
-214,782	-153,802	-0,081	0,004
-213,767	800,000	0,036	-0,094
-212,752	131,714	-0,081	-0,075
-211,738	-200,000	0,005	-0,048
-210,723	-200,000	-0,028	0,155
-209,709	32,910	0,037	0,023
-208,694	376,748	-0,035	0,051
-207,679	63,999	-0,121	-0,088
-206,665	-200,000	0,038	-0,185
-205,650	325,533	0,107	-0,148
-204,636	-200,000	0,001	0,147
-203,621	-200,000	0,054	-0,193
-202,606	-81,606	0,101	-0,024
-201,592	82,901	-0,063	0,049
-200,577	-99,361	-0,104	-0,019
-199,563	21,495	0,167	0,097
-198,548	-200,000	0,036	0,114
-197,533	-91,220	-0,083	-0,017
-196,519	19,045	0,092	-0,053
-195,504	-112,872	0,091	-0,013
-194,490	-185,455	-0,044	-0,000
-193,475	-159,744	0,069	-0,003
-192,460	113,180	0,044	-0,038
-191,446	413,239	0,053	0,082
-190,431	-6,900	-0,012	-0,006
-189,417	-144,313	-0,139	-0,009
-188,402	-64,813	-0,090	-0,026
-187,387	-200,000	0,009	-0,128
-186,373	-200,000	0,011	-0,088
-185,358	428,603	0,036	-0,056
-184,344	-29,590	0,086	0,035
-183,329	-200,000	-0,007	-0,087
-182,315	-200,000	0,047	-0,197
-181,300	-131,189	-0,056	-0,005
-180,285	-131,548	0,131	0,012
-179,271	800,000	-0,009	0,024
-178,256	-74,806	0,046	-0,012
-177,242	-122,503	0,059	0,007
-176,227	187,856	-0,054	-0,058
-175,212	1,948	-0,050	-0,026
-174,198	-141,177	-0,020	0,001
-173,183	60,388	-0,099	0,071
-172,169	78,373	-0,082	-0,063
-171,154	-8,071	0,037	0,018
-170,139	14,620	-0,102	0,057
-169,125	25,413	-0,101	-0,060
-168,110	-147,748	0,073	-0,004
-167,096	592,269	0,007	0,012
-166,081	-200,000	-0,030	-0,149
-165,066	-200,000	0,010	-0,052
-164,052	-80,493	-0,167	0,040
-163,037	165,716	-0,026	-0,026
-162,023	-200,000	-0,012	-0,060
-161,008	116,452	-0,088	0,077
-159,993	618,290	0,018	0,032
-158,979	182,771	-0,016	0,017
-157,964	-200,000	0,016	0,086
-156,950	-75,120	-0,046	0,012
-155,935	36,008	-0,173	0,109
-154,920	-73,548	-0,075	0,020
-153,906	-200,000	0,009	0,074
-152,891	-200,000	-0,016	0,064
-151,877	268,214	0,027	0,034
-150,862	61,174	-0,102	-0,073
-149,847	22,294	-0,064	0,037
-148,833	41,903	0,033	-0,021
-147,818	-54,749	0,050	0,016
-146,804	-50,330	-0,122	0,041
-145,789	106,535	0,055	0,047
-144,775	93,485	0,066	0,053
-143,760	-50,281	-0,018	0,006
-142,745	800,000	-0,044	-0,137
-141,731	-200,000	-0,024	-0,134
-140,716	-200,000	-0,029	-0,101
-139,702	-13,867	-0,069	-0,032
-138,687	156,533	0,036	0,036
-137,672	800,000	-0,020	-0,051
-136,658	-200,000	-0,000	-0,089
-135,643	-200,000	0,002	-0,097
-134,629	-200,000	0,000	-0,104
-133,614	-52,521	0,086	0,028
-132,599	800,000	0,029	0,065
-131,585	439,680	0,027	0,042
-130,570	-200,000	-0,022	-0,076
-129,556	-120,987	-0,034	0,004
-128,541	239,505	-0,091	-0,109
-127,526	-200,000	-0,023	0,079
-126,512	687,815	-0,085	0,161
-125,497	31,433	0,071	0,044
-124,483	800,000	0,018	-0,048
-123,468	800,000	-0,057	-0,130
-122,453	214,241	0,033	-0,037
-121,439	-41,852	0,038	0,014
-120,424	207,984	-0,106	-0,119
-119,410	-82,127	0,026	0,006
