DTS Sentinel unit serial number:	SN410029Multiplexer serial number:	ORYXHardware model number:	OX2-SRSoftware version number:	ORYX F/W v4,00 Oryx Data Collector v3.7.2.0data status	okinstallation	B6 Nyhavnadifferential loss correction	single-endedforward channel	channel 2reverse channel	N/Adate	2023/12/08time	21:30:08forward acquisition time	300,00reverse acquisition time	0,00gamma	499,1914k internal	0,3158k external	0,3158temperature offset calibration	1,0000default loss term (dB/km)	0,3820temperature slope calibration	1,0000multiplexer offset coefficient	1,0000multiplexer slope coefficient	1,0000fibre end	0,00T internal ref (°C)	15,24T ext. ref 1 (°C)	-1,30T ext. ref 2 (°C)	-1,31length (m)	temperature (°C)	Stokes	anti-Stokes-744,400	-111,480	0,087	-0,013
-743,385	-114,297	-0,334	-0,047
-742,371	469,078	0,033	0,054
-741,356	-122,308	-0,228	0,027
-740,342	-173,257	0,087	0,002
-739,327	-21,096	-0,251	-0,113
-738,312	-42,119	0,158	0,059
-737,298	-14,566	-0,309	-0,146
-736,283	-200,000	-0,010	0,089
-735,269	-146,490	-0,197	-0,012
-734,254	57,962	0,035	0,026
-733,239	-55,684	-0,357	-0,117
-732,225	-117,066	0,185	0,025
-731,210	-200,000	-0,002	-0,061
-730,196	-183,081	-0,066	0,001
-729,181	800,000	-0,056	0,136
-728,167	-200,000	-0,006	-0,106
-727,152	263,785	0,101	-0,129
-726,137	-35,520	-0,041	-0,016
-725,123	127,593	-0,136	-0,128
-724,108	77,892	-0,120	0,094
-723,094	-158,231	-0,175	-0,007
-722,079	-200,000	0,025	-0,091
-721,064	356,399	0,077	-0,113
-720,050	6,332	-0,054	0,030
-719,035	139,655	-0,134	0,130
-718,021	-37,863	-0,016	0,006
-717,006	-22,782	-0,153	-0,068
-715,991	-200,000	0,028	-0,101
-714,977	33,893	-0,087	-0,056
-713,962	19,163	-0,083	-0,049
-712,948	579,098	-0,070	0,128
-711,933	800,000	0,075	-0,167
-710,918	-200,000	-0,013	0,043
-709,904	56,301	-0,161	0,115
-708,889	36,929	-0,063	-0,041
-707,875	-200,000	-0,031	-0,124
-706,860	230,051	0,045	-0,054
-705,845	193,348	0,020	-0,023
-704,831	-103,597	0,043	0,007
-703,816	48,025	-0,132	-0,091
-702,802	-200,000	0,029	-0,155
-701,787	146,752	-0,118	-0,117
-700,772	47,685	0,057	0,039
-699,758	-200,000	-0,002	0,010
-698,743	-16,906	0,048	-0,022
-697,729	-4,871	0,029	0,015
-696,714	172,533	0,014	-0,015
-695,699	800,000	-0,015	-0,034
-694,685	-0,742	-0,046	0,024
-693,670	800,000	0,042	0,106
-692,656	-198,504	0,118	-0,000
-691,641	204,831	0,125	0,142
-690,627	-159,270	-0,164	-0,007
-689,612	29,101	-0,026	-0,016
-688,597	-200,000	-0,001	0,043
-687,583	-86,113	-0,115	-0,026
-686,568	-195,588	0,154	-0,001
-685,554	520,445	-0,072	-0,124
-684,539	-164,258	0,038	0,001
-683,524	-133,109	0,060	0,005
-682,510	234,128	-0,031	0,038
-681,495	-59,196	-0,064	0,020
-680,481	800,000	-0,056	0,118
-679,466	-200,000	-0,022	-0,128
-678,451	-146,135	-0,084	-0,005
-677,437	-130,250	-0,036	-0,004
-676,422	-121,785	0,076	-0,009
-675,408	-77,474	-0,071	-0,018
-674,393	-112,727	0,215	-0,031
-673,378	26,433	-0,078	-0,048
-672,364	800,000	-0,016	0,048
-671,349	104,518	-0,091	0,079
-670,335	13,960	0,028	-0,016
-669,320	27,501	0,079	-0,049
-668,305	-200,000	0,015	-0,138
-667,291	-35,588	-0,053	-0,021
-666,276	114,041	-0,063	-0,056
-665,262	185,309	-0,043	-0,047
-664,247	-60,722	-0,234	-0,072
-663,232	136,087	0,160	0,153
-662,218	14,725	-0,050	0,029
-661,203	-64,859	-0,104	0,031
-660,189	-200,000	-0,007	-0,041
-659,174	-58,606	0,104	0,033
-658,159	-150,187	-0,122	-0,007
-657,145	-80,637	0,051	-0,012
-656,130	200,198	0,082	0,093
-655,116	202,964	0,038	-0,044
-654,101	-73,449	0,074	0,020
-653,086	15,315	-0,178	-0,102
-652,072	800,000	-0,031	0,065
-651,057	584,661	0,016	0,029
-650,043	-200,000	0,040	-0,179
-649,028	-45,751	0,140	0,051
-648,014	92,782	-0,036	0,030
-646,999	-200,000	-0,020	-0,081
-645,984	-200,000	0,004	-0,129
-644,970	13,396	-0,123	-0,070
-643,955	310,348	-0,048	0,066
-642,941	-200,000	-0,023	-0,111
-641,926	148,596	0,077	-0,077
-640,911	158,447	-0,035	0,036
-639,897	-200,000	-0,013	0,108
-638,882	-192,449	-0,029	0,000
-637,868	29,986	0,032	0,020
-636,853	16,317	0,043	-0,025
-635,838	-200,000	-0,010	0,033
-634,824	9,117	0,059	0,033
-633,809	-200,000	0,004	0,045
-632,795	-3,224	0,053	-0,027
-631,780	383,928	0,033	-0,050
-630,765	-200,000	0,010	-0,041
-629,751	-200,000	0,002	0,062
-628,736	118,887	-0,142	0,129
-627,722	-200,000	0,015	0,144
-626,707	800,000	0,034	0,082
-625,692	118,545	0,067	0,060
-624,678	800,000	0,048	-0,110
-623,663	116,040	-0,049	-0,044
-622,649	76,477	0,021	0,017
-621,634	800,000	-0,055	-0,122
-620,619	-64,810	-0,076	0,022
-619,605	-37,911	0,137	-0,053
-618,590	-200,000	0,003	0,020
-617,576	45,131	0,030	-0,020
-616,561	475,618	0,045	-0,074
-615,546	-200,000	-0,010	0,076
-614,532	800,000	-0,051	0,111
-613,517	-15,374	-0,099	-0,046
-612,503	55,035	-0,030	0,021
-611,488	-102,533	0,151	0,026
-610,474	61,503	-0,065	-0,047
-609,459	186,109	-0,021	-0,023
-608,444	-63,128	0,142	-0,043
-607,430	713,591	-0,052	-0,102
-606,415	26,845	0,069	-0,042
-605,401	-24,188	-0,017	-0,007
-604,386	800,000	0,030	0,081
-603,371	-200,000	-0,054	0,210
-602,357	800,000	-0,045	0,117
-601,342	94,005	-0,112	-0,093
-600,328	153,568	-0,056	0,056
-599,313	61,600	0,073	0,053
-598,298	800,000	0,062	0,181
-597,284	99,792	0,090	0,076
-596,269	57,961	0,009	0,006
-595,255	-165,780	-0,134	-0,004
-594,240	208,593	-0,031	-0,036
-593,225	-136,914	-0,143	0,012
-592,211	-191,332	0,116	0,001
-591,196	-200,000	-0,011	-0,039
-590,182	165,406	0,068	0,071
-589,167	0,462	0,045	0,024
-588,152	106,844	-0,164	0,142
-587,138	213,424	-0,004	0,005
-586,123	-20,240	-0,059	-0,026
-585,109	-62,235	-0,072	-0,022
-584,094	800,000	0,035	-0,097
-583,079	7,444	0,017	0,009
-582,065	-78,389	-0,057	-0,014
-581,050	800,000	0,041	0,099
-580,036	85,469	-0,134	-0,108
-579,021	108,137	-0,052	0,045
-578,006	-200,000	0,005	-0,081
-576,992	-200,000	-0,038	-0,183
-575,977	-200,000	-0,004	-0,134
-574,963	-97,683	0,107	-0,020
-573,948	117,865	-0,069	0,062
-572,934	800,000	0,024	0,072
-571,919	-200,000	-0,030	-0,115
-570,904	-195,357	0,193	-0,001
-569,890	-41,240	-0,094	0,035
-568,875	-200,000	0,015	-0,075
-567,861	48,548	-0,131	0,090
-566,846	384,394	0,046	0,069
-565,831	5,082	0,099	-0,053
-564,817	116,916	-0,089	0,080
-563,802	-200,000	-0,003	0,128
-562,788	-200,000	0,001	0,021
-561,773	-143,832	0,032	-0,002
-560,758	-200,000	0,014	0,204
-559,744	211,731	0,123	0,142
-558,729	-200,000	-0,006	0,044
-557,715	532,671	-0,052	-0,090
-556,700	-68,064	-0,235	-0,067
-555,685	800,000	-0,053	-0,111
-554,671	25,912	0,017	-0,011
-553,656	86,927	-0,069	0,056
-552,642	92,611	0,102	-0,084
-551,627	-200,000	-0,024	0,108
-550,612	-83,081	-0,058	0,014
-549,598	36,524	0,058	-0,037
-548,583	39,640	-0,024	0,016
-547,569	-8,490	-0,046	0,023
-546,554	-200,000	-0,010	0,074
-545,539	-200,000	0,005	-0,079
-544,525	189,595	0,009	-0,009
-543,510	-200,000	-0,007	0,039
-542,496	800,000	0,022	0,070
-541,481	-200,000	-0,094	-0,000
-540,466	563,582	-0,058	0,104
-539,452	-200,000	0,004	-0,042
-538,437	22,993	-0,028	0,017
-537,423	-142,730	-0,133	0,009
-536,408	-85,998	-0,058	0,013
-535,393	400,189	0,039	0,060
-534,379	663,911	-0,042	-0,080
-533,364	-144,583	0,104	0,007
-532,350	-200,000	0,003	0,106
-531,335	112,343	0,135	-0,119
-530,321	-1,564	-0,007	0,004
-529,306	-200,000	-0,011	0,130
-528,291	184,142	-0,040	-0,044
-527,277	800,000	0,052	0,112
-526,262	434,238	0,054	0,085
-525,248	-59,860	0,078	0,024
-524,233	64,189	-0,076	-0,056
-523,218	-132,330	-0,086	-0,008
-522,204	-7,520	-0,046	0,023
-521,189	-184,738	0,046	0,001
-520,175	-47,413	-0,055	-0,020
-519,160	223,745	0,023	0,028
-518,145	-1,285	0,053	-0,027
-517,131	-6,834	0,101	-0,050
-516,116	-200,000	-0,006	0,041
-515,102	-200,000	0,028	-0,143
-514,087	232,956	-0,010	-0,012
-513,072	11,749	-0,045	-0,025
-512,058	-62,419	0,076	-0,023
-511,043	334,264	0,016	0,023
-510,029	-178,115	0,144	0,002
-509,014	521,262	-0,053	0,092
-507,999	-59,975	-0,090	-0,028
-506,985	491,942	-0,033	0,055
-505,970	800,000	0,035	-0,107
-504,956	250,986	-0,108	0,135
-503,941	800,000	-0,017	-0,036
-502,926	-46,106	0,087	0,031
-501,912	-141,426	0,028	0,002
-500,897	220,881	0,057	-0,067
-499,883	-94,360	-0,104	0,021
-498,868	-200,000	-0,021	-0,073
-497,853	-200,000	-0,001	0,016
-496,839	800,000	-0,039	-0,079
-495,824	64,709	-0,136	-0,100
-494,810	-45,697	0,042	-0,015
-493,795	-200,000	-0,008	-0,043
-492,781	94,666	0,097	-0,081
-491,766	103,211	0,136	-0,117
-490,751	-200,000	-0,012	-0,080
-489,737	403,055	0,080	-0,123
-488,722	-200,000	-0,035	-0,133
-487,708	800,000	-0,011	-0,032
-486,693	-124,100	0,050	0,006
-485,678	187,078	0,036	0,039
-484,664	-200,000	-0,039	0,137
-483,649	-81,200	-0,132	0,032
-482,635	-200,000	-0,009	0,148
-481,620	-200,000	0,034	0,111
-480,605	-55,288	-0,062	0,020
-479,591	-200,000	0,004	0,116
-478,576	-200,000	0,033	0,115
-477,562	800,000	0,035	0,098
-476,547	5,007	0,130	-0,069
-475,532	800,000	-0,025	-0,059
-474,518	10,594	-0,064	0,035
-473,503	-32,432	0,025	-0,010
-472,489	-98,166	0,074	-0,014
-471,474	-7,395	-0,064	0,031
-470,459	280,570	-0,029	0,038
-469,445	-200,000	-0,009	-0,058
-468,430	-200,000	0,035	-0,117
-467,416	5,982	0,106	0,057
-466,401	-56,353	0,086	0,028
-465,386	123,976	0,008	-0,007
-464,372	355,525	-0,056	0,082
-463,357	179,594	-0,077	-0,082
-462,343	93,464	-0,016	-0,013
-461,328	82,899	-0,078	-0,062
-460,313	-35,562	0,102	-0,040
-459,299	-60,484	0,054	-0,017
-458,284	-55,962	0,143	-0,046
-457,270	-2,354	-0,078	-0,040
-456,255	34,251	0,080	-0,051
-455,241	-73,184	-0,060	-0,016
-454,226	383,319	0,065	-0,098
-453,211	30,248	-0,060	0,037
-452,197	-17,488	0,059	-0,027
-451,182	537,265	0,055	-0,095
-450,168	-200,000	0,031	0,124
-449,153	-182,493	-0,095	-0,001
-448,138	-200,000	-0,035	-0,114
-447,124	-162,236	0,083	0,003
-446,109	-200,000	-0,021	-0,076
-445,095	800,000	0,041	-0,131
-444,080	-200,000	0,001	-0,055
-443,065	197,518	-0,079	-0,088
-442,051	117,415	0,030	0,027
-441,036	800,000	0,047	-0,105
-440,022	-200,000	0,023	-0,114
-439,007	-142,501	-0,154	-0,011
-437,992	-151,289	0,126	-0,007
-436,978	-26,017	0,009	-0,004
-435,963	61,245	-0,078	0,056
-434,949	-15,096	0,050	0,023
-433,934	800,000	-0,029	-0,082
-432,919	307,840	-0,057	-0,078
-431,905	29,829	-0,098	0,060
-430,890	-122,635	0,070	-0,008
-429,876	340,728	-0,060	0,086
-428,861	28,344	-0,063	0,039
-427,846	247,975	0,053	0,065
-426,832	21,015	-0,125	0,074
-425,817	-78,690	0,166	-0,041
-424,803	-131,365	-0,110	-0,010
-423,788	-129,923	-0,061	-0,006
-422,773	-200,000	0,023	-0,079
-421,759	-63,803	0,129	-0,038
-420,744	-200,000	-0,036	-0,122
-419,730	-200,000	0,033	-0,200
-418,715	-71,297	-0,064	-0,017
-417,701	800,000	0,022	0,069
-416,686	7,029	0,082	0,044
-415,671	-172,663	0,054	-0,001
-414,657	222,098	0,013	0,015
-413,642	-81,321	-0,046	0,011
-412,628	431,117	0,099	-0,157
-411,613	38,960	0,061	0,040
-410,598	196,203	-0,054	0,060
-409,584	-37,009	-0,051	0,020
-408,569	-173,394	0,072	-0,002
-407,555	32,171	-0,082	-0,051
-406,540	-22,032	-0,072	-0,031
-405,525	587,286	0,048	-0,087
-404,511	66,292	-0,058	0,043
-403,496	-200,000	-0,005	-0,105
-402,482	94,692	0,074	-0,061
-401,467	-200,000	0,024	-0,106
-400,452	-200,000	-0,006	0,031
-399,438	-125,007	0,084	0,009
-398,423	-200,000	0,026	-0,130
-397,409	218,744	-0,056	0,066
-396,394	178,312	-0,076	-0,081
-395,379	800,000	0,026	0,074
-394,365	237,654	-0,029	0,035
-393,350	800,000	-0,024	0,067
-392,336	160,358	0,020	0,021
-391,321	13,134	0,088	0,049
-390,306	-200,000	-0,138	-0,000
-389,292	-200,000	-0,000	-0,111
-388,277	-200,000	0,003	0,029
-387,263	25,149	0,129	-0,078
-386,248	-200,000	0,012	0,180
-385,233	800,000	0,020	0,041
-384,219	257,994	-0,019	0,024
-383,204	-200,000	0,023	-0,108
-382,190	-200,000	0,006	-0,085
-381,175	-2,085	-0,087	0,044
-380,160	800,000	0,043	-0,090
-379,146	141,758	-0,051	-0,049
-378,131	-66,846	0,077	0,022
-377,117	800,000	0,025	0,055
-376,102	-200,000	0,022	-0,163
-375,088	-88,556	-0,088	-0,019
-374,073	-132,712	-0,089	-0,008
-373,058	66,896	0,111	0,082
-372,044	-200,000	-0,001	0,224
-371,029	623,229	-0,055	-0,101
-370,015	-84,933	-0,048	0,011
-369,000	-37,245	0,105	0,040
-367,985	-200,000	-0,015	-0,052
-366,971	227,651	-0,080	0,094
-365,956	-92,447	-0,092	0,019
-364,942	-106,456	0,125	-0,020
-363,927	277,100	0,033	0,042
-362,912	16,018	-0,111	0,063
-361,898	193,345	0,096	-0,106
-360,883	800,000	-0,027	-0,068
-359,869	133,258	-0,049	-0,046
-358,854	-112,716	0,067	-0,010
-357,839	-200,000	-0,000	-0,011
-356,825	16,273	0,066	-0,037
-355,810	-200,000	-0,004	-0,047
-354,796	-200,000	-0,026	-0,108
-353,781	111,511	-0,074	0,065
-352,766	-200,000	-0,002	0,064
-351,752	9,310	0,017	-0,009
-350,737	-200,000	0,008	0,077
-349,723	-104,377	-0,059	-0,010
-348,708	39,783	0,061	-0,039
-347,693	-31,939	0,064	-0,026
-346,679	-19,056	0,058	0,026
-345,664	-200,000	0,009	-0,054
-344,650	93,928	-0,047	0,038
-343,635	32,691	-0,184	0,116
-342,620	195,359	0,108	0,119
-341,606	-200,000	0,003	0,069
-340,591	297,535	-0,084	-0,112
-339,577	-200,000	0,006	0,029
-338,562	32,033	0,077	0,048
-337,548	800,000	-0,020	0,045
-336,533	-200,000	-0,012	0,049
-335,518	800,000	0,068	0,174
-334,504	-13,552	-0,090	0,042
-333,489	647,324	-0,031	-0,057
-332,475	109,696	-0,044	-0,038
-331,460	-200,000	0,006	0,063
-330,445	517,296	-0,025	-0,042
-329,431	241,989	0,096	0,116
-328,416	51,469	-0,070	0,048
-327,402	-200,000	-0,010	0,091
-326,387	800,000	-0,019	0,056
-325,372	-127,053	0,085	0,009
-324,358	-87,155	-0,090	0,020
-323,343	-200,000	-0,006	0,084
-322,329	-141,873	0,047	-0,003
-321,314	27,882	0,055	-0,034
-320,299	800,000	0,029	0,091
-319,285	-200,000	0,029	0,096
-318,270	-200,000	-0,009	-0,129
-317,256	473,808	0,035	-0,058
-316,241	-200,000	-0,019	-0,130
-315,226	250,739	-0,073	0,090
-314,212	-133,938	0,140	-0,012
-313,197	-65,922	0,056	0,016
-312,183	-35,555	-0,053	0,021
-311,168	-37,458	0,030	-0,012
-310,153	243,705	0,056	-0,068
-309,139	243,314	-0,100	-0,122
-308,124	-67,951	0,087	-0,025
-307,110	-34,515	-0,138	0,055
-306,095	800,000	0,030	0,064
-305,080	-159,797	0,054	-0,002
-304,066	336,154	0,022	-0,031
-303,051	-47,127	-0,078	0,027
-302,037	-167,718	-0,061	0,002
-301,022	-128,421	-0,055	0,006
-300,008	-8,450	-0,109	0,053
-298,993	-30,910	0,171	-0,070
-297,978	-200,000	-0,015	-0,051
-296,964	7,155	0,228	-0,123
-295,949	800,000	-0,052	-0,165
-294,935	143,744	0,070	-0,068
-293,920	-55,725	0,048	-0,015
-292,905	-200,000	0,016	-0,064
-291,891	800,000	0,019	0,039
-290,876	-66,883	0,105	0,030
-289,862	-20,930	0,034	0,015
-288,847	63,595	-0,109	-0,079
-287,832	147,652	-0,037	-0,036
-286,818	440,966	-0,047	0,075
-285,803	-200,000	0,027	0,000
-284,789	-40,070	0,090	-0,034
-283,774	-71,213	0,028	0,008
-282,759	-200,000	0,002	0,018
-281,745	-29,084	-0,060	-0,025
-280,730	-177,624	0,147	-0,003
-279,716	37,074	-0,153	0,098
-278,701	-80,122	0,177	-0,043
-277,686	800,000	0,076	0,154
-276,672	-127,121	0,084	-0,009
-275,657	650,019	0,063	0,118
-274,643	496,501	-0,034	-0,058
-273,628	800,000	-0,045	-0,093
-272,613	87,518	-0,066	-0,053
-271,599	89,704	0,081	0,065
-270,584	720,206	0,043	0,084
-269,570	-14,507	0,066	-0,031
-268,555	-200,000	0,022	-0,166
-267,540	124,678	0,053	0,048
-266,526	37,489	-0,051	-0,033
-265,511	800,000	-0,048	0,103
-264,497	-118,610	0,038	0,005
-263,482	-43,631	-0,128	-0,046
-262,467	-200,000	0,015	0,090
-261,453	-200,000	0,005	0,039
-260,438	-33,508	-0,037	0,015
-259,424	-83,751	-0,083	-0,019
-258,409	-20,246	0,139	0,062
-257,395	-200,000	-0,003	0,121
-256,380	-76,184	0,054	0,014
-255,365	295,441	0,138	0,184
-254,351	-138,864	0,099	-0,008
-253,336	4,816	-0,131	-0,070
-252,322	-55,915	-0,053	0,017
-251,307	136,785	-0,014	-0,013
-250,292	-8,969	0,089	-0,043
-249,278	-6,144	0,086	-0,042
-248,263	-41,303	-0,231	0,086
-247,249	-200,000	0,077	0,000
-246,234	-89,988	-0,143	0,030
-245,219	-140,515	-0,188	0,014
-244,205	11,849	0,073	0,040
-243,190	-118,825	-0,105	-0,013
-242,176	160,415	-0,050	0,050
-241,161	-12,161	0,104	0,049
-240,146	157,102	-0,115	0,115
-239,132	-114,751	-0,043	0,006
-238,117	14,826	-0,079	0,045
-237,103	-200,000	0,023	-0,118
-236,088	-200,000	0,022	0,079
-235,073	47,638	0,051	0,034
-234,059	-129,190	0,054	-0,005
-233,044	43,971	0,043	-0,029
-232,030	216,919	-0,009	0,011
-231,015	-32,218	-0,135	-0,054
-230,000	-13,314	-0,228	-0,106
-228,986	-124,080	-0,061	0,007
-227,971	-200,000	-0,006	0,082
-226,957	-64,341	0,018	0,005
-225,942	-200,000	0,025	0,112
-224,927	80,385	0,105	0,081
-223,913	-200,000	-0,013	0,109
-222,898	-23,807	-0,080	-0,035
-221,884	-117,522	0,060	-0,008
-220,869	-200,000	-0,015	0,135
-219,855	-200,000	0,024	0,136
-218,840	-200,000	0,018	-0,093
-217,825	-200,000	-0,031	-0,193
-216,811	37,715	-0,074	-0,048
-215,796	320,816	0,041	-0,056
-214,782	-39,009	-0,023	0,009
-213,767	800,000	0,017	0,048
-212,752	-172,174	0,063	-0,001
-211,738	415,315	0,051	-0,079
-210,723	-200,000	-0,003	0,043
-209,709	117,109	0,070	0,062
-208,694	-8,620	-0,114	-0,055
-207,679	-84,086	0,092	-0,021
-206,665	-29,595	-0,089	-0,037
-205,650	800,000	0,026	-0,079
-204,636	-200,000	-0,007	-0,030
-203,621	26,510	0,033	0,020
-202,606	-64,461	-0,019	0,005
-201,592	-19,971	-0,079	-0,035
-200,577	65,783	-0,133	0,097
-199,563	-140,357	0,107	0,008
-198,548	-200,000	-0,000	0,013
-197,533	-200,000	0,029	-0,109
-196,519	-200,000	0,002	-0,040
-195,504	572,989	0,105	-0,186
-194,490	-30,488	-0,124	-0,050
-193,475	55,804	-0,152	0,106
-192,460	-108,784	-0,067	0,010
-191,446	-200,000	0,002	-0,036
-190,431	513,762	0,013	0,022
-189,417	-79,884	0,098	-0,024
-188,402	800,000	0,019	-0,044
-187,387	-121,984	0,026	0,003
-186,373	-14,037	-0,073	-0,034
-185,358	800,000	-0,020	0,055
-184,344	-200,000	0,009	-0,081
-183,329	1,196	0,087	-0,045
-182,315	525,782	-0,046	-0,079
-181,300	-79,404	0,120	-0,029
-180,285	-200,000	0,034	-0,123
-179,271	125,961	0,088	-0,080
-178,256	800,000	0,027	0,074
-177,242	28,265	0,050	0,030
-176,227	542,169	-0,025	0,043
-175,212	800,000	0,061	0,142
-174,198	-200,000	0,014	-0,109
-173,183	29,864	0,035	0,021
-172,169	133,486	-0,075	0,070
-171,154	263,083	0,053	-0,067
-170,139	-3,842	-0,117	-0,059
-169,125	230,872	-0,086	0,101
-168,110	800,000	0,003	0,006
-167,096	110,673	-0,093	0,081
-166,081	800,000	0,057	0,134
-165,066	-200,000	0,011	-0,086
-164,052	0,966	-0,069	0,036
-163,037	514,623	0,013	0,023
-162,023	-113,995	0,080	0,011
-161,008	-56,622	-0,103	-0,033
-159,993	-0,196	0,048	-0,025
-158,979	-200,000	-0,001	-0,040
-157,964	-49,842	0,020	0,007
-156,950	-30,800	0,179	-0,073
-155,935	-200,000	0,000	0,056
-154,920	-101,301	-0,104	-0,018
-153,906	-200,000	0,010	0,033
-152,891	-7,344	-0,064	0,031
-151,877	800,000	-0,037	-0,076
-150,862	800,000	-0,026	-0,052
-149,847	800,000	-0,025	-0,053
-148,833	210,921	0,018	-0,021
-147,818	-141,952	0,048	-0,003
-146,804	53,452	-0,142	-0,098
-145,789	-45,468	0,095	-0,034
-144,775	-200,000	0,004	0,133
-143,760	-1,363	-0,051	0,026
-142,745	69,199	-0,040	-0,029
-141,731	-200,000	-0,020	-0,070
-140,716	13,592	0,177	0,099
-139,702	68,985	-0,096	-0,071
-138,687	-101,484	-0,113	0,020
-137,672	157,307	0,063	0,063
-136,658	-200,000	-0,008	-0,049
-135,643	147,172	0,019	-0,019
-134,629	-200,000	-0,006	0,053
-133,614	-200,000	-0,020	-0,079
-132,599	-200,000	0,010	0,111
-131,585	-28,035	-0,040	0,017
-130,570	241,232	-0,050	-0,060
-129,556	-89,279	0,061	0,013
-128,541	-200,000	-0,015	0,090
-127,526	-22,702	-0,080	0,034
-126,512	33,540	0,040	0,025
-125,497	-85,842	-0,086	-0,019
-124,483	-101,978	0,172	-0,030
-123,468	140,810	-0,059	0,056
-122,453	-170,888	-0,155	0,004
-121,439	-76,841	-0,079	-0,020
-120,424	232,729	-0,144	-0,170
-119,410	-200,000	-0,000	-0,028
