DTS Sentinel unit serial number:	SN410029Multiplexer serial number:	ORYXHardware model number:	OX2-SRSoftware version number:	ORYX F/W v4,00 Oryx Data Collector v3.7.2.0data status	okinstallation	B6 Nyhavnadifferential loss correction	single-endedforward channel	channel 2reverse channel	N/Adate	2023/12/11time	03:40:08forward acquisition time	300,00reverse acquisition time	0,00gamma	499,1914k internal	0,3124k external	0,3124temperature offset calibration	1,0000default loss term (dB/km)	0,3820temperature slope calibration	1,0000multiplexer offset coefficient	1,0000multiplexer slope coefficient	1,0000fibre end	0,00T internal ref (°C)	21,05T ext. ref 1 (°C)	3,80T ext. ref 2 (°C)	3,82length (m)	temperature (°C)	Stokes	anti-Stokes-744,400	800,000	-0,021	-0,055
-743,385	-112,386	-0,297	0,044
-742,371	200,921	0,072	-0,082
-741,356	-147,940	-0,284	-0,017
-740,342	188,158	0,051	0,057
-739,327	-66,961	-0,313	0,091
-738,312	235,208	0,053	-0,065
-737,298	-35,491	-0,210	0,085
-736,283	-35,855	-0,094	0,038
-735,269	295,551	-0,132	0,181
-734,254	-112,990	0,066	0,010
-733,239	1,985	-0,424	-0,227
-732,225	-159,765	0,180	0,007
-731,210	167,707	-0,061	0,064
-730,196	-200,000	0,004	0,026
-729,181	24,545	0,004	0,002
-728,167	-85,664	-0,070	0,016
-727,152	-14,020	-0,011	0,005
-726,137	81,654	-0,056	-0,045
-725,123	-200,000	-0,056	-0,194
-724,108	268,642	0,056	-0,073
-723,094	112,095	-0,114	-0,103
-722,079	-49,645	-0,207	-0,073
-721,064	231,065	-0,010	-0,012
-720,050	-200,000	0,001	0,082
-719,035	-121,389	-0,050	-0,006
-718,021	95,061	-0,071	0,061
-717,006	-200,000	-0,004	0,038
-715,991	-36,340	-0,165	-0,066
-714,977	800,000	0,060	-0,143
-713,962	134,415	-0,066	-0,064
-712,948	-182,372	0,063	-0,001
-711,933	-107,328	-0,137	-0,022
-710,918	55,594	-0,044	0,031
-709,904	158,432	-0,093	-0,096
-708,889	457,633	-0,088	-0,146
-707,875	-163,338	-0,090	0,003
-706,860	30,091	0,095	0,060
-705,845	800,000	0,051	0,107
-704,831	800,000	0,052	-0,125
-703,816	-52,493	-0,091	0,031
-702,802	116,458	-0,027	0,025
-701,787	-5,242	-0,110	-0,056
-700,772	107,710	-0,107	-0,094
-699,758	-29,511	-0,113	0,048
-698,743	800,000	0,031	-0,095
-697,729	-91,550	-0,067	-0,014
-696,714	-200,000	0,006	0,051
-695,699	379,520	0,033	-0,050
-694,685	573,046	-0,037	-0,067
-693,670	92,439	-0,081	-0,068
-692,656	35,919	-0,078	-0,051
-691,641	800,000	0,038	-0,082
-690,627	286,303	-0,148	0,199
-689,612	-200,000	-0,005	-0,018
-688,597	-200,000	-0,020	-0,074
-687,583	89,950	-0,045	-0,038
-686,568	-200,000	0,005	-0,037
-685,554	-28,918	-0,121	0,051
-684,539	316,157	0,035	-0,049
-683,524	-56,968	-0,041	-0,013
-682,510	137,016	-0,032	0,031
-681,495	127,466	0,021	0,020
-680,481	-8,829	0,014	-0,007
-679,466	7,028	-0,086	0,048
-678,451	0,684	0,064	0,034
-677,437	24,529	-0,208	-0,128
-676,422	277,504	-0,073	-0,097
-675,408	103,394	0,041	0,036
-674,393	-62,526	-0,164	-0,050
-673,378	-11,086	-0,056	0,028
-672,364	130,036	-0,124	-0,118
-671,349	-25,197	-0,151	-0,066
-670,335	304,045	-0,046	-0,063
-669,320	-200,000	-0,035	0,146
-668,305	-200,000	0,023	0,076
-667,291	-69,680	-0,039	0,011
-666,276	-200,000	0,005	-0,066
-665,262	-200,000	0,027	-0,115
-664,247	370,587	-0,092	-0,139
-663,232	-25,423	-0,058	-0,025
-662,218	-200,000	0,002	-0,118
-661,203	-73,662	0,128	-0,034
-660,189	-200,000	-0,039	-0,141
-659,174	-189,683	-0,130	-0,001
-658,159	14,989	0,075	0,043
-657,145	-31,353	0,067	0,028
-656,130	-200,000	-0,004	-0,048
-655,116	199,475	-0,048	0,055
-654,101	83,228	0,043	0,035
-653,086	-133,162	-0,143	0,013
-652,072	-53,024	0,046	-0,016
-651,057	800,000	-0,047	-0,135
-650,043	-100,870	0,031	-0,006
-649,028	-74,231	0,152	0,040
-648,014	531,213	-0,085	0,150
-646,999	345,474	-0,095	-0,139
-645,984	800,000	-0,005	0,014
-644,970	102,946	-0,051	-0,045
-643,955	245,425	-0,103	-0,130
-642,941	85,625	-0,086	0,070
-641,926	246,498	-0,034	0,042
-640,911	199,586	-0,087	-0,099
-639,897	546,909	-0,059	0,105
-638,882	800,000	0,035	-0,079
-637,868	800,000	-0,097	-0,230
-636,853	153,496	-0,101	-0,103
-635,838	243,036	-0,085	-0,106
-634,824	-200,000	-0,004	-0,095
-633,809	287,568	-0,057	0,076
-632,795	255,779	0,102	-0,130
-631,780	-98,672	-0,147	-0,028
-630,765	-156,362	0,092	-0,004
-629,751	-200,000	-0,010	0,038
-628,736	126,744	-0,094	-0,088
-627,722	-200,000	-0,028	0,097
-626,707	800,000	0,017	0,037
-625,692	175,250	0,090	-0,097
-624,678	1,236	-0,148	-0,078
-623,663	77,034	0,059	-0,047
-622,649	-40,460	-0,035	-0,013
-621,634	253,976	0,040	-0,050
-620,619	670,034	0,059	-0,114
-619,605	-200,000	-0,007	-0,093
-618,590	-94,797	0,064	-0,013
-617,576	210,001	-0,048	-0,056
-616,561	-200,000	0,004	0,153
-615,546	800,000	0,016	0,051
-614,532	800,000	-0,039	-0,099
-613,517	-46,044	0,093	0,034
-612,503	-200,000	-0,015	0,057
-611,488	-38,737	0,102	0,040
-610,474	800,000	0,041	0,092
-609,459	-25,736	0,099	0,043
-608,444	81,955	0,029	-0,023
-607,430	-50,333	0,074	-0,026
-606,415	-102,268	-0,112	0,020
-605,401	-23,076	0,093	-0,042
-604,386	-27,960	0,044	-0,019
-603,371	-200,000	0,030	0,112
-602,357	28,716	-0,016	-0,010
-601,342	203,488	0,107	-0,123
-600,328	-200,000	-0,020	-0,173
-599,313	-21,254	-0,030	-0,013
-598,298	800,000	-0,024	0,053
-597,284	-200,000	-0,018	0,182
-596,269	-86,775	-0,044	0,010
-595,255	-18,426	0,113	0,052
-594,240	-200,000	-0,023	0,083
-593,225	144,294	-0,038	-0,037
-592,211	72,237	0,079	-0,061
-591,196	1,441	0,123	0,065
-590,182	-114,766	-0,052	0,007
-589,167	-11,027	0,025	0,012
-588,152	37,407	0,118	0,077
-587,138	284,132	-0,061	-0,081
-586,123	93,737	0,037	-0,031
-585,109	88,057	0,095	-0,078
-584,094	-62,075	-0,022	0,007
-583,079	-6,178	0,092	0,046
-582,065	-200,000	-0,003	0,057
-581,050	-200,000	0,010	0,109
-580,036	-43,993	-0,074	-0,027
-579,021	17,695	-0,189	-0,111
-578,006	704,387	-0,037	0,073
-576,992	329,169	0,062	0,088
-575,977	179,604	-0,082	-0,089
-574,963	1,253	-0,045	0,024
-573,948	-45,268	-0,057	-0,021
-572,934	800,000	-0,002	0,004
-571,919	-200,000	-0,004	0,037
-570,904	800,000	0,041	0,104
-569,890	-200,000	-0,008	0,171
-568,875	764,399	-0,017	0,034
-567,861	-200,000	-0,002	-0,047
-566,846	637,357	-0,060	0,113
-565,831	-102,238	-0,009	-0,002
-564,817	-200,000	-0,020	0,086
-563,802	-59,098	-0,018	0,006
-562,788	74,521	-0,098	-0,076
-561,773	800,000	-0,041	-0,106
-560,758	-124,216	0,161	0,018
-559,744	-53,311	0,147	-0,050
-558,729	-120,799	0,090	-0,011
-557,715	87,069	-0,018	-0,015
-556,700	188,197	0,084	-0,093
-555,685	-200,000	-0,031	-0,168
-554,671	800,000	-0,004	0,014
-553,656	296,153	0,088	0,119
-552,642	262,330	0,075	0,097
-551,627	55,571	-0,039	0,028
-550,612	-27,679	-0,041	0,018
-549,598	27,550	0,034	-0,021
-548,583	222,465	-0,065	-0,078
-547,569	453,961	-0,021	0,034
-546,554	8,373	0,038	0,021
-545,539	800,000	-0,015	0,042
-544,525	-46,087	-0,186	0,067
-543,510	382,752	-0,053	-0,081
-542,496	-1,985	0,209	0,109
-541,481	58,551	-0,153	-0,111
-540,466	-200,000	-0,006	-0,027
-539,452	-126,250	-0,068	-0,007
-538,437	211,465	0,115	0,135
-537,423	-200,000	0,010	0,088
-536,408	-105,051	0,093	-0,016
-535,393	-29,063	-0,090	0,038
-534,379	97,178	-0,100	-0,085
-533,364	0,163	0,041	0,021
-532,350	-200,000	-0,021	0,096
-531,335	800,000	0,036	0,092
-530,321	800,000	-0,043	0,100
-529,306	-200,000	-0,004	-0,058
-528,291	800,000	0,046	-0,143
-527,277	95,620	-0,081	-0,068
-526,262	-200,000	0,006	0,094
-525,248	-72,345	-0,030	-0,008
-524,233	800,000	-0,055	0,134
-523,218	-200,000	0,013	0,074
-522,204	109,659	0,079	-0,070
-521,189	232,190	-0,062	0,076
-520,175	800,000	0,023	-0,066
-519,160	-137,664	0,063	-0,005
-518,145	325,666	0,030	0,042
-517,131	300,708	-0,090	0,122
-516,116	275,116	-0,104	0,137
-515,102	221,340	0,071	0,085
-514,087	800,000	0,039	0,117
-513,072	151,572	-0,046	-0,047
-512,058	217,817	0,042	-0,050
-511,043	81,528	-0,074	-0,059
-510,029	191,283	0,061	-0,067
-509,014	-200,000	0,006	-0,081
-507,999	-32,522	-0,054	-0,022
-506,985	44,607	-0,068	-0,046
-505,970	-200,000	0,020	0,087
-504,956	119,451	-0,035	0,032
-503,941	26,234	-0,045	-0,027
-502,926	-54,029	0,056	-0,019
-501,912	-46,931	0,042	-0,015
-500,897	150,719	0,059	-0,059
-499,883	800,000	0,036	0,115
-498,868	-200,000	-0,032	0,147
-497,853	-91,482	-0,085	-0,018
-496,839	-78,012	0,092	0,023
-495,824	383,383	0,035	-0,053
-494,810	434,105	-0,113	0,183
-493,795	190,163	0,056	0,062
-492,781	-97,480	-0,181	-0,034
-491,766	481,689	-0,031	0,052
-490,751	-29,554	-0,072	0,030
-489,737	-123,875	0,148	-0,017
-488,722	604,844	-0,043	-0,079
-487,708	345,043	-0,015	-0,022
-486,693	6,754	0,067	0,037
-485,678	-108,953	-0,036	-0,006
-484,664	-200,000	-0,033	0,141
-483,649	-12,153	-0,105	-0,051
-482,635	-200,000	-0,014	0,077
-481,620	-200,000	0,003	0,102
-480,605	-200,000	0,010	0,078
-479,591	143,945	-0,153	-0,151
-478,576	5,753	0,044	-0,024
-477,562	-199,000	0,078	-0,000
-476,547	-86,718	-0,014	0,003
-475,532	146,696	0,086	-0,085
-474,518	-97,325	0,153	0,029
-473,503	-200,000	-0,001	0,093
-472,489	359,488	0,053	-0,079
-471,474	-197,449	0,029	0,000
-470,459	-74,859	-0,201	-0,053
-469,445	53,307	-0,065	-0,046
-468,430	800,000	0,046	-0,121
-467,416	100,043	-0,099	0,084
-466,401	52,243	0,055	0,039
-465,386	316,497	0,023	-0,032
-464,372	180,835	0,106	-0,115
-463,357	-23,569	0,060	0,026
-462,343	487,589	0,045	-0,077
-461,328	295,850	-0,090	-0,122
-460,313	-67,015	0,104	0,030
-459,299	296,868	0,134	-0,182
-458,284	800,000	0,039	0,112
-457,270	-200,000	0,007	-0,146
-456,255	-200,000	-0,041	-0,155
-455,241	-139,475	-0,093	-0,007
-454,226	800,000	-0,020	0,054
-453,211	2,854	-0,086	0,046
-452,197	-61,486	0,087	0,027
-451,182	800,000	0,025	0,068
-450,168	-5,504	0,044	-0,022
-449,153	800,000	-0,071	0,159
-448,138	24,628	-0,213	0,129
-447,124	55,931	0,063	0,045
-446,109	-20,045	0,041	0,018
-445,095	369,743	0,070	0,105
-444,080	-25,669	0,076	-0,033
-443,065	-144,390	0,099	-0,007
-442,051	541,333	0,018	-0,031
-441,036	-1,128	-0,066	-0,034
-440,022	-200,000	-0,008	-0,141
-439,007	460,987	0,085	-0,141
-437,992	800,000	0,008	0,021
-436,978	800,000	-0,011	-0,029
-435,963	-132,041	0,135	-0,013
-434,949	54,739	-0,041	0,029
-433,934	-60,759	-0,103	0,032
-432,919	-122,528	0,054	-0,006
-431,905	77,687	0,069	-0,054
-430,890	-200,000	0,010	-0,057
-429,876	10,086	0,056	0,031
-428,861	-200,000	0,000	-0,098
-427,846	84,187	-0,042	0,034
-426,832	187,051	-0,047	-0,052
-425,817	20,200	-0,131	-0,078
-424,803	-200,000	-0,010	0,060
-423,788	-121,891	0,232	0,028
-422,773	328,854	-0,115	0,164
-421,759	800,000	0,039	0,095
-420,744	800,000	0,049	0,152
-419,730	-200,000	-0,019	0,109
-418,715	91,568	-0,080	-0,066
-417,701	-200,000	-0,020	-0,065
-416,686	49,555	-0,042	-0,029
-415,671	800,000	0,033	0,071
-414,657	-155,541	0,083	-0,004
-413,642	657,645	0,016	-0,030
-412,628	595,629	-0,022	-0,041
-411,613	800,000	0,013	-0,028
-410,598	800,000	0,027	-0,083
-409,584	20,332	0,056	-0,033
-408,569	-200,000	0,020	-0,100
-407,555	-35,286	-0,099	0,039
-406,540	207,281	-0,078	-0,089
-405,525	-154,583	0,069	-0,003
-404,511	27,183	-0,132	-0,081
-403,496	183,050	-0,126	-0,137
-402,482	-200,000	-0,020	-0,179
-401,467	-64,409	-0,137	0,041
-400,452	40,630	0,177	-0,117
-399,438	-24,658	0,070	0,031
-398,423	172,968	-0,153	0,163
-397,409	426,845	-0,069	-0,110
-396,394	53,620	0,073	0,051
-395,379	205,485	0,142	-0,162
-394,365	800,000	0,045	0,137
-393,350	-140,780	0,042	-0,003
-392,336	125,711	0,051	-0,047
-391,321	163,155	-0,086	0,089
-390,306	70,465	-0,040	-0,031
-389,292	-200,000	-0,008	-0,165
-388,277	-200,000	-0,054	-0,215
-387,263	800,000	0,024	-0,064
-386,248	-200,000	0,051	0,170
-385,233	-53,874	-0,125	0,042
-384,219	-200,000	0,032	0,105
-383,204	12,343	0,015	-0,009
-382,190	-200,000	-0,019	-0,127
-381,175	429,747	0,082	-0,130
-380,160	-4,207	0,061	0,031
-379,146	4,300	0,046	0,025
-378,131	548,183	-0,043	0,076
-377,117	-200,000	0,007	-0,145
-376,102	-18,528	-0,160	-0,073
-375,088	-200,000	0,016	-0,143
-374,073	152,944	-0,092	-0,092
-373,058	-200,000	-0,017	0,108
-372,044	223,523	-0,028	-0,034
-371,029	-73,343	0,065	0,017
-370,015	215,647	0,075	0,088
-369,000	505,487	-0,032	0,054
-367,985	-200,000	0,004	-0,031
-366,971	56,684	0,043	0,031
-365,956	-200,000	-0,063	0,000
-364,942	240,562	-0,020	0,025
-363,927	142,552	-0,090	0,088
-362,912	102,234	0,104	0,089
-361,898	36,170	0,048	0,031
-360,883	77,455	-0,113	-0,088
-359,869	-200,000	-0,004	0,032
-358,854	-122,039	-0,028	-0,003
-357,839	261,470	-0,006	0,007
-356,825	28,030	0,033	-0,020
-355,810	-80,918	-0,145	0,035
-354,796	533,879	-0,083	0,146
-353,781	-80,329	0,132	-0,032
-352,766	152,322	0,004	-0,004
-351,752	-143,938	-0,055	-0,004
-350,737	98,641	-0,136	-0,115
-349,723	276,587	0,114	-0,150
-348,708	-60,432	-0,048	-0,015
-347,693	39,357	-0,069	-0,045
-346,679	-200,000	0,017	-0,117
-345,664	188,713	-0,027	0,029
-344,650	159,233	0,036	0,037
-343,635	267,356	-0,045	-0,058
-342,620	-200,000	-0,015	-0,058
-341,606	-200,000	0,053	0,000
-340,591	-200,000	-0,001	0,042
-339,577	800,000	0,040	-0,091
-338,562	-2,681	-0,094	-0,048
-337,548	-35,738	0,082	0,033
-336,533	223,331	0,136	0,161
-335,518	69,211	0,134	0,101
-334,504	7,921	0,096	-0,053
-333,489	209,740	-0,067	-0,077
-332,475	50,675	-0,056	0,039
-331,460	537,898	-0,036	-0,064
-330,445	14,630	0,089	0,051
-329,431	800,000	0,014	-0,035
-328,416	267,673	-0,026	-0,033
-327,402	-200,000	0,134	0,000
-326,387	-200,000	-0,004	0,060
-325,372	245,116	-0,104	0,128
-324,358	315,998	0,053	-0,074
-323,343	800,000	-0,008	-0,026
-322,329	-200,000	0,015	-0,106
-321,314	96,316	0,146	0,123
-320,299	-1,864	0,070	-0,036
-319,285	27,592	-0,062	0,038
-318,270	-77,137	0,040	0,010
-317,256	-17,526	0,059	-0,027
-316,241	-82,845	-0,052	-0,012
-315,226	69,536	0,057	0,043
-314,212	-81,846	0,163	-0,039
-313,197	456,785	0,037	0,060
-312,183	-200,000	-0,002	-0,109
-311,168	-42,736	-0,113	0,042
-310,153	219,466	-0,036	0,042
-309,139	43,206	0,051	-0,034
-308,124	790,247	0,053	0,107
-307,110	-105,668	-0,127	0,021
-306,095	80,586	-0,043	0,034
-305,080	259,305	-0,008	0,011
-304,066	-110,164	-0,127	0,019
-303,051	-117,713	-0,086	0,011
-302,037	-176,750	-0,178	0,003
-301,022	800,000	0,024	0,069
-300,008	208,552	0,059	0,068
-298,993	109,661	-0,073	0,064
-297,978	-28,201	-0,184	-0,078
-296,964	89,813	0,026	-0,022
-295,949	249,599	0,045	0,056
-294,935	-15,116	0,087	-0,041
-293,920	-154,507	-0,078	-0,004
-292,905	155,329	0,030	-0,030
-291,891	800,000	0,047	-0,102
-290,876	12,035	-0,081	0,045
-289,862	-200,000	-0,025	0,109
-288,847	-200,000	-0,028	-0,112
-287,832	240,196	-0,071	-0,087
-286,818	-157,697	-0,015	-0,001
-285,803	167,819	0,065	0,067
-284,789	800,000	-0,036	0,074
-283,774	37,513	0,061	0,040
-282,759	-38,086	-0,088	0,034
-281,745	168,573	0,027	0,029
-280,730	-94,483	-0,080	0,016
-279,716	440,754	0,055	0,089
-278,701	779,048	-0,028	-0,057
-277,686	800,000	0,032	0,083
-276,672	617,794	0,034	0,063
-275,657	275,284	0,029	0,037
-274,643	300,898	-0,077	0,105
-273,628	445,203	0,050	-0,081
-272,613	7,549	-0,103	0,056
-271,599	297,375	-0,078	0,104
-270,584	-200,000	-0,001	0,021
-269,570	108,533	0,093	0,081
-268,555	-200,000	-0,015	0,138
-267,540	495,356	-0,060	-0,101
-266,526	189,583	0,097	-0,107
-265,511	-61,926	0,098	0,030
-264,497	-200,000	0,010	0,062
-263,482	-200,000	0,029	0,170
-262,467	83,624	-0,043	-0,034
-261,453	-200,000	0,013	-0,073
-260,438	403,938	0,143	-0,220
-259,424	-110,514	-0,015	0,002
-258,409	35,804	-0,116	0,074
-257,395	-113,189	0,109	0,016
-256,380	-2,869	-0,146	0,075
-255,365	29,117	0,128	-0,079
-254,351	160,182	-0,028	-0,029
-253,336	-200,000	-0,022	-0,085
-252,322	-200,000	-0,001	0,028
-251,307	-200,000	-0,003	-0,021
-250,292	164,517	0,086	-0,089
-249,278	-200,000	-0,016	-0,160
-248,263	-66,964	0,059	-0,017
-247,249	-200,000	0,009	0,039
-246,234	-161,296	0,067	0,003
-245,219	141,492	-0,092	-0,089
-244,205	-41,338	-0,134	-0,050
-243,190	-59,441	-0,058	0,018
-242,176	-144,277	0,101	-0,007
-241,161	-13,922	0,009	-0,004
-240,146	-200,000	-0,021	0,091
-239,132	-200,000	-0,009	-0,086
-238,117	-58,013	0,057	-0,018
-237,103	-6,345	-0,051	-0,025
-236,088	282,082	0,006	0,008
-235,073	52,743	-0,061	0,043
-234,059	-49,736	0,120	0,042
-233,044	-43,504	0,152	0,056
-232,030	-77,169	-0,045	0,011
-231,015	-6,380	-0,109	-0,054
-230,000	179,455	-0,088	0,095
-228,986	-121,125	0,043	-0,005
-227,971	173,814	0,047	-0,050
-226,957	-200,000	0,002	0,064
-225,942	800,000	0,038	0,082
-224,927	-166,358	-0,068	-0,002
-223,913	-45,374	0,090	0,032
-222,898	-12,102	0,075	0,036
-221,884	-200,000	0,003	-0,045
-220,869	398,917	0,034	0,052
-219,855	-200,000	-0,029	-0,093
-218,840	-43,735	0,090	0,033
-217,825	-200,000	-0,000	-0,046
-216,811	-101,315	-0,077	0,014
-215,796	800,000	-0,032	-0,096
-214,782	7,805	-0,031	0,017
-213,767	-12,596	0,011	0,005
-212,752	-200,000	0,012	0,074
-211,738	43,441	0,126	-0,084
-210,723	-104,600	0,074	0,012
-209,709	-200,000	0,008	-0,051
-208,694	-29,963	-0,038	0,016
-207,679	377,248	-0,037	-0,055
-206,665	336,973	0,074	0,105
-205,650	662,063	-0,037	-0,070
-204,636	-200,000	0,001	0,054
-203,621	-148,335	-0,170	0,010
-202,606	-81,123	-0,023	0,006
-201,592	800,000	-0,040	-0,082
-200,577	-200,000	0,003	0,060
-199,563	800,000	-0,042	-0,121
-198,548	-200,000	-0,003	0,072
-197,533	800,000	-0,005	-0,015
-196,519	-200,000	0,012	-0,088
-195,504	-42,840	-0,039	-0,014
-194,490	3,961	0,043	-0,023
-193,475	800,000	-0,031	-0,067
-192,460	-88,922	0,065	0,014
-191,446	-74,976	0,076	0,020
-190,431	800,000	0,024	0,073
-189,417	-200,000	0,004	-0,033
-188,402	153,454	-0,140	0,140
-187,387	168,111	0,055	0,057
-186,373	732,203	-0,022	-0,043
-185,358	-122,262	0,104	-0,012
-184,344	156,112	0,071	0,071
-183,329	176,498	0,033	0,035
-182,315	-30,845	-0,059	0,024
-181,300	-200,000	-0,007	0,046
-180,285	-200,000	0,005	0,047
-179,271	557,952	-0,083	0,147
-178,256	207,159	0,041	0,047
-177,242	566,278	0,079	0,141
-176,227	30,019	0,107	0,067
-175,212	-154,136	0,083	0,004
-174,198	237,533	0,064	0,077
-173,183	-200,000	0,004	0,058
-172,169	91,394	-0,064	-0,052
-171,154	800,000	-0,024	-0,069
-170,139	304,875	0,053	0,072
-169,125	-200,000	-0,019	-0,106
-168,110	80,420	0,036	-0,028
-167,096	-200,000	-0,000	0,108
-166,081	-22,594	-0,123	-0,054
-165,066	-200,000	-0,010	-0,100
-164,052	-200,000	-0,001	0,013
-163,037	106,782	-0,060	-0,051
-162,023	240,698	-0,034	-0,041
-161,008	-16,679	-0,024	0,011
-159,993	-37,164	0,060	-0,023
-158,979	430,629	-0,020	-0,031
-157,964	29,111	0,037	-0,023
-156,950	389,874	0,089	-0,135
-155,935	12,480	0,081	0,045
-154,920	-200,000	0,009	-0,064
-153,906	479,418	0,075	0,124
-152,891	-94,340	-0,057	0,011
-151,877	87,552	-0,108	-0,087
-150,862	-200,000	-0,016	-0,078
-149,847	215,562	0,028	0,033
-148,833	-74,609	-0,068	-0,018
-147,818	-139,641	0,052	-0,004
-146,804	-59,657	-0,131	0,041
-145,789	212,920	-0,055	-0,063
-144,775	276,013	-0,024	0,031
-143,760	-105,163	0,025	0,004
-142,745	800,000	0,034	-0,080
-141,731	-19,230	-0,070	0,032
-140,716	-21,051	-0,051	0,023
-139,702	-200,000	0,014	0,157
-138,687	65,314	-0,116	-0,085
-137,672	-200,000	-0,014	-0,055
-136,658	-75,409	0,076	-0,020
-135,643	72,380	-0,079	-0,060
-134,629	660,366	0,025	-0,047
-133,614	800,000	-0,049	0,150
-132,599	-16,471	0,077	0,036
-131,585	1,170	-0,068	-0,035
-130,570	-200,000	-0,003	0,041
-129,556	84,917	-0,037	-0,030
-128,541	-1,775	-0,056	0,029
-127,526	-19,341	-0,094	0,042
-126,512	156,976	0,125	-0,126
-125,497	-145,396	-0,089	-0,006
-124,483	454,431	-0,056	-0,091
-123,468	113,700	0,056	0,049
-122,453	83,189	0,059	-0,047
-121,439	-123,041	-0,055	0,006
-120,424	-146,339	-0,053	-0,003
-119,410	-200,000	-0,008	0,130
-118,395	-13,445	0,016	-0,007
