DTS Sentinel unit serial number:	SN410029Multiplexer serial number:	ORYXHardware model number:	OX2-SRSoftware version number:	ORYX F/W v4,00 Oryx Data Collector v3.7.2.0data status	okinstallation	B6 Nyhavnadifferential loss correction	single-endedforward channel	channel 2reverse channel	N/Adate	2023/12/09time	19:50:08forward acquisition time	300,00reverse acquisition time	0,00gamma	499,1914k internal	0,3130k external	0,3130temperature offset calibration	1,0000default loss term (dB/km)	0,3820temperature slope calibration	1,0000multiplexer offset coefficient	1,0000multiplexer slope coefficient	1,0000fibre end	0,00T internal ref (°C)	21,17T ext. ref 1 (°C)	5,16T ext. ref 2 (°C)	5,12length (m)	temperature (°C)	Stokes	anti-Stokes-744,400	-200,000	0,002	-0,043
-743,385	-40,063	-0,157	-0,060
-742,371	-100,039	0,064	-0,012
-741,356	43,007	-0,228	0,154
-740,342	-200,000	0,042	0,149
-739,327	-37,806	-0,202	0,080
-738,312	-200,000	-0,002	-0,055
-737,298	-99,807	-0,181	0,033
-736,283	800,000	-0,019	-0,055
-735,269	-30,496	-0,260	0,109
-734,254	800,000	0,016	0,049
-733,239	-103,075	-0,551	0,096
-732,225	144,414	0,034	0,033
-731,210	-200,000	0,007	0,116
-730,196	-73,073	-0,072	-0,019
-729,181	101,249	0,084	0,073
-728,167	780,261	0,057	0,117
-727,152	52,747	-0,075	-0,053
-726,137	-168,280	-0,051	-0,001
-725,123	-200,000	0,006	-0,055
-724,108	37,721	-0,125	-0,082
-723,094	258,798	0,099	-0,127
-722,079	442,961	-0,021	-0,035
-721,064	-200,000	-0,011	0,052
-720,050	180,471	0,052	-0,057
-719,035	-200,000	0,020	-0,154
-718,021	-27,366	-0,138	0,059
-717,006	800,000	-0,024	0,077
-715,991	-121,436	-0,085	0,010
-714,977	310,838	-0,087	-0,121
-713,962	72,432	-0,153	0,119
-712,948	-200,000	-0,039	0,149
-711,933	-3,517	-0,101	0,052
-710,918	85,833	-0,063	0,052
-709,904	-200,000	-0,015	-0,099
-708,889	-149,413	-0,039	0,002
-707,875	800,000	0,032	-0,089
-706,860	800,000	0,011	-0,034
-705,845	184,180	-0,038	0,042
-704,831	-90,831	0,049	0,010
-703,816	485,422	0,048	0,082
-702,802	26,612	-0,136	-0,084
-701,787	-41,665	-0,065	0,025
-700,772	791,098	-0,054	-0,110
-699,758	-143,749	0,029	-0,002
-698,743	-88,125	-0,101	0,022
-697,729	-73,521	-0,101	-0,027
-696,714	494,364	0,051	0,088
-695,699	-179,736	0,161	-0,003
-694,685	30,156	-0,092	0,058
-693,670	-200,000	0,040	-0,146
-692,656	738,372	-0,051	-0,103
-691,641	188,858	0,053	-0,059
-690,627	199,128	0,044	-0,050
-689,612	-200,000	-0,009	-0,033
-688,597	574,614	0,025	-0,045
-687,583	-152,993	-0,031	0,002
-686,568	800,000	0,042	0,095
-685,554	800,000	-0,019	0,060
-684,539	-64,405	0,003	-0,001
-683,524	3,403	0,116	-0,063
-682,510	-200,000	0,022	0,270
-681,495	-200,000	0,020	0,106
-680,481	149,322	0,039	-0,039
-679,466	-200,000	-0,001	0,081
-678,451	800,000	0,041	-0,127
-677,437	135,481	-0,028	-0,027
-676,422	225,976	-0,011	-0,014
-675,408	390,567	-0,061	-0,095
-674,393	144,572	0,166	-0,164
-673,378	-200,000	0,002	0,065
-672,364	-200,000	-0,019	-0,142
-671,349	-149,425	-0,055	-0,003
-670,335	151,180	-0,014	-0,014
-669,320	-200,000	0,000	0,046
-668,305	36,998	-0,008	0,006
-667,291	800,000	-0,035	0,077
-666,276	659,869	0,074	-0,142
-665,262	42,544	-0,133	-0,090
-664,247	150,489	-0,018	-0,018
-663,232	-159,312	0,092	0,004
-662,218	-134,173	0,038	0,003
-661,203	21,513	-0,091	0,055
-660,189	-200,000	-0,008	-0,080
-659,174	-200,000	0,021	-0,127
-658,159	-37,215	-0,073	-0,029
-657,145	-52,505	-0,096	-0,033
-656,130	-200,000	0,034	-0,111
-655,116	-200,000	-0,001	-0,088
-654,101	-110,542	0,068	-0,010
-653,086	211,723	-0,035	0,041
-652,072	630,692	0,070	0,132
-651,057	-66,952	-0,192	0,056
-650,043	195,366	-0,093	-0,105
-649,028	-9,100	0,068	0,033
-648,014	-126,766	0,146	-0,016
-646,999	-81,707	0,120	0,029
-645,984	-200,000	-0,015	0,068
-644,970	-63,720	0,044	-0,013
-643,955	800,000	0,049	0,126
-642,941	-83,182	-0,085	-0,020
-641,926	-200,000	-0,030	0,099
-640,911	361,376	0,087	0,129
-639,897	46,841	-0,148	0,102
-638,882	-4,294	-0,087	-0,044
-637,868	-200,000	-0,016	0,082
-636,853	-38,112	-0,012	0,005
-635,838	-62,490	-0,058	0,018
-634,824	237,062	-0,090	-0,111
-633,809	-200,000	-0,041	0,157
-632,795	-200,000	-0,023	0,126
-631,780	188,756	0,046	0,051
-630,765	-2,837	0,087	0,045
-629,751	228,627	-0,059	-0,071
-628,736	-72,857	-0,095	-0,026
-627,722	359,260	0,045	0,067
-626,707	-42,180	-0,128	0,048
-625,692	58,388	0,067	0,048
-624,678	185,726	0,043	-0,048
-623,663	367,396	0,079	0,118
-622,649	-124,851	0,029	-0,003
-621,634	-200,000	0,000	-0,157
-620,619	-87,975	-0,055	-0,012
-619,605	-200,000	0,047	-0,000
-618,590	-200,000	-0,012	0,088
-617,576	-92,101	-0,140	0,029
-616,561	49,575	-0,067	0,047
-615,546	-49,022	0,025	-0,009
-614,532	2,208	-0,135	0,072
-613,517	-89,296	0,044	0,010
-612,503	-118,779	0,045	0,006
-611,488	-200,000	0,033	0,174
-610,474	196,388	-0,046	-0,052
-609,459	212,271	-0,132	-0,155
-608,444	449,249	-0,038	0,062
-607,430	800,000	-0,018	-0,041
-606,415	-27,619	0,082	0,035
-605,401	153,613	-0,048	-0,049
-604,386	-188,282	-0,020	0,000
-603,371	35,472	-0,028	0,018
-602,357	54,409	-0,142	0,101
-601,342	230,110	-0,007	-0,008
-600,328	-7,422	-0,146	-0,073
-599,313	179,012	0,051	0,055
-598,298	800,000	-0,033	0,093
-597,284	800,000	0,004	0,011
-596,269	-109,278	-0,092	0,014
-595,255	-200,000	0,018	0,061
-594,240	-200,000	0,042	0,157
-593,225	536,973	-0,074	-0,130
-592,211	-200,000	-0,012	-0,061
-591,196	-200,000	-0,009	-0,126
-590,182	59,449	0,023	0,016
-589,167	-56,329	-0,072	-0,024
-588,152	501,786	0,078	-0,134
-587,138	664,331	-0,050	-0,096
-586,123	-200,000	-0,014	-0,060
-585,109	768,911	0,033	-0,067
-584,094	-152,141	-0,054	-0,003
-583,079	-130,872	-0,025	0,002
-582,065	-96,302	-0,045	-0,009
-581,050	139,091	0,063	0,062
-580,036	138,881	-0,030	-0,029
-579,021	566,612	0,010	-0,019
-578,006	-152,498	-0,115	-0,006
-576,992	30,706	0,005	-0,003
-575,977	-200,000	0,001	-0,031
-574,963	-142,378	0,050	0,004
-573,948	-76,134	0,156	-0,040
-572,934	748,915	0,038	-0,077
-571,919	-200,000	-0,025	0,097
-570,904	-129,623	0,068	-0,007
-569,890	143,875	0,097	0,096
-568,875	422,472	-0,065	0,104
-567,861	-200,000	-0,017	0,129
-566,846	207,819	0,123	0,142
-565,831	800,000	-0,036	0,106
-564,817	446,013	0,085	-0,139
-563,802	-141,863	0,054	0,004
-562,788	800,000	-0,064	0,155
-561,773	64,657	-0,096	-0,072
-560,758	450,275	-0,044	0,072
-559,744	80,533	0,037	0,030
-558,729	47,261	0,080	0,055
-557,715	153,418	-0,121	-0,122
-556,700	800,000	-0,038	-0,100
-555,685	192,791	0,030	0,034
-554,671	800,000	-0,009	0,027
-553,656	-3,086	0,084	-0,043
-552,642	48,780	0,075	0,052
-551,627	-113,237	0,108	0,016
-550,612	-85,782	-0,067	0,015
-549,598	253,465	-0,104	0,131
-548,583	469,400	-0,038	-0,063
-547,569	-200,000	0,034	-0,134
-546,554	22,635	0,095	0,057
-545,539	-200,000	-0,013	0,054
-544,525	684,330	-0,041	0,079
-543,510	213,236	0,067	0,078
-542,496	-200,000	0,007	-0,099
-541,481	-200,000	-0,030	-0,114
-540,466	-135,074	-0,110	-0,010
-539,452	-200,000	0,010	0,050
-538,437	33,387	0,074	-0,047
-537,423	800,000	0,007	-0,021
-536,408	148,221	-0,084	0,084
-535,393	-200,000	-0,004	-0,069
-534,379	-65,108	-0,107	-0,032
-533,364	44,003	0,011	0,007
-532,350	-140,363	0,181	-0,014
-531,335	-65,456	0,150	-0,044
-530,321	-200,000	0,004	-0,027
-529,306	85,628	-0,091	-0,074
-528,291	-44,059	-0,100	-0,037
-527,277	-130,281	-0,049	-0,005
-526,262	-83,891	0,062	-0,014
-525,248	-200,000	0,016	0,106
-524,233	800,000	0,012	0,032
-523,218	269,603	0,049	0,063
-522,204	-169,223	-0,061	-0,002
-521,189	-133,046	-0,036	0,003
-520,175	500,622	-0,029	0,049
-519,160	800,000	0,032	-0,070
-518,145	795,652	-0,049	0,100
-517,131	800,000	-0,016	-0,042
-516,116	79,394	0,030	0,024
-515,102	-166,968	-0,072	0,002
-514,087	-105,201	-0,040	0,007
-513,072	357,482	-0,061	0,090
-512,058	-200,000	-0,014	-0,110
-511,043	615,338	0,047	-0,086
-510,029	-11,787	0,123	-0,059
-509,014	612,082	-0,054	0,099
-507,999	800,000	0,053	-0,134
-506,985	185,043	-0,069	-0,075
-505,970	-135,290	-0,171	-0,015
-504,956	130,632	-0,124	-0,117
-503,941	485,281	-0,082	-0,139
-502,926	255,531	0,120	0,151
-501,912	314,239	-0,072	0,100
-500,897	153,252	-0,041	0,042
-499,883	91,308	-0,079	0,065
-498,868	-142,746	0,039	0,003
-497,853	-104,687	-0,118	0,020
-496,839	-11,924	0,085	0,041
-495,824	558,231	-0,053	-0,095
-494,810	11,916	0,095	0,054
-493,795	-11,801	-0,096	-0,046
-492,781	-200,000	0,002	-0,138
-491,766	-75,435	0,066	0,017
-490,751	126,552	-0,014	-0,013
-489,737	-83,179	0,150	-0,035
-488,722	784,537	0,016	0,032
-487,708	800,000	-0,074	0,156
-486,693	-200,000	0,004	-0,026
-485,678	-200,000	0,017	-0,129
-484,664	162,509	-0,106	-0,110
-483,649	-45,173	0,023	-0,009
-482,635	93,551	-0,050	0,042
-481,620	76,628	0,041	-0,032
-480,605	-56,568	0,075	-0,024
-479,591	800,000	-0,034	-0,074
-478,576	14,642	0,093	-0,053
-477,562	-200,000	0,030	-0,098
-476,547	-56,288	-0,037	-0,012
-475,532	-200,000	-0,003	-0,041
-474,518	-147,756	0,020	-0,001
-473,503	-135,413	-0,047	0,004
-472,489	-117,777	0,061	-0,008
-471,474	-200,000	-0,007	0,052
-470,459	18,862	-0,103	0,061
-469,445	-182,925	0,151	0,002
-468,430	180,067	-0,123	-0,133
-467,416	244,605	0,030	0,037
-466,401	-186,480	-0,035	-0,000
-465,386	669,812	0,050	0,097
-464,372	-62,451	-0,076	-0,023
-463,357	54,046	0,060	-0,043
-462,343	148,110	-0,040	0,040
-461,328	-200,000	0,023	0,088
-460,313	223,978	0,127	0,151
-459,299	-59,096	0,028	-0,009
-458,284	800,000	0,012	0,027
-457,270	210,208	-0,122	0,142
-456,255	411,725	-0,040	-0,063
-455,241	-200,000	-0,007	-0,111
-454,226	-80,410	-0,220	-0,053
-453,211	-200,000	-0,003	-0,014
-452,197	-13,186	-0,026	-0,012
-451,182	-200,000	0,015	0,077
-450,168	330,401	0,073	0,103
-449,153	-153,835	-0,090	-0,004
-448,138	-109,440	-0,097	0,015
-447,124	673,956	0,019	0,036
-446,109	-200,000	-0,016	0,152
-445,095	-72,608	0,143	0,039
-444,080	356,549	0,055	-0,081
-443,065	29,386	-0,037	-0,023
-442,051	35,398	-0,040	0,026
-441,036	-77,249	0,060	0,015
-440,022	-200,000	0,002	-0,015
-439,007	-166,257	0,107	-0,003
-437,992	800,000	-0,036	0,102
-436,978	-200,000	0,023	0,088
-435,963	800,000	0,036	0,074
-434,949	-200,000	0,008	0,068
-433,934	-30,549	-0,122	0,051
-432,919	466,491	0,086	-0,143
-431,905	-200,000	0,006	0,155
-430,890	-200,000	0,001	-0,016
-429,876	44,711	0,106	0,072
-428,861	-12,021	0,021	-0,010
-427,846	117,308	0,027	-0,025
-426,832	-29,712	-0,071	0,030
-425,817	393,315	-0,070	-0,108
-424,803	178,630	-0,037	-0,039
-423,788	-111,609	0,108	0,016
-422,773	-79,162	0,109	0,027
-421,759	-200,000	-0,036	-0,132
-420,744	-200,000	-0,015	-0,064
-419,730	20,245	0,179	-0,106
-418,715	399,073	0,081	-0,125
-417,701	-200,000	-0,024	-0,195
-416,686	-200,000	-0,008	-0,157
-415,671	-200,000	0,020	-0,073
-414,657	528,821	-0,013	0,022
-413,642	-200,000	-0,007	0,179
-412,628	-200,000	0,027	0,122
-411,613	800,000	-0,048	0,140
-410,598	-200,000	0,008	-0,088
-409,584	367,589	-0,053	0,078
-408,569	-200,000	0,011	-0,037
-407,555	-200,000	-0,010	-0,121
-406,540	-71,080	0,087	0,024
-405,525	367,591	-0,073	0,108
-404,511	7,268	-0,026	0,014
-403,496	-76,339	-0,121	-0,031
-402,482	-133,481	-0,042	-0,004
-401,467	9,033	-0,032	0,018
-400,452	196,801	-0,030	-0,033
-399,438	1,610	-0,062	-0,032
-398,423	120,243	0,073	-0,066
-397,409	89,581	-0,060	0,049
-396,394	-200,000	-0,007	-0,089
-395,379	-31,955	0,061	-0,025
-394,365	-200,000	-0,027	0,215
-393,350	800,000	-0,030	0,087
-392,336	-200,000	0,008	-0,025
-391,321	-200,000	0,007	-0,091
-390,306	116,743	-0,045	0,041
-389,292	-200,000	0,004	-0,057
-388,277	-76,704	-0,073	0,019
-387,263	179,497	-0,075	-0,081
-386,248	-200,000	-0,006	0,033
-385,233	361,339	0,047	0,069
-384,219	185,052	0,111	0,121
-383,204	800,000	-0,085	-0,251
-382,190	35,290	-0,059	0,038
-381,175	-126,935	-0,074	-0,008
-380,160	64,183	-0,032	-0,024
-379,146	23,340	0,054	0,032
-378,131	528,446	0,031	-0,054
-377,117	64,202	-0,061	0,045
-376,102	-154,538	-0,135	-0,006
-375,088	339,896	0,045	-0,064
-374,073	87,287	-0,017	-0,014
-373,058	195,487	0,077	0,086
-372,044	66,198	0,028	0,021
-371,029	-200,000	-0,022	0,095
-370,015	-200,000	-0,030	0,100
-369,000	470,587	0,017	0,028
-367,985	-200,000	0,030	-0,176
-366,971	-200,000	0,006	-0,045
-365,956	-200,000	-0,000	0,109
-364,942	212,328	0,104	0,121
-363,927	-50,145	-0,114	0,039
-362,912	-200,000	0,022	0,109
-361,898	-200,000	-0,049	-0,166
-360,883	-200,000	0,004	-0,028
-359,869	-200,000	0,031	-0,105
-358,854	-160,013	-0,158	-0,006
-357,839	-200,000	-0,005	0,187
-356,825	-80,300	0,056	-0,014
-355,810	642,924	-0,043	-0,081
-354,796	-79,631	0,046	0,011
-353,781	-54,014	-0,189	-0,063
-352,766	21,312	-0,042	0,025
-351,752	-200,000	0,006	-0,058
-350,737	-200,000	0,003	0,162
-349,723	99,562	0,055	0,046
-348,708	800,000	0,017	0,052
-347,693	87,076	0,057	-0,046
-346,679	-200,000	0,002	-0,100
-345,664	-56,842	-0,070	-0,022
-344,650	-200,000	0,013	0,081
-343,635	800,000	-0,034	-0,084
-342,620	-12,153	0,056	0,027
-341,606	-200,000	0,022	-0,083
-340,591	-200,000	-0,008	-0,054
-339,577	-154,117	-0,084	0,004
-338,562	-200,000	-0,019	-0,078
-337,548	-200,000	0,007	-0,038
-336,533	-61,455	0,121	-0,037
-335,518	319,449	0,092	0,128
-334,504	-200,000	0,041	0,163
-333,489	689,948	0,067	0,128
-332,475	-200,000	0,009	-0,067
-331,460	241,672	-0,079	-0,097
-330,445	-74,673	0,076	0,020
-329,431	269,094	0,042	-0,054
-328,416	-16,378	0,083	0,038
-327,402	225,210	0,076	0,090
-326,387	268,404	0,027	-0,035
-325,372	264,242	-0,042	-0,053
-324,358	594,146	0,086	-0,157
-323,343	-200,000	0,019	-0,158
-322,329	-200,000	-0,002	-0,049
-321,314	-200,000	-0,016	0,104
-320,299	-43,041	-0,126	0,046
-319,285	-130,011	-0,046	-0,005
-318,270	-71,098	-0,029	-0,008
-317,256	800,000	-0,016	0,050
-316,241	52,615	0,076	-0,053
-315,226	669,462	-0,057	0,108
-314,212	15,411	0,061	0,035
-313,197	-200,000	0,001	-0,070
-312,183	457,205	-0,024	0,039
-311,168	-200,000	0,005	0,044
-310,153	-187,163	-0,052	0,001
-309,139	-17,952	-0,032	-0,015
-308,124	166,761	0,073	-0,075
-307,110	239,563	-0,027	-0,033
-306,095	-54,462	0,151	0,050
-305,080	-73,968	-0,059	-0,016
-304,066	-200,000	0,016	0,077
-303,051	-200,000	0,011	-0,049
-302,037	-200,000	0,005	0,065
-301,022	-200,000	0,010	0,161
-300,008	-113,610	0,088	0,012
-298,993	-24,858	-0,152	0,066
-297,978	4,733	-0,028	-0,015
-296,964	800,000	-0,045	-0,094
-295,949	800,000	0,026	-0,071
-294,935	563,095	0,035	-0,063
-293,920	661,307	0,037	-0,070
-292,905	-104,334	-0,061	-0,010
-291,891	800,000	-0,035	-0,110
-290,876	-92,262	0,247	-0,051
-289,862	-173,511	0,109	0,002
-288,847	-200,000	-0,052	-0,177
-287,832	137,781	-0,109	-0,104
-286,818	-200,000	-0,019	0,065
-285,803	-127,095	0,089	-0,009
-284,789	671,205	0,052	-0,099
-283,774	-66,417	-0,100	0,029
-282,759	135,995	-0,058	0,056
-281,745	800,000	0,050	-0,122
-280,730	70,267	-0,027	-0,020
-279,716	181,348	-0,026	-0,028
-278,701	-200,000	0,020	0,080
-277,686	41,219	-0,068	-0,045
-276,672	16,571	-0,074	0,042
-275,657	800,000	0,041	-0,099
-274,643	-200,000	-0,021	-0,080
-273,628	79,777	0,066	-0,051
-272,613	171,120	0,011	0,011
-271,599	265,655	-0,061	0,078
-270,584	71,429	0,122	-0,092
-269,570	-27,556	-0,065	-0,027
-268,555	-86,455	0,073	0,016
-267,540	-200,000	-0,025	-0,175
-266,526	170,507	-0,059	0,061
-265,511	74,448	0,047	-0,036
-264,497	172,793	0,109	0,115
-263,482	412,644	-0,086	0,133
-262,467	14,955	0,160	0,091
-261,453	160,963	0,050	-0,051
-260,438	108,551	-0,065	-0,057
-259,424	-82,713	0,102	0,024
-258,409	-72,481	-0,143	-0,038
-257,395	-200,000	0,025	0,087
-256,380	-127,887	0,074	0,008
-255,365	-114,880	-0,084	-0,011
-254,351	-200,000	0,002	-0,091
-253,336	36,689	0,122	-0,079
-252,322	-29,220	0,068	-0,028
-251,307	800,000	-0,035	-0,083
-250,292	-200,000	-0,012	-0,102
-249,278	1,054	0,128	0,067
-248,263	53,370	0,090	-0,063
-247,249	-200,000	0,007	0,071
-246,234	-200,000	0,010	0,057
-245,219	-200,000	-0,007	-0,074
-244,205	-131,078	0,135	0,013
-243,190	143,152	-0,029	-0,028
-242,176	-200,000	0,044	-0,144
-241,161	436,197	0,078	-0,124
-240,146	-42,902	0,060	-0,022
-239,132	-200,000	-0,003	0,079
-238,117	-51,063	0,067	0,023
-237,103	-46,454	-0,046	-0,016
-236,088	716,609	0,071	-0,137
-235,073	94,108	0,036	0,030
-234,059	203,104	-0,024	0,027
-233,044	-200,000	0,028	0,138
-232,030	800,000	0,031	0,065
-231,015	-59,012	-0,064	-0,020
-230,000	-200,000	0,005	-0,084
-228,986	-22,113	0,136	0,060
-227,971	62,230	-0,026	0,019
-226,957	-96,888	-0,005	-0,001
-225,942	19,247	0,069	0,040
-224,927	-200,000	0,015	0,060
-223,913	60,945	-0,097	-0,070
-222,898	-200,000	-0,011	0,048
-221,884	-200,000	0,044	-0,192
-220,869	309,630	0,077	-0,106
-219,855	107,489	-0,053	0,046
-218,840	17,681	-0,101	-0,058
-217,825	-166,717	0,062	-0,002
-216,811	-200,000	-0,001	0,087
-215,796	800,000	-0,004	-0,010
-214,782	-200,000	-0,012	-0,085
-213,767	800,000	-0,034	0,085
-212,752	-200,000	-0,007	0,120
-211,738	94,756	0,048	-0,040
-210,723	179,255	0,033	-0,035
-209,709	-200,000	-0,003	0,058
-208,694	106,250	0,118	-0,102
-207,679	-200,000	0,002	0,026
-206,665	800,000	0,007	0,016
-205,650	134,259	-0,079	0,075
-204,636	-82,163	0,139	0,033
-203,621	800,000	-0,038	0,108
-202,606	800,000	-0,034	-0,076
-201,592	464,917	0,054	-0,089
-200,577	15,755	-0,017	0,010
-199,563	800,000	-0,044	0,096
-198,548	800,000	0,016	-0,049
-197,533	158,304	0,137	0,138
-196,519	5,078	-0,076	-0,041
-195,504	360,358	0,034	0,049
-194,490	-200,000	0,027	0,130
-193,475	-23,110	-0,133	-0,058
-192,460	-200,000	0,006	-0,094
-191,446	-72,407	-0,060	-0,016
-190,431	800,000	0,071	0,145
-189,417	258,787	0,070	-0,089
-188,402	218,833	-0,096	-0,111
-187,387	-200,000	0,004	-0,085
-186,373	289,457	0,100	-0,132
-185,358	-200,000	-0,010	0,038
-184,344	-200,000	0,023	-0,100
-183,329	800,000	0,041	0,126
-182,315	64,559	-0,111	-0,082
-181,300	-136,184	0,089	0,007
-180,285	-200,000	-0,009	-0,039
-179,271	-110,494	-0,203	-0,030
-178,256	-104,471	0,131	-0,022
-177,242	73,872	-0,052	0,039
-176,227	-200,000	-0,003	-0,060
-175,212	-200,000	-0,022	-0,112
-174,198	-200,000	-0,005	0,092
-173,183	323,141	-0,113	0,157
-172,169	-200,000	0,002	-0,064
-171,154	122,422	0,060	-0,054
-170,139	185,693	0,065	-0,071
-169,125	-98,387	-0,029	-0,005
-168,110	-164,291	-0,093	-0,003
-167,096	-200,000	0,000	-0,034
-166,081	-76,389	-0,035	-0,009
-165,066	800,000	-0,044	0,127
-164,052	-200,000	0,027	0,116
-163,037	-200,000	0,017	-0,112
-162,023	-200,000	-0,000	0,052
-161,008	678,907	-0,051	0,096
-159,993	-33,604	-0,156	-0,062
-158,979	171,405	0,060	0,063
-157,964	-51,807	0,048	0,016
-156,950	-53,916	-0,044	0,015
-155,935	-200,000	-0,012	0,068
-154,920	-37,022	0,143	0,056
-153,906	-66,603	0,140	0,040
-152,891	617,462	0,015	-0,028
-151,877	16,564	0,080	0,046
-150,862	-127,286	-0,091	-0,010
-149,847	-200,000	-0,022	0,080
-148,833	170,533	-0,092	-0,095
-147,818	347,692	-0,060	0,086
-146,804	-87,729	0,195	0,042
-145,789	800,000	-0,076	0,155
-144,775	800,000	0,018	0,052
-143,760	-59,214	-0,088	0,027
-142,745	102,617	0,068	-0,058
-141,731	-23,708	0,056	0,024
-140,716	123,835	-0,078	-0,071
-139,702	-200,000	0,004	-0,087
-138,687	53,151	0,113	0,078
-137,672	3,847	-0,088	-0,047
-136,658	-200,000	-0,011	0,112
-135,643	133,525	-0,120	-0,113
-134,629	271,795	0,119	0,153
-133,614	-200,000	0,007	0,062
-132,599	98,350	0,030	-0,025
-131,585	588,988	-0,042	0,076
-130,570	-122,470	0,116	-0,014
-129,556	681,575	-0,058	-0,110
-128,541	-80,477	0,125	-0,030
-127,526	633,019	0,048	0,089
-126,512	-136,544	0,221	0,018
-125,497	-200,000	-0,004	0,102
-124,483	105,808	0,012	-0,010
-123,468	800,000	-0,043	-0,114
-122,453	202,920	-0,132	-0,148
-121,439	76,400	-0,023	-0,018
-120,424	89,708	0,124	-0,101
