DTS Sentinel unit serial number:	SN410029Multiplexer serial number:	ORYXHardware model number:	OX2-SRSoftware version number:	ORYX F/W v4,00 Oryx Data Collector v3.7.2.0data status	okinstallation	B6 Nyhavnadifferential loss correction	single-endedforward channel	channel 2reverse channel	N/Adate	2023/12/11time	09:10:08forward acquisition time	300,00reverse acquisition time	0,00gamma	499,1914k internal	0,3136k external	0,3136temperature offset calibration	1,0000default loss term (dB/km)	0,3820temperature slope calibration	1,0000multiplexer offset coefficient	1,0000multiplexer slope coefficient	1,0000fibre end	0,00T internal ref (°C)	17,02T ext. ref 1 (°C)	-0,58T ext. ref 2 (°C)	-0,61length (m)	temperature (°C)	Stokes	anti-Stokes-744,400	47,155	0,075	0,052
-743,385	3,502	-0,196	0,106
-742,371	-170,763	0,266	-0,007
-741,356	-125,080	-0,265	-0,030
-740,342	800,000	0,007	0,016
-739,327	-128,313	-0,290	0,030
-738,312	70,721	0,136	0,104
-737,298	-106,465	-0,279	-0,046
-736,283	178,028	0,138	-0,150
-735,269	-70,733	-0,337	0,094
-734,254	-200,000	-0,004	0,192
-733,239	-41,293	-0,469	-0,178
-732,225	-142,743	0,207	-0,015
-731,210	133,752	0,037	0,036
-730,196	-200,000	0,012	-0,131
-729,181	327,307	-0,091	-0,130
-728,167	3,839	0,125	0,068
-727,152	-0,162	-0,069	-0,036
-726,137	143,593	-0,057	-0,056
-725,123	-200,000	-0,015	-0,091
-724,108	596,210	0,018	-0,032
-723,094	167,390	0,061	-0,065
-722,079	83,402	-0,162	-0,131
-721,064	-200,000	0,007	0,031
-720,050	-18,052	-0,056	0,026
-719,035	800,000	0,056	0,145
-718,021	-140,495	-0,072	-0,005
-717,006	36,793	-0,137	0,089
-715,991	56,737	-0,109	-0,079
-714,977	-73,008	-0,097	-0,026
-713,962	-43,676	-0,107	0,040
-712,948	-63,050	-0,070	-0,021
-711,933	-200,000	-0,001	-0,050
-710,918	-94,036	0,055	0,011
-709,904	88,155	-0,065	0,054
-708,889	-56,417	-0,149	-0,049
-707,875	-200,000	-0,041	-0,134
-706,860	-65,125	0,132	-0,039
-705,845	166,432	0,029	0,031
-704,831	-17,818	-0,054	-0,025
-703,816	85,237	-0,054	0,044
-702,802	800,000	-0,011	0,033
-701,787	-199,949	0,018	0,000
-700,772	751,395	0,017	0,033
-699,758	800,000	0,057	-0,125
-698,743	396,809	0,082	0,128
-697,729	143,052	0,039	0,038
-696,714	800,000	-0,024	0,050
-695,699	-115,427	-0,122	-0,017
-694,685	275,284	0,019	-0,025
-693,670	800,000	-0,045	0,105
-692,656	68,420	-0,070	0,053
-691,641	800,000	0,028	-0,065
-690,627	-5,242	-0,125	-0,063
-689,612	344,567	0,038	-0,056
-688,597	320,047	-0,061	0,086
-687,583	73,076	0,031	0,024
-686,568	131,641	-0,122	-0,117
-685,554	338,059	0,075	-0,108
-684,539	202,022	0,090	-0,103
-683,524	-41,934	-0,036	0,013
-682,510	-92,648	-0,089	0,018
-681,495	-71,453	0,064	-0,018
-680,481	108,596	-0,082	0,073
-679,466	-200,000	0,014	-0,099
-678,451	79,959	-0,126	0,100
-677,437	156,278	0,101	0,104
-676,422	-200,000	-0,000	-0,022
-675,408	800,000	-0,013	0,037
-674,393	132,792	0,043	0,041
-673,378	-200,000	-0,004	-0,052
-672,364	-130,410	0,040	0,004
-671,349	-8,221	-0,070	-0,035
-670,335	568,662	-0,032	-0,058
-669,320	-63,891	0,119	0,036
-668,305	-18,207	-0,064	0,029
-667,291	-200,000	0,042	0,167
-666,276	459,233	-0,027	0,044
-665,262	189,767	-0,110	-0,123
-664,247	800,000	0,065	-0,160
-663,232	-76,514	-0,040	-0,010
-662,218	85,564	0,117	0,095
-661,203	75,831	-0,094	-0,073
-660,189	177,650	-0,130	-0,140
-659,174	-200,000	-0,009	-0,044
-658,159	642,748	0,014	-0,027
-657,145	172,628	0,041	0,044
-656,130	-91,739	-0,074	0,015
-655,116	-54,534	0,159	-0,053
-654,101	54,755	0,092	0,066
-653,086	168,985	-0,056	-0,059
-652,072	246,338	-0,072	-0,090
-651,057	27,566	-0,081	-0,050
-650,043	-9,197	-0,088	0,043
-649,028	145,265	-0,024	0,024
-648,014	204,348	-0,037	0,042
-646,999	58,113	0,058	0,042
-645,984	800,000	-0,024	0,073
-644,970	-38,970	-0,069	-0,027
-643,955	502,539	-0,044	-0,075
-642,941	-8,014	-0,074	-0,037
-641,926	43,943	0,034	0,023
-640,911	493,033	0,032	0,054
-639,897	-200,000	-0,019	0,195
-638,882	-200,000	-0,011	0,068
-637,868	-86,992	-0,112	0,025
-636,853	454,163	-0,084	-0,139
-635,838	-200,000	-0,015	-0,104
-634,824	800,000	-0,040	0,088
-633,809	278,515	0,047	-0,062
-632,795	112,520	0,029	0,026
-631,780	800,000	-0,026	0,058
-630,765	146,424	-0,123	-0,122
-629,751	32,937	-0,124	-0,079
-628,736	22,030	-0,081	-0,049
-627,722	-31,279	-0,143	-0,059
-626,707	459,104	-0,067	0,110
-625,692	800,000	-0,019	-0,052
-624,678	-29,620	0,079	0,033
-623,663	365,925	-0,053	0,080
-622,649	196,116	-0,121	-0,136
-621,634	321,005	-0,010	-0,014
-620,619	-200,000	-0,003	-0,140
-619,605	-200,000	0,015	0,109
-618,590	565,254	0,023	0,041
-617,576	28,504	-0,037	-0,023
-616,561	-186,531	-0,027	-0,000
-615,546	27,579	-0,028	0,018
-614,532	49,757	-0,041	0,028
-613,517	-2,698	-0,077	0,040
-612,503	26,872	0,015	-0,010
-611,488	-17,774	0,016	-0,007
-610,474	76,857	0,050	0,039
-609,459	414,376	0,068	0,107
-608,444	15,984	-0,098	-0,057
-607,430	-133,496	0,092	0,008
-606,415	-35,010	-0,169	-0,068
-605,401	800,000	0,014	0,033
-604,386	-0,859	0,085	0,044
-603,371	-136,832	0,180	-0,015
-602,357	-15,814	0,074	-0,035
-601,342	-111,782	-0,060	-0,009
-600,328	-34,488	-0,094	-0,038
-599,313	-77,892	0,070	-0,018
-598,298	71,810	0,046	0,035
-597,284	-200,000	0,014	0,071
-596,269	-31,115	-0,050	0,021
-595,255	-200,000	0,005	-0,065
-594,240	-200,000	-0,008	-0,106
-593,225	-64,364	-0,042	-0,013
-592,211	-200,000	0,027	-0,093
-591,196	-9,143	-0,169	-0,083
-590,182	-54,822	-0,046	-0,015
-589,167	-200,000	0,041	0,170
-588,152	-63,072	0,093	0,028
-587,138	-200,000	-0,027	0,105
-586,123	97,552	-0,120	-0,102
-585,109	-125,659	-0,056	0,006
-584,094	-134,210	0,015	-0,001
-583,079	3,110	0,057	0,030
-582,065	106,555	0,014	-0,012
-581,050	37,624	-0,138	0,090
-580,036	-2,149	0,089	-0,046
-579,021	90,159	0,093	0,076
-578,006	276,250	-0,028	0,037
-576,992	58,708	0,081	-0,059
-575,977	-100,976	-0,095	0,017
-574,963	667,424	-0,034	-0,065
-573,948	-90,645	0,088	0,019
-572,934	800,000	0,028	-0,063
-571,919	-162,934	-0,066	0,002
-570,904	355,867	-0,066	-0,097
-569,890	800,000	-0,057	-0,162
-568,875	34,872	-0,122	0,079
-567,861	-2,994	0,189	0,097
-566,846	800,000	0,076	0,168
-565,831	-200,000	-0,004	-0,057
-564,817	800,000	0,007	0,019
-563,802	301,516	-0,033	-0,045
-562,788	269,338	0,042	0,054
-561,773	596,337	-0,031	-0,058
-560,758	-200,000	0,004	0,085
-559,744	800,000	-0,030	-0,087
-558,729	29,968	0,023	-0,014
-557,715	566,148	-0,059	-0,106
-556,700	-200,000	0,016	0,064
-555,685	374,435	0,051	-0,076
-554,671	-200,000	0,000	0,038
-553,656	-91,707	0,046	0,010
-552,642	-31,479	0,020	0,008
-551,627	-127,010	0,094	-0,010
-550,612	143,984	-0,006	0,006
-549,598	800,000	-0,041	0,114
-548,583	-70,408	-0,124	0,034
-547,569	-200,000	-0,003	-0,124
-546,554	-200,000	-0,001	0,031
-545,539	181,383	0,049	0,053
-544,525	155,145	-0,067	-0,068
-543,510	-200,000	-0,011	0,062
-542,496	-80,340	-0,104	0,025
-541,481	85,055	-0,119	0,096
-540,466	248,480	-0,040	-0,050
-539,452	298,742	-0,019	0,025
-538,437	-160,696	0,138	0,005
-537,423	-118,696	0,052	0,007
-536,408	-41,146	-0,073	-0,028
-535,393	-0,022	0,092	-0,048
-534,379	800,000	-0,064	-0,156
-533,364	210,628	-0,073	-0,085
-532,350	-86,210	-0,127	-0,028
-531,335	-100,071	0,035	-0,006
-530,321	-36,339	0,053	0,021
-529,306	-8,062	-0,017	0,008
-528,291	582,882	-0,076	-0,138
-527,277	800,000	0,040	0,098
-526,262	213,165	0,031	-0,036
-525,248	800,000	-0,031	-0,066
-524,233	-200,000	0,003	0,049
-523,218	-39,410	-0,085	0,033
-522,204	177,357	0,064	0,069
-521,189	235,444	-0,121	-0,147
-520,175	-200,000	-0,007	0,142
-519,160	246,042	0,058	-0,072
-518,145	573,959	-0,023	-0,041
-517,131	800,000	0,037	-0,081
-516,116	800,000	0,025	0,071
-515,102	-72,311	0,075	0,020
-514,087	800,000	0,055	-0,133
-513,072	800,000	-0,062	-0,181
-512,058	-41,599	-0,155	0,058
-511,043	-200,000	0,034	0,176
-510,029	-200,000	-0,008	-0,060
-509,014	-200,000	0,003	-0,033
-507,999	114,990	0,078	0,070
-506,985	-8,373	0,032	-0,016
-505,970	-200,000	-0,002	0,017
-504,956	157,380	-0,122	0,124
-503,941	-200,000	-0,013	-0,100
-502,926	-90,528	0,136	0,029
-501,912	-40,677	0,089	-0,034
-500,897	122,871	0,098	0,090
-499,883	586,912	-0,065	-0,119
-498,868	-15,919	-0,135	-0,063
-497,853	800,000	-0,057	-0,123
-496,839	95,705	-0,099	-0,083
-495,824	800,000	0,045	-0,115
-494,810	-123,978	-0,087	0,010
-493,795	-96,862	0,090	0,017
-492,781	12,241	-0,110	0,062
-491,766	-182,520	-0,048	-0,001
-490,751	-22,094	-0,078	0,035
-489,737	-200,000	-0,009	0,037
-488,722	-116,621	0,006	0,001
-487,708	-101,254	0,089	-0,016
-486,693	641,821	0,042	0,079
-485,678	144,766	0,029	0,028
-484,664	116,656	-0,116	0,105
-483,649	377,309	-0,045	-0,067
-482,635	-169,574	-0,176	-0,005
-481,620	800,000	0,016	0,038
-480,605	800,000	0,038	-0,089
-479,591	-200,000	-0,013	-0,075
-478,576	628,631	-0,037	-0,069
-477,562	800,000	0,031	-0,079
-476,547	94,354	0,012	-0,010
-475,532	213,855	0,046	0,053
-474,518	444,993	0,036	0,058
-473,503	114,253	0,057	-0,051
-472,489	97,993	-0,144	0,121
-471,474	-200,000	0,022	-0,171
-470,459	761,496	-0,018	0,035
-469,445	-125,061	-0,027	0,003
-468,430	-200,000	0,024	-0,138
-467,416	-98,069	0,085	0,016
-466,401	-107,321	0,039	-0,006
-465,386	-191,867	0,189	0,001
-464,372	93,234	-0,019	0,015
-463,357	-54,741	-0,096	0,032
-462,343	-200,000	-0,018	-0,086
-461,328	800,000	0,006	0,015
-460,313	-200,000	-0,000	-0,077
-459,299	-77,679	-0,109	0,028
-458,284	-200,000	0,018	0,158
-457,270	15,563	-0,090	-0,052
-456,255	569,831	-0,060	-0,107
-455,241	-200,000	-0,014	0,069
-454,226	-200,000	-0,008	-0,118
-453,211	-10,008	0,157	0,076
-452,197	595,315	-0,071	-0,130
-451,182	-177,324	0,081	0,001
-450,168	92,415	0,171	0,142
-449,153	229,515	-0,079	-0,095
-448,138	-200,000	-0,004	0,042
-447,124	-200,000	-0,012	0,095
-446,109	124,469	0,053	-0,049
-445,095	-200,000	-0,013	-0,063
-444,080	469,790	0,059	0,097
-443,065	-200,000	-0,002	-0,157
-442,051	-200,000	0,019	-0,175
-441,036	-75,629	-0,127	-0,033
-440,022	-86,128	0,055	-0,012
-439,007	800,000	-0,046	0,104
-437,992	124,295	0,078	0,072
-436,978	377,130	-0,090	-0,135
-435,963	324,977	0,046	0,065
-434,949	800,000	-0,027	0,079
-433,934	-148,964	-0,062	0,004
-432,919	-200,000	0,005	-0,019
-431,905	-90,616	0,088	-0,019
-430,890	463,606	-0,097	0,160
-429,876	-45,698	-0,088	0,032
-428,861	365,672	-0,003	0,005
-427,846	-200,000	0,014	0,226
-426,832	-63,333	0,029	0,009
-425,817	362,994	-0,065	-0,095
-424,803	26,438	0,047	-0,029
-423,788	800,000	0,053	0,114
-422,773	-153,207	-0,085	-0,004
-421,759	-112,036	0,051	0,007
-420,744	267,155	-0,102	0,132
-419,730	-186,530	0,121	0,001
-418,715	-200,000	-0,010	0,046
-417,701	175,159	0,057	0,060
-416,686	-28,073	0,040	0,017
-415,671	316,485	0,028	0,039
-414,657	-200,000	-0,020	-0,093
-413,642	669,786	0,061	0,117
-412,628	-57,147	-0,054	-0,017
-411,613	197,164	-0,117	0,131
-410,598	315,480	-0,110	0,153
-409,584	146,485	-0,035	-0,034
-408,569	53,558	0,086	0,060
-407,555	-99,070	0,085	-0,016
-406,540	648,042	0,076	0,143
-405,525	19,994	0,070	0,042
-404,511	569,107	0,021	-0,037
-403,496	117,191	0,038	-0,034
-402,482	267,226	0,063	0,081
-401,467	-200,000	0,009	-0,057
-400,452	511,601	0,054	0,092
-399,438	296,650	0,053	0,071
-398,423	-58,918	-0,071	-0,022
-397,409	800,000	-0,028	-0,076
-396,394	-200,000	0,009	0,057
-395,379	785,001	0,048	-0,097
-394,365	-129,590	0,068	0,007
-393,350	-56,148	0,140	0,045
-392,336	42,743	-0,105	0,070
-391,321	-200,000	0,026	0,111
-390,306	287,370	0,020	0,026
-389,292	54,763	-0,058	-0,041
-388,277	800,000	0,040	-0,104
-387,263	514,176	0,042	0,072
-386,248	800,000	-0,017	0,048
-385,233	-200,000	0,022	0,076
-384,219	80,172	0,056	0,044
-383,204	-40,213	-0,036	-0,014
-382,190	11,905	-0,052	0,029
-381,175	232,245	0,090	0,108
-380,160	-200,000	-0,004	0,079
-379,146	-200,000	0,020	0,144
-378,131	-4,869	0,077	-0,039
-377,117	-107,711	0,073	0,012
-376,102	21,990	-0,119	-0,071
-375,088	-120,599	-0,066	0,008
-374,073	97,818	-0,041	-0,035
-373,058	-55,367	0,071	-0,023
-372,044	110,677	-0,042	-0,037
-371,029	800,000	-0,079	-0,185
-370,015	-66,779	0,016	-0,005
-369,000	471,991	-0,024	-0,039
-367,985	74,127	-0,082	0,063
-366,971	327,057	-0,037	0,052
-365,956	800,000	-0,037	0,111
-364,942	800,000	0,031	-0,091
-363,927	-156,096	0,197	-0,009
-362,912	9,920	-0,045	0,025
-361,898	-200,000	0,000	-0,138
-360,883	125,627	0,125	-0,116
-359,869	72,424	-0,064	0,049
-358,854	-118,752	0,141	-0,018
-357,839	-62,128	0,078	0,024
-356,825	154,573	0,065	0,066
-355,810	800,000	0,058	0,178
-354,796	644,971	-0,005	0,009
-353,781	-200,000	-0,001	0,031
-352,766	800,000	-0,063	0,179
-351,752	208,251	-0,010	0,012
-350,737	171,136	-0,065	0,069
-349,723	-0,119	0,098	0,051
-348,708	-164,498	0,051	0,002
-347,693	-0,373	0,057	0,029
-346,679	-115,514	-0,064	-0,009
-345,664	-54,829	0,115	0,038
-344,650	800,000	0,024	0,073
-343,635	-11,451	0,073	0,035
-342,620	-104,084	0,072	-0,012
-341,606	-40,492	0,098	0,037
-340,591	-151,376	0,035	0,002
-339,577	-140,388	-0,142	-0,011
-338,562	800,000	0,049	-0,108
-337,548	-149,689	0,040	0,002
-336,533	-200,000	0,021	0,159
-335,518	-200,000	-0,004	0,134
-334,504	614,782	0,017	-0,031
-333,489	800,000	-0,042	-0,132
-332,475	-200,000	-0,004	-0,061
-331,460	-200,000	0,043	-0,150
-330,445	800,000	0,019	-0,040
-329,431	-166,066	0,132	0,004
-328,416	154,044	0,099	-0,099
-327,402	31,436	0,107	0,067
-326,387	-200,000	-0,016	0,053
-325,372	542,255	-0,075	-0,131
-324,358	-200,000	0,007	0,044
-323,343	-130,622	0,060	-0,006
-322,329	-45,218	-0,041	-0,015
-321,314	234,337	0,058	-0,070
-320,299	-116,361	0,011	0,001
-319,285	800,000	0,051	0,121
-318,270	104,662	-0,061	0,053
-317,256	142,585	-0,059	-0,058
-316,241	-49,063	-0,057	-0,020
-315,226	-200,000	-0,012	0,089
-314,212	800,000	0,057	0,180
-313,197	97,219	0,070	-0,059
-312,183	-19,917	0,072	-0,032
-311,168	552,931	0,023	-0,040
-310,153	141,109	-0,098	-0,094
-309,139	-111,473	-0,121	-0,018
-308,124	-200,000	-0,026	0,140
-307,110	3,823	-0,102	-0,054
-306,095	-200,000	-0,004	-0,025
-305,080	-200,000	-0,007	-0,120
-304,066	83,176	-0,070	0,055
-303,051	800,000	-0,027	-0,058
-302,037	-200,000	-0,036	0,115
-301,022	432,693	-0,041	-0,065
-300,008	171,830	0,059	0,062
-298,993	185,773	-0,086	0,093
-297,978	-57,501	0,116	-0,037
-296,964	-98,306	0,116	-0,022
-295,949	-77,695	0,108	-0,027
-294,935	-200,000	0,012	-0,094
-293,920	439,090	-0,097	-0,155
-292,905	72,614	0,063	-0,048
-291,891	-200,000	-0,043	0,178
-290,876	187,610	-0,049	-0,053
-289,862	-200,000	0,007	-0,133
-288,847	-83,494	-0,172	0,040
-287,832	256,292	-0,056	-0,070
-286,818	178,994	0,109	-0,116
-285,803	262,806	0,114	-0,145
-284,789	34,952	0,188	0,120
-283,774	-80,824	0,019	0,004
-282,759	-200,000	-0,017	-0,067
-281,745	17,731	-0,094	-0,054
-280,730	-200,000	0,005	0,119
-279,716	-200,000	-0,013	-0,056
-278,701	83,670	0,017	0,013
-277,686	11,813	0,090	0,050
-276,672	-200,000	0,038	0,147
-275,657	800,000	-0,055	-0,171
-274,643	-77,227	0,140	-0,035
-273,628	800,000	-0,037	-0,107
-272,613	171,676	-0,045	-0,047
-271,599	-10,088	0,076	0,036
-270,584	-114,133	0,015	0,002
-269,570	-9,867	0,049	-0,024
-268,555	-200,000	0,007	-0,199
-267,540	206,026	-0,033	-0,037
-266,526	99,827	-0,021	0,018
-265,511	-69,519	-0,054	-0,015
-264,497	-140,176	0,166	-0,013
-263,482	180,073	0,042	-0,045
-262,467	-26,614	-0,055	-0,023
-261,453	-200,000	0,004	0,021
-260,438	800,000	0,028	0,062
-259,424	92,117	0,036	-0,029
-258,409	-27,840	-0,086	-0,036
-257,395	-200,000	-0,006	0,033
-256,380	-59,959	0,073	-0,022
-255,365	154,715	-0,083	-0,083
-254,351	800,000	-0,044	0,110
-253,336	315,883	0,027	0,037
-252,322	-200,000	-0,033	-0,162
-251,307	-200,000	0,008	0,128
-250,292	116,054	-0,070	-0,063
-249,278	-79,257	0,073	0,018
-248,263	-105,322	-0,091	-0,015
-247,249	800,000	0,019	-0,052
-246,234	-200,000	-0,017	-0,122
-245,219	-124,345	-0,071	-0,008
-244,205	-124,406	-0,119	0,013
-243,190	-38,733	-0,099	0,038
-242,176	-3,743	0,106	0,053
-241,161	143,431	0,017	-0,017
-240,146	89,389	-0,097	-0,078
-239,132	513,401	-0,046	-0,078
-238,117	-60,988	0,047	-0,014
-237,103	-47,931	-0,064	-0,023
-236,088	-164,589	-0,049	-0,002
-235,073	-200,000	-0,011	-0,077
-234,059	588,013	0,106	0,190
-233,044	43,784	0,091	-0,060
-232,030	800,000	-0,029	-0,075
-231,015	-200,000	0,007	-0,059
-230,000	-200,000	0,002	-0,040
-228,986	717,935	-0,025	-0,048
-227,971	-22,529	-0,060	0,026
-226,957	172,473	0,113	0,118
-225,942	-200,000	0,058	0,230
-224,927	-200,000	-0,016	0,092
-223,913	-77,506	0,070	0,018
-222,898	409,556	0,007	0,010
-221,884	276,361	-0,038	-0,049
-220,869	22,503	-0,082	0,048
-219,855	38,592	0,083	0,053
-218,840	527,912	0,036	0,062
-217,825	-155,253	-0,065	0,003
-216,811	117,831	-0,074	-0,067
-215,796	-200,000	-0,042	-0,179
-214,782	-200,000	-0,001	0,016
-213,767	74,778	0,098	0,075
-212,752	800,000	0,040	-0,098
-211,738	-163,498	0,271	-0,009
-210,723	96,670	-0,077	-0,064
-209,709	-24,803	0,041	0,018
-208,694	-200,000	-0,013	0,074
-207,679	-200,000	-0,015	-0,062
-206,665	-41,097	0,017	0,006
-205,650	-200,000	0,026	0,103
-204,636	-200,000	0,027	0,175
-203,621	-200,000	0,027	-0,097
-202,606	-18,101	-0,118	0,053
-201,592	-200,000	0,003	0,019
-200,577	-36,095	-0,056	0,022
-199,563	28,096	0,161	-0,099
-198,548	-83,771	0,073	-0,017
-197,533	145,363	-0,040	0,039
-196,519	-200,000	-0,118	-0,000
-195,504	-200,000	-0,016	0,101
-194,490	149,717	0,035	-0,035
-193,475	-18,764	-0,056	-0,025
-192,460	109,974	0,111	0,097
-191,446	-121,092	-0,116	-0,014
-190,431	800,000	0,033	0,072
-189,417	-74,057	-0,059	-0,016
-188,402	-59,191	0,031	0,010
-187,387	288,690	0,070	-0,092
-186,373	-153,663	-0,100	0,005
-185,358	-58,691	0,063	0,020
-184,344	12,027	0,094	-0,052
-183,329	487,366	0,083	-0,139
-182,315	-175,851	-0,077	-0,001
-181,300	129,034	0,083	0,077
-180,285	800,000	-0,043	-0,090
-179,271	145,636	-0,152	-0,148
-178,256	-138,231	-0,068	-0,005
-177,242	81,211	0,035	0,027
-176,227	-92,252	0,041	0,008
-175,212	-200,000	0,020	-0,134
-174,198	177,942	0,086	0,092
-173,183	198,322	0,065	-0,072
-172,169	469,322	0,025	0,041
-171,154	-61,977	-0,161	0,049
-170,139	-200,000	0,023	-0,087
-169,125	733,760	-0,032	0,062
-168,110	-31,851	0,129	0,052
-167,096	201,737	-0,071	0,080
-166,081	29,216	-0,092	0,057
-165,066	221,346	0,109	-0,128
-164,052	32,920	-0,034	0,021
-163,037	76,297	-0,090	-0,069
-162,023	551,734	0,051	0,089
-161,008	-78,801	0,176	0,043
-159,993	29,564	0,125	0,077
-158,979	-11,933	-0,117	0,056
-157,964	-48,119	0,035	0,012
-156,950	601,619	-0,042	-0,077
-155,935	-200,000	-0,005	0,068
-154,920	-62,743	0,045	-0,013
-153,906	134,562	-0,041	-0,038
-152,891	-49,292	-0,060	0,021
-151,877	-200,000	0,017	-0,056
-150,862	18,115	-0,061	-0,035
-149,847	-80,422	-0,038	0,009
-148,833	800,000	0,008	0,018
-147,818	-200,000	-0,013	0,202
-146,804	111,161	0,096	0,084
-145,789	119,059	-0,151	0,135
-144,775	788,207	0,038	-0,075
-143,760	324,065	0,025	-0,035
-142,745	249,389	0,104	-0,128
-141,731	800,000	-0,011	0,022
-140,716	-98,725	0,094	-0,017
-139,702	-114,428	0,085	0,012
-138,687	-200,000	0,003	0,022
-137,672	34,561	0,067	-0,042
-136,658	-200,000	0,017	-0,079
-135,643	-105,947	-0,123	-0,020
-134,629	-6,444	-0,061	-0,030
-133,614	45,114	-0,021	0,014
-132,599	16,711	0,133	-0,076
-131,585	-90,314	-0,029	0,006
-130,570	-112,490	0,153	-0,022
-129,556	-91,630	-0,050	0,010
-128,541	198,320	0,080	-0,088
-127,526	-95,406	-0,090	-0,017
-126,512	449,838	-0,051	0,082
-125,497	78,698	-0,087	0,067
-124,483	164,721	-0,036	-0,036
-123,468	800,000	0,028	-0,088
-122,453	-47,533	-0,104	-0,036
-121,439	-200,000	0,004	0,096
-120,424	-68,217	-0,133	-0,037
-119,410	25,879	0,049	-0,029
-118,395	15,083	0,067	-0,038
