DTS Sentinel unit serial number:	SN410029Multiplexer serial number:	ORYXHardware model number:	OX2-SRSoftware version number:	ORYX F/W v4,00 Oryx Data Collector v3.7.2.0data status	okinstallation	B6 Nyhavnadifferential loss correction	single-endedforward channel	channel 2reverse channel	N/Adate	2023/12/08time	20:40:08forward acquisition time	300,00reverse acquisition time	0,00gamma	499,1914k internal	0,3158k external	0,3158temperature offset calibration	1,0000default loss term (dB/km)	0,3820temperature slope calibration	1,0000multiplexer offset coefficient	1,0000multiplexer slope coefficient	1,0000fibre end	0,00T internal ref (°C)	15,19T ext. ref 1 (°C)	-1,40T ext. ref 2 (°C)	-1,39length (m)	temperature (°C)	Stokes	anti-Stokes-744,400	145,790	0,069	0,068
-743,385	-169,878	-0,364	0,009
-742,371	800,000	0,048	0,099
-741,356	-118,499	-0,283	-0,037
-740,342	53,460	0,098	0,069
-739,327	-19,890	-0,196	0,089
-738,312	-133,879	0,131	0,012
-737,298	-161,572	-0,450	-0,017
-736,283	-32,230	0,162	0,066
-735,269	-94,876	-0,250	0,049
-734,254	119,867	0,153	0,140
-733,239	34,128	-0,358	-0,229
-732,225	-60,510	0,159	0,050
-731,210	-38,182	0,062	0,024
-730,196	800,000	-0,026	0,053
-729,181	-135,751	-0,161	0,014
-728,167	-200,000	-0,014	0,164
-727,152	132,780	0,077	-0,073
-726,137	-108,845	-0,149	-0,023
-725,123	-121,282	0,064	-0,008
-724,108	736,982	0,021	-0,042
-723,094	-71,545	-0,099	0,027
-722,079	-200,000	-0,016	-0,097
-721,064	800,000	0,008	0,019
-720,050	-55,196	-0,086	0,028
-719,035	-86,834	-0,089	-0,020
-718,021	691,300	-0,018	-0,035
-717,006	-200,000	0,014	-0,066
-715,991	5,510	-0,152	-0,083
-714,977	83,192	-0,099	-0,080
-713,962	-200,000	0,010	-0,101
-712,948	-96,822	-0,011	-0,002
-711,933	28,659	0,048	-0,030
-710,918	472,620	-0,029	-0,048
-709,904	-85,161	0,150	0,034
-708,889	169,220	0,052	0,055
-707,875	18,712	-0,084	0,049
-706,860	508,821	0,048	-0,082
-705,845	-4,536	-0,102	-0,052
-704,831	800,000	0,048	-0,108
-703,816	800,000	-0,070	-0,176
-702,802	274,265	0,063	-0,082
-701,787	-200,000	0,020	-0,149
-700,772	79,088	0,045	-0,036
-699,758	-2,263	-0,029	-0,015
-698,743	-87,459	0,077	-0,017
-697,729	59,078	0,052	0,037
-696,714	168,245	-0,066	0,069
-695,699	-50,208	-0,172	-0,060
-694,685	800,000	-0,024	-0,053
-693,670	222,309	-0,081	-0,096
-692,656	606,494	-0,054	0,099
-691,641	-132,540	0,129	0,012
-690,627	-0,168	-0,147	0,077
-689,612	68,124	0,056	-0,042
-688,597	703,058	-0,057	-0,111
-687,583	800,000	-0,038	-0,098
-686,568	-200,000	0,013	-0,101
-685,554	-38,314	0,111	0,043
-684,539	733,472	-0,018	0,036
-683,524	-200,000	-0,014	0,053
-682,510	800,000	0,056	-0,149
-681,495	7,158	-0,143	-0,078
-680,481	-98,519	0,027	-0,005
-679,466	719,058	-0,060	-0,118
-678,451	-200,000	-0,002	0,053
-677,437	321,462	-0,037	0,052
-676,422	114,702	0,115	0,103
-675,408	284,976	-0,109	-0,145
-674,393	-200,000	-0,001	-0,040
-673,378	-200,000	-0,039	-0,142
-672,364	-115,072	-0,051	0,007
-671,349	3,132	-0,175	0,093
-670,335	-61,284	-0,120	0,037
-669,320	-200,000	0,037	-0,123
-668,305	1,635	-0,045	0,024
-667,291	171,967	-0,033	0,035
-666,276	15,223	-0,030	0,017
-665,262	230,281	-0,066	-0,080
-664,247	662,870	-0,022	0,042
-663,232	-33,615	0,077	0,031
-662,218	-200,000	0,060	-0,268
-661,203	16,646	-0,093	-0,054
-660,189	610,185	0,052	-0,096
-659,174	800,000	-0,016	-0,041
-658,159	-11,973	-0,083	-0,040
-657,145	244,709	0,055	-0,068
-656,130	-200,000	0,011	0,087
-655,116	-0,519	0,128	-0,067
-654,101	800,000	0,057	0,119
-653,086	-200,000	-0,005	-0,034
-652,072	420,708	-0,059	-0,094
-651,057	-44,484	-0,114	-0,042
-650,043	1,457	-0,079	0,042
-649,028	262,085	-0,016	-0,021
-648,014	-109,363	0,169	0,026
-646,999	800,000	0,067	0,171
-645,984	-200,000	0,009	-0,113
-644,970	-200,000	-0,025	-0,182
-643,955	800,000	0,044	-0,095
-642,941	-200,000	-0,028	-0,122
-641,926	-6,872	-0,099	0,049
-640,911	-98,141	0,071	0,013
-639,897	-52,209	0,004	0,001
-638,882	61,790	-0,059	-0,043
-637,868	800,000	0,062	-0,183
-636,853	493,698	-0,040	0,068
-635,838	226,830	-0,063	0,075
-634,824	-132,108	-0,134	-0,013
-633,809	240,728	0,022	0,027
-632,795	-90,266	0,084	0,018
-631,780	-200,000	0,005	0,058
-630,765	-124,114	-0,152	0,017
-629,751	-109,399	-0,098	-0,015
-628,736	-69,602	0,104	-0,029
-627,722	800,000	-0,030	-0,075
-626,707	96,806	0,125	-0,105
-625,692	-101,720	0,139	0,025
-624,678	143,191	0,045	-0,044
-623,663	-194,752	0,032	-0,000
-622,649	403,852	-0,068	0,105
-621,634	305,123	-0,112	-0,153
-620,619	15,288	-0,063	0,036
-619,605	-187,688	0,061	0,001
-618,590	800,000	-0,032	-0,087
-617,576	-100,017	0,086	0,016
-616,561	66,245	-0,086	-0,064
-615,546	-19,410	-0,122	-0,055
-614,532	88,798	-0,066	-0,054
-613,517	-200,000	0,015	0,053
-612,503	-200,000	0,010	0,095
-611,488	-200,000	0,041	0,203
-610,474	679,151	0,014	0,026
-609,459	548,011	-0,043	0,075
-608,444	154,497	-0,142	-0,143
-607,430	321,159	-0,066	-0,092
-606,415	800,000	-0,044	-0,124
-605,401	-200,000	0,010	-0,039
-604,386	-200,000	0,003	0,038
-603,371	519,427	-0,035	0,061
-602,357	284,311	0,054	0,072
-601,342	-34,759	0,076	0,030
-600,328	-35,237	-0,100	-0,040
-599,313	-130,794	0,026	0,003
-598,298	-200,000	0,016	0,068
-597,284	-200,000	-0,008	0,096
-596,269	157,049	-0,126	0,128
-595,255	60,510	-0,048	0,034
-594,240	800,000	-0,057	0,122
-593,225	800,000	0,017	-0,050
-592,211	-90,304	0,122	-0,026
-591,196	800,000	0,024	0,070
-590,182	329,236	0,032	-0,045
-589,167	-58,011	0,027	0,008
-588,152	-200,000	-0,015	-0,099
-587,138	-132,169	-0,019	-0,002
-586,123	306,335	-0,045	0,062
-585,109	562,591	-0,066	-0,118
-584,094	-200,000	-0,008	0,034
-583,079	103,223	0,035	0,030
-582,065	449,877	0,043	0,069
-581,050	-76,356	0,063	0,016
-580,036	800,000	0,012	0,039
-579,021	-128,344	-0,201	-0,021
-578,006	75,264	-0,048	0,037
-576,992	-103,622	-0,053	-0,009
-575,977	136,123	0,011	-0,011
-574,963	304,048	0,056	0,076
-573,948	330,635	0,091	0,129
-572,934	710,507	-0,026	0,050
-571,919	-200,000	-0,009	0,059
-570,904	258,787	-0,056	-0,071
-569,890	-74,654	-0,067	-0,017
-568,875	-200,000	0,011	0,069
-567,861	800,000	-0,014	0,046
-566,846	519,337	0,054	0,093
-565,831	-42,722	-0,041	0,015
-564,817	-70,765	-0,169	0,046
-563,802	-200,000	-0,022	-0,145
-562,788	800,000	0,032	-0,073
-561,773	-200,000	-0,029	0,103
-560,758	-152,805	-0,028	0,001
-559,744	-200,000	-0,012	0,076
-558,729	22,284	-0,061	0,036
-557,715	-200,000	0,011	0,038
-556,700	298,245	-0,030	-0,040
-555,685	-200,000	0,017	0,076
-554,671	-200,000	0,035	0,139
-553,656	249,702	0,051	0,064
-552,642	516,502	0,009	0,015
-551,627	418,214	0,020	0,032
-550,612	-200,000	0,004	0,073
-549,598	166,958	-0,067	-0,069
-548,583	-48,079	0,046	-0,016
-547,569	-200,000	-0,012	-0,061
-546,554	-200,000	0,000	0,103
-545,539	130,736	0,027	0,025
-544,525	-107,597	-0,062	0,010
-543,510	297,442	0,064	-0,087
-542,496	-49,263	-0,091	-0,031
-541,481	-200,000	-0,007	-0,054
-540,466	355,528	0,073	0,107
-539,452	-172,526	0,011	0,000
-538,437	281,337	0,045	-0,059
-537,423	-116,986	-0,060	0,008
-536,408	-200,000	0,008	-0,039
-535,393	-200,000	-0,021	-0,146
-534,379	800,000	-0,040	-0,093
-533,364	84,076	0,083	-0,066
-532,350	133,816	-0,042	-0,040
-531,335	-82,284	0,114	0,027
-530,321	-167,337	0,099	0,003
-529,306	237,880	0,027	0,032
-528,291	800,000	0,007	-0,021
-527,277	-200,000	0,006	-0,074
-526,262	87,409	0,080	0,064
-525,248	-200,000	-0,046	0,184
-524,233	-72,999	0,051	-0,014
-523,218	-123,243	0,073	0,008
-522,204	-42,814	-0,057	-0,021
-521,189	-157,622	-0,128	-0,005
-520,175	143,299	-0,124	-0,121
-519,160	-200,000	0,001	-0,143
-518,145	-29,115	0,061	0,026
-517,131	4,299	0,035	-0,019
-516,116	525,728	0,040	0,069
-515,102	-108,678	0,127	-0,020
-514,087	800,000	0,009	0,025
-513,072	800,000	-0,050	-0,149
-512,058	239,986	-0,059	-0,072
-511,043	599,366	0,019	-0,035
-510,029	297,225	-0,042	-0,057
-509,014	359,122	0,022	-0,033
-507,999	-32,109	-0,089	-0,036
-506,985	-200,000	0,020	-0,163
-505,970	-109,641	0,061	0,009
-504,956	-132,381	0,023	-0,002
-503,941	197,314	-0,007	0,008
-502,926	18,864	0,051	0,030
-501,912	702,215	0,066	-0,128
-500,897	625,337	-0,036	-0,066
-499,883	219,991	-0,048	0,057
-498,868	115,074	0,062	0,055
-497,853	-200,000	-0,001	0,034
-496,839	-200,000	0,004	-0,040
-495,824	83,436	0,099	-0,079
-494,810	800,000	-0,056	-0,133
-493,795	-200,000	-0,019	0,081
-492,781	138,597	-0,054	0,051
-491,766	422,070	-0,020	0,032
-490,751	598,156	0,010	-0,018
-489,737	800,000	0,014	0,035
-488,722	-97,197	0,104	-0,020
-487,708	-150,134	0,129	-0,007
-486,693	-78,130	-0,122	0,030
-485,678	-119,125	-0,071	-0,009
-484,664	54,295	-0,062	0,044
-483,649	-31,280	-0,063	0,026
-482,635	40,093	-0,060	-0,039
-481,620	800,000	0,023	-0,066
-480,605	-106,311	-0,076	0,012
-479,591	138,780	0,010	-0,010
-478,576	-36,009	-0,147	0,058
-477,562	800,000	-0,004	-0,011
-476,547	800,000	0,025	0,057
-475,532	70,053	-0,035	0,026
-474,518	20,732	-0,060	-0,036
-473,503	167,364	0,030	-0,031
-472,489	-200,000	0,014	-0,116
-471,474	800,000	-0,017	0,043
-470,459	-200,000	-0,022	-0,254
-469,445	-200,000	-0,010	-0,197
-468,430	-200,000	-0,022	-0,105
-467,416	-42,671	-0,023	0,008
-466,401	-200,000	-0,007	0,092
-465,386	-128,927	0,131	0,013
-464,372	306,509	-0,049	-0,067
-463,357	-200,000	0,013	-0,079
-462,343	25,054	0,030	0,018
-461,328	-200,000	-0,015	-0,066
-460,313	603,883	-0,008	-0,015
-459,299	164,132	0,082	-0,084
-458,284	439,419	0,064	0,103
-457,270	-200,000	0,010	0,054
-456,255	-106,241	-0,154	0,025
-455,241	237,113	-0,080	-0,097
-454,226	-89,284	0,076	0,016
-453,211	-135,576	-0,016	0,001
-452,197	-50,382	-0,075	-0,026
-451,182	558,735	0,031	-0,054
-450,168	72,122	0,030	0,022
-449,153	-188,177	-0,195	0,002
-448,138	193,558	-0,101	-0,111
-447,124	-19,827	-0,041	-0,018
-446,109	-109,040	0,022	0,003
-445,095	-39,798	-0,062	-0,024
-444,080	134,544	0,143	0,136
-443,065	388,126	0,050	0,075
-442,051	800,000	0,041	-0,092
-441,036	-200,000	0,027	-0,107
-440,022	-11,327	-0,115	-0,055
-439,007	-111,443	0,078	-0,012
-437,992	346,863	-0,021	0,030
-436,978	-58,475	0,138	-0,043
-435,963	303,417	0,119	-0,162
-434,949	14,173	-0,126	-0,071
-433,934	-60,505	-0,097	-0,030
-432,919	67,470	-0,081	-0,060
-431,905	143,491	-0,123	-0,120
-430,890	60,059	-0,034	-0,024
-429,876	-200,000	0,003	0,015
-428,861	-60,386	0,044	0,014
-427,846	738,692	-0,031	-0,060
-426,832	-200,000	-0,024	-0,105
-425,817	31,772	-0,121	-0,076
-424,803	800,000	0,009	-0,025
-423,788	-50,613	-0,051	0,018
-422,773	-27,189	0,085	0,036
-421,759	40,380	0,095	0,062
-420,744	-200,000	0,030	0,141
-419,730	-148,737	-0,120	-0,007
-418,715	90,586	-0,065	0,053
-417,701	-200,000	0,005	-0,107
-416,686	12,539	0,115	-0,064
-415,671	166,044	0,060	-0,062
-414,657	381,766	0,090	0,135
-413,642	-186,746	0,095	-0,001
-412,628	71,000	0,056	0,042
-411,613	800,000	0,024	0,058
-410,598	108,095	-0,057	0,050
-409,584	45,330	0,113	0,076
-408,569	52,008	0,099	-0,069
-407,555	34,881	0,067	-0,043
-406,540	800,000	-0,014	0,029
-405,525	63,755	-0,107	0,078
-404,511	-19,676	-0,110	-0,049
-403,496	167,558	-0,050	-0,052
-402,482	-74,475	0,146	0,038
-401,467	31,673	0,085	0,053
-400,452	-200,000	-0,025	-0,102
-399,438	-200,000	0,007	0,085
-398,423	-200,000	-0,016	0,061
-397,409	800,000	0,034	-0,089
-396,394	34,655	0,056	-0,035
-395,379	-200,000	0,018	-0,120
-394,365	-31,793	-0,093	-0,038
-393,350	-200,000	0,003	0,064
-392,336	351,474	-0,018	-0,025
-391,321	-99,916	-0,031	-0,006
-390,306	-31,906	-0,037	-0,015
-389,292	219,725	-0,046	-0,053
-388,277	-200,000	0,002	-0,063
-387,263	-81,554	0,047	0,011
-386,248	48,236	-0,043	0,030
-385,233	-185,499	0,053	0,001
-384,219	101,989	-0,041	-0,035
-383,204	-200,000	-0,003	-0,099
-382,190	-200,000	-0,012	-0,063
-381,175	-22,507	0,058	0,026
-380,160	71,746	0,141	0,106
-379,146	-200,000	0,004	0,016
-378,131	44,389	0,077	0,052
-377,117	245,676	-0,026	-0,032
-376,102	-12,212	-0,018	0,009
-375,088	-200,000	0,002	0,012
-374,073	183,418	0,024	0,026
-373,058	96,472	-0,022	0,018
-372,044	-64,568	0,117	0,034
-371,029	-200,000	-0,033	0,152
-370,015	-200,000	-0,016	-0,085
-369,000	-200,000	0,011	0,115
-367,985	800,000	0,020	-0,045
-366,971	-200,000	0,019	-0,094
-365,956	-6,669	0,021	0,010
-364,942	-15,903	0,188	-0,087
-363,927	56,132	-0,083	0,059
-362,912	-25,453	0,060	0,026
-361,898	44,643	0,064	-0,043
-360,883	-152,529	0,079	0,004
-359,869	-200,000	-0,011	0,069
-358,854	800,000	-0,027	0,070
-357,839	-79,692	0,155	-0,038
-356,825	-200,000	0,031	0,099
-355,810	177,859	-0,081	0,086
-354,796	265,390	-0,014	0,018
-353,781	800,000	-0,040	0,107
-352,766	45,848	0,159	-0,107
-351,752	-73,252	0,175	-0,046
-350,737	-53,102	0,067	-0,022
-349,723	800,000	-0,009	0,023
-348,708	-145,166	-0,067	0,004
-347,693	-153,933	-0,043	0,002
-346,679	185,959	-0,009	0,010
-345,664	-200,000	0,018	-0,094
-344,650	-119,611	-0,024	-0,003
-343,635	-85,003	0,069	-0,016
-342,620	-108,166	0,040	-0,006
-341,606	-200,000	0,015	0,053
-340,591	378,898	-0,029	0,044
-339,577	-200,000	0,014	-0,047
-338,562	378,152	-0,074	-0,110
-337,548	-200,000	0,004	0,066
-336,533	49,485	-0,039	0,027
-335,518	258,418	-0,051	0,064
-334,504	800,000	0,087	0,197
-333,489	166,780	0,054	0,055
-332,475	-108,348	-0,035	-0,005
-331,460	50,641	-0,090	-0,061
-330,445	134,024	0,128	0,120
-329,431	231,163	0,023	0,027
-328,416	30,152	-0,037	-0,023
-327,402	-200,000	0,005	0,108
-326,387	-200,000	0,002	-0,016
-325,372	498,663	0,060	-0,101
-324,358	-126,238	0,092	-0,010
-323,343	-53,425	-0,074	0,024
-322,329	250,254	0,063	-0,078
-321,314	800,000	0,031	0,076
-320,299	800,000	-0,026	0,080
-319,285	-67,108	-0,158	-0,045
-318,270	-200,000	-0,017	0,069
-317,256	148,813	-0,068	0,067
-316,241	-31,129	0,115	-0,047
-315,226	800,000	0,019	0,042
-314,212	409,173	0,077	0,119
-313,197	-151,430	-0,126	-0,007
-312,183	649,443	-0,047	-0,087
-311,168	800,000	-0,049	0,108
-310,153	800,000	0,032	-0,065
-309,139	7,183	0,138	0,074
-308,124	154,907	-0,049	0,049
-307,110	-72,921	-0,026	0,007
-306,095	-200,000	-0,003	0,062
-305,080	-3,899	0,058	0,029
-304,066	-47,668	-0,080	0,028
-303,051	-75,591	-0,162	-0,041
-302,037	-56,708	-0,100	-0,032
-301,022	800,000	0,035	0,073
-300,008	250,473	0,042	0,051
-298,993	49,707	0,150	0,102
-297,978	-200,000	0,006	-0,084
-296,964	40,923	-0,029	-0,019
-295,949	196,612	-0,078	0,086
-294,935	-7,208	0,071	0,035
-293,920	296,762	-0,077	0,103
-292,905	-200,000	0,010	0,084
-291,891	169,871	0,040	-0,041
-290,876	-116,428	-0,152	0,020
-289,862	338,399	-0,074	0,105
-288,847	-138,098	-0,069	0,005
-287,832	-200,000	0,006	-0,094
-286,818	8,836	0,100	-0,055
-285,803	800,000	-0,043	0,089
-284,789	-63,539	0,083	-0,025
-283,774	662,280	-0,012	-0,022
-282,759	-200,000	-0,027	0,115
-281,745	800,000	0,026	-0,067
-280,730	-115,341	-0,145	0,020
-279,716	800,000	0,027	-0,058
-278,701	-142,232	0,033	0,002
-277,686	10,259	-0,036	-0,020
-276,672	471,804	-0,032	-0,052
-275,657	591,616	0,021	0,037
-274,643	423,663	-0,064	-0,100
-273,628	213,669	0,019	-0,021
-272,613	-108,743	0,131	-0,020
-271,599	-80,157	0,053	0,013
-270,584	310,250	-0,035	-0,047
-269,570	-195,752	0,123	-0,001
-268,555	112,311	-0,061	-0,054
-267,540	340,692	-0,053	-0,076
-266,526	-112,076	0,117	-0,017
-265,511	-200,000	0,015	-0,084
-264,497	201,921	0,118	-0,132
-263,482	-14,296	0,126	-0,058
-262,467	-200,000	-0,012	-0,111
-261,453	-200,000	-0,015	0,161
-260,438	-200,000	-0,017	0,072
-259,424	800,000	0,037	-0,079
-258,409	800,000	-0,014	0,034
-257,395	-200,000	0,016	0,154
-256,380	555,071	-0,013	-0,024
-255,365	49,390	0,099	0,067
-254,351	-61,857	-0,014	0,004
-253,336	800,000	-0,022	-0,045
-252,322	114,674	-0,088	0,077
-251,307	-200,000	-0,016	0,069
-250,292	516,128	0,014	0,024
-249,278	-32,833	0,124	-0,050
-248,263	135,562	0,123	0,116
-247,249	-44,073	-0,100	0,036
-246,234	415,750	-0,040	-0,062
-245,219	578,429	0,043	0,077
-244,205	-64,271	-0,200	-0,058
-243,190	-200,000	0,030	-0,098
-242,176	-200,000	-0,010	0,061
-241,161	800,000	0,071	0,168
-240,146	346,322	-0,064	-0,092
-239,132	-200,000	0,005	-0,018
-238,117	107,726	-0,051	0,044
-237,103	-200,000	-0,014	0,130
-236,088	-144,759	-0,171	-0,011
-235,073	311,723	0,042	0,057
-234,059	20,758	-0,029	0,017
-233,044	760,950	0,056	-0,110
-232,030	-200,000	-0,021	-0,079
-231,015	-200,000	0,009	0,098
-230,000	191,723	0,062	-0,068
-228,986	800,000	-0,062	0,163
-227,971	-95,684	0,111	0,021
-226,957	-200,000	-0,053	-0,188
-225,942	651,089	0,011	0,021
-224,927	90,821	-0,089	-0,072
-223,913	292,544	-0,080	-0,106
-222,898	150,975	-0,050	-0,049
-221,884	442,968	0,085	-0,136
-220,869	277,138	0,069	-0,088
-219,855	-200,000	-0,025	0,165
-218,840	-200,000	0,019	0,125
-217,825	-200,000	-0,004	-0,036
-216,811	800,000	-0,072	0,174
-215,796	-200,000	0,014	0,059
-214,782	521,546	0,038	0,065
-213,767	-200,000	0,029	0,180
-212,752	-200,000	-0,004	0,105
-211,738	800,000	0,037	-0,105
-210,723	43,211	-0,098	0,064
-209,709	173,356	-0,085	-0,088
-208,694	586,783	0,015	0,027
-207,679	170,662	0,040	0,041
-206,665	183,820	0,008	-0,009
-205,650	-132,385	0,053	0,005
-204,636	81,642	-0,013	0,011
-203,621	-152,133	-0,098	-0,005
-202,606	-200,000	0,001	-0,056
-201,592	198,719	-0,033	0,037
-200,577	147,446	-0,090	-0,087
-199,563	800,000	0,058	0,145
-198,548	532,789	0,074	-0,128
-197,533	-200,000	-0,133	0,000
-196,519	38,199	-0,054	0,035
-195,504	296,018	0,073	-0,097
-194,490	-131,895	-0,062	0,006
-193,475	-200,000	0,001	0,051
-192,460	800,000	-0,023	0,052
-191,446	800,000	0,039	0,098
-190,431	-2,030	0,072	-0,037
-189,417	89,004	-0,050	-0,040
-188,402	-26,308	0,123	-0,052
-187,387	110,236	0,064	-0,055
-186,373	-200,000	0,012	-0,091
-185,358	143,359	-0,053	0,051
-184,344	84,058	0,120	0,094
-183,329	-12,924	-0,033	0,015
-182,315	-146,461	0,120	-0,007
-181,300	-134,551	-0,103	-0,009
-180,285	-47,543	0,043	-0,015
-179,271	-200,000	-0,009	-0,114
-178,256	99,312	0,053	-0,044
-177,242	168,262	0,052	-0,053
-176,227	258,793	0,055	0,069
-175,212	6,925	0,099	0,053
-174,198	-200,000	-0,007	0,036
-173,183	214,934	0,055	-0,062
-172,169	-36,128	-0,052	-0,020
-171,154	-55,342	0,048	-0,016
-170,139	-41,761	-0,104	-0,038
-169,125	207,371	-0,055	0,061
-168,110	148,973	-0,015	0,014
-167,096	14,890	-0,077	0,043
-166,081	36,496	-0,117	-0,074
-165,066	-200,000	0,002	-0,039
-164,052	-55,668	-0,171	0,055
-163,037	-200,000	0,006	-0,048
-162,023	-200,000	-0,026	0,101
-161,008	-17,925	0,090	-0,040
-159,993	800,000	0,029	-0,073
-158,979	31,256	0,048	0,030
-157,964	800,000	-0,031	0,097
-156,950	315,665	-0,032	0,043
-155,935	800,000	0,019	0,049
-154,920	-131,522	0,026	0,002
-153,906	603,246	0,080	0,144
-152,891	-78,119	0,088	0,022
-151,877	47,665	0,143	-0,096
-150,862	-200,000	-0,002	-0,018
-149,847	51,358	-0,019	0,013
-148,833	800,000	-0,021	0,047
-147,818	800,000	0,064	0,142
-146,804	800,000	0,062	0,133
-145,789	-200,000	0,013	-0,074
-144,775	116,384	-0,065	-0,058
-143,760	68,603	0,014	-0,010
-142,745	-58,601	-0,131	-0,041
-141,731	777,541	-0,033	0,065
-140,716	-129,248	0,212	0,021
-139,702	390,337	-0,038	-0,058
-138,687	-200,000	-0,011	-0,094
-137,672	724,235	0,018	-0,034
-136,658	800,000	-0,088	-0,225
-135,643	276,733	0,031	0,040
-134,629	-87,363	-0,066	0,014
-133,614	-45,277	0,021	-0,007
-132,599	94,018	0,049	0,040
-131,585	134,064	0,201	0,188
-130,570	70,544	-0,051	-0,038
-129,556	-200,000	-0,001	0,064
-128,541	54,227	0,063	0,044
-127,526	449,802	0,090	0,144
-126,512	-157,767	0,043	-0,002
-125,497	99,882	0,057	0,047
-124,483	-35,390	-0,150	-0,058
-123,468	-72,882	-0,043	0,011
-122,453	394,375	0,025	-0,037
-121,439	800,000	0,033	-0,065
-120,424	-124,635	-0,058	0,006
-119,410	28,205	0,037	-0,023
