DTS Sentinel unit serial number:	SN410029Multiplexer serial number:	ORYXHardware model number:	OX2-SRSoftware version number:	ORYX F/W v4,00 Oryx Data Collector v3.7.2.0data status	okinstallation	B6 Nyhavnadifferential loss correction	single-endedforward channel	channel 2reverse channel	N/Adate	2023/12/07time	22:30:08forward acquisition time	300,00reverse acquisition time	0,00gamma	499,1914k internal	0,3164k external	0,3164temperature offset calibration	1,0000default loss term (dB/km)	0,3820temperature slope calibration	1,0000multiplexer offset coefficient	1,0000multiplexer slope coefficient	1,0000fibre end	0,00T internal ref (°C)	13,56T ext. ref 1 (°C)	-3,33T ext. ref 2 (°C)	-3,32length (m)	temperature (°C)	Stokes	anti-Stokes-744,400	55,321	0,141	0,101
-743,385	-124,527	-0,228	-0,026
-742,371	6,815	0,158	0,086
-741,356	-116,673	-0,211	0,028
-740,342	800,000	0,043	0,107
-739,327	-117,888	-0,322	0,042
-738,312	291,522	0,130	0,174
-737,298	-155,005	-0,332	-0,016
-736,283	-32,333	0,085	0,035
-735,269	-95,691	-0,263	0,051
-734,254	382,539	0,082	0,124
-733,239	11,820	-0,486	-0,274
-732,225	-105,905	0,237	0,039
-731,210	16,228	0,062	-0,036
-730,196	-200,000	0,019	-0,099
-729,181	-101,131	-0,124	-0,022
-728,167	-85,060	-0,117	0,027
-727,152	77,193	-0,031	-0,024
-726,137	800,000	-0,036	-0,081
-725,123	310,128	-0,064	-0,089
-724,108	210,902	-0,128	-0,148
-723,094	328,276	0,058	-0,081
-722,079	-31,131	-0,185	-0,076
-721,064	-50,621	-0,133	-0,046
-720,050	611,516	0,060	0,111
-719,035	-174,289	0,052	-0,001
-718,021	800,000	-0,030	-0,080
-717,006	-200,000	-0,004	-0,118
-715,991	-22,644	-0,181	-0,080
-714,977	227,597	0,070	-0,084
-713,962	-200,000	-0,001	-0,004
-712,948	800,000	0,030	0,074
-711,933	-79,748	0,117	0,029
-710,918	387,695	-0,025	0,038
-709,904	-200,000	-0,004	-0,047
-708,889	-139,987	-0,179	0,014
-707,875	279,722	0,028	-0,037
-706,860	178,212	0,040	0,043
-705,845	-108,056	0,029	0,005
-704,831	-200,000	0,000	-0,068
-703,816	3,390	-0,041	0,022
-702,802	-167,662	-0,049	-0,001
-701,787	197,690	-0,060	-0,068
-700,772	800,000	-0,049	0,109
-699,758	704,171	-0,052	-0,102
-698,743	-54,780	0,095	-0,031
-697,729	800,000	0,065	-0,179
-696,714	99,350	0,074	0,063
-695,699	-200,000	-0,003	-0,127
-694,685	362,837	-0,081	-0,120
-693,670	-200,000	-0,014	-0,171
-692,656	526,889	-0,030	-0,052
-691,641	129,906	0,064	-0,060
-690,627	-200,000	-0,006	-0,024
-689,612	-43,603	0,107	0,039
-688,597	-200,000	-0,021	-0,119
-687,583	107,277	-0,128	-0,112
-686,568	-200,000	-0,058	-0,318
-685,554	95,029	0,100	-0,083
-684,539	-97,216	0,084	0,016
-683,524	800,000	-0,045	-0,143
-682,510	800,000	-0,061	-0,124
-681,495	-54,745	-0,087	-0,029
-680,481	107,130	0,051	0,044
-679,466	-109,824	0,035	-0,005
-678,451	800,000	0,011	-0,026
-677,437	-53,305	0,088	0,029
-676,422	800,000	0,037	0,096
-675,408	-110,988	-0,109	-0,016
-674,393	72,307	0,126	-0,096
-673,378	-200,000	0,042	-0,170
-672,364	-200,000	-0,010	-0,068
-671,349	212,100	0,202	-0,234
-670,335	-58,762	0,106	0,033
-669,320	150,836	-0,119	0,119
-668,305	244,581	-0,086	0,106
-667,291	329,344	0,104	-0,147
-666,276	800,000	-0,048	-0,129
-665,262	143,184	0,073	0,071
-664,247	-65,495	-0,029	0,008
-663,232	800,000	0,016	0,037
-662,218	-200,000	0,029	-0,141
-661,203	-121,374	0,027	0,003
-660,189	67,661	-0,106	0,079
-659,174	-146,619	-0,171	0,011
-658,159	-200,000	0,022	0,089
-657,145	-200,000	0,012	0,046
-656,130	224,357	-0,081	-0,097
-655,116	-71,073	-0,073	0,020
-654,101	-65,588	0,161	0,047
-653,086	-72,949	0,032	0,009
-652,072	-122,730	0,055	-0,006
-651,057	-97,046	-0,048	-0,009
-650,043	-200,000	0,001	-0,051
-649,028	356,844	0,083	-0,122
-648,014	338,713	0,053	0,076
-646,999	-200,000	0,001	0,072
-645,984	71,719	0,056	-0,043
-644,970	800,000	-0,016	-0,037
-643,955	637,129	0,094	-0,176
-642,941	-200,000	-0,012	-0,086
-641,926	800,000	0,038	-0,091
-640,911	87,826	0,020	-0,017
-639,897	-200,000	-0,010	0,166
-638,882	-73,905	0,089	0,024
-637,868	-103,526	-0,071	0,012
-636,853	-64,900	0,032	-0,009
-635,838	61,804	-0,095	-0,069
-634,824	-200,000	-0,014	-0,079
-633,809	80,051	0,029	0,023
-632,795	-49,090	-0,039	0,014
-631,780	-200,000	0,012	0,135
-630,765	-200,000	0,021	-0,070
-629,751	45,612	0,039	-0,027
-628,736	-199,821	-0,028	0,000
-627,722	208,421	0,065	0,074
-626,707	-200,000	0,025	0,129
-625,692	206,708	0,053	0,061
-624,678	-60,696	0,122	0,038
-623,663	800,000	-0,016	0,034
-622,649	-20,851	-0,044	0,020
-621,634	-123,520	-0,135	0,016
-620,619	800,000	-0,028	-0,075
-619,605	800,000	-0,042	-0,093
-618,590	-200,000	0,008	0,053
-617,576	3,872	-0,038	0,020
-616,561	-3,795	0,098	0,050
-615,546	800,000	-0,014	-0,028
-614,532	475,989	-0,055	0,091
-613,517	-125,989	0,103	0,011
-612,503	78,412	-0,024	0,019
-611,488	146,685	0,156	0,154
-610,474	-54,305	0,012	0,004
-609,459	800,000	0,040	0,100
-608,444	-65,353	-0,132	0,039
-607,430	-19,436	-0,064	-0,029
-606,415	-200,000	0,007	0,055
-605,401	-107,279	-0,071	-0,011
-604,386	623,816	-0,065	-0,121
-603,371	86,385	0,045	0,036
-602,357	278,026	-0,031	-0,040
-601,342	141,173	-0,076	0,074
-600,328	179,018	-0,074	0,079
-599,313	481,339	0,067	-0,112
-598,298	-181,396	0,155	-0,002
-597,284	-65,569	-0,182	0,053
-596,269	84,157	0,017	-0,014
-595,255	800,000	0,042	0,111
-594,240	-200,000	0,029	-0,106
-593,225	534,996	-0,063	-0,110
-592,211	-200,000	0,002	0,031
-591,196	-200,000	0,017	-0,069
-590,182	562,037	-0,018	-0,031
-589,167	23,033	0,087	0,052
-588,152	-200,000	-0,007	-0,056
-587,138	-34,935	0,053	0,021
-586,123	645,355	-0,024	-0,044
-585,109	135,085	-0,144	-0,137
-584,094	800,000	-0,045	-0,110
-583,079	114,882	0,021	0,019
-582,065	32,719	0,084	-0,053
-581,050	-12,523	0,111	-0,053
-580,036	-200,000	-0,007	-0,029
-579,021	-200,000	0,009	-0,035
-578,006	109,675	0,068	-0,059
-576,992	-54,041	-0,081	-0,027
-575,977	703,827	-0,043	-0,083
-574,963	693,439	0,034	-0,065
-573,948	800,000	-0,054	0,167
-572,934	-41,908	-0,110	0,041
-571,919	0,890	-0,081	-0,042
-570,904	317,217	-0,056	0,078
-569,890	2,670	-0,143	0,076
-568,875	115,847	0,037	0,033
-567,861	-114,646	0,134	-0,019
-566,846	-59,350	0,016	0,005
-565,831	56,559	-0,022	0,016
-564,817	-25,645	0,067	0,029
-563,802	800,000	-0,017	-0,051
-562,788	615,448	0,078	0,144
-561,773	472,988	0,051	0,083
-560,758	-200,000	-0,002	0,082
-559,744	800,000	-0,050	0,154
-558,729	-42,160	0,051	0,019
-557,715	-200,000	-0,037	-0,126
-556,700	-200,000	0,031	-0,141
-555,685	-200,000	0,013	-0,123
-554,671	-7,529	-0,071	-0,035
-553,656	-73,783	0,149	-0,039
-552,642	89,179	0,128	-0,104
-551,627	62,691	0,141	-0,103
-550,612	-56,548	-0,099	-0,032
-549,598	711,458	0,064	-0,125
-548,583	-200,000	-0,032	-0,166
-547,569	-42,844	0,103	-0,038
-546,554	-90,387	0,088	0,019
-545,539	-200,000	0,029	0,095
-544,525	-200,000	0,020	-0,136
-543,510	393,454	-0,059	-0,090
-542,496	-200,000	-0,040	0,145
-541,481	-200,000	0,005	-0,033
-540,466	235,964	0,046	0,055
-539,452	23,117	0,111	0,066
-538,437	800,000	-0,059	0,142
-537,423	101,745	-0,014	-0,012
-536,408	-200,000	0,013	-0,143
-535,393	-200,000	-0,021	-0,223
-534,379	-200,000	-0,007	-0,089
-533,364	-200,000	-0,035	-0,119
-532,350	137,793	-0,018	0,017
-531,335	-95,044	0,025	-0,005
-530,321	-169,129	0,061	0,002
-529,306	-180,820	-0,216	0,003
-528,291	-30,062	-0,068	-0,028
-527,277	-138,202	-0,196	0,016
-526,262	302,912	0,031	0,041
-525,248	420,073	0,068	0,107
-524,233	56,554	0,113	0,080
-523,218	226,741	-0,037	0,044
-522,204	-135,133	-0,039	0,003
-521,189	-200,000	0,000	-0,061
-520,175	-92,012	-0,158	-0,032
-519,160	800,000	0,039	0,090
-518,145	-200,000	0,001	0,015
-517,131	120,472	0,080	0,073
-516,116	-200,000	0,008	0,120
-515,102	16,070	-0,063	0,036
-514,087	-200,000	0,021	-0,087
-513,072	121,268	-0,058	-0,052
-512,058	-200,000	-0,008	-0,048
-511,043	35,957	-0,183	-0,117
-510,029	82,883	0,021	0,016
-509,014	44,338	-0,059	0,040
-507,999	-200,000	-0,003	0,064
-506,985	81,152	-0,139	0,110
-505,970	209,451	0,059	-0,067
-504,956	-200,000	0,001	-0,155
-503,941	-22,235	-0,129	-0,057
-502,926	-200,000	-0,114	0,000
-501,912	800,000	-0,066	-0,142
-500,897	22,622	-0,048	0,029
-499,883	800,000	-0,043	-0,116
-498,868	13,462	-0,096	-0,054
-497,853	482,653	0,045	-0,075
-496,839	279,115	-0,034	-0,044
-495,824	-200,000	0,005	-0,017
-494,810	63,009	-0,067	0,049
-493,795	-200,000	-0,010	-0,047
-492,781	392,823	0,010	-0,015
-491,766	800,000	0,026	-0,076
-490,751	-69,107	-0,058	-0,016
-489,737	-200,000	-0,023	-0,096
-488,722	-200,000	0,020	0,078
-487,708	800,000	0,065	0,164
-486,693	491,524	-0,028	0,047
-485,678	177,238	-0,026	0,027
-484,664	-64,482	-0,062	0,018
-483,649	800,000	0,009	0,018
-482,635	-34,500	-0,088	-0,035
-481,620	-81,377	0,175	0,042
-480,605	-200,000	0,014	-0,052
-479,591	-200,000	-0,009	0,133
-478,576	162,816	0,053	-0,054
-477,562	169,058	-0,095	-0,098
-476,547	-89,018	-0,032	-0,007
-475,532	675,978	0,051	0,098
-474,518	38,703	-0,074	-0,048
-473,503	-150,327	0,141	-0,008
-472,489	-200,000	0,011	-0,050
-471,474	-87,071	0,081	0,018
-470,459	-138,246	-0,042	-0,003
-469,445	-200,000	0,004	0,063
-468,430	-64,224	-0,083	-0,024
-467,416	28,390	-0,048	0,030
-466,401	703,179	-0,075	0,144
-465,386	-95,563	-0,150	-0,029
-464,372	-200,000	-0,001	0,093
-463,357	-134,071	0,085	0,008
-462,343	-108,217	-0,085	0,013
-461,328	-196,369	-0,114	-0,001
-460,313	550,348	0,086	-0,150
-459,299	146,648	-0,026	-0,025
-458,284	-200,000	-0,003	0,048
-457,270	-80,633	-0,082	0,020
-456,255	-29,177	0,161	0,067
-455,241	332,976	-0,151	-0,213
-454,226	21,067	0,125	-0,074
-453,211	28,035	-0,172	0,105
-452,197	149,640	0,070	0,069
-451,182	453,424	0,021	0,034
-450,168	594,616	0,052	0,095
-449,153	-16,725	0,028	0,013
-448,138	-22,682	0,068	-0,030
-447,124	-200,000	0,001	0,084
-446,109	-200,000	0,011	0,066
-445,095	800,000	-0,025	0,050
-444,080	-154,001	0,073	0,004
-443,065	-76,333	0,077	0,020
-442,051	-155,466	-0,152	0,007
-441,036	-186,827	0,143	-0,001
-440,022	800,000	-0,030	-0,093
-439,007	800,000	0,035	-0,073
-437,992	-200,000	-0,017	0,147
-436,978	-200,000	0,020	0,071
-435,963	1,030	-0,109	0,056
-434,949	800,000	-0,017	0,041
-433,934	175,265	0,006	-0,007
-432,919	81,630	-0,109	0,086
-431,905	216,622	-0,090	0,104
-430,890	46,141	0,079	-0,053
-429,876	800,000	0,034	0,097
-428,861	311,994	0,077	0,105
-427,846	44,217	-0,123	0,082
-426,832	342,137	-0,034	-0,048
-425,817	159,521	0,029	-0,029
-424,803	800,000	-0,016	-0,034
-423,788	302,213	0,072	-0,097
-422,773	-124,262	0,117	-0,013
-421,759	-200,000	-0,025	-0,100
-420,744	458,406	-0,034	-0,055
-419,730	219,959	-0,080	-0,093
-418,715	-60,249	-0,039	-0,012
-417,701	-200,000	-0,013	-0,056
-416,686	225,355	-0,045	0,053
-415,671	-200,000	-0,006	0,123
-414,657	721,434	0,023	0,045
-413,642	-200,000	0,018	0,106
-412,628	-200,000	-0,008	-0,121
-411,613	119,342	-0,109	0,098
-410,598	16,698	0,037	-0,021
-409,584	22,319	0,083	0,049
-408,569	-126,041	-0,132	-0,014
-407,555	800,000	0,031	-0,088
-406,540	-200,000	0,035	0,200
-405,525	71,115	-0,070	0,052
-404,511	62,016	0,012	0,008
-403,496	-200,000	0,007	-0,166
-402,482	800,000	0,056	-0,116
-401,467	68,929	0,116	0,087
-400,452	-96,681	0,119	-0,022
-399,438	-27,435	-0,015	-0,006
-398,423	543,027	0,045	-0,079
-397,409	-200,000	-0,004	-0,017
-396,394	79,703	0,018	-0,014
-395,379	375,270	0,019	0,028
-394,365	-200,000	0,012	0,052
-393,350	3,133	0,041	0,022
-392,336	-30,099	-0,091	0,037
-391,321	-200,000	-0,004	-0,047
-390,306	-80,220	-0,050	0,012
-389,292	34,954	0,144	-0,092
-388,277	62,351	-0,127	0,092
-387,263	141,760	0,051	0,049
-386,248	514,884	0,042	0,071
-385,233	250,672	0,039	0,048
-384,219	800,000	0,030	-0,076
-383,204	321,075	-0,094	-0,129
-382,190	-200,000	-0,002	0,055
-381,175	-16,950	-0,063	-0,029
-380,160	-67,900	0,056	-0,016
-379,146	368,174	-0,043	0,064
-378,131	-200,000	-0,010	0,067
-377,117	-25,284	-0,065	-0,028
-376,102	800,000	-0,043	0,089
-375,088	6,562	-0,088	-0,047
-374,073	-24,084	0,137	0,059
-373,058	-75,668	-0,010	-0,003
-372,044	-102,721	-0,033	-0,006
-371,029	-200,000	-0,040	0,198
-370,015	-165,425	-0,056	-0,002
-369,000	-104,399	-0,101	0,017
-367,985	32,557	0,084	0,052
-366,971	60,299	-0,086	-0,062
-365,956	3,549	0,076	0,040
-364,942	182,248	0,039	0,042
-363,927	800,000	0,046	0,110
-362,912	233,876	0,080	-0,095
-361,898	-91,050	-0,072	-0,015
-360,883	393,436	0,034	0,051
-359,869	-13,078	-0,085	-0,040
-358,854	472,239	0,108	-0,177
-357,839	-187,652	0,128	-0,001
-356,825	115,583	0,121	0,107
-355,810	800,000	0,044	0,124
-354,796	-142,962	-0,113	-0,008
-353,781	-40,341	0,053	-0,020
-352,766	-155,796	-0,090	0,004
-351,752	-82,501	0,056	-0,013
-350,737	-200,000	-0,021	0,116
-349,723	559,710	-0,048	0,085
-348,708	-60,527	0,040	-0,012
-347,693	574,685	-0,067	-0,119
-346,679	39,031	-0,040	0,026
-345,664	-174,050	-0,145	0,003
-344,650	800,000	-0,009	0,019
-343,635	800,000	0,041	-0,102
-342,620	50,308	-0,044	0,030
-341,606	-62,450	-0,103	-0,031
-340,591	132,197	0,059	-0,056
-339,577	-200,000	0,017	0,064
-338,562	-200,000	-0,015	-0,057
-337,548	763,191	0,085	0,169
-336,533	45,435	0,132	0,088
-335,518	149,648	-0,048	-0,047
-334,504	222,468	0,065	-0,076
-333,489	800,000	-0,024	0,072
-332,475	-200,000	0,008	-0,038
-331,460	-121,133	-0,087	-0,010
-330,445	155,269	-0,038	-0,038
-329,431	748,471	0,090	-0,176
-328,416	-122,261	-0,053	-0,006
-327,402	553,775	-0,046	0,080
-326,387	800,000	0,027	0,056
-325,372	13,208	0,035	0,019
-324,358	-92,075	0,078	-0,016
-323,343	272,373	0,032	-0,041
-322,329	112,772	0,120	-0,105
-321,314	-84,266	0,052	-0,012
-320,299	219,189	0,039	-0,046
-319,285	255,975	0,063	-0,079
-318,270	800,000	-0,022	0,062
-317,256	262,181	-0,088	-0,111
-316,241	-75,953	-0,049	0,013
-315,226	216,113	0,050	-0,058
-314,212	-37,169	0,136	-0,052
-313,197	-8,118	0,036	-0,018
-312,183	29,108	0,080	0,049
-311,168	-57,368	0,112	0,035
-310,153	-88,662	-0,145	-0,031
-309,139	-81,515	-0,129	0,030
-308,124	191,132	0,054	-0,059
-307,110	800,000	0,032	0,076
-306,095	714,514	0,060	0,115
-305,080	-200,000	-0,034	-0,126
-304,066	-200,000	-0,002	0,080
-303,051	66,528	-0,049	-0,036
-302,037	332,328	-0,079	-0,111
-301,022	800,000	0,050	-0,104
-300,008	116,178	0,124	0,110
-298,993	57,644	-0,088	-0,062
-297,978	124,032	0,036	-0,033
-296,964	62,448	-0,074	-0,053
-295,949	25,934	-0,089	0,053
-294,935	-200,000	-0,017	-0,114
-293,920	-200,000	-0,011	0,044
-292,905	-52,590	0,054	0,018
-291,891	-58,132	0,111	0,035
-290,876	478,988	0,020	-0,032
-289,862	350,173	0,078	0,111
-288,847	-68,368	-0,096	-0,027
-287,832	-1,655	-0,050	-0,025
-286,818	800,000	0,044	0,108
-285,803	769,288	0,058	-0,115
-284,789	-173,141	0,124	0,003
-283,774	704,255	-0,026	0,049
-282,759	182,730	-0,109	-0,116
-281,745	800,000	0,033	-0,099
-280,730	14,608	-0,039	-0,022
-279,716	-19,052	-0,107	0,048
-278,701	734,607	0,035	-0,069
-277,686	-200,000	-0,015	0,112
-276,672	165,029	0,150	0,153
-275,657	-147,552	0,054	-0,003
-274,643	507,253	-0,070	0,118
-273,628	-54,508	0,069	-0,022
-272,613	1,808	0,027	-0,014
-271,599	-2,045	-0,043	0,022
-270,584	-82,902	0,064	-0,015
-269,570	247,323	0,076	0,093
-268,555	-92,531	-0,207	-0,042
-267,540	800,000	0,038	-0,094
-266,526	-200,000	0,046	-0,190
-265,511	-200,000	0,031	0,180
-264,497	-200,000	0,016	-0,073
-263,482	11,191	0,195	-0,108
-262,467	-102,414	0,065	0,011
-261,453	-200,000	-0,028	-0,194
-260,438	800,000	-0,013	-0,037
-259,424	363,558	-0,059	-0,085
-258,409	1,308	0,089	0,046
-257,395	800,000	0,033	-0,089
-256,380	-136,785	0,064	0,005
-255,365	-66,975	-0,104	0,029
-254,351	282,239	0,055	0,072
-253,336	-200,000	0,013	0,105
-252,322	-10,673	-0,114	-0,054
-251,307	800,000	0,074	-0,151
-250,292	-85,384	0,044	0,010
-249,278	205,723	-0,047	0,053
-248,263	349,244	0,059	0,085
-247,249	548,084	-0,057	-0,099
-246,234	-145,830	-0,154	-0,010
-245,219	213,260	0,076	-0,087
-244,205	-87,998	0,059	-0,013
-243,190	-200,000	-0,029	0,096
-242,176	-76,752	0,030	0,007
-241,161	380,925	0,081	0,120
-240,146	-80,081	0,030	0,007
-239,132	-200,000	0,011	-0,109
-238,117	-19,868	0,023	-0,010
-237,103	-93,067	-0,073	-0,015
-236,088	-200,000	0,030	0,107
-235,073	-200,000	0,033	0,222
-234,059	-200,000	0,002	0,063
-233,044	140,031	0,077	0,074
-232,030	462,789	-0,035	-0,056
-231,015	-200,000	-0,030	0,113
-230,000	800,000	-0,098	-0,216
-228,986	800,000	0,031	-0,090
-227,971	8,592	-0,067	0,036
-226,957	190,529	-0,029	0,031
-225,942	55,543	0,058	0,040
-224,927	-161,994	-0,175	0,006
-223,913	50,305	-0,058	-0,040
-222,898	-46,432	0,149	-0,052
-221,884	-113,120	-0,067	-0,009
-220,869	-115,790	0,035	0,005
-219,855	-200,000	-0,055	0,240
-218,840	-80,988	0,094	-0,022
-217,825	59,623	0,042	0,030
-216,811	194,555	0,004	0,004
-215,796	-200,000	-0,009	0,048
-214,782	37,155	-0,105	-0,067
-213,767	-13,848	-0,122	-0,057
-212,752	-129,697	0,124	0,012
-211,738	-31,514	-0,117	0,047
-210,723	118,525	-0,080	0,071
-209,709	-140,811	0,055	-0,004
-208,694	237,679	0,013	-0,015
-207,679	-54,032	-0,137	-0,045
-206,665	269,062	0,103	0,131
-205,650	-17,043	0,079	0,036
-204,636	-41,734	-0,030	-0,011
-203,621	-200,000	0,048	0,285
-202,606	800,000	0,037	0,083
-201,592	230,913	-0,138	-0,163
-200,577	-23,437	0,041	0,018
-199,563	-80,117	0,040	-0,010
-198,548	-3,824	-0,010	0,005
-197,533	-51,586	-0,090	-0,030
-196,519	-68,590	-0,103	0,029
-195,504	-99,732	-0,114	0,020
-194,490	-42,167	0,043	-0,016
-193,475	93,293	-0,101	-0,082
-192,460	-46,398	-0,090	-0,032
-191,446	115,688	0,118	0,104
-190,431	3,225	0,087	0,046
-189,417	-121,764	0,066	0,008
-188,402	800,000	0,033	0,075
-187,387	88,262	0,059	0,047
-186,373	367,034	-0,083	0,121
-185,358	-45,681	-0,099	-0,035
-184,344	233,016	-0,064	0,076
-183,329	14,084	-0,030	-0,017
-182,315	-103,061	0,120	0,020
-181,300	-37,881	-0,084	-0,032
-180,285	800,000	0,001	-0,001
-179,271	-200,000	-0,011	-0,199
-178,256	43,706	0,033	-0,022
-177,242	329,584	0,059	0,082
-176,227	-200,000	0,014	0,065
-175,212	-200,000	-0,010	0,064
-174,198	-200,000	0,004	-0,042
-173,183	10,691	-0,127	-0,069
-172,169	721,818	0,008	0,016
-171,154	-107,624	-0,201	0,031
-170,139	34,938	0,071	0,045
-169,125	-93,500	0,155	0,031
-168,110	800,000	0,006	-0,016
-167,096	174,958	0,089	0,093
-166,081	389,708	-0,103	-0,155
-165,066	800,000	0,019	-0,060
-164,052	118,111	-0,033	0,029
-163,037	800,000	0,036	-0,104
-162,023	-200,000	-0,000	-0,080
-161,008	742,288	0,055	0,108
-159,993	-200,000	-0,002	0,054
-158,979	-13,698	0,062	-0,029
-157,964	463,636	-0,031	-0,050
-156,950	129,661	0,080	-0,074
-155,935	0,698	0,068	-0,035
-154,920	17,118	0,097	0,055
-153,906	484,672	0,013	0,021
-152,891	270,104	0,114	-0,144
-151,877	-80,257	-0,045	-0,011
-150,862	-184,338	0,029	-0,000
-149,847	192,169	0,082	0,089
-148,833	800,000	-0,045	-0,096
-147,818	-91,252	0,047	0,010
-146,804	369,937	0,092	0,134
-145,789	-200,000	-0,027	0,117
-144,775	228,535	0,061	-0,071
-143,760	800,000	0,046	0,123
-142,745	-200,000	0,002	0,061
-141,731	370,065	0,029	0,043
-140,716	-200,000	-0,002	0,063
-139,702	371,664	0,062	0,091
-138,687	-200,000	0,026	0,106
-137,672	106,300	-0,041	-0,035
-136,658	800,000	0,013	0,030
-135,643	-117,256	-0,024	0,003
-134,629	-200,000	-0,002	0,077
-133,614	158,499	0,046	0,046
-132,599	800,000	0,043	0,099
-131,585	146,471	-0,063	0,061
-130,570	-200,000	-0,016	0,113
-129,556	38,847	0,053	0,034
-128,541	224,128	-0,093	-0,108
-127,526	800,000	-0,035	-0,082
-126,512	-87,444	-0,022	0,005
-125,497	18,138	-0,075	0,043
-124,483	-200,000	0,031	0,103
-123,468	-200,000	-0,017	0,062
-122,453	23,341	-0,123	-0,073
-121,439	-200,000	0,005	-0,130
-120,424	-200,000	-0,014	-0,179
-119,410	-191,294	0,168	-0,001
-118,395	-200,000	0,021	0,124
