DTS Sentinel unit serial number:	SN410029Multiplexer serial number:	ORYXHardware model number:	OX2-SRSoftware version number:	ORYX F/W v4,00 Oryx Data Collector v3.7.2.0data status	okinstallation	B6 Nyhavnadifferential loss correction	single-endedforward channel	channel 2reverse channel	N/Adate	2023/12/10time	08:15:08forward acquisition time	300,00reverse acquisition time	0,00gamma	499,1914k internal	0,3123k external	0,3123temperature offset calibration	1,0000default loss term (dB/km)	0,3820temperature slope calibration	1,0000multiplexer offset coefficient	1,0000multiplexer slope coefficient	1,0000fibre end	0,00T internal ref (°C)	22,57T ext. ref 1 (°C)	6,33T ext. ref 2 (°C)	6,33length (m)	temperature (°C)	Stokes	anti-Stokes-744,400	-55,360	0,068	-0,023
-743,385	243,785	-0,104	0,130
-742,371	-43,793	0,081	-0,030
-741,356	800,000	-0,090	0,217
-740,342	-7,965	0,051	-0,025
-739,327	-72,434	-0,357	0,098
-738,312	472,603	0,082	-0,139
-737,298	-16,210	-0,247	0,116
-736,283	116,832	0,059	-0,054
-735,269	22,975	-0,257	0,157
-734,254	54,060	0,037	0,026
-733,239	-91,915	-0,475	0,099
-732,225	97,852	0,099	-0,085
-731,210	755,733	0,029	0,058
-730,196	800,000	-0,011	0,026
-729,181	-200,000	0,022	-0,074
-728,167	21,420	0,093	-0,056
-727,152	156,277	-0,069	0,070
-726,137	260,119	-0,052	-0,067
-725,123	800,000	-0,057	0,169
-724,108	569,705	-0,100	-0,182
-723,094	245,519	0,046	-0,058
-722,079	73,222	-0,034	0,027
-721,064	-200,000	-0,005	-0,236
-720,050	-200,000	0,018	-0,084
-719,035	141,195	0,062	-0,061
-718,021	458,070	-0,037	-0,062
-717,006	800,000	-0,035	-0,113
-715,991	-200,000	-0,054	-0,272
-714,977	-70,706	-0,093	0,026
-713,962	-200,000	0,001	-0,053
-712,948	800,000	0,019	0,051
-711,933	-18,439	-0,122	0,056
-710,918	153,606	-0,017	0,017
-709,904	118,802	-0,041	-0,038
-708,889	160,601	0,029	-0,030
-707,875	-200,000	0,014	-0,201
-706,860	-200,000	-0,018	0,097
-705,845	-124,793	0,088	-0,010
-704,831	61,439	0,137	0,102
-703,816	-200,000	-0,018	0,140
-702,802	20,382	0,043	-0,026
-701,787	47,872	-0,156	-0,108
-700,772	300,637	0,085	-0,118
-699,758	-110,280	-0,115	-0,018
-698,743	202,683	0,058	-0,067
-697,729	800,000	0,017	0,054
-696,714	-123,387	-0,153	-0,018
-695,699	-200,000	0,015	0,057
-694,685	90,589	-0,103	-0,086
-693,670	-89,740	0,088	0,019
-692,656	455,018	-0,015	-0,024
-691,641	418,015	-0,032	-0,051
-690,627	-200,000	-0,001	0,057
-689,612	91,957	0,116	-0,097
-688,597	-170,972	0,045	-0,001
-687,583	800,000	-0,014	-0,046
-686,568	23,536	-0,100	-0,061
-685,554	-40,304	0,043	0,017
-684,539	800,000	0,046	0,100
-683,524	345,369	0,019	0,028
-682,510	564,345	0,033	0,060
-681,495	141,145	0,020	-0,019
-680,481	176,408	-0,045	-0,048
-679,466	-66,352	-0,092	-0,027
-678,451	-200,000	-0,012	-0,054
-677,437	800,000	-0,014	-0,041
-676,422	165,572	0,075	0,079
-675,408	800,000	-0,047	-0,133
-674,393	-200,000	-0,037	-0,123
-673,378	340,044	-0,092	-0,133
-672,364	762,394	0,043	0,087
-671,349	28,009	-0,056	-0,035
-670,335	474,241	0,073	-0,124
-669,320	129,264	0,059	-0,056
-668,305	-200,000	-0,010	-0,120
-667,291	-200,000	-0,027	0,000
-666,276	800,000	0,052	-0,155
-665,262	-200,000	0,008	-0,048
-664,247	800,000	-0,030	-0,084
-663,232	520,289	0,020	0,035
-662,218	-200,000	0,006	-0,054
-661,203	49,655	0,082	0,057
-660,189	-18,916	-0,076	-0,035
-659,174	386,105	-0,013	-0,020
-658,159	800,000	0,037	0,091
-657,145	395,411	-0,028	-0,044
-656,130	-200,000	0,022	0,101
-655,116	-118,802	-0,057	-0,007
-654,101	23,556	-0,079	0,048
-653,086	-200,000	-0,024	0,091
-652,072	-200,000	0,015	0,073
-651,057	408,424	0,045	-0,071
-650,043	-43,135	-0,090	-0,034
-649,028	-183,501	-0,123	0,002
-648,014	-91,728	0,162	-0,034
-646,999	180,040	0,060	-0,066
-645,984	-200,000	-0,014	-0,080
-644,970	-200,000	0,001	-0,123
-643,955	112,703	-0,074	0,066
-642,941	134,519	0,084	0,081
-641,926	-45,702	-0,051	-0,019
-640,911	583,091	-0,062	-0,113
-639,897	-200,000	0,002	0,035
-638,882	211,109	-0,035	-0,041
-637,868	-20,556	-0,016	-0,007
-636,853	800,000	-0,021	-0,046
-635,838	484,937	-0,061	-0,104
-634,824	125,450	0,022	-0,021
-633,809	124,262	0,022	0,021
-632,795	24,709	0,044	-0,027
-631,780	-35,037	-0,066	-0,027
-630,765	-52,122	-0,056	0,019
-629,751	551,098	0,061	-0,109
-628,736	-56,104	-0,020	0,007
-627,722	-200,000	-0,022	-0,106
-626,707	134,893	0,048	-0,046
-625,692	-0,995	0,088	0,046
-624,678	195,534	-0,103	-0,116
-623,663	-200,000	-0,016	0,073
-622,649	-119,854	-0,110	-0,014
-621,634	18,314	0,105	-0,062
-620,619	556,660	0,046	0,083
-619,605	103,283	-0,098	-0,085
-618,590	40,207	0,146	-0,097
-617,576	168,799	-0,062	-0,066
-616,561	257,813	-0,096	-0,123
-615,546	-50,622	-0,072	-0,025
-614,532	108,564	-0,062	-0,055
-613,517	-51,343	-0,103	-0,036
-612,503	75,576	0,049	0,038
-611,488	422,778	-0,056	0,089
-610,474	469,395	-0,025	-0,042
-609,459	-200,000	-0,007	-0,088
-608,444	-200,000	0,028	0,137
-607,430	159,844	0,051	-0,052
-606,415	-200,000	0,010	-0,058
-605,401	259,823	-0,090	0,115
-604,386	319,462	0,014	0,020
-603,371	-200,000	0,012	0,111
-602,357	800,000	-0,010	0,029
-601,342	13,415	-0,070	-0,040
-600,328	-200,000	0,001	0,016
-599,313	39,786	0,029	-0,019
-598,298	-200,000	0,003	-0,038
-597,284	-200,000	-0,013	0,057
-596,269	63,202	0,060	0,045
-595,255	8,971	0,066	-0,037
-594,240	-200,000	0,030	0,099
-593,225	550,683	0,019	-0,034
-592,211	-40,412	-0,125	-0,048
-591,196	309,875	0,017	0,023
-590,182	85,479	0,133	-0,108
-589,167	-200,000	-0,015	-0,125
-588,152	-21,179	-0,036	0,016
-587,138	113,356	0,007	-0,006
-586,123	347,097	0,015	0,022
-585,109	800,000	-0,012	-0,026
-584,094	45,531	0,127	0,086
-583,079	458,052	0,083	0,137
-582,065	800,000	0,019	0,054
-581,050	-200,000	0,008	0,138
-580,036	668,642	-0,068	0,132
-579,021	-61,638	0,018	0,006
-578,006	-158,189	-0,096	-0,004
-576,992	-200,000	-0,010	0,052
-575,977	173,818	-0,052	0,056
-574,963	-16,839	0,061	0,028
-573,948	371,870	0,010	0,015
-572,934	-92,826	-0,070	0,014
-571,919	-74,249	-0,083	0,022
-570,904	428,255	-0,025	0,040
-569,890	17,458	0,047	-0,028
-568,875	-103,737	0,117	0,020
-567,861	470,997	-0,065	-0,109
-566,846	800,000	-0,047	0,098
-565,831	-77,069	-0,068	-0,017
-564,817	800,000	-0,020	-0,061
-563,802	-111,651	-0,087	0,013
-562,788	370,123	0,027	-0,041
-561,773	-13,768	-0,026	0,012
-560,758	665,523	0,037	0,071
-559,744	419,955	0,099	0,157
-558,729	221,985	-0,027	-0,033
-557,715	-200,000	-0,006	-0,122
-556,700	542,743	0,050	0,089
-555,685	193,465	0,044	0,050
-554,671	181,584	-0,012	-0,013
-553,656	-200,000	0,009	0,128
-552,642	-84,943	0,088	0,020
-551,627	-1,387	0,074	-0,038
-550,612	11,642	-0,101	-0,057
-549,598	-62,049	-0,157	-0,048
-548,583	800,000	-0,043	-0,115
-547,569	-108,003	0,048	0,008
-546,554	776,310	0,053	0,108
-545,539	-97,316	0,122	-0,023
-544,525	800,000	0,023	0,059
-543,510	-160,562	-0,098	0,004
-542,496	660,860	-0,013	-0,026
-541,481	-49,656	-0,091	-0,032
-540,466	26,184	0,100	0,062
-539,452	-200,000	0,020	0,072
-538,437	800,000	0,016	0,039
-537,423	-200,000	-0,001	0,210
-536,408	-47,400	-0,072	0,026
-535,393	-45,725	0,182	-0,066
-534,379	-123,028	-0,106	0,012
-533,364	800,000	0,030	-0,074
-532,350	-36,529	0,029	0,011
-531,335	-19,991	-0,028	0,013
-530,321	-200,000	0,005	0,084
-529,306	70,133	0,125	0,095
-528,291	800,000	0,021	-0,068
-527,277	145,912	-0,060	-0,059
-526,262	38,434	-0,047	0,031
-525,248	155,602	0,058	-0,060
-524,233	-51,951	0,089	0,031
-523,218	177,624	0,023	0,025
-522,204	581,893	-0,030	-0,054
-521,189	-136,636	-0,100	-0,008
-520,175	103,577	0,075	-0,065
-519,160	-200,000	0,002	0,050
-518,145	11,042	0,104	0,059
-517,131	-35,252	0,088	0,035
-516,116	1,389	-0,082	-0,044
-515,102	406,317	0,036	-0,057
-514,087	415,649	-0,059	-0,093
-513,072	316,242	0,081	-0,113
-512,058	800,000	-0,018	0,051
-511,043	11,400	0,107	-0,061
-510,029	800,000	0,041	-0,100
-509,014	468,560	-0,015	0,024
-507,999	800,000	0,054	0,125
-506,985	-43,904	-0,126	-0,047
-505,970	532,739	-0,048	-0,085
-504,956	310,529	-0,098	0,136
-503,941	346,096	0,006	0,009
-502,926	-200,000	0,011	0,160
-501,912	461,405	0,047	-0,078
-500,897	-85,974	-0,088	0,020
-499,883	-200,000	0,035	-0,137
-498,868	800,000	0,025	-0,060
-497,853	151,033	-0,092	0,092
-496,839	-12,969	0,071	-0,034
-495,824	-200,000	0,035	0,175
-494,810	-126,897	-0,033	0,004
-493,795	-159,658	-0,072	0,003
-492,781	416,720	-0,055	-0,087
-491,766	115,935	-0,114	-0,103
-490,751	50,369	-0,084	0,059
-489,737	-132,171	0,087	-0,008
-488,722	458,175	-0,073	0,120
-487,708	478,996	0,059	0,099
-486,693	-200,000	-0,007	0,132
-485,678	761,318	0,065	0,131
-484,664	125,818	0,111	0,103
-483,649	800,000	-0,037	-0,107
-482,635	-115,222	-0,009	-0,001
-481,620	144,564	0,080	-0,079
-480,605	306,916	0,103	0,142
-479,591	-200,000	0,001	0,055
-478,576	-200,000	0,007	0,042
-477,562	93,801	-0,116	0,097
-476,547	-70,396	-0,066	-0,018
-475,532	277,162	-0,016	-0,021
-474,518	-200,000	0,010	-0,053
-473,503	800,000	0,019	-0,055
-472,489	303,739	-0,014	0,019
-471,474	500,302	-0,040	0,068
-470,459	-200,000	-0,001	-0,119
-469,445	-73,553	-0,108	0,029
-468,430	-11,136	-0,006	-0,003
-467,416	-120,337	-0,078	0,010
-466,401	-90,665	0,115	0,024
-465,386	301,093	0,039	0,053
-464,372	-200,000	0,020	-0,066
-463,357	800,000	-0,059	-0,129
-462,343	-114,496	-0,037	0,005
-461,328	-37,548	-0,068	-0,027
-460,313	-200,000	0,003	-0,054
-459,299	-200,000	-0,038	0,123
-458,284	-200,000	-0,003	0,088
-457,270	227,175	-0,075	0,089
-456,255	78,185	0,061	0,048
-455,241	90,981	0,028	0,024
-454,226	-137,346	-0,168	0,014
-453,211	-123,841	-0,047	0,005
-452,197	-68,321	-0,126	0,036
-451,182	630,983	0,054	-0,102
-450,168	-181,687	-0,053	-0,001
-449,153	-157,136	-0,137	0,006
-448,138	800,000	-0,064	-0,136
-447,124	-126,058	0,104	0,011
-446,109	800,000	0,030	-0,091
-445,095	-81,076	0,064	-0,016
-444,080	-200,000	-0,011	0,091
-443,065	800,000	-0,009	0,021
-442,051	-172,270	-0,146	0,003
-441,036	-136,865	-0,072	0,006
-440,022	214,298	0,088	-0,103
-439,007	-200,000	-0,001	-0,089
-437,992	-83,508	0,083	-0,019
-436,978	177,032	0,122	0,130
-435,963	-200,000	0,008	0,082
-434,949	800,000	-0,026	0,056
-433,934	106,333	-0,059	-0,051
-432,919	12,724	0,051	0,029
-431,905	107,195	0,074	0,065
-430,890	-77,708	-0,044	-0,011
-429,876	88,081	-0,076	-0,062
-428,861	-0,968	0,083	0,043
-427,846	243,841	0,045	-0,056
-426,832	158,885	0,026	-0,027
-425,817	-200,000	0,004	-0,051
-424,803	-22,850	0,134	0,059
-423,788	-153,495	0,145	0,007
-422,773	-41,022	0,068	0,026
-421,759	800,000	0,035	0,089
-420,744	-6,049	0,071	0,035
-419,730	386,813	-0,028	0,043
-418,715	800,000	0,012	-0,027
-417,701	-200,000	0,028	-0,161
-416,686	-86,880	-0,067	0,015
-415,671	800,000	-0,017	0,034
-414,657	800,000	0,016	0,037
-413,642	800,000	-0,050	0,105
-412,628	-93,568	0,065	-0,013
-411,613	-49,348	-0,179	-0,063
-410,598	-39,919	-0,152	0,058
-409,584	-44,722	0,034	0,012
-408,569	3,654	-0,137	-0,073
-407,555	-16,024	-0,126	-0,059
-406,540	800,000	0,032	0,082
-405,525	56,237	-0,031	0,022
-404,511	-5,673	-0,063	0,032
-403,496	-53,809	0,130	0,044
-402,482	800,000	-0,032	0,074
-401,467	-33,537	0,116	0,047
-400,452	76,754	0,042	-0,033
-399,438	-118,973	-0,122	0,016
-398,423	-200,000	0,009	-0,066
-397,409	-139,574	-0,027	0,002
-396,394	41,947	0,061	-0,041
-395,379	-39,533	-0,095	-0,036
-394,365	106,770	0,096	0,083
-393,350	800,000	-0,070	0,155
-392,336	410,277	-0,055	-0,086
-391,321	800,000	0,004	-0,012
-390,306	489,501	-0,071	-0,120
-389,292	-200,000	-0,006	0,089
-388,277	2,638	0,045	0,024
-387,263	52,158	0,128	0,089
-386,248	800,000	-0,013	0,035
-385,233	21,821	-0,095	0,057
-384,219	63,352	0,103	-0,076
-383,204	-200,000	0,064	-0,242
-382,190	389,228	-0,078	0,120
-381,175	-200,000	-0,025	-0,140
-380,160	-200,000	0,028	-0,184
-379,146	38,487	0,058	0,038
-378,131	-44,728	-0,048	0,017
-377,117	800,000	-0,024	-0,049
-376,102	218,000	-0,081	-0,095
-375,088	-200,000	-0,008	-0,125
-374,073	-200,000	0,014	0,048
-373,058	-81,644	0,098	0,024
-372,044	-200,000	0,013	0,049
-371,029	-116,465	-0,014	0,002
-370,015	-112,555	-0,086	0,012
-369,000	459,239	-0,079	0,130
-367,985	-200,000	-0,042	-0,138
-366,971	254,428	0,032	-0,040
-365,956	-200,000	0,039	0,134
-364,942	432,397	-0,052	0,084
-363,927	-69,213	0,094	0,026
-362,912	16,828	0,126	0,073
-361,898	-91,501	-0,047	-0,010
-360,883	800,000	0,035	-0,073
-359,869	152,501	-0,053	-0,053
-358,854	176,209	0,064	-0,068
-357,839	-200,000	0,008	-0,034
-356,825	800,000	0,048	0,104
-355,810	-200,000	-0,001	-0,157
-354,796	224,460	0,040	0,048
-353,781	392,443	0,017	-0,027
-352,766	149,084	-0,108	0,107
-351,752	43,021	0,126	0,084
-350,737	-200,000	-0,004	-0,053
-349,723	163,939	0,151	0,156
-348,708	15,978	-0,060	0,035
-347,693	-72,705	-0,159	0,043
-346,679	-200,000	-0,012	-0,118
-345,664	465,470	-0,061	-0,101
-344,650	800,000	0,030	-0,071
-343,635	-200,000	-0,002	0,066
-342,620	-200,000	-0,004	-0,021
-341,606	393,357	0,070	0,108
-340,591	57,729	-0,081	-0,058
-339,577	-138,991	-0,197	-0,015
-338,562	-43,107	0,025	0,009
-337,548	-67,729	0,146	0,042
-336,533	-143,443	0,192	-0,013
-335,518	67,589	-0,063	-0,047
-334,504	-200,000	0,006	0,142
-333,489	-200,000	0,016	0,062
-332,475	366,369	0,021	-0,032
-331,460	516,458	-0,042	-0,072
-330,445	57,445	-0,035	0,025
-329,431	77,443	0,117	0,091
-328,416	800,000	0,006	0,013
-327,402	5,622	0,017	0,009
-326,387	-41,243	0,079	-0,030
-325,372	35,553	-0,144	0,093
-324,358	64,905	0,043	-0,032
-323,343	800,000	-0,019	0,058
-322,329	94,520	0,128	0,106
-321,314	243,882	0,069	0,085
-320,299	348,332	-0,098	-0,142
-319,285	457,071	0,053	-0,086
-318,270	-96,075	0,062	0,012
-317,256	387,729	0,046	0,070
-316,241	800,000	-0,056	0,122
-315,226	13,969	-0,105	-0,060
-314,212	230,104	0,168	-0,202
-313,197	183,483	0,033	-0,036
-312,183	101,909	-0,051	-0,044
-311,168	216,236	-0,040	0,046
-310,153	800,000	-0,040	-0,107
-309,139	213,122	-0,029	-0,034
-308,124	-130,452	0,177	0,017
-307,110	370,714	-0,023	0,034
-306,095	-89,432	0,043	-0,009
-305,080	-84,375	0,054	-0,012
-304,066	300,442	-0,048	0,065
-303,051	-200,000	0,008	0,076
-302,037	-200,000	0,017	-0,100
-301,022	-200,000	0,004	-0,050
-300,008	253,972	0,044	-0,055
-298,993	252,756	0,006	0,007
-297,978	507,650	-0,053	0,090
-296,964	46,442	-0,033	-0,023
-295,949	-45,664	-0,055	0,020
-294,935	277,292	-0,024	-0,031
-293,920	-200,000	0,023	0,101
-292,905	100,811	0,020	-0,017
-291,891	143,598	-0,030	-0,029
-290,876	-36,620	-0,147	0,058
-289,862	800,000	-0,018	0,048
-288,847	-200,000	-0,011	0,047
-287,832	-76,723	-0,126	-0,032
-286,818	348,794	0,067	-0,096
-285,803	-64,275	0,133	0,039
-284,789	-200,000	-0,012	0,055
-283,774	-200,000	-0,012	0,052
-282,759	-114,648	-0,144	-0,020
-281,745	-200,000	0,022	-0,093
-280,730	800,000	0,018	-0,058
-279,716	0,327	-0,065	-0,034
-278,701	30,483	0,028	-0,018
-277,686	130,459	0,064	0,060
-276,672	80,299	0,151	0,119
-275,657	-200,000	0,039	0,187
-274,643	-85,008	-0,075	-0,017
-273,628	786,725	-0,013	-0,026
-272,613	-128,932	0,073	0,007
-271,599	274,271	0,040	-0,052
-270,584	-200,000	0,030	-0,104
-269,570	-200,000	-0,006	-0,047
-268,555	-200,000	-0,005	-0,023
-267,540	267,262	-0,087	0,112
-266,526	-114,947	-0,142	-0,020
-265,511	-200,000	0,012	0,105
-264,497	800,000	-0,034	-0,072
-263,482	-39,549	0,060	0,023
-262,467	56,608	-0,043	0,031
-261,453	120,664	-0,144	-0,131
-260,438	-200,000	0,009	-0,114
-259,424	758,667	-0,047	-0,093
-258,409	362,919	0,067	-0,098
-257,395	-200,000	0,032	-0,141
-256,380	-136,676	0,206	-0,017
-255,365	55,067	0,110	0,078
-254,351	-114,741	-0,141	-0,019
-253,336	226,336	0,074	0,087
-252,322	-133,974	0,076	0,007
-251,307	48,726	0,006	-0,004
-250,292	-200,000	0,001	-0,050
-249,278	-1,895	0,064	-0,033
-248,263	-185,873	0,058	0,001
-247,249	-37,438	0,164	0,064
-246,234	251,422	-0,056	-0,070
-245,219	-117,983	-0,057	0,007
-244,205	-200,000	0,020	-0,079
-243,190	-200,000	-0,001	-0,094
-242,176	-25,244	-0,076	0,033
-241,161	-76,493	-0,052	0,013
-240,146	158,461	0,016	0,016
-239,132	338,950	0,018	-0,026
-238,117	366,915	0,042	0,062
-237,103	-79,078	0,089	0,022
-236,088	-102,140	-0,075	-0,013
-235,073	-200,000	0,010	0,086
-234,059	73,474	0,063	-0,048
-233,044	-200,000	-0,041	0,000
-232,030	128,921	0,029	-0,027
-231,015	-23,101	-0,182	-0,080
-230,000	545,315	-0,058	-0,101
-228,986	485,671	-0,047	-0,079
-227,971	-74,455	0,066	0,017
-226,957	800,000	0,027	-0,081
-225,942	-200,000	0,023	0,128
-224,927	-200,000	-0,008	0,086
-223,913	800,000	0,027	0,061
-222,898	-65,965	-0,085	0,025
-221,884	12,964	-0,067	-0,038
-220,869	157,208	0,064	0,065
-219,855	116,512	0,038	-0,034
-218,840	74,786	0,055	0,042
-217,825	131,725	0,013	-0,012
-216,811	-200,000	0,026	-0,129
-215,796	-200,000	0,036	0,199
-214,782	-155,152	-0,198	-0,009
-213,767	271,686	0,060	-0,078
-212,752	173,323	-0,114	0,120
-211,738	-71,779	0,074	0,020
-210,723	356,228	0,015	0,022
-209,709	-200,000	0,010	-0,099
-208,694	800,000	-0,083	-0,196
-207,679	262,418	0,100	-0,127
-206,665	138,925	-0,055	-0,053
-205,650	-200,000	-0,018	-0,101
-204,636	-87,711	0,053	-0,012
-203,621	91,820	0,112	0,092
-202,606	-99,215	0,091	-0,017
-201,592	-97,899	-0,210	-0,039
-200,577	68,022	0,039	-0,029
-199,563	800,000	0,028	-0,081
-198,548	-54,638	0,119	-0,039
-197,533	140,793	0,184	-0,178
-196,519	-11,512	0,104	-0,050
-195,504	-200,000	0,014	0,108
-194,490	800,000	-0,015	0,044
-193,475	-200,000	-0,040	-0,157
-192,460	-138,063	0,109	-0,009
-191,446	-77,765	-0,032	0,008
-190,431	-92,299	0,092	-0,019
-189,417	75,181	-0,040	0,031
-188,402	-200,000	-0,009	0,124
-187,387	-119,498	-0,104	0,013
-186,373	-200,000	0,003	-0,033
-185,358	-200,000	0,001	0,063
-184,344	800,000	-0,021	-0,050
-183,329	-200,000	0,006	-0,118
-182,315	309,652	0,095	-0,130
-181,300	32,489	0,052	-0,033
-180,285	53,620	-0,099	-0,069
-179,271	-200,000	0,006	0,153
-178,256	129,544	-0,088	0,082
-177,242	-136,804	0,014	0,001
-176,227	80,231	-0,056	0,044
-175,212	-108,032	0,096	-0,015
-174,198	-138,935	-0,112	0,009
-173,183	14,105	-0,086	0,049
-172,169	-8,445	-0,017	-0,009
-171,154	129,541	0,028	0,026
-170,139	190,823	0,134	0,147
-169,125	143,147	0,055	-0,053
-168,110	-200,000	0,005	0,022
-167,096	444,442	0,007	0,012
-166,081	800,000	0,032	-0,100
-165,066	33,789	0,064	-0,040
-164,052	800,000	0,024	-0,073
-163,037	384,461	0,026	0,039
-162,023	118,485	0,086	0,078
-161,008	682,482	-0,024	0,046
-159,993	-66,306	-0,080	-0,023
-158,979	-140,701	-0,064	-0,005
-157,964	-73,647	-0,172	-0,045
-156,950	-21,476	-0,050	0,022
-155,935	-135,288	-0,089	0,008
-154,920	443,055	-0,055	0,088
-153,906	-200,000	-0,006	0,191
-152,891	-129,429	0,027	-0,003
-151,877	800,000	0,010	0,025
-150,862	-200,000	-0,014	-0,057
-149,847	-200,000	-0,002	-0,027
-148,833	-37,671	0,083	-0,032
-147,818	269,092	0,054	0,069
-146,804	800,000	0,048	-0,116
-145,789	341,420	-0,057	0,081
-144,775	310,029	-0,124	0,170
-143,760	-200,000	-0,019	-0,126
-142,745	86,684	0,105	-0,084
-141,731	-200,000	0,010	-0,096
-140,716	-184,793	-0,175	-0,002
-139,702	22,534	0,101	-0,060
-138,687	-75,041	0,120	-0,031
-137,672	-200,000	0,016	-0,134
-136,658	253,081	-0,014	0,018
-135,643	-147,794	0,040	0,002
-134,629	114,223	-0,015	0,013
-133,614	-51,825	0,098	-0,033
-132,599	428,881	-0,019	0,029
-131,585	211,869	-0,025	-0,029
-130,570	597,904	-0,077	0,140
-129,556	-200,000	-0,006	-0,134
-128,541	-137,783	-0,112	-0,009
-127,526	-72,345	-0,033	0,009
-126,512	-148,999	0,094	-0,005
-125,497	-123,696	-0,034	-0,004
-124,483	-73,351	-0,005	-0,001
-123,468	-49,581	-0,078	0,027
-122,453	-200,000	0,000	-0,101
-121,439	-78,751	-0,166	-0,041
-120,424	800,000	0,031	-0,087
-119,410	330,450	-0,038	0,054
