DTS Sentinel unit serial number:	SN410029Multiplexer serial number:	ORYXHardware model number:	OX2-SRSoftware version number:	ORYX F/W v4,00 Oryx Data Collector v3.7.2.0data status	okinstallation	B6 Nyhavnadifferential loss correction	single-endedforward channel	channel 2reverse channel	N/Adate	2023/12/08time	06:25:08forward acquisition time	300,00reverse acquisition time	0,00gamma	499,1914k internal	0,3165k external	0,3165temperature offset calibration	1,0000default loss term (dB/km)	0,3820temperature slope calibration	1,0000multiplexer offset coefficient	1,0000multiplexer slope coefficient	1,0000fibre end	0,00T internal ref (°C)	13,00T ext. ref 1 (°C)	-3,72T ext. ref 2 (°C)	-3,74length (m)	temperature (°C)	Stokes	anti-Stokes-744,400	-200,000	0,035	0,129
-743,385	-149,562	-0,212	-0,012
-742,371	54,572	0,096	0,068
-741,356	18,618	-0,273	-0,160
-740,342	-38,958	0,177	0,068
-739,327	-63,945	-0,219	-0,065
-738,312	43,797	0,075	-0,051
-737,298	-104,962	-0,205	-0,034
-736,283	112,025	0,081	-0,072
-735,269	-89,942	-0,322	0,069
-734,254	-93,555	0,147	0,030
-733,239	-66,309	-0,515	-0,150
-732,225	-99,536	0,216	-0,039
-731,210	76,949	0,046	0,036
-730,196	160,008	0,046	-0,047
-729,181	-200,000	0,002	-0,130
-728,167	-200,000	-0,018	-0,081
-727,152	575,991	0,033	-0,059
-726,137	-140,163	-0,140	-0,011
-725,123	434,838	-0,069	-0,111
-724,108	63,383	-0,076	-0,056
-723,094	-55,761	-0,126	-0,041
-722,079	484,745	-0,055	-0,092
-721,064	-4,379	0,019	0,010
-720,050	90,736	0,074	0,061
-719,035	-57,872	-0,088	0,028
-718,021	302,925	-0,055	0,075
-717,006	800,000	-0,009	-0,022
-715,991	-71,132	-0,103	-0,028
-714,977	219,549	-0,069	-0,081
-713,962	45,396	0,026	-0,018
-712,948	800,000	-0,030	0,078
-711,933	262,527	-0,039	0,050
-710,918	800,000	0,021	-0,047
-709,904	52,828	-0,114	-0,080
-708,889	33,357	-0,051	-0,032
-707,875	414,502	-0,072	-0,113
-706,860	167,255	0,103	0,107
-705,845	-103,264	0,070	-0,012
-704,831	695,754	-0,055	0,106
-703,816	-136,934	-0,103	0,009
-702,802	800,000	-0,055	-0,124
-701,787	-53,823	-0,156	-0,052
-700,772	-200,000	0,018	-0,107
-699,758	800,000	-0,033	-0,085
-698,743	800,000	0,050	0,115
-697,729	-200,000	0,005	0,068
-696,714	291,598	-0,052	-0,069
-695,699	-156,117	-0,126	0,006
-694,685	800,000	-0,028	-0,059
-693,670	800,000	-0,039	-0,101
-692,656	109,897	0,063	-0,055
-691,641	800,000	0,009	-0,022
-690,627	47,353	-0,072	0,049
-689,612	-4,057	0,059	-0,030
-688,597	800,000	-0,054	-0,128
-687,583	-66,607	-0,049	0,014
-686,568	-200,000	0,020	-0,111
-685,554	199,925	-0,074	-0,084
-684,539	-157,947	0,100	-0,004
-683,524	164,127	-0,021	-0,022
-682,510	224,212	0,113	0,135
-681,495	-116,313	0,053	0,007
-680,481	7,133	-0,094	0,051
-679,466	-57,140	-0,064	-0,021
-678,451	-55,593	0,054	0,018
-677,437	68,476	0,102	0,077
-676,422	211,342	-0,079	0,092
-675,408	-94,014	-0,101	0,020
-674,393	800,000	0,041	0,126
-673,378	-200,000	-0,264	-0,001
-672,364	-200,000	0,003	-0,130
-671,349	415,322	0,089	0,140
-670,335	800,000	-0,050	0,133
-669,320	100,775	0,053	0,045
-668,305	27,269	0,069	-0,043
-667,291	-200,000	0,009	-0,031
-666,276	800,000	0,031	-0,075
-665,262	21,702	-0,147	-0,088
-664,247	8,132	-0,054	0,030
-663,232	180,775	-0,024	0,026
-662,218	-200,000	-0,015	-0,075
-661,203	93,837	-0,062	-0,051
-660,189	-200,000	-0,002	0,027
-659,174	-104,754	0,093	-0,016
-658,159	314,853	-0,048	0,067
-657,145	52,431	0,031	-0,022
-656,130	-60,385	-0,087	0,027
-655,116	-28,093	0,117	0,049
-654,101	-200,000	0,020	0,173
-653,086	4,799	-0,065	-0,035
-652,072	-81,164	-0,075	0,018
-651,057	437,416	0,071	-0,113
-650,043	402,993	-0,035	-0,054
-649,028	-75,625	0,020	-0,005
-648,014	682,264	0,029	-0,056
-646,999	-200,000	0,047	0,155
-645,984	-164,701	-0,191	-0,006
-644,970	-200,000	-0,106	0,000
-643,955	-200,000	0,013	-0,085
-642,941	-33,916	-0,178	-0,071
-641,926	-36,437	-0,085	-0,033
-640,911	-200,000	-0,011	0,060
-639,897	-47,758	-0,143	0,050
-638,882	-200,000	-0,015	0,146
-637,868	340,781	-0,064	0,092
-636,853	800,000	0,024	0,060
-635,838	-40,203	-0,123	0,047
-634,824	-2,829	-0,087	0,045
-633,809	800,000	0,060	-0,171
-632,795	-73,412	0,030	-0,008
-631,780	-200,000	-0,010	-0,076
-630,765	-3,728	0,050	0,026
-629,751	-200,000	0,019	-0,108
-628,736	710,310	-0,082	-0,161
-627,722	6,340	-0,168	0,091
-626,707	-139,099	0,104	0,008
-625,692	-136,890	-0,075	0,006
-624,678	800,000	-0,022	-0,064
-623,663	-200,000	-0,001	-0,009
-622,649	61,649	0,063	-0,046
-621,634	-200,000	-0,009	-0,158
-620,619	34,003	0,032	-0,020
-619,605	-200,000	0,029	0,120
-618,590	-103,985	0,049	0,008
-617,576	670,066	0,002	-0,004
-616,561	262,525	-0,125	-0,159
-615,546	-65,058	0,087	-0,026
-614,532	-98,766	-0,159	0,029
-613,517	158,754	-0,039	-0,040
-612,503	263,524	0,042	-0,054
-611,488	193,920	-0,068	-0,076
-610,474	24,317	0,060	-0,036
-609,459	800,000	-0,016	-0,046
-608,444	-19,073	-0,091	-0,041
-607,430	-200,000	-0,012	-0,148
-606,415	-47,205	-0,054	0,019
-605,401	800,000	-0,014	0,035
-604,386	-116,165	0,041	-0,005
-603,371	-35,583	0,111	0,044
-602,357	149,807	0,085	-0,085
-601,342	-200,000	0,002	0,109
-600,328	-36,689	-0,112	-0,044
-599,313	133,236	0,082	-0,077
-598,298	-86,205	-0,071	-0,016
-597,284	91,260	-0,106	0,087
-596,269	-200,000	-0,002	-0,095
-595,255	-105,834	-0,027	0,004
-594,240	-40,141	-0,130	-0,049
-593,225	-84,526	-0,118	-0,027
-592,211	24,534	-0,067	-0,040
-591,196	-200,000	-0,025	-0,086
-590,182	-37,872	0,103	-0,040
-589,167	235,984	-0,068	0,083
-588,152	-60,379	0,113	0,035
-587,138	368,993	-0,018	0,027
-586,123	253,059	-0,035	0,044
-585,109	-200,000	-0,018	0,116
-584,094	79,880	0,093	0,073
-583,079	-200,000	-0,064	0,272
-582,065	-23,611	0,086	-0,038
-581,050	159,955	-0,098	0,100
-580,036	-200,000	0,031	-0,135
-579,021	-160,063	-0,062	0,002
-578,006	-154,390	-0,114	-0,005
-576,992	43,299	0,075	0,050
-575,977	111,142	0,097	0,085
-574,963	34,601	-0,137	-0,087
-573,948	731,828	-0,017	0,033
-572,934	239,314	-0,076	0,092
-571,919	-200,000	0,024	0,099
-570,904	79,811	0,039	0,030
-569,890	222,343	0,032	-0,038
-568,875	265,285	0,014	-0,018
-567,861	-50,937	-0,072	0,025
-566,846	-20,719	0,079	0,035
-565,831	-136,057	0,064	0,005
-564,817	66,745	-0,082	-0,061
-563,802	-200,000	0,016	-0,071
-562,788	800,000	-0,011	0,032
-561,773	184,137	-0,097	-0,105
-560,758	-23,697	0,169	-0,074
-559,744	19,636	-0,107	0,063
-558,729	496,162	-0,050	-0,084
-557,715	-186,132	-0,164	-0,002
-556,700	800,000	0,009	0,018
-555,685	531,220	-0,112	-0,194
-554,671	-200,000	-0,024	-0,130
-553,656	374,460	0,040	-0,059
-552,642	-26,818	0,150	0,064
-551,627	-7,755	-0,097	0,048
-550,612	42,725	0,023	0,015
-549,598	129,959	-0,046	-0,043
-548,583	-200,000	0,018	-0,182
-547,569	-200,000	-0,033	-0,115
-546,554	-122,404	0,100	0,012
-545,539	-200,000	0,006	0,133
-544,525	800,000	0,015	0,038
-543,510	800,000	0,044	-0,096
-542,496	-150,376	0,030	-0,002
-541,481	800,000	0,010	-0,033
-540,466	800,000	-0,062	0,144
-539,452	800,000	-0,023	0,070
-538,437	439,223	0,029	-0,046
-537,423	741,052	0,067	-0,132
-536,408	-50,877	-0,087	0,030
-535,393	741,871	-0,044	-0,086
-534,379	198,990	-0,121	-0,135
-533,364	206,174	-0,044	0,050
-532,350	-200,000	0,027	-0,097
-531,335	337,756	0,049	0,070
-530,321	-50,553	-0,088	-0,030
-529,306	-44,794	-0,101	-0,037
-528,291	-41,849	-0,137	-0,051
-527,277	-200,000	0,001	-0,023
-526,262	-51,019	0,055	-0,019
-525,248	800,000	0,011	0,029
-524,233	-49,823	0,146	0,050
-523,218	157,597	-0,085	0,086
-522,204	-157,930	0,052	-0,002
-521,189	-200,000	0,005	0,060
-520,175	169,869	-0,053	0,056
-519,160	-1,355	-0,052	0,027
-518,145	-117,327	0,110	-0,014
-517,131	-17,667	-0,082	-0,037
-516,116	-147,672	0,031	-0,002
-515,102	530,565	-0,046	-0,080
-514,087	66,568	-0,061	-0,046
-513,072	800,000	-0,033	0,070
-512,058	325,617	-0,104	-0,146
-511,043	-32,442	0,043	-0,017
-510,029	-135,521	0,119	0,010
-509,014	-33,959	0,023	0,009
-507,999	113,644	-0,029	0,026
-506,985	-66,490	-0,114	-0,033
-505,970	-80,955	0,047	-0,011
-504,956	800,000	-0,032	0,080
-503,941	-200,000	-0,010	0,040
-502,926	210,750	0,084	0,096
-501,912	-143,175	-0,009	0,001
-500,897	800,000	0,051	-0,162
-499,883	800,000	-0,021	-0,043
-498,868	-82,060	-0,064	0,015
-497,853	6,133	0,182	0,098
-496,839	-35,856	-0,196	-0,077
-495,824	-200,000	0,035	0,149
-494,810	137,531	0,069	0,066
-493,795	514,878	0,067	0,114
-492,781	7,242	-0,043	0,023
-491,766	-200,000	0,001	0,109
-490,751	-200,000	0,034	0,135
-489,737	718,335	0,044	0,085
-488,722	92,301	-0,016	-0,013
-487,708	199,882	-0,063	-0,070
-486,693	800,000	-0,046	0,130
-485,678	530,539	-0,045	0,077
-484,664	410,179	-0,085	-0,132
-483,649	-200,000	-0,029	-0,132
-482,635	302,608	0,021	-0,029
-481,620	625,141	-0,031	-0,057
-480,605	40,807	0,129	0,085
-479,591	260,460	0,047	0,059
-478,576	104,384	-0,105	0,090
-477,562	134,307	-0,048	0,045
-476,547	-200,000	-0,022	-0,133
-475,532	538,115	-0,087	-0,152
-474,518	589,475	0,017	0,031
-473,503	0,328	-0,039	0,020
-472,489	-33,797	-0,156	0,062
-471,474	-63,422	-0,089	-0,026
-470,459	-161,495	-0,124	0,005
-469,445	152,440	-0,069	0,068
-468,430	-170,489	-0,016	-0,000
-467,416	337,158	-0,045	0,064
-466,401	59,666	0,118	0,085
-465,386	-84,869	0,166	0,038
-464,372	-59,094	0,072	-0,022
-463,357	-200,000	-0,009	-0,120
-462,343	-200,000	-0,018	-0,064
-461,328	50,841	0,101	-0,069
-460,313	800,000	0,058	0,133
-459,299	-18,039	-0,084	0,038
-458,284	656,379	-0,038	0,072
-457,270	-153,385	0,055	0,003
-456,255	-200,000	-0,009	-0,051
-455,241	239,128	-0,073	-0,088
-454,226	81,255	-0,074	-0,058
-453,211	284,868	0,019	-0,024
-452,197	-200,000	0,001	0,027
-451,182	-64,646	-0,103	0,030
-450,168	-200,000	-0,040	-0,159
-449,153	37,227	-0,111	-0,072
-448,138	-16,526	-0,075	-0,035
-447,124	-200,000	0,035	-0,123
-446,109	-200,000	0,015	-0,111
-445,095	-1,355	0,071	-0,036
-444,080	800,000	-0,019	-0,051
-443,065	800,000	-0,029	0,089
-442,051	563,427	-0,068	-0,120
-441,036	-51,786	-0,069	-0,023
-440,022	347,936	-0,047	0,068
-439,007	-145,197	0,056	-0,004
-437,992	577,611	0,018	-0,032
-436,978	345,708	0,059	0,085
-435,963	800,000	-0,049	0,137
-434,949	-200,000	-0,004	0,029
-433,934	63,144	0,095	-0,069
-432,919	796,366	-0,056	-0,112
-431,905	-137,512	0,065	-0,005
-430,890	-133,482	0,028	-0,003
-429,876	-200,000	-0,001	-0,071
-428,861	148,630	-0,108	-0,106
-427,846	800,000	0,027	-0,071
-426,832	-69,306	-0,008	-0,002
-425,817	-200,000	0,019	-0,145
-424,803	-103,795	-0,096	-0,016
-423,788	-200,000	-0,015	-0,101
-422,773	-200,000	0,019	0,112
-421,759	-144,559	0,058	0,004
-420,744	-200,000	-0,019	-0,095
-419,730	-200,000	-0,007	-0,119
-418,715	-39,130	0,059	-0,023
-417,701	-184,323	0,082	-0,001
-416,686	-126,690	0,120	0,013
-415,671	800,000	0,031	-0,063
-414,657	41,119	-0,088	-0,058
-413,642	164,705	0,100	0,102
-412,628	800,000	-0,039	-0,084
-411,613	713,716	-0,017	0,034
-410,598	-60,352	-0,102	-0,031
-409,584	66,951	0,069	0,051
-408,569	-200,000	0,003	0,080
-407,555	28,385	0,035	-0,022
-406,540	355,062	0,075	-0,108
-405,525	210,203	-0,143	-0,163
-404,511	-200,000	0,025	-0,192
-403,496	-158,914	-0,115	0,005
-402,482	800,000	0,027	-0,060
-401,467	-76,492	-0,163	0,041
-400,452	425,460	0,088	0,138
-399,438	181,433	0,041	0,044
-398,423	-200,000	0,005	-0,033
-397,409	90,404	-0,108	-0,088
-396,394	0,483	0,132	-0,068
-395,379	-37,304	-0,061	0,023
-394,365	-82,421	0,142	-0,033
-393,350	216,736	0,046	0,053
-392,336	345,648	-0,053	0,076
-391,321	-144,852	0,015	0,001
-390,306	-200,000	-0,011	-0,144
-389,292	131,418	-0,108	-0,100
-388,277	84,554	-0,058	0,046
-387,263	-116,158	0,198	-0,026
-386,248	205,318	0,093	-0,105
-385,233	-145,351	0,079	0,005
-384,219	92,526	-0,185	0,151
-383,204	413,222	-0,062	0,096
-382,190	703,725	0,065	0,126
-381,175	-200,000	0,005	0,084
-380,160	800,000	-0,015	-0,042
-379,146	-172,876	0,026	0,001
-378,131	343,401	0,073	-0,103
-377,117	-104,551	-0,066	-0,011
-376,102	518,680	-0,062	0,106
-375,088	800,000	0,043	-0,121
-374,073	-3,382	0,041	0,020
-373,058	800,000	-0,023	0,065
-372,044	376,812	0,026	0,038
-371,029	800,000	-0,034	0,079
-370,015	-160,201	0,021	0,001
-369,000	-200,000	0,035	-0,112
-367,985	161,771	-0,071	-0,072
-366,971	71,905	0,034	0,026
-365,956	-200,000	-0,003	-0,098
-364,942	63,951	0,094	0,068
-363,927	48,515	-0,065	0,044
-362,912	800,000	-0,040	0,109
-361,898	566,753	-0,043	-0,076
-360,883	-0,021	0,077	-0,040
-359,869	-200,000	-0,012	0,039
-358,854	800,000	0,063	0,156
-357,839	-84,196	0,026	0,006
-356,825	-189,637	0,197	-0,002
-355,810	220,657	-0,044	-0,052
-354,796	-71,056	-0,149	0,040
-353,781	-104,784	-0,175	0,029
-352,766	-200,000	-0,007	-0,112
-351,752	800,000	0,013	-0,030
-350,737	-200,000	0,025	0,093
-349,723	-122,934	0,161	-0,019
-348,708	-41,323	-0,073	0,027
-347,693	-48,186	0,186	0,065
-346,679	187,601	-0,035	-0,038
-345,664	-7,811	-0,048	-0,023
-344,650	-116,909	-0,106	0,014
-343,635	301,429	0,110	0,148
-342,620	40,835	0,029	-0,019
-341,606	568,370	-0,029	0,051
-340,591	-200,000	0,008	0,034
-339,577	160,452	-0,063	0,064
-338,562	732,931	-0,049	-0,095
-337,548	129,266	0,022	0,020
-336,533	262,274	0,054	-0,068
-335,518	800,000	0,050	-0,121
-334,504	-200,000	-0,019	-0,062
-333,489	-84,458	0,132	0,030
-332,475	30,820	0,070	-0,043
-331,460	-200,000	-0,037	-0,121
-330,445	-6,033	-0,067	0,033
-329,431	22,861	0,085	0,050
-328,416	-87,411	0,067	0,015
-327,402	-36,469	0,046	-0,018
-326,387	-200,000	-0,024	0,152
-325,372	108,260	0,038	-0,033
-324,358	-200,000	0,029	-0,170
-323,343	800,000	-0,045	-0,120
-322,329	-111,106	0,062	-0,009
-321,314	-11,909	-0,054	-0,025
-320,299	455,049	-0,014	0,023
-319,285	-30,598	0,080	0,033
-318,270	-72,893	-0,082	0,022
-317,256	56,320	0,023	0,016
-316,241	-40,678	-0,109	0,041
-315,226	800,000	0,047	0,101
-314,212	100,519	0,054	-0,045
-313,197	293,688	-0,072	-0,096
-312,183	-72,838	0,071	-0,019
-311,168	800,000	0,039	-0,104
-310,153	110,405	-0,120	-0,105
-309,139	800,000	0,014	-0,043
-308,124	-200,000	0,001	-0,099
-307,110	65,883	0,090	0,066
-306,095	156,459	-0,069	0,069
-305,080	-200,000	-0,035	0,177
-304,066	-189,871	-0,146	-0,001
-303,051	-49,708	-0,064	-0,022
-302,037	-165,805	0,105	-0,003
-301,022	-200,000	0,017	0,087
-300,008	-200,000	-0,010	0,243
-298,993	800,000	-0,042	0,088
-297,978	-200,000	0,004	0,023
-296,964	427,305	-0,091	0,143
-295,949	156,772	-0,033	-0,033
-294,935	800,000	0,032	0,070
-293,920	92,967	0,044	0,036
-292,905	-100,793	-0,097	-0,017
-291,891	381,990	0,092	0,137
-290,876	182,665	0,117	0,125
-289,862	-66,972	0,061	0,017
-288,847	-107,160	0,016	-0,003
-287,832	-152,551	0,081	0,004
-286,818	800,000	-0,012	-0,027
-285,803	44,319	0,090	-0,060
-284,789	548,747	-0,058	-0,102
-283,774	-200,000	0,002	0,028
-282,759	-178,574	-0,149	-0,002
-281,745	-176,158	-0,045	-0,001
-280,730	800,000	-0,014	0,041
-279,716	110,670	-0,084	-0,073
-278,701	-12,063	0,120	0,056
-277,686	-200,000	0,013	0,173
-276,672	-132,408	-0,119	-0,011
-275,657	370,838	0,066	-0,097
-274,643	-33,449	-0,033	-0,013
-273,628	161,789	-0,162	-0,164
-272,613	-26,782	0,098	0,041
-271,599	-73,911	0,077	-0,020
-270,584	-46,805	0,068	0,024
-269,570	430,680	-0,033	0,053
-268,555	-200,000	0,024	-0,119
-267,540	-137,099	0,086	-0,007
-266,526	-168,756	0,054	-0,001
-265,511	-200,000	0,011	0,095
-264,497	-200,000	0,015	0,097
-263,482	-141,069	0,068	-0,005
-262,467	108,260	0,068	-0,058
-261,453	-90,283	0,094	0,019
-260,438	186,412	0,055	-0,060
-259,424	-200,000	-0,025	-0,107
-258,409	-120,113	0,085	0,010
-257,395	-9,637	0,014	-0,007
-256,380	96,740	-0,047	-0,039
-255,365	-58,322	0,187	0,058
-254,351	-68,859	-0,058	0,016
-253,336	334,444	0,024	-0,034
-252,322	-189,957	-0,076	0,001
-251,307	151,288	-0,107	-0,105
-250,292	-200,000	0,002	0,026
-249,278	169,367	0,064	0,066
-248,263	-200,000	-0,004	0,051
-247,249	-200,000	0,028	-0,106
-246,234	129,047	-0,049	-0,045
-245,219	289,665	0,061	-0,080
-244,205	800,000	0,048	0,118
-243,190	800,000	0,047	0,137
-242,176	487,442	-0,014	-0,023
-241,161	338,860	0,049	0,069
-240,146	-36,206	0,069	0,027
-239,132	-200,000	-0,013	-0,077
-238,117	166,909	0,062	0,063
-237,103	-170,159	-0,161	0,004
-236,088	165,108	0,060	-0,061
-235,073	583,606	0,090	0,160
-234,059	800,000	-0,031	0,089
-233,044	0,377	0,227	0,117
-232,030	406,477	-0,096	-0,147
-231,015	-132,953	-0,034	0,003
-230,000	800,000	-0,021	-0,042
-228,986	-200,000	0,014	-0,099
-227,971	-200,000	0,001	0,060
-226,957	452,809	-0,049	0,079
-225,942	-130,586	0,195	-0,019
-224,927	-200,000	0,019	0,099
-223,913	26,480	-0,133	-0,080
-222,898	800,000	0,029	-0,079
-221,884	-116,984	-0,051	-0,007
-220,869	-200,000	0,012	-0,047
-219,855	-10,250	0,118	0,056
-218,840	-200,000	-0,024	0,143
-217,825	-200,000	-0,008	0,036
-216,811	-153,804	0,201	0,010
-215,796	-161,006	0,161	-0,006
-214,782	800,000	-0,034	0,083
-213,767	-200,000	0,015	0,078
-212,752	800,000	0,017	-0,048
-211,738	68,841	0,146	0,108
-210,723	-200,000	-0,027	0,133
-209,709	-59,161	-0,183	0,056
-208,694	-200,000	-0,038	-0,129
-207,679	1,147	-0,137	0,071
-206,665	-200,000	-0,030	-0,121
-205,650	-44,293	0,028	0,010
-204,636	321,523	0,041	-0,056
-203,621	800,000	0,039	-0,112
-202,606	-200,000	0,002	0,058
-201,592	-73,328	-0,115	0,030
-200,577	-114,623	0,032	-0,004
-199,563	800,000	-0,018	-0,047
-198,548	627,195	0,094	0,171
-197,533	135,704	0,097	0,091
-196,519	387,910	0,021	-0,031
-195,504	-45,058	-0,073	0,026
-194,490	38,274	-0,112	0,072
-193,475	547,601	0,022	-0,039
-192,460	-35,181	0,076	-0,030
-191,446	43,451	0,099	-0,065
-190,431	-97,880	0,157	0,029
-189,417	114,594	0,020	0,017
-188,402	462,048	0,040	-0,064
-187,387	59,722	0,019	0,013
-186,373	-200,000	0,011	-0,049
-185,358	-200,000	0,030	-0,114
-184,344	-200,000	-0,003	0,092
-183,329	-60,402	0,157	-0,048
-182,315	-139,757	0,046	0,003
-181,300	-103,280	0,036	-0,006
-180,285	60,615	-0,042	0,030
-179,271	-11,376	-0,140	-0,066
-178,256	-16,018	-0,003	0,001
-177,242	-129,119	0,089	-0,009
-176,227	386,521	0,102	0,152
-175,212	-14,578	0,108	0,050
-174,198	-200,000	0,007	0,030
-173,183	-130,411	-0,129	-0,012
-172,169	-200,000	0,000	-0,117
-171,154	49,584	-0,050	0,034
-170,139	317,839	-0,041	-0,056
-169,125	-69,769	0,114	0,031
-168,110	800,000	0,046	0,122
-167,096	-172,422	0,099	0,002
-166,081	102,332	-0,048	0,041
-165,066	249,269	-0,055	0,067
-164,052	-200,000	0,024	0,107
-163,037	-83,381	0,149	0,034
-162,023	-28,855	0,033	0,013
-161,008	-30,029	0,145	0,059
-159,993	146,895	0,150	0,145
-158,979	800,000	-0,069	0,141
-157,964	800,000	0,040	0,117
-156,950	-79,178	-0,032	-0,008
-155,935	-86,149	0,150	-0,033
-154,920	-161,587	-0,094	0,003
-153,906	339,360	0,020	0,027
-152,891	366,754	0,061	0,088
-151,877	-200,000	-0,137	0,000
-150,862	36,784	-0,037	0,023
-149,847	-13,673	0,136	-0,063
-148,833	86,413	0,122	-0,097
-147,818	4,234	-0,071	-0,037
-146,804	420,072	0,057	0,088
-145,789	-84,640	-0,128	-0,029
-144,775	800,000	0,024	-0,055
-143,760	-200,000	0,003	0,061
-142,745	800,000	-0,059	-0,119
-141,731	155,565	0,040	0,040
-140,716	52,860	-0,075	-0,051
-139,702	-200,000	0,024	-0,124
-138,687	-200,000	0,006	0,046
-137,672	-143,755	-0,066	-0,004
-136,658	-63,038	-0,107	0,031
-135,643	-99,156	0,087	-0,016
-134,629	-116,518	0,020	-0,003
-133,614	326,492	0,069	-0,095
-132,599	-200,000	0,001	0,112
-131,585	46,089	0,066	0,044
-130,570	-141,513	-0,173	-0,012
-129,556	172,242	-0,083	-0,086
-128,541	-85,389	-0,091	-0,020
-127,526	-200,000	-0,018	0,088
-126,512	-200,000	-0,004	-0,068
-125,497	116,946	0,092	-0,081
-124,483	-17,661	-0,126	0,056
-123,468	87,867	-0,117	0,093
-122,453	495,238	0,024	-0,039
-121,439	54,857	0,015	-0,010
-120,424	800,000	0,009	0,023
-119,410	-200,000	-0,009	0,046
