DTS Sentinel unit serial number:	SN410029Multiplexer serial number:	ORYXHardware model number:	OX2-SRSoftware version number:	ORYX F/W v4,00 Oryx Data Collector v3.7.2.0data status	okinstallation	B6 Nyhavnadifferential loss correction	single-endedforward channel	channel 2reverse channel	N/Adate	2023/12/10time	19:40:08forward acquisition time	300,00reverse acquisition time	0,00gamma	499,1914k internal	0,3123k external	0,3123temperature offset calibration	1,0000default loss term (dB/km)	0,3820temperature slope calibration	1,0000multiplexer offset coefficient	1,0000multiplexer slope coefficient	1,0000fibre end	0,00T internal ref (°C)	22,32T ext. ref 1 (°C)	5,99T ext. ref 2 (°C)	5,99length (m)	temperature (°C)	Stokes	anti-Stokes-744,400	-200,000	0,001	-0,147
-743,385	72,049	-0,193	0,150
-742,371	42,578	0,026	0,018
-741,356	-18,554	-0,162	0,075
-740,342	100,355	0,055	0,047
-739,327	-82,235	-0,370	0,089
-738,312	-200,000	-0,020	-0,147
-737,298	-169,637	-0,326	0,009
-736,283	49,567	-0,036	-0,025
-735,269	1,077	-0,254	0,135
-734,254	-10,320	0,082	-0,040
-733,239	-90,662	-0,392	-0,084
-732,225	-113,866	0,105	0,015
-731,210	-200,000	-0,013	-0,075
-730,196	387,348	0,081	-0,125
-729,181	-38,488	-0,083	-0,033
-728,167	-138,179	-0,108	-0,009
-727,152	800,000	0,011	0,023
-726,137	126,603	-0,100	-0,095
-725,123	800,000	0,018	-0,044
-724,108	-2,224	-0,079	-0,041
-723,094	-200,000	-0,002	-0,026
-722,079	181,648	-0,033	-0,036
-721,064	-114,453	-0,110	0,016
-720,050	111,093	-0,109	0,098
-719,035	-119,479	-0,058	0,007
-718,021	-200,000	0,026	0,090
-717,006	-24,049	0,051	-0,022
-715,991	-14,548	-0,082	0,039
-714,977	-174,482	-0,181	-0,004
-713,962	-200,000	0,003	-0,021
-712,948	-200,000	-0,012	0,054
-711,933	-200,000	-0,006	0,106
-710,918	232,189	0,120	0,147
-709,904	-46,047	-0,103	-0,038
-708,889	-200,000	-0,019	-0,084
-707,875	483,939	-0,019	-0,032
-706,860	10,814	0,144	-0,082
-705,845	-200,000	0,003	-0,044
-704,831	60,738	0,143	0,105
-703,816	95,764	-0,043	-0,036
-702,802	-9,955	-0,051	-0,025
-701,787	103,705	0,068	-0,059
-700,772	-200,000	-0,001	0,080
-699,758	55,621	-0,082	0,059
-698,743	-200,000	0,003	0,012
-697,729	-183,351	-0,076	0,001
-696,714	261,806	-0,061	0,079
-695,699	-200,000	0,022	0,118
-694,685	-27,018	-0,041	-0,018
-693,670	281,175	0,071	-0,095
-692,656	740,746	-0,027	-0,054
-691,641	37,097	-0,109	0,072
-690,627	-160,750	0,056	0,002
-689,612	43,276	0,041	-0,028
-688,597	-30,541	-0,028	-0,012
-687,583	82,837	0,068	0,055
-686,568	800,000	-0,050	-0,118
-685,554	-200,000	-0,001	-0,072
-684,539	-200,000	-0,017	0,112
-683,524	-200,000	-0,004	0,056
-682,510	-200,000	-0,013	0,079
-681,495	24,181	0,118	0,072
-680,481	-200,000	-0,049	-0,213
-679,466	-200,000	0,008	-0,070
-678,451	112,798	-0,043	0,039
-677,437	302,584	-0,038	-0,053
-676,422	-131,937	-0,060	-0,006
-675,408	70,039	-0,057	-0,043
-674,393	101,105	-0,024	0,021
-673,378	-200,000	0,010	-0,048
-672,364	-200,000	-0,002	-0,056
-671,349	-103,478	0,127	0,022
-670,335	764,317	0,015	0,031
-669,320	-47,315	0,037	0,013
-668,305	-200,000	0,008	-0,057
-667,291	-62,577	0,082	-0,025
-666,276	223,560	0,079	-0,095
-665,262	800,000	-0,068	-0,155
-664,247	51,109	0,069	-0,049
-663,232	432,411	-0,023	-0,037
-662,218	29,023	-0,137	-0,086
-661,203	364,222	0,052	0,078
-660,189	248,096	-0,064	0,080
-659,174	-42,137	-0,094	-0,036
-658,159	42,671	-0,025	-0,017
-657,145	-200,000	-0,018	-0,087
-656,130	-200,000	-0,008	0,130
-655,116	-135,425	0,064	0,006
-654,101	-53,989	0,089	0,030
-653,086	-24,260	-0,033	-0,014
-652,072	-200,000	0,037	-0,128
-651,057	800,000	-0,013	-0,030
-650,043	-200,000	-0,032	-0,130
-649,028	-200,000	0,023	-0,094
-648,014	-200,000	0,002	0,010
-646,999	583,121	0,033	0,061
-645,984	50,716	0,046	-0,032
-644,970	182,883	-0,107	-0,118
-643,955	-77,136	-0,231	-0,059
-642,941	106,982	-0,069	-0,061
-641,926	241,941	-0,041	0,051
-640,911	-22,622	-0,070	0,031
-639,897	-200,000	0,011	-0,061
-638,882	148,645	0,040	0,040
-637,868	193,065	0,106	0,119
-636,853	-167,454	0,015	-0,000
-635,838	-69,869	-0,180	0,051
-634,824	-143,152	-0,188	0,013
-633,809	-61,896	0,090	-0,028
-632,795	800,000	-0,037	0,096
-631,780	73,294	-0,007	-0,005
-630,765	383,096	-0,015	-0,023
-629,751	800,000	-0,007	0,017
-628,736	800,000	-0,037	-0,084
-627,722	-151,931	-0,014	0,001
-626,707	-200,000	0,033	-0,169
-625,692	-74,095	-0,142	-0,038
-624,678	-17,654	-0,060	0,028
-623,663	620,082	0,013	0,024
-622,649	800,000	-0,013	-0,033
-621,634	116,079	-0,034	-0,031
-620,619	-200,000	0,029	0,105
-619,605	430,318	0,048	0,078
-618,590	505,721	0,039	-0,067
-617,576	-200,000	0,009	0,040
-616,561	-200,000	0,027	-0,129
-615,546	-200,000	-0,034	-0,127
-614,532	-23,172	-0,077	0,034
-613,517	-61,725	0,078	-0,024
-612,503	-166,199	0,088	-0,003
-611,488	-200,000	-0,010	0,035
-610,474	421,549	-0,004	-0,006
-609,459	-30,659	0,034	-0,014
-608,444	800,000	-0,024	-0,071
-607,430	-95,296	0,116	-0,023
-606,415	308,795	-0,049	0,068
-605,401	-200,000	-0,033	-0,142
-604,386	800,000	-0,042	0,104
-603,371	-45,884	0,058	0,021
-602,357	129,125	0,035	0,034
-601,342	76,247	-0,049	0,039
-600,328	-200,000	0,012	-0,138
-599,313	112,376	0,026	0,023
-598,298	308,547	-0,077	-0,107
-597,284	60,151	-0,062	0,045
-596,269	800,000	-0,003	0,011
-595,255	-94,375	-0,077	0,015
-594,240	-200,000	0,004	-0,033
-593,225	-61,283	-0,109	0,034
-592,211	263,396	0,070	-0,090
-591,196	-121,465	-0,056	0,007
-590,182	-118,219	0,087	-0,011
-589,167	22,849	-0,099	0,060
-588,152	-153,517	0,133	-0,007
-587,138	173,950	0,033	0,035
-586,123	-200,000	-0,025	-0,214
-585,109	262,172	0,065	-0,083
-584,094	800,000	-0,070	-0,186
-583,079	-167,742	-0,052	0,002
-582,065	120,918	-0,064	0,059
-581,050	-160,033	0,068	0,003
-580,036	-29,189	-0,053	0,022
-579,021	800,000	-0,027	0,073
-578,006	368,288	-0,047	-0,070
-576,992	-200,000	-0,003	-0,037
-575,977	-51,716	0,050	-0,017
-574,963	157,564	0,015	-0,015
-573,948	10,792	-0,148	-0,083
-572,934	-200,000	0,005	-0,045
-571,919	693,054	0,013	0,026
-570,904	-200,000	0,019	-0,074
-569,890	-200,000	-0,012	-0,053
-568,875	-114,607	-0,048	-0,007
-567,861	95,523	-0,108	-0,091
-566,846	-125,844	0,102	-0,011
-565,831	800,000	0,045	-0,098
-564,817	0,684	0,035	0,019
-563,802	-69,959	0,073	-0,021
-562,788	126,467	-0,079	0,074
-561,773	15,768	-0,034	0,020
-560,758	386,582	-0,084	-0,129
-559,744	49,189	0,081	0,056
-558,729	-40,946	-0,172	0,066
-557,715	-200,000	0,028	-0,133
-556,700	-21,521	0,027	0,012
-555,685	183,980	0,050	-0,055
-554,671	112,505	-0,116	-0,104
-553,656	-171,403	0,058	-0,001
-552,642	130,108	0,059	0,056
-551,627	67,676	0,010	-0,007
-550,612	-70,513	-0,093	-0,026
-549,598	-12,201	0,100	0,048
-548,583	-15,419	-0,038	-0,018
-547,569	710,465	-0,064	-0,126
-546,554	-105,899	0,106	0,017
-545,539	71,586	0,028	0,021
-544,525	105,478	-0,008	0,007
-543,510	174,051	0,009	-0,009
-542,496	-141,652	-0,025	0,002
-541,481	-200,000	0,015	0,103
-540,466	208,717	-0,064	-0,074
-539,452	-16,107	0,113	-0,053
-538,437	-79,886	0,203	0,050
-537,423	91,094	0,050	0,041
-536,408	223,005	0,128	-0,153
-535,393	-138,474	-0,142	-0,011
-534,379	-23,444	-0,028	0,012
-533,364	69,653	0,037	0,028
-532,350	240,663	-0,104	0,129
-531,335	-200,000	0,000	0,027
-530,321	9,567	-0,151	0,084
-529,306	-36,927	-0,073	0,029
-528,291	41,023	0,077	-0,052
-527,277	220,123	-0,035	-0,041
-526,262	168,684	-0,037	-0,039
-525,248	183,446	0,052	0,057
-524,233	-34,339	0,052	-0,021
-523,218	-200,000	0,021	0,146
-522,204	158,498	-0,071	-0,073
-521,189	-200,000	0,017	-0,130
-520,175	146,369	0,020	-0,020
-519,160	-87,244	0,100	-0,022
-518,145	-52,871	0,042	-0,014
-517,131	515,143	0,030	-0,052
-516,116	331,498	0,049	-0,070
-515,102	-58,683	-0,107	0,034
-514,087	-200,000	-0,014	0,069
-513,072	-200,000	0,014	-0,044
-512,058	-151,790	-0,144	-0,008
-511,043	227,478	-0,084	0,101
-510,029	-139,227	0,115	0,009
-509,014	-200,000	-0,005	0,050
-507,999	-87,455	-0,139	0,031
-506,985	800,000	-0,029	-0,082
-505,970	-168,448	-0,176	-0,005
-504,956	-200,000	-0,003	-0,035
-503,941	72,039	-0,056	0,043
-502,926	800,000	0,048	0,150
-501,912	-16,953	-0,013	-0,006
-500,897	-200,000	0,022	0,108
-499,883	-90,071	-0,113	-0,024
-498,868	748,776	0,027	-0,055
-497,853	800,000	0,023	-0,061
-496,839	-75,392	0,041	0,011
-495,824	65,388	0,047	0,035
-494,810	-200,000	0,003	0,097
-493,795	-200,000	-0,025	-0,093
-492,781	372,363	-0,071	-0,107
-491,766	800,000	-0,066	-0,139
-490,751	-200,000	-0,041	-0,230
-489,737	71,332	0,085	-0,065
-488,722	-134,001	-0,061	0,005
-487,708	-200,000	0,028	0,102
-486,693	-41,481	0,150	-0,057
-485,678	-200,000	-0,016	0,087
-484,664	-200,000	-0,029	-0,155
-483,649	397,171	-0,043	-0,066
-482,635	-200,000	-0,012	-0,071
-481,620	311,971	0,043	0,060
-480,605	800,000	0,029	0,080
-479,591	-84,017	-0,095	-0,022
-478,576	393,656	0,054	-0,083
-477,562	397,697	-0,069	-0,107
-476,547	-127,422	-0,069	-0,007
-475,532	127,019	0,029	0,028
-474,518	57,299	0,090	-0,065
-473,503	800,000	0,025	0,070
-472,489	800,000	0,055	0,173
-471,474	65,487	-0,053	-0,040
-470,459	101,756	0,067	-0,058
-469,445	178,557	0,057	-0,062
-468,430	-161,636	0,166	-0,006
-467,416	-129,282	0,149	0,015
-466,401	-7,708	0,115	-0,057
-465,386	-104,920	-0,150	-0,025
-464,372	-32,622	0,151	-0,062
-463,357	311,595	-0,062	-0,085
-462,343	698,022	-0,074	-0,143
-461,328	262,736	0,077	0,098
-460,313	185,244	-0,086	-0,095
-459,299	250,026	0,075	0,094
-458,284	-35,141	0,030	0,012
-457,270	566,134	0,017	0,031
-456,255	98,006	-0,187	-0,158
-455,241	800,000	-0,036	-0,080
-454,226	-108,425	-0,070	-0,011
-453,211	-82,964	0,141	-0,033
-452,197	725,658	0,033	-0,066
-451,182	22,127	0,185	0,111
-450,168	-157,451	-0,164	0,007
-449,153	522,871	0,054	-0,094
-448,138	800,000	-0,023	-0,066
-447,124	800,000	-0,031	-0,093
-446,109	800,000	0,035	-0,075
-445,095	-102,093	0,119	0,021
-444,080	-200,000	-0,004	-0,143
-443,065	-200,000	-0,022	0,082
-442,051	-38,771	0,038	0,015
-441,036	-93,566	-0,137	-0,028
-440,022	-32,509	-0,041	-0,017
-439,007	-9,306	-0,121	-0,059
-437,992	-119,712	0,044	-0,006
-436,978	-77,385	0,069	0,018
-435,963	-200,000	0,004	0,043
-434,949	-50,908	-0,016	-0,005
-433,934	-156,202	0,026	0,001
-432,919	-200,000	-0,008	0,126
-431,905	-200,000	-0,003	0,161
-430,890	-200,000	0,007	-0,082
-429,876	-7,992	0,165	0,082
-428,861	341,899	0,032	-0,046
-427,846	191,496	-0,122	0,135
-426,832	-53,058	-0,098	-0,033
-425,817	-200,000	0,002	-0,036
-424,803	-200,000	0,005	-0,033
-423,788	640,698	0,041	0,076
-422,773	165,173	0,152	0,158
-421,759	800,000	-0,047	0,150
-420,744	18,422	0,032	-0,019
-419,730	-127,094	0,039	-0,004
-418,715	-82,544	0,047	-0,011
-417,701	-200,000	-0,029	-0,161
-416,686	-111,690	-0,074	0,011
-415,671	216,979	0,041	0,048
-414,657	688,263	-0,049	0,095
-413,642	-191,565	0,047	-0,000
-412,628	141,058	-0,081	0,078
-411,613	-200,000	0,016	-0,058
-410,598	-176,034	-0,040	-0,001
-409,584	121,213	0,056	0,052
-408,569	-200,000	0,004	0,036
-407,555	-200,000	0,010	0,076
-406,540	283,436	0,090	0,120
-405,525	344,761	-0,119	0,172
-404,511	-177,297	0,134	-0,002
-403,496	-200,000	-0,031	-0,160
-402,482	-176,781	0,089	-0,002
-401,467	-200,000	0,032	-0,115
-400,452	-57,142	-0,027	-0,009
-399,438	48,295	0,062	0,043
-398,423	-102,149	-0,087	0,015
-397,409	571,648	-0,017	0,030
-396,394	800,000	-0,025	-0,068
-395,379	800,000	-0,050	0,131
-394,365	21,000	-0,069	0,041
-393,350	-16,579	0,182	0,085
-392,336	782,092	0,057	-0,115
-391,321	-88,872	0,035	-0,007
-390,306	14,767	0,023	-0,013
-389,292	-157,135	-0,059	-0,003
-388,277	800,000	0,083	0,170
-387,263	18,172	0,117	0,068
-386,248	800,000	0,039	0,123
-385,233	-200,000	0,015	-0,079
-384,219	-68,837	0,146	-0,041
-383,204	58,345	-0,108	0,078
-382,190	106,403	-0,016	0,014
-381,175	-200,000	-0,001	0,046
-380,160	-60,979	0,192	0,059
-379,146	672,756	-0,070	0,133
-378,131	-200,000	0,043	0,153
-377,117	579,443	-0,009	-0,016
-376,102	526,345	0,082	-0,142
-375,088	-79,756	-0,190	-0,047
-374,073	-120,749	0,047	0,006
-373,058	149,247	0,013	0,013
-372,044	-63,324	-0,064	-0,019
-371,029	89,037	-0,109	0,089
-370,015	800,000	0,028	0,070
-369,000	80,292	0,040	-0,032
-367,985	800,000	0,017	-0,038
-366,971	73,545	0,042	0,032
-365,956	3,575	-0,018	-0,010
-364,942	-42,258	0,061	-0,023
-363,927	-124,538	0,082	-0,009
-362,912	-30,552	0,100	-0,042
-361,898	-200,000	0,001	-0,026
-360,883	155,779	-0,056	-0,056
-359,869	600,474	-0,051	0,093
-358,854	-115,953	0,066	-0,009
-357,839	17,861	0,085	0,050
-356,825	-117,240	0,089	0,012
-355,810	-89,993	-0,090	0,019
-354,796	117,377	0,027	-0,025
-353,781	800,000	-0,024	0,062
-352,766	716,457	-0,051	0,100
-351,752	-200,000	0,023	0,130
-350,737	173,924	0,061	0,064
-349,723	-9,163	0,053	0,026
-348,708	800,000	0,011	-0,034
-347,693	99,440	-0,100	-0,085
-346,679	-200,000	-0,039	0,196
-345,664	-200,000	-0,020	-0,088
-344,650	44,556	0,087	-0,059
-343,635	725,250	0,063	0,123
-342,620	-183,925	0,178	0,002
-341,606	-200,000	0,011	0,038
-340,591	-200,000	0,016	-0,102
-339,577	0,055	0,031	0,016
-338,562	-200,000	-0,017	0,059
-337,548	307,308	0,014	-0,019
-336,533	300,703	-0,046	0,062
-335,518	-85,394	-0,116	0,026
-334,504	183,601	0,080	-0,087
-333,489	622,674	0,038	-0,070
-332,475	497,146	-0,026	0,044
-331,460	-178,660	-0,032	0,001
-330,445	-147,327	0,139	-0,009
-329,431	-116,415	0,005	-0,001
-328,416	-66,369	0,103	-0,030
-327,402	182,469	0,028	0,030
-326,387	17,504	-0,094	-0,055
-325,372	61,186	0,136	0,099
-324,358	52,455	-0,138	0,096
-323,343	-200,000	0,005	-0,164
-322,329	-200,000	0,011	0,044
-321,314	191,201	0,076	0,083
-320,299	-95,915	-0,099	0,019
-319,285	234,610	0,002	0,002
-318,270	-125,894	-0,075	0,008
-317,256	59,101	0,092	-0,066
-316,241	-10,323	-0,081	-0,039
-315,226	-200,000	0,008	0,135
-314,212	-200,000	-0,002	-0,027
-313,197	111,883	-0,062	-0,055
-312,183	231,800	-0,017	-0,020
-311,168	57,383	-0,075	0,054
-310,153	-86,325	-0,088	-0,020
-309,139	-200,000	-0,011	-0,075
-308,124	-42,643	0,056	0,021
-307,110	117,308	0,050	0,045
-306,095	-200,000	-0,015	0,142
-305,080	-200,000	0,014	0,238
-304,066	-99,233	-0,142	-0,026
-303,051	-20,950	-0,100	-0,045
-302,037	-160,770	-0,202	-0,008
-301,022	-90,043	0,123	0,026
-300,008	12,879	0,123	-0,069
-298,993	-11,805	0,089	0,043
-297,978	800,000	-0,034	0,108
-296,964	473,280	0,048	0,079
-295,949	134,772	-0,001	0,001
-294,935	-3,172	-0,138	0,070
-293,920	3,168	0,067	-0,036
-292,905	-115,610	0,063	0,009
-291,891	800,000	0,061	0,143
-290,876	-127,294	-0,012	-0,001
-289,862	306,197	-0,047	0,064
-288,847	238,427	-0,078	-0,095
-287,832	140,422	0,031	0,030
-286,818	-83,324	0,059	-0,014
-285,803	119,139	0,014	0,013
-284,789	-108,600	-0,139	-0,022
-283,774	-200,000	-0,023	-0,073
-282,759	-65,733	-0,028	0,008
-281,745	-200,000	-0,026	-0,096
-280,730	-140,822	-0,153	-0,011
-279,716	246,048	-0,058	-0,072
-278,701	-142,380	-0,126	0,009
-277,686	783,391	-0,070	0,141
-276,672	-93,745	0,100	0,020
-275,657	108,101	0,064	0,056
-274,643	733,565	0,047	-0,093
-273,628	258,508	-0,049	-0,061
-272,613	398,150	-0,059	-0,090
-271,599	800,000	-0,025	0,060
-270,584	-70,916	0,091	-0,025
-269,570	-200,000	-0,001	0,032
-268,555	-200,000	-0,011	0,163
-267,540	-156,810	-0,075	0,003
-266,526	800,000	0,064	-0,152
-265,511	800,000	0,043	-0,122
-264,497	-116,923	0,032	-0,004
-263,482	-69,557	-0,040	-0,011
-262,467	-200,000	-0,048	-0,170
-261,453	-200,000	-0,012	0,055
-260,438	800,000	0,029	-0,084
-259,424	4,671	0,030	-0,016
-258,409	-200,000	0,023	-0,115
-257,395	-53,943	-0,083	0,028
-256,380	-45,525	0,107	0,039
-255,365	347,908	0,035	-0,051
-254,351	207,530	0,099	0,113
-253,336	27,658	-0,023	-0,014
-252,322	800,000	-0,005	0,012
-251,307	800,000	-0,036	0,109
-250,292	-108,841	-0,121	-0,019
-249,278	800,000	0,076	0,178
-248,263	-200,000	-0,003	-0,079
-247,249	237,431	0,053	0,064
-246,234	6,279	0,101	0,055
-245,219	-200,000	-0,029	0,127
-244,205	-62,739	-0,107	-0,032
-243,190	170,289	0,072	-0,076
-242,176	768,078	-0,074	-0,149
-241,161	70,381	-0,050	-0,038
-240,146	8,169	0,118	0,065
-239,132	-200,000	-0,005	0,057
-238,117	26,101	0,010	-0,006
-237,103	149,177	-0,078	-0,077
-236,088	800,000	0,048	0,103
-235,073	-74,789	0,139	0,036
-234,059	-200,000	0,004	-0,013
-233,044	800,000	0,065	0,198
-232,030	118,841	-0,028	-0,026
-231,015	800,000	0,039	-0,090
-230,000	-72,678	-0,012	0,003
-228,986	800,000	0,005	0,011
-227,971	18,627	0,051	-0,029
-226,957	-26,644	0,216	0,092
-225,942	-200,000	-0,001	-0,008
-224,927	33,101	-0,035	-0,022
-223,913	144,693	-0,026	0,026
-222,898	-200,000	-0,002	-0,149
-221,884	129,606	0,056	-0,052
-220,869	-200,000	0,019	0,074
-219,855	423,566	0,042	0,066
-218,840	-28,451	-0,062	0,026
-217,825	800,000	-0,036	-0,090
-216,811	-200,000	-0,146	-0,000
-215,796	100,225	-0,090	-0,076
-214,782	-200,000	0,024	-0,111
-213,767	770,015	-0,058	-0,115
-212,752	-200,000	0,037	0,193
-211,738	348,187	-0,090	-0,129
-210,723	-98,495	-0,075	-0,014
-209,709	-200,000	0,001	-0,044
-208,694	-200,000	0,022	-0,079
-207,679	-77,442	0,092	0,023
-206,665	-179,136	0,068	-0,001
-205,650	-200,000	0,006	0,099
-204,636	-63,970	0,106	0,031
-203,621	800,000	-0,057	-0,116
-202,606	321,020	0,048	0,067
-201,592	-200,000	-0,006	-0,069
-200,577	-200,000	0,009	0,129
-199,563	690,849	0,076	0,145
-198,548	-90,168	-0,114	-0,024
-197,533	-0,520	0,042	-0,022
-196,519	-44,791	-0,050	-0,018
-195,504	137,858	-0,061	-0,058
-194,490	175,167	-0,096	0,101
-193,475	158,083	-0,100	-0,102
-192,460	-39,029	-0,146	0,056
-191,446	-200,000	-0,001	0,068
-190,431	-101,196	0,058	-0,010
-189,417	800,000	0,023	0,058
-188,402	-108,670	0,064	0,010
-187,387	-101,860	-0,105	-0,018
-186,373	-81,037	-0,080	0,019
-185,358	-54,724	-0,015	-0,005
-184,344	-157,783	0,048	0,002
-183,329	-200,000	-0,016	0,116
-182,315	-93,327	0,113	0,023
-181,300	-54,216	0,011	-0,003
-180,285	-91,520	-0,038	-0,008
-179,271	-200,000	0,001	-0,027
-178,256	-200,000	-0,028	-0,121
-177,242	-47,473	0,045	-0,016
-176,227	-200,000	-0,007	0,153
-175,212	-96,607	-0,059	-0,011
-174,198	-154,562	-0,115	0,005
-173,183	800,000	0,030	-0,088
-172,169	134,596	-0,086	0,081
-171,154	800,000	0,025	0,063
-170,139	-200,000	-0,010	0,154
-169,125	-200,000	0,014	0,078
-168,110	690,787	0,017	0,033
-167,096	59,047	0,083	0,059
-166,081	-200,000	-0,002	-0,132
-165,066	6,359	-0,048	0,026
-164,052	-58,721	-0,088	0,028
-163,037	-60,282	0,075	-0,023
-162,023	-5,867	0,080	-0,040
-161,008	-200,000	-0,019	0,079
-159,993	150,712	-0,017	-0,017
-158,979	470,731	0,041	-0,067
-157,964	-200,000	0,017	0,094
-156,950	60,481	0,043	-0,031
-155,935	66,854	-0,018	0,013
-154,920	-84,454	-0,077	0,018
-153,906	-104,645	0,233	0,039
-152,891	47,432	0,064	0,043
-151,877	-139,473	0,072	0,005
-150,862	-200,000	0,019	-0,076
-149,847	-200,000	0,013	0,067
-148,833	615,762	0,057	0,105
-147,818	-200,000	0,021	-0,093
-146,804	-83,686	0,053	0,012
-145,789	30,349	-0,098	0,061
-144,775	-141,744	-0,081	0,006
-143,760	443,569	-0,050	0,080
-142,745	213,698	0,046	-0,053
-141,731	-200,000	0,014	-0,074
-140,716	-92,520	0,118	-0,024
-139,702	42,511	-0,055	0,037
-138,687	800,000	-0,058	0,146
-137,672	-20,095	-0,072	0,032
-136,658	771,755	0,050	0,100
-135,643	-200,000	-0,043	0,000
-134,629	550,094	-0,073	0,128
-133,614	-200,000	-0,004	0,076
-132,599	149,917	-0,050	0,049
-131,585	-166,843	0,074	-0,002
-130,570	-64,330	0,073	-0,021
-129,556	57,285	0,064	0,045
-128,541	-98,261	-0,087	0,016
-127,526	281,681	0,020	-0,026
-126,512	741,039	-0,021	-0,042
-125,497	363,034	0,038	0,055
-124,483	36,442	0,045	-0,029
-123,468	22,769	0,069	0,041
-122,453	800,000	-0,058	0,124
-121,439	348,626	0,092	-0,133
-120,424	800,000	-0,015	-0,042
