DTS Sentinel unit serial number:	SN410029Multiplexer serial number:	ORYXHardware model number:	OX2-SRSoftware version number:	ORYX F/W v4,00 Oryx Data Collector v3.7.2.0data status	okinstallation	B6 Nyhavnadifferential loss correction	single-endedforward channel	channel 2reverse channel	N/Adate	2023/12/09time	11:35:08forward acquisition time	300,00reverse acquisition time	0,00gamma	499,1914k internal	0,3139k external	0,3139temperature offset calibration	1,0000default loss term (dB/km)	0,3820temperature slope calibration	1,0000multiplexer offset coefficient	1,0000multiplexer slope coefficient	1,0000fibre end	0,00T internal ref (°C)	18,88T ext. ref 1 (°C)	2,87T ext. ref 2 (°C)	2,87length (m)	temperature (°C)	Stokes	anti-Stokes-744,400	-149,556	0,067	-0,004
-743,385	-141,485	-0,360	0,027
-742,371	-200,000	-0,003	-0,058
-741,356	-166,115	-0,219	0,007
-740,342	424,883	0,092	0,147
-739,327	100,818	-0,242	0,209
-738,312	233,350	0,150	0,183
-737,298	52,172	-0,209	0,147
-736,283	225,110	0,041	-0,050
-735,269	-166,160	-0,216	0,007
-734,254	-82,367	-0,109	0,026
-733,239	-34,554	-0,304	-0,123
-732,225	-17,858	0,106	0,049
-731,210	800,000	-0,020	0,055
-730,196	800,000	-0,061	0,164
-729,181	624,165	-0,011	-0,021
-728,167	112,255	0,087	0,078
-727,152	-200,000	0,042	0,140
-726,137	-74,888	-0,070	-0,018
-725,123	85,693	-0,106	0,087
-724,108	-200,000	-0,054	-0,185
-723,094	132,801	-0,185	-0,177
-722,079	652,286	-0,080	-0,153
-721,064	-200,000	0,007	0,129
-720,050	-200,000	0,033	-0,120
-719,035	-200,000	-0,001	0,046
-718,021	217,584	-0,025	-0,029
-717,006	240,541	-0,064	0,079
-715,991	800,000	-0,049	-0,133
-714,977	686,359	-0,069	0,134
-713,962	94,179	-0,050	0,042
-712,948	-101,907	-0,156	0,028
-711,933	15,247	-0,119	0,069
-710,918	129,917	-0,139	0,131
-709,904	-122,392	-0,095	0,011
-708,889	-200,000	-0,019	-0,164
-707,875	-200,000	-0,023	-0,109
-706,860	27,792	-0,110	0,068
-705,845	-22,613	-0,130	-0,058
-704,831	-200,000	0,004	-0,024
-703,816	596,081	-0,039	0,071
-702,802	800,000	0,014	-0,038
-701,787	180,557	0,048	-0,052
-700,772	139,990	-0,157	-0,154
-699,758	800,000	0,023	-0,061
-698,743	-8,052	0,061	0,030
-697,729	-41,457	-0,027	-0,010
-696,714	64,060	0,106	0,079
-695,699	298,056	-0,031	0,043
-694,685	-173,214	0,076	0,002
-693,670	363,914	-0,050	-0,074
-692,656	800,000	-0,015	-0,036
-691,641	45,738	-0,017	0,012
-690,627	143,789	-0,025	0,025
-689,612	-200,000	-0,012	-0,046
-688,597	-200,000	-0,001	0,017
-687,583	493,035	0,084	-0,143
-686,568	800,000	-0,052	-0,124
-685,554	800,000	-0,037	-0,096
-684,539	-200,000	0,001	0,035
-683,524	10,621	-0,077	-0,043
-682,510	800,000	0,054	0,132
-681,495	643,412	-0,010	-0,019
-680,481	-147,183	-0,105	-0,007
-679,466	403,269	-0,024	0,037
-678,451	-141,174	-0,073	-0,005
-677,437	800,000	-0,056	0,141
-676,422	800,000	0,019	-0,062
-675,408	-200,000	0,017	0,093
-674,393	-148,844	-0,087	0,005
-673,378	-200,000	-0,029	-0,125
-672,364	222,707	-0,079	0,095
-671,349	-200,000	-0,000	-0,153
-670,335	94,203	0,064	0,054
-669,320	-96,941	0,102	-0,020
-668,305	-74,549	-0,037	-0,010
-667,291	-35,366	0,107	0,043
-666,276	800,000	0,022	-0,066
-665,262	-99,752	-0,057	-0,010
-664,247	-102,394	0,179	0,031
-663,232	215,697	-0,136	-0,160
-662,218	37,181	0,142	-0,093
-661,203	-200,000	-0,015	0,127
-660,189	-139,108	-0,078	0,006
-659,174	-146,293	0,018	-0,001
-658,159	187,185	-0,084	-0,093
-657,145	257,578	0,057	-0,072
-656,130	-200,000	-0,011	0,049
-655,116	800,000	0,026	0,075
-654,101	280,970	0,042	-0,055
-653,086	1,846	0,084	0,045
-652,072	-77,043	0,042	0,011
-651,057	-198,665	-0,118	0,000
-650,043	75,415	-0,053	0,042
-649,028	-25,013	-0,056	-0,025
-648,014	-1,251	-0,031	0,016
-646,999	20,692	0,052	0,031
-645,984	319,941	-0,042	0,059
-644,970	-74,742	0,046	-0,012
-643,955	332,013	0,071	-0,101
-642,941	574,288	-0,101	-0,183
-641,926	800,000	-0,052	-0,122
-640,911	73,719	-0,030	0,023
-639,897	74,664	-0,112	0,087
-638,882	-200,000	-0,015	0,120
-637,868	-121,889	0,049	-0,006
-636,853	-114,048	0,052	0,007
-635,838	-200,000	0,004	-0,065
-634,824	-12,093	-0,105	-0,050
-633,809	-200,000	0,003	0,084
-632,795	800,000	-0,012	-0,039
-631,780	539,561	-0,056	0,098
-630,765	483,846	-0,062	0,104
-629,751	50,249	0,052	-0,036
-628,736	-0,561	-0,061	0,032
-627,722	712,141	0,061	-0,119
-626,707	-200,000	-0,033	0,120
-625,692	407,630	-0,059	0,092
-624,678	-165,933	-0,015	0,000
-623,663	-173,398	0,125	-0,003
-622,649	212,485	-0,064	-0,075
-621,634	9,785	-0,072	0,040
-620,619	260,581	-0,043	0,055
-619,605	125,219	-0,042	0,039
-618,590	-200,000	-0,002	-0,020
-617,576	-96,700	0,124	-0,024
-616,561	800,000	-0,033	-0,084
-615,546	-40,265	-0,124	-0,047
-614,532	-94,310	-0,083	-0,017
-613,517	800,000	-0,012	-0,031
-612,503	800,000	0,022	-0,059
-611,488	800,000	0,011	0,037
-610,474	119,407	-0,036	-0,033
-609,459	259,566	-0,067	0,086
-608,444	-120,561	-0,124	-0,015
-607,430	-200,000	0,009	-0,056
-606,415	800,000	0,010	-0,025
-605,401	-200,000	0,004	0,046
-604,386	61,011	0,128	0,094
-603,371	800,000	0,040	0,091
-602,357	-200,000	-0,006	0,056
-601,342	-200,000	-0,009	-0,051
-600,328	800,000	-0,068	-0,142
-599,313	-28,488	-0,037	0,016
-598,298	800,000	-0,016	0,051
-597,284	402,462	0,082	-0,128
-596,269	-61,030	0,088	0,027
-595,255	141,007	0,095	0,093
-594,240	800,000	-0,041	-0,127
-593,225	262,273	-0,054	-0,070
-592,211	-78,767	0,064	-0,016
-591,196	-13,736	0,045	-0,021
-590,182	437,093	0,043	-0,069
-589,167	-200,000	-0,044	0,176
-588,152	800,000	-0,018	-0,043
-587,138	-200,000	-0,001	-0,114
-586,123	-200,000	0,004	-0,022
-585,109	75,791	-0,110	0,086
-584,094	-121,371	-0,120	0,015
-583,079	-200,000	-0,001	0,142
-582,065	-200,000	0,007	0,060
-581,050	393,714	0,067	0,102
-580,036	312,424	-0,100	0,139
-579,021	44,530	-0,019	-0,013
-578,006	-200,000	-0,003	-0,028
-576,992	-181,636	0,106	0,001
-575,977	-200,000	0,005	-0,016
-574,963	-133,300	0,018	0,002
-573,948	800,000	0,028	-0,081
-572,934	-136,506	0,033	-0,003
-571,919	56,120	-0,059	0,042
-570,904	-200,000	0,027	-0,153
-569,890	-114,663	-0,214	0,030
-568,875	313,990	0,043	-0,059
-567,861	-83,257	0,123	0,029
-566,846	-71,480	0,093	-0,025
-565,831	700,644	0,056	0,110
-564,817	-114,848	-0,147	-0,020
-563,802	-200,000	-0,027	-0,172
-562,788	112,927	0,038	0,034
-561,773	-200,000	0,021	0,074
-560,758	99,382	0,036	0,031
-559,744	193,073	-0,110	-0,122
-558,729	108,251	0,028	0,025
-557,715	489,273	-0,045	-0,075
-556,700	54,787	-0,074	-0,053
-555,685	428,309	-0,061	-0,098
-554,671	712,539	0,043	-0,083
-553,656	-200,000	0,005	0,049
-552,642	37,663	0,019	0,013
-551,627	-17,428	-0,122	-0,056
-550,612	-15,732	0,131	0,061
-549,598	-98,881	-0,064	-0,012
-548,583	-33,347	-0,089	0,036
-547,569	800,000	0,031	-0,068
-546,554	-134,475	0,168	-0,015
-545,539	4,860	0,154	0,083
-544,525	365,976	-0,081	-0,120
-543,510	-200,000	-0,002	-0,092
-542,496	159,012	0,046	-0,047
-541,481	-82,761	-0,254	0,060
-540,466	50,668	-0,124	0,086
-539,452	100,699	0,064	0,055
-538,437	78,109	0,126	0,099
-537,423	-2,864	0,094	0,048
-536,408	39,343	-0,115	0,076
-535,393	800,000	-0,051	-0,152
-534,379	280,793	0,034	0,044
-533,364	800,000	-0,028	-0,077
-532,350	23,988	0,066	0,040
-531,335	364,156	-0,045	-0,067
-530,321	-19,782	0,087	0,039
-529,306	605,079	-0,060	-0,111
-528,291	145,661	0,051	0,051
-527,277	-200,000	0,003	0,012
-526,262	800,000	0,021	-0,066
-525,248	-14,731	-0,065	-0,030
-524,233	236,563	0,064	0,078
-523,218	-200,000	-0,021	-0,069
-522,204	-102,524	-0,034	0,006
-521,189	229,793	-0,036	0,043
-520,175	800,000	-0,067	-0,146
-519,160	185,755	-0,032	-0,035
-518,145	-131,884	0,102	-0,010
-517,131	-34,815	-0,012	-0,005
-516,116	-15,865	-0,084	0,039
-515,102	-200,000	0,003	-0,029
-514,087	758,823	-0,049	0,097
-513,072	365,471	0,041	0,061
-512,058	-106,877	0,053	-0,008
-511,043	800,000	0,026	0,084
-510,029	-56,484	0,099	0,032
-509,014	800,000	-0,038	0,110
-507,999	-200,000	0,001	0,020
-506,985	-200,000	0,002	0,088
-505,970	-151,693	-0,123	0,007
-504,956	-102,949	0,080	0,014
-503,941	340,638	-0,010	0,015
-502,926	178,407	0,054	-0,058
-501,912	-22,586	0,080	-0,035
-500,897	643,242	-0,031	-0,059
-499,883	-200,000	0,020	-0,070
-498,868	800,000	-0,047	-0,139
-497,853	800,000	0,044	-0,105
-496,839	62,273	-0,060	-0,044
-495,824	-6,839	0,057	-0,028
-494,810	192,294	-0,117	0,130
-493,795	43,933	0,066	0,044
-492,781	-96,430	-0,168	-0,032
-491,766	116,951	-0,041	-0,037
-490,751	-107,835	0,092	0,015
-489,737	495,509	-0,044	0,074
-488,722	-67,840	-0,043	-0,012
-487,708	766,423	-0,005	0,010
-486,693	-31,279	0,038	-0,016
-485,678	800,000	-0,011	-0,023
-484,664	-119,093	0,166	-0,021
-483,649	219,802	0,019	0,022
-482,635	469,638	-0,038	-0,064
-481,620	135,447	-0,031	0,030
-480,605	-110,214	0,152	-0,023
-479,591	-200,000	0,010	-0,047
-478,576	-200,000	-0,033	0,000
-477,562	44,905	0,159	-0,107
-476,547	-200,000	0,009	0,121
-475,532	-76,684	-0,100	0,026
-474,518	-156,245	0,123	0,006
-473,503	216,900	-0,033	0,039
-472,489	800,000	0,018	-0,038
-471,474	-39,225	-0,140	-0,054
-470,459	-200,000	0,012	-0,041
-469,445	610,798	-0,071	-0,131
-468,430	-200,000	0,001	0,012
-467,416	800,000	0,038	0,085
-466,401	-75,853	0,129	-0,033
-465,386	-200,000	-0,034	0,125
-464,372	-200,000	0,008	0,046
-463,357	-200,000	-0,008	0,102
-462,343	-121,966	0,064	0,008
-461,328	-107,630	-0,046	-0,007
-460,313	-116,293	-0,061	0,008
-459,299	125,011	0,129	0,120
-458,284	-200,000	-0,004	-0,117
-457,270	-104,554	0,093	-0,016
-456,255	-27,927	-0,084	0,035
-455,241	-94,956	0,079	-0,015
-454,226	311,227	0,022	-0,030
-453,211	158,353	-0,041	0,042
-452,197	-200,000	0,002	0,149
-451,182	-34,114	-0,012	-0,005
-450,168	-22,173	-0,087	-0,039
-449,153	57,115	0,075	0,054
-448,138	-39,476	-0,130	-0,050
-447,124	-177,424	0,156	-0,003
-446,109	634,288	0,023	0,043
-445,095	-97,944	0,084	-0,016
-444,080	800,000	-0,053	0,123
-443,065	-26,665	-0,064	-0,027
-442,051	722,200	-0,037	0,073
-441,036	188,097	0,104	-0,114
-440,022	47,360	-0,121	-0,083
-439,007	28,127	0,165	-0,102
-437,992	672,347	0,019	0,037
-436,978	731,467	-0,068	0,133
-435,963	-3,376	0,088	-0,045
-434,949	-200,000	0,002	0,201
-433,934	-19,293	-0,156	-0,071
-432,919	800,000	-0,040	-0,110
-431,905	-79,102	-0,107	0,026
-430,890	66,950	0,090	-0,067
-429,876	83,228	0,055	0,044
-428,861	-98,101	0,058	0,011
-427,846	135,222	0,050	0,048
-426,832	-48,467	0,064	-0,023
-425,817	33,974	0,104	-0,066
-424,803	-200,000	0,022	-0,174
-423,788	-98,987	0,166	0,030
-422,773	-43,419	-0,022	0,008
-421,759	-62,465	0,017	0,005
-420,744	175,469	0,007	0,008
-419,730	-0,052	0,060	-0,031
-418,715	800,000	0,048	0,124
-417,701	537,795	0,018	0,031
-416,686	-43,274	0,111	0,041
-415,671	-62,748	0,046	-0,014
-414,657	800,000	0,036	0,113
-413,642	27,770	-0,100	-0,062
-412,628	471,326	-0,047	0,077
-411,613	-29,815	-0,113	-0,047
-410,598	94,362	-0,076	-0,063
-409,584	327,018	0,084	0,118
-408,569	-84,148	0,100	0,023
-407,555	32,765	0,199	-0,126
-406,540	-200,000	0,002	-0,115
-405,525	-1,393	-0,081	0,042
-404,511	284,375	-0,113	-0,150
-403,496	46,636	-0,120	-0,081
-402,482	-87,147	-0,069	-0,015
-401,467	-169,842	-0,057	-0,001
-400,452	800,000	0,034	0,090
-399,438	-61,880	0,155	-0,047
-398,423	128,755	-0,081	-0,076
-397,409	562,260	-0,012	-0,021
-396,394	-200,000	0,012	-0,052
-395,379	-200,000	-0,004	-0,111
-394,365	-59,628	0,070	-0,022
-393,350	64,094	0,077	0,057
-392,336	-200,000	-0,003	-0,041
-391,321	81,516	-0,028	0,023
-390,306	-200,000	0,004	-0,020
-389,292	800,000	0,047	-0,123
-388,277	111,983	0,062	-0,055
-387,263	-65,205	-0,045	0,013
-386,248	-200,000	0,003	0,049
-385,233	-1,219	-0,119	0,061
-384,219	236,116	-0,047	0,057
-383,204	243,884	0,056	-0,068
-382,190	-133,751	-0,058	0,005
-381,175	72,076	0,058	-0,044
-380,160	-10,370	0,016	0,008
-379,146	-38,617	-0,126	-0,048
-378,131	66,202	-0,011	0,008
-377,117	384,021	0,014	0,021
-376,102	386,159	0,044	0,067
-375,088	-200,000	0,002	-0,010
-374,073	148,310	-0,071	-0,070
-373,058	90,321	-0,082	0,067
-372,044	-35,191	0,037	-0,015
-371,029	58,473	-0,112	-0,080
-370,015	-200,000	-0,001	-0,174
-369,000	800,000	-0,084	-0,199
-367,985	428,804	0,100	-0,159
-366,971	-200,000	-0,003	-0,081
-365,956	800,000	0,030	0,084
-364,942	-66,844	0,085	0,024
-363,927	-200,000	-0,002	0,011
-362,912	-52,340	-0,053	0,018
-361,898	-68,669	-0,144	-0,040
-360,883	34,645	0,078	0,050
-359,869	800,000	-0,036	-0,077
-358,854	124,221	0,066	0,061
-357,839	99,993	-0,055	-0,047
-356,825	87,115	0,102	0,083
-355,810	-200,000	0,024	-0,099
-354,796	150,396	-0,043	-0,042
-353,781	145,174	0,117	-0,114
-352,766	-100,383	0,150	-0,027
-351,752	586,195	-0,022	-0,040
-350,737	368,561	0,020	-0,029
-349,723	124,888	0,070	0,064
-348,708	185,055	0,061	0,066
-347,693	800,000	-0,010	0,027
-346,679	800,000	-0,071	0,228
-345,664	-200,000	-0,003	0,209
-344,650	-200,000	0,010	0,057
-343,635	-200,000	0,024	0,121
-342,620	-200,000	-0,003	0,051
-341,606	-108,377	0,129	-0,020
-340,591	-200,000	-0,002	0,014
-339,577	-11,288	-0,107	0,051
-338,562	-78,907	0,129	0,032
-337,548	-200,000	-0,005	-0,017
-336,533	-38,966	-0,055	0,021
-335,518	346,021	0,021	-0,031
-334,504	-200,000	0,000	0,052
-333,489	-200,000	0,028	-0,141
-332,475	42,847	0,046	0,030
-331,460	-20,550	-0,050	0,022
-330,445	62,250	0,128	-0,093
-329,431	800,000	0,010	-0,028
-328,416	260,037	0,053	0,066
-327,402	230,265	-0,066	0,079
-326,387	70,657	0,158	0,119
-325,372	-167,885	-0,022	0,001
-324,358	-200,000	-0,011	0,092
-323,343	-151,569	0,131	-0,007
-322,329	290,406	0,033	-0,044
-321,314	-180,562	0,165	-0,002
-320,299	-200,000	-0,035	0,126
-319,285	-75,614	0,071	0,018
-318,270	241,048	-0,042	0,051
-317,256	-128,309	-0,172	-0,018
-316,241	59,075	0,094	-0,067
-315,226	-78,760	-0,090	0,022
-314,212	-15,354	0,131	-0,061
-313,197	35,257	-0,046	0,029
-312,183	203,701	0,059	0,067
-311,168	11,526	-0,069	0,039
-310,153	720,817	-0,031	0,061
-309,139	237,818	0,029	0,035
-308,124	800,000	-0,048	0,113
-307,110	-79,466	-0,081	0,020
-306,095	229,554	0,047	0,056
-305,080	46,440	0,071	-0,048
-304,066	-127,347	-0,164	-0,017
-303,051	70,170	-0,105	-0,079
-302,037	-200,000	0,005	-0,216
-301,022	137,801	0,031	-0,030
-300,008	122,219	0,090	0,082
-298,993	164,142	0,028	-0,028
-297,978	134,430	-0,089	-0,084
-296,964	-200,000	-0,008	-0,033
-295,949	294,558	-0,071	-0,095
-294,935	-200,000	0,000	-0,042
-293,920	-121,450	0,146	0,017
-292,905	263,037	-0,063	0,080
-291,891	800,000	0,018	0,057
-290,876	675,669	0,034	-0,065
-289,862	-68,013	-0,117	0,033
-288,847	40,674	0,034	-0,022
-287,832	-144,494	-0,219	-0,015
-286,818	-112,905	0,115	0,016
-285,803	182,475	0,109	-0,118
-284,789	-119,593	0,049	0,006
-283,774	319,439	0,059	-0,081
-282,759	-46,671	-0,074	0,026
-281,745	-200,000	-0,037	-0,126
-280,730	235,953	0,049	0,059
-279,716	-200,000	-0,018	-0,083
-278,701	516,769	-0,138	0,235
-277,686	146,582	0,204	0,200
-276,672	13,290	-0,115	0,065
-275,657	40,189	0,109	0,071
-274,643	-106,819	-0,249	0,040
-273,628	92,637	-0,128	0,105
-272,613	119,417	-0,122	-0,110
-271,599	1,439	0,108	-0,056
-270,584	-67,371	-0,085	-0,024
-269,570	44,101	0,073	0,048
-268,555	-110,276	0,130	0,020
-267,540	185,863	0,064	-0,069
-266,526	31,806	-0,099	0,062
-265,511	-200,000	-0,000	0,084
-264,497	-200,000	-0,015	-0,059
-263,482	53,180	0,111	0,077
-262,467	-95,896	-0,119	0,023
-261,453	-71,787	-0,058	-0,016
-260,438	-84,256	-0,060	0,014
-259,424	-200,000	0,016	-0,105
-258,409	53,271	0,094	0,066
-257,395	-17,449	-0,010	-0,005
-256,380	-74,393	0,142	0,037
-255,365	-200,000	-0,007	0,110
-254,351	722,977	0,065	-0,126
-253,336	-100,583	0,034	-0,006
-252,322	-105,171	-0,067	0,011
-251,307	15,516	-0,104	0,059
-250,292	767,797	0,039	-0,078
-249,278	491,619	-0,013	0,023
-248,263	123,736	-0,020	0,018
-247,249	-200,000	-0,015	-0,081
-246,234	-23,581	-0,098	-0,043
-245,219	421,956	0,050	-0,078
-244,205	-200,000	0,022	-0,109
-243,190	-80,667	0,081	-0,020
-242,176	-87,296	0,121	-0,027
-241,161	800,000	0,045	0,136
-240,146	92,224	0,136	0,111
-239,132	-12,527	-0,063	0,030
-238,117	-113,349	-0,074	-0,011
-237,103	800,000	0,018	0,045
-236,088	505,267	-0,098	0,165
-235,073	73,808	0,081	-0,062
-234,059	568,422	0,037	-0,065
-233,044	-17,571	0,058	-0,026
-232,030	120,366	-0,089	-0,080
-231,015	18,426	-0,075	0,043
-230,000	800,000	0,026	-0,063
-228,986	-29,134	0,028	-0,012
-227,971	-200,000	0,024	0,205
-226,957	741,080	0,043	0,085
-225,942	800,000	-0,012	0,031
-224,927	-28,408	-0,094	-0,039
-223,913	-34,535	-0,122	0,048
-222,898	-114,634	0,065	-0,009
-221,884	-68,395	-0,024	-0,007
-220,869	-198,434	0,064	0,000
-219,855	800,000	0,051	0,152
-218,840	242,925	0,044	0,054
-217,825	-200,000	-0,006	0,050
-216,811	-200,000	-0,011	-0,054
-215,796	572,491	-0,081	-0,143
-214,782	-108,370	-0,081	-0,012
-213,767	197,472	0,079	0,087
-212,752	36,776	0,079	-0,050
-211,738	36,433	-0,135	-0,086
-210,723	82,643	0,070	0,055
-209,709	64,705	-0,072	-0,053
-208,694	800,000	-0,039	-0,082
-207,679	800,000	0,035	0,108
-206,665	199,866	0,070	-0,078
-205,650	21,142	-0,070	0,041
-204,636	1,553	0,054	-0,028
-203,621	-57,480	-0,143	0,045
-202,606	385,161	-0,069	-0,104
-201,592	-89,002	-0,070	0,015
-200,577	-200,000	0,002	0,135
-199,563	-144,642	0,042	-0,003
-198,548	-200,000	-0,009	0,104
-197,533	-200,000	-0,003	-0,045
-196,519	-100,270	0,104	0,019
-195,504	-200,000	-0,012	-0,106
-194,490	-200,000	0,003	-0,081
-193,475	-200,000	0,002	-0,041
-192,460	-58,671	0,077	-0,024
-191,446	-122,457	-0,085	-0,010
-190,431	-200,000	-0,004	-0,048
-189,417	-45,323	0,043	0,015
-188,402	5,945	-0,106	0,057
-187,387	50,425	0,038	-0,026
-186,373	800,000	0,009	0,020
-185,358	511,162	0,008	-0,014
-184,344	14,849	0,029	-0,017
-183,329	-28,668	0,050	-0,021
-182,315	339,211	-0,044	-0,062
-181,300	-39,352	-0,019	-0,007
-180,285	-51,285	-0,052	-0,018
-179,271	-200,000	0,023	0,076
-178,256	403,249	-0,038	0,058
-177,242	-76,717	0,049	0,012
-176,227	-111,778	0,185	0,027
-175,212	50,096	-0,138	-0,094
-174,198	-103,302	-0,097	-0,016
-173,183	-66,207	-0,104	-0,030
-172,169	65,332	-0,058	0,043
-171,154	102,253	0,050	0,042
-170,139	77,367	0,053	0,041
-169,125	766,745	-0,062	-0,124
-168,110	-200,000	0,032	0,140
-167,096	-34,892	-0,229	-0,090
-166,081	-200,000	0,005	0,084
-165,066	-120,448	-0,111	-0,014
-164,052	-124,013	-0,015	-0,002
-163,037	-84,819	0,148	0,034
-162,023	-104,221	-0,048	-0,008
-161,008	-200,000	-0,001	0,050
-159,993	800,000	-0,025	0,058
-158,979	35,136	-0,110	-0,070
-157,964	57,706	-0,056	0,040
-156,950	13,125	0,122	-0,068
-155,935	-53,429	0,134	-0,044
-154,920	101,367	0,063	-0,053
-153,906	800,000	-0,060	0,146
-152,891	441,359	0,042	0,067
-151,877	-148,623	0,120	0,007
-150,862	800,000	0,054	-0,114
-149,847	389,844	-0,162	-0,244
-148,833	-95,099	-0,072	0,014
-147,818	67,171	0,042	-0,031
-146,804	127,504	0,110	-0,101
-145,789	79,061	-0,042	0,033
-144,775	800,000	-0,051	-0,112
-143,760	-159,066	-0,214	-0,009
-142,745	-200,000	0,042	0,146
-141,731	179,056	-0,036	-0,038
-140,716	470,114	-0,060	0,098
-139,702	155,156	0,072	0,071
-138,687	115,516	-0,042	0,038
-137,672	-91,920	-0,020	0,004
-136,658	-150,897	0,055	-0,003
-135,643	62,216	-0,105	0,076
-134,629	-111,814	-0,107	-0,015
-133,614	3,760	0,046	-0,024
-132,599	-59,671	0,158	-0,049
-131,585	601,662	0,031	-0,056
-130,570	-200,000	-0,013	-0,079
-129,556	114,992	0,073	-0,064
-128,541	488,804	0,077	0,127
-127,526	-92,000	0,039	-0,008
-126,512	-14,233	-0,147	-0,069
-125,497	58,635	0,027	-0,019
-124,483	-200,000	0,042	-0,189
-123,468	37,098	0,034	0,022
-122,453	76,951	-0,037	-0,028
-121,439	-175,313	0,065	-0,001
-120,424	-200,000	-0,020	0,063
-119,410	-200,000	-0,005	0,116
