DTS Sentinel unit serial number:	SN410029Multiplexer serial number:	ORYXHardware model number:	OX2-SRSoftware version number:	ORYX F/W v4,00 Oryx Data Collector v3.7.2.0data status	okinstallation	B6 Nyhavnadifferential loss correction	single-endedforward channel	channel 2reverse channel	N/Adate	2023/12/09time	01:35:08forward acquisition time	300,00reverse acquisition time	0,00gamma	499,1914k internal	0,3156k external	0,3156temperature offset calibration	1,0000default loss term (dB/km)	0,3820temperature slope calibration	1,0000multiplexer offset coefficient	1,0000multiplexer slope coefficient	1,0000fibre end	0,00T internal ref (°C)	15,81T ext. ref 1 (°C)	-0,53T ext. ref 2 (°C)	-0,54length (m)	temperature (°C)	Stokes	anti-Stokes-744,400	105,909	0,068	0,059
-743,385	-37,719	-0,316	-0,124
-742,371	4,449	0,017	0,009
-741,356	-86,640	-0,293	0,066
-740,342	-26,815	0,155	-0,067
-739,327	-197,429	-0,353	-0,002
-738,312	800,000	-0,041	-0,102
-737,298	-50,707	-0,236	0,082
-736,283	-138,517	0,062	0,005
-735,269	-106,948	-0,339	0,055
-734,254	-123,747	0,129	0,015
-733,239	-95,370	-0,562	-0,110
-732,225	62,860	0,156	0,115
-731,210	-101,565	-0,124	0,022
-730,196	-200,000	0,004	0,047
-729,181	-60,874	0,068	-0,021
-728,167	-102,184	-0,049	0,009
-727,152	-200,000	-0,026	-0,157
-726,137	-155,275	-0,055	0,003
-725,123	537,718	-0,020	-0,034
-724,108	398,771	-0,061	-0,095
-723,094	-52,498	-0,129	-0,044
-722,079	-78,936	0,048	-0,012
-721,064	-200,000	-0,004	-0,063
-720,050	-200,000	-0,015	-0,152
-719,035	-200,000	0,034	-0,123
-718,021	46,400	-0,080	0,055
-717,006	-37,106	-0,071	-0,028
-715,991	800,000	0,028	-0,073
-714,977	596,265	-0,118	-0,217
-713,962	277,699	-0,098	0,128
-712,948	29,562	0,100	-0,063
-711,933	302,207	-0,084	0,115
-710,918	800,000	-0,042	-0,114
-709,904	-43,962	-0,193	-0,071
-708,889	48,460	0,037	0,025
-707,875	-200,000	-0,019	-0,155
-706,860	-172,592	-0,035	0,001
-705,845	372,643	-0,036	-0,055
-704,831	-2,885	-0,176	-0,090
-703,816	359,657	-0,036	-0,054
-702,802	423,605	-0,012	-0,019
-701,787	319,108	-0,031	-0,043
-700,772	62,877	0,084	-0,062
-699,758	-200,000	0,023	-0,114
-698,743	133,120	-0,142	0,135
-697,729	72,351	-0,081	0,062
-696,714	-22,452	0,083	-0,037
-695,699	-2,081	-0,138	-0,071
-694,685	-200,000	0,001	-0,071
-693,670	800,000	0,020	0,058
-692,656	604,435	0,011	0,020
-691,641	800,000	0,012	-0,026
-690,627	315,255	-0,142	-0,198
-689,612	-200,000	-0,012	-0,040
-688,597	26,715	-0,051	0,031
-687,583	-39,800	-0,106	-0,040
-686,568	-200,000	0,007	-0,145
-685,554	-200,000	-0,004	-0,015
-684,539	-200,000	-0,008	-0,037
-683,524	-200,000	-0,003	0,093
-682,510	-107,481	-0,130	0,021
-681,495	-200,000	-0,001	-0,021
-680,481	-56,565	-0,094	0,030
-679,466	12,941	-0,117	-0,066
-678,451	-160,729	0,114	0,004
-677,437	197,500	0,081	0,091
-676,422	-20,334	-0,075	0,034
-675,408	-129,889	-0,091	0,009
-674,393	-102,651	0,037	-0,006
-673,378	-200,000	-0,024	-0,144
-672,364	-93,121	-0,124	0,025
-671,349	40,350	-0,174	-0,115
-670,335	-21,246	0,082	-0,037
-669,320	-87,359	0,120	-0,026
-668,305	33,606	-0,081	-0,052
-667,291	-82,975	0,059	0,014
-666,276	87,869	-0,026	0,021
-665,262	-200,000	-0,009	-0,080
-664,247	-200,000	-0,007	-0,070
-663,232	-200,000	0,025	-0,132
-662,218	363,213	0,016	-0,023
-661,203	800,000	0,014	-0,036
-660,189	-12,209	0,034	0,016
-659,174	639,034	-0,051	-0,097
-658,159	-173,073	0,095	0,002
-657,145	-192,890	-0,081	-0,001
-656,130	-200,000	0,003	-0,064
-655,116	-51,925	-0,075	0,025
-654,101	800,000	0,030	-0,076
-653,086	-122,995	-0,052	-0,006
-652,072	726,550	-0,043	0,084
-651,057	-200,000	-0,035	-0,125
-650,043	-52,737	-0,049	0,017
-649,028	-26,564	-0,126	-0,054
-648,014	263,567	0,068	0,088
-646,999	245,708	0,023	0,029
-645,984	56,008	0,132	-0,094
-644,970	800,000	-0,046	-0,098
-643,955	-96,623	-0,088	0,017
-642,941	-146,995	-0,059	0,004
-641,926	-200,000	0,029	-0,131
-640,911	15,316	-0,016	0,009
-639,897	-200,000	-0,019	0,146
-638,882	-200,000	-0,013	0,068
-637,868	-200,000	0,015	-0,066
-636,853	30,051	0,092	0,057
-635,838	99,160	-0,027	-0,023
-634,824	-200,000	0,010	-0,119
-633,809	-8,584	0,051	0,025
-632,795	-58,654	0,116	-0,037
-631,780	86,358	-0,115	0,093
-630,765	-116,299	-0,116	0,016
-629,751	800,000	-0,053	-0,118
-628,736	-200,000	0,002	-0,140
-627,722	-20,047	0,088	-0,040
-626,707	296,019	-0,058	0,078
-625,692	-41,212	0,104	0,039
-624,678	-51,471	-0,059	-0,020
-623,663	-200,000	-0,037	-0,145
-622,649	-200,000	-0,020	-0,113
-621,634	127,564	-0,038	-0,035
-620,619	-200,000	-0,006	-0,028
-619,605	-200,000	-0,005	-0,061
-618,590	-63,384	0,127	0,038
-617,576	800,000	-0,056	0,115
-616,561	18,402	-0,016	0,009
-615,546	200,965	0,108	-0,122
-614,532	128,067	0,017	-0,016
-613,517	290,409	0,059	0,078
-612,503	357,110	0,019	-0,028
-611,488	-129,542	0,154	-0,015
-610,474	-26,941	-0,028	0,012
-609,459	800,000	-0,019	0,052
-608,444	-97,700	0,063	0,012
-607,430	13,249	-0,058	0,033
-606,415	188,675	-0,125	-0,138
-605,401	171,358	-0,073	-0,077
-604,386	-200,000	0,020	0,116
-603,371	143,767	-0,068	0,067
-602,357	137,387	0,074	-0,071
-601,342	800,000	0,021	-0,065
-600,328	753,585	0,004	-0,009
-599,313	273,506	-0,052	-0,068
-598,298	-200,000	-0,001	-0,068
-597,284	456,883	0,048	0,078
-596,269	-200,000	0,006	-0,084
-595,255	-200,000	0,018	0,075
-594,240	-58,768	-0,108	0,034
-593,225	-99,677	0,075	0,014
-592,211	-37,138	0,128	-0,050
-591,196	50,589	-0,092	0,064
-590,182	-42,389	-0,068	0,025
-589,167	-129,243	0,104	0,011
-588,152	9,417	0,100	-0,055
-587,138	800,000	0,040	-0,091
-586,123	-200,000	0,008	-0,203
-585,109	-136,800	0,132	0,011
-584,094	-88,038	0,041	-0,009
-583,079	372,961	-0,003	-0,005
-582,065	264,472	-0,075	-0,097
-581,050	62,734	0,074	0,054
-580,036	800,000	-0,023	0,068
-579,021	-39,595	-0,090	-0,035
-578,006	800,000	-0,019	-0,054
-576,992	362,482	0,049	-0,072
-575,977	-107,980	0,047	0,007
-574,963	58,284	0,108	0,077
-573,948	800,000	0,003	0,006
-572,934	228,495	-0,055	0,065
-571,919	-200,000	0,004	-0,015
-570,904	34,056	-0,130	0,083
-569,890	-13,467	0,045	-0,021
-568,875	-200,000	0,004	0,036
-567,861	-53,933	0,037	0,012
-566,846	-200,000	-0,009	0,092
-565,831	-200,000	-0,003	-0,012
-564,817	186,269	0,021	0,023
-563,802	-145,306	0,007	0,000
-562,788	157,881	-0,078	-0,080
-561,773	283,632	-0,057	-0,075
-560,758	173,512	-0,038	-0,040
-559,744	378,195	0,043	0,065
-558,729	-128,786	0,047	-0,005
-557,715	-66,071	-0,104	0,030
-556,700	-158,074	-0,147	0,006
-555,685	-191,164	0,091	0,001
-554,671	800,000	0,019	0,040
-553,656	-200,000	0,010	0,074
-552,642	-200,000	0,010	-0,039
-551,627	800,000	-0,065	0,173
-550,612	-200,000	-0,011	-0,069
-549,598	39,927	-0,105	0,069
-548,583	193,151	-0,069	-0,077
-547,569	-88,631	0,075	0,016
-546,554	-200,000	0,003	0,065
-545,539	-75,890	-0,120	-0,031
-544,525	-113,467	0,135	0,019
-543,510	389,348	-0,069	-0,104
-542,496	-200,000	0,002	-0,064
-541,481	-200,000	0,006	-0,041
-540,466	-43,071	-0,076	0,028
-539,452	66,347	0,053	0,040
-538,437	39,115	-0,111	-0,073
-537,423	187,290	0,040	0,043
-536,408	-3,965	-0,085	-0,043
-535,393	-200,000	-0,017	0,077
-534,379	-5,076	-0,030	-0,015
-533,364	-112,475	0,043	-0,006
-532,350	-56,698	0,112	0,036
-531,335	149,996	0,019	-0,019
-530,321	56,604	0,063	0,045
-529,306	-200,000	0,024	-0,098
-528,291	15,878	-0,095	0,055
-527,277	-97,621	-0,096	-0,018
-526,262	-200,000	0,017	0,057
-525,248	-200,000	-0,001	-0,150
-524,233	408,186	-0,050	0,078
-523,218	61,581	0,034	0,025
-522,204	-63,901	0,048	-0,014
-521,189	-96,899	-0,140	0,027
-520,175	567,497	0,040	-0,071
-519,160	-200,000	-0,004	-0,018
-518,145	209,269	0,070	0,081
-517,131	-200,000	-0,002	0,083
-516,116	-129,769	-0,032	0,003
-515,102	-200,000	-0,010	0,147
-514,087	148,784	-0,025	-0,025
-513,072	55,932	-0,085	-0,060
-512,058	-200,000	-0,010	-0,038
-511,043	-140,467	-0,212	0,016
-510,029	-143,271	0,098	0,007
-509,014	-200,000	-0,004	-0,031
-507,999	106,501	0,031	0,027
-506,985	-43,883	0,068	-0,025
-505,970	653,548	-0,060	-0,112
-504,956	800,000	-0,015	-0,042
-503,941	-39,998	0,042	-0,016
-502,926	-115,760	0,166	-0,022
-501,912	-200,000	0,001	0,043
-500,897	685,457	-0,060	-0,114
-499,883	-200,000	0,009	-0,095
-498,868	800,000	0,022	0,050
-497,853	-123,034	-0,129	0,015
-496,839	-200,000	-0,009	-0,068
-495,824	89,264	0,060	0,049
-494,810	-200,000	0,004	0,024
-493,795	-79,996	0,025	0,006
-492,781	-27,281	-0,048	-0,020
-491,766	-107,876	0,037	0,006
-490,751	-200,000	-0,004	-0,156
-489,737	69,568	0,057	0,043
-488,722	-200,000	0,021	0,141
-487,708	-97,966	-0,152	0,028
-486,693	-66,613	0,058	0,017
-485,678	182,194	-0,046	0,050
-484,664	82,500	-0,085	-0,067
-483,649	656,930	-0,066	-0,125
-482,635	800,000	0,032	-0,098
-481,620	-65,629	0,059	-0,017
-480,605	-102,232	0,099	-0,017
-479,591	57,557	-0,101	-0,072
-478,576	89,213	0,088	-0,072
-477,562	800,000	-0,016	0,033
-476,547	-200,000	-0,023	-0,153
-475,532	82,155	0,069	-0,055
-474,518	199,611	-0,066	-0,074
-473,503	-200,000	0,025	-0,097
-472,489	-92,315	0,056	-0,011
-471,474	-19,061	0,067	0,030
-470,459	-200,000	-0,005	-0,049
-469,445	714,985	0,066	0,129
-468,430	-101,467	0,076	0,013
-467,416	113,309	0,076	0,067
-466,401	92,421	0,056	0,046
-465,386	1,592	0,042	-0,022
-464,372	369,089	0,038	-0,057
-463,357	161,204	-0,049	-0,050
-462,343	-132,782	-0,038	0,003
-461,328	534,860	-0,044	-0,077
-460,313	-108,558	0,132	0,020
-459,299	121,857	0,080	0,073
-458,284	622,587	0,046	0,085
-457,270	8,147	-0,086	0,047
-456,255	329,590	0,054	0,077
-455,241	-20,977	0,011	0,005
-454,226	-0,811	0,038	-0,020
-453,211	340,601	0,041	-0,058
-452,197	-158,209	-0,031	0,001
-451,182	528,704	-0,106	0,184
-450,168	-200,000	-0,011	-0,096
-449,153	800,000	0,015	-0,031
-448,138	-200,000	-0,015	0,056
-447,124	332,098	-0,034	-0,048
-446,109	202,302	-0,026	0,029
-445,095	35,434	0,093	0,059
-444,080	199,394	0,060	-0,067
-443,065	800,000	-0,015	-0,037
-442,051	128,334	0,054	0,050
-441,036	-166,325	-0,024	-0,001
-440,022	-200,000	-0,032	0,170
-439,007	-2,893	0,110	-0,056
-437,992	333,031	0,018	0,025
-436,978	-14,561	0,131	0,061
-435,963	20,344	-0,128	-0,075
-434,949	773,998	-0,036	-0,072
-433,934	-110,479	0,134	0,020
-432,919	276,005	-0,025	0,032
-431,905	39,448	0,061	-0,040
-430,890	194,049	0,127	0,140
-429,876	62,200	0,073	-0,053
-428,861	-8,757	-0,091	-0,044
-427,846	-116,822	-0,084	0,011
-426,832	240,434	-0,063	0,077
-425,817	218,505	0,079	-0,092
-424,803	-200,000	-0,003	0,183
-423,788	-200,000	0,030	0,112
-422,773	-200,000	0,060	0,280
-421,759	-112,616	-0,102	0,015
-420,744	800,000	-0,043	-0,138
-419,730	242,530	0,059	0,072
-418,715	800,000	0,017	-0,039
-417,701	800,000	-0,024	-0,055
-416,686	800,000	-0,028	-0,060
-415,671	-200,000	-0,002	-0,008
-414,657	18,757	-0,059	-0,034
-413,642	-64,781	0,061	-0,018
-412,628	-41,920	-0,083	0,031
-411,613	800,000	0,003	-0,007
-410,598	89,167	0,036	0,029
-409,584	32,326	-0,090	-0,056
-408,569	277,073	0,072	0,094
-407,555	-100,259	0,052	0,009
-406,540	-1,812	-0,061	-0,031
-405,525	-59,949	0,064	-0,020
-404,511	-36,376	-0,150	0,059
-403,496	-200,000	-0,032	0,121
-402,482	-200,000	0,027	0,105
-401,467	626,034	-0,025	0,047
-400,452	800,000	-0,039	0,092
-399,438	3,413	0,035	0,018
-398,423	-129,430	-0,070	-0,007
-397,409	346,914	-0,049	0,070
-396,394	-200,000	0,000	-0,089
-395,379	-23,394	-0,045	-0,020
-394,365	52,978	0,076	0,053
-393,350	444,188	0,058	0,093
-392,336	-34,970	-0,019	0,007
-391,321	-200,000	-0,022	0,089
-390,306	-140,547	0,014	-0,001
-389,292	519,644	0,027	-0,047
-388,277	209,585	-0,080	-0,092
-387,263	91,660	0,112	-0,092
-386,248	-200,000	-0,000	0,038
-385,233	98,891	0,084	-0,070
-384,219	-116,767	0,018	0,002
-383,204	-200,000	-0,007	-0,110
-382,190	800,000	-0,023	-0,059
-381,175	-200,000	0,021	0,140
-380,160	-200,000	0,014	-0,173
-379,146	381,750	0,019	-0,028
-378,131	-200,000	-0,033	0,111
-377,117	32,801	-0,136	0,086
-376,102	-70,021	-0,127	-0,035
-375,088	709,977	-0,068	-0,132
-374,073	149,790	-0,044	-0,043
-373,058	-5,153	0,092	0,046
-372,044	86,658	0,142	0,114
-371,029	-23,722	0,023	0,010
-370,015	-64,618	-0,055	-0,016
-369,000	-1,076	0,158	0,081
-367,985	-148,384	-0,134	-0,008
-366,971	46,836	0,109	0,074
-365,956	415,400	0,071	-0,111
-364,942	-200,000	-0,010	0,068
-363,927	-107,337	-0,067	0,011
-362,912	379,787	0,041	-0,061
-361,898	-200,000	0,002	0,013
-360,883	538,055	0,082	-0,142
-359,869	352,558	-0,065	-0,094
-358,854	-200,000	-0,047	-0,204
-357,839	800,000	0,051	-0,127
-356,825	-1,630	-0,102	0,052
-355,810	-200,000	0,013	0,151
-354,796	68,696	-0,057	0,042
-353,781	-15,566	-0,053	0,024
-352,766	-200,000	0,003	-0,010
-351,752	266,904	0,041	0,052
-350,737	-200,000	0,032	0,154
-349,723	-200,000	0,008	-0,041
-348,708	800,000	-0,034	0,081
-347,693	-123,469	-0,056	0,006
-346,679	107,047	0,059	-0,051
-345,664	-200,000	0,009	0,106
-344,650	-95,681	0,043	-0,008
-343,635	445,175	0,025	0,041
-342,620	706,393	0,075	0,144
-341,606	128,042	0,162	0,150
-340,591	235,421	-0,037	0,044
-339,577	345,899	-0,119	-0,170
-338,562	-200,000	-0,025	-0,085
-337,548	308,599	-0,059	-0,080
-336,533	-200,000	0,001	0,090
-335,518	-200,000	0,013	0,086
-334,504	-17,337	0,031	-0,014
-333,489	-200,000	-0,032	-0,279
-332,475	-19,824	0,038	0,017
-331,460	800,000	-0,043	-0,122
-330,445	24,243	-0,104	0,062
-329,431	151,634	0,045	0,045
-328,416	800,000	-0,010	0,024
-327,402	-200,000	0,022	0,085
-326,387	-200,000	-0,022	-0,115
-325,372	-200,000	-0,015	-0,171
-324,358	736,344	-0,054	-0,106
-323,343	-30,531	-0,098	-0,040
-322,329	0,652	-0,039	-0,020
-321,314	88,468	0,187	0,151
-320,299	492,927	0,013	0,022
-319,285	76,718	-0,048	-0,037
-318,270	-200,000	0,023	-0,087
-317,256	102,759	0,011	-0,009
-316,241	422,721	0,090	-0,141
-315,226	411,932	0,036	0,056
-314,212	-25,138	-0,161	0,069
-313,197	-200,000	0,188	0,000
-312,183	-200,000	0,027	0,113
-311,168	50,569	0,022	-0,015
-310,153	453,072	0,070	-0,112
-309,139	-200,000	-0,014	-0,061
-308,124	410,703	-0,027	-0,042
-307,110	800,000	-0,022	0,059
-306,095	-200,000	0,000	-0,059
-305,080	-200,000	-0,017	-0,061
-304,066	800,000	0,038	-0,114
-303,051	-104,953	0,046	-0,008
-302,037	-136,716	0,146	0,012
-301,022	741,240	-0,030	0,059
-300,008	53,155	-0,009	0,006
-298,993	-200,000	-0,010	-0,047
-297,978	57,419	0,051	0,036
-296,964	-50,464	-0,090	0,031
-295,949	-134,766	-0,028	-0,002
-294,935	-56,153	0,037	-0,012
-293,920	70,947	0,011	-0,009
-292,905	196,392	0,154	0,170
-291,891	-54,440	0,072	0,023
-290,876	-170,926	-0,251	0,006
-289,862	145,672	-0,035	-0,034
-288,847	-200,000	-0,002	-0,097
-287,832	74,237	-0,164	-0,124
-286,818	-69,559	0,104	0,029
-285,803	-85,636	-0,176	0,039
-284,789	-80,975	0,079	-0,019
-283,774	206,881	0,039	-0,045
-282,759	10,961	-0,065	-0,036
-281,745	-28,834	0,062	0,026
-280,730	231,562	-0,083	-0,099
-279,716	16,719	0,169	0,097
-278,701	11,953	0,035	-0,019
-277,686	14,881	-0,037	-0,021
-276,672	-22,213	0,044	0,019
-275,657	-200,000	-0,048	0,159
-274,643	158,454	0,032	-0,033
-273,628	-54,222	0,083	0,027
-272,613	-200,000	0,014	-0,078
-271,599	-98,726	0,092	0,017
-270,584	-6,353	-0,065	0,032
-269,570	-157,519	0,102	0,004
-268,555	487,449	0,035	0,058
-267,540	-17,955	-0,168	-0,076
-266,526	23,398	0,019	0,011
-265,511	644,432	-0,036	-0,067
-264,497	237,744	-0,088	0,106
-263,482	-200,000	-0,007	0,071
-262,467	-130,527	-0,029	-0,003
-261,453	182,728	-0,110	0,117
-260,438	57,895	0,048	-0,034
-259,424	800,000	0,037	0,101
-258,409	-200,000	0,000	0,055
-257,395	335,390	0,035	0,049
-256,380	171,610	0,067	-0,069
-255,365	-42,716	-0,071	-0,026
-254,351	95,954	0,120	-0,099
-253,336	-200,000	-0,029	0,111
-252,322	-200,000	0,034	0,000
-251,307	136,179	-0,057	0,054
-250,292	800,000	0,012	-0,027
-249,278	-200,000	-0,017	0,072
-248,263	-111,795	-0,021	0,003
-247,249	-43,415	-0,080	0,029
-246,234	53,805	-0,027	-0,019
-245,219	445,424	0,062	-0,099
-244,205	413,164	-0,074	-0,115
-243,190	694,764	-0,033	0,063
-242,176	12,625	-0,058	0,032
-241,161	25,454	-0,059	-0,035
-240,146	136,844	0,137	0,129
-239,132	228,331	-0,046	-0,054
-238,117	472,896	-0,038	-0,062
-237,103	255,147	-0,043	0,053
-236,088	-200,000	0,017	-0,127
-235,073	-125,044	-0,075	-0,008
-234,059	-200,000	-0,018	-0,061
-233,044	306,923	-0,042	-0,057
-232,030	-137,485	0,048	-0,004
-231,015	255,378	0,082	-0,102
-230,000	800,000	-0,005	0,011
-228,986	-54,725	0,011	0,003
-227,971	297,148	0,018	-0,023
-226,957	84,647	-0,016	-0,012
-225,942	-200,000	0,015	0,106
-224,927	-200,000	0,012	0,078
-223,913	453,287	-0,006	-0,010
-222,898	78,073	0,078	-0,060
-221,884	800,000	-0,036	0,083
-220,869	89,589	0,021	-0,017
-219,855	-200,000	0,018	-0,109
-218,840	-200,000	0,006	0,058
-217,825	-200,000	0,019	0,083
-216,811	800,000	-0,036	0,074
-215,796	49,032	-0,099	0,067
-214,782	800,000	0,029	0,078
-213,767	-158,095	0,118	-0,005
-212,752	-200,000	0,022	0,118
-211,738	35,906	-0,013	-0,008
-210,723	-200,000	0,002	-0,021
-209,709	-104,975	0,048	0,008
-208,694	-148,610	-0,035	-0,002
-207,679	-120,890	0,086	0,010
-206,665	0,032	-0,043	0,022
-205,650	-31,273	0,050	0,020
-204,636	-200,000	0,031	0,128
-203,621	800,000	0,047	0,134
-202,606	55,055	-0,057	-0,040
-201,592	-200,000	0,026	-0,113
-200,577	-200,000	0,018	0,077
-199,563	342,392	-0,026	0,038
-198,548	-200,000	-0,011	0,074
-197,533	27,199	0,164	0,099
-196,519	87,210	-0,187	0,149
-195,504	499,535	0,044	0,074
-194,490	-200,000	0,010	0,140
-193,475	800,000	0,039	0,097
-192,460	800,000	0,070	-0,155
-191,446	243,965	-0,091	0,111
-190,431	-161,962	0,123	-0,004
-189,417	227,621	-0,008	-0,010
-188,402	19,089	0,010	0,006
-187,387	9,865	-0,087	-0,047
-186,373	800,000	0,013	0,029
-185,358	-1,524	-0,097	-0,049
-184,344	800,000	0,088	0,209
-183,329	-168,473	0,126	-0,003
-182,315	85,600	0,067	0,053
-181,300	48,393	-0,075	-0,050
-180,285	-78,223	-0,139	0,034
-179,271	12,042	0,044	-0,024
-178,256	800,000	-0,037	-0,084
-177,242	-61,208	-0,174	-0,053
-176,227	10,188	-0,040	0,022
-175,212	-200,000	-0,006	0,049
-174,198	99,264	-0,023	0,019
-173,183	593,342	-0,024	-0,042
-172,169	800,000	-0,031	-0,083
-171,154	42,846	0,065	-0,043
-170,139	515,281	0,025	0,043
-169,125	312,542	0,089	0,121
-168,110	-47,801	-0,070	-0,024
-167,096	800,000	0,021	0,047
-166,081	5,180	-0,066	0,035
-165,066	-5,994	-0,088	-0,043
-164,052	-200,000	-0,000	-0,044
-163,037	-62,313	-0,068	-0,020
-162,023	82,153	-0,109	-0,085
-161,008	-200,000	0,020	-0,120
-159,993	780,857	0,033	-0,065
-158,979	-153,722	-0,110	-0,005
-157,964	308,445	0,021	-0,028
-156,950	-174,426	-0,099	-0,002
-155,935	347,483	-0,051	0,072
-154,920	218,241	-0,083	-0,096
-153,906	800,000	0,036	0,115
-152,891	800,000	0,036	-0,104
-151,877	-68,635	-0,103	-0,028
-150,862	728,230	-0,030	-0,058
-149,847	37,250	0,039	0,025
-148,833	13,837	0,024	0,013
-147,818	-143,748	-0,033	-0,002
-146,804	157,530	-0,105	-0,105
-145,789	658,227	0,037	-0,069
-144,775	-1,809	0,023	-0,012
-143,760	-31,354	-0,061	-0,024
-142,745	800,000	-0,020	-0,053
-141,731	-149,818	0,098	0,005
-140,716	57,673	-0,093	0,065
-139,702	-2,922	0,081	0,041
-138,687	-200,000	0,012	-0,041
-137,672	552,775	-0,042	0,073
-136,658	121,751	0,089	0,080
-135,643	-200,000	0,017	-0,100
-134,629	-200,000	-0,018	-0,105
-133,614	238,589	-0,008	-0,010
-132,599	800,000	-0,072	0,227
-131,585	745,901	-0,041	0,080
-130,570	60,293	0,162	0,115
-129,556	242,830	0,042	0,051
-128,541	800,000	0,028	-0,075
-127,526	-75,801	0,076	0,019
-126,512	19,700	-0,079	0,045
-125,497	188,683	0,110	0,119
-124,483	33,545	-0,032	0,020
-123,468	318,159	0,062	0,085
-122,453	477,906	0,090	-0,147
-121,439	219,286	-0,041	-0,048
-120,424	368,547	-0,072	-0,105
-119,410	-200,000	0,011	-0,045
