DTS Sentinel unit serial number:	SN410029Multiplexer serial number:	ORYXHardware model number:	OX2-SRSoftware version number:	ORYX F/W v4,00 Oryx Data Collector v3.7.2.0data status	okinstallation	B6 Nyhavnadifferential loss correction	single-endedforward channel	channel 2reverse channel	N/Adate	2023/12/09time	09:00:08forward acquisition time	300,00reverse acquisition time	0,00gamma	499,1914k internal	0,3138k external	0,3138temperature offset calibration	1,0000default loss term (dB/km)	0,3820temperature slope calibration	1,0000multiplexer offset coefficient	1,0000multiplexer slope coefficient	1,0000fibre end	0,00T internal ref (°C)	18,44T ext. ref 1 (°C)	1,96T ext. ref 2 (°C)	1,96length (m)	temperature (°C)	Stokes	anti-Stokes-744,400	223,530	0,058	-0,070
-743,385	-133,866	-0,263	0,024
-742,371	15,481	0,096	0,056
-741,356	-11,531	-0,267	0,130
-740,342	800,000	0,043	-0,097
-739,327	129,866	-0,104	0,099
-738,312	348,627	0,103	-0,151
-737,298	-82,608	-0,222	0,053
-736,283	32,078	0,086	-0,055
-735,269	-85,913	-0,271	0,062
-734,254	-200,000	0,014	0,057
-733,239	-109,689	-0,360	-0,056
-732,225	52,112	0,119	0,084
-731,210	99,594	0,064	-0,055
-730,196	229,672	0,068	-0,082
-729,181	800,000	0,041	-0,106
-728,167	-115,438	0,051	-0,007
-727,152	800,000	0,023	-0,072
-726,137	-23,082	-0,037	-0,016
-725,123	377,134	-0,044	-0,066
-724,108	-200,000	-0,050	-0,196
-723,094	-200,000	-0,011	-0,063
-722,079	59,446	-0,104	-0,076
-721,064	800,000	-0,027	-0,056
-720,050	174,702	-0,082	0,088
-719,035	-163,997	-0,149	0,005
-718,021	676,552	-0,069	-0,133
-717,006	414,801	-0,097	-0,154
-715,991	568,882	-0,054	-0,099
-714,977	-118,020	-0,161	0,021
-713,962	-33,528	-0,018	0,007
-712,948	26,168	0,012	0,008
-711,933	45,655	0,032	-0,022
-710,918	-200,000	-0,007	0,059
-709,904	139,441	-0,150	-0,147
-708,889	566,615	-0,117	-0,211
-707,875	-200,000	0,034	-0,117
-706,860	-200,000	-0,019	0,085
-705,845	-145,936	0,066	0,004
-704,831	113,153	0,024	-0,022
-703,816	-17,529	0,063	-0,029
-702,802	-200,000	-0,041	-0,141
-701,787	-200,000	-0,008	0,066
-700,772	-200,000	0,006	-0,058
-699,758	-166,283	-0,122	-0,004
-698,743	-143,578	0,088	-0,006
-697,729	-200,000	0,001	0,034
-696,714	30,816	-0,020	0,013
-695,699	800,000	-0,024	-0,077
-694,685	-18,471	-0,053	0,024
-693,670	-200,000	-0,023	-0,115
-692,656	-69,686	-0,081	0,023
-691,641	287,950	0,029	0,039
-690,627	264,596	-0,117	0,151
-689,612	79,320	-0,088	-0,070
-688,597	-86,594	-0,066	-0,015
-687,583	-39,367	-0,130	0,050
-686,568	-88,233	-0,177	0,039
-685,554	800,000	-0,046	0,136
-684,539	-89,241	0,085	0,018
-683,524	800,000	-0,009	-0,025
-682,510	-200,000	-0,001	0,038
-681,495	106,415	0,055	0,049
-680,481	-87,385	-0,090	0,020
-679,466	77,395	-0,019	0,015
-678,451	-84,060	-0,032	0,008
-677,437	788,108	0,067	0,137
-676,422	800,000	-0,032	-0,075
-675,408	73,330	-0,025	-0,019
-674,393	337,687	-0,083	-0,120
-673,378	-39,248	0,059	0,023
-672,364	800,000	-0,067	-0,155
-671,349	-63,651	-0,103	0,031
-670,335	436,007	0,025	-0,040
-669,320	-200,000	0,004	-0,082
-668,305	194,725	-0,076	0,085
-667,291	-200,000	0,033	0,135
-666,276	-16,386	0,049	-0,023
-665,262	119,096	-0,082	0,075
-664,247	800,000	0,016	-0,044
-663,232	-200,000	0,010	-0,073
-662,218	-3,151	0,010	0,005
-661,203	282,808	0,039	0,052
-660,189	800,000	-0,035	-0,089
-659,174	-122,574	0,046	0,005
-658,159	-200,000	-0,018	0,060
-657,145	-200,000	0,002	-0,090
-656,130	-138,888	0,088	-0,007
-655,116	-98,664	-0,031	0,006
-654,101	-200,000	-0,020	0,107
-653,086	800,000	-0,035	0,094
-652,072	445,849	0,024	-0,038
-651,057	800,000	0,019	0,044
-650,043	800,000	0,035	-0,099
-649,028	143,497	-0,014	-0,014
-648,014	39,185	-0,037	0,025
-646,999	-114,018	0,029	0,004
-645,984	210,154	-0,127	0,147
-644,970	198,357	-0,054	0,061
-643,955	-200,000	-0,010	-0,209
-642,941	202,867	-0,057	-0,065
-641,926	61,080	-0,078	-0,057
-640,911	146,694	-0,050	-0,050
-639,897	-200,000	0,010	0,077
-638,882	763,962	-0,023	0,046
-637,868	302,434	0,079	-0,108
-636,853	-9,313	0,056	0,027
-635,838	16,853	0,063	-0,037
-634,824	84,867	-0,111	-0,090
-633,809	-68,483	-0,094	-0,027
-632,795	-200,000	-0,005	-0,030
-631,780	186,573	-0,040	0,044
-630,765	684,855	-0,035	0,068
-629,751	800,000	0,028	-0,070
-628,736	118,023	-0,041	0,037
-627,722	-200,000	0,011	-0,098
-626,707	-49,757	0,032	0,011
-625,692	103,539	0,115	0,100
-624,678	-200,000	0,005	0,056
-623,663	-200,000	0,029	-0,151
-622,649	128,594	0,020	-0,019
-621,634	59,778	-0,231	-0,168
-620,619	67,830	-0,057	-0,043
-619,605	800,000	-0,033	-0,081
-618,590	-80,838	0,068	-0,016
-617,576	72,474	0,056	0,043
-616,561	126,848	0,067	0,063
-615,546	261,504	-0,124	-0,159
-614,532	-200,000	-0,009	-0,132
-613,517	-200,000	0,000	0,085
-612,503	800,000	0,030	0,081
-611,488	22,561	-0,011	-0,007
-610,474	800,000	0,043	0,122
-609,459	54,338	-0,050	0,035
-608,444	-42,299	-0,098	0,037
-607,430	-136,569	-0,041	-0,003
-606,415	-65,686	-0,069	0,020
-605,401	-200,000	0,013	0,143
-604,386	-200,000	0,007	-0,047
-603,371	118,583	-0,064	-0,058
-602,357	409,876	-0,036	0,057
-601,342	-200,000	0,070	-0,266
-600,328	-85,179	-0,058	-0,013
-599,313	-138,658	-0,117	-0,009
-598,298	198,643	0,057	-0,065
-597,284	-200,000	0,013	0,103
-596,269	-200,000	-0,002	0,036
-595,255	95,657	-0,098	0,083
-594,240	95,750	0,012	0,010
-593,225	-50,560	0,014	-0,005
-592,211	-200,000	-0,015	-0,082
-591,196	401,590	0,046	-0,071
-590,182	17,318	-0,028	-0,016
-589,167	-4,278	-0,130	-0,066
-588,152	-200,000	-0,011	0,053
-587,138	-60,071	0,052	0,016
-586,123	249,010	-0,101	-0,127
-585,109	710,013	-0,031	-0,061
-584,094	3,664	-0,083	-0,044
-583,079	-109,299	0,155	0,024
-582,065	55,676	-0,024	0,017
-581,050	315,099	-0,065	-0,090
-580,036	134,028	0,050	0,048
-579,021	95,865	0,080	0,067
-578,006	-131,756	-0,086	-0,008
-576,992	58,618	-0,074	-0,054
-575,977	-149,008	-0,031	-0,002
-574,963	554,646	0,015	-0,026
-573,948	-93,793	0,140	0,028
-572,934	104,812	0,026	-0,023
-571,919	141,398	0,044	-0,043
-570,904	-200,000	-0,103	0,000
-569,890	145,871	0,093	0,092
-568,875	404,541	-0,019	0,030
-567,861	12,964	-0,123	0,070
-566,846	-6,417	0,054	-0,027
-565,831	10,755	0,088	-0,049
-564,817	-200,000	0,013	-0,074
-563,802	800,000	0,021	0,057
-562,788	542,085	-0,037	-0,065
-561,773	217,698	0,029	0,035
-560,758	249,711	0,032	0,040
-559,744	-200,000	0,004	-0,022
-558,729	-95,073	0,122	0,024
-557,715	653,359	-0,064	-0,121
-556,700	307,916	-0,103	-0,142
-555,685	-200,000	-0,003	-0,076
-554,671	143,756	-0,026	0,025
-553,656	-200,000	-0,005	-0,064
-552,642	126,485	-0,066	0,061
-551,627	319,036	0,055	0,078
-550,612	800,000	0,018	-0,049
-549,598	85,610	0,045	0,036
-548,583	-200,000	0,002	0,046
-547,569	748,592	0,026	0,052
-546,554	73,928	0,076	-0,059
-545,539	47,333	0,043	0,030
-544,525	-0,091	0,074	0,039
-543,510	800,000	0,052	-0,123
-542,496	257,211	-0,032	-0,040
-541,481	-200,000	0,002	0,036
-540,466	800,000	-0,028	0,067
-539,452	-149,786	0,056	0,003
-538,437	69,507	0,120	0,091
-537,423	-200,000	-0,001	-0,070
-536,408	100,914	-0,083	-0,071
-535,393	-139,129	-0,065	0,005
-534,379	-200,000	-0,008	0,084
-533,364	800,000	0,040	0,117
-532,350	-200,000	0,001	0,043
-531,335	-73,258	-0,078	0,021
-530,321	-200,000	0,012	-0,043
-529,306	-200,000	0,022	-0,075
-528,291	239,871	-0,082	-0,100
-527,277	-169,467	0,039	-0,001
-526,262	146,190	-0,111	-0,110
-525,248	175,306	0,036	-0,038
-524,233	-17,333	0,009	-0,004
-523,218	-200,000	0,033	0,179
-522,204	-200,000	-0,047	-0,176
-521,189	-16,856	-0,109	0,050
-520,175	87,708	-0,049	-0,040
-519,160	800,000	-0,025	-0,052
-518,145	-52,375	0,091	-0,031
-517,131	-200,000	0,019	-0,095
-516,116	-200,000	0,011	0,144
-515,102	800,000	0,018	-0,039
-514,087	-134,685	-0,228	-0,020
-513,072	129,230	0,041	0,038
-512,058	379,951	-0,073	-0,110
-511,043	362,720	0,048	0,071
-510,029	-121,268	-0,122	0,015
-509,014	-91,423	-0,099	-0,021
-507,999	-200,000	0,016	-0,119
-506,985	376,389	-0,061	-0,091
-505,970	-1,677	-0,106	0,055
-504,956	0,017	0,070	0,037
-503,941	377,603	-0,018	0,028
-502,926	29,022	0,164	0,102
-501,912	800,000	-0,019	-0,056
-500,897	800,000	0,011	0,033
-499,883	-200,000	0,004	-0,068
-498,868	675,427	-0,045	0,086
-497,853	-131,527	0,114	0,011
-496,839	800,000	-0,065	-0,149
-495,824	800,000	0,039	0,091
-494,810	81,567	-0,077	0,061
-493,795	263,433	0,094	-0,120
-492,781	-143,800	-0,137	-0,009
-491,766	-44,514	-0,071	0,026
-490,751	-95,810	-0,145	0,028
-489,737	-62,448	-0,064	0,019
-488,722	128,373	0,032	-0,030
-487,708	265,727	0,026	-0,034
-486,693	368,287	0,017	0,025
-485,678	-200,000	-0,009	-0,046
-484,664	-200,000	-0,001	-0,217
-483,649	231,478	-0,038	-0,046
-482,635	800,000	-0,006	-0,018
-481,620	-159,818	0,010	0,000
-480,605	3,844	0,054	0,029
-479,591	169,416	0,056	0,059
-478,576	-76,655	-0,115	-0,029
-477,562	367,392	0,113	-0,168
-476,547	-200,000	-0,053	-0,217
-475,532	800,000	0,032	-0,075
-474,518	-200,000	0,019	0,081
-473,503	128,376	0,053	0,050
-472,489	105,134	0,060	0,052
-471,474	-87,679	-0,110	0,024
-470,459	131,054	0,060	-0,056
-469,445	-129,840	-0,071	-0,007
-468,430	145,446	-0,116	-0,115
-467,416	251,656	-0,048	-0,060
-466,401	44,062	0,062	0,042
-465,386	290,824	0,091	0,122
-464,372	-200,000	0,009	-0,077
-463,357	24,474	-0,022	0,013
-462,343	122,085	-0,064	-0,059
-461,328	177,156	0,029	-0,031
-460,313	-3,423	-0,081	-0,041
-459,299	800,000	0,013	0,034
-458,284	2,441	0,104	-0,055
-457,270	800,000	0,044	0,125
-456,255	-68,686	-0,082	-0,023
-455,241	118,364	-0,051	-0,046
-454,226	14,430	-0,052	0,030
-453,211	800,000	-0,040	0,100
-452,197	800,000	0,060	0,149
-451,182	-200,000	-0,061	0,000
-450,168	-4,592	0,065	-0,033
-449,153	24,151	-0,008	0,005
-448,138	179,639	-0,013	-0,014
-447,124	160,483	-0,087	-0,089
-446,109	563,986	0,024	-0,042
-445,095	-48,844	-0,116	-0,041
-444,080	-174,385	0,112	0,002
-443,065	-133,842	-0,051	0,005
-442,051	346,020	0,039	-0,056
-441,036	-74,290	0,068	0,018
-440,022	-200,000	-0,029	0,134
-439,007	-200,000	0,017	0,126
-437,992	-73,318	-0,037	0,010
-436,978	-54,351	-0,041	-0,014
-435,963	-200,000	-0,030	0,127
-434,949	13,293	0,105	-0,060
-433,934	-200,000	0,004	-0,081
-432,919	23,481	-0,072	0,043
-431,905	308,242	0,042	0,058
-430,890	573,307	-0,046	0,083
-429,876	-62,743	0,096	-0,029
-428,861	800,000	0,038	0,092
-427,846	-38,564	-0,043	-0,017
-426,832	-182,169	-0,107	-0,001
-425,817	-189,353	-0,175	-0,001
-424,803	100,698	-0,061	0,052
-423,788	476,409	0,104	0,173
-422,773	105,353	0,127	-0,110
-421,759	-200,000	0,021	-0,172
-420,744	323,984	0,075	-0,105
-419,730	-200,000	-0,006	-0,098
-418,715	-12,555	0,142	-0,068
-417,701	723,456	0,015	0,028
-416,686	-200,000	-0,006	-0,106
-415,671	90,323	0,094	0,077
-414,657	-132,554	0,051	-0,005
-413,642	285,859	-0,116	-0,154
-412,628	-200,000	-0,009	0,084
-411,613	-110,971	-0,081	0,012
-410,598	-58,368	-0,075	-0,024
-409,584	-118,538	-0,040	0,005
-408,569	68,752	0,037	0,028
-407,555	112,984	-0,099	0,088
-406,540	-7,689	0,089	0,044
-405,525	800,000	-0,023	0,065
-404,511	-108,086	-0,109	-0,017
-403,496	-10,741	-0,065	-0,032
-402,482	-102,136	0,045	-0,008
-401,467	-49,929	-0,113	0,039
-400,452	-131,656	-0,094	-0,009
-399,438	196,852	-0,085	0,095
-398,423	415,465	0,083	0,130
-397,409	800,000	-0,034	-0,106
-396,394	-29,150	0,034	0,014
-395,379	-133,907	0,095	0,008
-394,365	167,486	-0,055	0,057
-393,350	800,000	0,040	0,106
-392,336	229,707	-0,036	0,043
-391,321	800,000	0,030	-0,074
-390,306	-200,000	0,012	0,064
-389,292	-200,000	0,012	-0,079
-388,277	130,592	0,151	0,141
-387,263	-42,694	0,164	0,061
-386,248	-106,914	0,053	0,008
-385,233	-200,000	0,025	0,197
-384,219	137,805	-0,033	-0,032
-383,204	-123,575	-0,127	-0,015
-382,190	-200,000	-0,014	0,086
-381,175	800,000	-0,044	0,108
-380,160	-4,716	-0,083	0,042
-379,146	126,682	-0,106	0,098
-378,131	800,000	0,046	0,125
-377,117	-200,000	-0,004	0,150
-376,102	-200,000	-0,036	-0,143
-375,088	-91,760	-0,050	0,010
-374,073	20,796	-0,088	0,052
-373,058	448,400	0,054	0,088
-372,044	-28,568	-0,025	0,011
-371,029	-49,381	0,065	-0,022
-370,015	31,242	-0,087	0,054
-369,000	-200,000	-0,012	-0,247
-367,985	51,565	-0,122	0,085
-366,971	462,238	-0,053	0,087
-365,956	-200,000	-0,012	-0,086
-364,942	310,419	0,050	-0,069
-363,927	-161,897	0,008	0,000
-362,912	-58,016	0,046	0,015
-361,898	28,249	-0,088	0,054
-360,883	-200,000	-0,032	-0,137
-359,869	276,627	0,021	0,027
-358,854	-200,000	-0,006	-0,039
-357,839	336,010	-0,071	0,101
-356,825	-200,000	-0,005	0,159
-355,810	67,061	-0,075	0,056
-354,796	474,092	0,113	0,187
-353,781	-200,000	-0,009	-0,033
-352,766	-200,000	0,008	-0,085
-351,752	-200,000	0,014	0,142
-350,737	275,318	0,047	-0,061
-349,723	501,440	-0,047	-0,080
-348,708	-42,224	-0,064	-0,024
-347,693	177,064	0,021	0,023
-346,679	800,000	-0,027	-0,056
-345,664	-200,000	-0,006	-0,074
-344,650	-113,886	-0,097	-0,014
-343,635	800,000	-0,048	0,146
-342,620	-45,221	-0,022	0,008
-341,606	283,528	0,051	0,067
-340,591	-200,000	-0,030	0,100
-339,577	800,000	-0,019	0,056
-338,562	-56,767	-0,012	0,004
-337,548	-200,000	-0,015	-0,090
-336,533	-200,000	0,008	0,042
-335,518	186,690	0,049	-0,053
-334,504	-43,785	-0,018	-0,007
-333,489	-171,334	0,112	0,003
-332,475	213,466	-0,033	-0,038
-331,460	-200,000	-0,027	-0,105
-330,445	-200,000	0,006	-0,048
-329,431	18,509	-0,046	-0,027
-328,416	146,878	0,036	0,035
-327,402	-82,723	0,053	0,012
-326,387	377,802	0,072	0,108
-325,372	800,000	-0,044	0,130
-324,358	7,947	-0,035	-0,019
-323,343	800,000	-0,030	-0,085
-322,329	-200,000	-0,055	0,242
-321,314	800,000	0,038	-0,082
-320,299	200,941	-0,068	-0,076
-319,285	800,000	0,024	0,073
-318,270	-49,386	0,099	-0,034
-317,256	217,954	-0,084	-0,098
-316,241	325,787	-0,018	-0,025
-315,226	770,381	0,019	-0,038
-314,212	37,129	0,067	-0,043
-313,197	-155,052	-0,050	0,002
-312,183	72,152	0,110	0,083
-311,168	800,000	0,006	-0,017
-310,153	429,743	0,040	-0,064
-309,139	-200,000	0,002	-0,088
-308,124	99,718	-0,009	-0,008
-307,110	-200,000	0,009	0,033
-306,095	32,044	0,055	0,035
-305,080	218,505	0,004	-0,005
-304,066	-200,000	-0,014	-0,107
-303,051	-5,040	-0,092	0,046
-302,037	-129,357	0,062	0,006
-301,022	-200,000	0,005	0,044
-300,008	-200,000	0,010	-0,161
-298,993	-200,000	-0,006	0,049
-297,978	128,611	-0,054	0,050
-296,964	-182,730	-0,073	0,001
-295,949	-200,000	-0,022	0,077
-294,935	-55,560	0,052	0,017
-293,920	722,206	0,067	0,130
-292,905	546,321	0,068	0,119
-291,891	30,039	0,083	0,052
-290,876	-36,302	-0,019	-0,007
-289,862	406,209	0,028	-0,044
-288,847	-200,000	0,026	-0,097
-287,832	800,000	-0,005	0,013
-286,818	800,000	0,040	-0,098
-285,803	-200,000	-0,007	0,041
-284,789	154,909	0,061	-0,061
-283,774	14,629	0,049	-0,028
-282,759	559,864	-0,015	0,027
-281,745	-200,000	-0,000	-0,077
-280,730	320,982	-0,024	-0,033
-279,716	458,910	-0,056	-0,091
-278,701	-200,000	0,021	0,106
-277,686	272,604	0,098	0,127
-276,672	-44,673	0,042	0,015
-275,657	183,845	-0,090	0,097
-274,643	-113,349	-0,045	-0,006
-273,628	-200,000	0,006	-0,097
-272,613	-200,000	0,031	-0,104
-271,599	526,801	0,055	-0,096
-270,584	-46,665	0,216	-0,077
-269,570	-93,790	-0,034	-0,007
-268,555	39,047	0,106	0,069
-267,540	62,597	0,113	-0,082
-266,526	84,142	-0,098	0,078
-265,511	-78,182	-0,041	-0,010
-264,497	87,413	0,053	-0,043
-263,482	-78,770	-0,133	-0,033
-262,467	744,898	0,035	0,069
-261,453	-86,626	0,023	-0,005
-260,438	-27,305	0,090	-0,038
-259,424	800,000	-0,037	0,080
-258,409	-200,000	0,003	-0,037
-257,395	-98,165	0,124	0,023
-256,380	415,868	0,022	-0,035
-255,365	384,267	0,011	-0,017
-254,351	-95,833	-0,090	-0,017
-253,336	-200,000	-0,017	-0,069
-252,322	156,732	-0,076	-0,076
-251,307	-200,000	0,005	-0,051
-250,292	800,000	0,029	0,082
-249,278	275,309	0,043	0,056
-248,263	-200,000	-0,026	0,210
-247,249	115,977	0,044	-0,039
-246,234	214,159	0,058	0,067
-245,219	-200,000	-0,033	-0,135
-244,205	-49,502	-0,064	0,022
-243,190	308,765	-0,048	-0,065
-242,176	199,366	0,161	0,180
-241,161	-200,000	0,013	0,206
-240,146	-146,766	-0,036	0,002
-239,132	-38,748	0,094	0,036
-238,117	-90,116	0,055	0,012
-237,103	171,979	-0,026	-0,027
-236,088	11,671	0,096	0,053
-235,073	-21,289	0,058	0,026
-234,059	-200,000	-0,015	0,086
-233,044	-17,040	0,181	0,083
-232,030	84,081	-0,006	-0,005
-231,015	336,031	0,032	-0,045
-230,000	-44,190	-0,072	-0,026
-228,986	-200,000	0,002	-0,021
-227,971	800,000	0,040	-0,115
-226,957	126,123	0,061	-0,057
-225,942	-200,000	0,027	0,091
-224,927	-200,000	0,015	-0,063
-223,913	800,000	0,038	-0,079
-222,898	56,873	-0,075	0,053
-221,884	-118,348	0,112	0,014
-220,869	228,077	-0,013	-0,015
-219,855	-200,000	0,009	0,048
-218,840	-200,000	0,000	-0,004
-217,825	530,499	-0,059	0,101
-216,811	122,110	-0,100	-0,091
-215,796	-155,115	-0,080	0,004
-214,782	-78,475	0,145	-0,036
-213,767	-200,000	0,025	0,118
-212,752	181,171	0,042	0,045
-211,738	-116,015	0,201	0,027
-210,723	-122,014	-0,043	-0,005
-209,709	318,274	-0,060	-0,083
-208,694	-153,459	-0,099	-0,005
-207,679	162,834	0,033	-0,034
-206,665	512,020	-0,047	-0,081
-205,650	-200,000	0,010	-0,137
-204,636	186,208	0,061	0,066
-203,621	68,888	-0,017	-0,013
-202,606	-200,000	-0,013	-0,148
-201,592	-108,696	-0,085	-0,013
-200,577	-47,012	-0,173	0,061
-199,563	359,471	0,028	-0,040
-198,548	800,000	-0,035	0,083
-197,533	800,000	0,035	0,084
-196,519	-200,000	-0,063	0,203
-195,504	42,933	0,084	0,056
-194,490	748,024	0,027	-0,052
-193,475	180,635	-0,052	-0,055
-192,460	35,586	0,040	0,025
-191,446	288,325	0,054	0,071
-190,431	330,800	0,045	0,063
-189,417	-90,736	0,064	0,013
-188,402	387,458	0,058	-0,087
-187,387	372,092	-0,059	0,088
-186,373	-55,312	-0,109	0,035
-185,358	63,166	0,040	-0,029
-184,344	800,000	-0,009	0,018
-183,329	-13,711	0,051	-0,024
-182,315	800,000	-0,002	-0,005
-181,300	-185,159	0,169	-0,002
-180,285	-200,000	-0,040	-0,150
-179,271	-11,992	0,102	0,048
-178,256	-200,000	-0,009	0,039
-177,242	-200,000	-0,041	0,149
-176,227	-200,000	-0,008	-0,035
-175,212	174,234	0,036	0,038
-174,198	800,000	-0,060	0,131
-173,183	177,502	0,045	-0,048
-172,169	-9,953	0,052	0,025
-171,154	254,745	-0,101	-0,126
-170,139	-17,767	0,159	0,072
-169,125	-132,221	0,066	-0,006
-168,110	106,506	0,007	-0,006
-167,096	202,300	-0,048	-0,053
-166,081	36,205	0,099	-0,063
-165,066	-123,704	0,101	0,011
-164,052	800,000	0,031	0,080
-163,037	800,000	0,020	0,045
-162,023	218,692	0,080	-0,092
-161,008	-200,000	0,030	0,141
-159,993	-43,485	0,103	-0,037
-158,979	-15,316	0,131	-0,060
-157,964	-200,000	-0,005	-0,108
-156,950	-30,917	-0,046	-0,019
-155,935	57,666	-0,074	0,052
-154,920	-99,065	0,085	0,016
-153,906	-200,000	0,001	-0,097
-152,891	-86,835	0,180	0,040
-151,877	800,000	-0,040	0,095
-150,862	112,288	-0,083	-0,073
-149,847	650,707	0,031	0,058
-148,833	6,208	-0,046	0,024
-147,818	-200,000	-0,014	0,170
-146,804	241,115	0,033	0,041
-145,789	141,726	0,041	0,039
-144,775	691,719	0,043	0,083
-143,760	-200,000	0,004	-0,120
-142,745	-200,000	-0,000	-0,069
-141,731	243,142	0,054	0,066
-140,716	800,000	0,012	-0,032
-139,702	-83,095	0,122	-0,028
-138,687	-97,694	0,062	0,012
-137,672	-200,000	0,008	0,195
-136,658	49,259	-0,051	0,035
-135,643	100,291	-0,087	-0,073
-134,629	-130,811	0,142	0,014
-133,614	95,196	0,078	-0,064
-132,599	159,371	-0,086	0,086
-131,585	-51,321	0,059	0,020
-130,570	9,869	-0,048	0,026
-129,556	-135,304	-0,172	-0,015
-128,541	138,861	-0,059	0,056
-127,526	-22,045	0,055	-0,024
-126,512	800,000	0,068	0,142
-125,497	-46,297	-0,134	-0,047
-124,483	-200,000	-0,039	0,150
-123,468	477,328	-0,013	-0,021
-122,453	-200,000	-0,015	-0,054
-121,439	800,000	0,014	0,034
-120,424	800,000	-0,021	-0,061
-119,410	-107,045	-0,041	0,006
