DTS Sentinel unit serial number:	SN410029Multiplexer serial number:	ORYXHardware model number:	OX2-SRSoftware version number:	ORYX F/W v4,00 Oryx Data Collector v3.7.2.0data status	okinstallation	B6 Nyhavnadifferential loss correction	single-endedforward channel	channel 2reverse channel	N/Adate	2023/12/08time	16:35:08forward acquisition time	300,00reverse acquisition time	0,00gamma	499,1914k internal	0,3159k external	0,3159temperature offset calibration	1,0000default loss term (dB/km)	0,3820temperature slope calibration	1,0000multiplexer offset coefficient	1,0000multiplexer slope coefficient	1,0000fibre end	0,00T internal ref (°C)	15,12T ext. ref 1 (°C)	-1,42T ext. ref 2 (°C)	-1,42length (m)	temperature (°C)	Stokes	anti-Stokes-744,400	800,000	0,028	0,060
-743,385	-175,165	-0,237	0,005
-742,371	-113,295	0,300	-0,043
-741,356	-151,326	-0,327	0,018
-740,342	-104,412	0,152	0,026
-739,327	-77,266	-0,342	-0,087
-738,312	800,000	0,029	0,070
-737,298	-48,874	-0,321	-0,113
-736,283	69,695	0,105	-0,080
-735,269	-123,941	-0,263	0,030
-734,254	-57,259	0,057	-0,018
-733,239	-25,871	-0,489	-0,211
-732,225	-109,651	0,234	0,036
-731,210	800,000	-0,016	-0,046
-730,196	-200,000	-0,003	-0,040
-729,181	400,411	-0,118	-0,183
-728,167	-200,000	-0,022	-0,117
-727,152	-183,192	-0,190	-0,002
-726,137	275,177	-0,093	-0,122
-725,123	66,025	-0,040	0,030
-724,108	-200,000	0,002	0,031
-723,094	-22,109	-0,103	-0,046
-722,079	-56,732	-0,147	-0,047
-721,064	9,071	-0,037	0,021
-720,050	191,774	-0,050	0,055
-719,035	-30,723	-0,082	0,034
-718,021	-200,000	-0,022	0,000
-717,006	-200,000	0,007	-0,095
-715,991	204,080	-0,084	-0,096
-714,977	259,794	0,059	-0,075
-713,962	231,252	0,021	-0,025
-712,948	-200,000	0,004	-0,025
-711,933	141,194	-0,022	-0,021
-710,918	26,681	-0,175	-0,108
-709,904	-200,000	-0,011	-0,072
-708,889	-200,000	0,020	-0,084
-707,875	-200,000	-0,040	0,171
-706,860	20,060	0,036	-0,021
-705,845	-124,473	-0,057	-0,006
-704,831	123,587	-0,046	-0,042
-703,816	-82,554	-0,130	0,031
-702,802	-161,457	0,076	-0,003
-701,787	-72,246	0,114	-0,031
-700,772	-119,231	0,028	-0,004
-699,758	-110,780	-0,072	-0,011
-698,743	154,772	0,020	-0,020
-697,729	800,000	0,023	0,053
-696,714	-96,205	-0,111	0,021
-695,699	-200,000	0,000	0,051
-694,685	211,992	-0,058	0,068
-693,670	-58,002	-0,166	-0,053
-692,656	-121,451	0,109	0,013
-691,641	393,065	0,018	0,027
-690,627	158,359	0,075	0,076
-689,612	-142,918	-0,132	-0,009
-688,597	-200,000	0,008	0,044
-687,583	363,287	0,010	-0,016
-686,568	79,677	-0,057	-0,045
-685,554	136,754	0,029	0,028
-684,539	-200,000	-0,004	-0,232
-683,524	192,921	0,105	0,117
-682,510	-15,103	0,223	-0,104
-681,495	800,000	-0,071	-0,160
-680,481	-200,000	0,015	-0,111
-679,466	254,028	0,032	-0,041
-678,451	800,000	0,054	-0,175
-677,437	480,039	0,031	-0,051
-676,422	-200,000	-0,028	0,103
-675,408	800,000	-0,034	0,095
-674,393	578,318	-0,060	-0,108
-673,378	419,243	0,016	0,026
-672,364	-55,330	-0,133	0,043
-671,349	-200,000	-0,003	-0,181
-670,335	-200,000	0,010	-0,096
-669,320	-200,000	0,016	0,193
-668,305	194,846	-0,119	0,133
-667,291	476,180	0,111	-0,185
-666,276	-77,662	-0,328	0,083
-665,262	800,000	-0,025	-0,066
-664,247	457,109	0,021	-0,034
-663,232	-42,623	-0,078	-0,029
-662,218	306,494	-0,025	0,034
-661,203	274,366	-0,027	-0,036
-660,189	-200,000	0,021	-0,077
-659,174	685,357	-0,025	0,047
-658,159	800,000	-0,039	0,086
-657,145	263,595	-0,076	-0,097
-656,130	359,129	-0,104	0,153
-655,116	-200,000	-0,037	0,138
-654,101	145,052	0,071	0,070
-653,086	-200,000	-0,025	-0,119
-652,072	107,586	-0,165	-0,144
-651,057	-50,256	-0,139	-0,048
-650,043	-200,000	-0,029	-0,154
-649,028	219,806	0,059	0,069
-648,014	-200,000	-0,017	0,074
-646,999	-200,000	-0,009	0,086
-645,984	323,319	0,069	0,097
-644,970	-200,000	0,005	-0,072
-643,955	35,693	-0,112	-0,072
-642,941	574,271	-0,068	-0,122
-641,926	-11,722	0,037	0,018
-640,911	-43,924	0,133	0,049
-639,897	136,625	-0,160	-0,154
-638,882	-200,000	-0,009	0,093
-637,868	-200,000	-0,019	-0,102
-636,853	-200,000	-0,017	-0,060
-635,838	7,537	-0,057	-0,031
-634,824	69,681	-0,050	-0,037
-633,809	800,000	-0,044	0,116
-632,795	177,639	-0,049	-0,052
-631,780	543,288	-0,041	0,073
-630,765	-195,332	0,148	0,001
-629,751	800,000	0,023	0,058
-628,736	14,579	-0,126	-0,072
-627,722	218,357	-0,048	-0,057
-626,707	58,307	-0,049	0,035
-625,692	-200,000	0,041	0,160
-624,678	-200,000	0,044	-0,167
-623,663	120,706	0,040	0,036
-622,649	73,730	-0,043	-0,033
-621,634	-200,000	-0,024	0,088
-620,619	-115,819	-0,135	0,018
-619,605	-66,060	0,138	-0,040
-618,590	298,203	-0,044	-0,059
-617,576	-200,000	-0,013	0,242
-616,561	-148,359	-0,075	0,004
-615,546	800,000	0,043	-0,088
-614,532	-105,494	-0,064	0,011
-613,517	-131,924	0,027	-0,003
-612,503	-54,972	0,120	0,039
-611,488	-10,761	0,059	0,028
-610,474	290,055	-0,034	0,046
-609,459	-94,662	0,054	0,011
-608,444	611,703	-0,068	0,125
-607,430	-71,002	-0,107	-0,029
-606,415	428,475	0,124	-0,197
-605,401	-200,000	-0,026	-0,149
-604,386	-1,227	-0,089	0,046
-603,371	582,774	-0,071	0,129
-602,357	-94,450	-0,153	0,030
-601,342	-152,752	-0,078	0,004
-600,328	563,315	-0,102	-0,182
-599,313	-27,607	-0,029	0,012
-598,298	-0,072	-0,071	0,037
-597,284	800,000	-0,023	-0,050
-596,269	-200,000	-0,012	-0,059
-595,255	588,083	0,061	-0,111
-594,240	-87,214	-0,019	-0,004
-593,225	29,080	-0,139	-0,086
-592,211	204,066	-0,007	-0,008
-591,196	800,000	0,039	-0,121
-590,182	-30,323	0,044	-0,018
-589,167	800,000	0,036	0,084
-588,152	-200,000	0,002	0,186
-587,138	-72,210	-0,087	-0,023
-586,123	412,207	0,056	0,088
-585,109	-200,000	0,024	-0,085
-584,094	370,096	0,066	-0,099
-583,079	285,829	-0,086	-0,114
-582,065	2,995	-0,036	-0,019
-581,050	71,832	-0,183	0,139
-580,036	-200,000	0,005	-0,117
-579,021	-200,000	-0,051	-0,175
-578,006	210,101	0,059	-0,068
-576,992	-97,155	-0,048	0,009
-575,977	-200,000	0,102	0,000
-574,963	352,262	-0,079	0,116
-573,948	189,242	0,077	0,085
-572,934	636,413	-0,061	0,114
-571,919	-200,000	0,023	0,078
-570,904	-200,000	0,011	0,178
-569,890	-200,000	-0,024	-0,154
-568,875	-69,609	0,139	0,039
-567,861	-200,000	-0,001	-0,090
-566,846	-200,000	0,004	0,013
-565,831	-92,292	-0,059	0,012
-564,817	-64,317	0,077	0,023
-563,802	70,084	-0,071	0,053
-562,788	185,526	-0,084	0,092
-561,773	-200,000	0,038	-0,164
-560,758	800,000	-0,040	-0,090
-559,744	149,041	0,086	0,085
-558,729	-5,363	0,090	-0,045
-557,715	230,143	0,048	-0,058
-556,700	302,245	-0,096	0,130
-555,685	-8,696	-0,122	-0,060
-554,671	362,633	0,130	-0,191
-553,656	-200,000	0,003	-0,154
-552,642	86,044	0,062	0,050
-551,627	247,809	0,074	0,092
-550,612	50,305	0,074	0,051
-549,598	-4,454	-0,049	-0,025
-548,583	-81,884	-0,077	0,018
-547,569	-200,000	-0,001	0,019
-546,554	85,305	-0,115	0,092
-545,539	-99,596	0,090	0,016
-544,525	-50,973	0,081	0,028
-543,510	42,377	0,080	-0,053
-542,496	301,657	0,046	-0,062
-541,481	-55,303	-0,088	-0,029
-540,466	13,907	0,033	0,019
-539,452	203,999	-0,050	0,057
-538,437	198,151	-0,070	0,078
-537,423	152,660	-0,052	-0,052
-536,408	-96,916	-0,036	-0,007
-535,393	-200,000	0,002	-0,027
-534,379	22,827	-0,004	-0,002
-533,364	-158,373	-0,089	0,004
-532,350	-200,000	0,004	-0,026
-531,335	-200,000	0,003	0,050
-530,321	197,209	0,064	0,071
-529,306	155,626	-0,160	-0,161
-528,291	38,010	0,051	-0,033
-527,277	325,252	-0,036	-0,051
-526,262	84,184	0,072	0,058
-525,248	-64,543	0,046	-0,014
-524,233	108,503	0,145	0,126
-523,218	459,347	-0,153	-0,249
-522,204	-31,562	-0,079	-0,032
-521,189	11,426	-0,047	0,026
-520,175	79,175	-0,031	-0,024
-519,160	-32,889	-0,174	0,070
-518,145	800,000	0,015	0,046
-517,131	88,242	0,036	0,029
-516,116	-173,110	-0,036	-0,001
-515,102	414,217	-0,105	-0,164
-514,087	-78,027	0,106	-0,026
-513,072	-200,000	0,017	-0,075
-512,058	-125,787	0,056	-0,006
-511,043	152,617	0,017	-0,016
-510,029	-133,524	0,090	-0,008
-509,014	-200,000	0,002	0,133
-507,999	800,000	-0,062	0,189
-506,985	224,809	-0,023	0,027
-505,970	-131,012	0,124	-0,012
-504,956	-26,668	-0,164	-0,070
-503,941	78,487	0,095	-0,074
-502,926	173,283	-0,135	0,143
-501,912	-200,000	0,005	0,024
-500,897	-200,000	0,010	0,063
-499,883	-200,000	-0,012	0,130
-498,868	800,000	0,022	-0,053
-497,853	-118,138	-0,044	0,006
-496,839	342,002	0,069	0,099
-495,824	-200,000	0,008	0,073
-494,810	20,890	-0,055	-0,032
-493,795	-200,000	0,004	-0,078
-492,781	-60,287	-0,179	-0,055
-491,766	-30,194	0,129	0,053
-490,751	35,926	0,057	-0,036
-489,737	308,511	-0,045	-0,061
-488,722	-200,000	0,016	0,110
-487,708	-168,424	0,121	0,003
-486,693	-112,346	-0,143	-0,021
-485,678	147,798	0,070	0,069
-484,664	62,634	-0,061	0,045
-483,649	-68,719	0,062	0,017
-482,635	23,303	0,151	-0,090
-481,620	642,158	0,074	-0,138
-480,605	106,737	0,071	-0,061
-479,591	-134,804	0,018	0,002
-478,576	9,256	-0,022	0,012
-477,562	103,943	-0,136	-0,117
-476,547	800,000	-0,021	-0,056
-475,532	566,238	-0,026	-0,047
-474,518	-4,896	0,105	0,053
-473,503	149,310	0,008	-0,008
-472,489	-40,712	-0,179	0,067
-471,474	-45,373	-0,095	-0,034
-470,459	-66,217	-0,062	-0,018
-469,445	800,000	0,026	0,067
-468,430	-43,482	-0,094	0,034
-467,416	247,720	0,069	0,085
-466,401	-106,349	-0,032	0,005
-465,386	-200,000	0,021	0,140
-464,372	-97,953	0,094	0,018
-463,357	800,000	-0,013	0,041
-462,343	-108,286	-0,036	0,006
-461,328	-6,265	-0,094	-0,047
-460,313	610,566	0,071	0,130
-459,299	24,159	0,170	0,102
-458,284	800,000	0,055	-0,117
-457,270	-46,667	-0,170	0,060
-456,255	78,288	-0,073	-0,057
-455,241	800,000	0,046	-0,129
-454,226	-69,470	-0,135	-0,037
-453,211	-97,777	0,020	0,004
-452,197	630,711	-0,023	-0,042
-451,182	575,048	-0,047	-0,083
-450,168	-138,311	0,083	0,007
-449,153	-148,517	-0,196	-0,011
-448,138	-200,000	0,047	-0,194
-447,124	309,700	0,079	-0,108
-446,109	-200,000	-0,005	0,067
-445,095	152,009	0,107	-0,106
-444,080	800,000	-0,034	0,069
-443,065	474,841	-0,030	0,050
-442,051	408,159	0,033	-0,050
-441,036	-200,000	-0,006	0,041
-440,022	-90,458	-0,090	0,019
-439,007	-46,907	-0,053	0,019
-437,992	800,000	0,014	0,039
-436,978	0,999	0,078	0,040
-435,963	215,917	0,089	-0,103
-434,949	308,587	-0,065	-0,088
-433,934	401,692	-0,066	0,101
-432,919	-94,899	-0,042	0,008
-431,905	38,590	-0,056	-0,036
-430,890	-43,001	0,050	-0,018
-429,876	800,000	0,031	0,064
-428,861	-200,000	-0,007	0,031
-427,846	96,609	-0,039	0,032
-426,832	-125,584	-0,094	-0,010
-425,817	-200,000	0,008	0,030
-424,803	-200,000	0,029	0,098
-423,788	65,261	0,132	-0,097
-422,773	243,740	-0,075	-0,092
-421,759	-200,000	-0,046	-0,162
-420,744	-139,249	0,177	0,014
-419,730	-200,000	-0,022	-0,102
-418,715	-44,021	-0,051	-0,018
-417,701	-200,000	-0,000	-0,049
-416,686	800,000	-0,027	-0,062
-415,671	-45,412	0,063	0,023
-414,657	-117,437	0,125	0,016
-413,642	9,014	-0,096	0,053
-412,628	45,290	-0,113	-0,076
-411,613	-200,000	0,000	-0,016
-410,598	-200,000	0,003	-0,036
-409,584	-200,000	0,007	-0,084
-408,569	108,140	0,054	-0,046
-407,555	-200,000	0,006	0,031
-406,540	-36,237	0,132	0,052
-405,525	475,144	0,049	-0,081
-404,511	744,363	-0,036	-0,072
-403,496	441,729	-0,026	-0,041
-402,482	-61,762	0,104	-0,031
-401,467	182,752	0,084	-0,090
-400,452	-143,987	0,014	0,001
-399,438	-58,268	-0,063	-0,020
-398,423	-60,600	0,184	-0,056
-397,409	-61,973	0,091	-0,028
-396,394	510,706	-0,028	0,047
-395,379	100,034	0,133	0,112
-394,365	-148,157	0,206	0,012
-393,350	42,680	0,104	0,069
-392,336	-19,756	-0,070	0,032
-391,321	-165,262	-0,033	-0,001
-390,306	800,000	-0,084	-0,214
-389,292	-61,612	-0,091	0,027
-388,277	-200,000	0,014	-0,053
-387,263	-48,115	-0,107	0,037
-386,248	152,371	-0,046	0,046
-385,233	87,658	0,195	0,157
-384,219	-187,625	0,037	-0,000
-383,204	120,050	-0,073	-0,065
-382,190	172,972	-0,061	0,064
-381,175	-38,172	-0,050	-0,019
-380,160	-88,489	0,068	0,015
-379,146	-97,338	0,225	0,042
-378,131	54,593	-0,060	0,042
-377,117	238,550	0,046	-0,056
-376,102	-34,015	-0,033	-0,013
-375,088	400,385	-0,079	-0,120
-374,073	697,603	0,050	-0,096
-373,058	-200,000	-0,008	0,116
-372,044	-200,000	0,011	0,160
-371,029	552,344	0,101	0,177
-370,015	94,710	-0,009	0,007
-369,000	-128,647	0,043	-0,004
-367,985	479,875	0,078	-0,129
-366,971	-200,000	-0,005	0,026
-365,956	724,626	-0,032	-0,062
-364,942	800,000	0,046	0,146
-363,927	-200,000	0,029	0,142
-362,912	-200,000	0,002	-0,121
-361,898	312,797	0,040	-0,055
-360,883	800,000	0,048	-0,139
-359,869	-95,876	-0,058	0,011
-358,854	-200,000	0,020	-0,067
-357,839	576,190	0,036	0,064
-356,825	41,025	-0,181	0,118
-355,810	-200,000	0,009	-0,071
-354,796	-36,130	0,038	-0,015
-353,781	488,636	0,013	-0,021
-352,766	-200,000	0,004	-0,016
-351,752	-27,704	0,130	-0,055
-350,737	8,269	0,167	0,091
-349,723	-79,007	0,070	0,017
-348,708	-200,000	-0,001	-0,069
-347,693	177,691	0,020	-0,022
-346,679	-200,000	0,016	0,058
-345,664	-103,381	0,113	0,019
-344,650	468,750	0,033	0,053
-343,635	-158,056	-0,063	-0,003
-342,620	201,258	-0,029	0,032
-341,606	-144,739	-0,018	0,001
-340,591	-20,709	0,040	0,018
-339,577	-200,000	-0,002	0,010
-338,562	29,917	-0,099	0,061
-337,548	113,080	0,056	0,049
-336,533	332,353	0,022	0,031
-335,518	-200,000	0,031	-0,144
-334,504	-200,000	0,002	-0,088
-333,489	395,175	-0,034	0,052
-332,475	184,670	0,016	0,017
-331,460	-91,774	-0,124	-0,025
-330,445	-51,033	0,038	-0,013
-329,431	-125,713	-0,062	0,007
-328,416	800,000	-0,054	0,161
-327,402	-72,662	0,054	0,014
-326,387	800,000	0,072	-0,163
-325,372	24,491	-0,099	0,059
-324,358	389,425	-0,059	-0,089
-323,343	192,904	-0,050	-0,054
-322,329	-41,503	0,100	0,037
-321,314	-200,000	0,005	0,070
-320,299	-200,000	0,012	0,118
-319,285	253,434	0,027	-0,033
-318,270	787,882	-0,035	-0,069
-317,256	-35,202	-0,121	0,047
-316,241	-200,000	0,002	0,108
-315,226	-152,386	-0,069	0,004
-314,212	94,966	0,066	0,054
-313,197	507,570	-0,052	0,088
-312,183	-200,000	0,001	0,095
-311,168	152,457	-0,094	-0,093
-310,153	36,305	-0,063	-0,040
-309,139	-200,000	0,003	0,102
-308,124	341,067	0,105	0,149
-307,110	492,423	-0,017	0,028
-306,095	31,874	0,101	0,063
-305,080	-200,000	0,008	0,224
-304,066	-200,000	-0,007	-0,118
-303,051	800,000	-0,082	-0,164
-302,037	8,298	0,131	-0,071
-301,022	39,738	-0,091	0,059
-300,008	800,000	0,064	-0,134
-298,993	-200,000	0,006	-0,091
-297,978	6,865	0,065	-0,035
-296,964	38,610	-0,166	-0,107
-295,949	-130,770	-0,081	0,008
-294,935	362,300	-0,081	0,119
-293,920	-200,000	0,005	0,088
-292,905	-200,000	0,021	-0,089
-291,891	800,000	-0,054	0,115
-290,876	800,000	-0,039	-0,104
-289,862	-101,165	0,102	0,018
-288,847	383,673	-0,096	-0,144
-287,832	332,419	0,073	-0,103
-286,818	800,000	-0,018	-0,055
-285,803	-121,778	-0,057	-0,007
-284,789	-163,309	0,099	-0,003
-283,774	-65,244	0,102	0,030
-282,759	-115,301	-0,067	-0,009
-281,745	800,000	-0,039	-0,107
-280,730	-119,615	0,077	-0,010
-279,716	800,000	-0,031	0,065
-278,701	-0,216	0,088	0,045
-277,686	-61,517	0,124	0,038
-276,672	-128,866	-0,038	-0,004
-275,657	-144,768	-0,075	-0,005
-274,643	-3,153	0,137	-0,069
-273,628	800,000	-0,061	0,126
-272,613	194,443	0,098	0,108
-271,599	674,439	0,047	0,089
-270,584	-22,201	0,099	0,043
-269,570	28,160	0,087	0,053
-268,555	169,955	-0,036	0,038
-267,540	412,778	0,044	-0,067
-266,526	800,000	0,033	-0,077
-265,511	-16,460	0,067	-0,031
-264,497	562,298	0,059	0,103
-263,482	200,538	0,037	0,042
-262,467	-88,062	0,059	0,013
-261,453	800,000	-0,081	0,168
-260,438	800,000	-0,037	-0,091
-259,424	-200,000	0,003	-0,060
-258,409	-200,000	-0,010	0,058
-257,395	-200,000	-0,008	-0,060
-256,380	-200,000	-0,013	0,081
-255,365	118,178	0,092	-0,082
-254,351	-200,000	0,023	0,075
-253,336	646,015	-0,028	-0,051
-252,322	-200,000	-0,002	0,039
-251,307	-200,000	-0,014	-0,054
-250,292	-140,711	0,151	-0,011
-249,278	-200,000	0,000	0,047
-248,263	439,935	-0,036	0,056
-247,249	-200,000	0,015	0,090
-246,234	440,055	-0,045	-0,072
-245,219	-200,000	-0,039	-0,143
-244,205	-32,176	-0,091	-0,036
-243,190	39,681	0,097	0,063
-242,176	-126,161	-0,107	-0,011
-241,161	215,124	0,032	-0,037
-240,146	-173,426	-0,090	0,002
-239,132	-200,000	0,006	0,043
-238,117	131,098	0,111	-0,103
-237,103	-200,000	0,011	0,094
-236,088	800,000	0,018	-0,042
-235,073	800,000	0,038	-0,113
-234,059	-200,000	0,002	0,168
-233,044	-176,020	0,140	0,003
-232,030	-104,461	0,123	-0,020
-231,015	225,435	-0,086	0,100
-230,000	-200,000	-0,000	-0,103
-228,986	-78,202	-0,111	0,027
-227,971	-200,000	0,021	0,130
-226,957	800,000	-0,054	0,148
-225,942	-133,050	-0,101	-0,009
-224,927	24,946	0,057	0,034
-223,913	-7,883	-0,099	0,048
-222,898	218,356	0,065	-0,076
-221,884	800,000	-0,063	-0,156
-220,869	-18,814	0,031	-0,014
-219,855	265,488	-0,054	-0,068
-218,840	800,000	0,019	0,044
-217,825	110,615	-0,059	-0,051
-216,811	-3,318	-0,115	0,058
-215,796	-79,318	0,063	0,015
-214,782	-200,000	-0,012	-0,049
-213,767	651,491	-0,042	0,077
-212,752	221,256	0,034	0,039
-211,738	28,167	-0,055	0,033
-210,723	800,000	-0,021	0,049
-209,709	9,275	0,097	-0,053
-208,694	-34,494	-0,098	0,039
-207,679	-92,324	0,051	0,010
-206,665	-163,554	0,123	0,004
-205,650	16,310	-0,089	0,050
-204,636	187,677	0,047	0,051
-203,621	179,924	-0,046	0,049
-202,606	-200,000	-0,004	-0,030
-201,592	-120,477	-0,083	-0,010
-200,577	-200,000	0,006	-0,050
-199,563	800,000	0,062	0,141
-198,548	-110,004	0,075	0,011
-197,533	182,937	0,017	-0,018
-196,519	-200,000	-0,015	0,063
-195,504	46,691	-0,069	-0,046
-194,490	800,000	0,035	0,089
-193,475	-200,000	-0,007	-0,185
-192,460	-23,428	0,119	0,051
-191,446	287,760	-0,083	0,109
-190,431	356,023	0,123	0,177
-189,417	-54,224	0,130	0,042
-188,402	-118,033	-0,049	-0,006
-187,387	-200,000	-0,015	-0,079
-186,373	-35,320	-0,101	-0,039
-185,358	-92,522	-0,026	0,005
-184,344	110,750	0,046	-0,040
-183,329	-200,000	-0,020	0,169
-182,315	242,507	0,030	0,036
-181,300	-200,000	0,009	-0,172
-180,285	124,552	-0,129	-0,117
-179,271	146,762	0,038	-0,037
-178,256	-157,407	-0,106	-0,005
-177,242	-180,079	-0,067	-0,001
-176,227	-200,000	0,004	0,133
-175,212	-123,445	0,093	0,011
-174,198	459,399	0,021	-0,034
-173,183	302,693	-0,048	-0,064
-172,169	123,081	-0,186	-0,168
-171,154	-46,186	0,095	0,033
-170,139	305,993	0,062	0,083
-169,125	800,000	0,063	-0,129
-168,110	-69,104	-0,024	0,007
-167,096	-200,000	-0,007	-0,034
-166,081	-31,466	-0,049	0,020
-165,066	637,729	-0,012	-0,023
-164,052	110,385	0,051	0,044
-163,037	214,377	0,093	-0,107
-162,023	-20,418	0,104	0,046
-161,008	-157,369	0,073	0,003
-159,993	-200,000	-0,028	0,147
-158,979	-24,189	-0,169	-0,072
-157,964	82,757	0,031	0,024
-156,950	800,000	-0,016	0,035
-155,935	800,000	0,006	-0,014
-154,920	800,000	0,013	0,032
-153,906	28,080	-0,025	0,015
-152,891	800,000	-0,005	-0,010
-151,877	160,124	0,054	0,054
-150,862	-113,206	-0,107	-0,015
-149,847	63,808	0,122	-0,088
-148,833	-80,314	-0,062	0,015
-147,818	800,000	-0,043	0,109
-146,804	31,122	-0,079	-0,049
-145,789	-42,716	0,030	0,011
-144,775	-200,000	0,017	-0,073
-143,760	312,963	-0,038	-0,052
-142,745	800,000	-0,041	0,119
-141,731	-4,663	-0,071	0,035
-140,716	-66,752	0,156	-0,044
-139,702	-200,000	0,013	0,072
-138,687	800,000	0,078	0,201
-137,672	-135,363	-0,170	-0,014
-136,658	279,356	0,033	-0,043
-135,643	-114,397	-0,028	-0,004
-134,629	-109,406	-0,009	-0,001
-133,614	-200,000	0,023	0,210
-132,599	-60,644	-0,085	-0,026
-131,585	-200,000	-0,023	0,113
-130,570	-156,403	-0,122	0,005
-129,556	800,000	0,065	-0,157
-128,541	-74,588	-0,118	-0,030
-127,526	-74,159	0,067	0,017
-126,512	-64,503	-0,066	0,019
-125,497	260,222	0,063	0,078
-124,483	-80,211	0,046	0,011
-123,468	256,200	-0,156	0,192
-122,453	800,000	-0,063	-0,151
-121,439	800,000	0,020	-0,061
-120,424	-200,000	0,003	0,013
