DTS Sentinel unit serial number:	SN410029Multiplexer serial number:	ORYXHardware model number:	OX2-SRSoftware version number:	ORYX F/W v4,00 Oryx Data Collector v3.7.2.0data status	okinstallation	B6 Nyhavnadifferential loss correction	single-endedforward channel	channel 2reverse channel	N/Adate	2023/12/10time	13:00:09forward acquisition time	300,00reverse acquisition time	0,00gamma	499,1914k internal	0,3122k external	0,3122temperature offset calibration	1,0000default loss term (dB/km)	0,3820temperature slope calibration	1,0000multiplexer offset coefficient	1,0000multiplexer slope coefficient	1,0000fibre end	0,00T internal ref (°C)	22,81T ext. ref 1 (°C)	6,48T ext. ref 2 (°C)	6,50length (m)	temperature (°C)	Stokes	anti-Stokes-744,400	301,059	-0,114	-0,158
-743,385	0,139	-0,215	0,114
-742,371	-86,280	0,085	0,019
-741,356	-10,452	-0,222	0,109
-740,342	-110,513	-0,197	0,030
-739,327	-161,820	-0,188	0,007
-738,312	-93,804	-0,033	0,007
-737,298	-18,277	-0,204	0,095
-736,283	334,339	0,052	-0,076
-735,269	-96,560	-0,312	0,061
-734,254	800,000	-0,070	-0,181
-733,239	-169,503	-0,417	0,011
-732,225	-126,863	0,187	-0,020
-731,210	-200,000	0,013	0,239
-730,196	-153,112	-0,026	0,001
-729,181	-13,067	-0,025	0,012
-728,167	-200,000	0,007	0,052
-727,152	-200,000	-0,016	0,079
-726,137	283,582	-0,033	-0,044
-725,123	172,466	-0,079	-0,085
-724,108	24,736	-0,132	0,082
-723,094	-200,000	-0,013	0,071
-722,079	-200,000	0,010	-0,044
-721,064	-34,733	-0,089	0,036
-720,050	-200,000	0,021	0,097
-719,035	-200,000	-0,018	0,079
-718,021	208,346	-0,047	-0,055
-717,006	-200,000	0,030	-0,102
-715,991	-85,866	-0,086	-0,020
-714,977	-40,022	-0,130	-0,050
-713,962	13,278	-0,046	0,027
-712,948	-200,000	0,001	0,008
-711,933	-138,379	-0,107	-0,009
-710,918	161,046	-0,070	-0,073
-709,904	37,001	-0,143	-0,094
-708,889	176,228	-0,055	-0,059
-707,875	-200,000	-0,008	-0,029
-706,860	-112,102	0,067	0,010
-705,845	8,147	0,049	0,027
-704,831	800,000	0,019	0,049
-703,816	563,028	0,027	-0,049
-702,802	-108,058	-0,167	0,027
-701,787	20,429	-0,009	-0,005
-700,772	-200,000	0,007	-0,086
-699,758	118,894	0,043	-0,039
-698,743	800,000	0,020	0,054
-697,729	-200,000	0,009	-0,061
-696,714	800,000	0,026	0,065
-695,699	131,740	-0,047	-0,045
-694,685	-147,506	0,133	-0,008
-693,670	-16,031	-0,093	0,044
-692,656	131,098	0,121	0,116
-691,641	-82,750	-0,089	0,021
-690,627	304,089	0,041	0,057
-689,612	359,247	-0,019	0,028
-688,597	481,340	-0,040	-0,067
-687,583	340,572	-0,024	-0,035
-686,568	-52,819	-0,077	-0,026
-685,554	-200,000	-0,012	-0,142
-684,539	154,545	0,035	0,036
-683,524	-140,220	0,134	0,010
-682,510	-200,000	0,012	0,041
-681,495	-200,000	0,005	0,073
-680,481	37,465	0,106	-0,070
-679,466	87,514	-0,110	-0,090
-678,451	-114,158	0,114	0,016
-677,437	47,667	0,079	0,054
-676,422	-200,000	-0,003	0,088
-675,408	50,841	0,038	-0,027
-674,393	800,000	0,006	-0,013
-673,378	800,000	-0,037	-0,079
-672,364	65,910	-0,098	-0,074
-671,349	800,000	0,046	0,110
-670,335	-183,421	0,045	-0,001
-669,320	-46,551	0,114	-0,041
-668,305	-200,000	-0,021	0,084
-667,291	591,055	-0,051	-0,095
-666,276	219,451	-0,022	-0,026
-665,262	-46,775	-0,062	-0,022
-664,247	404,716	-0,060	-0,095
-663,232	-51,766	0,081	-0,028
-662,218	-17,416	-0,035	0,016
-661,203	14,128	-0,124	0,071
-660,189	800,000	-0,039	-0,088
-659,174	-200,000	-0,046	-0,157
-658,159	116,580	0,075	-0,068
-657,145	462,885	-0,030	0,051
-656,130	354,128	0,086	-0,128
-655,116	343,653	0,010	0,015
-654,101	-200,000	0,068	-0,000
-653,086	335,019	-0,030	0,043
-652,072	800,000	-0,020	-0,052
-651,057	29,526	0,081	0,051
-650,043	-200,000	-0,023	0,107
-649,028	800,000	0,021	-0,046
-648,014	251,590	0,049	0,062
-646,999	-72,202	0,097	-0,026
-645,984	288,834	0,068	0,092
-644,970	-18,881	-0,203	-0,094
-643,955	-200,000	0,009	0,088
-642,941	-13,685	0,072	-0,034
-641,926	15,929	0,097	0,057
-640,911	68,637	-0,054	0,041
-639,897	149,485	0,028	-0,028
-638,882	-128,290	-0,078	0,008
-637,868	800,000	-0,018	-0,048
-636,853	53,003	-0,252	0,179
-635,838	-177,278	-0,035	0,001
-634,824	-200,000	0,031	-0,169
-633,809	-200,000	0,012	0,218
-632,795	196,653	-0,051	0,058
-631,780	-14,265	0,162	-0,077
-630,765	800,000	-0,026	0,061
-629,751	78,469	-0,089	-0,070
-628,736	14,146	0,072	-0,041
-627,722	-37,258	-0,182	0,072
-626,707	-200,000	0,020	0,073
-625,692	203,162	0,040	0,046
-624,678	800,000	-0,041	-0,108
-623,663	9,469	-0,073	-0,041
-622,649	-200,000	-0,016	-0,088
-621,634	-4,925	-0,130	-0,066
-620,619	198,077	0,069	-0,078
-619,605	-68,826	-0,021	-0,006
-618,590	534,927	0,009	-0,016
-617,576	-200,000	0,005	0,021
-616,561	-62,390	0,089	0,027
-615,546	188,167	0,095	-0,105
-614,532	800,000	-0,084	-0,254
-613,517	514,073	0,079	0,137
-612,503	-44,192	0,041	0,015
-611,488	188,835	0,073	0,081
-610,474	-69,837	0,088	0,025
-609,459	-74,734	-0,062	0,016
-608,444	-32,568	0,108	0,044
-607,430	-200,000	-0,003	-0,076
-606,415	292,285	-0,046	-0,063
-605,401	320,553	0,035	0,049
-604,386	155,495	-0,003	0,003
-603,371	205,656	-0,117	-0,135
-602,357	-200,000	-0,012	-0,104
-601,342	-51,767	0,017	0,006
-600,328	800,000	-0,003	-0,009
-599,313	82,926	-0,084	-0,067
-598,298	58,985	0,032	-0,024
-597,284	29,764	-0,037	-0,023
-596,269	800,000	-0,022	-0,056
-595,255	-50,656	0,116	0,040
-594,240	-45,471	-0,154	-0,056
-593,225	800,000	0,040	0,113
-592,211	398,399	-0,085	-0,132
-591,196	165,768	0,105	0,110
-590,182	-115,699	0,215	0,030
-589,167	622,024	0,027	-0,051
-588,152	800,000	0,023	0,070
-587,138	-85,427	0,122	-0,028
-586,123	-57,218	-0,038	0,012
-585,109	141,583	-0,091	-0,089
-584,094	170,577	-0,079	-0,084
-583,079	505,930	-0,100	0,173
-582,065	126,182	-0,040	0,038
-581,050	-91,094	-0,101	0,021
-580,036	-40,983	-0,108	0,041
-579,021	193,577	-0,062	-0,070
-578,006	800,000	0,023	-0,059
-576,992	623,091	0,070	0,131
-575,977	-118,711	0,120	-0,016
-574,963	160,375	0,064	0,066
-573,948	800,000	-0,063	0,178
-572,934	386,184	0,057	-0,087
-571,919	800,000	-0,050	-0,112
-570,904	749,521	-0,050	-0,101
-569,890	-85,593	-0,026	-0,006
-568,875	-44,882	0,120	0,044
-567,861	-200,000	-0,002	-0,008
-566,846	-29,591	-0,189	0,080
-565,831	-200,000	-0,021	-0,123
-564,817	267,510	-0,107	-0,139
-563,802	-83,200	-0,124	-0,029
-562,788	-66,463	-0,031	0,009
-561,773	-98,757	0,093	-0,017
-560,758	607,902	0,033	-0,062
-559,744	-8,884	0,145	0,072
-558,729	-200,000	0,035	-0,211
-557,715	-126,387	0,116	0,013
-556,700	90,087	-0,063	0,052
-555,685	212,646	0,047	-0,055
-554,671	85,560	0,121	-0,098
-553,656	-114,216	0,081	0,011
-552,642	-200,000	-0,012	-0,042
-551,627	65,736	0,087	-0,065
-550,612	326,200	-0,082	0,117
-549,598	455,652	0,038	-0,063
-548,583	359,690	0,042	0,063
-547,569	212,380	-0,088	0,103
-546,554	-200,000	0,018	-0,095
-545,539	-200,000	-0,010	-0,044
-544,525	13,873	-0,018	0,010
-543,510	-200,000	-0,026	-0,106
-542,496	-18,538	-0,122	-0,056
-541,481	-150,510	0,171	0,010
-540,466	-200,000	0,027	0,103
-539,452	-156,955	-0,186	-0,008
-538,437	51,828	0,078	0,055
-537,423	262,597	-0,027	0,035
-536,408	-35,641	0,031	0,012
-535,393	8,552	-0,144	-0,080
-534,379	-200,000	0,009	-0,058
-533,364	-173,876	0,089	-0,002
-532,350	299,380	0,031	0,042
-531,335	-200,000	0,009	0,063
-530,321	800,000	-0,037	-0,098
-529,306	-200,000	0,015	0,075
-528,291	482,336	-0,114	-0,192
-527,277	-66,451	0,064	0,019
-526,262	800,000	0,065	0,143
-525,248	442,405	-0,020	-0,032
-524,233	-200,000	0,002	-0,033
-523,218	87,244	0,009	0,007
-522,204	-200,000	-0,001	-0,088
-521,189	26,911	0,079	0,049
-520,175	800,000	0,051	-0,157
-519,160	-200,000	0,010	0,036
-518,145	82,290	0,051	-0,041
-517,131	-197,416	0,059	0,000
-516,116	-200,000	-0,007	0,027
-515,102	12,900	-0,033	0,019
-514,087	613,336	0,024	0,044
-513,072	-200,000	0,003	0,165
-512,058	-155,034	-0,127	-0,006
-511,043	159,396	0,057	0,059
-510,029	-200,000	-0,002	0,087
-509,014	202,486	-0,023	0,027
-507,999	-200,000	0,001	0,062
-506,985	-200,000	-0,011	-0,075
-505,970	-129,436	0,033	-0,003
-504,956	-64,729	-0,106	-0,032
-503,941	800,000	-0,047	-0,106
-502,926	-200,000	-0,009	0,045
-501,912	-200,000	0,003	0,091
-500,897	365,134	0,034	-0,051
-499,883	215,176	-0,076	-0,090
-498,868	92,286	0,079	-0,066
-497,853	210,917	0,044	-0,051
-496,839	-115,637	0,139	-0,019
-495,824	578,343	0,017	-0,030
-494,810	800,000	0,051	0,145
-493,795	-200,000	0,011	0,070
-492,781	-109,358	-0,082	0,013
-491,766	-158,315	-0,122	0,005
-490,751	28,276	0,020	-0,012
-489,737	39,486	-0,071	0,047
-488,722	-28,579	0,019	-0,008
-487,708	-200,000	-0,019	0,145
-486,693	800,000	0,021	0,060
-485,678	-187,225	0,080	-0,001
-484,664	-120,538	-0,080	-0,010
-483,649	-78,235	0,021	-0,005
-482,635	224,991	-0,060	0,072
-481,620	-43,811	0,106	0,039
-480,605	-119,442	-0,104	0,013
-479,591	-25,434	0,133	0,058
-478,576	-59,225	0,119	0,038
-477,562	-18,147	0,107	0,049
-476,547	213,129	-0,108	-0,126
-475,532	-57,559	-0,117	0,038
-474,518	92,578	-0,072	-0,060
-473,503	110,141	0,055	-0,049
-472,489	43,043	0,120	0,080
-471,474	-200,000	0,012	-0,107
-470,459	493,660	-0,015	-0,025
-469,445	-89,386	-0,130	-0,028
-468,430	-29,990	-0,033	-0,014
-467,416	-200,000	0,004	0,065
-466,401	-75,332	0,082	0,021
-465,386	-78,319	0,096	-0,024
-464,372	-37,367	0,074	-0,029
-463,357	754,459	-0,010	-0,020
-462,343	-132,504	0,102	-0,010
-461,328	-200,000	0,011	-0,060
-460,313	-81,752	-0,048	0,012
-459,299	-200,000	0,000	0,100
-458,284	-29,473	0,041	0,017
-457,270	800,000	0,020	0,043
-456,255	332,290	-0,050	0,072
-455,241	800,000	-0,036	0,116
-454,226	-200,000	-0,012	-0,043
-453,211	65,815	0,147	0,110
-452,197	359,498	-0,111	0,164
-451,182	118,597	0,088	-0,080
-450,168	-124,989	-0,095	-0,011
-449,153	-84,196	-0,110	0,026
-448,138	259,941	0,020	0,026
-447,124	-179,423	0,101	0,002
-446,109	-2,870	-0,038	-0,019
-445,095	-173,042	0,291	0,006
-444,080	-200,000	0,006	0,095
-443,065	14,536	0,115	-0,066
-442,051	234,397	0,043	-0,052
-441,036	800,000	0,038	0,079
-440,022	440,010	-0,073	-0,117
-439,007	104,949	0,032	0,028
-437,992	-39,008	0,060	-0,023
-436,978	-200,000	0,010	-0,056
-435,963	11,441	-0,096	-0,054
-434,949	89,141	-0,066	0,054
-433,934	71,006	0,048	0,037
-432,919	23,949	-0,035	-0,021
-431,905	16,894	-0,017	0,010
-430,890	114,299	-0,065	0,059
-429,876	532,754	-0,052	-0,090
-428,861	241,857	-0,085	-0,105
-427,846	134,976	-0,018	-0,018
-426,832	-139,716	-0,151	-0,012
-425,817	535,045	-0,024	-0,042
-424,803	393,661	0,064	-0,098
-423,788	-84,556	-0,204	-0,047
-422,773	47,952	0,138	0,094
-421,759	-40,830	-0,112	-0,042
-420,744	167,250	0,059	0,061
-419,730	258,871	0,047	-0,060
-418,715	-58,385	0,101	-0,032
-417,701	800,000	-0,029	0,082
-416,686	-200,000	0,000	0,012
-415,671	792,437	0,026	0,052
-414,657	-55,884	0,102	-0,033
-413,642	-96,052	0,105	-0,020
-412,628	259,480	0,015	-0,019
-411,613	-54,069	-0,097	-0,032
-410,598	-200,000	-0,009	-0,061
-409,584	-113,766	0,057	0,008
-408,569	-59,875	0,186	0,058
-407,555	-73,898	-0,138	-0,037
-406,540	122,183	0,056	0,051
-405,525	41,917	-0,106	-0,071
-404,511	417,011	-0,105	-0,165
-403,496	-200,000	-0,065	-0,260
-402,482	-65,625	-0,099	0,029
-401,467	10,638	0,073	-0,041
-400,452	243,671	0,089	0,110
-399,438	-47,925	0,033	0,012
-398,423	349,564	0,075	-0,109
-397,409	-200,000	-0,006	0,106
-396,394	-6,372	-0,093	-0,047
-395,379	154,538	0,194	-0,196
-394,365	-78,933	0,084	-0,021
-393,350	303,349	0,030	-0,041
-392,336	-200,000	0,010	-0,035
-391,321	160,945	-0,036	0,038
-390,306	-200,000	0,006	-0,038
-389,292	-200,000	0,003	0,071
-388,277	-76,924	-0,066	-0,017
-387,263	63,818	0,182	0,134
-386,248	90,447	0,095	0,078
-385,233	262,418	-0,029	0,037
-384,219	35,940	-0,069	0,045
-383,204	672,922	-0,082	-0,157
-382,190	-16,387	-0,068	0,032
-381,175	-92,834	-0,046	-0,009
-380,160	318,298	0,074	-0,103
-379,146	494,997	-0,064	0,109
-378,131	217,499	0,028	-0,033
-377,117	27,751	-0,057	-0,035
-376,102	389,017	-0,008	-0,012
-375,088	61,187	-0,095	-0,069
-374,073	-200,000	-0,005	-0,035
-373,058	800,000	-0,026	0,073
-372,044	-101,085	0,010	0,002
-371,029	-124,990	0,019	0,002
-370,015	167,616	0,028	-0,029
-369,000	-49,917	-0,077	-0,027
-367,985	-200,000	0,006	0,033
-366,971	-200,000	-0,033	-0,128
-365,956	346,492	-0,063	0,091
-364,942	-154,459	-0,162	0,008
-363,927	800,000	-0,085	0,184
-362,912	-87,232	-0,061	-0,013
-361,898	-49,256	-0,046	0,016
-360,883	-111,801	-0,101	0,015
-359,869	800,000	-0,036	-0,094
-358,854	251,648	0,062	0,077
-357,839	279,053	0,024	-0,032
-356,825	-23,817	0,139	0,061
-355,810	-200,000	0,016	-0,066
-354,796	-200,000	0,016	-0,109
-353,781	-22,762	-0,055	-0,024
-352,766	-130,301	0,067	0,007
-351,752	366,360	0,053	-0,078
-350,737	-200,000	-0,003	-0,011
-349,723	139,458	-0,123	0,119
-348,708	800,000	0,023	0,059
-347,693	-86,014	-0,072	-0,016
-346,679	-108,070	0,083	-0,013
-345,664	-200,000	-0,046	-0,201
-344,650	-63,692	0,139	-0,042
-343,635	-123,154	-0,083	-0,010
-342,620	487,431	0,068	0,115
-341,606	-200,000	0,001	0,067
-340,591	-9,366	-0,144	0,071
-339,577	52,318	0,045	-0,031
-338,562	21,511	-0,136	0,081
-337,548	89,467	-0,033	-0,027
-336,533	-75,102	0,117	0,030
-335,518	-29,204	-0,042	-0,018
-334,504	-104,878	0,035	-0,006
-333,489	-38,473	-0,099	0,038
-332,475	492,324	-0,055	-0,093
-331,460	65,238	-0,037	0,027
-330,445	38,751	0,082	-0,054
-329,431	71,207	0,080	-0,061
-328,416	-200,000	-0,007	-0,073
-327,402	207,781	-0,032	0,036
-326,387	52,827	0,073	0,051
-325,372	91,482	-0,115	-0,095
-324,358	547,294	-0,062	-0,110
-323,343	225,283	-0,111	-0,133
-322,329	335,075	0,043	-0,061
-321,314	-33,063	0,057	0,023
-320,299	-200,000	0,000	-0,056
-319,285	-49,158	-0,115	0,040
-318,270	-37,913	0,102	-0,040
-317,256	-10,563	-0,150	-0,072
-316,241	-200,000	0,022	-0,123
-315,226	23,850	-0,020	-0,012
-314,212	2,744	-0,063	0,033
-313,197	800,000	0,046	-0,144
-312,183	22,849	0,043	0,026
-311,168	-18,505	-0,218	-0,099
-310,153	465,414	-0,025	-0,041
-309,139	554,064	0,060	0,107
-308,124	-200,000	-0,010	0,071
-307,110	-200,000	-0,004	0,042
-306,095	356,128	-0,064	-0,094
-305,080	132,250	-0,032	-0,030
-304,066	53,852	-0,073	-0,051
-303,051	-47,868	-0,095	0,034
-302,037	423,380	-0,040	-0,063
-301,022	452,220	-0,027	-0,044
-300,008	-142,534	0,092	-0,007
-298,993	159,358	0,023	0,023
-297,978	271,398	0,035	0,046
-296,964	220,569	-0,027	0,032
-295,949	-200,000	-0,004	-0,184
-294,935	-119,968	-0,077	-0,010
-293,920	198,791	0,042	0,048
-292,905	568,301	0,020	0,037
-291,891	-200,000	0,004	0,181
-290,876	428,381	-0,031	-0,049
-289,862	-200,000	-0,035	0,129
-288,847	-4,973	-0,081	0,041
-287,832	-123,260	0,015	-0,002
-286,818	800,000	-0,039	0,086
-285,803	40,897	0,125	0,082
-284,789	746,099	-0,022	-0,043
-283,774	154,694	0,039	-0,039
-282,759	212,816	0,081	-0,093
-281,745	-10,162	-0,045	0,022
-280,730	-67,137	0,075	-0,021
-279,716	-200,000	-0,003	0,078
-278,701	-45,420	0,091	0,033
-277,686	70,867	-0,059	-0,045
-276,672	21,892	0,068	-0,040
-275,657	-41,878	-0,109	0,041
-274,643	-3,879	-0,113	0,057
-273,628	-200,000	0,007	-0,067
-272,613	-137,988	-0,028	0,002
-271,599	445,995	-0,027	0,044
-270,584	800,000	-0,034	0,093
-269,570	-112,768	-0,151	-0,022
-268,555	-200,000	0,005	-0,038
-267,540	-200,000	0,010	0,065
-266,526	-112,958	0,041	0,006
-265,511	76,665	-0,040	0,031
-264,497	-42,347	-0,020	0,007
-263,482	-200,000	-0,001	0,160
-262,467	185,630	0,081	0,088
-261,453	50,997	0,050	0,035
-260,438	335,825	-0,003	0,004
-259,424	-42,843	-0,094	-0,035
-258,409	414,790	0,072	-0,113
-257,395	-137,943	0,119	-0,010
-256,380	120,864	0,062	0,056
-255,365	-14,998	0,133	0,062
-254,351	469,364	-0,024	-0,039
-253,336	433,811	-0,044	0,070
-252,322	92,984	0,113	-0,094
-251,307	-200,000	-0,058	-0,190
-250,292	-132,834	-0,028	0,003
-249,278	-59,811	0,103	0,032
-248,263	-96,522	0,041	0,008
-247,249	-200,000	-0,002	-0,008
-246,234	130,864	-0,066	0,062
-245,219	-11,420	-0,050	0,024
-244,205	-51,544	0,094	0,032
-243,190	158,721	0,043	-0,044
-242,176	-51,649	-0,044	0,015
-241,161	668,871	0,058	-0,110
-240,146	-73,410	-0,066	-0,018
-239,132	-200,000	0,004	-0,032
-238,117	226,716	-0,064	-0,077
-237,103	-200,000	0,029	-0,121
-236,088	-200,000	-0,015	-0,087
-235,073	9,129	0,149	0,082
-234,059	73,592	0,041	0,031
-233,044	-126,355	0,125	0,013
-232,030	-200,000	0,005	-0,049
-231,015	-47,270	0,107	-0,038
-230,000	426,461	-0,011	-0,017
-228,986	114,285	-0,133	0,119
-227,971	800,000	0,029	0,065
-226,957	-200,000	0,016	0,161
-225,942	-200,000	-0,009	0,061
-224,927	24,878	-0,031	-0,019
-223,913	76,314	-0,068	0,053
-222,898	-3,001	0,039	-0,020
-221,884	-36,245	0,012	0,005
-220,869	-86,651	-0,069	0,015
-219,855	-22,071	0,010	-0,005
-218,840	-8,111	0,040	-0,019
-217,825	474,136	0,067	-0,111
-216,811	-199,662	-0,196	-0,001
-215,796	673,501	-0,037	0,070
-214,782	-200,000	0,002	0,104
-213,767	-200,000	-0,006	-0,165
-212,752	190,352	0,104	0,114
-211,738	51,598	0,065	0,045
-210,723	-200,000	0,000	0,019
-209,709	653,865	0,046	0,086
-208,694	-5,828	0,067	0,034
-207,679	-68,700	0,046	0,013
-206,665	-110,823	0,092	-0,014
-205,650	-71,935	0,096	-0,026
-204,636	795,763	0,048	0,097
-203,621	-196,119	0,039	0,000
-202,606	217,532	-0,028	-0,032
-201,592	-88,977	-0,168	0,036
-200,577	390,040	0,052	-0,080
-199,563	-200,000	-0,004	0,177
-198,548	66,519	0,110	0,082
-197,533	-90,237	0,113	0,024
-196,519	-200,000	0,002	0,048
-195,504	276,875	0,029	0,038
-194,490	-73,704	-0,109	-0,029
-193,475	800,000	-0,017	-0,041
-192,460	800,000	-0,051	0,105
-191,446	-130,825	-0,049	0,005
-190,431	-60,312	-0,031	-0,010
-189,417	186,348	0,041	0,045
-188,402	-90,285	-0,062	0,013
-187,387	800,000	-0,015	0,038
-186,373	6,946	-0,220	0,119
-185,358	-164,482	0,160	-0,005
-184,344	116,963	-0,063	0,056
-183,329	298,251	0,069	-0,093
-182,315	178,904	-0,060	0,064
-181,300	-113,915	-0,050	0,007
-180,285	97,675	0,068	0,057
-179,271	357,445	-0,049	-0,071
-178,256	-200,000	-0,024	-0,156
-177,242	64,266	-0,017	-0,013
-176,227	1,615	0,149	0,078
-175,212	325,931	-0,086	0,121
-174,198	14,624	-0,106	0,060
-173,183	-84,763	-0,129	-0,029
-172,169	-200,000	0,004	-0,090
-171,154	319,713	0,043	-0,060
-170,139	800,000	0,020	0,051
-169,125	-126,414	0,125	0,013
-168,110	376,458	0,085	0,127
-167,096	-200,000	0,005	-0,029
-166,081	800,000	-0,036	0,084
-165,066	-42,634	-0,039	0,014
-164,052	-66,829	0,166	-0,047
-163,037	284,441	-0,032	0,042
-162,023	-83,073	0,199	0,046
-161,008	144,511	-0,005	-0,005
-159,993	277,191	0,061	0,079
-158,979	36,546	-0,082	-0,053
-157,964	-144,097	-0,071	0,005
-156,950	-76,963	-0,131	0,033
-155,935	-200,000	0,010	0,097
-154,920	-28,214	0,085	0,036
-153,906	220,825	-0,014	0,016
-152,891	800,000	0,072	0,174
-151,877	-111,179	-0,003	-0,000
-150,862	-97,741	-0,093	-0,017
-149,847	-200,000	-0,003	-0,142
-148,833	-58,715	-0,080	-0,025
-147,818	394,660	0,035	-0,053
-146,804	800,000	-0,004	0,010
-145,789	800,000	-0,025	0,056
-144,775	-13,493	-0,047	-0,022
-143,760	143,454	0,017	-0,016
-142,745	484,162	0,024	-0,041
-141,731	79,828	0,163	-0,127
-140,716	604,316	0,022	-0,040
-139,702	-200,000	0,022	-0,118
-138,687	-200,000	0,019	0,000
-137,672	672,244	-0,039	0,074
-136,658	475,142	-0,064	0,106
-135,643	249,912	0,027	-0,034
-134,629	435,641	-0,030	0,048
-133,614	-79,189	0,274	0,067
-132,599	29,462	-0,072	-0,045
-131,585	26,580	0,102	0,062
-130,570	800,000	-0,019	-0,058
-129,556	800,000	-0,030	-0,092
-128,541	49,062	-0,051	-0,035
-127,526	-68,453	-0,050	-0,014
-126,512	-200,000	-0,002	0,077
-125,497	719,246	0,045	0,088
-124,483	405,740	-0,078	0,120
-123,468	138,819	-0,120	0,115
-122,453	-200,000	0,005	-0,028
-121,439	-200,000	0,009	0,077
-120,424	-180,182	-0,027	0,000
-119,410	-200,000	-0,008	-0,034
-118,395	-200,000	-0,014	0,074
