DTS Sentinel unit serial number:	SN410029Multiplexer serial number:	ORYXHardware model number:	OX2-SRSoftware version number:	ORYX F/W v4,00 Oryx Data Collector v3.7.2.0data status	okinstallation	B6 Nyhavnadifferential loss correction	single-endedforward channel	channel 2reverse channel	N/Adate	2023/12/09time	04:30:08forward acquisition time	300,00reverse acquisition time	0,00gamma	499,1914k internal	0,3147k external	0,3147temperature offset calibration	1,0000default loss term (dB/km)	0,3820temperature slope calibration	1,0000multiplexer offset coefficient	1,0000multiplexer slope coefficient	1,0000fibre end	0,00T internal ref (°C)	17,08T ext. ref 1 (°C)	1,64T ext. ref 2 (°C)	1,67length (m)	temperature (°C)	Stokes	anti-Stokes-744,400	800,000	0,018	0,037
-743,385	-142,046	-0,395	-0,029
-742,371	800,000	-0,014	0,036
-741,356	14,867	-0,320	-0,185
-740,342	40,616	0,156	0,104
-739,327	-163,271	-0,343	0,012
-738,312	800,000	0,046	-0,129
-737,298	-36,170	-0,193	0,077
-736,283	-126,651	0,089	-0,010
-735,269	89,971	-0,204	0,169
-734,254	-22,632	-0,021	-0,009
-733,239	-36,778	-0,380	-0,150
-732,225	-159,870	0,226	0,009
-731,210	155,794	-0,074	-0,076
-730,196	800,000	-0,024	0,067
-729,181	121,685	-0,081	-0,075
-728,167	147,933	-0,043	-0,042
-727,152	-62,294	-0,121	0,037
-726,137	-147,088	-0,196	0,012
-725,123	-200,000	-0,004	0,047
-724,108	220,752	-0,039	-0,046
-723,094	800,000	-0,078	-0,184
-722,079	-76,270	-0,136	0,035
-721,064	13,320	-0,037	0,021
-720,050	145,534	-0,143	0,141
-719,035	109,399	-0,106	0,094
-718,021	27,089	0,042	-0,026
-717,006	-117,298	0,040	0,005
-715,991	-154,609	-0,114	0,006
-714,977	164,988	0,038	-0,040
-713,962	48,581	0,044	-0,030
-712,948	800,000	-0,035	0,103
-711,933	-118,844	0,061	0,008
-710,918	-200,000	0,012	-0,089
-709,904	800,000	-0,056	-0,125
-708,889	-88,971	0,150	-0,032
-707,875	518,174	0,019	-0,033
-706,860	800,000	-0,047	-0,151
-705,845	-86,252	0,084	-0,019
-704,831	435,411	0,044	0,071
-703,816	-69,714	0,052	0,015
-702,802	-76,623	-0,064	-0,016
-701,787	800,000	0,015	-0,047
-700,772	-129,925	-0,039	-0,004
-699,758	63,140	0,123	-0,091
-698,743	-200,000	0,011	-0,102
-697,729	-93,380	0,184	0,037
-696,714	-14,374	-0,023	-0,011
-695,699	-200,000	0,013	-0,085
-694,685	758,678	0,039	-0,079
-693,670	-200,000	-0,021	-0,098
-692,656	-200,000	-0,005	-0,019
-691,641	-200,000	0,050	0,235
-690,627	-106,887	0,097	0,016
-689,612	18,182	-0,071	0,042
-688,597	346,213	-0,070	-0,101
-687,583	800,000	-0,057	-0,125
-686,568	-134,777	-0,070	0,006
-685,554	-165,622	-0,034	-0,001
-684,539	523,238	0,063	0,109
-683,524	-76,274	-0,058	-0,015
-682,510	-200,000	-0,017	0,062
-681,495	-98,541	-0,091	0,017
-680,481	643,863	-0,042	-0,079
-679,466	-200,000	0,019	-0,072
-678,451	59,594	-0,092	-0,067
-677,437	-70,363	-0,057	-0,016
-676,422	-200,000	0,003	0,068
-675,408	-200,000	0,005	0,170
-674,393	16,287	-0,082	-0,047
-673,378	-124,370	-0,107	0,012
-672,364	-76,168	0,042	-0,011
-671,349	-29,597	0,127	0,053
-670,335	58,074	0,170	0,122
-669,320	104,449	0,107	0,093
-668,305	-140,027	-0,074	-0,006
-667,291	-28,710	0,097	0,041
-666,276	590,421	0,032	0,059
-665,262	800,000	-0,060	-0,167
-664,247	-163,317	-0,023	-0,001
-663,232	370,290	0,042	-0,063
-662,218	262,179	0,034	-0,044
-661,203	-116,383	-0,030	0,004
-660,189	-120,613	-0,057	0,007
-659,174	-133,735	-0,169	-0,015
-658,159	263,405	-0,083	-0,106
-657,145	-22,135	0,039	-0,017
-656,130	145,362	0,099	-0,098
-655,116	787,771	0,018	-0,036
-654,101	430,961	0,016	-0,026
-653,086	-73,359	-0,042	-0,011
-652,072	800,000	0,026	-0,070
-651,057	426,896	0,038	0,060
-650,043	-8,775	-0,253	-0,124
-649,028	192,679	-0,097	-0,108
-648,014	-90,799	-0,052	-0,011
-646,999	220,377	0,003	-0,003
-645,984	800,000	-0,026	0,059
-644,970	-200,000	0,014	0,124
-643,955	98,127	-0,206	-0,175
-642,941	-93,670	-0,098	0,020
-641,926	800,000	-0,044	-0,098
-640,911	80,326	-0,114	-0,091
-639,897	143,768	0,076	0,075
-638,882	471,240	0,016	0,027
-637,868	6,407	-0,073	0,040
-636,853	64,117	0,011	0,008
-635,838	399,780	0,074	-0,114
-634,824	523,803	0,047	-0,081
-633,809	-200,000	0,012	0,114
-632,795	-200,000	0,008	0,036
-631,780	-200,000	0,000	0,102
-630,765	-50,135	-0,093	-0,032
-629,751	148,675	0,090	-0,089
-628,736	-200,000	-0,051	-0,193
-627,722	-200,000	-0,037	-0,173
-626,707	274,594	0,051	-0,066
-625,692	-83,355	0,146	-0,034
-624,678	-49,275	-0,123	0,043
-623,663	274,257	0,089	-0,116
-622,649	-200,000	-0,029	-0,125
-621,634	-200,000	-0,010	0,035
-620,619	129,514	0,048	0,045
-619,605	800,000	0,041	-0,090
-618,590	-46,743	0,028	-0,010
-617,576	-200,000	0,022	0,101
-616,561	495,093	-0,032	0,053
-615,546	58,792	0,030	0,022
-614,532	-57,316	-0,118	-0,038
-613,517	399,775	0,066	-0,102
-612,503	242,482	0,056	-0,069
-611,488	-200,000	0,031	0,128
-610,474	-200,000	-0,024	0,223
-609,459	800,000	0,034	-0,083
-608,444	146,356	-0,112	-0,111
-607,430	173,936	-0,094	0,100
-606,415	-118,690	0,042	0,005
-605,401	-5,407	0,110	0,055
-604,386	478,544	-0,056	-0,094
-603,371	-170,392	0,045	-0,001
-602,357	800,000	-0,063	0,141
-601,342	-82,844	-0,116	-0,027
-600,328	505,666	-0,022	-0,038
-599,313	800,000	-0,047	-0,103
-598,298	-200,000	-0,036	0,117
-597,284	-23,743	0,099	0,043
-596,269	414,440	-0,036	0,057
-595,255	795,433	-0,032	0,065
-594,240	800,000	0,029	0,070
-593,225	-14,152	0,020	-0,009
-592,211	72,245	-0,094	-0,072
-591,196	-70,226	0,099	-0,028
-590,182	-38,421	0,019	-0,007
-589,167	-200,000	-0,015	-0,137
-588,152	-25,337	0,030	0,013
-587,138	-200,000	-0,008	0,108
-586,123	800,000	0,034	0,109
-585,109	523,484	-0,056	-0,098
-584,094	428,858	0,082	-0,130
-583,079	-31,894	0,058	0,024
-582,065	98,954	0,037	-0,031
-581,050	-200,000	0,008	0,179
-580,036	245,555	-0,064	-0,080
-579,021	197,404	-0,027	-0,030
-578,006	-200,000	0,047	-0,234
-576,992	39,797	-0,024	-0,016
-575,977	-31,524	0,062	-0,025
-574,963	514,355	-0,032	0,055
-573,948	-200,000	-0,012	0,138
-572,934	-140,893	0,014	0,001
-571,919	99,720	-0,079	-0,068
-570,904	-200,000	-0,017	-0,123
-569,890	800,000	0,020	-0,042
-568,875	139,720	0,012	0,011
-567,861	246,179	-0,042	-0,052
-566,846	-100,893	0,174	-0,031
-565,831	800,000	-0,061	-0,169
-564,817	-81,929	0,017	-0,004
-563,802	108,137	-0,120	0,106
-562,788	800,000	0,035	-0,072
-561,773	800,000	-0,006	-0,015
-560,758	-200,000	0,004	0,047
-559,744	-13,920	0,067	0,032
-558,729	91,812	0,042	0,035
-557,715	-200,000	-0,006	-0,084
-556,700	39,987	0,108	-0,071
-555,685	-95,060	-0,161	-0,032
-554,671	800,000	-0,031	0,075
-553,656	300,289	-0,027	-0,037
-552,642	-200,000	0,013	-0,129
-551,627	-200,000	-0,001	-0,060
-550,612	-200,000	-0,015	0,099
-549,598	88,641	-0,063	0,051
-548,583	351,826	-0,154	-0,225
-547,569	249,077	-0,110	-0,137
-546,554	-141,413	0,123	-0,009
-545,539	59,436	0,016	0,011
-544,525	800,000	0,030	-0,089
-543,510	-200,000	-0,011	0,094
-542,496	-137,914	-0,138	0,011
-541,481	-200,000	-0,019	-0,119
-540,466	254,455	0,146	0,183
-539,452	800,000	0,076	0,161
-538,437	800,000	0,007	0,018
-537,423	800,000	0,038	0,095
-536,408	-200,000	0,015	0,080
-535,393	-200,000	0,006	-0,079
-534,379	800,000	0,048	0,097
-533,364	-200,000	-0,028	0,139
-532,350	456,322	0,024	-0,039
-531,335	269,437	0,116	0,150
-530,321	-200,000	0,003	0,096
-529,306	-31,433	-0,102	-0,042
-528,291	-200,000	0,003	0,127
-527,277	800,000	-0,020	0,060
-526,262	-200,000	0,020	-0,105
-525,248	-141,542	0,012	-0,001
-524,233	800,000	0,061	0,126
-523,218	-141,349	0,069	0,005
-522,204	-136,025	-0,201	-0,017
-521,189	109,826	0,040	0,035
-520,175	800,000	-0,036	-0,087
-519,160	-54,453	-0,062	0,021
-518,145	253,217	0,013	-0,016
-517,131	800,000	0,037	0,091
-516,116	94,590	0,090	0,075
-515,102	162,485	-0,030	-0,031
-514,087	-200,000	-0,005	-0,035
-513,072	-144,428	-0,186	0,012
-512,058	-77,954	-0,128	0,032
-511,043	77,313	-0,075	0,058
-510,029	-110,758	0,069	-0,010
-509,014	112,535	-0,084	-0,075
-507,999	800,000	0,010	0,029
-506,985	64,244	-0,017	-0,012
-505,970	365,120	-0,082	-0,122
-504,956	800,000	0,024	-0,076
-503,941	45,466	-0,085	0,058
-502,926	24,797	-0,069	0,042
-501,912	291,313	-0,082	-0,110
-500,897	800,000	-0,057	-0,150
-499,883	-11,888	0,043	0,021
-498,868	104,609	-0,043	-0,037
-497,853	-50,361	-0,148	0,051
-496,839	-200,000	0,002	-0,009
-495,824	414,797	-0,035	0,055
-494,810	-8,628	0,133	-0,065
-493,795	-93,404	-0,042	-0,008
-492,781	28,940	-0,142	0,088
-491,766	606,988	0,019	-0,035
-490,751	107,216	0,029	-0,026
-489,737	-57,899	-0,117	0,037
-488,722	-7,468	0,088	0,044
-487,708	71,907	0,057	0,043
-486,693	-200,000	-0,008	0,059
-485,678	-200,000	-0,003	-0,060
-484,664	556,964	0,012	-0,021
-483,649	500,520	-0,032	-0,055
-482,635	-57,283	0,078	0,025
-481,620	-131,272	0,102	-0,010
-480,605	500,573	0,014	0,024
-479,591	800,000	-0,019	-0,049
-478,576	127,671	-0,026	-0,024
-477,562	259,521	-0,068	0,087
-476,547	-7,417	0,067	-0,033
-475,532	69,348	-0,075	-0,056
-474,518	415,731	0,080	0,125
-473,503	224,496	-0,061	-0,072
-472,489	193,916	0,081	-0,090
-471,474	-148,274	-0,025	-0,001
-470,459	800,000	0,048	-0,117
-469,445	-200,000	-0,010	-0,134
-468,430	293,189	0,063	-0,084
-467,416	26,825	-0,105	0,064
-466,401	66,772	0,111	0,083
-465,386	-73,030	0,097	-0,026
-464,372	181,434	-0,090	0,097
-463,357	627,462	-0,058	-0,108
-462,343	-184,344	0,118	-0,001
-461,328	-200,000	0,038	-0,126
-460,313	49,762	-0,023	0,016
-459,299	-133,240	-0,081	0,007
-458,284	270,985	-0,008	-0,011
-457,270	-32,332	-0,028	-0,011
-456,255	800,000	0,022	0,049
-455,241	202,216	-0,123	0,138
-454,226	18,022	-0,017	0,010
-453,211	-110,395	-0,090	0,014
-452,197	-65,515	0,087	0,025
-451,182	-12,164	-0,014	-0,007
-450,168	800,000	0,025	0,052
-449,153	417,748	-0,068	-0,106
-448,138	482,992	-0,072	-0,120
-447,124	137,139	-0,071	-0,067
-446,109	-200,000	0,009	0,047
-445,095	45,971	-0,092	0,062
-444,080	-84,676	-0,053	0,012
-443,065	-200,000	-0,022	-0,106
-442,051	304,584	-0,051	-0,069
-441,036	50,200	-0,061	-0,042
-440,022	70,468	-0,102	-0,077
-439,007	-200,000	-0,011	-0,140
-437,992	-94,251	-0,057	0,011
-436,978	-200,000	-0,009	0,059
-435,963	-200,000	-0,018	0,069
-434,949	800,000	0,023	0,058
-433,934	-61,270	-0,059	0,018
-432,919	-87,604	-0,105	-0,023
-431,905	-200,000	0,007	0,033
-430,890	-141,387	0,085	0,006
-429,876	-27,183	0,094	0,040
-428,861	118,599	0,082	0,074
-427,846	-200,000	-0,042	0,156
-426,832	-14,834	-0,070	0,033
-425,817	-113,849	0,019	0,003
-424,803	22,908	-0,081	0,048
-423,788	81,309	0,080	-0,063
-422,773	800,000	-0,033	-0,099
-421,759	800,000	0,019	0,062
-420,744	-165,094	-0,063	0,002
-419,730	-169,049	0,142	0,004
-418,715	401,120	-0,045	-0,070
-417,701	-200,000	0,018	-0,077
-416,686	800,000	0,076	0,186
-415,671	-117,176	0,113	0,015
-414,657	5,821	-0,120	0,065
-413,642	-200,000	-0,021	-0,086
-412,628	-200,000	0,012	-0,133
-411,613	-200,000	-0,043	-0,221
-410,598	800,000	0,041	0,118
-409,584	606,653	0,030	-0,056
-408,569	57,867	0,045	0,032
-407,555	192,288	0,088	0,097
-406,540	-57,868	0,041	-0,013
-405,525	122,627	0,069	-0,063
-404,511	-129,851	0,166	-0,016
-403,496	11,214	0,110	-0,061
-402,482	291,263	0,078	0,104
-401,467	-133,440	0,048	-0,004
-400,452	-120,155	0,113	0,014
-399,438	-43,537	0,092	0,034
-398,423	-200,000	-0,039	-0,183
-397,409	8,122	-0,141	-0,077
-396,394	-200,000	0,004	-0,035
-395,379	800,000	0,004	0,011
-394,365	257,294	-0,048	-0,061
-393,350	800,000	0,029	-0,062
-392,336	205,989	0,069	0,079
-391,321	772,557	0,017	0,034
-390,306	-94,562	-0,215	-0,042
-389,292	94,888	-0,065	0,054
-388,277	133,106	0,078	0,074
-387,263	800,000	0,056	0,158
-386,248	-12,543	0,118	0,056
-385,233	30,352	0,123	0,077
-384,219	-98,870	-0,071	-0,013
-383,204	27,685	-0,089	-0,055
-382,190	-200,000	-0,012	-0,088
-381,175	303,527	-0,070	-0,095
-380,160	-200,000	-0,017	0,140
-379,146	115,340	0,044	0,039
-378,131	366,240	0,116	0,171
-377,117	201,949	-0,097	0,110
-376,102	246,004	0,032	-0,040
-375,088	-176,660	0,106	-0,002
-374,073	-200,000	-0,003	0,093
-373,058	39,696	-0,055	-0,036
-372,044	-76,411	0,143	0,036
-371,029	800,000	0,020	0,058
-370,015	244,890	-0,113	-0,139
-369,000	178,491	0,169	-0,180
-367,985	-200,000	-0,036	-0,155
-366,971	142,648	-0,064	0,062
-365,956	-200,000	0,016	0,239
-364,942	213,656	0,069	0,080
-363,927	-200,000	0,023	0,077
-362,912	-200,000	0,005	0,057
-361,898	17,454	-0,116	-0,067
-360,883	154,666	0,059	0,059
-359,869	-200,000	0,003	-0,114
-358,854	-200,000	-0,005	0,028
-357,839	57,531	0,067	0,048
-356,825	-102,034	-0,111	-0,019
-355,810	-109,718	0,091	-0,014
-354,796	-139,050	-0,224	0,017
-353,781	-200,000	-0,026	0,089
-352,766	-122,786	0,144	-0,017
-351,752	-131,844	0,067	-0,006
-350,737	109,056	-0,104	-0,091
-349,723	221,126	-0,053	0,062
-348,708	-91,286	0,077	0,016
-347,693	-13,801	0,079	-0,037
-346,679	288,804	-0,071	-0,094
-345,664	-200,000	0,000	0,015
-344,650	-200,000	0,046	0,164
-343,635	-31,019	0,188	0,077
-342,620	-200,000	0,028	0,124
-341,606	568,914	-0,050	0,088
-340,591	42,811	-0,034	-0,022
-339,577	-92,586	-0,207	-0,042
-338,562	-114,748	0,030	-0,004
-337,548	177,143	0,040	-0,042
-336,533	191,621	-0,044	-0,048
-335,518	800,000	0,046	0,099
-334,504	15,515	0,026	-0,015
-333,489	43,517	0,055	0,036
-332,475	-134,967	0,066	0,006
-331,460	-200,000	0,011	-0,073
-330,445	757,036	-0,044	0,088
-329,431	19,038	0,025	-0,015
-328,416	-200,000	0,054	0,253
-327,402	800,000	0,064	0,160
-326,387	-34,927	0,107	0,042
-325,372	800,000	-0,028	-0,075
-324,358	800,000	-0,028	-0,073
-323,343	-200,000	-0,050	-0,180
-322,329	118,037	0,085	-0,076
-321,314	557,645	0,061	0,107
-320,299	224,258	-0,052	-0,061
-319,285	-200,000	-0,000	-0,093
-318,270	161,205	-0,099	0,101
-317,256	-200,000	0,009	-0,115
-316,241	-200,000	-0,023	-0,098
-315,226	122,129	0,031	0,028
-314,212	429,437	0,081	-0,127
-313,197	-117,809	0,157	0,020
-312,183	-24,884	-0,047	-0,020
-311,168	503,207	-0,049	-0,083
-310,153	151,610	0,026	0,025
-309,139	-92,616	-0,092	-0,019
-308,124	800,000	-0,021	-0,045
-307,110	-160,887	0,016	0,001
-306,095	-200,000	-0,007	0,022
-305,080	-103,901	-0,096	-0,016
-304,066	156,701	-0,085	-0,085
-303,051	110,330	-0,052	-0,046
-302,037	-16,314	-0,106	-0,049
-301,022	238,780	0,007	0,009
-300,008	240,849	0,022	0,027
-298,993	-28,619	-0,030	0,013
-297,978	-34,168	0,166	0,066
-296,964	-141,063	-0,183	-0,013
-295,949	746,943	-0,025	0,048
-294,935	-200,000	0,004	0,059
-293,920	800,000	-0,035	-0,077
-292,905	-7,331	-0,070	-0,034
-291,891	63,096	0,158	0,115
-290,876	121,939	0,081	0,073
-289,862	-200,000	0,008	-0,071
-288,847	121,475	0,055	-0,050
-287,832	184,110	0,025	-0,027
-286,818	-200,000	0,022	0,090
-285,803	395,528	-0,039	0,059
-284,789	181,311	-0,075	-0,080
-283,774	86,378	0,103	0,082
-282,759	20,656	-0,046	0,027
-281,745	79,612	0,167	-0,130
-280,730	-200,000	-0,000	-0,223
-279,716	215,026	0,056	0,064
-278,701	-74,272	0,124	-0,032
-277,686	33,799	0,103	0,065
-276,672	52,853	0,047	-0,033
-275,657	-200,000	-0,024	-0,144
-274,643	800,000	-0,042	-0,091
-273,628	252,961	0,089	-0,110
-272,613	-22,600	-0,073	-0,032
-271,599	800,000	-0,057	0,137
-270,584	102,373	0,087	-0,074
-269,570	476,078	-0,026	-0,043
-268,555	-59,283	0,107	-0,033
-267,540	-200,000	0,008	-0,047
-266,526	-41,010	-0,029	0,011
-265,511	-200,000	-0,013	-0,085
-264,497	-94,776	0,106	-0,021
-263,482	-200,000	-0,009	0,102
-262,467	355,198	-0,041	0,059
-261,453	90,236	-0,051	-0,041
-260,438	202,695	-0,029	-0,033
-259,424	800,000	0,022	-0,049
-258,409	379,106	-0,059	-0,088
-257,395	-200,000	-0,003	-0,120
-256,380	49,619	0,026	-0,018
-255,365	-33,451	0,130	-0,052
-254,351	-12,755	0,138	0,065
-253,336	800,000	0,039	0,094
-252,322	-56,423	-0,130	-0,042
-251,307	52,003	0,023	-0,016
-250,292	0,624	-0,097	0,050
-249,278	-35,919	-0,092	0,036
-248,263	-80,213	-0,122	0,029
-247,249	-200,000	0,015	-0,051
-246,234	-200,000	0,005	-0,083
-245,219	-35,941	-0,111	0,043
-244,205	800,000	0,062	0,171
-243,190	-118,032	-0,058	-0,007
-242,176	-42,225	0,060	0,022
-241,161	86,100	0,063	-0,050
-240,146	-200,000	-0,012	0,059
-239,132	800,000	-0,036	-0,098
-238,117	123,017	0,150	-0,136
-237,103	800,000	0,018	0,037
-236,088	800,000	-0,021	-0,052
-235,073	800,000	0,040	-0,114
-234,059	-34,107	0,063	-0,025
-233,044	-200,000	0,029	0,129
-232,030	476,713	-0,021	-0,035
-231,015	800,000	0,031	-0,067
-230,000	358,061	-0,079	-0,115
-228,986	-200,000	-0,000	0,038
-227,971	348,703	0,045	0,065
-226,957	776,890	-0,004	0,009
-225,942	800,000	0,054	0,163
-224,927	237,427	-0,088	0,106
-223,913	88,552	-0,078	-0,063
-222,898	-84,617	-0,095	-0,022
-221,884	-200,000	0,056	-0,000
-220,869	-141,799	-0,165	0,012
-219,855	-70,006	0,148	0,041
-218,840	800,000	0,034	0,095
-217,825	800,000	0,031	0,083
-216,811	-187,124	-0,091	0,001
-215,796	800,000	0,042	0,115
-214,782	-53,955	-0,105	-0,035
-213,767	21,732	0,018	0,010
-212,752	449,708	-0,051	0,082
-211,738	587,800	-0,021	0,038
-210,723	110,030	0,041	0,035
-209,709	-56,091	0,062	-0,020
-208,694	800,000	-0,039	-0,115
-207,679	800,000	-0,023	0,055
-206,665	-56,876	0,124	-0,039
-205,650	44,098	-0,045	-0,030
-204,636	-200,000	0,021	0,124
-203,621	24,714	0,046	0,028
-202,606	800,000	-0,061	-0,173
-201,592	82,038	-0,097	-0,076
-200,577	-96,379	0,064	0,012
-199,563	-200,000	0,007	-0,094
-198,548	-43,855	0,066	-0,024
-197,533	-200,000	0,005	0,088
-196,519	800,000	0,077	0,190
-195,504	12,119	-0,101	-0,056
-194,490	-31,370	-0,096	-0,039
-193,475	-93,469	0,075	-0,015
-192,460	27,261	-0,034	-0,021
-191,446	-200,000	0,017	0,093
-190,431	-197,761	0,081	0,000
-189,417	181,215	0,074	0,078
-188,402	-200,000	0,004	-0,090
-187,387	-200,000	-0,002	0,063
-186,373	25,646	-0,087	-0,052
-185,358	-200,000	0,002	0,055
-184,344	214,810	0,093	0,107
-183,329	-49,851	0,149	0,051
-182,315	-200,000	0,042	0,134
-181,300	800,000	-0,055	0,140
-180,285	90,856	0,117	0,095
-179,271	-200,000	-0,003	0,204
-178,256	-24,241	-0,087	0,037
-177,242	800,000	0,055	0,151
-176,227	-99,669	0,164	-0,030
-175,212	-200,000	-0,075	0,000
-174,198	800,000	0,041	0,112
-173,183	-200,000	0,023	0,104
-172,169	-22,332	-0,083	-0,036
-171,154	32,399	-0,129	-0,081
-170,139	-200,000	-0,029	-0,116
-169,125	233,472	0,070	0,083
-168,110	800,000	-0,052	0,161
-167,096	-200,000	0,001	-0,057
-166,081	-200,000	-0,012	-0,054
-165,066	-200,000	0,013	0,048
-164,052	25,543	0,036	-0,022
-163,037	800,000	-0,022	-0,056
-162,023	32,639	-0,061	0,038
-161,008	-156,829	0,107	-0,005
-159,993	156,121	0,052	0,052
-158,979	102,918	-0,079	-0,067
-157,964	188,846	-0,048	0,052
-156,950	59,356	-0,050	-0,036
-155,935	-200,000	-0,011	0,077
-154,920	13,385	0,018	-0,010
-153,906	-168,373	0,128	0,003
-152,891	28,712	-0,046	0,028
-151,877	-23,726	-0,024	-0,011
-150,862	-23,119	-0,065	-0,028
-149,847	285,575	-0,023	-0,030
-148,833	-200,000	-0,010	0,061
-147,818	180,905	0,118	-0,125
-146,804	800,000	0,020	0,055
-145,789	-116,571	-0,075	0,010
-144,775	-200,000	-0,012	-0,076
-143,760	-165,665	-0,098	-0,003
-142,745	-200,000	-0,015	0,064
-141,731	-200,000	-0,010	0,184
-140,716	150,964	0,105	0,104
-139,702	-200,000	-0,006	0,025
-138,687	599,039	-0,023	0,041
-137,672	-197,411	-0,054	0,000
-136,658	615,079	-0,092	-0,167
-135,643	800,000	-0,028	0,070
-134,629	-53,700	-0,110	-0,036
-133,614	-134,585	0,057	-0,005
-132,599	-200,000	-0,004	0,023
-131,585	34,094	0,042	-0,026
-130,570	54,077	-0,086	-0,060
-129,556	-0,823	-0,070	-0,036
-128,541	-200,000	-0,010	-0,111
-127,526	151,624	-0,111	-0,109
-126,512	-35,034	0,104	0,041
-125,497	-200,000	-0,014	0,063
-124,483	-71,289	-0,099	-0,027
-123,468	489,064	-0,093	0,154
-122,453	-200,000	-0,057	0,198
-121,439	138,612	-0,092	-0,087
-120,424	-200,000	0,011	-0,090
-119,410	-200,000	-0,004	-0,025
