DTS Sentinel unit serial number:	SN410029Multiplexer serial number:	ORYXHardware model number:	OX2-SRSoftware version number:	ORYX F/W v4,00 Oryx Data Collector v3.7.2.0data status	okinstallation	B6 Nyhavnadifferential loss correction	single-endedforward channel	channel 2reverse channel	N/Adate	2023/12/07time	10:30:08forward acquisition time	300,00reverse acquisition time	0,00gamma	499,1914k internal	0,3205k external	0,3205temperature offset calibration	1,0000default loss term (dB/km)	0,3820temperature slope calibration	1,0000multiplexer offset coefficient	1,0000multiplexer slope coefficient	1,0000fibre end	0,00T internal ref (°C)	6,99T ext. ref 1 (°C)	-7,08T ext. ref 2 (°C)	-7,12length (m)	temperature (°C)	Stokes	anti-Stokes-744,400	14,070	0,205	0,116
-743,385	11,564	-0,318	-0,176
-742,371	-81,468	0,255	0,060
-741,356	-52,305	-0,434	-0,145
-740,342	-84,996	0,310	0,070
-739,327	-61,602	-0,316	-0,096
-738,312	-96,718	0,148	0,028
-737,298	-20,701	-0,441	-0,196
-736,283	-9,867	0,156	0,075
-735,269	-84,396	-0,332	-0,076
-734,254	-22,723	0,231	0,101
-733,239	11,431	-0,527	-0,293
-732,225	-51,976	0,192	0,065
-731,210	29,905	-0,061	0,038
-730,196	-81,072	0,056	0,013
-729,181	-65,810	0,104	-0,030
-728,167	8,290	0,057	0,031
-727,152	-42,503	-0,067	0,025
-726,137	800,000	-0,054	-0,168
-725,123	-200,000	0,005	-0,047
-724,108	68,161	-0,056	0,042
-723,094	800,000	-0,021	0,044
-722,079	-45,349	-0,050	-0,018
-721,064	-0,890	0,067	-0,035
-720,050	-200,000	-0,038	0,121
-719,035	89,529	0,051	-0,041
-718,021	-77,383	-0,070	0,017
-717,006	204,888	-0,126	-0,142
-715,991	369,372	-0,104	-0,154
-714,977	195,373	-0,048	-0,053
-713,962	-200,000	-0,001	0,034
-712,948	800,000	0,039	-0,106
-711,933	96,632	0,086	0,072
-710,918	160,472	0,054	0,055
-709,904	-66,591	0,074	-0,021
-708,889	-200,000	0,002	-0,097
-707,875	367,411	-0,045	-0,067
-706,860	-200,000	-0,005	0,035
-705,845	-200,000	-0,003	0,053
-704,831	-200,000	-0,014	-0,046
-703,816	84,715	-0,106	0,084
-702,802	-147,698	0,149	-0,009
-701,787	-130,939	-0,134	0,013
-700,772	-80,610	-0,104	0,025
-699,758	156,351	0,029	0,029
-698,743	-200,000	0,007	0,110
-697,729	-91,682	-0,133	0,027
-696,714	117,307	-0,086	0,077
-695,699	800,000	-0,030	-0,061
-694,685	-200,000	0,002	-0,044
-693,670	-200,000	0,007	0,026
-692,656	-52,898	0,044	-0,015
-691,641	-13,730	-0,015	0,007
-690,627	800,000	-0,071	-0,147
-689,612	-200,000	-0,001	0,014
-688,597	632,429	0,034	0,063
-687,583	72,003	0,085	-0,064
-686,568	-106,523	-0,148	0,024
-685,554	-68,715	-0,135	0,038
-684,539	610,537	-0,019	-0,035
-683,524	-200,000	0,015	-0,050
-682,510	-153,593	-0,038	0,002
-681,495	800,000	0,020	-0,057
-680,481	-200,000	0,015	-0,103
-679,466	472,110	-0,095	-0,156
-678,451	-3,068	-0,103	-0,052
-677,437	-109,087	0,116	0,018
-676,422	-97,979	-0,072	0,013
-675,408	-80,028	0,097	-0,023
-674,393	-123,995	0,067	0,008
-673,378	-200,000	-0,021	-0,135
-672,364	452,059	0,035	0,056
-671,349	171,970	-0,089	-0,093
-670,335	-27,999	0,090	0,037
-669,320	800,000	-0,031	-0,085
-668,305	327,585	0,036	0,050
-667,291	392,751	-0,043	0,065
-666,276	552,362	-0,006	0,010
-665,262	-48,571	0,038	-0,013
-664,247	153,270	-0,110	-0,110
-663,232	28,161	-0,040	0,024
-662,218	784,760	0,078	0,155
-661,203	-0,766	0,069	0,035
-660,189	-200,000	-0,007	0,079
-659,174	-200,000	0,009	0,047
-658,159	253,206	0,061	0,075
-657,145	-82,584	-0,033	-0,008
-656,130	-39,901	-0,041	-0,015
-655,116	-84,347	0,089	-0,020
-654,101	78,672	-0,087	-0,067
-653,086	-200,000	0,034	-0,134
-652,072	52,355	0,042	-0,029
-651,057	-37,620	-0,118	0,045
-650,043	-153,278	-0,074	0,004
-649,028	-150,456	0,158	-0,009
-648,014	800,000	-0,032	0,091
-646,999	-200,000	-0,019	0,064
-645,984	-200,000	-0,002	-0,089
-644,970	532,179	-0,029	0,050
-643,955	-23,502	-0,059	0,026
-642,941	-200,000	0,003	0,081
-641,926	-200,000	0,014	0,068
-640,911	-200,000	-0,003	-0,026
-639,897	13,990	-0,038	0,021
-638,882	-200,000	0,027	0,088
-637,868	800,000	-0,041	0,082
-636,853	-136,021	-0,183	0,015
-635,838	-200,000	-0,006	0,075
-634,824	-200,000	0,002	0,015
-633,809	-200,000	-0,027	0,085
-632,795	330,722	-0,034	0,048
-631,780	425,493	0,048	0,075
-630,765	-13,029	-0,137	-0,064
-629,751	-188,420	0,062	0,001
-628,736	-74,331	-0,098	0,025
-627,722	-200,000	-0,033	0,124
-626,707	-31,566	0,047	-0,019
-625,692	-101,931	0,109	-0,019
-624,678	10,804	0,081	-0,045
-623,663	87,040	-0,070	0,056
-622,649	-200,000	0,004	0,033
-621,634	-200,000	-0,029	-0,105
-620,619	800,000	-0,028	-0,064
-619,605	-200,000	0,012	0,101
-618,590	134,220	-0,107	0,100
-617,576	102,183	0,040	0,034
-616,561	-110,348	0,037	-0,005
-615,546	-63,187	-0,150	0,044
-614,532	-200,000	-0,010	-0,039
-613,517	-200,000	0,005	0,062
-612,503	-200,000	-0,008	-0,053
-611,488	-200,000	0,005	0,047
-610,474	-200,000	-0,002	0,131
-609,459	96,536	0,073	0,060
-608,444	56,842	-0,134	0,094
-607,430	304,334	-0,132	-0,177
-606,415	800,000	0,035	0,107
-605,401	-60,893	-0,090	0,027
-604,386	81,892	-0,126	0,099
-603,371	7,124	-0,115	0,062
-602,357	-200,000	0,003	0,054
-601,342	392,809	-0,051	0,078
-600,328	-109,918	-0,060	0,009
-599,313	342,610	-0,072	0,102
-598,298	800,000	-0,039	-0,080
-597,284	-200,000	0,004	0,090
-596,269	-25,857	0,186	0,079
-595,255	-11,706	0,088	-0,041
-594,240	-61,925	-0,108	-0,032
-593,225	-111,246	-0,048	-0,007
-592,211	24,524	-0,008	-0,005
-591,196	-139,021	-0,059	-0,005
-590,182	-13,099	0,070	-0,033
-589,167	-79,769	0,081	0,019
-588,152	-95,414	0,080	0,015
-587,138	-200,000	0,024	-0,126
-586,123	-200,000	-0,028	-0,155
-585,109	279,242	-0,078	-0,101
-584,094	653,070	0,021	0,039
-583,079	281,526	-0,018	0,023
-582,065	-141,453	0,051	0,004
-581,050	-200,000	-0,022	-0,074
-580,036	12,176	-0,067	-0,037
-579,021	-200,000	0,011	-0,072
-578,006	-30,024	-0,123	0,050
-576,992	747,994	0,076	0,148
-575,977	-200,000	-0,003	0,122
-574,963	-98,462	-0,174	-0,032
-573,948	-124,372	0,096	-0,011
-572,934	94,010	-0,114	0,093
-571,919	70,571	0,004	0,003
-570,904	223,207	-0,083	0,096
-569,890	413,296	0,022	0,034
-568,875	688,523	0,063	-0,120
-567,861	-30,530	0,060	-0,025
-566,846	126,917	0,190	-0,174
-565,831	-200,000	-0,011	-0,121
-564,817	20,711	0,045	0,026
-563,802	-181,125	-0,148	0,002
-562,788	-186,028	0,126	0,001
-561,773	68,084	0,134	0,099
-560,758	-4,023	-0,050	-0,025
-559,744	42,461	-0,085	-0,055
-558,729	167,879	-0,014	-0,014
-557,715	306,953	0,025	0,034
-556,700	-200,000	-0,000	0,014
-555,685	82,301	-0,062	0,049
-554,671	-200,000	-0,002	0,026
-553,656	-200,000	-0,005	0,074
-552,642	-33,833	0,105	0,042
-551,627	-166,269	0,065	-0,002
-550,612	-200,000	-0,009	-0,062
-549,598	-168,023	-0,044	0,001
-548,583	800,000	-0,057	0,139
-547,569	-141,646	0,095	0,007
-546,554	-38,155	0,060	0,023
-545,539	41,662	-0,099	-0,065
-544,525	69,225	-0,026	0,019
-543,510	-48,850	-0,046	0,016
-542,496	-70,641	-0,085	-0,023
-541,481	117,522	-0,125	-0,111
-540,466	-200,000	-0,029	-0,120
-539,452	571,062	-0,020	0,034
-538,437	-161,162	0,047	-0,002
-537,423	102,284	-0,126	-0,106
-536,408	28,921	0,041	0,025
-535,393	685,322	0,031	0,058
-534,379	-126,388	0,162	0,017
-533,364	637,980	0,054	0,099
-532,350	620,024	-0,029	0,053
-531,335	-200,000	0,002	-0,022
-530,321	27,317	0,055	-0,033
-529,306	800,000	-0,033	-0,078
-528,291	51,043	0,077	-0,052
-527,277	800,000	-0,049	-0,131
-526,262	75,046	-0,138	0,104
-525,248	-38,236	-0,099	-0,037
-524,233	-56,870	0,106	0,033
-523,218	94,477	-0,050	-0,041
-522,204	74,174	0,085	-0,064
-521,189	-45,992	-0,113	0,040
-520,175	-58,764	0,010	-0,003
-519,160	279,769	-0,082	-0,106
-518,145	-55,921	0,199	0,064
-517,131	-63,394	-0,048	-0,014
-516,116	-32,933	0,140	0,056
-515,102	-200,000	0,026	0,183
-514,087	368,016	-0,015	0,021
-513,072	168,376	0,097	0,099
-512,058	800,000	-0,031	-0,071
-511,043	-37,174	0,123	0,047
-510,029	51,339	-0,019	0,013
-509,014	-200,000	0,007	0,129
-507,999	-20,887	-0,064	-0,028
-506,985	800,000	-0,068	-0,167
-505,970	-200,000	0,015	-0,121
-504,956	1,145	-0,088	0,045
-503,941	259,518	0,073	0,091
-502,926	800,000	-0,014	0,045
-501,912	51,111	0,109	-0,074
-500,897	702,093	0,075	0,142
-499,883	-200,000	-0,011	-0,079
-498,868	-7,196	-0,070	0,034
-497,853	-200,000	-0,004	-0,050
-496,839	141,752	-0,087	-0,083
-495,824	-148,911	0,079	-0,005
-494,810	800,000	0,076	0,237
-493,795	541,970	-0,043	0,075
-492,781	-117,043	0,085	-0,011
-491,766	800,000	-0,015	0,034
-490,751	-200,000	0,009	0,074
-489,737	800,000	0,034	0,092
-488,722	-134,198	-0,037	0,003
-487,708	41,063	0,100	0,065
-486,693	-200,000	-0,004	0,018
-485,678	-72,867	0,083	0,022
-484,664	-28,868	-0,041	0,017
-483,649	-33,350	-0,114	0,045
-482,635	-64,058	0,051	0,015
-481,620	-200,000	-0,002	-0,057
-480,605	74,945	0,088	0,066
-479,591	92,882	-0,031	-0,025
-478,576	4,424	0,108	-0,057
-477,562	-200,000	-0,008	0,028
-476,547	-52,234	-0,120	-0,040
-475,532	-200,000	0,014	0,065
-474,518	-200,000	0,037	0,136
-473,503	414,432	0,034	-0,052
-472,489	-111,963	0,115	-0,017
-471,474	302,773	0,046	-0,062
-470,459	44,587	-0,124	-0,082
-469,445	106,435	-0,075	-0,064
-468,430	-54,848	0,070	-0,023
-467,416	642,379	0,010	-0,019
-466,401	118,649	-0,100	0,088
-465,386	-200,000	0,005	-0,060
-464,372	800,000	-0,069	0,150
-463,357	334,548	0,064	0,089
-462,343	-87,800	-0,111	-0,024
-461,328	800,000	-0,068	-0,201
-460,313	-200,000	0,014	-0,078
-459,299	3,246	0,101	0,053
-458,284	800,000	0,031	0,092
-457,270	-61,747	0,086	-0,026
-456,255	800,000	0,031	-0,072
-455,241	164,946	-0,041	0,042
-454,226	373,172	0,103	0,151
-453,211	800,000	0,059	-0,177
-452,197	-69,070	0,088	-0,024
-451,182	-78,972	0,043	-0,010
-450,168	-200,000	0,014	-0,044
-449,153	-200,000	-0,020	-0,130
-448,138	-105,180	-0,122	-0,020
-447,124	705,173	0,055	0,104
-446,109	-200,000	0,005	0,071
-445,095	-27,153	0,207	0,086
-444,080	231,857	-0,034	-0,040
-443,065	513,576	0,045	0,076
-442,051	-200,000	0,009	0,073
-441,036	-83,101	-0,060	0,014
-440,022	800,000	-0,032	0,097
-439,007	-200,000	0,008	-0,070
-437,992	-74,229	0,016	-0,004
-436,978	140,949	0,078	0,074
-435,963	2,251	0,068	-0,035
-434,949	800,000	0,035	0,073
-433,934	422,781	-0,083	-0,128
-432,919	800,000	-0,044	-0,135
-431,905	-200,000	-0,024	-0,129
-430,890	673,276	-0,045	0,083
-429,876	-83,185	0,087	0,020
-428,861	538,288	0,041	0,071
-427,846	-67,099	-0,199	-0,056
-426,832	-200,000	-0,027	-0,103
-425,817	-171,226	0,083	0,002
-424,803	68,861	-0,089	-0,066
-423,788	257,279	0,071	0,088
-422,773	18,957	0,018	0,010
-421,759	-97,813	0,043	-0,008
-420,744	270,851	0,042	0,053
-419,730	97,995	-0,042	-0,034
-418,715	-26,379	0,075	0,031
-417,701	-200,000	-0,013	0,057
-416,686	-200,000	-0,004	0,046
-415,671	-94,070	0,089	-0,017
-414,657	143,991	-0,058	0,056
-413,642	-16,839	-0,059	0,027
-412,628	123,587	-0,159	-0,143
-411,613	-200,000	0,031	0,103
-410,598	800,000	0,062	0,124
-409,584	0,212	0,148	-0,076
-408,569	-6,828	0,116	-0,056
-407,555	657,238	0,024	-0,044
-406,540	552,183	0,017	-0,029
-405,525	42,003	-0,108	-0,070
-404,511	118,060	-0,045	-0,040
-403,496	651,755	0,038	-0,070
-402,482	-200,000	-0,026	0,117
-401,467	-200,000	0,018	0,142
-400,452	-200,000	0,018	0,113
-399,438	-83,986	-0,029	0,006
-398,423	108,140	0,062	-0,053
-397,409	284,804	-0,056	0,072
-396,394	43,335	-0,112	-0,073
-395,379	800,000	-0,029	-0,067
-394,365	800,000	0,017	-0,050
-393,350	13,064	0,155	0,086
-392,336	-200,000	-0,010	0,058
-391,321	-200,000	-0,013	0,103
-390,306	304,101	-0,031	-0,041
-389,292	130,219	0,014	0,013
-388,277	-167,774	-0,074	-0,002
-387,263	800,000	0,015	0,033
-386,248	-122,609	-0,128	0,015
-385,233	800,000	-0,037	-0,092
-384,219	-200,000	-0,004	-0,079
-383,204	3,530	0,044	-0,023
-382,190	-200,000	-0,003	-0,108
-381,175	105,734	0,067	-0,057
-380,160	354,626	-0,016	-0,023
-379,146	-74,427	0,088	0,022
-378,131	-135,226	-0,023	0,002
-377,117	16,816	-0,050	-0,028
-376,102	-200,000	0,018	-0,129
-375,088	260,374	-0,069	-0,085
-374,073	800,000	0,034	0,098
-373,058	-134,284	0,125	0,011
-372,044	-200,000	-0,000	0,142
-371,029	-112,226	0,134	0,019
-370,015	-200,000	-0,001	-0,035
-369,000	-114,871	-0,215	0,029
-367,985	800,000	-0,019	0,053
-366,971	-44,976	0,051	0,018
-365,956	-128,044	0,087	-0,009
-364,942	-88,631	-0,028	0,006
-363,927	-42,039	0,085	-0,031
-362,912	800,000	0,035	-0,102
-361,898	800,000	-0,014	-0,036
-360,883	192,320	-0,067	0,072
-359,869	800,000	0,032	-0,083
-358,854	36,228	-0,064	0,041
-357,839	126,653	0,118	0,107
-356,825	-135,882	-0,082	0,007
-355,810	188,808	-0,037	-0,039
-354,796	-200,000	0,012	0,059
-353,781	-42,247	0,029	-0,010
-352,766	-68,702	0,013	-0,003
-351,752	494,969	0,023	-0,037
-350,737	36,071	0,047	0,030
-349,723	-141,661	0,099	-0,007
-348,708	-77,351	-0,040	-0,010
-347,693	-200,000	-0,006	-0,139
-346,679	-200,000	-0,001	-0,062
-345,664	797,921	-0,028	0,055
-344,650	64,672	0,092	-0,066
-343,635	445,167	0,039	-0,062
-342,620	-61,136	0,069	0,021
-341,606	37,970	0,065	0,041
-340,591	800,000	-0,047	-0,122
-339,577	-128,038	0,129	-0,013
-338,562	150,873	-0,045	-0,044
-337,548	-122,051	0,106	0,012
-336,533	697,368	0,086	0,162
-335,518	-200,000	0,001	0,015
-334,504	-200,000	0,014	-0,070
-333,489	22,078	-0,056	-0,032
-332,475	-42,223	-0,135	0,049
-331,460	-55,984	0,073	0,023
-330,445	-200,000	0,021	-0,092
-329,431	-88,550	-0,074	-0,016
-328,416	667,144	0,027	-0,050
-327,402	-152,996	-0,053	0,003
-326,387	800,000	0,059	0,129
-325,372	800,000	-0,034	0,098
-324,358	-200,000	0,013	-0,143
-323,343	120,327	0,023	-0,020
-322,329	-10,645	0,087	0,041
-321,314	-200,000	-0,003	-0,054
-320,299	-200,000	0,008	-0,047
-319,285	800,000	-0,015	0,034
-318,270	462,249	0,048	-0,077
-317,256	6,229	-0,117	-0,062
-316,241	31,324	0,037	-0,023
-315,226	145,204	-0,056	-0,053
-314,212	800,000	0,076	0,163
-313,197	-113,037	0,071	-0,010
-312,183	-60,213	0,078	-0,024
-311,168	385,885	-0,066	-0,098
-310,153	800,000	0,013	-0,036
-309,139	571,086	-0,027	-0,047
-308,124	-200,000	0,001	-0,087
-307,110	217,391	0,051	0,059
-306,095	-200,000	-0,028	-0,161
-305,080	-200,000	0,008	-0,036
-304,066	800,000	-0,057	-0,137
-303,051	650,966	-0,052	-0,095
-302,037	774,291	0,075	-0,147
-301,022	-37,452	0,101	0,038
-300,008	800,000	-0,002	0,007
-298,993	19,065	-0,045	0,026
-297,978	402,588	0,127	-0,191
-296,964	800,000	-0,033	-0,079
-295,949	42,242	0,052	0,034
-294,935	800,000	0,039	0,096
-293,920	-200,000	0,005	-0,143
-292,905	-200,000	0,004	-0,030
-291,891	116,731	0,103	0,090
-290,876	-107,323	-0,189	0,029
-289,862	-67,638	0,103	-0,029
-288,847	800,000	-0,058	0,116
-287,832	583,908	0,039	-0,068
-286,818	710,063	-0,048	-0,091
-285,803	-200,000	0,023	0,197
-284,789	112,292	-0,061	0,052
-283,774	-200,000	-0,002	-0,028
-282,759	24,976	-0,031	-0,018
-281,745	64,552	-0,084	-0,060
-280,730	-24,340	-0,113	0,048
-279,716	-119,071	-0,121	-0,015
-278,701	-55,264	0,100	-0,032
-277,686	-200,000	-0,021	-0,093
-276,672	331,295	0,096	0,133
-275,657	548,846	0,065	0,112
-274,643	-90,378	-0,195	-0,040
-273,628	234,381	0,060	-0,071
-272,613	-200,000	0,063	0,218
-271,599	800,000	-0,063	0,165
-270,584	165,186	-0,073	-0,074
-269,570	-200,000	0,013	-0,077
-268,555	-200,000	-0,018	0,059
-267,540	-170,195	-0,110	0,003
-266,526	56,029	-0,023	0,016
-265,511	60,206	0,035	0,024
-264,497	659,612	-0,034	0,063
-263,482	-26,892	0,141	0,059
-262,467	800,000	-0,026	-0,070
-261,453	-124,495	0,093	0,010
-260,438	-130,145	-0,158	0,015
-259,424	-52,114	0,116	-0,038
-258,409	250,085	-0,077	-0,093
-257,395	800,000	0,028	-0,074
-256,380	-27,834	0,164	0,067
-255,365	800,000	-0,023	0,052
-254,351	-49,459	0,082	-0,028
-253,336	-82,807	-0,098	0,022
-252,322	724,233	0,026	0,049
-251,307	330,294	0,061	0,084
-250,292	6,396	-0,107	-0,056
-249,278	140,891	0,115	0,108
-248,263	-200,000	-0,016	0,076
-247,249	-72,179	0,069	-0,018
-246,234	-4,459	-0,065	0,032
-245,219	-59,227	-0,083	0,025
-244,205	615,136	-0,041	-0,074
-243,190	-200,000	0,004	-0,043
-242,176	-134,725	-0,081	-0,007
-241,161	800,000	-0,021	0,052
-240,146	-44,246	0,091	-0,032
-239,132	530,347	-0,034	-0,057
-238,117	-149,747	0,012	0,001
-237,103	-36,307	-0,032	0,012
-236,088	638,701	-0,027	-0,050
-235,073	-200,000	-0,002	0,083
-234,059	800,000	0,061	-0,177
-233,044	647,697	-0,064	-0,117
-232,030	414,279	-0,059	-0,089
-231,015	247,874	-0,054	-0,066
-230,000	81,859	-0,048	0,037
-228,986	113,380	0,075	-0,064
-227,971	-200,000	0,018	-0,071
-226,957	-200,000	-0,007	-0,023
-225,942	-76,262	-0,049	-0,012
-224,927	-132,512	-0,136	-0,012
-223,913	-66,614	-0,055	-0,016
-222,898	-160,525	-0,107	0,004
-221,884	155,931	-0,068	-0,067
-220,869	213,845	0,070	0,079
-219,855	-100,782	-0,024	-0,004
-218,840	-39,313	0,139	0,052
-217,825	107,970	-0,114	-0,097
-216,811	-66,713	0,006	0,002
-215,796	177,313	-0,118	0,122
-214,782	34,143	0,039	-0,024
-213,767	123,491	-0,035	0,032
-212,752	-200,000	-0,012	-0,048
-211,738	59,093	0,026	0,018
-210,723	-43,487	0,057	0,020
-209,709	800,000	0,013	0,031
-208,694	-200,000	-0,037	-0,139
-207,679	28,066	-0,070	0,042
-206,665	344,149	-0,093	0,129
-205,650	-186,950	0,170	0,002
-204,636	202,655	-0,032	0,036
-203,621	15,043	0,005	0,003
-202,606	-162,675	-0,066	-0,002
-201,592	76,161	0,047	0,036
-200,577	149,255	-0,080	-0,077
-199,563	-200,000	-0,002	-0,157
-198,548	800,000	0,029	0,072
-197,533	-200,000	-0,042	-0,192
-196,519	4,725	-0,107	0,056
-195,504	220,157	0,070	0,080
-194,490	-200,000	0,038	-0,225
-193,475	134,003	-0,086	-0,079
-192,460	800,000	0,022	-0,048
-191,446	-102,883	0,143	-0,024
-190,431	800,000	0,020	0,041
-189,417	747,211	0,048	0,093
-188,402	576,356	-0,029	0,051
-187,387	3,906	-0,163	0,084
-186,373	-126,644	-0,038	-0,004
-185,358	718,696	-0,076	0,145
-184,344	9,645	0,141	0,076
-183,329	-200,000	-0,024	-0,143
-182,315	-93,428	0,097	0,019
-181,300	-200,000	0,004	-0,013
-180,285	-99,335	-0,230	0,041
-179,271	800,000	0,068	-0,144
-178,256	75,785	-0,073	-0,055
-177,242	16,022	0,043	-0,024
-176,227	452,854	-0,104	-0,165
-175,212	7,559	-0,066	0,035
-174,198	-52,091	0,147	0,048
-173,183	800,000	0,067	-0,156
-172,169	-31,710	-0,129	0,051
-171,154	-200,000	0,024	0,081
-170,139	66,072	0,079	-0,057
-169,125	509,189	0,074	0,123
-168,110	800,000	-0,060	-0,133
-167,096	340,188	-0,065	0,090
-166,081	-92,739	0,064	-0,013
-165,066	86,386	-0,074	-0,058
-164,052	20,485	-0,058	-0,033
-163,037	716,498	0,009	0,017
-162,023	-200,000	-0,041	-0,142
-161,008	-200,000	0,001	-0,161
-159,993	408,504	-0,028	0,042
-158,979	-13,743	0,059	-0,027
-157,964	698,649	0,066	-0,125
-156,950	800,000	0,077	0,155
-155,935	-73,644	0,142	-0,037
-154,920	-163,950	0,103	-0,003
-153,906	-81,475	0,158	0,037
-152,891	147,928	-0,098	0,094
-151,877	553,785	-0,036	-0,062
-150,862	66,003	0,062	-0,045
-149,847	-200,000	0,001	0,055
-148,833	508,816	0,031	-0,051
-147,818	800,000	-0,058	0,148
-146,804	204,604	-0,023	-0,025
-145,789	-95,126	0,194	0,037
-144,775	214,172	0,112	-0,126
-143,760	-16,040	-0,111	0,050
-142,745	-141,011	-0,128	0,009
-141,731	505,720	0,054	-0,089
-140,716	-200,000	-0,015	-0,119
-139,702	101,902	0,059	0,049
-138,687	800,000	-0,027	0,054
-137,672	386,006	0,026	0,038
-136,658	90,887	0,045	-0,035
-135,643	800,000	-0,005	0,012
-134,629	-134,979	0,161	0,014
-133,614	263,540	0,087	0,108
-132,599	-47,036	-0,057	-0,020
-131,585	234,179	-0,012	0,014
-130,570	-54,053	0,085	-0,027
-129,556	-33,933	-0,140	-0,054
-128,541	83,646	0,071	-0,055
-127,526	-200,000	-0,014	-0,071
-126,512	-200,000	-0,007	0,032
-125,497	256,903	0,088	0,107
-124,483	-200,000	0,010	0,154
-123,468	336,732	-0,017	-0,024
-122,453	10,068	-0,121	-0,065
-121,439	800,000	-0,001	-0,003
-120,424	209,154	-0,075	0,083
-119,410	-192,694	0,123	0,001
-118,395	-200,000	-0,010	-0,169
