DTS Sentinel unit serial number:	SN410029Multiplexer serial number:	ORYXHardware model number:	OX2-SRSoftware version number:	ORYX F/W v4,00 Oryx Data Collector v3.7.2.0data status	okinstallation	B6 Nyhavnadifferential loss correction	single-endedforward channel	channel 2reverse channel	N/Adate	2023/12/11time	00:40:08forward acquisition time	300,00reverse acquisition time	0,00gamma	499,1914k internal	0,3122k external	0,3122temperature offset calibration	1,0000default loss term (dB/km)	0,3820temperature slope calibration	1,0000multiplexer offset coefficient	1,0000multiplexer slope coefficient	1,0000fibre end	0,00T internal ref (°C)	22,31T ext. ref 1 (°C)	5,71T ext. ref 2 (°C)	5,74length (m)	temperature (°C)	Stokes	anti-Stokes-744,400	55,429	-0,064	0,046
-743,385	6,789	-0,104	-0,058
-742,371	-71,269	0,110	0,030
-741,356	221,093	-0,164	0,196
-740,342	-27,303	0,154	0,067
-739,327	65,863	-0,286	0,216
-738,312	410,804	0,039	-0,062
-737,298	155,082	-0,166	0,170
-736,283	49,013	0,072	0,050
-735,269	178,759	-0,127	0,139
-734,254	800,000	-0,027	-0,080
-733,239	-34,533	-0,469	-0,191
-732,225	-59,400	0,169	-0,054
-731,210	-61,573	0,046	0,014
-730,196	380,671	0,080	-0,123
-729,181	307,922	0,070	-0,098
-728,167	-200,000	0,001	-0,037
-727,152	164,294	-0,069	-0,073
-726,137	-200,000	0,001	-0,027
-725,123	800,000	-0,036	-0,109
-724,108	-92,203	-0,125	0,026
-723,094	-81,578	-0,065	-0,016
-722,079	22,095	-0,098	-0,059
-721,064	275,466	0,020	-0,027
-720,050	16,335	0,060	0,035
-719,035	-27,923	0,015	-0,006
-718,021	192,123	0,055	-0,062
-717,006	425,286	-0,124	-0,199
-715,991	-200,000	0,028	-0,092
-714,977	800,000	-0,025	0,074
-713,962	500,479	0,022	-0,038
-712,948	-36,530	-0,027	0,011
-711,933	800,000	-0,036	-0,103
-710,918	800,000	0,042	-0,098
-709,904	800,000	0,014	-0,030
-708,889	500,449	0,044	-0,077
-707,875	80,355	-0,088	-0,070
-706,860	227,013	-0,101	-0,122
-705,845	800,000	-0,060	-0,148
-704,831	142,877	0,042	0,042
-703,816	-154,917	-0,044	0,002
-702,802	102,253	0,065	0,057
-701,787	800,000	-0,079	-0,235
-700,772	-74,856	-0,024	0,006
-699,758	104,937	0,087	-0,076
-698,743	-24,423	0,086	-0,038
-697,729	-84,900	-0,111	-0,026
-696,714	-200,000	-0,012	-0,053
-695,699	-78,507	0,108	0,027
-694,685	-200,000	-0,004	-0,095
-693,670	568,528	0,029	-0,052
-692,656	162,663	-0,045	-0,047
-691,641	322,739	-0,039	0,055
-690,627	-157,921	-0,071	0,003
-689,612	318,091	0,037	-0,052
-688,597	-200,000	-0,007	0,048
-687,583	500,919	-0,018	-0,032
-686,568	-180,791	-0,215	-0,003
-685,554	132,020	0,030	0,029
-684,539	-200,000	0,001	0,061
-683,524	-200,000	0,032	0,107
-682,510	-95,730	0,106	0,021
-681,495	296,521	0,030	-0,042
-680,481	-200,000	-0,011	0,079
-679,466	-200,000	-0,012	-0,214
-678,451	-200,000	0,005	-0,107
-677,437	-104,594	-0,061	0,010
-676,422	800,000	0,017	0,039
-675,408	114,759	0,045	-0,041
-674,393	308,051	-0,058	-0,081
-673,378	-200,000	-0,008	-0,066
-672,364	800,000	-0,011	-0,034
-671,349	-32,693	-0,135	0,055
-670,335	36,770	0,011	-0,007
-669,320	46,668	0,133	0,091
-668,305	-102,573	0,098	-0,017
-667,291	-157,798	-0,118	-0,005
-666,276	24,707	0,083	-0,051
-665,262	239,641	-0,104	-0,129
-664,247	-82,590	-0,127	0,030
-663,232	239,583	-0,004	-0,005
-662,218	63,659	-0,119	0,089
-661,203	-4,613	-0,066	0,034
-660,189	-53,422	-0,104	-0,035
-659,174	-87,208	-0,088	0,020
-658,159	800,000	-0,041	-0,088
-657,145	-112,500	-0,112	-0,016
-656,130	290,379	-0,029	-0,039
-655,116	81,487	-0,033	0,027
-654,101	198,442	-0,097	0,111
-653,086	-34,850	0,086	-0,035
-652,072	-200,000	0,008	0,076
-651,057	-200,000	0,027	-0,089
-650,043	216,571	-0,096	-0,114
-649,028	-200,000	0,022	-0,097
-648,014	-26,372	0,052	0,022
-646,999	-27,196	-0,040	-0,017
-645,984	-5,970	-0,098	0,050
-644,970	800,000	0,023	0,054
-643,955	140,618	0,075	-0,074
-642,941	279,931	0,049	0,065
-641,926	800,000	-0,061	-0,173
-640,911	67,031	-0,015	0,012
-639,897	-87,340	0,088	0,020
-638,882	222,312	-0,066	0,079
-637,868	142,008	0,080	-0,079
-636,853	119,322	-0,150	-0,138
-635,838	-200,000	-0,006	-0,036
-634,824	344,703	0,017	0,024
-633,809	-200,000	-0,008	0,030
-632,795	-58,909	-0,069	-0,022
-631,780	800,000	-0,012	-0,035
-630,765	20,468	-0,092	-0,055
-629,751	800,000	-0,043	-0,109
-628,736	150,296	-0,048	-0,049
-627,722	-200,000	-0,027	-0,131
-626,707	366,082	-0,047	0,070
-625,692	-133,673	-0,010	0,001
-624,678	-200,000	-0,009	0,082
-623,663	217,420	-0,060	0,071
-622,649	158,391	-0,045	-0,046
-621,634	672,203	0,096	-0,186
-620,619	-200,000	-0,026	0,174
-619,605	436,194	0,031	-0,050
-618,590	-200,000	0,056	-0,222
-617,576	-22,594	-0,033	0,015
-616,561	75,279	-0,023	0,018
-615,546	604,979	-0,042	0,077
-614,532	167,141	-0,103	-0,109
-613,517	276,769	0,064	-0,085
-612,503	-134,497	-0,176	-0,016
-611,488	-152,485	0,065	0,003
-610,474	188,014	0,132	0,147
-609,459	-200,000	-0,020	0,087
-608,444	663,909	-0,046	-0,088
-607,430	-42,346	-0,096	0,036
-606,415	424,707	-0,099	-0,158
-605,401	84,455	0,124	0,101
-604,386	-49,466	0,027	0,010
-603,371	-120,181	-0,041	-0,005
-602,357	-200,000	-0,001	0,058
-601,342	-6,324	-0,093	-0,047
-600,328	-71,243	-0,081	-0,022
-599,313	515,029	0,038	0,067
-598,298	-200,000	0,004	0,041
-597,284	800,000	0,052	0,119
-596,269	125,202	0,061	0,057
-595,255	-54,338	-0,164	-0,055
-594,240	-69,599	-0,052	-0,015
-593,225	-200,000	-0,008	-0,166
-592,211	-105,573	0,076	0,013
-591,196	423,972	-0,066	-0,106
-590,182	149,979	-0,059	0,059
-589,167	110,568	-0,115	0,103
-588,152	-200,000	-0,005	-0,042
-587,138	132,457	-0,027	0,026
-586,123	247,680	-0,068	0,086
-585,109	235,186	0,053	-0,065
-584,094	-138,001	-0,077	-0,006
-583,079	315,766	-0,066	0,092
-582,065	-113,908	0,159	0,023
-581,050	800,000	0,026	0,076
-580,036	-118,124	-0,079	0,010
-579,021	170,458	0,072	-0,076
-578,006	216,918	-0,085	-0,100
-576,992	-200,000	-0,003	-0,025
-575,977	214,719	0,042	-0,050
-574,963	15,188	0,103	-0,060
-573,948	228,986	-0,053	0,065
-572,934	-200,000	0,007	-0,076
-571,919	800,000	-0,023	-0,051
-570,904	-29,411	-0,071	0,030
-569,890	-200,000	0,013	-0,163
-568,875	264,752	-0,073	-0,094
-567,861	85,359	0,104	-0,085
-566,846	-91,291	-0,103	0,022
-565,831	800,000	-0,068	0,155
-564,817	-25,562	0,115	0,050
-563,802	-49,162	0,066	-0,023
-562,788	800,000	-0,033	0,083
-561,773	-200,000	0,000	-0,062
-560,758	-200,000	-0,008	0,154
-559,744	-44,732	0,170	0,063
-558,729	-143,605	-0,032	0,002
-557,715	-22,655	-0,099	-0,044
-556,700	-78,487	-0,019	-0,005
-555,685	212,696	0,042	-0,049
-554,671	-200,000	0,029	0,135
-553,656	800,000	-0,022	0,059
-552,642	-200,000	-0,028	0,099
-551,627	-200,000	0,013	0,105
-550,612	173,733	-0,054	0,058
-549,598	800,000	0,045	-0,138
-548,583	-200,000	-0,159	0,000
-547,569	297,818	-0,019	-0,026
-546,554	36,569	0,045	-0,029
-545,539	-20,393	-0,069	0,031
-544,525	189,279	0,083	-0,092
-543,510	-113,440	-0,071	0,010
-542,496	800,000	0,049	-0,123
-541,481	-200,000	-0,008	-0,107
-540,466	-200,000	-0,003	-0,116
-539,452	209,848	0,072	0,084
-538,437	800,000	0,030	-0,094
-537,423	90,664	0,052	-0,043
-536,408	-107,170	-0,133	-0,021
-535,393	-200,000	-0,003	-0,058
-534,379	-118,384	-0,042	0,005
-533,364	-44,818	-0,057	-0,021
-532,350	800,000	-0,058	0,164
-531,335	800,000	0,042	0,092
-530,321	-200,000	-0,004	0,046
-529,306	-200,000	0,032	-0,210
-528,291	46,810	0,022	-0,015
-527,277	-200,000	-0,020	-0,080
-526,262	800,000	-0,018	-0,042
-525,248	148,613	-0,063	-0,063
-524,233	800,000	0,013	0,043
-523,218	375,655	0,053	0,080
-522,204	800,000	0,015	-0,047
-521,189	606,908	-0,046	-0,084
-520,175	-200,000	0,011	-0,079
-519,160	298,576	0,054	-0,074
-518,145	-200,000	-0,007	-0,079
-517,131	800,000	-0,043	-0,094
-516,116	-133,186	0,072	-0,007
-515,102	152,789	-0,087	-0,088
-514,087	-140,285	0,069	0,005
-513,072	-129,711	-0,107	-0,011
-512,058	-200,000	-0,008	0,033
-511,043	800,000	-0,082	0,181
-510,029	189,077	0,063	0,070
-509,014	-200,000	-0,020	0,089
-507,999	30,634	0,053	0,034
-506,985	-113,373	-0,046	0,007
-505,970	-200,000	-0,006	-0,025
-504,956	-200,000	0,006	-0,035
-503,941	-200,000	0,006	-0,095
-502,926	38,630	0,060	0,039
-501,912	90,968	0,045	0,037
-500,897	657,219	0,030	-0,057
-499,883	346,725	0,013	-0,019
-498,868	253,792	-0,032	-0,041
-497,853	-200,000	-0,009	-0,122
-496,839	-47,048	0,143	-0,051
-495,824	-74,154	-0,034	-0,009
-494,810	800,000	0,048	0,144
-493,795	800,000	0,096	0,199
-492,781	-52,381	-0,170	0,058
-491,766	-99,236	-0,074	-0,014
-490,751	-99,134	-0,254	-0,047
-489,737	43,272	-0,070	0,047
-488,722	800,000	0,018	0,042
-487,708	-200,000	0,030	-0,120
-486,693	239,695	0,050	0,062
-485,678	-138,891	-0,126	0,010
-484,664	-112,598	-0,119	-0,017
-483,649	-156,564	-0,085	0,004
-482,635	-76,755	0,076	0,020
-481,620	30,385	-0,096	0,060
-480,605	69,614	0,208	0,158
-479,591	800,000	0,026	0,062
-478,576	-87,157	-0,046	-0,010
-477,562	800,000	0,018	-0,059
-476,547	-63,205	-0,207	-0,063
-475,532	-83,680	-0,012	0,003
-474,518	68,894	0,075	0,057
-473,503	223,278	0,059	0,071
-472,489	-59,345	-0,040	-0,013
-471,474	-200,000	0,003	-0,099
-470,459	-200,000	-0,025	-0,089
-469,445	21,166	-0,072	-0,043
-468,430	69,775	0,068	-0,052
-467,416	352,097	0,022	0,032
-466,401	-101,858	0,061	-0,011
-465,386	112,736	0,077	-0,069
-464,372	134,958	0,019	-0,018
-463,357	800,000	-0,040	-0,103
-462,343	-200,000	-0,018	-0,065
-461,328	-200,000	0,016	0,165
-460,313	-200,000	-0,007	0,130
-459,299	-76,332	0,069	0,018
-458,284	-113,353	-0,074	0,011
-457,270	10,826	0,106	0,060
-456,255	-139,330	0,006	-0,000
-455,241	-200,000	-0,029	-0,139
-454,226	-200,000	0,182	-0,000
-453,211	121,408	0,090	-0,083
-452,197	431,532	-0,062	0,099
-451,182	800,000	0,083	0,174
-450,168	-200,000	-0,035	0,149
-449,153	-26,999	-0,125	0,053
-448,138	45,777	-0,116	0,079
-447,124	20,544	-0,069	-0,041
-446,109	-127,215	-0,116	0,012
-445,095	800,000	0,016	0,035
-444,080	47,804	0,098	0,067
-443,065	-200,000	-0,004	0,096
-442,051	-200,000	-0,013	-0,087
-441,036	68,020	-0,099	-0,074
-440,022	-32,270	-0,056	0,023
-439,007	800,000	-0,055	0,148
-437,992	-148,985	0,112	0,007
-436,978	-200,000	-0,024	0,140
-435,963	-200,000	-0,042	0,152
-434,949	-150,828	-0,035	0,002
-433,934	215,277	-0,100	-0,118
-432,919	-200,000	0,034	-0,160
-431,905	-200,000	0,001	0,108
-430,890	-200,000	0,025	-0,106
-429,876	-102,100	0,022	0,004
-428,861	-64,437	0,015	0,004
-427,846	-34,614	0,139	-0,056
-426,832	705,172	-0,054	-0,105
-425,817	131,269	-0,117	-0,111
-424,803	800,000	-0,025	-0,063
-423,788	-200,000	0,005	0,026
-422,773	88,842	0,048	0,039
-421,759	800,000	0,040	0,082
-420,744	152,506	0,072	0,073
-419,730	575,466	-0,067	-0,121
-418,715	324,854	-0,073	-0,103
-417,701	-192,399	-0,133	-0,001
-416,686	-152,357	0,194	0,010
-415,671	-200,000	-0,002	-0,084
-414,657	467,026	-0,059	0,097
-413,642	113,685	0,087	0,077
-412,628	573,879	-0,016	0,028
-411,613	800,000	-0,019	0,045
-410,598	800,000	-0,012	-0,037
-409,584	-112,630	0,075	-0,011
-408,569	223,183	0,069	0,082
-407,555	800,000	0,009	0,028
-406,540	-200,000	0,018	0,096
-405,525	67,387	-0,073	-0,055
-404,511	393,123	0,039	0,060
-403,496	-200,000	0,007	-0,042
-402,482	601,483	0,060	-0,110
-401,467	-200,000	-0,034	0,117
-400,452	-200,000	0,040	0,137
-399,438	514,037	0,042	0,073
-398,423	800,000	0,021	0,048
-397,409	6,395	-0,053	-0,029
-396,394	235,066	-0,034	0,042
-395,379	-19,958	0,036	-0,016
-394,365	337,472	0,035	0,050
-393,350	-200,000	0,004	-0,100
-392,336	800,000	-0,043	-0,095
-391,321	734,181	0,033	-0,066
-390,306	-164,177	-0,161	0,005
-389,292	-200,000	0,011	-0,049
-388,277	204,503	-0,077	-0,088
-387,263	-9,426	0,173	0,085
-386,248	-132,181	-0,099	-0,009
-385,233	-200,000	0,004	0,076
-384,219	800,000	-0,051	0,104
-383,204	300,862	-0,048	-0,066
-382,190	-200,000	0,025	-0,110
-381,175	593,514	0,041	0,076
-380,160	-200,000	-0,026	-0,149
-379,146	-150,053	0,070	-0,004
-378,131	-178,294	0,100	0,002
-377,117	-200,000	0,022	0,110
-376,102	81,318	-0,082	0,065
-375,088	-139,724	-0,097	-0,007
-374,073	-58,336	0,103	0,033
-373,058	-86,525	0,096	-0,021
-372,044	93,270	0,112	-0,093
-371,029	800,000	0,031	-0,097
-370,015	800,000	0,034	0,076
-369,000	345,962	0,048	-0,070
-367,985	800,000	-0,041	-0,109
-366,971	-200,000	-0,010	0,120
-365,956	800,000	0,016	0,036
-364,942	-200,000	-0,002	-0,074
-363,927	-200,000	-0,015	0,053
-362,912	800,000	0,025	-0,066
-361,898	-25,144	-0,160	0,069
-360,883	-174,396	-0,087	0,002
-359,869	-200,000	0,002	0,035
-358,854	93,821	-0,034	0,028
-357,839	-200,000	-0,041	0,178
-356,825	-200,000	-0,003	0,071
-355,810	-200,000	0,001	-0,064
-354,796	312,165	-0,029	0,040
-353,781	-118,176	-0,045	-0,006
-352,766	-16,841	-0,029	-0,013
-351,752	-200,000	0,003	0,084
-350,737	162,340	0,019	0,019
-349,723	-200,000	0,000	-0,053
-348,708	46,088	0,177	0,120
-347,693	27,759	-0,056	0,034
-346,679	152,501	0,058	-0,058
-345,664	242,121	-0,029	-0,036
-344,650	-106,173	0,050	-0,008
-343,635	50,518	0,051	0,036
-342,620	133,150	0,098	0,093
-341,606	408,384	-0,057	-0,088
-340,591	-200,000	0,020	-0,073
-339,577	-139,930	0,018	0,001
-338,562	-200,000	0,001	-0,024
-337,548	-200,000	0,031	-0,152
-336,533	16,137	0,106	0,061
-335,518	-107,737	0,081	-0,013
-334,504	371,661	0,044	-0,066
-333,489	416,848	0,007	-0,012
-332,475	-38,645	-0,179	-0,069
-331,460	-200,000	-0,011	-0,035
-330,445	-153,538	-0,077	0,004
-329,431	104,387	-0,076	-0,066
-328,416	416,461	0,050	-0,078
-327,402	155,943	0,081	-0,082
-326,387	273,959	-0,056	-0,072
-325,372	12,586	0,046	0,026
-324,358	9,645	0,139	-0,077
-323,343	800,000	-0,010	-0,025
-322,329	-145,711	-0,061	-0,004
-321,314	-20,450	0,037	-0,016
-320,299	-200,000	-0,016	0,184
-319,285	488,631	-0,024	-0,041
-318,270	-126,017	-0,092	-0,010
-317,256	-200,000	0,006	-0,039
-316,241	800,000	0,012	-0,026
-315,226	-200,000	0,013	-0,099
-314,212	-200,000	0,037	0,130
-313,197	51,723	0,067	-0,047
-312,183	-200,000	-0,037	0,168
-311,168	-65,536	-0,057	0,017
-310,153	568,999	-0,047	0,085
-309,139	268,847	0,025	-0,032
-308,124	310,899	-0,035	0,048
-307,110	-200,000	-0,000	0,028
-306,095	-200,000	-0,001	0,043
-305,080	162,377	0,076	-0,078
-304,066	32,174	0,013	0,008
-303,051	126,811	0,009	-0,008
-302,037	100,976	-0,144	0,123
-301,022	32,001	0,096	0,061
-300,008	800,000	0,021	0,064
-298,993	-200,000	-0,008	0,062
-297,978	36,554	-0,090	0,058
-296,964	713,554	0,031	-0,061
-295,949	515,706	0,076	0,130
-294,935	709,383	0,016	0,032
-293,920	26,602	0,044	0,027
-292,905	800,000	0,033	0,102
-291,891	-153,331	-0,105	0,005
-290,876	-200,000	-0,051	0,181
-289,862	800,000	0,023	0,062
-288,847	531,443	-0,032	-0,055
-287,832	242,707	-0,088	0,108
-286,818	-163,273	0,086	-0,003
-285,803	335,131	0,087	-0,123
-284,789	112,664	-0,091	0,080
-283,774	5,250	-0,058	-0,031
-282,759	-40,419	0,054	0,021
-281,745	-200,000	0,008	-0,054
-280,730	-200,000	-0,016	0,068
-279,716	800,000	0,019	-0,046
-278,701	800,000	0,008	0,022
-277,686	-146,456	0,066	-0,004
-276,672	592,527	-0,034	-0,062
-275,657	433,576	-0,020	0,032
-274,643	188,486	-0,097	0,107
-273,628	344,368	0,034	-0,049
-272,613	-85,654	0,124	0,028
-271,599	268,825	0,091	0,117
-270,584	800,000	-0,027	0,063
-269,570	-200,000	-0,002	0,115
-268,555	240,943	0,030	0,036
-267,540	484,438	-0,014	-0,023
-266,526	-21,265	-0,123	0,055
-265,511	227,967	0,083	-0,099
-264,497	381,330	0,039	0,058
-263,482	81,422	0,085	0,067
-262,467	-60,914	-0,103	0,032
-261,453	800,000	0,046	-0,096
-260,438	-200,000	-0,030	0,122
-259,424	346,722	-0,041	-0,059
-258,409	800,000	-0,035	0,111
-257,395	-200,000	-0,010	0,055
-256,380	-79,785	-0,091	-0,022
-255,365	800,000	-0,011	-0,031
-254,351	-18,214	-0,088	-0,040
-253,336	-74,809	-0,029	0,008
-252,322	-90,691	-0,111	0,023
-251,307	800,000	0,088	-0,217
-250,292	-200,000	-0,007	0,028
-249,278	800,000	-0,012	0,036
-248,263	87,662	0,100	0,081
-247,249	-200,000	-0,029	-0,130
-246,234	335,867	-0,095	0,135
-245,219	-200,000	0,000	0,031
-244,205	5,325	0,087	0,047
-243,190	-97,448	0,048	0,009
-242,176	458,903	0,019	-0,032
-241,161	201,545	0,101	0,114
-240,146	800,000	0,038	0,100
-239,132	293,307	0,063	-0,084
-238,117	-200,000	-0,019	-0,122
-237,103	8,802	0,121	0,066
-236,088	800,000	0,029	-0,075
-235,073	-47,863	0,045	-0,016
-234,059	-200,000	0,051	0,172
-233,044	-54,518	0,140	-0,046
-232,030	-53,746	-0,072	-0,024
-231,015	32,868	-0,015	0,010
-230,000	236,230	0,019	-0,024
-228,986	-83,827	0,042	0,010
-227,971	-200,000	0,004	0,040
-226,957	30,544	0,115	-0,072
-225,942	-200,000	0,004	-0,117
-224,927	111,197	-0,051	0,045
-223,913	74,772	0,019	-0,014
-222,898	393,295	-0,034	-0,052
-221,884	596,279	0,143	-0,259
-220,869	9,240	0,098	0,054
-219,855	77,949	-0,010	-0,008
-218,840	800,000	-0,023	0,053
-217,825	-125,984	0,158	0,017
-216,811	514,338	0,016	0,028
-215,796	-200,000	-0,013	-0,122
-214,782	-200,000	-0,009	-0,046
-213,767	401,010	-0,034	-0,052
-212,752	159,918	-0,060	0,061
-211,738	-50,591	0,064	-0,022
-210,723	184,191	0,087	-0,095
-209,709	135,400	0,091	-0,086
-208,694	-200,000	-0,007	0,065
-207,679	150,105	-0,038	0,038
-206,665	-200,000	-0,001	0,041
-205,650	-200,000	-0,003	-0,064
-204,636	51,130	-0,034	0,023
-203,621	-66,663	-0,091	0,026
-202,606	-169,452	0,071	-0,002
-201,592	-200,000	0,005	-0,021
-200,577	-200,000	0,001	-0,105
-199,563	-134,223	-0,090	0,008
-198,548	-144,943	0,102	0,007
-197,533	-27,818	0,154	0,065
-196,519	-200,000	0,018	-0,061
-195,504	164,838	0,071	0,073
-194,490	37,320	-0,060	-0,039
-193,475	800,000	0,024	0,052
-192,460	-112,686	-0,048	-0,007
-191,446	-75,462	-0,014	-0,004
-190,431	-200,000	0,003	0,036
-189,417	372,091	0,087	0,129
-188,402	319,278	0,086	-0,119
-187,387	416,197	-0,077	-0,120
-186,373	800,000	-0,058	-0,154
-185,358	800,000	-0,002	0,005
-184,344	-139,538	0,133	0,010
-183,329	-45,849	-0,107	0,038
-182,315	38,796	-0,078	0,051
-181,300	-47,583	0,033	0,012
-180,285	800,000	0,010	0,028
-179,271	89,708	-0,066	-0,053
-178,256	-97,682	-0,017	0,003
-177,242	282,971	0,033	-0,043
-176,227	218,825	0,030	0,036
-175,212	-200,000	-0,003	0,031
-174,198	-99,977	-0,085	-0,015
-173,183	-61,707	-0,137	-0,042
-172,169	140,540	0,021	-0,020
-171,154	227,967	0,052	0,061
-170,139	800,000	0,052	0,152
-169,125	-53,191	0,130	-0,043
-168,110	94,653	-0,046	-0,038
-167,096	-22,307	-0,053	0,023
-166,081	135,158	-0,071	-0,067
-165,066	800,000	-0,041	-0,127
-164,052	-200,000	0,032	-0,113
-163,037	297,526	0,076	0,101
-162,023	-118,461	-0,078	0,010
-161,008	29,202	0,040	-0,025
-159,993	-200,000	0,003	-0,038
-158,979	84,527	0,081	-0,065
-157,964	-58,310	0,059	-0,018
-156,950	257,037	-0,033	0,041
-155,935	-69,843	0,142	0,039
-154,920	-122,112	0,148	0,017
-153,906	413,270	0,019	-0,029
-152,891	514,296	0,023	0,040
-151,877	-3,786	0,039	0,020
-150,862	97,399	0,041	-0,034
-149,847	564,911	-0,055	-0,098
-148,833	-0,619	-0,073	0,038
-147,818	171,463	0,091	0,095
-146,804	544,939	-0,079	-0,137
-145,789	361,841	-0,014	0,021
-144,775	597,344	-0,035	-0,064
-143,760	-87,556	-0,015	-0,003
-142,745	-200,000	0,001	-0,053
-141,731	104,381	0,029	-0,025
-140,716	-13,376	0,041	-0,019
-139,702	800,000	-0,036	0,077
-138,687	167,634	0,114	0,118
-137,672	-200,000	-0,007	0,142
-136,658	-200,000	-0,033	-0,132
-135,643	-103,301	0,104	0,018
-134,629	141,956	0,076	-0,073
-133,614	-88,754	0,106	0,023
-132,599	270,184	0,063	0,081
-131,585	114,999	0,010	-0,009
-130,570	106,121	-0,013	-0,012
-129,556	800,000	-0,028	-0,083
-128,541	175,885	-0,150	-0,159
-127,526	800,000	-0,031	0,078
-126,512	-183,921	0,141	0,002
-125,497	-200,000	0,014	0,105
-124,483	-200,000	-0,055	0,259
-123,468	800,000	0,055	0,164
-122,453	464,781	0,031	0,050
-121,439	-200,000	-0,021	-0,156
-120,424	-97,084	0,053	-0,010
