DTS Sentinel unit serial number:	SN410029Multiplexer serial number:	ORYXHardware model number:	OX2-SRSoftware version number:	ORYX F/W v4,00 Oryx Data Collector v3.7.2.0data status	okinstallation	B6 Nyhavnadifferential loss correction	single-endedforward channel	channel 2reverse channel	N/Adate	2023/12/09time	00:20:08forward acquisition time	300,00reverse acquisition time	0,00gamma	499,1914k internal	0,3157k external	0,3157temperature offset calibration	1,0000default loss term (dB/km)	0,3820temperature slope calibration	1,0000multiplexer offset coefficient	1,0000multiplexer slope coefficient	1,0000fibre end	0,00T internal ref (°C)	15,57T ext. ref 1 (°C)	-0,84T ext. ref 2 (°C)	-0,87length (m)	temperature (°C)	Stokes	anti-Stokes-744,400	204,657	0,041	0,047
-743,385	-131,476	-0,324	0,031
-742,371	-124,455	0,194	0,022
-741,356	-88,719	-0,243	0,053
-740,342	-200,000	-0,024	0,103
-739,327	-108,857	-0,346	-0,054
-738,312	-6,701	0,074	0,037
-737,298	-115,521	-0,340	-0,047
-736,283	29,187	0,076	-0,048
-735,269	-29,750	-0,220	-0,092
-734,254	-95,608	0,016	-0,003
-733,239	-43,092	-0,434	-0,161
-732,225	-23,904	0,161	0,071
-731,210	-200,000	-0,037	-0,000
-730,196	-200,000	-0,031	0,107
-729,181	31,020	-0,026	0,016
-728,167	-42,117	-0,115	-0,043
-727,152	800,000	-0,007	0,018
-726,137	297,820	-0,020	-0,028
-725,123	132,954	-0,105	0,100
-724,108	27,281	-0,085	0,053
-723,094	81,042	-0,056	-0,045
-722,079	314,326	-0,053	-0,073
-721,064	67,065	-0,178	-0,133
-720,050	-200,000	0,011	-0,059
-719,035	-121,124	-0,065	0,008
-718,021	275,575	-0,068	-0,089
-717,006	-77,041	-0,046	0,012
-715,991	-200,000	-0,047	-0,165
-714,977	-200,000	-0,030	-0,129
-713,962	800,000	-0,074	0,153
-712,948	-155,462	0,102	-0,005
-711,933	-40,905	-0,091	-0,035
-710,918	-200,000	0,026	0,106
-709,904	309,347	-0,073	-0,101
-708,889	-68,765	0,092	-0,026
-707,875	451,610	-0,089	-0,146
-706,860	-200,000	0,030	0,149
-705,845	800,000	-0,068	0,147
-704,831	216,162	0,059	-0,069
-703,816	178,698	-0,027	0,029
-702,802	15,165	0,020	0,011
-701,787	800,000	-0,070	-0,144
-700,772	256,424	0,048	0,061
-699,758	146,435	0,083	0,082
-698,743	800,000	-0,019	-0,045
-697,729	105,158	0,094	0,082
-696,714	-70,477	-0,032	0,009
-695,699	-113,625	-0,094	0,013
-694,685	-200,000	0,005	-0,055
-693,670	53,749	-0,124	-0,087
-692,656	188,664	0,028	0,031
-691,641	-174,964	0,030	-0,001
-690,627	-200,000	0,028	0,135
-689,612	-73,538	0,119	0,032
-688,597	-200,000	-0,040	-0,171
-687,583	95,228	-0,105	-0,088
-686,568	130,517	-0,154	-0,145
-685,554	-200,000	-0,015	-0,096
-684,539	141,110	0,041	-0,040
-683,524	518,316	0,031	0,054
-682,510	-115,982	-0,067	-0,009
-681,495	800,000	-0,060	-0,131
-680,481	-55,229	-0,083	-0,027
-679,466	211,233	-0,089	-0,103
-678,451	-200,000	-0,075	-0,000
-677,437	-200,000	-0,073	0,000
-676,422	137,397	-0,044	0,042
-675,408	787,245	0,055	-0,112
-674,393	-133,226	-0,143	-0,013
-673,378	-200,000	0,035	-0,116
-672,364	-95,511	-0,155	-0,030
-671,349	800,000	-0,026	-0,084
-670,335	23,396	-0,045	-0,027
-669,320	105,520	0,119	-0,103
-668,305	800,000	-0,053	0,131
-667,291	11,434	-0,056	-0,031
-666,276	662,552	-0,056	-0,107
-665,262	-143,248	-0,175	-0,012
-664,247	82,315	-0,047	-0,037
-663,232	-200,000	0,025	-0,120
-662,218	648,807	0,063	0,120
-661,203	1,492	0,161	0,085
-660,189	331,594	-0,025	-0,035
-659,174	305,364	0,050	-0,069
-658,159	207,686	-0,095	-0,109
-657,145	42,374	-0,031	-0,021
-656,130	-11,180	0,090	-0,044
-655,116	-200,000	-0,013	0,133
-654,101	152,222	0,119	0,119
-653,086	167,139	-0,040	-0,042
-652,072	310,895	-0,067	-0,093
-651,057	250,019	-0,062	-0,078
-650,043	432,994	0,046	-0,074
-649,028	-60,249	-0,094	0,029
-648,014	800,000	0,026	0,068
-646,999	-28,253	0,040	0,017
-645,984	334,702	-0,092	0,132
-644,970	195,762	0,037	-0,042
-643,955	800,000	0,020	-0,042
-642,941	240,097	0,020	-0,025
-641,926	-200,000	0,005	-0,034
-640,911	-38,943	-0,019	0,007
-639,897	342,845	-0,057	0,082
-638,882	233,036	0,032	-0,039
-637,868	-200,000	0,026	-0,126
-636,853	9,328	-0,041	0,023
-635,838	800,000	0,050	-0,143
-634,824	-30,485	0,066	-0,027
-633,809	270,742	0,029	0,037
-632,795	-46,475	0,114	-0,041
-631,780	748,061	-0,037	0,074
-630,765	97,944	-0,065	-0,055
-629,751	-149,088	-0,134	-0,008
-628,736	-200,000	0,002	-0,101
-627,722	426,414	0,039	0,062
-626,707	-200,000	0,015	-0,065
-625,692	35,973	0,191	0,123
-624,678	800,000	-0,003	0,008
-623,663	770,576	-0,026	-0,053
-622,649	-200,000	-0,008	-0,056
-621,634	134,044	-0,134	-0,128
-620,619	800,000	-0,037	-0,100
-619,605	116,239	0,024	-0,021
-618,590	-33,489	0,097	0,039
-617,576	800,000	0,023	0,053
-616,561	-32,716	0,152	0,062
-615,546	-200,000	0,006	0,102
-614,532	-145,281	0,041	-0,003
-613,517	800,000	0,086	-0,204
-612,503	-200,000	0,007	-0,146
-611,488	464,758	0,057	-0,093
-610,474	-32,396	-0,059	0,024
-609,459	28,446	-0,117	-0,073
-608,444	-33,827	-0,113	0,045
-607,430	-34,263	-0,079	0,032
-606,415	40,628	-0,083	0,055
-605,401	205,455	0,048	-0,055
-604,386	-200,000	0,023	-0,096
-603,371	110,343	0,089	0,078
-602,357	283,351	-0,024	0,031
-601,342	-200,000	-0,006	-0,096
-600,328	-148,760	-0,175	-0,010
-599,313	-145,993	-0,103	0,007
-598,298	-200,000	-0,019	-0,082
-597,284	189,141	0,064	-0,070
-596,269	-200,000	0,002	-0,069
-595,255	28,449	0,043	-0,027
-594,240	-200,000	0,054	-0,178
-593,225	-113,966	-0,124	0,017
-592,211	-165,890	-0,111	-0,003
-591,196	25,434	-0,091	-0,055
-590,182	132,297	0,110	0,104
-589,167	154,958	-0,052	-0,053
-588,152	-200,000	-0,026	-0,093
-587,138	113,442	0,041	0,037
-586,123	62,882	0,082	0,060
-585,109	-53,440	-0,146	-0,049
-584,094	38,089	0,089	0,058
-583,079	-147,823	0,113	0,007
-582,065	800,000	-0,029	0,076
-581,050	-143,631	-0,129	0,009
-580,036	530,561	-0,087	-0,151
-579,021	28,987	-0,172	-0,107
-578,006	199,108	-0,057	0,064
-576,992	800,000	0,017	0,054
-575,977	-200,000	-0,013	0,053
-574,963	-114,698	-0,102	0,014
-573,948	306,970	0,013	0,018
-572,934	800,000	0,006	0,016
-571,919	566,774	-0,048	-0,085
-570,904	-200,000	-0,025	-0,119
-569,890	110,867	-0,064	-0,057
-568,875	-110,254	0,121	0,018
-567,861	-200,000	-0,046	0,151
-566,846	492,624	-0,102	0,172
-565,831	119,416	-0,029	-0,026
-564,817	-60,146	-0,085	0,026
-563,802	-43,006	-0,127	0,047
-562,788	-77,659	0,029	0,007
-561,773	800,000	-0,036	-0,093
-560,758	142,086	0,084	-0,081
-559,744	-112,279	0,033	-0,005
-558,729	-83,238	-0,052	0,012
-557,715	-200,000	0,006	0,033
-556,700	536,140	0,042	0,073
-555,685	800,000	-0,026	0,073
-554,671	147,669	-0,133	0,132
-553,656	424,992	-0,042	0,067
-552,642	404,214	0,081	0,125
-551,627	-200,000	-0,024	0,124
-550,612	94,397	0,029	-0,024
-549,598	-200,000	-0,009	-0,121
-548,583	83,784	-0,027	-0,021
-547,569	172,537	-0,044	-0,047
-546,554	-18,366	0,058	-0,026
-545,539	-65,407	-0,073	-0,021
-544,525	-200,000	-0,022	0,110
-543,510	-200,000	0,013	0,130
-542,496	120,946	-0,071	0,065
-541,481	-200,000	-0,001	0,029
-540,466	301,185	-0,044	0,060
-539,452	-200,000	0,000	0,033
-538,437	335,313	-0,026	-0,037
-537,423	-200,000	-0,033	-0,170
-536,408	-104,061	0,066	-0,011
-535,393	-200,000	-0,006	-0,044
-534,379	-200,000	-0,017	-0,116
-533,364	-83,831	0,120	0,028
-532,350	67,408	-0,075	0,056
-531,335	-200,000	0,006	0,217
-530,321	-200,000	-0,007	-0,046
-529,306	-47,946	0,039	-0,014
-528,291	193,108	-0,030	-0,034
-527,277	800,000	-0,018	-0,047
-526,262	250,981	0,028	0,035
-525,248	247,280	-0,079	0,097
-524,233	463,139	0,060	0,099
-523,218	-200,000	0,016	0,054
-522,204	202,050	-0,056	-0,063
-521,189	-200,000	0,001	0,060
-520,175	-200,000	0,009	-0,114
-519,160	-200,000	0,043	-0,164
-518,145	-200,000	0,021	-0,158
-517,131	227,117	-0,084	0,100
-516,116	345,483	0,043	0,061
-515,102	-200,000	0,010	0,138
-514,087	188,692	0,067	0,073
-513,072	67,728	-0,086	-0,064
-512,058	-200,000	0,002	-0,068
-511,043	629,609	0,034	0,063
-510,029	-89,189	0,215	0,046
-509,014	201,166	-0,068	0,076
-507,999	-155,372	-0,114	-0,005
-506,985	358,633	-0,034	-0,050
-505,970	88,697	0,071	-0,057
-504,956	202,225	0,041	-0,046
-503,941	-175,366	0,188	-0,004
-502,926	-119,878	0,052	0,006
-501,912	-200,000	-0,017	0,074
-500,897	-24,751	0,034	0,015
-499,883	-200,000	0,020	0,126
-498,868	270,246	0,080	-0,103
-497,853	800,000	0,031	0,065
-496,839	-23,750	-0,057	-0,025
-495,824	-150,965	0,109	0,006
-494,810	-122,484	0,062	0,007
-493,795	-200,000	-0,017	0,136
-492,781	70,436	0,125	0,095
-491,766	800,000	-0,036	-0,108
-490,751	-142,820	0,203	0,014
-489,737	329,621	-0,036	0,051
-488,722	81,350	0,107	0,085
-487,708	-200,000	-0,000	0,098
-486,693	91,924	0,024	0,020
-485,678	-118,159	-0,141	-0,018
-484,664	31,006	-0,037	-0,023
-483,649	-200,000	-0,026	-0,088
-482,635	-36,334	-0,091	-0,035
-481,620	-50,911	0,090	-0,031
-480,605	269,531	0,043	-0,055
-479,591	618,385	0,042	0,078
-478,576	335,953	-0,011	0,016
-477,562	184,635	-0,111	-0,120
-476,547	98,749	0,069	0,058
-475,532	368,949	-0,045	0,067
-474,518	-200,000	0,010	-0,049
-473,503	-110,279	-0,129	0,019
-472,489	381,579	-0,005	-0,008
-471,474	-200,000	-0,002	-0,071
-470,459	-200,000	0,022	0,142
-469,445	-106,076	-0,043	0,007
-468,430	120,805	-0,038	-0,035
-467,416	7,243	-0,024	-0,013
-466,401	-34,532	0,141	0,056
-465,386	-157,694	0,056	-0,002
-464,372	-179,837	-0,016	0,000
-463,357	-200,000	-0,004	-0,118
-462,343	18,041	-0,092	-0,054
-461,328	-200,000	0,002	-0,076
-460,313	-110,096	0,031	-0,005
-459,299	-200,000	0,014	0,051
-458,284	-200,000	-0,004	0,022
-457,270	79,324	0,154	-0,120
-456,255	6,678	-0,131	0,071
-455,241	186,942	0,029	-0,032
-454,226	-200,000	0,010	-0,055
-453,211	417,690	0,050	-0,078
-452,197	-200,000	0,005	-0,059
-451,182	24,743	-0,075	0,045
-450,168	-2,385	-0,036	0,019
-449,153	-200,000	0,019	0,134
-448,138	58,619	-0,076	-0,054
-447,124	88,044	0,065	0,053
-446,109	-200,000	-0,013	0,162
-445,095	675,641	-0,053	0,100
-444,080	286,122	0,068	0,090
-443,065	41,609	0,113	0,074
-442,051	-66,546	0,111	0,032
-441,036	286,999	-0,020	-0,027
-440,022	-200,000	0,001	0,033
-439,007	800,000	-0,021	-0,067
-437,992	800,000	0,019	0,040
-436,978	-200,000	0,015	0,303
-435,963	38,103	0,122	0,079
-434,949	-200,000	0,008	-0,100
-433,934	-200,000	-0,002	-0,018
-432,919	-93,674	-0,101	0,020
-431,905	382,543	0,077	-0,115
-430,890	97,675	0,116	-0,097
-429,876	113,485	0,070	0,062
-428,861	245,747	-0,059	-0,072
-427,846	-131,939	-0,073	0,007
-426,832	6,929	-0,108	-0,058
-425,817	-21,982	0,025	0,011
-424,803	-66,585	-0,008	-0,002
-423,788	53,068	0,028	-0,019
-422,773	245,835	-0,041	0,050
-421,759	-200,000	0,014	-0,199
-420,744	-200,000	-0,009	-0,188
-419,730	240,278	0,031	-0,038
-418,715	-154,578	0,160	0,008
-417,701	-200,000	-0,008	-0,136
-416,686	195,808	0,038	0,042
-415,671	48,257	-0,137	0,093
-414,657	-200,000	-0,008	0,037
-413,642	-72,737	-0,045	-0,012
-412,628	34,923	-0,068	0,043
-411,613	65,476	-0,061	0,045
-410,598	389,911	0,116	0,175
-409,584	-200,000	0,015	0,175
-408,569	-102,728	0,126	0,022
-407,555	27,963	0,061	0,037
-406,540	800,000	-0,030	0,074
-405,525	275,511	0,060	-0,077
-404,511	-200,000	0,006	0,128
-403,496	-77,127	-0,160	-0,040
-402,482	-24,892	0,129	0,055
-401,467	-200,000	0,008	-0,084
-400,452	246,710	0,063	-0,077
-399,438	-157,404	0,054	0,002
-398,423	-200,000	0,010	-0,119
-397,409	175,441	-0,092	-0,097
-396,394	400,288	-0,016	0,024
-395,379	532,838	-0,022	0,038
-394,365	16,097	-0,067	-0,038
-393,350	20,931	0,041	0,024
-392,336	440,583	0,026	-0,042
-391,321	-102,394	-0,050	0,009
-390,306	800,000	0,081	-0,240
-389,292	800,000	-0,055	-0,133
-388,277	-200,000	-0,007	-0,095
-387,263	-133,733	0,014	0,001
-386,248	-200,000	-0,009	0,111
-385,233	-145,299	0,120	-0,008
-384,219	-81,947	-0,076	-0,018
-383,204	761,311	-0,031	0,062
-382,190	198,782	0,009	0,010
-381,175	-63,606	0,072	0,021
-380,160	-200,000	-0,027	-0,169
-379,146	800,000	0,027	-0,059
-378,131	-140,740	0,099	0,007
-377,117	314,262	0,094	0,129
-376,102	18,170	-0,061	-0,035
-375,088	65,323	-0,075	-0,055
-374,073	274,368	-0,016	0,020
-373,058	14,432	-0,075	0,042
-372,044	-200,000	0,012	0,057
-371,029	-200,000	-0,006	0,182
-370,015	800,000	-0,008	0,020
-369,000	-200,000	-0,003	-0,166
-367,985	399,316	-0,040	0,060
-366,971	-200,000	-0,003	0,139
-365,956	495,183	-0,029	0,048
-364,942	40,011	-0,124	0,081
-363,927	735,068	0,025	0,048
-362,912	454,610	0,031	-0,049
-361,898	-63,764	-0,163	-0,048
-360,883	74,471	-0,043	-0,033
-359,869	470,021	0,028	0,045
-358,854	-200,000	0,005	-0,036
-357,839	800,000	0,037	0,109
-356,825	-200,000	-0,003	0,052
-355,810	504,541	-0,072	-0,121
-354,796	-53,663	-0,004	0,001
-353,781	800,000	-0,044	-0,128
-352,766	181,460	-0,067	0,071
-351,752	-161,556	0,079	0,003
-350,737	-200,000	-0,007	0,100
-349,723	800,000	-0,030	0,088
-348,708	123,169	-0,062	-0,056
-347,693	-23,078	-0,061	-0,027
-346,679	-71,082	-0,140	-0,038
-345,664	303,077	-0,056	0,076
-344,650	800,000	0,013	0,036
-343,635	252,978	0,051	0,063
-342,620	95,556	0,146	0,121
-341,606	-33,197	0,089	-0,036
-340,591	-128,993	-0,118	0,012
-339,577	800,000	-0,029	-0,075
-338,562	185,959	-0,030	-0,032
-337,548	46,645	-0,029	0,019
-336,533	-118,724	0,065	0,008
-335,518	592,716	0,049	0,089
-334,504	485,247	-0,071	0,118
-333,489	-200,000	0,003	-0,039
-332,475	160,089	0,018	-0,018
-331,460	800,000	-0,044	-0,128
-330,445	-182,118	0,208	-0,003
-329,431	551,014	-0,031	0,054
-328,416	59,215	0,037	0,026
-327,402	-174,475	-0,090	0,002
-326,387	179,184	-0,104	0,110
-325,372	-200,000	-0,042	0,156
-324,358	-200,000	-0,024	-0,138
-323,343	-193,136	-0,036	-0,000
-322,329	151,525	-0,054	-0,054
-321,314	408,024	0,117	0,180
-320,299	349,860	0,038	-0,054
-319,285	800,000	-0,042	0,113
-318,270	588,210	0,055	-0,098
-317,256	-200,000	-0,002	-0,052
-316,241	225,716	0,067	-0,079
-315,226	-200,000	-0,005	0,081
-314,212	800,000	-0,072	0,176
-313,197	400,006	0,089	0,136
-312,183	800,000	-0,003	-0,008
-311,168	31,740	-0,078	-0,049
-310,153	76,273	0,069	-0,053
-309,139	800,000	0,004	0,009
-308,124	-61,955	0,106	0,032
-307,110	25,922	-0,017	-0,010
-306,095	800,000	-0,039	-0,111
-305,080	150,996	0,097	0,096
-304,066	99,736	-0,041	0,034
-303,051	-200,000	0,023	-0,084
-302,037	-200,000	0,027	-0,200
-301,022	80,776	0,053	-0,042
-300,008	-200,000	0,027	0,089
-298,993	-164,522	-0,057	0,002
-297,978	6,078	-0,075	0,040
-296,964	754,112	0,041	-0,081
-295,949	-123,806	0,117	-0,013
-294,935	-67,363	-0,138	0,039
-293,920	-200,000	-0,036	-0,132
-292,905	-200,000	-0,011	0,093
-291,891	-200,000	-0,015	0,081
-290,876	394,430	0,052	-0,079
-289,862	11,895	-0,088	0,049
-288,847	90,126	-0,057	0,046
-287,832	255,379	-0,031	-0,039
-286,818	-124,598	0,097	-0,011
-285,803	800,000	-0,008	-0,019
-284,789	-87,477	0,027	0,006
-283,774	-40,943	0,104	0,039
-282,759	473,104	0,020	-0,033
-281,745	350,980	-0,034	0,049
-280,730	-200,000	0,004	-0,045
-279,716	800,000	0,060	-0,136
-278,701	771,271	0,025	-0,050
-277,686	-31,789	-0,031	0,012
-276,672	157,496	0,035	-0,035
-275,657	-200,000	-0,000	-0,075
-274,643	234,878	0,026	-0,032
-273,628	800,000	0,041	-0,122
-272,613	198,171	0,064	-0,071
-271,599	800,000	-0,023	-0,059
-270,584	800,000	0,007	0,019
-269,570	244,059	0,119	0,145
-268,555	-124,397	0,114	-0,013
-267,540	800,000	0,048	-0,124
-266,526	-151,181	-0,035	-0,002
-265,511	94,903	-0,039	-0,032
-264,497	-84,063	0,147	-0,034
-263,482	800,000	-0,031	0,087
-262,467	800,000	0,048	0,114
-261,453	-142,688	-0,191	0,013
-260,438	0,794	0,058	0,030
-259,424	800,000	0,029	-0,069
-258,409	800,000	0,048	-0,148
-257,395	38,612	-0,089	-0,058
-256,380	320,627	0,021	-0,029
-255,365	37,377	-0,137	0,087
-254,351	-124,279	-0,068	0,008
-253,336	-90,880	-0,084	0,017
-252,322	1,816	-0,147	-0,076
-251,307	-200,000	0,001	-0,037
-250,292	-17,483	0,000	0,000
-249,278	-14,206	-0,064	-0,030
-248,263	128,350	-0,045	-0,041
-247,249	-25,065	-0,046	0,019
-246,234	-200,000	0,016	-0,080
-245,219	800,000	0,026	0,055
-244,205	800,000	-0,047	-0,104
-243,190	-14,920	-0,080	-0,037
-242,176	800,000	-0,032	0,067
-241,161	-107,092	0,045	-0,007
-240,146	800,000	0,067	0,148
-239,132	-57,577	-0,040	0,013
-238,117	-84,514	-0,123	0,028
-237,103	-54,299	0,039	-0,013
-236,088	258,237	0,082	-0,102
-235,073	84,142	0,037	0,029
-234,059	-9,259	0,101	-0,049
-233,044	-35,492	-0,103	-0,040
-232,030	27,571	-0,072	0,044
-231,015	-130,554	0,095	0,009
-230,000	-200,000	0,027	-0,092
-228,986	-200,000	-0,006	-0,018
-227,971	-75,441	-0,119	-0,030
-226,957	-166,655	0,060	0,002
-225,942	71,862	-0,047	-0,035
-224,927	-45,574	0,200	0,071
-223,913	-64,850	-0,057	0,017
-222,898	-163,190	0,170	-0,006
-221,884	-200,000	-0,009	0,034
-220,869	-200,000	0,008	0,102
-219,855	-97,834	0,074	0,014
-218,840	-200,000	-0,006	0,032
-217,825	800,000	-0,007	-0,019
-216,811	228,092	-0,034	-0,039
-215,796	98,724	0,107	0,089
-214,782	547,349	-0,017	0,030
-213,767	-92,761	0,016	-0,003
-212,752	126,578	-0,067	0,061
-211,738	800,000	-0,014	0,040
-210,723	-143,296	0,192	-0,013
-209,709	-15,734	0,117	-0,054
-208,694	67,695	-0,085	-0,063
-207,679	651,264	0,027	-0,051
-206,665	-99,083	0,010	0,002
-205,650	14,225	0,063	0,036
-204,636	-92,866	-0,078	-0,016
-203,621	-200,000	0,006	-0,081
-202,606	-95,127	0,078	0,015
-201,592	17,903	-0,145	0,083
-200,577	-114,691	0,093	-0,013
-199,563	-15,873	0,103	-0,047
-198,548	93,886	-0,114	0,093
-197,533	-42,804	-0,018	0,007
-196,519	41,254	-0,080	0,052
-195,504	-114,643	-0,011	-0,002
-194,490	195,855	-0,068	-0,074
-193,475	434,680	-0,033	-0,052
-192,460	800,000	-0,011	-0,029
-191,446	285,769	0,025	0,033
-190,431	800,000	0,041	0,085
-189,417	-200,000	0,006	0,127
-188,402	154,822	-0,081	-0,081
-187,387	14,389	0,027	-0,015
-186,373	-200,000	0,015	0,069
-185,358	360,120	-0,046	0,067
-184,344	440,555	-0,032	0,050
-183,329	-200,000	-0,003	0,113
-182,315	-200,000	0,018	-0,136
-181,300	158,623	-0,139	-0,140
-180,285	245,333	0,082	-0,100
-179,271	-63,042	-0,116	-0,034
-178,256	800,000	-0,014	-0,032
-177,242	-198,349	0,079	0,000
-176,227	57,880	0,050	-0,036
-175,212	38,594	-0,038	-0,024
-174,198	-72,376	0,115	0,030
-173,183	-53,598	-0,141	-0,046
-172,169	800,000	0,067	-0,141
-171,154	800,000	0,027	-0,077
-170,139	-200,000	-0,004	0,114
-169,125	112,525	0,045	0,039
-168,110	800,000	-0,013	0,026
-167,096	530,520	-0,029	-0,050
-166,081	385,570	0,036	0,054
-165,066	-200,000	-0,025	-0,081
-164,052	18,724	0,153	-0,088
-163,037	44,600	0,063	-0,041
-162,023	800,000	-0,049	0,116
-161,008	-2,005	0,052	0,026
-159,993	800,000	0,039	-0,092
-158,979	170,727	0,029	0,029
-157,964	-175,798	-0,082	0,002
-156,950	-200,000	0,041	0,220
-155,935	-59,717	-0,175	0,054
-154,920	-23,724	-0,080	0,034
-153,906	-126,707	0,204	0,022
-152,891	-0,286	0,051	-0,026
-151,877	-200,000	0,009	-0,063
-150,862	-134,640	0,122	0,011
-149,847	-200,000	0,030	-0,130
-148,833	-47,583	0,055	-0,019
-147,818	621,546	0,087	0,158
-146,804	-200,000	0,025	0,084
-145,789	-4,610	-0,084	0,042
-144,775	-200,000	-0,010	-0,046
-143,760	3,180	-0,042	0,022
-142,745	209,417	-0,030	-0,034
-141,731	-200,000	-0,019	0,094
-140,716	-200,000	-0,001	-0,012
-139,702	461,769	-0,044	0,070
-138,687	800,000	0,025	-0,058
-137,672	261,139	-0,051	0,063
-136,658	10,075	-0,046	-0,025
-135,643	800,000	-0,069	-0,169
-134,629	800,000	0,055	0,124
-133,614	-200,000	-0,008	0,034
-132,599	-200,000	0,012	0,118
-131,585	-200,000	0,007	0,027
-130,570	60,583	0,085	-0,061
-129,556	-200,000	-0,017	-0,113
-128,541	4,318	0,075	-0,040
-127,526	-200,000	-0,008	-0,035
-126,512	-97,323	-0,008	0,002
-125,497	-200,000	0,008	-0,131
-124,483	40,373	0,079	-0,051
-123,468	217,882	0,079	0,091
-122,453	13,863	0,123	-0,069
-121,439	-130,858	-0,065	0,006
-120,424	-89,747	0,054	-0,011
-119,410	-85,457	0,242	0,054
