DTS Sentinel unit serial number:	SN410029Multiplexer serial number:	ORYXHardware model number:	OX2-SRSoftware version number:	ORYX F/W v4,00 Oryx Data Collector v3.7.2.0data status	okinstallation	B6 Nyhavnadifferential loss correction	single-endedforward channel	channel 2reverse channel	N/Adate	2023/12/08time	00:25:08forward acquisition time	300,00reverse acquisition time	0,00gamma	499,1914k internal	0,3164k external	0,3164temperature offset calibration	1,0000default loss term (dB/km)	0,3820temperature slope calibration	1,0000multiplexer offset coefficient	1,0000multiplexer slope coefficient	1,0000fibre end	0,00T internal ref (°C)	13,33T ext. ref 1 (°C)	-3,56T ext. ref 2 (°C)	-3,56length (m)	temperature (°C)	Stokes	anti-Stokes-744,400	-200,000	-0,023	-0,078
-743,385	-182,621	-0,349	0,005
-742,371	20,947	0,178	0,106
-741,356	-178,792	-0,236	-0,004
-740,342	800,000	0,079	0,213
-739,327	-107,639	-0,160	0,025
-738,312	178,348	-0,013	-0,014
-737,298	-123,734	-0,238	-0,027
-736,283	-32,765	0,192	0,078
-735,269	-135,629	-0,423	0,036
-734,254	185,956	0,123	0,134
-733,239	5,858	-0,424	-0,230
-732,225	-109,076	0,214	-0,033
-731,210	800,000	0,013	-0,031
-730,196	245,510	-0,050	-0,063
-729,181	800,000	-0,051	-0,143
-728,167	-8,623	-0,133	-0,066
-727,152	179,838	-0,047	-0,051
-726,137	800,000	0,003	0,007
-725,123	-200,000	0,001	-0,054
-724,108	-200,000	-0,009	0,072
-723,094	-130,356	-0,119	-0,012
-722,079	-99,392	-0,088	-0,016
-721,064	264,491	0,061	-0,078
-720,050	800,000	-0,101	-0,215
-719,035	-18,522	-0,112	-0,051
-718,021	-200,000	0,017	-0,141
-717,006	129,088	-0,120	-0,113
-715,991	159,363	-0,145	-0,149
-714,977	663,627	-0,013	-0,024
-713,962	155,109	-0,059	-0,059
-712,948	-200,000	-0,004	0,104
-711,933	-200,000	-0,012	0,084
-710,918	317,070	0,032	-0,044
-709,904	-68,393	0,027	0,008
-708,889	159,636	-0,060	-0,062
-707,875	-21,660	-0,130	0,058
-706,860	-200,000	-0,005	0,039
-705,845	800,000	-0,042	-0,132
-704,831	250,065	0,024	-0,030
-703,816	-200,000	-0,006	-0,125
-702,802	181,559	-0,069	0,075
-701,787	800,000	-0,019	0,045
-700,772	214,194	0,054	0,063
-699,758	17,578	-0,157	-0,092
-698,743	-45,881	-0,081	-0,029
-697,729	-200,000	0,005	-0,027
-696,714	342,980	0,080	0,116
-695,699	90,110	-0,109	-0,090
-694,685	214,929	-0,164	-0,191
-693,670	627,308	0,049	-0,091
-692,656	-130,964	-0,061	0,006
-691,641	-200,000	0,001	0,077
-690,627	98,075	0,079	-0,067
-689,612	-197,268	-0,055	0,000
-688,597	800,000	0,016	-0,040
-687,583	-18,058	-0,192	-0,088
-686,568	-135,657	0,166	-0,014
-685,554	-71,740	0,030	-0,008
-684,539	26,712	0,076	-0,047
-683,524	-200,000	-0,006	0,091
-682,510	94,573	0,028	-0,024
-681,495	-33,120	-0,189	-0,077
-680,481	-200,000	-0,003	-0,109
-679,466	-200,000	-0,002	-0,029
-678,451	126,867	0,136	-0,127
-677,437	-76,989	-0,079	0,020
-676,422	-200,000	0,009	0,099
-675,408	36,111	-0,114	-0,074
-674,393	-164,219	-0,038	-0,001
-673,378	-109,572	-0,138	0,021
-672,364	-120,627	-0,165	0,020
-671,349	-19,352	-0,052	0,023
-670,335	-122,148	0,023	-0,003
-669,320	320,175	0,026	-0,037
-668,305	-34,586	-0,036	0,014
-667,291	-200,000	0,019	-0,175
-666,276	800,000	0,043	-0,116
-665,262	234,775	0,018	-0,022
-664,247	800,000	0,042	-0,101
-663,232	-200,000	-0,024	0,119
-662,218	-126,672	0,080	-0,009
-661,203	192,043	-0,041	0,045
-660,189	-200,000	-0,011	0,049
-659,174	800,000	0,067	-0,158
-658,159	50,409	-0,144	-0,100
-657,145	82,732	-0,122	-0,097
-656,130	-200,000	-0,023	-0,080
-655,116	-16,114	-0,069	-0,032
-654,101	-200,000	-0,012	-0,085
-653,086	118,110	-0,031	0,028
-652,072	800,000	-0,016	0,039
-651,057	-16,429	0,099	0,046
-650,043	-162,372	0,104	0,004
-649,028	-94,666	-0,102	0,020
-648,014	49,451	-0,032	0,022
-646,999	-116,241	-0,083	0,011
-645,984	-183,495	-0,072	0,001
-644,970	-92,548	0,076	-0,016
-643,955	4,382	-0,065	-0,035
-642,941	85,222	-0,107	-0,086
-641,926	-200,000	0,042	0,148
-640,911	551,365	0,024	0,042
-639,897	-98,694	0,055	-0,010
-638,882	-137,356	-0,141	0,012
-637,868	255,989	0,033	-0,041
-636,853	800,000	-0,005	0,012
-635,838	800,000	0,023	0,053
-634,824	-35,806	-0,123	-0,048
-633,809	-200,000	0,022	0,093
-632,795	127,869	-0,122	0,113
-631,780	-200,000	0,002	-0,071
-630,765	265,431	-0,019	-0,025
-629,751	46,493	-0,095	-0,064
-628,736	-160,923	0,099	-0,004
-627,722	-200,000	0,011	-0,086
-626,707	78,602	0,052	-0,041
-625,692	712,381	0,064	-0,124
-624,678	-200,000	0,010	-0,048
-623,663	-200,000	-0,025	-0,150
-622,649	-75,092	-0,115	0,030
-621,634	87,903	-0,074	-0,060
-620,619	800,000	-0,021	0,050
-619,605	800,000	-0,053	-0,154
-618,590	800,000	-0,040	-0,121
-617,576	-200,000	0,009	0,117
-616,561	224,142	-0,052	-0,062
-615,546	465,400	0,036	0,060
-614,532	97,607	-0,088	0,074
-613,517	76,233	0,082	-0,064
-612,503	529,694	-0,058	-0,101
-611,488	-88,359	0,123	0,027
-610,474	332,873	-0,023	0,033
-609,459	47,003	-0,087	-0,059
-608,444	-114,087	0,043	0,006
-607,430	152,661	0,043	-0,043
-606,415	107,900	-0,091	-0,079
-605,401	157,658	-0,078	-0,079
-604,386	2,728	0,046	-0,024
-603,371	800,000	0,026	-0,074
-602,357	-200,000	0,006	-0,020
-601,342	-101,225	0,132	-0,023
-600,328	-200,000	0,017	-0,090
-599,313	-128,243	-0,082	0,008
-598,298	800,000	-0,035	0,098
-597,284	-8,016	0,102	-0,050
-596,269	800,000	0,055	-0,122
-595,255	800,000	0,055	0,129
-594,240	233,180	-0,051	-0,062
-593,225	-186,261	-0,102	-0,001
-592,211	-98,068	-0,124	-0,023
-591,196	-200,000	0,009	0,134
-590,182	-200,000	0,020	0,108
-589,167	-58,388	0,063	-0,020
-588,152	251,268	0,059	-0,073
-587,138	-200,000	0,020	0,092
-586,123	550,290	0,082	0,145
-585,109	458,003	-0,047	0,077
-584,094	-200,000	-0,003	0,066
-583,079	800,000	0,036	-0,095
-582,065	-114,154	0,028	0,004
-581,050	800,000	0,015	-0,039
-580,036	-200,000	-0,008	-0,026
-579,021	-176,892	-0,139	0,003
-578,006	-200,000	0,017	-0,145
-576,992	597,820	0,016	-0,029
-575,977	406,219	0,039	0,061
-574,963	-47,590	-0,131	0,046
-573,948	-200,000	0,029	0,108
-572,934	4,092	-0,081	-0,043
-571,919	183,642	-0,057	-0,062
-570,904	148,430	-0,028	0,027
-569,890	-2,657	0,083	-0,043
-568,875	-200,000	0,013	0,070
-567,861	-200,000	0,012	0,074
-566,846	-110,982	0,121	0,018
-565,831	-77,738	-0,095	0,024
-564,817	-151,529	-0,125	-0,007
-563,802	-200,000	-0,015	0,057
-562,788	-109,147	0,082	0,013
-561,773	-117,621	-0,127	-0,017
-560,758	-200,000	-0,003	-0,018
-559,744	-200,000	0,011	0,037
-558,729	1,395	-0,138	-0,072
-557,715	-113,964	-0,065	-0,009
-556,700	35,395	0,069	-0,044
-555,685	800,000	-0,024	0,057
-554,671	-200,000	0,014	-0,077
-553,656	601,032	-0,039	0,071
-552,642	189,784	0,015	0,017
-551,627	457,417	0,020	-0,033
-550,612	380,017	-0,039	0,058
-549,598	65,442	0,131	-0,097
-548,583	31,688	0,112	0,070
-547,569	-200,000	-0,053	0,175
-546,554	120,163	0,080	0,072
-545,539	95,198	0,075	-0,063
-544,525	-6,515	-0,165	-0,082
-543,510	-37,074	-0,038	0,015
-542,496	800,000	-0,038	-0,108
-541,481	-59,957	-0,045	-0,014
-540,466	603,760	-0,072	-0,131
-539,452	483,832	-0,076	-0,127
-538,437	674,987	0,048	0,091
-537,423	-200,000	0,009	-0,046
-536,408	-200,000	0,029	-0,184
-535,393	107,346	0,065	-0,057
-534,379	-112,672	-0,091	0,013
-533,364	313,121	-0,027	0,037
-532,350	800,000	0,039	-0,114
-531,335	-99,924	0,108	0,019
-530,321	396,419	-0,064	-0,098
-529,306	-200,000	0,044	-0,178
-528,291	-134,433	-0,062	0,005
-527,277	800,000	-0,064	-0,149
-526,262	34,093	-0,198	-0,125
-525,248	-200,000	-0,001	-0,067
-524,233	275,533	0,088	0,114
-523,218	-200,000	0,009	-0,054
-522,204	800,000	-0,056	0,128
-521,189	800,000	0,013	-0,029
-520,175	407,219	-0,060	0,092
-519,160	20,334	0,036	0,021
-518,145	160,777	-0,021	0,022
-517,131	-200,000	0,054	0,185
-516,116	60,322	0,084	0,061
-515,102	76,160	0,096	-0,074
-514,087	783,635	-0,010	-0,020
-513,072	800,000	0,062	-0,131
-512,058	-200,000	0,024	-0,081
-511,043	-200,000	-0,004	-0,136
-510,029	-163,971	-0,061	-0,002
-509,014	21,765	0,100	0,059
-507,999	433,528	0,065	-0,103
-506,985	-53,421	0,060	-0,020
-505,970	-200,000	-0,019	-0,099
-504,956	132,348	-0,114	-0,107
-503,941	-200,000	0,018	-0,184
-502,926	34,333	0,063	-0,040
-501,912	-94,835	-0,077	0,015
-500,897	-67,911	0,051	-0,014
-499,883	-200,000	0,002	-0,082
-498,868	-18,705	-0,033	0,015
-497,853	-29,583	-0,061	0,025
-496,839	288,240	0,060	0,079
-495,824	-116,041	0,118	0,016
-494,810	-50,379	-0,070	0,024
-493,795	-200,000	0,026	0,135
-492,781	-130,244	0,036	-0,004
-491,766	12,229	-0,084	0,047
-490,751	591,519	-0,060	0,109
-489,737	-138,159	-0,109	0,009
-488,722	-83,733	0,091	0,021
-487,708	86,360	-0,089	0,072
-486,693	6,504	0,090	0,049
-485,678	-20,772	-0,009	-0,004
-484,664	107,561	-0,078	-0,068
-483,649	-200,000	0,026	-0,116
-482,635	346,063	-0,076	0,109
-481,620	-9,837	-0,076	0,037
-480,605	98,172	0,084	0,070
-479,591	60,632	0,058	-0,041
-478,576	800,000	-0,042	0,108
-477,562	-200,000	-0,022	-0,137
-476,547	-200,000	-0,097	-0,000
-475,532	-18,991	-0,117	0,053
-474,518	-54,163	0,061	-0,020
-473,503	-200,000	-0,014	0,114
-472,489	800,000	0,019	0,055
-471,474	-109,101	0,086	-0,013
-470,459	-77,116	-0,079	-0,020
-469,445	1,513	0,081	-0,042
-468,430	800,000	-0,009	-0,028
-467,416	485,356	0,061	-0,101
-466,401	-200,000	0,094	0,000
-465,386	651,311	0,012	0,022
-464,372	170,055	-0,052	-0,055
-463,357	-99,742	0,033	-0,006
-462,343	-200,000	0,015	-0,182
-461,328	364,747	0,077	0,113
-460,313	-65,632	0,086	-0,025
-459,299	76,881	0,138	0,107
-458,284	585,437	-0,066	0,119
-457,270	-200,000	0,022	0,097
-456,255	233,110	0,009	-0,011
-455,241	-125,260	0,097	-0,011
-454,226	-200,000	-0,033	-0,125
-453,211	234,016	0,034	0,041
-452,197	-56,276	0,068	-0,022
-451,182	-200,000	0,003	0,134
-450,168	-101,444	-0,111	-0,019
-449,153	202,641	0,031	-0,035
-448,138	-86,562	-0,122	0,027
-447,124	-27,429	0,081	0,034
-446,109	800,000	0,015	-0,045
-445,095	800,000	-0,020	-0,041
-444,080	69,090	0,119	0,089
-443,065	35,990	-0,077	0,049
-442,051	164,978	0,097	0,100
-441,036	225,228	-0,043	-0,051
-440,022	140,079	-0,084	-0,081
-439,007	333,363	0,122	0,172
-437,992	800,000	0,035	0,085
-436,978	170,077	0,047	0,049
-435,963	-74,502	0,052	-0,013
-434,949	209,122	0,082	-0,093
-433,934	40,158	0,139	0,091
-432,919	163,794	-0,055	-0,056
-431,905	-25,847	0,116	0,049
-430,890	-200,000	-0,020	-0,117
-429,876	-200,000	-0,002	0,040
-428,861	63,274	0,079	0,057
-427,846	-31,735	-0,088	-0,036
-426,832	800,000	-0,079	-0,200
-425,817	402,865	0,045	-0,069
-424,803	-200,000	0,014	-0,079
-423,788	85,553	0,066	0,053
-422,773	-5,420	0,039	-0,019
-421,759	-80,127	-0,052	0,013
-420,744	82,298	0,086	-0,068
-419,730	-200,000	-0,025	-0,084
-418,715	-200,000	-0,029	-0,174
-417,701	252,293	0,064	-0,080
-416,686	34,137	0,167	0,105
-415,671	-89,438	-0,102	-0,022
-414,657	225,848	-0,034	0,040
-413,642	123,994	-0,031	-0,028
-412,628	-200,000	0,006	-0,053
-411,613	28,019	-0,097	-0,059
-410,598	-200,000	0,000	0,016
-409,584	739,806	0,026	0,050
-408,569	299,157	0,017	-0,022
-407,555	-200,000	0,020	0,109
-406,540	80,525	-0,056	-0,044
-405,525	-200,000	-0,010	-0,123
-404,511	745,159	-0,017	0,033
-403,496	152,475	0,011	-0,011
-402,482	617,507	0,035	-0,063
-401,467	-200,000	0,069	0,246
-400,452	800,000	-0,036	0,082
-399,438	-179,321	0,053	-0,001
-398,423	-200,000	-0,011	0,116
-397,409	-200,000	-0,035	-0,155
-396,394	-200,000	-0,065	-0,217
-395,379	-14,017	-0,072	-0,033
-394,365	-200,000	-0,010	-0,041
-393,350	800,000	0,031	0,085
-392,336	-92,671	0,082	-0,016
-391,321	800,000	-0,037	0,083
-390,306	-94,511	-0,053	-0,010
-389,292	212,383	0,023	0,026
-388,277	-121,947	0,072	0,008
-387,263	40,322	0,078	0,051
-386,248	800,000	-0,029	-0,083
-385,233	-200,000	0,018	0,131
-384,219	-200,000	0,023	-0,146
-383,204	800,000	0,015	-0,036
-382,190	-88,538	-0,099	-0,021
-381,175	-158,293	0,137	-0,006
-380,160	-49,300	0,096	0,033
-379,146	-200,000	0,016	0,053
-378,131	800,000	0,058	0,126
-377,117	-200,000	0,001	0,039
-376,102	3,704	-0,117	-0,062
-375,088	422,850	0,056	-0,088
-374,073	-200,000	-0,006	0,070
-373,058	-86,850	0,035	-0,008
-372,044	800,000	0,027	0,066
-371,029	800,000	0,051	0,127
-370,015	165,570	-0,073	0,075
-369,000	-106,451	-0,036	0,006
-367,985	-154,561	-0,040	-0,002
-366,971	-200,000	0,001	-0,139
-365,956	-35,928	0,088	-0,034
-364,942	-123,823	-0,037	0,004
-363,927	800,000	0,039	0,099
-362,912	180,127	-0,044	0,046
-361,898	-200,000	0,019	0,100
-360,883	-200,000	0,000	-0,059
-359,869	-200,000	0,010	-0,092
-358,854	-200,000	-0,009	-0,047
-357,839	64,340	0,038	-0,028
-356,825	-200,000	-0,022	0,091
-355,810	-14,844	0,101	0,047
-354,796	-59,756	-0,122	0,038
-353,781	800,000	-0,030	-0,094
-352,766	308,723	0,041	0,056
-351,752	-200,000	0,027	-0,111
-350,737	-38,988	-0,089	-0,034
-349,723	218,799	0,026	-0,030
-348,708	561,862	-0,054	-0,095
-347,693	382,724	-0,039	-0,058
-346,679	-200,000	-0,017	-0,172
-345,664	-77,285	0,131	-0,033
-344,650	-200,000	0,023	-0,089
-343,635	74,379	0,064	0,048
-342,620	91,148	-0,038	0,030
-341,606	-200,000	-0,004	-0,063
-340,591	149,200	-0,094	-0,092
-339,577	-11,983	-0,014	-0,007
-338,562	104,685	-0,049	-0,042
-337,548	-200,000	-0,014	-0,062
-336,533	-200,000	0,017	0,080
-335,518	-200,000	-0,020	0,063
-334,504	94,192	0,100	0,082
-333,489	-34,714	0,067	0,026
-332,475	-200,000	0,024	0,098
-331,460	-45,136	-0,093	-0,033
-330,445	-55,150	-0,066	0,021
-329,431	138,052	0,039	0,037
-328,416	-162,750	0,007	0,000
-327,402	-200,000	-0,005	-0,029
-326,387	216,993	0,029	0,034
-325,372	800,000	0,057	-0,131
-324,358	201,206	-0,118	-0,132
-323,343	800,000	-0,014	-0,033
-322,329	66,325	0,084	0,062
-321,314	800,000	0,044	-0,131
-320,299	288,120	0,062	-0,081
-319,285	-115,704	-0,020	0,003
-318,270	-66,695	-0,075	0,021
-317,256	-154,845	0,044	0,002
-316,241	-103,617	-0,027	0,005
-315,226	-200,000	-0,026	-0,088
-314,212	78,964	-0,033	-0,026
-313,197	61,429	-0,038	-0,028
-312,183	-200,000	0,002	0,065
-311,168	800,000	-0,003	0,007
-310,153	-93,934	-0,156	0,031
-309,139	329,343	-0,050	0,069
-308,124	23,079	0,210	0,125
-307,110	35,764	-0,101	0,064
-306,095	-97,263	0,107	-0,020
-305,080	-25,639	-0,019	0,008
-304,066	-56,161	0,085	0,027
-303,051	-149,755	-0,176	0,010
-302,037	162,736	-0,029	-0,030
-301,022	-200,000	0,013	0,151
-300,008	46,843	-0,087	-0,059
-298,993	262,216	-0,060	0,075
-297,978	-185,166	0,096	-0,001
-296,964	-17,730	-0,094	0,042
-295,949	695,044	0,036	-0,069
-294,935	800,000	-0,005	0,011
-293,920	542,491	-0,020	-0,035
-292,905	-101,518	-0,073	0,013
-291,891	-92,572	-0,057	0,011
-290,876	351,777	-0,045	0,064
-289,862	800,000	0,023	0,051
-288,847	118,550	0,027	0,024
-287,832	11,231	0,073	-0,040
-286,818	-53,270	0,061	-0,020
-285,803	-130,573	0,040	0,004
-284,789	-200,000	0,016	0,218
-283,774	-200,000	0,019	0,102
-282,759	-61,578	-0,081	-0,024
-281,745	800,000	0,045	-0,111
-280,730	24,186	-0,155	0,092
-279,716	-117,180	-0,171	0,022
-278,701	-200,000	-0,003	0,048
-277,686	-200,000	-0,009	0,098
-276,672	800,000	0,075	0,193
-275,657	-121,855	0,122	-0,014
-274,643	-80,977	-0,111	0,026
-273,628	-126,593	-0,149	-0,016
-272,613	-200,000	-0,008	0,046
-271,599	438,667	-0,050	0,079
-270,584	461,220	0,059	0,095
-269,570	800,000	0,034	0,085
-268,555	-200,000	-0,001	0,088
-267,540	-84,067	0,121	0,027
-266,526	-200,000	-0,007	-0,078
-265,511	27,677	0,131	-0,079
-264,497	-200,000	0,014	0,109
-263,482	-126,327	-0,087	0,009
-262,467	51,855	0,068	0,047
-261,453	-200,000	0,002	-0,042
-260,438	172,942	-0,123	0,128
-259,424	-56,937	-0,068	-0,022
-258,409	114,390	0,110	-0,096
-257,395	217,841	-0,041	-0,047
-256,380	800,000	-0,017	0,045
-255,365	-50,479	-0,016	0,005
-254,351	371,906	0,077	-0,114
-253,336	-200,000	-0,003	0,040
-252,322	136,550	-0,095	-0,090
-251,307	-200,000	-0,026	-0,161
-250,292	-66,752	0,063	-0,018
-249,278	17,633	0,117	0,067
-248,263	522,961	0,009	0,015
-247,249	110,433	-0,132	0,114
-246,234	-38,821	0,109	-0,041
-245,219	-110,146	-0,026	0,004
-244,205	-200,000	-0,003	0,081
-243,190	178,727	0,065	-0,068
-242,176	216,196	0,109	0,125
-241,161	800,000	0,067	0,173
-240,146	-200,000	0,004	0,085
-239,132	245,450	-0,040	0,049
-238,117	-7,244	0,021	0,010
-237,103	-45,745	0,036	0,013
-236,088	-200,000	0,001	0,058
-235,073	-78,118	0,164	0,040
-234,059	403,976	0,037	0,056
-233,044	-33,105	-0,049	0,019
-232,030	-57,986	-0,096	-0,030
-231,015	750,087	-0,022	-0,043
-230,000	269,107	0,017	-0,022
-228,986	-200,000	0,009	-0,069
-227,971	-85,855	0,093	0,021
-226,957	191,675	0,085	0,092
-225,942	79,770	0,047	0,037
-224,927	7,783	-0,100	0,054
-223,913	-119,089	-0,030	-0,004
-222,898	-141,838	-0,124	-0,009
-221,884	46,391	-0,006	-0,004
-220,869	159,392	0,109	0,109
-219,855	6,723	-0,110	0,059
-218,840	9,395	0,057	0,031
-217,825	800,000	0,056	-0,116
-216,811	800,000	-0,093	-0,211
-215,796	-183,325	0,108	0,001
-214,782	112,583	0,056	-0,049
-213,767	480,250	-0,061	0,100
-212,752	439,924	0,022	0,034
-211,738	-200,000	0,029	0,185
-210,723	106,062	0,113	0,096
-209,709	800,000	-0,018	-0,046
-208,694	800,000	-0,027	-0,078
-207,679	484,916	-0,037	-0,061
-206,665	334,381	-0,026	-0,036
-205,650	-70,689	0,029	0,008
-204,636	800,000	-0,073	0,171
-203,621	800,000	-0,034	0,093
-202,606	49,275	-0,030	0,020
-201,592	-21,720	-0,154	0,067
-200,577	-200,000	0,010	-0,105
-199,563	388,327	0,044	0,066
-198,548	-200,000	0,012	0,091
-197,533	360,401	-0,080	-0,116
-196,519	-200,000	0,010	-0,132
-195,504	800,000	-0,010	-0,026
-194,490	47,812	-0,220	-0,148
-193,475	-126,032	-0,070	-0,008
-192,460	-43,547	-0,054	0,020
-191,446	-12,282	0,084	-0,039
-190,431	-200,000	-0,043	0,231
-189,417	24,437	-0,126	0,075
-188,402	-158,103	-0,124	-0,005
-187,387	-177,501	-0,004	0,000
-186,373	-173,075	0,096	0,002
-185,358	-29,902	-0,032	0,013
-184,344	32,330	0,042	-0,026
-183,329	-200,000	0,010	0,057
-182,315	314,177	0,057	0,077
-181,300	-200,000	0,001	0,024
-180,285	-200,000	-0,005	0,087
-179,271	425,801	0,051	0,080
-178,256	500,306	-0,018	-0,029
-177,242	271,157	0,045	-0,058
-176,227	305,744	0,018	-0,024
-175,212	199,766	-0,041	-0,045
-174,198	200,202	-0,027	0,030
-173,183	-132,293	-0,105	0,010
-172,169	-200,000	0,022	-0,082
-171,154	-115,013	0,072	-0,010
-170,139	-45,303	0,184	-0,065
-169,125	-78,491	0,065	0,016
-168,110	-77,124	-0,056	0,014
-167,096	204,472	0,072	-0,081
-166,081	800,000	0,037	0,101
-165,066	192,414	-0,067	0,073
-164,052	2,618	-0,058	0,030
-163,037	-200,000	0,007	-0,062
-162,023	22,550	0,090	-0,053
-161,008	351,532	0,026	0,037
-159,993	328,361	0,060	0,083
-158,979	800,000	-0,025	0,058
-157,964	800,000	-0,032	-0,082
-156,950	332,068	0,090	-0,125
-155,935	-41,901	0,098	-0,036
-154,920	353,137	0,053	-0,076
-153,906	-133,488	0,028	0,003
-152,891	95,422	0,075	0,062
-151,877	-147,643	0,116	-0,007
-150,862	-200,000	0,001	-0,093
-149,847	-105,450	0,096	-0,016
-148,833	800,000	-0,036	-0,079
-147,818	14,385	0,055	0,031
-146,804	-200,000	-0,057	0,219
-145,789	-200,000	-0,017	0,151
-144,775	-68,944	-0,149	0,041
-143,760	62,725	-0,047	-0,033
-142,745	67,361	-0,138	-0,101
-141,731	218,956	0,071	-0,082
-140,716	231,514	-0,094	-0,111
-139,702	-200,000	0,023	0,091
-138,687	800,000	0,030	-0,067
-137,672	437,533	-0,084	-0,133
-136,658	-200,000	0,021	-0,148
-135,643	172,770	0,036	0,037
-134,629	-200,000	0,011	-0,044
-133,614	133,207	-0,122	-0,113
-132,599	-200,000	0,012	-0,110
-131,585	148,359	0,074	0,072
-130,570	-66,425	-0,063	-0,018
-129,556	-44,647	-0,085	-0,030
-128,541	13,659	0,106	0,059
-127,526	-40,396	0,102	0,038
-126,512	-35,024	-0,085	-0,033
-125,497	-36,432	0,077	-0,029
-124,483	192,890	0,106	0,115
-123,468	-185,099	-0,017	-0,000
-122,453	-105,876	0,051	0,008
-121,439	-200,000	-0,025	-0,112
-120,424	403,746	-0,075	-0,114
