DTS Sentinel unit serial number:	SN410029Multiplexer serial number:	ORYXHardware model number:	OX2-SRSoftware version number:	ORYX F/W v4,00 Oryx Data Collector v3.7.2.0data status	okinstallation	B6 Nyhavnadifferential loss correction	single-endedforward channel	channel 2reverse channel	N/Adate	2023/12/11time	04:30:08forward acquisition time	300,00reverse acquisition time	0,00gamma	499,1914k internal	0,3126k external	0,3126temperature offset calibration	1,0000default loss term (dB/km)	0,3820temperature slope calibration	1,0000multiplexer offset coefficient	1,0000multiplexer slope coefficient	1,0000fibre end	0,00T internal ref (°C)	20,53T ext. ref 1 (°C)	3,28T ext. ref 2 (°C)	3,28length (m)	temperature (°C)	Stokes	anti-Stokes-744,400	-87,646	-0,072	0,016
-743,385	-155,617	-0,176	-0,008
-742,371	147,395	0,032	0,032
-741,356	121,721	-0,205	0,190
-740,342	-96,426	-0,089	-0,017
-739,327	-106,724	-0,195	0,032
-738,312	-200,000	-0,036	-0,128
-737,298	-109,912	-0,245	0,038
-736,283	-200,000	0,012	-0,043
-735,269	438,081	-0,122	0,199
-734,254	182,102	0,050	-0,055
-733,239	-116,816	-0,367	-0,049
-732,225	434,924	0,047	-0,077
-731,210	800,000	0,015	0,032
-730,196	-200,000	-0,008	-0,148
-729,181	800,000	-0,037	-0,087
-728,167	20,632	0,007	-0,004
-727,152	800,000	0,023	-0,056
-726,137	620,671	-0,012	-0,023
-725,123	-125,940	-0,235	-0,026
-724,108	208,776	-0,073	-0,085
-723,094	-200,000	-0,032	-0,170
-722,079	800,000	-0,065	-0,170
-721,064	-155,121	-0,096	0,005
-720,050	83,506	0,023	0,019
-719,035	800,000	0,056	0,123
-718,021	800,000	0,006	-0,017
-717,006	800,000	-0,028	-0,077
-715,991	183,383	-0,042	-0,046
-714,977	297,633	-0,043	0,059
-713,962	-200,000	-0,009	0,083
-712,948	-97,319	0,128	-0,025
-711,933	107,470	-0,051	0,045
-710,918	228,673	0,030	0,036
-709,904	478,866	-0,059	-0,100
-708,889	-66,131	0,051	-0,015
-707,875	103,076	0,068	-0,060
-706,860	153,953	-0,085	-0,087
-705,845	-200,000	0,016	-0,117
-704,831	-15,105	0,054	-0,026
-703,816	-130,432	0,051	0,005
-702,802	-15,800	0,042	-0,020
-701,787	800,000	-0,032	-0,070
-700,772	-16,986	-0,119	-0,056
-699,758	-12,532	0,150	-0,073
-698,743	-2,735	0,075	-0,039
-697,729	-200,000	0,001	0,095
-696,714	172,309	-0,055	0,059
-695,699	281,293	0,034	-0,045
-694,685	-3,910	-0,076	0,039
-693,670	38,690	-0,105	-0,069
-692,656	-80,737	-0,035	0,009
-691,641	254,960	0,061	-0,078
-690,627	800,000	-0,055	0,165
-689,612	141,267	-0,094	-0,092
-688,597	800,000	0,050	-0,128
-687,583	-200,000	-0,013	-0,057
-686,568	-151,364	-0,051	-0,003
-685,554	-200,000	-0,004	-0,059
-684,539	800,000	-0,006	-0,014
-683,524	-6,631	-0,114	-0,057
-682,510	-200,000	0,029	0,124
-681,495	-200,000	-0,033	0,118
-680,481	-200,000	0,002	-0,016
-679,466	23,105	-0,056	-0,034
-678,451	197,413	-0,064	0,072
-677,437	-125,764	-0,092	0,010
-676,422	33,238	0,064	0,041
-675,408	800,000	-0,052	-0,126
-674,393	42,603	-0,038	-0,026
-673,378	218,113	0,031	-0,037
-672,364	-114,463	-0,070	0,010
-671,349	800,000	0,041	-0,087
-670,335	19,024	-0,006	0,004
-669,320	-11,761	0,051	0,025
-668,305	-200,000	0,001	0,103
-667,291	28,238	-0,176	-0,110
-666,276	722,965	-0,034	-0,067
-665,262	-200,000	0,015	0,085
-664,247	-23,389	-0,069	-0,031
-663,232	101,016	0,043	0,037
-662,218	-200,000	0,022	0,084
-661,203	56,391	0,058	-0,042
-660,189	800,000	0,027	0,076
-659,174	46,760	-0,067	-0,046
-658,159	34,771	0,049	0,032
-657,145	182,377	-0,046	-0,051
-656,130	471,608	0,057	0,095
-655,116	298,261	0,044	0,061
-654,101	397,054	0,076	0,118
-653,086	-200,000	0,008	-0,214
-652,072	-122,786	-0,067	0,008
-651,057	-83,474	-0,073	0,017
-650,043	-16,988	-0,178	-0,083
-649,028	145,353	0,083	-0,082
-648,014	-16,169	0,092	0,043
-646,999	683,410	-0,056	0,109
-645,984	1,947	-0,052	0,028
-644,970	-200,000	0,007	-0,108
-643,955	160,700	0,074	-0,076
-642,941	-200,000	0,026	-0,100
-641,926	800,000	-0,006	0,020
-640,911	412,537	0,037	-0,058
-639,897	251,296	0,068	0,086
-638,882	800,000	0,034	-0,094
-637,868	198,961	-0,084	-0,096
-636,853	50,545	-0,058	0,041
-635,838	175,897	0,024	0,025
-634,824	114,844	-0,099	-0,090
-633,809	-70,795	0,185	0,051
-632,795	-58,456	0,023	0,007
-631,780	674,382	0,042	0,080
-630,765	344,661	-0,045	-0,065
-629,751	218,205	0,123	-0,146
-628,736	-26,181	-0,052	0,023
-627,722	800,000	-0,054	0,139
-626,707	-200,000	-0,007	0,032
-625,692	-200,000	0,004	-0,059
-624,678	-200,000	0,002	-0,028
-623,663	12,308	0,070	-0,040
-622,649	228,600	-0,056	-0,068
-621,634	-200,000	0,030	-0,105
-620,619	-62,987	-0,166	0,050
-619,605	800,000	-0,037	-0,095
-618,590	69,437	0,054	0,041
-617,576	54,806	0,162	0,116
-616,561	447,394	0,045	-0,074
-615,546	314,576	-0,047	-0,066
-614,532	598,063	-0,039	0,072
-613,517	33,215	-0,089	-0,057
-612,503	-200,000	0,026	-0,101
-611,488	519,258	0,064	-0,112
-610,474	800,000	0,023	-0,051
-609,459	-200,000	0,004	0,084
-608,444	-10,126	-0,122	0,060
-607,430	-2,992	-0,093	0,048
-606,415	108,913	-0,041	-0,036
-605,401	657,147	-0,029	-0,055
-604,386	-45,603	0,062	0,022
-603,371	337,386	-0,053	-0,077
-602,357	431,225	-0,045	0,072
-601,342	488,344	0,019	0,033
-600,328	101,761	-0,064	0,055
-599,313	800,000	-0,067	-0,140
-598,298	-74,491	0,095	0,025
-597,284	229,033	0,112	-0,136
-596,269	-155,932	-0,170	-0,008
-595,255	55,135	0,118	-0,084
-594,240	-14,815	-0,047	-0,022
-593,225	101,523	-0,162	-0,140
-592,211	-200,000	-0,025	0,135
-591,196	742,119	-0,043	-0,086
-590,182	-70,953	0,184	-0,051
-589,167	27,986	0,006	-0,004
-588,152	-200,000	0,015	-0,051
-587,138	140,644	-0,064	0,062
-586,123	119,596	-0,079	-0,073
-585,109	-200,000	-0,032	-0,183
-584,094	106,800	0,032	-0,028
-583,079	-200,000	0,015	0,071
-582,065	800,000	-0,024	0,052
-581,050	783,297	0,094	0,192
-580,036	-200,000	-0,001	-0,042
-579,021	481,603	0,023	0,039
-578,006	-103,429	-0,041	-0,007
-576,992	-118,938	0,014	0,002
-575,977	35,663	-0,059	-0,038
-574,963	45,249	0,083	0,057
-573,948	71,020	0,151	0,116
-572,934	-47,941	-0,148	-0,053
-571,919	-200,000	0,014	-0,137
-570,904	-53,796	-0,067	-0,023
-569,890	-117,065	0,062	0,008
-568,875	-113,955	0,088	0,012
-567,861	-83,986	0,051	-0,012
-566,846	-200,000	0,004	-0,020
-565,831	-85,438	-0,092	-0,021
-564,817	-200,000	-0,002	-0,024
-563,802	785,485	0,037	-0,076
-562,788	-49,788	0,054	0,019
-561,773	238,038	0,052	-0,064
-560,758	-36,250	-0,179	-0,071
-559,744	-34,740	-0,048	-0,019
-558,729	777,842	-0,059	0,121
-557,715	-57,682	-0,178	-0,057
-556,700	181,869	0,059	0,064
-555,685	181,142	0,051	-0,055
-554,671	-200,000	-0,003	0,029
-553,656	109,123	0,092	-0,081
-552,642	118,956	-0,039	0,035
-551,627	-128,405	-0,081	-0,008
-550,612	-16,110	-0,131	0,061
-549,598	-167,944	-0,086	-0,002
-548,583	-28,785	0,154	-0,065
-547,569	-79,398	0,083	-0,021
-546,554	299,625	-0,032	0,043
-545,539	412,354	0,048	-0,075
-544,525	676,879	-0,095	0,184
-543,510	-200,000	-0,010	-0,062
-542,496	221,133	-0,009	-0,011
-541,481	-7,362	-0,057	-0,028
-540,466	-23,207	-0,142	-0,063
-539,452	-200,000	-0,003	-0,033
-538,437	-200,000	0,012	0,084
-537,423	-30,546	0,041	0,017
-536,408	800,000	0,007	-0,020
-535,393	-16,475	-0,091	-0,042
-534,379	-200,000	-0,008	-0,038
-533,364	7,645	-0,009	-0,005
-532,350	-108,557	0,105	-0,016
-531,335	-200,000	-0,000	0,002
-530,321	-68,511	0,091	-0,026
-529,306	94,880	-0,037	-0,031
-528,291	14,673	-0,089	0,051
-527,277	-112,683	0,120	0,017
-526,262	-27,460	0,045	0,019
-525,248	184,914	0,073	-0,080
-524,233	62,111	0,056	0,041
-523,218	-200,000	-0,008	0,063
-522,204	-192,354	0,136	0,001
-521,189	61,263	-0,091	-0,067
-520,175	-35,517	0,112	-0,045
-519,160	149,326	-0,031	-0,031
-518,145	132,130	-0,150	0,143
-517,131	-127,339	0,033	0,003
-516,116	-27,005	0,035	0,015
-515,102	-200,000	-0,007	-0,059
-514,087	130,353	0,080	0,076
-513,072	-200,000	-0,030	-0,244
-512,058	-6,025	-0,086	0,043
-511,043	125,186	0,101	-0,094
-510,029	-124,037	-0,135	0,015
-509,014	-133,261	-0,121	0,011
-507,999	-200,000	0,005	-0,022
-506,985	-78,475	-0,067	-0,017
-505,970	-200,000	0,006	-0,063
-504,956	-94,675	-0,066	0,013
-503,941	-200,000	-0,007	-0,030
-502,926	-45,669	0,132	-0,048
-501,912	-62,730	0,115	0,035
-500,897	217,170	-0,022	-0,026
-499,883	-200,000	-0,015	-0,175
-498,868	86,825	0,155	-0,126
-497,853	190,270	-0,089	-0,099
-496,839	-68,313	0,016	-0,004
-495,824	-68,032	0,177	-0,051
-494,810	800,000	-0,037	0,102
-493,795	-200,000	0,006	0,198
-492,781	139,341	0,017	-0,017
-491,766	800,000	-0,020	0,048
-490,751	-113,497	-0,109	0,016
-489,737	27,008	0,055	-0,034
-488,722	401,001	-0,038	0,058
-487,708	-94,133	0,159	0,032
-486,693	800,000	0,040	0,115
-485,678	-78,237	-0,090	0,023
-484,664	17,446	-0,069	0,040
-483,649	563,473	-0,077	-0,138
-482,635	-40,535	-0,115	-0,044
-481,620	272,233	-0,049	-0,064
-480,605	-200,000	0,006	0,035
-479,591	293,581	-0,046	0,062
-478,576	-63,667	0,081	0,024
-477,562	619,521	-0,058	-0,108
-476,547	126,738	-0,060	-0,056
-475,532	-22,494	0,032	0,014
-474,518	78,669	-0,062	0,049
-473,503	-73,622	0,088	-0,024
-472,489	-200,000	0,020	-0,082
-471,474	-64,578	-0,031	0,009
-470,459	-11,662	-0,056	-0,027
-469,445	6,423	-0,076	0,042
-468,430	-11,532	-0,084	0,041
-467,416	750,756	-0,016	-0,031
-466,401	172,626	0,039	0,041
-465,386	187,491	0,068	0,074
-464,372	-39,927	0,033	0,013
-463,357	800,000	-0,032	0,099
-462,343	-200,000	0,049	-0,258
-461,328	139,965	-0,045	0,044
-460,313	450,382	-0,015	-0,024
-459,299	144,816	0,109	-0,107
-458,284	58,569	0,136	0,098
-457,270	-76,275	-0,109	-0,028
-456,255	230,159	-0,059	-0,071
-455,241	-200,000	0,013	-0,094
-454,226	9,084	-0,143	-0,079
-453,211	800,000	0,035	-0,109
-452,197	237,641	0,059	0,073
-451,182	-118,563	-0,064	0,008
-450,168	-150,626	0,094	0,005
-449,153	159,694	0,037	-0,038
-448,138	126,333	-0,097	0,090
-447,124	-200,000	-0,026	0,177
-446,109	157,356	0,108	-0,110
-445,095	604,604	-0,037	-0,068
-444,080	-25,174	0,078	0,034
-443,065	-75,548	-0,130	-0,034
-442,051	-69,182	0,075	-0,021
-441,036	128,871	-0,051	-0,048
-440,022	-117,815	-0,117	0,015
-439,007	800,000	0,011	0,025
-437,992	-26,844	0,025	0,011
-436,978	123,188	-0,046	-0,042
-435,963	800,000	-0,020	-0,045
-434,949	35,280	-0,125	0,081
-433,934	-200,000	-0,002	-0,062
-432,919	83,399	-0,059	-0,047
-431,905	152,851	0,090	-0,090
-430,890	-200,000	0,087	0,000
-429,876	90,292	0,094	0,078
-428,861	85,178	-0,013	-0,010
-427,846	-154,836	-0,141	0,007
-426,832	41,239	-0,054	0,036
-425,817	-38,235	-0,190	0,074
-424,803	-135,235	0,020	-0,002
-423,788	-22,194	0,030	-0,013
-422,773	-72,305	0,070	0,019
-421,759	17,746	-0,090	-0,053
-420,744	-75,033	0,139	0,036
-419,730	25,545	0,036	-0,022
-418,715	-200,000	-0,016	-0,082
-417,701	182,591	-0,104	-0,113
-416,686	-100,611	0,063	0,011
-415,671	-58,231	0,162	0,052
-414,657	216,349	-0,044	-0,051
-413,642	-136,019	0,133	0,011
-412,628	292,152	-0,032	0,042
-411,613	24,053	0,055	-0,034
-410,598	800,000	-0,048	-0,120
-409,584	-60,959	0,041	-0,013
-408,569	220,797	-0,039	-0,046
-407,555	-200,000	-0,005	-0,110
-406,540	673,011	-0,026	0,049
-405,525	-87,607	-0,114	-0,025
-404,511	-151,833	0,030	-0,002
-403,496	800,000	0,016	-0,034
-402,482	190,599	0,067	-0,074
-401,467	69,904	0,091	0,069
-400,452	-200,000	-0,011	0,076
-399,438	-96,640	0,060	0,011
-398,423	612,348	0,034	0,063
-397,409	-77,876	-0,106	0,027
-396,394	59,278	0,047	-0,034
-395,379	78,116	-0,116	0,091
-394,365	-56,920	0,099	-0,032
-393,350	58,558	-0,097	0,070
-392,336	233,506	-0,117	0,141
-391,321	800,000	-0,047	0,122
-390,306	87,327	-0,088	-0,071
-389,292	197,595	-0,168	-0,189
-388,277	-200,000	0,001	0,031
-387,263	-200,000	0,008	0,070
-386,248	95,000	0,055	0,046
-385,233	58,168	-0,091	0,065
-384,219	261,078	0,033	0,042
-383,204	122,602	0,062	0,057
-382,190	800,000	0,041	-0,115
-381,175	-200,000	-0,003	-0,050
-380,160	-40,289	-0,075	0,028
-379,146	-200,000	-0,001	-0,106
-378,131	-200,000	0,008	-0,111
-377,117	-73,685	-0,026	0,007
-376,102	-80,147	-0,124	-0,030
-375,088	69,795	-0,088	-0,066
-374,073	-16,759	-0,060	0,028
-373,058	542,644	-0,034	0,060
-372,044	-112,698	0,141	0,020
-371,029	800,000	0,021	-0,048
-370,015	-31,667	-0,091	0,038
-369,000	81,711	-0,122	-0,097
-367,985	59,831	0,149	-0,108
-366,971	369,581	0,019	0,028
-365,956	561,292	0,033	-0,060
-364,942	669,481	-0,026	0,049
-363,927	101,289	0,114	0,097
-362,912	-200,000	0,026	0,092
-361,898	-154,702	0,096	0,005
-360,883	-200,000	0,011	0,117
-359,869	57,143	0,111	-0,080
-358,854	-200,000	-0,013	-0,099
-357,839	-66,744	-0,060	0,017
-356,825	64,490	0,062	0,046
-355,810	339,048	0,071	0,101
-354,796	-200,000	0,009	-0,101
-353,781	-200,000	0,002	-0,043
-352,766	-200,000	-0,015	-0,056
-351,752	-200,000	-0,002	0,032
-350,737	-200,000	0,015	0,153
-349,723	-26,226	0,097	-0,042
-348,708	-76,171	-0,099	-0,025
-347,693	56,328	-0,067	0,048
-346,679	86,326	0,043	-0,035
-345,664	800,000	0,019	-0,056
-344,650	429,069	-0,043	0,069
-343,635	-39,971	-0,024	0,009
-342,620	374,777	0,070	0,106
-341,606	-7,233	-0,062	-0,031
-340,591	111,262	0,061	-0,054
-339,577	-200,000	0,013	0,082
-338,562	6,410	-0,133	-0,072
-337,548	-200,000	0,041	0,136
-336,533	-28,018	-0,054	0,023
-335,518	335,053	0,080	0,114
-334,504	800,000	0,014	0,036
-333,489	-71,885	-0,020	0,005
-332,475	-200,000	0,007	-0,052
-331,460	-81,094	-0,149	0,036
-330,445	-101,020	0,121	0,022
-329,431	-200,000	0,044	0,165
-328,416	800,000	0,026	0,054
-327,402	800,000	0,013	0,041
-326,387	-200,000	0,040	0,241
-325,372	-54,165	-0,139	0,046
-324,358	-137,194	-0,251	0,021
-323,343	51,742	-0,073	0,051
-322,329	800,000	0,047	-0,101
-321,314	414,910	-0,024	-0,038
-320,299	749,263	-0,021	0,042
-319,285	-8,966	-0,045	0,022
-318,270	114,413	0,051	0,045
-317,256	56,421	-0,065	-0,046
-316,241	707,283	-0,047	-0,092
-315,226	-5,965	-0,098	-0,049
-314,212	31,607	-0,058	-0,036
-313,197	23,570	0,156	0,094
-312,183	24,497	0,051	-0,031
-311,168	-123,601	0,042	-0,005
-310,153	-138,117	-0,093	0,007
-309,139	554,172	-0,070	-0,123
-308,124	-140,930	0,033	0,002
-307,110	800,000	0,029	0,063
-306,095	9,236	0,132	0,073
-305,080	119,958	0,160	0,145
-304,066	245,002	0,059	0,073
-303,051	123,602	-0,087	0,080
-302,037	-115,602	-0,114	-0,016
-301,022	-15,013	0,193	0,090
-300,008	800,000	-0,008	0,025
-298,993	-15,536	0,057	-0,027
-297,978	36,584	0,098	0,064
-296,964	-2,470	-0,066	0,034
-295,949	-60,845	0,031	-0,010
-294,935	524,835	0,057	0,098
-293,920	61,676	0,022	-0,016
-292,905	-58,579	-0,070	-0,022
-291,891	274,010	0,064	0,082
-290,876	-49,615	-0,139	0,048
-289,862	104,112	0,066	0,057
-288,847	31,332	-0,110	-0,069
-287,832	200,218	0,067	-0,075
-286,818	-38,111	0,054	-0,021
-285,803	-27,296	0,087	0,037
-284,789	-88,418	0,216	0,047
-283,774	248,425	0,098	0,121
-282,759	42,225	0,104	0,069
-281,745	183,207	-0,066	0,071
-280,730	456,984	-0,069	-0,113
-279,716	-9,031	0,083	0,040
-278,701	68,117	0,135	0,101
-277,686	800,000	0,013	0,036
-276,672	117,339	-0,076	0,068
-275,657	-3,450	-0,038	0,019
-274,643	105,056	0,051	0,044
-273,628	-200,000	0,006	-0,053
-272,613	467,629	-0,081	-0,133
-271,599	114,828	0,072	0,064
-270,584	-200,000	-0,006	0,033
-269,570	166,680	0,086	0,089
-268,555	-138,461	-0,077	-0,006
-267,540	15,322	-0,080	0,046
-266,526	629,015	-0,036	0,067
-265,511	-200,000	0,036	0,116
-264,497	-12,960	-0,073	-0,035
-263,482	449,913	0,075	0,122
-262,467	-8,362	-0,034	-0,017
-261,453	800,000	-0,038	0,090
-260,438	-7,383	-0,138	-0,068
-259,424	24,294	0,114	0,068
-258,409	-2,533	-0,057	-0,029
-257,395	-29,118	0,040	0,017
-256,380	36,570	0,065	0,042
-255,365	-169,961	-0,066	-0,002
-254,351	-161,008	0,082	0,003
-253,336	-200,000	-0,026	-0,104
-252,322	-200,000	0,025	-0,089
-251,307	97,549	-0,100	-0,084
-250,292	130,985	-0,083	-0,078
-249,278	368,423	0,068	0,100
-248,263	-200,000	-0,007	-0,066
-247,249	-200,000	0,028	0,148
-246,234	-119,834	0,185	0,023
-245,219	800,000	0,035	-0,086
-244,205	-16,746	0,089	-0,041
-243,190	151,637	0,092	-0,091
-242,176	150,671	-0,045	-0,044
-241,161	140,367	0,136	0,131
-240,146	-32,783	0,086	-0,035
-239,132	572,739	0,050	0,090
-238,117	177,238	0,050	-0,053
-237,103	79,279	-0,074	0,058
-236,088	-104,966	-0,026	-0,004
-235,073	-23,470	0,084	-0,037
-234,059	77,267	0,048	0,037
-233,044	-32,832	-0,098	0,040
-232,030	800,000	-0,036	0,085
-231,015	121,886	0,045	0,041
-230,000	-5,106	-0,058	-0,029
-228,986	290,242	-0,059	0,079
-227,971	86,818	0,115	0,092
-226,957	-200,000	-0,002	0,012
-225,942	-90,322	-0,092	-0,019
-224,927	-200,000	0,008	-0,083
-223,913	800,000	-0,073	-0,173
-222,898	800,000	-0,020	0,055
-221,884	-85,596	-0,072	-0,016
-220,869	71,886	0,074	0,056
-219,855	-200,000	0,020	-0,078
-218,840	-200,000	-0,017	-0,063
-217,825	-146,323	-0,227	-0,014
-216,811	344,830	-0,075	-0,108
-215,796	-200,000	0,001	-0,134
-214,782	800,000	0,023	0,072
-213,767	-8,163	0,185	0,090
-212,752	-200,000	0,036	0,147
-211,738	-91,332	0,041	0,008
-210,723	-200,000	0,001	-0,044
-209,709	-200,000	0,001	0,138
-208,694	104,215	-0,109	-0,094
-207,679	-200,000	0,015	-0,076
-206,665	187,569	-0,033	0,036
-205,650	-109,762	0,084	-0,013
-204,636	134,262	0,028	0,026
-203,621	230,369	-0,048	-0,058
-202,606	-200,000	-0,007	-0,127
-201,592	346,576	-0,100	-0,145
-200,577	-138,623	0,046	0,004
-199,563	-180,052	-0,118	-0,002
-198,548	47,109	0,099	-0,067
-197,533	800,000	0,016	0,032
-196,519	-101,294	-0,021	-0,004
-195,504	800,000	-0,038	0,094
-194,490	339,980	-0,044	-0,063
-193,475	-15,875	-0,154	-0,071
-192,460	406,367	0,116	-0,180
-191,446	-200,000	-0,028	0,107
-190,431	267,370	0,120	0,153
-189,417	47,632	-0,079	-0,054
-188,402	-95,450	-0,130	0,025
-187,387	134,870	0,041	0,038
-186,373	-132,010	0,105	0,010
-185,358	-183,707	-0,085	-0,001
-184,344	800,000	0,039	0,108
-183,329	-135,755	-0,088	0,008
-182,315	57,401	-0,045	0,032
-181,300	633,381	0,039	0,073
-180,285	563,012	0,050	0,088
-179,271	16,064	-0,055	-0,031
-178,256	-200,000	0,005	0,097
-177,242	-143,920	0,119	0,008
-176,227	-122,466	-0,055	0,006
-175,212	377,827	0,068	0,101
-174,198	-200,000	0,023	0,077
-173,183	348,074	0,042	-0,060
-172,169	-63,243	0,174	0,052
-171,154	88,630	-0,066	0,053
-170,139	-200,000	0,040	-0,131
-169,125	-141,723	0,055	0,004
-168,110	608,763	0,059	0,108
-167,096	800,000	0,020	-0,044
-166,081	-96,968	-0,164	0,031
-165,066	26,187	-0,070	-0,042
-164,052	-200,000	-0,007	0,030
-163,037	-200,000	0,003	0,025
-162,023	800,000	0,025	-0,054
-161,008	19,816	0,098	0,057
-159,993	74,180	-0,070	0,053
-158,979	298,895	0,057	0,076
-157,964	-200,000	-0,005	-0,023
-156,950	-200,000	0,001	-0,035
-155,935	229,044	0,060	-0,071
-154,920	-132,160	0,099	-0,009
-153,906	800,000	0,038	0,091
-152,891	-157,687	-0,110	0,005
-151,877	-78,577	-0,081	-0,020
-150,862	-200,000	0,022	-0,119
-149,847	202,010	-0,092	0,104
-148,833	-143,375	0,160	-0,011
-147,818	-200,000	0,014	-0,085
-146,804	-57,479	0,007	0,002
-145,789	-200,000	-0,016	-0,114
-144,775	-200,000	0,017	-0,070
-143,760	743,276	-0,060	0,117
-142,745	184,505	0,035	0,038
-141,731	-106,502	-0,109	-0,018
-140,716	616,507	0,033	0,061
-139,702	-200,000	0,043	-0,144
-138,687	206,585	0,054	0,061
-137,672	370,810	-0,053	0,078
-136,658	-101,920	-0,102	0,018
-135,643	-200,000	-0,012	-0,169
-134,629	-200,000	-0,030	-0,127
-133,614	800,000	0,029	0,091
-132,599	-200,000	0,022	0,087
-131,585	400,938	0,018	-0,027
-130,570	-124,738	-0,105	-0,012
-129,556	75,429	-0,077	-0,059
-128,541	-119,448	-0,129	-0,016
-127,526	432,491	0,021	-0,034
-126,512	-16,765	0,038	0,017
-125,497	-200,000	0,016	-0,085
-124,483	-113,484	-0,120	0,017
-123,468	170,585	0,059	0,062
-122,453	171,174	-0,072	-0,075
-121,439	64,494	-0,045	-0,033
-120,424	-79,007	0,067	-0,016
-119,410	76,875	-0,020	-0,016
-118,395	-126,096	0,060	-0,006
