DTS Sentinel unit serial number:	SN410029Multiplexer serial number:	ORYXHardware model number:	OX2-SRSoftware version number:	ORYX F/W v4,00 Oryx Data Collector v3.7.2.0data status	okinstallation	B6 Nyhavnadifferential loss correction	single-endedforward channel	channel 2reverse channel	N/Adate	2023/12/10time	05:05:08forward acquisition time	300,00reverse acquisition time	0,00gamma	499,1914k internal	0,3124k external	0,3124temperature offset calibration	1,0000default loss term (dB/km)	0,3820temperature slope calibration	1,0000multiplexer offset coefficient	1,0000multiplexer slope coefficient	1,0000fibre end	0,00T internal ref (°C)	22,34T ext. ref 1 (°C)	6,39T ext. ref 2 (°C)	6,37length (m)	temperature (°C)	Stokes	anti-Stokes-744,400	7,200	0,131	-0,073
-743,385	-121,162	-0,279	0,034
-742,371	112,294	0,164	0,147
-741,356	94,305	-0,209	0,177
-740,342	800,000	-0,016	-0,047
-739,327	-118,812	-0,186	-0,024
-738,312	172,620	0,053	0,057
-737,298	-79,500	-0,176	0,044
-736,283	-126,073	0,146	-0,016
-735,269	17,201	-0,327	0,193
-734,254	473,992	0,025	-0,043
-733,239	-14,916	-0,405	-0,193
-732,225	-58,667	0,051	0,016
-731,210	-87,441	-0,054	0,012
-730,196	77,052	0,062	0,049
-729,181	27,613	-0,042	-0,026
-728,167	136,351	0,050	0,048
-727,152	-200,000	0,016	0,110
-726,137	-154,033	-0,123	0,006
-725,123	14,621	-0,135	-0,078
-724,108	127,634	-0,120	-0,114
-723,094	313,374	-0,060	-0,084
-722,079	-200,000	0,020	-0,090
-721,064	-11,608	-0,160	-0,078
-720,050	24,623	0,077	-0,047
-719,035	363,524	-0,030	-0,045
-718,021	539,045	-0,068	0,120
-717,006	56,551	-0,089	-0,064
-715,991	-158,169	-0,080	0,003
-714,977	-200,000	0,008	-0,142
-713,962	800,000	-0,014	-0,031
-712,948	-47,375	0,177	-0,064
-711,933	37,298	0,054	-0,035
-710,918	-200,000	-0,011	-0,085
-709,904	-21,053	-0,122	0,056
-708,889	57,468	-0,112	-0,081
-707,875	-15,089	-0,040	-0,019
-706,860	-200,000	0,015	-0,075
-705,845	-55,928	0,053	0,017
-704,831	-68,917	-0,184	0,053
-703,816	177,299	0,027	0,029
-702,802	-200,000	0,013	0,086
-701,787	688,879	-0,054	-0,105
-700,772	51,636	-0,018	0,013
-699,758	251,465	0,069	0,087
-698,743	800,000	-0,031	-0,073
-697,729	-200,000	0,001	-0,034
-696,714	800,000	-0,026	0,074
-695,699	-88,678	-0,075	-0,016
-694,685	800,000	-0,038	-0,110
-693,670	800,000	-0,034	-0,104
-692,656	-200,000	-0,001	-0,051
-691,641	4,662	0,098	-0,053
-690,627	800,000	0,054	-0,137
-689,612	331,553	-0,042	-0,061
-688,597	539,014	-0,061	-0,109
-687,583	366,261	0,076	-0,114
-686,568	181,319	-0,090	0,098
-685,554	-129,768	-0,090	-0,009
-684,539	119,276	0,030	-0,028
-683,524	312,650	0,077	-0,108
-682,510	800,000	0,034	-0,094
-681,495	154,380	0,020	-0,020
-680,481	87,613	-0,072	-0,060
-679,466	800,000	-0,070	-0,174
-678,451	-78,994	0,136	-0,034
-677,437	800,000	-0,037	0,078
-676,422	42,952	0,068	-0,046
-675,408	530,487	-0,097	-0,171
-674,393	42,765	-0,110	0,074
-673,378	-200,000	-0,001	-0,048
-672,364	373,801	0,044	-0,066
-671,349	44,284	-0,040	0,027
-670,335	-90,557	0,028	-0,006
-669,320	-104,912	0,053	-0,009
-668,305	444,660	-0,026	0,042
-667,291	-200,000	0,005	-0,086
-666,276	314,531	-0,045	-0,063
-665,262	398,976	0,088	-0,138
-664,247	800,000	-0,053	-0,142
-663,232	134,721	0,104	-0,100
-662,218	176,395	0,063	0,068
-661,203	-129,010	0,170	-0,017
-660,189	128,869	-0,062	0,059
-659,174	-104,022	0,020	-0,003
-658,159	-107,250	-0,114	0,018
-657,145	44,248	-0,062	-0,042
-656,130	-92,461	-0,127	-0,026
-655,116	800,000	-0,008	0,019
-654,101	-200,000	-0,020	0,214
-653,086	-200,000	-0,030	0,156
-652,072	724,183	-0,026	0,052
-651,057	-41,463	-0,202	-0,077
-650,043	-200,000	-0,019	-0,116
-649,028	-99,406	0,054	0,010
-648,014	220,838	0,007	0,009
-646,999	-156,380	-0,122	-0,006
-645,984	-26,883	0,058	-0,025
-644,970	-200,000	-0,010	0,061
-643,955	-57,356	-0,109	-0,035
-642,941	81,897	0,053	-0,043
-641,926	764,811	-0,056	-0,113
-640,911	328,071	0,056	0,080
-639,897	-200,000	-0,030	0,131
-638,882	271,386	0,020	-0,026
-637,868	272,317	0,048	-0,062
-636,853	-171,293	-0,148	-0,004
-635,838	-200,000	-0,005	-0,066
-634,824	800,000	0,027	-0,086
-633,809	-200,000	0,000	0,043
-632,795	-30,375	-0,038	0,016
-631,780	-200,000	0,012	-0,058
-630,765	-200,000	-0,042	-0,224
-629,751	542,607	-0,029	-0,051
-628,736	418,722	0,116	-0,185
-627,722	243,186	-0,040	-0,050
-626,707	294,904	-0,054	0,073
-625,692	11,543	0,052	-0,029
-624,678	17,527	0,124	-0,073
-623,663	128,203	-0,075	-0,071
-622,649	-122,537	-0,126	-0,015
-621,634	31,204	-0,075	-0,048
-620,619	-83,739	-0,230	0,054
-619,605	431,560	0,028	-0,045
-618,590	327,903	0,073	-0,104
-617,576	800,000	0,030	0,082
-616,561	704,596	0,038	0,075
-615,546	-93,997	-0,107	0,022
-614,532	-135,974	-0,077	-0,007
-613,517	-74,247	-0,112	0,030
-612,503	-0,741	-0,029	0,015
-611,488	-84,744	0,102	-0,024
-610,474	287,795	-0,075	-0,101
-609,459	302,970	-0,042	0,057
-608,444	374,755	-0,018	0,027
-607,430	-111,078	-0,030	0,004
-606,415	-200,000	-0,006	-0,095
-605,401	18,564	-0,050	0,029
-604,386	800,000	-0,014	-0,031
-603,371	296,451	0,032	0,044
-602,357	62,868	-0,085	-0,063
-601,342	-101,553	0,109	-0,019
-600,328	-17,644	-0,089	-0,041
-599,313	-116,434	-0,080	-0,011
-598,298	-116,590	-0,064	-0,009
-597,284	-74,090	-0,076	-0,020
-596,269	-99,215	0,086	0,016
-595,255	-200,000	0,008	-0,052
-594,240	800,000	-0,078	-0,197
-593,225	-200,000	0,004	-0,095
-592,211	-16,343	-0,179	-0,084
-591,196	800,000	0,025	-0,055
-590,182	204,524	0,027	0,031
-589,167	60,529	0,100	0,073
-588,152	-6,970	-0,027	0,014
-587,138	45,730	0,042	0,028
-586,123	-170,332	0,083	0,002
-585,109	91,799	0,060	-0,050
-584,094	521,664	-0,042	-0,073
-583,079	-46,408	0,059	0,021
-582,065	208,022	-0,046	0,053
-581,050	61,120	0,023	-0,017
-580,036	39,372	-0,119	0,079
-579,021	180,122	-0,150	-0,162
-578,006	-30,541	0,016	-0,007
-576,992	-200,000	-0,011	-0,048
-575,977	-200,000	0,025	-0,104
-574,963	150,098	0,045	0,045
-573,948	800,000	0,030	0,062
-572,934	800,000	-0,020	0,044
-571,919	-53,158	-0,117	-0,040
-570,904	-0,823	-0,097	-0,051
-569,890	789,822	0,049	-0,099
-568,875	3,284	-0,055	-0,030
-567,861	800,000	0,026	-0,072
-566,846	523,599	-0,042	-0,074
-565,831	-200,000	-0,005	-0,060
-564,817	166,586	0,050	0,052
-563,802	733,505	0,027	-0,055
-562,788	678,488	-0,055	0,107
-561,773	178,385	0,070	0,076
-560,758	218,554	0,015	-0,018
-559,744	-200,000	0,013	0,058
-558,729	-9,717	0,154	0,076
-557,715	-69,414	-0,066	-0,019
-556,700	800,000	0,015	-0,032
-555,685	108,059	-0,082	0,072
-554,671	800,000	0,051	0,106
-553,656	301,619	0,046	0,064
-552,642	39,584	0,027	0,018
-551,627	-200,000	-0,002	0,029
-550,612	534,137	0,057	-0,099
-549,598	-200,000	-0,022	-0,073
-548,583	800,000	0,012	0,035
-547,569	-61,054	0,140	0,043
-546,554	44,585	0,081	-0,055
-545,539	-98,927	0,068	-0,013
-544,525	685,078	0,046	-0,089
-543,510	96,184	-0,031	0,026
-542,496	-66,519	0,036	0,011
-541,481	-23,300	-0,084	-0,037
-540,466	52,085	-0,127	-0,090
-539,452	-200,000	0,008	0,052
-538,437	750,769	0,042	0,085
-537,423	-200,000	0,031	0,126
-536,408	438,525	-0,055	0,088
-535,393	800,000	-0,070	-0,159
-534,379	-200,000	0,013	-0,086
-533,364	-200,000	-0,011	-0,126
-532,350	800,000	0,061	0,137
-531,335	-40,509	0,073	-0,028
-530,321	532,479	-0,035	0,061
-529,306	304,570	-0,058	-0,079
-528,291	-79,334	0,103	-0,026
-527,277	-138,264	-0,151	-0,012
-526,262	-103,130	0,086	-0,015
-525,248	70,845	0,012	0,009
-524,233	447,409	0,030	-0,049
-523,218	-200,000	-0,004	0,082
-522,204	63,146	-0,162	0,120
-521,189	102,737	-0,027	-0,023
-520,175	800,000	-0,046	0,098
-519,160	-200,000	0,030	0,109
-518,145	-200,000	0,007	0,126
-517,131	-58,111	0,132	0,042
-516,116	-77,177	0,025	0,006
-515,102	800,000	0,002	-0,005
-514,087	171,022	-0,070	0,074
-513,072	-134,388	0,046	-0,004
-512,058	177,134	-0,064	-0,069
-511,043	96,189	0,085	0,072
-510,029	5,203	-0,015	-0,008
-509,014	-200,000	-0,009	0,064
-507,999	-72,152	0,170	0,046
-506,985	-90,268	-0,081	-0,017
-505,970	159,390	-0,072	0,074
-504,956	208,489	-0,030	0,035
-503,941	565,634	0,011	-0,020
-502,926	-200,000	-0,003	0,115
-501,912	-150,221	0,109	-0,006
-500,897	765,112	0,090	-0,180
-499,883	-107,079	-0,055	-0,009
-498,868	800,000	-0,021	-0,063
-497,853	-200,000	-0,017	0,064
-496,839	222,994	0,047	-0,056
-495,824	-42,473	-0,134	0,050
-494,810	-200,000	-0,017	-0,095
-493,795	438,595	-0,052	-0,085
-492,781	800,000	-0,013	-0,040
-491,766	-52,518	-0,147	-0,050
-490,751	-54,956	-0,054	-0,018
-489,737	125,025	-0,029	-0,027
-488,722	-116,895	-0,067	0,009
-487,708	-200,000	-0,016	0,054
-486,693	273,368	-0,055	0,072
-485,678	65,549	-0,022	-0,016
-484,664	259,297	-0,045	0,057
-483,649	417,631	0,067	-0,106
-482,635	104,098	-0,056	0,049
-481,620	-200,000	-0,014	0,054
-480,605	214,656	-0,051	0,059
-479,591	115,395	-0,042	0,038
-478,576	76,768	-0,088	0,069
-477,562	-200,000	-0,010	0,102
-476,547	-55,710	0,034	-0,011
-475,532	-200,000	-0,006	-0,218
-474,518	-44,465	-0,137	0,050
-473,503	198,523	-0,038	-0,043
-472,489	-200,000	-0,006	-0,035
-471,474	-90,962	0,056	0,012
-470,459	-13,635	0,105	0,050
-469,445	-200,000	0,006	0,030
-468,430	-137,603	-0,067	0,005
-467,416	-85,576	0,080	0,018
-466,401	394,881	0,013	-0,021
-465,386	800,000	-0,033	0,075
-464,372	250,083	-0,094	0,118
-463,357	-200,000	-0,011	0,101
-462,343	800,000	-0,062	-0,138
-461,328	-200,000	-0,002	0,092
-460,313	-44,671	-0,030	-0,011
-459,299	789,235	0,058	-0,118
-458,284	-54,426	0,052	0,017
-457,270	287,936	0,032	0,042
-456,255	145,992	0,020	-0,020
-455,241	327,684	0,050	0,072
-454,226	69,528	0,053	0,040
-453,211	-74,730	0,218	-0,057
-452,197	52,817	0,077	0,054
-451,182	-55,635	-0,101	0,033
-450,168	-200,000	-0,005	-0,146
-449,153	108,042	0,034	-0,030
-448,138	800,000	-0,083	0,184
-447,124	84,228	-0,086	0,069
-446,109	98,444	-0,041	0,035
-445,095	18,193	-0,069	-0,041
-444,080	-200,000	-0,017	0,203
-443,065	800,000	-0,057	0,131
-442,051	800,000	0,029	-0,071
-441,036	234,031	0,063	0,076
-440,022	126,604	-0,070	0,066
-439,007	-145,176	0,132	0,009
-437,992	-82,711	-0,082	-0,019
-436,978	-119,673	0,098	-0,012
-435,963	800,000	0,019	0,047
-434,949	14,013	-0,049	-0,028
-433,934	307,718	-0,117	-0,161
-432,919	472,230	0,053	-0,088
-431,905	715,466	0,069	-0,136
-430,890	800,000	0,011	-0,036
-429,876	800,000	0,011	-0,028
-428,861	202,922	0,089	0,101
-427,846	-66,520	-0,039	-0,011
-426,832	-158,471	-0,083	0,003
-425,817	-200,000	0,008	-0,051
-424,803	-30,645	-0,120	0,050
-423,788	-200,000	-0,033	0,000
-422,773	800,000	-0,044	-0,095
-421,759	-200,000	-0,021	0,128
-420,744	800,000	-0,034	0,087
-419,730	-200,000	0,016	0,063
-418,715	-200,000	0,029	-0,134
-417,701	131,304	0,121	0,114
-416,686	-0,186	-0,096	-0,050
-415,671	33,579	-0,060	-0,038
-414,657	-35,163	0,069	-0,027
-413,642	-70,114	-0,139	0,039
-412,628	-79,881	0,100	0,024
-411,613	-200,000	-0,009	0,152
-410,598	55,728	-0,034	-0,024
-409,584	-117,552	0,043	-0,006
-408,569	246,242	0,028	0,034
-407,555	114,061	0,066	-0,059
-406,540	132,965	-0,098	0,093
-405,525	133,869	0,070	0,067
-404,511	-148,060	0,061	-0,004
-403,496	-200,000	0,013	-0,060
-402,482	-200,000	0,017	-0,165
-401,467	216,612	0,123	0,144
-400,452	-31,024	0,051	0,021
-399,438	-200,000	-0,009	0,096
-398,423	212,999	-0,072	0,084
-397,409	-37,932	-0,127	-0,050
-396,394	-120,175	-0,053	-0,007
-395,379	-200,000	-0,003	0,054
-394,365	39,807	-0,111	-0,073
-393,350	107,773	0,058	-0,051
-392,336	718,829	-0,010	-0,020
-391,321	-127,932	0,058	0,006
-390,306	800,000	0,068	0,164
-389,292	-78,019	0,112	-0,028
-388,277	-96,951	-0,140	-0,027
-387,263	287,290	0,065	0,086
-386,248	-36,478	-0,024	-0,009
-385,233	190,382	0,084	-0,093
-384,219	496,007	-0,046	0,078
-383,204	800,000	-0,044	-0,117
-382,190	-98,606	0,136	0,025
-381,175	266,367	0,025	-0,032
-380,160	-200,000	0,027	0,135
-379,146	548,058	-0,073	0,128
-378,131	-78,622	0,051	-0,013
-377,117	102,807	-0,059	-0,051
-376,102	463,562	-0,055	-0,091
-375,088	449,437	0,020	0,033
-374,073	-131,075	0,011	-0,001
-373,058	22,493	0,107	0,064
-372,044	-200,000	-0,008	-0,115
-371,029	69,633	0,054	0,041
-370,015	800,000	0,003	0,009
-369,000	327,591	0,058	0,081
-367,985	-92,173	0,106	-0,022
-366,971	136,245	0,041	-0,039
-365,956	162,524	0,082	-0,085
-364,942	796,386	-0,008	-0,017
-363,927	466,197	0,042	-0,070
-362,912	800,000	-0,027	0,064
-361,898	175,536	0,076	0,081
-360,883	35,538	-0,048	-0,031
-359,869	-200,000	0,003	-0,020
-358,854	24,382	0,045	0,027
-357,839	-200,000	0,011	0,196
-356,825	128,318	0,018	-0,017
-355,810	800,000	0,018	-0,041
-354,796	144,147	0,085	0,083
-353,781	150,095	0,074	-0,074
-352,766	800,000	-0,007	0,016
-351,752	486,259	-0,080	0,135
-350,737	-200,000	-0,010	-0,093
-349,723	519,602	0,039	0,068
-348,708	-106,128	-0,115	-0,019
-347,693	-200,000	0,014	0,057
-346,679	639,893	-0,040	-0,075
-345,664	446,036	0,082	0,132
-344,650	696,624	0,078	0,151
-343,635	249,185	-0,043	0,053
-342,620	166,257	0,060	0,062
-341,606	-83,834	0,093	-0,022
-340,591	-200,000	-0,004	0,118
-339,577	-97,373	-0,074	0,014
-338,562	800,000	-0,041	0,117
-337,548	-200,000	0,000	-0,055
-336,533	-32,650	-0,073	-0,030
-335,518	25,216	0,027	0,017
-334,504	-24,882	-0,095	0,041
-333,489	-200,000	0,008	0,044
-332,475	-24,679	-0,117	0,051
-331,460	580,912	0,018	0,033
-330,445	244,814	0,039	-0,048
-329,431	-200,000	-0,003	-0,055
-328,416	-200,000	0,006	0,208
-327,402	-200,000	0,011	-0,055
-326,387	-200,000	0,037	0,141
-325,372	35,348	-0,057	-0,036
-324,358	800,000	-0,038	-0,079
-323,343	342,423	0,032	0,046
-322,329	-17,421	0,062	-0,029
-321,314	-200,000	0,006	0,086
-320,299	179,464	0,058	0,063
-319,285	-156,645	0,059	0,003
-318,270	-200,000	-0,009	0,045
-317,256	-142,655	-0,090	-0,006
-316,241	-200,000	-0,003	-0,035
-315,226	-200,000	0,041	0,142
-314,212	-12,323	0,112	0,054
-313,197	345,951	-0,049	0,071
-312,183	-200,000	-0,026	0,131
-311,168	800,000	0,010	-0,020
-310,153	88,556	0,111	-0,090
-309,139	139,639	-0,087	-0,084
-308,124	148,372	-0,041	0,040
-307,110	-200,000	-0,012	-0,087
-306,095	-54,164	-0,107	-0,035
-305,080	115,894	0,038	0,034
-304,066	-200,000	-0,012	-0,121
-303,051	46,888	-0,043	-0,030
-302,037	-144,972	-0,132	-0,009
-301,022	120,810	-0,034	0,031
-300,008	245,882	0,071	0,088
-298,993	-200,000	0,054	0,202
-297,978	-111,268	0,054	0,008
-296,964	454,901	-0,085	-0,138
-295,949	304,753	-0,079	-0,107
-294,935	126,222	-0,142	-0,131
-293,920	-157,680	0,122	-0,005
-292,905	-53,577	0,082	-0,027
-291,891	123,228	0,029	-0,027
-290,876	800,000	-0,033	0,081
-289,862	335,299	-0,083	0,118
-288,847	-85,635	0,054	0,012
-287,832	136,840	-0,072	-0,069
-286,818	394,669	0,008	0,013
-285,803	-98,546	-0,123	-0,023
-284,789	507,690	-0,090	0,154
-283,774	-148,195	0,114	0,007
-282,759	126,015	0,017	-0,016
-281,745	-160,569	0,128	-0,005
-280,730	-25,365	0,052	-0,023
-279,716	-200,000	-0,004	0,070
-278,701	800,000	0,064	0,145
-277,686	5,608	0,035	-0,019
-276,672	74,341	-0,087	-0,066
-275,657	-178,112	0,189	0,003
-274,643	585,472	-0,016	0,028
-273,628	-200,000	-0,018	0,099
-272,613	180,345	-0,012	-0,012
-271,599	593,699	0,065	0,119
-270,584	-142,782	0,127	-0,009
-269,570	-91,890	-0,034	-0,007
-268,555	-123,194	-0,087	-0,010
-267,540	321,546	0,036	-0,051
-266,526	6,930	0,024	-0,013
-265,511	800,000	0,039	-0,091
-264,497	-31,097	0,010	0,004
-263,482	-89,645	0,171	0,036
-262,467	322,723	0,083	-0,115
-261,453	536,998	0,069	-0,121
-260,438	568,183	-0,053	0,095
-259,424	800,000	-0,045	-0,122
-258,409	331,073	-0,038	-0,053
-257,395	145,198	0,061	0,060
-256,380	-150,766	0,115	0,006
-255,365	-46,796	0,055	0,019
-254,351	184,318	0,076	-0,083
-253,336	102,928	0,076	0,065
-252,322	354,615	-0,002	-0,003
-251,307	329,316	-0,003	-0,004
-250,292	7,985	0,033	-0,018
-249,278	680,325	0,056	0,106
-248,263	41,687	0,035	-0,023
-247,249	-200,000	-0,025	-0,109
-246,234	-49,336	-0,081	-0,028
-245,219	800,000	0,010	0,031
-244,205	-200,000	-0,001	-0,039
-243,190	-60,006	-0,090	0,028
-242,176	709,907	0,047	0,091
-241,161	-200,000	0,003	0,143
-240,146	-91,857	-0,133	-0,027
-239,132	736,064	-0,015	-0,029
-238,117	-113,336	0,123	-0,017
-237,103	-200,000	0,023	-0,128
-236,088	745,831	-0,080	-0,158
-235,073	-200,000	0,001	0,051
-234,059	573,195	0,013	-0,024
-233,044	-200,000	-0,030	0,114
-232,030	250,403	-0,035	0,043
-231,015	162,431	0,060	-0,061
-230,000	-200,000	0,010	-0,068
-228,986	-200,000	-0,019	0,069
-227,971	229,211	0,049	-0,058
-226,957	-31,773	0,076	0,031
-225,942	-112,478	-0,162	0,023
-224,927	41,800	-0,008	0,005
-223,913	800,000	-0,002	0,005
-222,898	112,641	-0,085	-0,075
-221,884	254,588	0,050	-0,062
-220,869	794,575	0,052	-0,104
-219,855	65,406	0,126	-0,093
-218,840	-9,171	0,078	-0,038
-217,825	595,451	-0,056	0,101
-216,811	-200,000	0,012	-0,089
-215,796	-19,868	-0,060	0,027
-214,782	459,386	0,032	0,052
-213,767	354,851	0,056	0,081
-212,752	60,718	-0,026	0,019
-211,738	800,000	-0,010	0,023
-210,723	-101,235	0,083	-0,015
-209,709	800,000	-0,050	-0,114
-208,694	-27,504	-0,049	-0,021
-207,679	16,855	0,143	-0,083
-206,665	-200,000	0,011	0,042
-205,650	169,868	-0,026	0,027
-204,636	-21,663	0,135	0,060
-203,621	-200,000	-0,012	0,045
-202,606	-200,000	-0,010	0,043
-201,592	153,162	-0,114	0,114
-200,577	689,803	-0,039	-0,074
-199,563	246,613	-0,031	0,039
-198,548	-71,899	0,102	0,027
-197,533	67,349	0,049	-0,037
-196,519	792,484	0,023	-0,046
-195,504	95,849	0,092	0,077
-194,490	655,900	-0,048	-0,090
-193,475	-200,000	-0,015	-0,118
-192,460	-68,393	0,032	0,009
-191,446	596,448	0,053	0,096
-190,431	-200,000	-0,021	0,113
-189,417	800,000	-0,023	-0,061
-188,402	58,919	-0,176	-0,126
-187,387	114,314	-0,103	-0,091
-186,373	-200,000	0,008	0,032
-185,358	-189,327	-0,100	-0,001
-184,344	-200,000	0,025	-0,091
-183,329	-101,748	-0,038	-0,007
-182,315	732,695	0,047	0,091
-181,300	-52,400	-0,059	-0,020
-180,285	240,202	0,037	-0,045
-179,271	175,878	0,106	-0,112
-178,256	-200,000	0,010	0,048
-177,242	292,981	-0,030	0,040
-176,227	800,000	0,031	0,088
-175,212	-15,717	0,094	-0,044
-174,198	451,698	-0,040	-0,065
-173,183	-48,093	0,055	0,019
-172,169	-81,434	0,119	-0,028
-171,154	73,066	0,062	-0,047
-170,139	-200,000	-0,019	-0,090
-169,125	62,315	-0,054	-0,039
-168,110	103,886	-0,162	-0,138
-167,096	54,733	0,072	-0,051
-166,081	280,100	-0,027	-0,035
-165,066	-200,000	-0,014	0,064
-164,052	-200,000	-0,004	-0,055
-163,037	-119,806	-0,058	-0,007
-162,023	-36,540	0,101	-0,039
-161,008	416,191	-0,066	-0,102
-159,993	-142,018	0,040	0,003
-158,979	-102,080	0,073	-0,013
-157,964	-200,000	0,004	-0,160
-156,950	-21,834	-0,060	-0,026
-155,935	-200,000	0,021	-0,143
-154,920	619,944	-0,009	-0,017
-153,906	800,000	0,061	0,173
-152,891	-95,559	-0,033	-0,006
-151,877	122,993	-0,088	-0,080
-150,862	368,557	-0,026	0,039
-149,847	-74,577	-0,057	0,015
-148,833	202,852	0,086	-0,097
-147,818	68,675	0,052	0,039
-146,804	7,851	-0,093	0,051
-145,789	425,741	-0,026	-0,041
-144,775	800,000	-0,042	-0,095
-143,760	-200,000	-0,013	-0,063
-142,745	147,281	-0,049	-0,048
-141,731	-81,170	0,127	-0,030
-140,716	-53,240	-0,046	0,015
-139,702	113,705	0,041	-0,036
-138,687	56,342	-0,159	0,112
-137,672	-33,382	-0,088	-0,035
-136,658	-67,746	-0,121	0,034
-135,643	-101,033	-0,088	-0,016
-134,629	-200,000	0,012	-0,102
-133,614	-200,000	0,005	-0,017
-132,599	189,831	0,087	0,095
-131,585	-200,000	-0,026	-0,176
-130,570	258,053	0,082	-0,103
-129,556	-200,000	-0,028	-0,167
-128,541	623,814	-0,070	-0,130
-127,526	-200,000	-0,002	0,069
-126,512	-3,535	-0,035	-0,017
-125,497	-200,000	-0,012	-0,068
-124,483	-199,680	0,039	0,000
-123,468	-169,050	0,075	0,002
-122,453	800,000	-0,043	-0,098
-121,439	537,977	-0,034	0,060
-120,424	-200,000	-0,002	0,126
