DTS Sentinel unit serial number:	SN410029Multiplexer serial number:	ORYXHardware model number:	OX2-SRSoftware version number:	ORYX F/W v4,00 Oryx Data Collector v3.7.2.0data status	okinstallation	B6 Nyhavnadifferential loss correction	single-endedforward channel	channel 2reverse channel	N/Adate	2023/12/10time	03:30:08forward acquisition time	300,00reverse acquisition time	0,00gamma	499,1914k internal	0,3125k external	0,3125temperature offset calibration	1,0000default loss term (dB/km)	0,3820temperature slope calibration	1,0000multiplexer offset coefficient	1,0000multiplexer slope coefficient	1,0000fibre end	0,00T internal ref (°C)	22,02T ext. ref 1 (°C)	5,93T ext. ref 2 (°C)	5,91length (m)	temperature (°C)	Stokes	anti-Stokes-744,400	545,195	0,043	-0,076
-743,385	228,809	-0,098	0,119
-742,371	-79,000	0,089	0,022
-741,356	-7,907	-0,308	0,154
-740,342	-200,000	-0,003	-0,122
-739,327	-116,821	-0,355	-0,048
-738,312	93,586	0,049	0,041
-737,298	51,409	-0,177	0,125
-736,283	-21,548	0,099	-0,045
-735,269	109,127	-0,086	0,076
-734,254	800,000	-0,021	-0,069
-733,239	-51,232	-0,380	-0,132
-732,225	210,056	0,126	-0,148
-731,210	-200,000	-0,005	-0,088
-730,196	29,939	0,099	-0,062
-729,181	800,000	-0,028	-0,069
-728,167	800,000	0,047	-0,110
-727,152	115,126	-0,056	0,051
-726,137	319,030	0,105	-0,149
-725,123	800,000	0,028	-0,075
-724,108	-32,078	-0,125	-0,052
-723,094	510,630	-0,078	-0,136
-722,079	283,387	-0,075	-0,101
-721,064	-62,137	-0,140	-0,043
-720,050	-137,108	-0,029	-0,002
-719,035	49,490	-0,109	0,076
-718,021	-14,195	-0,084	-0,040
-717,006	184,026	-0,007	0,007
-715,991	800,000	-0,066	-0,145
-714,977	365,759	-0,048	-0,073
-713,962	-200,000	0,011	-0,044
-712,948	88,361	-0,033	0,027
-711,933	4,106	-0,165	0,089
-710,918	-200,000	-0,001	0,027
-709,904	800,000	-0,055	-0,128
-708,889	407,881	-0,060	-0,094
-707,875	-47,690	-0,140	0,050
-706,860	-121,751	-0,128	0,015
-705,845	-116,563	0,065	0,009
-704,831	116,252	-0,169	0,154
-703,816	-200,000	0,025	-0,087
-702,802	-200,000	-0,002	0,161
-701,787	179,299	-0,097	-0,106
-700,772	219,578	0,027	-0,033
-699,758	-92,551	0,054	0,011
-698,743	-105,149	-0,081	-0,014
-697,729	-56,491	0,112	0,037
-696,714	-6,467	-0,083	0,042
-695,699	131,489	0,039	-0,037
-694,685	-62,508	-0,100	0,031
-693,670	88,414	0,028	0,023
-692,656	-175,234	0,078	-0,002
-691,641	29,043	-0,048	-0,030
-690,627	131,255	0,129	0,123
-689,612	-113,126	0,107	0,016
-688,597	426,155	0,076	0,122
-687,583	-114,944	-0,130	-0,018
-686,568	-200,000	-0,028	-0,107
-685,554	455,992	0,018	-0,031
-684,539	-25,473	0,198	-0,087
-683,524	461,587	0,056	-0,093
-682,510	-66,498	-0,114	-0,033
-681,495	166,549	-0,064	-0,068
-680,481	-200,000	0,003	-0,149
-679,466	-148,436	0,093	0,006
-678,451	-9,267	-0,032	-0,016
-677,437	252,344	0,062	-0,079
-676,422	171,844	-0,087	-0,093
-675,408	-200,000	-0,001	0,026
-674,393	-128,748	-0,152	-0,016
-673,378	779,872	-0,043	-0,087
-672,364	-55,654	-0,046	0,015
-671,349	-200,000	-0,051	-0,217
-670,335	-9,384	-0,114	0,056
-669,320	-133,401	0,251	-0,023
-668,305	315,146	-0,027	0,037
-667,291	-24,442	0,035	0,016
-666,276	-108,687	-0,109	-0,017
-665,262	-59,736	0,073	0,023
-664,247	-200,000	-0,021	-0,089
-663,232	243,754	-0,096	-0,120
-662,218	77,609	-0,069	0,055
-661,203	-200,000	0,010	0,081
-660,189	16,419	0,078	0,046
-659,174	73,239	-0,078	-0,060
-658,159	70,695	-0,023	-0,017
-657,145	169,242	0,019	0,020
-656,130	-8,266	0,024	0,012
-655,116	800,000	0,002	-0,006
-654,101	253,764	0,027	-0,034
-653,086	-200,000	-0,034	0,169
-652,072	-141,789	-0,068	0,005
-651,057	38,812	-0,077	-0,051
-650,043	-79,877	-0,171	-0,042
-649,028	-60,458	0,069	0,022
-648,014	50,043	0,054	0,038
-646,999	-200,000	-0,004	-0,054
-645,984	-200,000	0,018	0,079
-644,970	47,012	-0,134	0,092
-643,955	29,439	0,076	-0,048
-642,941	432,774	0,025	-0,041
-641,926	-200,000	0,000	0,002
-640,911	-17,549	0,125	0,058
-639,897	800,000	0,014	0,037
-638,882	85,300	-0,063	0,051
-637,868	-67,294	-0,065	-0,019
-636,853	-32,537	-0,109	-0,045
-635,838	-200,000	-0,005	0,124
-634,824	-143,769	0,117	0,008
-633,809	-200,000	0,001	-0,121
-632,795	-17,666	0,143	0,066
-631,780	800,000	-0,081	0,188
-630,765	48,610	-0,105	0,073
-629,751	97,214	-0,097	-0,082
-628,736	-5,385	-0,026	0,013
-627,722	-21,498	-0,108	0,049
-626,707	-13,568	0,148	-0,071
-625,692	114,153	0,087	-0,078
-624,678	45,713	0,055	0,038
-623,663	-63,610	0,035	-0,011
-622,649	-200,000	-0,033	-0,162
-621,634	442,180	-0,038	-0,062
-620,619	-101,816	-0,104	0,018
-619,605	-121,343	-0,072	0,009
-618,590	-70,838	0,147	-0,041
-617,576	-12,687	0,079	0,038
-616,561	57,041	-0,135	0,097
-615,546	215,708	-0,012	-0,015
-614,532	-40,495	-0,138	0,053
-613,517	792,423	-0,045	0,092
-612,503	-200,000	-0,025	0,098
-611,488	-200,000	-0,003	0,080
-610,474	547,120	0,035	0,063
-609,459	800,000	0,003	-0,008
-608,444	-1,175	-0,082	0,043
-607,430	-56,142	0,076	0,025
-606,415	267,512	0,055	-0,072
-605,401	800,000	-0,031	-0,083
-604,386	-131,162	-0,053	0,005
-603,371	74,618	0,103	0,080
-602,357	800,000	0,008	-0,025
-601,342	-95,379	-0,070	0,014
-600,328	-200,000	-0,063	-0,233
-599,313	101,679	0,086	-0,074
-598,298	800,000	0,015	0,043
-597,284	-200,000	-0,047	0,174
-596,269	-43,444	-0,089	-0,033
-595,255	-26,800	0,060	0,026
-594,240	41,434	-0,127	-0,085
-593,225	-106,593	0,041	-0,007
-592,211	-149,773	0,015	0,001
-591,196	215,833	0,052	0,061
-590,182	-121,494	0,068	-0,008
-589,167	-200,000	0,001	0,064
-588,152	-200,000	0,001	0,093
-587,138	800,000	-0,032	0,088
-586,123	-200,000	-0,010	0,052
-585,109	-200,000	-0,026	-0,116
-584,094	-200,000	0,030	-0,099
-583,079	-95,597	0,119	-0,023
-582,065	-200,000	0,010	-0,060
-581,050	60,912	-0,076	0,055
-580,036	328,835	0,064	-0,091
-579,021	-7,599	0,125	-0,062
-578,006	-200,000	0,031	-0,155
-576,992	-70,988	0,029	0,008
-575,977	-52,125	-0,128	-0,044
-574,963	-200,000	0,017	-0,081
-573,948	279,450	0,077	-0,102
-572,934	800,000	0,061	0,132
-571,919	-53,205	-0,016	-0,006
-570,904	96,026	-0,060	-0,051
-569,890	127,698	-0,078	0,073
-568,875	-60,476	0,107	-0,034
-567,861	230,222	-0,058	0,070
-566,846	-4,498	0,115	0,058
-565,831	-88,010	0,126	0,028
-564,817	65,780	0,063	-0,047
-563,802	-119,433	-0,147	-0,019
-562,788	797,874	-0,077	-0,158
-561,773	-98,063	-0,029	0,005
-560,758	800,000	-0,037	0,086
-559,744	800,000	-0,014	-0,038
-558,729	103,043	0,063	0,054
-557,715	63,368	0,025	0,019
-556,700	-94,025	0,064	0,013
-555,685	-41,941	0,017	0,006
-554,671	-200,000	-0,023	-0,092
-553,656	-121,635	0,082	-0,010
-552,642	251,077	-0,056	0,071
-551,627	-97,596	-0,150	0,029
-550,612	-200,000	-0,008	-0,171
-549,598	800,000	0,036	-0,093
-548,583	-200,000	0,010	0,073
-547,569	302,275	-0,026	-0,036
-546,554	-98,660	0,045	0,008
-545,539	800,000	-0,027	-0,082
-544,525	-200,000	0,016	0,063
-543,510	800,000	-0,015	0,041
-542,496	564,321	-0,018	0,031
-541,481	800,000	0,026	-0,080
-540,466	227,676	-0,053	0,064
-539,452	178,956	-0,047	-0,051
-538,437	-60,135	-0,108	-0,034
-537,423	102,335	0,045	0,039
-536,408	-65,689	0,049	-0,014
-535,393	-112,020	-0,106	0,016
-534,379	-200,000	0,003	-0,030
-533,364	-5,263	-0,086	-0,043
-532,350	-150,620	0,139	-0,008
-531,335	191,462	-0,038	-0,043
-530,321	565,525	0,045	0,080
-529,306	-200,000	-0,006	0,103
-528,291	800,000	0,032	-0,101
-527,277	-200,000	0,005	-0,068
-526,262	366,479	0,045	0,067
-525,248	8,851	0,032	-0,018
-524,233	28,506	-0,068	0,042
-523,218	-51,593	-0,093	-0,032
-522,204	116,874	-0,066	0,059
-521,189	-200,000	0,019	0,090
-520,175	-115,390	0,131	0,018
-519,160	46,596	-0,017	-0,011
-518,145	800,000	-0,034	-0,077
-517,131	202,375	-0,050	0,057
-516,116	105,171	0,049	0,043
-515,102	-200,000	-0,002	-0,066
-514,087	386,229	0,028	0,044
-513,072	-72,781	-0,026	-0,007
-512,058	-200,000	0,020	-0,138
-511,043	-66,233	0,071	0,021
-510,029	-116,989	-0,115	-0,015
-509,014	93,569	0,125	-0,104
-507,999	293,714	0,041	-0,055
-506,985	361,016	-0,061	-0,091
-505,970	1,658	-0,054	-0,029
-504,956	451,314	0,028	0,045
-503,941	-200,000	0,008	-0,095
-502,926	237,621	-0,083	0,102
-501,912	-99,619	0,084	0,015
-500,897	-79,343	0,067	-0,017
-499,883	88,044	-0,147	-0,120
-498,868	800,000	0,007	-0,021
-497,853	-50,595	-0,062	-0,021
-496,839	-120,243	0,085	0,011
-495,824	472,781	-0,047	-0,079
-494,810	44,587	0,175	0,118
-493,795	-169,958	0,140	0,004
-492,781	43,996	-0,145	-0,098
-491,766	-108,581	-0,108	0,017
-490,751	-161,540	-0,051	0,002
-489,737	-124,166	-0,045	-0,005
-488,722	-86,733	0,078	-0,018
-487,708	-6,476	-0,165	0,083
-486,693	-34,972	-0,105	0,042
-485,678	800,000	-0,003	-0,007
-484,664	126,515	-0,083	0,078
-483,649	-200,000	-0,012	0,091
-482,635	-200,000	-0,002	0,006
-481,620	800,000	0,026	-0,067
-480,605	54,029	0,050	0,036
-479,591	-200,000	0,014	0,074
-478,576	656,883	0,073	-0,138
-477,562	-200,000	-0,045	-0,151
-476,547	-166,429	0,138	0,004
-475,532	-135,338	-0,138	-0,012
-474,518	800,000	0,060	-0,178
-473,503	-103,765	-0,072	0,012
-472,489	-5,143	-0,047	0,024
-471,474	800,000	0,013	-0,039
-470,459	-104,226	-0,076	-0,013
-469,445	720,401	0,025	-0,050
-468,430	516,012	-0,059	-0,102
-467,416	2,276	0,161	-0,086
-466,401	0,879	-0,170	-0,089
-465,386	800,000	0,033	-0,087
-464,372	-42,709	-0,091	-0,034
-463,357	-200,000	0,001	-0,104
-462,343	800,000	0,021	-0,067
-461,328	184,669	-0,094	-0,103
-460,313	795,657	-0,057	-0,116
-459,299	768,474	0,020	0,041
-458,284	-200,000	-0,006	0,027
-457,270	-128,234	0,023	-0,002
-456,255	420,679	0,015	-0,023
-455,241	-78,872	-0,058	-0,015
-454,226	-200,000	0,018	-0,154
-453,211	59,340	-0,057	-0,041
-452,197	-11,452	0,055	0,027
-451,182	214,722	0,123	-0,144
-450,168	-57,659	0,081	-0,026
-449,153	-200,000	0,016	-0,142
-448,138	386,652	-0,036	0,054
-447,124	-22,348	-0,123	-0,055
-446,109	36,829	-0,128	-0,083
-445,095	800,000	0,023	-0,050
-444,080	310,611	0,143	0,197
-443,065	-200,000	-0,006	0,127
-442,051	-58,510	-0,053	-0,017
-441,036	68,112	-0,046	-0,034
-440,022	463,256	-0,077	-0,128
-439,007	800,000	-0,019	0,041
-437,992	41,633	0,082	-0,055
-436,978	-200,000	0,009	0,042
-435,963	694,748	-0,023	0,045
-434,949	77,391	0,086	-0,067
-433,934	800,000	0,016	-0,044
-432,919	-76,059	-0,119	0,031
-431,905	-200,000	-0,009	-0,054
-430,890	184,597	0,028	0,030
-429,876	-17,214	0,056	0,026
-428,861	800,000	0,036	0,084
-427,846	385,654	-0,047	-0,072
-426,832	-7,901	-0,114	-0,056
-425,817	-200,000	-0,021	-0,092
-424,803	637,638	-0,035	0,066
-423,788	-200,000	0,002	0,159
-422,773	-200,000	0,015	-0,101
-421,759	347,466	0,060	-0,087
-420,744	-79,679	-0,096	-0,024
-419,730	542,711	-0,069	0,121
-418,715	-111,411	-0,112	-0,017
-417,701	120,925	-0,013	0,012
-416,686	-200,000	-0,002	0,014
-415,671	180,824	0,025	0,027
-414,657	-125,795	-0,152	0,017
-413,642	523,396	-0,056	-0,096
-412,628	98,417	-0,024	0,020
-411,613	-182,448	-0,128	0,002
-410,598	77,683	-0,007	-0,006
-409,584	-200,000	0,020	-0,166
-408,569	-200,000	0,010	0,053
-407,555	-200,000	0,015	0,222
-406,540	213,404	0,047	-0,055
-405,525	800,000	-0,012	0,038
-404,511	-200,000	-0,028	-0,160
-403,496	348,565	0,040	0,058
-402,482	505,515	0,050	0,085
-401,467	766,091	-0,015	0,031
-400,452	418,522	0,094	0,147
-399,438	50,389	-0,054	0,037
-398,423	64,128	-0,141	-0,104
-397,409	800,000	-0,019	0,044
-396,394	25,043	-0,024	-0,015
-395,379	221,983	0,022	-0,026
-394,365	-200,000	-0,009	0,081
-393,350	-34,827	-0,092	-0,037
-392,336	5,934	0,019	0,010
-391,321	-200,000	0,009	0,056
-390,306	48,589	0,008	0,006
-389,292	-200,000	-0,023	-0,155
-388,277	-15,886	-0,067	0,031
-387,263	-200,000	0,014	0,056
-386,248	-200,000	0,011	0,059
-385,233	-165,129	-0,134	0,004
-384,219	-200,000	-0,011	0,104
-383,204	2,507	0,088	0,047
-382,190	510,797	0,011	-0,019
-381,175	150,453	-0,060	0,060
-380,160	505,282	-0,035	0,060
-379,146	-200,000	-0,008	0,143
-378,131	-23,306	0,210	0,092
-377,117	-43,163	-0,069	-0,025
-376,102	-0,654	0,079	0,041
-375,088	-79,350	-0,097	0,024
-374,073	-200,000	0,003	0,093
-373,058	800,000	0,032	0,102
-372,044	-171,887	0,270	-0,006
-371,029	553,429	-0,048	0,085
-370,015	152,333	0,063	-0,063
-369,000	264,560	0,041	-0,053
-367,985	-200,000	-0,022	0,075
-366,971	800,000	0,052	-0,119
-365,956	-73,700	0,124	-0,033
-364,942	63,540	0,132	0,097
-363,927	44,271	-0,052	-0,035
-362,912	-200,000	-0,003	0,035
-361,898	53,883	-0,040	-0,028
-360,883	-94,955	-0,151	-0,030
-359,869	374,203	-0,049	-0,073
-358,854	-200,000	-0,044	0,186
-357,839	-100,740	0,065	-0,012
-356,825	142,063	0,018	0,018
-355,810	28,147	-0,063	0,039
-354,796	800,000	0,027	-0,068
-353,781	246,106	-0,044	-0,055
-352,766	800,000	0,057	-0,122
-351,752	251,703	0,012	-0,015
-350,737	-35,253	0,032	-0,013
-349,723	-168,091	-0,110	-0,003
-348,708	210,003	0,072	-0,083
-347,693	800,000	-0,058	-0,172
-346,679	82,308	-0,070	0,055
-345,664	-47,469	0,191	0,068
-344,650	800,000	-0,044	-0,110
-343,635	-182,120	0,133	-0,002
-342,620	678,780	-0,070	0,134
-341,606	636,350	0,049	0,092
-340,591	97,641	0,064	0,054
-339,577	-200,000	-0,013	-0,060
-338,562	150,693	-0,093	-0,093
-337,548	-200,000	0,000	0,179
-336,533	-130,030	0,056	-0,006
-335,518	800,000	0,033	0,085
-334,504	237,624	0,016	-0,019
-333,489	-200,000	-0,009	0,118
-332,475	-0,671	0,051	0,027
-331,460	800,000	-0,018	-0,038
-330,445	800,000	-0,060	-0,166
-329,431	13,999	0,125	0,071
-328,416	125,775	0,094	0,087
-327,402	-200,000	0,002	0,133
-326,387	-58,562	0,150	-0,048
-325,372	17,289	0,120	0,070
-324,358	417,753	0,065	0,103
-323,343	117,725	0,045	-0,040
-322,329	800,000	0,019	-0,050
-321,314	-187,694	0,121	-0,001
-320,299	-200,000	0,004	0,232
-319,285	82,587	0,090	0,071
-318,270	800,000	0,020	-0,042
-317,256	-200,000	-0,001	-0,114
-316,241	-181,767	0,152	-0,002
-315,226	800,000	0,022	-0,055
-314,212	-101,405	0,114	0,020
-313,197	800,000	0,018	-0,046
-312,183	-61,479	0,060	0,018
-311,168	-54,974	0,016	-0,005
-310,153	94,056	0,027	-0,022
-309,139	-200,000	-0,005	0,099
-308,124	442,736	0,066	-0,107
-307,110	30,633	0,096	0,060
-306,095	87,881	-0,127	0,103
-305,080	215,247	0,018	-0,020
-304,066	800,000	-0,042	-0,108
-303,051	-200,000	-0,004	0,023
-302,037	305,195	-0,050	0,068
-301,022	-200,000	-0,027	0,126
-300,008	54,964	-0,019	0,013
-298,993	37,652	0,060	-0,039
-297,978	58,522	-0,098	0,070
-296,964	-200,000	-0,011	-0,102
-295,949	800,000	-0,016	-0,043
-294,935	-200,000	0,014	0,056
-293,920	-111,542	-0,174	0,026
-292,905	800,000	0,072	-0,157
-291,891	140,518	0,086	0,083
-290,876	-70,310	-0,048	0,013
-289,862	350,700	0,064	0,093
-288,847	-104,222	0,092	-0,015
-287,832	-200,000	-0,017	-0,067
-286,818	-200,000	0,002	-0,031
-285,803	800,000	0,042	0,128
-284,789	-104,458	0,021	0,004
-283,774	800,000	0,048	0,112
-282,759	-200,000	0,018	-0,109
-281,745	-200,000	-0,007	-0,121
-280,730	181,227	-0,072	-0,078
-279,716	-55,469	-0,048	0,016
-278,701	-200,000	0,016	0,183
-277,686	-10,527	0,186	0,090
-276,672	-34,797	0,012	-0,005
-275,657	86,584	-0,063	0,051
-274,643	128,133	-0,071	-0,066
-273,628	32,306	-0,091	-0,057
-272,613	747,675	-0,064	-0,127
-271,599	-200,000	0,007	-0,102
-270,584	323,549	-0,003	-0,005
-269,570	98,130	0,067	-0,056
-268,555	-10,067	-0,045	-0,022
-267,540	200,543	-0,019	-0,022
-266,526	800,000	0,015	-0,041
-265,511	305,309	0,028	-0,038
-264,497	-99,358	0,132	0,024
-263,482	800,000	0,011	-0,033
-262,467	97,109	0,107	0,090
-261,453	328,345	-0,051	0,072
-260,438	-133,648	0,077	-0,007
-259,424	91,065	0,050	-0,041
-258,409	800,000	-0,055	-0,174
-257,395	-42,172	-0,048	0,018
-256,380	384,682	0,036	-0,055
-255,365	800,000	0,028	0,082
-254,351	-101,072	0,165	0,029
-253,336	-116,772	0,041	0,005
-252,322	-200,000	-0,014	0,120
-251,307	440,679	-0,137	0,219
-250,292	-200,000	0,011	-0,051
-249,278	-91,667	0,104	0,021
-248,263	-157,240	-0,125	0,005
-247,249	-200,000	0,014	0,114
-246,234	-200,000	0,005	0,033
-245,219	101,424	-0,009	0,008
-244,205	-92,459	-0,194	-0,040
-243,190	544,334	0,052	0,092
-242,176	-200,000	0,023	0,142
-241,161	800,000	0,054	0,135
-240,146	61,538	-0,023	0,016
-239,132	-200,000	0,011	0,039
-238,117	800,000	-0,024	-0,066
-237,103	658,345	-0,022	-0,042
-236,088	663,646	-0,042	-0,079
-235,073	-79,040	0,179	-0,044
-234,059	800,000	0,062	0,131
-233,044	-15,686	0,085	0,039
-232,030	-200,000	-0,046	-0,172
-231,015	-200,000	0,017	0,092
-230,000	375,293	-0,086	-0,128
-228,986	52,668	0,023	-0,016
-227,971	-81,956	0,078	0,018
-226,957	-63,837	0,108	0,032
-225,942	-200,000	0,005	-0,108
-224,927	800,000	-0,031	-0,076
-223,913	44,721	-0,013	-0,009
-222,898	67,208	-0,197	-0,146
-221,884	32,669	-0,023	-0,015
-220,869	605,506	-0,050	0,092
-219,855	-200,000	-0,014	0,088
-218,840	-80,937	0,084	-0,020
-217,825	-97,293	-0,122	0,023
-216,811	-200,000	-0,000	-0,026
-215,796	-85,865	0,059	0,013
-214,782	800,000	0,009	-0,023
-213,767	90,337	0,077	0,063
-212,752	-14,517	0,136	0,064
-211,738	420,935	-0,004	-0,007
-210,723	-200,000	0,004	0,025
-209,709	155,291	-0,126	-0,127
-208,694	33,521	-0,025	-0,016
-207,679	-200,000	0,008	0,165
-206,665	25,221	-0,030	0,018
-205,650	87,684	0,104	-0,084
-204,636	38,073	-0,058	-0,038
-203,621	-96,179	-0,044	-0,008
-202,606	-200,000	-0,008	-0,055
-201,592	-200,000	-0,008	-0,176
-200,577	-200,000	0,001	-0,176
-199,563	-200,000	0,017	0,125
-198,548	-200,000	0,051	0,191
-197,533	-107,340	0,045	0,007
-196,519	-200,000	-0,004	0,033
-195,504	330,902	0,069	0,097
-194,490	800,000	-0,051	-0,104
-193,475	-52,122	-0,145	-0,049
-192,460	61,844	0,053	0,039
-191,446	8,835	-0,094	0,052
-190,431	-200,000	0,025	0,095
-189,417	104,182	0,116	0,100
-188,402	-200,000	-0,000	0,013
-187,387	-61,535	-0,143	0,043
-186,373	800,000	0,042	-0,108
-185,358	33,134	-0,037	0,023
-184,344	800,000	0,031	0,063
-183,329	-200,000	0,000	0,100
-182,315	2,152	0,094	-0,049
-181,300	-102,209	-0,115	0,020
-180,285	95,774	-0,025	-0,021
-179,271	74,048	-0,077	-0,059
-178,256	-200,000	-0,012	-0,042
-177,242	-200,000	-0,006	0,023
-176,227	54,517	0,042	-0,030
-175,212	800,000	0,045	-0,108
-174,198	800,000	-0,044	0,120
-173,183	310,010	-0,050	-0,068
-172,169	202,312	-0,114	-0,128
-171,154	241,548	-0,071	-0,087
-170,139	199,970	0,076	0,085
-169,125	703,489	-0,044	0,084
-168,110	800,000	0,041	0,114
-167,096	58,235	-0,073	0,052
-166,081	-108,325	-0,104	-0,016
-165,066	-200,000	0,006	-0,082
-164,052	-200,000	0,002	-0,146
-163,037	-153,367	0,103	-0,005
-162,023	290,453	0,052	0,068
-161,008	800,000	-0,060	0,139
-159,993	0,896	-0,066	0,034
-158,979	-27,732	-0,176	0,074
-157,964	-2,412	0,153	-0,078
-156,950	55,049	-0,179	0,126
-155,935	114,183	0,100	0,088
-154,920	-200,000	0,010	-0,092
-153,906	-141,187	0,072	0,005
-152,891	-200,000	-0,052	0,000
-151,877	-11,684	-0,062	-0,030
-150,862	160,166	0,039	0,039
-149,847	-85,891	0,040	0,009
-148,833	149,734	-0,022	0,022
-147,818	118,932	-0,045	-0,040
-146,804	-43,692	-0,074	-0,027
-145,789	-200,000	0,005	0,040
-144,775	-200,000	-0,009	0,054
-143,760	73,852	0,025	-0,019
-142,745	111,390	-0,137	-0,120
-141,731	135,976	0,071	-0,067
-140,716	-200,000	-0,015	0,055
-139,702	-92,146	0,082	-0,017
-138,687	-200,000	-0,003	0,018
-137,672	-200,000	-0,016	0,149
-136,658	-200,000	-0,004	0,065
-135,643	182,693	-0,014	-0,015
-134,629	121,440	-0,049	-0,045
-133,614	-86,369	-0,007	-0,002
-132,599	118,472	0,075	0,068
-131,585	-200,000	-0,034	0,161
-130,570	-96,723	-0,140	-0,027
-129,556	457,634	0,051	-0,082
-128,541	-200,000	-0,001	-0,013
-127,526	537,180	0,078	-0,136
-126,512	225,984	0,049	-0,058
-125,497	800,000	0,028	0,064
-124,483	-5,340	0,096	0,048
-123,468	800,000	0,062	0,139
-122,453	93,538	0,088	-0,072
-121,439	-93,432	-0,085	-0,017
-120,424	-52,240	0,159	-0,053
-119,410	273,202	0,084	0,108
-118,395	33,323	0,084	-0,053
