DTS Sentinel unit serial number:	SN410029Multiplexer serial number:	ORYXHardware model number:	OX2-SRSoftware version number:	ORYX F/W v4,00 Oryx Data Collector v3.7.2.0data status	okinstallation	B6 Nyhavnadifferential loss correction	single-endedforward channel	channel 2reverse channel	N/Adate	2023/12/07time	16:20:08forward acquisition time	300,00reverse acquisition time	0,00gamma	499,1914k internal	0,3164k external	0,3164temperature offset calibration	1,0000default loss term (dB/km)	0,3820temperature slope calibration	1,0000multiplexer offset coefficient	1,0000multiplexer slope coefficient	1,0000fibre end	0,00T internal ref (°C)	14,51T ext. ref 1 (°C)	-2,12T ext. ref 2 (°C)	-2,12length (m)	temperature (°C)	Stokes	anti-Stokes-744,400	800,000	0,023	-0,063
-743,385	-91,793	-0,221	-0,046
-742,371	587,761	0,036	-0,066
-741,356	-116,028	-0,266	0,036
-740,342	-10,728	0,104	0,050
-739,327	-124,926	-0,377	-0,042
-738,312	-74,206	0,136	-0,036
-737,298	101,395	-0,205	0,176
-736,283	-99,231	0,085	-0,016
-735,269	-86,886	-0,315	-0,070
-734,254	498,718	0,067	0,115
-733,239	-22,450	-0,355	-0,157
-732,225	-52,992	0,236	0,079
-731,210	-200,000	0,004	0,055
-730,196	-79,798	-0,109	-0,027
-729,181	125,317	0,083	-0,077
-728,167	436,196	0,023	-0,036
-727,152	800,000	-0,025	-0,064
-726,137	-74,235	-0,117	-0,031
-725,123	24,517	0,148	-0,090
-724,108	800,000	-0,075	-0,172
-723,094	-47,560	-0,145	-0,051
-722,079	81,482	-0,071	-0,057
-721,064	-200,000	0,019	-0,068
-720,050	164,984	-0,115	-0,120
-719,035	78,653	-0,028	-0,022
-718,021	425,938	-0,022	-0,035
-717,006	5,678	-0,110	-0,060
-715,991	456,932	0,053	-0,086
-714,977	487,576	-0,038	-0,065
-713,962	-42,741	0,037	0,014
-712,948	-200,000	-0,001	-0,022
-711,933	-200,000	0,021	-0,094
-710,918	104,583	0,068	0,059
-709,904	237,569	-0,101	-0,123
-708,889	106,981	0,057	-0,050
-707,875	-9,535	-0,068	-0,033
-706,860	800,000	-0,056	-0,165
-705,845	213,507	0,052	0,061
-704,831	379,420	-0,014	0,022
-703,816	-200,000	0,025	-0,140
-702,802	102,243	0,027	0,023
-701,787	-200,000	0,013	-0,047
-700,772	800,000	-0,033	-0,088
-699,758	43,316	0,106	-0,071
-698,743	490,970	0,020	-0,034
-697,729	19,370	0,082	-0,048
-696,714	155,114	0,029	0,029
-695,699	-200,000	-0,008	0,159
-694,685	48,476	0,117	-0,081
-693,670	-200,000	0,022	-0,140
-692,656	-89,596	-0,078	-0,017
-691,641	172,736	0,060	-0,064
-690,627	-110,678	-0,061	-0,009
-689,612	800,000	-0,029	0,076
-688,597	130,732	0,049	-0,047
-687,583	7,170	-0,063	-0,035
-686,568	106,451	0,024	0,021
-685,554	-200,000	-0,002	-0,058
-684,539	-54,205	0,101	-0,033
-683,524	-7,721	0,051	-0,025
-682,510	90,109	0,100	0,082
-681,495	13,656	0,015	-0,009
-680,481	13,018	-0,151	-0,086
-679,466	103,834	0,083	-0,071
-678,451	-50,528	-0,027	0,009
-677,437	-97,092	-0,114	-0,022
-676,422	368,921	-0,027	-0,040
-675,408	218,855	-0,036	0,042
-674,393	137,137	-0,061	-0,059
-673,378	-79,105	-0,038	-0,009
-672,364	135,348	-0,079	0,076
-671,349	534,365	-0,033	0,057
-670,335	-2,086	-0,087	-0,044
-669,320	107,966	0,084	-0,074
-668,305	41,779	-0,058	0,038
-667,291	78,846	0,062	-0,048
-666,276	611,488	-0,076	0,140
-665,262	-200,000	0,001	-0,144
-664,247	-200,000	0,021	0,117
-663,232	-200,000	0,010	-0,073
-662,218	-161,591	0,075	-0,003
-661,203	565,298	-0,041	-0,073
-660,189	800,000	-0,070	0,148
-659,174	-114,867	-0,084	0,012
-658,159	-200,000	0,020	-0,066
-657,145	-92,141	0,026	-0,005
-656,130	154,155	0,047	0,047
-655,116	219,339	0,063	-0,074
-654,101	-41,100	0,073	0,027
-653,086	-4,646	-0,130	0,065
-652,072	104,943	0,076	-0,066
-651,057	504,334	-0,037	-0,063
-650,043	-200,000	-0,012	0,081
-649,028	20,171	0,007	-0,004
-648,014	297,636	0,095	0,128
-646,999	379,303	-0,049	0,073
-645,984	-10,449	-0,054	-0,026
-644,970	-69,373	-0,140	0,039
-643,955	800,000	-0,037	-0,110
-642,941	1,990	-0,147	-0,078
-641,926	-200,000	-0,014	0,069
-640,911	110,305	0,025	0,022
-639,897	-200,000	-0,001	0,088
-638,882	274,840	-0,037	-0,049
-637,868	-200,000	-0,102	0,000
-636,853	400,354	-0,093	-0,144
-635,838	463,586	-0,058	0,096
-634,824	-200,000	-0,009	-0,055
-633,809	-66,660	0,105	0,030
-632,795	-200,000	0,038	0,163
-631,780	121,026	-0,066	0,061
-630,765	800,000	-0,020	-0,055
-629,751	-97,849	-0,195	0,037
-628,736	326,971	0,043	0,061
-627,722	-200,000	0,008	-0,080
-626,707	-163,183	-0,016	-0,001
-625,692	-200,000	-0,004	0,070
-624,678	287,798	-0,056	0,075
-623,663	140,774	-0,049	0,047
-622,649	166,469	0,063	0,066
-621,634	339,287	-0,058	0,082
-620,619	154,443	-0,080	0,080
-619,605	-200,000	0,018	-0,155
-618,590	800,000	-0,039	0,103
-617,576	364,842	-0,073	0,108
-616,561	150,279	0,026	0,026
-615,546	-200,000	0,002	-0,069
-614,532	301,221	0,018	-0,025
-613,517	-200,000	0,001	0,043
-612,503	1,468	0,073	-0,038
-611,488	129,503	-0,078	0,073
-610,474	-200,000	0,008	0,032
-609,459	800,000	-0,027	0,088
-608,444	617,255	-0,063	-0,117
-607,430	-89,634	-0,110	0,023
-606,415	691,241	-0,047	-0,090
-605,401	231,211	0,025	0,030
-604,386	7,269	-0,046	0,025
-603,371	800,000	-0,027	0,059
-602,357	121,334	0,019	-0,017
-601,342	-8,123	0,135	0,066
-600,328	162,442	-0,125	-0,129
-599,313	41,904	0,037	-0,025
-598,298	-200,000	-0,004	0,085
-597,284	220,774	0,016	-0,019
-596,269	800,000	-0,037	-0,108
-595,255	-28,828	0,038	-0,016
-594,240	-171,317	-0,076	-0,002
-593,225	-63,790	-0,195	-0,058
-592,211	57,743	0,034	0,024
-591,196	62,151	-0,057	-0,041
-590,182	-100,132	0,035	-0,006
-589,167	-34,002	0,102	-0,041
-588,152	160,154	-0,024	0,024
-587,138	-200,000	0,011	-0,064
-586,123	231,955	0,029	-0,035
-585,109	-200,000	-0,004	-0,113
-584,094	261,044	-0,089	-0,113
-583,079	5,371	-0,067	-0,036
-582,065	69,049	-0,002	-0,001
-581,050	615,474	-0,008	-0,016
-580,036	800,000	0,042	0,105
-579,021	160,758	0,157	-0,161
-578,006	82,471	0,046	-0,036
-576,992	140,148	0,029	-0,028
-575,977	-53,898	0,088	0,029
-574,963	8,441	0,151	0,083
-573,948	285,831	0,103	-0,137
-572,934	100,931	-0,007	0,006
-571,919	72,855	-0,078	-0,059
-570,904	800,000	0,029	-0,063
-569,890	-128,509	0,108	0,011
-568,875	-19,462	0,034	-0,015
-567,861	112,003	0,123	0,108
-566,846	-200,000	-0,002	0,053
-565,831	16,716	0,116	0,067
-564,817	800,000	0,015	0,037
-563,802	239,938	0,033	0,041
-562,788	800,000	0,041	0,130
-561,773	131,495	-0,040	-0,038
-560,758	-121,453	0,152	0,018
-559,744	-54,867	0,134	0,044
-558,729	558,730	-0,072	0,128
-557,715	38,484	-0,057	-0,037
-556,700	-200,000	-0,025	-0,161
-555,685	-123,727	-0,159	0,018
-554,671	-100,763	0,144	0,026
-553,656	-109,947	-0,043	0,006
-552,642	41,985	-0,108	0,072
-551,627	-78,395	0,080	-0,020
-550,612	777,757	-0,031	-0,062
-549,598	32,559	-0,243	-0,153
-548,583	377,570	-0,080	-0,120
-547,569	88,563	-0,072	0,059
-546,554	-10,076	0,116	0,056
-545,539	-1,527	0,056	-0,029
-544,525	-60,313	0,077	0,024
-543,510	489,434	-0,090	-0,151
-542,496	-45,735	0,166	-0,060
-541,481	264,367	0,047	-0,060
-540,466	68,844	-0,062	-0,047
-539,452	369,262	0,068	0,101
-538,437	-78,527	-0,048	0,012
-537,423	-200,000	-0,051	0,228
-536,408	800,000	-0,008	-0,021
-535,393	112,449	0,088	-0,078
-534,379	-200,000	0,003	-0,058
-533,364	-37,831	-0,074	-0,029
-532,350	22,114	0,137	-0,081
-531,335	120,249	-0,040	-0,036
-530,321	-200,000	0,024	-0,079
-529,306	-2,322	-0,120	-0,061
-528,291	29,600	-0,068	0,042
-527,277	13,423	-0,056	-0,031
-526,262	-106,308	0,061	0,010
-525,248	148,909	0,095	0,093
-524,233	-89,540	0,053	0,011
-523,218	800,000	-0,064	0,202
-522,204	-144,721	0,068	-0,005
-521,189	287,952	-0,054	-0,071
-520,175	388,470	0,039	-0,060
-519,160	-200,000	-0,010	-0,077
-518,145	-200,000	0,002	-0,076
-517,131	206,584	0,043	0,049
-516,116	-178,567	0,126	0,002
-515,102	8,605	0,029	0,016
-514,087	10,427	-0,034	0,019
-513,072	344,396	-0,068	-0,098
-512,058	207,460	0,029	-0,033
-511,043	-25,599	-0,044	-0,019
-510,029	-174,908	-0,017	0,000
-509,014	800,000	0,035	0,073
-507,999	-200,000	-0,005	-0,054
-506,985	-200,000	0,012	-0,069
-505,970	800,000	-0,057	0,126
-504,956	108,403	0,061	-0,053
-503,941	234,977	0,044	0,053
-502,926	-200,000	0,036	-0,139
-501,912	99,037	0,149	0,126
-500,897	-121,251	-0,070	0,008
-499,883	-200,000	-0,056	-0,284
-498,868	-200,000	-0,021	-0,093
-497,853	46,379	0,109	0,073
-496,839	-160,009	0,099	-0,004
-495,824	439,364	0,066	-0,105
-494,810	800,000	0,021	0,063
-493,795	-10,920	0,078	0,038
-492,781	566,340	0,042	-0,075
-491,766	-200,000	-0,010	-0,144
-490,751	153,361	-0,034	-0,034
-489,737	112,480	-0,049	0,043
-488,722	263,702	-0,028	-0,035
-487,708	61,622	0,025	0,018
-486,693	199,215	-0,060	-0,067
-485,678	112,587	-0,133	0,117
-484,664	-200,000	-0,005	-0,019
-483,649	-200,000	0,050	-0,216
-482,635	-101,837	0,093	-0,016
-481,620	800,000	0,054	0,143
-480,605	-200,000	0,003	0,078
-479,591	570,001	0,033	0,059
-478,576	-185,809	0,183	-0,002
-477,562	117,198	-0,015	-0,014
-476,547	340,604	0,070	-0,099
-475,532	-200,000	-0,013	0,052
-474,518	339,103	0,006	-0,008
-473,503	-200,000	0,042	0,188
-472,489	800,000	-0,024	0,069
-471,474	-34,637	-0,117	-0,046
-470,459	285,523	-0,034	0,045
-469,445	-11,863	-0,076	-0,036
-468,430	800,000	0,087	0,201
-467,416	-200,000	0,006	0,091
-466,401	800,000	0,023	0,067
-465,386	532,459	-0,054	0,094
-464,372	27,463	-0,055	-0,033
-463,357	19,802	0,172	0,100
-462,343	-70,740	0,044	-0,012
-461,328	-46,821	0,064	-0,023
-460,313	-139,412	-0,016	0,001
-459,299	-200,000	0,033	-0,109
-458,284	68,954	0,068	-0,051
-457,270	-200,000	-0,020	-0,149
-456,255	-200,000	-0,019	-0,095
-455,241	800,000	0,052	-0,141
-454,226	25,651	-0,113	0,068
-453,211	-200,000	0,011	0,054
-452,197	-200,000	0,004	0,036
-451,182	-62,330	-0,103	0,031
-450,168	390,368	-0,032	-0,049
-449,153	-200,000	0,004	0,043
-448,138	177,851	-0,120	-0,127
-447,124	-200,000	0,003	-0,048
-446,109	800,000	-0,044	0,127
-445,095	192,137	0,093	-0,102
-444,080	-91,088	-0,055	0,011
-443,065	-200,000	-0,033	0,158
-442,051	-200,000	0,005	-0,105
-441,036	-136,030	-0,041	0,003
-440,022	800,000	0,096	-0,229
-439,007	27,469	0,141	-0,086
-437,992	62,066	0,116	0,084
-436,978	163,302	0,113	0,116
-435,963	419,011	-0,022	-0,035
-434,949	1,594	0,045	0,024
-433,934	800,000	0,016	-0,046
-432,919	-200,000	-0,026	-0,110
-431,905	235,585	-0,023	-0,028
-430,890	-200,000	-0,007	-0,053
-429,876	-200,000	0,011	0,073
-428,861	-200,000	-0,004	0,102
-427,846	623,910	-0,038	0,069
-426,832	35,813	-0,087	0,055
-425,817	-200,000	-0,026	-0,096
-424,803	349,455	-0,010	-0,015
-423,788	800,000	-0,003	-0,007
-422,773	97,866	0,116	0,097
-421,759	539,952	0,023	0,040
-420,744	-59,221	-0,127	0,040
-419,730	270,374	0,147	-0,188
-418,715	-200,000	0,025	-0,099
-417,701	-89,643	0,085	-0,018
-416,686	800,000	0,041	-0,087
-415,671	-127,036	0,090	-0,009
-414,657	-200,000	-0,021	-0,084
-413,642	36,856	-0,136	-0,087
-412,628	-133,722	-0,180	-0,016
-411,613	-103,065	-0,042	0,007
-410,598	-172,412	-0,044	0,001
-409,584	-1,325	0,067	0,034
-408,569	-200,000	-0,006	0,175
-407,555	160,726	0,034	0,035
-406,540	-93,417	0,130	-0,026
-405,525	-200,000	0,014	0,046
-404,511	66,438	-0,031	-0,023
-403,496	-200,000	0,003	-0,009
-402,482	-81,363	0,082	0,020
-401,467	-200,000	0,003	0,051
-400,452	800,000	-0,052	0,143
-399,438	441,592	-0,013	0,021
-398,423	34,869	-0,052	-0,033
-397,409	212,100	0,146	-0,168
-396,394	435,336	0,043	0,068
-395,379	800,000	0,023	0,054
-394,365	192,509	0,029	-0,032
-393,350	55,892	0,066	0,046
-392,336	-200,000	-0,007	0,065
-391,321	218,330	0,046	-0,054
-390,306	260,774	0,041	0,052
-389,292	-200,000	-0,252	0,001
-388,277	-186,697	-0,138	-0,001
-387,263	-43,465	0,190	0,069
-386,248	310,917	0,084	0,115
-385,233	-52,293	0,072	0,024
-384,219	564,254	-0,021	0,037
-383,204	-137,419	-0,035	0,003
-382,190	-48,680	0,075	0,026
-381,175	-52,043	0,032	-0,011
-380,160	108,564	-0,064	-0,056
-379,146	-178,215	0,052	0,001
-378,131	696,193	-0,070	0,134
-377,117	141,710	-0,144	0,139
-376,102	-158,798	0,157	0,006
-375,088	442,283	-0,074	0,119
-374,073	-200,000	0,001	-0,019
-373,058	468,668	-0,015	-0,025
-372,044	91,439	0,147	0,119
-371,029	800,000	-0,052	0,112
-370,015	-124,147	0,086	-0,010
-369,000	713,110	-0,043	-0,084
-367,985	31,758	-0,161	-0,100
-366,971	-200,000	0,019	-0,107
-365,956	800,000	-0,024	0,066
-364,942	-6,876	0,068	0,033
-363,927	673,381	0,064	0,120
-362,912	78,417	-0,103	0,080
-361,898	-200,000	0,033	0,120
-360,883	-200,000	0,027	-0,119
-359,869	149,363	0,105	-0,103
-358,854	32,829	-0,070	-0,044
-357,839	170,648	-0,118	0,122
-356,825	800,000	0,063	0,145
-355,810	79,776	-0,149	0,116
-354,796	148,390	-0,023	0,023
-353,781	6,987	-0,092	0,050
-352,766	-73,864	-0,054	0,014
-351,752	-61,560	0,064	-0,019
-350,737	-200,000	0,005	-0,069
-349,723	-200,000	-0,011	-0,036
-348,708	-177,783	0,095	-0,002
-347,693	-157,500	0,132	0,006
-346,679	-28,716	0,179	0,074
-345,664	-200,000	-0,000	-0,055
-344,650	800,000	-0,021	-0,044
-343,635	143,883	-0,043	0,041
-342,620	-200,000	0,016	-0,084
-341,606	100,294	-0,020	-0,016
-340,591	76,675	-0,140	-0,107
-339,577	-200,000	-0,007	-0,022
-338,562	231,331	-0,044	-0,052
-337,548	95,047	-0,093	-0,077
-336,533	-175,220	-0,050	0,001
-335,518	-101,964	0,093	-0,016
-334,504	331,914	0,070	0,099
-333,489	-47,000	0,059	-0,021
-332,475	-14,964	-0,123	0,057
-331,460	-200,000	-0,016	-0,102
-330,445	800,000	0,061	-0,147
-329,431	156,214	-0,076	0,076
-328,416	-200,000	-0,024	0,097
-327,402	-10,702	0,026	0,012
-326,387	-15,910	0,043	-0,020
-325,372	-36,079	-0,029	-0,011
-324,358	-200,000	-0,053	-0,181
-323,343	251,464	0,016	-0,020
-322,329	41,831	0,021	-0,014
-321,314	-84,125	0,054	-0,012
-320,299	361,617	0,059	0,086
-319,285	800,000	0,047	-0,105
-318,270	-200,000	0,020	-0,133
-317,256	421,376	-0,063	0,098
-316,241	-2,122	-0,019	-0,010
-315,226	228,378	0,019	-0,023
-314,212	22,658	0,060	-0,036
-313,197	81,911	0,073	-0,058
-312,183	333,001	0,016	0,022
-311,168	-200,000	0,000	-0,025
-310,153	-200,000	-0,017	-0,056
-309,139	-110,395	0,135	-0,020
-308,124	478,361	-0,024	-0,039
-307,110	373,258	-0,065	0,095
-306,095	-34,282	-0,022	0,009
-305,080	74,442	-0,088	0,067
-304,066	700,503	-0,017	0,033
-303,051	264,946	-0,074	-0,093
-302,037	-200,000	0,043	0,000
-301,022	681,353	0,030	0,056
-300,008	-171,511	0,124	0,003
-298,993	800,000	-0,047	0,108
-297,978	-187,646	-0,023	-0,000
-296,964	-138,840	-0,088	0,007
-295,949	321,847	0,035	0,049
-294,935	800,000	0,029	0,080
-293,920	-90,972	-0,130	0,027
-292,905	800,000	-0,084	0,171
-291,891	-200,000	0,014	0,077
-290,876	-200,000	0,023	0,098
-289,862	229,176	-0,087	0,102
-288,847	-200,000	0,003	0,056
-287,832	-200,000	-0,014	0,081
-286,818	-200,000	-0,012	-0,063
-285,803	80,929	0,090	0,070
-284,789	-20,783	-0,043	-0,019
-283,774	-163,666	-0,010	-0,000
-282,759	17,907	-0,101	-0,058
-281,745	-120,849	-0,119	0,014
-280,730	640,090	-0,015	-0,028
-279,716	-200,000	0,023	0,218
-278,701	-96,134	-0,135	0,026
-277,686	-78,110	0,060	0,015
-276,672	-200,000	0,029	-0,115
-275,657	659,324	-0,025	0,046
-274,643	-200,000	0,004	-0,054
-273,628	-64,151	-0,113	0,033
-272,613	690,612	0,010	-0,018
-271,599	-94,583	0,115	-0,022
-270,584	405,461	-0,060	0,092
-269,570	-200,000	0,019	0,064
-268,555	-18,956	-0,085	0,038
-267,540	-200,000	-0,002	0,111
-266,526	-9,841	-0,128	-0,061
-265,511	-200,000	0,012	-0,075
-264,497	237,989	-0,031	-0,037
-263,482	451,662	0,029	-0,047
-262,467	713,372	0,048	-0,093
-261,453	97,188	-0,044	0,037
-260,438	126,010	-0,040	0,037
-259,424	-200,000	-0,011	-0,051
-258,409	519,092	-0,067	-0,113
-257,395	-138,125	0,193	-0,015
-256,380	-131,128	-0,080	0,008
-255,365	-95,697	-0,041	0,008
-254,351	2,671	0,115	0,060
-253,336	800,000	-0,035	0,091
-252,322	800,000	-0,042	-0,085
-251,307	45,724	0,048	-0,032
-250,292	387,729	-0,048	0,072
-249,278	-112,418	0,079	-0,011
-248,263	-77,283	-0,049	-0,012
-247,249	-200,000	0,000	0,086
-246,234	-103,855	0,072	-0,012
-245,219	-36,349	-0,172	-0,067
-244,205	-83,590	-0,155	-0,035
-243,190	-23,047	-0,057	-0,025
-242,176	356,623	-0,035	0,050
-241,161	-86,055	-0,105	-0,023
-240,146	-60,784	0,100	0,030
-239,132	-155,662	-0,078	-0,004
-238,117	-174,088	-0,017	0,000
-237,103	-38,381	-0,027	-0,010
-236,088	-200,000	0,023	-0,125
-235,073	-200,000	0,024	-0,091
-234,059	372,699	0,075	0,111
-233,044	-121,245	0,128	0,015
-232,030	32,562	-0,053	0,033
-231,015	31,773	-0,089	0,055
-230,000	29,065	0,043	-0,026
-228,986	231,807	-0,157	-0,186
-227,971	240,042	-0,089	-0,107
-226,957	-68,080	0,118	0,033
-225,942	800,000	0,020	-0,062
-224,927	565,743	0,033	-0,058
-223,913	800,000	0,061	-0,133
-222,898	-49,970	-0,024	0,008
-221,884	402,601	0,025	0,037
-220,869	-200,000	-0,001	0,035
-219,855	-112,502	-0,030	0,004
-218,840	161,862	0,060	0,060
-217,825	-46,917	-0,034	0,012
-216,811	800,000	-0,007	0,016
-215,796	-60,008	-0,217	-0,066
-214,782	-92,428	-0,140	-0,028
-213,767	-200,000	0,015	-0,158
-212,752	-11,787	0,074	-0,035
-211,738	-200,000	0,036	-0,130
-210,723	113,097	0,140	0,122
-209,709	167,539	0,080	-0,082
-208,694	-84,914	0,117	0,026
-207,679	800,000	0,019	0,054
-206,665	800,000	0,021	0,059
-205,650	17,505	0,083	-0,047
-204,636	-200,000	0,043	0,176
-203,621	-108,795	0,043	0,007
-202,606	52,464	-0,052	0,036
-201,592	261,729	-0,099	-0,124
-200,577	-13,309	-0,091	-0,042
-199,563	0,970	0,033	0,017
-198,548	-69,680	-0,136	0,037
-197,533	-200,000	-0,029	0,098
-196,519	-200,000	0,007	0,072
-195,504	-151,710	-0,199	0,010
-194,490	-117,876	0,110	0,014
-193,475	87,609	-0,082	-0,066
-192,460	564,826	0,080	-0,140
-191,446	-84,661	-0,073	0,016
-190,431	524,475	0,082	0,139
-189,417	-110,055	-0,121	-0,018
-188,402	365,469	0,050	-0,073
-187,387	23,968	0,052	-0,031
-186,373	219,691	0,024	0,028
-185,358	-7,017	0,079	-0,038
-184,344	-82,904	0,020	0,005
-183,329	296,481	0,043	-0,056
-182,315	800,000	0,044	0,136
-181,300	-130,908	0,135	-0,013
-180,285	-200,000	-0,007	-0,097
-179,271	-17,733	0,200	-0,090
-178,256	-2,110	-0,033	-0,017
-177,242	176,799	0,007	0,007
-176,227	-126,778	0,105	0,011
-175,212	-127,122	-0,033	0,003
-174,198	301,497	-0,084	0,112
-173,183	-200,000	-0,031	-0,101
-172,169	800,000	-0,021	-0,059
-171,154	800,000	0,039	-0,088
-170,139	251,763	0,093	-0,114
-169,125	-200,000	-0,023	0,123
-168,110	-200,000	0,015	0,131
-167,096	-200,000	-0,040	0,144
-166,081	-163,246	-0,128	0,004
-165,066	289,275	0,028	-0,036
-164,052	371,307	-0,012	-0,017
-163,037	-164,258	0,121	0,004
-162,023	-45,703	-0,031	-0,011
-161,008	-200,000	0,004	-0,029
-159,993	800,000	0,046	-0,100
-158,979	215,398	-0,047	-0,054
-157,964	-9,147	-0,082	-0,040
-156,950	-200,000	-0,101	-0,000
-155,935	800,000	0,038	0,094
-154,920	2,839	0,110	0,057
-153,906	-17,196	0,083	0,037
-152,891	-112,057	-0,082	-0,012
-151,877	800,000	0,035	0,107
-150,862	-200,000	0,019	-0,139
-149,847	414,502	-0,033	-0,051
-148,833	-200,000	0,013	0,084
-147,818	419,781	0,107	0,166
-146,804	280,206	0,135	0,174
-145,789	800,000	-0,041	0,097
-144,775	-82,893	-0,068	0,016
-143,760	-88,522	-0,052	-0,011
-142,745	55,781	-0,087	-0,060
-141,731	419,887	0,023	0,036
-140,716	563,189	0,030	0,052
-139,702	-200,000	-0,024	-0,104
-138,687	-200,000	-0,005	0,058
-137,672	-132,596	-0,122	-0,011
-136,658	-127,526	0,082	-0,008
-135,643	-85,976	-0,132	-0,029
-134,629	701,534	0,009	0,018
-133,614	800,000	-0,041	0,099
-132,599	10,527	0,056	-0,030
-131,585	-56,549	0,189	0,060
-130,570	89,344	0,069	0,055
-129,556	21,005	-0,124	0,072
-128,541	800,000	0,028	-0,071
-127,526	-200,000	-0,004	-0,041
-126,512	278,528	-0,037	-0,048
-125,497	-17,893	0,127	-0,057
-124,483	800,000	-0,032	0,093
-123,468	-200,000	-0,024	-0,077
-122,453	601,266	-0,041	-0,073
-121,439	118,296	0,051	-0,046
-120,424	485,724	0,065	-0,108
-119,410	-59,507	0,126	0,039
