DTS Sentinel unit serial number:	SN410029Multiplexer serial number:	ORYXHardware model number:	OX2-SRSoftware version number:	ORYX F/W v4,00 Oryx Data Collector v3.7.2.0data status	okinstallation	B6 Nyhavnadifferential loss correction	single-endedforward channel	channel 2reverse channel	N/Adate	2023/12/11time	08:25:08forward acquisition time	300,00reverse acquisition time	0,00gamma	499,1914k internal	0,3129k external	0,3129temperature offset calibration	1,0000default loss term (dB/km)	0,3820temperature slope calibration	1,0000multiplexer offset coefficient	1,0000multiplexer slope coefficient	1,0000fibre end	0,00T internal ref (°C)	17,91T ext. ref 1 (°C)	0,17T ext. ref 2 (°C)	0,18length (m)	temperature (°C)	Stokes	anti-Stokes-744,400	145,106	0,091	0,090
-743,385	-109,074	-0,106	0,017
-742,371	800,000	0,027	-0,060
-741,356	-42,216	-0,254	0,096
-740,342	40,559	0,161	-0,107
-739,327	-111,130	-0,332	-0,050
-738,312	-200,000	0,002	0,094
-737,298	-122,499	-0,243	-0,029
-736,283	-101,395	0,159	-0,029
-735,269	137,025	-0,158	-0,153
-734,254	800,000	0,050	0,129
-733,239	-52,119	-0,417	-0,143
-732,225	-170,533	0,334	0,008
-731,210	-200,000	-0,001	0,147
-730,196	-116,670	-0,011	0,001
-729,181	-200,000	-0,013	0,061
-728,167	42,740	-0,108	0,073
-727,152	623,379	-0,032	0,060
-726,137	800,000	-0,015	0,039
-725,123	-183,369	-0,081	0,001
-724,108	27,476	-0,083	-0,051
-723,094	-200,000	-0,001	-0,161
-722,079	89,571	0,043	-0,036
-721,064	688,825	-0,049	-0,096
-720,050	-123,544	0,191	0,022
-719,035	-37,361	-0,071	-0,028
-718,021	800,000	0,024	0,071
-717,006	15,343	-0,160	-0,093
-715,991	-200,000	-0,009	-0,107
-714,977	-200,000	-0,001	-0,173
-713,962	-200,000	0,019	-0,097
-712,948	371,708	-0,048	0,073
-711,933	3,048	-0,135	0,073
-710,918	187,629	0,100	0,111
-709,904	-102,840	-0,144	-0,025
-708,889	21,599	0,217	-0,131
-707,875	-75,888	-0,061	-0,016
-706,860	-178,139	0,054	0,001
-705,845	284,743	0,053	0,071
-704,831	-200,000	-0,019	0,073
-703,816	297,853	0,029	0,040
-702,802	85,059	-0,107	-0,087
-701,787	-114,077	-0,079	0,011
-700,772	800,000	-0,017	-0,042
-699,758	-144,216	0,050	-0,003
-698,743	-134,787	-0,044	0,004
-697,729	175,226	0,064	0,069
-696,714	552,885	0,061	0,109
-695,699	102,084	-0,051	-0,044
-694,685	-88,900	-0,114	-0,025
-693,670	145,388	-0,110	-0,110
-692,656	-200,000	-0,013	-0,042
-691,641	800,000	-0,048	-0,144
-690,627	1,121	0,172	-0,091
-689,612	-200,000	0,012	-0,076
-688,597	217,914	0,032	-0,037
-687,583	77,858	0,010	-0,008
-686,568	77,386	-0,098	-0,077
-685,554	-22,730	0,082	-0,037
-684,539	222,418	-0,091	0,109
-683,524	218,745	-0,024	-0,028
-682,510	217,500	0,070	-0,083
-681,495	203,251	-0,043	-0,050
-680,481	-2,204	-0,181	-0,094
-679,466	163,268	-0,095	-0,099
-678,451	-60,488	-0,139	-0,044
-677,437	35,474	-0,027	-0,017
-676,422	270,141	0,052	0,068
-675,408	1,475	-0,063	-0,033
-674,393	167,166	-0,055	-0,058
-673,378	53,708	-0,103	-0,073
-672,364	181,698	-0,054	-0,059
-671,349	106,215	-0,069	0,061
-670,335	7,799	0,075	0,041
-669,320	10,888	-0,208	-0,118
-668,305	800,000	-0,120	0,328
-667,291	356,604	-0,056	0,084
-666,276	502,084	-0,043	-0,074
-665,262	-165,780	-0,174	-0,005
-664,247	-200,000	-0,004	0,120
-663,232	681,530	-0,020	0,038
-662,218	-200,000	-0,030	0,123
-661,203	800,000	-0,012	-0,027
-660,189	104,343	-0,055	-0,048
-659,174	-200,000	0,018	0,124
-658,159	9,291	-0,111	0,062
-657,145	-77,561	0,035	-0,009
-656,130	-53,422	0,021	0,007
-655,116	92,118	-0,085	0,071
-654,101	-200,000	0,029	0,122
-653,086	-110,973	0,101	-0,015
-652,072	282,223	-0,028	0,038
-651,057	100,850	-0,063	-0,054
-650,043	-200,000	0,013	-0,104
-649,028	664,690	0,013	-0,024
-648,014	365,252	-0,029	0,044
-646,999	-47,158	0,028	-0,010
-645,984	66,378	-0,019	0,014
-644,970	52,248	-0,083	0,059
-643,955	7,541	0,104	-0,058
-642,941	52,533	-0,123	-0,087
-641,926	18,814	-0,038	-0,022
-640,911	-200,000	-0,027	0,109
-639,897	-200,000	0,003	0,084
-638,882	-28,720	0,152	0,064
-637,868	-100,560	-0,065	0,012
-636,853	13,422	-0,096	-0,055
-635,838	-52,353	-0,045	0,015
-634,824	267,065	-0,107	-0,139
-633,809	-119,110	0,130	0,017
-632,795	785,562	0,054	0,111
-631,780	-24,977	-0,048	0,021
-630,765	5,392	-0,091	-0,049
-629,751	109,074	-0,109	-0,097
-628,736	98,743	-0,082	-0,070
-627,722	50,535	-0,073	0,051
-626,707	-47,928	-0,173	0,062
-625,692	73,208	-0,046	-0,036
-624,678	346,231	-0,095	0,138
-623,663	-200,000	-0,010	0,158
-622,649	800,000	0,050	-0,131
-621,634	52,205	-0,080	-0,056
-620,619	-106,301	0,037	-0,006
-619,605	-200,000	0,022	-0,084
-618,590	161,162	0,057	-0,059
-617,576	800,000	0,041	-0,101
-616,561	-143,128	0,071	0,005
-615,546	-98,092	-0,085	0,016
-614,532	35,858	-0,073	-0,047
-613,517	-200,000	0,016	-0,065
-612,503	38,186	-0,036	0,023
-611,488	-200,000	0,026	0,129
-610,474	800,000	-0,027	0,065
-609,459	-200,000	0,015	0,070
-608,444	-143,907	-0,108	-0,007
-607,430	75,292	-0,043	-0,033
-606,415	800,000	-0,034	-0,092
-605,401	-200,000	-0,013	0,082
-604,386	216,479	0,050	0,059
-603,371	-146,543	0,057	0,004
-602,357	-17,173	-0,046	0,022
-601,342	592,241	-0,046	-0,084
-600,328	-10,903	-0,118	-0,058
-599,313	-59,264	0,128	0,040
-598,298	-55,817	0,052	-0,017
-597,284	106,330	-0,055	-0,049
-596,269	161,954	-0,024	0,025
-595,255	800,000	-0,038	0,116
-594,240	-105,662	-0,071	-0,012
-593,225	-67,876	-0,083	-0,024
-592,211	138,534	0,125	-0,121
-591,196	189,693	-0,136	-0,150
-590,182	2,526	0,072	-0,039
-589,167	-200,000	0,021	0,132
-588,152	-56,721	0,098	-0,032
-587,138	13,148	-0,035	-0,020
-586,123	-167,174	-0,160	-0,005
-585,109	131,554	0,100	-0,095
-584,094	800,000	-0,025	0,065
-583,079	106,299	0,061	-0,054
-582,065	240,643	0,042	0,052
-581,050	800,000	0,014	-0,043
-580,036	417,567	0,036	-0,057
-579,021	689,444	-0,036	0,071
-578,006	491,893	-0,085	-0,144
-576,992	100,258	-0,067	-0,057
-575,977	269,846	0,043	-0,055
-574,963	161,923	0,109	-0,113
-573,948	-200,000	0,004	-0,016
-572,934	800,000	0,023	-0,050
-571,919	674,094	-0,049	-0,095
-570,904	242,937	-0,152	-0,189
-569,890	-21,328	-0,141	-0,063
-568,875	-81,122	0,076	-0,018
-567,861	154,138	0,102	0,104
-566,846	161,803	0,013	0,014
-565,831	-23,818	-0,131	0,058
-564,817	-200,000	0,009	-0,037
-563,802	-169,928	-0,107	-0,003
-562,788	207,478	-0,035	-0,041
-561,773	-200,000	-0,012	-0,042
-560,758	245,912	-0,057	0,071
-559,744	103,770	0,022	0,019
-558,729	-86,942	0,031	-0,007
-557,715	126,259	-0,032	-0,030
-556,700	202,556	-0,022	-0,025
-555,685	800,000	-0,029	0,061
-554,671	-200,000	-0,004	0,116
-553,656	-76,359	0,120	-0,031
-552,642	-25,369	-0,069	0,030
-551,627	-200,000	-0,026	0,175
-550,612	202,963	-0,073	-0,084
-549,598	-200,000	-0,047	-0,209
-548,583	62,702	0,080	-0,059
-547,569	-13,775	0,055	-0,026
-546,554	-200,000	0,001	-0,033
-545,539	800,000	0,057	0,133
-544,525	-77,014	0,061	0,016
-543,510	2,220	-0,190	-0,101
-542,496	23,268	-0,070	-0,042
-541,481	169,786	-0,063	-0,066
-540,466	-113,559	0,122	-0,017
-539,452	-79,062	-0,087	0,022
-538,437	-200,000	-0,002	0,114
-537,423	800,000	-0,054	0,137
-536,408	-66,882	0,086	-0,025
-535,393	-96,039	-0,165	-0,032
-534,379	800,000	0,007	-0,020
-533,364	142,070	0,063	-0,062
-532,350	141,516	0,061	-0,059
-531,335	-105,702	-0,044	-0,007
-530,321	-200,000	-0,017	-0,096
-529,306	133,669	-0,040	0,038
-528,291	155,481	-0,018	0,018
-527,277	-124,365	0,105	-0,012
-526,262	139,363	-0,016	0,016
-525,248	758,019	-0,034	0,069
-524,233	-32,450	0,186	0,076
-523,218	800,000	0,067	0,163
-522,204	800,000	-0,046	-0,129
-521,189	-135,746	0,080	-0,007
-520,175	614,327	0,072	-0,133
-519,160	-64,936	0,083	0,025
-518,145	800,000	0,031	0,101
-517,131	623,274	-0,028	-0,052
-516,116	363,835	0,059	0,088
-515,102	36,595	-0,132	-0,086
-514,087	65,976	0,102	0,076
-513,072	232,056	0,070	0,085
-512,058	-128,468	-0,142	0,015
-511,043	13,785	0,051	0,029
-510,029	-200,000	-0,003	0,225
-509,014	-200,000	0,013	0,193
-507,999	170,923	0,048	0,050
-506,985	-139,729	0,129	0,010
-505,970	-47,406	-0,096	-0,034
-504,956	-200,000	-0,024	-0,163
-503,941	-49,404	0,041	0,014
-502,926	9,622	0,074	-0,041
-501,912	683,470	0,054	0,105
-500,897	-200,000	0,002	0,023
-499,883	615,327	-0,040	0,073
-498,868	324,251	-0,023	-0,032
-497,853	458,705	-0,062	-0,102
-496,839	6,424	-0,066	0,036
-495,824	33,376	0,180	-0,115
-494,810	-8,915	-0,065	-0,032
-493,795	146,959	-0,079	-0,078
-492,781	-159,912	0,083	-0,003
-491,766	-200,000	0,034	-0,133
-490,751	-125,536	0,051	-0,006
-489,737	-200,000	0,001	0,029
-488,722	-200,000	0,008	0,042
-487,708	800,000	0,058	0,138
-486,693	117,910	-0,083	-0,076
-485,678	10,398	0,112	-0,063
-484,664	47,782	0,158	0,108
-483,649	800,000	-0,042	0,101
-482,635	379,816	-0,051	-0,077
-481,620	-40,223	-0,057	0,022
-480,605	-22,133	0,062	-0,027
-479,591	-107,976	0,204	0,032
-478,576	-200,000	-0,083	0,000
-477,562	110,707	-0,107	0,095
-476,547	800,000	-0,047	0,112
-475,532	-25,669	0,099	-0,043
-474,518	-26,348	0,122	-0,052
-473,503	312,006	0,051	-0,070
-472,489	-142,671	0,059	-0,004
-471,474	234,743	-0,016	-0,020
-470,459	-80,449	-0,139	-0,034
-469,445	55,997	-0,053	-0,038
-468,430	-131,573	0,074	0,007
-467,416	-13,539	-0,051	0,024
-466,401	-171,227	0,056	-0,001
-465,386	-101,267	0,093	-0,017
-464,372	46,610	0,071	0,049
-463,357	-169,278	-0,043	0,001
-462,343	296,304	-0,118	-0,159
-461,328	-200,000	0,006	-0,062
-460,313	-47,399	0,133	0,047
-459,299	-110,629	-0,144	0,022
-458,284	-111,011	-0,021	-0,003
-457,270	86,272	-0,118	0,095
-456,255	-143,296	-0,051	-0,004
-455,241	93,797	-0,041	0,034
-454,226	-200,000	0,003	-0,023
-453,211	40,562	0,109	-0,072
-452,197	14,011	0,073	-0,042
-451,182	213,253	-0,023	0,027
-450,168	582,310	-0,065	-0,118
-449,153	-200,000	0,016	-0,087
-448,138	-124,652	0,214	0,024
-447,124	-200,000	-0,020	-0,082
-446,109	800,000	0,063	0,173
-445,095	-135,433	0,104	0,009
-444,080	800,000	0,028	0,070
-443,065	-93,457	0,102	0,021
-442,051	-36,698	-0,192	0,075
-441,036	160,571	0,002	0,002
-440,022	32,403	0,167	0,106
-439,007	244,511	0,044	0,055
-437,992	-1,912	-0,018	-0,009
-436,978	605,707	-0,021	0,039
-435,963	422,442	0,042	0,067
-434,949	-80,472	-0,083	0,020
-433,934	-71,594	0,062	0,017
-432,919	-200,000	0,002	-0,070
-431,905	287,683	0,071	-0,094
-430,890	-200,000	-0,002	0,049
-429,876	-200,000	0,024	0,168
-428,861	-200,000	-0,026	0,093
-427,846	800,000	-0,018	-0,056
-426,832	-89,336	-0,140	-0,030
-425,817	800,000	-0,033	-0,097
-424,803	105,815	-0,056	-0,049
-423,788	-122,220	-0,070	-0,008
-422,773	676,456	0,031	0,060
-421,759	30,068	0,018	-0,011
-420,744	-200,000	0,023	0,084
-419,730	51,820	-0,085	-0,059
-418,715	-200,000	0,001	-0,124
-417,701	-200,000	-0,014	-0,129
-416,686	64,990	-0,068	-0,050
-415,671	-200,000	0,037	-0,137
-414,657	-157,020	0,055	0,002
-413,642	320,261	0,086	0,120
-412,628	-200,000	-0,019	-0,144
-411,613	800,000	0,024	-0,050
-410,598	59,287	0,110	-0,079
-409,584	0,372	0,067	-0,035
-408,569	374,366	-0,081	0,121
-407,555	-200,000	-0,036	0,199
-406,540	800,000	-0,034	0,090
-405,525	202,481	0,040	0,045
-404,511	-48,407	-0,074	0,026
-403,496	-200,000	0,005	-0,208
-402,482	-200,000	0,001	0,008
-401,467	-89,172	0,093	0,020
-400,452	359,684	0,058	0,085
-399,438	-200,000	0,021	-0,099
-398,423	800,000	0,036	0,087
-397,409	-6,437	-0,034	-0,017
-396,394	-194,541	-0,047	-0,000
-395,379	-16,444	-0,133	-0,062
-394,365	-200,000	-0,013	-0,072
-393,350	800,000	0,026	0,062
-392,336	-200,000	0,043	0,163
-391,321	-100,719	-0,131	-0,023
-390,306	75,807	-0,051	0,039
-389,292	800,000	-0,053	-0,142
-388,277	-157,375	-0,103	0,004
-387,263	-3,262	0,079	0,040
-386,248	8,786	0,120	-0,066
-385,233	-200,000	-0,014	-0,047
-384,219	310,690	-0,036	-0,050
-383,204	657,977	0,027	-0,051
-382,190	-24,082	-0,123	-0,054
-381,175	284,826	0,073	0,096
-380,160	-124,714	-0,040	-0,004
-379,146	376,806	0,035	-0,053
-378,131	29,621	-0,075	0,047
-377,117	-89,041	0,070	0,015
-376,102	123,119	-0,028	-0,026
-375,088	-78,269	0,100	0,025
-374,073	81,235	-0,056	-0,044
-373,058	161,104	0,070	0,071
-372,044	800,000	-0,035	0,091
-371,029	-7,419	0,017	-0,008
-370,015	-200,000	-0,013	0,136
-369,000	338,584	-0,084	0,120
-367,985	-54,752	-0,055	0,018
-366,971	142,916	0,050	0,049
-365,956	61,018	0,082	0,060
-364,942	-200,000	0,033	0,120
-363,927	431,405	0,094	0,150
-362,912	-200,000	-0,026	0,117
-361,898	-200,000	-0,018	0,057
-360,883	-67,724	0,110	0,031
-359,869	-200,000	-0,017	0,058
-358,854	-1,739	0,122	-0,063
-357,839	-200,000	-0,015	0,104
-356,825	72,112	0,062	-0,047
-355,810	-200,000	-0,007	0,050
-354,796	-108,092	-0,079	-0,012
-353,781	-116,443	-0,128	0,017
-352,766	-200,000	0,021	-0,086
-351,752	-104,314	-0,146	0,025
-350,737	-200,000	-0,011	-0,118
-349,723	216,245	-0,057	-0,066
-348,708	42,314	-0,093	-0,062
-347,693	-200,000	0,012	-0,051
-346,679	-89,158	-0,074	0,016
-345,664	781,003	0,040	-0,080
-344,650	800,000	-0,018	0,046
-343,635	-168,953	-0,026	0,001
-342,620	-142,711	0,086	0,006
-341,606	-154,369	0,131	0,006
-340,591	-200,000	0,003	0,064
-339,577	800,000	0,030	-0,094
-338,562	54,445	-0,116	-0,082
-337,548	150,032	0,081	-0,081
-336,533	-6,986	-0,028	0,014
-335,518	149,736	0,101	0,100
-334,504	733,217	0,019	0,037
-333,489	74,469	-0,044	0,034
-332,475	18,545	0,080	0,047
-331,460	-200,000	-0,008	-0,071
-330,445	-200,000	0,023	-0,087
-329,431	214,970	0,062	-0,072
-328,416	269,314	-0,093	-0,119
-327,402	-79,960	0,054	-0,013
-326,387	-200,000	0,012	-0,079
-325,372	-200,000	-0,018	-0,059
-324,358	11,653	-0,047	0,026
-323,343	-6,243	0,080	-0,040
-322,329	-200,000	0,024	0,103
-321,314	1,452	0,074	0,039
-320,299	393,515	0,112	0,171
-319,285	109,478	0,022	0,019
-318,270	-29,406	-0,063	0,026
-317,256	137,201	-0,137	-0,131
-316,241	-53,975	0,103	-0,034
-315,226	-200,000	-0,029	-0,145
-314,212	79,968	0,150	-0,118
-313,197	800,000	-0,037	0,111
-312,183	-200,000	-0,004	-0,050
-311,168	-200,000	-0,019	-0,087
-310,153	-200,000	0,014	-0,052
-309,139	-144,107	-0,156	-0,011
-308,124	187,065	0,081	-0,089
-307,110	800,000	-0,015	-0,045
-306,095	-70,887	0,158	-0,043
-305,080	-172,338	-0,144	0,003
-304,066	80,034	0,031	0,024
-303,051	-200,000	-0,009	-0,095
-302,037	299,437	0,070	0,094
-301,022	158,661	-0,105	-0,107
-300,008	26,133	-0,094	0,057
-298,993	-200,000	-0,013	0,047
-297,978	-59,541	-0,035	0,011
-296,964	84,376	0,062	0,049
-295,949	-118,716	-0,135	-0,017
-294,935	-200,000	0,004	-0,061
-293,920	-150,858	-0,017	0,001
-292,905	-107,032	0,082	0,013
-291,891	-130,762	0,069	-0,007
-290,876	-200,000	0,005	0,133
-289,862	452,595	-0,029	-0,047
-288,847	69,653	0,128	-0,096
-287,832	-58,341	-0,077	-0,024
-286,818	16,442	0,036	-0,021
-285,803	-200,000	0,014	-0,087
-284,789	-114,010	0,103	0,014
-283,774	50,367	0,057	0,039
-282,759	69,059	-0,065	-0,049
-281,745	645,624	-0,024	-0,046
-280,730	22,856	-0,122	0,073
-279,716	196,911	0,015	0,017
-278,701	-108,560	-0,105	-0,016
-277,686	800,000	-0,029	0,092
-276,672	-200,000	0,033	0,000
-275,657	130,044	-0,074	-0,069
-274,643	-64,187	0,060	0,018
-273,628	212,171	-0,038	0,044
-272,613	227,258	0,042	0,050
-271,599	800,000	0,056	0,165
-270,584	-2,276	0,121	-0,062
-269,570	800,000	0,056	-0,123
-268,555	156,319	0,056	0,057
-267,540	-200,000	-0,025	0,201
-266,526	769,891	0,038	-0,077
-265,511	800,000	-0,040	0,092
-264,497	-200,000	-0,005	0,034
-263,482	100,293	0,011	-0,009
-262,467	670,822	-0,087	-0,166
-261,453	154,659	-0,076	-0,077
-260,438	-121,025	0,073	0,009
-259,424	800,000	-0,014	-0,042
-258,409	800,000	-0,044	-0,107
-257,395	43,929	0,172	0,115
-256,380	-200,000	0,009	0,045
-255,365	800,000	-0,039	0,109
-254,351	335,838	0,078	0,110
-253,336	-98,462	-0,058	-0,011
-252,322	64,821	-0,020	0,015
-251,307	-105,443	0,031	-0,005
-250,292	72,674	0,082	0,063
-249,278	472,947	0,031	0,052
-248,263	102,784	-0,031	0,026
-247,249	800,000	0,014	0,030
-246,234	44,813	0,064	0,043
-245,219	333,895	-0,038	-0,054
-244,205	-200,000	0,015	-0,057
-243,190	436,772	0,063	-0,101
-242,176	177,254	-0,010	-0,010
-241,161	800,000	0,041	-0,107
-240,146	222,018	0,131	0,154
-239,132	153,100	-0,047	0,047
-238,117	408,111	-0,079	-0,122
-237,103	227,327	-0,052	0,062
-236,088	-200,000	0,001	0,063
-235,073	266,990	-0,075	0,096
-234,059	137,436	-0,048	0,046
-233,044	67,814	-0,121	0,090
-232,030	194,265	0,096	-0,106
-231,015	-200,000	0,005	-0,118
-230,000	-84,357	-0,062	0,014
-228,986	526,489	0,013	0,023
-227,971	-95,947	0,090	0,017
-226,957	-78,142	-0,037	0,009
-225,942	-24,024	-0,068	-0,029
-224,927	-91,985	-0,121	-0,025
-223,913	-200,000	-0,004	-0,097
-222,898	-200,000	0,014	-0,098
-221,884	693,096	0,067	-0,129
-220,869	127,566	-0,025	-0,024
-219,855	-200,000	0,013	0,128
-218,840	20,859	0,089	-0,052
-217,825	-200,000	0,029	-0,105
-216,811	297,308	-0,034	-0,046
-215,796	-200,000	-0,017	-0,072
-214,782	174,675	0,070	-0,073
-213,767	-90,106	0,092	0,019
-212,752	407,227	-0,027	0,042
-211,738	-140,352	0,038	-0,003
-210,723	643,196	0,036	0,067
-209,709	-200,000	-0,001	0,059
-208,694	-200,000	-0,004	0,164
-207,679	-51,978	-0,160	0,054
-206,665	-200,000	-0,004	-0,031
-205,650	800,000	-0,020	-0,060
-204,636	-200,000	0,004	0,034
-203,621	245,707	0,047	-0,058
-202,606	800,000	-0,041	-0,084
-201,592	311,951	0,021	-0,029
-200,577	250,457	0,071	0,089
-199,563	184,584	0,090	0,098
-198,548	-62,081	0,106	0,032
-197,533	-200,000	-0,010	0,171
-196,519	538,064	0,056	0,098
-195,504	-4,403	-0,034	-0,017
-194,490	-41,225	-0,119	-0,044
-193,475	519,565	0,031	-0,053
-192,460	-4,292	0,101	0,051
-191,446	-53,210	-0,105	0,035
-190,431	9,498	0,077	0,042
-189,417	541,048	0,057	-0,100
-188,402	-138,302	-0,107	-0,008
-187,387	15,476	-0,046	-0,026
-186,373	-9,921	-0,202	-0,098
-185,358	122,149	0,090	0,082
-184,344	800,000	-0,033	-0,070
-183,329	449,102	-0,062	-0,100
-182,315	-70,370	-0,048	-0,013
-181,300	330,855	0,070	0,098
-180,285	-121,765	0,054	0,006
-179,271	-89,182	-0,024	-0,005
-178,256	-200,000	-0,008	-0,079
-177,242	484,142	0,046	0,076
-176,227	716,141	-0,022	-0,044
-175,212	-128,612	0,041	0,004
-174,198	-200,000	0,011	0,157
-173,183	-125,807	-0,076	-0,008
-172,169	16,260	0,018	0,010
-171,154	65,611	-0,152	0,112
-170,139	-200,000	-0,011	-0,070
-169,125	800,000	0,006	0,012
-168,110	110,513	0,028	-0,024
-167,096	17,849	0,133	0,077
-166,081	-200,000	-0,004	0,061
-165,066	-7,818	-0,060	-0,029
-164,052	800,000	-0,016	0,041
-163,037	234,312	-0,050	0,060
-162,023	-90,886	0,106	0,022
-161,008	-106,520	0,120	0,019
-159,993	59,433	-0,119	-0,085
-158,979	-29,525	0,073	-0,030
-157,964	-75,812	0,049	-0,012
-156,950	-39,883	0,079	0,030
-155,935	-200,000	0,008	0,162
-154,920	-87,541	-0,105	0,023
-153,906	55,195	0,118	0,083
-152,891	-126,516	-0,112	-0,012
-151,877	800,000	-0,032	0,078
-150,862	117,984	-0,052	-0,047
-149,847	-200,000	0,011	-0,063
-148,833	-200,000	-0,002	-0,025
-147,818	106,515	0,040	-0,035
-146,804	-200,000	0,005	0,040
-145,789	753,614	0,038	0,075
-144,775	-90,495	-0,046	-0,010
-143,760	-200,000	0,019	-0,066
-142,745	-95,818	-0,136	0,026
-141,731	-33,790	-0,018	-0,007
-140,716	74,058	-0,099	-0,075
-139,702	-200,000	0,014	0,101
-138,687	31,432	0,088	0,055
-137,672	468,772	-0,074	-0,121
-136,658	-200,000	0,025	-0,110
-135,643	-164,991	-0,070	-0,002
-134,629	-200,000	0,029	0,103
-133,614	440,750	0,100	0,159
-132,599	146,073	0,063	0,061
-131,585	293,196	-0,073	0,097
-130,570	-200,000	0,012	-0,056
-129,556	353,832	0,029	0,042
-128,541	-73,019	-0,050	0,013
-127,526	462,146	0,011	-0,018
-126,512	800,000	0,018	0,039
-125,497	-121,917	0,073	0,009
-124,483	-200,000	0,021	0,118
-123,468	527,170	-0,021	-0,035
-122,453	-200,000	-0,024	-0,121
-121,439	56,382	-0,119	0,084
-120,424	-85,731	0,073	0,016
-119,410	102,389	-0,019	0,016
