DTS Sentinel unit serial number:	SN410029Multiplexer serial number:	ORYXHardware model number:	OX2-SRSoftware version number:	ORYX F/W v4,00 Oryx Data Collector v3.7.2.0data status	okinstallation	B6 Nyhavnadifferential loss correction	single-endedforward channel	channel 2reverse channel	N/Adate	2023/12/09time	13:35:08forward acquisition time	300,00reverse acquisition time	0,00gamma	499,1914k internal	0,3136k external	0,3136temperature offset calibration	1,0000default loss term (dB/km)	0,3820temperature slope calibration	1,0000multiplexer offset coefficient	1,0000multiplexer slope coefficient	1,0000fibre end	0,00T internal ref (°C)	20,25T ext. ref 1 (°C)	4,56T ext. ref 2 (°C)	4,56length (m)	temperature (°C)	Stokes	anti-Stokes-744,400	72,949	-0,060	-0,047
-743,385	154,150	-0,178	0,181
-742,371	-200,000	0,013	0,115
-741,356	260,566	-0,146	0,187
-740,342	-200,000	0,004	-0,023
-739,327	-1,628	-0,222	0,116
-738,312	-200,000	0,001	0,005
-737,298	-5,593	-0,325	0,165
-736,283	-185,081	0,115	-0,001
-735,269	-182,260	-0,210	0,003
-734,254	-47,703	0,092	0,033
-733,239	-88,963	-0,423	-0,092
-732,225	-88,658	0,083	-0,018
-731,210	16,187	-0,104	-0,061
-730,196	244,195	-0,011	-0,014
-729,181	4,447	-0,060	-0,032
-728,167	83,285	0,036	0,029
-727,152	-200,000	0,007	-0,097
-726,137	-112,038	-0,179	-0,026
-725,123	322,964	0,029	-0,040
-724,108	800,000	-0,025	-0,067
-723,094	96,376	-0,092	-0,078
-722,079	-200,000	-0,009	-0,062
-721,064	179,560	-0,072	0,079
-720,050	800,000	0,021	0,061
-719,035	800,000	-0,036	0,105
-718,021	-125,284	-0,070	0,008
-717,006	-114,080	-0,113	0,016
-715,991	-200,000	-0,042	-0,160
-714,977	-166,649	-0,071	-0,002
-713,962	45,963	-0,072	-0,049
-712,948	-200,000	0,017	0,120
-711,933	800,000	-0,034	-0,099
-710,918	800,000	0,036	-0,100
-709,904	-155,868	-0,107	0,005
-708,889	-39,664	-0,122	0,047
-707,875	-67,240	0,057	-0,016
-706,860	-185,369	-0,086	-0,001
-705,845	-147,080	0,102	-0,006
-704,831	-152,272	0,066	0,003
-703,816	-200,000	-0,004	0,064
-702,802	-200,000	-0,002	-0,075
-701,787	-112,269	-0,121	-0,018
-700,772	-178,159	0,113	-0,002
-699,758	800,000	0,016	-0,042
-698,743	800,000	-0,018	-0,055
-697,729	200,984	-0,050	0,057
-696,714	-200,000	-0,003	0,096
-695,699	-73,247	-0,075	0,020
-694,685	800,000	-0,038	-0,111
-693,670	41,712	-0,073	0,049
-692,656	-77,990	-0,205	0,052
-691,641	-77,996	-0,027	0,007
-690,627	-167,866	-0,045	-0,001
-689,612	154,968	0,041	-0,042
-688,597	362,085	0,061	-0,091
-687,583	793,529	-0,024	-0,049
-686,568	80,928	-0,073	-0,059
-685,554	-66,406	0,095	-0,028
-684,539	583,319	0,041	-0,076
-683,524	-200,000	0,007	0,036
-682,510	-150,904	0,091	0,005
-681,495	111,936	-0,092	-0,082
-680,481	-102,169	-0,220	-0,039
-679,466	-200,000	0,014	-0,060
-678,451	800,000	-0,057	-0,148
-677,437	800,000	0,030	-0,088
-676,422	47,625	-0,160	-0,110
-675,408	26,628	-0,110	0,068
-674,393	-200,000	-0,005	-0,104
-673,378	-139,569	-0,159	0,012
-672,364	62,861	-0,101	-0,075
-671,349	-200,000	0,009	-0,148
-670,335	-200,000	-0,001	-0,069
-669,320	441,219	-0,065	0,106
-668,305	548,303	0,022	0,039
-667,291	289,625	-0,032	-0,043
-666,276	234,557	0,041	-0,050
-665,262	141,780	-0,116	-0,114
-664,247	-200,000	-0,007	-0,221
-663,232	-90,441	-0,144	-0,031
-662,218	-200,000	-0,027	0,238
-661,203	236,995	0,072	0,088
-660,189	800,000	-0,032	0,076
-659,174	-200,000	-0,129	-0,000
-658,159	135,192	-0,079	-0,076
-657,145	441,273	-0,112	-0,182
-656,130	-200,000	-0,023	0,092
-655,116	7,768	-0,044	0,024
-654,101	800,000	0,052	-0,112
-653,086	124,988	0,052	-0,049
-652,072	-24,911	-0,038	0,017
-651,057	-200,000	-0,073	-0,268
-650,043	-200,000	-0,010	-0,102
-649,028	551,741	-0,033	0,058
-648,014	34,873	0,080	0,052
-646,999	-200,000	-0,002	-0,039
-645,984	-44,006	-0,057	-0,021
-644,970	800,000	-0,036	-0,089
-643,955	-200,000	0,007	0,082
-642,941	800,000	-0,048	-0,116
-641,926	326,938	0,019	0,027
-640,911	-49,856	0,040	-0,014
-639,897	-200,000	-0,011	-0,046
-638,882	-200,000	0,018	0,165
-637,868	81,066	0,093	0,075
-636,853	-200,000	-0,004	-0,050
-635,838	246,973	-0,162	-0,202
-634,824	166,308	-0,028	0,030
-633,809	800,000	-0,038	-0,085
-632,795	59,727	-0,111	-0,081
-631,780	-200,000	-0,059	0,236
-630,765	75,569	-0,089	-0,070
-629,751	-200,000	0,022	-0,148
-628,736	23,186	-0,027	-0,016
-627,722	-200,000	0,040	0,132
-626,707	57,737	-0,046	-0,033
-625,692	299,787	0,113	0,154
-624,678	790,711	-0,028	0,056
-623,663	-50,696	0,146	0,051
-622,649	800,000	0,014	-0,029
-621,634	-200,000	0,009	0,088
-620,619	-76,127	0,084	0,022
-619,605	171,828	-0,098	0,104
-618,590	-200,000	-0,011	0,041
-617,576	800,000	-0,060	0,131
-616,561	-78,296	0,058	-0,015
-615,546	-40,950	0,117	0,045
-614,532	800,000	-0,044	-0,106
-613,517	-200,000	-0,015	-0,080
-612,503	-24,473	0,076	0,033
-611,488	-200,000	0,012	-0,044
-610,474	324,967	-0,057	0,081
-609,459	-200,000	-0,008	0,093
-608,444	-126,157	-0,111	0,012
-607,430	-200,000	-0,006	-0,077
-606,415	328,100	-0,075	0,106
-605,401	-26,425	0,099	0,043
-604,386	-143,658	0,145	0,010
-603,371	-200,000	0,011	-0,063
-602,357	-139,773	-0,014	0,001
-601,342	-200,000	-0,024	-0,134
-600,328	-57,837	0,104	0,033
-599,313	800,000	0,041	-0,094
-598,298	-200,000	0,002	-0,056
-597,284	182,722	0,077	-0,084
-596,269	800,000	-0,020	-0,044
-595,255	-153,619	-0,022	0,001
-594,240	-200,000	-0,013	0,113
-593,225	9,048	-0,106	-0,059
-592,211	800,000	0,018	-0,043
-591,196	-64,712	0,094	0,028
-590,182	800,000	0,022	0,056
-589,167	-98,276	0,060	0,011
-588,152	126,533	-0,055	0,051
-587,138	-22,995	-0,014	0,006
-586,123	-200,000	-0,017	0,066
-585,109	-200,000	-0,022	-0,138
-584,094	-200,000	0,026	-0,123
-583,079	-135,984	0,052	0,004
-582,065	40,724	-0,056	-0,037
-581,050	-112,518	0,117	0,017
-580,036	-200,000	0,004	0,108
-579,021	148,101	-0,114	0,114
-578,006	188,516	-0,055	0,061
-576,992	-13,028	0,073	0,035
-575,977	-200,000	0,015	0,123
-574,963	-65,086	0,048	0,014
-573,948	800,000	-0,003	0,007
-572,934	-78,851	-0,041	0,010
-571,919	-200,000	0,008	0,034
-570,904	-200,000	0,005	-0,067
-569,890	-58,480	0,029	0,009
-568,875	75,861	0,132	0,103
-567,861	-45,565	-0,015	-0,005
-566,846	-32,895	-0,070	-0,029
-565,831	800,000	0,027	0,057
-564,817	254,219	0,071	0,090
-563,802	-0,250	0,168	-0,088
-562,788	115,093	0,014	0,013
-561,773	26,292	0,052	0,032
-560,758	-189,272	0,176	-0,001
-559,744	353,809	0,065	0,095
-558,729	447,006	-0,025	-0,041
-557,715	800,000	-0,040	-0,106
-556,700	5,408	-0,078	0,042
-555,685	-168,341	-0,063	-0,002
-554,671	391,124	0,064	0,098
-553,656	-101,317	0,070	-0,013
-552,642	-18,978	0,016	-0,007
-551,627	-69,218	-0,063	-0,018
-550,612	800,000	-0,018	0,040
-549,598	51,327	-0,069	0,048
-548,583	200,128	-0,018	-0,020
-547,569	800,000	-0,027	-0,062
-546,554	693,614	-0,031	0,061
-545,539	-200,000	0,002	-0,163
-544,525	-25,203	-0,105	0,045
-543,510	298,080	0,018	-0,025
-542,496	-27,455	-0,111	0,047
-541,481	3,568	-0,053	-0,029
-540,466	-200,000	-0,003	-0,087
-539,452	-107,820	0,103	-0,016
-538,437	800,000	0,015	-0,045
-537,423	-0,147	0,002	0,001
-536,408	-10,004	-0,133	-0,065
-535,393	290,046	-0,029	-0,039
-534,379	-200,000	-0,002	0,020
-533,364	800,000	-0,020	0,062
-532,350	800,000	0,044	-0,124
-531,335	43,223	0,116	0,078
-530,321	-200,000	0,019	0,063
-529,306	-4,787	-0,132	0,067
-528,291	316,442	0,041	-0,057
-527,277	-200,000	-0,028	-0,113
-526,262	-60,604	0,086	0,027
-525,248	-16,099	0,040	0,019
-524,233	69,758	0,124	0,094
-523,218	-49,972	0,154	0,053
-522,204	-86,592	-0,070	-0,016
-521,189	398,103	0,018	-0,028
-520,175	800,000	0,020	-0,044
-519,160	164,732	0,097	-0,101
-518,145	585,355	-0,043	-0,079
-517,131	38,496	-0,020	0,013
-516,116	-89,344	0,094	0,020
-515,102	-200,000	-0,034	-0,110
-514,087	27,743	-0,115	-0,071
-513,072	-200,000	0,035	0,130
-512,058	800,000	0,039	-0,103
-511,043	-15,384	0,092	0,043
-510,029	800,000	-0,042	0,088
-509,014	-77,855	0,128	0,032
-507,999	800,000	-0,034	-0,082
-506,985	-113,923	-0,025	-0,003
-505,970	-200,000	0,001	-0,035
-504,956	-200,000	0,029	-0,132
-503,941	98,450	-0,077	0,066
-502,926	-97,402	0,145	-0,027
-501,912	137,211	-0,031	-0,030
-500,897	641,773	0,057	-0,107
-499,883	49,030	-0,013	0,009
-498,868	800,000	-0,010	-0,025
-497,853	-200,000	0,017	-0,125
-496,839	152,594	0,070	-0,071
-495,824	98,457	0,058	-0,049
-494,810	-41,315	-0,029	-0,011
-493,795	800,000	-0,021	0,053
-492,781	-3,989	-0,020	-0,010
-491,766	70,917	0,029	0,022
-490,751	121,242	0,042	0,038
-489,737	800,000	-0,012	-0,034
-488,722	159,193	0,109	0,111
-487,708	-11,666	0,139	-0,067
-486,693	-126,225	-0,029	0,003
-485,678	800,000	0,055	-0,156
-484,664	75,144	0,088	0,068
-483,649	-87,196	-0,220	0,049
-482,635	46,804	0,039	0,026
-481,620	-200,000	0,007	0,062
-480,605	402,951	0,036	0,055
-479,591	187,002	-0,086	0,094
-478,576	93,998	0,024	0,020
-477,562	145,644	0,044	0,044
-476,547	203,561	0,068	-0,078
-475,532	114,763	-0,061	0,054
-474,518	-53,389	-0,059	-0,020
-473,503	615,384	0,064	-0,118
-472,489	457,903	-0,104	0,171
-471,474	-200,000	-0,011	0,186
-470,459	-79,012	-0,162	0,040
-469,445	-32,722	-0,083	-0,034
-468,430	-89,780	-0,102	-0,022
-467,416	800,000	0,021	0,065
-466,401	-174,139	0,073	-0,002
-465,386	110,290	0,063	0,056
-464,372	800,000	0,013	0,034
-463,357	127,115	-0,135	-0,126
-462,343	-37,414	-0,046	-0,018
-461,328	800,000	-0,016	0,043
-460,313	-15,125	-0,072	-0,034
-459,299	474,844	0,014	-0,023
-458,284	800,000	-0,029	0,094
-457,270	-28,118	-0,108	0,046
-456,255	-25,822	0,166	0,071
-455,241	-200,000	-0,022	-0,129
-454,226	-29,168	-0,101	-0,042
-453,211	-200,000	0,077	0,263
-452,197	475,482	0,063	0,105
-451,182	283,343	0,057	0,076
-450,168	50,112	0,061	-0,042
-449,153	-200,000	-0,006	0,078
-448,138	-1,544	-0,060	0,031
-447,124	-200,000	0,003	0,043
-446,109	-200,000	0,013	-0,049
-445,095	800,000	-0,014	0,031
-444,080	285,066	0,048	0,064
-443,065	-200,000	-0,029	0,117
-442,051	-200,000	-0,000	-0,105
-441,036	-174,288	-0,150	-0,003
-440,022	684,816	-0,023	-0,044
-439,007	64,143	-0,050	0,037
-437,992	800,000	0,041	-0,121
-436,978	-151,296	0,222	-0,012
-435,963	800,000	-0,061	0,181
-434,949	23,492	-0,069	-0,041
-433,934	125,181	-0,104	-0,096
-432,919	345,562	-0,059	-0,086
-431,905	-200,000	0,016	-0,087
-430,890	344,656	-0,065	0,094
-429,876	-105,986	0,108	0,018
-428,861	241,785	-0,044	0,054
-427,846	639,892	0,048	-0,089
-426,832	-200,000	0,020	0,124
-425,817	239,467	-0,044	-0,054
-424,803	-200,000	-0,005	-0,129
-423,788	30,388	0,040	0,025
-422,773	51,349	0,048	0,033
-421,759	179,089	0,085	0,092
-420,744	800,000	-0,103	-0,213
-419,730	-18,414	0,065	-0,029
-418,715	50,582	-0,031	-0,021
-417,701	-200,000	0,035	0,115
-416,686	42,653	-0,119	0,079
-415,671	-24,037	-0,039	0,017
-414,657	64,656	-0,056	0,041
-413,642	-200,000	-0,017	-0,107
-412,628	549,876	-0,034	0,061
-411,613	58,944	-0,141	-0,101
-410,598	-200,000	-0,018	-0,075
-409,584	-200,000	0,051	0,184
-408,569	-200,000	0,011	0,083
-407,555	727,183	-0,059	0,116
-406,540	-24,421	-0,088	0,038
-405,525	41,251	0,111	0,073
-404,511	-200,000	0,010	0,036
-403,496	-112,507	-0,070	0,010
-402,482	727,128	0,064	0,126
-401,467	800,000	-0,049	0,113
-400,452	666,360	-0,043	-0,082
-399,438	-200,000	0,029	0,103
-398,423	27,733	0,138	-0,085
-397,409	-200,000	-0,025	-0,209
-396,394	-200,000	0,011	-0,039
-395,379	-79,790	0,147	-0,036
-394,365	-200,000	-0,004	0,043
-393,350	112,505	-0,026	-0,023
-392,336	70,306	0,161	0,121
-391,321	-35,370	-0,095	0,038
-390,306	100,124	-0,104	-0,088
-389,292	-130,314	-0,093	0,009
-388,277	-200,000	0,005	0,049
-387,263	84,633	0,052	-0,042
-386,248	25,219	-0,065	-0,040
-385,233	-200,000	-0,019	0,097
-384,219	800,000	0,037	0,091
-383,204	224,174	-0,068	-0,081
-382,190	-200,000	0,025	-0,184
-381,175	-13,918	-0,056	-0,026
-380,160	-200,000	0,002	0,010
-379,146	-12,237	0,059	0,028
-378,131	167,059	0,087	0,090
-377,117	-81,936	0,106	0,025
-376,102	91,550	-0,045	-0,037
-375,088	-200,000	-0,000	-0,082
-374,073	655,973	-0,063	-0,119
-373,058	232,296	0,108	0,130
-372,044	93,553	-0,042	0,035
-371,029	20,719	0,074	0,043
-370,015	800,000	0,019	0,058
-369,000	-121,176	-0,044	0,005
-367,985	-200,000	-0,015	-0,078
-366,971	-45,985	-0,052	-0,019
-365,956	86,950	-0,013	-0,010
-364,942	-200,000	-0,001	0,200
-363,927	800,000	-0,040	0,128
-362,912	-71,579	0,002	-0,001
-361,898	66,458	0,067	0,050
-360,883	-51,164	-0,075	0,025
-359,869	25,955	0,038	-0,023
-358,854	800,000	0,028	0,064
-357,839	-200,000	0,002	0,031
-356,825	-200,000	-0,007	0,068
-355,810	431,323	-0,025	-0,040
-354,796	800,000	0,017	0,048
-353,781	-50,698	-0,103	-0,035
-352,766	-200,000	-0,033	-0,138
-351,752	-170,453	0,163	-0,004
-350,737	-85,822	0,094	0,021
-349,723	-200,000	-0,022	0,180
-348,708	-11,322	-0,057	0,027
-347,693	16,909	-0,021	-0,012
-346,679	-200,000	0,002	-0,010
-345,664	800,000	-0,046	-0,104
-344,650	800,000	0,026	0,074
-343,635	-95,290	0,087	0,017
-342,620	18,411	-0,150	-0,087
-341,606	342,507	0,062	-0,089
-340,591	-200,000	-0,019	0,123
-339,577	-117,489	0,039	-0,005
-338,562	800,000	-0,025	-0,075
-337,548	293,586	-0,057	0,076
-336,533	-200,000	-0,016	-0,153
-335,518	330,181	-0,034	0,048
-334,504	486,175	0,034	0,058
-333,489	-200,000	0,002	0,019
-332,475	23,982	-0,015	-0,009
-331,460	-3,364	-0,061	-0,031
-330,445	800,000	-0,052	-0,143
-329,431	156,133	-0,099	0,100
-328,416	650,754	-0,086	0,162
-327,402	-200,000	0,035	0,148
-326,387	-200,000	0,020	-0,113
-325,372	-200,000	-0,026	-0,097
-324,358	-70,886	-0,124	0,034
-323,343	-200,000	0,008	-0,069
-322,329	181,754	0,063	-0,068
-321,314	800,000	-0,054	0,142
-320,299	800,000	-0,016	0,034
-319,285	198,832	0,055	-0,061
-318,270	-200,000	-0,002	-0,103
-317,256	800,000	-0,014	0,028
-316,241	-40,802	0,123	0,046
-315,226	-82,843	0,082	0,019
-314,212	-3,284	0,058	-0,029
-313,197	587,423	0,060	0,108
-312,183	292,760	-0,113	-0,151
-311,168	-87,125	0,104	-0,023
-310,153	-82,047	-0,093	0,022
-309,139	73,318	0,065	-0,050
-308,124	326,434	-0,026	0,037
-307,110	98,443	0,015	0,013
-306,095	-113,349	0,132	0,019
-305,080	-13,238	0,118	0,056
-304,066	48,713	-0,106	-0,072
-303,051	-200,000	-0,006	-0,028
-302,037	10,325	-0,114	0,063
-301,022	-55,066	0,112	-0,036
-300,008	800,000	0,050	0,105
-298,993	-22,013	-0,079	-0,035
-297,978	800,000	-0,013	0,039
-296,964	-200,000	-0,006	0,046
-295,949	7,413	-0,161	-0,087
-294,935	178,666	0,027	0,029
-293,920	301,396	0,056	0,076
-292,905	-92,165	-0,099	0,020
-291,891	219,604	0,071	0,084
-290,876	800,000	-0,019	0,060
-289,862	800,000	-0,058	0,118
-288,847	114,512	0,075	-0,067
-287,832	279,222	0,072	-0,094
-286,818	-50,420	0,044	-0,015
-285,803	-36,512	0,046	0,018
-284,789	484,799	0,054	-0,090
-283,774	138,524	-0,094	-0,090
-282,759	94,359	-0,030	-0,025
-281,745	-200,000	-0,015	-0,092
-280,730	69,392	-0,123	-0,092
-279,716	800,000	-0,032	-0,068
-278,701	800,000	0,017	-0,049
-277,686	-200,000	0,013	0,097
-276,672	201,698	-0,044	0,049
-275,657	240,253	-0,054	0,066
-274,643	-80,516	-0,151	0,037
-273,628	-122,546	-0,106	0,012
-272,613	734,553	0,030	-0,059
-271,599	282,541	0,042	0,055
-270,584	95,342	0,101	-0,084
-269,570	196,153	0,030	-0,033
-268,555	90,308	0,024	-0,020
-267,540	-200,000	0,014	0,146
-266,526	124,273	-0,171	-0,157
-265,511	784,531	-0,023	0,046
-264,497	371,431	-0,030	0,045
-263,482	-169,269	0,156	-0,004
-262,467	53,670	0,076	-0,053
-261,453	502,048	0,035	-0,060
-260,438	105,910	0,066	-0,057
-259,424	-134,075	-0,057	-0,005
-258,409	800,000	-0,037	-0,118
-257,395	328,722	-0,052	0,074
-256,380	-200,000	-0,011	0,129
-255,365	-15,688	0,056	-0,026
-254,351	-125,555	0,039	-0,004
-253,336	-189,044	-0,103	-0,001
-252,322	161,920	-0,120	-0,122
-251,307	-38,789	0,052	-0,020
-250,292	800,000	0,016	0,047
-249,278	-200,000	-0,018	-0,135
-248,263	-200,000	0,003	-0,101
-247,249	68,637	0,041	0,031
-246,234	83,356	-0,046	0,036
-245,219	196,646	-0,074	-0,082
-244,205	-200,000	0,006	-0,052
-243,190	379,945	-0,048	0,071
-242,176	-124,623	0,093	0,010
-241,161	-64,337	0,041	0,012
-240,146	215,653	-0,013	-0,015
-239,132	666,923	-0,028	-0,052
-238,117	138,844	-0,080	-0,076
-237,103	-200,000	-0,009	0,067
-236,088	-6,384	0,058	-0,029
-235,073	-142,859	-0,147	0,010
-234,059	-107,493	0,095	-0,015
-233,044	191,493	0,085	-0,093
-232,030	-76,606	-0,138	-0,035
-231,015	179,220	-0,047	-0,051
-230,000	800,000	-0,027	-0,072
-228,986	239,268	0,098	-0,118
-227,971	-200,000	-0,001	-0,072
-226,957	-200,000	0,021	-0,087
-225,942	-200,000	-0,010	-0,032
-224,927	2,285	0,084	0,044
-223,913	99,160	-0,069	0,058
-222,898	-94,821	-0,103	0,020
-221,884	-200,000	-0,017	-0,095
-220,869	-58,676	0,093	0,029
-219,855	248,683	0,067	0,083
-218,840	240,140	0,013	-0,016
-217,825	-127,156	-0,039	-0,004
-216,811	26,854	-0,029	0,017
-215,796	689,432	-0,080	-0,153
-214,782	493,591	0,017	0,029
-213,767	-157,553	0,066	0,003
-212,752	62,573	0,050	0,036
-211,738	-119,167	-0,076	-0,009
-210,723	143,348	0,064	0,062
-209,709	52,938	0,116	0,081
-208,694	-200,000	-0,033	-0,116
-207,679	86,416	-0,058	0,047
-206,665	-53,144	-0,024	-0,008
-205,650	331,108	-0,045	0,063
-204,636	-200,000	0,003	-0,033
-203,621	-200,000	0,020	-0,076
-202,606	-169,763	-0,168	0,004
-201,592	149,402	0,018	-0,018
-200,577	-200,000	-0,008	-0,029
-199,563	-52,587	0,018	0,006
-198,548	214,803	0,035	0,040
-197,533	247,737	-0,051	0,063
-196,519	504,202	0,032	-0,055
-195,504	621,665	0,065	-0,120
-194,490	-200,000	0,001	-0,021
-193,475	50,944	-0,122	-0,084
-192,460	332,706	-0,117	-0,164
-191,446	-67,668	0,089	-0,025
-190,431	-200,000	0,021	-0,145
-189,417	8,219	0,059	0,032
-188,402	189,811	-0,089	-0,097
-187,387	231,900	0,076	-0,091
-186,373	-99,393	0,072	0,013
-185,358	-200,000	0,008	0,110
-184,344	800,000	0,049	-0,132
-183,329	-154,822	0,139	-0,007
-182,315	-21,434	-0,155	0,068
-181,300	800,000	-0,010	-0,030
-180,285	211,674	-0,046	-0,053
-179,271	61,750	-0,078	-0,057
-178,256	-200,000	0,022	0,173
-177,242	-35,734	0,035	0,014
-176,227	44,281	0,085	-0,056
-175,212	73,214	-0,074	0,056
-174,198	-200,000	0,031	-0,110
-173,183	-184,905	-0,056	-0,001
-172,169	800,000	0,024	0,053
-171,154	-200,000	0,013	0,065
-170,139	64,816	-0,094	0,068
-169,125	-200,000	-0,013	-0,065
-168,110	-28,403	0,071	0,030
-167,096	7,477	0,088	-0,048
-166,081	-200,000	0,001	0,040
-165,066	-89,207	-0,035	-0,008
-164,052	216,997	0,094	-0,109
-163,037	129,650	0,074	0,068
-162,023	-168,326	0,102	0,003
-161,008	-176,678	0,076	-0,001
-159,993	-200,000	0,007	0,067
-158,979	578,317	0,004	-0,007
-157,964	800,000	-0,061	-0,146
-156,950	-30,060	-0,102	-0,042
-155,935	292,510	-0,051	0,068
-154,920	642,805	0,034	0,064
-153,906	800,000	0,038	0,081
-152,891	35,069	-0,051	0,032
-151,877	-75,705	-0,007	0,002
-150,862	96,661	0,043	-0,036
-149,847	-141,925	0,016	0,001
-148,833	-21,870	-0,119	-0,052
-147,818	98,065	-0,036	-0,030
-146,804	-146,993	0,060	0,004
-145,789	-200,000	0,006	0,039
-144,775	-200,000	-0,006	0,062
-143,760	318,192	0,022	0,030
-142,745	52,446	-0,115	-0,079
-141,731	23,434	-0,064	0,038
-140,716	-183,334	0,068	-0,001
-139,702	44,147	0,133	-0,088
-138,687	-200,000	-0,010	0,103
-137,672	-70,216	-0,125	0,034
-136,658	-154,589	-0,073	0,003
-135,643	-200,000	-0,006	-0,042
-134,629	-132,923	-0,111	0,010
-133,614	-200,000	0,033	-0,150
-132,599	-71,648	0,114	-0,031
-131,585	-12,450	-0,069	0,033
-130,570	800,000	0,012	-0,030
-129,556	-160,634	-0,005	0,000
-128,541	19,999	-0,072	0,042
-127,526	689,988	-0,030	-0,057
-126,512	800,000	0,023	-0,065
-125,497	95,649	0,086	-0,071
-124,483	-122,748	-0,073	-0,009
-123,468	347,612	0,110	-0,157
-122,453	-111,509	-0,102	0,015
-121,439	250,973	-0,011	-0,014
-120,424	-164,533	-0,046	-0,001
-119,410	-200,000	-0,036	-0,135
