DTS Sentinel unit serial number:	SN410029Multiplexer serial number:	ORYXHardware model number:	OX2-SRSoftware version number:	ORYX F/W v4,00 Oryx Data Collector v3.7.2.0data status	okinstallation	B6 Nyhavnadifferential loss correction	single-endedforward channel	channel 2reverse channel	N/Adate	2023/12/08time	15:10:08forward acquisition time	300,00reverse acquisition time	0,00gamma	499,1914k internal	0,3159k external	0,3159temperature offset calibration	1,0000default loss term (dB/km)	0,3820temperature slope calibration	1,0000multiplexer offset coefficient	1,0000multiplexer slope coefficient	1,0000fibre end	0,00T internal ref (°C)	15,06T ext. ref 1 (°C)	-1,48T ext. ref 2 (°C)	-1,48length (m)	temperature (°C)	Stokes	anti-Stokes-744,400	74,744	-0,051	-0,039
-743,385	-121,207	-0,249	-0,030
-742,371	371,626	0,077	0,116
-741,356	-134,907	-0,247	-0,022
-740,342	-200,000	0,024	0,108
-739,327	-164,970	-0,221	-0,007
-738,312	107,627	0,054	0,048
-737,298	5,226	-0,308	-0,167
-736,283	-161,253	0,104	-0,004
-735,269	-186,796	-0,260	0,003
-734,254	39,570	0,151	-0,100
-733,239	-7,636	-0,386	-0,192
-732,225	-127,165	0,169	0,018
-731,210	435,356	-0,064	0,102
-730,196	-113,678	-0,069	-0,010
-729,181	45,210	-0,183	-0,124
-728,167	-15,345	-0,138	0,065
-727,152	-105,050	-0,056	0,009
-726,137	-49,122	-0,091	0,032
-725,123	181,798	-0,076	0,082
-724,108	800,000	0,030	0,065
-723,094	188,247	-0,079	0,087
-722,079	111,241	-0,063	-0,056
-721,064	-11,754	0,020	0,009
-720,050	-200,000	-0,001	-0,083
-719,035	449,091	-0,076	0,124
-718,021	260,751	-0,080	0,102
-717,006	-119,440	0,032	0,004
-715,991	30,352	-0,050	-0,032
-714,977	-21,675	-0,068	0,031
-713,962	-71,274	-0,043	0,012
-712,948	-178,095	-0,140	0,002
-711,933	240,833	-0,112	0,137
-710,918	9,377	-0,057	0,032
-709,904	196,839	-0,141	-0,158
-708,889	-28,551	-0,102	-0,043
-707,875	482,888	-0,052	-0,087
-706,860	-108,937	0,069	-0,011
-705,845	-200,000	0,016	0,056
-704,831	-186,014	-0,213	-0,002
-703,816	800,000	-0,037	0,096
-702,802	68,652	0,101	0,076
-701,787	134,742	-0,066	-0,063
-700,772	229,175	-0,081	-0,097
-699,758	113,084	0,007	-0,007
-698,743	-153,752	0,111	0,006
-697,729	-148,385	0,091	-0,005
-696,714	250,973	0,023	-0,029
-695,699	75,329	-0,073	0,057
-694,685	55,190	0,062	-0,044
-693,670	205,853	0,048	-0,055
-692,656	-96,271	0,083	0,016
-691,641	152,892	-0,051	-0,051
-690,627	357,458	-0,060	0,089
-689,612	-92,838	-0,087	-0,018
-688,597	190,041	0,010	0,012
-687,583	800,000	0,034	-0,106
-686,568	-107,467	-0,142	-0,023
-685,554	307,443	-0,029	-0,040
-684,539	-110,923	0,071	-0,011
-683,524	800,000	-0,027	-0,075
-682,510	-70,418	0,080	-0,022
-681,495	197,574	-0,147	-0,165
-680,481	93,586	-0,071	0,059
-679,466	-200,000	-0,035	-0,180
-678,451	707,225	-0,053	-0,104
-677,437	251,552	-0,116	-0,146
-676,422	-200,000	-0,016	-0,102
-675,408	491,285	0,083	0,140
-674,393	729,617	0,020	-0,039
-673,378	-105,363	0,132	0,022
-672,364	173,522	-0,070	-0,074
-671,349	-2,059	-0,097	-0,050
-670,335	800,000	0,042	0,136
-669,320	517,853	0,042	0,072
-668,305	159,246	0,077	0,079
-667,291	139,538	-0,054	-0,052
-666,276	160,339	-0,042	0,043
-665,262	-189,875	-0,044	-0,000
-664,247	112,561	0,103	-0,092
-663,232	273,707	0,025	0,032
-662,218	-11,818	0,084	0,040
-661,203	159,372	-0,053	0,055
-660,189	-200,000	0,009	0,194
-659,174	-200,000	-0,004	0,139
-658,159	-200,000	0,002	-0,033
-657,145	-200,000	-0,044	-0,157
-656,130	800,000	0,038	-0,094
-655,116	124,059	0,067	0,062
-654,101	60,990	-0,112	-0,082
-653,086	-200,000	-0,006	-0,066
-652,072	800,000	-0,035	-0,102
-651,057	-200,000	0,007	-0,131
-650,043	-38,801	0,040	0,015
-649,028	-109,961	0,096	0,015
-648,014	-200,000	-0,000	0,038
-646,999	-51,237	0,200	0,068
-645,984	372,117	0,043	0,065
-644,970	-118,986	-0,093	-0,012
-643,955	93,035	-0,068	-0,056
-642,941	20,126	0,018	0,010
-641,926	-60,528	-0,045	0,014
-640,911	294,186	0,056	0,076
-639,897	-93,269	0,109	-0,022
-638,882	-88,744	-0,075	-0,016
-637,868	-100,166	-0,038	-0,007
-636,853	327,467	-0,139	-0,196
-635,838	137,440	-0,063	0,061
-634,824	-48,625	0,021	-0,007
-633,809	800,000	-0,009	0,028
-632,795	671,836	-0,038	0,072
-631,780	-59,999	-0,115	0,036
-630,765	-9,606	0,051	-0,025
-629,751	-153,092	-0,062	0,003
-628,736	33,624	-0,057	-0,036
-627,722	22,673	0,044	-0,027
-626,707	528,571	-0,046	-0,080
-625,692	-50,420	0,076	0,026
-624,678	800,000	-0,035	0,082
-623,663	270,971	-0,083	-0,108
-622,649	-100,359	-0,122	0,022
-621,634	122,908	0,126	-0,115
-620,619	-200,000	-0,023	0,096
-619,605	-52,062	-0,091	-0,031
-618,590	16,631	0,073	-0,042
-617,576	-95,653	0,030	-0,006
-616,561	163,334	0,023	-0,023
-615,546	358,917	-0,064	0,095
-614,532	377,824	-0,034	-0,052
-613,517	800,000	0,019	0,059
-612,503	587,147	0,079	-0,144
-611,488	-109,299	0,148	0,023
-610,474	199,535	0,106	0,120
-609,459	-200,000	0,003	0,027
-608,444	34,150	-0,152	-0,097
-607,430	333,729	0,024	-0,035
-606,415	212,121	0,046	-0,053
-605,401	-50,820	-0,151	-0,052
-604,386	-200,000	-0,004	-0,070
-603,371	444,769	-0,038	-0,061
-602,357	208,067	0,005	-0,006
-601,342	367,473	-0,024	0,036
-600,328	373,827	0,016	-0,024
-599,313	-86,996	0,061	0,014
-598,298	233,921	-0,060	0,073
-597,284	26,385	-0,110	-0,067
-596,269	-200,000	-0,008	-0,070
-595,255	-106,583	0,123	-0,020
-594,240	146,555	0,038	-0,037
-593,225	-200,000	-0,010	-0,092
-592,211	-200,000	0,006	-0,126
-591,196	-200,000	-0,041	-0,203
-590,182	551,104	-0,053	0,093
-589,167	-200,000	0,026	0,101
-588,152	107,384	-0,106	-0,092
-587,138	-8,025	-0,122	0,060
-586,123	169,345	0,057	-0,060
-585,109	-200,000	-0,003	-0,093
-584,094	168,222	-0,059	-0,062
-583,079	-0,815	0,097	-0,050
-582,065	109,754	0,107	0,094
-581,050	-7,767	0,085	-0,042
-580,036	415,789	0,044	-0,069
-579,021	800,000	-0,020	-0,053
-578,006	56,619	-0,146	-0,104
-576,992	-200,000	-0,056	-0,190
-575,977	-121,100	0,149	0,018
-574,963	-48,738	0,205	0,072
-573,948	-28,311	-0,128	0,054
-572,934	2,661	-0,212	0,112
-571,919	-39,750	-0,041	-0,015
-570,904	237,890	0,040	-0,049
-569,890	69,695	-0,165	-0,124
-568,875	800,000	-0,027	0,079
-567,861	-33,670	0,070	-0,028
-566,846	-200,000	-0,025	0,090
-565,831	-200,000	0,028	-0,104
-564,817	-200,000	0,014	-0,121
-563,802	-128,505	-0,060	-0,006
-562,788	-86,924	-0,088	0,020
-561,773	-70,698	0,121	0,033
-560,758	146,653	0,067	-0,066
-559,744	188,259	0,044	0,049
-558,729	38,230	-0,094	0,061
-557,715	58,899	0,036	0,026
-556,700	-12,010	-0,048	0,023
-555,685	-18,757	-0,114	0,052
-554,671	-105,001	0,052	0,009
-553,656	-200,000	-0,007	0,061
-552,642	800,000	-0,004	0,008
-551,627	234,089	-0,051	0,062
-550,612	-24,324	0,114	0,050
-549,598	-200,000	-0,026	-0,113
-548,583	-7,208	-0,078	-0,039
-547,569	387,246	0,029	-0,044
-546,554	800,000	0,048	0,149
-545,539	123,615	0,019	-0,017
-544,525	316,624	0,042	-0,059
-543,510	129,294	-0,137	0,128
-542,496	-89,079	-0,053	-0,011
-541,481	173,636	-0,066	0,070
-540,466	213,668	-0,037	-0,043
-539,452	-31,071	0,229	-0,094
-538,437	-200,000	-0,004	0,109
-537,423	61,087	0,044	0,032
-536,408	-196,747	-0,135	-0,001
-535,393	-200,000	-0,002	-0,013
-534,379	-65,107	0,149	-0,044
-533,364	-200,000	-0,150	0,000
-532,350	-200,000	0,035	0,157
-531,335	-200,000	-0,011	0,035
-530,321	514,059	0,073	-0,124
-529,306	-52,071	0,117	-0,040
-528,291	800,000	0,083	-0,179
-527,277	176,543	-0,164	-0,174
-526,262	200,399	0,088	-0,099
-525,248	348,680	0,035	-0,051
-524,233	-55,090	0,088	0,029
-523,218	800,000	0,066	0,141
-522,204	-200,000	-0,024	0,198
-521,189	23,765	0,076	-0,046
-520,175	-165,466	0,055	-0,002
-519,160	-42,177	-0,100	0,037
-518,145	87,687	0,052	0,042
-517,131	-200,000	0,056	0,192
-516,116	298,820	0,075	-0,102
-515,102	800,000	-0,008	0,024
-514,087	252,801	-0,047	0,058
-513,072	-200,000	-0,046	-0,217
-512,058	800,000	-0,024	0,052
-511,043	-200,000	-0,005	-0,038
-510,029	23,027	-0,109	0,065
-509,014	-200,000	0,009	-0,075
-507,999	-200,000	0,025	-0,105
-506,985	800,000	0,027	-0,069
-505,970	-200,000	0,007	-0,064
-504,956	-200,000	0,001	0,025
-503,941	166,852	0,012	-0,012
-502,926	-200,000	0,004	0,099
-501,912	10,119	0,155	0,086
-500,897	-200,000	-0,005	-0,129
-499,883	450,083	-0,031	-0,051
-498,868	792,885	0,081	0,163
-497,853	-200,000	-0,012	-0,085
-496,839	3,026	0,039	0,021
-495,824	-200,000	-0,009	-0,031
-494,810	14,286	0,042	0,024
-493,795	-200,000	-0,004	0,070
-492,781	-200,000	0,004	0,087
-491,766	-135,031	-0,152	0,013
-490,751	-200,000	-0,009	-0,097
-489,737	-200,000	0,000	-0,089
-488,722	5,358	0,048	0,026
-487,708	-200,000	0,013	-0,043
-486,693	800,000	0,037	0,110
-485,678	-96,890	-0,150	0,028
-484,664	23,783	0,031	0,019
-483,649	159,708	0,040	0,041
-482,635	-94,829	-0,042	-0,008
-481,620	-100,316	0,033	-0,006
-480,605	-109,721	-0,082	-0,012
-479,591	-99,832	-0,052	-0,009
-478,576	-200,000	0,002	0,098
-477,562	64,576	-0,111	-0,082
-476,547	-200,000	0,008	0,090
-475,532	84,272	-0,094	-0,075
-474,518	96,303	-0,110	-0,092
-473,503	800,000	-0,030	0,062
-472,489	-101,991	-0,123	0,021
-471,474	138,778	0,029	-0,028
-470,459	-80,033	0,091	-0,022
-469,445	-200,000	0,022	-0,094
-468,430	61,964	-0,079	-0,057
-467,416	-200,000	-0,016	0,151
-466,401	800,000	0,022	0,067
-465,386	115,178	0,072	-0,064
-464,372	-42,910	0,090	0,033
-463,357	-174,209	0,027	0,001
-462,343	170,949	0,040	0,042
-461,328	-200,000	-0,006	-0,045
-460,313	-200,000	-0,020	0,098
-459,299	62,761	0,078	-0,057
-458,284	-200,000	-0,052	0,203
-457,270	800,000	-0,029	0,064
-456,255	9,362	0,027	0,015
-455,241	536,999	0,042	-0,072
-454,226	-44,418	-0,037	0,014
-453,211	-138,857	0,061	-0,005
-452,197	700,105	0,046	0,089
-451,182	543,876	0,074	0,129
-450,168	201,438	0,105	-0,117
-449,153	-200,000	-0,003	-0,062
-448,138	-200,000	-0,027	0,099
-447,124	800,000	0,042	-0,089
-446,109	-155,261	0,040	-0,002
-445,095	-200,000	0,018	0,063
-444,080	-200,000	0,001	-0,020
-443,065	-200,000	0,018	0,087
-442,051	-196,905	0,039	0,000
-441,036	-56,437	0,106	-0,034
-440,022	50,939	-0,154	-0,106
-439,007	-200,000	0,009	0,035
-437,992	-69,857	0,175	-0,048
-436,978	556,436	0,063	0,111
-435,963	-88,473	-0,036	0,008
-434,949	-7,902	-0,059	-0,029
-433,934	800,000	0,027	-0,081
-432,919	-67,273	-0,236	-0,067
-431,905	9,314	-0,087	-0,048
-430,890	259,686	-0,028	-0,036
-429,876	-200,000	0,006	0,042
-428,861	-200,000	0,020	0,115
-427,846	83,581	-0,034	-0,027
-426,832	439,356	0,054	-0,086
-425,817	-71,821	0,064	-0,017
-424,803	-200,000	0,005	-0,104
-423,788	-200,000	-0,006	0,042
-422,773	-107,154	-0,055	-0,009
-421,759	800,000	-0,050	0,127
-420,744	-108,040	0,071	0,011
-419,730	170,489	0,004	-0,004
-418,715	222,568	-0,075	-0,088
-417,701	165,321	0,032	-0,033
-416,686	800,000	-0,018	-0,056
-415,671	158,080	-0,060	0,060
-414,657	800,000	0,010	-0,020
-413,642	170,853	0,108	-0,113
-412,628	-36,799	-0,024	-0,009
-411,613	136,776	0,121	-0,115
-410,598	-200,000	0,013	0,134
-409,584	-76,931	0,107	0,027
-408,569	-41,638	0,168	0,062
-407,555	111,624	0,073	0,064
-406,540	-85,063	-0,074	0,017
-405,525	-200,000	-0,025	0,142
-404,511	73,206	-0,113	0,086
-403,496	53,623	-0,139	0,097
-402,482	275,578	0,046	-0,060
-401,467	273,200	0,086	0,110
-400,452	-200,000	0,018	0,117
-399,438	-200,000	0,020	0,246
-398,423	-200,000	-0,003	-0,031
-397,409	394,402	-0,110	-0,167
-396,394	435,247	-0,074	-0,117
-395,379	44,413	0,100	-0,067
-394,365	-200,000	-0,004	0,056
-393,350	800,000	-0,031	0,091
-392,336	800,000	-0,029	0,086
-391,321	-86,729	-0,173	-0,038
-390,306	566,555	-0,062	-0,111
-389,292	800,000	-0,068	-0,140
-388,277	800,000	0,022	0,065
-387,263	37,535	-0,131	-0,084
-386,248	-60,186	0,047	0,015
-385,233	-143,744	-0,055	-0,004
-384,219	800,000	0,022	-0,065
-383,204	-200,000	0,028	-0,158
-382,190	-7,445	-0,057	-0,028
-381,175	113,336	0,028	0,025
-380,160	-83,181	-0,047	0,011
-379,146	800,000	0,042	-0,100
-378,131	57,249	0,071	-0,050
-377,117	180,979	0,022	-0,023
-376,102	47,803	-0,182	-0,124
-375,088	120,524	-0,016	-0,014
-374,073	-200,000	-0,011	0,046
-373,058	186,377	0,076	-0,082
-372,044	13,436	-0,054	-0,030
-371,029	-43,238	0,140	0,051
-370,015	-68,161	-0,080	-0,022
-369,000	124,655	0,031	-0,028
-367,985	344,105	0,028	0,040
-366,971	-185,689	-0,078	0,001
-365,956	-174,476	-0,047	-0,001
-364,942	-200,000	0,006	-0,038
-363,927	423,346	0,080	0,125
-362,912	-200,000	0,006	0,052
-361,898	-200,000	0,008	0,124
-360,883	141,371	0,085	-0,082
-359,869	-125,277	-0,130	-0,014
-358,854	-44,275	0,029	0,011
-357,839	632,755	0,086	-0,160
-356,825	800,000	-0,046	0,122
-355,810	-22,882	0,070	0,030
-354,796	-200,000	0,022	-0,083
-353,781	113,492	-0,055	-0,048
-352,766	-200,000	-0,020	-0,155
-351,752	-24,214	-0,070	-0,030
-350,737	-200,000	0,023	-0,128
-349,723	-29,718	-0,063	0,026
-348,708	80,726	0,026	0,020
-347,693	-200,000	0,006	0,029
-346,679	-200,000	-0,020	-0,140
-345,664	139,163	-0,094	-0,089
-344,650	324,604	0,017	0,024
-343,635	-200,000	0,014	0,084
-342,620	-200,000	0,055	0,184
-341,606	-32,333	0,161	0,065
-340,591	-62,533	-0,061	0,018
-339,577	-200,000	0,004	0,055
-338,562	174,207	-0,088	0,092
-337,548	217,004	0,090	0,105
-336,533	-146,002	0,107	-0,007
-335,518	-200,000	0,039	-0,138
-334,504	800,000	-0,047	-0,122
-333,489	-72,280	0,062	-0,017
-332,475	800,000	-0,033	0,103
-331,460	64,890	-0,053	-0,039
-330,445	800,000	0,037	-0,097
-329,431	121,089	0,079	0,071
-328,416	-200,000	0,010	0,057
-327,402	-53,310	0,058	0,019
-326,387	244,212	-0,063	-0,077
-325,372	-200,000	0,001	-0,056
-324,358	800,000	-0,030	-0,064
-323,343	508,676	-0,039	0,067
-322,329	-200,000	-0,009	0,109
-321,314	-38,560	-0,124	0,047
-320,299	-200,000	-0,006	-0,090
-319,285	124,546	0,110	-0,100
-318,270	-200,000	0,017	-0,099
-317,256	-200,000	0,003	-0,016
-316,241	-130,067	-0,072	-0,007
-315,226	800,000	0,050	0,150
-314,212	632,605	-0,018	0,033
-313,197	33,349	0,118	-0,074
-312,183	-189,288	-0,121	-0,001
-311,168	447,052	0,024	-0,039
-310,153	-200,000	0,007	-0,090
-309,139	413,430	-0,082	-0,127
-308,124	800,000	0,036	0,079
-307,110	800,000	0,089	0,183
-306,095	-58,513	0,074	0,023
-305,080	12,368	0,064	0,036
-304,066	76,816	0,028	0,021
-303,051	146,158	-0,072	-0,070
-302,037	156,878	-0,017	0,017
-301,022	-200,000	-0,034	-0,120
-300,008	800,000	0,043	0,090
-298,993	-68,391	-0,032	0,009
-297,978	107,725	-0,061	0,053
-296,964	-200,000	0,006	-0,139
-295,949	800,000	-0,005	-0,011
-294,935	185,702	-0,067	-0,072
-293,920	200,268	-0,055	-0,061
-292,905	-200,000	0,005	0,058
-291,891	20,480	0,075	0,044
-290,876	237,205	0,097	-0,117
-289,862	263,049	0,080	-0,101
-288,847	-54,639	-0,214	-0,070
-287,832	459,565	0,024	0,039
-286,818	100,818	0,061	0,051
-285,803	262,076	0,120	0,151
-284,789	-200,000	-0,013	0,218
-283,774	800,000	0,006	-0,015
-282,759	800,000	0,048	-0,105
-281,745	104,427	-0,055	0,047
-280,730	-12,658	-0,091	-0,043
-279,716	426,396	0,067	-0,104
-278,701	800,000	0,088	0,232
-277,686	-200,000	0,026	0,102
-276,672	800,000	0,019	0,054
-275,657	-161,569	0,060	-0,002
-274,643	-72,830	-0,057	0,015
-273,628	-200,000	0,014	-0,091
-272,613	-200,000	-0,014	0,133
-271,599	294,965	-0,025	-0,034
-270,584	489,505	0,051	0,085
-269,570	3,005	0,089	0,047
-268,555	44,573	0,041	-0,027
-267,540	800,000	-0,046	-0,103
-266,526	-93,767	0,047	0,009
-265,511	-200,000	-0,033	-0,177
-264,497	376,591	-0,050	-0,075
-263,482	-139,391	0,105	0,008
-262,467	44,499	-0,105	-0,070
-261,453	-200,000	-0,029	0,145
-260,438	800,000	0,040	0,104
-259,424	-200,000	-0,009	0,195
-258,409	-16,321	-0,102	0,047
-257,395	800,000	-0,023	0,050
-256,380	-5,388	-0,008	0,004
-255,365	-200,000	-0,018	0,123
-254,351	-62,005	0,100	0,030
-253,336	-11,705	-0,074	-0,035
-252,322	-200,000	0,006	-0,133
-251,307	68,823	-0,065	0,048
-250,292	-79,310	-0,083	0,020
-249,278	192,270	0,079	0,086
-248,263	-90,309	0,007	0,002
-247,249	191,159	-0,079	0,086
-246,234	217,702	0,021	-0,024
-245,219	1,782	0,019	0,010
-244,205	800,000	-0,065	-0,184
-243,190	-200,000	0,003	-0,114
-242,176	-30,869	0,117	-0,048
-241,161	-54,236	0,064	0,021
-240,146	244,590	-0,065	0,080
-239,132	-43,055	-0,151	0,055
-238,117	-111,468	-0,138	-0,020
-237,103	-200,000	-0,034	-0,138
-236,088	-200,000	0,008	-0,030
-235,073	-200,000	-0,014	0,105
-234,059	800,000	0,038	0,078
-233,044	800,000	0,010	-0,023
-232,030	-62,928	0,079	0,024
-231,015	739,136	0,022	0,043
-230,000	391,352	0,079	-0,118
-228,986	800,000	0,024	-0,060
-227,971	247,771	0,035	0,043
-226,957	713,914	0,025	0,047
-225,942	800,000	0,063	0,169
-224,927	184,459	0,061	0,065
-223,913	-89,417	0,086	-0,018
-222,898	-200,000	0,006	0,047
-221,884	800,000	-0,014	-0,033
-220,869	-200,000	0,005	-0,103
-219,855	-74,523	0,116	0,030
-218,840	23,534	-0,031	-0,018
-217,825	328,532	0,089	0,124
-216,811	332,024	-0,070	-0,098
-215,796	-16,837	0,098	-0,044
-214,782	-200,000	-0,022	0,113
-213,767	526,149	0,057	0,097
-212,752	69,119	0,002	-0,001
-211,738	226,662	-0,004	-0,005
-210,723	353,194	0,073	0,104
-209,709	-200,000	0,003	0,062
-208,694	-200,000	-0,020	-0,185
-207,679	-200,000	0,009	0,033
-206,665	-187,676	0,136	0,001
-205,650	-156,914	-0,114	-0,005
-204,636	800,000	0,031	-0,080
-203,621	-200,000	0,017	-0,053
-202,606	-11,436	0,083	0,039
-201,592	-39,147	-0,142	0,053
-200,577	662,335	-0,046	-0,085
-199,563	-70,840	-0,090	-0,024
-198,548	-96,115	0,161	0,031
-197,533	-139,789	0,162	0,012
-196,519	800,000	-0,027	0,071
-195,504	-200,000	-0,036	0,128
-194,490	-77,436	-0,057	-0,014
-193,475	80,715	0,038	0,029
-192,460	584,816	-0,027	-0,048
-191,446	-35,284	0,099	-0,039
-190,431	-200,000	-0,019	0,204
-189,417	-200,000	-0,026	0,204
-188,402	-40,558	-0,034	0,013
-187,387	57,356	0,103	-0,073
-186,373	-125,103	-0,222	-0,024
-185,358	800,000	0,011	0,031
-184,344	-85,145	0,038	0,008
-183,329	708,035	-0,053	0,101
-182,315	-22,710	0,131	0,057
-181,300	297,966	-0,077	0,103
-180,285	57,854	-0,106	-0,074
-179,271	-111,405	-0,048	0,007
-178,256	139,444	0,053	0,050
-177,242	-106,445	0,081	0,013
-176,227	633,008	0,031	0,057
-175,212	800,000	0,016	0,046
-174,198	527,941	-0,027	-0,046
-173,183	-28,755	-0,021	-0,009
-172,169	-200,000	0,005	0,029
-171,154	426,167	-0,032	-0,050
-170,139	800,000	-0,027	-0,068
-169,125	-34,417	-0,166	0,065
-168,110	29,405	0,068	-0,041
-167,096	-102,909	0,065	-0,011
-166,081	-175,632	-0,146	0,003
-165,066	40,764	0,037	0,024
-164,052	505,309	-0,059	0,098
-163,037	800,000	-0,048	-0,116
-162,023	-200,000	0,014	0,066
-161,008	-14,473	-0,077	0,036
-159,993	555,964	0,027	-0,047
-158,979	-64,394	-0,126	-0,037
-157,964	-125,289	-0,061	0,007
-156,950	183,381	0,117	-0,124
-155,935	524,975	-0,038	0,065
-154,920	-200,000	-0,006	-0,082
-153,906	-98,949	0,078	0,014
-152,891	-125,183	-0,057	-0,006
-151,877	-200,000	-0,001	0,060
-150,862	183,789	0,110	-0,118
-149,847	-200,000	0,013	0,049
-148,833	-200,000	0,013	-0,145
-147,818	64,798	0,083	0,060
-146,804	-200,000	0,018	0,125
-145,789	68,541	0,072	0,053
-144,775	-124,315	-0,139	-0,015
-143,760	-200,000	-0,001	-0,050
-142,745	-200,000	0,006	0,183
-141,731	-83,418	0,055	-0,013
-140,716	-200,000	0,001	0,018
-139,702	800,000	0,053	0,128
-138,687	37,580	0,044	0,028
-137,672	-200,000	-0,018	-0,160
-136,658	134,679	0,071	-0,066
-135,643	-111,506	-0,161	-0,023
-134,629	610,507	0,025	0,046
-133,614	-200,000	0,035	0,203
-132,599	713,448	0,062	0,120
-131,585	-200,000	-0,012	-0,095
-130,570	96,806	-0,101	0,083
-129,556	170,220	0,029	0,029
-128,541	219,540	0,056	0,065
-127,526	800,000	-0,033	0,087
-126,512	800,000	0,016	-0,041
-125,497	800,000	-0,036	0,085
-124,483	800,000	0,025	0,066
-123,468	-100,274	-0,017	-0,003
-122,453	-167,035	-0,097	-0,003
-121,439	800,000	0,053	-0,112
-120,424	-200,000	-0,004	0,016
-119,410	11,673	-0,100	0,055
