DTS Sentinel unit serial number:	SN410029Multiplexer serial number:	ORYXHardware model number:	OX2-SRSoftware version number:	ORYX F/W v4,00 Oryx Data Collector v3.7.2.0data status	okinstallation	B6 Nyhavnadifferential loss correction	single-endedforward channel	channel 2reverse channel	N/Adate	2023/12/08time	06:15:08forward acquisition time	300,00reverse acquisition time	0,00gamma	499,1914k internal	0,3165k external	0,3165temperature offset calibration	1,0000default loss term (dB/km)	0,3820temperature slope calibration	1,0000multiplexer offset coefficient	1,0000multiplexer slope coefficient	1,0000fibre end	0,00T internal ref (°C)	13,00T ext. ref 1 (°C)	-3,80T ext. ref 2 (°C)	-3,80length (m)	temperature (°C)	Stokes	anti-Stokes-744,400	44,672	0,039	0,026
-743,385	-34,241	-0,168	-0,068
-742,371	-137,635	0,247	-0,020
-741,356	-65,044	-0,214	-0,063
-740,342	-60,847	0,079	0,025
-739,327	-125,474	-0,376	0,042
-738,312	10,396	0,113	-0,063
-737,298	-61,748	-0,396	-0,121
-736,283	800,000	0,035	0,089
-735,269	-137,100	-0,373	-0,031
-734,254	-200,000	0,028	0,125
-733,239	20,820	-0,377	-0,224
-732,225	33,455	0,191	-0,122
-731,210	-13,229	0,044	-0,021
-730,196	800,000	-0,022	-0,066
-729,181	800,000	-0,058	-0,144
-728,167	-200,000	0,032	-0,145
-727,152	-90,331	-0,029	-0,006
-726,137	-200,000	0,035	-0,283
-725,123	56,501	-0,074	-0,053
-724,108	-200,000	0,003	-0,040
-723,094	-144,653	-0,203	0,014
-722,079	800,000	0,025	-0,054
-721,064	800,000	0,046	-0,104
-720,050	-200,000	-0,046	-0,203
-719,035	800,000	0,060	-0,134
-718,021	-200,000	0,015	-0,055
-717,006	800,000	-0,042	-0,099
-715,991	-200,000	-0,051	-0,173
-714,977	-93,984	-0,093	0,019
-713,962	-22,095	-0,083	-0,037
-712,948	571,135	0,048	0,087
-711,933	-108,023	-0,127	0,020
-710,918	-102,771	-0,028	-0,005
-709,904	345,206	-0,020	-0,028
-708,889	800,000	0,057	-0,134
-707,875	-61,491	-0,081	0,025
-706,860	-103,876	0,061	0,010
-705,845	-200,000	0,009	0,043
-704,831	-131,248	0,158	-0,015
-703,816	-105,130	-0,123	0,021
-702,802	-153,983	-0,049	0,002
-701,787	271,224	-0,029	0,038
-700,772	646,414	0,081	-0,152
-699,758	800,000	0,091	0,215
-698,743	800,000	0,057	0,166
-697,729	-135,173	0,043	0,004
-696,714	-74,761	-0,082	-0,021
-695,699	-200,000	0,010	-0,037
-694,685	-97,502	0,075	-0,014
-693,670	-200,000	0,022	-0,163
-692,656	800,000	-0,041	0,085
-691,641	148,804	-0,078	0,077
-690,627	344,834	0,042	-0,060
-689,612	101,098	0,078	-0,067
-688,597	-200,000	0,002	-0,071
-687,583	167,577	-0,118	-0,123
-686,568	88,620	-0,023	-0,019
-685,554	-200,000	-0,023	-0,098
-684,539	-160,230	-0,095	0,004
-683,524	-200,000	-0,008	0,165
-682,510	-200,000	-0,009	0,055
-681,495	108,970	-0,032	-0,028
-680,481	-122,344	-0,085	-0,010
-679,466	800,000	-0,023	0,058
-678,451	-200,000	-0,010	-0,043
-677,437	-200,000	-0,006	0,026
-676,422	399,535	0,060	-0,092
-675,408	367,696	-0,048	-0,072
-674,393	-76,763	-0,092	-0,023
-673,378	-118,498	-0,134	0,017
-672,364	435,119	0,057	-0,092
-671,349	239,029	-0,108	0,132
-670,335	800,000	0,043	0,095
-669,320	205,932	-0,111	0,127
-668,305	-50,080	-0,042	-0,015
-667,291	26,695	-0,054	0,033
-666,276	225,311	0,062	0,074
-665,262	122,281	-0,120	0,110
-664,247	170,576	0,035	-0,036
-663,232	-111,008	-0,051	-0,008
-662,218	5,625	-0,056	0,030
-661,203	100,065	0,145	-0,123
-660,189	151,660	-0,026	-0,026
-659,174	800,000	0,020	0,063
-658,159	-200,000	0,007	-0,024
-657,145	-200,000	0,008	-0,137
-656,130	6,531	0,086	-0,047
-655,116	-200,000	-0,001	-0,079
-654,101	125,161	-0,066	0,061
-653,086	227,916	0,062	0,074
-652,072	28,047	-0,080	0,049
-651,057	-51,458	0,020	0,007
-650,043	-200,000	0,001	0,067
-649,028	-200,000	0,010	-0,052
-648,014	-45,297	0,058	-0,021
-646,999	12,593	-0,030	0,017
-645,984	578,061	-0,076	0,137
-644,970	-80,190	-0,042	0,010
-643,955	-94,049	-0,085	0,017
-642,941	-45,206	-0,080	-0,029
-641,926	-122,691	0,121	-0,014
-640,911	-145,373	-0,060	-0,004
-639,897	150,710	0,080	0,080
-638,882	-68,313	0,023	-0,007
-637,868	-200,000	0,013	0,111
-636,853	-169,834	-0,025	-0,001
-635,838	-200,000	0,008	-0,063
-634,824	93,828	-0,034	0,029
-633,809	-200,000	-0,022	0,083
-632,795	688,828	-0,020	0,039
-631,780	-112,372	0,222	0,032
-630,765	409,539	-0,117	-0,182
-629,751	-92,272	-0,079	0,016
-628,736	-4,381	-0,046	-0,023
-627,722	-200,000	-0,037	-0,157
-626,707	183,949	0,056	-0,061
-625,692	99,839	-0,089	-0,076
-624,678	-200,000	0,022	0,000
-623,663	-103,991	0,036	-0,006
-622,649	270,742	-0,072	-0,092
-621,634	-124,280	0,153	-0,017
-620,619	-74,116	-0,096	-0,025
-619,605	800,000	-0,029	0,065
-618,590	-200,000	-0,006	0,101
-617,576	743,830	-0,099	0,196
-616,561	800,000	0,045	0,121
-615,546	150,369	0,035	0,035
-614,532	-111,827	-0,162	-0,024
-613,517	-100,598	-0,051	0,009
-612,503	-200,000	0,031	0,139
-611,488	-71,581	-0,123	0,033
-610,474	-200,000	-0,028	0,096
-609,459	158,972	0,044	0,044
-608,444	-99,433	-0,131	-0,024
-607,430	607,856	-0,062	0,114
-606,415	-31,742	0,065	-0,026
-605,401	228,139	0,034	0,041
-604,386	641,790	0,034	0,064
-603,371	116,531	0,028	0,025
-602,357	641,804	-0,032	0,060
-601,342	58,820	-0,097	-0,069
-600,328	-149,422	0,021	0,001
-599,313	38,639	-0,135	-0,088
-598,298	800,000	-0,023	0,061
-597,284	39,433	0,108	0,071
-596,269	242,517	0,069	0,085
-595,255	-200,000	0,011	0,036
-594,240	210,983	0,009	0,010
-593,225	271,107	-0,040	-0,052
-592,211	-174,748	-0,192	-0,004
-591,196	-95,059	0,113	0,022
-590,182	337,948	0,078	0,111
-589,167	-98,115	0,079	-0,015
-588,152	103,209	-0,045	0,038
-587,138	322,624	0,035	0,049
-586,123	-12,992	-0,128	-0,060
-585,109	110,782	0,081	-0,071
-584,094	-200,000	0,015	-0,126
-583,079	170,818	-0,131	0,137
-582,065	277,546	-0,045	0,059
-581,050	-130,116	0,053	-0,005
-580,036	118,081	-0,096	-0,086
-579,021	-19,722	0,054	0,024
-578,006	215,360	-0,100	-0,116
-576,992	-200,000	-0,010	0,103
-575,977	270,843	0,090	0,116
-574,963	251,541	-0,135	0,169
-573,948	132,499	0,114	-0,107
-572,934	800,000	-0,016	-0,045
-571,919	-77,138	-0,127	0,032
-570,904	-146,678	0,051	0,003
-569,890	230,555	0,091	0,109
-568,875	-10,733	0,088	0,042
-567,861	19,502	-0,157	-0,092
-566,846	452,523	-0,033	-0,054
-565,831	132,042	0,137	0,128
-564,817	-200,000	-0,001	-0,017
-563,802	-0,135	-0,027	-0,014
-562,788	-200,000	0,031	-0,101
-561,773	-200,000	-0,013	-0,063
-560,758	-200,000	-0,015	0,055
-559,744	89,625	0,084	-0,068
-558,729	-142,284	-0,063	0,004
-557,715	800,000	-0,028	-0,078
-556,700	92,733	-0,089	0,073
-555,685	91,665	-0,069	0,056
-554,671	-58,825	0,102	0,032
-553,656	32,759	-0,055	0,035
-552,642	-14,088	-0,055	0,026
-551,627	-200,000	0,000	0,036
-550,612	800,000	0,053	-0,117
-549,598	-200,000	-0,009	0,039
-548,583	510,181	0,014	-0,024
-547,569	-66,066	0,134	0,039
-546,554	162,958	-0,025	-0,025
-545,539	-47,714	0,103	-0,036
-544,525	-26,701	0,072	-0,031
-543,510	123,331	-0,069	0,063
-542,496	-91,620	0,061	-0,013
-541,481	-200,000	-0,029	0,147
-540,466	35,342	-0,122	-0,078
-539,452	-200,000	-0,008	-0,041
-538,437	189,293	0,042	0,046
-537,423	403,991	0,038	0,059
-536,408	101,367	-0,107	-0,091
-535,393	-200,000	0,004	-0,078
-534,379	-200,000	-0,014	-0,081
-533,364	88,519	-0,023	-0,018
-532,350	107,293	-0,077	0,067
-531,335	800,000	0,060	0,189
-530,321	-200,000	-0,016	0,118
-529,306	247,919	0,057	0,070
-528,291	-36,233	-0,143	0,056
-527,277	214,818	0,070	-0,081
-526,262	800,000	0,032	-0,083
-525,248	-200,000	-0,013	0,240
-524,233	-5,231	0,076	0,038
-523,218	-112,646	-0,067	-0,010
-522,204	-200,000	0,025	0,102
-521,189	800,000	-0,029	0,061
-520,175	-200,000	-0,052	-0,249
-519,160	-158,151	-0,085	0,004
-518,145	-102,337	-0,031	0,005
-517,131	-153,844	0,119	-0,006
-516,116	592,470	0,052	0,094
-515,102	364,761	0,039	-0,058
-514,087	37,566	-0,193	-0,125
-513,072	-200,000	-0,012	0,097
-512,058	-67,008	-0,086	-0,025
-511,043	-200,000	-0,029	-0,141
-510,029	153,284	-0,081	0,081
-509,014	-28,395	0,047	-0,020
-507,999	-166,404	-0,053	-0,002
-506,985	800,000	0,058	-0,146
-505,970	94,973	0,065	-0,054
-504,956	103,430	-0,109	-0,093
-503,941	584,678	0,135	0,242
-502,926	35,596	0,117	0,075
-501,912	-7,293	0,166	0,082
-500,897	-200,000	-0,007	-0,073
-499,883	-120,501	0,031	0,004
-498,868	170,176	-0,142	-0,148
-497,853	-151,909	-0,082	-0,004
-496,839	-16,896	0,035	-0,016
-495,824	800,000	0,031	0,070
-494,810	658,103	0,071	0,133
-493,795	-114,142	0,124	-0,017
-492,781	-12,479	-0,116	-0,055
-491,766	27,688	-0,017	0,011
-490,751	-200,000	-0,017	-0,088
-489,737	77,202	-0,049	-0,038
-488,722	-111,820	0,128	-0,019
-487,708	800,000	0,013	0,043
-486,693	-23,933	-0,057	0,025
-485,678	-73,416	-0,138	-0,036
-484,664	151,624	-0,001	-0,001
-483,649	-51,755	0,062	-0,021
-482,635	-200,000	0,010	-0,049
-481,620	-178,627	0,148	0,002
-480,605	-200,000	-0,030	-0,135
-479,591	411,586	-0,109	0,168
-478,576	-200,000	-0,003	0,027
-477,562	133,112	-0,107	-0,101
-476,547	800,000	0,015	-0,031
-475,532	-199,335	-0,048	-0,000
-474,518	31,432	0,119	0,074
-473,503	-200,000	0,003	-0,018
-472,489	-176,455	-0,105	0,002
-471,474	-200,000	0,012	0,083
-470,459	-158,007	0,044	-0,002
-469,445	-200,000	0,025	-0,095
-468,430	676,870	0,030	0,057
-467,416	-200,000	-0,008	0,032
-466,401	99,497	0,036	0,030
-465,386	-13,345	-0,107	0,050
-464,372	174,272	0,124	-0,130
-463,357	279,960	0,038	-0,049
-462,343	-200,000	0,001	-0,079
-461,328	179,265	0,035	0,037
-460,313	-128,112	-0,060	0,006
-459,299	-200,000	0,008	-0,058
-458,284	-200,000	0,022	0,071
-457,270	-65,422	0,062	-0,018
-456,255	70,588	-0,030	-0,023
-455,241	-200,000	-0,017	-0,171
-454,226	-200,000	0,010	-0,156
-453,211	-200,000	-0,004	-0,071
-452,197	-117,131	0,118	0,015
-451,182	-0,829	0,189	-0,097
-450,168	419,329	-0,056	0,087
-449,153	387,348	-0,105	-0,159
-448,138	-200,000	0,015	-0,170
-447,124	-126,514	-0,076	-0,008
-446,109	-200,000	0,094	0,000
-445,095	-200,000	-0,004	0,064
-444,080	-200,000	0,057	0,208
-443,065	800,000	0,008	0,018
-442,051	-200,000	0,008	-0,063
-441,036	102,107	0,038	0,032
-440,022	67,658	0,068	0,051
-439,007	800,000	0,048	-0,126
-437,992	140,435	0,040	-0,038
-436,978	-24,160	-0,031	0,013
-435,963	302,224	-0,026	0,036
-434,949	-200,000	0,001	0,089
-433,934	800,000	-0,039	0,099
-432,919	800,000	0,038	-0,086
-431,905	-200,000	0,017	-0,081
-430,890	-22,067	0,172	-0,075
-429,876	-200,000	0,048	0,175
-428,861	-200,000	-0,018	-0,127
-427,846	537,946	-0,018	0,031
-426,832	-111,411	-0,097	-0,014
-425,817	-91,702	-0,108	-0,022
-424,803	-200,000	0,015	-0,055
-423,788	34,860	0,022	-0,014
-422,773	356,187	0,098	0,142
-421,759	371,283	0,092	0,137
-420,744	-200,000	-0,012	0,055
-419,730	194,628	0,017	-0,019
-418,715	-200,000	0,003	-0,098
-417,701	439,435	-0,081	0,128
-416,686	-83,182	-0,062	0,014
-415,671	42,791	-0,105	0,069
-414,657	-200,000	0,047	0,183
-413,642	-200,000	0,010	-0,083
-412,628	-200,000	0,003	-0,121
-411,613	235,198	-0,104	-0,125
-410,598	800,000	0,042	-0,108
-409,584	146,347	-0,009	-0,009
-408,569	649,360	0,027	0,051
-407,555	69,816	0,091	0,068
-406,540	-157,355	-0,157	0,007
-405,525	-200,000	-0,001	-0,013
-404,511	104,689	0,112	-0,096
-403,496	291,098	-0,071	-0,094
-402,482	281,317	0,059	0,077
-401,467	97,056	0,049	0,041
-400,452	279,141	0,079	0,102
-399,438	-200,000	-0,023	0,076
-398,423	-69,203	0,054	0,015
-397,409	63,370	-0,036	-0,026
-396,394	63,794	0,078	-0,057
-395,379	-36,152	-0,092	0,036
-394,365	66,480	0,083	-0,062
-393,350	-19,802	-0,058	0,026
-392,336	-34,791	0,038	0,015
-391,321	488,066	-0,039	-0,065
-390,306	-139,795	0,075	-0,006
-389,292	-78,352	0,059	-0,015
-388,277	-199,812	0,050	-0,000
-387,263	800,000	0,056	-0,114
-386,248	44,090	-0,072	-0,048
-385,233	-122,491	0,098	-0,011
-384,219	432,497	-0,045	-0,071
-383,204	-47,404	0,011	-0,004
-382,190	800,000	-0,006	-0,012
-381,175	195,508	0,090	-0,099
-380,160	356,805	0,119	-0,173
-379,146	167,296	-0,063	-0,065
-378,131	184,038	-0,065	-0,070
-377,117	38,833	-0,113	-0,073
-376,102	149,924	0,097	-0,095
-375,088	-200,000	-0,017	-0,074
-374,073	8,054	-0,066	0,036
-373,058	116,042	0,031	0,027
-372,044	-200,000	0,008	0,122
-371,029	-200,000	-0,002	-0,111
-370,015	641,866	0,048	0,090
-369,000	362,072	0,057	0,083
-367,985	40,692	0,021	-0,014
-366,971	413,534	-0,047	0,072
-365,956	409,754	0,050	-0,077
-364,942	-200,000	-0,004	0,092
-363,927	160,981	0,074	0,075
-362,912	-200,000	-0,003	-0,031
-361,898	-200,000	-0,010	-0,053
-360,883	55,365	0,080	-0,056
-359,869	202,852	-0,088	-0,099
-358,854	14,479	0,125	-0,071
-357,839	232,312	0,022	0,026
-356,825	278,119	0,037	-0,048
-355,810	-181,367	-0,150	0,002
-354,796	800,000	0,046	-0,097
-353,781	-64,590	-0,112	-0,033
-352,766	206,490	-0,022	0,025
-351,752	800,000	0,062	0,150
-350,737	61,960	0,084	0,060
-349,723	264,793	-0,103	0,130
-348,708	79,204	0,096	0,074
-347,693	-200,000	-0,008	-0,040
-346,679	-200,000	-0,009	0,106
-345,664	800,000	0,024	0,049
-344,650	191,106	-0,043	0,046
-343,635	-145,275	0,200	0,013
-342,620	31,339	0,053	0,033
-341,606	800,000	-0,023	-0,072
-340,591	332,177	0,027	0,037
-339,577	-200,000	0,001	-0,098
-338,562	-46,222	-0,067	-0,024
-337,548	800,000	0,032	-0,093
-336,533	-142,309	-0,012	-0,001
-335,518	50,872	0,089	0,061
-334,504	67,760	0,050	-0,037
-333,489	165,576	-0,044	-0,045
-332,475	-1,904	-0,094	0,048
-331,460	-200,000	0,003	-0,079
-330,445	800,000	0,045	-0,125
-329,431	-88,358	0,059	0,013
-328,416	412,227	0,032	0,050
-327,402	781,048	0,030	-0,060
-326,387	49,999	0,145	-0,099
-325,372	175,402	0,040	-0,042
-324,358	114,447	-0,088	0,078
-323,343	157,790	-0,127	0,127
-322,329	800,000	-0,033	-0,069
-321,314	79,662	0,101	0,079
-320,299	-125,225	0,117	0,013
-319,285	-104,614	-0,084	-0,014
-318,270	600,322	-0,031	-0,056
-317,256	202,558	-0,071	0,079
-316,241	-200,000	-0,036	-0,130
-315,226	-200,000	-0,020	-0,188
-314,212	526,503	-0,024	0,041
-313,197	800,000	0,068	0,140
-312,183	-200,000	0,035	-0,266
-311,168	273,700	0,022	0,028
-310,153	-48,405	-0,033	-0,011
-309,139	358,176	0,014	0,020
-308,124	800,000	-0,014	-0,035
-307,110	-75,389	0,141	0,036
-306,095	-17,784	0,092	0,042
-305,080	-200,000	0,007	-0,059
-304,066	-109,500	-0,079	-0,012
-303,051	3,147	-0,057	-0,030
-302,037	-11,293	-0,026	0,012
-301,022	-200,000	-0,036	-0,162
-300,008	-200,000	0,007	-0,055
-298,993	14,133	-0,125	-0,070
-297,978	-3,861	-0,158	0,079
-296,964	155,497	0,042	-0,041
-295,949	773,486	0,032	0,064
-294,935	93,855	-0,031	0,025
-293,920	800,000	0,047	-0,135
-292,905	-158,771	0,041	0,002
-291,891	45,839	0,152	0,101
-290,876	-89,553	-0,076	-0,016
-289,862	-154,856	-0,092	0,004
-288,847	67,978	-0,188	-0,139
-287,832	-140,057	-0,088	-0,007
-286,818	-200,000	-0,021	-0,121
-285,803	107,256	0,063	0,054
-284,789	-23,058	0,118	-0,051
-283,774	800,000	0,026	-0,078
-282,759	314,056	0,013	0,018
-281,745	160,255	-0,039	-0,039
-280,730	29,999	-0,120	0,074
-279,716	-57,603	0,028	-0,009
-278,701	248,836	0,040	-0,050
-277,686	-81,298	0,169	0,040
-276,672	108,019	0,057	0,049
-275,657	0,348	-0,189	0,097
-274,643	641,712	-0,020	0,037
-273,628	800,000	0,023	-0,070
-272,613	-38,689	0,096	0,037
-271,599	800,000	0,052	0,140
-270,584	-191,191	-0,099	-0,001
-269,570	-200,000	0,010	0,062
-268,555	0,481	0,123	0,063
-267,540	-111,550	-0,057	0,008
-266,526	-200,000	-0,017	-0,145
-265,511	-200,000	0,013	-0,052
-264,497	543,078	-0,043	-0,075
-263,482	-18,481	0,126	0,056
-262,467	68,124	0,064	0,047
-261,453	-137,574	0,085	0,007
-260,438	-139,957	-0,051	0,004
-259,424	81,106	0,044	-0,034
-258,409	-200,000	0,005	-0,038
-257,395	800,000	0,052	-0,129
-256,380	-99,688	-0,024	-0,004
-255,365	-47,203	0,103	0,036
-254,351	-44,013	0,168	0,061
-253,336	-200,000	-0,024	-0,111
-252,322	-101,522	-0,226	0,039
-251,307	-9,250	0,077	0,037
-250,292	266,042	-0,039	0,050
-249,278	367,209	0,035	0,052
-248,263	27,125	0,104	0,063
-247,249	112,936	-0,019	0,017
-246,234	-200,000	0,006	0,174
-245,219	-130,053	-0,058	0,006
-244,205	-0,576	0,101	-0,052
-243,190	606,367	-0,019	0,034
-242,176	-45,768	0,102	0,036
-241,161	190,274	-0,024	0,026
-240,146	-200,000	0,004	-0,150
-239,132	-104,438	-0,120	-0,020
-238,117	115,134	0,075	-0,066
-237,103	-27,952	-0,150	-0,062
-236,088	598,156	0,036	-0,064
-235,073	87,826	-0,051	-0,041
-234,059	406,792	0,103	0,158
-233,044	97,010	0,098	0,081
-232,030	-154,954	-0,188	0,009
-231,015	-75,744	0,111	0,028
-230,000	39,566	-0,022	0,014
-228,986	-200,000	-0,015	-0,102
-227,971	58,221	0,042	-0,030
-226,957	66,167	0,118	0,086
-225,942	226,459	0,112	0,131
-224,927	96,179	0,009	0,007
-223,913	-129,222	-0,097	-0,010
-222,898	192,214	-0,111	0,121
-221,884	206,620	-0,101	-0,113
-220,869	11,790	0,090	0,049
-219,855	-200,000	-0,012	0,134
-218,840	-158,045	0,057	0,002
-217,825	-200,000	0,008	0,124
-216,811	-126,567	-0,142	0,015
-215,796	19,129	0,083	0,048
-214,782	-200,000	0,018	0,084
-213,767	339,348	-0,084	-0,118
-212,752	261,894	0,061	-0,076
-211,738	-45,705	0,065	0,023
-210,723	8,200	0,123	0,067
-209,709	-64,863	-0,057	0,017
-208,694	-12,025	0,061	-0,029
-207,679	515,832	0,033	0,056
-206,665	386,755	-0,075	0,112
-205,650	95,301	-0,104	0,085
-204,636	525,965	0,059	0,100
-203,621	-141,704	-0,157	-0,011
-202,606	701,101	-0,034	-0,065
-201,592	96,694	-0,101	-0,083
-200,577	-153,132	-0,076	0,004
-199,563	-115,767	0,137	-0,018
-198,548	-79,944	0,057	0,014
-197,533	0,450	0,091	0,047
-196,519	-200,000	-0,019	0,067
-195,504	-200,000	0,058	0,259
-194,490	800,000	-0,086	-0,182
-193,475	360,615	-0,034	-0,049
-192,460	-109,144	-0,051	0,008
-191,446	-142,118	-0,119	-0,008
-190,431	147,531	-0,076	0,074
-189,417	-200,000	-0,004	-0,068
-188,402	-200,000	0,016	0,104
-187,387	800,000	-0,017	-0,036
-186,373	503,321	0,007	-0,011
-185,358	11,347	0,046	0,025
-184,344	113,388	-0,123	0,107
-183,329	-200,000	0,002	-0,053
-182,315	-91,391	-0,198	-0,040
-181,300	96,416	-0,093	0,076
-180,285	-29,384	-0,037	-0,015
-179,271	-29,269	-0,017	0,007
-178,256	40,365	0,136	-0,088
-177,242	-200,000	-0,005	-0,034
-176,227	-200,000	0,024	-0,119
-175,212	125,572	-0,005	-0,004
-174,198	800,000	0,013	0,027
-173,183	131,855	-0,074	-0,069
-172,169	55,662	0,030	0,021
-171,154	-93,347	-0,139	-0,027
-170,139	50,548	0,109	-0,074
-169,125	-200,000	-0,024	-0,109
-168,110	-35,169	0,029	0,011
-167,096	73,243	-0,022	0,016
-166,081	-10,333	-0,068	-0,032
-165,066	-83,144	-0,101	-0,023
-164,052	76,738	-0,083	0,063
-163,037	800,000	0,027	-0,076
-162,023	800,000	0,016	-0,040
-161,008	-200,000	-0,013	0,066
-159,993	-200,000	0,009	0,091
-158,979	300,709	0,032	-0,043
-157,964	800,000	-0,054	-0,144
-156,950	262,395	-0,023	0,029
-155,935	800,000	0,019	-0,053
-154,920	-200,000	-0,011	-0,038
-153,906	-79,616	0,089	0,021
-152,891	800,000	-0,036	0,115
-151,877	64,016	-0,049	0,035
-150,862	-200,000	0,028	-0,174
-149,847	-200,000	0,007	-0,067
-148,833	590,354	0,025	0,045
-147,818	800,000	0,015	0,032
-146,804	800,000	0,075	-0,191
-145,789	-62,367	-0,062	0,018
-144,775	265,853	0,006	-0,007
-143,760	20,668	0,130	-0,075
-142,745	-99,160	-0,118	0,021
-141,731	800,000	0,014	0,041
-140,716	-109,074	-0,110	-0,017
-139,702	522,506	0,046	-0,079
-138,687	800,000	0,036	0,087
-137,672	-200,000	0,006	-0,036
-136,658	800,000	-0,017	-0,050
-135,643	-200,000	-0,004	0,027
-134,629	-102,837	-0,068	0,011
-133,614	-81,671	0,102	-0,024
-132,599	-200,000	0,038	0,126
-131,585	-200,000	-0,010	-0,049
-130,570	61,182	0,030	0,021
-129,556	-200,000	-0,004	0,101
-128,541	182,441	0,078	-0,083
-127,526	142,915	-0,072	-0,069
-126,512	800,000	-0,001	-0,001
-125,497	95,574	-0,055	0,045
-124,483	-83,015	0,080	0,018
-123,468	61,567	0,069	-0,049
-122,453	-200,000	-0,019	-0,171
-121,439	222,866	-0,136	-0,158
-120,424	155,203	0,081	0,080
-119,410	-80,625	0,121	0,029
