DTS Sentinel unit serial number:	SN410029Multiplexer serial number:	ORYXHardware model number:	OX2-SRSoftware version number:	ORYX F/W v4,00 Oryx Data Collector v3.7.2.0data status	okinstallation	B6 Nyhavnadifferential loss correction	single-endedforward channel	channel 2reverse channel	N/Adate	2023/12/08time	21:40:08forward acquisition time	300,00reverse acquisition time	0,00gamma	499,1914k internal	0,3158k external	0,3158temperature offset calibration	1,0000default loss term (dB/km)	0,3820temperature slope calibration	1,0000multiplexer offset coefficient	1,0000multiplexer slope coefficient	1,0000fibre end	0,00T internal ref (°C)	15,25T ext. ref 1 (°C)	-1,30T ext. ref 2 (°C)	-1,30length (m)	temperature (°C)	Stokes	anti-Stokes-744,400	-67,913	0,070	0,020
-743,385	-52,257	-0,288	-0,098
-742,371	274,258	0,063	0,083
-741,356	-160,585	-0,227	0,009
-740,342	-135,020	0,185	0,016
-739,327	-91,340	-0,241	0,050
-738,312	321,691	-0,052	0,073
-737,298	-120,304	-0,217	-0,027
-736,283	253,354	0,062	-0,078
-735,269	-89,974	-0,318	0,068
-734,254	-46,871	0,103	0,037
-733,239	-17,660	-0,434	-0,200
-732,225	77,096	0,201	0,157
-731,210	120,693	0,017	0,015
-730,196	800,000	0,034	0,103
-729,181	-49,090	-0,157	0,055
-728,167	115,131	-0,050	0,045
-727,152	-173,245	-0,142	-0,003
-726,137	-200,000	-0,032	-0,230
-725,123	-87,335	0,096	0,021
-724,108	218,662	-0,114	-0,134
-723,094	160,301	-0,096	-0,099
-722,079	-17,460	0,006	-0,003
-721,064	722,113	-0,006	0,012
-720,050	-116,621	-0,098	0,013
-719,035	-162,378	-0,229	-0,008
-718,021	289,039	-0,053	-0,071
-717,006	105,948	0,035	-0,030
-715,991	33,937	-0,113	-0,073
-714,977	57,549	-0,063	0,045
-713,962	-17,773	-0,082	0,038
-712,948	800,000	-0,056	0,121
-711,933	64,648	-0,108	-0,080
-710,918	147,555	-0,113	-0,112
-709,904	800,000	-0,019	-0,047
-708,889	7,948	-0,190	-0,105
-707,875	287,224	0,065	0,086
-706,860	424,442	-0,040	-0,064
-705,845	98,773	-0,057	0,048
-704,831	800,000	-0,071	-0,171
-703,816	800,000	-0,056	-0,159
-702,802	22,213	0,077	0,046
-701,787	-140,045	-0,084	0,006
-700,772	-58,453	0,039	0,013
-699,758	47,055	0,090	-0,062
-698,743	-200,000	-0,013	0,115
-697,729	800,000	-0,030	0,070
-696,714	639,102	-0,021	-0,040
-695,699	-3,428	0,085	-0,043
-694,685	-75,092	-0,132	0,034
-693,670	644,252	-0,033	-0,063
-692,656	162,955	0,066	0,068
-691,641	87,446	-0,069	-0,057
-690,627	-130,048	-0,058	-0,006
-689,612	-200,000	-0,005	0,165
-688,597	397,293	0,051	-0,079
-687,583	-45,194	-0,093	-0,034
-686,568	-200,000	-0,040	-0,172
-685,554	1,635	-0,096	0,050
-684,539	-200,000	0,016	-0,055
-683,524	-72,872	0,088	-0,024
-682,510	-20,744	-0,064	-0,029
-681,495	-67,705	0,070	0,020
-680,481	800,000	-0,028	-0,061
-679,466	135,043	-0,115	-0,109
-678,451	-200,000	0,002	-0,042
-677,437	189,385	-0,083	-0,091
-676,422	14,431	-0,031	0,018
-675,408	-16,305	-0,039	-0,018
-674,393	800,000	-0,072	-0,150
-673,378	710,215	-0,019	-0,038
-672,364	119,316	-0,031	0,028
-671,349	114,145	-0,079	-0,070
-670,335	800,000	0,012	-0,031
-669,320	41,461	0,152	0,101
-668,305	-200,000	0,003	0,077
-667,291	24,764	-0,153	-0,093
-666,276	252,272	0,066	-0,083
-665,262	178,896	-0,077	0,083
-664,247	-154,047	-0,090	-0,004
-663,232	-118,282	0,053	-0,007
-662,218	160,808	-0,044	0,046
-661,203	621,937	0,029	0,055
-660,189	800,000	-0,041	0,091
-659,174	72,131	0,051	0,039
-658,159	231,045	0,013	-0,015
-657,145	-200,000	0,049	-0,162
-656,130	-200,000	0,000	0,014
-655,116	-200,000	-0,022	0,081
-654,101	-118,296	-0,033	-0,004
-653,086	-13,555	-0,032	0,015
-652,072	800,000	-0,084	0,173
-651,057	99,630	0,094	-0,080
-650,043	34,281	-0,066	-0,042
-649,028	361,153	-0,123	-0,182
-648,014	49,664	0,079	0,054
-646,999	12,636	0,044	0,025
-645,984	-48,450	0,088	-0,031
-644,970	76,934	0,037	-0,029
-643,955	-125,345	-0,078	0,009
-642,941	66,592	0,027	0,020
-641,926	-108,481	0,076	-0,012
-640,911	-54,261	-0,151	0,050
-639,897	-200,000	-0,005	0,183
-638,882	109,020	-0,104	-0,092
-637,868	-200,000	-0,014	0,126
-636,853	-200,000	-0,026	0,096
-635,838	45,503	-0,087	-0,059
-634,824	-81,068	-0,074	0,018
-633,809	-108,286	-0,035	-0,006
-632,795	-200,000	0,035	0,158
-631,780	-162,603	0,094	-0,003
-630,765	-200,000	-0,008	-0,180
-629,751	-63,000	-0,054	0,016
-628,736	415,330	-0,079	-0,124
-627,722	85,962	-0,026	0,021
-626,707	-112,881	0,088	0,013
-625,692	50,367	0,036	0,025
-624,678	14,214	-0,110	-0,062
-623,663	800,000	0,010	-0,028
-622,649	-200,000	0,021	-0,144
-621,634	39,999	-0,119	0,078
-620,619	79,334	-0,131	-0,103
-619,605	800,000	0,038	-0,119
-618,590	532,153	-0,051	0,089
-617,576	-64,402	-0,095	-0,028
-616,561	-200,000	0,001	0,006
-615,546	-200,000	-0,011	-0,076
-614,532	800,000	-0,082	-0,181
-613,517	-146,730	-0,073	0,005
-612,503	800,000	0,038	0,088
-611,488	800,000	-0,037	0,121
-610,474	-92,901	-0,207	0,042
-609,459	-200,000	-0,012	0,101
-608,444	-167,553	0,070	-0,002
-607,430	800,000	-0,033	-0,094
-606,415	-200,000	-0,019	-0,126
-605,401	26,306	0,026	0,016
-604,386	584,737	0,090	0,163
-603,371	259,596	-0,052	0,066
-602,357	-200,000	0,005	0,096
-601,342	-82,699	-0,117	-0,027
-600,328	256,656	0,032	0,040
-599,313	11,071	0,061	-0,034
-598,298	124,692	-0,036	-0,033
-597,284	93,652	0,046	-0,039
-596,269	-200,000	-0,007	-0,103
-595,255	495,136	0,075	-0,126
-594,240	-200,000	0,001	-0,047
-593,225	-122,768	-0,194	-0,023
-592,211	-43,304	-0,036	0,013
-591,196	-151,697	-0,031	0,002
-590,182	300,204	-0,034	-0,046
-589,167	243,856	-0,028	0,034
-588,152	287,675	-0,061	0,080
-587,138	41,207	-0,037	0,024
-586,123	-200,000	-0,017	0,083
-585,109	800,000	0,049	-0,109
-584,094	109,394	0,020	0,017
-583,079	-194,253	0,037	-0,000
-582,065	-145,122	-0,149	-0,010
-581,050	-200,000	0,007	-0,163
-580,036	40,916	-0,125	0,083
-579,021	-200,000	0,020	-0,238
-578,006	-134,941	-0,102	0,009
-576,992	-166,316	-0,107	0,003
-575,977	42,546	-0,082	-0,054
-574,963	800,000	0,032	0,090
-573,948	800,000	0,068	0,149
-572,934	310,160	-0,100	-0,138
-571,919	-200,000	0,018	0,105
-570,904	-200,000	0,013	-0,076
-569,890	-200,000	-0,024	-0,096
-568,875	-104,967	0,074	0,012
-567,861	-200,000	-0,007	-0,060
-566,846	69,693	-0,104	0,078
-565,831	-78,025	-0,064	-0,016
-564,817	-200,000	0,007	0,116
-563,802	87,601	-0,153	-0,124
-562,788	-20,208	-0,092	-0,041
-561,773	-95,503	-0,115	-0,022
-560,758	-45,445	0,045	-0,016
-559,744	158,596	-0,026	0,027
-558,729	246,650	0,074	0,091
-557,715	-200,000	0,017	0,058
-556,700	-51,044	-0,089	-0,030
-555,685	-200,000	-0,023	-0,148
-554,671	293,426	0,128	0,171
-553,656	-59,874	0,088	0,027
-552,642	421,338	0,042	0,067
-551,627	800,000	-0,051	0,140
-550,612	48,209	-0,149	0,102
-549,598	-4,982	0,185	-0,093
-548,583	332,298	0,071	0,101
-547,569	-13,913	0,107	0,050
-546,554	-200,000	0,026	0,136
-545,539	405,863	0,039	0,060
-544,525	458,179	0,038	-0,062
-543,510	800,000	-0,046	0,139
-542,496	345,857	-0,048	0,069
-541,481	800,000	-0,016	-0,040
-540,466	108,706	-0,089	-0,078
-539,452	800,000	0,033	0,079
-538,437	-36,349	0,109	0,043
-537,423	-28,951	-0,065	-0,027
-536,408	-61,837	-0,045	0,014
-535,393	81,734	0,036	0,029
-534,379	306,862	-0,072	-0,099
-533,364	602,414	0,082	0,149
-532,350	800,000	-0,012	-0,037
-531,335	398,546	-0,030	0,046
-530,321	-24,205	0,098	-0,043
-529,306	800,000	-0,035	-0,100
-528,291	-115,674	0,025	0,003
-527,277	-200,000	-0,030	-0,184
-526,262	800,000	-0,014	-0,046
-525,248	-112,261	-0,114	0,017
-524,233	-116,185	0,056	-0,007
-523,218	179,274	0,030	-0,033
-522,204	800,000	0,046	0,119
-521,189	-33,916	0,048	0,019
-520,175	-193,453	-0,158	-0,001
-519,160	78,883	-0,107	-0,084
-518,145	343,829	0,035	-0,051
-517,131	36,525	-0,051	0,033
-516,116	24,910	0,037	-0,022
-515,102	-104,719	0,070	-0,012
-514,087	-40,553	-0,122	-0,046
-513,072	-200,000	0,025	0,126
-512,058	-200,000	0,003	-0,064
-511,043	27,245	0,034	0,021
-510,029	599,820	0,032	0,058
-509,014	517,343	0,011	0,018
-507,999	-200,000	0,009	-0,056
-506,985	260,362	-0,022	-0,027
-505,970	-77,812	-0,066	-0,017
-504,956	48,516	-0,043	-0,030
-503,941	-37,491	0,080	-0,031
-502,926	800,000	0,028	-0,085
-501,912	800,000	-0,021	0,064
-500,897	23,790	0,057	-0,034
-499,883	-74,542	0,087	-0,023
-498,868	-79,923	-0,039	0,010
-497,853	-107,989	-0,169	-0,026
-496,839	-45,191	0,052	-0,019
-495,824	362,929	0,062	-0,091
-494,810	-1,867	-0,052	0,027
-493,795	-200,000	-0,031	-0,138
-492,781	-122,778	0,196	-0,023
-491,766	408,192	-0,023	-0,036
-490,751	276,736	-0,039	0,051
-489,737	638,725	0,059	0,110
-488,722	-83,173	0,144	0,034
-487,708	-16,526	-0,136	-0,063
-486,693	-53,470	-0,116	-0,038
-485,678	342,910	0,057	0,081
-484,664	-200,000	-0,054	-0,184
-483,649	-88,620	-0,065	0,014
-482,635	-157,998	-0,093	-0,004
-481,620	126,226	-0,022	-0,021
-480,605	525,712	0,052	-0,089
-479,591	800,000	-0,050	-0,114
-478,576	-110,827	-0,060	0,009
-477,562	-119,883	-0,084	-0,010
-476,547	45,524	-0,042	-0,028
-475,532	800,000	-0,029	0,090
-474,518	191,008	0,068	0,074
-473,503	6,937	0,078	-0,042
-472,489	-200,000	0,009	0,035
-471,474	-61,088	-0,134	0,041
-470,459	-200,000	0,016	0,051
-469,445	-104,209	0,033	0,006
-468,430	-35,319	0,127	-0,050
-467,416	-163,852	-0,052	-0,002
-466,401	-75,473	0,148	0,038
-465,386	-200,000	-0,010	-0,124
-464,372	-34,341	0,030	-0,012
-463,357	-145,914	-0,120	-0,008
-462,343	-200,000	-0,014	0,170
-461,328	800,000	-0,039	0,084
-460,313	-118,935	0,093	0,012
-459,299	-168,533	0,159	0,004
-458,284	44,020	0,026	-0,018
-457,270	-48,798	-0,067	0,023
-456,255	-80,692	0,064	-0,016
-455,241	800,000	0,064	-0,179
-454,226	76,679	-0,053	-0,041
-453,211	800,000	0,046	-0,119
-452,197	-200,000	0,024	-0,083
-451,182	-200,000	0,008	0,068
-450,168	-200,000	0,008	0,055
-449,153	77,055	-0,086	0,067
-448,138	110,353	-0,100	-0,087
-447,124	308,173	-0,044	-0,060
-446,109	-88,579	-0,067	-0,014
-445,095	-200,000	-0,031	0,151
-444,080	532,609	0,058	0,100
-443,065	-130,034	-0,011	0,001
-442,051	-200,000	-0,015	-0,151
-441,036	-36,528	0,071	-0,028
-440,022	124,118	-0,115	-0,105
-439,007	259,422	0,034	-0,042
-437,992	-115,155	-0,037	0,005
-436,978	-200,000	-0,004	0,013
-435,963	-30,412	-0,151	0,062
-434,949	40,801	0,091	-0,060
-433,934	481,265	0,028	0,047
-432,919	800,000	0,033	0,105
-431,905	800,000	0,054	0,120
-430,890	-200,000	-0,017	0,066
-429,876	800,000	-0,046	0,144
-428,861	-55,055	0,079	-0,026
-427,846	-81,853	0,028	0,007
-426,832	106,127	-0,060	-0,052
-425,817	-65,371	-0,105	0,031
-424,803	-39,050	-0,047	-0,018
-423,788	135,876	0,042	-0,040
-422,773	160,663	0,050	0,051
-421,759	9,893	0,029	0,016
-420,744	43,897	-0,141	0,094
-419,730	800,000	-0,032	-0,088
-418,715	10,935	-0,119	0,066
-417,701	627,124	-0,038	0,070
-416,686	-200,000	-0,028	-0,113
-415,671	86,749	0,047	-0,037
-414,657	-200,000	-0,014	-0,062
-413,642	-200,000	-0,033	-0,112
-412,628	593,328	0,052	-0,094
-411,613	-150,955	-0,035	-0,002
-410,598	-71,576	0,139	0,037
-409,584	-106,894	0,086	0,014
-408,569	-51,473	0,138	-0,047
-407,555	72,151	0,099	-0,075
-406,540	32,973	0,120	0,075
-405,525	800,000	0,021	-0,057
-404,511	-47,387	0,094	-0,033
-403,496	-200,000	0,004	-0,068
-402,482	704,869	0,060	0,116
-401,467	-200,000	0,002	0,039
-400,452	227,178	0,079	0,094
-399,438	211,481	0,060	0,068
-398,423	-138,107	-0,031	0,002
-397,409	281,217	-0,092	0,120
-396,394	136,470	-0,113	-0,107
-395,379	-65,784	0,139	-0,040
-394,365	163,554	-0,087	0,089
-393,350	800,000	0,044	0,122
-392,336	304,247	0,039	0,052
-391,321	-174,769	-0,051	0,001
-390,306	-104,682	0,066	0,011
-389,292	47,170	-0,091	-0,062
-388,277	212,662	0,061	-0,070
-387,263	-108,206	-0,056	-0,009
-386,248	-84,693	0,141	0,032
-385,233	621,343	-0,020	-0,037
-384,219	-60,661	0,069	0,021
-383,204	-123,171	0,035	0,004
-382,190	21,636	-0,110	-0,065
-381,175	181,102	-0,093	0,100
-380,160	-200,000	0,022	0,081
-379,146	800,000	-0,027	0,085
-378,131	-30,972	-0,036	0,015
-377,117	-200,000	-0,033	0,110
-376,102	-10,167	-0,093	-0,044
-375,088	800,000	0,048	-0,128
-374,073	72,485	0,080	0,061
-373,058	103,232	0,072	0,061
-372,044	50,171	0,050	0,035
-371,029	-200,000	-0,003	0,024
-370,015	-98,698	0,090	0,017
-369,000	416,376	-0,015	-0,023
-367,985	-200,000	0,015	-0,142
-366,971	-200,000	0,002	-0,041
-365,956	623,306	-0,036	-0,067
-364,942	253,788	0,083	0,103
-363,927	-200,000	0,006	0,042
-362,912	-73,922	-0,107	0,028
-361,898	-200,000	0,000	-0,042
-360,883	36,339	0,087	-0,056
-359,869	800,000	-0,058	-0,182
-358,854	-200,000	0,005	0,100
-357,839	666,743	-0,051	0,097
-356,825	-2,930	0,082	0,041
-355,810	567,940	-0,048	-0,086
-354,796	65,953	-0,047	0,035
-353,781	273,526	-0,027	0,035
-352,766	122,628	-0,062	-0,056
-351,752	110,563	0,079	0,069
-350,737	-198,137	0,145	-0,001
-349,723	800,000	0,042	0,101
-348,708	-60,513	-0,041	0,013
-347,693	-99,676	0,043	-0,008
-346,679	-17,599	-0,103	-0,047
-345,664	-200,000	0,010	0,153
-344,650	551,783	0,088	0,154
-343,635	-200,000	0,001	-0,013
-342,620	9,741	0,110	0,060
-341,606	-200,000	-0,020	0,150
-340,591	-56,001	-0,049	-0,016
-339,577	-101,566	0,043	0,007
-338,562	-200,000	0,005	-0,022
-337,548	150,388	-0,068	0,067
-336,533	-200,000	0,005	0,031
-335,518	-200,000	-0,017	0,117
-334,504	-108,339	0,102	-0,016
-333,489	-125,075	-0,108	0,012
-332,475	-170,454	-0,085	-0,002
-331,460	800,000	0,096	-0,198
-330,445	-200,000	-0,005	-0,024
-329,431	-68,747	-0,092	0,026
-328,416	142,097	0,136	-0,131
-327,402	-179,487	0,035	-0,001
-326,387	406,871	0,044	0,067
-325,372	-58,109	-0,011	0,003
-324,358	-200,000	-0,002	0,012
-323,343	170,041	0,056	0,058
-322,329	410,256	-0,048	0,074
-321,314	800,000	0,037	-0,081
-320,299	800,000	-0,052	0,111
-319,285	4,746	-0,099	0,053
-318,270	-131,974	-0,077	-0,007
-317,256	379,928	0,048	0,072
-316,241	60,328	-0,062	-0,044
-315,226	-73,318	0,101	-0,027
-314,212	-13,346	0,146	0,068
-313,197	15,778	0,061	-0,035
-312,183	251,719	0,061	0,075
-311,168	501,814	0,052	0,088
-310,153	-91,768	0,047	-0,010
-309,139	245,060	0,045	0,055
-308,124	-58,104	-0,037	-0,012
-307,110	127,338	0,068	0,062
-306,095	-200,000	0,016	0,061
-305,080	800,000	-0,035	0,092
-304,066	-200,000	0,005	0,035
-303,051	-16,901	-0,155	-0,071
-302,037	2,543	-0,029	0,015
-301,022	-76,400	-0,090	-0,023
-300,008	317,276	0,069	0,094
-298,993	165,524	0,055	0,057
-297,978	-71,078	0,018	-0,005
-296,964	85,517	-0,076	-0,061
-295,949	-200,000	0,001	-0,083
-294,935	-144,675	0,161	0,011
-293,920	-200,000	0,024	0,107
-292,905	319,364	-0,032	0,045
-291,891	-200,000	0,018	0,132
-290,876	-200,000	-0,038	0,123
-289,862	-200,000	-0,046	-0,155
-288,847	-72,588	-0,098	0,026
-287,832	158,855	0,044	0,045
-286,818	29,173	-0,030	-0,018
-285,803	322,606	0,076	-0,105
-284,789	24,808	0,072	-0,043
-283,774	800,000	-0,020	0,059
-282,759	-2,912	-0,174	0,088
-281,745	-15,939	0,102	0,047
-280,730	469,955	-0,048	-0,079
-279,716	-200,000	0,138	-0,000
-278,701	59,948	-0,059	0,042
-277,686	-200,000	0,014	-0,052
-276,672	-139,439	-0,018	-0,001
-275,657	31,087	-0,047	0,029
-274,643	-200,000	0,003	-0,140
-273,628	25,258	-0,104	-0,062
-272,613	44,061	0,147	-0,097
-271,599	-94,574	0,083	0,016
-270,584	-79,550	0,098	0,024
-269,570	637,126	0,015	-0,028
-268,555	800,000	-0,015	0,035
-267,540	-200,000	0,005	-0,060
-266,526	-200,000	0,011	0,182
-265,511	-200,000	-0,000	-0,210
-264,497	441,835	0,053	-0,084
-263,482	-200,000	-0,021	-0,071
-262,467	574,524	-0,047	0,084
-261,453	107,108	0,049	0,042
-260,438	-42,769	0,050	-0,018
-259,424	256,545	-0,085	-0,106
-258,409	-91,024	-0,025	-0,005
-257,395	-200,000	0,019	-0,064
-256,380	-74,913	0,087	0,022
-255,365	497,556	0,093	0,155
-254,351	-200,000	0,014	-0,071
-253,336	421,772	-0,074	-0,115
-252,322	-200,000	-0,048	-0,162
-251,307	-28,187	-0,071	-0,030
-250,292	516,350	0,072	-0,123
-249,278	137,549	0,055	0,052
-248,263	5,815	0,068	0,036
-247,249	-128,654	-0,147	-0,015
-246,234	670,154	-0,002	0,005
-245,219	121,706	-0,102	-0,092
-244,205	-51,842	0,083	-0,028
-243,190	-200,000	0,008	-0,168
-242,176	-200,000	0,045	0,271
-241,161	251,006	0,112	-0,138
-240,146	-35,304	0,112	0,044
-239,132	53,098	0,070	-0,048
-238,117	-200,000	0,016	-0,076
-237,103	800,000	0,025	-0,064
-236,088	800,000	0,017	0,054
-235,073	-48,441	0,039	-0,014
-234,059	233,703	-0,074	0,088
-233,044	800,000	0,024	0,049
-232,030	-78,106	-0,066	0,016
-231,015	45,706	0,082	0,055
-230,000	800,000	-0,028	-0,080
-228,986	-21,582	0,124	-0,055
-227,971	-8,152	-0,043	0,021
-226,957	-126,096	0,101	0,011
-225,942	341,503	-0,015	-0,021
-224,927	-200,000	0,006	-0,088
-223,913	800,000	0,014	-0,041
-222,898	800,000	-0,021	-0,058
-221,884	-129,624	-0,035	-0,003
-220,869	-200,000	-0,011	0,051
-219,855	309,539	-0,013	0,018
-218,840	181,316	0,072	-0,076
-217,825	-69,973	-0,063	0,017
-216,811	-141,768	-0,104	0,007
-215,796	586,978	-0,045	-0,080
-214,782	15,039	-0,023	-0,013
-213,767	-113,801	-0,172	0,024
-212,752	800,000	0,018	-0,044
-211,738	687,389	-0,044	0,084
-210,723	8,199	-0,057	-0,031
-209,709	-200,000	-0,002	-0,024
-208,694	-200,000	0,001	-0,046
-207,679	53,915	-0,087	0,060
-206,665	55,811	0,061	-0,042
-205,650	-48,432	0,104	-0,036
-204,636	-200,000	0,017	0,156
-203,621	-145,568	0,046	0,003
-202,606	770,358	-0,036	0,071
-201,592	800,000	0,040	-0,110
-200,577	-38,617	-0,118	0,045
-199,563	184,596	0,065	-0,070
-198,548	-200,000	-0,009	0,061
-197,533	-68,969	0,189	-0,052
-196,519	-200,000	-0,021	0,166
-195,504	-200,000	-0,008	0,096
-194,490	442,390	0,059	0,094
-193,475	18,511	-0,093	-0,053
-192,460	-64,307	0,078	0,023
-191,446	800,000	0,005	-0,014
-190,431	-200,000	-0,007	0,139
-189,417	-48,714	-0,026	-0,009
-188,402	763,939	-0,035	-0,069
-187,387	-200,000	-0,004	0,072
-186,373	85,629	-0,059	0,046
-185,358	209,988	0,026	0,029
-184,344	589,748	0,066	0,118
-183,329	1,463	0,047	0,024
-182,315	-141,551	0,025	0,002
-181,300	189,384	0,020	0,021
-180,285	51,511	-0,075	0,051
-179,271	208,857	0,035	-0,039
-178,256	41,185	-0,078	-0,051
-177,242	800,000	0,021	-0,056
-176,227	-144,958	0,069	-0,004
-175,212	208,972	0,035	0,039
-174,198	19,553	0,009	-0,005
-173,183	289,480	-0,152	-0,199
-172,169	-200,000	0,024	-0,132
-171,154	-200,000	0,021	0,083
-170,139	-105,328	0,072	-0,012
-169,125	-20,457	0,067	-0,029
-168,110	-200,000	-0,018	0,069
-167,096	90,481	0,095	-0,077
-166,081	536,253	0,066	-0,113
-165,066	75,620	0,030	0,023
-164,052	-3,258	-0,066	-0,033
-163,037	22,069	-0,079	-0,046
-162,023	-81,904	0,129	0,030
-161,008	-200,000	-0,025	-0,179
-159,993	476,627	-0,046	0,075
-158,979	196,734	0,040	0,044
-157,964	-124,137	0,108	0,012
-156,950	328,132	-0,022	-0,030
-155,935	-147,064	0,116	0,007
-154,920	-156,352	0,117	-0,005
-153,906	457,265	-0,053	-0,085
-152,891	-40,283	0,098	-0,037
-151,877	366,323	-0,102	-0,149
-150,862	-109,168	0,076	-0,012
-149,847	-200,000	-0,003	-0,128
-148,833	-121,177	0,048	0,006
-147,818	527,030	0,013	0,022
-146,804	217,452	0,046	0,053
-145,789	628,434	0,034	0,062
-144,775	764,215	0,023	-0,044
-143,760	246,060	-0,071	-0,086
-142,745	175,787	-0,057	0,060
-141,731	-101,011	0,163	0,029
-140,716	92,874	0,105	-0,085
-139,702	-29,303	-0,127	0,052
-138,687	-184,624	-0,028	-0,000
-137,672	800,000	-0,013	-0,027
-136,658	312,821	-0,050	-0,067
-135,643	800,000	0,018	-0,052
-134,629	393,420	0,097	-0,146
-133,614	-200,000	-0,003	0,038
-132,599	-200,000	-0,016	0,108
-131,585	383,368	-0,019	-0,028
-130,570	-176,412	0,089	0,002
-129,556	800,000	0,049	0,106
-128,541	440,480	-0,024	-0,037
-127,526	-200,000	-0,042	0,235
-126,512	4,768	-0,024	-0,013
-125,497	-200,000	0,021	-0,132
-124,483	380,634	-0,021	-0,032
-123,468	102,273	0,027	0,022
-122,453	-16,717	0,062	0,028
-121,439	136,532	-0,059	0,055
-120,424	-50,063	-0,128	0,044
-119,410	426,168	0,041	-0,063
