DTS Sentinel unit serial number:	SN410029Multiplexer serial number:	ORYXHardware model number:	OX2-SRSoftware version number:	ORYX F/W v4,00 Oryx Data Collector v3.7.2.0data status	okinstallation	B6 Nyhavnadifferential loss correction	single-endedforward channel	channel 2reverse channel	N/Adate	2023/12/08time	05:50:08forward acquisition time	300,00reverse acquisition time	0,00gamma	499,1914k internal	0,3165k external	0,3165temperature offset calibration	1,0000default loss term (dB/km)	0,3820temperature slope calibration	1,0000multiplexer offset coefficient	1,0000multiplexer slope coefficient	1,0000fibre end	0,00T internal ref (°C)	13,00T ext. ref 1 (°C)	-3,86T ext. ref 2 (°C)	-3,84length (m)	temperature (°C)	Stokes	anti-Stokes-744,400	-63,255	-0,021	-0,006
-743,385	-175,748	-0,336	0,006
-742,371	-91,277	0,193	0,040
-741,356	-169,279	-0,232	0,006
-740,342	-69,073	0,220	0,062
-739,327	-103,555	-0,302	-0,052
-738,312	-30,083	0,163	0,068
-737,298	-59,246	-0,358	-0,113
-736,283	257,859	0,064	-0,081
-735,269	-120,016	-0,322	-0,040
-734,254	38,135	0,067	0,044
-733,239	-59,684	-0,439	-0,138
-732,225	800,000	0,027	-0,060
-731,210	-200,000	0,015	0,082
-730,196	147,009	-0,013	-0,013
-729,181	-148,492	0,017	0,001
-728,167	-94,907	-0,152	0,030
-727,152	-95,318	-0,048	-0,009
-726,137	16,382	-0,108	0,063
-725,123	-200,000	-0,000	0,030
-724,108	193,226	-0,105	-0,117
-723,094	138,592	0,089	0,086
-722,079	32,605	-0,116	-0,073
-721,064	-200,000	0,014	-0,080
-720,050	149,680	-0,039	-0,038
-719,035	-46,570	0,103	0,037
-718,021	-200,000	0,010	0,063
-717,006	-21,066	-0,033	-0,015
-715,991	35,415	-0,150	-0,097
-714,977	-91,575	-0,032	-0,007
-713,962	-85,632	-0,077	0,018
-712,948	800,000	0,005	0,013
-711,933	85,717	0,049	0,040
-710,918	-200,000	0,018	-0,089
-709,904	50,453	-0,047	-0,033
-708,889	274,314	-0,019	0,024
-707,875	800,000	-0,023	-0,074
-706,860	-46,054	-0,130	-0,047
-705,845	-200,000	0,006	0,109
-704,831	786,228	0,058	0,117
-703,816	584,852	-0,104	-0,188
-702,802	21,487	0,042	0,025
-701,787	-52,989	-0,147	0,049
-700,772	95,973	0,107	0,089
-699,758	800,000	-0,022	-0,050
-698,743	275,070	-0,054	0,071
-697,729	-67,133	-0,109	0,031
-696,714	800,000	0,016	0,052
-695,699	-200,000	0,012	0,089
-694,685	-5,968	0,040	-0,020
-693,670	-200,000	0,026	-0,090
-692,656	146,674	-0,030	-0,029
-691,641	-31,960	-0,133	-0,054
-690,627	-200,000	0,015	0,067
-689,612	250,192	-0,056	0,069
-688,597	124,423	-0,033	-0,031
-687,583	642,421	0,042	-0,078
-686,568	34,063	-0,047	-0,030
-685,554	115,611	0,050	0,045
-684,539	210,424	-0,126	0,146
-683,524	-166,839	-0,070	0,002
-682,510	-69,264	-0,064	0,018
-681,495	-129,265	-0,053	-0,005
-680,481	-131,349	0,064	0,006
-679,466	46,839	0,137	-0,093
-678,451	-115,474	-0,101	0,014
-677,437	206,641	0,056	0,064
-676,422	516,341	0,058	-0,100
-675,408	124,820	0,145	-0,134
-674,393	-200,000	-0,020	-0,106
-673,378	800,000	0,040	-0,101
-672,364	-200,000	0,005	-0,020
-671,349	-83,623	-0,036	0,008
-670,335	-121,551	-0,180	0,022
-669,320	-170,548	0,086	-0,002
-668,305	56,055	-0,084	0,060
-667,291	-14,920	-0,106	0,050
-666,276	729,924	0,014	-0,028
-665,262	-200,000	0,012	-0,080
-664,247	243,783	-0,087	-0,107
-663,232	800,000	0,024	0,064
-662,218	-133,009	0,026	-0,002
-661,203	-200,000	-0,028	0,098
-660,189	-200,000	-0,011	0,041
-659,174	-133,940	0,013	-0,001
-658,159	134,658	0,052	0,050
-657,145	800,000	-0,019	0,053
-656,130	153,251	0,072	0,072
-655,116	-94,901	0,037	-0,007
-654,101	800,000	0,072	0,195
-653,086	-200,000	0,004	-0,033
-652,072	130,203	-0,061	-0,057
-651,057	389,362	-0,026	-0,040
-650,043	119,140	-0,090	-0,081
-649,028	800,000	0,027	-0,066
-648,014	-101,170	0,104	-0,018
-646,999	348,373	0,055	-0,080
-645,984	21,086	-0,141	0,083
-644,970	-140,421	0,159	-0,012
-643,955	568,082	0,036	-0,064
-642,941	583,212	-0,025	0,044
-641,926	-200,000	-0,012	0,154
-640,911	-200,000	0,017	0,104
-639,897	-31,212	0,090	0,037
-638,882	-118,912	-0,119	-0,015
-637,868	178,381	-0,046	-0,050
-636,853	298,800	-0,107	0,144
-635,838	198,797	-0,046	0,052
-634,824	700,977	0,033	-0,063
-633,809	510,140	0,043	0,074
-632,795	344,340	-0,069	-0,099
-631,780	307,271	-0,014	-0,019
-630,765	-86,159	0,071	0,016
-629,751	360,013	-0,022	0,032
-628,736	-200,000	0,005	-0,075
-627,722	239,640	-0,030	-0,037
-626,707	-200,000	0,000	0,136
-625,692	458,401	0,045	0,074
-624,678	800,000	-0,076	0,158
-623,663	-82,737	-0,104	0,025
-622,649	75,278	0,030	-0,023
-621,634	-114,868	-0,108	-0,015
-620,619	-200,000	0,027	-0,107
-619,605	382,379	-0,020	-0,030
-618,590	-200,000	0,029	-0,129
-617,576	417,438	0,051	-0,079
-616,561	-97,059	0,100	0,019
-615,546	-28,088	-0,132	-0,056
-614,532	-200,000	0,040	-0,162
-613,517	-200,000	-0,027	-0,216
-612,503	98,410	0,049	0,041
-611,488	-200,000	0,005	0,176
-610,474	266,742	-0,030	0,038
-609,459	-200,000	-0,004	0,124
-608,444	493,345	0,039	-0,065
-607,430	360,167	-0,139	-0,205
-606,415	309,715	-0,017	0,023
-605,401	-200,000	0,007	0,080
-604,386	184,808	-0,127	0,138
-603,371	346,094	-0,046	0,067
-602,357	-60,845	0,086	-0,026
-601,342	-200,000	0,020	-0,093
-600,328	-195,624	-0,087	0,000
-599,313	185,698	-0,083	0,090
-598,298	101,416	-0,091	-0,078
-597,284	-200,000	-0,014	0,102
-596,269	30,912	-0,102	-0,063
-595,255	-41,323	-0,019	-0,007
-594,240	-2,935	-0,171	-0,087
-593,225	263,005	0,066	-0,084
-592,211	800,000	0,060	-0,135
-591,196	-107,255	-0,017	0,003
-590,182	50,229	0,015	0,010
-589,167	4,494	0,066	-0,035
-588,152	122,840	-0,046	-0,042
-587,138	555,097	-0,024	0,042
-586,123	149,600	0,129	0,128
-585,109	-12,090	-0,114	-0,054
-584,094	800,000	0,020	-0,042
-583,079	-103,160	0,056	0,010
-582,065	800,000	0,052	0,130
-581,050	-200,000	0,004	0,070
-580,036	286,879	-0,090	0,120
-579,021	800,000	0,010	-0,025
-578,006	800,000	-0,051	0,131
-576,992	129,033	-0,026	0,025
-575,977	-36,439	0,095	0,037
-574,963	-154,431	0,148	0,007
-573,948	-85,474	0,072	-0,016
-572,934	800,000	-0,053	0,151
-571,919	360,232	0,063	0,092
-570,904	-200,000	0,007	0,120
-569,890	800,000	-0,013	-0,037
-568,875	-71,254	0,096	0,026
-567,861	223,608	0,019	0,022
-566,846	-200,000	0,006	0,089
-565,831	-200,000	0,006	-0,024
-564,817	319,571	-0,082	-0,114
-563,802	326,893	0,091	-0,127
-562,788	37,039	0,099	-0,064
-561,773	62,574	0,076	0,055
-560,758	800,000	-0,053	0,116
-559,744	-200,000	-0,008	-0,049
-558,729	27,302	0,111	0,068
-557,715	41,915	-0,018	-0,012
-556,700	800,000	-0,069	-0,148
-555,685	-121,232	-0,055	0,007
-554,671	287,147	0,124	0,164
-553,656	-145,304	-0,040	-0,003
-552,642	155,282	0,052	0,052
-551,627	-199,899	0,096	0,000
-550,612	-151,833	-0,158	0,008
-549,598	-13,985	-0,234	-0,110
-548,583	-200,000	0,024	-0,248
-547,569	-200,000	-0,011	0,067
-546,554	136,026	0,025	0,024
-545,539	56,739	0,062	-0,044
-544,525	343,358	-0,050	0,072
-543,510	800,000	0,013	-0,028
-542,496	68,756	-0,050	0,038
-541,481	136,314	-0,056	0,054
-540,466	-32,907	0,168	0,068
-539,452	-200,000	-0,012	-0,046
-538,437	-20,181	0,097	-0,043
-537,423	-175,381	-0,027	-0,001
-536,408	-71,970	-0,028	-0,008
-535,393	-200,000	0,018	0,116
-534,379	-33,457	-0,023	0,009
-533,364	442,413	-0,079	-0,126
-532,350	193,423	0,038	0,042
-531,335	533,662	0,060	0,104
-530,321	-200,000	-0,029	0,136
-529,306	5,785	-0,073	0,039
-528,291	-200,000	-0,013	-0,132
-527,277	-53,734	-0,119	0,039
-526,262	703,766	-0,117	0,226
-525,248	63,900	-0,070	-0,051
-524,233	149,245	0,100	0,099
-523,218	-58,080	-0,062	0,020
-522,204	85,014	0,054	0,044
-521,189	-200,000	0,017	0,141
-520,175	317,719	-0,068	0,094
-519,160	462,231	0,039	-0,064
-518,145	-200,000	0,027	0,117
-517,131	-27,801	-0,130	0,055
-516,116	-200,000	-0,021	-0,137
-515,102	-78,330	0,070	-0,017
-514,087	-117,020	-0,107	-0,014
-513,072	-119,258	0,137	-0,017
-512,058	800,000	-0,013	-0,027
-511,043	-200,000	0,008	0,046
-510,029	800,000	-0,043	0,089
-509,014	747,460	-0,020	0,040
-507,999	156,292	0,010	0,010
-506,985	-87,803	-0,087	0,019
-505,970	-60,642	-0,033	-0,010
-504,956	-200,000	-0,005	-0,035
-503,941	-138,867	-0,111	0,009
-502,926	30,911	-0,070	0,044
-501,912	33,112	-0,050	-0,031
-500,897	-57,535	-0,013	0,004
-499,883	-124,750	-0,044	-0,005
-498,868	5,330	0,073	0,039
-497,853	142,000	0,050	-0,049
-496,839	496,003	-0,089	-0,149
-495,824	-73,473	-0,021	0,006
-494,810	-76,001	0,145	-0,037
-493,795	-200,000	-0,039	-0,140
-492,781	169,276	-0,029	-0,030
-491,766	-58,279	-0,131	-0,041
-490,751	40,370	0,176	-0,115
-489,737	63,825	-0,027	-0,020
-488,722	-200,000	-0,021	-0,075
-487,708	800,000	-0,037	0,099
-486,693	254,165	-0,056	0,070
-485,678	-200,000	-0,009	-0,131
-484,664	13,002	-0,116	-0,065
-483,649	800,000	0,049	0,151
-482,635	100,378	0,109	0,092
-481,620	-200,000	-0,014	0,102
-480,605	-200,000	0,043	0,150
-479,591	800,000	-0,021	0,063
-478,576	148,267	0,039	-0,038
-477,562	-132,980	-0,119	-0,011
-476,547	-200,000	-0,006	0,046
-475,532	272,865	0,036	-0,047
-474,518	-49,680	0,074	0,026
-473,503	-4,301	-0,010	-0,005
-472,489	83,588	-0,059	-0,047
-471,474	-200,000	-0,002	0,027
-470,459	-39,928	-0,139	0,053
-469,445	-166,935	-0,167	0,005
-468,430	-16,740	0,093	0,043
-467,416	198,732	0,095	0,106
-466,401	-33,740	0,115	-0,046
-465,386	-200,000	-0,011	0,059
-464,372	-7,319	0,106	-0,052
-463,357	-200,000	-0,004	-0,082
-462,343	60,092	-0,045	-0,032
-461,328	426,805	0,033	0,052
-460,313	-200,000	-0,014	0,128
-459,299	113,304	0,145	-0,128
-458,284	-200,000	-0,026	0,125
-457,270	800,000	-0,004	0,009
-456,255	800,000	-0,051	-0,140
-455,241	424,330	-0,049	-0,077
-454,226	11,491	0,061	0,034
-453,211	-200,000	0,002	0,048
-452,197	800,000	0,027	0,057
-451,182	800,000	-0,035	-0,093
-450,168	800,000	0,025	-0,079
-449,153	-33,319	-0,065	-0,026
-448,138	-200,000	0,001	0,029
-447,124	507,371	0,020	0,033
-446,109	300,035	0,031	0,041
-445,095	173,667	0,100	-0,105
-444,080	800,000	0,036	0,085
-443,065	-200,000	-0,034	-0,118
-442,051	-52,130	-0,042	-0,014
-441,036	43,620	-0,079	-0,052
-440,022	-200,000	-0,014	-0,087
-439,007	-96,296	0,035	-0,007
-437,992	-200,000	-0,001	0,035
-436,978	-200,000	0,018	-0,066
-435,963	-40,753	0,042	0,016
-434,949	-10,657	-0,042	0,020
-433,934	-200,000	0,016	-0,149
-432,919	215,648	0,031	-0,036
-431,905	800,000	0,043	-0,096
-430,890	-113,971	0,036	-0,005
-429,876	-200,000	-0,038	0,143
-428,861	657,476	0,023	0,042
-427,846	800,000	-0,023	-0,051
-426,832	-93,997	-0,085	-0,017
-425,817	-200,000	0,008	0,061
-424,803	790,145	-0,039	0,079
-423,788	315,861	-0,008	-0,011
-422,773	162,831	0,071	0,072
-421,759	133,241	0,037	-0,035
-420,744	213,504	0,063	-0,072
-419,730	800,000	-0,054	-0,137
-418,715	-200,000	-0,014	0,075
-417,701	-82,848	-0,041	0,010
-416,686	-89,914	0,073	-0,015
-415,671	-70,921	-0,104	0,028
-414,657	380,547	0,084	0,126
-413,642	246,735	0,015	0,019
-412,628	-34,287	0,010	0,004
-411,613	281,989	-0,022	0,029
-410,598	800,000	-0,022	0,047
-409,584	76,286	0,091	-0,070
-408,569	-37,152	-0,036	0,014
-407,555	800,000	0,010	0,031
-406,540	-42,481	-0,074	0,027
-405,525	-68,916	-0,113	-0,032
-404,511	-47,343	-0,176	-0,062
-403,496	181,179	-0,076	0,081
-402,482	-83,537	-0,070	0,016
-401,467	800,000	-0,053	0,111
-400,452	-135,340	0,053	-0,005
-399,438	-98,472	0,032	0,006
-398,423	94,880	-0,061	-0,050
-397,409	527,458	-0,023	0,039
-396,394	210,993	0,088	0,101
-395,379	421,691	-0,049	-0,077
-394,365	-14,715	0,067	0,031
-393,350	-200,000	-0,008	-0,145
-392,336	83,854	0,021	0,017
-391,321	95,916	-0,074	0,061
-390,306	-200,000	-0,008	-0,036
-389,292	526,733	0,047	0,080
-388,277	-200,000	0,040	0,137
-387,263	115,529	0,042	0,037
-386,248	-41,772	0,037	0,014
-385,233	-200,000	0,014	0,106
-384,219	800,000	-0,046	-0,095
-383,204	-200,000	0,031	-0,104
-382,190	50,746	-0,094	-0,065
-381,175	417,990	0,047	-0,073
-380,160	-200,000	0,011	-0,106
-379,146	-200,000	0,003	-0,021
-378,131	-62,642	0,081	-0,024
-377,117	175,622	-0,038	-0,040
-376,102	-58,457	-0,039	0,012
-375,088	118,141	0,066	-0,059
-374,073	-188,604	-0,063	0,001
-373,058	276,733	-0,038	-0,050
-372,044	368,888	-0,005	-0,007
-371,029	-200,000	0,028	0,148
-370,015	800,000	0,047	-0,110
-369,000	-200,000	-0,003	-0,144
-367,985	-26,568	-0,073	0,031
-366,971	89,809	-0,017	-0,013
-365,956	-180,763	-0,083	0,001
-364,942	-200,000	0,000	0,143
-363,927	266,256	0,087	0,110
-362,912	795,847	-0,017	0,034
-361,898	125,048	0,084	-0,077
-360,883	-142,635	0,029	-0,002
-359,869	-18,005	0,023	-0,011
-358,854	126,431	0,081	-0,074
-357,839	-96,522	-0,041	-0,008
-356,825	69,219	0,067	0,050
-355,810	-200,000	-0,032	0,125
-354,796	38,461	0,026	-0,017
-353,781	151,525	-0,089	0,088
-352,766	800,000	0,037	0,088
-351,752	-29,140	0,007	-0,003
-350,737	-143,492	-0,105	0,007
-349,723	-54,680	0,015	0,005
-348,708	143,791	-0,085	0,082
-347,693	-41,854	-0,005	-0,002
-346,679	-200,000	-0,021	-0,132
-345,664	191,116	-0,119	-0,130
-344,650	217,820	-0,061	-0,071
-343,635	-41,233	0,073	0,027
-342,620	457,456	-0,049	0,079
-341,606	70,497	0,069	0,052
-340,591	85,299	-0,183	-0,145
-339,577	-200,000	-0,059	-0,202
-338,562	-93,223	-0,013	0,003
-337,548	-147,803	0,125	0,007
-336,533	-116,741	-0,026	0,003
-335,518	372,848	0,086	0,127
-334,504	118,525	0,055	0,049
-333,489	77,755	-0,025	-0,019
-332,475	-200,000	0,004	-0,109
-331,460	-200,000	-0,008	-0,080
-330,445	-60,402	0,007	0,002
-329,431	-200,000	0,011	-0,035
-328,416	28,396	0,088	0,054
-327,402	-83,898	0,129	-0,030
-326,387	134,375	-0,114	0,107
-325,372	-28,436	-0,065	-0,027
-324,358	507,918	0,033	-0,056
-323,343	-200,000	-0,016	-0,070
-322,329	472,153	0,030	-0,048
-321,314	-200,000	-0,007	-0,098
-320,299	295,687	0,099	0,132
-319,285	64,238	-0,056	0,041
-318,270	-200,000	0,004	0,012
-317,256	-148,787	0,034	0,002
-316,241	-122,135	-0,112	-0,013
-315,226	28,630	0,150	-0,091
-314,212	-9,277	-0,075	-0,036
-313,197	121,069	0,072	0,065
-312,183	-75,709	-0,080	-0,020
-311,168	104,273	0,021	0,018
-310,153	-100,404	0,108	-0,019
-309,139	-200,000	-0,017	-0,082
-308,124	800,000	0,022	0,053
-307,110	335,825	0,062	-0,088
-306,095	10,681	0,103	0,057
-305,080	-24,863	-0,120	-0,051
-304,066	-200,000	0,015	0,079
-303,051	-200,000	-0,019	-0,110
-302,037	247,819	-0,061	-0,075
-301,022	409,076	-0,023	-0,036
-300,008	-169,873	0,220	-0,006
-298,993	-200,000	0,015	-0,113
-297,978	-200,000	0,002	0,093
-296,964	-94,935	-0,123	-0,024
-295,949	-146,264	-0,059	0,004
-294,935	514,228	0,069	-0,117
-293,920	-200,000	0,010	-0,087
-292,905	-71,855	0,021	-0,005
-291,891	-200,000	0,012	-0,090
-290,876	645,800	-0,020	0,037
-289,862	152,509	0,087	-0,086
-288,847	49,102	-0,075	0,051
-287,832	-144,090	-0,086	0,006
-286,818	98,380	0,128	0,106
-285,803	-200,000	0,022	0,081
-284,789	-9,771	-0,118	0,057
-283,774	-89,420	0,177	-0,037
-282,759	325,209	0,046	0,064
-281,745	185,984	0,013	0,014
-280,730	6,880	-0,105	0,056
-279,716	-200,000	-0,001	-0,058
-278,701	-37,113	0,018	-0,007
-277,686	-200,000	-0,001	-0,012
-276,672	800,000	-0,037	-0,076
-275,657	-114,951	0,142	0,019
-274,643	-200,000	-0,006	0,042
-273,628	-200,000	0,034	-0,141
-272,613	8,714	0,007	-0,004
-271,599	-91,222	0,055	0,011
-270,584	64,492	-0,147	0,107
-269,570	-200,000	-0,028	0,100
-268,555	800,000	-0,043	-0,097
-267,540	-186,167	-0,114	-0,001
-266,526	-75,141	-0,031	-0,008
-265,511	-30,354	-0,161	-0,066
-264,497	401,219	0,035	-0,053
-263,482	395,706	0,076	0,115
-262,467	800,000	0,043	0,090
-261,453	57,858	0,044	-0,031
-260,438	-133,939	0,059	-0,005
-259,424	189,723	-0,108	-0,117
-258,409	102,933	-0,117	-0,099
-257,395	267,847	0,090	0,115
-256,380	-121,199	0,099	-0,012
-255,365	13,372	0,073	0,041
-254,351	212,372	-0,068	0,077
-253,336	2,897	0,050	-0,026
-252,322	800,000	-0,030	0,076
-251,307	-200,000	0,012	-0,089
-250,292	17,026	0,049	-0,028
-249,278	-91,314	-0,085	-0,017
-248,263	7,524	0,092	0,049
-247,249	800,000	0,014	-0,028
-246,234	275,461	0,102	-0,131
-245,219	-24,570	-0,141	-0,060
-244,205	-66,279	0,047	-0,013
-243,190	800,000	0,022	0,045
-242,176	-106,284	0,051	-0,008
-241,161	628,511	-0,041	-0,075
-240,146	800,000	0,023	0,056
-239,132	59,881	-0,070	-0,050
-238,117	-200,000	-0,022	-0,097
-237,103	186,442	0,020	-0,022
-236,088	48,799	0,030	0,020
-235,073	-9,347	0,022	-0,011
-234,059	-175,479	-0,061	-0,001
-233,044	-165,143	0,004	0,000
-232,030	-87,957	-0,209	0,045
-231,015	89,644	0,136	-0,109
-230,000	-200,000	0,003	-0,021
-228,986	800,000	0,039	0,097
-227,971	65,049	0,053	0,038
-226,957	272,346	0,079	0,101
-225,942	588,997	-0,062	0,111
-224,927	-200,000	0,012	-0,087
-223,913	-200,000	0,008	-0,046
-222,898	19,542	-0,201	-0,116
-221,884	115,833	0,073	-0,064
-220,869	800,000	0,012	-0,034
-219,855	47,434	-0,007	-0,005
-218,840	800,000	0,059	0,150
-217,825	18,384	0,150	-0,086
-216,811	-200,000	0,044	-0,155
-215,796	-154,792	0,009	-0,000
-214,782	420,116	-0,028	-0,044
-213,767	150,725	0,088	0,086
-212,752	800,000	0,043	0,123
-211,738	-200,000	0,001	0,043
-210,723	-40,141	0,069	0,026
-209,709	-200,000	0,016	-0,109
-208,694	263,264	-0,073	0,091
-207,679	-200,000	0,003	0,100
-206,665	54,951	-0,086	0,059
-205,650	120,722	0,107	-0,096
-204,636	800,000	-0,042	0,099
-203,621	-126,847	0,199	0,021
-202,606	242,656	0,036	0,043
-201,592	-200,000	0,005	-0,256
-200,577	-200,000	0,007	-0,146
-199,563	-165,165	-0,069	-0,002
-198,548	800,000	-0,088	0,273
-197,533	-1,442	-0,126	0,064
-196,519	-200,000	-0,004	-0,121
-195,504	610,950	-0,033	-0,059
-194,490	263,626	0,083	-0,104
-193,475	800,000	0,028	-0,084
-192,460	800,000	0,014	-0,044
-191,446	-200,000	0,001	0,043
-190,431	-200,000	0,000	-0,061
-189,417	-200,000	0,003	0,031
-188,402	-200,000	0,033	-0,173
-187,387	564,374	0,030	-0,052
-186,373	47,596	-0,024	-0,016
-185,358	-200,000	0,002	-0,050
-184,344	87,981	0,162	-0,129
-183,329	-110,050	0,112	-0,017
-182,315	-55,952	-0,075	0,024
-181,300	-200,000	-0,010	0,041
-180,285	745,923	0,022	-0,043
-179,271	800,000	-0,046	-0,111
-178,256	-200,000	0,021	0,093
-177,242	211,702	0,051	0,058
-176,227	-46,065	-0,122	0,043
-175,212	-99,759	0,136	0,024
-174,198	-57,538	-0,131	0,041
-173,183	624,161	0,003	-0,006
-172,169	224,310	-0,028	-0,033
-171,154	800,000	0,044	-0,139
-170,139	1,733	0,139	-0,072
-169,125	800,000	-0,027	-0,080
-168,110	-200,000	0,015	0,109
-167,096	-163,354	0,129	0,004
-166,081	-17,596	0,044	-0,020
-165,066	35,710	-0,015	0,009
-164,052	265,797	0,092	0,115
-163,037	-25,385	0,074	-0,032
-162,023	-200,000	-0,014	0,054
-161,008	194,713	0,051	0,056
-159,993	-200,000	0,009	0,043
-158,979	-200,000	-0,011	0,097
-157,964	374,806	-0,098	0,144
-156,950	47,240	0,039	-0,026
-155,935	-7,653	-0,085	0,041
-154,920	800,000	0,041	0,120
-153,906	-200,000	0,003	0,035
-152,891	-200,000	-0,016	0,087
-151,877	-113,090	-0,157	0,022
-150,862	525,055	-0,023	0,039
-149,847	-168,795	0,089	-0,002
-148,833	11,321	0,045	-0,024
-147,818	533,552	0,079	0,135
-146,804	19,407	-0,073	-0,042
-145,789	28,349	0,094	-0,057
-144,775	67,273	0,028	-0,021
-143,760	468,676	-0,071	-0,115
-142,745	-200,000	0,000	-0,083
-141,731	27,323	-0,137	-0,083
-140,716	526,360	-0,087	0,147
-139,702	105,671	0,065	0,055
-138,687	-133,642	0,032	0,003
-137,672	337,540	0,041	-0,057
-136,658	102,264	-0,120	-0,101
-135,643	311,667	-0,106	-0,143
-134,629	-90,726	0,071	-0,015
-133,614	-96,047	0,034	-0,006
-132,599	5,426	0,096	0,051
-131,585	-30,884	0,093	0,038
-130,570	66,293	-0,134	0,098
-129,556	-200,000	-0,000	-0,138
-128,541	0,265	0,092	-0,047
-127,526	384,628	-0,064	-0,095
-126,512	800,000	-0,066	0,152
-125,497	-153,840	0,108	0,005
-124,483	-51,322	-0,041	0,014
-123,468	-200,000	0,017	0,057
-122,453	-71,880	-0,086	-0,023
-121,439	-200,000	-0,028	0,101
-120,424	-200,000	0,002	-0,150
-119,410	-188,777	0,103	0,001
