DTS Sentinel unit serial number:	SN410029Multiplexer serial number:	ORYXHardware model number:	OX2-SRSoftware version number:	ORYX F/W v4,00 Oryx Data Collector v3.7.2.0data status	okinstallation	B6 Nyhavnadifferential loss correction	single-endedforward channel	channel 2reverse channel	N/Adate	2023/12/08time	10:05:08forward acquisition time	300,00reverse acquisition time	0,00gamma	499,1914k internal	0,3165k external	0,3165temperature offset calibration	1,0000default loss term (dB/km)	0,3820temperature slope calibration	1,0000multiplexer offset coefficient	1,0000multiplexer slope coefficient	1,0000fibre end	0,00T internal ref (°C)	14,05T ext. ref 1 (°C)	-1,53T ext. ref 2 (°C)	-1,47length (m)	temperature (°C)	Stokes	anti-Stokes-744,400	-85,675	0,106	0,024
-743,385	-0,503	-0,147	0,077
-742,371	-200,000	0,020	0,099
-741,356	-146,157	-0,456	-0,029
-740,342	19,258	0,077	0,045
-739,327	-130,573	-0,328	-0,032
-738,312	-145,375	0,034	-0,002
-737,298	-127,272	-0,265	-0,028
-736,283	-33,002	0,124	-0,050
-735,269	-93,150	-0,238	0,048
-734,254	443,571	0,062	-0,100
-733,239	-62,596	-0,646	-0,196
-732,225	152,732	0,105	0,106
-731,210	-200,000	0,010	0,061
-730,196	-89,677	-0,014	-0,003
-729,181	223,674	-0,061	-0,073
-728,167	-105,464	0,023	-0,004
-727,152	378,952	-0,053	-0,080
-726,137	-200,000	-0,001	0,039
-725,123	99,841	-0,145	-0,123
-724,108	7,263	-0,165	-0,090
-723,094	-200,000	0,001	-0,153
-722,079	-200,000	0,028	-0,132
-721,064	81,347	-0,071	-0,056
-720,050	178,509	-0,179	-0,192
-719,035	-101,513	0,032	-0,006
-718,021	-53,202	-0,058	0,019
-717,006	52,842	-0,041	-0,029
-715,991	-47,392	0,058	-0,021
-714,977	-200,000	-0,018	-0,114
-713,962	-84,901	-0,160	0,037
-712,948	-200,000	-0,010	-0,132
-711,933	174,040	0,023	0,025
-710,918	800,000	-0,033	-0,102
-709,904	-36,743	-0,110	-0,043
-708,889	178,721	-0,098	0,105
-707,875	179,618	-0,033	-0,036
-706,860	-200,000	0,015	0,080
-705,845	118,351	0,030	-0,028
-704,831	80,329	-0,079	0,062
-703,816	-70,564	-0,106	0,029
-702,802	800,000	-0,005	0,012
-701,787	-200,000	0,000	-0,004
-700,772	-200,000	0,027	-0,112
-699,758	105,023	0,009	0,007
-698,743	-20,532	0,095	0,043
-697,729	80,508	0,013	0,010
-696,714	-200,000	0,011	0,122
-695,699	210,560	-0,046	-0,054
-694,685	-118,675	-0,085	-0,011
-693,670	-58,733	-0,031	0,010
-692,656	-200,000	-0,002	0,121
-691,641	7,912	0,061	0,033
-690,627	-200,000	-0,003	-0,062
-689,612	55,236	-0,065	0,046
-688,597	800,000	0,028	0,058
-687,583	63,260	-0,007	-0,005
-686,568	-200,000	-0,053	-0,178
-685,554	-200,000	0,033	0,118
-684,539	637,376	0,092	0,173
-683,524	-200,000	0,015	0,103
-682,510	-116,282	-0,070	0,009
-681,495	-200,000	-0,015	0,125
-680,481	-99,098	0,072	-0,013
-679,466	800,000	-0,033	-0,072
-678,451	800,000	0,026	-0,072
-677,437	-200,000	-0,002	-0,076
-676,422	-98,395	0,042	0,008
-675,408	386,372	-0,060	0,091
-674,393	295,201	-0,057	-0,077
-673,378	67,960	-0,167	-0,125
-672,364	417,239	-0,104	-0,164
-671,349	-200,000	0,033	0,119
-670,335	800,000	-0,013	-0,041
-669,320	-95,917	0,154	0,030
-668,305	-144,445	-0,091	0,006
-667,291	-40,386	0,065	-0,025
-666,276	-200,000	-0,005	0,023
-665,262	17,436	-0,056	0,032
-664,247	-9,575	0,041	0,020
-663,232	180,235	-0,078	-0,084
-662,218	800,000	0,055	0,159
-661,203	-175,592	-0,064	0,001
-660,189	800,000	0,029	0,083
-659,174	-200,000	-0,036	0,160
-658,159	75,993	-0,113	-0,088
-657,145	800,000	-0,047	0,126
-656,130	-35,436	0,102	0,040
-655,116	-52,296	0,113	-0,038
-654,101	-200,000	-0,019	0,154
-653,086	777,006	-0,039	0,079
-652,072	-48,217	-0,105	0,037
-651,057	142,067	-0,053	-0,052
-650,043	157,095	-0,079	0,081
-649,028	0,537	-0,135	0,071
-648,014	198,883	0,060	0,067
-646,999	113,195	0,034	-0,031
-645,984	-74,801	-0,157	0,041
-644,970	800,000	-0,016	-0,048
-643,955	741,603	0,047	-0,094
-642,941	187,628	-0,159	-0,174
-641,926	-200,000	0,029	0,103
-640,911	-2,397	-0,131	0,067
-639,897	-200,000	0,011	0,143
-638,882	160,617	-0,016	-0,017
-637,868	601,509	-0,049	-0,089
-636,853	396,822	-0,052	0,079
-635,838	-31,307	-0,216	-0,089
-634,824	161,055	-0,068	0,070
-633,809	-139,356	0,096	0,007
-632,795	202,038	0,086	0,097
-631,780	684,592	0,075	-0,145
-630,765	-200,000	0,003	0,017
-629,751	-200,000	-0,014	-0,071
-628,736	404,186	-0,088	-0,136
-627,722	174,820	-0,114	-0,121
-626,707	349,331	0,049	0,071
-625,692	110,072	-0,036	0,032
-624,678	464,668	-0,042	0,069
-623,663	-123,739	0,174	0,020
-622,649	125,320	-0,073	-0,067
-621,634	73,016	-0,132	-0,101
-620,619	397,707	-0,111	0,170
-619,605	-52,633	0,104	0,035
-618,590	482,009	0,027	-0,045
-617,576	-200,000	0,008	0,137
-616,561	-69,365	-0,081	0,023
-615,546	-200,000	-0,007	0,034
-614,532	-200,000	0,002	-0,085
-613,517	-200,000	-0,006	-0,072
-612,503	102,836	0,034	-0,029
-611,488	-14,467	0,105	0,049
-610,474	290,823	0,080	0,107
-609,459	738,028	0,106	0,210
-608,444	414,507	-0,048	0,076
-607,430	800,000	-0,018	0,055
-606,415	-56,070	-0,135	0,044
-605,401	29,185	-0,141	0,087
-604,386	35,718	0,099	0,064
-603,371	-83,890	0,140	-0,032
-602,357	-73,822	-0,085	-0,023
-601,342	97,114	0,051	-0,042
-600,328	381,877	0,006	0,009
-599,313	800,000	-0,039	-0,088
-598,298	800,000	0,008	0,025
-597,284	-29,722	0,053	-0,022
-596,269	-69,274	-0,086	-0,024
-595,255	800,000	0,041	-0,101
-594,240	-5,055	0,193	-0,097
-593,225	-200,000	-0,023	-0,074
-592,211	764,626	-0,067	-0,133
-591,196	162,253	0,094	0,097
-590,182	30,354	0,151	-0,094
-589,167	200,901	0,079	0,089
-588,152	-110,461	-0,030	0,004
-587,138	7,074	-0,022	-0,012
-586,123	-200,000	0,005	-0,033
-585,109	-24,129	-0,080	-0,035
-584,094	-200,000	-0,043	0,145
-583,079	800,000	0,046	-0,100
-582,065	155,240	0,057	0,057
-581,050	-200,000	0,017	0,123
-580,036	-200,000	0,019	0,072
-579,021	654,218	0,043	0,081
-578,006	646,803	0,026	0,048
-576,992	800,000	0,018	-0,049
-575,977	-133,077	-0,052	0,005
-574,963	800,000	0,040	0,082
-573,948	-114,871	0,127	0,017
-572,934	-200,000	-0,014	0,130
-571,919	-58,194	0,052	0,017
-570,904	89,015	0,092	-0,074
-569,890	800,000	-0,054	-0,124
-568,875	68,647	-0,066	0,049
-567,861	-17,754	0,058	0,026
-566,846	157,898	-0,086	0,087
-565,831	800,000	-0,062	-0,186
-564,817	-200,000	0,015	-0,114
-563,802	-200,000	-0,003	0,100
-562,788	-54,088	0,097	0,032
-561,773	126,526	-0,045	-0,042
-560,758	-74,946	-0,075	-0,020
-559,744	800,000	0,038	-0,088
-558,729	86,058	-0,086	-0,069
-557,715	150,204	-0,021	0,020
-556,700	-51,680	-0,077	-0,026
-555,685	-136,143	-0,178	0,015
-554,671	127,378	0,087	-0,080
-553,656	-157,744	0,017	-0,001
-552,642	434,326	0,067	0,107
-551,627	59,210	0,050	-0,036
-550,612	-200,000	-0,051	-0,217
-549,598	316,677	0,091	-0,126
-548,583	-122,108	0,109	0,013
-547,569	-200,000	0,001	-0,140
-546,554	104,814	0,038	-0,033
-545,539	800,000	-0,041	-0,129
-544,525	800,000	0,011	-0,032
-543,510	288,775	0,077	-0,102
-542,496	-199,069	-0,130	0,000
-541,481	-115,559	-0,011	0,001
-540,466	-200,000	-0,013	-0,052
-539,452	-200,000	-0,001	-0,072
-538,437	-90,201	0,105	0,022
-537,423	-200,000	-0,000	-0,019
-536,408	-200,000	0,021	-0,092
-535,393	-200,000	-0,011	-0,116
-534,379	279,178	0,074	-0,097
-533,364	11,012	0,092	-0,051
-532,350	79,380	-0,045	-0,035
-531,335	21,725	-0,065	0,038
-530,321	-45,972	-0,056	-0,020
-529,306	108,620	0,070	-0,061
-528,291	-200,000	0,014	-0,068
-527,277	150,218	-0,051	-0,050
-526,262	-18,759	0,165	-0,075
-525,248	294,638	0,063	0,084
-524,233	-56,345	0,105	-0,034
-523,218	-53,155	-0,077	0,026
-522,204	-61,929	-0,110	0,033
-521,189	-37,386	0,073	0,028
-520,175	-143,376	-0,062	-0,004
-519,160	579,289	-0,044	0,079
-518,145	-35,262	0,084	0,033
-517,131	800,000	0,044	0,106
-516,116	-72,362	0,046	-0,012
-515,102	800,000	-0,038	-0,118
-514,087	293,967	-0,065	-0,086
-513,072	118,183	-0,107	-0,096
-512,058	31,477	-0,146	0,091
-511,043	-15,532	-0,022	0,010
-510,029	-32,807	0,111	-0,045
-509,014	13,659	-0,016	-0,009
-507,999	-51,928	0,032	-0,011
-506,985	800,000	-0,071	-0,146
-505,970	-200,000	-0,001	-0,158
-504,956	4,297	-0,158	0,084
-503,941	800,000	0,028	0,078
-502,926	55,123	0,048	-0,034
-501,912	-200,000	0,001	0,007
-500,897	351,637	0,090	0,130
-499,883	-200,000	-0,029	0,136
-498,868	57,632	0,063	-0,045
-497,853	-177,094	-0,052	0,001
-496,839	-137,754	-0,053	-0,004
-495,824	332,332	0,085	0,120
-494,810	222,794	-0,011	-0,013
-493,795	-200,000	-0,007	0,118
-492,781	157,360	0,079	0,080
-491,766	69,755	0,157	-0,118
-490,751	-79,560	-0,040	-0,010
-489,737	364,649	0,077	-0,113
-488,722	-20,470	0,107	0,048
-487,708	-35,597	0,147	0,058
-486,693	800,000	0,044	-0,116
-485,678	14,427	0,079	-0,045
-484,664	-17,117	0,078	-0,035
-483,649	233,985	-0,037	-0,044
-482,635	272,329	0,058	0,075
-481,620	-110,389	0,174	0,026
-480,605	-200,000	0,013	0,126
-479,591	-71,999	0,073	0,020
-478,576	-200,000	-0,024	-0,155
-477,562	-82,483	-0,078	0,018
-476,547	-200,000	-0,016	0,167
-475,532	4,043	0,071	-0,038
-474,518	732,762	0,056	0,111
-473,503	-58,858	-0,059	0,018
-472,489	216,786	-0,052	0,060
-471,474	77,605	0,060	-0,046
-470,459	-200,000	0,022	-0,078
-469,445	482,736	0,084	0,139
-468,430	2,103	-0,070	-0,037
-467,416	800,000	-0,104	0,210
-466,401	800,000	0,070	0,192
-465,386	-59,702	-0,036	0,011
-464,372	-56,489	-0,027	-0,009
-463,357	56,744	-0,073	0,052
-462,343	159,626	-0,075	-0,076
-461,328	59,877	-0,068	-0,049
-460,313	-72,546	0,114	0,030
-459,299	33,822	-0,043	0,027
-458,284	800,000	-0,007	-0,015
-457,270	68,314	0,110	-0,082
-456,255	-35,015	-0,113	-0,045
-455,241	568,689	-0,016	0,029
-454,226	-200,000	0,019	0,091
-453,211	800,000	-0,013	0,029
-452,197	588,794	0,047	0,085
-451,182	-45,517	-0,098	0,035
-450,168	-200,000	-0,002	0,011
-449,153	5,350	-0,046	-0,025
-448,138	-134,827	-0,091	-0,008
-447,124	25,645	0,044	-0,027
-446,109	800,000	-0,038	-0,106
-445,095	38,287	0,031	-0,020
-444,080	-96,101	0,084	-0,016
-443,065	-15,553	-0,138	-0,064
-442,051	515,216	-0,017	-0,029
-441,036	800,000	-0,060	-0,153
-440,022	-200,000	-0,043	-0,146
-439,007	369,831	-0,025	0,038
-437,992	-167,088	-0,121	-0,004
-436,978	6,920	-0,091	0,049
-435,963	243,920	0,106	0,130
-434,949	272,332	-0,052	-0,066
-433,934	97,715	-0,135	-0,112
-432,919	-77,800	-0,093	0,023
-431,905	216,242	0,097	0,112
-430,890	88,281	0,052	0,042
-429,876	294,081	0,082	0,109
-428,861	586,202	-0,069	0,124
-427,846	35,230	-0,035	0,022
-426,832	800,000	0,073	-0,204
-425,817	455,601	-0,103	-0,166
-424,803	301,364	-0,029	-0,040
-423,788	10,303	0,098	-0,054
-422,773	-127,178	0,046	0,005
-421,759	210,884	-0,019	-0,022
-420,744	-150,135	0,038	-0,002
-419,730	800,000	-0,079	-0,173
-418,715	96,133	-0,058	-0,048
-417,701	-200,000	-0,016	-0,080
-416,686	-200,000	0,037	-0,156
-415,671	146,420	0,047	0,046
-414,657	523,319	0,044	-0,076
-413,642	-108,086	0,049	0,008
-412,628	42,791	-0,127	-0,084
-411,613	223,472	-0,062	-0,073
-410,598	-95,208	0,053	-0,010
-409,584	25,457	-0,175	0,105
-408,569	144,855	-0,044	-0,042
-407,555	166,268	-0,050	-0,051
-406,540	-200,000	-0,001	-0,075
-405,525	800,000	-0,023	-0,070
-404,511	0,568	-0,050	0,026
-403,496	230,599	0,062	-0,074
-402,482	28,556	0,105	-0,065
-401,467	-65,454	0,107	0,031
-400,452	602,723	0,099	0,179
-399,438	499,598	0,042	0,071
-398,423	66,239	0,052	0,038
-397,409	-200,000	0,007	0,089
-396,394	-164,803	0,127	0,004
-395,379	-200,000	0,026	-0,088
-394,365	-200,000	-0,003	0,060
-393,350	-200,000	0,013	-0,051
-392,336	-10,045	-0,159	-0,076
-391,321	800,000	0,032	0,076
-390,306	-200,000	-0,025	-0,135
-389,292	-95,897	0,031	0,006
-388,277	-99,912	-0,055	-0,010
-387,263	-72,685	-0,227	0,060
-386,248	38,335	-0,068	-0,044
-385,233	64,440	-0,041	0,030
-384,219	167,784	-0,098	-0,101
-383,204	124,566	0,065	-0,059
-382,190	-200,000	0,016	0,053
-381,175	25,827	-0,093	0,056
-380,160	68,751	0,160	0,119
-379,146	-127,208	0,150	0,016
-378,131	26,578	0,083	-0,050
-377,117	60,745	-0,133	0,095
-376,102	259,867	0,041	0,051
-375,088	-200,000	0,033	0,141
-374,073	385,255	-0,043	0,065
-373,058	-200,000	0,012	0,107
-372,044	-200,000	0,025	0,100
-371,029	-102,659	0,068	-0,012
-370,015	417,730	-0,046	-0,072
-369,000	430,736	0,081	-0,128
-367,985	714,613	0,041	0,079
-366,971	-200,000	-0,013	-0,081
-365,956	-94,856	-0,081	-0,016
-364,942	-200,000	-0,002	0,142
-363,927	2,601	0,115	0,060
-362,912	-200,000	0,004	0,067
-361,898	757,434	-0,056	-0,110
-360,883	622,926	-0,077	-0,141
-359,869	800,000	-0,063	-0,192
-358,854	-134,622	0,116	-0,010
-357,839	-56,927	-0,018	-0,006
-356,825	328,845	0,107	0,150
-355,810	740,241	0,037	0,072
-354,796	-125,597	-0,086	0,009
-353,781	75,855	-0,124	-0,095
-352,766	800,000	-0,031	0,064
-351,752	-200,000	0,002	0,056
-350,737	-200,000	0,003	0,148
-349,723	-84,272	0,055	0,012
-348,708	68,921	0,049	0,037
-347,693	233,784	0,023	-0,027
-346,679	539,128	-0,100	-0,173
-345,664	-200,000	-0,001	0,073
-344,650	370,590	0,061	-0,090
-343,635	-200,000	-0,011	-0,089
-342,620	-94,768	0,120	-0,023
-341,606	16,517	0,134	0,076
-340,591	-200,000	-0,023	-0,162
-339,577	-200,000	0,030	0,120
-338,562	-55,214	-0,064	-0,021
-337,548	-200,000	0,013	0,092
-336,533	-158,603	0,022	0,001
-335,518	-107,058	-0,076	0,012
-334,504	726,602	-0,057	0,111
-333,489	152,748	0,036	0,036
-332,475	-200,000	-0,013	0,058
-331,460	-7,062	0,048	-0,023
-330,445	800,000	0,045	0,099
-329,431	-60,030	0,118	-0,036
-328,416	264,940	-0,047	-0,060
-327,402	-200,000	-0,004	0,042
-326,387	-200,000	-0,016	0,123
-325,372	-59,406	0,109	0,034
-324,358	-200,000	0,037	-0,118
-323,343	-200,000	0,025	-0,097
-322,329	800,000	0,044	0,093
-321,314	-20,714	0,165	0,073
-320,299	-156,094	-0,105	-0,005
-319,285	445,208	0,042	0,067
-318,270	57,574	-0,152	-0,107
-317,256	800,000	0,011	-0,023
-316,241	4,023	-0,230	-0,121
-315,226	-119,772	0,135	0,017
-314,212	145,560	0,020	0,019
-313,197	-76,330	0,063	-0,016
-312,183	-145,377	0,075	0,005
-311,168	800,000	-0,045	0,106
-310,153	363,327	0,068	0,099
-309,139	-121,303	-0,143	-0,017
-308,124	-36,321	0,148	-0,057
-307,110	680,687	-0,013	0,024
-306,095	-200,000	-0,006	0,057
-305,080	62,311	-0,069	0,050
-304,066	-200,000	0,007	0,118
-303,051	-60,661	-0,043	0,013
-302,037	0,640	0,049	-0,025
-301,022	-91,947	-0,076	-0,015
-300,008	518,235	0,036	0,061
-298,993	210,648	0,059	0,068
-297,978	-1,691	0,100	0,051
-296,964	642,217	-0,019	0,035
-295,949	40,078	-0,078	-0,050
-294,935	356,762	0,055	-0,079
-293,920	37,438	0,153	-0,098
-292,905	800,000	0,020	-0,044
-291,891	-200,000	-0,001	-0,172
-290,876	-155,906	-0,109	-0,005
-289,862	248,366	0,051	0,062
-288,847	-200,000	-0,027	-0,259
-287,832	800,000	0,069	0,147
-286,818	296,439	-0,043	-0,057
-285,803	10,476	0,150	0,082
-284,789	800,000	0,025	-0,053
-283,774	-200,000	0,033	-0,117
-282,759	-50,897	0,101	0,034
-281,745	800,000	0,039	-0,105
-280,730	71,273	-0,034	-0,026
-279,716	142,283	-0,075	-0,072
-278,701	-200,000	-0,136	0,000
-277,686	-118,266	0,135	-0,017
-276,672	-200,000	0,002	0,109
-275,657	-155,589	-0,058	-0,003
-274,643	-57,493	-0,116	-0,037
-273,628	-79,162	-0,111	-0,027
-272,613	-200,000	0,040	0,147
-271,599	-200,000	0,016	0,099
-270,584	-200,000	-0,016	0,158
-269,570	-200,000	0,006	0,109
-268,555	-76,946	-0,037	-0,009
-267,540	-200,000	0,019	-0,089
-266,526	800,000	0,059	-0,166
-265,511	-200,000	0,029	-0,132
-264,497	-200,000	-0,004	0,052
-263,482	28,702	0,069	-0,042
-262,467	-154,057	-0,066	0,003
-261,453	-111,113	0,039	0,006
-260,438	392,402	0,062	0,093
-259,424	271,183	-0,047	0,060
-258,409	45,610	-0,109	-0,073
-257,395	-87,831	-0,061	-0,013
-256,380	334,458	0,022	0,030
-255,365	493,852	0,071	0,118
-254,351	102,212	-0,106	-0,089
-253,336	280,219	0,063	0,081
-252,322	-52,968	-0,077	-0,025
-251,307	-77,414	-0,099	-0,025
-250,292	-200,000	-0,013	0,094
-249,278	-200,000	0,001	-0,091
-248,263	800,000	0,013	0,035
-247,249	48,342	-0,046	-0,031
-246,234	271,073	0,073	-0,092
-245,219	-200,000	0,003	-0,023
-244,205	-200,000	-0,009	-0,055
-243,190	102,698	0,018	-0,015
-242,176	-28,268	-0,063	0,026
-241,161	-24,570	-0,075	-0,032
-240,146	36,997	0,053	0,034
-239,132	-88,730	-0,045	0,010
-238,117	-53,480	0,141	0,046
-237,103	152,235	-0,039	-0,038
-236,088	-22,381	0,120	-0,052
-235,073	123,637	0,105	0,095
-234,059	-200,000	0,030	0,139
-233,044	462,760	-0,030	-0,048
-232,030	336,235	0,009	-0,013
-231,015	-87,251	0,092	-0,020
-230,000	124,596	0,055	0,050
-228,986	-118,130	0,096	-0,012
-227,971	-200,000	-0,003	0,054
-226,957	-200,000	0,008	0,137
-225,942	-42,521	0,188	0,069
-224,927	-200,000	0,010	0,037
-223,913	99,839	-0,087	-0,073
-222,898	-200,000	-0,004	-0,024
-221,884	-83,577	-0,165	-0,038
-220,869	485,926	0,068	0,112
-219,855	200,368	-0,116	-0,129
-218,840	141,149	-0,055	-0,052
-217,825	-117,706	-0,082	0,011
-216,811	51,208	0,090	0,061
-215,796	99,646	-0,090	-0,075
-214,782	-151,767	-0,063	-0,003
-213,767	32,967	0,016	-0,010
-212,752	-200,000	0,002	0,015
-211,738	654,141	0,052	-0,096
-210,723	148,127	-0,021	-0,021
-209,709	-139,794	0,104	0,008
-208,694	-200,000	0,013	-0,067
-207,679	74,824	-0,165	0,125
-206,665	0,107	-0,072	0,037
-205,650	691,811	0,043	0,081
-204,636	-51,502	0,103	0,034
-203,621	20,266	-0,038	0,022
-202,606	365,279	0,034	0,049
-201,592	-45,522	-0,046	0,016
-200,577	-159,859	-0,182	-0,007
-199,563	38,982	0,039	0,025
-198,548	-200,000	0,005	0,080
-197,533	613,864	0,059	0,107
-196,519	-200,000	0,016	0,061
-195,504	115,226	-0,067	0,059
-194,490	140,168	-0,083	-0,079
-193,475	800,000	0,032	0,092
-192,460	800,000	0,030	0,072
-191,446	-200,000	-0,012	-0,111
-190,431	-92,987	-0,063	0,013
-189,417	59,667	0,057	0,041
-188,402	-200,000	0,021	0,088
-187,387	-115,383	-0,119	-0,016
-186,373	229,093	-0,027	0,032
-185,358	-200,000	-0,023	0,113
-184,344	-2,334	0,033	0,017
-183,329	800,000	-0,071	0,149
-182,315	-133,141	-0,107	0,010
-181,300	-200,000	-0,024	-0,111
-180,285	-200,000	0,030	-0,127
-179,271	400,936	-0,077	-0,117
-178,256	35,638	-0,093	-0,059
-177,242	-67,090	0,073	0,021
-176,227	41,675	-0,102	-0,066
-175,212	14,858	-0,095	0,053
-174,198	-200,000	0,002	0,071
-173,183	-81,860	-0,163	-0,038
-172,169	421,181	0,003	0,005
-171,154	-162,926	0,080	-0,003
-170,139	-152,736	0,136	-0,007
-169,125	71,928	0,035	-0,026
-168,110	645,923	-0,016	0,030
-167,096	-111,625	-0,086	-0,012
-166,081	-200,000	-0,006	-0,067
-165,066	180,756	0,046	-0,049
-164,052	-200,000	0,028	0,131
-163,037	-134,139	-0,177	-0,015
-162,023	-40,498	0,090	0,033
-161,008	-200,000	-0,014	0,046
-159,993	48,349	0,098	-0,066
-158,979	2,456	-0,123	0,064
-157,964	180,097	0,093	-0,098
-156,950	-57,778	0,082	0,026
-155,935	300,176	-0,022	0,030
-154,920	800,000	-0,017	0,038
-153,906	75,468	0,075	0,057
-152,891	67,445	-0,134	0,099
-151,877	-200,000	-0,010	0,111
-150,862	-59,145	-0,128	0,039
-149,847	-200,000	0,007	-0,169
-148,833	287,033	-0,068	-0,089
-147,818	414,766	-0,100	0,154
-146,804	-78,684	0,112	0,027
-145,789	-200,000	-0,020	0,067
-144,775	-49,182	-0,082	0,028
-143,760	-200,000	0,010	-0,061
-142,745	-200,000	-0,005	-0,229
-141,731	-50,980	-0,046	-0,016
-140,716	-23,960	0,091	0,039
-139,702	-200,000	0,029	0,119
-138,687	111,025	-0,017	0,015
-137,672	-110,793	-0,112	0,016
-136,658	800,000	-0,073	-0,176
-135,643	-200,000	-0,012	-0,099
-134,629	-125,339	0,087	0,009
-133,614	61,609	-0,090	0,064
-132,599	-32,945	0,098	0,039
-131,585	28,328	-0,027	-0,016
-130,570	239,835	-0,074	-0,089
-129,556	-55,298	-0,098	-0,031
-128,541	35,234	0,009	0,005
-127,526	268,050	0,021	-0,026
-126,512	623,955	0,020	0,037
-125,497	-200,000	0,053	0,238
-124,483	-200,000	-0,050	0,164
-123,468	258,712	-0,100	0,124
-122,453	-60,854	-0,100	0,030
-121,439	-200,000	0,000	-0,158
-120,424	113,208	0,019	0,016
-119,410	-200,000	0,017	0,145
-118,395	21,596	0,044	-0,025
