DTS Sentinel unit serial number:	SN410029Multiplexer serial number:	ORYXHardware model number:	OX2-SRSoftware version number:	ORYX F/W v4,00 Oryx Data Collector v3.7.2.0data status	okinstallation	B6 Nyhavnadifferential loss correction	single-endedforward channel	channel 2reverse channel	N/Adate	2023/12/10time	05:30:08forward acquisition time	300,00reverse acquisition time	0,00gamma	499,1914k internal	0,3124k external	0,3124temperature offset calibration	1,0000default loss term (dB/km)	0,3820temperature slope calibration	1,0000multiplexer offset coefficient	1,0000multiplexer slope coefficient	1,0000fibre end	0,00T internal ref (°C)	22,43T ext. ref 1 (°C)	6,45T ext. ref 2 (°C)	6,43length (m)	temperature (°C)	Stokes	anti-Stokes-744,400	56,172	-0,101	-0,073
-743,385	-198,402	-0,297	-0,001
-742,371	-60,009	0,138	0,044
-741,356	-23,355	-0,298	0,133
-740,342	-200,000	0,011	0,042
-739,327	-120,687	-0,178	0,022
-738,312	-72,129	0,058	-0,016
-737,298	104,622	-0,160	0,141
-736,283	800,000	0,023	-0,073
-735,269	-28,458	-0,255	0,109
-734,254	-10,376	0,096	-0,047
-733,239	-75,976	-0,430	-0,113
-732,225	70,007	0,065	0,050
-731,210	91,628	-0,002	0,002
-730,196	29,210	0,151	0,095
-729,181	-95,144	-0,104	0,021
-728,167	108,665	0,029	0,026
-727,152	800,000	0,042	-0,103
-726,137	-177,096	-0,139	0,003
-725,123	800,000	0,035	0,091
-724,108	-102,314	-0,099	-0,017
-723,094	-200,000	-0,026	-0,199
-722,079	440,247	-0,061	-0,099
-721,064	-97,605	-0,053	0,010
-720,050	-39,090	0,061	-0,024
-719,035	800,000	-0,021	-0,067
-718,021	-200,000	-0,006	-0,040
-717,006	243,972	-0,017	-0,021
-715,991	161,805	-0,014	0,015
-714,977	-200,000	0,033	-0,115
-713,962	77,132	-0,064	0,051
-712,948	24,491	-0,019	0,012
-711,933	800,000	-0,026	-0,054
-710,918	-167,254	0,012	-0,000
-709,904	-29,692	-0,159	-0,067
-708,889	131,135	0,101	-0,096
-707,875	-200,000	0,002	0,045
-706,860	27,545	-0,088	-0,055
-705,845	267,573	-0,086	0,112
-704,831	206,379	0,035	0,041
-703,816	-54,602	0,071	0,024
-702,802	16,828	-0,054	-0,032
-701,787	1,903	0,174	-0,093
-700,772	117,525	-0,120	0,110
-699,758	208,635	0,106	-0,123
-698,743	-48,593	0,109	0,039
-697,729	-200,000	0,011	0,089
-696,714	-33,271	0,068	0,028
-695,699	23,873	0,099	0,060
-694,685	421,270	-0,006	-0,010
-693,670	-200,000	0,012	-0,052
-692,656	-200,000	-0,012	0,041
-691,641	304,010	-0,022	0,030
-690,627	106,763	-0,019	-0,017
-689,612	-200,000	-0,079	0,000
-688,597	43,675	-0,049	-0,033
-687,583	1,387	-0,054	-0,029
-686,568	369,014	-0,050	-0,076
-685,554	-200,000	-0,005	0,053
-684,539	-52,360	0,042	0,014
-683,524	-162,562	-0,091	0,003
-682,510	800,000	0,028	0,068
-681,495	-200,000	-0,013	-0,047
-680,481	-200,000	-0,028	-0,106
-679,466	-104,622	-0,056	0,009
-678,451	567,744	0,035	0,063
-677,437	8,527	-0,115	-0,064
-676,422	269,861	-0,096	-0,126
-675,408	-132,990	-0,155	-0,014
-674,393	-113,559	-0,106	-0,015
-673,378	-93,041	-0,099	0,020
-672,364	-11,074	-0,106	-0,052
-671,349	-200,000	0,011	-0,112
-670,335	-152,574	0,039	0,002
-669,320	-200,000	-0,004	-0,058
-668,305	800,000	0,018	-0,048
-667,291	-46,198	-0,010	-0,004
-666,276	-52,947	-0,057	0,019
-665,262	92,035	-0,093	-0,078
-664,247	565,404	0,035	-0,064
-663,232	498,126	0,069	0,118
-662,218	-200,000	-0,036	0,204
-661,203	319,981	-0,034	0,049
-660,189	188,325	0,093	0,103
-659,174	-200,000	-0,012	-0,062
-658,159	309,832	-0,035	-0,048
-657,145	-32,089	-0,050	-0,021
-656,130	-39,735	0,079	-0,031
-655,116	-82,561	0,107	0,026
-654,101	-113,960	0,084	-0,012
-653,086	800,000	-0,025	-0,066
-652,072	255,275	0,063	-0,081
-651,057	800,000	-0,043	-0,108
-650,043	-25,449	-0,122	-0,053
-649,028	32,903	0,050	0,032
-648,014	-200,000	-0,017	0,084
-646,999	34,983	0,140	0,091
-645,984	-200,000	-0,016	0,063
-644,970	7,385	-0,234	-0,129
-643,955	204,673	-0,041	-0,047
-642,941	469,213	-0,029	-0,049
-641,926	-62,942	-0,137	-0,042
-640,911	550,968	0,027	-0,048
-639,897	-200,000	-0,012	0,121
-638,882	800,000	-0,020	-0,049
-637,868	-127,814	-0,190	0,020
-636,853	125,497	-0,052	0,048
-635,838	800,000	0,035	-0,103
-634,824	394,499	-0,033	-0,052
-633,809	800,000	0,059	0,181
-632,795	21,107	0,050	0,030
-631,780	767,576	0,036	-0,073
-630,765	-68,393	0,032	-0,009
-629,751	-116,752	-0,047	0,006
-628,736	79,642	-0,045	-0,036
-627,722	30,713	0,034	-0,021
-626,707	-200,000	-0,007	0,025
-625,692	-54,536	0,042	-0,014
-624,678	-138,972	-0,062	-0,005
-623,663	800,000	0,037	0,093
-622,649	-45,887	0,033	-0,012
-621,634	544,992	0,051	0,091
-620,619	241,966	0,124	0,154
-619,605	-200,000	0,001	0,020
-618,590	-36,584	0,057	0,023
-617,576	-200,000	-0,034	0,163
-616,561	-111,611	-0,180	-0,027
-615,546	-22,159	-0,160	0,072
-614,532	800,000	-0,047	0,101
-613,517	-123,627	-0,170	-0,020
-612,503	800,000	-0,033	-0,082
-611,488	-101,153	-0,014	0,003
-610,474	698,998	-0,012	-0,023
-609,459	411,665	0,049	-0,077
-608,444	-31,950	-0,097	-0,040
-607,430	24,493	-0,016	-0,010
-606,415	-200,000	-0,017	-0,115
-605,401	-200,000	-0,002	-0,054
-604,386	-7,850	0,101	0,051
-603,371	-122,242	0,086	-0,010
-602,357	146,738	-0,103	0,102
-601,342	540,894	0,031	0,056
-600,328	13,847	-0,097	-0,056
-599,313	-71,019	-0,058	0,016
-598,298	800,000	-0,008	0,025
-597,284	-88,966	0,100	0,022
-596,269	-200,000	0,020	0,132
-595,255	-67,641	-0,069	0,020
-594,240	-122,134	-0,086	0,010
-593,225	8,582	-0,112	0,062
-592,211	145,974	-0,016	-0,016
-591,196	-116,286	-0,194	-0,026
-590,182	-200,000	0,001	0,049
-589,167	182,083	0,043	0,047
-588,152	-200,000	0,002	0,007
-587,138	174,806	-0,078	-0,084
-586,123	310,034	-0,072	-0,101
-585,109	-170,392	-0,167	-0,004
-584,094	-200,000	0,024	-0,083
-583,079	2,818	0,104	0,056
-582,065	-48,807	0,021	0,007
-581,050	-200,000	0,006	0,123
-580,036	800,000	-0,024	0,063
-579,021	-163,335	-0,117	0,004
-578,006	36,425	0,077	-0,050
-576,992	-200,000	-0,038	-0,167
-575,977	800,000	-0,055	-0,121
-574,963	-45,442	0,051	-0,019
-573,948	589,184	0,038	0,070
-572,934	-86,404	-0,146	0,033
-571,919	800,000	-0,054	-0,150
-570,904	318,648	-0,046	-0,064
-569,890	-200,000	-0,002	-0,024
-568,875	-172,268	-0,123	-0,003
-567,861	-102,425	0,155	0,027
-566,846	537,577	0,040	0,071
-565,831	-150,248	0,072	-0,004
-564,817	-83,454	0,031	-0,007
-563,802	226,389	-0,077	-0,092
-562,788	-43,138	0,114	-0,043
-561,773	-200,000	0,001	0,018
-560,758	-200,000	-0,015	0,105
-559,744	131,065	0,012	-0,012
-558,729	-200,000	0,009	-0,044
-557,715	-147,501	0,084	-0,005
-556,700	800,000	0,024	0,069
-555,685	238,012	-0,089	0,109
-554,671	800,000	-0,045	0,106
-553,656	-133,927	0,082	-0,007
-552,642	-200,000	0,025	-0,113
-551,627	-32,601	0,084	0,035
-550,612	-154,022	0,029	-0,001
-549,598	165,389	-0,070	-0,074
-548,583	-200,000	-0,027	-0,205
-547,569	125,421	-0,204	-0,190
-546,554	273,824	-0,035	0,046
-545,539	-200,000	0,010	-0,050
-544,525	356,659	-0,082	-0,121
-543,510	-200,000	0,011	-0,101
-542,496	51,054	0,028	-0,020
-541,481	-117,272	-0,062	-0,008
-540,466	-200,000	-0,007	-0,037
-539,452	4,913	0,123	0,067
-538,437	-200,000	-0,011	0,059
-537,423	15,896	-0,118	0,068
-536,408	-114,664	0,098	-0,014
-535,393	694,131	0,031	-0,061
-534,379	-116,046	-0,059	0,008
-533,364	-200,000	-0,012	-0,067
-532,350	580,581	-0,049	0,089
-531,335	421,206	0,089	-0,141
-530,321	-157,456	0,155	0,007
-529,306	-104,232	-0,086	-0,015
-528,291	-200,000	0,004	0,052
-527,277	3,786	0,056	0,030
-526,262	-120,210	-0,025	-0,003
-525,248	800,000	-0,035	0,098
-524,233	75,441	-0,046	-0,036
-523,218	275,559	0,045	-0,058
-522,204	-200,000	0,015	0,092
-521,189	-36,678	-0,089	0,035
-520,175	176,232	-0,104	0,112
-519,160	-200,000	0,012	-0,060
-518,145	287,795	-0,049	-0,065
-517,131	-50,300	0,085	0,029
-516,116	-75,189	0,054	-0,014
-515,102	58,846	0,025	0,018
-514,087	-200,000	-0,007	0,097
-513,072	90,363	-0,080	0,066
-512,058	291,209	0,100	-0,134
-511,043	800,000	0,050	-0,148
-510,029	-85,874	0,200	-0,045
-509,014	686,680	0,039	-0,075
-507,999	-154,480	0,045	-0,002
-506,985	-87,691	-0,029	0,006
-505,970	-200,000	-0,004	0,080
-504,956	-200,000	0,023	-0,130
-503,941	285,437	0,084	0,112
-502,926	132,491	0,049	-0,047
-501,912	800,000	-0,053	0,131
-500,897	-26,059	-0,070	0,030
-499,883	-200,000	0,003	-0,025
-498,868	367,815	-0,013	0,020
-497,853	319,166	0,118	-0,166
-496,839	-200,000	0,025	0,134
-495,824	-200,000	-0,084	0,000
-494,810	200,008	-0,013	0,015
-493,795	-200,000	0,024	0,163
-492,781	-170,951	-0,060	-0,001
-491,766	8,229	-0,129	-0,072
-490,751	800,000	-0,062	-0,161
-489,737	118,401	0,074	-0,067
-488,722	208,329	0,045	0,052
-487,708	629,115	0,078	-0,146
-486,693	142,333	-0,060	0,058
-485,678	-16,019	-0,097	-0,046
-484,664	-10,605	-0,045	-0,022
-483,649	22,898	0,061	-0,037
-482,635	-12,257	-0,079	-0,038
-481,620	12,380	0,036	-0,020
-480,605	-113,464	0,049	-0,007
-479,591	145,787	0,118	0,117
-478,576	-103,312	0,098	0,017
-477,562	-200,000	-0,023	-0,089
-476,547	378,527	-0,105	-0,159
-475,532	-200,000	0,008	-0,155
-474,518	800,000	0,037	-0,092
-473,503	382,287	-0,014	-0,022
-472,489	-200,000	0,038	0,128
-471,474	-104,785	-0,087	-0,015
-470,459	800,000	-0,015	-0,040
-469,445	-160,479	-0,038	0,001
-468,430	800,000	0,058	-0,123
-467,416	-94,393	0,051	0,010
-466,401	800,000	-0,003	-0,010
-465,386	-28,266	0,114	-0,048
-464,372	79,008	0,066	0,052
-463,357	260,271	-0,070	-0,090
-462,343	14,775	-0,139	0,080
-461,328	-115,206	-0,145	-0,020
-460,313	-82,971	0,077	-0,018
-459,299	564,788	0,019	-0,034
-458,284	-200,000	-0,002	-0,150
-457,270	417,294	0,112	-0,177
-456,255	77,564	-0,080	-0,063
-455,241	-144,849	0,139	-0,009
-454,226	-32,463	0,053	0,022
-453,211	152,353	0,048	-0,048
-452,197	121,873	0,059	0,054
-451,182	-100,292	0,089	-0,016
-450,168	181,020	-0,013	-0,014
-449,153	146,067	0,105	0,103
-448,138	147,957	-0,058	0,058
-447,124	207,205	0,064	-0,073
-446,109	-200,000	0,013	0,073
-445,095	121,253	-0,036	0,033
-444,080	-200,000	-0,002	0,046
-443,065	-42,596	-0,087	0,033
-442,051	800,000	0,022	0,061
-441,036	-81,316	-0,087	-0,021
-440,022	94,710	-0,054	0,046
-439,007	-91,756	-0,133	0,027
-437,992	15,875	0,136	-0,078
-436,978	-200,000	-0,001	0,104
-435,963	-200,000	0,002	0,031
-434,949	175,547	-0,058	0,062
-433,934	288,680	-0,118	-0,158
-432,919	-200,000	-0,006	-0,131
-431,905	-200,000	0,000	0,044
-430,890	800,000	-0,016	0,035
-429,876	95,078	0,092	0,077
-428,861	800,000	0,053	-0,118
-427,846	-200,000	-0,021	-0,128
-426,832	-130,674	-0,105	-0,010
-425,817	-16,780	0,079	-0,037
-424,803	148,849	0,053	-0,052
-423,788	-87,837	0,057	0,013
-422,773	136,511	0,083	-0,080
-421,759	-200,000	-0,002	0,163
-420,744	58,241	-0,025	0,018
-419,730	-200,000	-0,010	0,105
-418,715	83,596	0,077	0,062
-417,701	432,803	-0,038	0,060
-416,686	800,000	0,004	0,011
-415,671	233,528	-0,069	-0,084
-414,657	-200,000	0,058	0,000
-413,642	200,498	-0,061	-0,069
-412,628	-76,000	-0,073	-0,019
-411,613	-75,898	-0,066	0,017
-410,598	-91,408	0,098	0,020
-409,584	-21,797	-0,122	-0,054
-408,569	-13,375	0,067	-0,032
-407,555	-200,000	-0,005	-0,027
-406,540	-200,000	-0,013	0,096
-405,525	752,345	-0,070	0,139
-404,511	-166,675	-0,114	0,003
-403,496	-200,000	0,003	-0,030
-402,482	257,718	0,104	-0,132
-401,467	-200,000	0,006	0,271
-400,452	-8,831	0,172	0,085
-399,438	-107,220	-0,055	-0,009
-398,423	-72,384	0,122	0,033
-397,409	226,581	0,084	0,101
-396,394	158,267	-0,048	0,049
-395,379	-200,000	0,045	0,147
-394,365	712,130	0,033	-0,065
-393,350	306,233	0,021	0,029
-392,336	391,108	0,048	-0,073
-391,321	-68,638	0,206	0,058
-390,306	118,298	-0,057	-0,051
-389,292	800,000	-0,035	-0,085
-388,277	-126,663	-0,075	0,008
-387,263	122,319	-0,093	0,085
-386,248	-33,001	0,091	-0,037
-385,233	259,239	-0,101	0,129
-384,219	475,870	0,044	0,073
-383,204	-67,152	0,038	0,011
-382,190	-200,000	0,000	0,026
-381,175	177,899	0,070	0,075
-380,160	800,000	-0,030	-0,070
-379,146	-163,189	0,082	0,003
-378,131	349,662	-0,037	-0,054
-377,117	301,868	-0,097	-0,132
-376,102	278,948	-0,085	-0,112
-375,088	-184,937	0,083	-0,001
-374,073	-200,000	0,003	-0,082
-373,058	677,838	-0,033	0,063
-372,044	800,000	0,023	0,050
-371,029	-200,000	-0,004	0,144
-370,015	-200,000	-0,001	0,262
-369,000	219,378	0,057	-0,067
-367,985	-63,739	-0,047	-0,014
-366,971	-200,000	0,033	0,138
-365,956	-97,319	-0,111	-0,021
-364,942	270,248	-0,051	-0,066
-363,927	-40,072	0,109	-0,042
-362,912	149,931	0,050	-0,050
-361,898	3,170	0,048	0,026
-360,883	24,739	-0,067	-0,040
-359,869	-109,384	-0,100	0,015
-358,854	-74,984	0,143	-0,037
-357,839	23,019	0,128	-0,077
-356,825	-39,740	-0,178	-0,068
-355,810	-62,995	0,070	0,021
-354,796	61,907	-0,041	0,030
-353,781	-130,172	-0,230	-0,023
-352,766	46,252	-0,149	0,101
-351,752	800,000	-0,034	0,090
-350,737	-81,152	0,086	-0,021
-349,723	800,000	0,043	-0,120
-348,708	-200,000	0,000	-0,036
-347,693	-172,349	0,073	-0,002
-346,679	-200,000	0,008	-0,169
-345,664	-92,394	-0,057	-0,012
-344,650	-124,444	0,161	0,018
-343,635	-200,000	0,000	0,077
-342,620	-200,000	0,005	0,025
-341,606	17,285	0,082	-0,048
-340,591	-135,624	-0,135	0,012
-339,577	183,479	-0,058	-0,063
-338,562	-200,000	-0,042	-0,153
-337,548	-71,467	0,034	0,009
-336,533	-200,000	-0,017	0,069
-335,518	-200,000	0,003	-0,050
-334,504	-174,781	0,121	-0,002
-333,489	519,151	0,023	-0,040
-332,475	800,000	-0,057	-0,143
-331,460	-91,213	-0,100	-0,021
-330,445	-93,081	-0,153	0,031
-329,431	268,549	0,029	0,037
-328,416	340,437	-0,081	0,116
-327,402	530,774	0,040	0,070
-326,387	85,862	-0,029	-0,024
-325,372	91,003	-0,082	0,068
-324,358	71,848	-0,096	-0,073
-323,343	-117,606	0,122	-0,016
-322,329	-200,000	-0,003	0,034
-321,314	63,737	-0,011	0,008
-320,299	264,210	0,092	-0,118
-319,285	1,576	0,070	0,037
-318,270	-80,358	0,023	0,006
-317,256	-4,533	-0,104	0,053
-316,241	-22,295	0,072	0,032
-315,226	189,493	-0,044	-0,049
-314,212	-200,000	-0,019	-0,086
-313,197	-28,732	-0,119	-0,050
-312,183	-200,000	-0,032	0,113
-311,168	-200,000	0,028	0,107
-310,153	-200,000	-0,027	-0,139
-309,139	-13,383	0,038	-0,018
-308,124	-97,200	-0,105	0,020
-307,110	11,292	-0,091	0,051
-306,095	-66,722	0,108	-0,031
-305,080	-162,367	0,065	-0,002
-304,066	-200,000	0,010	-0,042
-303,051	-200,000	0,028	0,000
-302,037	-200,000	0,017	0,080
-301,022	-200,000	-0,029	0,125
-300,008	-54,317	0,115	-0,038
-298,993	-200,000	0,006	0,078
-297,978	-20,779	0,097	0,043
-296,964	-101,397	0,213	-0,038
-295,949	-200,000	-0,004	-0,140
-294,935	-161,578	0,118	-0,004
-293,920	-200,000	-0,028	-0,116
-292,905	189,996	-0,100	0,110
-291,891	1,148	0,091	0,048
-290,876	-200,000	0,031	0,230
-289,862	-200,000	0,047	0,185
-288,847	288,720	0,082	-0,109
-287,832	-54,293	-0,078	-0,026
-286,818	177,850	0,095	0,101
-285,803	-200,000	0,039	-0,155
-284,789	247,069	0,079	0,097
-283,774	213,446	0,070	0,081
-282,759	29,836	0,125	0,077
-281,745	-200,000	0,016	-0,106
-280,730	-27,183	0,039	-0,016
-279,716	-26,263	-0,021	-0,009
-278,701	-200,000	-0,004	-0,101
-277,686	-200,000	-0,003	0,070
-276,672	-77,490	-0,127	-0,032
-275,657	-111,031	0,073	-0,011
-274,643	800,000	-0,076	0,156
-273,628	216,040	-0,008	-0,009
-272,613	351,019	-0,033	-0,048
-271,599	352,609	0,178	0,259
-270,584	-140,739	-0,180	-0,013
-269,570	-47,218	0,113	-0,040
-268,555	17,333	0,046	0,027
-267,540	156,484	0,105	-0,106
-266,526	-20,737	0,093	-0,042
-265,511	792,578	0,069	-0,140
-264,497	772,524	-0,046	-0,091
-263,482	-200,000	-0,001	0,067
-262,467	-145,041	-0,054	0,004
-261,453	800,000	0,020	0,060
-260,438	17,659	0,136	-0,079
-259,424	174,622	0,122	-0,129
-258,409	-64,440	0,064	-0,019
-257,395	217,568	0,030	-0,035
-256,380	82,734	-0,096	-0,076
-255,365	153,906	0,009	-0,009
-254,351	800,000	0,061	0,192
-253,336	800,000	-0,045	0,138
-252,322	-79,602	-0,041	-0,010
-251,307	-31,970	0,044	0,018
-250,292	-200,000	0,019	0,193
-249,278	149,899	0,131	0,130
-248,263	66,420	0,087	0,065
-247,249	-200,000	0,038	0,128
-246,234	281,483	-0,021	-0,028
-245,219	-200,000	0,001	0,126
-244,205	498,055	0,057	-0,097
-243,190	39,779	-0,021	-0,014
-242,176	-132,777	0,202	-0,019
-241,161	-55,172	-0,095	0,031
-240,146	275,136	0,046	0,060
-239,132	-49,838	0,100	-0,035
-238,117	800,000	-0,014	-0,040
-237,103	415,587	-0,058	0,090
-236,088	488,433	0,060	-0,101
-235,073	-200,000	-0,016	0,106
-234,059	-196,969	0,126	-0,001
-233,044	40,682	-0,089	-0,058
-232,030	77,119	-0,058	-0,045
-231,015	65,583	0,124	-0,092
-230,000	-123,986	0,069	-0,008
-228,986	-10,007	-0,116	0,056
-227,971	-200,000	0,007	0,157
-226,957	-89,571	-0,036	0,008
-225,942	354,828	-0,022	-0,032
-224,927	61,258	0,066	0,048
-223,913	62,771	-0,058	0,042
-222,898	26,350	0,020	0,012
-221,884	488,954	-0,057	0,096
-220,869	800,000	0,010	-0,031
-219,855	285,072	-0,059	-0,077
-218,840	153,190	0,022	0,022
-217,825	-200,000	0,013	0,123
-216,811	800,000	-0,033	-0,076
-215,796	4,947	-0,138	-0,074
-214,782	252,629	-0,134	-0,167
-213,767	-47,899	0,047	0,016
-212,752	218,347	0,080	0,093
-211,738	-79,296	-0,035	-0,009
-210,723	-200,000	-0,012	-0,068
-209,709	-141,675	-0,168	0,012
-208,694	38,180	0,084	-0,055
-207,679	-200,000	0,015	-0,065
-206,665	-200,000	0,004	0,041
-205,650	42,543	0,082	-0,055
-204,636	-200,000	-0,004	0,108
-203,621	229,682	-0,075	0,089
-202,606	-200,000	0,000	-0,056
-201,592	800,000	-0,045	0,113
-200,577	-200,000	0,006	-0,095
-199,563	153,772	-0,041	0,041
-198,548	491,781	-0,035	0,059
-197,533	-28,919	0,035	0,015
-196,519	800,000	-0,010	0,027
-195,504	-200,000	-0,056	-0,183
-194,490	800,000	-0,006	0,013
-193,475	182,128	0,140	0,151
-192,460	-200,000	0,002	-0,058
-191,446	-26,350	-0,091	0,039
-190,431	-1,181	-0,060	0,031
-189,417	439,376	0,032	0,051
-188,402	-86,795	-0,042	-0,009
-187,387	-14,798	-0,172	-0,080
-186,373	800,000	0,039	-0,091
-185,358	793,466	-0,050	-0,101
-184,344	-45,056	-0,099	0,036
-183,329	-125,087	0,086	-0,010
-182,315	-200,000	-0,039	0,142
-181,300	200,581	-0,025	-0,028
-180,285	-62,422	0,099	0,030
-179,271	-200,000	-0,029	-0,135
-178,256	-200,000	-0,015	0,064
-177,242	203,060	-0,046	0,052
-176,227	148,844	-0,040	0,040
-175,212	141,741	-0,077	-0,074
-174,198	286,154	-0,057	0,076
-173,183	-146,506	-0,108	-0,007
-172,169	148,582	0,034	-0,034
-171,154	97,068	0,014	-0,012
-170,139	259,410	-0,079	0,099
-169,125	-18,465	0,067	-0,030
-168,110	-13,582	-0,128	0,060
-167,096	664,339	-0,078	-0,148
-166,081	-200,000	-0,006	0,122
-165,066	-200,000	0,024	-0,148
-164,052	54,231	0,065	-0,045
-163,037	100,123	0,048	-0,041
-162,023	-67,956	0,056	-0,016
-161,008	-62,573	0,131	0,039
-159,993	-200,000	-0,017	0,086
-158,979	-200,000	-0,015	0,104
-157,964	-200,000	0,055	-0,178
-156,950	800,000	-0,069	-0,167
-155,935	280,955	0,026	0,034
-154,920	111,233	0,079	0,070
-153,906	-25,714	0,057	-0,025
-152,891	98,285	0,061	-0,051
-151,877	-200,000	0,006	0,062
-150,862	8,318	-0,061	-0,033
-149,847	-109,523	-0,070	-0,011
-148,833	210,624	0,077	0,089
-147,818	-156,456	0,113	-0,005
-146,804	-200,000	-0,008	-0,034
-145,789	800,000	0,039	0,084
-144,775	-91,859	-0,102	-0,021
-143,760	-51,370	-0,122	0,041
-142,745	-200,000	0,004	0,035
-141,731	-123,943	0,099	-0,011
-140,716	40,932	-0,046	0,030
-139,702	222,046	-0,042	-0,049
-138,687	-0,731	-0,050	-0,026
-137,672	287,747	0,051	0,068
-136,658	-200,000	0,010	-0,098
-135,643	203,459	-0,060	-0,068
-134,629	0,206	0,094	-0,049
-133,614	559,490	0,053	0,093
-132,599	-0,117	0,092	0,048
-131,585	770,544	-0,010	0,020
-130,570	800,000	0,027	-0,073
-129,556	684,204	0,049	-0,093
-128,541	-200,000	0,019	-0,154
-127,526	-44,435	0,066	0,024
-126,512	-29,782	0,135	-0,056
-125,497	-107,599	0,061	-0,010
-124,483	88,003	-0,138	0,111
-123,468	-121,597	-0,123	0,015
-122,453	-36,006	-0,094	-0,037
-121,439	-200,000	0,011	-0,053
-120,424	-140,995	-0,059	-0,004
