DTS Sentinel unit serial number:	SN410029Multiplexer serial number:	ORYXHardware model number:	OX2-SRSoftware version number:	ORYX F/W v4,00 Oryx Data Collector v3.7.2.0data status	okinstallation	B6 Nyhavnadifferential loss correction	single-endedforward channel	channel 2reverse channel	N/Adate	2023/12/10time	21:50:08forward acquisition time	300,00reverse acquisition time	0,00gamma	499,1914k internal	0,3123k external	0,3123temperature offset calibration	1,0000default loss term (dB/km)	0,3820temperature slope calibration	1,0000multiplexer offset coefficient	1,0000multiplexer slope coefficient	1,0000fibre end	0,00T internal ref (°C)	22,31T ext. ref 1 (°C)	6,08T ext. ref 2 (°C)	6,08length (m)	temperature (°C)	Stokes	anti-Stokes-744,400	-88,198	0,143	-0,032
-743,385	160,182	-0,161	0,168
-742,371	-111,245	0,076	0,011
-741,356	146,561	-0,171	0,171
-740,342	-200,000	-0,019	0,065
-739,327	-3,910	-0,255	0,132
-738,312	-200,000	0,010	-0,101
-737,298	-32,521	-0,212	0,087
-736,283	48,438	-0,124	0,086
-735,269	-117,709	-0,301	0,040
-734,254	-15,899	0,086	0,041
-733,239	-133,500	-0,462	-0,043
-732,225	653,467	0,077	0,147
-731,210	-80,577	0,143	0,035
-730,196	-83,840	-0,120	0,028
-729,181	-200,000	0,000	0,001
-728,167	-134,618	-0,120	0,011
-727,152	11,748	-0,058	-0,033
-726,137	16,869	-0,132	-0,078
-725,123	108,507	-0,065	-0,057
-724,108	-81,369	-0,098	0,024
-723,094	246,435	-0,104	-0,131
-722,079	-8,082	-0,094	0,047
-721,064	79,327	0,023	0,019
-720,050	270,120	0,031	-0,041
-719,035	-200,000	-0,041	0,160
-718,021	-200,000	0,006	0,032
-717,006	-98,681	-0,178	0,034
-715,991	-200,000	0,001	-0,125
-714,977	184,774	0,048	-0,053
-713,962	15,709	0,058	-0,034
-712,948	500,167	-0,054	0,093
-711,933	430,031	0,034	-0,055
-710,918	98,886	-0,101	0,086
-709,904	606,104	-0,088	0,164
-708,889	800,000	0,022	-0,047
-707,875	-22,965	-0,081	-0,036
-706,860	33,414	0,063	-0,040
-705,845	-15,760	0,058	-0,027
-704,831	231,017	-0,033	0,041
-703,816	-200,000	0,001	-0,017
-702,802	439,573	-0,051	-0,083
-701,787	-3,951	-0,040	-0,021
-700,772	-21,473	-0,029	-0,013
-699,758	800,000	-0,029	0,094
-698,743	-200,000	0,029	0,235
-697,729	691,595	-0,036	0,070
-696,714	-200,000	0,010	-0,080
-695,699	586,075	0,048	0,088
-694,685	-183,274	-0,071	-0,001
-693,670	39,430	0,014	-0,009
-692,656	505,864	-0,065	-0,112
-691,641	-55,321	0,044	-0,014
-690,627	-12,103	0,088	0,043
-689,612	760,612	0,033	0,067
-688,597	113,525	-0,119	0,108
-687,583	54,984	-0,206	0,147
-686,568	-62,471	-0,135	0,041
-685,554	171,871	0,117	-0,126
-684,539	19,467	-0,042	-0,025
-683,524	141,755	0,055	-0,055
-682,510	246,556	-0,071	0,089
-681,495	-200,000	-0,013	0,059
-680,481	-200,000	-0,005	0,024
-679,466	-200,000	-0,017	-0,090
-678,451	-200,000	-0,014	-0,105
-677,437	-200,000	-0,008	0,128
-676,422	-88,132	-0,067	0,015
-675,408	800,000	0,029	-0,076
-674,393	-200,000	-0,041	-0,176
-673,378	-92,210	-0,163	-0,034
-672,364	630,353	-0,042	-0,079
-671,349	-200,000	-0,017	-0,141
-670,335	-87,415	0,138	-0,031
-669,320	-116,960	0,076	0,010
-668,305	-41,796	0,136	-0,052
-667,291	-64,990	0,016	0,005
-666,276	-68,125	0,100	0,029
-665,262	-200,000	-0,016	-0,165
-664,247	154,779	-0,008	-0,009
-663,232	-24,947	-0,066	0,029
-662,218	-200,000	0,013	-0,093
-661,203	-88,674	-0,097	0,021
-660,189	49,717	-0,078	-0,054
-659,174	800,000	0,015	0,037
-658,159	-19,403	-0,070	0,032
-657,145	-200,000	0,013	-0,061
-656,130	-200,000	-0,007	0,155
-655,116	148,331	-0,088	-0,089
-654,101	18,927	-0,087	-0,052
-653,086	-200,000	-0,003	0,165
-652,072	-200,000	-0,013	-0,121
-651,057	543,682	-0,039	-0,070
-650,043	-51,754	0,042	0,015
-649,028	-174,902	-0,027	0,001
-648,014	-148,791	0,174	-0,010
-646,999	-124,710	0,037	-0,004
-645,984	800,000	-0,063	0,147
-644,970	-103,160	0,084	-0,015
-643,955	-200,000	0,028	0,152
-642,941	113,157	-0,060	-0,054
-641,926	-91,256	0,011	-0,002
-640,911	-200,000	0,012	-0,134
-639,897	-92,028	0,057	0,012
-638,882	558,629	-0,043	-0,077
-637,868	800,000	-0,032	0,082
-636,853	702,074	-0,031	-0,060
-635,838	159,361	0,093	-0,097
-634,824	-200,000	0,003	-0,070
-633,809	-200,000	0,043	0,239
-632,795	309,996	-0,053	0,074
-631,780	-200,000	0,002	0,045
-630,765	-4,881	-0,065	-0,033
-629,751	528,103	0,072	-0,126
-628,736	-200,000	0,012	-0,045
-627,722	65,993	0,172	-0,130
-626,707	800,000	-0,012	-0,037
-625,692	150,544	0,066	0,067
-624,678	-159,335	-0,114	0,005
-623,663	-80,915	-0,106	-0,026
-622,649	622,232	0,032	-0,061
-621,634	13,523	0,061	-0,035
-620,619	800,000	-0,031	0,100
-619,605	18,910	-0,058	-0,034
-618,590	-200,000	-0,006	0,026
-617,576	126,583	-0,062	0,059
-616,561	-200,000	-0,007	-0,064
-615,546	27,348	-0,032	-0,020
-614,532	-200,000	-0,023	-0,201
-613,517	152,844	-0,119	0,121
-612,503	262,407	-0,006	0,008
-611,488	50,198	0,190	-0,133
-610,474	800,000	-0,054	0,111
-609,459	3,937	0,035	-0,019
-608,444	81,190	-0,090	-0,072
-607,430	-157,696	-0,063	-0,003
-606,415	-180,147	-0,135	0,002
-605,401	-200,000	-0,002	-0,016
-604,386	800,000	-0,024	-0,051
-603,371	800,000	-0,009	-0,028
-602,357	219,298	0,118	0,140
-601,342	-105,601	-0,108	0,018
-600,328	-200,000	-0,022	-0,143
-599,313	-200,000	0,005	-0,053
-598,298	-114,635	0,242	-0,034
-597,284	179,896	0,062	0,068
-596,269	62,434	-0,041	0,031
-595,255	-200,000	0,004	0,058
-594,240	-48,890	-0,015	0,005
-593,225	-200,000	0,007	0,091
-592,211	138,466	-0,073	-0,071
-591,196	800,000	-0,020	0,053
-590,182	59,374	-0,024	-0,017
-589,167	559,162	0,011	0,020
-588,152	800,000	-0,035	-0,081
-587,138	5,093	0,101	0,055
-586,123	-200,000	0,008	-0,144
-585,109	74,848	-0,048	0,038
-584,094	800,000	0,042	-0,127
-583,079	-200,000	-0,000	0,098
-582,065	-183,835	0,028	0,000
-581,050	800,000	0,032	-0,068
-580,036	-88,456	0,037	-0,008
-579,021	-200,000	0,012	-0,112
-578,006	101,412	-0,027	0,023
-576,992	800,000	-0,026	-0,074
-575,977	-200,000	0,010	-0,103
-574,963	800,000	0,019	0,040
-573,948	123,518	0,078	-0,072
-572,934	-200,000	0,002	0,014
-571,919	-143,859	-0,132	0,009
-570,904	86,921	-0,117	-0,095
-569,890	137,188	-0,058	0,056
-568,875	-200,000	0,036	0,125
-567,861	800,000	0,083	0,183
-566,846	-131,211	-0,111	0,011
-565,831	-200,000	0,004	0,076
-564,817	-70,925	0,089	-0,025
-563,802	-200,000	-0,011	-0,036
-562,788	97,923	-0,035	-0,030
-561,773	254,967	-0,062	-0,078
-560,758	371,773	-0,052	-0,079
-559,744	69,868	-0,087	-0,067
-558,729	-200,000	0,020	-0,110
-557,715	51,357	0,102	-0,072
-556,700	116,219	0,042	0,039
-555,685	657,563	0,063	-0,121
-554,671	-49,682	0,077	-0,027
-553,656	-8,627	0,072	0,036
-552,642	-116,935	0,030	0,004
-551,627	146,622	0,058	0,058
-550,612	-200,000	0,009	0,091
-549,598	-200,000	0,059	0,196
-548,583	-200,000	-0,001	0,021
-547,569	-76,009	0,049	-0,013
-546,554	-200,000	-0,002	-0,129
-545,539	800,000	-0,038	-0,099
-544,525	-22,119	0,095	-0,042
-543,510	-137,649	0,055	-0,005
-542,496	220,063	-0,038	-0,045
-541,481	144,175	-0,086	-0,085
-540,466	-200,000	-0,004	-0,019
-539,452	67,377	0,137	0,103
-538,437	160,810	0,046	0,047
-537,423	-137,654	0,090	0,007
-536,408	621,378	-0,062	0,116
-535,393	763,134	-0,045	-0,090
-534,379	-200,000	-0,032	-0,114
-533,364	800,000	-0,006	0,016
-532,350	-154,319	0,124	-0,006
-531,335	800,000	-0,006	0,013
-530,321	50,332	-0,030	-0,021
-529,306	113,014	-0,020	-0,018
-528,291	-165,090	0,066	0,002
-527,277	800,000	0,062	-0,177
-526,262	800,000	0,023	-0,053
-525,248	-67,311	0,098	0,028
-524,233	31,043	0,048	0,030
-523,218	357,242	-0,036	0,053
-522,204	-53,398	-0,094	-0,032
-521,189	-200,000	-0,008	0,047
-520,175	-200,000	-0,028	-0,139
-519,160	-89,726	-0,095	-0,020
-518,145	112,268	0,111	-0,100
-517,131	-200,000	0,008	0,157
-516,116	477,554	0,081	0,136
-515,102	38,037	0,152	-0,100
-514,087	-200,000	-0,029	-0,119
-513,072	167,404	-0,113	-0,119
-512,058	289,897	-0,045	-0,061
-511,043	-81,589	0,025	-0,006
-510,029	-29,377	0,067	0,028
-509,014	-18,649	0,060	0,027
-507,999	-91,855	0,147	0,031
-506,985	228,565	0,022	-0,027
-505,970	586,116	-0,037	-0,067
-504,956	-135,593	0,090	-0,008
-503,941	172,751	0,066	0,070
-502,926	201,900	0,130	0,148
-501,912	800,000	0,068	0,153
-500,897	738,253	0,033	0,065
-499,883	-22,909	0,048	0,021
-498,868	339,204	-0,043	-0,062
-497,853	183,936	-0,132	0,145
-496,839	-200,000	-0,009	0,066
-495,824	-95,752	-0,080	-0,016
-494,810	187,343	-0,056	0,062
-493,795	-49,769	0,090	-0,031
-492,781	-99,966	-0,067	0,012
-491,766	59,954	-0,029	-0,021
-490,751	-136,734	0,063	-0,005
-489,737	44,321	-0,092	-0,062
-488,722	48,635	0,013	0,009
-487,708	-200,000	0,024	0,101
-486,693	135,301	-0,134	0,129
-485,678	302,761	0,013	-0,017
-484,664	581,762	0,035	-0,064
-483,649	-200,000	0,004	-0,154
-482,635	-34,249	-0,047	0,019
-481,620	26,708	-0,070	-0,043
-480,605	-69,550	0,082	0,023
-479,591	51,384	0,069	0,048
-478,576	20,586	0,077	0,046
-477,562	-29,367	-0,031	0,013
-476,547	176,325	-0,102	-0,110
-475,532	56,701	-0,095	-0,068
-474,518	-72,953	0,069	0,018
-473,503	-124,882	0,032	0,004
-472,489	-200,000	-0,015	-0,069
-471,474	-200,000	0,024	-0,129
-470,459	-200,000	0,006	0,105
-469,445	-200,000	0,042	0,000
-468,430	800,000	0,048	0,115
-467,416	10,195	-0,038	0,021
-466,401	29,129	0,046	0,029
-465,386	149,057	-0,115	0,115
-464,372	800,000	0,013	-0,033
-463,357	-200,000	0,002	-0,039
-462,343	-200,000	-0,022	-0,084
-461,328	296,437	-0,031	-0,042
-460,313	-44,179	-0,032	0,012
-459,299	14,515	0,030	0,017
-458,284	-94,280	-0,109	0,022
-457,270	800,000	0,022	0,062
-456,255	-30,378	-0,124	-0,052
-455,241	-107,423	0,078	0,012
-454,226	2,415	-0,066	-0,035
-453,211	800,000	-0,033	-0,070
-452,197	60,622	0,053	-0,039
-451,182	-67,577	-0,139	-0,040
-450,168	120,054	0,083	0,076
-449,153	-200,000	-0,016	0,121
-448,138	501,687	0,040	0,068
-447,124	-137,755	-0,103	0,008
-446,109	-109,534	0,099	0,015
-445,095	-64,049	0,105	0,031
-444,080	-116,490	0,024	-0,003
-443,065	537,279	-0,054	0,095
-442,051	116,677	0,124	-0,112
-441,036	-122,118	-0,085	-0,010
-440,022	-136,792	-0,151	0,013
-439,007	-140,975	-0,156	-0,012
-437,992	800,000	0,042	0,093
-436,978	-200,000	-0,011	0,041
-435,963	475,402	0,057	0,096
-434,949	800,000	0,030	0,064
-433,934	-200,000	-0,103	0,000
-432,919	135,014	0,052	0,050
-431,905	-15,227	-0,023	-0,011
-430,890	-104,780	0,151	0,025
-429,876	-200,000	-0,033	0,141
-428,861	-200,000	0,013	0,193
-427,846	-132,217	0,078	0,007
-426,832	-200,000	0,016	-0,066
-425,817	120,679	-0,094	-0,086
-424,803	241,827	-0,097	0,119
-423,788	-132,126	-0,012	-0,001
-422,773	170,480	0,093	0,098
-421,759	-107,161	-0,122	0,020
-420,744	-54,418	-0,127	0,042
-419,730	-83,374	0,105	-0,025
-418,715	-200,000	-0,033	-0,136
-417,701	-200,000	-0,039	-0,204
-416,686	800,000	0,028	-0,071
-415,671	92,091	0,096	0,080
-414,657	800,000	-0,036	-0,111
-413,642	91,963	-0,063	0,052
-412,628	-118,970	-0,092	-0,012
-411,613	184,325	-0,065	0,071
-410,598	174,312	0,108	-0,115
-409,584	103,109	-0,092	-0,079
-408,569	129,927	0,066	0,062
-407,555	12,388	0,018	0,010
-406,540	-200,000	-0,042	0,201
-405,525	46,022	0,072	0,049
-404,511	377,541	0,044	-0,066
-403,496	7,479	-0,076	-0,041
-402,482	800,000	0,013	-0,027
-401,467	-200,000	0,011	0,103
-400,452	477,425	-0,051	0,085
-399,438	230,155	-0,010	0,012
-398,423	87,702	-0,106	0,086
-397,409	359,326	0,065	-0,096
-396,394	-120,278	-0,036	-0,004
-395,379	170,346	0,135	0,143
-394,365	800,000	-0,074	0,219
-393,350	-200,000	-0,004	0,100
-392,336	-30,452	-0,154	-0,064
-391,321	-200,000	-0,001	0,084
-390,306	188,577	-0,049	0,054
-389,292	-200,000	-0,012	-0,213
-388,277	133,564	-0,038	-0,036
-387,263	-200,000	0,002	0,135
-386,248	98,400	0,103	0,088
-385,233	-61,719	0,076	-0,023
-384,219	-108,537	0,078	-0,012
-383,204	-9,774	-0,111	-0,054
-382,190	-35,491	-0,043	-0,017
-381,175	-86,464	-0,092	0,021
-380,160	-8,041	0,160	-0,079
-379,146	-200,000	0,003	0,047
-378,131	-142,133	-0,026	-0,002
-377,117	800,000	-0,029	0,078
-376,102	-200,000	-0,003	-0,052
-375,088	800,000	-0,042	-0,098
-374,073	800,000	0,025	0,067
-373,058	-2,228	0,187	0,096
-372,044	-81,541	0,042	-0,010
-371,029	129,182	0,115	0,108
-370,015	-200,000	0,003	-0,027
-369,000	240,305	0,042	-0,051
-367,985	800,000	-0,039	-0,092
-366,971	-62,635	0,075	0,023
-365,956	-200,000	-0,008	0,047
-364,942	-121,197	0,086	0,010
-363,927	800,000	-0,041	0,089
-362,912	-106,570	0,073	0,012
-361,898	22,028	-0,043	0,026
-360,883	-84,040	-0,156	0,036
-359,869	-20,096	-0,224	-0,101
-358,854	-60,894	0,068	-0,021
-357,839	5,819	0,144	-0,078
-356,825	-169,092	-0,040	-0,001
-355,810	348,121	0,056	-0,082
-354,796	40,667	-0,127	-0,084
-353,781	800,000	0,031	0,092
-352,766	-53,522	-0,096	-0,032
-351,752	-200,000	0,001	0,093
-350,737	-46,383	-0,122	-0,044
-349,723	-87,418	0,088	-0,019
-348,708	159,149	-0,075	-0,077
-347,693	-104,276	-0,085	0,014
-346,679	-200,000	0,005	0,050
-345,664	798,226	-0,046	0,094
-344,650	20,178	-0,092	-0,054
-343,635	800,000	0,053	-0,147
-342,620	-200,000	-0,007	0,049
-341,606	-148,578	0,238	0,014
-340,591	134,800	-0,042	-0,040
-339,577	92,065	-0,130	-0,108
-338,562	324,538	0,040	-0,056
-337,548	58,119	0,097	0,070
-336,533	137,645	0,102	0,098
-335,518	-99,784	0,097	0,018
-334,504	800,000	0,010	-0,021
-333,489	-121,749	-0,132	-0,016
-332,475	483,792	-0,055	0,092
-331,460	65,124	0,044	0,033
-330,445	800,000	-0,023	0,067
-329,431	-99,441	-0,059	0,011
-328,416	800,000	-0,034	0,105
-327,402	-200,000	0,010	0,063
-326,387	287,600	-0,097	0,129
-325,372	92,021	-0,061	0,051
-324,358	-200,000	-0,032	-0,216
-323,343	800,000	0,036	0,076
-322,329	-200,000	-0,002	-0,123
-321,314	-90,160	0,185	-0,039
-320,299	-76,736	-0,086	0,022
-319,285	800,000	-0,028	0,058
-318,270	-200,000	0,036	-0,143
-317,256	800,000	-0,107	-0,247
-316,241	281,838	-0,029	0,038
-315,226	113,459	0,027	-0,024
-314,212	-200,000	0,007	-0,098
-313,197	-200,000	0,008	0,030
-312,183	-5,203	-0,064	-0,032
-311,168	800,000	0,071	0,157
-310,153	76,040	-0,025	-0,019
-309,139	800,000	0,079	-0,207
-308,124	232,232	0,049	0,059
-307,110	-47,379	0,103	0,036
-306,095	-200,000	0,009	-0,093
-305,080	6,251	0,123	0,067
-304,066	-48,161	0,125	-0,044
-303,051	109,929	0,026	0,023
-302,037	353,384	0,059	0,087
-301,022	-200,000	-0,007	0,065
-300,008	389,132	0,010	0,015
-298,993	-143,688	0,078	-0,005
-297,978	83,534	-0,105	-0,084
-296,964	239,069	-0,091	-0,112
-295,949	800,000	-0,033	0,090
-294,935	208,577	0,029	0,033
-293,920	-27,757	0,113	-0,048
-292,905	179,521	-0,098	-0,105
-291,891	255,976	0,080	0,101
-290,876	108,089	0,046	-0,040
-289,862	-153,794	-0,099	0,005
-288,847	760,439	-0,019	-0,038
-287,832	651,173	-0,058	0,108
-286,818	-180,634	0,042	0,001
-285,803	690,359	0,049	0,095
-284,789	-6,760	0,016	0,008
-283,774	-89,531	-0,088	0,019
-282,759	412,220	0,058	0,091
-281,745	-164,852	-0,108	0,003
-280,730	650,254	-0,044	0,082
-279,716	364,919	-0,029	0,042
-278,701	352,351	-0,065	-0,095
-277,686	-200,000	0,148	-0,000
-276,672	178,084	-0,127	0,135
-275,657	682,480	0,061	0,117
-274,643	432,484	-0,031	-0,050
-273,628	-200,000	0,015	0,095
-272,613	131,378	-0,101	-0,095
-271,599	800,000	-0,018	0,043
-270,584	-200,000	0,000	0,045
-269,570	-74,530	0,080	0,021
-268,555	-65,197	-0,122	0,036
-267,540	428,736	-0,048	0,076
-266,526	765,919	0,005	0,011
-265,511	-200,000	-0,001	0,049
-264,497	-7,425	-0,143	-0,071
-263,482	-200,000	0,022	0,096
-262,467	472,064	0,040	0,065
-261,453	623,445	-0,069	0,127
-260,438	-53,288	-0,052	0,017
-259,424	-200,000	0,000	-0,167
-258,409	269,149	0,051	-0,065
-257,395	193,201	0,066	0,073
-256,380	83,987	-0,055	-0,044
-255,365	-200,000	0,010	0,112
-254,351	-200,000	-0,016	0,123
-253,336	60,198	-0,029	0,021
-252,322	-200,000	-0,035	-0,137
-251,307	-200,000	-0,013	0,047
-250,292	-124,995	0,089	-0,010
-249,278	800,000	0,037	0,091
-248,263	-81,039	0,079	0,019
-247,249	312,955	0,035	-0,049
-246,234	142,605	-0,123	-0,119
-245,219	188,517	-0,108	-0,118
-244,205	-148,079	-0,160	-0,010
-243,190	-200,000	-0,033	-0,111
-242,176	-200,000	-0,018	-0,096
-241,161	601,686	0,061	-0,111
-240,146	-200,000	-0,007	-0,036
-239,132	227,684	-0,013	-0,016
-238,117	88,619	-0,044	-0,036
-237,103	-200,000	-0,045	-0,204
-236,088	-85,595	0,109	-0,025
-235,073	19,430	-0,048	-0,028
-234,059	88,417	-0,076	-0,061
-233,044	110,076	0,094	0,082
-232,030	-0,584	-0,066	0,034
-231,015	-97,493	-0,102	-0,019
-230,000	-156,670	0,067	0,003
-228,986	-64,509	-0,088	0,026
-227,971	-200,000	0,004	0,040
-226,957	82,841	0,074	-0,059
-225,942	396,990	-0,049	0,075
-224,927	-103,337	0,064	0,011
-223,913	-4,215	-0,055	-0,028
-222,898	-200,000	0,014	-0,177
-221,884	376,136	0,025	-0,038
-220,869	-156,458	-0,091	-0,004
-219,855	800,000	0,050	-0,110
-218,840	-200,000	-0,042	0,185
-217,825	-66,634	-0,104	0,030
-216,811	-200,000	0,003	-0,047
-215,796	-83,647	-0,074	-0,017
-214,782	-200,000	-0,027	-0,162
-213,767	-138,092	0,095	-0,008
-212,752	-100,146	0,015	-0,003
-211,738	-200,000	-0,012	-0,071
-210,723	261,173	0,053	0,067
-209,709	-200,000	0,036	0,117
-208,694	169,579	0,022	-0,023
-207,679	-87,304	-0,075	-0,016
-206,665	-104,892	-0,112	-0,019
-205,650	186,330	-0,042	0,046
-204,636	12,525	0,086	-0,048
-203,621	-150,688	-0,015	-0,001
-202,606	-16,119	0,070	-0,032
-201,592	622,694	0,045	-0,083
-200,577	-94,163	-0,175	0,035
-199,563	35,557	-0,079	-0,050
-198,548	-75,634	0,032	0,008
-197,533	800,000	-0,031	0,098
-196,519	-130,280	0,195	0,019
-195,504	-200,000	0,044	-0,153
-194,490	388,658	0,076	-0,116
-193,475	-29,013	0,021	-0,009
-192,460	-200,000	-0,007	0,053
-191,446	-106,408	-0,090	-0,015
-190,431	170,561	0,102	0,107
-189,417	701,762	0,053	0,102
-188,402	-108,512	-0,098	-0,015
-187,387	116,324	-0,090	0,080
-186,373	-165,899	0,017	-0,001
-185,358	-200,000	0,036	-0,131
-184,344	800,000	-0,020	0,063
-183,329	43,281	0,117	0,078
-182,315	182,820	-0,120	0,129
-181,300	-200,000	-0,005	0,028
-180,285	351,235	-0,164	-0,237
-179,271	503,406	-0,053	-0,090
-178,256	-108,059	0,059	-0,009
-177,242	621,839	0,037	-0,069
-176,227	-145,641	-0,034	0,002
-175,212	-102,419	0,040	-0,007
-174,198	592,257	-0,059	0,108
-173,183	-67,982	0,054	0,015
-172,169	-200,000	-0,024	0,119
-171,154	83,630	-0,118	-0,094
-170,139	-89,698	0,185	0,039
-169,125	525,129	0,073	0,127
-168,110	-131,542	-0,040	0,004
-167,096	345,752	-0,053	-0,076
-166,081	27,878	0,168	0,103
-165,066	-200,000	-0,019	-0,138
-164,052	613,178	0,034	-0,062
-163,037	49,249	0,187	0,128
-162,023	195,848	0,017	-0,018
-161,008	117,186	0,055	-0,049
-159,993	-37,467	0,068	0,026
-158,979	46,027	-0,058	0,039
-157,964	-200,000	-0,006	-0,129
-156,950	485,169	-0,038	0,063
-155,935	800,000	-0,048	0,114
-154,920	286,416	-0,035	0,046
-153,906	149,844	0,072	0,071
-152,891	402,353	0,068	-0,105
-151,877	-63,474	0,141	0,042
-150,862	131,018	0,032	-0,030
-149,847	62,456	-0,177	-0,129
-148,833	246,146	0,024	-0,030
-147,818	54,834	-0,124	0,087
-146,804	478,523	-0,010	0,017
-145,789	143,163	0,022	-0,021
-144,775	176,011	0,064	0,067
-143,760	187,250	-0,099	-0,108
-142,745	800,000	-0,028	-0,074
-141,731	-59,449	-0,080	0,025
-140,716	-12,909	0,060	0,028
-139,702	-200,000	-0,002	0,138
-138,687	110,528	0,063	0,055
-137,672	-104,642	0,106	-0,018
-136,658	-200,000	-0,005	0,024
-135,643	117,784	0,011	0,010
-134,629	439,057	-0,017	-0,027
-133,614	335,643	-0,028	0,039
-132,599	17,061	0,104	0,060
-131,585	-200,000	0,006	0,085
-130,570	-200,000	0,010	0,079
-129,556	241,094	-0,048	-0,059
-128,541	-200,000	0,001	-0,030
-127,526	65,181	-0,026	-0,019
-126,512	196,428	0,113	0,126
-125,497	-200,000	0,000	0,036
-124,483	250,924	0,057	0,070
-123,468	499,355	-0,031	0,053
-122,453	-21,190	-0,085	-0,038
-121,439	-43,935	-0,101	0,037
-120,424	-8,987	-0,057	0,028
-119,410	306,139	-0,062	0,084
