DTS Sentinel unit serial number:	SN410029Multiplexer serial number:	ORYXHardware model number:	OX2-SRSoftware version number:	ORYX F/W v4,00 Oryx Data Collector v3.7.2.0data status	okinstallation	B6 Nyhavnadifferential loss correction	single-endedforward channel	channel 2reverse channel	N/Adate	2023/12/09time	09:05:08forward acquisition time	300,00reverse acquisition time	0,00gamma	499,1914k internal	0,3138k external	0,3138temperature offset calibration	1,0000default loss term (dB/km)	0,3820temperature slope calibration	1,0000multiplexer offset coefficient	1,0000multiplexer slope coefficient	1,0000fibre end	0,00T internal ref (°C)	18,44T ext. ref 1 (°C)	1,97T ext. ref 2 (°C)	1,98length (m)	temperature (°C)	Stokes	anti-Stokes-744,400	-116,079	0,100	0,014
-743,385	-120,002	-0,137	0,017
-742,371	-200,000	0,007	0,228
-741,356	-139,653	-0,219	0,017
-740,342	48,241	0,074	0,051
-739,327	1,046	-0,281	0,149
-738,312	-200,000	-0,004	0,061
-737,298	-180,796	-0,221	-0,003
-736,283	99,895	-0,021	0,018
-735,269	24,154	-0,231	0,141
-734,254	61,793	0,058	0,043
-733,239	-53,490	-0,431	-0,145
-732,225	176,975	0,074	-0,080
-731,210	-200,000	-0,005	-0,036
-730,196	315,302	-0,104	-0,145
-729,181	800,000	-0,043	-0,095
-728,167	-79,710	0,098	0,024
-727,152	85,229	0,068	0,055
-726,137	-103,706	-0,071	-0,012
-725,123	166,416	-0,169	-0,177
-724,108	800,000	-0,071	-0,188
-723,094	-30,626	0,077	-0,032
-722,079	22,555	0,013	-0,008
-721,064	-65,040	-0,043	0,013
-720,050	72,812	0,067	-0,051
-719,035	189,308	-0,095	0,105
-718,021	111,845	-0,116	0,104
-717,006	800,000	-0,043	-0,109
-715,991	-200,000	-0,028	-0,107
-714,977	-113,999	-0,117	0,017
-713,962	77,545	-0,046	-0,036
-712,948	-107,621	-0,049	-0,008
-711,933	-62,414	-0,048	-0,015
-710,918	-179,511	0,076	-0,001
-709,904	61,144	-0,026	-0,019
-708,889	-62,937	-0,107	0,033
-707,875	438,778	0,091	-0,148
-706,860	12,279	0,173	0,098
-705,845	428,555	0,027	-0,044
-704,831	-146,405	-0,165	-0,010
-703,816	-23,097	-0,131	-0,058
-702,802	-15,321	0,028	-0,013
-701,787	170,276	-0,068	-0,072
-700,772	-200,000	0,015	0,060
-699,758	-82,780	0,126	-0,030
-698,743	-101,436	0,064	-0,011
-697,729	609,812	0,026	-0,049
-696,714	127,640	-0,101	0,095
-695,699	-200,000	0,006	-0,095
-694,685	-200,000	0,006	-0,108
-693,670	87,950	0,154	-0,127
-692,656	145,836	-0,058	-0,058
-691,641	125,596	0,094	-0,088
-690,627	-38,178	0,112	0,044
-689,612	-200,000	0,002	0,017
-688,597	225,095	-0,102	-0,122
-687,583	-3,198	-0,084	-0,043
-686,568	-108,943	-0,019	0,003
-685,554	-200,000	-0,003	0,090
-684,539	-200,000	0,017	-0,060
-683,524	-189,222	0,066	-0,001
-682,510	20,285	-0,051	-0,031
-681,495	-17,507	0,014	-0,007
-680,481	-200,000	0,014	0,093
-679,466	-200,000	0,029	-0,203
-678,451	800,000	0,037	0,104
-677,437	-98,329	0,170	0,032
-676,422	115,858	-0,061	-0,056
-675,408	218,931	-0,042	0,050
-674,393	-4,832	-0,074	-0,038
-673,378	-135,690	-0,118	-0,010
-672,364	484,597	0,046	0,077
-671,349	800,000	-0,011	0,025
-670,335	-200,000	0,031	0,162
-669,320	59,656	-0,110	0,080
-668,305	800,000	0,046	0,140
-667,291	-85,828	0,032	0,007
-666,276	486,891	-0,046	0,079
-665,262	-185,948	-0,042	-0,000
-664,247	438,426	-0,010	-0,016
-663,232	-60,100	0,103	-0,032
-662,218	-161,774	0,059	-0,002
-661,203	553,354	-0,041	0,074
-660,189	238,978	-0,031	-0,038
-659,174	322,947	-0,058	-0,081
-658,159	-200,000	-0,031	0,109
-657,145	368,233	-0,024	0,037
-656,130	-200,000	-0,004	0,109
-655,116	165,790	0,030	0,031
-654,101	-135,450	-0,162	0,014
-653,086	20,960	-0,071	0,042
-652,072	94,211	0,045	-0,038
-651,057	-128,010	-0,067	0,007
-650,043	-158,386	-0,080	-0,003
-649,028	560,998	-0,046	0,082
-648,014	-200,000	0,001	0,051
-646,999	189,303	-0,040	0,045
-645,984	800,000	-0,019	-0,054
-644,970	-200,000	-0,039	0,180
-643,955	203,924	-0,116	-0,133
-642,941	29,952	-0,098	-0,061
-641,926	484,310	-0,031	-0,052
-640,911	-200,000	-0,005	0,028
-639,897	-200,000	0,006	0,038
-638,882	67,277	-0,094	-0,071
-637,868	156,306	-0,066	-0,067
-636,853	-200,000	0,012	-0,167
-635,838	19,191	0,069	-0,041
-634,824	125,677	-0,053	0,050
-633,809	-200,000	0,004	-0,087
-632,795	-200,000	-0,003	-0,039
-631,780	-25,006	-0,126	-0,055
-630,765	-28,649	-0,051	0,022
-629,751	-29,941	-0,058	-0,024
-628,736	800,000	-0,004	-0,010
-627,722	-200,000	-0,015	-0,109
-626,707	32,980	-0,114	-0,073
-625,692	41,571	0,110	0,074
-624,678	193,612	-0,033	-0,037
-623,663	800,000	0,014	0,040
-622,649	105,233	-0,064	0,056
-621,634	-200,000	0,004	0,053
-620,619	-108,380	-0,128	-0,020
-619,605	800,000	0,042	0,120
-618,590	614,436	-0,018	0,034
-617,576	800,000	-0,021	0,055
-616,561	351,137	0,015	-0,022
-615,546	75,942	-0,095	-0,074
-614,532	192,763	-0,139	-0,155
-613,517	125,239	0,028	-0,026
-612,503	800,000	0,046	-0,110
-611,488	-14,433	0,163	-0,077
-610,474	-56,832	0,080	-0,026
-609,459	18,155	-0,104	-0,061
-608,444	-57,004	-0,061	-0,020
-607,430	-200,000	-0,019	-0,206
-606,415	-2,638	0,009	-0,005
-605,401	-200,000	0,011	0,049
-604,386	-39,804	0,097	-0,037
-603,371	-200,000	0,007	-0,030
-602,357	240,046	-0,056	-0,069
-601,342	604,578	0,048	-0,088
-600,328	-200,000	0,007	-0,076
-599,313	-200,000	-0,015	-0,143
-598,298	131,847	-0,077	-0,073
-597,284	-200,000	-0,022	-0,093
-596,269	520,353	-0,025	0,043
-595,255	800,000	-0,047	0,096
-594,240	-87,702	-0,066	0,015
-593,225	85,822	0,016	0,013
-592,211	143,034	-0,042	0,041
-591,196	743,483	0,016	-0,033
-590,182	-200,000	-0,005	0,156
-589,167	57,868	0,057	-0,041
-588,152	-175,582	-0,110	0,002
-587,138	800,000	-0,019	-0,044
-586,123	-200,000	0,009	-0,067
-585,109	-200,000	0,010	-0,134
-584,094	-200,000	0,042	-0,227
-583,079	-75,118	-0,061	0,016
-582,065	-116,103	-0,066	0,009
-581,050	800,000	-0,060	-0,141
-580,036	-200,000	-0,012	-0,162
-579,021	800,000	0,015	0,031
-578,006	455,813	-0,050	-0,081
-576,992	-17,621	-0,062	-0,029
-575,977	38,142	0,055	0,036
-574,963	36,679	0,122	0,079
-573,948	-89,595	-0,178	0,038
-572,934	800,000	0,026	0,074
-571,919	-106,858	-0,047	0,008
-570,904	269,001	-0,053	-0,069
-569,890	-200,000	-0,009	-0,101
-568,875	-72,375	-0,074	-0,020
-567,861	-99,917	0,062	0,011
-566,846	-200,000	0,018	-0,087
-565,831	-1,409	0,058	-0,030
-564,817	218,562	-0,029	0,034
-563,802	-83,649	-0,045	0,011
-562,788	-200,000	0,021	0,083
-561,773	220,102	-0,052	-0,062
-560,758	-72,333	-0,085	0,023
-559,744	-126,755	0,123	0,013
-558,729	13,381	0,084	0,048
-557,715	800,000	-0,036	-0,085
-556,700	46,975	-0,044	-0,030
-555,685	89,842	0,080	-0,066
-554,671	-200,000	0,027	-0,102
-553,656	800,000	-0,008	0,019
-552,642	-148,827	0,032	-0,002
-551,627	10,902	0,057	-0,032
-550,612	800,000	-0,043	-0,105
-549,598	800,000	-0,051	-0,115
-548,583	-135,411	0,076	0,007
-547,569	3,047	0,125	-0,067
-546,554	306,299	-0,046	0,063
-545,539	556,859	-0,003	0,005
-544,525	84,784	0,094	0,075
-543,510	800,000	-0,012	-0,034
-542,496	-200,000	0,013	-0,111
-541,481	254,218	-0,110	0,139
-540,466	57,952	0,116	-0,083
-539,452	-90,865	0,034	-0,007
-538,437	294,504	0,048	0,064
-537,423	21,436	-0,027	0,016
-536,408	-200,000	-0,138	-0,000
-535,393	-133,652	-0,050	-0,005
-534,379	-200,000	0,020	0,079
-533,364	4,903	-0,080	-0,043
-532,350	800,000	0,043	0,120
-531,335	-200,000	-0,006	-0,060
-530,321	800,000	0,055	0,118
-529,306	-200,000	-0,005	-0,021
-528,291	800,000	-0,036	0,074
-527,277	-14,240	-0,105	-0,049
-526,262	125,399	0,048	-0,045
-525,248	-200,000	0,021	0,074
-524,233	800,000	0,039	0,099
-523,218	-107,344	0,032	-0,005
-522,204	16,195	-0,023	-0,013
-521,189	800,000	-0,038	-0,084
-520,175	-42,745	-0,110	-0,041
-519,160	-165,424	0,066	-0,002
-518,145	-163,827	0,076	0,003
-517,131	88,178	0,071	0,058
-516,116	-158,296	0,047	-0,002
-515,102	-171,415	-0,121	0,003
-514,087	-200,000	0,011	-0,077
-513,072	153,816	-0,054	-0,054
-512,058	295,701	-0,106	-0,143
-511,043	-200,000	0,006	0,064
-510,029	-0,233	0,115	-0,060
-509,014	-200,000	0,015	0,055
-507,999	800,000	-0,055	0,144
-506,985	142,015	-0,057	0,056
-505,970	122,155	-0,159	-0,146
-504,956	139,903	-0,073	-0,071
-503,941	-128,646	-0,093	0,009
-502,926	-157,201	0,166	-0,007
-501,912	-60,946	-0,107	0,033
-500,897	106,385	0,123	0,107
-499,883	100,805	-0,063	-0,053
-498,868	271,446	0,116	-0,150
-497,853	135,420	0,025	0,024
-496,839	53,962	0,024	0,017
-495,824	-55,363	-0,060	0,020
-494,810	265,922	0,026	-0,034
-493,795	-79,879	0,064	0,016
-492,781	64,649	0,033	-0,024
-491,766	328,405	-0,055	-0,077
-490,751	-200,000	0,014	-0,089
-489,737	200,038	0,044	-0,050
-488,722	800,000	-0,047	0,123
-487,708	765,432	0,033	0,067
-486,693	-142,896	0,131	-0,009
-485,678	294,199	0,104	-0,139
-484,664	-69,357	0,015	-0,004
-483,649	-31,792	-0,054	0,022
-482,635	87,220	0,131	0,106
-481,620	238,356	0,076	-0,093
-480,605	215,848	0,032	-0,037
-479,591	191,233	0,091	0,101
-478,576	301,314	0,034	-0,046
-477,562	-200,000	-0,025	0,000
-476,547	-15,576	-0,004	0,002
-475,532	302,922	-0,092	0,126
-474,518	-65,464	-0,101	0,030
-473,503	57,946	0,062	0,045
-472,489	799,866	0,013	-0,027
-471,474	-103,117	0,014	0,002
-470,459	-168,803	-0,104	-0,003
-469,445	800,000	-0,070	-0,177
-468,430	-177,865	-0,018	0,000
-467,416	-200,000	-0,043	0,146
-466,401	-77,483	-0,023	0,006
-465,386	184,124	-0,052	-0,057
-464,372	-200,000	0,015	0,093
-463,357	800,000	-0,074	0,154
-462,343	439,225	-0,053	-0,086
-461,328	800,000	-0,037	0,089
-460,313	-84,046	0,065	-0,015
-459,299	133,620	-0,076	-0,072
-458,284	681,136	-0,021	-0,041
-457,270	131,377	0,072	0,068
-456,255	181,670	-0,008	-0,009
-455,241	800,000	0,015	-0,033
-454,226	-195,193	0,057	0,000
-453,211	269,815	-0,020	0,025
-452,197	-200,000	0,024	-0,121
-451,182	121,486	-0,088	0,080
-450,168	-200,000	-0,027	0,121
-449,153	-200,000	0,006	0,120
-448,138	-127,751	-0,066	-0,007
-447,124	311,544	-0,065	-0,090
-446,109	-106,014	0,141	0,023
-445,095	800,000	0,034	0,081
-444,080	-200,000	0,022	0,156
-443,065	423,393	0,037	0,058
-442,051	-142,242	0,156	-0,011
-441,036	93,436	-0,073	0,060
-440,022	32,650	-0,080	-0,051
-439,007	284,489	0,032	0,042
-437,992	117,583	0,098	0,089
-436,978	-200,000	0,003	-0,045
-435,963	-200,000	0,035	0,160
-434,949	-200,000	-0,007	0,073
-433,934	256,753	0,073	-0,092
-432,919	-200,000	-0,021	0,091
-431,905	20,151	-0,043	-0,026
-430,890	800,000	0,014	-0,038
-429,876	127,127	0,043	0,040
-428,861	212,276	0,048	-0,056
-427,846	-63,352	-0,133	0,040
-426,832	-147,354	0,071	-0,004
-425,817	-41,437	-0,108	0,040
-424,803	319,387	0,075	-0,105
-423,788	520,637	0,039	0,067
-422,773	-66,164	0,035	0,010
-421,759	217,398	0,054	0,063
-420,744	800,000	-0,006	-0,018
-419,730	800,000	0,018	0,037
-418,715	102,548	-0,113	0,097
-417,701	546,646	-0,037	-0,065
-416,686	196,227	0,044	0,049
-415,671	281,490	0,062	0,082
-414,657	-200,000	-0,010	0,069
-413,642	-200,000	0,032	0,163
-412,628	739,040	-0,029	0,058
-411,613	-10,452	-0,060	0,029
-410,598	800,000	0,025	-0,074
-409,584	378,850	-0,040	0,060
-408,569	-85,363	0,055	0,012
-407,555	248,541	-0,051	0,064
-406,540	800,000	0,022	0,058
-405,525	-59,559	0,102	0,032
-404,511	-147,963	-0,076	-0,005
-403,496	-60,650	-0,025	0,008
-402,482	23,391	-0,048	0,029
-401,467	800,000	0,012	-0,033
-400,452	-29,955	-0,067	0,028
-399,438	705,624	-0,071	0,138
-398,423	-94,645	-0,073	0,014
-397,409	-200,000	-0,034	-0,148
-396,394	-0,286	-0,092	0,048
-395,379	-134,044	0,036	-0,003
-394,365	-200,000	0,010	-0,033
-393,350	-10,879	-0,198	0,095
-392,336	72,585	0,143	0,109
-391,321	-200,000	0,001	-0,093
-390,306	656,237	-0,035	-0,067
-389,292	-115,388	0,143	0,020
-388,277	243,772	0,064	0,079
-387,263	-200,000	0,001	-0,063
-386,248	655,672	-0,018	-0,034
-385,233	72,892	-0,112	0,086
-384,219	-200,000	0,009	0,090
-383,204	-200,000	-0,018	-0,090
-382,190	-200,000	0,016	-0,087
-381,175	445,430	-0,044	0,071
-380,160	-49,300	-0,115	-0,040
-379,146	107,972	0,043	-0,037
-378,131	-13,475	0,146	-0,069
-377,117	85,542	0,077	-0,061
-376,102	800,000	0,027	0,073
-375,088	800,000	0,012	0,033
-374,073	183,507	-0,124	0,134
-373,058	-200,000	-0,012	0,154
-372,044	5,116	0,060	0,032
-371,029	393,591	0,084	0,129
-370,015	197,926	-0,066	-0,074
-369,000	245,151	-0,011	-0,014
-367,985	-70,893	0,039	0,011
-366,971	517,274	0,014	-0,023
-365,956	-9,391	0,066	-0,032
-364,942	800,000	0,036	0,086
-363,927	-200,000	-0,021	0,099
-362,912	-200,000	0,003	0,122
-361,898	-83,542	-0,050	-0,012
-360,883	74,906	0,034	-0,026
-359,869	122,374	-0,062	0,057
-358,854	800,000	-0,047	0,101
-357,839	87,123	0,129	0,104
-356,825	271,383	-0,060	0,078
-355,810	-172,884	0,140	0,003
-354,796	800,000	-0,043	0,090
-353,781	800,000	0,023	0,063
-352,766	-79,304	-0,045	-0,011
-351,752	510,234	-0,031	0,052
-350,737	-200,000	0,003	0,109
-349,723	128,743	0,114	0,106
-348,708	-86,647	-0,060	0,013
-347,693	-70,393	0,062	0,017
-346,679	800,000	0,024	-0,069
-345,664	79,268	-0,084	-0,065
-344,650	116,266	0,136	0,121
-343,635	723,606	-0,025	-0,049
-342,620	70,886	0,161	0,122
-341,606	262,644	-0,068	0,086
-340,591	800,000	-0,041	0,114
-339,577	75,475	0,059	0,046
-338,562	800,000	-0,024	-0,059
-337,548	0,224	-0,091	-0,047
-336,533	-19,102	0,032	0,014
-335,518	459,494	0,075	-0,122
-334,504	-72,873	0,129	0,034
-333,489	475,473	0,039	0,064
-332,475	800,000	-0,038	-0,103
-331,460	576,943	-0,072	-0,130
-330,445	208,100	-0,027	-0,030
-329,431	16,681	-0,103	0,059
-328,416	567,686	-0,087	0,155
-327,402	-180,352	0,081	-0,001
-326,387	27,193	0,099	0,060
-325,372	32,467	0,079	-0,049
-324,358	-8,490	-0,097	0,047
-323,343	-200,000	0,000	-0,026
-322,329	800,000	-0,026	-0,082
-321,314	29,971	0,152	0,095
-320,299	-200,000	0,054	0,177
-319,285	-200,000	-0,023	0,077
-318,270	-200,000	0,019	-0,068
-317,256	19,542	-0,069	-0,040
-316,241	623,791	-0,026	-0,048
-315,226	-200,000	-0,029	-0,114
-314,212	104,745	0,112	-0,096
-313,197	101,935	-0,054	0,046
-312,183	207,567	-0,090	-0,103
-311,168	-115,858	0,069	0,009
-310,153	-166,152	-0,006	0,000
-309,139	239,665	-0,118	0,143
-308,124	21,007	0,138	0,081
-307,110	507,779	0,043	0,073
-306,095	525,175	-0,013	0,022
-305,080	-54,597	-0,084	-0,028
-304,066	402,810	0,074	0,114
-303,051	800,000	-0,042	-0,127
-302,037	-200,000	0,025	-0,097
-301,022	800,000	0,061	-0,158
-300,008	-6,592	0,117	0,058
-298,993	2,996	-0,084	-0,044
-297,978	96,446	0,104	-0,087
-296,964	-200,000	0,010	-0,077
-295,949	-200,000	0,002	-0,049
-294,935	31,477	-0,076	-0,047
-293,920	-200,000	0,005	-0,108
-292,905	800,000	0,025	0,062
-291,891	363,541	0,083	0,122
-290,876	427,147	0,072	-0,113
-289,862	-200,000	0,026	-0,122
-288,847	-200,000	-0,045	-0,171
-287,832	800,000	-0,065	-0,177
-286,818	-200,000	-0,004	-0,063
-285,803	77,575	0,037	0,029
-284,789	-200,000	0,015	0,086
-283,774	-44,045	0,028	0,010
-282,759	100,977	0,100	0,085
-281,745	-112,768	-0,197	-0,028
-280,730	800,000	0,048	-0,115
-279,716	-89,066	0,076	0,016
-278,701	28,185	0,098	0,060
-277,686	685,409	0,082	-0,156
-276,672	80,057	0,051	-0,040
-275,657	67,109	-0,035	0,026
-274,643	102,313	-0,105	-0,089
-273,628	91,698	0,008	-0,007
-272,613	403,562	-0,022	-0,034
-271,599	-200,000	0,011	0,049
-270,584	-200,000	0,010	-0,049
-269,570	-16,597	0,098	-0,045
-268,555	236,946	-0,074	-0,089
-267,540	-114,763	-0,096	0,013
-266,526	-61,060	-0,134	-0,041
-265,511	-156,187	-0,048	-0,002
-264,497	34,398	-0,075	-0,047
-263,482	319,843	0,103	-0,143
-262,467	527,398	0,063	0,109
-261,453	800,000	0,057	0,157
-260,438	800,000	-0,011	-0,031
-259,424	415,262	0,062	-0,096
-258,409	-200,000	-0,027	-0,137
-257,395	-117,254	0,049	0,006
-256,380	-44,946	0,191	0,069
-255,365	-77,773	0,130	0,032
-254,351	26,946	0,061	0,037
-253,336	-200,000	-0,015	0,055
-252,322	127,445	0,015	0,013
-251,307	800,000	-0,051	0,130
-250,292	8,022	0,120	0,065
-249,278	50,643	-0,075	0,051
-248,263	-200,000	0,000	0,029
-247,249	564,902	0,084	0,149
-246,234	15,701	0,127	-0,073
-245,219	-116,188	0,064	-0,009
-244,205	-45,937	-0,152	-0,054
-243,190	27,743	0,055	-0,034
-242,176	92,086	0,057	0,047
-241,161	-200,000	0,017	-0,125
-240,146	800,000	-0,039	0,119
-239,132	7,924	-0,041	-0,022
-238,117	-30,254	-0,063	-0,026
-237,103	510,621	0,052	-0,088
-236,088	-72,956	-0,070	0,019
-235,073	106,870	-0,059	0,051
-234,059	145,667	-0,043	0,042
-233,044	-200,000	-0,004	-0,033
-232,030	-46,257	0,204	0,072
-231,015	89,193	-0,045	-0,036
-230,000	1,062	-0,180	-0,094
-228,986	-57,960	-0,041	-0,013
-227,971	-58,027	0,049	-0,016
-226,957	4,630	0,110	0,059
-225,942	-130,795	0,123	0,012
-224,927	-157,273	-0,055	0,002
-223,913	627,659	-0,005	-0,010
-222,898	-16,962	-0,111	-0,051
-221,884	-200,000	0,002	-0,035
-220,869	-200,000	-0,009	-0,066
-219,855	47,986	0,007	0,005
-218,840	-118,172	-0,174	0,022
-217,825	-200,000	0,001	0,034
-216,811	-165,645	0,080	0,002
-215,796	160,046	0,014	0,014
-214,782	70,091	0,124	-0,093
-213,767	-99,948	-0,113	-0,020
-212,752	189,865	0,130	0,142
-211,738	-83,448	-0,047	0,011
-210,723	99,225	0,030	-0,025
-209,709	120,797	0,034	0,031
-208,694	-149,703	-0,157	0,009
-207,679	800,000	-0,008	-0,016
-206,665	98,014	0,055	0,046
-205,650	92,414	0,057	0,046
-204,636	-31,049	-0,176	0,072
-203,621	-58,033	-0,111	-0,035
-202,606	-86,815	0,110	0,024
-201,592	-97,976	0,043	0,008
-200,577	-200,000	0,018	-0,120
-199,563	-200,000	0,004	0,091
-198,548	98,261	0,058	0,049
-197,533	352,411	0,048	0,070
-196,519	-41,701	-0,091	-0,034
-195,504	73,283	-0,082	0,062
-194,490	-200,000	0,010	0,050
-193,475	332,506	-0,024	-0,033
-192,460	-51,825	-0,100	0,033
-191,446	800,000	0,023	-0,063
-190,431	-200,000	-0,001	-0,039
-189,417	702,559	0,035	-0,066
-188,402	-51,670	-0,017	-0,006
-187,387	152,023	0,069	-0,068
-186,373	-200,000	-0,003	-0,202
-185,358	-200,000	-0,007	-0,048
-184,344	800,000	-0,056	0,128
-183,329	-200,000	0,004	0,060
-182,315	379,573	0,089	0,133
-181,300	-55,159	0,124	0,040
-180,285	387,987	0,106	-0,160
-179,271	-141,158	-0,121	0,009
-178,256	498,119	-0,077	-0,129
-177,242	-197,763	0,029	-0,000
-176,227	-200,000	-0,005	0,043
-175,212	130,707	0,021	0,019
-174,198	296,743	0,086	-0,115
-173,183	4,145	0,034	0,018
-172,169	-150,628	-0,054	-0,003
-171,154	385,930	0,135	0,203
-170,139	-200,000	-0,027	0,151
-169,125	-188,609	0,048	0,000
-168,110	-0,312	0,045	0,023
-167,096	-200,000	-0,005	0,038
-166,081	37,944	-0,013	-0,009
-165,066	-200,000	-0,035	0,137
-164,052	81,831	0,052	-0,041
-163,037	-200,000	0,005	-0,091
-162,023	800,000	-0,018	-0,041
-161,008	-43,217	-0,076	-0,028
-159,993	-200,000	0,004	-0,084
-158,979	-200,000	0,018	-0,064
-157,964	364,983	-0,082	-0,121
-156,950	756,700	0,020	0,040
-155,935	800,000	0,036	0,097
-154,920	800,000	0,041	0,089
-153,906	308,009	-0,060	0,081
-152,891	369,852	0,048	0,071
-151,877	104,499	0,039	-0,033
-150,862	-200,000	-0,024	-0,080
-149,847	800,000	-0,056	-0,115
-148,833	736,394	0,061	-0,118
-147,818	559,991	0,045	0,078
-146,804	-200,000	0,001	-0,012
-145,789	-63,375	-0,134	0,040
-144,775	17,584	0,046	0,026
-143,760	460,823	-0,028	0,045
-142,745	111,255	-0,059	0,051
-141,731	800,000	-0,007	-0,014
-140,716	-200,000	-0,035	0,131
-139,702	800,000	0,013	0,033
-138,687	-27,621	0,105	0,044
-137,672	230,581	0,118	-0,140
-136,658	180,573	-0,072	0,077
-135,643	800,000	0,004	-0,013
-134,629	-200,000	-0,004	-0,071
-133,614	362,845	0,031	-0,045
-132,599	-200,000	-0,007	-0,067
-131,585	70,349	-0,057	0,042
-130,570	-200,000	-0,006	0,124
-129,556	189,667	0,002	-0,002
-128,541	298,824	-0,082	-0,110
-127,526	9,319	0,018	-0,010
-126,512	-200,000	-0,008	0,029
-125,497	-200,000	0,026	0,142
-124,483	435,957	0,043	0,069
-123,468	-130,167	-0,145	-0,014
-122,453	-104,440	0,128	0,021
-121,439	-200,000	0,008	-0,056
-120,424	-154,092	0,036	-0,002
-119,410	-159,692	0,055	0,002
-118,395	-200,000	-0,009	-0,027
