DTS Sentinel unit serial number:	SN410029Multiplexer serial number:	ORYXHardware model number:	OX2-SRSoftware version number:	ORYX F/W v4,00 Oryx Data Collector v3.7.2.0data status	okinstallation	B6 Nyhavnadifferential loss correction	single-endedforward channel	channel 2reverse channel	N/Adate	2023/12/08time	01:00:08forward acquisition time	300,00reverse acquisition time	0,00gamma	499,1914k internal	0,3164k external	0,3164temperature offset calibration	1,0000default loss term (dB/km)	0,3820temperature slope calibration	1,0000multiplexer offset coefficient	1,0000multiplexer slope coefficient	1,0000fibre end	0,00T internal ref (°C)	13,27T ext. ref 1 (°C)	-3,60T ext. ref 2 (°C)	-3,60length (m)	temperature (°C)	Stokes	anti-Stokes-744,400	0,992	0,225	0,118
-743,385	-89,574	-0,310	0,066
-742,371	-152,080	0,115	0,006
-741,356	-113,392	-0,218	0,031
-740,342	96,346	0,137	0,115
-739,327	-34,529	-0,252	-0,101
-738,312	73,456	0,141	0,109
-737,298	-163,520	-0,442	-0,015
-736,283	244,983	0,089	0,110
-735,269	-196,585	-0,363	-0,002
-734,254	142,120	0,136	0,133
-733,239	-90,079	-0,599	-0,127
-732,225	26,461	0,172	0,106
-731,210	355,023	-0,070	0,103
-730,196	-3,779	-0,035	0,018
-729,181	239,466	-0,086	-0,106
-728,167	-200,000	-0,006	-0,252
-727,152	-200,000	0,009	0,060
-726,137	-200,000	-0,006	0,072
-725,123	-200,000	-0,012	-0,050
-724,108	32,537	-0,092	0,059
-723,094	-200,000	0,000	0,043
-722,079	571,633	-0,027	-0,048
-721,064	-108,308	0,163	-0,026
-720,050	-14,346	-0,103	-0,048
-719,035	182,283	-0,071	-0,077
-718,021	-200,000	0,003	-0,106
-717,006	800,000	-0,101	-0,228
-715,991	-200,000	-0,011	0,100
-714,977	800,000	-0,063	0,137
-713,962	65,347	0,093	0,069
-712,948	-119,682	-0,163	0,021
-711,933	-200,000	-0,011	-0,072
-710,918	-10,912	-0,095	0,046
-709,904	800,000	-0,035	-0,091
-708,889	85,870	-0,080	-0,065
-707,875	271,316	0,024	-0,031
-706,860	-138,744	0,130	0,010
-705,845	-17,281	-0,041	-0,019
-704,831	217,349	0,021	0,025
-703,816	97,188	-0,017	0,015
-702,802	-56,956	-0,008	-0,003
-701,787	800,000	0,010	0,033
-700,772	-200,000	-0,032	-0,132
-699,758	-69,617	0,042	-0,012
-698,743	-102,857	-0,057	-0,010
-697,729	-167,778	-0,091	-0,003
-696,714	-200,000	0,035	0,117
-695,699	-129,456	-0,064	-0,006
-694,685	-90,992	-0,074	0,016
-693,670	800,000	0,022	-0,049
-692,656	286,343	-0,049	-0,065
-691,641	-91,451	-0,071	-0,015
-690,627	-144,218	0,185	0,013
-689,612	-74,893	0,045	0,012
-688,597	800,000	0,030	-0,089
-687,583	335,702	-0,134	-0,191
-686,568	800,000	-0,030	-0,071
-685,554	-16,560	-0,151	-0,070
-684,539	378,716	0,023	0,035
-683,524	211,606	-0,056	0,065
-682,510	800,000	-0,036	0,112
-681,495	-200,000	0,003	-0,097
-680,481	-92,444	-0,097	-0,020
-679,466	-28,570	0,089	-0,038
-678,451	-200,000	-0,008	-0,112
-677,437	687,521	-0,024	0,046
-676,422	148,247	0,074	-0,074
-675,408	152,794	-0,077	0,078
-674,393	-148,949	-0,043	0,002
-673,378	800,000	0,016	-0,042
-672,364	-90,943	0,038	-0,008
-671,349	16,097	0,036	-0,021
-670,335	-130,271	0,065	-0,006
-669,320	-182,691	-0,118	0,002
-668,305	-58,617	-0,035	0,011
-667,291	33,254	0,058	-0,037
-666,276	108,557	0,012	-0,011
-665,262	-11,039	0,014	-0,007
-664,247	-27,090	-0,100	-0,043
-663,232	80,502	-0,045	-0,036
-662,218	-200,000	0,016	0,095
-661,203	-0,276	-0,091	-0,047
-660,189	800,000	-0,025	-0,080
-659,174	160,969	-0,052	-0,054
-658,159	-89,890	-0,109	-0,023
-657,145	237,192	0,096	-0,116
-656,130	423,060	-0,038	0,060
-655,116	-200,000	0,002	0,044
-654,101	-0,306	0,160	-0,083
-653,086	353,048	0,048	-0,070
-652,072	-95,181	-0,111	-0,022
-651,057	61,030	-0,164	0,119
-650,043	-200,000	-0,018	-0,125
-649,028	312,272	-0,080	-0,111
-648,014	800,000	0,014	-0,042
-646,999	-200,000	-0,031	-0,149
-645,984	54,669	0,109	-0,077
-644,970	191,945	0,051	-0,057
-643,955	129,557	-0,102	-0,095
-642,941	108,774	-0,056	-0,049
-641,926	-200,000	0,016	-0,064
-640,911	-200,000	-0,006	0,021
-639,897	-24,772	-0,057	-0,025
-638,882	15,512	0,106	-0,061
-637,868	-184,401	-0,214	-0,002
-636,853	800,000	-0,014	-0,039
-635,838	-200,000	0,005	-0,051
-634,824	120,178	-0,054	-0,049
-633,809	-200,000	-0,028	-0,142
-632,795	628,950	0,032	-0,059
-631,780	342,437	0,033	-0,047
-630,765	199,050	-0,032	0,036
-629,751	-200,000	-0,009	0,074
-628,736	-115,024	-0,099	0,014
-627,722	535,684	-0,007	0,012
-626,707	-200,000	0,005	-0,077
-625,692	150,878	0,035	-0,035
-624,678	783,218	0,009	0,018
-623,663	-144,892	0,062	-0,004
-622,649	88,669	-0,122	-0,099
-621,634	-169,860	-0,118	-0,003
-620,619	439,953	-0,067	-0,107
-619,605	-200,000	0,010	-0,119
-618,590	151,394	0,054	0,054
-617,576	229,697	0,071	0,085
-616,561	796,337	-0,064	0,130
-615,546	469,162	0,020	-0,032
-614,532	137,142	-0,078	-0,075
-613,517	-200,000	0,023	-0,080
-612,503	-178,607	0,045	-0,001
-611,488	800,000	0,025	-0,070
-610,474	800,000	-0,010	0,030
-609,459	25,820	-0,056	-0,034
-608,444	-33,853	0,042	-0,017
-607,430	737,809	-0,059	-0,117
-606,415	-122,346	0,073	0,009
-605,401	-159,688	0,112	-0,004
-604,386	101,923	0,070	-0,060
-603,371	800,000	-0,064	-0,143
-602,357	21,230	-0,099	-0,059
-601,342	-200,000	-0,034	0,151
-600,328	86,395	-0,176	-0,142
-599,313	-128,621	0,098	-0,010
-598,298	-101,264	-0,071	-0,013
-597,284	-200,000	0,004	0,052
-596,269	-109,360	0,014	0,002
-595,255	-94,629	-0,061	0,012
-594,240	134,530	0,027	-0,025
-593,225	178,323	0,095	0,102
-592,211	-108,315	-0,115	0,018
-591,196	102,506	0,059	-0,050
-590,182	-67,076	0,087	-0,025
-589,167	-24,453	0,140	-0,061
-588,152	800,000	0,026	0,060
-587,138	-167,596	-0,110	-0,003
-586,123	800,000	-0,038	0,091
-585,109	-51,415	-0,111	0,038
-584,094	-200,000	0,007	-0,104
-583,079	252,166	-0,062	-0,078
-582,065	229,381	0,061	0,072
-581,050	-200,000	-0,041	0,151
-580,036	138,604	-0,061	0,059
-579,021	625,211	0,034	-0,063
-578,006	622,216	-0,087	-0,161
-576,992	135,807	0,055	-0,052
-575,977	800,000	-0,010	-0,030
-574,963	791,543	-0,037	-0,075
-573,948	-86,245	0,073	0,016
-572,934	756,286	0,030	0,060
-571,919	-200,000	0,000	0,021
-570,904	64,962	-0,079	0,058
-569,890	800,000	0,069	-0,157
-568,875	45,764	0,082	-0,056
-567,861	316,685	0,065	0,090
-566,846	119,907	0,131	0,119
-565,831	-13,137	0,076	0,036
-564,817	418,733	-0,019	-0,030
-563,802	-200,000	0,004	-0,050
-562,788	-200,000	-0,008	0,069
-561,773	-200,000	-0,010	-0,067
-560,758	-71,110	0,060	0,016
-559,744	-132,716	-0,074	-0,007
-558,729	413,262	-0,084	-0,131
-557,715	612,684	0,020	-0,036
-556,700	-65,239	-0,151	0,044
-555,685	33,972	-0,039	0,025
-554,671	-128,060	0,106	0,011
-553,656	-111,659	-0,056	0,008
-552,642	307,798	-0,078	0,107
-551,627	222,410	0,072	0,084
-550,612	746,091	0,055	-0,109
-549,598	21,377	-0,106	-0,063
-548,583	181,413	-0,072	-0,078
-547,569	-200,000	-0,006	0,024
-546,554	15,589	0,032	-0,018
-545,539	-200,000	0,013	0,065
-544,525	-164,125	-0,066	-0,002
-543,510	800,000	-0,011	-0,030
-542,496	27,296	-0,064	0,039
-541,481	737,627	0,023	-0,045
-540,466	188,859	0,096	-0,105
-539,452	800,000	-0,041	0,123
-538,437	-45,212	0,184	0,066
-537,423	-37,649	0,029	-0,011
-536,408	156,924	-0,071	0,072
-535,393	-200,000	0,008	0,162
-534,379	282,632	0,075	-0,099
-533,364	-200,000	0,019	-0,088
-532,350	8,979	-0,039	-0,021
-531,335	375,016	0,075	0,112
-530,321	-200,000	-0,026	0,137
-529,306	307,084	-0,066	0,090
-528,291	178,515	-0,088	0,094
-527,277	800,000	-0,054	-0,132
-526,262	-82,328	0,068	0,016
-525,248	-55,895	0,133	-0,043
-524,233	800,000	0,025	0,064
-523,218	270,410	0,078	0,100
-522,204	323,941	-0,096	0,134
-521,189	-200,000	-0,001	-0,012
-520,175	-200,000	0,007	0,028
-519,160	800,000	0,008	-0,023
-518,145	265,138	0,048	0,061
-517,131	-200,000	0,008	0,048
-516,116	22,312	0,070	0,042
-515,102	-154,841	-0,087	0,004
-514,087	-200,000	0,007	0,043
-513,072	800,000	-0,027	-0,059
-512,058	30,380	-0,060	0,038
-511,043	76,767	-0,074	-0,057
-510,029	-200,000	0,005	0,109
-509,014	108,711	-0,060	-0,052
-507,999	343,552	-0,046	0,066
-506,985	-200,000	0,004	0,054
-505,970	-200,000	-0,023	-0,091
-504,956	800,000	-0,031	-0,076
-503,941	-10,622	-0,186	0,090
-502,926	139,302	-0,041	0,039
-501,912	-200,000	0,043	-0,156
-500,897	-130,780	0,078	-0,008
-499,883	312,236	0,041	0,056
-498,868	-200,000	-0,032	-0,166
-497,853	97,091	-0,081	-0,068
-496,839	-58,024	-0,017	-0,005
-495,824	-29,318	-0,024	-0,010
-494,810	304,885	-0,046	-0,062
-493,795	-200,000	0,003	0,066
-492,781	-56,319	-0,082	0,026
-491,766	11,401	-0,061	-0,034
-490,751	800,000	0,036	-0,090
-489,737	-145,201	0,063	0,004
-488,722	800,000	-0,013	-0,042
-487,708	-116,034	0,061	-0,008
-486,693	-200,000	0,013	0,072
-485,678	196,955	0,074	-0,082
-484,664	-126,946	-0,039	0,004
-483,649	-148,468	0,039	-0,002
-482,635	139,592	-0,107	0,103
-481,620	-200,000	-0,005	0,078
-480,605	18,202	0,141	-0,081
-479,591	40,222	-0,095	-0,062
-478,576	-61,102	-0,125	-0,038
-477,562	-200,000	0,013	-0,113
-476,547	5,233	0,019	-0,010
-475,532	148,544	-0,106	-0,104
-474,518	800,000	0,021	0,064
-473,503	18,792	-0,024	0,014
-472,489	-11,934	0,103	-0,049
-471,474	-51,798	-0,088	0,030
-470,459	-48,102	-0,022	0,008
-469,445	-69,246	-0,080	0,022
-468,430	0,274	-0,037	-0,019
-467,416	48,189	-0,097	0,066
-466,401	83,954	0,088	0,070
-465,386	281,094	0,034	0,045
-464,372	-2,986	-0,057	0,029
-463,357	-70,969	-0,044	0,012
-462,343	69,251	0,081	-0,061
-461,328	153,090	-0,017	-0,017
-460,313	-200,000	-0,002	0,108
-459,299	80,632	-0,142	0,111
-458,284	11,209	0,088	0,049
-457,270	-157,570	-0,083	0,004
-456,255	45,342	-0,025	-0,017
-455,241	-153,152	-0,160	-0,008
-454,226	-200,000	0,024	-0,106
-453,211	115,845	0,021	0,019
-452,197	53,093	0,085	0,059
-451,182	-200,000	-0,000	0,018
-450,168	-200,000	-0,013	0,048
-449,153	-108,798	-0,076	-0,012
-448,138	-112,831	0,035	0,005
-447,124	47,803	-0,123	0,083
-446,109	-89,562	-0,074	0,016
-445,095	800,000	-0,050	0,135
-444,080	-18,591	-0,083	0,038
-443,065	140,267	0,116	-0,111
-442,051	-200,000	0,001	0,024
-441,036	-80,056	-0,034	0,008
-440,022	195,128	0,070	0,078
-439,007	-4,005	0,082	0,041
-437,992	-115,295	0,049	0,007
-436,978	-24,137	0,201	0,087
-435,963	227,425	-0,107	0,126
-434,949	800,000	-0,045	-0,102
-433,934	-45,265	0,083	-0,030
-432,919	101,057	-0,088	0,074
-431,905	-120,011	-0,163	0,020
-430,890	-20,050	0,057	-0,025
-429,876	-200,000	0,007	-0,054
-428,861	37,021	0,024	-0,015
-427,846	535,543	-0,060	-0,104
-426,832	74,719	0,071	0,054
-425,817	157,428	0,079	0,080
-424,803	-200,000	-0,009	0,117
-423,788	-116,723	0,118	-0,016
-422,773	-200,000	-0,003	-0,063
-421,759	449,639	0,107	0,172
-420,744	-200,000	-0,015	-0,063
-419,730	800,000	0,026	-0,053
-418,715	-200,000	0,029	-0,136
-417,701	683,469	-0,030	0,057
-416,686	20,407	-0,051	-0,030
-415,671	50,860	0,052	0,036
-414,657	-96,522	0,135	-0,026
-413,642	115,444	-0,082	0,073
-412,628	56,871	-0,122	0,086
-411,613	79,826	-0,098	-0,077
-410,598	-5,988	-0,113	-0,056
-409,584	-88,327	0,075	-0,016
-408,569	-200,000	-0,027	-0,099
-407,555	-56,821	-0,154	0,049
-406,540	-45,318	0,045	0,016
-405,525	66,306	0,001	0,001
-404,511	-41,643	-0,067	-0,025
-403,496	800,000	-0,046	-0,140
-402,482	800,000	0,041	-0,103
-401,467	-200,000	0,011	0,128
-400,452	24,328	-0,023	0,014
-399,438	800,000	0,034	0,089
-398,423	540,415	-0,029	-0,050
-397,409	800,000	-0,015	-0,040
-396,394	-200,000	0,019	-0,067
-395,379	800,000	0,041	-0,085
-394,365	-103,108	0,152	0,026
-393,350	37,978	-0,108	0,069
-392,336	-41,888	0,089	0,033
-391,321	-106,037	0,075	-0,012
-390,306	246,592	-0,017	-0,021
-389,292	800,000	-0,025	0,053
-388,277	712,936	0,024	-0,047
-387,263	-200,000	0,004	0,082
-386,248	11,695	0,177	0,098
-385,233	295,931	0,043	-0,057
-384,219	39,650	0,034	-0,022
-383,204	479,391	-0,033	-0,055
-382,190	56,223	-0,045	0,032
-381,175	-141,594	0,096	0,007
-380,160	206,075	0,129	0,146
-379,146	-82,219	-0,132	0,031
-378,131	-200,000	0,027	0,095
-377,117	170,664	-0,045	0,047
-376,102	58,316	0,120	-0,086
-375,088	236,734	-0,117	-0,140
-374,073	384,962	0,096	-0,144
-373,058	-200,000	-0,008	-0,054
-372,044	182,982	-0,053	0,057
-371,029	171,135	0,131	0,137
-370,015	571,510	-0,081	0,144
-369,000	-200,000	0,031	0,145
-367,985	606,234	-0,037	-0,067
-366,971	800,000	-0,035	-0,092
-365,956	-92,899	0,073	0,015
-364,942	122,321	-0,047	-0,042
-363,927	-83,933	0,191	0,044
-362,912	344,172	-0,053	0,075
-361,898	800,000	-0,011	-0,030
-360,883	6,332	-0,089	0,048
-359,869	187,636	0,104	-0,112
-358,854	-200,000	0,024	0,085
-357,839	-163,176	-0,063	0,002
-356,825	-66,048	0,120	0,035
-355,810	-50,245	0,058	-0,020
-354,796	91,631	-0,092	0,075
-353,781	-109,534	-0,065	-0,010
-352,766	466,594	-0,062	-0,101
-351,752	298,594	0,106	-0,141
-350,737	15,309	0,129	0,073
-349,723	23,069	-0,021	-0,013
-348,708	394,280	-0,044	0,067
-347,693	-98,360	-0,128	-0,024
-346,679	732,372	0,047	-0,091
-345,664	60,146	0,083	-0,059
-344,650	800,000	0,002	0,005
-343,635	-200,000	-0,009	0,098
-342,620	504,025	0,031	-0,052
-341,606	-200,000	-0,006	0,035
-340,591	-200,000	-0,007	0,138
-339,577	-200,000	0,024	-0,126
-338,562	-100,525	-0,074	0,013
-337,548	318,307	0,024	-0,032
-336,533	228,493	0,016	0,019
-335,518	800,000	-0,002	-0,006
-334,504	-200,000	0,019	0,147
-333,489	800,000	0,018	-0,053
-332,475	-105,292	0,100	-0,016
-331,460	-83,652	-0,062	-0,014
-330,445	125,363	-0,061	-0,055
-329,431	147,390	-0,043	0,042
-328,416	-84,178	0,102	0,023
-327,402	39,277	0,095	0,062
-326,387	-200,000	0,009	0,054
-325,372	-200,000	0,014	-0,093
-324,358	-41,073	0,023	-0,009
-323,343	-200,000	-0,001	0,006
-322,329	636,313	0,050	0,093
-321,314	55,052	0,127	0,089
-320,299	32,725	0,072	-0,045
-319,285	30,159	0,030	-0,019
-318,270	100,382	-0,061	-0,051
-317,256	293,624	0,037	0,048
-316,241	-200,000	0,007	-0,088
-315,226	387,980	0,053	-0,079
-314,212	-200,000	0,026	0,114
-313,197	-200,000	0,020	0,132
-312,183	-77,493	0,116	-0,029
-311,168	269,103	-0,050	0,064
-310,153	41,018	-0,068	0,044
-309,139	-200,000	-0,033	0,111
-308,124	405,241	0,065	0,099
-307,110	18,135	-0,041	-0,024
-306,095	-154,001	0,112	0,005
-305,080	800,000	-0,045	0,140
-304,066	-1,524	-0,031	0,016
-303,051	-200,000	0,004	-0,081
-302,037	-64,961	-0,087	0,025
-301,022	-200,000	-0,013	-0,083
-300,008	14,316	0,116	-0,065
-298,993	-22,040	0,088	-0,038
-297,978	-93,392	0,034	-0,007
-296,964	-200,000	0,003	0,071
-295,949	385,185	-0,036	-0,054
-294,935	-200,000	-0,026	-0,089
-293,920	47,662	0,132	0,089
-292,905	67,632	0,081	0,060
-291,891	-200,000	-0,002	-0,016
-290,876	34,248	0,050	-0,032
-289,862	-35,709	0,047	0,018
-288,847	-119,459	-0,054	-0,007
-287,832	-200,000	-0,012	0,177
-286,818	-200,000	0,011	0,141
-285,803	-104,545	0,016	-0,003
-284,789	534,917	-0,058	0,101
-283,774	129,781	0,061	-0,056
-282,759	69,138	-0,067	0,050
-281,745	397,797	-0,050	-0,076
-280,730	-200,000	-0,040	0,166
-279,716	515,879	-0,077	-0,131
-278,701	92,056	0,094	-0,077
-277,686	-60,123	-0,036	-0,011
-276,672	800,000	0,056	0,124
-275,657	-200,000	-0,020	0,093
-274,643	-114,978	-0,106	0,014
-273,628	-118,688	-0,119	-0,015
-272,613	-74,977	0,037	0,009
-271,599	-84,118	0,104	-0,024
-270,584	-109,132	0,115	-0,017
-269,570	-41,104	0,084	0,031
-268,555	800,000	-0,030	0,074
-267,540	-39,182	-0,092	0,035
-266,526	-200,000	-0,005	-0,119
-265,511	8,357	-0,050	-0,027
-264,497	163,245	-0,071	-0,072
-263,482	107,516	-0,062	0,053
-262,467	168,137	-0,050	-0,052
-261,453	-121,021	-0,022	0,003
-260,438	-163,150	-0,152	0,005
-259,424	188,356	0,045	-0,048
-258,409	58,408	-0,096	-0,068
-257,395	89,449	0,104	-0,083
-256,380	566,167	-0,073	0,128
-255,365	737,071	0,027	-0,053
-254,351	238,360	0,061	-0,073
-253,336	206,947	-0,106	0,120
-252,322	800,000	-0,033	-0,099
-251,307	-92,957	-0,129	-0,026
-250,292	311,372	0,080	-0,108
-249,278	125,638	-0,007	-0,006
-248,263	586,717	-0,059	0,106
-247,249	-66,405	0,124	-0,035
-246,234	180,246	-0,024	-0,026
-245,219	27,539	0,082	0,050
-244,205	401,296	-0,036	-0,054
-243,190	-200,000	-0,012	-0,090
-242,176	25,056	0,183	0,109
-241,161	-112,598	-0,103	0,015
-240,146	-200,000	0,017	-0,067
-239,132	-200,000	0,006	-0,036
-238,117	-88,179	-0,240	0,051
-237,103	422,708	0,057	-0,089
-236,088	-107,816	0,046	0,007
-235,073	430,404	0,066	0,103
-234,059	206,032	0,085	0,096
-233,044	471,429	-0,020	0,033
-232,030	-6,995	0,154	-0,075
-231,015	-200,000	-0,036	-0,123
-230,000	-40,531	0,028	0,010
-228,986	800,000	0,031	0,095
-227,971	800,000	0,092	0,203
-226,957	-113,227	0,121	-0,017
-225,942	-81,328	0,179	0,042
-224,927	737,803	-0,021	0,040
-223,913	-70,361	-0,018	-0,005
-222,898	800,000	-0,015	-0,047
-221,884	-200,000	-0,008	-0,105
-220,869	472,576	0,064	0,104
-219,855	351,807	-0,073	-0,104
-218,840	59,897	0,046	0,033
-217,825	185,504	-0,086	0,092
-216,811	800,000	0,027	0,069
-215,796	-47,280	-0,173	-0,060
-214,782	30,475	0,067	0,041
-213,767	47,759	-0,050	-0,033
-212,752	-26,312	0,081	0,034
-211,738	120,454	0,034	-0,031
-210,723	-179,739	-0,063	-0,001
-209,709	93,367	0,034	0,028
-208,694	800,000	0,027	-0,079
-207,679	-200,000	0,018	-0,174
-206,665	-200,000	-0,011	-0,091
-205,650	-131,867	0,102	0,009
-204,636	-62,368	0,079	0,024
-203,621	-5,085	0,058	0,029
-202,606	-176,065	0,065	0,001
-201,592	800,000	-0,054	0,126
-200,577	-148,884	-0,203	-0,012
-199,563	-200,000	0,002	0,061
-198,548	793,805	-0,056	-0,112
-197,533	-106,052	0,093	0,015
-196,519	800,000	-0,015	0,031
-195,504	229,206	0,091	-0,107
-194,490	-200,000	0,048	0,197
-193,475	-200,000	0,020	0,000
-192,460	-83,795	0,139	-0,032
-191,446	129,943	-0,040	0,036
-190,431	71,775	-0,038	0,028
-189,417	414,893	-0,037	0,057
-188,402	13,571	-0,052	-0,029
-187,387	49,318	-0,146	-0,099
-186,373	80,785	-0,111	-0,086
-185,358	11,302	0,049	0,027
-184,344	-200,000	0,008	0,042
-183,329	189,434	-0,033	-0,035
-182,315	57,325	-0,016	-0,011
-181,300	270,596	-0,013	0,016
-180,285	173,233	-0,051	-0,053
-179,271	-34,040	-0,031	0,012
-178,256	-169,676	0,085	0,002
-177,242	800,000	0,057	0,151
-176,227	-15,281	0,029	0,013
-175,212	29,819	-0,122	-0,074
-174,198	-200,000	0,008	-0,096
-173,183	-134,912	0,031	0,003
-172,169	-130,274	0,065	-0,006
-171,154	153,185	-0,042	0,041
-170,139	-121,423	0,100	0,012
-169,125	800,000	-0,022	0,046
-168,110	-200,000	0,020	-0,114
-167,096	-87,465	0,023	0,005
-166,081	800,000	0,039	0,087
-165,066	16,442	-0,077	0,044
-164,052	-72,153	-0,031	0,008
-163,037	597,895	-0,047	-0,084
-162,023	-66,120	0,050	0,014
-161,008	-105,875	0,050	0,008
-159,993	-200,000	-0,013	-0,077
-158,979	800,000	-0,018	0,047
-157,964	160,992	-0,070	0,071
-156,950	233,182	-0,031	-0,036
-155,935	-115,189	-0,112	-0,015
-154,920	-164,840	0,164	-0,005
-153,906	800,000	0,024	-0,058
-152,891	111,712	0,072	-0,062
-151,877	90,288	0,041	0,033
-150,862	-144,728	-0,154	0,010
-149,847	-200,000	-0,009	0,132
-148,833	-200,000	-0,011	-0,038
-147,818	-200,000	-0,006	0,025
-146,804	800,000	0,073	0,223
-145,789	16,915	-0,072	-0,041
-144,775	-1,937	-0,124	-0,062
-143,760	-200,000	0,013	-0,095
-142,745	35,028	0,071	0,044
-141,731	-105,345	-0,052	-0,008
-140,716	-190,462	-0,015	-0,000
-139,702	193,395	-0,035	0,038
-138,687	220,149	-0,083	0,095
-137,672	-52,941	0,102	0,034
-136,658	-200,000	-0,005	-0,050
-135,643	85,338	0,081	-0,064
-134,629	59,608	-0,082	0,058
-133,614	11,215	0,082	-0,045
-132,599	0,900	0,179	0,092
-131,585	-133,958	-0,106	0,009
-130,570	-99,422	-0,013	0,002
-129,556	41,520	-0,038	0,025
-128,541	-40,752	0,062	-0,023
-127,526	258,240	-0,003	0,004
-126,512	64,648	0,147	-0,106
-125,497	-142,898	0,138	-0,009
-124,483	-60,981	-0,084	0,025
-123,468	-200,000	0,001	-0,075
-122,453	-25,853	-0,126	-0,053
-121,439	-122,903	-0,097	-0,011
-120,424	287,852	-0,050	0,065
-119,410	-200,000	0,011	-0,089
