DTS Sentinel unit serial number:	SN410029Multiplexer serial number:	ORYXHardware model number:	OX2-SRSoftware version number:	ORYX F/W v4,00 Oryx Data Collector v3.7.2.0data status	okinstallation	B6 Nyhavnadifferential loss correction	single-endedforward channel	channel 2reverse channel	N/Adate	2023/12/07time	10:35:08forward acquisition time	300,00reverse acquisition time	0,00gamma	499,1914k internal	0,3203k external	0,3203temperature offset calibration	1,0000default loss term (dB/km)	0,3820temperature slope calibration	1,0000multiplexer offset coefficient	1,0000multiplexer slope coefficient	1,0000fibre end	0,00T internal ref (°C)	7,07T ext. ref 1 (°C)	-7,02T ext. ref 2 (°C)	-7,08length (m)	temperature (°C)	Stokes	anti-Stokes-744,400	-27,409	0,135	0,057
-743,385	-67,957	-0,360	-0,101
-742,371	-58,799	0,191	0,060
-741,356	27,274	-0,310	-0,189
-740,342	-200,000	0,047	0,172
-739,327	-1,069	-0,323	-0,166
-738,312	-79,004	0,086	-0,021
-737,298	-35,739	-0,370	-0,145
-736,283	-164,650	0,198	0,006
-735,269	-81,667	-0,365	-0,086
-734,254	79,428	0,167	0,130
-733,239	13,160	-0,499	-0,280
-732,225	38,798	0,256	0,166
-731,210	50,254	0,092	0,063
-730,196	-200,000	0,011	0,132
-729,181	168,187	-0,046	0,047
-728,167	24,557	0,071	-0,042
-727,152	98,007	-0,022	0,019
-726,137	-55,790	-0,098	0,032
-725,123	688,715	-0,052	-0,100
-724,108	57,917	-0,099	-0,070
-723,094	-200,000	0,029	-0,102
-722,079	-129,694	-0,122	-0,012
-721,064	800,000	0,031	-0,074
-720,050	-200,000	-0,001	-0,122
-719,035	800,000	0,049	-0,103
-718,021	357,189	-0,055	0,080
-717,006	27,085	-0,149	-0,091
-715,991	-200,000	-0,006	-0,076
-714,977	-200,000	0,014	-0,069
-713,962	800,000	0,036	-0,101
-712,948	-104,926	0,093	0,015
-711,933	-0,674	-0,015	0,008
-710,918	29,919	0,026	0,016
-709,904	400,843	0,045	0,068
-708,889	461,379	-0,042	-0,068
-707,875	-165,523	-0,015	0,000
-706,860	-84,111	0,145	0,033
-705,845	-33,555	-0,088	-0,035
-704,831	-200,000	-0,009	-0,044
-703,816	-23,023	-0,105	0,046
-702,802	555,407	0,051	-0,090
-701,787	7,191	0,056	-0,030
-700,772	88,766	0,054	0,043
-699,758	144,891	-0,069	-0,067
-698,743	-75,768	0,026	-0,007
-697,729	800,000	-0,020	-0,050
-696,714	-200,000	-0,026	0,082
-695,699	-200,000	0,023	-0,099
-694,685	-200,000	-0,008	-0,042
-693,670	316,243	-0,022	0,030
-692,656	-200,000	-0,011	-0,055
-691,641	-90,903	0,135	-0,028
-690,627	256,572	0,038	-0,047
-689,612	-200,000	0,019	0,196
-688,597	800,000	0,045	0,109
-687,583	111,825	-0,079	0,069
-686,568	-23,894	-0,097	-0,042
-685,554	198,459	0,030	-0,033
-684,539	-8,640	0,170	0,082
-683,524	455,691	-0,070	-0,113
-682,510	-12,150	0,071	0,034
-681,495	-200,000	0,005	-0,070
-680,481	29,331	0,093	-0,057
-679,466	-48,590	-0,175	0,061
-678,451	748,000	-0,041	0,081
-677,437	-98,873	0,169	0,031
-676,422	-146,621	0,006	0,000
-675,408	-200,000	0,044	-0,145
-674,393	58,900	0,177	-0,126
-673,378	-177,538	-0,161	-0,003
-672,364	769,452	-0,033	-0,066
-671,349	-200,000	0,005	-0,092
-670,335	-157,323	0,064	-0,003
-669,320	89,633	0,123	0,100
-668,305	-31,362	0,138	-0,056
-667,291	-200,000	-0,009	0,093
-666,276	474,292	0,031	0,050
-665,262	304,643	-0,059	-0,079
-664,247	-6,449	0,053	-0,026
-663,232	-31,234	-0,138	0,056
-662,218	-36,724	0,067	0,026
-661,203	342,798	0,062	0,088
-660,189	800,000	-0,042	0,121
-659,174	25,625	-0,062	0,038
-658,159	-200,000	-0,020	0,092
-657,145	374,910	-0,002	0,003
-656,130	-113,308	0,127	-0,018
-655,116	-200,000	0,022	0,136
-654,101	20,785	-0,100	0,058
-653,086	-165,650	-0,087	-0,003
-652,072	800,000	-0,012	0,034
-651,057	69,290	-0,132	-0,098
-650,043	188,846	-0,020	-0,021
-649,028	-200,000	0,006	0,108
-648,014	800,000	0,035	-0,075
-646,999	-27,528	0,108	-0,045
-645,984	-200,000	0,007	-0,047
-644,970	307,999	-0,062	0,084
-643,955	237,478	0,025	0,030
-642,941	-200,000	0,003	-0,057
-641,926	-96,616	-0,158	-0,030
-640,911	-90,237	0,097	-0,020
-639,897	-200,000	0,006	0,050
-638,882	-55,775	-0,114	0,037
-637,868	44,751	0,140	-0,093
-636,853	-163,488	-0,084	0,003
-635,838	-200,000	0,004	0,053
-634,824	37,617	-0,052	0,033
-633,809	-157,603	-0,088	0,004
-632,795	158,107	-0,039	0,039
-631,780	800,000	-0,012	-0,036
-630,765	73,280	0,050	0,038
-629,751	-22,446	0,074	0,032
-628,736	102,487	-0,055	-0,047
-627,722	-126,854	0,081	-0,009
-626,707	-107,990	0,104	-0,016
-625,692	-91,213	-0,135	0,028
-624,678	135,942	0,053	0,050
-623,663	263,910	-0,069	-0,087
-622,649	800,000	0,031	-0,073
-621,634	63,417	0,162	-0,117
-620,619	-48,326	-0,104	-0,036
-619,605	97,501	0,134	0,111
-618,590	-51,615	-0,196	-0,066
-617,576	70,137	0,061	0,045
-616,561	-13,346	0,143	0,067
-615,546	82,688	-0,052	-0,041
-614,532	138,770	-0,037	-0,035
-613,517	-135,901	-0,051	0,004
-612,503	75,726	-0,136	0,104
-611,488	-182,441	-0,069	-0,001
-610,474	182,201	0,075	-0,080
-609,459	-28,396	0,020	0,008
-608,444	1,757	-0,081	-0,042
-607,430	800,000	-0,047	-0,143
-606,415	68,729	-0,048	-0,036
-605,401	119,753	-0,075	-0,067
-604,386	130,254	0,015	-0,014
-603,371	92,394	-0,069	0,057
-602,357	-200,000	0,073	0,000
-601,342	242,869	-0,103	0,125
-600,328	-200,000	-0,029	-0,095
-599,313	-200,000	0,008	0,089
-598,298	-10,337	0,096	0,046
-597,284	20,918	0,149	0,087
-596,269	106,796	-0,024	-0,021
-595,255	-200,000	0,016	0,132
-594,240	14,198	0,039	0,022
-593,225	-51,203	-0,157	0,053
-592,211	-140,375	0,102	0,008
-591,196	507,111	-0,034	0,057
-590,182	-44,066	0,145	0,052
-589,167	-75,282	-0,167	0,043
-588,152	84,246	0,081	0,064
-587,138	-200,000	-0,013	0,097
-586,123	17,249	0,066	-0,038
-585,109	-44,262	-0,180	-0,065
-584,094	229,411	-0,024	-0,028
-583,079	51,547	0,110	0,075
-582,065	424,338	-0,005	0,008
-581,050	5,864	-0,044	0,023
-580,036	43,168	0,110	0,072
-579,021	-88,474	-0,099	0,021
-578,006	548,400	-0,086	-0,149
-576,992	-48,151	-0,073	0,025
-575,977	-55,834	0,141	-0,045
-574,963	-200,000	0,004	-0,152
-573,948	99,258	-0,126	0,105
-572,934	441,944	-0,043	0,067
-571,919	147,950	0,072	0,070
-570,904	-16,967	-0,131	0,060
-569,890	-200,000	-0,042	-0,177
-568,875	800,000	-0,040	0,093
-567,861	-51,610	-0,092	0,031
-566,846	-200,000	0,011	0,170
-565,831	-135,237	-0,136	-0,012
-564,817	34,875	-0,047	-0,030
-563,802	25,794	0,075	-0,045
-562,788	800,000	0,035	-0,070
-561,773	153,364	-0,062	0,061
-560,758	-200,000	0,025	-0,132
-559,744	800,000	0,007	-0,017
-558,729	-156,613	0,065	-0,003
-557,715	-200,000	0,014	-0,059
-556,700	-143,538	-0,029	-0,002
-555,685	189,004	-0,090	-0,097
-554,671	29,179	-0,030	-0,018
-553,656	63,757	0,085	0,062
-552,642	800,000	0,008	0,022
-551,627	195,513	-0,087	0,095
-550,612	43,565	-0,074	0,049
-549,598	-154,851	-0,065	0,003
-548,583	-200,000	-0,006	-0,079
-547,569	800,000	0,027	0,071
-546,554	-200,000	-0,023	-0,075
-545,539	306,703	-0,011	0,014
-544,525	-200,000	-0,004	-0,019
-543,510	-67,998	-0,158	-0,044
-542,496	525,495	0,058	0,099
-541,481	-23,323	0,062	-0,027
-540,466	-200,000	-0,016	-0,112
-539,452	-200,000	0,003	-0,092
-538,437	-71,453	0,051	-0,014
-537,423	-130,675	0,138	-0,013
-536,408	800,000	-0,051	0,115
-535,393	-22,293	-0,193	-0,084
-534,379	14,843	-0,115	0,064
-533,364	215,230	-0,012	0,014
-532,350	216,083	0,061	-0,070
-531,335	-145,822	0,173	-0,011
-530,321	-109,486	0,016	-0,002
-529,306	800,000	-0,028	0,078
-528,291	-200,000	-0,001	0,005
-527,277	-79,453	-0,153	-0,037
-526,262	-200,000	0,020	-0,113
-525,248	53,504	-0,035	0,024
-524,233	79,633	-0,054	0,042
-523,218	148,178	0,089	0,086
-522,204	83,312	-0,058	0,045
-521,189	-119,433	0,101	0,013
-520,175	-115,850	0,103	-0,014
-519,160	-98,429	0,123	-0,022
-518,145	800,000	-0,051	0,146
-517,131	73,072	-0,020	0,015
-516,116	467,652	-0,024	0,039
-515,102	301,774	0,093	0,124
-514,087	785,219	0,099	-0,196
-513,072	94,118	-0,163	-0,133
-512,058	-200,000	-0,003	0,046
-511,043	107,444	0,051	-0,044
-510,029	-200,000	0,034	0,127
-509,014	-70,121	-0,101	0,027
-507,999	800,000	-0,009	0,026
-506,985	271,313	0,025	-0,032
-505,970	800,000	-0,020	0,053
-504,956	223,702	-0,033	0,039
-503,941	-105,638	-0,045	0,007
-502,926	20,775	0,066	-0,039
-501,912	82,527	0,037	-0,029
-500,897	23,492	0,048	0,028
-499,883	800,000	0,059	-0,120
-498,868	-200,000	0,009	-0,058
-497,853	-148,048	-0,093	0,005
-496,839	-144,666	-0,179	0,012
-495,824	-36,380	0,053	0,020
-494,810	800,000	0,060	-0,150
-493,795	42,386	-0,069	-0,045
-492,781	-15,950	0,124	-0,057
-491,766	800,000	-0,016	-0,039
-490,751	179,746	0,116	-0,122
-489,737	-22,178	-0,053	0,023
-488,722	-178,723	0,048	0,001
-487,708	800,000	-0,019	-0,053
-486,693	62,753	-0,017	0,012
-485,678	708,197	-0,034	-0,065
-484,664	177,208	0,081	-0,085
-483,649	0,393	0,064	-0,033
-482,635	399,154	-0,044	-0,066
-481,620	267,508	-0,104	0,132
-480,605	20,968	0,078	0,045
-479,591	-36,096	0,120	-0,046
-478,576	-150,905	-0,172	0,009
-477,562	112,074	-0,089	-0,077
-476,547	-149,472	-0,046	-0,003
-475,532	602,660	-0,043	-0,076
-474,518	-160,919	0,195	0,007
-473,503	800,000	-0,040	0,091
-472,489	800,000	0,042	0,131
-471,474	-200,000	0,001	0,068
-470,459	406,854	0,057	0,087
-469,445	110,426	0,021	0,018
-468,430	800,000	0,016	-0,033
-467,416	-47,561	0,025	-0,009
-466,401	10,177	0,077	0,042
-465,386	181,136	0,065	-0,069
-464,372	174,748	0,022	-0,023
-463,357	-104,640	0,057	-0,009
-462,343	227,666	-0,105	0,123
-461,328	611,155	-0,030	0,055
-460,313	-150,466	0,165	-0,009
-459,299	-27,552	0,071	0,030
-458,284	-78,539	0,035	0,009
-457,270	-200,000	-0,027	0,116
-456,255	44,248	-0,065	-0,043
-455,241	800,000	0,018	-0,043
-454,226	137,127	-0,048	-0,045
-453,211	143,351	-0,044	-0,042
-452,197	-118,647	0,110	-0,014
-451,182	-3,766	0,059	0,029
-450,168	800,000	0,061	0,124
-449,153	-200,000	-0,017	-0,173
-448,138	-74,284	-0,179	-0,046
-447,124	800,000	-0,042	-0,092
-446,109	325,004	-0,035	0,049
-445,095	393,621	0,014	-0,020
-444,080	50,490	0,128	-0,087
-443,065	-200,000	-0,010	0,070
-442,051	-200,000	-0,001	-0,078
-441,036	800,000	0,040	-0,121
-440,022	-135,962	-0,127	0,011
-439,007	263,177	-0,047	0,059
-437,992	-200,000	-0,003	0,145
-436,978	800,000	-0,013	-0,027
-435,963	167,807	0,022	-0,022
-434,949	72,542	0,091	0,068
-433,934	-164,241	0,101	0,003
-432,919	55,340	0,099	-0,069
-431,905	358,911	-0,028	-0,040
-430,890	-200,000	-0,012	-0,090
-429,876	112,751	0,057	0,050
-428,861	-59,246	-0,202	0,062
-427,846	-94,481	0,076	-0,015
-426,832	281,912	-0,106	-0,137
-425,817	212,822	0,071	-0,080
-424,803	237,643	-0,028	-0,033
-423,788	-40,058	0,103	-0,038
-422,773	281,525	-0,108	0,139
-421,759	142,187	-0,077	0,073
-420,744	-159,349	-0,070	0,003
-419,730	-200,000	0,007	-0,060
-418,715	800,000	-0,019	-0,057
-417,701	203,810	-0,197	0,219
-416,686	-53,497	0,027	0,009
-415,671	-33,030	0,165	-0,066
-414,657	90,954	0,025	-0,020
-413,642	-52,744	-0,060	-0,020
-412,628	348,009	-0,012	-0,017
-411,613	82,693	-0,057	-0,044
-410,598	5,390	-0,091	-0,048
-409,584	-200,000	0,008	-0,046
-408,569	-51,885	0,077	-0,026
-407,555	-39,228	0,097	0,036
-406,540	335,748	-0,036	-0,051
-405,525	800,000	-0,038	0,091
-404,511	-200,000	-0,022	-0,104
-403,496	800,000	0,022	0,068
-402,482	-200,000	-0,002	0,071
-401,467	-135,139	0,175	0,015
-400,452	-74,321	-0,036	-0,009
-399,438	-51,772	0,053	0,018
-398,423	-34,924	-0,023	-0,009
-397,409	78,084	-0,142	-0,108
-396,394	-200,000	0,020	-0,166
-395,379	93,767	-0,162	0,131
-394,365	-101,244	0,073	-0,013
-393,350	240,009	0,088	0,105
-392,336	81,061	-0,057	0,044
-391,321	177,151	-0,093	0,097
-390,306	67,655	0,013	0,010
-389,292	138,493	-0,060	-0,057
-388,277	800,000	0,017	0,042
-387,263	800,000	0,031	0,092
-386,248	800,000	-0,060	0,135
-385,233	-63,874	0,073	0,021
-384,219	190,592	-0,053	0,058
-383,204	-200,000	-0,002	-0,054
-382,190	265,750	0,032	0,040
-381,175	268,209	-0,013	-0,016
-380,160	-36,663	0,083	0,032
-379,146	121,601	0,082	0,073
-378,131	-2,813	0,057	0,029
-377,117	-200,000	0,011	0,077
-376,102	282,851	-0,048	0,062
-375,088	323,436	-0,027	0,037
-374,073	-19,615	-0,074	0,032
-373,058	81,919	-0,058	-0,045
-372,044	-200,000	-0,011	0,127
-371,029	43,318	0,113	-0,074
-370,015	-34,973	0,196	-0,076
-369,000	62,747	-0,043	-0,031
-367,985	-108,185	0,052	0,008
-366,971	429,270	0,010	-0,015
-365,956	-86,294	0,102	-0,022
-364,942	690,081	0,052	0,099
-363,927	-200,000	-0,003	-0,060
-362,912	69,741	0,056	0,042
-361,898	-66,013	-0,074	-0,021
-360,883	800,000	0,030	-0,068
-359,869	167,382	0,039	0,039
-358,854	-200,000	-0,022	-0,113
-357,839	-200,000	0,029	0,103
-356,825	-200,000	0,002	0,010
-355,810	-27,367	-0,061	0,025
-354,796	-45,375	-0,148	-0,052
-353,781	-200,000	0,002	-0,058
-352,766	-200,000	0,010	-0,113
-351,752	-59,300	-0,132	-0,041
-350,737	-200,000	-0,015	-0,066
-349,723	-111,361	-0,053	-0,008
-348,708	-200,000	-0,042	0,147
-347,693	-119,921	0,110	0,013
-346,679	-124,056	-0,068	-0,008
-345,664	223,594	0,048	-0,055
-344,650	-200,000	0,024	-0,095
-343,635	800,000	0,041	0,087
-342,620	178,428	0,145	0,152
-341,606	-200,000	0,006	0,078
-340,591	158,912	-0,160	0,160
-339,577	800,000	-0,043	-0,099
-338,562	-200,000	-0,028	-0,175
-337,548	-71,387	0,071	0,019
-336,533	74,909	0,145	0,109
-335,518	-13,474	0,042	-0,019
-334,504	17,713	-0,060	0,034
-333,489	-200,000	-0,005	0,062
-332,475	168,468	-0,104	-0,106
-331,460	163,955	-0,107	0,107
-330,445	-108,966	0,079	-0,012
-329,431	-18,614	-0,018	-0,008
-328,416	116,312	0,123	0,107
-327,402	-200,000	-0,023	-0,079
-326,387	62,160	-0,095	0,068
-325,372	-200,000	-0,003	0,018
-324,358	-77,263	0,032	0,008
-323,343	-174,220	0,167	-0,003
-322,329	272,823	0,083	0,105
-321,314	-167,375	0,116	-0,003
-320,299	-200,000	0,006	0,120
-319,285	58,040	0,042	-0,029
-318,270	-65,633	-0,099	0,028
-317,256	-200,000	-0,003	-0,061
-316,241	-200,000	-0,033	-0,137
-315,226	-64,635	0,093	-0,027
-314,212	-200,000	-0,019	0,065
-313,197	-200,000	0,003	-0,013
-312,183	-85,742	-0,103	0,023
-311,168	258,939	0,094	0,116
-310,153	98,725	-0,082	-0,068
-309,139	-40,758	-0,072	0,027
-308,124	-74,036	0,079	-0,020
-307,110	800,000	0,035	-0,100
-306,095	-200,000	0,014	0,184
-305,080	-200,000	0,029	0,129
-304,066	59,268	-0,118	-0,083
-303,051	126,013	0,033	0,030
-302,037	-200,000	-0,002	0,037
-301,022	602,909	0,066	-0,117
-300,008	-140,164	0,141	0,010
-298,993	-200,000	0,035	0,199
-297,978	82,521	-0,091	0,071
-296,964	541,620	-0,048	-0,083
-295,949	244,341	-0,058	-0,070
-294,935	-200,000	0,005	-0,125
-293,920	-77,277	0,084	0,021
-292,905	-32,301	-0,041	-0,016
-291,891	155,296	-0,051	-0,050
-290,876	-112,897	0,047	-0,007
-289,862	-200,000	-0,027	-0,097
-288,847	800,000	-0,058	-0,130
-287,832	-154,720	-0,095	-0,004
-286,818	137,556	0,168	-0,157
-285,803	800,000	-0,025	-0,080
-284,789	-200,000	-0,002	-0,014
-283,774	-44,251	0,099	-0,035
-282,759	-200,000	-0,033	-0,123
-281,745	-144,490	-0,055	0,004
-280,730	82,714	0,108	-0,084
-279,716	114,361	0,043	-0,038
-278,701	-139,938	-0,107	-0,008
-277,686	22,809	-0,030	-0,017
-276,672	-44,764	0,143	0,051
-275,657	-57,427	-0,091	-0,028
-274,643	-143,053	0,113	-0,008
-273,628	-200,000	-0,020	0,090
-272,613	-112,860	0,136	-0,019
-271,599	-200,000	-0,022	0,092
-270,584	-200,000	0,028	-0,092
-269,570	800,000	0,007	-0,019
-268,555	332,333	0,060	0,083
-267,540	-150,010	-0,114	-0,006
-266,526	-200,000	0,001	-0,067
-265,511	159,423	-0,046	-0,046
-264,497	63,422	0,024	0,017
-263,482	519,497	-0,081	-0,136
-262,467	76,339	0,039	0,029
-261,453	7,410	0,036	0,019
-260,438	18,898	0,059	-0,034
-259,424	800,000	-0,018	-0,052
-258,409	800,000	0,018	-0,054
-257,395	-200,000	-0,005	-0,049
-256,380	192,272	0,022	0,023
-255,365	411,427	0,024	0,037
-254,351	-0,726	-0,147	0,074
-253,336	-16,705	-0,076	-0,034
-252,322	531,392	0,019	-0,033
-251,307	-200,000	0,004	-0,034
-250,292	342,376	-0,076	0,106
-249,278	208,603	0,073	-0,081
-248,263	121,469	-0,013	-0,012
-247,249	44,608	-0,127	0,083
-246,234	295,421	-0,122	-0,160
-245,219	-200,000	-0,026	-0,085
-244,205	569,328	0,030	-0,053
-243,190	40,077	0,111	-0,071
-242,176	378,869	0,079	0,115
-241,161	800,000	0,029	-0,073
-240,146	-200,000	0,042	0,162
-239,132	-200,000	0,018	0,146
-238,117	-116,040	0,035	0,005
-237,103	-110,373	-0,069	0,010
-236,088	800,000	0,050	-0,112
-235,073	-71,018	0,109	0,029
-234,059	-200,000	0,022	0,141
-233,044	-200,000	-0,019	0,103
-232,030	-77,250	0,026	-0,007
-231,015	53,122	0,151	-0,103
-230,000	-94,942	-0,139	0,027
-228,986	800,000	0,022	-0,060
-227,971	73,431	0,049	-0,037
-226,957	-19,935	0,059	0,026
-225,942	106,115	-0,039	0,033
-224,927	144,088	-0,060	0,057
-223,913	-58,197	0,180	0,056
-222,898	25,978	-0,204	0,121
-221,884	210,694	0,045	0,051
-220,869	-200,000	0,014	0,061
-219,855	504,477	-0,033	0,055
-218,840	-200,000	-0,005	0,052
-217,825	800,000	0,076	0,199
-216,811	800,000	0,029	-0,067
-215,796	-200,000	-0,004	0,044
-214,782	155,383	-0,139	-0,136
-213,767	-41,917	0,064	0,023
-212,752	587,128	-0,031	0,055
-211,738	-186,108	0,121	-0,001
-210,723	462,395	-0,040	-0,063
-209,709	-70,228	0,059	0,016
-208,694	-200,000	-0,020	0,079
-207,679	800,000	-0,033	0,068
-206,665	51,447	0,109	0,074
-205,650	32,771	-0,121	0,074
-204,636	-20,099	0,117	0,051
-203,621	-45,990	0,084	0,029
-202,606	-89,784	-0,187	0,039
-201,592	286,768	-0,030	-0,038
-200,577	75,072	0,062	-0,046
-199,563	-43,785	0,036	-0,013
-198,548	-126,587	-0,135	-0,014
-197,533	11,381	-0,109	0,059
-196,519	-62,679	0,161	0,047
-195,504	332,281	-0,051	-0,071
-194,490	-200,000	0,002	-0,117
-193,475	-200,000	-0,016	0,058
-192,460	800,000	0,025	-0,050
-191,446	-53,349	-0,109	-0,035
-190,431	-73,243	0,178	0,046
-189,417	-200,000	-0,006	-0,019
-188,402	-200,000	0,015	0,067
-187,387	490,174	-0,024	0,038
-186,373	-115,226	0,185	0,025
-185,358	-103,679	0,047	-0,008
-184,344	-200,000	-0,000	-0,069
-183,329	183,922	-0,040	0,042
-182,315	-200,000	0,001	-0,103
-181,300	800,000	0,046	-0,141
-180,285	-48,049	-0,063	-0,022
-179,271	-200,000	0,011	-0,049
-178,256	-200,000	0,008	-0,117
-177,242	800,000	0,030	0,074
-176,227	12,263	0,033	0,018
-175,212	-179,484	-0,088	-0,001
-174,198	-158,334	-0,120	0,005
-173,183	800,000	0,039	-0,082
-172,169	245,189	-0,096	-0,115
-171,154	322,717	0,059	0,080
-170,139	-200,000	0,007	0,108
-169,125	301,485	0,053	-0,069
-168,110	800,000	-0,035	0,102
-167,096	294,806	-0,084	-0,110
-166,081	-175,850	-0,046	-0,001
-165,066	236,410	0,025	-0,029
-164,052	800,000	-0,051	-0,134
-163,037	28,401	-0,112	-0,067
-162,023	73,307	0,126	0,094
-161,008	20,233	-0,046	0,026
-159,993	-178,006	-0,038	-0,001
-158,979	116,608	-0,113	0,098
-157,964	-200,000	0,009	-0,073
-156,950	800,000	0,057	-0,116
-155,935	250,814	-0,060	0,073
-154,920	454,677	0,106	-0,167
-153,906	427,946	-0,016	-0,025
-152,891	-200,000	0,023	0,077
-151,877	-144,865	-0,115	0,007
-150,862	-44,019	-0,175	-0,062
-149,847	-27,162	0,029	0,012
-148,833	30,145	-0,043	-0,026
-147,818	-113,224	0,062	-0,009
-146,804	117,541	-0,079	0,069
-145,789	384,381	0,048	0,070
-144,775	-92,448	-0,074	-0,015
-143,760	-19,394	-0,098	0,043
-142,745	50,048	0,056	-0,037
-141,731	-25,459	0,190	-0,079
-140,716	7,845	0,162	0,086
-139,702	192,462	0,108	0,116
-138,687	23,432	-0,033	-0,019
-137,672	136,557	-0,065	-0,060
-136,658	77,481	0,010	-0,008
-135,643	704,293	0,029	0,055
-134,629	800,000	0,038	-0,117
-133,614	800,000	0,036	-0,109
-132,599	693,099	0,046	0,086
-131,585	719,825	-0,025	0,047
-130,570	-200,000	0,021	-0,076
-129,556	6,937	0,052	0,027
-128,541	-30,254	-0,098	0,039
-127,526	5,182	0,145	0,076
-126,512	-131,441	0,072	-0,007
-125,497	800,000	-0,063	0,136
-124,483	638,280	-0,029	-0,052
-123,468	-200,000	-0,004	0,119
-122,453	-200,000	0,013	-0,212
-121,439	800,000	-0,056	-0,148
-120,424	-77,866	0,087	0,021
-119,410	-9,672	-0,079	0,037
-118,395	-95,278	0,028	0,005
