DTS Sentinel unit serial number:	SN410029Multiplexer serial number:	ORYXHardware model number:	OX2-SRSoftware version number:	ORYX F/W v4,00 Oryx Data Collector v3.7.2.0data status	okinstallation	B6 Nyhavnadifferential loss correction	single-endedforward channel	channel 2reverse channel	N/Adate	2023/12/11time	07:20:08forward acquisition time	300,00reverse acquisition time	0,00gamma	499,1914k internal	0,3127k external	0,3127temperature offset calibration	1,0000default loss term (dB/km)	0,3820temperature slope calibration	1,0000multiplexer offset coefficient	1,0000multiplexer slope coefficient	1,0000fibre end	0,00T internal ref (°C)	19,16T ext. ref 1 (°C)	1,74T ext. ref 2 (°C)	1,78length (m)	temperature (°C)	Stokes	anti-Stokes-744,400	-200,000	-0,015	-0,193
-743,385	-127,352	-0,291	0,031
-742,371	-20,171	0,166	0,076
-741,356	-70,567	-0,192	-0,054
-740,342	136,483	0,061	-0,059
-739,327	-47,793	-0,180	0,065
-738,312	22,682	0,048	-0,029
-737,298	-54,972	-0,233	0,078
-736,283	89,101	-0,050	-0,041
-735,269	156,224	-0,207	0,213
-734,254	800,000	-0,016	0,035
-733,239	46,971	-0,448	-0,309
-732,225	177,362	0,050	-0,054
-731,210	-16,543	0,075	-0,035
-730,196	800,000	-0,027	0,086
-729,181	-200,000	0,014	-0,059
-728,167	-44,529	-0,090	-0,033
-727,152	210,503	0,021	-0,024
-726,137	304,270	-0,028	-0,039
-725,123	39,929	-0,084	-0,056
-724,108	219,091	-0,170	-0,203
-723,094	-200,000	-0,007	0,111
-722,079	-103,997	0,096	-0,017
-721,064	-19,797	0,133	-0,061
-720,050	6,119	-0,110	0,060
-719,035	768,969	-0,017	-0,035
-718,021	166,569	-0,053	-0,056
-717,006	800,000	-0,033	-0,098
-715,991	-83,495	-0,148	-0,035
-714,977	354,593	-0,055	-0,082
-713,962	-8,260	0,029	-0,014
-712,948	-138,402	-0,030	0,002
-711,933	-200,000	-0,033	-0,139
-710,918	34,451	-0,052	0,034
-709,904	266,430	0,072	-0,094
-708,889	531,241	-0,069	-0,122
-707,875	-200,000	0,005	-0,099
-706,860	-120,826	-0,067	0,008
-705,845	104,719	0,036	0,032
-704,831	85,167	0,025	-0,021
-703,816	783,922	0,008	0,017
-702,802	16,458	-0,056	-0,033
-701,787	-200,000	-0,026	-0,155
-700,772	-200,000	0,001	-0,179
-699,758	800,000	-0,024	-0,061
-698,743	66,115	-0,046	-0,035
-697,729	-200,000	0,006	0,141
-696,714	-141,584	0,067	0,005
-695,699	17,888	-0,063	0,037
-694,685	-113,670	-0,090	-0,013
-693,670	800,000	0,024	-0,052
-692,656	800,000	0,027	-0,059
-691,641	800,000	0,029	-0,091
-690,627	-52,367	0,170	0,058
-689,612	-99,937	-0,018	-0,003
-688,597	130,500	-0,078	-0,074
-687,583	300,843	0,057	-0,078
-686,568	-23,615	-0,061	0,027
-685,554	13,395	-0,080	0,046
-684,539	-200,000	-0,002	0,075
-683,524	437,517	-0,012	0,019
-682,510	-111,661	-0,007	0,001
-681,495	-200,000	-0,007	-0,065
-680,481	20,868	0,068	0,041
-679,466	-168,915	-0,133	0,004
-678,451	454,745	-0,021	-0,034
-677,437	387,422	-0,094	-0,145
-676,422	-79,927	0,012	-0,003
-675,408	38,853	0,066	-0,044
-674,393	800,000	0,033	-0,074
-673,378	466,938	-0,057	-0,095
-672,364	-148,994	0,061	-0,004
-671,349	800,000	-0,043	-0,106
-670,335	387,209	0,062	-0,096
-669,320	800,000	0,008	0,018
-668,305	-149,618	-0,177	0,010
-667,291	-74,737	0,019	-0,005
-666,276	495,526	0,093	0,159
-665,262	664,109	-0,023	0,045
-664,247	-55,914	-0,075	-0,025
-663,232	-200,000	-0,014	-0,061
-662,218	-200,000	0,007	0,080
-661,203	-128,733	0,051	-0,005
-660,189	413,608	0,005	-0,007
-659,174	277,052	-0,119	-0,157
-658,159	-64,478	-0,096	-0,029
-657,145	-4,176	0,033	-0,017
-656,130	11,019	0,161	-0,091
-655,116	56,110	0,128	0,092
-654,101	85,129	-0,043	-0,035
-653,086	446,193	0,076	0,124
-652,072	-150,709	-0,094	0,005
-651,057	46,109	-0,089	-0,061
-650,043	349,232	-0,070	-0,103
-649,028	-39,895	0,082	0,032
-648,014	-23,494	0,031	-0,014
-646,999	343,725	-0,076	0,110
-645,984	210,881	-0,113	-0,131
-644,970	166,924	-0,059	0,062
-643,955	-200,000	-0,024	-0,112
-642,941	-101,280	0,010	0,002
-641,926	523,424	-0,018	-0,032
-640,911	800,000	0,010	-0,024
-639,897	-200,000	0,027	-0,173
-638,882	-95,111	-0,132	-0,026
-637,868	-200,000	-0,015	-0,140
-636,853	162,139	-0,038	0,040
-635,838	-200,000	-0,010	0,068
-634,824	55,291	0,041	-0,029
-633,809	800,000	0,046	-0,105
-632,795	800,000	0,011	-0,027
-631,780	-200,000	0,027	0,169
-630,765	-200,000	-0,022	-0,082
-629,751	800,000	0,040	0,113
-628,736	-200,000	0,010	-0,109
-627,722	-63,811	-0,125	-0,038
-626,707	34,077	-0,074	-0,048
-625,692	-200,000	-0,000	0,069
-624,678	79,197	0,020	0,016
-623,663	78,741	0,041	-0,033
-622,649	42,209	-0,086	-0,057
-621,634	718,857	0,026	-0,052
-620,619	155,161	0,054	-0,055
-619,605	447,014	0,014	0,023
-618,590	-200,000	0,014	0,201
-617,576	54,810	0,098	0,070
-616,561	133,419	0,031	-0,030
-615,546	-200,000	0,025	-0,092
-614,532	209,549	-0,075	0,087
-613,517	333,463	-0,019	0,028
-612,503	-200,000	0,027	-0,101
-611,488	763,527	0,035	-0,070
-610,474	65,143	0,044	-0,033
-609,459	-60,528	-0,120	-0,038
-608,444	-113,664	0,069	-0,010
-607,430	-200,000	-0,021	-0,267
-606,415	800,000	-0,048	-0,110
-605,401	9,716	-0,106	-0,059
-604,386	285,285	0,044	0,059
-603,371	202,069	-0,015	0,018
-602,357	105,277	0,050	0,043
-601,342	-44,431	-0,070	-0,026
-600,328	800,000	-0,031	-0,067
-599,313	800,000	-0,018	0,052
-598,298	-200,000	0,087	0,000
-597,284	-200,000	0,014	0,136
-596,269	372,072	0,062	0,093
-595,255	-200,000	-0,044	0,154
-594,240	-200,000	-0,011	-0,152
-593,225	113,997	0,044	-0,039
-592,211	-168,255	-0,149	0,004
-591,196	37,109	-0,026	0,017
-590,182	-200,000	-0,035	-0,127
-589,167	535,691	-0,012	-0,021
-588,152	-86,313	0,250	0,057
-587,138	-100,042	-0,144	-0,026
-586,123	266,613	0,098	0,127
-585,109	-10,752	-0,099	-0,048
-584,094	335,400	0,067	-0,096
-583,079	796,851	-0,036	-0,075
-582,065	800,000	0,007	0,014
-581,050	-118,527	-0,039	-0,005
-580,036	642,575	-0,070	-0,133
-579,021	-200,000	-0,011	-0,053
-578,006	59,118	-0,037	-0,027
-576,992	-6,123	0,060	-0,030
-575,977	-127,014	0,139	-0,015
-574,963	-152,089	-0,083	0,004
-573,948	85,090	0,050	-0,040
-572,934	619,721	-0,056	-0,105
-571,919	3,121	-0,085	0,046
-570,904	675,988	-0,013	-0,025
-569,890	331,182	-0,080	-0,114
-568,875	-61,558	-0,149	-0,046
-567,861	-78,873	0,106	0,026
-566,846	-9,251	0,155	-0,076
-565,831	800,000	-0,058	-0,145
-564,817	-108,934	0,015	0,002
-563,802	241,455	-0,034	0,042
-562,788	-66,647	-0,112	-0,033
-561,773	-200,000	-0,011	0,175
-560,758	266,477	0,014	-0,018
-559,744	68,797	0,031	-0,023
-558,729	-200,000	0,004	0,075
-557,715	-200,000	-0,007	-0,077
-556,700	-200,000	-0,008	-0,057
-555,685	-200,000	-0,008	-0,033
-554,671	-168,449	0,216	-0,006
-553,656	7,457	0,016	0,009
-552,642	131,847	0,047	0,045
-551,627	800,000	-0,005	0,016
-550,612	800,000	-0,025	0,054
-549,598	662,087	-0,028	0,053
-548,583	-200,000	0,037	-0,164
-547,569	-200,000	-0,041	0,218
-546,554	15,278	0,056	0,032
-545,539	-200,000	0,007	0,057
-544,525	-29,634	-0,113	-0,048
-543,510	241,494	0,059	0,073
-542,496	-200,000	0,000	0,013
-541,481	-3,699	-0,168	-0,086
-540,466	-200,000	-0,031	0,139
-539,452	-186,508	0,090	0,001
-538,437	123,074	-0,007	-0,006
-537,423	353,068	-0,053	0,078
-536,408	-200,000	-0,011	-0,096
-535,393	-200,000	0,011	0,084
-534,379	-200,000	-0,010	-0,048
-533,364	-200,000	0,009	-0,045
-532,350	800,000	-0,040	0,096
-531,335	-108,783	0,089	-0,014
-530,321	141,772	-0,089	0,087
-529,306	800,000	0,042	-0,089
-528,291	547,553	0,048	-0,086
-527,277	800,000	-0,051	0,124
-526,262	324,395	0,035	0,050
-525,248	420,044	-0,040	0,063
-524,233	-200,000	-0,014	0,056
-523,218	-200,000	0,010	0,090
-522,204	229,404	-0,040	0,048
-521,189	792,369	-0,015	0,031
-520,175	13,906	-0,077	-0,044
-519,160	-45,885	-0,110	0,040
-518,145	-6,836	-0,062	-0,031
-517,131	-30,337	0,010	-0,004
-516,116	187,041	0,060	0,067
-515,102	93,183	0,034	0,028
-514,087	763,151	0,041	0,082
-513,072	54,059	0,052	-0,037
-512,058	64,501	-0,038	-0,028
-511,043	-18,022	-0,117	0,054
-510,029	-98,199	-0,081	-0,015
-509,014	382,968	0,031	0,048
-507,999	320,669	-0,028	0,039
-506,985	-9,873	0,031	0,015
-505,970	-200,000	-0,056	-0,189
-504,956	227,452	-0,104	-0,125
-503,941	196,790	0,088	0,099
-502,926	-200,000	-0,007	-0,101
-501,912	-83,900	-0,035	-0,008
-500,897	-44,827	0,106	-0,039
-499,883	81,330	0,083	-0,066
-498,868	-174,256	-0,111	0,002
-497,853	-61,544	-0,049	-0,015
-496,839	135,768	0,049	0,047
-495,824	163,528	-0,036	-0,037
-494,810	-200,000	0,042	0,000
-493,795	-200,000	0,006	0,047
-492,781	394,718	0,027	0,042
-491,766	566,317	-0,058	0,105
-490,751	793,248	-0,022	0,044
-489,737	-66,522	0,122	-0,035
-488,722	-10,363	-0,104	0,051
-487,708	128,805	0,035	0,033
-486,693	-200,000	-0,015	0,053
-485,678	-2,297	-0,128	-0,066
-484,664	25,237	0,055	0,034
-483,649	-104,398	-0,042	0,007
-482,635	-200,000	0,001	-0,012
-481,620	18,707	0,081	-0,048
-480,605	-200,000	-0,015	0,124
-479,591	-200,000	0,002	-0,055
-478,576	800,000	0,014	-0,037
-477,562	397,116	-0,060	-0,093
-476,547	-105,344	-0,118	0,020
-475,532	-200,000	0,014	0,112
-474,518	-79,879	0,075	-0,019
-473,503	-200,000	-0,007	0,050
-472,489	174,045	0,023	-0,025
-471,474	138,089	0,087	0,084
-470,459	800,000	0,009	0,026
-469,445	-53,730	0,065	0,022
-468,430	221,257	0,051	0,060
-467,416	613,898	0,076	0,141
-466,401	571,254	0,037	0,067
-465,386	-200,000	0,006	-0,116
-464,372	-93,109	-0,092	-0,019
-463,357	-200,000	-0,003	0,023
-462,343	800,000	-0,024	0,058
-461,328	-200,000	-0,027	-0,087
-460,313	-123,619	0,073	0,008
-459,299	344,722	-0,022	0,032
-458,284	2,004	-0,065	0,034
-457,270	-200,000	0,020	0,096
-456,255	42,127	-0,125	0,083
-455,241	-200,000	-0,022	-0,091
-454,226	766,449	-0,056	-0,112
-453,211	800,000	0,023	0,049
-452,197	119,291	-0,058	-0,053
-451,182	-200,000	-0,018	0,191
-450,168	-200,000	0,007	-0,137
-449,153	583,799	0,064	0,116
-448,138	-58,891	-0,059	-0,019
-447,124	-76,795	0,028	-0,007
-446,109	83,614	-0,051	-0,041
-445,095	566,093	0,025	0,044
-444,080	-200,000	0,011	0,079
-443,065	-136,900	0,071	-0,006
-442,051	166,660	-0,017	0,018
-441,036	800,000	-0,045	-0,141
-440,022	-200,000	-0,028	-0,132
-439,007	-106,038	0,054	0,009
-437,992	261,163	0,102	0,130
-436,978	347,551	0,069	0,100
-435,963	-200,000	0,039	-0,132
-434,949	185,987	0,031	-0,034
-433,934	-95,628	-0,095	0,019
-432,919	132,198	-0,040	-0,038
-431,905	800,000	0,060	0,139
-430,890	450,292	-0,036	-0,058
-429,876	-66,675	-0,130	-0,038
-428,861	-102,788	-0,109	0,019
-427,846	66,652	-0,067	0,050
-426,832	-200,000	0,010	0,079
-425,817	-200,000	-0,051	-0,189
-424,803	-200,000	0,023	0,103
-423,788	800,000	0,026	0,054
-422,773	-200,000	0,067	0,225
-421,759	593,734	0,019	-0,036
-420,744	0,054	-0,132	0,069
-419,730	392,133	-0,075	-0,116
-418,715	636,828	-0,099	-0,186
-417,701	152,629	-0,089	-0,090
-416,686	552,291	0,059	-0,105
-415,671	460,794	-0,079	0,130
-414,657	222,120	0,078	0,093
-413,642	800,000	-0,057	0,136
-412,628	-48,554	-0,128	0,045
-411,613	800,000	-0,025	0,068
-410,598	800,000	0,037	0,079
-409,584	800,000	-0,027	-0,058
-408,569	-100,118	-0,081	0,015
-407,555	-200,000	-0,011	0,070
-406,540	-169,892	-0,014	-0,000
-405,525	223,023	0,056	-0,066
-404,511	-63,026	-0,054	0,016
-403,496	800,000	-0,036	0,076
-402,482	-200,000	0,011	-0,057
-401,467	-5,925	0,087	-0,044
-400,452	413,236	0,028	0,043
-399,438	104,414	0,083	0,072
-398,423	800,000	-0,045	-0,119
-397,409	152,521	-0,087	-0,087
-396,394	-21,450	0,095	0,042
-395,379	-19,175	-0,080	0,037
-394,365	-200,000	-0,004	0,087
-393,350	-173,938	0,028	-0,001
-392,336	-200,000	0,014	0,096
-391,321	106,280	0,089	-0,077
-390,306	-22,653	-0,150	-0,066
-389,292	-200,000	0,040	-0,153
-388,277	-200,000	0,005	-0,048
-387,263	-15,132	0,039	-0,018
-386,248	-171,032	0,029	0,001
-385,233	27,107	0,040	0,025
-384,219	-200,000	0,020	-0,064
-383,204	86,801	0,040	-0,032
-382,190	147,253	-0,070	0,069
-381,175	21,404	0,055	-0,033
-380,160	-200,000	-0,010	0,090
-379,146	300,533	0,045	-0,061
-378,131	-200,000	0,013	0,047
-377,117	313,932	-0,014	-0,020
-376,102	-200,000	0,000	-0,156
-375,088	423,603	0,045	-0,071
-374,073	-43,123	-0,117	0,043
-373,058	171,334	0,070	-0,074
-372,044	-39,308	0,122	-0,047
-371,029	-184,942	0,073	0,001
-370,015	-200,000	-0,019	0,108
-369,000	336,874	-0,044	-0,063
-367,985	800,000	0,008	-0,021
-366,971	141,961	0,092	-0,090
-365,956	800,000	0,085	0,189
-364,942	438,968	-0,040	0,064
-363,927	-200,000	-0,010	0,084
-362,912	649,316	0,036	-0,068
-361,898	-33,969	-0,183	-0,074
-360,883	412,381	-0,013	0,021
-359,869	145,328	0,087	0,086
-358,854	642,563	-0,056	0,104
-357,839	-200,000	-0,004	0,030
-356,825	283,108	0,047	-0,062
-355,810	-115,636	-0,054	-0,007
-354,796	800,000	0,018	0,055
-353,781	-200,000	0,022	-0,104
-352,766	-151,600	0,042	0,002
-351,752	-54,214	0,131	0,043
-350,737	-126,559	0,179	-0,019
-349,723	135,427	0,048	-0,046
-348,708	800,000	-0,008	0,020
-347,693	183,945	0,014	-0,016
-346,679	-165,397	-0,153	0,005
-345,664	-22,396	0,161	-0,071
-344,650	-124,175	0,140	-0,016
-343,635	396,753	0,109	0,167
-342,620	88,801	0,073	0,060
-341,606	-78,709	0,044	0,011
-340,591	0,517	-0,139	0,072
-339,577	-45,734	0,101	-0,036
-338,562	-200,000	0,008	-0,030
-337,548	-200,000	0,033	0,139
-336,533	147,448	0,109	0,108
-335,518	-34,979	-0,108	0,043
-334,504	-200,000	-0,029	0,122
-333,489	800,000	-0,029	0,085
-332,475	800,000	-0,019	-0,045
-331,460	800,000	-0,072	-0,163
-330,445	368,970	-0,013	0,019
-329,431	13,396	0,116	-0,066
-328,416	800,000	0,049	0,119
-327,402	194,584	0,100	0,111
-326,387	358,882	0,093	0,136
-325,372	800,000	-0,056	0,115
-324,358	-14,804	0,092	0,043
-323,343	800,000	-0,028	-0,075
-322,329	-200,000	-0,015	0,191
-321,314	-200,000	0,025	0,123
-320,299	-72,966	-0,041	-0,011
-319,285	7,723	0,068	0,037
-318,270	-22,420	0,039	0,017
-317,256	-200,000	0,001	-0,175
-316,241	47,620	-0,026	0,018
-315,226	-85,610	-0,065	0,015
-314,212	82,511	0,056	-0,044
-313,197	20,410	-0,021	-0,013
-312,183	800,000	0,013	-0,033
-311,168	-46,858	-0,042	0,015
-310,153	505,679	0,028	0,048
-309,139	-40,433	-0,093	-0,035
-308,124	800,000	0,007	-0,017
-307,110	-117,895	0,041	0,005
-306,095	-5,039	-0,099	0,050
-305,080	-200,000	-0,012	0,076
-304,066	-200,000	0,019	0,074
-303,051	27,723	0,051	0,031
-302,037	261,425	-0,119	-0,151
-301,022	238,631	-0,085	-0,104
-300,008	280,702	-0,071	-0,093
-298,993	208,006	-0,044	-0,051
-297,978	444,004	0,061	-0,098
-296,964	14,029	-0,065	-0,037
-295,949	-200,000	-0,009	0,073
-294,935	-148,564	-0,023	-0,001
-293,920	-33,898	0,127	-0,051
-292,905	673,290	0,023	-0,045
-291,891	662,509	-0,013	-0,024
-290,876	-200,000	-0,002	-0,024
-289,862	800,000	-0,011	0,027
-288,847	253,438	-0,036	-0,045
-287,832	800,000	-0,038	0,112
-286,818	-200,000	-0,000	0,015
-285,803	-72,559	0,084	-0,023
-284,789	-200,000	0,021	-0,074
-283,774	710,282	-0,049	-0,094
-282,759	-166,663	0,129	0,004
-281,745	22,409	-0,071	-0,042
-280,730	625,899	-0,051	-0,094
-279,716	-77,314	-0,061	-0,015
-278,701	800,000	0,029	0,062
-277,686	43,380	0,166	-0,111
-276,672	35,284	0,120	0,077
-275,657	800,000	0,009	0,026
-274,643	111,969	0,067	0,059
-273,628	65,736	-0,071	0,052
-272,613	800,000	-0,013	-0,032
-271,599	800,000	-0,055	-0,115
-270,584	3,991	-0,082	-0,044
-269,570	-125,208	-0,073	-0,008
-268,555	-22,259	0,135	0,059
-267,540	433,549	-0,042	-0,067
-266,526	-200,000	-0,006	-0,064
-265,511	-200,000	-0,006	0,048
-264,497	-200,000	0,024	0,100
-263,482	291,271	0,050	-0,067
-262,467	-200,000	0,007	0,209
-261,453	-200,000	-0,033	0,141
-260,438	189,855	-0,047	-0,052
-259,424	-26,696	0,098	-0,042
-258,409	112,210	-0,075	-0,066
-257,395	107,555	-0,030	-0,026
-256,380	796,812	0,037	0,074
-255,365	-21,117	0,032	0,014
-254,351	165,890	0,086	-0,089
-253,336	277,221	-0,024	-0,031
-252,322	-200,000	-0,008	-0,035
-251,307	58,130	-0,147	0,105
-250,292	360,756	-0,054	0,079
-249,278	800,000	0,016	-0,043
-248,263	6,757	-0,062	0,034
-247,249	-200,000	0,024	-0,081
-246,234	-113,401	0,074	-0,010
-245,219	-82,855	0,074	-0,017
-244,205	274,748	0,078	-0,100
-243,190	12,577	0,044	0,025
-242,176	-200,000	0,004	-0,137
-241,161	675,364	0,049	0,093
-240,146	-200,000	0,030	0,172
-239,132	-56,088	0,033	-0,011
-238,117	-80,840	-0,151	0,036
-237,103	-63,743	-0,016	-0,005
-236,088	436,747	0,032	-0,051
-235,073	-200,000	-0,015	-0,078
-234,059	-2,530	0,105	0,053
-233,044	-200,000	0,020	0,149
-232,030	-200,000	0,002	0,048
-231,015	-149,267	-0,080	0,005
-230,000	17,239	-0,139	0,080
-228,986	56,968	-0,090	-0,064
-227,971	-154,586	-0,037	0,002
-226,957	-95,347	0,195	0,038
-225,942	-82,839	0,105	-0,025
-224,927	213,943	0,030	0,035
-223,913	800,000	-0,022	0,063
-222,898	434,091	0,011	-0,017
-221,884	199,259	-0,062	-0,069
-220,869	59,232	0,145	-0,104
-219,855	112,913	0,074	0,065
-218,840	-76,618	-0,152	-0,038
-217,825	133,064	-0,065	-0,061
-216,811	-200,000	-0,009	-0,114
-215,796	-200,000	0,011	0,064
-214,782	13,854	-0,121	0,068
-213,767	84,866	-0,025	-0,020
-212,752	-200,000	0,017	0,122
-211,738	62,033	-0,086	0,063
-210,723	-17,129	0,008	0,004
-209,709	2,620	-0,145	-0,077
-208,694	-96,641	-0,072	0,014
-207,679	-150,184	0,075	0,004
-206,665	663,119	-0,012	-0,023
-205,650	-149,389	0,130	-0,007
-204,636	48,537	0,107	-0,073
-203,621	-46,770	-0,189	0,067
-202,606	-1,111	-0,046	0,024
-201,592	477,015	-0,057	-0,094
-200,577	108,802	-0,018	0,016
-199,563	338,207	0,062	-0,089
-198,548	227,017	0,019	-0,022
-197,533	54,695	0,106	0,075
-196,519	215,212	-0,023	0,027
-195,504	228,910	0,062	0,074
-194,490	50,655	0,099	-0,068
-193,475	-200,000	-0,019	0,129
-192,460	-89,767	-0,092	-0,019
-191,446	-4,726	0,122	-0,061
-190,431	-115,037	0,056	-0,008
-189,417	387,507	0,056	0,085
-188,402	-60,128	-0,081	-0,025
-187,387	263,854	0,096	-0,122
-186,373	-16,202	-0,027	0,012
-185,358	-200,000	-0,005	-0,091
-184,344	499,727	0,027	0,045
-183,329	-144,715	0,042	-0,003
-182,315	-200,000	0,000	-0,103
-181,300	-49,445	0,035	-0,012
-180,285	-126,171	0,140	-0,015
-179,271	255,105	-0,071	0,089
-178,256	173,521	-0,059	-0,062
-177,242	-200,000	-0,006	-0,066
-176,227	711,214	0,053	-0,103
-175,212	56,159	-0,033	-0,023
-174,198	-142,450	-0,182	0,013
-173,183	-146,821	-0,137	0,008
-172,169	-200,000	0,018	0,098
-171,154	-43,788	-0,039	0,014
-170,139	353,970	0,064	-0,093
-169,125	-44,242	0,153	-0,056
-168,110	800,000	-0,024	0,076
-167,096	273,392	0,128	-0,165
-166,081	401,095	-0,045	-0,070
-165,066	-105,327	0,065	-0,011
-164,052	-200,000	-0,011	0,094
-163,037	36,025	-0,066	0,042
-162,023	396,589	0,069	0,105
-161,008	800,000	0,055	0,116
-159,993	800,000	0,038	-0,086
-158,979	-36,915	-0,095	-0,037
-157,964	800,000	-0,019	-0,057
-156,950	800,000	0,049	-0,120
-155,935	-200,000	-0,002	-0,006
-154,920	-70,201	0,173	-0,047
-153,906	-200,000	0,015	0,110
-152,891	-200,000	0,006	-0,098
-151,877	-172,307	-0,079	0,002
-150,862	122,959	-0,162	-0,147
-149,847	-200,000	-0,011	-0,096
-148,833	800,000	-0,026	-0,069
-147,818	-63,710	0,032	-0,010
-146,804	800,000	0,033	0,104
-145,789	83,189	-0,111	0,088
-144,775	-200,000	-0,007	-0,072
-143,760	168,052	0,060	-0,062
-142,745	-116,025	-0,064	0,009
-141,731	158,780	0,029	-0,030
-140,716	-111,636	0,108	0,016
-139,702	-11,773	-0,034	-0,016
-138,687	81,546	-0,125	0,098
-137,672	-124,971	-0,156	-0,017
-136,658	275,327	0,054	0,070
-135,643	800,000	-0,056	-0,136
-134,629	130,915	-0,051	0,047
-133,614	-200,000	0,028	0,111
-132,599	230,181	0,116	0,138
-131,585	-139,275	0,060	0,005
-130,570	132,087	-0,113	0,105
-129,556	154,784	0,019	-0,019
-128,541	137,309	0,093	0,089
-127,526	361,657	0,049	-0,071
-126,512	-200,000	0,001	-0,038
-125,497	800,000	-0,022	0,048
-124,483	-10,008	0,020	-0,010
-123,468	602,252	-0,036	-0,065
-122,453	-71,723	-0,073	-0,020
-121,439	393,690	-0,023	-0,035
-120,424	68,127	0,160	-0,119
-119,410	-64,234	0,077	-0,023
