DTS Sentinel unit serial number:	SN410029Multiplexer serial number:	ORYXHardware model number:	OX2-SRSoftware version number:	ORYX F/W v4,00 Oryx Data Collector v3.7.2.0data status	okinstallation	B6 Nyhavnadifferential loss correction	single-endedforward channel	channel 2reverse channel	N/Adate	2023/12/10time	09:20:08forward acquisition time	300,00reverse acquisition time	0,00gamma	499,1914k internal	0,3123k external	0,3123temperature offset calibration	1,0000default loss term (dB/km)	0,3820temperature slope calibration	1,0000multiplexer offset coefficient	1,0000multiplexer slope coefficient	1,0000fibre end	0,00T internal ref (°C)	22,56T ext. ref 1 (°C)	6,30T ext. ref 2 (°C)	6,31length (m)	temperature (°C)	Stokes	anti-Stokes-744,400	-200,000	-0,011	-0,128
-743,385	-52,882	-0,117	0,040
-742,371	166,738	0,059	-0,062
-741,356	-112,543	-0,268	0,039
-740,342	-162,676	0,103	-0,004
-739,327	-68,302	-0,303	-0,087
-738,312	509,870	-0,013	-0,023
-737,298	58,939	-0,131	0,096
-736,283	40,387	0,118	0,079
-735,269	-22,451	-0,289	0,130
-734,254	415,974	0,022	0,035
-733,239	-44,037	-0,368	-0,137
-732,225	-136,333	-0,082	-0,007
-731,210	800,000	0,020	0,065
-730,196	-145,356	-0,038	-0,002
-729,181	-85,115	-0,099	-0,023
-728,167	-77,800	0,103	0,026
-727,152	800,000	0,014	-0,032
-726,137	800,000	0,009	-0,021
-725,123	64,399	-0,041	-0,031
-724,108	-20,073	-0,143	-0,065
-723,094	-82,797	-0,130	0,031
-722,079	-200,000	-0,003	0,071
-721,064	-108,310	0,095	-0,015
-720,050	-6,802	0,124	-0,063
-719,035	270,435	-0,011	0,015
-718,021	-88,088	-0,187	-0,041
-717,006	45,561	-0,007	0,004
-715,991	56,746	0,131	-0,095
-714,977	-200,000	-0,013	0,074
-713,962	800,000	-0,010	0,028
-712,948	-136,500	-0,048	0,004
-711,933	91,296	-0,075	0,063
-710,918	-85,496	-0,022	-0,005
-709,904	146,362	-0,104	0,104
-708,889	-150,624	-0,103	-0,006
-707,875	-170,352	-0,182	-0,005
-706,860	-115,953	0,020	-0,003
-705,845	9,762	-0,149	0,084
-704,831	800,000	-0,022	-0,048
-703,816	233,707	-0,092	-0,113
-702,802	800,000	-0,041	0,119
-701,787	-32,076	-0,172	0,071
-700,772	-95,678	0,041	-0,008
-699,758	-100,000	-0,090	-0,017
-698,743	171,952	0,090	-0,097
-697,729	128,624	0,065	-0,062
-696,714	-21,709	-0,112	0,051
-695,699	490,534	0,032	0,055
-694,685	-161,924	-0,028	-0,001
-693,670	-200,000	-0,000	-0,148
-692,656	-200,000	0,018	0,091
-691,641	-34,073	0,102	0,041
-690,627	-142,964	-0,092	0,007
-689,612	-200,000	0,010	0,089
-688,597	-200,000	0,019	-0,150
-687,583	553,530	-0,029	0,052
-686,568	-74,082	-0,074	-0,020
-685,554	-103,112	-0,083	0,014
-684,539	-47,318	0,075	-0,027
-683,524	800,000	0,022	0,059
-682,510	-200,000	0,005	0,183
-681,495	162,427	0,073	0,076
-680,481	-200,000	-0,012	0,042
-679,466	16,590	-0,092	-0,054
-678,451	-124,037	-0,070	0,008
-677,437	-200,000	0,008	-0,044
-676,422	-104,387	0,077	-0,013
-675,408	-200,000	-0,012	0,062
-674,393	-31,390	-0,060	-0,025
-673,378	-87,213	-0,136	0,031
-672,364	-56,808	0,119	0,039
-671,349	-200,000	0,004	0,074
-670,335	333,039	-0,068	0,097
-669,320	800,000	-0,031	-0,084
-668,305	30,233	0,067	-0,043
-667,291	-96,895	-0,052	0,010
-666,276	217,183	-0,078	-0,092
-665,262	-119,526	-0,171	-0,022
-664,247	-39,749	-0,067	-0,026
-663,232	269,071	0,027	0,035
-662,218	-57,855	-0,048	0,015
-661,203	176,501	-0,064	0,069
-660,189	-120,720	-0,070	-0,009
-659,174	-110,427	-0,043	0,007
-658,159	-60,928	-0,066	0,021
-657,145	-200,000	0,021	0,082
-656,130	11,963	0,062	0,036
-655,116	-154,935	0,051	0,002
-654,101	-129,966	0,148	0,015
-653,086	263,247	0,139	0,179
-652,072	800,000	-0,081	-0,177
-651,057	-127,884	0,099	-0,010
-650,043	-54,848	-0,019	-0,006
-649,028	800,000	-0,007	-0,021
-648,014	239,561	-0,030	-0,037
-646,999	-200,000	-0,001	0,115
-645,984	-200,000	0,027	0,158
-644,970	-200,000	0,002	0,047
-643,955	-13,917	0,013	0,006
-642,941	94,347	-0,045	0,038
-641,926	87,481	0,117	-0,096
-640,911	-121,213	-0,209	0,026
-639,897	7,572	-0,026	0,014
-638,882	-200,000	0,003	-0,098
-637,868	139,879	-0,061	-0,060
-636,853	-5,261	-0,051	0,026
-635,838	-61,368	0,171	-0,053
-634,824	-85,354	-0,040	-0,009
-633,809	-84,739	0,023	-0,005
-632,795	-71,379	0,065	-0,018
-631,780	262,249	-0,051	0,066
-630,765	180,995	0,048	0,052
-629,751	77,549	-0,218	-0,172
-628,736	222,513	-0,154	-0,185
-627,722	205,442	-0,066	-0,076
-626,707	13,470	0,093	0,053
-625,692	-8,532	-0,076	-0,038
-624,678	677,955	0,028	0,054
-623,663	-200,000	0,010	0,069
-622,649	230,712	-0,023	-0,028
-621,634	-200,000	-0,010	-0,252
-620,619	-124,841	-0,090	0,010
-619,605	1,944	0,066	-0,035
-618,590	36,014	0,131	-0,085
-617,576	-200,000	-0,009	0,067
-616,561	-24,741	-0,150	0,066
-615,546	57,045	0,106	-0,076
-614,532	-75,091	-0,096	-0,025
-613,517	-17,256	-0,076	-0,035
-612,503	-142,310	-0,078	-0,006
-611,488	-200,000	-0,026	0,134
-610,474	-200,000	-0,015	-0,135
-609,459	-200,000	-0,028	-0,138
-608,444	92,986	-0,054	0,046
-607,430	-78,516	0,062	-0,015
-606,415	34,688	-0,140	-0,091
-605,401	319,095	-0,015	0,020
-604,386	40,831	-0,037	-0,025
-603,371	485,546	-0,058	0,098
-602,357	111,462	0,153	0,137
-601,342	79,423	-0,046	-0,036
-600,328	461,554	0,049	0,082
-599,313	800,000	0,036	-0,094
-598,298	584,633	-0,027	-0,050
-597,284	351,681	0,075	0,110
-596,269	-187,187	-0,056	-0,001
-595,255	-54,284	0,059	-0,020
-594,240	800,000	-0,009	0,020
-593,225	-131,588	-0,081	0,008
-592,211	485,967	-0,054	-0,091
-591,196	-138,253	-0,092	0,007
-590,182	-200,000	-0,001	-0,037
-589,167	97,273	-0,073	-0,062
-588,152	223,387	0,096	-0,115
-587,138	-76,803	0,155	0,040
-586,123	-57,711	0,075	0,024
-585,109	-170,011	0,048	-0,001
-584,094	66,916	0,178	-0,134
-583,079	-200,000	0,033	0,111
-582,065	-133,247	0,116	0,011
-581,050	95,394	0,046	0,039
-580,036	-52,880	-0,012	0,004
-579,021	185,803	-0,073	0,080
-578,006	-30,069	-0,019	0,008
-576,992	-200,000	-0,011	0,058
-575,977	-120,743	0,024	0,003
-574,963	523,923	-0,047	0,083
-573,948	6,676	0,134	0,074
-572,934	800,000	-0,053	-0,134
-571,919	131,676	-0,022	-0,021
-570,904	-200,000	0,002	-0,016
-569,890	-139,244	-0,155	0,012
-568,875	-16,176	-0,077	-0,036
-567,861	800,000	-0,007	0,014
-566,846	129,656	0,057	-0,054
-565,831	800,000	-0,030	0,070
-564,817	76,399	-0,035	0,027
-563,802	232,847	-0,046	-0,056
-562,788	800,000	-0,030	-0,084
-561,773	-200,000	-0,020	0,066
-560,758	192,708	-0,060	0,067
-559,744	-65,091	-0,064	-0,019
-558,729	577,929	-0,056	0,102
-557,715	-48,289	-0,151	-0,054
-556,700	-200,000	0,002	-0,201
-555,685	-200,000	-0,011	-0,123
-554,671	800,000	-0,067	0,167
-553,656	-200,000	0,015	-0,051
-552,642	-12,522	0,105	-0,051
-551,627	420,433	-0,036	-0,058
-550,612	-200,000	-0,006	-0,196
-549,598	100,761	-0,097	-0,084
-548,583	-200,000	-0,005	-0,105
-547,569	-200,000	0,036	0,000
-546,554	545,899	0,072	0,127
-545,539	-18,230	-0,119	0,055
-544,525	-200,000	-0,009	-0,095
-543,510	-25,702	-0,116	0,050
-542,496	-48,464	0,064	0,023
-541,481	164,275	-0,094	-0,098
-540,466	36,078	0,094	-0,061
-539,452	-200,000	-0,005	0,024
-538,437	-37,799	-0,012	-0,005
-537,423	-30,871	-0,098	0,041
-536,408	-200,000	-0,002	-0,159
-535,393	800,000	0,013	-0,033
-534,379	89,316	0,021	0,018
-533,364	163,433	-0,022	0,023
-532,350	515,565	-0,030	0,052
-531,335	800,000	0,035	0,080
-530,321	246,777	0,072	0,090
-529,306	-89,082	0,093	-0,020
-528,291	309,626	0,062	-0,086
-527,277	-30,568	-0,082	-0,034
-526,262	-63,692	0,060	-0,018
-525,248	21,193	-0,037	-0,022
-524,233	-167,076	0,013	0,000
-523,218	-200,000	0,045	0,203
-522,204	-200,000	-0,015	0,067
-521,189	-71,847	-0,139	-0,038
-520,175	20,872	-0,060	-0,036
-519,160	265,787	0,066	-0,085
-518,145	-136,387	-0,054	0,005
-517,131	-87,176	0,220	0,049
-516,116	30,692	0,184	-0,116
-515,102	-140,028	-0,170	-0,013
-514,087	-200,000	-0,025	-0,111
-513,072	-38,530	-0,101	-0,039
-512,058	800,000	-0,016	0,041
-511,043	-129,550	0,088	-0,009
-510,029	556,133	-0,020	0,037
-509,014	255,775	-0,034	-0,043
-507,999	126,139	-0,062	0,058
-506,985	800,000	-0,045	-0,098
-505,970	109,280	-0,047	-0,041
-504,956	96,290	0,017	0,014
-503,941	-200,000	-0,034	0,125
-502,926	-44,645	0,075	-0,028
-501,912	461,690	0,112	-0,186
-500,897	476,746	0,031	0,052
-499,883	134,423	0,095	0,091
-498,868	-133,762	-0,076	-0,007
-497,853	-200,000	0,022	-0,133
-496,839	41,654	-0,114	0,076
-495,824	-63,600	0,042	-0,013
-494,810	54,988	0,040	0,028
-493,795	140,654	0,049	-0,048
-492,781	97,157	0,053	0,045
-491,766	113,021	0,087	0,078
-490,751	-200,000	0,007	-0,028
-489,737	-140,813	-0,053	-0,004
-488,722	800,000	-0,027	0,072
-487,708	41,517	0,058	0,039
-486,693	-200,000	0,025	-0,146
-485,678	-200,000	0,013	-0,122
-484,664	-135,512	-0,147	0,013
-483,649	530,832	0,069	0,121
-482,635	-165,208	0,043	0,001
-481,620	130,227	-0,081	-0,076
-480,605	56,202	0,159	0,113
-479,591	121,784	0,080	-0,074
-478,576	-200,000	0,009	-0,062
-477,562	800,000	0,031	-0,083
-476,547	325,188	-0,074	-0,104
-475,532	465,978	-0,065	0,108
-474,518	92,285	0,097	0,081
-473,503	341,589	0,074	0,106
-472,489	-200,000	0,012	0,080
-471,474	-200,000	0,014	-0,056
-470,459	252,641	-0,021	0,027
-469,445	800,000	-0,049	-0,143
-468,430	42,228	-0,083	-0,056
-467,416	0,002	-0,120	0,063
-466,401	275,890	0,098	0,129
-465,386	-200,000	0,025	-0,099
-464,372	0,257	-0,042	0,022
-463,357	800,000	-0,011	-0,024
-462,343	-143,357	0,121	0,008
-461,328	16,900	0,093	-0,054
-460,313	-6,959	-0,057	0,028
-459,299	-200,000	0,028	0,146
-458,284	-63,936	-0,133	-0,040
-457,270	800,000	0,036	0,084
-456,255	-200,000	0,009	-0,035
-455,241	-89,479	-0,016	-0,003
-454,226	108,035	0,139	-0,122
-453,211	-200,000	-0,009	0,148
-452,197	-200,000	-0,000	0,025
-451,182	-200,000	-0,000	0,009
-450,168	800,000	0,018	-0,050
-449,153	-200,000	0,041	-0,167
-448,138	-183,571	-0,124	-0,002
-447,124	-200,000	-0,011	-0,079
-446,109	284,146	0,037	-0,049
-445,095	-200,000	0,006	0,161
-444,080	-75,527	0,117	0,030
-443,065	-200,000	0,021	0,090
-442,051	-58,296	-0,084	-0,027
-441,036	-103,375	-0,104	-0,018
-440,022	-200,000	0,013	-0,077
-439,007	-200,000	0,005	0,213
-437,992	800,000	0,039	0,118
-436,978	-122,729	0,061	-0,007
-435,963	-14,266	-0,102	0,048
-434,949	-200,000	-0,001	0,013
-433,934	-109,663	0,060	0,009
-432,919	191,153	0,040	0,045
-431,905	148,549	-0,067	0,067
-430,890	-39,203	0,074	0,028
-429,876	800,000	-0,086	-0,206
-428,861	-200,000	0,004	-0,070
-427,846	-200,000	0,028	-0,097
-426,832	278,891	-0,039	-0,051
-425,817	-200,000	-0,050	-0,189
-424,803	116,704	-0,134	-0,121
-423,788	800,000	-0,013	-0,041
-422,773	272,070	-0,049	-0,063
-421,759	50,563	-0,040	0,028
-420,744	21,189	-0,101	0,060
-419,730	-140,549	-0,103	-0,008
-418,715	-9,733	-0,143	0,070
-417,701	800,000	0,033	0,105
-416,686	79,862	0,099	-0,078
-415,671	146,297	0,061	0,060
-414,657	-32,320	0,039	-0,016
-413,642	-200,000	-0,004	0,031
-412,628	73,037	-0,015	-0,012
-411,613	19,627	-0,114	-0,067
-410,598	-22,508	-0,107	0,048
-409,584	-66,520	0,075	-0,022
-408,569	-38,325	-0,056	-0,022
-407,555	-68,592	-0,054	0,015
-406,540	-150,181	0,153	-0,009
-405,525	22,041	0,129	-0,077
-404,511	59,851	-0,055	0,040
-403,496	42,173	-0,027	0,018
-402,482	87,674	-0,052	0,043
-401,467	-200,000	0,003	0,179
-400,452	-98,994	-0,035	0,007
-399,438	1,100	-0,068	0,036
-398,423	-200,000	-0,012	0,056
-397,409	-4,382	0,054	-0,028
-396,394	125,654	0,052	0,048
-395,379	-200,000	0,011	-0,037
-394,365	-132,736	0,108	-0,010
-393,350	155,701	0,074	0,075
-392,336	53,729	-0,149	0,105
-391,321	-200,000	0,013	0,102
-390,306	-200,000	0,018	-0,147
-389,292	-4,304	0,134	0,068
-388,277	800,000	-0,096	0,268
-387,263	-66,007	-0,133	0,039
-386,248	87,513	0,064	-0,052
-385,233	-191,654	0,109	-0,001
-384,219	346,452	0,053	-0,077
-383,204	130,365	-0,131	-0,124
-382,190	-56,711	-0,212	0,069
-381,175	-56,249	0,093	0,030
-380,160	-68,533	-0,043	-0,012
-379,146	300,473	0,064	0,087
-378,131	-33,878	0,027	0,011
-377,117	-200,000	0,001	0,023
-376,102	-78,096	0,146	0,037
-375,088	-200,000	0,015	-0,054
-374,073	800,000	-0,034	-0,081
-373,058	-25,153	-0,057	0,025
-372,044	242,675	0,122	0,150
-371,029	-176,607	0,046	0,001
-370,015	800,000	0,073	-0,170
-369,000	800,000	0,036	0,074
-367,985	-50,737	0,065	0,023
-366,971	800,000	-0,076	-0,209
-365,956	214,768	0,075	-0,087
-364,942	123,726	0,025	-0,023
-363,927	335,991	0,037	0,053
-362,912	-9,577	-0,094	0,046
-361,898	5,353	-0,106	0,057
-360,883	-200,000	0,017	-0,076
-359,869	-96,497	-0,031	-0,006
-358,854	-146,654	0,015	0,001
-357,839	-20,300	-0,066	0,030
-356,825	-200,000	0,015	0,088
-355,810	-200,000	0,003	0,140
-354,796	-26,094	-0,048	0,021
-353,781	25,754	-0,089	0,054
-352,766	474,960	0,069	-0,116
-351,752	-107,004	0,091	0,015
-350,737	2,017	0,032	-0,017
-349,723	-200,000	0,011	-0,098
-348,708	-152,265	0,085	0,004
-347,693	800,000	0,039	0,095
-346,679	-12,131	-0,047	-0,022
-345,664	-100,916	0,043	-0,008
-344,650	3,164	-0,128	0,068
-343,635	-200,000	-0,001	0,021
-342,620	-200,000	0,011	0,113
-341,606	188,211	-0,074	0,081
-340,591	298,070	-0,036	-0,048
-339,577	284,369	-0,064	-0,084
-338,562	800,000	0,009	-0,019
-337,548	-200,000	0,005	0,058
-336,533	-200,000	0,007	0,118
-335,518	-20,166	-0,097	0,044
-334,504	97,629	0,183	0,154
-333,489	82,823	0,127	-0,101
-332,475	159,254	-0,033	-0,034
-331,460	65,528	-0,081	-0,060
-330,445	388,495	0,023	0,034
-329,431	-200,000	-0,014	0,088
-328,416	-108,606	0,059	0,009
-327,402	-200,000	0,050	0,163
-326,387	-200,000	-0,001	0,007
-325,372	-200,000	0,009	-0,064
-324,358	258,212	-0,018	-0,022
-323,343	-112,979	0,120	-0,017
-322,329	-143,511	0,136	0,009
-321,314	318,465	-0,101	0,140
-320,299	800,000	0,035	-0,089
-319,285	251,135	0,036	-0,045
-318,270	-128,841	0,083	-0,008
-317,256	-174,069	-0,059	-0,001
-316,241	-47,824	-0,058	-0,020
-315,226	-91,406	-0,070	-0,015
-314,212	-83,284	0,060	-0,014
-313,197	800,000	-0,014	-0,031
-312,183	193,761	0,060	0,066
-311,168	-200,000	0,025	-0,115
-310,153	-102,741	-0,049	-0,009
-309,139	227,511	0,047	-0,056
-308,124	80,049	0,169	0,133
-307,110	-108,101	-0,121	0,019
-306,095	-141,045	0,109	0,008
-305,080	-74,043	-0,037	0,010
-304,066	321,921	0,107	-0,149
-303,051	172,215	0,027	-0,029
-302,037	-200,000	-0,004	-0,015
-301,022	-65,027	-0,082	0,024
-300,008	800,000	0,020	0,058
-298,993	-68,633	-0,094	0,027
-297,978	-126,357	0,129	0,014
-296,964	-200,000	-0,006	0,059
-295,949	800,000	-0,019	0,051
-294,935	543,807	0,077	-0,135
-293,920	306,616	0,085	-0,116
-292,905	800,000	0,050	0,135
-291,891	34,612	-0,032	0,020
-290,876	219,487	0,032	-0,038
-289,862	-55,273	0,121	-0,040
-288,847	268,622	0,072	-0,092
-287,832	-169,332	0,042	-0,001
-286,818	151,190	0,038	0,038
-285,803	800,000	0,030	-0,068
-284,789	584,980	0,009	0,016
-283,774	56,911	0,136	-0,097
-282,759	-200,000	0,007	-0,047
-281,745	152,801	-0,090	0,090
-280,730	-93,667	0,061	-0,012
-279,716	-200,000	0,024	0,123
-278,701	108,093	-0,090	0,078
-277,686	-16,989	-0,068	0,031
-276,672	-79,993	0,033	0,008
-275,657	-200,000	0,004	0,152
-274,643	29,405	-0,075	-0,046
-273,628	-200,000	-0,019	-0,088
-272,613	-148,276	-0,106	-0,006
-271,599	-91,228	0,084	-0,017
-270,584	-117,863	-0,114	0,015
-269,570	-200,000	-0,018	0,176
-268,555	-88,750	0,028	0,006
-267,540	194,568	-0,041	-0,046
-266,526	42,296	-0,159	-0,106
-265,511	317,954	0,062	0,086
-264,497	384,157	0,011	0,017
-263,482	-200,000	0,025	-0,116
-262,467	800,000	0,030	0,073
-261,453	-116,181	-0,035	-0,005
-260,438	236,398	0,106	0,129
-259,424	73,270	0,101	-0,078
-258,409	-200,000	0,023	-0,107
-257,395	-150,396	0,054	0,003
-256,380	-200,000	-0,013	0,246
-255,365	-200,000	0,015	0,189
-254,351	-200,000	-0,003	0,130
-253,336	-115,120	0,061	0,008
-252,322	107,072	0,062	0,054
-251,307	-200,000	0,031	0,116
-250,292	-200,000	0,017	0,133
-249,278	-4,126	0,110	-0,056
-248,263	155,915	-0,087	-0,088
-247,249	-128,217	-0,122	0,013
-246,234	800,000	0,030	0,075
-245,219	800,000	0,058	-0,149
-244,205	-133,053	-0,126	-0,011
-243,190	13,209	-0,064	-0,036
-242,176	23,248	0,162	0,097
-241,161	134,324	-0,050	0,047
-240,146	634,036	0,098	0,182
-239,132	-59,138	-0,065	-0,020
-238,117	-200,000	-0,010	-0,058
-237,103	268,094	-0,108	0,139
-236,088	-76,700	0,047	-0,012
-235,073	388,346	0,027	0,041
-234,059	-200,000	0,000	-0,044
-233,044	165,238	0,016	-0,016
-232,030	-200,000	-0,008	-0,048
-231,015	-72,215	-0,068	0,018
-230,000	575,145	0,060	-0,107
-228,986	-200,000	-0,013	-0,159
-227,971	-26,455	-0,059	-0,025
-226,957	-200,000	-0,013	0,079
-225,942	39,378	-0,036	-0,023
-224,927	-200,000	-0,004	-0,050
-223,913	358,573	-0,097	-0,142
-222,898	-10,536	0,132	-0,064
-221,884	-200,000	0,018	-0,159
-220,869	-64,673	0,064	0,019
-219,855	214,454	0,071	-0,082
-218,840	72,551	0,026	0,019
-217,825	472,980	-0,012	-0,020
-216,811	295,414	0,053	-0,071
-215,796	-119,807	-0,027	0,003
-214,782	-200,000	-0,010	0,078
-213,767	205,085	0,044	0,050
-212,752	-32,607	0,030	0,012
-211,738	800,000	-0,043	0,109
-210,723	-200,000	0,003	-0,022
-209,709	81,050	0,066	-0,052
-208,694	237,687	-0,055	-0,067
-207,679	-200,000	0,006	0,044
-206,665	-200,000	-0,001	0,009
-205,650	-46,020	-0,032	-0,011
-204,636	800,000	-0,042	-0,124
-203,621	63,035	0,124	-0,091
-202,606	108,705	0,033	0,029
-201,592	-120,935	-0,188	0,023
-200,577	-200,000	-0,001	-0,151
-199,563	-144,233	0,078	0,005
-198,548	-200,000	-0,004	0,034
-197,533	37,214	-0,056	-0,036
-196,519	-200,000	0,007	-0,054
-195,504	327,796	0,101	-0,142
-194,490	-118,111	-0,092	-0,012
-193,475	58,352	-0,038	-0,027
-192,460	441,586	-0,046	0,074
-191,446	-200,000	-0,012	0,121
-190,431	-200,000	-0,016	0,192
-189,417	800,000	0,013	0,031
-188,402	146,945	0,009	0,009
-187,387	271,001	0,080	-0,103
-186,373	19,257	-0,096	-0,056
-185,358	29,240	-0,026	-0,016
-184,344	311,372	0,066	-0,091
-183,329	109,438	0,094	0,082
-182,315	-200,000	0,017	0,066
-181,300	-70,076	-0,100	0,027
-180,285	-200,000	-0,009	-0,038
-179,271	101,612	-0,071	-0,061
-178,256	800,000	-0,012	0,027
-177,242	-195,387	0,052	0,000
-176,227	101,491	-0,078	-0,066
-175,212	111,584	0,090	0,079
-174,198	-200,000	-0,006	0,059
-173,183	-111,759	-0,147	0,021
-172,169	33,522	-0,072	-0,045
-171,154	146,726	-0,060	-0,059
-170,139	-27,276	0,114	0,048
-169,125	107,639	0,096	0,084
-168,110	800,000	0,048	0,128
-167,096	109,853	0,047	-0,041
-166,081	-200,000	-0,013	-0,058
-165,066	-197,599	-0,088	0,000
-164,052	723,356	-0,046	-0,089
-163,037	-200,000	-0,012	-0,052
-162,023	41,714	0,092	0,061
-161,008	800,000	0,043	0,126
-159,993	442,487	-0,089	0,143
-158,979	-47,884	-0,066	0,023
-157,964	97,742	-0,085	-0,072
-156,950	127,276	0,066	-0,061
-155,935	210,804	0,060	-0,069
-154,920	-73,883	0,020	0,005
-153,906	-200,000	-0,010	0,119
-152,891	-200,000	0,003	0,073
-151,877	345,026	-0,083	0,118
-150,862	523,111	-0,031	0,053
-149,847	-154,176	-0,122	0,006
-148,833	800,000	0,034	0,092
-147,818	800,000	-0,020	0,060
-146,804	-200,000	0,000	-0,040
-145,789	-200,000	0,005	-0,017
-144,775	-87,324	-0,132	-0,029
-143,760	800,000	0,054	-0,114
-142,745	362,948	0,038	0,056
-141,731	550,492	0,044	-0,077
-140,716	23,502	0,179	-0,107
-139,702	366,997	-0,059	0,087
-138,687	360,286	0,031	-0,045
-137,672	178,035	0,117	0,124
-136,658	-200,000	0,002	-0,057
-135,643	-132,475	0,152	0,014
-134,629	160,555	0,103	-0,104
-133,614	279,365	-0,091	-0,118
-132,599	16,335	0,065	0,037
-131,585	0,629	0,086	0,045
-130,570	-161,063	-0,030	0,001
-129,556	-200,000	0,003	-0,064
-128,541	-62,079	0,078	0,023
-127,526	164,373	-0,050	-0,052
-126,512	-142,086	0,040	-0,003
-125,497	-200,000	0,007	0,083
-124,483	-115,627	-0,061	0,008
-123,468	52,367	0,185	0,128
-122,453	-69,595	-0,236	-0,065
-121,439	-200,000	-0,017	-0,142
-120,424	-32,625	-0,145	-0,059
-119,410	153,050	-0,039	-0,039
