DTS Sentinel unit serial number:	SN410029Multiplexer serial number:	ORYXHardware model number:	OX2-SRSoftware version number:	ORYX F/W v4,00 Oryx Data Collector v3.7.2.0data status	okinstallation	B6 Nyhavnadifferential loss correction	single-endedforward channel	channel 2reverse channel	N/Adate	2023/12/10time	10:40:08forward acquisition time	300,00reverse acquisition time	0,00gamma	499,1914k internal	0,3122k external	0,3122temperature offset calibration	1,0000default loss term (dB/km)	0,3820temperature slope calibration	1,0000multiplexer offset coefficient	1,0000multiplexer slope coefficient	1,0000fibre end	0,00T internal ref (°C)	22,57T ext. ref 1 (°C)	6,44T ext. ref 2 (°C)	6,44length (m)	temperature (°C)	Stokes	anti-Stokes-744,400	800,000	-0,050	-0,128
-743,385	-39,541	-0,228	0,089
-742,371	113,174	0,036	-0,032
-741,356	82,404	-0,153	0,124
-740,342	-51,501	0,204	-0,071
-739,327	-106,966	-0,081	-0,013
-738,312	800,000	-0,052	-0,143
-737,298	-77,084	-0,206	0,053
-736,283	-200,000	0,014	-0,045
-735,269	172,143	-0,152	0,164
-734,254	-87,151	-0,063	-0,014
-733,239	-78,518	-0,453	-0,115
-732,225	800,000	0,051	0,134
-731,210	190,088	0,026	0,029
-730,196	800,000	-0,042	-0,130
-729,181	-200,000	0,017	-0,067
-728,167	-111,011	0,108	-0,016
-727,152	62,964	-0,105	0,078
-726,137	38,483	-0,031	-0,021
-725,123	-71,115	-0,011	0,003
-724,108	-71,354	-0,103	0,028
-723,094	12,298	-0,160	-0,091
-722,079	188,984	-0,030	-0,034
-721,064	-96,344	-0,176	-0,034
-720,050	-35,728	0,090	0,036
-719,035	800,000	-0,012	-0,037
-718,021	-78,452	-0,075	-0,019
-717,006	12,996	-0,093	-0,053
-715,991	199,906	-0,097	-0,111
-714,977	-200,000	0,000	0,029
-713,962	-200,000	-0,019	-0,141
-712,948	-12,943	0,082	0,040
-711,933	-28,034	-0,096	-0,041
-710,918	-86,449	0,080	-0,018
-709,904	-200,000	-0,009	-0,145
-708,889	361,711	-0,075	-0,112
-707,875	260,520	-0,067	0,086
-706,860	185,760	-0,026	0,028
-705,845	75,132	0,061	0,048
-704,831	160,043	-0,055	0,057
-703,816	-55,023	0,089	-0,030
-702,802	-100,138	0,068	-0,013
-701,787	-200,000	0,018	-0,098
-700,772	23,816	-0,088	0,054
-699,758	22,347	0,032	0,019
-698,743	438,991	-0,046	0,075
-697,729	-152,527	0,141	0,007
-696,714	97,884	-0,083	0,071
-695,699	75,552	0,062	-0,049
-694,685	153,493	-0,009	0,009
-693,670	-200,000	-0,018	-0,075
-692,656	-66,160	-0,060	0,018
-691,641	203,874	-0,107	0,124
-690,627	-200,000	0,006	0,043
-689,612	-27,100	-0,203	-0,088
-688,597	12,386	0,064	0,036
-687,583	800,000	0,056	-0,126
-686,568	203,398	-0,089	-0,102
-685,554	800,000	-0,046	-0,145
-684,539	800,000	0,046	0,103
-683,524	53,219	-0,116	0,083
-682,510	-66,642	-0,066	0,019
-681,495	800,000	-0,023	-0,065
-680,481	-123,527	0,076	0,009
-679,466	-40,522	-0,055	0,021
-678,451	55,092	-0,033	-0,023
-677,437	800,000	-0,051	-0,128
-676,422	44,953	0,078	0,054
-675,408	-189,791	0,060	0,000
-674,393	-200,000	0,007	-0,074
-673,378	259,193	-0,088	0,113
-672,364	800,000	-0,036	0,091
-671,349	117,587	-0,131	0,120
-670,335	609,025	0,025	0,047
-669,320	-200,000	0,005	0,088
-668,305	800,000	0,028	0,072
-667,291	-102,019	-0,084	0,015
-666,276	87,513	-0,126	-0,104
-665,262	800,000	-0,022	-0,051
-664,247	-63,342	-0,087	-0,026
-663,232	-200,000	0,012	0,075
-662,218	800,000	-0,015	0,034
-661,203	42,665	-0,085	-0,057
-660,189	800,000	-0,015	0,032
-659,174	-99,700	0,169	-0,031
-658,159	-90,231	0,131	0,028
-657,145	382,295	0,054	-0,083
-656,130	800,000	-0,087	0,197
-655,116	-200,000	0,011	-0,085
-654,101	485,732	0,052	0,089
-653,086	-139,880	-0,083	0,006
-652,072	88,080	-0,067	-0,056
-651,057	-23,105	-0,132	-0,059
-650,043	162,907	-0,081	-0,084
-649,028	574,801	-0,063	0,115
-648,014	-200,000	0,039	0,231
-646,999	589,337	-0,073	0,134
-645,984	737,357	0,023	0,045
-644,970	375,443	-0,090	-0,137
-643,955	-90,709	-0,029	0,006
-642,941	-65,226	0,029	-0,009
-641,926	-200,000	0,013	-0,118
-640,911	-154,371	0,067	0,003
-639,897	170,650	-0,048	0,051
-638,882	-53,675	0,056	-0,019
-637,868	-49,150	-0,015	-0,005
-636,853	68,447	-0,059	-0,045
-635,838	-200,000	0,018	-0,131
-634,824	242,875	0,124	-0,154
-633,809	76,172	0,077	0,061
-632,795	-8,273	0,086	-0,043
-631,780	-7,415	-0,127	-0,063
-630,765	112,659	-0,044	0,039
-629,751	-41,813	0,094	0,036
-628,736	-8,799	0,041	0,021
-627,722	-185,093	0,056	0,001
-626,707	-83,643	0,058	-0,014
-625,692	-200,000	0,002	-0,026
-624,678	73,218	-0,212	-0,164
-623,663	109,532	0,138	-0,123
-622,649	-200,000	0,009	-0,087
-621,634	85,335	0,047	-0,038
-620,619	-28,895	0,066	-0,028
-619,605	-121,541	0,095	0,012
-618,590	-200,000	0,000	-0,101
-617,576	84,501	0,071	0,058
-616,561	462,584	0,039	-0,065
-615,546	-200,000	-0,007	-0,078
-614,532	5,352	-0,027	-0,015
-613,517	-200,000	-0,011	0,046
-612,503	-200,000	0,013	-0,047
-611,488	18,159	-0,075	-0,044
-610,474	800,000	0,020	0,058
-609,459	213,631	-0,013	0,016
-608,444	-130,133	-0,161	-0,016
-607,430	800,000	-0,028	-0,073
-606,415	-84,772	0,064	0,015
-605,401	-200,000	0,013	-0,065
-604,386	-200,000	0,010	0,075
-603,371	-56,645	-0,086	0,028
-602,357	52,081	-0,073	-0,052
-601,342	308,765	0,068	0,094
-600,328	-64,517	-0,099	0,030
-599,313	510,293	-0,025	0,044
-598,298	172,665	0,045	-0,048
-597,284	800,000	0,028	0,084
-596,269	-200,000	0,020	0,117
-595,255	229,936	-0,031	0,037
-594,240	-179,769	-0,066	0,001
-593,225	303,754	-0,057	-0,078
-592,211	-74,524	0,146	-0,039
-591,196	290,654	-0,036	-0,048
-590,182	-200,000	-0,026	0,187
-589,167	156,866	0,082	0,085
-588,152	-53,388	-0,025	0,008
-587,138	-200,000	0,017	-0,075
-586,123	218,918	-0,031	0,037
-585,109	-38,451	-0,087	0,034
-584,094	-200,000	-0,015	0,069
-583,079	596,119	-0,020	0,037
-582,065	-133,772	0,038	-0,004
-581,050	-138,962	-0,088	0,007
-580,036	-200,000	0,047	-0,195
-579,021	270,749	0,065	-0,085
-578,006	-200,000	0,015	-0,069
-576,992	-130,769	-0,104	0,010
-575,977	100,559	-0,131	-0,113
-574,963	-200,000	-0,011	0,098
-573,948	-125,956	-0,125	0,014
-572,934	-57,591	-0,149	-0,048
-571,919	393,399	-0,066	-0,102
-570,904	133,814	-0,084	-0,081
-569,890	-101,151	-0,103	0,019
-568,875	-75,018	0,065	-0,017
-567,861	-200,000	-0,008	-0,092
-566,846	-79,095	-0,055	0,014
-565,831	-23,678	0,054	0,024
-564,817	-200,000	0,001	-0,013
-563,802	-200,000	-0,006	-0,039
-562,788	39,927	-0,059	-0,039
-561,773	-94,010	0,082	0,017
-560,758	800,000	0,034	0,108
-559,744	11,768	-0,050	0,029
-558,729	-200,000	-0,007	0,110
-557,715	-68,396	-0,086	0,024
-556,700	-46,173	0,099	-0,036
-555,685	14,450	0,100	-0,057
-554,671	-90,940	-0,172	-0,036
-553,656	-127,918	0,024	0,003
-552,642	-16,005	0,051	0,024
-551,627	-200,000	-0,005	0,132
-550,612	-101,399	-0,082	-0,015
-549,598	800,000	0,018	-0,044
-548,583	219,005	-0,035	0,042
-547,569	-47,723	-0,038	-0,013
-546,554	-200,000	0,003	0,045
-545,539	22,705	0,079	0,047
-544,525	-132,344	-0,018	0,002
-543,510	800,000	0,021	-0,060
-542,496	30,256	-0,149	-0,094
-541,481	-125,301	0,064	-0,007
-540,466	77,216	-0,065	-0,051
-539,452	292,666	0,103	-0,139
-538,437	-200,000	0,028	0,110
-537,423	234,979	-0,021	0,026
-536,408	800,000	0,012	-0,028
-535,393	4,197	0,076	0,041
-534,379	-67,386	-0,147	-0,042
-533,364	421,098	-0,059	-0,093
-532,350	725,071	0,020	0,041
-531,335	800,000	-0,033	0,082
-530,321	83,647	0,076	-0,061
-529,306	49,483	-0,108	-0,075
-528,291	632,650	-0,058	-0,108
-527,277	59,800	0,041	-0,030
-526,262	800,000	0,032	-0,101
-525,248	800,000	0,018	-0,043
-524,233	165,136	0,183	0,191
-523,218	-200,000	-0,011	-0,086
-522,204	91,104	0,182	-0,151
-521,189	-200,000	0,007	0,046
-520,175	155,543	-0,157	-0,160
-519,160	800,000	0,012	-0,034
-518,145	-200,000	0,011	-0,121
-517,131	-68,429	0,063	-0,018
-516,116	-200,000	-0,011	0,040
-515,102	800,000	-0,022	-0,048
-514,087	148,152	-0,062	0,062
-513,072	-66,877	-0,082	0,024
-512,058	35,913	0,062	0,040
-511,043	-200,000	-0,011	0,086
-510,029	237,542	0,126	0,155
-509,014	-200,000	0,002	-0,024
-507,999	-200,000	0,018	0,099
-506,985	70,695	0,039	-0,030
-505,970	800,000	-0,017	0,040
-504,956	-1,414	-0,116	-0,061
-503,941	-115,060	-0,079	0,011
-502,926	83,132	0,102	0,082
-501,912	-200,000	0,008	0,063
-500,897	-126,593	-0,092	0,010
-499,883	-109,787	0,098	0,015
-498,868	38,991	-0,033	-0,022
-497,853	272,209	-0,043	-0,056
-496,839	800,000	0,026	-0,081
-495,824	18,412	-0,078	-0,046
-494,810	-120,054	0,045	0,006
-493,795	800,000	-0,013	-0,037
-492,781	529,953	0,028	-0,049
-491,766	-200,000	0,006	-0,055
-490,751	-156,623	-0,052	0,002
-489,737	-100,573	0,080	0,014
-488,722	800,000	-0,009	0,021
-487,708	115,455	0,177	0,160
-486,693	-200,000	0,016	0,146
-485,678	-117,320	-0,142	0,019
-484,664	475,915	-0,060	-0,100
-483,649	-92,674	-0,084	-0,017
-482,635	-13,568	0,135	-0,064
-481,620	26,008	0,170	0,104
-480,605	-200,000	0,003	0,083
-479,591	136,336	-0,030	0,029
-478,576	198,729	0,050	0,057
-477,562	-30,817	-0,092	-0,038
-476,547	-40,375	-0,064	0,024
-475,532	100,530	0,076	0,065
-474,518	-55,703	-0,044	-0,014
-473,503	316,769	0,112	0,157
-472,489	-200,000	0,006	-0,043
-471,474	-200,000	-0,013	0,128
-470,459	-43,159	-0,118	0,044
-469,445	239,460	-0,085	-0,105
-468,430	-34,090	0,080	0,032
-467,416	800,000	0,027	-0,068
-466,401	94,974	0,022	0,018
-465,386	-200,000	-0,014	0,075
-464,372	686,914	-0,034	0,065
-463,357	85,537	-0,067	-0,054
-462,343	-3,303	-0,042	0,022
-461,328	-200,000	-0,011	-0,047
-460,313	-83,131	-0,051	0,012
-459,299	120,883	-0,082	-0,075
-458,284	425,946	0,019	0,031
-457,270	-79,428	-0,124	-0,031
-456,255	-3,132	-0,071	0,036
-455,241	-101,893	-0,156	0,028
-454,226	70,005	-0,126	-0,096
-453,211	55,766	-0,124	-0,089
-452,197	-106,136	-0,129	-0,021
-451,182	-68,352	-0,110	0,031
-450,168	-11,433	-0,035	-0,017
-449,153	-198,142	-0,081	-0,000
-448,138	-156,863	-0,062	0,003
-447,124	61,860	-0,018	-0,013
-446,109	-60,040	-0,144	-0,045
-445,095	300,946	-0,068	-0,093
-444,080	-200,000	0,033	0,113
-443,065	-200,000	0,001	0,047
-442,051	10,252	0,048	-0,027
-441,036	-129,708	0,087	0,009
-440,022	-200,000	-0,032	0,152
-439,007	-200,000	-0,024	-0,083
-437,992	164,134	-0,022	0,023
-436,978	-193,443	0,102	0,001
-435,963	-200,000	0,047	-0,164
-434,949	800,000	0,047	-0,138
-433,934	41,475	0,100	-0,066
-432,919	-200,000	0,025	0,137
-431,905	-200,000	-0,003	-0,069
-430,890	572,528	0,024	-0,043
-429,876	-53,127	0,159	0,054
-428,861	417,299	-0,034	-0,054
-427,846	-20,296	-0,068	0,031
-426,832	-200,000	0,005	-0,022
-425,817	800,000	-0,019	-0,061
-424,803	-200,000	-0,047	0,169
-423,788	-136,486	0,095	-0,008
-422,773	800,000	0,056	0,147
-421,759	-200,000	-0,014	0,111
-420,744	800,000	0,042	0,102
-419,730	177,552	-0,030	0,033
-418,715	-10,967	0,094	-0,046
-417,701	219,801	-0,035	-0,041
-416,686	-200,000	0,001	-0,013
-415,671	800,000	-0,010	0,027
-414,657	800,000	0,034	-0,087
-413,642	0,891	0,041	-0,022
-412,628	180,999	-0,050	-0,054
-411,613	-6,809	0,101	-0,050
-410,598	210,588	0,134	-0,155
-409,584	63,090	-0,037	0,027
-408,569	800,000	-0,062	-0,139
-407,555	-144,804	-0,116	-0,008
-406,540	627,266	-0,067	0,124
-405,525	-200,000	-0,030	0,123
-404,511	282,971	0,095	-0,126
-403,496	-176,403	-0,125	0,002
-402,482	-195,183	0,063	-0,000
-401,467	800,000	0,091	0,191
-400,452	-200,000	0,017	0,096
-399,438	-200,000	-0,006	0,034
-398,423	800,000	-0,081	0,220
-397,409	-178,908	-0,122	-0,002
-396,394	383,125	0,033	-0,050
-395,379	93,107	-0,017	-0,014
-394,365	122,213	0,038	-0,035
-393,350	14,160	0,134	0,076
-392,336	69,800	-0,058	-0,044
-391,321	65,713	0,162	0,121
-390,306	-110,858	-0,059	-0,009
-389,292	-200,000	-0,041	-0,137
-388,277	800,000	0,006	0,018
-387,263	114,615	0,022	-0,019
-386,248	204,803	0,081	0,093
-385,233	-31,315	-0,077	-0,032
-384,219	32,669	0,076	-0,048
-383,204	15,671	-0,136	-0,079
-382,190	-200,000	0,010	-0,051
-381,175	388,721	0,012	-0,019
-380,160	49,831	0,122	-0,085
-379,146	-57,116	-0,085	0,027
-378,131	-200,000	0,007	0,150
-377,117	286,284	-0,061	0,081
-376,102	20,181	0,107	-0,063
-375,088	203,251	-0,095	-0,108
-374,073	-200,000	-0,022	-0,099
-373,058	-22,273	0,061	-0,027
-372,044	434,634	-0,017	-0,028
-371,029	-47,751	-0,034	0,012
-370,015	372,037	-0,037	-0,055
-369,000	92,467	0,070	0,058
-367,985	-69,489	0,037	-0,010
-366,971	291,588	-0,080	-0,107
-365,956	27,543	-0,027	-0,017
-364,942	142,796	0,078	0,076
-363,927	800,000	-0,043	-0,090
-362,912	-54,858	-0,095	0,031
-361,898	424,316	0,081	-0,129
-360,883	-200,000	-0,006	-0,085
-359,869	800,000	-0,021	0,068
-358,854	800,000	0,002	-0,006
-357,839	800,000	-0,018	0,049
-356,825	-2,598	0,108	0,056
-355,810	800,000	0,007	0,014
-354,796	54,970	0,026	-0,018
-353,781	-60,971	-0,064	0,020
-352,766	122,732	0,070	-0,064
-351,752	-177,649	0,179	0,003
-350,737	-200,000	-0,009	-0,062
-349,723	241,254	0,062	0,076
-348,708	-100,398	0,076	0,014
-347,693	-200,000	-0,004	-0,062
-346,679	-200,000	0,009	-0,125
-345,664	126,089	-0,133	-0,123
-344,650	138,949	-0,088	-0,085
-343,635	66,406	0,050	0,037
-342,620	0,968	-0,054	0,028
-341,606	800,000	0,004	0,010
-340,591	-200,000	0,009	-0,031
-339,577	-66,854	-0,103	0,030
-338,562	126,537	-0,063	-0,059
-337,548	149,137	-0,118	-0,117
-336,533	172,749	0,147	0,155
-335,518	-40,311	0,142	0,054
-334,504	19,967	0,187	0,110
-333,489	800,000	0,022	0,065
-332,475	545,478	-0,050	-0,087
-331,460	-101,580	-0,153	0,027
-330,445	-200,000	0,003	0,043
-329,431	76,288	0,113	0,088
-328,416	800,000	0,071	0,170
-327,402	800,000	0,045	0,095
-326,387	-200,000	-0,005	0,091
-325,372	270,761	0,094	-0,121
-324,358	-28,103	-0,060	-0,025
-323,343	402,171	0,085	-0,131
-322,329	800,000	-0,019	-0,053
-321,314	77,585	0,104	-0,081
-320,299	-139,729	0,136	0,010
-319,285	29,484	0,044	0,027
-318,270	38,786	-0,098	0,064
-317,256	-200,000	-0,014	-0,067
-316,241	800,000	-0,007	-0,015
-315,226	14,342	-0,052	-0,029
-314,212	394,704	0,040	0,061
-313,197	-8,871	0,112	-0,055
-312,183	-101,911	0,093	0,016
-311,168	144,174	-0,056	-0,055
-310,153	-200,000	-0,011	-0,094
-309,139	-200,000	-0,003	-0,110
-308,124	-37,939	0,110	-0,043
-307,110	240,135	-0,076	0,093
-306,095	-200,000	-0,006	0,129
-305,080	-200,000	0,063	0,216
-304,066	42,772	-0,033	-0,022
-303,051	7,097	-0,210	-0,114
-302,037	-200,000	-0,019	-0,204
-301,022	36,007	-0,037	0,024
-300,008	-72,653	0,133	-0,036
-298,993	109,301	-0,022	0,020
-297,978	-200,000	0,017	0,145
-296,964	785,821	0,031	-0,063
-295,949	-200,000	-0,016	-0,134
-294,935	129,547	0,032	-0,030
-293,920	-200,000	-0,002	-0,026
-292,905	800,000	-0,056	-0,175
-291,891	-9,493	-0,036	0,017
-290,876	800,000	0,016	0,042
-289,862	89,135	-0,024	-0,020
-288,847	800,000	-0,096	-0,217
-287,832	294,864	0,046	-0,062
-286,818	-200,000	-0,011	0,108
-285,803	328,590	0,093	0,132
-284,789	433,665	0,051	0,082
-283,774	-200,000	-0,013	0,100
-282,759	524,103	-0,109	0,188
-281,745	-57,023	-0,170	0,054
-280,730	13,257	0,066	0,038
-279,716	-200,000	0,001	-0,014
-278,701	800,000	0,048	0,125
-277,686	274,314	0,119	0,155
-276,672	800,000	-0,030	0,080
-275,657	371,806	-0,037	-0,055
-274,643	29,535	0,062	0,038
-273,628	87,982	0,046	0,037
-272,613	456,842	-0,067	-0,110
-271,599	8,608	0,092	0,051
-270,584	752,408	0,061	0,122
-269,570	-84,213	-0,103	0,024
-268,555	269,738	-0,047	0,060
-267,540	-163,247	-0,117	-0,004
-266,526	800,000	-0,008	0,018
-265,511	97,484	-0,069	0,058
-264,497	800,000	0,030	0,078
-263,482	57,925	0,042	-0,030
-262,467	-3,012	0,083	0,042
-261,453	-200,000	-0,006	0,064
-260,438	-81,466	0,118	-0,028
-259,424	-200,000	0,003	-0,066
-258,409	-200,000	0,001	-0,205
-257,395	139,370	0,072	0,070
-256,380	505,438	0,035	0,059
-255,365	-200,000	0,018	0,091
-254,351	-200,000	0,024	0,117
-253,336	800,000	-0,016	0,036
-252,322	565,870	0,032	-0,057
-251,307	24,615	-0,183	-0,111
-250,292	105,992	0,068	0,059
-249,278	221,961	-0,055	0,065
-248,263	-200,000	0,010	0,174
-247,249	-200,000	-0,011	-0,163
-246,234	-200,000	-0,009	-0,090
-245,219	754,932	0,033	-0,066
-244,205	675,605	0,016	-0,030
-243,190	-84,370	-0,060	0,014
-242,176	-200,000	0,009	0,149
-241,161	167,757	0,030	-0,031
-240,146	-153,263	0,030	-0,002
-239,132	421,260	0,022	0,035
-238,117	398,452	-0,040	-0,061
-237,103	6,248	-0,096	-0,052
-236,088	-101,499	0,092	0,016
-235,073	-200,000	0,031	-0,162
-234,059	-9,017	0,122	0,059
-233,044	-45,874	-0,055	0,020
-232,030	-45,736	-0,064	-0,023
-231,015	-110,835	0,040	0,006
-230,000	800,000	0,039	-0,085
-228,986	-200,000	0,003	-0,011
-227,971	507,230	0,034	-0,058
-226,957	-200,000	0,022	0,134
-225,942	-200,000	-0,006	0,172
-224,927	349,984	0,037	0,054
-223,913	-18,251	-0,147	-0,067
-222,898	212,300	-0,026	0,030
-221,884	-200,000	0,009	0,105
-220,869	-200,000	0,004	0,193
-219,855	-74,202	-0,064	-0,017
-218,840	-135,850	0,045	0,004
-217,825	29,149	0,101	0,062
-216,811	107,094	0,056	0,049
-215,796	56,085	-0,076	-0,054
-214,782	315,800	-0,035	-0,049
-213,767	753,488	0,028	-0,056
-212,752	163,571	0,116	0,120
-211,738	800,000	0,071	-0,202
-210,723	-200,000	-0,009	-0,223
-209,709	800,000	0,030	0,080
-208,694	150,035	0,032	0,032
-207,679	-200,000	0,027	0,092
-206,665	-45,601	0,076	0,027
-205,650	250,359	-0,033	0,041
-204,636	-61,260	0,142	0,043
-203,621	-200,000	-0,027	0,146
-202,606	369,380	0,057	-0,084
-201,592	120,451	-0,141	-0,128
-200,577	44,086	0,029	0,019
-199,563	367,277	-0,048	-0,070
-198,548	800,000	-0,047	-0,103
-197,533	-54,284	0,031	-0,010
-196,519	497,215	-0,047	0,080
-195,504	-97,851	-0,063	-0,012
-194,490	-87,884	-0,068	0,015
-193,475	-51,770	-0,041	-0,014
-192,460	-200,000	-0,019	-0,131
-191,446	-200,000	0,003	0,055
-190,431	-200,000	-0,003	0,121
-189,417	186,219	0,108	0,118
-188,402	699,394	0,063	0,121
-187,387	189,900	-0,097	0,107
-186,373	-147,592	-0,042	-0,003
-185,358	-4,903	0,165	0,082
-184,344	800,000	-0,041	0,116
-183,329	641,449	0,062	-0,115
-182,315	800,000	-0,050	0,119
-181,300	212,137	-0,023	-0,026
-180,285	137,458	0,057	0,054
-179,271	-25,410	0,052	-0,022
-178,256	83,323	0,038	-0,030
-177,242	-52,715	0,119	0,040
-176,227	229,259	0,051	0,061
-175,212	-40,268	-0,078	0,029
-174,198	453,161	0,093	-0,151
-173,183	16,464	0,071	-0,041
-172,169	800,000	0,008	0,023
-171,154	70,447	-0,116	0,087
-170,139	-130,272	0,107	0,010
-169,125	33,515	-0,091	0,058
-168,110	-200,000	-0,003	-0,009
-167,096	-200,000	0,032	-0,164
-166,081	1,355	-0,134	-0,070
-165,066	-42,383	-0,074	-0,027
-164,052	-200,000	0,019	-0,061
-163,037	800,000	-0,034	-0,090
-162,023	-200,000	-0,001	-0,138
-161,008	-200,000	0,006	-0,053
-159,993	107,782	-0,005	-0,004
-158,979	-132,085	-0,051	0,005
-157,964	233,925	-0,032	0,039
-156,950	147,724	-0,081	-0,080
-155,935	-61,138	0,168	0,051
-154,920	-108,768	-0,129	-0,020
-153,906	66,139	0,121	0,089
-152,891	-122,381	0,132	0,016
-151,877	0,597	-0,059	-0,031
-150,862	800,000	-0,037	-0,119
-149,847	-12,020	0,140	-0,066
-148,833	-200,000	0,011	-0,091
-147,818	257,666	0,060	0,075
-146,804	-200,000	0,032	0,145
-145,789	209,632	0,066	-0,075
-144,775	-154,440	0,075	-0,004
-143,760	502,405	0,090	-0,152
-142,745	-52,947	0,079	0,026
-141,731	-98,352	-0,053	0,010
-140,716	-200,000	0,011	0,054
-139,702	128,176	-0,039	-0,036
-138,687	-37,710	-0,070	0,027
-137,672	800,000	-0,045	-0,099
-136,658	-200,000	0,003	0,050
-135,643	-200,000	0,036	0,120
-134,629	-157,089	-0,131	0,006
-133,614	354,610	0,022	-0,032
-132,599	-200,000	0,008	0,042
-131,585	253,639	0,062	0,077
-130,570	-35,166	0,083	-0,033
-129,556	30,721	0,040	-0,025
-128,541	-12,412	-0,078	-0,037
-127,526	800,000	0,057	0,154
-126,512	-200,000	-0,004	0,024
-125,497	800,000	0,047	0,150
-124,483	20,665	0,088	-0,052
-123,468	-200,000	-0,019	-0,078
-122,453	385,396	0,047	-0,070
-121,439	800,000	-0,040	-0,120
-120,424	-80,572	-0,105	0,025
-119,410	-154,662	0,164	-0,008
-118,395	97,522	0,049	0,041
