DTS Sentinel unit serial number:	SN410029Multiplexer serial number:	ORYXHardware model number:	OX2-SRSoftware version number:	ORYX F/W v4,00 Oryx Data Collector v3.7.2.0data status	okinstallation	B6 Nyhavnadifferential loss correction	single-endedforward channel	channel 2reverse channel	N/Adate	2023/12/08time	15:50:08forward acquisition time	300,00reverse acquisition time	0,00gamma	499,1914k internal	0,3159k external	0,3159temperature offset calibration	1,0000default loss term (dB/km)	0,3820temperature slope calibration	1,0000multiplexer offset coefficient	1,0000multiplexer slope coefficient	1,0000fibre end	0,00T internal ref (°C)	15,08T ext. ref 1 (°C)	-1,51T ext. ref 2 (°C)	-1,51length (m)	temperature (°C)	Stokes	anti-Stokes-744,400	-28,541	0,146	-0,062
-743,385	-168,199	-0,237	0,007
-742,371	536,954	0,095	0,168
-741,356	-117,391	-0,396	-0,052
-740,342	124,961	-0,015	-0,014
-739,327	-124,267	-0,277	-0,031
-738,312	-65,097	0,169	0,050
-737,298	-178,644	-0,376	-0,006
-736,283	-105,179	0,180	-0,030
-735,269	-49,636	-0,395	-0,138
-734,254	-128,644	0,093	-0,010
-733,239	-3,996	-0,494	-0,252
-732,225	-200,000	0,340	0,001
-731,210	72,303	-0,033	0,025
-730,196	14,939	-0,170	0,098
-729,181	-7,959	-0,088	0,044
-728,167	-85,064	-0,073	0,017
-727,152	-200,000	0,016	-0,060
-726,137	746,016	-0,066	-0,132
-725,123	800,000	-0,010	-0,024
-724,108	800,000	0,016	-0,036
-723,094	-200,000	0,028	-0,103
-722,079	-76,246	-0,101	0,026
-721,064	-200,000	0,002	-0,041
-720,050	800,000	-0,054	-0,140
-719,035	610,845	0,008	-0,016
-718,021	453,841	-0,014	0,024
-717,006	36,598	-0,098	-0,064
-715,991	50,165	-0,117	-0,081
-714,977	-35,249	-0,095	-0,038
-713,962	102,330	0,032	0,028
-712,948	-178,638	0,141	-0,002
-711,933	45,065	-0,105	0,071
-710,918	-200,000	-0,037	-0,164
-709,904	94,915	0,055	0,046
-708,889	748,730	-0,017	-0,034
-707,875	-105,120	-0,068	0,011
-706,860	800,000	-0,022	0,054
-705,845	-130,967	-0,071	0,007
-704,831	800,000	-0,050	0,113
-703,816	-200,000	0,030	-0,139
-702,802	-20,315	0,094	0,043
-701,787	800,000	-0,078	-0,181
-700,772	-200,000	0,004	0,023
-699,758	-200,000	0,013	-0,045
-698,743	-200,000	-0,006	-0,104
-697,729	-57,812	-0,014	-0,004
-696,714	78,283	-0,043	0,034
-695,699	-200,000	0,022	-0,090
-694,685	-200,000	0,010	-0,091
-693,670	-200,000	-0,007	0,035
-692,656	-157,449	-0,106	-0,005
-691,641	-0,027	-0,124	-0,065
-690,627	-200,000	0,003	-0,057
-689,612	-200,000	-0,009	-0,115
-688,597	152,085	-0,105	-0,106
-687,583	-200,000	-0,001	-0,208
-686,568	-40,577	-0,064	0,024
-685,554	692,359	-0,065	-0,126
-684,539	94,695	-0,042	-0,035
-683,524	800,000	0,035	-0,089
-682,510	162,333	-0,101	-0,104
-681,495	-28,243	-0,061	-0,026
-680,481	-39,921	-0,109	0,042
-679,466	351,862	0,096	0,140
-678,451	800,000	-0,020	0,051
-677,437	352,645	0,015	-0,021
-676,422	-200,000	-0,028	-0,100
-675,408	-200,000	-0,027	-0,089
-674,393	139,782	-0,153	-0,149
-673,378	800,000	-0,014	-0,041
-672,364	472,002	-0,080	-0,133
-671,349	-100,640	-0,040	0,007
-670,335	89,636	0,117	-0,096
-669,320	32,470	0,085	0,054
-668,305	800,000	-0,057	-0,157
-667,291	-200,000	-0,012	-0,061
-666,276	-40,074	-0,157	-0,060
-665,262	-167,283	-0,152	-0,004
-664,247	181,303	-0,022	0,024
-663,232	800,000	-0,017	0,041
-662,218	800,000	-0,055	0,164
-661,203	-127,020	0,055	0,006
-660,189	-200,000	0,015	-0,065
-659,174	-200,000	0,001	-0,014
-658,159	-200,000	-0,003	0,090
-657,145	34,697	-0,055	0,035
-656,130	179,140	0,128	-0,137
-655,116	533,993	-0,066	-0,115
-654,101	-130,718	0,222	-0,022
-653,086	69,823	0,048	0,036
-652,072	800,000	-0,083	-0,186
-651,057	-96,370	-0,108	-0,021
-650,043	677,336	-0,021	-0,040
-649,028	323,509	0,091	-0,127
-648,014	766,436	0,054	0,109
-646,999	-200,000	-0,031	0,104
-645,984	118,952	0,091	-0,082
-644,970	283,893	-0,031	-0,041
-643,955	800,000	-0,034	-0,073
-642,941	800,000	0,008	-0,020
-641,926	-200,000	0,033	-0,132
-640,911	4,033	-0,090	-0,048
-639,897	-151,354	0,192	-0,010
-638,882	190,094	-0,074	-0,082
-637,868	179,594	-0,037	-0,039
-636,853	761,870	-0,080	-0,159
-635,838	33,809	-0,114	-0,073
-634,824	-41,764	-0,156	-0,058
-633,809	-50,800	0,111	-0,038
-632,795	800,000	-0,044	0,101
-631,780	-160,933	0,109	0,004
-630,765	-200,000	0,005	-0,085
-629,751	-178,345	-0,054	0,001
-628,736	625,772	0,037	-0,069
-627,722	800,000	0,050	0,103
-626,707	795,678	0,044	0,089
-625,692	41,989	-0,040	0,026
-624,678	185,620	-0,044	0,048
-623,663	-200,000	-0,008	0,036
-622,649	-200,000	0,001	-0,015
-621,634	-135,092	0,023	0,002
-620,619	-200,000	-0,002	-0,089
-619,605	41,710	-0,109	-0,072
-618,590	-34,785	-0,105	0,042
-617,576	800,000	-0,040	0,104
-616,561	-63,615	-0,027	-0,008
-615,546	-200,000	0,014	-0,065
-614,532	-10,050	0,063	-0,030
-613,517	754,248	-0,039	-0,077
-612,503	530,077	-0,029	-0,050
-611,488	178,946	-0,030	0,033
-610,474	272,769	0,063	0,082
-609,459	637,875	-0,149	0,279
-608,444	-108,121	0,171	0,027
-607,430	176,805	-0,093	-0,099
-606,415	-200,000	0,012	-0,092
-605,401	-200,000	-0,025	-0,115
-604,386	-116,059	0,094	-0,013
-603,371	48,618	-0,084	-0,058
-602,357	19,041	0,093	0,055
-601,342	-27,199	-0,096	-0,041
-600,328	800,000	-0,061	-0,144
-599,313	78,912	0,095	-0,074
-598,298	-200,000	-0,014	-0,064
-597,284	-70,515	0,092	-0,025
-596,269	-127,898	-0,052	0,005
-595,255	29,407	-0,072	-0,045
-594,240	-59,190	0,033	-0,010
-593,225	-200,000	-0,008	-0,036
-592,211	445,678	0,116	-0,187
-591,196	700,521	-0,031	0,061
-590,182	-53,454	0,051	0,017
-589,167	-152,375	-0,097	0,005
-588,152	-171,135	-0,125	-0,003
-587,138	38,368	0,087	-0,056
-586,123	78,745	-0,177	-0,138
-585,109	182,762	-0,133	-0,144
-584,094	120,356	0,187	-0,170
-583,079	-200,000	0,016	-0,114
-582,065	7,624	-0,061	0,033
-581,050	-200,000	-0,001	-0,050
-580,036	-200,000	-0,012	-0,100
-579,021	800,000	0,047	0,109
-578,006	-35,016	-0,146	-0,058
-576,992	-122,835	-0,075	-0,009
-575,977	800,000	0,022	-0,046
-574,963	8,735	0,015	0,008
-573,948	-200,000	-0,055	0,178
-572,934	237,027	-0,058	-0,070
-571,919	-117,636	-0,096	-0,013
-570,904	-141,396	-0,113	0,008
-569,890	-200,000	0,018	0,113
-568,875	115,298	0,031	-0,028
-567,861	-93,405	0,084	0,017
-566,846	-200,000	0,018	-0,081
-565,831	-200,000	0,002	0,007
-564,817	-118,979	0,029	0,004
-563,802	117,052	-0,072	-0,065
-562,788	-21,965	0,119	0,053
-561,773	-200,000	0,039	0,131
-560,758	153,969	-0,069	0,069
-559,744	399,928	0,112	0,172
-558,729	-200,000	-0,031	0,102
-557,715	387,648	0,042	-0,063
-556,700	92,535	-0,046	-0,038
-555,685	-0,022	-0,102	-0,053
-554,671	100,155	0,166	-0,141
-553,656	148,222	0,114	-0,113
-552,642	-43,504	0,144	0,053
-551,627	797,359	-0,097	0,196
-550,612	800,000	0,029	-0,090
-549,598	-156,756	-0,075	0,003
-548,583	98,431	-0,043	-0,037
-547,569	785,496	0,045	0,092
-546,554	115,291	0,061	-0,055
-545,539	506,330	0,022	-0,037
-544,525	800,000	-0,066	0,153
-543,510	-5,803	-0,126	-0,063
-542,496	-200,000	0,006	-0,039
-541,481	187,701	-0,097	-0,106
-540,466	-200,000	-0,001	-0,088
-539,452	226,753	0,138	0,164
-538,437	347,320	-0,040	0,058
-537,423	-27,997	-0,087	-0,036
-536,408	800,000	0,048	-0,105
-535,393	-200,000	-0,051	-0,249
-534,379	532,929	-0,079	-0,137
-533,364	800,000	0,046	-0,131
-532,350	-91,991	0,111	-0,023
-531,335	-93,566	-0,205	0,041
-530,321	16,358	0,196	0,113
-529,306	800,000	-0,011	-0,025
-528,291	-200,000	-0,006	-0,118
-527,277	-7,187	-0,056	0,027
-526,262	-15,768	0,102	-0,047
-525,248	12,437	0,139	0,078
-524,233	800,000	-0,034	0,079
-523,218	395,143	0,071	0,108
-522,204	132,674	-0,017	-0,016
-521,189	44,007	-0,106	0,071
-520,175	-17,942	-0,092	-0,042
-519,160	-71,339	-0,116	0,031
-518,145	628,882	-0,054	0,099
-517,131	-58,661	0,190	-0,060
-516,116	1,402	-0,159	-0,083
-515,102	668,098	-0,046	-0,087
-514,087	800,000	0,058	0,135
-513,072	104,577	-0,048	0,041
-512,058	-28,563	-0,096	-0,040
-511,043	-90,106	0,068	0,014
-510,029	285,928	0,072	0,095
-509,014	96,565	0,067	0,056
-507,999	188,612	-0,024	0,026
-506,985	-62,191	0,066	0,020
-505,970	91,045	0,040	0,033
-504,956	-85,886	0,062	0,014
-503,941	-200,000	0,031	0,000
-502,926	-107,657	-0,138	0,022
-501,912	800,000	0,026	0,082
-500,897	-200,000	0,028	0,163
-499,883	800,000	-0,021	0,052
-498,868	800,000	-0,051	-0,154
-497,853	162,157	-0,139	-0,143
-496,839	800,000	0,030	0,094
-495,824	-20,314	0,069	0,031
-494,810	-200,000	-0,001	0,111
-493,795	800,000	-0,010	-0,026
-492,781	-200,000	-0,001	0,101
-491,766	-79,267	-0,104	-0,025
-490,751	-77,004	-0,026	0,006
-489,737	494,286	-0,018	0,030
-488,722	-130,568	0,026	-0,002
-487,708	-200,000	-0,019	0,140
-486,693	-105,744	0,112	0,018
-485,678	169,140	0,057	-0,060
-484,664	800,000	0,041	0,090
-483,649	37,899	-0,082	0,053
-482,635	268,196	-0,016	-0,021
-481,620	-200,000	-0,017	0,059
-480,605	-54,318	-0,112	0,037
-479,591	359,772	-0,041	0,060
-478,576	89,604	-0,027	0,022
-477,562	-200,000	-0,005	-0,050
-476,547	382,574	-0,056	-0,084
-475,532	105,981	0,086	0,074
-474,518	-200,000	-0,006	0,054
-473,503	-77,976	0,090	0,022
-472,489	-9,296	0,055	0,027
-471,474	-200,000	-0,022	-0,082
-470,459	23,603	0,057	-0,034
-469,445	-200,000	0,003	0,101
-468,430	-200,000	0,017	0,104
-467,416	58,993	-0,058	-0,042
-466,401	62,096	0,097	0,070
-465,386	-200,000	-0,051	0,183
-464,372	663,625	-0,063	0,119
-463,357	-36,166	-0,115	0,045
-462,343	-41,922	0,010	0,004
-461,328	-104,528	0,064	0,011
-460,313	-124,064	0,025	0,003
-459,299	-55,676	-0,077	0,025
-458,284	-200,000	-0,015	0,111
-457,270	372,026	-0,040	0,059
-456,255	276,733	-0,036	0,046
-455,241	-114,181	0,010	0,001
-454,226	-158,263	-0,096	0,004
-453,211	199,974	0,105	-0,118
-452,197	271,948	0,050	-0,064
-451,182	-40,810	0,091	-0,034
-450,168	-200,000	0,015	-0,058
-449,153	60,537	0,102	0,074
-448,138	-48,993	0,035	0,012
-447,124	-122,808	0,090	0,010
-446,109	125,226	0,032	0,029
-445,095	-87,318	0,148	0,033
-444,080	-30,381	0,106	0,044
-443,065	-200,000	0,025	0,195
-442,051	-75,106	0,060	0,016
-441,036	26,359	0,048	0,029
-440,022	-32,832	0,064	-0,026
-439,007	756,177	-0,082	0,162
-437,992	-12,020	0,041	-0,020
-436,978	-200,000	0,010	-0,152
-435,963	-200,000	0,005	0,062
-434,949	-32,068	0,129	-0,052
-433,934	-71,485	-0,065	0,018
-432,919	428,426	-0,054	-0,085
-431,905	-119,150	0,115	0,014
-430,890	-74,408	-0,057	-0,015
-429,876	800,000	0,026	-0,085
-428,861	-200,000	-0,007	0,221
-427,846	-200,000	-0,004	0,087
-426,832	-200,000	-0,009	-0,047
-425,817	547,564	-0,030	-0,052
-424,803	515,315	0,049	0,084
-423,788	-61,606	-0,080	0,024
-422,773	-200,000	-0,042	0,149
-421,759	71,083	0,063	0,048
-420,744	-180,227	0,055	-0,001
-419,730	-200,000	0,022	-0,110
-418,715	330,016	-0,109	-0,153
-417,701	20,097	0,068	0,040
-416,686	197,015	0,138	0,153
-415,671	602,776	-0,007	0,013
-414,657	800,000	-0,037	-0,086
-413,642	-200,000	-0,008	-0,233
-412,628	-5,647	0,044	0,022
-411,613	140,430	-0,075	-0,072
-410,598	800,000	-0,026	-0,078
-409,584	-200,000	0,002	0,107
-408,569	-200,000	0,042	0,290
-407,555	-200,000	0,033	0,110
-406,540	783,121	-0,044	0,087
-405,525	320,664	-0,061	-0,084
-404,511	-11,331	0,218	0,104
-403,496	800,000	0,021	0,061
-402,482	-67,332	0,051	0,015
-401,467	-26,575	0,158	0,067
-400,452	-200,000	-0,029	0,103
-399,438	176,252	-0,141	0,149
-398,423	505,848	-0,021	0,035
-397,409	-200,000	0,005	0,064
-396,394	-200,000	-0,003	0,026
-395,379	-124,257	-0,016	0,002
-394,365	-87,652	-0,105	0,023
-393,350	-62,787	0,042	-0,013
-392,336	-200,000	-0,018	-0,071
-391,321	251,476	-0,103	0,128
-390,306	58,355	0,061	-0,043
-389,292	-129,065	-0,095	0,009
-388,277	-200,000	0,008	-0,081
-387,263	800,000	0,037	-0,102
-386,248	-49,784	0,081	-0,028
-385,233	-8,080	0,049	0,024
-384,219	800,000	0,018	0,059
-383,204	676,299	-0,037	-0,070
-382,190	680,738	-0,054	-0,102
-381,175	23,691	0,095	-0,057
-380,160	49,800	0,172	-0,118
-379,146	-115,813	-0,073	-0,010
-378,131	58,371	-0,088	-0,063
-377,117	-31,254	-0,031	-0,013
-376,102	-62,986	-0,117	0,035
-375,088	-24,926	-0,044	0,019
-374,073	800,000	0,039	0,084
-373,058	390,525	0,053	0,080
-372,044	-79,835	0,165	-0,040
-371,029	800,000	0,039	0,110
-370,015	159,820	0,141	-0,143
-369,000	186,304	-0,138	-0,149
-367,985	-200,000	-0,012	-0,185
-366,971	108,150	-0,062	0,054
-365,956	-37,925	-0,016	-0,006
-364,942	23,105	-0,039	-0,023
-363,927	-22,344	-0,034	-0,015
-362,912	-120,917	0,132	-0,016
-361,898	31,427	0,061	0,038
-360,883	-17,688	-0,037	-0,017
-359,869	-200,000	-0,005	-0,023
-358,854	309,583	0,141	-0,192
-357,839	15,142	0,053	-0,030
-356,825	-107,583	0,150	-0,024
-355,810	475,466	-0,054	0,088
-354,796	-71,581	0,117	0,032
-353,781	291,825	-0,076	-0,101
-352,766	-87,964	0,056	-0,012
-351,752	-73,127	0,190	-0,050
-350,737	682,246	-0,031	0,059
-349,723	-21,195	0,200	-0,088
-348,708	-48,426	-0,151	-0,053
-347,693	-200,000	-0,006	-0,025
-346,679	-44,279	-0,235	-0,085
-345,664	467,620	0,110	-0,180
-344,650	93,575	0,037	0,031
-343,635	-200,000	0,001	0,078
-342,620	120,908	0,039	-0,035
-341,606	-129,825	0,090	-0,009
-340,591	800,000	-0,007	-0,021
-339,577	-200,000	-0,006	-0,045
-338,562	-200,000	0,024	-0,105
-337,548	-200,000	0,016	-0,202
-336,533	-95,785	0,026	0,005
-335,518	155,316	0,086	0,086
-334,504	-81,513	0,099	-0,023
-333,489	-200,000	-0,016	0,067
-332,475	18,005	-0,078	-0,045
-331,460	196,501	-0,030	-0,034
-330,445	-200,000	-0,013	-0,046
-329,431	-113,419	-0,074	-0,010
-328,416	-200,000	0,012	-0,122
-327,402	-106,242	-0,147	0,024
-326,387	800,000	0,029	0,088
-325,372	32,196	-0,091	-0,057
-324,358	27,049	-0,100	-0,061
-323,343	800,000	-0,024	0,048
-322,329	-111,055	0,047	0,007
-321,314	-200,000	0,003	0,039
-320,299	531,068	-0,054	-0,093
-319,285	390,038	-0,041	-0,061
-318,270	228,112	-0,056	0,066
-317,256	-95,049	-0,032	0,006
-316,241	139,684	0,064	0,062
-315,226	451,913	0,049	0,078
-314,212	646,099	-0,014	0,026
-313,197	-200,000	0,032	0,127
-312,183	-140,491	-0,042	0,003
-311,168	-168,546	-0,146	-0,004
-310,153	447,208	-0,021	0,034
-309,139	800,000	-0,035	-0,082
-308,124	-22,971	0,198	-0,086
-307,110	800,000	0,020	0,062
-306,095	-200,000	-0,006	0,090
-305,080	-200,000	-0,019	0,095
-304,066	-98,203	-0,112	-0,021
-303,051	167,621	-0,130	-0,134
-302,037	800,000	-0,033	-0,074
-301,022	800,000	-0,007	-0,021
-300,008	-11,663	-0,040	0,019
-298,993	73,476	0,081	0,061
-297,978	474,982	0,060	-0,098
-296,964	159,017	-0,055	-0,056
-295,949	-200,000	-0,004	0,015
-294,935	446,061	0,064	-0,102
-293,920	-123,110	0,046	0,005
-292,905	800,000	-0,077	-0,233
-291,891	-200,000	0,008	-0,050
-290,876	195,597	-0,061	0,067
-289,862	800,000	-0,080	-0,177
-288,847	-200,000	-0,019	-0,109
-287,832	-149,879	0,052	-0,003
-286,818	-200,000	0,001	0,099
-285,803	-51,193	0,085	-0,029
-284,789	161,077	-0,102	-0,103
-283,774	-200,000	0,018	0,100
-282,759	45,088	-0,079	-0,053
-281,745	800,000	-0,041	0,113
-280,730	-147,452	-0,207	0,012
-279,716	-200,000	0,003	0,017
-278,701	-91,806	0,114	-0,023
-277,686	-12,717	0,043	-0,020
-276,672	-200,000	0,007	0,072
-275,657	800,000	-0,039	0,112
-274,643	304,537	0,133	-0,180
-273,628	-42,180	0,135	-0,050
-272,613	-38,038	-0,092	-0,035
-271,599	737,315	0,018	0,036
-270,584	800,000	0,007	-0,015
-269,570	-0,658	0,091	0,046
-268,555	225,061	-0,020	0,024
-267,540	129,841	-0,071	-0,066
-266,526	800,000	-0,036	-0,093
-265,511	-57,857	0,124	-0,039
-264,497	-200,000	0,028	0,120
-263,482	178,867	-0,083	0,087
-262,467	260,316	-0,083	0,104
-261,453	438,592	-0,018	-0,029
-260,438	619,426	-0,061	-0,112
-259,424	176,731	0,033	-0,035
-258,409	704,460	-0,044	0,084
-257,395	254,147	0,068	-0,084
-256,380	260,442	0,060	-0,075
-255,365	598,404	0,041	-0,074
-254,351	-63,424	-0,114	-0,034
-253,336	-200,000	0,023	-0,132
-252,322	227,977	-0,078	0,091
-251,307	8,305	0,179	0,097
-250,292	306,231	-0,019	0,026
-249,278	-9,838	0,041	0,020
-248,263	503,427	0,040	0,068
-247,249	-200,000	-0,030	0,109
-246,234	-86,245	0,042	0,009
-245,219	-11,898	-0,117	-0,055
-244,205	198,911	0,031	-0,035
-243,190	30,150	0,005	-0,003
-242,176	219,944	-0,030	0,035
-241,161	-48,317	0,036	0,013
-240,146	7,893	0,072	0,039
-239,132	619,071	-0,087	0,159
-238,117	-200,000	0,003	-0,068
-237,103	14,544	-0,053	0,030
-236,088	800,000	-0,024	0,049
-235,073	-200,000	-0,030	0,178
-234,059	800,000	-0,020	0,057
-233,044	392,414	-0,018	-0,028
-232,030	-126,600	0,097	-0,010
-231,015	-60,695	-0,184	-0,056
-230,000	-20,663	0,097	-0,043
-228,986	-200,000	-0,032	0,170
-227,971	800,000	-0,025	0,058
-226,957	800,000	0,038	0,095
-225,942	800,000	0,081	0,187
-224,927	-2,701	-0,118	0,059
-223,913	98,701	-0,066	0,055
-222,898	21,360	-0,060	0,035
-221,884	-200,000	-0,003	0,087
-220,869	-51,286	-0,024	-0,008
-219,855	-200,000	-0,028	0,104
-218,840	31,872	0,136	-0,085
-217,825	-126,225	0,086	-0,009
-216,811	800,000	0,050	0,109
-215,796	234,265	0,025	-0,030
-214,782	-200,000	0,003	-0,017
-213,767	-200,000	-0,009	0,036
-212,752	-200,000	-0,009	-0,038
-211,738	-200,000	0,016	-0,111
-210,723	-63,269	-0,066	0,019
-209,709	136,084	0,102	-0,096
-208,694	800,000	-0,031	-0,090
-207,679	0,480	-0,105	-0,054
-206,665	-76,648	-0,106	-0,027
-205,650	-79,288	0,175	0,043
-204,636	-146,026	0,139	0,009
-203,621	800,000	0,072	-0,151
-202,606	181,238	0,035	0,037
-201,592	800,000	-0,039	0,091
-200,577	-62,315	-0,055	-0,016
-199,563	280,328	-0,048	0,062
-198,548	-200,000	-0,020	0,165
-197,533	205,338	0,100	-0,112
-196,519	19,150	-0,086	-0,049
-195,504	-54,257	-0,068	0,022
-194,490	-158,518	-0,114	-0,005
-193,475	-198,910	-0,039	0,000
-192,460	-63,395	-0,047	-0,014
-191,446	800,000	0,031	0,098
-190,431	-200,000	-0,012	0,044
-189,417	-148,707	-0,009	-0,000
-188,402	73,539	0,057	0,043
-187,387	146,767	-0,097	-0,095
-186,373	53,147	-0,092	0,063
-185,358	44,763	-0,060	0,040
-184,344	224,010	0,035	-0,041
-183,329	-33,596	0,060	-0,024
-182,315	-200,000	-0,002	-0,086
-181,300	91,240	0,072	-0,058
-180,285	-200,000	0,008	0,031
-179,271	-124,909	-0,054	0,006
-178,256	-38,761	0,062	0,024
-177,242	175,570	0,107	0,112
-176,227	644,941	-0,045	-0,083
-175,212	-200,000	0,003	-0,021
-174,198	467,491	0,010	0,016
-173,183	800,000	0,012	-0,037
-172,169	-37,013	0,144	-0,055
-171,154	-99,863	-0,161	0,029
-170,139	-200,000	-0,017	0,130
-169,125	-200,000	0,000	-0,008
-168,110	-200,000	-0,060	0,207
-167,096	75,708	-0,051	-0,039
-166,081	800,000	-0,009	-0,028
-165,066	105,320	-0,077	0,065
-164,052	-200,000	0,038	-0,135
-163,037	66,829	-0,017	0,012
-162,023	-45,400	0,074	0,026
-161,008	800,000	0,077	0,177
-159,993	-200,000	-0,028	-0,134
-158,979	35,645	-0,159	-0,100
-157,964	335,819	0,083	-0,117
-156,950	-69,197	-0,034	-0,009
-155,935	-114,965	0,092	-0,012
-154,920	-200,000	0,016	0,159
-153,906	51,108	0,038	0,026
-152,891	800,000	-0,065	0,155
-151,877	-200,000	0,020	0,097
-150,862	-200,000	-0,002	-0,059
-149,847	800,000	-0,043	0,098
-148,833	-200,000	-0,025	0,122
-147,818	-154,485	0,128	-0,006
-146,804	619,349	0,041	-0,075
-145,789	-123,062	0,051	-0,006
-144,775	-200,000	-0,004	-0,074
-143,760	36,380	-0,042	-0,027
-142,745	76,538	-0,148	-0,113
-141,731	-24,656	-0,097	0,041
-140,716	-47,151	0,146	0,051
-139,702	488,742	0,081	0,133
-138,687	215,685	0,037	-0,042
-137,672	-200,000	0,002	-0,039
-136,658	-137,492	-0,011	0,001
-135,643	-200,000	0,036	-0,141
-134,629	-121,853	0,096	0,011
-133,614	643,769	0,068	-0,125
-132,599	-200,000	0,018	0,090
-131,585	-95,965	0,038	0,007
-130,570	245,898	-0,031	0,037
-129,556	800,000	0,022	0,060
-128,541	461,629	-0,045	-0,072
-127,526	50,065	0,147	0,100
-126,512	188,814	-0,054	-0,058
-125,497	192,560	-0,081	0,088
-124,483	225,930	-0,133	0,156
-123,468	-200,000	0,035	0,152
-122,453	-200,000	0,022	-0,085
-121,439	-48,316	0,082	-0,028
-120,424	238,220	-0,035	0,042
