DTS Sentinel unit serial number:	SN410029Multiplexer serial number:	ORYXHardware model number:	OX2-SRSoftware version number:	ORYX F/W v4,00 Oryx Data Collector v3.7.2.0data status	okinstallation	B6 Nyhavnadifferential loss correction	single-endedforward channel	channel 2reverse channel	N/Adate	2023/12/10time	19:00:08forward acquisition time	300,00reverse acquisition time	0,00gamma	499,1914k internal	0,3123k external	0,3123temperature offset calibration	1,0000default loss term (dB/km)	0,3820temperature slope calibration	1,0000multiplexer offset coefficient	1,0000multiplexer slope coefficient	1,0000fibre end	0,00T internal ref (°C)	22,32T ext. ref 1 (°C)	6,01T ext. ref 2 (°C)	6,01length (m)	temperature (°C)	Stokes	anti-Stokes-744,400	30,723	-0,038	0,024
-743,385	-14,766	-0,263	0,125
-742,371	606,830	0,043	-0,080
-741,356	-200,000	-0,050	0,182
-740,342	436,813	0,071	0,116
-739,327	23,312	-0,236	0,144
-738,312	4,990	-0,091	0,050
-737,298	-17,804	-0,226	0,105
-736,283	447,092	0,054	-0,089
-735,269	51,224	-0,153	0,108
-734,254	-200,000	0,007	0,074
-733,239	-97,665	-0,560	-0,107
-732,225	-114,564	0,118	-0,017
-731,210	-1,669	0,058	0,031
-730,196	-200,000	0,040	-0,234
-729,181	-200,000	0,024	-0,161
-728,167	-56,300	0,163	0,054
-727,152	327,721	0,039	-0,056
-726,137	83,867	-0,122	-0,099
-725,123	-200,000	0,000	-0,070
-724,108	-200,000	-0,019	-0,098
-723,094	254,940	-0,123	-0,157
-722,079	-200,000	0,020	-0,136
-721,064	-67,475	-0,058	0,017
-720,050	-200,000	-0,017	0,142
-719,035	-166,470	-0,038	0,001
-718,021	-62,954	-0,113	0,035
-717,006	249,238	0,085	-0,107
-715,991	-200,000	-0,000	-0,075
-714,977	102,289	-0,006	0,005
-713,962	-118,047	-0,076	0,010
-712,948	61,308	0,093	-0,069
-711,933	-78,891	-0,144	0,036
-710,918	-200,000	0,013	-0,107
-709,904	800,000	-0,042	0,101
-708,889	-37,073	-0,055	0,022
-707,875	-200,000	-0,002	-0,050
-706,860	800,000	0,060	-0,139
-705,845	71,457	0,016	-0,012
-704,831	94,590	0,086	-0,073
-703,816	800,000	-0,022	-0,061
-702,802	-200,000	0,005	0,018
-701,787	745,133	0,028	0,057
-700,772	-50,943	-0,040	-0,014
-699,758	121,349	-0,086	-0,079
-698,743	39,793	0,028	-0,019
-697,729	-200,000	-0,027	0,103
-696,714	-41,509	0,085	-0,033
-695,699	800,000	-0,037	-0,093
-694,685	800,000	0,036	-0,085
-693,670	-150,725	-0,035	0,002
-692,656	800,000	0,016	-0,034
-691,641	-200,000	-0,015	-0,139
-690,627	-200,000	0,005	-0,031
-689,612	-200,000	0,026	0,113
-688,597	-6,820	0,047	-0,024
-687,583	750,204	-0,030	-0,060
-686,568	442,373	0,022	0,036
-685,554	127,712	0,017	-0,016
-684,539	-79,794	-0,136	-0,034
-683,524	203,247	0,097	0,112
-682,510	-145,139	-0,025	-0,002
-681,495	-200,000	-0,037	0,123
-680,481	-63,419	-0,011	0,003
-679,466	108,585	-0,118	0,105
-678,451	-200,000	-0,016	-0,128
-677,437	305,937	0,035	-0,049
-676,422	158,771	-0,035	-0,036
-675,408	800,000	0,031	-0,094
-674,393	220,218	-0,063	0,075
-673,378	-200,000	0,002	0,148
-672,364	-94,712	0,174	-0,035
-671,349	41,359	-0,119	-0,080
-670,335	-200,000	-0,019	-0,156
-669,320	61,474	0,014	-0,010
-668,305	64,454	-0,053	-0,040
-667,291	623,856	0,025	-0,046
-666,276	-71,616	-0,067	-0,019
-665,262	-200,000	-0,033	-0,141
-664,247	-110,294	-0,162	-0,025
-663,232	43,652	-0,033	-0,023
-662,218	-106,231	0,076	0,013
-661,203	15,253	-0,030	0,017
-660,189	-200,000	0,028	-0,278
-659,174	758,628	-0,060	-0,122
-658,159	65,122	0,151	-0,113
-657,145	800,000	-0,031	-0,076
-656,130	311,940	0,049	-0,068
-655,116	-114,277	0,081	0,011
-654,101	800,000	0,049	0,127
-653,086	-109,585	-0,008	0,001
-652,072	-200,000	0,033	-0,127
-651,057	-91,730	0,064	-0,013
-650,043	-200,000	-0,030	-0,117
-649,028	138,357	-0,116	-0,113
-648,014	800,000	0,032	-0,079
-646,999	-200,000	-0,022	0,091
-645,984	174,026	0,069	-0,074
-644,970	553,396	0,054	-0,097
-643,955	800,000	-0,052	-0,160
-642,941	-200,000	0,007	0,222
-641,926	800,000	-0,008	0,022
-640,911	800,000	-0,019	-0,055
-639,897	-200,000	-0,004	0,047
-638,882	25,446	-0,082	-0,051
-637,868	118,402	-0,020	0,018
-636,853	5,728	-0,080	-0,044
-635,838	-161,366	-0,083	0,003
-634,824	67,478	0,052	0,039
-633,809	-200,000	-0,036	0,180
-632,795	50,828	-0,092	-0,064
-631,780	-200,000	0,006	0,046
-630,765	32,653	-0,127	0,081
-629,751	800,000	-0,003	-0,006
-628,736	-200,000	0,004	-0,045
-627,722	14,518	-0,051	-0,030
-626,707	141,616	0,037	-0,036
-625,692	-145,453	0,114	-0,007
-624,678	-127,336	-0,001	0,000
-623,663	800,000	0,007	0,017
-622,649	-34,799	0,094	-0,038
-621,634	457,353	-0,085	-0,141
-620,619	-124,315	-0,064	0,007
-619,605	297,590	-0,057	0,078
-618,590	85,397	0,004	0,003
-617,576	89,773	0,036	0,030
-616,561	-200,000	0,021	-0,094
-615,546	59,366	0,059	-0,043
-614,532	58,913	0,057	-0,042
-613,517	-200,000	-0,020	0,105
-612,503	625,915	-0,041	0,078
-611,488	222,179	0,045	0,054
-610,474	-200,000	-0,004	0,077
-609,459	800,000	-0,061	0,129
-608,444	144,019	-0,036	0,035
-607,430	33,884	0,030	0,019
-606,415	-12,680	0,079	-0,038
-605,401	-125,158	-0,122	0,014
-604,386	-200,000	-0,018	-0,087
-603,371	-200,000	0,021	0,141
-602,357	-32,230	0,055	0,023
-601,342	89,227	-0,135	-0,112
-600,328	800,000	-0,030	-0,099
-599,313	800,000	-0,025	-0,054
-598,298	117,228	-0,118	-0,107
-597,284	-200,000	0,018	0,082
-596,269	93,539	0,087	0,073
-595,255	-200,000	-0,007	-0,064
-594,240	-41,343	-0,068	0,026
-593,225	-67,875	0,152	-0,044
-592,211	-17,719	-0,092	0,043
-591,196	-36,179	-0,069	-0,028
-590,182	489,988	0,109	-0,185
-589,167	-200,000	0,013	-0,063
-588,152	331,777	0,087	0,125
-587,138	-200,000	0,001	0,162
-586,123	234,721	-0,088	-0,108
-585,109	0,367	0,066	-0,035
-584,094	19,517	0,088	0,052
-583,079	-33,945	0,111	-0,045
-582,065	231,665	-0,025	0,030
-581,050	-118,885	-0,122	0,016
-580,036	-110,066	-0,050	0,008
-579,021	800,000	0,048	-0,112
-578,006	192,211	-0,138	-0,155
-576,992	-19,145	0,211	-0,097
-575,977	163,579	0,042	0,044
-574,963	-200,000	0,004	0,050
-573,948	69,335	0,125	0,095
-572,934	-200,000	-0,011	-0,050
-571,919	159,114	-0,086	-0,089
-570,904	476,091	-0,055	-0,093
-569,890	-176,867	0,072	0,001
-568,875	800,000	0,067	-0,143
-567,861	509,157	-0,063	0,109
-566,846	-200,000	-0,010	-0,070
-565,831	-200,000	0,022	-0,074
-564,817	-128,565	-0,147	-0,015
-563,802	-200,000	0,002	-0,107
-562,788	-133,837	0,157	-0,014
-561,773	-200,000	0,011	-0,064
-560,758	-70,687	0,078	-0,022
-559,744	38,450	0,063	0,041
-558,729	175,581	0,093	0,100
-557,715	46,072	0,077	-0,053
-556,700	-56,982	0,066	0,021
-555,685	266,694	-0,090	-0,117
-554,671	404,375	0,053	0,083
-553,656	15,716	-0,050	-0,029
-552,642	-200,000	0,002	-0,025
-551,627	-118,507	0,105	0,014
-550,612	-200,000	-0,014	-0,122
-549,598	234,486	-0,023	-0,028
-548,583	-108,517	-0,011	-0,002
-547,569	-200,000	-0,008	0,033
-546,554	-57,478	0,031	0,010
-545,539	-19,385	-0,191	-0,087
-544,525	800,000	-0,021	-0,047
-543,510	6,418	-0,074	0,041
-542,496	2,657	-0,012	-0,007
-541,481	-191,563	-0,123	0,001
-540,466	759,128	-0,059	-0,119
-539,452	144,827	0,046	-0,046
-538,437	146,946	0,012	-0,012
-537,423	17,016	-0,053	0,031
-536,408	399,143	-0,022	0,034
-535,393	66,059	-0,033	-0,025
-534,379	108,973	-0,110	0,097
-533,364	200,089	0,052	-0,059
-532,350	150,493	0,054	-0,054
-531,335	800,000	0,039	0,106
-530,321	161,253	-0,020	0,021
-529,306	45,616	0,087	-0,059
-528,291	66,440	0,120	0,090
-527,277	210,708	-0,084	-0,098
-526,262	-42,229	0,105	0,040
-525,248	-200,000	-0,012	-0,056
-524,233	-1,556	-0,122	-0,064
-523,218	800,000	-0,032	0,088
-522,204	534,008	0,071	-0,124
-521,189	-200,000	-0,012	-0,130
-520,175	-200,000	-0,015	-0,079
-519,160	50,697	0,117	-0,082
-518,145	2,944	0,113	0,060
-517,131	57,220	0,111	-0,080
-516,116	800,000	0,074	-0,185
-515,102	-35,756	0,010	-0,004
-514,087	-200,000	-0,006	-0,185
-513,072	800,000	-0,056	-0,128
-512,058	-60,228	-0,068	0,021
-511,043	41,329	0,071	-0,047
-510,029	144,153	-0,043	0,042
-509,014	-33,584	0,080	0,032
-507,999	-161,258	0,029	-0,001
-506,985	-200,000	-0,010	-0,073
-505,970	800,000	-0,044	-0,142
-504,956	21,178	0,084	-0,050
-503,941	-200,000	-0,001	0,004
-502,926	43,165	0,078	-0,053
-501,912	173,369	-0,080	-0,085
-500,897	-188,781	0,076	0,001
-499,883	-200,000	-0,002	0,077
-498,868	800,000	-0,067	-0,162
-497,853	-200,000	0,011	-0,114
-496,839	352,113	0,033	0,048
-495,824	369,807	0,109	0,164
-494,810	800,000	-0,020	-0,044
-493,795	800,000	-0,046	-0,096
-492,781	-114,395	-0,092	0,013
-491,766	524,548	0,013	0,022
-490,751	800,000	-0,026	0,066
-489,737	800,000	0,012	-0,028
-488,722	-200,000	0,138	0,000
-487,708	-64,777	0,040	0,012
-486,693	800,000	-0,037	0,076
-485,678	312,279	0,078	-0,108
-484,664	800,000	0,050	0,107
-483,649	-62,094	-0,154	0,047
-482,635	17,681	0,078	0,046
-481,620	-200,000	0,005	-0,032
-480,605	253,068	0,026	-0,032
-479,591	181,521	0,145	-0,157
-478,576	245,993	-0,011	-0,013
-477,562	170,967	-0,067	0,071
-476,547	800,000	0,051	0,132
-475,532	65,253	0,053	-0,040
-474,518	-183,225	0,169	-0,002
-473,503	69,082	0,074	0,056
-472,489	800,000	0,061	0,144
-471,474	-200,000	-0,010	0,207
-470,459	153,470	-0,042	-0,043
-469,445	-20,395	-0,086	0,039
-468,430	-77,784	0,035	-0,009
-467,416	308,440	0,105	0,145
-466,401	800,000	0,026	-0,059
-465,386	-200,000	0,014	-0,097
-464,372	800,000	-0,033	-0,083
-463,357	-200,000	-0,008	-0,060
-462,343	-200,000	-0,007	-0,192
-461,328	-200,000	-0,003	0,056
-460,313	500,069	0,061	0,104
-459,299	115,751	0,072	0,065
-458,284	-200,000	0,005	0,030
-457,270	800,000	0,010	0,028
-456,255	76,115	0,024	-0,019
-455,241	800,000	0,005	0,013
-454,226	-50,933	-0,144	0,050
-453,211	17,406	-0,030	-0,018
-452,197	-15,285	0,027	0,013
-451,182	-35,475	-0,028	-0,011
-450,168	-46,730	0,117	0,042
-449,153	40,672	-0,014	-0,009
-448,138	293,589	0,040	0,054
-447,124	-45,625	-0,054	-0,020
-446,109	-200,000	0,012	-0,045
-445,095	716,956	-0,023	-0,046
-444,080	-26,123	0,123	-0,053
-443,065	-200,000	0,162	0,000
-442,051	421,291	0,055	0,087
-441,036	595,268	-0,044	-0,081
-440,022	-97,766	-0,104	-0,020
-439,007	800,000	0,056	0,154
-437,992	-200,000	0,025	0,103
-436,978	-200,000	0,005	0,100
-435,963	800,000	-0,027	-0,081
-434,949	-140,198	-0,040	-0,003
-433,934	500,893	0,054	-0,092
-432,919	603,359	-0,035	-0,064
-431,905	-80,639	0,084	-0,020
-430,890	800,000	-0,045	0,109
-429,876	34,221	0,063	0,041
-428,861	-57,967	0,079	0,025
-427,846	296,607	-0,067	-0,090
-426,832	800,000	-0,054	-0,125
-425,817	8,451	0,039	-0,022
-424,803	800,000	-0,018	0,058
-423,788	-200,000	-0,098	-0,000
-422,773	-20,447	0,073	-0,033
-421,759	-132,409	0,173	0,016
-420,744	-200,000	-0,005	0,023
-419,730	-94,993	-0,100	0,020
-418,715	800,000	0,040	-0,097
-417,701	82,769	0,066	0,053
-416,686	80,876	-0,039	-0,031
-415,671	800,000	-0,049	0,111
-414,657	343,907	0,049	0,071
-413,642	800,000	-0,032	-0,084
-412,628	-44,626	0,121	-0,044
-411,613	-37,834	-0,062	-0,024
-410,598	-113,598	-0,054	0,008
-409,584	-200,000	0,023	0,114
-408,569	14,213	0,144	0,082
-407,555	580,582	-0,036	0,065
-406,540	516,665	0,019	0,032
-405,525	-200,000	-0,004	-0,088
-404,511	800,000	-0,035	-0,074
-403,496	-200,000	-0,002	0,116
-402,482	-25,011	-0,047	0,021
-401,467	593,589	0,035	0,064
-400,452	639,414	0,051	0,095
-399,438	121,354	0,119	0,109
-398,423	-85,527	-0,090	0,021
-397,409	-35,991	-0,108	-0,043
-396,394	-44,396	-0,107	-0,039
-395,379	-66,903	-0,131	0,038
-394,365	800,000	-0,017	0,035
-393,350	27,556	0,123	-0,076
-392,336	800,000	-0,051	0,125
-391,321	-95,003	0,104	-0,020
-390,306	275,132	-0,108	-0,141
-389,292	-79,079	-0,096	-0,024
-388,277	-72,044	0,099	-0,027
-387,263	-76,477	0,076	0,020
-386,248	800,000	0,061	0,172
-385,233	286,428	0,059	0,078
-384,219	800,000	0,035	0,113
-383,204	-98,878	-0,169	-0,031
-382,190	27,596	-0,085	-0,052
-381,175	800,000	-0,024	0,072
-380,160	224,769	0,084	-0,100
-379,146	-129,799	0,098	-0,010
-378,131	-200,000	0,020	-0,079
-377,117	-1,836	-0,102	-0,052
-376,102	-200,000	0,002	-0,019
-375,088	-200,000	-0,002	0,098
-374,073	193,718	0,059	0,066
-373,058	800,000	-0,021	-0,053
-372,044	140,310	-0,030	-0,029
-371,029	-200,000	0,046	0,177
-370,015	800,000	-0,067	0,136
-369,000	-90,743	-0,109	-0,023
-367,985	523,326	0,024	0,042
-366,971	-200,000	0,013	0,110
-365,956	-200,000	0,002	-0,071
-364,942	488,938	0,029	0,049
-363,927	-200,000	-0,034	0,138
-362,912	-101,293	0,133	0,024
-361,898	-87,913	-0,025	-0,006
-360,883	286,697	0,086	0,114
-359,869	-96,464	-0,072	-0,014
-358,854	800,000	0,031	0,095
-357,839	60,685	-0,066	-0,048
-356,825	-72,606	-0,026	-0,007
-355,810	-177,422	0,117	-0,002
-354,796	-200,000	0,040	-0,176
-353,781	41,689	-0,117	-0,078
-352,766	-130,860	0,131	-0,013
-351,752	417,329	-0,029	0,045
-350,737	390,047	-0,033	-0,051
-349,723	103,010	0,064	0,055
-348,708	-200,000	-0,008	0,056
-347,693	-200,000	0,012	-0,083
-346,679	-75,536	-0,160	-0,042
-345,664	-137,558	-0,030	0,002
-344,650	191,463	0,073	0,080
-343,635	800,000	0,031	0,068
-342,620	800,000	-0,067	0,199
-341,606	-200,000	-0,007	0,084
-340,591	359,621	0,039	0,057
-339,577	800,000	0,096	-0,200
-338,562	404,690	-0,103	-0,159
-337,548	800,000	0,027	-0,064
-336,533	157,671	0,050	0,050
-335,518	155,735	0,095	0,096
-334,504	-200,000	0,011	0,062
-333,489	-200,000	-0,002	0,014
-332,475	800,000	0,064	-0,141
-331,460	-200,000	-0,030	0,120
-330,445	111,840	0,099	-0,088
-329,431	656,800	-0,057	0,107
-328,416	-193,867	-0,069	-0,000
-327,402	-200,000	-0,000	0,037
-326,387	412,732	-0,077	0,121
-325,372	-200,000	0,001	-0,045
-324,358	-200,000	0,010	0,034
-323,343	135,638	-0,080	0,077
-322,329	-143,243	-0,161	0,011
-321,314	-200,000	0,001	0,041
-320,299	-5,256	-0,064	0,032
-319,285	-44,944	0,026	0,010
-318,270	65,949	-0,055	-0,041
-317,256	-200,000	0,003	0,044
-316,241	-200,000	0,010	-0,050
-315,226	-48,408	0,141	-0,049
-314,212	-181,254	-0,139	0,002
-313,197	-200,000	0,077	0,258
-312,183	19,294	0,069	-0,041
-311,168	-142,711	-0,127	-0,009
-310,153	-200,000	-0,006	-0,140
-309,139	-200,000	-0,087	0,000
-308,124	95,375	-0,077	-0,064
-307,110	-200,000	-0,014	-0,054
-306,095	24,448	0,105	-0,064
-305,080	138,338	-0,029	-0,028
-304,066	182,954	0,069	0,074
-303,051	-135,531	-0,101	-0,009
-302,037	156,750	-0,109	-0,110
-301,022	191,981	-0,050	-0,055
-300,008	295,235	0,089	0,119
-298,993	-84,058	-0,108	0,025
-297,978	800,000	0,039	0,106
-296,964	-200,000	0,009	0,057
-295,949	186,631	0,031	0,034
-294,935	-69,479	-0,119	-0,033
-293,920	22,898	0,030	0,018
-292,905	800,000	0,060	0,156
-291,891	-200,000	0,019	0,065
-290,876	-77,218	-0,019	0,005
-289,862	-24,070	0,127	0,055
-288,847	273,279	0,054	-0,070
-287,832	800,000	-0,014	0,032
-286,818	-200,000	-0,021	-0,083
-285,803	362,733	0,027	-0,040
-284,789	53,116	0,094	0,066
-283,774	-28,755	-0,008	0,003
-282,759	-157,398	-0,078	-0,003
-281,745	-200,000	0,008	-0,167
-280,730	310,397	-0,069	-0,095
-279,716	800,000	0,016	-0,035
-278,701	-158,008	0,104	0,004
-277,686	-200,000	0,017	0,078
-276,672	-200,000	0,011	-0,044
-275,657	800,000	0,024	0,064
-274,643	-200,000	-0,036	0,141
-273,628	37,241	-0,079	-0,051
-272,613	-200,000	0,006	-0,034
-271,599	-54,509	0,187	0,062
-270,584	800,000	0,045	-0,092
-269,570	765,440	-0,025	-0,050
-268,555	68,990	-0,057	-0,043
-267,540	-200,000	-0,006	0,026
-266,526	-60,171	-0,107	-0,033
-265,511	-200,000	0,009	-0,041
-264,497	800,000	-0,019	0,051
-263,482	-200,000	-0,015	0,153
-262,467	-200,000	-0,016	0,076
-261,453	-200,000	-0,027	-0,093
-260,438	556,868	0,025	-0,044
-259,424	349,789	0,056	0,082
-258,409	-81,567	-0,096	-0,023
-257,395	-87,273	0,063	-0,014
-256,380	46,907	-0,058	-0,039
-255,365	-200,000	0,011	-0,095
-254,351	570,906	-0,059	0,105
-253,336	247,834	-0,100	-0,124
-252,322	-40,864	-0,134	0,050
-251,307	-200,000	-0,030	-0,133
-250,292	439,618	-0,028	0,044
-249,278	139,802	-0,097	0,094
-248,263	-111,757	0,159	-0,023
-247,249	173,078	-0,082	0,086
-246,234	-200,000	0,006	0,082
-245,219	159,115	-0,072	0,074
-244,205	-133,984	-0,051	-0,005
-243,190	127,371	-0,053	0,049
-242,176	-200,000	-0,003	-0,024
-241,161	-200,000	-0,025	-0,110
-240,146	114,406	0,114	-0,101
-239,132	-45,207	-0,177	0,064
-238,117	-138,055	0,063	0,005
-237,103	-41,382	0,072	-0,027
-236,088	800,000	-0,043	0,089
-235,073	-200,000	0,009	-0,100
-234,059	-142,021	0,029	-0,002
-233,044	-123,396	0,109	0,013
-232,030	23,017	-0,152	0,091
-231,015	800,000	0,007	-0,018
-230,000	800,000	-0,049	-0,117
-228,986	-13,717	-0,071	-0,033
-227,971	800,000	0,054	0,117
-226,957	800,000	-0,029	-0,068
-225,942	80,772	0,042	-0,033
-224,927	800,000	0,030	0,064
-223,913	-85,540	-0,109	0,025
-222,898	-56,116	-0,040	-0,013
-221,884	-48,942	0,164	0,057
-220,869	800,000	0,026	0,056
-219,855	-108,272	-0,028	0,004
-218,840	800,000	-0,042	-0,097
-217,825	324,713	-0,027	0,038
-216,811	-101,645	-0,123	0,022
-215,796	107,790	-0,019	0,016
-214,782	-2,025	-0,126	0,064
-213,767	-92,216	0,155	0,032
-212,752	-32,682	0,064	-0,026
-211,738	-109,093	-0,035	0,005
-210,723	-88,781	0,179	0,038
-209,709	-59,864	-0,105	0,032
-208,694	800,000	-0,044	0,109
-207,679	-200,000	-0,006	0,056
-206,665	-21,968	-0,023	-0,010
-205,650	-59,471	-0,032	-0,010
-204,636	-200,000	-0,035	-0,132
-203,621	156,940	-0,020	-0,020
-202,606	335,942	-0,030	-0,042
-201,592	157,347	-0,096	0,097
-200,577	90,582	-0,082	0,067
-199,563	-60,919	0,051	0,016
-198,548	800,000	-0,041	0,095
-197,533	800,000	0,016	0,042
-196,519	800,000	-0,063	0,156
-195,504	144,250	-0,036	0,035
-194,490	15,458	-0,061	0,035
-193,475	800,000	0,040	0,097
-192,460	7,443	0,068	0,037
-191,446	-200,000	-0,022	-0,102
-190,431	59,630	-0,044	-0,031
-189,417	266,487	-0,044	-0,057
-188,402	-200,000	0,013	-0,083
-187,387	-129,581	-0,172	0,017
-186,373	275,837	0,022	0,029
-185,358	-200,000	-0,005	-0,127
-184,344	22,140	-0,053	-0,031
-183,329	2,223	0,058	-0,031
-182,315	-70,917	0,080	0,022
-181,300	-200,000	-0,065	0,238
-180,285	161,559	0,085	0,087
-179,271	-200,000	-0,023	-0,148
-178,256	-24,291	0,120	0,052
-177,242	101,827	0,089	-0,075
-176,227	800,000	-0,016	0,045
-175,212	-33,289	-0,034	0,014
-174,198	-106,544	-0,045	0,007
-173,183	-99,696	0,107	-0,019
-172,169	72,800	-0,027	-0,020
-171,154	-200,000	-0,002	-0,186
-170,139	-200,000	-0,007	0,059
-169,125	-22,261	0,024	0,011
-168,110	800,000	-0,069	0,140
-167,096	294,620	0,089	-0,119
-166,081	-200,000	0,008	-0,041
-165,066	134,466	-0,078	-0,074
-164,052	113,224	-0,127	-0,112
-163,037	-200,000	-0,004	-0,058
-162,023	71,125	0,037	0,028
-161,008	183,329	0,048	-0,051
-159,993	-200,000	-0,014	-0,056
-158,979	420,177	-0,042	0,066
-157,964	800,000	0,007	0,016
-156,950	-138,886	-0,126	-0,010
-155,935	-200,000	-0,019	0,124
-154,920	-188,751	0,089	-0,001
-153,906	6,249	0,053	0,028
-152,891	-120,547	0,139	-0,017
-151,877	166,030	-0,007	-0,008
-150,862	531,342	-0,064	-0,111
-149,847	3,322	-0,127	0,067
-148,833	-200,000	0,014	-0,143
-147,818	-200,000	0,002	-0,045
-146,804	264,133	0,085	0,108
-145,789	-1,153	-0,099	-0,051
-144,775	-200,000	-0,012	0,062
-143,760	99,947	-0,088	-0,074
-142,745	71,508	-0,066	-0,050
-141,731	-97,592	0,120	-0,023
-140,716	-127,042	-0,085	0,009
-139,702	-200,000	0,013	0,071
-138,687	-200,000	0,011	-0,087
-137,672	-52,609	0,113	-0,038
-136,658	-200,000	0,022	-0,159
-135,643	-200,000	-0,005	-0,063
-134,629	800,000	-0,043	-0,135
-133,614	-45,860	0,151	0,054
-132,599	-200,000	0,007	-0,106
-131,585	110,009	0,020	0,017
-130,570	-200,000	-0,016	0,066
-129,556	732,735	-0,027	0,054
-128,541	432,946	0,024	-0,038
-127,526	70,213	-0,057	0,043
-126,512	54,974	0,065	0,045
-125,497	-29,192	0,020	-0,008
-124,483	800,000	0,030	0,078
-123,468	363,843	-0,120	0,176
-122,453	800,000	-0,075	-0,235
-121,439	127,437	-0,152	-0,140
-120,424	-200,000	0,003	0,057
