DTS Sentinel unit serial number:	SN410029Multiplexer serial number:	ORYXHardware model number:	OX2-SRSoftware version number:	ORYX F/W v4,00 Oryx Data Collector v3.7.2.0data status	okinstallation	B6 Nyhavnadifferential loss correction	single-endedforward channel	channel 2reverse channel	N/Adate	2023/12/10time	23:10:08forward acquisition time	300,00reverse acquisition time	0,00gamma	499,1914k internal	0,3122k external	0,3122temperature offset calibration	1,0000default loss term (dB/km)	0,3820temperature slope calibration	1,0000multiplexer offset coefficient	1,0000multiplexer slope coefficient	1,0000fibre end	0,00T internal ref (°C)	22,38T ext. ref 1 (°C)	6,11T ext. ref 2 (°C)	6,13length (m)	temperature (°C)	Stokes	anti-Stokes-744,400	-122,395	0,103	0,012
-743,385	-153,318	-0,255	-0,013
-742,371	565,989	0,050	0,091
-741,356	-24,246	-0,230	0,102
-740,342	701,106	0,060	0,119
-739,327	12,322	-0,263	0,151
-738,312	209,280	0,028	-0,033
-737,298	13,221	-0,229	0,132
-736,283	589,097	0,078	-0,143
-735,269	-200,000	0,016	-0,107
-734,254	0,724	-0,114	-0,061
-733,239	-43,947	-0,435	-0,162
-732,225	88,330	0,061	-0,050
-731,210	635,251	0,095	0,180
-730,196	800,000	0,048	0,158
-729,181	146,636	0,065	0,065
-728,167	-95,731	0,066	-0,013
-727,152	-103,971	0,059	0,010
-726,137	80,619	-0,087	0,070
-725,123	-185,523	0,053	-0,001
-724,108	-200,000	0,008	-0,027
-723,094	-200,000	0,010	-0,076
-722,079	800,000	-0,094	-0,214
-721,064	231,519	-0,102	-0,125
-720,050	-67,479	0,055	-0,016
-719,035	-200,000	-0,031	0,132
-718,021	596,507	0,092	-0,170
-717,006	422,343	-0,046	-0,073
-715,991	800,000	-0,081	-0,174
-714,977	800,000	0,028	-0,072
-713,962	57,536	-0,088	-0,064
-712,948	214,127	0,071	-0,084
-711,933	-22,703	0,081	-0,036
-710,918	-91,439	0,121	0,025
-709,904	700,766	-0,072	-0,142
-708,889	800,000	-0,012	-0,040
-707,875	-117,395	-0,145	-0,019
-706,860	-124,521	-0,061	-0,007
-705,845	-200,000	-0,005	0,111
-704,831	-83,592	-0,098	0,023
-703,816	9,708	0,051	-0,029
-702,802	356,212	-0,041	-0,062
-701,787	-200,000	-0,022	-0,086
-700,772	-200,000	0,006	0,111
-699,758	301,544	0,023	-0,032
-698,743	-6,917	0,155	-0,078
-697,729	-15,861	0,119	0,056
-696,714	30,587	-0,064	-0,041
-695,699	1,974	-0,103	-0,055
-694,685	311,519	-0,051	-0,071
-693,670	738,321	-0,047	-0,093
-692,656	178,650	0,090	-0,098
-691,641	-200,000	-0,012	-0,058
-690,627	51,417	0,078	0,055
-689,612	-77,579	0,053	0,013
-688,597	-127,739	0,053	-0,006
-687,583	-200,000	0,009	-0,040
-686,568	800,000	-0,043	0,091
-685,554	-200,000	0,012	-0,128
-684,539	-115,416	-0,091	-0,013
-683,524	-102,271	0,088	0,016
-682,510	-136,292	-0,080	0,007
-681,495	-200,000	-0,016	0,079
-680,481	-200,000	0,011	-0,081
-679,466	800,000	-0,039	-0,120
-678,451	-124,743	-0,115	-0,013
-677,437	168,560	-0,072	0,076
-676,422	-0,574	-0,128	0,067
-675,408	-200,000	-0,010	0,082
-674,393	-200,000	0,043	0,159
-673,378	-6,768	-0,069	0,035
-672,364	161,612	-0,067	-0,070
-671,349	-75,352	-0,169	-0,044
-670,335	-200,000	-0,013	0,071
-669,320	-200,000	0,015	0,061
-668,305	140,877	0,025	-0,025
-667,291	111,664	0,069	-0,062
-666,276	588,336	-0,033	-0,061
-665,262	-200,000	-0,008	-0,088
-664,247	800,000	-0,033	-0,090
-663,232	-10,239	0,109	-0,054
-662,218	-40,125	0,090	0,035
-661,203	90,371	0,051	-0,043
-660,189	-200,000	0,039	-0,135
-659,174	59,040	-0,079	-0,058
-658,159	448,126	-0,130	-0,214
-657,145	-200,000	-0,010	-0,071
-656,130	-200,000	0,029	0,103
-655,116	72,650	0,136	0,105
-654,101	-200,000	0,008	-0,043
-653,086	-163,827	0,139	0,005
-652,072	-60,550	-0,047	0,015
-651,057	49,398	-0,087	0,061
-650,043	-140,777	-0,027	0,002
-649,028	-167,688	-0,090	0,003
-648,014	203,090	0,079	-0,090
-646,999	-200,000	0,012	0,140
-645,984	-182,271	-0,140	-0,002
-644,970	-200,000	-0,015	0,117
-643,955	-200,000	0,009	-0,050
-642,941	-200,000	0,000	-0,084
-641,926	167,499	-0,109	0,115
-640,911	-36,813	0,047	-0,019
-639,897	-200,000	0,001	0,035
-638,882	509,762	-0,034	0,059
-637,868	176,029	0,040	0,043
-636,853	-24,931	-0,106	-0,046
-635,838	-181,166	-0,131	0,002
-634,824	-141,806	-0,031	0,002
-633,809	-71,807	0,024	0,007
-632,795	-129,159	0,057	-0,006
-631,780	-146,522	0,087	0,006
-630,765	-75,292	0,033	-0,009
-629,751	-200,000	-0,025	0,091
-628,736	1,799	-0,083	-0,044
-627,722	7,220	0,023	-0,013
-626,707	351,392	-0,129	-0,191
-625,692	800,000	0,045	0,099
-624,678	76,119	0,044	-0,034
-623,663	67,865	0,110	0,083
-622,649	-155,744	-0,176	0,008
-621,634	800,000	-0,015	0,035
-620,619	241,358	0,003	-0,004
-619,605	-200,000	-0,030	0,111
-618,590	-74,712	0,129	0,034
-617,576	-56,879	-0,225	-0,073
-616,561	-102,939	-0,041	0,007
-615,546	207,367	-0,076	-0,088
-614,532	400,201	0,034	-0,053
-613,517	-200,000	0,006	-0,111
-612,503	800,000	-0,012	0,040
-611,488	40,035	0,031	0,021
-610,474	80,258	-0,039	0,031
-609,459	6,240	0,092	-0,050
-608,444	-105,277	0,106	0,018
-607,430	91,047	-0,017	0,014
-606,415	-200,000	-0,031	-0,179
-605,401	-112,612	0,183	-0,027
-604,386	-39,148	0,092	0,036
-603,371	320,622	-0,080	0,113
-602,357	-200,000	-0,017	0,096
-601,342	105,765	0,061	0,054
-600,328	411,210	-0,007	0,012
-599,313	-200,000	-0,010	-0,110
-598,298	-200,000	0,014	-0,123
-597,284	-153,089	0,119	0,006
-596,269	800,000	0,051	-0,160
-595,255	396,651	-0,049	-0,075
-594,240	29,949	-0,026	-0,017
-593,225	-200,000	-0,017	-0,129
-592,211	800,000	0,022	-0,064
-591,196	535,384	-0,026	-0,046
-590,182	-95,652	0,107	-0,021
-589,167	491,387	0,037	-0,062
-588,152	127,617	-0,133	-0,125
-587,138	-200,000	-0,011	-0,083
-586,123	-200,000	-0,009	-0,070
-585,109	-200,000	-0,009	-0,073
-584,094	-200,000	0,028	-0,210
-583,079	-56,420	0,061	0,020
-582,065	-200,000	-0,012	0,112
-581,050	398,665	-0,058	-0,090
-580,036	-136,038	0,127	0,011
-579,021	115,388	-0,128	0,115
-578,006	18,167	-0,042	0,025
-576,992	-200,000	-0,024	-0,097
-575,977	800,000	0,033	-0,105
-574,963	-131,518	-0,137	-0,013
-573,948	-200,000	0,021	0,074
-572,934	110,748	0,049	-0,044
-571,919	568,755	-0,088	-0,159
-570,904	-195,120	0,090	0,000
-569,890	52,851	-0,092	-0,065
-568,875	40,241	0,044	0,030
-567,861	88,127	-0,039	-0,032
-566,846	800,000	-0,027	-0,079
-565,831	372,179	-0,068	0,102
-564,817	-31,114	-0,087	-0,036
-563,802	800,000	0,041	0,099
-562,788	-91,449	-0,081	-0,017
-561,773	800,000	-0,038	-0,113
-560,758	-200,000	-0,025	0,084
-559,744	800,000	-0,066	0,154
-558,729	-57,048	-0,028	0,009
-557,715	-90,421	-0,109	-0,023
-556,700	800,000	-0,009	-0,024
-555,685	146,194	-0,047	-0,047
-554,671	10,106	0,104	0,058
-553,656	-200,000	0,033	0,115
-552,642	-126,067	0,107	-0,012
-551,627	-110,885	-0,111	-0,017
-550,612	-200,000	-0,012	-0,072
-549,598	-45,839	-0,094	0,034
-548,583	-103,621	-0,031	-0,005
-547,569	44,085	-0,056	-0,038
-546,554	330,239	0,027	0,039
-545,539	42,245	0,068	0,046
-544,525	101,846	-0,075	0,065
-543,510	792,769	-0,032	-0,066
-542,496	72,576	-0,126	-0,097
-541,481	-200,000	-0,009	-0,050
-540,466	800,000	-0,053	0,118
-539,452	-11,307	0,085	-0,041
-538,437	-200,000	0,014	0,069
-537,423	-200,000	-0,023	0,132
-536,408	604,443	0,030	0,055
-535,393	139,058	0,041	-0,039
-534,379	315,606	0,077	-0,108
-533,364	-200,000	0,012	0,151
-532,350	-200,000	0,004	-0,049
-531,335	752,804	0,038	-0,077
-530,321	-83,948	-0,043	0,010
-529,306	-146,991	0,121	0,008
-528,291	39,232	0,053	0,035
-527,277	126,468	-0,141	-0,132
-526,262	244,780	0,108	-0,134
-525,248	-117,107	-0,031	-0,004
-524,233	-62,355	-0,032	-0,010
-523,218	-200,000	0,042	-0,149
-522,204	159,264	0,026	-0,027
-521,189	-126,311	-0,108	0,012
-520,175	-200,000	0,010	-0,072
-519,160	-200,000	-0,003	-0,052
-518,145	59,395	0,079	-0,058
-517,131	800,000	0,019	-0,052
-516,116	37,489	0,035	0,023
-515,102	-160,665	0,084	0,003
-514,087	-200,000	-0,003	-0,105
-513,072	-200,000	0,003	-0,143
-512,058	143,285	-0,128	0,126
-511,043	-200,000	0,004	-0,105
-510,029	-10,527	0,062	0,030
-509,014	-53,618	0,114	0,038
-507,999	-200,000	-0,005	-0,146
-506,985	152,982	0,036	0,037
-505,970	800,000	-0,054	-0,127
-504,956	158,061	0,103	0,105
-503,941	437,690	0,067	-0,109
-502,926	276,237	0,037	0,049
-501,912	-200,000	-0,016	0,106
-500,897	-200,000	-0,043	0,173
-499,883	-200,000	-0,018	-0,072
-498,868	-85,477	-0,075	0,017
-497,853	181,830	-0,071	-0,077
-496,839	94,718	-0,085	-0,071
-495,824	621,333	0,020	-0,038
-494,810	-172,296	-0,038	-0,001
-493,795	-52,842	0,125	-0,042
-492,781	800,000	0,054	0,163
-491,766	-58,566	-0,137	0,044
-490,751	-0,261	0,032	0,017
-489,737	269,703	0,090	0,117
-488,722	-6,220	0,066	-0,033
-487,708	78,384	-0,078	-0,062
-486,693	261,168	-0,013	-0,016
-485,678	11,789	0,022	0,012
-484,664	-174,421	0,047	-0,001
-483,649	170,533	0,049	-0,051
-482,635	115,872	-0,006	-0,006
-481,620	2,913	0,157	0,084
-480,605	189,940	-0,021	-0,023
-479,591	-154,520	0,090	-0,004
-478,576	193,617	-0,030	0,034
-477,562	224,174	0,114	0,136
-476,547	380,399	0,040	-0,061
-475,532	24,727	-0,051	0,031
-474,518	-52,992	0,060	-0,020
-473,503	-61,386	-0,028	-0,009
-472,489	-200,000	0,019	0,100
-471,474	73,273	-0,075	0,058
-470,459	7,898	-0,137	-0,075
-469,445	122,577	-0,106	-0,098
-468,430	37,181	0,029	0,019
-467,416	4,206	-0,015	0,008
-466,401	-200,000	-0,027	0,174
-465,386	129,517	-0,115	0,108
-464,372	-89,804	-0,033	-0,007
-463,357	8,980	-0,091	-0,050
-462,343	4,180	-0,219	0,118
-461,328	229,341	-0,049	0,059
-460,313	597,471	0,053	-0,098
-459,299	13,517	0,038	0,022
-458,284	87,358	0,026	-0,021
-457,270	-21,756	-0,056	-0,025
-456,255	-129,647	-0,042	0,004
-455,241	20,784	0,030	-0,018
-454,226	123,566	-0,102	-0,094
-453,211	5,858	0,067	0,037
-452,197	-164,582	0,089	-0,003
-451,182	570,133	-0,026	-0,048
-450,168	249,476	-0,048	0,060
-449,153	166,770	0,091	-0,095
-448,138	-200,000	-0,024	-0,109
-447,124	-13,327	0,086	-0,041
-446,109	11,512	-0,024	0,013
-445,095	-86,659	0,157	-0,035
-444,080	-200,000	-0,035	0,122
-443,065	-4,229	-0,093	0,047
-442,051	-200,000	0,027	-0,111
-441,036	454,712	0,028	0,045
-440,022	26,504	-0,149	-0,091
-439,007	82,556	-0,079	0,063
-437,992	680,276	-0,028	0,053
-436,978	152,717	-0,028	0,029
-435,963	66,266	0,109	-0,082
-434,949	-200,000	-0,025	-0,086
-433,934	-200,000	0,036	-0,191
-432,919	-90,962	-0,066	-0,014
-431,905	-200,000	0,013	-0,089
-430,890	31,694	0,050	0,031
-429,876	24,309	0,011	-0,006
-428,861	800,000	0,049	0,111
-427,846	277,905	-0,088	0,115
-426,832	302,299	-0,069	-0,094
-425,817	-35,045	0,063	-0,025
-424,803	-110,249	-0,034	-0,005
-423,788	719,662	0,031	0,061
-422,773	-69,950	0,064	0,018
-421,759	-39,723	-0,116	0,044
-420,744	38,841	0,032	0,021
-419,730	67,419	-0,042	-0,031
-418,715	-37,885	-0,090	-0,035
-417,701	54,993	-0,081	0,057
-416,686	-200,000	0,058	0,000
-415,671	63,594	-0,025	-0,018
-414,657	800,000	0,006	0,015
-413,642	-116,952	-0,032	0,004
-412,628	112,314	-0,060	0,053
-411,613	-45,041	0,142	-0,052
-410,598	-200,000	-0,006	-0,065
-409,584	7,742	-0,079	0,043
-408,569	519,232	0,029	-0,051
-407,555	182,709	-0,026	0,029
-406,540	60,303	0,026	-0,019
-405,525	-26,751	-0,084	0,036
-404,511	-200,000	0,015	-0,054
-403,496	-126,294	-0,093	0,010
-402,482	115,938	0,053	0,048
-401,467	43,200	0,031	0,021
-400,452	750,846	0,028	0,055
-399,438	324,483	0,050	0,071
-398,423	251,772	-0,034	0,042
-397,409	-200,000	-0,038	-0,157
-396,394	-131,752	0,122	0,012
-395,379	558,404	0,051	0,090
-394,365	-200,000	-0,023	0,125
-393,350	-182,582	0,099	-0,001
-392,336	-100,556	0,094	0,017
-391,321	167,020	0,050	-0,052
-390,306	340,426	0,010	-0,015
-389,292	150,803	-0,079	0,079
-388,277	-200,000	0,010	0,037
-387,263	-153,378	0,114	-0,006
-386,248	7,739	-0,083	-0,046
-385,233	229,464	0,062	0,075
-384,219	684,750	-0,101	0,195
-383,204	800,000	0,046	0,103
-382,190	-200,000	-0,021	-0,094
-381,175	-83,085	-0,065	-0,015
-380,160	-61,012	0,067	-0,021
-379,146	425,942	0,084	-0,134
-378,131	-148,053	0,028	-0,002
-377,117	800,000	0,010	0,030
-376,102	512,434	-0,029	-0,050
-375,088	688,738	-0,045	0,087
-374,073	-200,000	0,013	-0,081
-373,058	226,675	-0,022	0,026
-372,044	-200,000	0,206	0,000
-371,029	115,851	-0,099	0,089
-370,015	-200,000	0,005	0,103
-369,000	245,807	-0,073	-0,091
-367,985	-13,405	0,020	-0,010
-366,971	800,000	0,024	-0,062
-365,956	-111,255	0,203	0,030
-364,942	800,000	0,063	0,192
-363,927	-200,000	-0,002	0,105
-362,912	-29,354	0,025	-0,011
-361,898	185,055	0,093	0,101
-360,883	-90,536	-0,044	0,009
-359,869	-200,000	0,000	-0,068
-358,854	-200,000	-0,010	0,139
-357,839	75,427	-0,146	-0,113
-356,825	-155,988	0,142	-0,006
-355,810	-93,746	0,123	-0,025
-354,796	800,000	-0,038	-0,094
-353,781	-95,412	0,094	0,018
-352,766	-200,000	-0,043	-0,147
-351,752	800,000	0,011	-0,030
-350,737	32,086	0,235	0,148
-349,723	497,186	-0,040	0,068
-348,708	-67,480	-0,058	-0,017
-347,693	-200,000	-0,020	-0,120
-346,679	-200,000	-0,011	-0,115
-345,664	-37,182	0,133	-0,052
-344,650	800,000	0,018	-0,059
-343,635	-200,000	-0,007	0,036
-342,620	-98,213	-0,080	0,015
-341,606	-200,000	-0,004	0,033
-340,591	-16,293	0,039	-0,018
-339,577	-36,294	0,042	0,017
-338,562	-200,000	0,009	0,063
-337,548	-34,738	-0,043	0,017
-336,533	-200,000	0,008	0,039
-335,518	98,558	0,048	0,040
-334,504	-111,315	0,067	0,010
-333,489	-200,000	-0,007	-0,140
-332,475	-153,131	-0,066	-0,003
-331,460	158,187	-0,046	-0,047
-330,445	9,512	0,083	-0,046
-329,431	-44,959	0,025	0,009
-328,416	-200,000	-0,003	0,119
-327,402	44,235	-0,098	0,066
-326,387	-160,040	-0,052	0,002
-325,372	-173,691	-0,073	0,002
-324,358	800,000	-0,015	0,045
-323,343	215,311	0,003	-0,003
-322,329	70,917	-0,103	0,078
-321,314	-80,530	0,013	-0,003
-320,299	7,905	0,072	-0,039
-319,285	-24,315	0,178	0,077
-318,270	-7,408	-0,082	0,041
-317,256	164,137	-0,032	0,033
-316,241	800,000	0,017	0,041
-315,226	6,183	0,043	-0,023
-314,212	369,908	-0,032	-0,047
-313,197	-165,086	-0,015	0,000
-312,183	-95,153	0,075	-0,015
-311,168	-200,000	-0,000	-0,130
-310,153	-200,000	0,008	0,041
-309,139	69,717	0,077	-0,058
-308,124	120,537	-0,103	0,093
-307,110	-96,589	0,034	-0,006
-306,095	40,000	-0,114	0,075
-305,080	-200,000	-0,025	0,154
-304,066	-200,000	-0,005	-0,058
-303,051	-200,000	0,016	0,082
-302,037	-152,906	0,078	0,004
-301,022	8,037	-0,057	-0,031
-300,008	-200,000	-0,002	0,019
-298,993	-111,181	0,085	-0,013
-297,978	-127,565	0,023	-0,002
-296,964	-26,979	-0,077	-0,033
-295,949	91,905	-0,006	0,005
-294,935	661,428	-0,040	-0,076
-293,920	800,000	-0,028	-0,089
-292,905	800,000	0,053	0,157
-291,891	-149,198	0,088	-0,005
-290,876	-70,247	0,060	0,017
-289,862	-154,528	-0,054	0,003
-288,847	382,475	-0,114	-0,172
-287,832	792,662	0,041	0,084
-286,818	-36,196	0,074	-0,029
-285,803	86,287	0,066	0,053
-284,789	134,892	-0,043	-0,041
-283,774	-18,888	0,082	-0,037
-282,759	-56,421	-0,053	0,017
-281,745	800,000	-0,079	-0,162
-280,730	-200,000	-0,014	0,059
-279,716	85,048	0,088	0,070
-278,701	-200,000	-0,014	-0,058
-277,686	48,886	0,096	-0,066
-276,672	-200,000	0,020	-0,088
-275,657	185,144	0,044	-0,048
-274,643	43,773	-0,047	-0,032
-273,628	212,697	-0,060	0,069
-272,613	684,769	-0,102	-0,195
-271,599	-76,922	0,156	0,040
-270,584	220,862	0,027	-0,032
-269,570	-200,000	-0,000	0,054
-268,555	-68,473	0,041	0,012
-267,540	800,000	-0,055	-0,154
-266,526	392,504	-0,057	-0,087
-265,511	274,272	-0,032	0,041
-264,497	401,549	0,027	0,042
-263,482	-200,000	0,018	-0,092
-262,467	-115,623	0,098	0,013
-261,453	175,984	0,170	0,181
-260,438	800,000	0,011	0,028
-259,424	-200,000	0,003	-0,048
-258,409	800,000	0,040	-0,112
-257,395	477,461	0,069	0,114
-256,380	-57,720	-0,031	0,010
-255,365	-40,690	0,120	-0,045
-254,351	776,585	-0,062	0,125
-253,336	-200,000	-0,040	0,152
-252,322	131,492	-0,122	-0,115
-251,307	-113,467	-0,098	0,014
-250,292	129,964	-0,061	-0,057
-249,278	800,000	0,022	0,069
-248,263	498,064	-0,042	0,071
-247,249	800,000	0,016	-0,051
-246,234	467,423	0,106	0,175
-245,219	-200,000	0,001	-0,067
-244,205	-200,000	-0,017	-0,102
-243,190	-80,747	0,062	0,015
-242,176	-28,203	-0,114	-0,048
-241,161	15,173	0,050	-0,029
-240,146	102,252	0,100	0,086
-239,132	-200,000	0,000	-0,058
-238,117	800,000	-0,039	-0,090
-237,103	-9,929	0,028	-0,014
-236,088	730,297	0,039	-0,076
-235,073	800,000	-0,012	-0,035
-234,059	-65,102	-0,100	-0,029
-233,044	80,611	0,046	-0,036
-232,030	48,488	-0,054	0,037
-231,015	800,000	0,013	-0,034
-230,000	800,000	-0,046	0,136
-228,986	179,338	-0,033	-0,035
-227,971	-85,931	0,054	0,012
-226,957	-200,000	-0,008	-0,088
-225,942	-94,703	0,024	0,005
-224,927	-77,226	-0,133	0,034
-223,913	800,000	0,017	0,048
-222,898	-54,993	0,163	0,053
-221,884	163,983	-0,072	-0,074
-220,869	800,000	0,056	0,118
-219,855	88,921	-0,027	0,022
-218,840	-97,558	0,070	-0,013
-217,825	649,809	-0,090	0,169
-216,811	800,000	0,019	-0,056
-215,796	225,681	-0,051	0,060
-214,782	800,000	0,008	0,021
-213,767	-105,592	-0,104	-0,017
-212,752	-146,680	-0,048	0,003
-211,738	52,841	0,219	-0,153
-210,723	-28,121	-0,096	-0,040
-209,709	-200,000	-0,004	-0,028
-208,694	-200,000	0,014	-0,129
-207,679	71,337	-0,056	0,042
-206,665	-200,000	0,006	-0,084
-205,650	44,960	0,086	0,058
-204,636	-151,513	-0,099	0,005
-203,621	800,000	-0,028	0,085
-202,606	-110,624	0,052	-0,008
-201,592	27,717	-0,073	0,045
-200,577	291,618	0,071	0,095
-199,563	-200,000	-0,006	-0,046
-198,548	-74,755	0,075	0,019
-197,533	665,160	-0,045	0,085
-196,519	758,726	0,037	0,073
-195,504	-52,643	-0,045	0,015
-194,490	158,212	0,073	-0,074
-193,475	-200,000	0,004	-0,102
-192,460	800,000	-0,016	0,039
-191,446	278,274	0,053	0,070
-190,431	800,000	-0,044	0,116
-189,417	800,000	0,045	-0,110
-188,402	130,246	-0,043	0,040
-187,387	20,054	-0,092	0,054
-186,373	88,376	0,088	0,071
-185,358	8,653	-0,066	-0,036
-184,344	114,343	-0,097	0,086
-183,329	164,646	0,091	0,094
-182,315	132,524	-0,075	0,070
-181,300	-14,438	-0,084	0,039
-180,285	27,139	-0,183	0,112
-179,271	299,780	0,013	0,017
-178,256	-200,000	-0,014	-0,068
-177,242	800,000	0,019	0,053
-176,227	68,289	0,041	-0,030
-175,212	-28,886	-0,063	-0,026
-174,198	375,329	0,071	-0,106
-173,183	12,825	-0,084	0,047
-172,169	-107,254	-0,118	0,019
-171,154	20,125	-0,087	0,051
-170,139	293,847	0,045	0,061
-169,125	329,317	0,011	0,015
-168,110	-200,000	0,016	0,071
-167,096	800,000	0,108	0,245
-166,081	800,000	0,039	-0,083
-165,066	150,833	0,012	-0,012
-164,052	800,000	-0,005	-0,014
-163,037	84,436	-0,140	0,112
-162,023	-200,000	0,022	0,112
-161,008	-19,738	0,213	0,096
-159,993	13,543	-0,026	0,015
-158,979	307,156	0,009	0,012
-157,964	-51,403	0,086	-0,029
-156,950	-90,864	-0,065	0,013
-155,935	-200,000	0,013	0,048
-154,920	156,316	0,035	-0,036
-153,906	-45,465	0,104	-0,037
-152,891	800,000	-0,019	0,047
-151,877	-200,000	-0,019	-0,093
-150,862	800,000	-0,040	-0,096
-149,847	-43,594	0,158	-0,058
-148,833	-200,000	0,018	0,091
-147,818	-200,000	-0,002	0,068
-146,804	554,765	0,036	0,064
-145,789	55,077	0,037	-0,026
-144,775	120,927	-0,046	0,042
-143,760	800,000	-0,033	-0,072
-142,745	800,000	0,006	0,013
-141,731	385,467	0,016	0,025
-140,716	81,297	-0,039	0,031
-139,702	-43,130	0,233	0,086
-138,687	800,000	-0,047	0,129
-137,672	-79,273	-0,127	0,031
-136,658	468,995	-0,090	-0,148
-135,643	800,000	0,053	0,141
-134,629	-70,116	-0,137	-0,038
-133,614	326,561	0,029	0,040
-132,599	-200,000	-0,007	0,248
-131,585	-200,000	-0,014	0,130
-130,570	67,455	0,081	0,060
-129,556	539,488	0,017	0,030
-128,541	19,306	-0,109	0,063
-127,526	-200,000	0,018	-0,160
-126,512	-200,000	0,008	0,060
-125,497	-50,485	0,154	-0,053
-124,483	-18,976	0,115	-0,052
-123,468	800,000	-0,037	0,080
-122,453	-55,930	-0,092	0,030
-121,439	173,226	-0,043	0,046
-120,424	-56,135	0,074	-0,024
-119,410	-136,214	0,066	0,006
-118,395	-200,000	0,015	-0,083
