DTS Sentinel unit serial number:	SN410029Multiplexer serial number:	ORYXHardware model number:	OX2-SRSoftware version number:	ORYX F/W v4,00 Oryx Data Collector v3.7.2.0data status	okinstallation	B6 Nyhavnadifferential loss correction	single-endedforward channel	channel 2reverse channel	N/Adate	2023/12/08time	19:45:08forward acquisition time	300,00reverse acquisition time	0,00gamma	499,1914k internal	0,3158k external	0,3158temperature offset calibration	1,0000default loss term (dB/km)	0,3820temperature slope calibration	1,0000multiplexer offset coefficient	1,0000multiplexer slope coefficient	1,0000fibre end	0,00T internal ref (°C)	15,24T ext. ref 1 (°C)	-1,45T ext. ref 2 (°C)	-1,45length (m)	temperature (°C)	Stokes	anti-Stokes-744,400	142,250	0,063	-0,062
-743,385	-19,542	-0,339	0,154
-742,371	-25,122	0,096	0,042
-741,356	-66,826	-0,269	0,078
-740,342	-87,420	0,134	-0,030
-739,327	-61,482	-0,206	0,064
-738,312	-81,111	0,099	0,024
-737,298	-102,700	-0,359	-0,062
-736,283	73,746	-0,076	0,059
-735,269	-99,384	-0,293	0,054
-734,254	800,000	-0,038	-0,091
-733,239	-18,333	-0,430	-0,197
-732,225	-200,000	0,004	0,083
-731,210	800,000	0,044	0,103
-730,196	-200,000	0,025	-0,090
-729,181	-200,000	-0,012	-0,053
-728,167	-20,162	0,012	0,006
-727,152	157,291	-0,125	-0,128
-726,137	800,000	-0,022	-0,068
-725,123	763,126	-0,083	-0,166
-724,108	20,985	-0,110	-0,066
-723,094	705,531	-0,050	-0,098
-722,079	-200,000	-0,017	-0,083
-721,064	237,670	-0,129	-0,158
-720,050	800,000	-0,038	0,101
-719,035	-200,000	-0,014	0,122
-718,021	177,047	-0,061	-0,065
-717,006	-200,000	0,029	-0,161
-715,991	68,580	-0,020	0,015
-714,977	-37,562	0,032	-0,012
-713,962	-200,000	-0,001	-0,158
-712,948	-200,000	0,029	0,137
-711,933	-92,221	-0,089	-0,018
-710,918	-200,000	-0,034	-0,128
-709,904	114,091	0,005	0,005
-708,889	82,682	-0,110	-0,088
-707,875	800,000	-0,016	-0,035
-706,860	-84,850	0,026	0,006
-705,845	52,276	0,076	0,053
-704,831	-42,764	-0,085	0,031
-703,816	-200,000	-0,029	0,109
-702,802	-56,790	0,108	-0,035
-701,787	800,000	0,018	-0,054
-700,772	633,756	-0,008	-0,016
-699,758	-122,812	-0,065	0,008
-698,743	-200,000	0,034	-0,120
-697,729	800,000	0,035	0,072
-696,714	800,000	0,033	0,088
-695,699	-141,351	-0,034	-0,002
-694,685	563,959	0,049	-0,088
-693,670	-44,475	-0,014	-0,005
-692,656	128,866	-0,079	-0,074
-691,641	-38,287	-0,098	-0,038
-690,627	-200,000	0,015	-0,224
-689,612	233,972	-0,097	0,118
-688,597	-3,583	-0,158	-0,081
-687,583	131,064	-0,095	0,090
-686,568	-83,217	-0,204	0,048
-685,554	-200,000	-0,023	0,124
-684,539	194,023	-0,018	0,020
-683,524	426,530	-0,047	0,075
-682,510	-2,545	-0,056	-0,029
-681,495	-92,592	-0,102	-0,021
-680,481	-200,000	0,045	-0,148
-679,466	31,294	-0,110	-0,069
-678,451	-6,926	-0,110	-0,055
-677,437	-5,965	-0,174	-0,087
-676,422	63,390	0,054	-0,040
-675,408	287,610	0,044	-0,058
-674,393	-200,000	0,003	-0,112
-673,378	33,291	-0,101	0,064
-672,364	345,369	-0,084	-0,122
-671,349	-25,747	0,094	-0,040
-670,335	-200,000	0,040	0,139
-669,320	528,012	0,071	0,123
-668,305	96,609	-0,054	-0,045
-667,291	265,314	-0,082	-0,105
-666,276	-141,168	0,050	-0,004
-665,262	-55,668	0,093	-0,030
-664,247	236,719	0,098	-0,120
-663,232	-200,000	0,028	0,107
-662,218	-200,000	0,009	0,060
-661,203	646,204	0,029	-0,054
-660,189	140,914	0,043	0,042
-659,174	-139,146	-0,013	0,001
-658,159	331,946	-0,085	-0,121
-657,145	-53,194	-0,034	-0,011
-656,130	-200,000	0,019	-0,098
-655,116	54,680	0,070	-0,049
-654,101	152,008	0,070	0,070
-653,086	757,451	-0,108	-0,217
-652,072	673,069	-0,020	0,038
-651,057	-200,000	-0,012	0,043
-650,043	297,238	0,018	0,024
-649,028	141,993	0,057	-0,055
-648,014	29,710	-0,103	-0,064
-646,999	800,000	-0,087	0,193
-645,984	800,000	0,022	-0,046
-644,970	-200,000	0,025	-0,105
-643,955	165,780	0,053	-0,055
-642,941	-58,242	-0,171	-0,054
-641,926	-133,731	0,071	-0,006
-640,911	128,453	0,053	-0,049
-639,897	-200,000	-0,004	0,112
-638,882	59,766	-0,082	-0,059
-637,868	97,344	-0,031	0,026
-636,853	281,793	-0,062	-0,081
-635,838	-119,520	-0,092	-0,012
-634,824	84,144	0,098	-0,078
-633,809	186,296	0,043	0,048
-632,795	-48,953	0,122	-0,043
-631,780	358,238	0,037	-0,055
-630,765	-200,000	-0,009	-0,059
-629,751	-84,584	-0,055	-0,013
-628,736	-200,000	-0,004	0,098
-627,722	-128,489	-0,051	-0,005
-626,707	-75,189	-0,188	-0,049
-625,692	-196,045	0,096	-0,000
-624,678	-200,000	-0,021	0,107
-623,663	98,561	-0,030	0,025
-622,649	-86,046	-0,096	0,022
-621,634	-94,437	-0,052	-0,010
-620,619	-73,689	-0,088	0,023
-619,605	-198,882	-0,099	0,000
-618,590	-200,000	0,009	-0,054
-617,576	-48,790	0,107	0,038
-616,561	21,446	-0,103	-0,061
-615,546	62,580	-0,153	-0,112
-614,532	-68,370	-0,086	-0,024
-613,517	-200,000	-0,010	0,044
-612,503	230,744	-0,027	0,033
-611,488	-50,993	-0,088	-0,030
-610,474	343,392	-0,044	0,063
-609,459	-200,000	-0,003	0,021
-608,444	-24,478	0,198	-0,086
-607,430	-200,000	-0,024	-0,082
-606,415	404,535	0,032	0,049
-605,401	-67,586	0,051	-0,015
-604,386	94,136	0,039	0,032
-603,371	-0,585	-0,060	-0,031
-602,357	-200,000	-0,013	-0,050
-601,342	-200,000	0,003	0,082
-600,328	800,000	-0,042	0,132
-599,313	-200,000	-0,166	0,000
-598,298	-90,397	0,120	-0,025
-597,284	-25,396	0,141	0,061
-596,269	800,000	-0,028	-0,077
-595,255	-200,000	-0,003	0,023
-594,240	-78,236	-0,075	-0,019
-593,225	-8,849	-0,048	-0,023
-592,211	-47,037	0,043	0,015
-591,196	-100,020	0,132	0,024
-590,182	227,089	0,060	0,072
-589,167	800,000	0,036	-0,074
-588,152	-200,000	-0,001	0,149
-587,138	-110,251	0,042	-0,006
-586,123	367,549	0,050	0,074
-585,109	37,416	-0,103	0,067
-584,094	415,374	0,059	-0,092
-583,079	-63,202	0,147	0,044
-582,065	-106,823	0,167	-0,027
-581,050	74,771	-0,104	-0,080
-580,036	-200,000	0,005	-0,102
-579,021	283,120	-0,075	-0,099
-578,006	-200,000	-0,013	-0,126
-576,992	-200,000	-0,035	-0,160
-575,977	-200,000	-0,044	0,172
-574,963	-130,893	-0,083	-0,008
-573,948	26,145	0,157	0,096
-572,934	-12,556	-0,050	0,024
-571,919	32,851	0,094	0,060
-570,904	498,362	-0,047	-0,080
-569,890	-157,272	-0,129	0,006
-568,875	152,725	0,047	-0,048
-567,861	800,000	-0,020	-0,063
-566,846	-126,413	0,032	-0,003
-565,831	501,403	-0,017	-0,028
-564,817	-200,000	0,027	-0,111
-563,802	205,889	-0,056	-0,063
-562,788	-14,603	-0,170	-0,080
-561,773	-123,253	-0,078	0,009
-560,758	148,663	-0,111	0,110
-559,744	-200,000	0,000	-0,022
-558,729	-200,000	0,017	0,081
-557,715	-90,889	0,030	0,006
-556,700	769,551	0,035	-0,071
-555,685	-89,872	-0,130	-0,028
-554,671	-30,826	0,062	0,026
-553,656	198,279	-0,046	-0,051
-552,642	-200,000	0,012	0,077
-551,627	-61,298	0,085	0,026
-550,612	184,609	0,079	0,086
-549,598	543,634	-0,052	-0,091
-548,583	800,000	0,036	-0,092
-547,569	-200,000	0,017	-0,125
-546,554	425,732	-0,080	0,127
-545,539	800,000	0,058	0,128
-544,525	-200,000	-0,028	0,130
-543,510	800,000	0,029	0,061
-542,496	-200,000	-0,023	0,074
-541,481	-171,039	0,102	-0,002
-540,466	252,162	-0,018	-0,023
-539,452	-158,252	-0,121	0,005
-538,437	41,994	0,017	0,012
-537,423	241,907	0,039	0,048
-536,408	-23,110	-0,032	-0,014
-535,393	800,000	0,047	-0,111
-534,379	-200,000	-0,027	-0,114
-533,364	-200,000	0,009	0,067
-532,350	37,049	0,027	-0,017
-531,335	139,249	0,112	0,108
-530,321	15,042	-0,067	0,038
-529,306	652,798	-0,054	0,101
-528,291	188,787	-0,086	-0,095
-527,277	38,272	-0,090	0,058
-526,262	-200,000	0,013	0,045
-525,248	-200,000	0,003	0,039
-524,233	295,800	-0,046	0,061
-523,218	-23,014	-0,099	0,043
-522,204	209,326	0,028	0,032
-521,189	-200,000	-0,016	-0,054
-520,175	41,581	-0,018	-0,012
-519,160	9,001	-0,066	0,037
-518,145	-200,000	-0,005	-0,094
-517,131	-51,362	0,141	-0,048
-516,116	356,553	0,105	0,154
-515,102	615,530	0,037	-0,069
-514,087	-200,000	-0,044	-0,146
-513,072	574,525	0,040	-0,072
-512,058	474,155	-0,028	0,047
-511,043	-82,633	-0,015	-0,003
-510,029	-12,163	0,162	0,077
-509,014	110,086	-0,015	0,013
-507,999	245,645	-0,042	0,051
-506,985	68,768	-0,047	0,035
-505,970	345,132	-0,034	-0,049
-504,956	-33,527	-0,053	-0,021
-503,941	800,000	-0,024	0,053
-502,926	-91,007	0,152	-0,032
-501,912	357,794	0,039	0,057
-500,897	104,697	0,040	0,034
-499,883	-53,654	-0,031	0,010
-498,868	-106,424	-0,045	0,007
-497,853	556,218	0,043	-0,076
-496,839	-29,604	-0,108	0,045
-495,824	459,211	0,030	0,048
-494,810	800,000	-0,052	0,107
-493,795	-87,676	0,121	0,027
-492,781	10,315	0,040	0,022
-491,766	800,000	-0,040	-0,084
-490,751	667,088	-0,010	-0,019
-489,737	-200,000	-0,022	-0,168
-488,722	158,749	0,101	-0,102
-487,708	-200,000	0,022	0,095
-486,693	95,977	-0,069	-0,058
-485,678	-200,000	-0,027	-0,119
-484,664	-200,000	-0,001	-0,076
-483,649	800,000	-0,050	-0,118
-482,635	-69,859	-0,157	-0,043
-481,620	-137,554	0,107	0,009
-480,605	-135,752	0,075	-0,006
-479,591	145,552	0,036	0,035
-478,576	-200,000	0,038	0,128
-477,562	-19,058	-0,084	0,038
-476,547	-200,000	-0,030	-0,147
-475,532	212,972	-0,052	0,060
-474,518	86,782	0,138	0,111
-473,503	48,941	-0,070	-0,048
-472,489	-150,362	-0,147	0,008
-471,474	18,791	0,051	0,029
-470,459	434,243	0,034	0,055
-469,445	-14,967	-0,088	0,041
-468,430	-200,000	0,006	0,076
-467,416	152,822	0,058	0,058
-466,401	-78,184	0,111	-0,028
-465,386	-5,859	-0,048	-0,024
-464,372	306,191	0,066	0,090
-463,357	-200,000	-0,013	0,043
-462,343	674,694	-0,052	-0,099
-461,328	-200,000	0,012	0,158
-460,313	800,000	-0,024	0,068
-459,299	-200,000	-0,003	0,053
-458,284	40,296	0,155	0,101
-457,270	-200,000	0,022	0,085
-456,255	-47,286	-0,022	-0,008
-455,241	267,044	0,045	-0,057
-454,226	4,627	-0,123	0,066
-453,211	312,880	-0,056	0,077
-452,197	-53,575	-0,057	-0,019
-451,182	-55,357	-0,146	-0,047
-450,168	-200,000	0,002	-0,021
-449,153	-5,583	-0,086	0,043
-448,138	548,978	-0,052	0,092
-447,124	-28,082	-0,073	-0,031
-446,109	120,593	-0,050	0,045
-445,095	105,758	-0,018	-0,015
-444,080	-126,108	0,077	-0,008
-443,065	-200,000	-0,033	0,116
-442,051	800,000	0,031	0,076
-441,036	156,385	0,096	-0,096
-440,022	774,829	-0,029	-0,058
-439,007	-53,727	0,035	-0,011
-437,992	800,000	-0,082	-0,179
-436,978	-3,704	0,037	-0,019
-435,963	-13,675	0,090	-0,042
-434,949	489,852	-0,049	0,082
-433,934	800,000	-0,017	-0,045
-432,919	197,681	-0,041	-0,046
-431,905	290,370	0,058	0,077
-430,890	232,744	0,092	0,111
-429,876	61,921	-0,078	0,056
-428,861	73,448	0,069	0,053
-427,846	-23,998	-0,135	-0,059
-426,832	115,897	0,058	-0,052
-425,817	284,746	0,066	0,087
-424,803	-200,000	-0,016	0,069
-423,788	104,584	0,075	-0,064
-422,773	-38,366	0,161	0,062
-421,759	-200,000	0,024	0,128
-420,744	174,958	-0,067	0,071
-419,730	800,000	0,026	0,056
-418,715	65,402	-0,058	-0,043
-417,701	381,337	0,057	-0,085
-416,686	172,754	0,030	0,032
-415,671	22,297	0,147	0,087
-414,657	-200,000	0,009	0,240
-413,642	-200,000	-0,007	-0,037
-412,628	-24,811	-0,133	0,057
-411,613	-200,000	-0,007	-0,089
-410,598	40,902	0,099	-0,065
-409,584	240,355	0,058	0,070
-408,569	121,126	0,077	-0,070
-407,555	-155,971	-0,147	-0,007
-406,540	-43,681	0,040	0,015
-405,525	-2,018	-0,107	-0,054
-404,511	637,966	0,091	-0,169
-403,496	243,780	0,080	-0,097
-402,482	46,698	-0,023	-0,016
-401,467	-200,000	-0,011	0,075
-400,452	315,118	0,098	0,135
-399,438	-126,059	-0,055	-0,006
-398,423	210,223	0,028	-0,032
-397,409	398,638	0,061	-0,093
-396,394	-200,000	-0,018	-0,065
-395,379	94,103	0,088	0,072
-394,365	-109,458	0,113	0,017
-393,350	800,000	0,025	0,058
-392,336	-16,234	0,091	0,042
-391,321	-145,385	0,102	-0,007
-390,306	106,229	-0,076	-0,065
-389,292	800,000	0,091	-0,188
-388,277	-200,000	-0,008	-0,041
-387,263	800,000	-0,037	-0,084
-386,248	-200,000	-0,001	0,007
-385,233	-52,788	0,151	-0,050
-384,219	-200,000	0,012	0,072
-383,204	779,109	0,026	-0,052
-382,190	800,000	-0,007	0,018
-381,175	-200,000	0,024	0,081
-380,160	-200,000	0,009	0,131
-379,146	74,743	0,030	0,023
-378,131	800,000	0,033	0,089
-377,117	-200,000	-0,002	0,048
-376,102	-117,234	-0,015	-0,002
-375,088	306,886	0,103	-0,140
-374,073	-200,000	0,029	-0,193
-373,058	526,032	0,032	0,056
-372,044	-122,784	-0,039	-0,004
-371,029	800,000	-0,024	-0,048
-370,015	-68,701	0,093	-0,026
-369,000	-200,000	0,017	0,073
-367,985	-49,790	0,138	0,047
-366,971	800,000	-0,058	0,146
-365,956	90,808	0,079	0,064
-364,942	800,000	0,006	0,016
-363,927	-200,000	-0,012	0,060
-362,912	-106,689	0,054	0,009
-361,898	630,971	-0,064	0,118
-360,883	452,192	-0,089	-0,143
-359,869	49,353	-0,086	-0,059
-358,854	-200,000	0,016	0,099
-357,839	68,307	0,021	0,016
-356,825	800,000	0,032	-0,069
-355,810	-200,000	-0,017	-0,089
-354,796	-10,227	-0,080	0,039
-353,781	81,911	-0,065	-0,051
-352,766	800,000	-0,039	-0,119
-351,752	11,839	0,109	-0,060
-350,737	800,000	0,057	0,157
-349,723	-8,534	0,053	0,026
-348,708	-141,135	-0,019	0,001
-347,693	1,319	-0,060	0,031
-346,679	-18,279	0,112	0,050
-345,664	65,033	0,087	-0,064
-344,650	319,592	-0,024	-0,033
-343,635	-63,504	-0,077	0,023
-342,620	-182,684	0,116	-0,001
-341,606	-142,546	0,152	-0,011
-340,591	-42,830	-0,070	0,025
-339,577	-44,111	0,041	0,015
-338,562	140,236	-0,102	-0,098
-337,548	-111,277	0,142	-0,021
-336,533	-63,156	0,066	-0,020
-335,518	-31,712	-0,031	0,013
-334,504	-143,876	0,047	0,003
-333,489	-150,470	-0,074	0,004
-332,475	-17,800	-0,029	-0,013
-331,460	170,788	-0,036	0,037
-330,445	214,790	0,060	0,070
-329,431	-200,000	-0,003	0,091
-328,416	-200,000	-0,013	-0,111
-327,402	-64,199	-0,040	-0,012
-326,387	783,640	-0,054	-0,109
-325,372	166,904	-0,088	0,091
-324,358	53,323	0,119	0,083
-323,343	-13,494	-0,087	-0,041
-322,329	800,000	-0,027	-0,069
-321,314	42,069	0,103	-0,068
-320,299	800,000	0,009	-0,021
-319,285	-200,000	-0,018	0,128
-318,270	-33,169	-0,028	-0,011
-317,256	41,837	-0,017	-0,011
-316,241	408,933	-0,010	-0,016
-315,226	800,000	0,031	-0,090
-314,212	126,738	0,071	-0,065
-313,197	-200,000	0,016	0,053
-312,183	-32,235	-0,105	-0,042
-311,168	-148,954	-0,033	-0,002
-310,153	-200,000	-0,017	-0,166
-309,139	88,546	0,016	-0,013
-308,124	-74,861	-0,152	-0,039
-307,110	637,248	0,007	0,012
-306,095	27,788	-0,027	0,016
-305,080	-181,732	-0,107	-0,001
-304,066	-27,741	0,064	-0,027
-303,051	800,000	-0,052	-0,147
-302,037	-200,000	-0,061	-0,211
-301,022	-200,000	0,007	0,069
-300,008	-200,000	-0,011	0,176
-298,993	-200,000	0,030	0,176
-297,978	-36,772	-0,040	0,015
-296,964	-200,000	0,012	-0,110
-295,949	23,895	-0,065	0,039
-294,935	25,748	0,045	0,027
-293,920	-200,000	-0,055	0,189
-292,905	800,000	-0,034	0,107
-291,891	-200,000	0,013	0,061
-290,876	800,000	0,039	-0,090
-289,862	101,648	0,031	0,026
-288,847	-200,000	0,023	-0,176
-287,832	-200,000	0,020	-0,086
-286,818	-143,810	0,074	-0,005
-285,803	-200,000	-0,020	-0,093
-284,789	207,130	-0,056	-0,064
-283,774	800,000	-0,040	-0,101
-282,759	-8,437	-0,001	-0,000
-281,745	514,378	-0,017	0,029
-280,730	-200,000	-0,006	0,024
-279,716	128,574	-0,085	-0,078
-278,701	800,000	-0,041	0,091
-277,686	-114,405	0,073	0,010
-276,672	-1,644	0,228	0,116
-275,657	142,199	0,120	-0,115
-274,643	117,575	-0,083	-0,074
-273,628	-121,445	-0,008	0,001
-272,613	359,449	0,066	-0,095
-271,599	158,342	0,173	0,174
-270,584	-200,000	0,011	-0,053
-269,570	121,181	-0,039	0,035
-268,555	91,176	0,107	0,087
-267,540	800,000	-0,034	0,086
-266,526	42,992	-0,064	-0,042
-265,511	98,927	-0,054	-0,045
-264,497	-98,097	0,062	-0,011
-263,482	-151,982	0,100	-0,005
-262,467	-53,870	0,113	0,037
-261,453	800,000	-0,062	0,172
-260,438	800,000	-0,030	-0,076
-259,424	800,000	-0,038	-0,090
-258,409	620,015	0,034	0,063
-257,395	-200,000	-0,003	-0,043
-256,380	-200,000	0,019	-0,089
-255,365	-153,826	0,082	-0,004
-254,351	-200,000	0,015	-0,106
-253,336	263,498	-0,061	0,077
-252,322	128,279	-0,062	-0,057
-251,307	224,822	-0,028	-0,033
-250,292	-68,246	-0,018	0,005
-249,278	422,314	0,038	0,059
-248,263	-49,381	-0,177	0,061
-247,249	-39,242	0,110	-0,042
-246,234	-106,134	0,065	0,010
-245,219	-106,613	0,018	0,003
-244,205	457,330	-0,040	0,064
-243,190	-98,269	-0,059	-0,011
-242,176	-200,000	0,017	-0,063
-241,161	-154,855	0,066	-0,003
-240,146	432,304	-0,098	-0,154
-239,132	-96,660	-0,063	-0,012
-238,117	-200,000	0,033	0,140
-237,103	-200,000	0,007	-0,037
-236,088	695,036	0,098	-0,186
-235,073	-62,403	0,125	-0,037
-234,059	70,133	0,093	-0,069
-233,044	-200,000	0,026	-0,104
-232,030	58,866	-0,098	-0,069
-231,015	510,896	-0,078	-0,131
-230,000	113,090	0,078	-0,068
-228,986	800,000	-0,021	-0,050
-227,971	-200,000	0,004	0,126
-226,957	-200,000	0,030	0,143
-225,942	141,899	-0,048	-0,046
-224,927	800,000	0,049	0,107
-223,913	-10,844	-0,064	0,031
-222,898	-200,000	-0,002	-0,138
-221,884	-200,000	-0,000	-0,067
-220,869	-125,077	-0,104	0,011
-219,855	97,062	0,085	-0,070
-218,840	-55,490	0,050	0,016
-217,825	-200,000	0,030	0,000
-216,811	371,970	0,034	0,051
-215,796	499,688	0,037	-0,062
-214,782	-21,317	0,039	0,017
-213,767	-138,117	-0,070	0,006
-212,752	-200,000	-0,009	-0,040
-211,738	-200,000	-0,022	0,119
-210,723	-141,378	0,084	-0,006
-209,709	60,494	-0,041	0,030
-208,694	800,000	-0,055	0,144
-207,679	800,000	-0,030	0,088
-206,665	-56,332	-0,135	0,043
-205,650	800,000	0,039	0,091
-204,636	800,000	-0,002	0,005
-203,621	800,000	-0,023	0,065
-202,606	288,736	-0,124	-0,162
-201,592	-27,115	0,122	0,051
-200,577	29,107	-0,065	-0,040
-199,563	800,000	0,032	-0,092
-198,548	119,215	0,064	0,057
-197,533	19,598	-0,017	0,010
-196,519	-200,000	-0,027	0,160
-195,504	-81,643	0,123	-0,029
-194,490	784,071	-0,036	0,071
-193,475	-200,000	-0,001	-0,009
-192,460	396,412	0,072	0,109
-191,446	-200,000	-0,036	0,139
-190,431	558,542	0,055	0,097
-189,417	-159,236	0,151	0,006
-188,402	800,000	0,048	0,111
-187,387	190,585	0,028	-0,031
-186,373	-10,401	0,064	0,031
-185,358	630,736	0,014	-0,025
-184,344	46,373	0,037	-0,025
-183,329	-51,250	-0,097	0,032
-182,315	-200,000	-0,003	0,125
-181,300	15,472	-0,038	0,022
-180,285	-47,023	-0,043	-0,015
-179,271	48,930	-0,134	0,091
-178,256	33,254	-0,014	-0,009
-177,242	6,670	0,067	0,036
-176,227	447,603	-0,001	-0,002
-175,212	-41,311	-0,073	0,027
-174,198	-200,000	0,002	0,106
-173,183	217,604	-0,117	-0,135
-172,169	-82,700	-0,070	-0,016
-171,154	25,125	-0,053	-0,032
-170,139	-31,170	0,095	-0,039
-169,125	395,522	0,047	0,071
-168,110	-42,205	-0,040	-0,015
-167,096	-200,000	-0,050	-0,194
-166,081	32,883	-0,047	-0,030
-165,066	239,962	-0,062	-0,074
-164,052	128,374	-0,054	-0,049
-163,037	170,123	-0,090	0,092
-162,023	800,000	-0,027	0,082
-161,008	-108,260	0,054	-0,008
-159,993	100,201	-0,109	-0,091
-158,979	-200,000	-0,007	-0,081
-157,964	387,475	-0,110	-0,164
-156,950	800,000	0,052	-0,125
-155,935	15,834	-0,072	-0,041
-154,920	662,096	-0,034	0,064
-153,906	456,046	-0,035	0,057
-152,891	-200,000	0,013	-0,083
-151,877	614,605	-0,030	-0,055
-150,862	206,612	-0,095	0,106
-149,847	-200,000	0,003	-0,015
-148,833	-200,000	0,031	0,146
-147,818	800,000	-0,080	0,180
-146,804	-200,000	0,034	0,172
-145,789	83,861	0,138	0,108
-144,775	-182,392	0,038	0,000
-143,760	334,452	-0,079	0,110
-142,745	274,928	0,065	0,083
-141,731	537,603	-0,024	-0,041
-140,716	32,838	0,049	0,031
-139,702	71,821	0,135	0,101
-138,687	-30,690	0,070	-0,029
-137,672	411,219	-0,087	0,134
-136,658	-35,929	-0,122	0,047
-135,643	-200,000	0,005	-0,176
-134,629	467,084	-0,037	-0,060
-133,614	31,870	0,037	0,023
-132,599	-200,000	-0,030	-0,098
-131,585	-200,000	0,005	0,026
-130,570	-150,998	0,046	0,002
-129,556	210,453	-0,024	-0,027
-128,541	-30,048	-0,069	0,028
-127,526	10,469	-0,205	-0,112
-126,512	-90,942	0,082	0,017
-125,497	800,000	0,050	-0,101
-124,483	800,000	-0,012	0,028
-123,468	-83,216	0,086	0,020
-122,453	-11,730	0,055	0,026
-121,439	145,176	0,006	0,006
-120,424	-200,000	-0,009	0,067
