DTS Sentinel unit serial number:	SN410029Multiplexer serial number:	ORYXHardware model number:	OX2-SRSoftware version number:	ORYX F/W v4,00 Oryx Data Collector v3.7.2.0data status	okinstallation	B6 Nyhavnadifferential loss correction	single-endedforward channel	channel 2reverse channel	N/Adate	2023/12/09time	14:45:08forward acquisition time	300,00reverse acquisition time	0,00gamma	499,1914k internal	0,3133k external	0,3133temperature offset calibration	1,0000default loss term (dB/km)	0,3820temperature slope calibration	1,0000multiplexer offset coefficient	1,0000multiplexer slope coefficient	1,0000fibre end	0,00T internal ref (°C)	20,56T ext. ref 1 (°C)	4,32T ext. ref 2 (°C)	4,33length (m)	temperature (°C)	Stokes	anti-Stokes-744,400	464,596	-0,067	-0,111
-743,385	-101,132	-0,122	-0,022
-742,371	-4,477	0,093	0,048
-741,356	-56,194	-0,211	0,069
-740,342	25,333	0,075	0,046
-739,327	3,707	-0,224	0,121
-738,312	152,880	0,077	-0,078
-737,298	26,874	-0,253	0,157
-736,283	120,588	0,075	-0,069
-735,269	-13,205	-0,177	0,085
-734,254	800,000	0,013	0,042
-733,239	-78,763	-0,396	-0,100
-732,225	-50,244	0,066	-0,023
-731,210	-200,000	-0,005	0,034
-730,196	-134,352	-0,106	0,010
-729,181	800,000	-0,020	-0,063
-728,167	98,487	-0,037	0,032
-727,152	800,000	-0,013	0,042
-726,137	-149,328	-0,203	0,012
-725,123	800,000	0,046	-0,137
-724,108	132,933	-0,099	-0,095
-723,094	-92,509	-0,014	-0,003
-722,079	-200,000	-0,037	-0,130
-721,064	13,907	0,084	-0,048
-720,050	800,000	-0,025	-0,081
-719,035	-200,000	0,008	0,064
-718,021	-200,000	-0,012	0,104
-717,006	-22,175	-0,068	-0,031
-715,991	-38,609	-0,112	-0,044
-714,977	279,256	-0,086	-0,114
-713,962	-200,000	-0,030	-0,114
-712,948	800,000	-0,045	-0,100
-711,933	-138,182	-0,226	0,018
-710,918	-114,926	-0,067	-0,009
-709,904	-200,000	-0,018	-0,070
-708,889	233,289	0,015	-0,019
-707,875	502,647	-0,043	-0,073
-706,860	59,268	0,093	-0,068
-705,845	-8,745	-0,098	-0,049
-704,831	-79,351	0,050	-0,012
-703,816	-200,000	-0,010	-0,087
-702,802	800,000	0,030	-0,077
-701,787	-200,000	-0,015	-0,129
-700,772	-200,000	0,002	-0,007
-699,758	800,000	-0,045	0,126
-698,743	123,838	0,034	0,032
-697,729	132,731	0,099	0,095
-696,714	481,858	0,032	-0,055
-695,699	45,182	-0,100	0,068
-694,685	243,406	-0,078	-0,097
-693,670	74,905	0,122	-0,095
-692,656	800,000	0,027	-0,078
-691,641	800,000	0,008	0,023
-690,627	-200,000	-0,021	0,089
-689,612	-156,536	-0,120	-0,005
-688,597	-200,000	-0,010	-0,048
-687,583	-200,000	-0,033	-0,131
-686,568	-200,000	0,050	-0,000
-685,554	-139,478	-0,081	0,006
-684,539	-200,000	0,020	0,090
-683,524	-200,000	-0,016	0,065
-682,510	-183,527	0,216	0,003
-681,495	171,434	-0,095	-0,101
-680,481	-200,000	0,020	-0,098
-679,466	800,000	-0,011	0,024
-678,451	110,073	-0,085	-0,076
-677,437	-200,000	0,005	-0,041
-676,422	681,071	-0,044	0,085
-675,408	110,385	-0,068	0,060
-674,393	-23,110	-0,019	-0,009
-673,378	-125,159	-0,085	-0,010
-672,364	-131,239	0,058	-0,006
-671,349	16,235	0,083	-0,048
-670,335	-112,981	0,011	0,002
-669,320	800,000	-0,041	-0,093
-668,305	126,710	0,113	0,106
-667,291	-120,277	0,065	-0,008
-666,276	-11,187	0,032	0,016
-665,262	10,540	-0,153	0,086
-664,247	-200,000	0,008	-0,066
-663,232	800,000	0,045	-0,115
-662,218	80,011	-0,053	0,042
-661,203	-200,000	-0,026	-0,129
-660,189	424,034	-0,042	-0,067
-659,174	29,310	0,066	0,042
-658,159	438,233	-0,095	-0,154
-657,145	-200,000	0,018	-0,108
-656,130	512,665	-0,066	-0,115
-655,116	58,757	0,079	0,057
-654,101	383,960	0,067	0,102
-653,086	-77,431	0,082	0,021
-652,072	-15,187	-0,091	-0,043
-651,057	474,410	-0,015	-0,026
-650,043	69,852	-0,068	0,051
-649,028	-200,000	-0,025	-0,091
-648,014	122,437	0,075	-0,069
-646,999	800,000	0,021	0,044
-645,984	800,000	0,040	0,101
-644,970	-200,000	-0,008	-0,030
-643,955	-200,000	-0,016	-0,121
-642,941	65,086	0,025	-0,019
-641,926	800,000	-0,050	-0,114
-640,911	-56,353	0,207	-0,068
-639,897	-64,675	-0,071	-0,021
-638,882	23,535	0,048	0,029
-637,868	38,983	-0,032	0,021
-636,853	-43,684	0,047	0,017
-635,838	-200,000	-0,028	-0,125
-634,824	141,423	-0,026	-0,025
-633,809	148,642	0,104	-0,104
-632,795	285,805	0,075	0,100
-631,780	66,217	-0,057	0,043
-630,765	-200,000	0,021	-0,089
-629,751	126,497	-0,021	0,020
-628,736	800,000	-0,047	0,099
-627,722	295,120	-0,096	0,130
-626,707	-130,288	-0,180	0,018
-625,692	-123,487	0,052	0,006
-624,678	-80,774	-0,085	-0,021
-623,663	42,327	-0,121	-0,081
-622,649	335,418	-0,056	-0,081
-621,634	30,548	-0,057	0,036
-620,619	-85,037	-0,118	0,027
-619,605	-159,255	0,077	-0,003
-618,590	-200,000	-0,010	0,152
-617,576	-22,163	-0,113	-0,050
-616,561	179,663	-0,118	-0,128
-615,546	-150,346	-0,098	0,005
-614,532	-86,367	0,050	0,011
-613,517	313,323	0,101	-0,140
-612,503	-11,899	0,044	-0,021
-611,488	800,000	0,028	0,084
-610,474	-200,000	-0,002	-0,096
-609,459	84,732	-0,025	0,020
-608,444	-200,000	-0,014	-0,062
-607,430	-151,503	0,100	-0,005
-606,415	-94,838	0,102	0,020
-605,401	800,000	0,025	0,059
-604,386	-116,178	-0,097	-0,013
-603,371	800,000	0,047	-0,099
-602,357	-200,000	0,001	0,024
-601,342	-40,561	-0,114	-0,044
-600,328	-130,455	-0,061	0,006
-599,313	-200,000	-0,022	-0,283
-598,298	-124,126	0,094	0,011
-597,284	203,002	-0,019	-0,022
-596,269	-200,000	-0,049	0,000
-595,255	-21,035	-0,054	-0,025
-594,240	-105,257	0,094	-0,016
-593,225	134,574	-0,053	0,051
-592,211	99,650	-0,103	0,088
-591,196	-88,343	0,090	-0,020
-590,182	-19,370	0,087	-0,040
-589,167	429,466	0,029	-0,046
-588,152	800,000	-0,046	-0,100
-587,138	-99,175	0,094	-0,017
-586,123	800,000	0,038	-0,110
-585,109	-200,000	0,000	0,050
-584,094	21,513	-0,150	0,090
-583,079	76,113	0,085	-0,066
-582,065	-108,600	-0,064	-0,010
-581,050	158,980	0,081	0,083
-580,036	451,587	-0,084	-0,137
-579,021	800,000	-0,029	-0,066
-578,006	-109,197	-0,153	-0,024
-576,992	-21,299	0,054	-0,024
-575,977	771,073	0,010	0,021
-574,963	800,000	0,041	0,105
-573,948	7,904	0,090	-0,050
-572,934	48,762	-0,133	0,092
-571,919	158,217	-0,058	-0,060
-570,904	-133,743	0,065	0,006
-569,890	576,025	-0,036	0,065
-568,875	-200,000	0,003	0,048
-567,861	-96,954	0,093	0,018
-566,846	-200,000	0,002	0,028
-565,831	-24,292	0,029	0,013
-564,817	298,634	-0,055	-0,075
-563,802	-148,562	0,103	-0,006
-562,788	-158,850	0,042	-0,002
-561,773	-171,775	0,025	0,001
-560,758	230,703	0,108	0,131
-559,744	-200,000	-0,001	0,052
-558,729	-200,000	-0,029	0,162
-557,715	-41,770	0,019	0,007
-556,700	224,267	-0,075	-0,090
-555,685	-200,000	-0,001	-0,103
-554,671	800,000	-0,029	-0,066
-553,656	800,000	0,038	-0,084
-552,642	-112,703	0,115	0,017
-551,627	-98,614	-0,114	0,021
-550,612	51,824	-0,041	0,029
-549,598	800,000	0,029	-0,082
-548,583	-1,217	-0,050	-0,026
-547,569	159,871	-0,109	-0,112
-546,554	-200,000	-0,015	0,077
-545,539	-1,200	0,085	0,044
-544,525	-200,000	-0,002	0,030
-543,510	532,521	0,028	-0,050
-542,496	-26,194	-0,014	0,006
-541,481	-200,000	-0,012	-0,061
-540,466	800,000	0,018	0,050
-539,452	-200,000	0,023	0,189
-538,437	-0,070	0,051	0,027
-537,423	727,754	0,015	-0,029
-536,408	-103,601	-0,117	-0,020
-535,393	109,913	0,028	0,025
-534,379	-200,000	0,008	0,177
-533,364	-200,000	0,024	0,082
-532,350	-73,797	0,086	0,023
-531,335	-113,590	0,028	0,004
-530,321	800,000	-0,035	0,093
-529,306	192,020	0,019	0,021
-528,291	14,872	-0,097	0,056
-527,277	295,757	0,039	-0,052
-526,262	64,073	-0,110	0,081
-525,248	-18,901	0,016	0,007
-524,233	-200,000	0,033	-0,190
-523,218	-167,326	0,125	0,004
-522,204	-124,975	-0,051	-0,006
-521,189	800,000	-0,033	-0,096
-520,175	-5,145	-0,259	-0,131
-519,160	-107,025	0,112	-0,018
-518,145	-95,103	0,177	-0,035
-517,131	30,053	-0,086	0,054
-516,116	-34,417	0,059	0,024
-515,102	229,051	-0,049	-0,059
-514,087	800,000	-0,001	0,002
-513,072	-144,563	-0,033	0,002
-512,058	229,732	0,039	0,047
-511,043	800,000	-0,030	-0,097
-510,029	-200,000	0,020	-0,125
-509,014	322,897	-0,014	-0,020
-507,999	-200,000	-0,015	0,064
-506,985	-200,000	-0,019	-0,084
-505,970	-109,855	0,170	0,026
-504,956	149,008	-0,023	-0,023
-503,941	800,000	0,044	0,120
-502,926	800,000	0,010	0,029
-501,912	32,561	-0,060	-0,038
-500,897	-200,000	-0,015	0,067
-499,883	254,623	-0,016	-0,020
-498,868	200,252	-0,128	-0,145
-497,853	738,422	-0,050	-0,098
-496,839	-108,823	-0,082	0,013
-495,824	525,033	0,070	0,122
-494,810	136,340	-0,205	0,197
-493,795	800,000	-0,016	0,047
-492,781	-200,000	0,020	0,074
-491,766	-127,835	-0,053	-0,006
-490,751	252,975	0,081	-0,101
-489,737	47,983	0,131	-0,090
-488,722	800,000	-0,028	-0,069
-487,708	-126,366	-0,182	-0,020
-486,693	800,000	-0,010	-0,029
-485,678	216,900	0,094	0,110
-484,664	344,718	-0,032	-0,046
-483,649	-200,000	0,007	-0,114
-482,635	-200,000	0,023	0,111
-481,620	-59,076	0,092	0,029
-480,605	117,380	0,179	0,162
-479,591	800,000	0,054	0,111
-478,576	43,486	0,093	-0,063
-477,562	38,125	-0,104	-0,068
-476,547	134,027	0,070	-0,066
-475,532	6,547	-0,025	-0,014
-474,518	-200,000	-0,000	-0,019
-473,503	800,000	0,013	0,028
-472,489	-120,585	0,018	-0,002
-471,474	330,765	0,019	0,027
-470,459	106,758	-0,082	0,071
-469,445	-51,505	-0,024	0,008
-468,430	146,120	0,044	-0,044
-467,416	243,222	0,170	0,210
-466,401	-48,107	0,135	-0,048
-465,386	457,713	0,019	-0,031
-464,372	800,000	0,009	0,029
-463,357	-46,127	0,089	-0,032
-462,343	435,492	-0,066	0,106
-461,328	800,000	0,037	-0,082
-460,313	-120,290	-0,081	-0,010
-459,299	-28,898	0,063	-0,026
-458,284	-198,529	0,065	-0,000
-457,270	475,284	-0,126	-0,209
-456,255	-12,591	0,069	0,033
-455,241	-200,000	0,001	0,037
-454,226	-200,000	0,005	-0,038
-453,211	-200,000	0,023	0,110
-452,197	-182,514	0,110	-0,001
-451,182	209,281	0,038	-0,044
-450,168	800,000	0,052	0,124
-449,153	33,176	-0,119	-0,076
-448,138	330,344	0,036	-0,051
-447,124	-200,000	0,032	-0,131
-446,109	-200,000	-0,033	-0,113
-445,095	-101,262	0,083	0,015
-444,080	-200,000	0,011	0,119
-443,065	-125,546	0,088	-0,010
-442,051	88,910	-0,085	-0,070
-441,036	-29,216	-0,156	-0,066
-440,022	-200,000	0,021	-0,084
-439,007	657,181	-0,026	0,048
-437,992	190,953	0,043	0,047
-436,978	10,713	-0,075	0,042
-435,963	-160,934	0,084	-0,003
-434,949	-120,771	-0,033	0,004
-433,934	800,000	0,005	-0,015
-432,919	-200,000	-0,031	-0,147
-431,905	-200,000	0,002	0,009
-430,890	744,799	0,060	-0,119
-429,876	4,904	0,089	-0,048
-428,861	-61,299	-0,053	-0,016
-427,846	101,052	0,013	-0,011
-426,832	800,000	0,015	0,036
-425,817	122,569	-0,022	0,020
-424,803	192,485	-0,021	0,024
-423,788	800,000	0,117	0,240
-422,773	-200,000	-0,016	0,058
-421,759	131,187	0,017	0,016
-420,744	-40,654	0,114	-0,043
-419,730	-142,526	-0,231	0,016
-418,715	234,731	0,093	-0,112
-417,701	-90,226	-0,129	-0,027
-416,686	160,211	0,028	0,029
-415,671	-34,046	0,132	-0,053
-414,657	-66,839	-0,027	-0,008
-413,642	10,318	0,088	0,049
-412,628	99,894	0,058	0,049
-411,613	800,000	0,028	-0,062
-410,598	800,000	-0,037	-0,083
-409,584	128,061	-0,034	-0,031
-408,569	-182,138	-0,039	0,001
-407,555	800,000	-0,046	0,124
-406,540	270,483	-0,087	-0,113
-405,525	-200,000	-0,007	0,022
-404,511	149,103	-0,124	0,123
-403,496	-116,826	-0,033	-0,004
-402,482	-15,376	0,081	0,038
-401,467	15,015	-0,105	-0,060
-400,452	186,544	0,084	0,092
-399,438	-110,770	0,071	0,011
-398,423	-4,389	-0,041	-0,021
-397,409	417,924	-0,024	-0,038
-396,394	-200,000	0,008	-0,094
-395,379	318,630	-0,049	0,069
-394,365	800,000	0,021	0,061
-393,350	-200,000	-0,023	0,132
-392,336	-200,000	-0,042	0,249
-391,321	219,125	0,045	0,052
-390,306	-71,039	0,028	-0,008
-389,292	-200,000	-0,008	-0,030
-388,277	133,795	0,027	0,026
-387,263	-139,925	0,033	-0,003
-386,248	272,863	0,006	0,008
-385,233	139,959	0,030	-0,029
-384,219	208,007	-0,091	-0,104
-383,204	18,992	-0,059	0,035
-382,190	66,044	0,031	0,023
-381,175	800,000	-0,030	0,063
-380,160	43,397	0,071	0,047
-379,146	-15,259	0,089	0,042
-378,131	-200,000	-0,019	-0,075
-377,117	273,617	-0,053	0,069
-376,102	800,000	0,092	0,206
-375,088	-8,639	-0,104	-0,051
-374,073	-200,000	0,030	-0,126
-373,058	356,620	-0,062	-0,091
-372,044	5,471	0,021	0,011
-371,029	-200,000	0,015	0,106
-370,015	-55,704	0,042	0,014
-369,000	800,000	-0,027	-0,070
-367,985	-200,000	0,001	-0,149
-366,971	151,643	-0,049	-0,049
-365,956	-153,901	-0,169	0,008
-364,942	800,000	-0,045	-0,121
-363,927	800,000	0,050	-0,126
-362,912	800,000	-0,015	-0,031
-361,898	53,093	-0,117	-0,082
-360,883	-200,000	-0,032	0,000
-359,869	47,494	0,099	0,067
-358,854	147,196	-0,013	-0,013
-357,839	66,889	0,162	0,120
-356,825	195,376	0,021	0,023
-355,810	-200,000	0,020	0,087
-354,796	90,199	-0,110	-0,090
-353,781	-100,153	-0,050	-0,009
-352,766	-200,000	-0,029	-0,128
-351,752	-0,211	-0,113	0,059
-350,737	-200,000	0,018	0,059
-349,723	-200,000	-0,012	-0,082
-348,708	591,245	-0,094	0,170
-347,693	113,611	-0,057	-0,051
-346,679	-200,000	0,009	0,145
-345,664	213,608	-0,072	-0,084
-344,650	-200,000	0,008	0,052
-343,635	-200,000	0,027	0,102
-342,620	267,799	0,154	0,197
-341,606	-200,000	-0,021	0,083
-340,591	-44,049	-0,057	-0,021
-339,577	800,000	0,015	0,034
-338,562	-174,398	-0,144	-0,003
-337,548	83,571	-0,105	-0,084
-336,533	800,000	0,044	-0,114
-335,518	444,907	0,068	0,110
-334,504	614,374	0,007	0,014
-333,489	316,559	-0,029	-0,040
-332,475	100,395	-0,036	-0,031
-331,460	137,319	0,030	0,028
-330,445	-200,000	0,001	-0,226
-329,431	417,530	-0,032	-0,050
-328,416	-200,000	0,009	0,098
-327,402	88,630	-0,135	0,109
-326,387	800,000	-0,037	-0,100
-325,372	39,845	0,078	-0,051
-324,358	717,845	0,007	0,013
-323,343	276,618	-0,054	-0,071
-322,329	800,000	0,043	0,123
-321,314	800,000	0,032	0,097
-320,299	310,015	-0,036	0,050
-319,285	-200,000	-0,015	-0,098
-318,270	452,861	-0,012	-0,019
-317,256	582,537	-0,047	0,085
-316,241	800,000	-0,042	-0,120
-315,226	328,415	-0,060	-0,084
-314,212	-66,266	0,116	-0,034
-313,197	-37,057	-0,114	0,045
-312,183	-129,656	0,065	0,006
-311,168	-72,985	0,047	0,013
-310,153	209,892	-0,109	-0,125
-309,139	-76,316	-0,062	0,016
-308,124	-200,000	0,010	0,110
-307,110	224,076	0,118	0,140
-306,095	-200,000	0,004	0,058
-305,080	-44,888	-0,187	-0,068
-304,066	800,000	0,054	-0,115
-303,051	-50,937	-0,047	-0,016
-302,037	31,150	-0,017	-0,010
-301,022	-39,345	0,060	0,023
-300,008	-200,000	0,006	0,049
-298,993	-200,000	-0,010	0,123
-297,978	800,000	-0,029	0,092
-296,964	129,533	-0,068	-0,064
-295,949	-200,000	-0,006	0,054
-294,935	800,000	-0,015	0,036
-293,920	150,316	0,082	0,081
-292,905	-23,146	0,080	-0,035
-291,891	-200,000	0,008	0,064
-290,876	67,022	0,068	0,051
-289,862	-200,000	0,005	-0,039
-288,847	-66,905	-0,142	-0,041
-287,832	-183,936	0,023	0,000
-286,818	-200,000	0,026	-0,178
-285,803	-137,319	0,125	-0,010
-284,789	-71,156	0,139	-0,038
-283,774	-35,293	0,052	0,020
-282,759	-39,559	-0,083	0,032
-281,745	800,000	-0,042	-0,092
-280,730	363,742	0,051	-0,075
-279,716	-200,000	-0,020	0,128
-278,701	33,196	0,027	-0,017
-277,686	537,925	-0,036	0,063
-276,672	178,965	-0,036	-0,039
-275,657	454,905	0,089	-0,145
-274,643	124,428	-0,166	0,152
-273,628	270,993	-0,026	0,033
-272,613	594,628	0,057	0,103
-271,599	-115,651	-0,033	0,004
-270,584	506,505	-0,052	0,089
-269,570	106,618	0,110	-0,095
-268,555	301,209	0,022	-0,029
-267,540	388,099	0,030	0,046
-266,526	-200,000	0,006	-0,065
-265,511	47,860	-0,149	0,101
-264,497	664,182	-0,028	0,053
-263,482	340,426	0,036	0,051
-262,467	80,203	0,087	0,068
-261,453	-5,761	0,072	-0,036
-260,438	-200,000	0,013	-0,070
-259,424	264,634	-0,009	-0,012
-258,409	708,847	-0,083	0,160
-257,395	800,000	0,023	-0,060
-256,380	428,920	0,084	0,132
-255,365	32,481	0,099	-0,062
-254,351	192,599	0,066	-0,073
-253,336	320,527	0,040	0,056
-252,322	-200,000	-0,048	-0,166
-251,307	166,334	-0,046	0,048
-250,292	-200,000	-0,073	-0,000
-249,278	92,178	-0,058	-0,047
-248,263	-200,000	0,015	-0,048
-247,249	-48,285	0,142	0,050
-246,234	-200,000	-0,000	-0,150
-245,219	240,337	-0,055	-0,067
-244,205	126,935	0,089	-0,082
-243,190	-200,000	-0,006	-0,052
-242,176	-170,999	0,048	0,001
-241,161	-176,564	0,232	-0,004
-240,146	-28,510	0,010	-0,004
-239,132	-77,631	-0,149	0,037
-238,117	369,050	0,030	-0,045
-237,103	-67,691	0,062	-0,017
-236,088	-16,979	0,177	-0,081
-235,073	80,865	0,187	0,147
-234,059	620,386	-0,020	-0,036
-233,044	-42,552	-0,083	-0,031
-232,030	566,973	0,029	-0,052
-231,015	-200,000	-0,010	-0,184
-230,000	174,339	-0,110	-0,116
-228,986	362,707	0,046	-0,068
-227,971	-200,000	0,018	0,199
-226,957	309,586	-0,046	0,063
-225,942	276,612	0,080	0,104
-224,927	-33,023	0,097	-0,039
-223,913	391,240	0,081	-0,123
-222,898	-22,543	-0,093	-0,041
-221,884	70,793	-0,077	-0,058
-220,869	-74,271	0,086	-0,023
-219,855	-48,802	0,055	-0,019
-218,840	-200,000	-0,024	0,176
-217,825	-37,667	-0,101	-0,039
-216,811	-54,812	-0,051	0,017
-215,796	-148,551	-0,020	0,001
-214,782	-133,814	-0,187	-0,017
-213,767	27,253	-0,105	0,064
-212,752	514,388	0,055	0,094
-211,738	180,836	0,105	0,112
-210,723	800,000	0,029	0,075
-209,709	-200,000	-0,000	-0,034
-208,694	-176,410	-0,102	-0,002
-207,679	31,795	-0,063	-0,040
-206,665	-200,000	0,008	0,045
-205,650	-96,751	0,096	0,018
-204,636	800,000	-0,004	0,012
-203,621	411,487	0,060	-0,093
-202,606	-200,000	0,017	0,093
-201,592	135,206	-0,086	-0,082
-200,577	-200,000	-0,006	-0,077
-199,563	-61,110	0,085	0,026
-198,548	-70,055	-0,052	-0,014
-197,533	407,080	0,109	0,168
-196,519	-200,000	-0,007	0,081
-195,504	-66,707	-0,143	0,041
-194,490	243,402	-0,112	-0,137
-193,475	-22,700	0,051	-0,022
-192,460	-200,000	-0,007	0,024
-191,446	542,965	0,051	0,089
-190,431	787,413	-0,004	0,007
-189,417	-200,000	-0,033	0,124
-188,402	462,602	0,059	0,095
-187,387	-118,475	-0,185	0,024
-186,373	15,045	-0,109	-0,062
-185,358	-17,082	0,085	0,039
-184,344	-138,264	0,031	0,002
-183,329	-200,000	0,018	-0,083
-182,315	-197,848	-0,138	-0,001
-181,300	34,916	0,078	0,050
-180,285	800,000	-0,020	0,055
-179,271	-200,000	0,019	-0,157
-178,256	800,000	0,045	-0,142
-177,242	-200,000	-0,030	-0,102
-176,227	-8,851	0,150	0,073
-175,212	-113,303	0,024	0,003
-174,198	-42,638	0,073	0,027
-173,183	24,005	-0,080	-0,048
-172,169	-200,000	-0,024	-0,162
-171,154	-45,027	0,063	0,023
-170,139	537,548	-0,099	-0,172
-169,125	-101,907	0,054	0,009
-168,110	175,100	-0,078	0,082
-167,096	-200,000	0,008	-0,028
-166,081	-200,000	-0,005	0,084
-165,066	-200,000	0,026	0,178
-164,052	331,669	0,002	-0,003
-163,037	800,000	0,015	0,045
-162,023	56,759	0,081	0,057
-161,008	-200,000	-0,005	0,094
-159,993	800,000	0,058	0,130
-158,979	55,619	-0,151	0,106
-157,964	128,864	-0,020	-0,019
-156,950	-98,134	0,029	-0,005
-155,935	-172,612	-0,017	0,000
-154,920	269,764	0,086	0,110
-153,906	-117,583	0,136	0,018
-152,891	136,869	-0,009	0,009
-151,877	800,000	-0,041	0,114
-150,862	107,379	-0,158	-0,137
-149,847	614,865	0,051	-0,093
-148,833	105,981	-0,120	0,103
-147,818	72,247	0,066	-0,050
-146,804	-125,848	-0,054	0,006
-145,789	-200,000	-0,014	0,122
-144,775	-200,000	-0,011	-0,074
-143,760	-200,000	-0,004	-0,055
-142,745	229,271	0,048	-0,057
-141,731	76,005	-0,156	-0,120
-140,716	9,720	-0,095	-0,052
-139,702	-72,343	-0,073	0,019
-138,687	2,338	0,134	0,070
-137,672	623,448	-0,065	0,120
-136,658	-72,802	-0,082	0,022
-135,643	198,176	-0,072	0,080
-134,629	800,000	-0,030	0,087
-133,614	21,610	0,064	-0,038
-132,599	550,970	0,054	-0,095
-131,585	55,477	0,167	0,117
-130,570	199,120	0,039	-0,043
-129,556	158,384	-0,035	0,035
-128,541	17,198	-0,053	-0,031
-127,526	-147,464	-0,096	-0,006
-126,512	16,720	-0,031	-0,018
-125,497	-200,000	0,011	0,080
-124,483	-52,141	0,082	0,027
-123,468	-115,613	-0,061	0,008
-122,453	634,179	-0,058	-0,108
-121,439	394,179	-0,091	-0,138
-120,424	-200,000	0,002	0,026
