DTS Sentinel unit serial number:	SN410029Multiplexer serial number:	ORYXHardware model number:	OX2-SRSoftware version number:	ORYX F/W v4,00 Oryx Data Collector v3.7.2.0data status	okinstallation	B6 Nyhavnadifferential loss correction	single-endedforward channel	channel 2reverse channel	N/Adate	2023/12/09time	14:55:08forward acquisition time	300,00reverse acquisition time	0,00gamma	499,1914k internal	0,3133k external	0,3133temperature offset calibration	1,0000default loss term (dB/km)	0,3820temperature slope calibration	1,0000multiplexer offset coefficient	1,0000multiplexer slope coefficient	1,0000fibre end	0,00T internal ref (°C)	20,56T ext. ref 1 (°C)	4,30T ext. ref 2 (°C)	4,31length (m)	temperature (°C)	Stokes	anti-Stokes-744,400	5,052	0,043	-0,023
-743,385	-17,169	-0,187	0,087
-742,371	600,414	0,061	0,114
-741,356	85,122	-0,112	0,091
-740,342	-147,163	0,058	-0,004
-739,327	-47,946	-0,234	0,084
-738,312	800,000	-0,069	-0,157
-737,298	-114,288	-0,287	-0,041
-736,283	416,260	0,082	0,130
-735,269	43,225	-0,236	0,160
-734,254	87,685	0,010	-0,008
-733,239	-116,503	-0,310	-0,042
-732,225	41,994	0,149	0,100
-731,210	-25,856	-0,140	0,061
-730,196	187,751	0,062	-0,069
-729,181	800,000	0,044	-0,099
-728,167	57,591	0,047	0,034
-727,152	625,815	0,085	-0,159
-726,137	800,000	-0,035	-0,103
-725,123	-200,000	-0,004	-0,044
-724,108	-200,000	-0,011	-0,049
-723,094	-200,000	0,011	0,040
-722,079	800,000	0,066	-0,161
-721,064	85,420	-0,186	-0,152
-720,050	-36,133	-0,147	-0,059
-719,035	-48,809	-0,111	-0,039
-718,021	129,727	-0,081	-0,077
-717,006	172,075	0,003	0,003
-715,991	57,718	-0,012	0,009
-714,977	-200,000	0,022	-0,181
-713,962	259,737	-0,044	-0,057
-712,948	-165,420	-0,038	-0,001
-711,933	-200,000	-0,025	0,157
-710,918	479,600	0,022	-0,038
-709,904	17,857	0,089	-0,052
-708,889	41,809	-0,108	-0,073
-707,875	-174,415	-0,060	0,001
-706,860	-200,000	-0,006	-0,216
-705,845	-109,225	0,028	0,004
-704,831	267,193	0,062	0,081
-703,816	-200,000	-0,026	-0,098
-702,802	-200,000	-0,023	-0,129
-701,787	-200,000	-0,015	-0,093
-700,772	800,000	0,027	-0,061
-699,758	-200,000	0,013	-0,057
-698,743	800,000	-0,044	0,115
-697,729	-20,205	0,059	-0,027
-696,714	55,503	0,151	0,108
-695,699	517,366	0,007	-0,012
-694,685	800,000	0,022	-0,069
-693,670	723,257	-0,058	-0,114
-692,656	-10,281	0,079	-0,039
-691,641	800,000	0,048	-0,120
-690,627	-200,000	0,003	0,067
-689,612	-200,000	-0,009	-0,056
-688,597	-22,667	-0,083	0,037
-687,583	74,049	0,029	0,023
-686,568	711,842	0,053	-0,105
-685,554	791,731	0,025	-0,050
-684,539	-200,000	0,014	-0,045
-683,524	250,353	0,096	-0,122
-682,510	154,878	0,075	-0,076
-681,495	-48,967	-0,163	-0,058
-680,481	-200,000	-0,009	-0,057
-679,466	33,757	-0,031	0,020
-678,451	-77,771	0,126	-0,032
-677,437	800,000	-0,017	-0,056
-676,422	66,247	0,141	0,106
-675,408	800,000	-0,038	-0,085
-674,393	-200,000	0,004	-0,104
-673,378	-200,000	-0,008	0,070
-672,364	-109,445	0,023	0,004
-671,349	106,433	-0,034	0,030
-670,335	-200,000	-0,006	-0,093
-669,320	-200,000	0,009	-0,150
-668,305	-168,623	0,031	0,001
-667,291	-188,470	-0,016	-0,000
-666,276	381,132	-0,017	0,025
-665,262	-200,000	-0,006	-0,083
-664,247	255,162	0,076	-0,096
-663,232	-200,000	0,035	-0,116
-662,218	42,842	-0,152	0,102
-661,203	-200,000	-0,004	0,035
-660,189	56,468	0,061	0,044
-659,174	-151,469	0,033	-0,002
-658,159	231,300	-0,053	-0,064
-657,145	164,001	-0,091	-0,095
-656,130	800,000	0,140	-0,296
-655,116	84,885	-0,067	-0,055
-654,101	-200,000	0,001	0,027
-653,086	-200,000	-0,020	-0,072
-652,072	-200,000	0,037	-0,200
-651,057	-200,000	-0,012	-0,049
-650,043	603,872	0,029	-0,054
-649,028	577,816	0,072	-0,131
-648,014	-84,379	-0,039	0,009
-646,999	0,064	0,114	0,060
-645,984	-151,879	0,148	0,008
-644,970	255,631	-0,010	0,012
-643,955	800,000	-0,037	-0,085
-642,941	-101,501	0,115	-0,020
-641,926	800,000	-0,015	-0,045
-640,911	-51,873	0,136	0,046
-639,897	-18,255	-0,016	0,008
-638,882	197,230	0,071	0,080
-637,868	156,525	0,090	-0,092
-636,853	-64,508	-0,170	-0,051
-635,838	-10,713	-0,104	0,051
-634,824	-200,000	-0,017	-0,139
-633,809	112,443	0,041	-0,037
-632,795	-54,370	0,036	0,012
-631,780	213,151	-0,033	0,039
-630,765	-87,339	0,097	0,022
-629,751	-200,000	0,009	-0,166
-628,736	-200,000	-0,010	-0,116
-627,722	178,908	-0,080	-0,087
-626,707	-120,614	-0,151	0,019
-625,692	-161,608	0,070	-0,003
-624,678	55,934	-0,059	0,043
-623,663	800,000	0,043	-0,102
-622,649	324,329	-0,081	-0,115
-621,634	60,722	-0,136	-0,100
-620,619	34,612	-0,033	-0,021
-619,605	2,492	-0,079	-0,042
-618,590	27,441	-0,056	-0,035
-617,576	800,000	0,030	0,068
-616,561	220,026	-0,085	0,101
-615,546	764,253	0,026	0,052
-614,532	75,229	-0,093	-0,073
-613,517	-53,662	0,042	-0,014
-612,503	800,000	-0,029	-0,077
-611,488	-114,363	0,072	-0,010
-610,474	41,057	0,044	-0,029
-609,459	413,583	-0,046	-0,072
-608,444	357,504	-0,020	0,030
-607,430	100,942	0,030	0,026
-606,415	62,032	-0,059	-0,044
-605,401	83,441	-0,100	-0,081
-604,386	-200,000	0,035	0,173
-603,371	78,080	-0,073	0,057
-602,357	-99,500	-0,035	-0,006
-601,342	-200,000	0,012	0,075
-600,328	469,277	0,011	0,019
-599,313	-30,088	0,141	-0,059
-598,298	-200,000	-0,101	-0,000
-597,284	800,000	0,030	-0,086
-596,269	500,152	-0,021	0,036
-595,255	-72,910	-0,135	0,036
-594,240	444,372	0,018	-0,030
-593,225	-127,996	-0,009	-0,001
-592,211	-200,000	0,011	-0,037
-591,196	-70,383	0,229	0,064
-590,182	407,161	0,015	-0,024
-589,167	-113,201	0,122	0,018
-588,152	-39,019	0,062	0,024
-587,138	-168,527	0,051	-0,001
-586,123	194,551	-0,049	-0,055
-585,109	415,305	0,029	0,046
-584,094	-42,574	-0,154	-0,058
-583,079	-82,570	0,039	-0,009
-582,065	202,320	0,086	-0,098
-581,050	5,248	0,150	-0,082
-580,036	35,915	-0,050	-0,033
-579,021	139,608	-0,018	-0,018
-578,006	-164,086	-0,046	-0,002
-576,992	606,613	0,060	-0,110
-575,977	187,212	-0,027	-0,030
-574,963	-77,625	0,180	-0,046
-573,948	-200,000	-0,007	-0,066
-572,934	327,712	-0,041	0,058
-571,919	99,019	-0,021	-0,018
-570,904	800,000	0,041	-0,132
-569,890	-200,000	0,018	-0,079
-568,875	60,274	0,096	-0,070
-567,861	-158,502	0,115	0,005
-566,846	-69,945	-0,019	-0,005
-565,831	353,768	-0,028	0,041
-564,817	407,025	0,045	-0,070
-563,802	-200,000	0,020	-0,095
-562,788	-200,000	-0,006	0,035
-561,773	-160,046	-0,076	0,003
-560,758	-200,000	-0,000	-0,067
-559,744	294,403	0,041	0,056
-558,729	800,000	0,016	-0,049
-557,715	20,121	0,058	0,035
-556,700	479,442	-0,039	0,066
-555,685	800,000	-0,016	-0,047
-554,671	-42,741	0,129	-0,048
-553,656	693,348	-0,023	-0,046
-552,642	19,147	-0,124	0,073
-551,627	-129,789	0,062	0,006
-550,612	-200,000	0,024	-0,103
-549,598	85,939	-0,115	-0,093
-548,583	97,883	0,023	-0,019
-547,569	60,318	-0,040	-0,029
-546,554	-97,484	0,026	-0,005
-545,539	-200,000	-0,039	0,139
-544,525	429,954	-0,038	0,061
-543,510	-108,872	0,020	0,003
-542,496	800,000	0,015	-0,048
-541,481	21,282	-0,061	-0,037
-540,466	452,979	0,031	-0,050
-539,452	123,341	-0,021	0,019
-538,437	109,926	-0,114	0,101
-537,423	39,852	0,061	0,040
-536,408	-86,821	0,031	-0,007
-535,393	258,383	0,034	-0,043
-534,379	800,000	-0,028	-0,089
-533,364	-200,000	0,011	0,224
-532,350	-186,381	-0,032	-0,000
-531,335	4,414	0,055	0,030
-530,321	-44,154	-0,024	-0,009
-529,306	297,530	-0,061	-0,083
-528,291	-136,226	-0,053	0,005
-527,277	800,000	0,048	-0,103
-526,262	-200,000	-0,002	0,042
-525,248	-200,000	0,013	0,057
-524,233	85,429	0,132	0,106
-523,218	-200,000	-0,010	0,041
-522,204	592,093	0,062	0,114
-521,189	-200,000	-0,043	-0,152
-520,175	-79,929	0,111	-0,027
-519,160	215,161	0,039	-0,046
-518,145	20,074	-0,093	0,055
-517,131	411,198	0,056	0,087
-516,116	29,593	0,036	0,022
-515,102	257,216	-0,033	0,041
-514,087	800,000	-0,096	-0,224
-513,072	185,894	0,112	-0,123
-512,058	800,000	-0,064	-0,195
-511,043	-200,000	-0,025	-0,183
-510,029	-57,122	0,044	-0,014
-509,014	-47,517	-0,063	0,023
-507,999	100,807	0,047	0,041
-506,985	34,003	-0,023	0,015
-505,970	800,000	0,049	-0,155
-504,956	-200,000	-0,005	-0,087
-503,941	584,463	0,010	-0,018
-502,926	632,036	0,020	0,038
-501,912	45,651	0,085	0,057
-500,897	-200,000	-0,019	0,104
-499,883	235,257	-0,054	0,065
-498,868	331,790	0,057	-0,081
-497,853	-200,000	0,002	0,030
-496,839	-200,000	-0,028	0,259
-495,824	-88,307	0,157	-0,034
-494,810	216,866	-0,117	-0,137
-493,795	257,562	-0,060	-0,076
-492,781	800,000	-0,042	0,124
-491,766	-127,359	0,075	0,008
-490,751	85,022	-0,077	-0,062
-489,737	93,914	0,121	-0,101
-488,722	-87,507	-0,150	-0,033
-487,708	-2,240	0,080	0,041
-486,693	-48,943	0,053	0,019
-485,678	118,134	-0,055	-0,050
-484,664	78,791	0,090	-0,071
-483,649	660,844	-0,075	-0,143
-482,635	-200,000	-0,006	-0,053
-481,620	-200,000	-0,018	0,060
-480,605	-200,000	0,030	-0,100
-479,591	98,274	-0,048	0,040
-478,576	-69,340	-0,185	0,052
-477,562	-95,368	-0,039	-0,008
-476,547	-200,000	0,029	-0,098
-475,532	-82,741	0,125	-0,030
-474,518	158,609	0,104	0,106
-473,503	402,813	0,016	0,024
-472,489	-170,151	0,037	0,001
-471,474	244,373	-0,109	-0,135
-470,459	-200,000	-0,050	0,191
-469,445	45,845	-0,050	-0,034
-468,430	-53,243	-0,119	-0,040
-467,416	500,881	0,027	-0,046
-466,401	-45,682	0,105	-0,038
-465,386	800,000	0,072	0,149
-464,372	299,033	-0,054	-0,073
-463,357	-200,000	-0,034	-0,124
-462,343	105,983	0,025	-0,022
-461,328	-200,000	0,029	-0,133
-460,313	-103,135	0,050	-0,009
-459,299	-119,089	-0,052	-0,007
-458,284	-68,240	0,092	-0,026
-457,270	-200,000	0,001	0,150
-456,255	-39,034	0,042	-0,016
-455,241	-39,706	-0,130	-0,050
-454,226	183,486	-0,017	-0,019
-453,211	36,072	0,052	-0,034
-452,197	-46,490	0,110	-0,040
-451,182	-66,061	0,070	0,020
-450,168	63,866	-0,133	0,098
-449,153	-200,000	0,009	-0,102
-448,138	106,550	-0,032	0,028
-447,124	187,460	-0,010	-0,011
-446,109	218,551	0,103	0,121
-445,095	31,141	0,138	0,087
-444,080	800,000	-0,022	0,064
-443,065	31,195	0,112	0,071
-442,051	-54,922	0,040	-0,013
-441,036	-200,000	-0,011	0,074
-440,022	-105,182	-0,129	0,021
-439,007	532,728	-0,051	0,088
-437,992	140,650	0,066	0,064
-436,978	-200,000	0,015	-0,049
-435,963	-189,946	-0,045	-0,000
-434,949	226,778	-0,071	0,084
-433,934	86,522	0,097	-0,079
-432,919	196,022	-0,153	-0,171
-431,905	800,000	0,062	-0,194
-430,890	174,824	0,055	0,059
-429,876	649,261	0,038	0,071
-428,861	-200,000	0,002	0,048
-427,846	800,000	0,031	-0,098
-426,832	800,000	-0,031	-0,083
-425,817	63,870	0,081	-0,060
-424,803	267,245	0,008	0,010
-423,788	800,000	-0,025	-0,075
-422,773	-200,000	0,008	0,092
-421,759	536,360	0,023	0,040
-420,744	13,195	0,073	0,041
-419,730	-200,000	0,010	0,046
-418,715	-23,323	0,083	-0,036
-417,701	83,933	-0,071	0,057
-416,686	153,352	-0,070	0,070
-415,671	-137,661	0,254	0,021
-414,657	-84,139	0,115	0,027
-413,642	727,411	0,026	-0,051
-412,628	107,400	-0,033	0,029
-411,613	-200,000	-0,032	-0,131
-410,598	284,084	-0,086	-0,114
-409,584	316,819	0,028	-0,040
-408,569	-165,920	0,211	-0,006
-407,555	-38,386	0,087	0,033
-406,540	-65,582	-0,080	0,023
-405,525	-200,000	0,002	-0,066
-404,511	131,743	-0,016	-0,016
-403,496	-200,000	0,019	-0,120
-402,482	107,421	-0,010	-0,009
-401,467	800,000	0,030	-0,069
-400,452	-200,000	-0,007	0,065
-399,438	666,230	-0,025	0,047
-398,423	800,000	-0,052	0,131
-397,409	-200,000	-0,009	0,105
-396,394	-108,422	-0,119	-0,019
-395,379	26,948	-0,050	-0,030
-394,365	800,000	0,048	0,134
-393,350	-97,130	0,152	0,029
-392,336	317,014	0,041	0,057
-391,321	493,928	-0,050	0,085
-390,306	-37,811	-0,151	-0,059
-389,292	-200,000	0,024	-0,102
-388,277	239,194	0,089	-0,109
-387,263	-200,000	0,027	0,128
-386,248	-44,604	0,122	-0,044
-385,233	800,000	0,016	0,043
-384,219	276,660	-0,089	0,116
-383,204	1,382	-0,030	0,016
-382,190	800,000	-0,064	-0,134
-381,175	253,683	-0,011	0,014
-380,160	800,000	0,072	0,190
-379,146	800,000	0,055	0,137
-378,131	159,828	0,028	0,029
-377,117	198,548	-0,079	-0,089
-376,102	550,558	-0,028	0,050
-375,088	87,125	-0,105	-0,085
-374,073	800,000	-0,056	-0,150
-373,058	-93,053	0,062	0,012
-372,044	-87,141	-0,089	-0,020
-371,029	-34,054	0,099	0,040
-370,015	-143,625	0,102	0,007
-369,000	-200,000	0,027	-0,121
-367,985	-35,865	-0,086	-0,034
-366,971	-200,000	-0,007	-0,061
-365,956	800,000	0,046	0,099
-364,942	-200,000	0,001	0,070
-363,927	-200,000	-0,014	0,106
-362,912	-118,637	-0,105	0,013
-361,898	375,873	-0,051	-0,076
-360,883	135,568	-0,097	-0,092
-359,869	-70,664	-0,056	0,015
-358,854	-200,000	-0,032	0,203
-357,839	-99,395	-0,082	-0,015
-356,825	170,652	-0,092	0,097
-355,810	-116,314	0,076	0,010
-354,796	-200,000	-0,007	0,115
-353,781	151,651	0,064	-0,064
-352,766	-30,910	0,042	-0,017
-351,752	7,633	-0,094	0,051
-350,737	800,000	0,012	0,024
-349,723	126,900	-0,128	0,119
-348,708	-125,336	-0,070	0,008
-347,693	-126,328	0,079	-0,009
-346,679	-99,080	-0,090	-0,017
-345,664	453,985	-0,062	0,100
-344,650	-77,860	0,113	0,028
-343,635	181,517	0,019	0,020
-342,620	-77,116	-0,054	0,014
-341,606	531,263	0,038	0,065
-340,591	-200,000	0,004	-0,033
-339,577	592,064	0,036	-0,066
-338,562	-26,073	-0,079	-0,034
-337,548	101,918	0,091	-0,078
-336,533	273,619	0,104	0,135
-335,518	569,497	0,060	0,107
-334,504	137,666	-0,036	-0,034
-333,489	86,572	0,074	-0,060
-332,475	800,000	0,063	-0,168
-331,460	-175,079	-0,109	-0,002
-330,445	-74,750	-0,033	0,009
-329,431	-75,054	0,135	-0,035
-328,416	10,411	0,114	0,063
-327,402	-107,279	0,202	0,032
-326,387	-200,000	-0,013	-0,056
-325,372	120,605	-0,027	0,024
-324,358	-3,023	-0,094	0,048
-323,343	59,222	-0,075	-0,054
-322,329	241,534	-0,085	-0,105
-321,314	7,566	0,034	0,019
-320,299	800,000	-0,024	0,064
-319,285	800,000	-0,049	-0,135
-318,270	-200,000	0,036	-0,178
-317,256	-39,674	-0,036	0,014
-316,241	263,408	-0,038	0,048
-315,226	-200,000	-0,001	0,028
-314,212	60,298	-0,092	0,067
-313,197	800,000	0,018	0,051
-312,183	3,788	-0,044	0,023
-311,168	-200,000	0,022	0,082
-310,153	800,000	-0,012	0,025
-309,139	441,641	-0,039	0,063
-308,124	-45,713	0,017	0,006
-307,110	-200,000	-0,004	-0,102
-306,095	751,941	-0,067	0,132
-305,080	249,897	-0,096	0,119
-304,066	-190,868	0,139	0,001
-303,051	-130,314	-0,089	0,009
-302,037	12,900	0,064	0,036
-301,022	60,675	0,139	0,100
-300,008	-86,661	0,030	-0,007
-298,993	260,205	-0,040	-0,051
-297,978	598,643	-0,012	-0,022
-296,964	-200,000	0,011	-0,115
-295,949	-50,172	0,036	0,012
-294,935	-200,000	-0,039	0,125
-293,920	800,000	0,012	-0,030
-292,905	800,000	0,005	-0,015
-291,891	-63,227	0,069	0,021
-290,876	-200,000	-0,001	-0,073
-289,862	442,919	-0,033	0,054
-288,847	-200,000	-0,047	-0,171
-287,832	800,000	-0,033	-0,096
-286,818	241,826	0,019	0,023
-285,803	460,303	-0,036	-0,059
-284,789	-200,000	-0,013	-0,075
-283,774	-0,679	0,075	-0,039
-282,759	-200,000	-0,008	0,041
-281,745	-200,000	-0,001	-0,053
-280,730	-200,000	-0,034	-0,118
-279,716	-200,000	-0,012	0,102
-278,701	486,382	0,028	-0,046
-277,686	-200,000	0,014	-0,073
-276,672	-200,000	0,045	0,178
-275,657	168,219	-0,033	0,035
-274,643	-200,000	0,014	-0,132
-273,628	28,949	-0,084	0,052
-272,613	326,208	-0,024	-0,033
-271,599	684,693	0,043	0,082
-270,584	201,419	0,078	0,088
-269,570	793,599	-0,017	-0,033
-268,555	453,016	-0,058	-0,094
-267,540	70,229	-0,045	-0,034
-266,526	-200,000	-0,006	-0,130
-265,511	-200,000	0,025	0,119
-264,497	800,000	0,019	-0,044
-263,482	800,000	0,094	0,191
-262,467	800,000	-0,036	0,100
-261,453	-107,166	-0,129	-0,021
-260,438	137,290	0,062	0,059
-259,424	80,213	0,049	0,038
-258,409	10,770	-0,129	0,072
-257,395	752,555	-0,052	0,102
-256,380	304,365	-0,055	0,074
-255,365	-97,693	0,038	-0,007
-254,351	-98,966	-0,107	0,020
-253,336	101,239	0,024	-0,020
-252,322	-200,000	0,011	-0,060
-251,307	121,525	-0,073	0,066
-250,292	-94,430	-0,105	-0,021
-249,278	450,890	-0,010	0,017
-248,263	23,394	-0,053	0,031
-247,249	237,941	0,095	-0,115
-246,234	-74,781	-0,092	-0,024
-245,219	-18,822	-0,046	-0,021
-244,205	-86,404	-0,109	-0,024
-243,190	-149,865	0,085	-0,005
-242,176	48,151	0,076	0,052
-241,161	-72,186	-0,077	0,021
-240,146	800,000	-0,020	0,056
-239,132	794,647	0,071	0,143
-238,117	182,784	0,055	-0,059
-237,103	-65,019	-0,173	0,051
-236,088	243,659	0,053	0,065
-235,073	-150,216	-0,050	0,003
-234,059	28,299	0,110	0,068
-233,044	617,492	0,058	0,107
-232,030	320,675	-0,028	0,039
-231,015	-200,000	-0,036	-0,132
-230,000	45,264	0,120	0,081
-228,986	800,000	0,057	0,133
-227,971	254,340	-0,031	-0,038
-226,957	106,848	-0,037	-0,032
-225,942	55,524	-0,053	-0,037
-224,927	-1,070	-0,026	-0,013
-223,913	-4,422	-0,037	0,019
-222,898	134,748	-0,081	0,076
-221,884	-200,000	-0,013	0,095
-220,869	234,535	0,065	-0,079
-219,855	-32,434	0,084	0,034
-218,840	17,495	-0,104	0,060
-217,825	800,000	-0,002	-0,004
-216,811	102,143	-0,159	-0,135
-215,796	800,000	-0,043	0,134
-214,782	25,023	0,054	0,032
-213,767	3,009	-0,111	0,059
-212,752	-121,421	0,155	-0,019
-211,738	-200,000	0,001	0,051
-210,723	-84,525	0,084	0,019
-209,709	800,000	-0,071	-0,147
-208,694	-200,000	0,010	-0,035
-207,679	19,702	-0,085	-0,050
-206,665	-21,026	0,073	0,032
-205,650	108,058	0,153	0,133
-204,636	-200,000	0,053	0,185
-203,621	320,327	0,087	0,120
-202,606	-200,000	0,023	-0,112
-201,592	800,000	-0,025	0,065
-200,577	800,000	-0,052	-0,155
-199,563	669,635	-0,017	0,033
-198,548	-152,855	0,171	-0,009
-197,533	210,098	-0,124	0,142
-196,519	-147,528	0,049	0,003
-195,504	393,608	-0,005	0,008
-194,490	269,845	-0,058	-0,074
-193,475	378,186	0,076	-0,113
-192,460	112,431	0,104	-0,091
-191,446	-200,000	0,008	0,056
-190,431	249,674	0,036	0,044
-189,417	800,000	0,014	0,043
-188,402	31,306	-0,082	0,051
-187,387	-200,000	0,003	-0,036
-186,373	-43,706	-0,075	0,027
-185,358	501,891	0,056	0,095
-184,344	24,420	0,070	0,042
-183,329	-158,782	-0,018	0,001
-182,315	382,167	0,025	0,037
-181,300	-115,717	-0,112	0,015
-180,285	278,420	-0,062	-0,081
-179,271	-78,647	0,109	-0,027
-178,256	150,127	0,041	0,041
-177,242	304,837	0,060	-0,081
-176,227	800,000	-0,038	0,080
-175,212	118,299	-0,106	-0,095
-174,198	461,433	0,099	-0,160
-173,183	414,769	-0,062	-0,097
-172,169	369,814	-0,040	0,060
-171,154	-63,819	-0,089	0,026
-170,139	527,142	0,023	0,039
-169,125	125,441	-0,073	0,067
-168,110	83,598	-0,053	0,042
-167,096	100,894	-0,007	0,006
-166,081	225,652	-0,071	0,083
-165,066	-10,436	-0,161	-0,077
-164,052	-18,988	0,095	0,043
-163,037	45,048	-0,110	0,074
-162,023	147,669	0,089	0,088
-161,008	-200,000	-0,008	0,134
-159,993	-200,000	0,004	-0,030
-158,979	-89,966	-0,090	-0,019
-157,964	-150,026	-0,096	-0,005
-156,950	220,538	-0,083	0,097
-155,935	-66,527	0,057	0,016
-154,920	-200,000	0,003	0,172
-153,906	800,000	-0,020	0,048
-152,891	-200,000	-0,020	0,080
-151,877	14,448	-0,110	-0,062
-150,862	-200,000	-0,042	-0,168
-149,847	20,678	0,106	-0,062
-148,833	-200,000	-0,003	-0,183
-147,818	-8,350	0,076	-0,037
-146,804	305,605	-0,028	0,037
-145,789	730,345	0,033	0,065
-144,775	344,279	-0,092	0,132
-143,760	-68,086	-0,156	-0,044
-142,745	423,662	-0,056	-0,088
-141,731	-66,456	0,053	-0,015
-140,716	110,708	0,155	0,135
-139,702	142,312	0,037	-0,035
-138,687	800,000	-0,006	-0,014
-137,672	-106,302	-0,112	-0,018
-136,658	-200,000	0,009	-0,050
-135,643	-153,937	-0,061	-0,003
-134,629	94,430	-0,067	0,055
-133,614	-200,000	-0,025	0,145
-132,599	-5,894	-0,050	0,025
-131,585	189,941	-0,110	-0,120
-130,570	-20,706	-0,064	0,028
-129,556	-200,000	-0,020	-0,205
-128,541	800,000	-0,088	-0,200
-127,526	-0,940	0,050	-0,026
-126,512	59,740	-0,134	0,096
-125,497	74,566	0,021	0,016
-124,483	266,030	0,027	0,034
-123,468	576,471	0,096	-0,170
-122,453	-200,000	0,003	0,040
-121,439	72,569	-0,072	-0,054
-120,424	23,174	0,053	-0,032
-119,410	123,551	0,051	-0,046
-118,395	-2,218	0,140	-0,071
