DTS Sentinel unit serial number:	SN410029Multiplexer serial number:	ORYXHardware model number:	OX2-SRSoftware version number:	ORYX F/W v4,00 Oryx Data Collector v3.7.2.0data status	okinstallation	B6 Nyhavnadifferential loss correction	single-endedforward channel	channel 2reverse channel	N/Adate	2023/12/07time	21:15:08forward acquisition time	300,00reverse acquisition time	0,00gamma	499,1914k internal	0,3164k external	0,3164temperature offset calibration	1,0000default loss term (dB/km)	0,3820temperature slope calibration	1,0000multiplexer offset coefficient	1,0000multiplexer slope coefficient	1,0000fibre end	0,00T internal ref (°C)	13,72T ext. ref 1 (°C)	-3,17T ext. ref 2 (°C)	-3,16length (m)	temperature (°C)	Stokes	anti-Stokes-744,400	-117,760	0,123	0,016
-743,385	-94,977	-0,375	-0,074
-742,371	26,353	0,082	0,051
-741,356	-174,273	-0,316	-0,007
-740,342	-98,710	0,175	0,033
-739,327	-82,462	-0,295	0,070
-738,312	-99,192	0,139	-0,026
-737,298	-159,044	-0,430	-0,018
-736,283	-88,873	0,107	0,023
-735,269	-50,481	-0,229	0,079
-734,254	-32,645	0,079	0,032
-733,239	-154,735	-0,448	-0,021
-732,225	-91,615	0,230	0,048
-731,210	-2,537	0,120	-0,062
-730,196	70,445	-0,026	0,020
-729,181	-200,000	0,014	0,090
-728,167	52,055	0,056	0,039
-727,152	526,188	-0,058	-0,101
-726,137	21,098	-0,059	-0,035
-725,123	305,361	0,057	-0,079
-724,108	115,501	-0,158	-0,142
-723,094	-178,270	-0,128	0,002
-722,079	74,169	-0,046	-0,036
-721,064	-200,000	-0,003	0,071
-720,050	-41,930	-0,084	-0,031
-719,035	4,924	-0,131	-0,070
-718,021	-200,000	0,012	0,063
-717,006	-200,000	-0,013	-0,160
-715,991	106,334	-0,074	-0,065
-714,977	-51,635	-0,128	0,044
-713,962	746,778	-0,030	0,059
-712,948	-200,000	0,006	0,028
-711,933	113,083	0,040	-0,035
-710,918	79,342	0,094	0,074
-709,904	-141,405	-0,202	0,015
-708,889	166,673	-0,097	-0,101
-707,875	-200,000	-0,029	-0,113
-706,860	167,125	-0,041	-0,042
-705,845	553,745	0,051	-0,091
-704,831	-44,284	0,111	0,041
-703,816	326,694	-0,092	-0,129
-702,802	-200,000	0,013	-0,099
-701,787	168,926	-0,041	-0,042
-700,772	325,899	-0,053	-0,075
-699,758	-94,250	0,032	-0,006
-698,743	-137,773	-0,008	-0,001
-697,729	134,052	-0,049	-0,046
-696,714	335,326	0,114	0,162
-695,699	-200,000	-0,011	-0,072
-694,685	-181,699	-0,196	0,003
-693,670	7,359	-0,097	0,053
-692,656	-200,000	0,025	-0,179
-691,641	247,350	-0,055	0,068
-690,627	-14,288	0,088	-0,041
-689,612	-100,024	-0,068	-0,012
-688,597	-75,888	-0,011	-0,003
-687,583	64,058	-0,063	-0,046
-686,568	-200,000	-0,003	0,033
-685,554	-161,427	-0,141	-0,005
-684,539	44,124	0,102	0,069
-683,524	141,278	0,031	-0,031
-682,510	-64,062	0,057	0,017
-681,495	445,805	0,037	-0,060
-680,481	44,088	-0,112	-0,075
-679,466	-138,021	-0,041	-0,003
-678,451	800,000	0,058	0,126
-677,437	623,096	-0,026	-0,049
-676,422	-144,841	0,031	-0,002
-675,408	183,486	0,048	0,052
-674,393	-124,559	-0,096	0,011
-673,378	51,637	0,099	-0,069
-672,364	341,835	-0,086	-0,123
-671,349	800,000	-0,052	-0,159
-670,335	800,000	-0,054	-0,135
-669,320	-107,964	0,130	0,021
-668,305	-27,321	-0,083	-0,035
-667,291	-54,288	-0,105	-0,035
-666,276	190,398	0,053	0,058
-665,262	-54,250	-0,076	0,025
-664,247	-119,502	-0,120	-0,015
-663,232	242,033	-0,040	-0,049
-662,218	-200,000	-0,008	0,086
-661,203	-200,000	-0,008	0,035
-660,189	228,963	0,024	-0,029
-659,174	-37,265	-0,098	-0,038
-658,159	152,610	0,067	-0,067
-657,145	800,000	-0,040	-0,110
-656,130	103,428	-0,097	-0,083
-655,116	800,000	0,065	0,136
-654,101	-200,000	-0,009	-0,087
-653,086	403,622	-0,046	-0,071
-652,072	800,000	0,032	0,100
-651,057	-200,000	0,028	-0,127
-650,043	328,401	0,091	-0,128
-649,028	-200,000	-0,010	0,044
-648,014	251,893	0,057	-0,071
-646,999	-114,338	0,067	0,009
-645,984	218,881	0,053	-0,062
-644,970	-91,572	-0,201	0,042
-643,955	167,243	0,043	0,045
-642,941	279,555	-0,037	-0,049
-641,926	128,790	-0,078	0,073
-640,911	-200,000	-0,004	-0,063
-639,897	163,522	0,071	0,073
-638,882	-76,385	0,074	-0,019
-637,868	-200,000	-0,154	-0,000
-636,853	98,738	0,120	-0,101
-635,838	-198,077	-0,180	-0,001
-634,824	-143,610	-0,133	0,009
-633,809	648,615	-0,040	0,076
-632,795	-42,017	0,101	-0,038
-631,780	564,682	0,004	-0,008
-630,765	-200,000	-0,005	0,139
-629,751	318,969	-0,030	0,042
-628,736	24,015	-0,035	-0,021
-627,722	800,000	0,031	0,079
-626,707	483,254	-0,054	-0,090
-625,692	93,782	0,054	0,044
-624,678	40,908	-0,104	-0,069
-623,663	104,584	-0,067	-0,058
-622,649	445,146	-0,027	-0,044
-621,634	-140,966	-0,153	0,011
-620,619	-200,000	-0,004	0,048
-619,605	800,000	0,012	0,034
-618,590	141,130	-0,024	-0,023
-617,576	-106,740	-0,168	0,027
-616,561	800,000	0,028	0,066
-615,546	-152,446	-0,127	-0,007
-614,532	-200,000	0,004	0,102
-613,517	-200,000	-0,014	-0,118
-612,503	-17,804	-0,131	-0,060
-611,488	288,275	0,077	0,102
-610,474	665,123	-0,029	-0,055
-609,459	13,068	0,049	0,028
-608,444	199,055	-0,049	0,056
-607,430	359,562	0,014	0,021
-606,415	800,000	0,049	-0,121
-605,401	-74,611	-0,060	-0,016
-604,386	28,358	0,105	0,065
-603,371	190,498	0,081	0,089
-602,357	-138,980	0,048	-0,004
-601,342	70,532	-0,094	-0,071
-600,328	-95,972	0,028	0,005
-599,313	-200,000	-0,019	-0,119
-598,298	-200,000	0,003	-0,154
-597,284	-68,301	0,113	-0,032
-596,269	-200,000	0,042	0,211
-595,255	101,051	-0,060	0,051
-594,240	800,000	0,018	0,051
-593,225	-107,727	-0,150	-0,024
-592,211	-6,496	-0,118	0,059
-591,196	-116,241	0,147	0,020
-590,182	222,276	-0,037	0,044
-589,167	197,602	-0,081	-0,090
-588,152	37,475	0,039	-0,025
-587,138	-136,282	0,090	-0,008
-586,123	800,000	-0,014	0,035
-585,109	-38,436	-0,127	0,049
-584,094	498,333	-0,031	0,052
-583,079	-200,000	-0,023	0,078
-582,065	-200,000	-0,005	0,019
-581,050	-100,983	0,046	-0,008
-580,036	53,324	-0,109	-0,076
-579,021	414,831	0,056	0,087
-578,006	243,235	-0,080	-0,098
-576,992	-200,000	-0,005	-0,082
-575,977	-66,623	-0,052	0,015
-574,963	0,583	0,035	-0,018
-573,948	-200,000	-0,012	0,043
-572,934	800,000	0,019	0,049
-571,919	223,264	0,055	-0,065
-570,904	618,373	0,065	-0,119
-569,890	-200,000	-0,004	-0,049
-568,875	-200,000	-0,009	0,068
-567,861	800,000	-0,010	-0,025
-566,846	301,276	0,083	-0,112
-565,831	77,833	-0,038	0,029
-564,817	-200,000	0,025	0,172
-563,802	-200,000	0,002	-0,042
-562,788	372,179	0,053	-0,079
-561,773	-11,097	-0,136	0,065
-560,758	570,294	0,086	0,153
-559,744	14,012	-0,092	0,052
-558,729	800,000	0,017	0,050
-557,715	-24,817	0,140	-0,060
-556,700	188,651	-0,183	-0,200
-555,685	800,000	-0,043	-0,118
-554,671	800,000	-0,021	-0,048
-553,656	-200,000	-0,003	-0,086
-552,642	400,735	0,053	-0,081
-551,627	-200,000	0,001	0,106
-550,612	-80,644	-0,020	-0,005
-549,598	414,087	-0,076	-0,118
-548,583	-13,078	-0,101	-0,048
-547,569	-200,000	0,003	0,043
-546,554	-200,000	0,034	0,201
-545,539	800,000	0,013	0,040
-544,525	800,000	-0,016	-0,044
-543,510	17,079	-0,076	-0,044
-542,496	4,096	-0,038	0,020
-541,481	-146,491	0,039	0,002
-540,466	-160,511	-0,104	-0,004
-539,452	64,464	-0,051	-0,037
-538,437	467,820	0,010	0,016
-537,423	542,509	0,019	0,034
-536,408	-69,161	0,084	-0,023
-535,393	-200,000	-0,004	0,083
-534,379	159,163	0,032	0,032
-533,364	64,246	0,132	-0,096
-532,350	201,292	0,055	0,062
-531,335	-121,005	-0,115	0,014
-530,321	-12,277	0,038	0,018
-529,306	-109,259	-0,042	-0,006
-528,291	-54,615	0,044	0,014
-527,277	-53,862	-0,038	-0,013
-526,262	-105,670	0,053	0,009
-525,248	800,000	0,011	-0,025
-524,233	-94,075	0,122	-0,024
-523,218	104,519	0,085	-0,073
-522,204	-200,000	-0,016	0,064
-521,189	52,040	-0,052	0,036
-520,175	-137,186	0,050	-0,004
-519,160	-200,000	0,039	-0,139
-518,145	36,343	-0,048	-0,031
-517,131	-22,260	0,085	-0,037
-516,116	552,293	-0,068	0,120
-515,102	-200,000	-0,029	0,112
-514,087	-84,636	-0,037	-0,009
-513,072	365,233	-0,059	-0,088
-512,058	-21,675	-0,069	0,030
-511,043	35,848	0,058	0,037
-510,029	-200,000	0,024	0,103
-509,014	12,386	-0,084	0,047
-507,999	-200,000	0,004	0,045
-506,985	800,000	0,025	0,080
-505,970	-38,470	-0,127	0,049
-504,956	800,000	0,027	-0,067
-503,941	35,350	-0,071	-0,045
-502,926	-106,148	0,168	-0,027
-501,912	162,177	-0,124	0,127
-500,897	118,834	-0,036	0,032
-499,883	-200,000	0,018	-0,119
-498,868	-200,000	-0,037	-0,233
-497,853	800,000	-0,048	-0,104
-496,839	35,088	0,104	0,066
-495,824	-200,000	-0,011	0,082
-494,810	-200,000	0,001	0,142
-493,795	283,080	-0,057	-0,075
-492,781	-200,000	-0,012	-0,127
-491,766	-110,447	-0,177	-0,026
-490,751	-200,000	-0,025	-0,101
-489,737	197,347	0,147	-0,164
-488,722	103,105	-0,066	0,056
-487,708	314,064	-0,055	0,076
-486,693	-74,001	-0,125	-0,033
-485,678	-200,000	0,005	-0,028
-484,664	-83,565	-0,052	0,012
-483,649	-131,546	-0,086	0,008
-482,635	22,861	0,074	0,044
-481,620	177,178	0,042	0,044
-480,605	-35,196	0,087	-0,035
-479,591	40,007	-0,016	-0,010
-478,576	800,000	0,063	0,168
-477,562	800,000	-0,024	0,061
-476,547	46,553	-0,100	-0,067
-475,532	-64,804	0,081	0,024
-474,518	-200,000	0,006	-0,035
-473,503	-50,942	0,052	0,018
-472,489	-142,642	0,133	0,009
-471,474	-200,000	-0,002	-0,045
-470,459	159,377	-0,066	0,067
-469,445	-18,353	-0,092	-0,041
-468,430	162,637	0,043	0,044
-467,416	800,000	0,040	-0,100
-466,401	-200,000	0,008	0,030
-465,386	-14,830	-0,122	-0,057
-464,372	-58,721	0,119	-0,037
-463,357	-200,000	-0,007	-0,068
-462,343	800,000	-0,030	-0,091
-461,328	-50,001	-0,121	0,041
-460,313	-23,709	0,097	0,042
-459,299	-108,022	0,185	-0,029
-458,284	-141,715	0,061	0,004
-457,270	16,970	0,044	-0,025
-456,255	109,312	-0,027	-0,023
-455,241	-49,422	-0,185	0,064
-454,226	8,138	-0,032	0,018
-453,211	-42,188	0,073	-0,027
-452,197	359,906	0,019	-0,028
-451,182	64,223	-0,036	-0,026
-450,168	308,716	-0,092	0,125
-449,153	516,458	0,053	0,090
-448,138	-104,368	0,057	0,010
-447,124	-9,722	-0,042	-0,020
-446,109	284,877	0,075	0,098
-445,095	-33,824	-0,003	-0,001
-444,080	427,774	0,025	0,040
-443,065	23,882	0,057	0,034
-442,051	-108,664	0,063	-0,010
-441,036	330,093	-0,011	0,015
-440,022	800,000	-0,047	0,142
-439,007	57,404	0,060	-0,043
-437,992	251,550	-0,024	0,030
-436,978	800,000	-0,040	-0,098
-435,963	658,829	0,016	-0,030
-434,949	-200,000	0,008	-0,042
-433,934	-200,000	0,013	0,088
-432,919	800,000	-0,042	-0,097
-431,905	800,000	-0,005	-0,016
-430,890	-2,961	-0,052	0,026
-429,876	-200,000	0,003	0,088
-428,861	-4,475	0,060	0,030
-427,846	444,301	-0,055	-0,088
-426,832	-200,000	-0,002	0,103
-425,817	-200,000	-0,016	-0,198
-424,803	104,392	0,055	-0,047
-423,788	-8,787	0,114	0,055
-422,773	-200,000	-0,021	0,096
-421,759	-200,000	-0,043	0,140
-420,744	-142,859	0,110	-0,008
-419,730	129,297	-0,068	0,064
-418,715	-200,000	0,004	-0,090
-417,701	103,867	-0,062	-0,053
-416,686	66,694	-0,118	0,087
-415,671	-115,282	0,088	-0,012
-414,657	176,037	0,052	0,055
-413,642	-77,877	-0,075	-0,019
-412,628	-200,000	-0,036	-0,137
-411,613	-46,689	0,077	-0,027
-410,598	63,020	-0,027	0,019
-409,584	-200,000	0,005	0,047
-408,569	-200,000	-0,013	-0,078
-407,555	-134,938	-0,069	0,006
-406,540	800,000	0,056	0,122
-405,525	-113,125	0,077	0,011
-404,511	69,284	0,053	-0,040
-403,496	800,000	0,030	0,091
-402,482	660,061	0,055	0,102
-401,467	211,635	-0,071	-0,081
-400,452	212,613	-0,012	0,014
-399,438	-200,000	0,000	0,065
-398,423	-20,233	-0,054	-0,024
-397,409	800,000	-0,018	-0,044
-396,394	-142,631	-0,042	0,003
-395,379	-115,745	0,132	-0,018
-394,365	-74,123	0,060	-0,016
-393,350	-16,551	0,115	0,053
-392,336	367,749	-0,032	0,047
-391,321	-56,863	0,109	-0,035
-390,306	569,748	-0,060	0,106
-389,292	-200,000	0,003	-0,060
-388,277	181,576	-0,075	0,080
-387,263	628,142	0,084	0,155
-386,248	800,000	0,043	0,095
-385,233	423,007	-0,033	0,052
-384,219	800,000	0,016	-0,050
-383,204	-25,437	-0,059	0,025
-382,190	556,741	0,029	-0,050
-381,175	-200,000	-0,005	0,086
-380,160	237,224	0,057	0,068
-379,146	-146,054	0,044	0,003
-378,131	102,587	-0,058	0,049
-377,117	-31,520	-0,090	-0,037
-376,102	382,271	0,115	-0,172
-375,088	285,403	0,031	0,041
-374,073	132,611	-0,122	0,114
-373,058	-49,487	0,132	0,046
-372,044	-200,000	-0,025	0,159
-371,029	34,128	0,096	-0,061
-370,015	-129,168	0,021	0,002
-369,000	88,458	-0,040	-0,032
-367,985	-17,929	-0,050	0,022
-366,971	99,808	0,037	0,031
-365,956	-1,265	0,044	-0,022
-364,942	-200,000	-0,018	-0,093
-363,927	78,277	0,088	0,068
-362,912	800,000	-0,009	-0,026
-361,898	143,066	0,074	0,072
-360,883	-104,028	-0,020	-0,003
-359,869	84,402	0,061	-0,048
-358,854	-111,128	-0,062	0,009
-357,839	-200,000	-0,004	-0,018
-356,825	-62,937	-0,036	0,011
-355,810	500,922	-0,022	-0,037
-354,796	-18,461	0,142	-0,064
-353,781	800,000	-0,052	-0,118
-352,766	147,187	0,089	0,087
-351,752	272,217	-0,154	-0,197
-350,737	254,687	0,145	-0,180
-349,723	28,829	-0,041	0,025
-348,708	-200,000	0,015	0,067
-347,693	-129,373	-0,051	0,005
-346,679	7,497	-0,118	0,064
-345,664	-200,000	-0,018	-0,066
-344,650	-199,324	0,102	-0,000
-343,635	281,165	-0,086	0,112
-342,620	-56,986	0,014	0,004
-341,606	-200,000	0,001	0,022
-340,591	374,319	-0,072	-0,106
-339,577	239,890	-0,094	-0,114
-338,562	63,503	0,099	0,072
-337,548	-4,926	0,144	-0,072
-336,533	800,000	0,032	-0,093
-335,518	139,202	0,088	-0,084
-334,504	164,902	0,061	0,062
-333,489	24,942	0,121	-0,073
-332,475	-200,000	-0,005	0,015
-331,460	162,062	0,047	0,047
-330,445	12,886	-0,048	0,027
-329,431	-200,000	0,033	0,112
-328,416	-79,135	0,092	-0,022
-327,402	-14,472	0,107	-0,050
-326,387	8,435	0,043	0,023
-325,372	295,643	-0,030	0,040
-324,358	180,794	-0,095	-0,101
-323,343	-145,293	-0,032	-0,002
-322,329	-200,000	0,003	0,044
-321,314	-200,000	0,016	0,189
-320,299	-11,285	-0,117	-0,055
-319,285	-13,730	0,110	0,051
-318,270	131,989	0,072	0,067
-317,256	193,195	-0,173	-0,189
-316,241	-200,000	-0,033	0,110
-315,226	-125,550	0,104	0,011
-314,212	66,085	0,062	0,045
-313,197	-137,629	0,118	0,010
-312,183	-32,248	0,082	0,033
-311,168	-90,948	-0,109	0,022
-310,153	761,222	0,018	0,036
-309,139	67,303	-0,042	0,031
-308,124	-96,812	0,098	-0,019
-307,110	150,478	0,009	0,009
-306,095	38,930	0,166	0,107
-305,080	77,315	-0,071	0,055
-304,066	800,000	0,058	-0,118
-303,051	228,281	0,134	-0,158
-302,037	351,411	-0,067	0,096
-301,022	-200,000	-0,022	0,137
-300,008	45,972	0,135	-0,090
-298,993	-112,453	0,111	-0,016
-297,978	265,691	0,038	0,047
-296,964	-200,000	0,011	-0,100
-295,949	70,032	-0,103	0,076
-294,935	156,363	-0,036	-0,036
-293,920	113,596	-0,028	0,025
-292,905	-200,000	-0,001	0,040
-291,891	582,394	-0,062	0,110
-290,876	93,432	0,041	0,033
-289,862	-200,000	-0,019	-0,080
-288,847	13,658	-0,116	-0,065
-287,832	-44,934	0,043	-0,015
-286,818	-60,573	0,051	0,016
-285,803	-181,286	0,097	0,001
-284,789	386,885	0,059	-0,088
-283,774	-200,000	-0,001	-0,077
-282,759	686,703	-0,029	0,055
-281,745	-85,103	-0,173	-0,039
-280,730	800,000	-0,004	-0,009
-279,716	-9,014	-0,052	-0,025
-278,701	146,893	0,114	-0,110
-277,686	-200,000	0,004	0,136
-276,672	31,630	-0,051	-0,032
-275,657	-200,000	0,028	-0,119
-274,643	-103,999	-0,183	0,031
-273,628	36,047	-0,050	-0,031
-272,613	-200,000	-0,011	-0,076
-271,599	306,729	0,059	0,080
-270,584	-200,000	-0,019	0,073
-269,570	609,350	-0,015	0,028
-268,555	87,909	0,032	0,026
-267,540	530,535	-0,059	0,101
-266,526	-99,961	0,094	-0,017
-265,511	407,272	0,035	-0,053
-264,497	800,000	-0,019	0,052
-263,482	800,000	0,045	0,096
-262,467	143,936	0,092	0,089
-261,453	-143,709	-0,233	0,016
-260,438	-133,750	0,069	0,006
-259,424	-17,178	0,111	0,050
-258,409	-200,000	-0,005	0,207
-257,395	295,693	0,020	-0,026
-256,380	-47,985	-0,035	-0,012
-255,365	-154,978	0,119	-0,006
-254,351	-200,000	0,003	-0,025
-253,336	-200,000	0,026	-0,119
-252,322	800,000	-0,073	-0,176
-251,307	-200,000	-0,006	0,170
-250,292	-200,000	-0,001	0,002
-249,278	201,744	0,034	-0,038
-248,263	56,546	0,135	0,094
-247,249	800,000	0,008	-0,024
-246,234	800,000	0,030	-0,086
-245,219	420,135	-0,110	-0,171
-244,205	348,252	0,095	-0,136
-243,190	800,000	-0,011	-0,032
-242,176	-27,345	0,129	0,054
-241,161	74,935	0,109	0,083
-240,146	60,905	0,063	0,045
-239,132	4,335	-0,092	0,048
-238,117	62,121	0,088	-0,063
-237,103	532,349	-0,097	-0,165
-236,088	56,272	0,157	-0,110
-235,073	172,052	0,025	0,026
-234,059	-200,000	-0,008	0,066
-233,044	429,055	0,051	-0,080
-232,030	568,394	0,033	-0,058
-231,015	362,767	-0,065	-0,095
-230,000	-200,000	0,006	-0,202
-228,986	480,684	0,089	-0,146
-227,971	800,000	-0,026	0,070
-226,957	323,853	-0,073	0,101
-225,942	403,102	-0,046	0,071
-224,927	-200,000	-0,002	-0,029
-223,913	-200,000	0,009	-0,040
-222,898	130,200	-0,115	-0,106
-221,884	-200,000	0,027	-0,226
-220,869	-200,000	-0,016	-0,134
-219,855	51,087	0,079	-0,054
-218,840	262,757	-0,033	0,042
-217,825	-200,000	0,006	-0,021
-216,811	373,045	-0,091	-0,133
-215,796	-200,000	0,025	-0,156
-214,782	23,948	-0,101	0,060
-213,767	800,000	0,042	0,101
-212,752	157,874	0,027	0,027
-211,738	-200,000	0,012	0,217
-210,723	-183,160	-0,135	0,002
-209,709	-102,882	-0,076	-0,013
-208,694	225,638	-0,068	0,080
-207,679	-171,058	-0,167	-0,004
-206,665	457,982	0,049	0,079
-205,650	357,581	0,060	-0,086
-204,636	-58,102	0,145	0,045
-203,621	305,304	-0,051	0,068
-202,606	125,619	-0,064	0,058
-201,592	222,706	-0,017	0,020
-200,577	-79,166	-0,099	-0,024
-199,563	-200,000	0,005	0,117
-198,548	-126,617	-0,121	0,013
-197,533	542,275	-0,021	0,036
-196,519	208,274	-0,055	0,062
-195,504	-8,509	-0,086	-0,042
-194,490	419,827	-0,110	-0,171
-193,475	-200,000	0,012	0,081
-192,460	23,737	0,074	-0,044
-191,446	-82,879	0,154	-0,036
-190,431	124,037	0,094	0,085
-189,417	800,000	0,057	0,122
-188,402	128,309	-0,053	0,048
-187,387	-104,348	-0,027	0,005
-186,373	152,741	-0,033	0,032
-185,358	-200,000	-0,004	-0,114
-184,344	-43,797	0,226	0,082
-183,329	-123,992	-0,019	-0,002
-182,315	-126,483	0,088	0,009
-181,300	-200,000	0,002	-0,067
-180,285	20,295	-0,142	-0,082
-179,271	73,013	-0,114	-0,086
-178,256	-137,927	0,129	-0,010
-177,242	-200,000	-0,005	-0,080
-176,227	-200,000	0,010	0,173
-175,212	295,282	0,025	-0,033
-174,198	64,170	-0,131	0,095
-173,183	-12,728	-0,027	0,013
-172,169	342,394	-0,045	0,064
-171,154	-136,209	0,091	-0,008
-170,139	-200,000	-0,008	-0,034
-169,125	-73,578	-0,069	0,018
-168,110	800,000	0,025	-0,071
-167,096	-48,321	0,065	0,022
-166,081	61,165	0,022	-0,016
-165,066	192,568	-0,076	-0,083
-164,052	-200,000	-0,034	-0,108
-163,037	-126,052	0,169	-0,018
-162,023	-200,000	0,012	-0,099
-161,008	79,022	0,100	0,077
-159,993	98,809	-0,036	0,030
-158,979	-43,897	-0,061	0,022
-157,964	-17,867	-0,171	-0,077
-156,950	-34,402	-0,033	0,013
-155,935	14,532	0,131	0,073
-154,920	-8,203	-0,051	-0,025
-153,906	-200,000	-0,022	-0,147
-152,891	746,331	-0,059	0,115
-151,877	800,000	0,013	-0,037
-150,862	-200,000	0,007	-0,097
-149,847	-200,000	0,000	-0,029
-148,833	88,023	-0,074	-0,059
-147,818	-200,000	-0,004	-0,021
-146,804	285,848	0,012	-0,015
-145,789	-44,603	0,081	0,029
-144,775	253,504	0,031	0,038
-143,760	-200,000	0,002	0,036
-142,745	215,680	-0,042	-0,048
-141,731	67,699	0,044	0,032
-140,716	192,244	-0,100	-0,109
-139,702	-145,090	0,029	-0,002
-138,687	221,785	0,044	0,051
-137,672	-81,325	-0,225	-0,053
-136,658	190,190	-0,088	-0,095
-135,643	134,236	0,024	0,022
-134,629	66,475	0,098	0,071
-133,614	-200,000	-0,008	0,130
-132,599	-17,878	-0,066	-0,030
-131,585	192,481	0,024	0,026
-130,570	-127,776	-0,071	-0,007
-129,556	613,805	-0,007	0,012
-128,541	68,590	-0,053	-0,039
-127,526	-200,000	-0,005	-0,072
-126,512	40,711	0,094	-0,061
-125,497	-39,571	0,200	0,075
-124,483	800,000	-0,022	-0,044
-123,468	-26,411	0,117	0,049
-122,453	3,554	-0,100	-0,052
-121,439	800,000	-0,043	-0,107
-120,424	-200,000	0,008	0,054
-119,410	-200,000	0,036	0,124
