DTS Sentinel unit serial number:	SN410029Multiplexer serial number:	ORYXHardware model number:	OX2-SRSoftware version number:	ORYX F/W v4,00 Oryx Data Collector v3.7.2.0data status	okinstallation	B6 Nyhavnadifferential loss correction	single-endedforward channel	channel 2reverse channel	N/Adate	2023/12/08time	17:50:08forward acquisition time	300,00reverse acquisition time	0,00gamma	499,1914k internal	0,3158k external	0,3158temperature offset calibration	1,0000default loss term (dB/km)	0,3820temperature slope calibration	1,0000multiplexer offset coefficient	1,0000multiplexer slope coefficient	1,0000fibre end	0,00T internal ref (°C)	15,19T ext. ref 1 (°C)	-1,28T ext. ref 2 (°C)	-1,27length (m)	temperature (°C)	Stokes	anti-Stokes-744,400	60,469	0,033	-0,024
-743,385	49,042	-0,211	0,146
-742,371	-200,000	0,032	0,186
-741,356	-139,227	-0,306	0,024
-740,342	201,029	0,060	0,069
-739,327	-152,613	-0,316	-0,016
-738,312	424,081	0,039	0,062
-737,298	-40,066	-0,202	-0,077
-736,283	-144,850	0,123	0,008
-735,269	-200,000	-0,216	0,001
-734,254	102,484	0,099	0,085
-733,239	-20,469	-0,439	-0,198
-732,225	30,719	0,153	0,096
-731,210	57,234	-0,025	-0,018
-730,196	-26,449	-0,137	-0,059
-729,181	69,254	-0,104	-0,079
-728,167	-38,086	0,067	0,026
-727,152	403,126	-0,088	-0,137
-726,137	800,000	-0,023	-0,054
-725,123	5,282	-0,088	-0,047
-724,108	129,656	-0,074	-0,070
-723,094	207,325	-0,042	0,049
-722,079	132,219	0,049	0,047
-721,064	418,107	-0,016	-0,026
-720,050	-92,668	-0,064	-0,013
-719,035	752,743	0,032	-0,064
-718,021	-162,000	-0,117	0,004
-717,006	-71,241	0,097	0,027
-715,991	38,163	-0,073	-0,048
-714,977	-200,000	-0,012	0,039
-713,962	126,055	-0,130	-0,121
-712,948	-94,176	0,034	-0,007
-711,933	-157,773	0,039	0,002
-710,918	66,297	-0,030	0,023
-709,904	-11,540	-0,065	-0,031
-708,889	218,071	-0,073	-0,086
-707,875	221,332	-0,162	-0,192
-706,860	257,944	-0,016	0,020
-705,845	-58,126	0,031	-0,010
-704,831	532,590	0,087	0,152
-703,816	55,998	-0,062	-0,045
-702,802	-71,738	-0,073	0,020
-701,787	-144,704	-0,033	0,002
-700,772	278,675	0,057	-0,075
-699,758	-200,000	-0,002	-0,188
-698,743	-12,949	-0,032	0,015
-697,729	260,592	-0,030	-0,039
-696,714	674,508	0,010	-0,019
-695,699	360,237	0,023	0,034
-694,685	-200,000	-0,062	0,000
-693,670	-22,468	-0,032	-0,014
-692,656	-64,600	-0,142	-0,042
-691,641	-200,000	0,009	-0,073
-690,627	-200,000	0,016	0,054
-689,612	-105,869	0,196	0,032
-688,597	41,295	-0,181	-0,120
-687,583	28,336	-0,062	0,038
-686,568	8,387	-0,157	-0,086
-685,554	-98,267	-0,145	-0,027
-684,539	-165,929	0,026	0,001
-683,524	-134,352	0,196	-0,017
-682,510	-26,704	-0,049	-0,021
-681,495	680,809	0,034	0,065
-680,481	198,635	0,054	-0,061
-679,466	-200,000	0,020	-0,100
-678,451	-200,000	-0,006	-0,097
-677,437	405,312	-0,023	0,035
-676,422	306,140	0,031	0,043
-675,408	403,725	0,050	-0,078
-674,393	-200,000	-0,031	0,118
-673,378	-1,085	-0,128	0,066
-672,364	-2,760	-0,170	0,087
-671,349	281,428	0,025	-0,033
-670,335	700,420	-0,036	-0,070
-669,320	312,454	-0,069	-0,095
-668,305	-200,000	0,042	0,184
-667,291	800,000	0,029	0,079
-666,276	58,226	-0,104	0,074
-665,262	5,744	-0,148	-0,080
-664,247	-114,676	0,131	-0,018
-663,232	800,000	-0,047	-0,129
-662,218	163,212	-0,087	-0,090
-661,203	800,000	-0,020	-0,061
-660,189	132,016	-0,073	-0,069
-659,174	-200,000	0,015	-0,119
-658,159	-86,529	-0,234	-0,052
-657,145	72,923	-0,139	-0,107
-656,130	646,794	0,050	0,094
-655,116	-200,000	-0,007	0,035
-654,101	800,000	-0,017	-0,042
-653,086	-128,267	0,150	0,016
-652,072	164,725	-0,157	-0,162
-651,057	124,819	-0,040	-0,037
-650,043	-175,510	0,125	0,002
-649,028	284,179	-0,028	0,037
-648,014	-114,851	-0,065	0,009
-646,999	-121,916	-0,079	0,009
-645,984	-65,428	0,056	0,016
-644,970	800,000	-0,023	-0,073
-643,955	472,676	0,113	-0,187
-642,941	25,480	-0,226	-0,138
-641,926	140,607	0,057	0,055
-640,911	-200,000	-0,028	-0,126
-639,897	800,000	-0,013	0,026
-638,882	-96,026	0,132	0,026
-637,868	-200,000	-0,020	-0,115
-636,853	126,930	-0,007	0,007
-635,838	-81,935	0,005	0,001
-634,824	113,612	-0,089	-0,080
-633,809	186,412	0,053	-0,058
-632,795	-200,000	0,012	0,060
-631,780	52,057	-0,026	0,018
-630,765	-200,000	-0,014	0,101
-629,751	17,816	0,055	-0,032
-628,736	-122,165	-0,091	0,011
-627,722	800,000	0,013	-0,029
-626,707	221,036	-0,053	0,063
-625,692	-95,595	0,019	0,004
-624,678	420,765	-0,060	-0,094
-623,663	-200,000	-0,035	-0,131
-622,649	-200,000	-0,022	0,092
-621,634	-104,851	-0,098	0,016
-620,619	-200,000	0,003	0,054
-619,605	-200,000	0,037	0,133
-618,590	-200,000	0,023	-0,109
-617,576	-31,239	-0,124	-0,051
-616,561	193,773	-0,119	0,132
-615,546	-32,539	-0,035	-0,014
-614,532	67,162	-0,046	0,035
-613,517	-200,000	0,026	-0,121
-612,503	-127,693	-0,132	0,014
-611,488	-74,481	-0,078	0,020
-610,474	4,499	-0,141	0,076
-609,459	-63,244	0,032	0,010
-608,444	-187,502	0,050	-0,000
-607,430	-133,839	-0,054	0,005
-606,415	124,483	-0,099	-0,091
-605,401	789,979	0,044	0,089
-604,386	-200,000	-0,019	0,095
-603,371	669,666	-0,038	0,072
-602,357	-80,007	-0,054	-0,013
-601,342	-200,000	-0,001	-0,100
-600,328	378,044	-0,148	-0,223
-599,313	-55,794	-0,041	0,013
-598,298	-104,927	0,163	0,027
-597,284	-200,000	-0,002	0,133
-596,269	5,067	-0,068	-0,036
-595,255	542,555	0,063	-0,111
-594,240	-74,903	-0,090	0,023
-593,225	437,632	-0,015	0,025
-592,211	-121,843	0,125	-0,015
-591,196	-200,000	0,019	-0,099
-590,182	800,000	0,007	-0,022
-589,167	-200,000	-0,015	-0,054
-588,152	-200,000	0,018	0,063
-587,138	-200,000	0,000	0,085
-586,123	-111,938	-0,234	0,034
-585,109	83,450	-0,040	-0,032
-584,094	147,003	0,025	-0,025
-583,079	201,299	0,056	0,063
-582,065	368,329	0,043	0,064
-581,050	-200,000	0,001	-0,036
-580,036	79,834	0,105	-0,082
-579,021	-200,000	-0,027	-0,111
-578,006	39,567	-0,118	-0,077
-576,992	23,813	0,084	-0,051
-575,977	131,390	0,096	-0,091
-574,963	-104,660	0,093	-0,016
-573,948	-62,431	-0,094	-0,028
-572,934	-200,000	0,009	0,085
-571,919	70,547	0,031	-0,023
-570,904	50,383	-0,112	0,077
-569,890	-110,367	-0,093	-0,014
-568,875	-24,275	-0,042	0,018
-567,861	114,642	-0,016	0,014
-566,846	-129,226	0,153	0,015
-565,831	60,331	-0,089	-0,064
-564,817	800,000	-0,016	-0,041
-563,802	137,477	0,067	0,065
-562,788	-200,000	-0,005	0,082
-561,773	-200,000	0,006	-0,031
-560,758	-200,000	0,002	0,012
-559,744	60,898	-0,086	0,062
-558,729	-200,000	0,011	-0,058
-557,715	-126,611	-0,258	-0,028
-556,700	-196,475	0,054	-0,000
-555,685	800,000	-0,072	-0,159
-554,671	261,183	-0,082	0,104
-553,656	-57,408	0,070	0,022
-552,642	-200,000	0,007	0,096
-551,627	-200,000	-0,042	0,140
-550,612	-96,929	0,047	0,009
-549,598	125,919	-0,110	0,101
-548,583	-200,000	-0,024	-0,132
-547,569	49,348	0,107	0,074
-546,554	-200,000	0,031	-0,103
-545,539	46,557	0,060	0,041
-544,525	128,211	-0,111	-0,104
-543,510	-200,000	0,008	-0,046
-542,496	-200,000	0,005	0,035
-541,481	-3,492	-0,049	-0,025
-540,466	770,141	-0,044	0,087
-539,452	-120,369	0,114	-0,014
-538,437	7,749	0,085	0,047
-537,423	-14,762	0,094	0,044
-536,408	129,516	-0,076	-0,071
-535,393	-0,273	-0,156	-0,081
-534,379	-43,408	0,062	0,023
-533,364	18,915	-0,118	-0,069
-532,350	800,000	-0,040	0,092
-531,335	-33,029	-0,026	-0,010
-530,321	-49,930	0,076	0,026
-529,306	-200,000	-0,002	0,050
-528,291	205,158	0,008	-0,009
-527,277	-69,942	-0,125	0,035
-526,262	-157,857	-0,141	0,006
-525,248	-59,557	0,181	0,057
-524,233	159,292	0,094	-0,096
-523,218	800,000	-0,022	-0,061
-522,204	6,249	0,048	0,026
-521,189	800,000	0,038	-0,109
-520,175	-86,834	-0,089	-0,020
-519,160	-200,000	0,008	-0,079
-518,145	-70,440	0,037	0,010
-517,131	125,560	-0,038	0,035
-516,116	-55,774	0,056	0,018
-515,102	800,000	0,059	0,141
-514,087	-200,000	-0,003	-0,048
-513,072	800,000	0,021	-0,049
-512,058	-75,798	0,053	0,014
-511,043	95,919	0,066	0,055
-510,029	-95,034	-0,076	-0,015
-509,014	-200,000	0,021	0,090
-507,999	181,260	-0,042	-0,045
-506,985	553,620	-0,041	0,071
-505,970	68,687	-0,059	-0,044
-504,956	126,428	0,022	0,020
-503,941	-149,855	-0,035	-0,002
-502,926	800,000	-0,051	-0,108
-501,912	83,790	0,087	-0,070
-500,897	-95,533	0,110	0,021
-499,883	6,362	-0,027	-0,015
-498,868	800,000	-0,044	-0,105
-497,853	161,664	-0,028	-0,028
-496,839	-72,443	0,048	-0,013
-495,824	282,543	-0,068	-0,089
-494,810	-200,000	0,005	0,086
-493,795	-72,448	-0,108	0,029
-492,781	800,000	0,012	-0,033
-491,766	191,108	-0,076	0,083
-490,751	-200,000	0,008	-0,109
-489,737	800,000	0,041	-0,124
-488,722	198,433	0,018	0,020
-487,708	254,316	-0,101	0,127
-486,693	-94,768	-0,024	0,005
-485,678	13,779	0,063	-0,036
-484,664	32,508	-0,107	-0,067
-483,649	-60,061	-0,096	0,030
-482,635	60,210	0,058	-0,042
-481,620	-200,000	0,011	0,122
-480,605	94,711	0,140	0,116
-479,591	90,313	-0,079	0,065
-478,576	-41,985	-0,048	-0,018
-477,562	61,973	-0,092	-0,067
-476,547	-31,065	0,026	-0,011
-475,532	654,823	-0,037	-0,069
-474,518	800,000	0,008	-0,024
-473,503	-132,498	0,019	-0,002
-472,489	800,000	0,029	0,075
-471,474	-200,000	0,003	0,053
-470,459	0,996	0,060	0,031
-469,445	-200,000	-0,023	-0,080
-468,430	-70,203	0,035	0,010
-467,416	800,000	-0,022	0,051
-466,401	9,607	0,139	0,076
-465,386	-13,299	0,058	-0,027
-464,372	25,918	0,096	0,058
-463,357	32,354	-0,032	0,020
-462,343	800,000	-0,025	-0,066
-461,328	-26,038	-0,130	0,056
-460,313	-89,317	0,122	0,026
-459,299	-200,000	-0,031	-0,140
-458,284	131,444	0,163	0,153
-457,270	112,330	-0,097	0,085
-456,255	-128,974	0,037	-0,004
-455,241	800,000	0,029	-0,063
-454,226	-200,000	0,016	0,068
-453,211	-200,000	0,017	0,078
-452,197	665,436	0,051	0,096
-451,182	176,539	0,030	-0,032
-450,168	800,000	-0,015	-0,046
-449,153	-156,264	-0,203	0,009
-448,138	695,416	-0,037	-0,072
-447,124	-104,851	0,073	0,012
-446,109	-200,000	0,001	-0,145
-445,095	-200,000	0,051	0,182
-444,080	-200,000	0,007	0,028
-443,065	32,222	-0,070	0,044
-442,051	-122,632	0,019	0,002
-441,036	-200,000	0,045	-0,161
-440,022	-0,490	0,063	-0,032
-439,007	372,647	0,036	-0,054
-437,992	-200,000	0,018	-0,149
-436,978	-119,228	0,030	0,004
-435,963	-200,000	0,026	0,167
-434,949	-106,756	0,096	0,015
-433,934	-142,910	-0,049	0,003
-432,919	122,800	0,073	-0,067
-431,905	96,372	-0,121	-0,101
-430,890	800,000	0,030	-0,061
-429,876	64,832	0,087	0,064
-428,861	343,644	0,081	-0,116
-427,846	100,011	-0,023	0,020
-426,832	800,000	-0,022	0,065
-425,817	-13,889	0,044	0,021
-424,803	76,272	0,143	-0,110
-423,788	-31,491	-0,064	0,026
-422,773	46,496	-0,031	0,021
-421,759	-12,934	0,046	-0,022
-420,744	115,819	-0,033	0,029
-419,730	764,100	-0,046	0,091
-418,715	102,164	-0,050	-0,042
-417,701	800,000	-0,034	-0,071
-416,686	-200,000	0,006	-0,026
-415,671	-39,503	-0,084	0,032
-414,657	-121,975	-0,100	0,012
-413,642	-200,000	0,006	0,038
-412,628	1,676	0,086	0,045
-411,613	588,352	0,023	0,041
-410,598	-200,000	0,004	0,025
-409,584	-200,000	-0,012	-0,059
-408,569	355,892	-0,031	0,046
-407,555	49,396	-0,016	-0,011
-406,540	72,642	0,148	0,112
-405,525	392,223	-0,035	-0,053
-404,511	-200,000	0,029	-0,153
-403,496	212,131	0,064	0,074
-402,482	-175,591	0,149	0,003
-401,467	-200,000	-0,015	0,076
-400,452	-200,000	-0,004	0,054
-399,438	76,807	-0,173	0,133
-398,423	-2,857	-0,061	-0,031
-397,409	-83,995	0,012	0,003
-396,394	312,528	-0,075	-0,103
-395,379	155,181	-0,037	0,037
-394,365	682,780	0,091	0,173
-393,350	-111,501	0,069	0,010
-392,336	-128,262	0,076	-0,008
-391,321	206,585	0,042	-0,047
-390,306	800,000	-0,017	0,049
-389,292	-200,000	-0,029	-0,138
-388,277	-180,552	-0,071	0,001
-387,263	-46,429	0,144	-0,051
-386,248	-165,718	0,058	-0,002
-385,233	-63,001	0,046	0,014
-384,219	-200,000	-0,000	0,016
-383,204	-48,223	-0,084	-0,029
-382,190	-200,000	-0,008	0,089
-381,175	79,278	-0,050	-0,039
-380,160	368,626	0,077	0,114
-379,146	-44,038	0,165	-0,060
-378,131	81,258	-0,040	0,031
-377,117	120,965	0,045	0,041
-376,102	-200,000	-0,015	-0,079
-375,088	-200,000	0,014	-0,060
-374,073	-200,000	-0,005	-0,176
-373,058	327,183	-0,069	0,096
-372,044	-122,623	0,061	0,007
-371,029	-200,000	-0,006	0,234
-370,015	-129,654	-0,089	0,009
-369,000	23,313	0,014	0,009
-367,985	264,627	0,086	-0,108
-366,971	383,166	0,066	-0,099
-365,956	800,000	-0,031	-0,067
-364,942	97,738	0,063	-0,053
-363,927	-152,716	-0,033	-0,002
-362,912	-20,494	-0,127	0,056
-361,898	800,000	0,026	-0,062
-360,883	800,000	0,031	-0,089
-359,869	800,000	-0,043	-0,096
-358,854	-200,000	-0,012	-0,069
-357,839	107,208	0,074	-0,064
-356,825	93,201	0,034	0,028
-355,810	292,377	0,034	0,045
-354,796	800,000	-0,008	-0,024
-353,781	800,000	-0,011	0,022
-352,766	-24,482	-0,019	0,008
-351,752	-161,289	-0,007	-0,000
-350,737	60,287	-0,064	0,046
-349,723	-200,000	-0,041	0,175
-348,708	45,707	-0,079	-0,053
-347,693	-47,656	0,017	-0,006
-346,679	10,827	-0,121	-0,067
-345,664	51,480	-0,052	0,036
-344,650	-200,000	0,019	-0,081
-343,635	-40,214	0,052	-0,020
-342,620	1,969	-0,071	0,037
-341,606	800,000	0,017	0,038
-340,591	-102,914	-0,097	0,016
-339,577	-80,778	0,014	-0,003
-338,562	45,453	0,051	-0,034
-337,548	-39,899	0,040	0,015
-336,533	800,000	0,062	0,151
-335,518	-9,723	-0,071	0,034
-334,504	-26,542	0,024	-0,010
-333,489	110,636	-0,174	-0,152
-332,475	310,007	-0,047	0,064
-331,460	213,124	0,048	-0,056
-330,445	113,067	-0,066	-0,058
-329,431	95,377	-0,032	0,027
-328,416	-169,069	0,121	0,003
-327,402	-200,000	-0,007	0,064
-326,387	70,948	-0,035	-0,026
-325,372	-200,000	0,014	0,157
-324,358	698,468	0,038	-0,073
-323,343	-15,879	-0,148	-0,068
-322,329	147,748	0,064	0,062
-321,314	-143,611	-0,084	0,006
-320,299	-59,599	-0,005	-0,001
-319,285	346,596	-0,084	-0,120
-318,270	485,332	0,033	-0,054
-317,256	-184,848	-0,071	-0,001
-316,241	800,000	-0,009	0,021
-315,226	27,002	-0,128	-0,078
-314,212	419,939	0,030	0,047
-313,197	-200,000	0,006	-0,022
-312,183	301,044	0,088	0,118
-311,168	45,783	0,039	-0,026
-310,153	473,276	-0,049	-0,081
-309,139	-132,722	-0,135	0,012
-308,124	559,315	-0,105	-0,185
-307,110	-200,000	-0,010	0,128
-306,095	184,586	0,070	0,076
-305,080	744,679	0,045	0,089
-304,066	-200,000	-0,009	-0,036
-303,051	138,820	0,045	0,043
-302,037	-200,000	0,005	-0,065
-301,022	224,803	0,065	0,076
-300,008	800,000	0,057	0,143
-298,993	55,077	0,090	0,063
-297,978	-7,147	0,217	0,106
-296,964	800,000	-0,014	0,042
-295,949	202,190	-0,061	0,068
-294,935	-200,000	0,012	-0,082
-293,920	192,226	-0,038	-0,042
-292,905	243,997	0,073	0,089
-291,891	44,679	0,069	0,046
-290,876	800,000	-0,033	-0,070
-289,862	24,404	-0,102	0,061
-288,847	-200,000	-0,048	-0,209
-287,832	-53,000	0,062	0,021
-286,818	-138,911	-0,050	0,004
-285,803	-130,601	0,118	-0,011
-284,789	800,000	0,023	0,060
-283,774	100,882	0,030	-0,025
-282,759	-93,744	-0,155	0,031
-281,745	-200,000	0,011	-0,141
-280,730	-116,266	-0,134	0,018
-279,716	-200,000	0,022	-0,071
-278,701	-200,000	0,011	0,075
-277,686	36,026	0,075	-0,048
-276,672	-57,118	0,046	-0,015
-275,657	109,984	0,095	0,083
-274,643	61,922	-0,059	-0,043
-273,628	-11,734	-0,023	-0,011
-272,613	800,000	-0,014	0,040
-271,599	800,000	0,051	-0,113
-270,584	-200,000	0,015	0,147
-269,570	-109,771	-0,006	0,001
-268,555	800,000	0,015	0,032
-267,540	-1,021	0,061	0,031
-266,526	128,794	-0,028	-0,026
-265,511	-200,000	0,006	-0,041
-264,497	-200,000	-0,006	-0,041
-263,482	68,196	0,120	0,089
-262,467	-126,354	0,176	0,019
-261,453	53,220	0,026	0,018
-260,438	-85,206	-0,082	0,018
-259,424	442,640	-0,029	-0,046
-258,409	-118,911	-0,075	-0,009
-257,395	100,827	-0,051	0,043
-256,380	23,152	0,065	0,039
-255,365	67,460	-0,039	0,029
-254,351	-200,000	-0,023	0,161
-253,336	149,082	-0,040	-0,039
-252,322	53,543	0,110	-0,076
-251,307	438,640	-0,071	-0,113
-250,292	481,638	0,065	0,107
-249,278	-200,000	0,006	0,114
-248,263	2,981	0,086	-0,045
-247,249	293,037	-0,099	-0,131
-246,234	-200,000	0,012	-0,050
-245,219	-36,798	-0,041	0,016
-244,205	-200,000	0,028	-0,130
-243,190	8,556	-0,105	-0,057
-242,176	70,316	0,040	0,030
-241,161	-200,000	-0,005	0,076
-240,146	-200,000	-0,000	0,004
-239,132	35,311	-0,023	-0,014
-238,117	94,678	0,073	-0,060
-237,103	471,347	0,055	0,089
-236,088	193,368	-0,039	-0,042
-235,073	-189,990	-0,036	0,000
-234,059	205,684	0,127	0,143
-233,044	142,419	0,103	-0,099
-232,030	241,730	0,061	-0,073
-231,015	-82,648	0,023	-0,005
-230,000	146,352	-0,062	0,060
-228,986	-172,450	0,094	0,002
-227,971	42,113	0,247	0,162
-226,957	-12,376	-0,057	-0,027
-225,942	-200,000	-0,006	0,020
-224,927	-90,918	0,019	0,004
-223,913	267,890	-0,113	0,143
-222,898	-159,123	-0,031	-0,001
-221,884	131,236	-0,021	-0,020
-220,869	174,661	-0,048	0,050
-219,855	-44,217	-0,092	-0,033
-218,840	82,596	-0,094	0,074
-217,825	781,609	-0,061	-0,120
-216,811	207,508	0,068	0,077
-215,796	-200,000	-0,005	-0,090
-214,782	335,557	0,104	-0,146
-213,767	-91,000	0,104	0,021
-212,752	800,000	0,023	-0,067
-211,738	127,715	0,107	0,098
-210,723	-200,000	0,031	0,109
-209,709	-69,071	-0,042	0,012
-208,694	-112,555	-0,084	-0,012
-207,679	219,006	0,075	-0,087
-206,665	654,697	-0,019	0,036
-205,650	-32,173	0,033	-0,013
-204,636	-67,371	0,108	0,030
-203,621	632,208	-0,021	-0,038
-202,606	90,448	-0,100	-0,080
-201,592	467,813	0,058	0,094
-200,577	59,179	0,095	-0,067
-199,563	44,455	0,109	0,072
-198,548	-47,471	-0,083	-0,029
-197,533	223,893	-0,021	0,025
-196,519	-164,549	-0,042	-0,001
-195,504	-140,747	0,026	0,002
-194,490	-75,448	-0,071	0,018
-193,475	45,826	0,112	0,075
-192,460	140,730	-0,053	-0,051
-191,446	362,189	-0,090	0,131
-190,431	146,360	0,046	0,044
-189,417	-200,000	-0,021	0,091
-188,402	-200,000	0,004	-0,042
-187,387	84,527	-0,074	0,058
-186,373	453,028	-0,110	-0,176
-185,358	800,000	-0,012	-0,037
-184,344	-3,597	0,083	0,041
-183,329	72,266	0,123	0,092
-182,315	-131,327	0,065	0,006
-181,300	-70,435	-0,066	0,018
-180,285	101,848	0,042	-0,035
-179,271	-15,873	-0,083	-0,038
-178,256	340,204	0,020	0,029
-177,242	-134,452	0,096	-0,008
-176,227	800,000	0,054	0,145
-175,212	-75,778	0,122	0,031
-174,198	800,000	0,035	-0,095
-173,183	190,512	-0,034	-0,037
-172,169	27,764	-0,038	0,023
-171,154	54,331	-0,107	-0,074
-170,139	159,381	0,059	0,059
-169,125	43,266	0,045	0,030
-168,110	-135,227	-0,089	-0,008
-167,096	-200,000	-0,009	-0,231
-166,081	224,879	0,085	-0,099
-165,066	800,000	-0,053	-0,120
-164,052	761,622	0,018	-0,036
-163,037	53,107	0,027	-0,018
-162,023	-8,053	0,150	0,072
-161,008	28,873	-0,076	-0,046
-159,993	243,583	0,113	0,137
-158,979	-106,154	0,093	0,015
-157,964	800,000	0,025	0,067
-156,950	355,719	0,042	-0,061
-155,935	-130,572	-0,011	0,001
-154,920	-77,197	0,106	0,026
-153,906	124,485	0,084	0,076
-152,891	800,000	-0,055	0,150
-151,877	-128,217	-0,035	0,004
-150,862	331,835	0,032	-0,044
-149,847	121,925	0,085	-0,076
-148,833	-100,421	-0,054	0,009
-147,818	-200,000	0,009	0,040
-146,804	106,922	-0,053	0,045
-145,789	-90,477	-0,024	-0,005
-144,775	164,688	-0,070	-0,072
-143,760	-200,000	0,004	-0,034
-142,745	107,238	-0,072	0,062
-141,731	800,000	0,020	0,063
-140,716	-36,669	0,030	0,012
-139,702	4,695	-0,093	0,049
-138,687	363,898	-0,025	0,037
-137,672	-48,286	0,059	-0,020
-136,658	-31,205	0,054	-0,022
-135,643	800,000	-0,007	-0,021
-134,629	27,951	-0,126	0,076
-133,614	134,681	0,089	0,083
-132,599	-200,000	0,019	0,062
-131,585	800,000	0,047	0,110
-130,570	-69,536	-0,067	-0,018
-129,556	800,000	0,006	0,012
-128,541	-34,463	-0,118	0,046
-127,526	267,664	-0,007	0,008
-126,512	3,255	0,046	0,024
-125,497	282,279	0,056	0,072
-124,483	800,000	0,006	-0,017
-123,468	-63,451	0,158	0,046
-122,453	175,488	-0,054	0,056
-121,439	-200,000	-0,025	-0,180
-120,424	800,000	0,040	0,088
-119,410	800,000	-0,068	0,150
-118,395	-37,641	0,128	0,049
-117,380	-50,411	-0,137	0,046
