DTS Sentinel unit serial number:	SN410029Multiplexer serial number:	ORYXHardware model number:	OX2-SRSoftware version number:	ORYX F/W v4,00 Oryx Data Collector v3.7.2.0data status	okinstallation	B6 Nyhavnadifferential loss correction	single-endedforward channel	channel 2reverse channel	N/Adate	2023/12/09time	21:35:08forward acquisition time	300,00reverse acquisition time	0,00gamma	499,1914k internal	0,3127k external	0,3127temperature offset calibration	1,0000default loss term (dB/km)	0,3820temperature slope calibration	1,0000multiplexer offset coefficient	1,0000multiplexer slope coefficient	1,0000fibre end	0,00T internal ref (°C)	21,57T ext. ref 1 (°C)	5,43T ext. ref 2 (°C)	5,42length (m)	temperature (°C)	Stokes	anti-Stokes-744,400	88,198	0,072	0,060
-743,385	135,968	-0,235	0,228
-742,371	15,165	-0,097	-0,057
-741,356	-116,565	-0,239	0,032
-740,342	-200,000	-0,009	0,060
-739,327	-45,421	-0,107	-0,039
-738,312	-200,000	0,002	0,019
-737,298	-112,140	-0,285	0,042
-736,283	337,419	0,075	-0,109
-735,269	517,366	-0,143	0,249
-734,254	-200,000	-0,005	0,062
-733,239	-167,516	-0,318	0,009
-732,225	-61,063	0,122	0,038
-731,210	-200,000	0,012	0,109
-730,196	89,547	-0,118	-0,098
-729,181	-101,432	-0,041	0,007
-728,167	-200,000	0,003	0,021
-727,152	800,000	0,045	0,119
-726,137	371,215	-0,075	0,113
-725,123	214,924	-0,025	-0,030
-724,108	444,514	-0,036	-0,058
-723,094	-126,319	-0,248	-0,027
-722,079	277,665	-0,022	0,029
-721,064	-66,793	-0,159	0,046
-720,050	-200,000	-0,059	0,254
-719,035	-36,210	-0,142	0,057
-718,021	-76,914	-0,085	0,022
-717,006	-86,550	-0,116	-0,026
-715,991	-123,843	-0,188	-0,022
-714,977	194,235	-0,044	-0,050
-713,962	-200,000	0,024	-0,153
-712,948	137,141	-0,120	-0,117
-711,933	800,000	0,013	-0,032
-710,918	357,115	-0,035	0,052
-709,904	-115,302	-0,145	-0,020
-708,889	130,472	-0,075	-0,071
-707,875	-86,532	-0,103	0,023
-706,860	-68,347	0,096	0,027
-705,845	-200,000	0,015	0,068
-704,831	306,395	0,092	0,128
-703,816	16,825	-0,165	0,097
-702,802	-165,841	-0,172	0,005
-701,787	-200,000	0,015	0,099
-700,772	-96,683	0,037	-0,007
-699,758	130,087	0,093	0,089
-698,743	-200,000	-0,003	-0,116
-697,729	800,000	0,052	-0,141
-696,714	-49,244	-0,093	0,033
-695,699	108,642	-0,047	0,042
-694,685	-139,811	0,121	-0,009
-693,670	-200,000	-0,019	-0,130
-692,656	341,657	-0,043	0,062
-691,641	379,923	0,024	-0,037
-690,627	241,830	-0,035	0,043
-689,612	-200,000	-0,020	-0,134
-688,597	65,461	0,087	0,066
-687,583	16,453	0,047	0,027
-686,568	329,705	-0,036	-0,052
-685,554	-151,809	-0,089	-0,005
-684,539	61,394	0,017	0,013
-683,524	-200,000	0,018	0,089
-682,510	-200,000	-0,000	-0,019
-681,495	800,000	0,045	-0,108
-680,481	-200,000	0,021	-0,087
-679,466	800,000	-0,002	-0,007
-678,451	-200,000	-0,014	0,065
-677,437	224,537	0,010	0,012
-676,422	32,431	-0,160	0,103
-675,408	-200,000	-0,019	0,101
-674,393	800,000	-0,037	-0,087
-673,378	-59,600	-0,054	-0,017
-672,364	-109,341	0,173	0,027
-671,349	-119,569	-0,068	-0,009
-670,335	44,786	0,070	0,047
-669,320	-200,000	0,023	-0,095
-668,305	554,507	0,020	0,035
-667,291	-95,696	-0,034	0,007
-666,276	800,000	0,046	-0,110
-665,262	719,588	0,056	0,111
-664,247	11,584	0,020	-0,011
-663,232	-54,458	-0,101	-0,034
-662,218	6,672	0,055	0,030
-661,203	141,827	0,153	0,151
-660,189	-38,568	-0,061	0,024
-659,174	639,749	0,010	-0,019
-658,159	-66,786	-0,145	-0,042
-657,145	563,288	-0,028	-0,051
-656,130	800,000	-0,021	0,055
-655,116	-200,000	0,004	0,107
-654,101	-200,000	-0,019	-0,092
-653,086	159,277	-0,030	-0,030
-652,072	-56,852	-0,054	-0,018
-651,057	198,626	-0,048	0,055
-650,043	609,826	0,054	-0,101
-649,028	-64,020	-0,125	-0,038
-648,014	127,864	-0,032	0,030
-646,999	-200,000	-0,008	-0,135
-645,984	-200,000	0,000	0,049
-644,970	800,000	-0,044	-0,109
-643,955	216,326	-0,070	0,083
-642,941	800,000	-0,042	0,089
-641,926	800,000	0,034	0,084
-640,911	-200,000	0,002	0,168
-639,897	-47,173	-0,032	-0,012
-638,882	800,000	0,021	0,063
-637,868	154,902	-0,067	-0,069
-636,853	-200,000	-0,000	-0,033
-635,838	-200,000	-0,011	0,057
-634,824	-200,000	-0,018	0,101
-633,809	40,922	-0,156	-0,104
-632,795	64,296	-0,006	-0,004
-631,780	81,028	-0,062	0,049
-630,765	540,656	0,077	-0,137
-629,751	-200,000	-0,000	-0,169
-628,736	-200,000	-0,001	-0,058
-627,722	86,853	-0,089	0,073
-626,707	-200,000	0,003	-0,035
-625,692	-39,441	0,056	-0,022
-624,678	206,281	0,027	-0,031
-623,663	-88,721	0,086	0,019
-622,649	277,920	-0,022	-0,029
-621,634	800,000	0,022	-0,058
-620,619	-200,000	-0,007	-0,061
-619,605	-200,000	0,020	-0,113
-618,590	800,000	-0,005	-0,014
-617,576	-200,000	-0,004	-0,031
-616,561	309,534	0,077	-0,107
-615,546	77,709	-0,191	-0,151
-614,532	-200,000	-0,008	0,036
-613,517	52,289	0,131	-0,093
-612,503	800,000	0,031	-0,102
-611,488	-126,466	0,068	-0,007
-610,474	460,824	-0,043	0,071
-609,459	-2,971	0,072	0,037
-608,444	-74,606	-0,117	0,031
-607,430	-200,000	-0,007	-0,105
-606,415	-200,000	-0,012	-0,106
-605,401	197,921	0,005	0,006
-604,386	-200,000	-0,017	0,102
-603,371	29,957	-0,092	-0,058
-602,357	111,544	-0,070	-0,062
-601,342	-185,365	-0,155	0,002
-600,328	498,014	-0,058	-0,100
-599,313	-45,844	0,053	-0,019
-598,298	-200,000	-0,007	-0,099
-597,284	554,192	0,076	-0,136
-596,269	-119,332	-0,116	0,015
-595,255	199,559	-0,047	0,054
-594,240	83,345	0,032	0,025
-593,225	800,000	-0,037	-0,119
-592,211	168,461	-0,090	-0,095
-591,196	-200,000	-0,005	-0,077
-590,182	27,368	0,033	-0,020
-589,167	-200,000	0,007	0,040
-588,152	-141,380	0,042	0,003
-587,138	-49,955	-0,167	-0,058
-586,123	800,000	0,040	-0,119
-585,109	-87,738	-0,138	0,031
-584,094	-200,000	0,005	-0,065
-583,079	-104,840	0,126	0,021
-582,065	-200,000	-0,011	-0,075
-581,050	52,517	0,041	-0,029
-580,036	-200,000	0,014	-0,077
-579,021	71,464	-0,041	-0,032
-578,006	115,287	0,042	-0,038
-576,992	70,395	0,039	0,030
-575,977	112,128	0,206	0,184
-574,963	118,385	0,090	0,082
-573,948	-126,975	-0,046	-0,005
-572,934	276,206	0,046	-0,061
-571,919	-105,511	-0,129	-0,021
-570,904	315,462	0,033	0,047
-569,890	784,526	-0,028	-0,057
-568,875	800,000	-0,071	-0,160
-567,861	171,717	0,076	0,081
-566,846	551,757	-0,077	0,138
-565,831	-81,148	-0,118	-0,029
-564,817	239,528	-0,090	-0,111
-563,802	100,192	-0,086	-0,074
-562,788	-200,000	-0,012	-0,097
-561,773	-152,051	0,086	-0,005
-560,758	311,632	0,071	-0,099
-559,744	78,852	0,111	-0,088
-558,729	37,080	-0,125	0,081
-557,715	104,184	-0,110	0,095
-556,700	126,530	0,020	-0,019
-555,685	-41,518	-0,084	-0,032
-554,671	800,000	-0,043	0,097
-553,656	74,371	-0,036	-0,028
-552,642	118,765	0,112	0,102
-551,627	800,000	0,015	0,035
-550,612	-42,714	0,134	0,050
-549,598	-160,859	-0,053	0,002
-548,583	465,367	-0,061	-0,101
-547,569	-200,000	0,023	-0,108
-546,554	-130,976	-0,016	0,002
-545,539	-73,439	0,141	0,038
-544,525	-200,000	0,016	0,094
-543,510	-200,000	-0,008	-0,047
-542,496	169,289	0,070	-0,074
-541,481	-131,060	-0,111	0,011
-540,466	-70,990	0,102	0,028
-539,452	-36,344	-0,051	-0,020
-538,437	-200,000	0,013	0,128
-537,423	271,816	-0,121	0,158
-536,408	41,817	-0,093	0,062
-535,393	189,757	-0,084	-0,093
-534,379	285,566	-0,057	-0,076
-533,364	570,668	-0,063	0,114
-532,350	603,923	0,032	0,060
-531,335	201,168	-0,121	-0,138
-530,321	-200,000	-0,033	-0,134
-529,306	-57,808	-0,094	0,030
-528,291	800,000	-0,060	0,153
-527,277	763,576	0,044	0,089
-526,262	-200,000	0,020	-0,107
-525,248	-200,000	0,011	0,097
-524,233	-200,000	-0,059	0,222
-523,218	143,117	-0,023	0,023
-522,204	-157,672	0,070	0,003
-521,189	369,355	0,057	-0,085
-520,175	531,328	-0,075	0,132
-519,160	-118,490	0,073	0,009
-518,145	89,881	-0,042	0,035
-517,131	-79,835	0,094	0,023
-516,116	-198,192	0,126	0,001
-515,102	223,606	0,095	0,113
-514,087	233,014	-0,034	0,042
-513,072	-200,000	-0,027	-0,137
-512,058	-200,000	0,006	-0,080
-511,043	-53,837	0,183	-0,061
-510,029	800,000	-0,009	-0,018
-509,014	4,235	-0,033	-0,018
-507,999	243,715	0,064	0,080
-506,985	483,348	0,022	-0,038
-505,970	320,785	0,064	-0,090
-504,956	-58,811	0,052	-0,017
-503,941	-39,694	-0,149	-0,057
-502,926	351,388	-0,096	0,141
-501,912	378,622	-0,041	0,062
-500,897	416,562	0,041	-0,065
-499,883	175,863	-0,042	-0,045
-498,868	-200,000	-0,057	-0,221
-497,853	42,393	0,057	-0,038
-496,839	-61,904	-0,054	0,017
-495,824	792,796	0,033	-0,068
-494,810	207,625	0,136	0,157
-493,795	166,640	0,067	0,070
-492,781	118,266	-0,038	-0,035
-491,766	396,038	0,068	-0,105
-490,751	800,000	0,018	-0,046
-489,737	-95,604	0,068	0,013
-488,722	487,029	-0,036	-0,060
-487,708	42,170	-0,123	0,082
-486,693	-40,879	-0,138	-0,052
-485,678	-200,000	-0,019	-0,073
-484,664	691,454	0,053	-0,102
-483,649	98,855	-0,076	0,064
-482,635	-28,743	0,049	0,021
-481,620	-195,204	0,078	0,000
-480,605	284,486	0,026	0,035
-479,591	20,367	-0,049	0,029
-478,576	-200,000	-0,006	0,079
-477,562	32,796	-0,023	-0,014
-476,547	238,052	-0,186	-0,227
-475,532	800,000	0,033	0,071
-474,518	-200,000	-0,009	0,129
-473,503	-20,464	0,050	-0,022
-472,489	-200,000	-0,021	0,073
-471,474	677,947	0,049	0,094
-470,459	336,172	-0,029	-0,041
-469,445	-200,000	0,000	0,017
-468,430	53,344	0,091	0,064
-467,416	-200,000	0,006	0,085
-466,401	-200,000	-0,000	0,062
-465,386	-0,354	-0,051	-0,027
-464,372	51,352	-0,039	-0,027
-463,357	-200,000	-0,008	-0,126
-462,343	90,053	-0,042	0,034
-461,328	-200,000	0,011	-0,134
-460,313	800,000	0,036	0,116
-459,299	325,450	-0,086	0,121
-458,284	800,000	0,034	0,104
-457,270	-23,433	0,086	-0,038
-456,255	425,862	0,073	-0,116
-455,241	-155,190	0,071	-0,003
-454,226	9,969	-0,114	-0,064
-453,211	-44,073	0,154	0,056
-452,197	-98,833	-0,096	0,018
-451,182	114,949	0,045	0,040
-450,168	389,373	-0,055	-0,085
-449,153	408,126	-0,026	-0,041
-448,138	800,000	-0,019	0,045
-447,124	-200,000	0,024	-0,107
-446,109	-43,315	0,047	-0,018
-445,095	-200,000	0,009	-0,038
-444,080	-200,000	-0,027	0,135
-443,065	151,813	0,028	-0,028
-442,051	-74,538	0,091	0,024
-441,036	40,897	-0,029	-0,019
-440,022	635,411	0,078	-0,147
-439,007	-35,099	-0,063	0,025
-437,992	213,949	0,057	0,066
-436,978	60,155	-0,086	0,063
-435,963	89,998	0,087	0,071
-434,949	249,808	-0,091	-0,114
-433,934	100,045	0,050	0,042
-432,919	736,965	0,047	-0,093
-431,905	21,639	-0,090	0,054
-430,890	91,882	-0,154	0,128
-429,876	-119,767	-0,056	-0,007
-428,861	83,661	-0,055	-0,044
-427,846	-63,813	0,106	-0,032
-426,832	29,766	-0,144	-0,090
-425,817	800,000	0,017	-0,043
-424,803	-200,000	0,032	-0,115
-423,788	800,000	0,019	-0,042
-422,773	90,285	-0,019	-0,016
-421,759	14,874	0,017	0,010
-420,744	-200,000	0,010	0,104
-419,730	-146,109	-0,063	-0,004
-418,715	-200,000	0,011	-0,078
-417,701	-200,000	-0,010	-0,125
-416,686	-61,843	-0,076	-0,023
-415,671	-122,306	0,104	0,012
-414,657	366,258	-0,038	0,056
-413,642	800,000	-0,059	-0,131
-412,628	-149,886	0,042	-0,002
-411,613	800,000	-0,066	-0,153
-410,598	-130,466	0,097	-0,010
-409,584	-29,122	-0,079	0,033
-408,569	92,511	0,135	0,112
-407,555	721,971	-0,028	0,055
-406,540	-62,684	0,055	-0,017
-405,525	102,431	0,014	0,012
-404,511	-200,000	-0,172	0,000
-403,496	-200,000	0,015	-0,147
-402,482	-40,083	0,075	0,028
-401,467	296,898	0,055	0,074
-400,452	-146,891	0,123	-0,008
-399,438	610,415	0,072	0,132
-398,423	71,285	-0,063	-0,048
-397,409	-200,000	-0,004	0,068
-396,394	-168,391	0,040	-0,001
-395,379	-200,000	-0,024	0,139
-394,365	-71,983	-0,194	-0,053
-393,350	68,857	-0,077	0,058
-392,336	60,589	0,117	0,085
-391,321	800,000	-0,037	0,077
-390,306	800,000	-0,030	-0,093
-389,292	374,803	-0,070	-0,105
-388,277	-135,288	0,035	-0,003
-387,263	800,000	0,049	0,145
-386,248	-39,307	0,167	0,064
-385,233	-52,931	-0,092	-0,031
-384,219	-200,000	0,021	-0,112
-383,204	-200,000	-0,009	-0,129
-382,190	56,188	-0,112	-0,079
-381,175	-200,000	0,006	0,022
-380,160	39,278	0,026	-0,017
-379,146	569,866	-0,054	-0,097
-378,131	141,445	-0,049	-0,047
-377,117	-84,297	0,054	-0,012
-376,102	534,096	-0,025	0,044
-375,088	-1,245	0,116	0,060
-374,073	328,724	-0,056	-0,079
-373,058	4,574	-0,076	0,041
-372,044	326,110	0,040	-0,056
-371,029	-27,870	0,092	0,039
-370,015	-200,000	0,017	0,062
-369,000	164,619	-0,028	0,029
-367,985	82,031	0,082	0,065
-366,971	278,040	0,033	-0,043
-365,956	-33,454	-0,066	0,027
-364,942	-109,617	0,053	-0,008
-363,927	-69,822	0,101	-0,028
-362,912	762,275	-0,057	0,115
-361,898	6,133	-0,070	-0,038
-360,883	261,829	-0,039	-0,050
-359,869	159,819	0,042	0,043
-358,854	161,890	0,039	0,040
-357,839	800,000	-0,055	0,144
-356,825	128,852	-0,086	0,081
-355,810	800,000	-0,042	0,133
-354,796	571,758	-0,006	0,011
-353,781	-200,000	0,003	-0,179
-352,766	-200,000	-0,002	-0,058
-351,752	-154,473	-0,123	-0,006
-350,737	75,897	-0,054	-0,042
-349,723	-200,000	0,006	0,075
-348,708	-200,000	0,022	-0,107
-347,693	-176,480	-0,088	-0,002
-346,679	113,700	-0,071	0,063
-345,664	347,082	-0,037	-0,053
-344,650	141,615	-0,087	-0,084
-343,635	-99,999	0,077	0,014
-342,620	-200,000	-0,026	0,106
-341,606	-200,000	0,012	0,062
-340,591	-163,171	-0,070	-0,002
-339,577	-69,800	0,134	-0,037
-338,562	66,207	-0,082	-0,061
-337,548	800,000	-0,031	0,064
-336,533	38,947	-0,141	-0,092
-335,518	-14,780	0,036	-0,017
-334,504	-19,010	0,040	0,018
-333,489	-200,000	-0,004	-0,015
-332,475	-200,000	-0,009	-0,047
-331,460	143,174	0,010	0,010
-330,445	-200,000	-0,038	0,132
-329,431	800,000	0,013	-0,034
-328,416	-200,000	-0,018	0,087
-327,402	227,524	0,008	-0,010
-326,387	-119,801	-0,108	0,013
-325,372	-200,000	-0,016	0,159
-324,358	-71,711	-0,089	0,024
-323,343	-19,752	0,041	0,019
-322,329	216,334	0,103	0,120
-321,314	-3,982	0,072	-0,037
-320,299	63,441	-0,089	0,065
-319,285	62,791	-0,096	0,070
-318,270	675,559	-0,028	0,053
-317,256	-109,552	0,110	-0,017
-316,241	51,543	-0,032	0,022
-315,226	-145,805	0,091	0,006
-314,212	800,000	-0,025	0,063
-313,197	-200,000	0,030	0,119
-312,183	-200,000	-0,030	0,129
-311,168	128,357	0,074	0,069
-310,153	189,772	0,087	-0,095
-309,139	355,358	-0,057	-0,084
-308,124	161,068	-0,068	-0,070
-307,110	326,277	0,108	0,152
-306,095	117,655	0,208	0,187
-305,080	7,508	-0,044	-0,024
-304,066	-3,551	-0,047	-0,024
-303,051	-200,000	0,012	-0,082
-302,037	-200,000	0,020	0,087
-301,022	-128,193	0,060	0,006
-300,008	196,397	-0,047	-0,052
-298,993	530,098	0,041	0,072
-297,978	-145,025	0,149	-0,010
-296,964	73,980	-0,084	0,065
-295,949	-67,443	-0,047	0,013
-294,935	-200,000	0,001	0,136
-293,920	-5,502	0,051	-0,025
-292,905	101,329	0,066	0,056
-291,891	315,746	0,021	0,030
-290,876	-8,200	0,171	0,084
-289,862	309,503	0,057	0,077
-288,847	-15,929	0,068	0,031
-287,832	137,932	0,050	-0,048
-286,818	-200,000	0,001	-0,041
-285,803	160,534	0,116	-0,119
-284,789	-33,052	-0,099	0,040
-283,774	55,345	0,085	-0,060
-282,759	234,278	0,085	-0,103
-281,745	428,908	-0,023	0,036
-280,730	-200,000	0,009	0,091
-279,716	-200,000	0,013	-0,074
-278,701	-111,784	0,084	0,012
-277,686	-146,292	0,047	-0,003
-276,672	800,000	0,032	-0,091
-275,657	275,452	-0,041	0,053
-274,643	-200,000	0,016	0,059
-273,628	442,073	-0,046	-0,073
-272,613	-141,545	-0,030	-0,002
-271,599	-200,000	-0,004	0,096
-270,584	800,000	0,058	0,124
-269,570	200,660	0,068	-0,077
-268,555	-200,000	0,017	0,059
-267,540	140,327	-0,033	0,032
-266,526	800,000	0,047	-0,098
-265,511	800,000	-0,013	-0,043
-264,497	-126,214	0,076	-0,008
-263,482	-139,269	0,202	0,016
-262,467	244,305	0,073	0,090
-261,453	443,586	-0,074	-0,119
-260,438	124,431	-0,063	-0,058
-259,424	76,347	0,035	-0,027
-258,409	800,000	-0,028	0,076
-257,395	-9,781	0,055	-0,027
-256,380	-87,479	0,137	-0,030
-255,365	800,000	0,025	0,078
-254,351	-37,386	0,163	-0,063
-253,336	-123,769	0,127	0,015
-252,322	-37,389	-0,072	-0,028
-251,307	36,827	-0,099	0,064
-250,292	220,393	0,053	-0,062
-249,278	42,473	0,058	-0,039
-248,263	130,066	0,088	-0,082
-247,249	-78,039	0,120	0,030
-246,234	791,261	-0,047	0,095
-245,219	-200,000	-0,037	-0,145
-244,205	800,000	-0,065	-0,185
-243,190	-42,083	0,152	-0,057
-242,176	-200,000	-0,004	-0,028
-241,161	357,542	0,043	0,062
-240,146	216,125	-0,052	0,061
-239,132	-200,000	-0,016	-0,059
-238,117	-11,807	0,019	-0,009
-237,103	-56,638	0,153	-0,049
-236,088	-200,000	0,014	-0,085
-235,073	82,123	0,003	-0,003
-234,059	309,716	-0,095	-0,130
-233,044	173,696	0,087	-0,092
-232,030	-61,854	0,024	-0,007
-231,015	-111,677	0,062	0,009
-230,000	-35,064	-0,165	0,065
-228,986	-31,056	0,049	0,020
-227,971	-200,000	-0,020	0,142
-226,957	239,079	0,105	0,127
-225,942	-200,000	-0,008	0,171
-224,927	132,932	-0,048	0,045
-223,913	-32,894	0,134	-0,054
-222,898	-95,376	0,022	-0,004
-221,884	-92,005	-0,169	0,035
-220,869	-49,813	0,037	0,013
-219,855	800,000	0,023	-0,058
-218,840	-9,641	0,138	0,067
-217,825	-52,917	0,037	0,012
-216,811	800,000	-0,034	0,090
-215,796	-200,000	0,001	0,008
-214,782	80,967	-0,039	-0,031
-213,767	-159,769	-0,154	-0,006
-212,752	148,085	0,156	0,154
-211,738	-122,769	-0,160	0,019
-210,723	60,659	0,049	-0,035
-209,709	-193,233	-0,085	0,001
-208,694	186,989	0,016	0,018
-207,679	800,000	-0,027	-0,061
-206,665	164,930	-0,069	0,072
-205,650	26,826	-0,074	0,045
-204,636	-71,678	0,133	0,036
-203,621	-43,180	-0,026	0,010
-202,606	-115,325	-0,041	0,006
-201,592	417,099	0,066	-0,103
-200,577	-200,000	-0,024	-0,176
-199,563	-37,933	0,017	-0,007
-198,548	-200,000	-0,020	0,137
-197,533	-74,666	0,078	0,020
-196,519	-107,742	-0,087	-0,014
-195,504	-172,380	-0,153	-0,003
-194,490	201,395	0,088	0,098
-193,475	3,556	-0,074	-0,039
-192,460	114,719	0,051	0,045
-191,446	-200,000	-0,024	0,159
-190,431	800,000	-0,036	0,084
-189,417	-82,502	0,081	0,019
-188,402	168,610	-0,080	-0,083
-187,387	800,000	0,030	-0,072
-186,373	-200,000	-0,021	-0,126
-185,358	-200,000	-0,028	-0,122
-184,344	153,456	-0,006	-0,006
-183,329	-172,760	0,024	0,001
-182,315	-137,552	-0,160	0,013
-181,300	99,128	0,052	-0,044
-180,285	-25,017	-0,054	-0,023
-179,271	800,000	0,025	-0,057
-178,256	800,000	0,008	0,022
-177,242	-36,070	-0,046	-0,018
-176,227	120,943	0,185	0,168
-175,212	47,154	0,044	-0,030
-174,198	-40,294	0,074	0,028
-173,183	-200,000	0,030	-0,120
-172,169	114,619	-0,019	0,017
-171,154	605,432	-0,032	0,059
-170,139	-14,611	0,050	0,023
-169,125	91,862	-0,064	0,053
-168,110	81,672	-0,052	-0,041
-167,096	-159,000	0,146	0,006
-166,081	421,344	-0,008	-0,012
-165,066	674,590	0,044	0,083
-164,052	800,000	0,030	0,070
-163,037	-39,914	0,090	-0,034
-162,023	-9,391	-0,074	-0,036
-161,008	95,134	-0,074	0,061
-159,993	800,000	0,004	0,011
-158,979	18,991	-0,080	-0,047
-157,964	-200,000	-0,022	-0,074
-156,950	800,000	-0,016	0,039
-155,935	800,000	-0,026	0,068
-154,920	-200,000	-0,002	0,154
-153,906	244,238	-0,080	0,098
-152,891	-200,000	0,021	0,088
-151,877	-200,000	0,026	-0,105
-150,862	-4,447	-0,128	-0,064
-149,847	298,401	-0,015	0,020
-148,833	12,702	0,075	-0,042
-147,818	-8,299	0,027	0,013
-146,804	-112,495	0,041	0,006
-145,789	393,248	-0,012	0,018
-144,775	23,625	-0,128	0,077
-143,760	-200,000	0,003	-0,142
-142,745	-29,025	-0,105	0,044
-141,731	-110,395	0,114	-0,017
-140,716	70,394	0,114	0,085
-139,702	248,013	0,026	-0,031
-138,687	800,000	-0,070	0,156
-137,672	-107,558	0,031	0,005
-136,658	366,784	-0,055	-0,080
-135,643	203,029	0,056	-0,063
-134,629	-109,337	0,074	-0,011
-133,614	-200,000	-0,027	0,122
-132,599	800,000	-0,038	0,094
-131,585	-200,000	0,013	-0,051
-130,570	288,370	-0,032	-0,043
-129,556	-105,006	-0,122	0,020
-128,541	-95,067	-0,064	0,013
-127,526	61,668	-0,052	0,037
-126,512	800,000	0,031	-0,089
-125,497	-200,000	-0,010	0,097
-124,483	-105,217	-0,068	0,011
-123,468	-200,000	0,004	-0,032
-122,453	800,000	0,033	0,076
-121,439	-66,600	0,156	-0,045
-120,424	378,143	-0,040	-0,060
-119,410	174,903	-0,039	-0,041
