DTS Sentinel unit serial number:	SN410029Multiplexer serial number:	ORYXHardware model number:	OX2-SRSoftware version number:	ORYX F/W v4,00 Oryx Data Collector v3.7.2.0data status	okinstallation	B6 Nyhavnadifferential loss correction	single-endedforward channel	channel 2reverse channel	N/Adate	2023/12/10time	06:35:08forward acquisition time	300,00reverse acquisition time	0,00gamma	499,1914k internal	0,3123k external	0,3123temperature offset calibration	1,0000default loss term (dB/km)	0,3820temperature slope calibration	1,0000multiplexer offset coefficient	1,0000multiplexer slope coefficient	1,0000fibre end	0,00T internal ref (°C)	22,60T ext. ref 1 (°C)	6,44T ext. ref 2 (°C)	6,43length (m)	temperature (°C)	Stokes	anti-Stokes-744,400	-164,562	0,101	0,003
-743,385	89,902	-0,144	0,120
-742,371	-29,378	0,142	0,060
-741,356	55,859	-0,142	0,102
-740,342	-135,016	-0,039	0,003
-739,327	800,000	-0,049	0,155
-738,312	-200,000	-0,004	-0,096
-737,298	-154,544	-0,234	0,011
-736,283	-200,000	0,020	-0,191
-735,269	110,223	-0,307	0,275
-734,254	-200,000	-0,013	0,079
-733,239	-146,573	-0,412	-0,026
-732,225	44,038	0,140	0,096
-731,210	766,653	-0,070	0,142
-730,196	314,584	-0,083	0,116
-729,181	18,662	-0,085	0,050
-728,167	557,572	0,023	0,041
-727,152	202,758	0,019	0,022
-726,137	-114,531	-0,217	-0,031
-725,123	21,215	-0,127	-0,077
-724,108	-37,167	-0,081	-0,032
-723,094	-55,249	-0,226	-0,075
-722,079	-110,547	0,071	0,011
-721,064	-200,000	-0,008	0,143
-720,050	392,083	-0,070	0,109
-719,035	-8,048	0,034	0,017
-718,021	-80,112	-0,051	-0,013
-717,006	-88,921	-0,065	-0,014
-715,991	-32,118	-0,183	0,076
-714,977	11,813	-0,088	-0,050
-713,962	-48,626	0,093	0,033
-712,948	309,127	0,064	-0,089
-711,933	-200,000	0,001	-0,106
-710,918	610,629	-0,068	-0,127
-709,904	-126,122	-0,111	-0,012
-708,889	345,176	0,032	-0,047
-707,875	-90,059	-0,095	0,020
-706,860	209,568	-0,047	-0,055
-705,845	322,788	-0,054	-0,077
-704,831	185,182	-0,074	0,082
-703,816	-200,000	0,001	0,014
-702,802	800,000	-0,047	-0,121
-701,787	-16,190	-0,127	0,060
-700,772	-200,000	0,018	0,072
-699,758	69,429	0,060	0,046
-698,743	-94,151	-0,090	-0,018
-697,729	-19,770	-0,038	-0,017
-696,714	380,936	-0,062	0,095
-695,699	-46,933	-0,035	0,013
-694,685	121,112	-0,040	0,037
-693,670	-200,000	0,014	-0,098
-692,656	15,940	0,024	0,014
-691,641	-200,000	0,000	-0,043
-690,627	140,318	0,070	0,069
-689,612	-59,740	-0,036	0,011
-688,597	-89,072	-0,065	-0,014
-687,583	-200,000	-0,006	-0,185
-686,568	108,034	-0,059	-0,052
-685,554	395,949	-0,091	0,142
-684,539	22,504	0,081	0,049
-683,524	-104,641	0,020	0,003
-682,510	-138,301	-0,122	-0,010
-681,495	317,293	-0,018	0,026
-680,481	73,624	0,095	-0,074
-679,466	6,379	-0,052	-0,029
-678,451	-11,604	-0,070	-0,034
-677,437	459,599	-0,042	0,070
-676,422	487,260	0,049	-0,084
-675,408	800,000	-0,038	-0,093
-674,393	-200,000	-0,013	-0,044
-673,378	207,626	-0,015	0,017
-672,364	-200,000	-0,008	-0,097
-671,349	746,746	0,038	-0,076
-670,335	-200,000	0,015	-0,060
-669,320	310,634	-0,108	0,151
-668,305	-79,331	-0,138	0,035
-667,291	-94,751	-0,082	-0,016
-666,276	-200,000	-0,018	-0,155
-665,262	239,649	-0,066	0,082
-664,247	800,000	-0,044	-0,109
-663,232	174,495	-0,052	-0,056
-662,218	261,386	0,014	0,017
-661,203	-38,686	-0,113	0,044
-660,189	-200,000	0,034	0,122
-659,174	322,999	0,030	0,043
-658,159	81,157	-0,026	0,021
-657,145	-128,665	-0,122	-0,013
-656,130	-200,000	0,005	0,098
-655,116	-200,000	-0,035	0,158
-654,101	191,745	-0,044	0,049
-653,086	-200,000	0,027	0,170
-652,072	-42,686	-0,059	-0,022
-651,057	121,400	0,040	-0,037
-650,043	269,720	-0,028	-0,037
-649,028	-87,488	-0,144	0,032
-648,014	742,042	0,079	0,158
-646,999	-2,236	-0,023	0,012
-645,984	-200,000	-0,001	0,024
-644,970	800,000	-0,046	-0,112
-643,955	744,379	-0,018	-0,036
-642,941	217,644	-0,049	-0,058
-641,926	581,110	0,119	-0,217
-640,911	-181,641	-0,031	-0,000
-639,897	-82,168	-0,108	-0,026
-638,882	7,052	0,061	0,034
-637,868	28,505	0,097	-0,061
-636,853	307,962	-0,023	0,033
-635,838	-115,306	-0,171	-0,024
-634,824	-70,484	-0,031	0,009
-633,809	96,409	0,065	-0,055
-632,795	383,608	-0,026	0,039
-631,780	-200,000	-0,019	0,063
-630,765	-200,000	0,017	-0,113
-629,751	648,189	-0,035	-0,067
-628,736	-43,553	-0,143	-0,053
-627,722	521,013	0,109	-0,191
-626,707	86,424	-0,055	-0,045
-625,692	800,000	-0,050	0,120
-624,678	-200,000	0,016	0,064
-623,663	280,878	-0,068	-0,090
-622,649	370,886	0,009	0,014
-621,634	111,750	0,072	-0,064
-620,619	178,259	0,084	-0,091
-619,605	253,364	0,093	-0,118
-618,590	558,146	0,007	-0,012
-617,576	-65,939	0,118	0,035
-616,561	-200,000	-0,025	0,084
-615,546	-113,146	-0,165	-0,024
-614,532	144,450	-0,065	0,065
-613,517	-200,000	-0,020	-0,193
-612,503	63,781	0,089	-0,066
-611,488	31,973	0,051	-0,033
-610,474	800,000	-0,039	0,081
-609,459	279,908	-0,065	-0,087
-608,444	-200,000	-0,008	-0,131
-607,430	331,932	-0,030	0,043
-606,415	-65,285	-0,066	-0,020
-605,401	-200,000	-0,034	0,120
-604,386	800,000	-0,028	-0,060
-603,371	-52,978	-0,075	0,025
-602,357	-41,039	-0,140	0,053
-601,342	-200,000	-0,021	-0,103
-600,328	-84,509	-0,043	-0,010
-599,313	-44,280	-0,081	0,030
-598,298	38,767	0,116	0,076
-597,284	555,923	0,023	0,041
-596,269	-102,948	0,059	-0,010
-595,255	-200,000	-0,000	0,047
-594,240	-200,000	0,016	-0,215
-593,225	-50,264	-0,026	-0,009
-592,211	172,129	0,045	-0,048
-591,196	282,853	-0,048	-0,064
-590,182	800,000	-0,040	-0,121
-589,167	800,000	0,026	0,064
-588,152	-200,000	0,021	0,115
-587,138	343,346	0,090	0,131
-586,123	-54,145	-0,039	-0,013
-585,109	172,289	-0,135	0,144
-584,094	108,516	-0,025	0,022
-583,079	-200,000	-0,015	-0,122
-582,065	800,000	-0,051	-0,112
-581,050	56,404	-0,125	0,090
-580,036	-200,000	0,011	-0,083
-579,021	95,066	-0,092	-0,077
-578,006	-183,270	-0,119	0,002
-576,992	635,462	-0,081	-0,154
-575,977	-200,000	-0,032	0,130
-574,963	71,333	0,150	0,115
-573,948	-200,000	0,009	-0,085
-572,934	405,785	-0,080	0,125
-571,919	135,492	-0,141	-0,136
-570,904	98,188	-0,068	0,058
-569,890	686,373	-0,034	-0,066
-568,875	-200,000	-0,015	0,071
-567,861	71,863	-0,040	0,031
-566,846	99,749	-0,055	-0,047
-565,831	48,124	-0,121	0,083
-564,817	-200,000	0,009	-0,114
-563,802	-4,276	-0,101	-0,051
-562,788	-200,000	-0,018	-0,133
-561,773	75,040	0,097	-0,076
-560,758	800,000	0,026	-0,080
-559,744	-200,000	0,000	0,011
-558,729	-200,000	0,007	0,066
-557,715	325,905	-0,110	-0,156
-556,700	-200,000	-0,027	-0,130
-555,685	641,444	-0,045	0,086
-554,671	800,000	-0,050	-0,135
-553,656	800,000	0,019	-0,061
-552,642	65,021	0,086	0,064
-551,627	-113,042	-0,179	-0,026
-550,612	800,000	-0,011	-0,029
-549,598	100,107	-0,125	0,107
-548,583	-39,077	0,033	0,013
-547,569	400,293	-0,048	-0,075
-546,554	-133,704	0,042	-0,004
-545,539	94,859	0,153	0,129
-544,525	800,000	0,038	-0,098
-543,510	-200,000	0,013	-0,056
-542,496	-85,967	-0,049	-0,011
-541,481	240,598	-0,007	0,009
-540,466	-107,558	0,069	0,011
-539,452	-200,000	-0,002	0,106
-538,437	-175,025	0,151	-0,003
-537,423	97,259	0,039	-0,033
-536,408	800,000	-0,051	0,145
-535,393	800,000	0,043	0,120
-534,379	605,083	-0,031	-0,057
-533,364	800,000	0,025	-0,074
-532,350	-121,746	0,101	-0,012
-531,335	-12,229	-0,088	0,042
-530,321	-200,000	0,017	-0,114
-529,306	-200,000	-0,026	0,090
-528,291	176,559	-0,032	0,034
-527,277	-150,125	-0,035	-0,002
-526,262	436,108	0,059	0,095
-525,248	-200,000	0,019	0,130
-524,233	-200,000	0,030	0,114
-523,218	800,000	0,070	0,166
-522,204	151,176	0,065	-0,065
-521,189	248,013	0,053	-0,066
-520,175	170,506	0,037	0,039
-519,160	-55,074	-0,033	-0,011
-518,145	115,249	-0,050	0,046
-517,131	-200,000	0,019	-0,085
-516,116	543,784	-0,025	-0,045
-515,102	8,368	0,039	0,021
-514,087	800,000	0,034	-0,073
-513,072	800,000	0,005	0,014
-512,058	-200,000	-0,002	-0,064
-511,043	191,343	0,061	-0,067
-510,029	-46,147	0,061	0,022
-509,014	800,000	-0,044	-0,122
-507,999	-200,000	0,035	-0,143
-506,985	-200,000	0,013	0,063
-505,970	87,283	-0,088	-0,072
-504,956	800,000	0,063	-0,131
-503,941	-100,678	-0,155	0,028
-502,926	-200,000	0,023	0,083
-501,912	-89,749	0,022	-0,005
-500,897	-58,718	0,027	0,009
-499,883	-83,889	-0,082	0,019
-498,868	800,000	-0,060	-0,129
-497,853	-200,000	0,012	0,047
-496,839	-83,447	0,150	-0,035
-495,824	-200,000	0,012	-0,059
-494,810	-82,574	0,115	0,027
-493,795	-200,000	0,022	-0,138
-492,781	-164,137	-0,042	-0,001
-491,766	-103,304	0,015	-0,003
-490,751	-119,649	-0,114	0,014
-489,737	-200,000	-0,003	0,038
-488,722	-164,288	0,081	0,003
-487,708	97,725	0,061	-0,051
-486,693	39,810	0,032	0,021
-485,678	24,994	-0,094	0,058
-484,664	80,547	-0,092	0,073
-483,649	800,000	0,012	-0,036
-482,635	-200,000	-0,002	-0,134
-481,620	243,380	-0,021	0,026
-480,605	154,335	-0,004	0,004
-479,591	506,871	0,041	0,070
-478,576	58,395	-0,077	-0,055
-477,562	-200,000	-0,006	-0,036
-476,547	42,273	-0,043	0,029
-475,532	227,480	0,015	0,018
-474,518	325,234	0,056	0,079
-473,503	-200,000	-0,011	0,146
-472,489	800,000	0,046	-0,116
-471,474	-36,239	0,079	0,031
-470,459	-25,361	0,086	-0,037
-469,445	-168,410	-0,086	-0,002
-468,430	304,049	0,041	-0,056
-467,416	-140,038	0,045	0,003
-466,401	123,739	0,080	-0,074
-465,386	-200,000	0,017	0,227
-464,372	-200,000	0,001	0,194
-463,357	800,000	-0,026	-0,077
-462,343	-200,000	-0,038	0,146
-461,328	37,308	0,090	0,058
-460,313	89,901	0,067	0,055
-459,299	482,698	0,058	0,098
-458,284	-135,289	0,130	0,011
-457,270	245,917	0,030	-0,037
-456,255	-16,203	-0,052	-0,024
-455,241	800,000	-0,045	-0,133
-454,226	-200,000	0,008	-0,082
-453,211	-200,000	-0,009	0,082
-452,197	67,339	0,121	-0,091
-451,182	283,831	-0,035	-0,047
-450,168	800,000	-0,017	0,055
-449,153	113,081	-0,054	0,049
-448,138	-150,657	-0,145	-0,008
-447,124	-200,000	0,038	0,126
-446,109	-33,553	0,065	0,026
-445,095	346,094	-0,027	0,040
-444,080	-200,000	0,042	0,156
-443,065	41,863	0,095	0,063
-442,051	108,657	0,067	-0,059
-441,036	-184,181	-0,098	0,001
-440,022	41,207	0,035	0,023
-439,007	268,750	-0,046	0,059
-437,992	800,000	0,056	0,155
-436,978	-86,242	0,126	0,028
-435,963	379,985	0,033	-0,050
-434,949	-200,000	-0,003	0,025
-433,934	87,887	0,145	-0,118
-432,919	240,199	0,043	-0,053
-431,905	51,902	0,012	-0,008
-430,890	5,705	0,068	0,037
-429,876	-158,153	-0,008	-0,000
-428,861	152,750	-0,021	0,021
-427,846	-54,408	-0,014	0,005
-426,832	753,469	0,075	-0,149
-425,817	0,386	-0,039	-0,021
-424,803	119,141	-0,041	0,037
-423,788	351,017	0,057	-0,083
-422,773	84,731	0,101	0,081
-421,759	690,648	0,015	0,029
-420,744	800,000	0,027	0,069
-419,730	-92,766	-0,112	-0,023
-418,715	-110,917	-0,087	0,013
-417,701	406,757	-0,063	-0,099
-416,686	-62,022	0,146	0,045
-415,671	76,689	0,141	0,110
-414,657	-200,000	0,021	-0,172
-413,642	-200,000	0,003	-0,013
-412,628	800,000	0,028	0,058
-411,613	-200,000	0,030	0,120
-410,598	-103,552	-0,110	0,019
-409,584	302,834	-0,054	0,073
-408,569	-200,000	0,010	0,058
-407,555	800,000	0,036	-0,079
-406,540	528,530	-0,050	-0,087
-405,525	383,492	-0,016	-0,024
-404,511	-4,505	-0,016	-0,008
-403,496	-51,075	0,132	-0,045
-402,482	109,994	-0,056	0,049
-401,467	428,794	0,112	-0,179
-400,452	-163,317	0,082	-0,003
-399,438	38,531	0,095	0,062
-398,423	-96,839	-0,116	0,022
-397,409	800,000	0,008	0,024
-396,394	-122,525	-0,156	-0,018
-395,379	-95,701	0,119	-0,023
-394,365	480,683	0,071	0,119
-393,350	-200,000	0,020	0,071
-392,336	-128,296	0,083	0,009
-391,321	307,705	-0,114	0,156
-390,306	-25,606	-0,119	-0,051
-389,292	373,396	-0,092	-0,137
-388,277	-200,000	0,047	0,206
-387,263	-200,000	-0,011	0,061
-386,248	59,696	0,069	-0,050
-385,233	660,630	0,013	0,025
-384,219	800,000	-0,032	-0,090
-383,204	195,910	-0,119	-0,133
-382,190	141,526	-0,059	-0,057
-381,175	2,070	-0,113	-0,060
-380,160	492,186	0,074	0,125
-379,146	-59,402	0,060	-0,019
-378,131	302,472	0,020	-0,027
-377,117	131,495	-0,093	0,088
-376,102	-173,207	-0,143	-0,003
-375,088	800,000	-0,037	0,078
-374,073	142,587	0,065	-0,064
-373,058	-200,000	0,027	0,125
-372,044	-91,209	0,121	0,025
-371,029	800,000	-0,042	0,109
-370,015	683,669	0,010	-0,019
-369,000	142,782	-0,067	0,066
-367,985	800,000	0,008	0,025
-366,971	-2,943	-0,084	0,043
-365,956	-57,396	0,142	-0,046
-364,942	-200,000	-0,019	0,088
-363,927	42,505	0,085	-0,057
-362,912	-123,357	0,153	0,018
-361,898	800,000	-0,068	0,153
-360,883	-66,119	-0,121	-0,035
-359,869	26,181	-0,049	-0,030
-358,854	460,539	0,011	-0,017
-357,839	-122,422	0,091	-0,011
-356,825	187,595	0,022	-0,024
-355,810	192,378	-0,091	0,101
-354,796	-14,084	0,055	0,026
-353,781	-170,647	-0,122	-0,003
-352,766	800,000	0,023	-0,066
-351,752	-56,029	0,102	-0,033
-350,737	-200,000	0,006	0,116
-349,723	800,000	-0,023	-0,058
-348,708	104,932	0,032	0,027
-347,693	90,032	0,055	-0,045
-346,679	-200,000	0,013	-0,106
-345,664	-64,720	0,131	-0,039
-344,650	-200,000	0,009	-0,101
-343,635	-131,405	-0,062	0,006
-342,620	-12,844	0,091	-0,043
-341,606	505,812	-0,067	0,115
-340,591	6,130	-0,080	-0,043
-339,577	11,728	0,058	-0,032
-338,562	-148,516	-0,031	-0,002
-337,548	-100,597	-0,059	0,011
-336,533	-33,321	0,042	0,017
-335,518	721,945	0,065	0,127
-334,504	171,792	0,033	0,034
-333,489	281,528	0,036	-0,047
-332,475	800,000	-0,034	0,105
-331,460	22,292	-0,102	-0,061
-330,445	-110,612	0,039	0,006
-329,431	-194,104	0,052	0,000
-328,416	-200,000	0,008	-0,102
-327,402	85,096	0,053	0,042
-326,387	-200,000	-0,003	-0,070
-325,372	25,443	-0,112	-0,068
-324,358	-23,164	-0,100	-0,044
-323,343	-70,348	0,019	-0,005
-322,329	111,432	0,070	-0,062
-321,314	296,324	0,042	0,057
-320,299	-192,119	0,031	0,000
-319,285	49,920	0,051	-0,035
-318,270	-86,202	-0,122	-0,027
-317,256	-200,000	-0,019	0,077
-316,241	-200,000	-0,006	0,022
-315,226	-99,135	-0,163	0,030
-314,212	-44,713	0,015	-0,005
-313,197	341,245	0,084	0,121
-312,183	97,754	0,109	0,091
-311,168	-145,140	-0,097	0,006
-310,153	-113,750	0,021	-0,003
-309,139	-200,000	-0,004	0,018
-308,124	451,174	-0,042	-0,068
-307,110	800,000	-0,045	0,135
-306,095	-200,000	0,006	0,064
-305,080	-200,000	0,014	0,076
-304,066	-200,000	0,036	0,172
-303,051	70,974	-0,108	-0,082
-302,037	43,950	0,085	-0,057
-301,022	-200,000	-0,002	0,023
-300,008	-200,000	0,019	-0,073
-298,993	528,601	0,056	0,096
-297,978	-73,426	0,115	-0,031
-296,964	53,741	-0,049	0,034
-295,949	-200,000	0,009	-0,133
-294,935	-200,000	0,057	-0,239
-293,920	113,754	-0,063	0,056
-292,905	-66,038	0,082	0,024
-291,891	544,950	-0,059	-0,104
-290,876	187,660	-0,016	0,018
-289,862	-200,000	-0,035	0,190
-288,847	597,200	-0,077	0,139
-287,832	-72,660	0,110	-0,029
-286,818	733,737	-0,024	-0,047
-285,803	-200,000	0,001	-0,100
-284,789	458,299	0,107	0,174
-283,774	214,096	0,047	0,054
-282,759	303,945	0,053	0,072
-281,745	-150,370	-0,051	0,003
-280,730	-190,991	-0,017	-0,000
-279,716	17,996	-0,233	0,136
-278,701	388,128	0,019	-0,030
-277,686	-200,000	-0,076	0,000
-276,672	263,508	0,010	0,012
-275,657	-85,557	0,050	0,011
-274,643	-36,595	0,109	-0,043
-273,628	-71,427	0,124	0,034
-272,613	-97,841	0,117	-0,022
-271,599	-200,000	0,002	-0,064
-270,584	-127,975	-0,062	0,006
-269,570	358,633	-0,053	0,078
-268,555	253,801	-0,057	0,071
-267,540	-46,551	-0,057	0,020
-266,526	-200,000	0,004	-0,037
-265,511	-200,000	0,021	0,086
-264,497	-21,910	-0,041	-0,018
-263,482	-8,734	0,081	0,040
-262,467	202,146	0,053	0,059
-261,453	157,013	0,140	0,142
-260,438	-200,000	0,005	0,069
-259,424	-149,267	0,077	-0,004
-258,409	229,086	-0,058	-0,070
-257,395	249,986	-0,057	0,071
-256,380	380,215	0,039	-0,059
-255,365	-63,313	0,052	-0,016
-254,351	-68,009	-0,065	0,019
-253,336	800,000	0,038	0,107
-252,322	-200,000	0,031	-0,118
-251,307	-25,238	0,011	-0,005
-250,292	164,671	-0,041	0,043
-249,278	178,043	0,085	0,091
-248,263	-200,000	-0,001	-0,085
-247,249	368,104	0,088	0,130
-246,234	-200,000	0,012	-0,046
-245,219	800,000	0,057	0,128
-244,205	594,032	0,092	0,167
-243,190	-25,667	0,170	-0,073
-242,176	3,074	-0,116	-0,062
-241,161	-163,686	-0,083	0,003
-240,146	-8,464	-0,107	0,052
-239,132	-200,000	-0,001	-0,066
-238,117	77,244	0,095	-0,074
-237,103	-200,000	0,044	-0,159
-236,088	122,692	-0,095	-0,087
-235,073	-113,714	0,132	0,019
-234,059	-38,306	0,132	-0,051
-233,044	800,000	-0,041	0,103
-232,030	-200,000	0,009	-0,147
-231,015	800,000	0,021	0,044
-230,000	564,955	0,043	-0,076
-228,986	116,965	-0,015	0,014
-227,971	12,401	0,119	0,067
-226,957	47,837	-0,070	0,048
-225,942	-134,744	0,085	-0,007
-224,927	323,794	-0,076	0,106
-223,913	466,410	0,014	-0,024
-222,898	800,000	0,029	-0,080
-221,884	307,299	-0,051	-0,070
-220,869	-64,212	0,037	0,011
-219,855	170,296	0,058	-0,061
-218,840	-14,899	0,074	0,034
-217,825	-200,000	-0,011	0,227
-216,811	36,112	-0,143	-0,092
-215,796	-200,000	0,020	-0,064
-214,782	-10,204	-0,046	0,022
-213,767	6,497	-0,062	0,034
-212,752	-200,000	0,011	-0,111
-211,738	-28,752	0,219	-0,091
-210,723	-200,000	-0,019	-0,069
-209,709	-36,888	-0,096	-0,037
-208,694	195,971	-0,046	0,051
-207,679	505,514	-0,058	0,099
-206,665	-63,741	-0,012	-0,004
-205,650	-105,843	0,077	-0,013
-204,636	800,000	-0,015	-0,041
-203,621	187,604	-0,030	0,033
-202,606	800,000	0,031	0,066
-201,592	-88,885	-0,110	-0,024
-200,577	-64,905	0,031	0,009
-199,563	800,000	-0,011	0,027
-198,548	-52,162	0,072	0,024
-197,533	800,000	-0,045	-0,105
-196,519	-89,301	-0,081	-0,017
-195,504	158,328	0,014	-0,014
-194,490	-56,712	-0,056	-0,018
-193,475	800,000	-0,036	-0,092
-192,460	15,363	0,076	-0,043
-191,446	-50,824	0,070	0,024
-190,431	22,678	-0,163	0,097
-189,417	800,000	-0,039	-0,097
-188,402	-17,551	0,048	-0,022
-187,387	388,807	-0,047	-0,071
-186,373	16,152	-0,047	-0,027
-185,358	-123,569	-0,110	-0,013
-184,344	-200,000	0,002	0,139
-183,329	-125,062	0,142	-0,016
-182,315	-200,000	-0,031	0,114
-181,300	177,838	-0,061	0,065
-180,285	478,844	-0,026	-0,043
-179,271	460,424	-0,103	-0,168
-178,256	-26,517	-0,054	-0,023
-177,242	-91,752	0,070	-0,014
-176,227	273,747	-0,050	-0,064
-175,212	121,537	-0,047	0,043
-174,198	18,471	-0,082	-0,047
-173,183	800,000	-0,010	-0,021
-172,169	-200,000	0,008	0,035
-171,154	96,856	0,048	0,040
-170,139	234,674	0,085	-0,102
-169,125	-30,985	0,079	-0,032
-168,110	800,000	-0,008	-0,018
-167,096	-99,493	-0,051	0,009
-166,081	79,668	-0,041	-0,032
-165,066	-109,549	-0,112	-0,017
-164,052	157,457	-0,064	-0,064
-163,037	-50,346	0,108	0,037
-162,023	-95,791	-0,103	-0,020
-161,008	-200,000	-0,019	0,107
-159,993	-200,000	0,010	-0,079
-158,979	174,216	-0,011	-0,012
-157,964	-51,299	0,170	-0,058
-156,950	37,244	-0,162	0,104
-155,935	-189,128	0,051	-0,000
-154,920	800,000	-0,018	0,043
-153,906	-126,126	0,030	-0,003
-152,891	-200,000	-0,008	0,122
-151,877	800,000	-0,046	-0,095
-150,862	321,112	0,050	-0,070
-149,847	214,645	-0,059	-0,069
-148,833	-49,343	0,091	0,031
-147,818	-91,683	0,118	0,024
-146,804	-32,496	-0,103	-0,042
-145,789	187,391	0,055	0,060
-144,775	-200,000	-0,019	0,146
-143,760	800,000	-0,026	-0,069
-142,745	-76,336	-0,129	-0,033
-141,731	108,638	0,049	-0,043
-140,716	-134,674	-0,038	0,003
-139,702	-93,432	0,109	0,022
-138,687	-200,000	-0,013	0,081
-137,672	-136,703	0,068	0,006
-136,658	192,863	0,118	-0,130
-135,643	218,814	0,125	0,145
-134,629	-117,603	0,181	-0,023
-133,614	419,437	-0,019	-0,030
-132,599	-200,000	-0,004	0,170
-131,585	800,000	0,026	0,068
-130,570	-200,000	0,020	0,106
-129,556	94,017	-0,079	0,065
-128,541	-55,268	-0,061	0,020
-127,526	398,531	0,042	0,064
-126,512	18,297	0,039	-0,023
-125,497	-68,064	-0,099	-0,028
-124,483	-129,893	0,112	0,011
-123,468	189,475	0,077	-0,084
-122,453	114,243	0,075	0,066
-121,439	-200,000	0,028	0,090
-120,424	-31,280	0,064	-0,026
-119,410	193,964	0,093	0,102
