DTS Sentinel unit serial number:	SN410029Multiplexer serial number:	ORYXHardware model number:	OX2-SRSoftware version number:	ORYX F/W v4,00 Oryx Data Collector v3.7.2.0data status	okinstallation	B6 Nyhavnadifferential loss correction	single-endedforward channel	channel 2reverse channel	N/Adate	2023/12/11time	04:55:08forward acquisition time	300,00reverse acquisition time	0,00gamma	499,1914k internal	0,3127k external	0,3127temperature offset calibration	1,0000default loss term (dB/km)	0,3820temperature slope calibration	1,0000multiplexer offset coefficient	1,0000multiplexer slope coefficient	1,0000fibre end	0,00T internal ref (°C)	20,27T ext. ref 1 (°C)	3,11T ext. ref 2 (°C)	3,10length (m)	temperature (°C)	Stokes	anti-Stokes-744,400	190,065	-0,026	0,029
-743,385	95,418	-0,170	0,145
-742,371	-40,427	0,150	0,058
-741,356	-12,486	-0,271	0,131
-740,342	-107,328	0,228	-0,037
-739,327	-139,460	-0,326	0,026
-738,312	278,702	0,076	-0,101
-737,298	-113,233	-0,331	0,048
-736,283	47,811	0,146	0,102
-735,269	800,000	-0,035	0,112
-734,254	-32,494	0,123	-0,051
-733,239	-131,241	-0,383	-0,037
-732,225	79,748	0,123	0,098
-731,210	583,254	0,055	0,101
-730,196	-200,000	0,000	0,045
-729,181	800,000	-0,011	0,032
-728,167	468,872	-0,069	-0,116
-727,152	-196,353	0,058	-0,000
-726,137	-14,053	-0,162	-0,077
-725,123	-70,011	-0,065	0,018
-724,108	239,325	-0,049	-0,061
-723,094	800,000	-0,046	-0,140
-722,079	-24,528	-0,158	-0,070
-721,064	546,396	-0,021	-0,038
-720,050	-51,486	-0,111	-0,038
-719,035	21,304	-0,044	-0,026
-718,021	-120,098	0,169	0,021
-717,006	111,627	-0,174	-0,156
-715,991	-64,410	-0,051	0,015
-714,977	-200,000	-0,011	-0,108
-713,962	208,600	-0,099	-0,116
-712,948	-12,170	0,036	0,018
-711,933	-200,000	0,021	-0,077
-710,918	205,863	0,008	-0,009
-709,904	-6,619	-0,065	-0,033
-708,889	170,325	-0,060	-0,064
-707,875	-94,932	-0,109	-0,022
-706,860	-194,637	0,145	-0,001
-705,845	671,369	-0,028	-0,054
-704,831	-200,000	0,030	-0,118
-703,816	-14,636	-0,108	0,051
-702,802	800,000	0,048	-0,124
-701,787	800,000	-0,049	-0,157
-700,772	141,733	-0,063	-0,062
-699,758	-200,000	-0,015	0,092
-698,743	19,599	0,066	0,039
-697,729	-58,897	0,090	-0,029
-696,714	121,968	0,037	0,034
-695,699	57,868	-0,072	0,052
-694,685	-173,192	-0,178	-0,004
-693,670	3,131	-0,121	0,065
-692,656	800,000	0,025	0,071
-691,641	-93,137	0,064	0,013
-690,627	349,085	0,069	-0,101
-689,612	-200,000	-0,022	0,128
-688,597	529,186	0,056	-0,099
-687,583	-200,000	-0,010	-0,100
-686,568	-167,860	-0,097	-0,003
-685,554	-44,394	-0,026	-0,010
-684,539	-200,000	-0,011	-0,053
-683,524	275,099	-0,077	-0,101
-682,510	96,109	-0,077	-0,066
-681,495	-118,835	-0,110	0,014
-680,481	124,034	0,057	-0,053
-679,466	708,119	-0,037	-0,073
-678,451	-200,000	-0,002	-0,090
-677,437	-200,000	-0,032	-0,171
-676,422	-13,396	-0,023	0,011
-675,408	151,525	0,048	0,048
-674,393	800,000	-0,010	0,028
-673,378	481,639	-0,053	0,090
-672,364	-43,340	-0,140	-0,052
-671,349	-76,742	-0,110	-0,028
-670,335	-54,911	0,065	-0,022
-669,320	800,000	-0,032	-0,070
-668,305	-100,916	0,059	0,011
-667,291	-200,000	-0,011	0,105
-666,276	-200,000	-0,014	-0,100
-665,262	26,990	-0,058	-0,036
-664,247	-27,950	0,096	-0,041
-663,232	-100,612	-0,087	0,016
-662,218	152,054	0,029	0,029
-661,203	-92,834	0,079	-0,016
-660,189	-141,917	0,118	-0,009
-659,174	183,316	-0,038	-0,042
-658,159	-200,000	0,012	-0,170
-657,145	-200,000	-0,025	0,098
-656,130	800,000	0,024	0,077
-655,116	659,530	0,055	0,105
-654,101	20,611	-0,118	0,071
-653,086	-200,000	-0,022	0,080
-652,072	-51,702	-0,037	0,013
-651,057	182,869	-0,040	-0,044
-650,043	67,751	-0,102	-0,077
-649,028	-65,864	0,130	-0,038
-648,014	-200,000	0,009	-0,041
-646,999	60,536	-0,127	-0,093
-645,984	-200,000	0,006	0,044
-644,970	116,932	0,109	0,099
-643,955	50,882	0,061	0,043
-642,941	-200,000	-0,011	-0,139
-641,926	190,311	-0,046	-0,052
-640,911	-80,308	0,076	0,019
-639,897	68,977	0,172	-0,131
-638,882	-200,000	-0,017	0,094
-637,868	-11,134	0,091	-0,044
-636,853	-6,704	-0,114	0,057
-635,838	169,764	-0,039	0,042
-634,824	-200,000	-0,020	0,091
-633,809	800,000	-0,005	0,017
-632,795	-12,731	0,058	-0,028
-631,780	154,587	0,048	0,049
-630,765	-200,000	-0,011	-0,076
-629,751	188,138	-0,035	-0,039
-628,736	-200,000	0,011	0,069
-627,722	517,445	0,039	0,068
-626,707	19,822	-0,138	-0,082
-625,692	118,689	-0,064	-0,059
-624,678	496,019	0,029	-0,049
-623,663	-200,000	0,019	-0,145
-622,649	-200,000	-0,010	0,064
-621,634	-200,000	0,001	-0,057
-620,619	-200,000	0,007	-0,116
-619,605	302,924	0,059	-0,081
-618,590	-111,106	0,088	-0,013
-617,576	-200,000	0,002	0,066
-616,561	287,512	-0,047	-0,064
-615,546	14,306	0,079	0,045
-614,532	660,051	-0,044	0,085
-613,517	150,425	0,095	-0,096
-612,503	178,683	-0,080	0,087
-611,488	-68,034	0,184	-0,053
-610,474	-119,465	0,119	0,015
-609,459	-200,000	0,002	-0,008
-608,444	-82,564	0,100	0,024
-607,430	135,843	-0,061	0,059
-606,415	63,027	-0,147	-0,109
-605,401	-111,012	-0,066	-0,010
-604,386	-3,839	-0,009	0,004
-603,371	52,092	-0,029	-0,020
-602,357	800,000	0,019	0,054
-601,342	-200,000	-0,015	-0,051
-600,328	448,389	-0,050	-0,082
-599,313	800,000	-0,069	-0,177
-598,298	160,601	-0,176	0,182
-597,284	-20,287	0,051	-0,023
-596,269	-200,000	-0,012	0,082
-595,255	-19,425	-0,037	-0,017
-594,240	186,625	0,028	-0,031
-593,225	-200,000	-0,035	-0,122
-592,211	800,000	-0,030	0,079
-591,196	-200,000	0,001	0,032
-590,182	265,652	-0,070	0,091
-589,167	-200,000	-0,016	0,081
-588,152	437,109	0,047	-0,076
-587,138	800,000	0,033	0,076
-586,123	220,962	0,053	-0,063
-585,109	800,000	0,018	0,048
-584,094	800,000	-0,012	-0,033
-583,079	474,584	-0,063	-0,106
-582,065	488,711	-0,046	-0,078
-581,050	-200,000	-0,012	0,090
-580,036	4,885	-0,030	0,017
-579,021	-0,592	0,020	-0,010
-578,006	-121,891	0,029	-0,003
-576,992	378,469	0,039	0,059
-575,977	-200,000	-0,039	0,146
-574,963	-9,774	-0,079	0,039
-573,948	59,925	0,062	0,045
-572,934	800,000	-0,064	0,143
-571,919	-200,000	0,010	-0,111
-570,904	-61,846	0,060	-0,018
-569,890	759,851	-0,034	-0,068
-568,875	-19,873	0,051	-0,023
-567,861	777,753	-0,062	0,126
-566,846	-200,000	0,033	0,140
-565,831	-200,000	0,013	0,044
-564,817	-200,000	-0,018	-0,068
-563,802	-90,522	-0,064	-0,014
-562,788	-91,143	-0,059	-0,012
-561,773	288,552	-0,070	0,094
-560,758	-50,750	-0,025	-0,009
-559,744	11,127	0,083	-0,047
-558,729	192,354	0,032	-0,036
-557,715	800,000	0,014	-0,034
-556,700	123,313	-0,067	-0,062
-555,685	-200,000	-0,007	-0,109
-554,671	-8,869	-0,041	-0,020
-553,656	355,342	0,097	-0,144
-552,642	-23,781	0,121	-0,053
-551,627	800,000	0,029	-0,059
-550,612	-91,683	-0,054	-0,011
-549,598	800,000	-0,014	-0,043
-548,583	-200,000	0,019	0,126
-547,569	-200,000	0,008	-0,030
-546,554	-88,377	-0,113	-0,025
-545,539	-26,748	0,037	-0,016
-544,525	-200,000	0,012	-0,117
-543,510	-106,442	0,174	-0,028
-542,496	-123,288	0,031	0,004
-541,481	161,420	-0,078	-0,081
-540,466	-48,948	-0,133	-0,047
-539,452	800,000	0,012	-0,030
-538,437	558,228	0,064	-0,115
-537,423	-81,064	0,084	0,020
-536,408	-197,700	0,115	-0,001
-535,393	-68,148	-0,171	0,049
-534,379	-200,000	-0,012	-0,221
-533,364	509,101	-0,054	-0,094
-532,350	25,897	-0,006	-0,004
-531,335	84,528	-0,061	-0,050
-530,321	-145,908	-0,097	-0,006
-529,306	-139,114	0,032	0,002
-528,291	-200,000	0,012	-0,086
-527,277	-0,626	0,067	0,035
-526,262	15,415	-0,049	-0,028
-525,248	800,000	-0,010	-0,030
-524,233	12,676	0,031	0,017
-523,218	-200,000	0,017	-0,114
-522,204	458,378	-0,035	-0,058
-521,189	-200,000	-0,006	-0,059
-520,175	290,738	-0,036	0,048
-519,160	-10,521	-0,027	-0,013
-518,145	-200,000	0,010	-0,043
-517,131	-52,761	0,047	0,016
-516,116	345,521	-0,052	0,075
-515,102	563,017	0,049	-0,088
-514,087	800,000	0,022	-0,054
-513,072	-159,786	-0,111	0,004
-512,058	76,236	0,071	-0,056
-511,043	511,029	0,021	-0,037
-510,029	135,340	-0,018	-0,017
-509,014	-25,549	0,219	-0,095
-507,999	52,871	-0,091	-0,064
-506,985	-133,518	-0,072	-0,007
-505,970	-92,897	-0,156	0,032
-504,956	310,680	-0,102	-0,142
-503,941	-63,401	0,154	0,047
-502,926	800,000	-0,035	0,099
-501,912	-200,000	0,004	0,043
-500,897	-16,030	-0,078	0,036
-499,883	-133,774	-0,032	-0,003
-498,868	262,464	-0,094	-0,120
-497,853	800,000	0,020	-0,044
-496,839	-200,000	-0,007	-0,039
-495,824	-113,138	0,077	-0,011
-494,810	-200,000	0,024	-0,104
-493,795	-74,714	-0,048	0,013
-492,781	-68,259	0,029	0,008
-491,766	114,578	-0,049	0,044
-490,751	-24,466	0,024	0,010
-489,737	205,376	-0,053	0,061
-488,722	-200,000	0,001	0,120
-487,708	-145,041	0,126	0,008
-486,693	39,557	-0,070	-0,046
-485,678	-39,478	-0,138	-0,053
-484,664	763,302	0,055	-0,110
-483,649	-200,000	-0,010	-0,081
-482,635	37,587	0,098	-0,064
-481,620	-131,905	0,052	-0,005
-480,605	800,000	0,058	-0,156
-479,591	21,079	0,038	-0,023
-478,576	-200,000	-0,008	0,072
-477,562	233,628	-0,040	0,048
-476,547	800,000	0,037	-0,119
-475,532	800,000	0,026	-0,076
-474,518	-41,891	-0,063	-0,024
-473,503	119,035	0,105	0,096
-472,489	151,082	-0,106	0,107
-471,474	-200,000	-0,008	-0,066
-470,459	-200,000	0,022	-0,095
-469,445	202,563	-0,115	0,131
-468,430	348,166	0,050	-0,073
-467,416	-58,202	-0,038	0,012
-466,401	-113,102	-0,120	-0,017
-465,386	131,909	0,105	0,100
-464,372	97,799	-0,122	0,103
-463,357	800,000	-0,017	0,047
-462,343	-200,000	-0,011	-0,089
-461,328	441,733	-0,019	0,031
-460,313	800,000	-0,053	-0,162
-459,299	204,187	0,073	0,084
-458,284	800,000	-0,032	-0,068
-457,270	-138,206	0,145	0,012
-456,255	345,193	0,051	0,074
-455,241	800,000	-0,016	0,034
-454,226	-56,606	0,028	-0,009
-453,211	-175,621	-0,041	0,001
-452,197	525,962	0,067	0,117
-451,182	800,000	0,047	0,111
-450,168	580,082	0,008	0,014
-449,153	-191,169	0,108	0,001
-448,138	126,268	0,010	0,010
-447,124	-137,147	0,108	-0,009
-446,109	600,618	0,073	0,134
-445,095	220,255	0,067	0,079
-444,080	245,344	-0,139	0,173
-443,065	-200,000	0,020	-0,089
-442,051	-67,338	-0,101	-0,029
-441,036	47,757	-0,033	0,023
-440,022	-200,000	-0,022	0,086
-439,007	215,471	0,069	0,081
-437,992	128,210	-0,067	0,062
-436,978	88,734	-0,040	0,033
-435,963	67,570	0,009	0,006
-434,949	800,000	0,020	-0,052
-433,934	140,129	-0,085	0,083
-432,919	-200,000	-0,016	-0,124
-431,905	309,805	-0,071	-0,098
-430,890	-200,000	0,041	0,159
-429,876	67,893	-0,070	0,053
-428,861	-129,481	-0,045	-0,004
-427,846	93,271	-0,085	0,071
-426,832	-200,000	0,001	0,009
-425,817	-131,613	-0,093	0,009
-424,803	284,440	-0,045	-0,060
-423,788	-190,949	0,099	-0,001
-422,773	105,321	0,090	0,078
-421,759	800,000	-0,061	0,167
-420,744	-0,583	-0,046	-0,024
-419,730	-63,107	0,109	0,033
-418,715	49,177	-0,168	-0,116
-417,701	-14,716	-0,030	-0,014
-416,686	316,754	-0,037	0,051
-415,671	-200,000	-0,007	0,055
-414,657	559,364	-0,038	0,068
-413,642	464,085	-0,071	0,117
-412,628	800,000	-0,051	-0,120
-411,613	121,610	0,081	-0,074
-410,598	800,000	-0,021	0,049
-409,584	156,838	-0,012	0,013
-408,569	800,000	0,032	0,069
-407,555	-72,646	0,145	-0,039
-406,540	800,000	0,030	-0,086
-405,525	-200,000	-0,005	-0,055
-404,511	-122,804	0,139	-0,016
-403,496	-200,000	-0,005	0,088
-402,482	55,899	-0,061	0,043
-401,467	96,463	0,120	0,101
-400,452	49,841	-0,049	0,034
-399,438	800,000	0,039	-0,087
-398,423	-200,000	-0,005	0,086
-397,409	800,000	-0,038	-0,085
-396,394	-200,000	0,033	-0,164
-395,379	-121,812	-0,042	0,005
-394,365	-14,267	0,040	0,019
-393,350	34,943	0,132	0,085
-392,336	594,889	0,052	0,095
-391,321	-200,000	0,027	-0,097
-390,306	420,947	-0,037	-0,059
-389,292	-169,548	-0,206	-0,005
-388,277	-200,000	0,019	0,138
-387,263	-200,000	0,007	0,095
-386,248	-200,000	-0,035	0,116
-385,233	379,583	0,036	0,054
-384,219	-108,113	0,211	0,033
-383,204	547,620	-0,022	0,038
-382,190	293,458	-0,019	-0,026
-381,175	-53,139	0,049	0,016
-380,160	-45,445	-0,098	0,035
-379,146	1,131	-0,008	-0,004
-378,131	-81,992	0,053	0,013
-377,117	800,000	0,041	0,119
-376,102	187,983	-0,099	-0,108
-375,088	-200,000	-0,003	0,064
-374,073	800,000	-0,028	-0,082
-373,058	800,000	-0,048	0,127
-372,044	26,664	0,075	0,046
-371,029	54,571	-0,050	0,035
-370,015	-200,000	-0,033	-0,198
-369,000	-181,532	0,100	-0,001
-367,985	213,649	-0,031	0,036
-366,971	167,375	-0,040	0,041
-365,956	238,773	-0,075	0,092
-364,942	-117,515	0,241	0,032
-363,927	250,529	-0,010	0,013
-362,912	-200,000	0,001	0,041
-361,898	106,691	-0,081	0,071
-360,883	-170,311	0,192	-0,005
-359,869	272,934	-0,061	-0,080
-358,854	193,284	-0,085	-0,094
-357,839	44,268	0,077	0,052
-356,825	-200,000	0,041	0,149
-355,810	408,535	-0,107	0,167
-354,796	-200,000	0,004	0,125
-353,781	-200,000	0,003	0,025
-352,766	-114,104	0,079	0,011
-351,752	535,337	0,024	0,043
-350,737	-149,358	0,147	0,008
-349,723	-50,696	-0,097	-0,033
-348,708	54,943	0,068	0,048
-347,693	800,000	0,018	-0,042
-346,679	267,616	0,022	-0,028
-345,664	-200,000	-0,002	-0,019
-344,650	213,486	-0,021	-0,025
-343,635	62,924	0,106	0,077
-342,620	-200,000	0,003	0,025
-341,606	-75,103	0,036	-0,009
-340,591	-6,644	0,098	-0,049
-339,577	436,984	0,076	0,121
-338,562	187,299	0,010	-0,011
-337,548	-78,409	0,086	-0,021
-336,533	-200,000	0,029	-0,118
-335,518	274,349	-0,030	-0,039
-334,504	-200,000	-0,000	0,030
-333,489	-19,821	-0,032	-0,014
-332,475	654,185	-0,041	-0,078
-331,460	23,843	-0,121	-0,073
-330,445	-200,000	0,014	-0,141
-329,431	-200,000	0,006	-0,032
-328,416	383,861	0,045	0,068
-327,402	422,941	-0,040	0,063
-326,387	800,000	-0,023	0,048
-325,372	353,016	-0,065	-0,094
-324,358	94,089	-0,101	-0,084
-323,343	-200,000	-0,006	-0,067
-322,329	-37,590	0,145	-0,056
-321,314	-188,624	0,127	0,001
-320,299	-200,000	0,005	0,047
-319,285	472,892	0,021	-0,035
-318,270	-200,000	-0,010	-0,048
-317,256	-56,542	-0,119	-0,038
-316,241	649,674	-0,045	-0,084
-315,226	-70,244	0,052	0,014
-314,212	229,432	-0,067	-0,080
-313,197	-0,583	0,009	0,004
-312,183	117,914	-0,065	0,059
-311,168	-200,000	-0,011	-0,066
-310,153	154,041	0,026	-0,026
-309,139	34,392	0,060	0,038
-308,124	-200,000	-0,014	0,103
-307,110	-110,380	0,045	0,007
-306,095	416,848	-0,058	0,091
-305,080	800,000	0,037	0,106
-304,066	-200,000	-0,017	0,114
-303,051	235,307	0,048	0,058
-302,037	-200,000	0,011	0,060
-301,022	-6,010	0,103	-0,052
-300,008	-57,935	-0,044	0,014
-298,993	-200,000	-0,003	-0,014
-297,978	-109,952	0,118	-0,018
-296,964	33,745	0,037	-0,024
-295,949	276,461	-0,039	-0,051
-294,935	80,143	-0,068	0,054
-293,920	-15,369	0,079	-0,037
-292,905	-200,000	-0,087	0,000
-291,891	710,419	0,075	0,145
-290,876	58,596	0,022	0,015
-289,862	-37,138	-0,054	-0,021
-288,847	255,024	0,017	0,021
-287,832	-92,242	-0,020	-0,004
-286,818	33,389	-0,089	-0,056
-285,803	237,416	0,086	-0,105
-284,789	-62,060	0,044	-0,013
-283,774	-184,690	-0,058	0,001
-282,759	68,676	-0,011	0,008
-281,745	800,000	0,030	-0,083
-280,730	-200,000	0,010	-0,044
-279,716	800,000	0,011	0,026
-278,701	-200,000	0,026	0,140
-277,686	-56,907	0,132	0,042
-276,672	-11,627	-0,143	0,068
-275,657	-5,801	-0,124	-0,062
-274,643	-200,000	0,013	-0,123
-273,628	-138,908	-0,078	-0,006
-272,613	-150,130	-0,123	0,007
-271,599	-45,137	0,076	0,028
-270,584	171,941	0,024	0,025
-269,570	800,000	0,062	0,194
-268,555	564,807	-0,068	0,121
-267,540	74,381	-0,088	0,068
-266,526	-200,000	0,018	-0,104
-265,511	-56,221	0,081	-0,026
-264,497	-130,162	0,073	0,007
-263,482	18,444	-0,091	-0,053
-262,467	-10,189	0,209	-0,101
-261,453	-200,000	-0,008	-0,061
-260,438	330,567	0,063	-0,089
-259,424	-108,866	-0,121	-0,019
-258,409	-58,982	0,124	0,039
-257,395	-200,000	-0,018	0,111
-256,380	-17,288	-0,112	0,052
-255,365	-1,500	0,052	-0,027
-254,351	36,802	0,058	0,037
-253,336	-200,000	-0,022	-0,123
-252,322	-154,967	0,038	-0,002
-251,307	114,595	0,041	-0,037
-250,292	-114,412	0,194	0,027
-249,278	-91,831	-0,017	0,003
-248,263	-200,000	0,010	0,051
-247,249	-200,000	-0,014	0,088
-246,234	-151,920	0,139	-0,007
-245,219	-93,399	0,243	0,049
-244,205	-66,902	-0,075	-0,021
-243,190	-105,319	0,064	0,011
-242,176	532,922	0,072	0,124
-241,161	-200,000	-0,023	0,103
-240,146	-68,817	-0,046	-0,013
-239,132	800,000	0,024	0,060
-238,117	647,768	0,051	0,096
-237,103	-200,000	0,004	-0,014
-236,088	-26,701	0,046	0,020
-235,073	113,326	-0,053	0,047
-234,059	-88,386	0,059	-0,013
-233,044	308,053	0,073	0,099
-232,030	-200,000	-0,002	-0,056
-231,015	800,000	0,021	0,060
-230,000	-13,367	-0,119	0,056
-228,986	-114,679	-0,085	0,012
-227,971	-142,348	-0,028	-0,002
-226,957	-200,000	0,001	0,039
-225,942	-38,603	-0,017	-0,007
-224,927	7,484	-0,122	-0,067
-223,913	5,767	-0,143	0,077
-222,898	-200,000	0,028	0,108
-221,884	-189,012	-0,055	0,000
-220,869	-100,594	-0,070	-0,013
-219,855	103,354	0,041	0,035
-218,840	-63,593	-0,041	0,012
-217,825	451,541	0,068	-0,110
-216,811	-165,613	0,069	-0,002
-215,796	162,006	0,012	0,012
-214,782	400,049	0,051	-0,079
-213,767	-200,000	-0,006	0,058
-212,752	-89,674	-0,111	0,023
-211,738	-45,136	-0,096	-0,035
-210,723	-200,000	-0,052	0,171
-209,709	-16,757	-0,244	-0,112
-208,694	495,060	0,052	-0,087
-207,679	152,257	-0,090	-0,090
-206,665	-73,136	0,110	-0,029
-205,650	98,130	0,086	-0,072
-204,636	240,614	0,032	-0,039
-203,621	-52,837	-0,105	-0,035
-202,606	800,000	-0,030	-0,071
-201,592	-104,387	-0,069	-0,012
-200,577	800,000	-0,046	-0,126
-199,563	-41,801	0,150	-0,056
-198,548	123,826	-0,138	0,126
-197,533	535,031	0,050	0,087
-196,519	416,060	-0,042	0,066
-195,504	-200,000	-0,001	0,090
-194,490	-200,000	0,004	0,016
-193,475	-102,289	-0,076	-0,013
-192,460	442,662	0,090	-0,145
-191,446	-200,000	-0,019	-0,065
-190,431	141,376	0,051	0,049
-189,417	231,131	-0,143	0,170
-188,402	427,522	0,043	-0,068
-187,387	-76,292	-0,052	0,013
-186,373	410,838	0,037	-0,057
-185,358	-76,557	-0,182	0,046
-184,344	-77,337	0,139	-0,035
-183,329	334,604	0,051	-0,072
-182,315	223,964	-0,043	-0,050
-181,300	-200,000	-0,013	0,090
-180,285	122,426	0,023	-0,021
-179,271	144,457	0,069	-0,067
-178,256	-15,520	-0,030	-0,014
-177,242	196,710	0,074	0,082
-176,227	673,503	-0,051	0,097
-175,212	94,895	0,022	-0,018
-174,198	-150,609	-0,087	-0,005
-173,183	545,928	-0,063	0,110
-172,169	800,000	-0,072	-0,185
-171,154	93,923	-0,077	0,064
-170,139	67,594	0,086	0,064
-169,125	-35,175	0,113	-0,045
-168,110	45,213	-0,044	-0,029
-167,096	-200,000	0,002	-0,041
-166,081	-103,214	-0,049	-0,008
-165,066	-200,000	-0,010	-0,040
-164,052	-102,399	0,074	0,013
-163,037	-143,646	-0,055	-0,004
-162,023	601,752	0,047	-0,085
-161,008	14,370	-0,022	0,012
-159,993	-200,000	-0,007	-0,071
-158,979	80,537	-0,063	-0,049
-157,964	-200,000	-0,026	-0,085
-156,950	-161,662	-0,138	-0,005
-155,935	-200,000	0,001	0,116
-154,920	-170,253	0,106	-0,003
-153,906	-24,015	-0,074	0,032
-152,891	339,936	0,011	0,016
-151,877	-200,000	-0,013	-0,074
-150,862	800,000	-0,043	0,122
-149,847	4,752	-0,082	0,044
-148,833	739,474	-0,037	0,072
-147,818	-175,214	0,127	0,002
-146,804	-200,000	0,010	0,150
-145,789	-200,000	0,007	0,030
-144,775	114,015	-0,049	-0,043
-143,760	42,145	-0,181	-0,119
-142,745	38,510	-0,112	-0,072
-141,731	-200,000	-0,006	-0,037
-140,716	4,005	0,173	0,092
-139,702	-200,000	0,011	0,088
-138,687	201,133	-0,082	0,092
-137,672	-200,000	-0,001	0,019
-136,658	380,686	-0,090	-0,134
-135,643	221,967	0,119	-0,139
-134,629	-200,000	0,031	-0,139
-133,614	230,799	-0,022	0,026
-132,599	800,000	0,053	-0,142
-131,585	-200,000	0,002	-0,059
-130,570	-37,408	0,074	-0,029
-129,556	800,000	0,006	-0,016
-128,541	186,219	-0,032	-0,035
-127,526	206,277	0,069	0,079
-126,512	-39,671	0,064	-0,024
-125,497	-200,000	0,011	0,060
-124,483	-200,000	-0,022	0,087
-123,468	-72,834	0,133	0,035
-122,453	-200,000	-0,010	-0,081
-121,439	-169,133	-0,114	-0,003
-120,424	-97,101	-0,177	-0,033
