DTS Sentinel unit serial number:	SN410029Multiplexer serial number:	ORYXHardware model number:	OX2-SRSoftware version number:	ORYX F/W v4,00 Oryx Data Collector v3.7.2.0data status	okinstallation	B6 Nyhavnadifferential loss correction	single-endedforward channel	channel 2reverse channel	N/Adate	2023/12/09time	01:05:08forward acquisition time	300,00reverse acquisition time	0,00gamma	499,1914k internal	0,3156k external	0,3156temperature offset calibration	1,0000default loss term (dB/km)	0,3820temperature slope calibration	1,0000multiplexer offset coefficient	1,0000multiplexer slope coefficient	1,0000fibre end	0,00T internal ref (°C)	15,69T ext. ref 1 (°C)	-0,62T ext. ref 2 (°C)	-0,62length (m)	temperature (°C)	Stokes	anti-Stokes-744,400	39,896	0,079	-0,052
-743,385	-90,734	-0,324	0,068
-742,371	516,592	0,098	0,170
-741,356	-54,763	-0,179	0,059
-740,342	800,000	0,060	0,138
-739,327	-13,706	-0,205	0,098
-738,312	21,494	0,145	0,087
-737,298	-124,346	-0,320	-0,036
-736,283	71,437	0,230	0,176
-735,269	-137,655	-0,348	0,028
-734,254	-200,000	0,021	0,124
-733,239	3,393	-0,436	-0,233
-732,225	-25,572	0,084	0,036
-731,210	-200,000	0,014	0,112
-730,196	19,884	-0,023	-0,014
-729,181	-200,000	-0,029	-0,186
-728,167	800,000	0,042	-0,100
-727,152	151,045	0,022	-0,022
-726,137	-71,461	0,068	-0,019
-725,123	-200,000	0,003	0,057
-724,108	30,601	-0,131	0,082
-723,094	-111,144	0,018	0,003
-722,079	-176,832	-0,222	-0,004
-721,064	800,000	0,040	0,101
-720,050	800,000	0,056	0,144
-719,035	-200,000	-0,029	0,130
-718,021	-67,655	-0,126	-0,036
-717,006	131,106	-0,084	0,080
-715,991	-176,107	-0,185	-0,004
-714,977	-8,478	-0,117	-0,058
-713,962	-68,921	0,082	0,023
-712,948	-21,946	-0,135	0,060
-711,933	-137,495	-0,026	0,002
-710,918	85,946	0,088	0,072
-709,904	-200,000	-0,012	-0,079
-708,889	-200,000	-0,003	-0,076
-707,875	-200,000	0,025	-0,084
-706,860	-165,188	0,029	-0,001
-705,845	-200,000	-0,010	-0,055
-704,831	-200,000	-0,039	0,130
-703,816	167,948	-0,046	-0,049
-702,802	800,000	-0,074	-0,166
-701,787	134,759	-0,104	-0,100
-700,772	58,696	0,065	-0,047
-699,758	171,245	-0,088	0,093
-698,743	800,000	0,047	0,109
-697,729	-3,869	-0,044	-0,022
-696,714	-15,059	0,036	0,017
-695,699	-200,000	0,009	-0,115
-694,685	-200,000	0,016	-0,062
-693,670	421,663	0,041	-0,066
-692,656	-200,000	-0,029	-0,114
-691,641	254,452	0,048	-0,061
-690,627	105,508	-0,060	-0,052
-689,612	-105,208	0,050	0,008
-688,597	3,620	-0,021	-0,011
-687,583	141,742	-0,143	-0,139
-686,568	88,277	-0,116	-0,095
-685,554	-200,000	-0,004	-0,109
-684,539	102,851	0,063	0,055
-683,524	529,852	0,052	-0,091
-682,510	800,000	-0,035	0,082
-681,495	245,889	0,055	-0,069
-680,481	-139,927	-0,142	-0,011
-679,466	21,861	0,076	-0,046
-678,451	50,851	-0,128	-0,089
-677,437	-87,847	-0,117	-0,026
-676,422	338,172	0,093	0,133
-675,408	254,339	0,064	0,080
-674,393	-200,000	-0,019	0,169
-673,378	-70,206	0,102	-0,028
-672,364	-65,694	-0,074	0,022
-671,349	-200,000	-0,023	-0,128
-670,335	-144,900	0,156	0,010
-669,320	800,000	-0,030	0,071
-668,305	800,000	-0,019	0,047
-667,291	147,093	0,041	-0,041
-666,276	800,000	-0,019	-0,051
-665,262	800,000	-0,076	-0,200
-664,247	-122,659	-0,144	-0,017
-663,232	-200,000	0,002	-0,055
-662,218	3,856	-0,057	-0,031
-661,203	224,032	0,050	0,060
-660,189	-135,134	-0,103	-0,009
-659,174	-200,000	0,049	-0,284
-658,159	-165,581	-0,095	0,003
-657,145	54,122	-0,057	0,041
-656,130	-43,505	-0,074	0,027
-655,116	-200,000	-0,021	0,093
-654,101	-126,234	0,096	-0,010
-653,086	38,352	-0,168	0,110
-652,072	-116,073	-0,092	0,012
-651,057	345,730	0,092	-0,134
-650,043	440,433	-0,060	-0,096
-649,028	676,269	0,049	-0,094
-648,014	-149,033	0,085	0,005
-646,999	-200,000	-0,027	-0,106
-645,984	415,401	-0,065	-0,103
-644,970	800,000	0,005	0,014
-643,955	800,000	-0,022	-0,059
-642,941	-200,000	-0,028	-0,146
-641,926	800,000	-0,032	-0,072
-640,911	-122,648	0,205	-0,024
-639,897	15,418	-0,123	-0,071
-638,882	761,629	-0,056	0,111
-637,868	-200,000	-0,023	0,135
-636,853	400,968	-0,017	-0,026
-635,838	-200,000	-0,001	-0,102
-634,824	53,106	-0,075	-0,053
-633,809	648,400	0,039	0,074
-632,795	187,383	-0,010	-0,011
-631,780	779,713	-0,083	-0,167
-630,765	295,959	0,010	-0,013
-629,751	211,047	-0,017	-0,019
-628,736	42,022	-0,064	-0,043
-627,722	-169,062	0,236	0,006
-626,707	129,456	-0,037	0,035
-625,692	-200,000	-0,016	-0,076
-624,678	439,652	0,080	-0,129
-623,663	-200,000	0,006	0,091
-622,649	306,391	0,029	0,040
-621,634	-4,313	-0,146	-0,074
-620,619	114,944	-0,051	-0,045
-619,605	-95,925	0,135	-0,026
-618,590	-200,000	0,010	0,109
-617,576	-83,523	-0,070	0,016
-616,561	119,566	-0,099	-0,090
-615,546	-77,719	0,098	-0,025
-614,532	-30,204	-0,081	-0,033
-613,517	81,517	-0,058	-0,046
-612,503	-200,000	-0,024	0,087
-611,488	-110,934	0,037	-0,006
-610,474	-87,651	-0,155	0,034
-609,459	296,838	-0,033	-0,044
-608,444	800,000	-0,044	0,094
-607,430	-200,000	-0,030	-0,101
-606,415	800,000	0,004	0,012
-605,401	-156,029	0,138	0,006
-604,386	-69,544	-0,262	0,073
-603,371	35,849	0,029	0,018
-602,357	-111,171	-0,093	-0,014
-601,342	6,819	-0,020	-0,011
-600,328	-104,970	-0,098	-0,016
-599,313	800,000	0,018	0,039
-598,298	561,049	0,009	-0,017
-597,284	800,000	0,039	-0,080
-596,269	-146,598	0,103	-0,006
-595,255	102,952	0,074	0,063
-594,240	-5,581	0,077	-0,039
-593,225	458,274	-0,046	-0,075
-592,211	-25,622	0,050	0,022
-591,196	-21,384	-0,103	-0,046
-590,182	-107,468	0,093	-0,015
-589,167	-49,905	0,084	0,029
-588,152	-23,268	0,049	0,022
-587,138	-200,000	0,010	0,055
-586,123	-90,108	-0,056	-0,012
-585,109	55,645	-0,111	-0,079
-584,094	-95,807	-0,048	0,009
-583,079	10,259	0,098	-0,055
-582,065	-200,000	-0,007	-0,079
-581,050	-200,000	-0,005	-0,072
-580,036	197,775	-0,045	-0,051
-579,021	77,802	-0,149	-0,116
-578,006	133,997	-0,156	-0,149
-576,992	-200,000	-0,020	-0,103
-575,977	-200,000	-0,016	-0,141
-574,963	269,132	-0,074	-0,095
-573,948	-104,897	-0,125	0,021
-572,934	78,411	-0,058	-0,046
-571,919	800,000	0,038	-0,102
-570,904	-200,000	0,017	-0,086
-569,890	78,329	-0,029	0,023
-568,875	373,779	0,063	-0,094
-567,861	-200,000	-0,004	0,098
-566,846	52,864	0,020	-0,014
-565,831	-200,000	-0,002	0,095
-564,817	15,882	0,090	-0,052
-563,802	745,650	-0,068	-0,134
-562,788	406,597	-0,029	0,044
-561,773	-59,722	-0,028	-0,009
-560,758	10,552	0,140	-0,078
-559,744	69,910	0,076	-0,057
-558,729	-68,122	-0,058	-0,016
-557,715	800,000	-0,068	-0,154
-556,700	-200,000	-0,031	-0,141
-555,685	-6,458	-0,135	-0,067
-554,671	-115,677	0,079	0,011
-553,656	489,372	-0,044	0,074
-552,642	630,044	-0,021	0,039
-551,627	66,107	-0,098	0,073
-550,612	49,529	-0,042	0,029
-549,598	-52,825	0,015	0,005
-548,583	-109,045	0,186	-0,029
-547,569	219,135	-0,069	-0,081
-546,554	225,936	0,043	0,051
-545,539	-200,000	-0,031	0,115
-544,525	800,000	0,016	-0,039
-543,510	372,961	0,043	-0,064
-542,496	531,230	0,019	-0,032
-541,481	183,788	-0,064	0,070
-540,466	-5,891	0,107	0,054
-539,452	-60,685	-0,123	0,038
-538,437	-34,204	0,043	0,017
-537,423	194,161	0,062	-0,069
-536,408	234,235	0,060	0,072
-535,393	-200,000	-0,008	-0,089
-534,379	-200,000	0,012	-0,072
-533,364	-180,100	0,124	0,002
-532,350	-38,049	0,047	-0,018
-531,335	-109,108	0,198	0,030
-530,321	122,370	-0,046	-0,042
-529,306	800,000	0,018	0,053
-528,291	-200,000	-0,013	-0,079
-527,277	800,000	0,034	0,074
-526,262	-30,691	0,043	0,018
-525,248	-200,000	-0,023	-0,076
-524,233	366,586	-0,066	0,097
-523,218	-124,870	0,069	-0,008
-522,204	-70,911	-0,058	0,016
-521,189	800,000	-0,023	-0,051
-520,175	-26,871	-0,063	-0,027
-519,160	55,592	0,035	-0,024
-518,145	138,933	0,040	-0,038
-517,131	34,330	0,055	-0,035
-516,116	-43,729	-0,087	0,032
-515,102	335,844	0,031	0,045
-514,087	-134,524	0,254	-0,022
-513,072	216,186	0,051	0,060
-512,058	800,000	-0,058	0,138
-511,043	-103,679	-0,053	-0,009
-510,029	48,692	0,020	0,014
-509,014	-200,000	-0,007	0,051
-507,999	-200,000	-0,004	0,143
-506,985	-200,000	-0,013	-0,069
-505,970	213,758	-0,131	-0,152
-504,956	-54,622	-0,182	-0,060
-503,941	-73,088	-0,028	0,008
-502,926	794,814	0,083	-0,168
-501,912	258,258	0,010	0,012
-500,897	108,087	0,069	-0,060
-499,883	-125,985	-0,170	0,018
-498,868	-200,000	-0,025	-0,091
-497,853	800,000	0,015	-0,031
-496,839	-200,000	-0,015	0,084
-495,824	579,365	0,085	0,153
-494,810	107,694	0,087	0,076
-493,795	-10,226	-0,013	0,006
-492,781	312,478	0,062	0,085
-491,766	-28,038	-0,139	-0,059
-490,751	-174,072	0,075	-0,002
-489,737	800,000	0,037	0,080
-488,722	-200,000	-0,023	0,083
-487,708	339,822	0,110	0,157
-486,693	-155,301	-0,198	-0,009
-485,678	800,000	-0,028	0,083
-484,664	-93,246	-0,107	-0,021
-483,649	800,000	-0,038	-0,114
-482,635	-200,000	0,016	-0,056
-481,620	-200,000	-0,008	-0,060
-480,605	-200,000	0,005	0,090
-479,591	-200,000	-0,023	0,181
-478,576	54,604	0,081	0,057
-477,562	-200,000	0,039	0,144
-476,547	-35,041	-0,100	0,040
-475,532	95,952	0,007	0,006
-474,518	800,000	-0,014	0,032
-473,503	-200,000	-0,008	0,039
-472,489	-112,917	0,079	0,011
-471,474	113,062	-0,035	0,031
-470,459	-200,000	-0,005	-0,070
-469,445	-53,925	0,042	0,014
-468,430	167,152	-0,079	-0,082
-467,416	-200,000	0,036	0,164
-466,401	354,307	-0,118	0,171
-465,386	-41,350	0,046	-0,017
-464,372	-35,352	-0,059	0,023
-463,357	-200,000	0,012	-0,095
-462,343	-200,000	0,015	-0,085
-461,328	-200,000	-0,005	-0,075
-460,313	293,664	-0,026	-0,035
-459,299	59,107	0,049	0,035
-458,284	-200,000	0,011	-0,115
-457,270	-200,000	0,017	0,135
-456,255	196,708	-0,070	0,078
-455,241	-29,173	-0,079	0,033
-454,226	-148,652	-0,040	0,002
-453,211	610,722	0,074	-0,136
-452,197	78,474	0,116	0,090
-451,182	-200,000	0,025	0,086
-450,168	-120,171	0,046	0,006
-449,153	207,881	0,047	0,053
-448,138	-96,917	0,162	-0,031
-447,124	800,000	-0,050	0,125
-446,109	284,330	-0,051	0,067
-445,095	113,917	-0,021	-0,018
-444,080	153,880	0,018	0,018
-443,065	217,857	0,075	0,088
-442,051	-140,486	0,087	0,007
-441,036	-77,333	-0,121	-0,030
-440,022	361,436	0,028	-0,042
-439,007	162,389	-0,029	-0,030
-437,992	-200,000	0,048	0,204
-436,978	510,565	0,038	0,065
-435,963	-200,000	0,010	0,054
-434,949	-57,399	-0,035	-0,011
-433,934	380,172	-0,028	-0,042
-432,919	-79,029	-0,041	-0,010
-431,905	162,569	-0,037	-0,038
-430,890	102,006	-0,052	0,044
-429,876	-28,216	0,022	0,009
-428,861	800,000	-0,014	-0,037
-427,846	-20,996	0,118	-0,052
-426,832	-113,123	-0,123	-0,018
-425,817	92,201	-0,031	0,026
-424,803	-159,087	-0,049	-0,002
-423,788	800,000	0,031	0,095
-422,773	-200,000	-0,007	0,081
-421,759	47,914	-0,034	0,023
-420,744	51,109	0,020	-0,014
-419,730	-32,133	-0,104	-0,042
-418,715	-168,773	-0,066	0,002
-417,701	-200,000	0,009	-0,032
-416,686	-200,000	-0,004	0,032
-415,671	800,000	0,020	0,050
-414,657	474,368	-0,054	0,089
-413,642	800,000	0,034	0,086
-412,628	-94,274	-0,185	-0,036
-411,613	-200,000	0,005	-0,031
-410,598	232,260	0,011	-0,014
-409,584	149,164	-0,138	0,137
-408,569	-28,523	0,074	-0,031
-407,555	-200,000	-0,003	0,065
-406,540	-200,000	0,001	0,005
-405,525	800,000	0,023	-0,057
-404,511	800,000	-0,040	-0,102
-403,496	372,570	-0,043	0,063
-402,482	266,965	0,053	0,068
-401,467	149,888	0,069	0,068
-400,452	740,268	0,024	0,047
-399,438	-200,000	0,018	-0,134
-398,423	16,132	-0,037	0,021
-397,409	800,000	0,049	-0,107
-396,394	669,905	-0,020	-0,038
-395,379	800,000	-0,039	-0,110
-394,365	-200,000	-0,012	0,045
-393,350	400,310	0,019	-0,029
-392,336	800,000	-0,004	0,011
-391,321	34,585	-0,038	0,024
-390,306	-64,944	-0,082	-0,024
-389,292	144,055	0,044	0,043
-388,277	-124,857	-0,094	-0,010
-387,263	-200,000	0,010	-0,095
-386,248	-200,000	0,019	0,204
-385,233	-200,000	-0,006	0,061
-384,219	-148,910	0,046	-0,003
-383,204	-200,000	-0,003	-0,103
-382,190	-103,536	-0,061	-0,010
-381,175	254,331	0,025	0,031
-380,160	-113,463	0,042	0,006
-379,146	478,313	0,040	0,066
-378,131	102,686	0,089	0,076
-377,117	-9,174	-0,093	0,045
-376,102	-22,115	0,024	-0,011
-375,088	800,000	0,024	0,074
-374,073	-200,000	0,050	0,182
-373,058	-200,000	0,023	-0,077
-372,044	223,325	0,052	0,061
-371,029	-200,000	0,000	-0,028
-370,015	-58,881	0,100	0,031
-369,000	800,000	-0,020	0,048
-367,985	-122,465	-0,128	0,015
-366,971	458,239	-0,018	-0,029
-365,956	557,281	0,065	-0,114
-364,942	675,097	0,028	0,054
-363,927	371,979	0,023	0,034
-362,912	-200,000	-0,003	0,101
-361,898	-200,000	0,013	-0,078
-360,883	800,000	0,021	0,058
-359,869	-200,000	-0,051	-0,000
-358,854	478,282	-0,050	0,083
-357,839	-118,368	0,054	-0,007
-356,825	800,000	0,039	-0,083
-355,810	13,635	-0,114	0,064
-354,796	579,504	-0,061	0,108
-353,781	-87,535	-0,108	-0,023
-352,766	49,938	-0,197	0,135
-351,752	472,157	-0,054	0,088
-350,737	68,794	0,014	0,010
-349,723	10,322	-0,055	-0,030
-348,708	56,806	0,014	-0,010
-347,693	-67,495	-0,053	-0,015
-346,679	164,996	-0,119	-0,122
-345,664	48,354	-0,048	-0,032
-344,650	16,462	-0,015	-0,009
-343,635	-116,591	-0,110	-0,015
-342,620	354,776	0,031	-0,045
-341,606	-193,792	-0,064	0,000
-340,591	-72,610	0,109	-0,029
-339,577	-200,000	-0,018	-0,072
-338,562	163,392	0,041	-0,042
-337,548	405,949	0,043	0,066
-336,533	129,363	0,115	0,106
-335,518	-33,825	0,197	0,078
-334,504	77,883	-0,039	-0,030
-333,489	-200,000	-0,001	-0,104
-332,475	110,960	-0,103	0,090
-331,460	-200,000	0,019	0,119
-330,445	20,330	0,103	0,060
-329,431	-5,298	-0,040	0,020
-328,416	-72,436	-0,079	0,021
-327,402	-200,000	0,006	-0,036
-326,387	-49,800	0,035	-0,012
-325,372	211,818	-0,032	-0,037
-324,358	-120,376	0,123	-0,015
-323,343	301,430	0,018	0,024
-322,329	640,328	0,036	-0,067
-321,314	-20,781	0,093	0,041
-320,299	-200,000	-0,002	-0,082
-319,285	-173,077	0,106	-0,002
-318,270	142,189	0,061	-0,058
-317,256	-200,000	-0,025	0,183
-316,241	-105,648	0,035	0,006
-315,226	-123,307	0,045	-0,005
-314,212	-64,808	0,129	-0,038
-313,197	-200,000	0,058	0,205
-312,183	-41,313	0,097	-0,036
-311,168	-200,000	-0,031	0,177
-310,153	-95,882	0,032	0,006
-309,139	-37,527	0,166	0,064
-308,124	-200,000	-0,021	0,139
-307,110	-144,403	0,069	-0,005
-306,095	-81,282	-0,090	0,021
-305,080	2,764	0,082	0,043
-304,066	800,000	-0,015	-0,044
-303,051	-200,000	0,002	-0,131
-302,037	87,185	0,047	-0,038
-301,022	91,297	0,051	0,042
-300,008	-62,196	0,088	-0,026
-298,993	354,075	0,040	0,058
-297,978	0,031	0,049	0,025
-296,964	560,728	0,022	0,039
-295,949	115,987	0,074	0,065
-294,935	129,620	-0,088	0,081
-293,920	504,999	0,034	0,057
-292,905	-26,189	0,223	-0,095
-291,891	-89,996	-0,028	-0,006
-290,876	-200,000	0,019	0,113
-289,862	-171,833	-0,067	0,002
-288,847	-121,845	-0,110	-0,013
-287,832	385,160	0,048	-0,072
-286,818	-162,117	-0,117	0,004
-285,803	359,171	0,010	0,014
-284,789	24,196	0,090	0,054
-283,774	800,000	0,034	0,089
-282,759	259,458	0,055	0,068
-281,745	3,975	0,072	0,038
-280,730	800,000	0,018	-0,056
-279,716	-114,146	0,087	0,012
-278,701	-44,741	0,089	-0,032
-277,686	-200,000	-0,005	-0,070
-276,672	-64,429	-0,086	0,025
-275,657	800,000	0,014	0,031
-274,643	-102,502	-0,154	0,026
-273,628	-101,494	0,060	-0,010
-272,613	41,316	-0,030	-0,020
-271,599	154,075	-0,071	-0,071
-270,584	314,400	-0,027	0,038
-269,570	800,000	0,049	0,107
-268,555	-69,376	0,055	0,015
-267,540	43,783	-0,080	0,053
-266,526	1,788	-0,202	-0,105
-265,511	-98,353	0,121	0,022
-264,497	-3,537	0,150	-0,075
-263,482	297,082	0,072	-0,096
-262,467	37,747	0,016	-0,010
-261,453	-29,468	0,092	0,038
-260,438	-200,000	0,015	-0,106
-259,424	101,689	-0,137	0,116
-258,409	-84,679	0,028	0,006
-257,395	-200,000	0,005	0,088
-256,380	-200,000	-0,018	-0,156
-255,365	195,518	0,073	-0,080
-254,351	-200,000	-0,011	0,039
-253,336	800,000	0,040	-0,082
-252,322	148,529	-0,082	0,080
-251,307	112,725	0,096	-0,084
-250,292	248,170	-0,019	0,024
-249,278	-107,278	0,051	-0,008
-248,263	-86,641	0,090	-0,020
-247,249	253,636	0,068	0,084
-246,234	200,587	-0,074	0,083
-245,219	27,384	0,022	-0,013
-244,205	-200,000	-0,031	-0,122
-243,190	-200,000	0,009	0,065
-242,176	194,637	-0,008	0,009
-241,161	800,000	0,046	0,134
-240,146	-42,561	-0,085	0,031
-239,132	-200,000	0,007	0,046
-238,117	-143,995	-0,120	0,008
-237,103	170,168	-0,057	0,059
-236,088	-11,677	-0,117	-0,056
-235,073	125,415	0,096	0,088
-234,059	81,710	0,044	-0,035
-233,044	-200,000	0,008	0,102
-232,030	-200,000	-0,003	-0,016
-231,015	77,872	-0,067	0,052
-230,000	-123,062	-0,087	-0,010
-228,986	259,044	-0,082	-0,102
-227,971	800,000	-0,064	0,132
-226,957	-106,554	-0,065	-0,010
-225,942	-65,308	0,228	0,066
-224,927	87,328	-0,060	-0,048
-223,913	-200,000	-0,001	0,063
-222,898	279,978	-0,098	-0,127
-221,884	-200,000	-0,043	-0,140
-220,869	800,000	-0,020	0,045
-219,855	15,438	-0,095	-0,054
-218,840	296,137	-0,141	0,187
-217,825	-108,207	-0,018	-0,003
-216,811	-200,000	-0,002	0,048
-215,796	70,783	-0,077	-0,058
-214,782	206,120	-0,034	-0,039
-213,767	173,645	0,044	0,046
-212,752	68,267	0,050	-0,037
-211,738	800,000	-0,024	-0,054
-210,723	800,000	0,034	0,071
-209,709	67,038	0,091	0,067
-208,694	-56,786	0,162	0,051
-207,679	-64,615	-0,146	0,042
-206,665	-87,229	0,154	-0,034
-205,650	800,000	0,038	-0,101
-204,636	63,844	0,059	0,043
-203,621	-46,919	0,180	0,063
-202,606	189,693	-0,024	-0,026
-201,592	-67,181	0,107	-0,030
-200,577	44,832	-0,044	0,029
-199,563	-200,000	0,037	-0,130
-198,548	800,000	0,032	0,065
-197,533	-122,755	0,112	-0,013
-196,519	256,762	-0,073	0,091
-195,504	-37,712	-0,047	-0,018
-194,490	-200,000	-0,042	-0,169
-193,475	800,000	0,014	0,033
-192,460	298,010	-0,030	-0,040
-191,446	-116,443	0,076	0,010
-190,431	508,406	0,027	0,046
-189,417	-8,085	0,116	-0,056
-188,402	800,000	-0,019	-0,039
-187,387	-200,000	-0,002	-0,076
-186,373	291,222	-0,115	-0,151
-185,358	-24,186	-0,090	0,039
-184,344	2,499	0,045	0,023
-183,329	84,519	-0,068	-0,054
-182,315	800,000	0,024	-0,068
-181,300	-200,000	0,001	-0,106
-180,285	-200,000	-0,012	0,059
-179,271	-104,629	-0,103	0,017
-178,256	138,986	-0,036	-0,034
-177,242	-86,561	0,112	0,025
-176,227	35,320	0,116	-0,073
-175,212	800,000	0,026	-0,063
-174,198	-81,499	-0,158	-0,037
-173,183	1,515	0,050	-0,026
-172,169	681,516	-0,060	-0,114
-171,154	-200,000	-0,011	0,076
-170,139	294,325	-0,023	-0,031
-169,125	-41,030	-0,052	0,019
-168,110	-41,364	0,167	0,062
-167,096	800,000	-0,010	0,021
-166,081	-83,314	-0,037	-0,009
-165,066	-8,277	-0,149	-0,072
-164,052	-49,080	0,152	-0,052
-163,037	-74,764	0,077	0,020
-162,023	1,930	0,100	0,052
-161,008	-200,000	-0,004	-0,069
-159,993	800,000	0,020	-0,055
-158,979	-200,000	-0,023	-0,160
-157,964	-200,000	0,005	0,043
-156,950	800,000	-0,028	-0,087
-155,935	-200,000	-0,012	-0,081
-154,920	-142,471	0,064	0,004
-153,906	-79,227	-0,179	-0,043
-152,891	178,642	0,011	-0,012
-151,877	-200,000	-0,006	-0,045
-150,862	177,391	-0,007	0,007
-149,847	-61,960	0,090	-0,027
-148,833	77,658	0,070	-0,053
-147,818	-58,079	0,035	-0,011
-146,804	-76,728	-0,132	0,033
-145,789	-200,000	0,025	0,084
-144,775	73,883	-0,116	-0,087
-143,760	-200,000	0,110	-0,000
-142,745	689,577	-0,029	-0,056
-141,731	-39,538	0,099	-0,037
-140,716	76,480	0,072	0,055
-139,702	78,904	0,023	0,018
-138,687	221,046	-0,077	-0,089
-137,672	6,352	-0,028	0,015
-136,658	-73,652	-0,092	0,024
-135,643	-29,739	-0,158	-0,065
-134,629	333,520	-0,120	-0,167
-133,614	-80,899	0,068	0,016
-132,599	-14,457	-0,088	-0,041
-131,585	-78,546	-0,115	-0,028
-130,570	234,066	0,018	-0,021
-129,556	-200,000	-0,022	-0,078
-128,541	740,983	-0,051	0,100
-127,526	5,752	-0,027	-0,014
-126,512	-200,000	-0,022	0,146
-125,497	-200,000	-0,012	-0,065
-124,483	38,464	0,058	0,037
-123,468	341,232	0,139	0,195
-122,453	800,000	-0,033	-0,066
-121,439	-200,000	-0,010	-0,182
-120,424	279,113	-0,065	-0,084
-119,410	-200,000	0,014	0,101
