DTS Sentinel unit serial number:	SN410029Multiplexer serial number:	ORYXHardware model number:	OX2-SRSoftware version number:	ORYX F/W v4,00 Oryx Data Collector v3.7.2.0data status	okinstallation	B6 Nyhavnadifferential loss correction	single-endedforward channel	channel 2reverse channel	N/Adate	2023/12/10time	21:55:08forward acquisition time	300,00reverse acquisition time	0,00gamma	499,1914k internal	0,3123k external	0,3123temperature offset calibration	1,0000default loss term (dB/km)	0,3820temperature slope calibration	1,0000multiplexer offset coefficient	1,0000multiplexer slope coefficient	1,0000fibre end	0,00T internal ref (°C)	22,31T ext. ref 1 (°C)	6,12T ext. ref 2 (°C)	6,13length (m)	temperature (°C)	Stokes	anti-Stokes-744,400	800,000	0,021	0,061
-743,385	-38,192	-0,245	0,096
-742,371	218,607	-0,048	-0,058
-741,356	-189,198	-0,075	0,001
-740,342	-135,282	-0,060	0,005
-739,327	-45,419	-0,298	0,109
-738,312	70,050	0,090	-0,069
-737,298	-51,745	-0,213	0,074
-736,283	38,690	0,035	-0,023
-735,269	-44,555	-0,203	0,075
-734,254	214,107	-0,066	0,078
-733,239	-85,277	-0,367	-0,085
-732,225	80,638	0,047	-0,038
-731,210	-200,000	-0,041	0,169
-730,196	-200,000	0,021	0,086
-729,181	-200,000	-0,004	0,082
-728,167	-200,000	0,001	0,094
-727,152	-102,949	0,028	0,005
-726,137	-138,366	-0,197	0,016
-725,123	-200,000	-0,019	0,076
-724,108	764,924	-0,078	-0,158
-723,094	-33,385	-0,071	-0,029
-722,079	-200,000	-0,015	-0,058
-721,064	252,631	0,041	0,052
-720,050	-200,000	-0,022	0,165
-719,035	-200,000	0,030	-0,152
-718,021	20,680	-0,134	-0,080
-717,006	-200,000	0,003	-0,168
-715,991	800,000	0,041	0,085
-714,977	-175,030	0,160	-0,003
-713,962	-200,000	0,017	-0,120
-712,948	800,000	0,036	-0,104
-711,933	-104,094	-0,006	-0,001
-710,918	24,871	-0,095	0,059
-709,904	294,897	-0,073	-0,099
-708,889	-200,000	-0,008	-0,040
-707,875	800,000	-0,039	-0,109
-706,860	-200,000	0,027	0,098
-705,845	-46,916	0,106	0,038
-704,831	800,000	0,019	0,062
-703,816	-105,751	0,085	-0,014
-702,802	-22,810	-0,142	-0,064
-701,787	800,000	-0,050	-0,111
-700,772	-145,858	-0,033	-0,002
-699,758	95,438	0,093	0,079
-698,743	-200,000	0,005	-0,032
-697,729	800,000	-0,027	-0,065
-696,714	639,811	-0,031	-0,058
-695,699	-200,000	0,009	0,099
-694,685	800,000	-0,015	-0,045
-693,670	-170,594	-0,072	0,002
-692,656	-56,948	0,050	0,016
-691,641	689,787	-0,030	0,058
-690,627	312,877	0,042	0,059
-689,612	21,327	-0,011	0,007
-688,597	-112,571	-0,143	0,021
-687,583	431,066	-0,066	-0,106
-686,568	-200,000	-0,005	-0,033
-685,554	-22,176	-0,056	-0,025
-684,539	-143,957	-0,097	0,007
-683,524	-95,707	0,012	0,002
-682,510	-155,339	-0,093	-0,004
-681,495	-41,886	0,136	-0,052
-680,481	-35,641	-0,110	0,044
-679,466	-85,463	-0,117	-0,027
-678,451	-19,650	-0,116	0,053
-677,437	26,337	0,079	0,049
-676,422	-115,836	0,079	-0,011
-675,408	183,184	0,074	0,081
-674,393	-89,654	-0,049	-0,011
-673,378	-200,000	0,000	0,105
-672,364	-49,614	-0,166	-0,059
-671,349	-98,089	-0,088	0,017
-670,335	93,176	-0,108	-0,090
-669,320	800,000	0,041	0,123
-668,305	-200,000	0,004	0,059
-667,291	-200,000	0,002	-0,184
-666,276	28,898	-0,120	0,075
-665,262	-200,000	-0,029	-0,242
-664,247	40,396	0,028	-0,019
-663,232	-200,000	-0,011	-0,070
-662,218	80,286	-0,043	-0,035
-661,203	287,281	0,081	0,109
-660,189	-200,000	-0,001	-0,125
-659,174	74,128	0,075	0,058
-658,159	-73,192	-0,115	-0,031
-657,145	148,078	-0,079	-0,079
-656,130	94,417	0,083	0,070
-655,116	676,817	-0,036	0,070
-654,101	345,792	0,077	0,113
-653,086	-200,000	-0,044	0,191
-652,072	-27,450	-0,030	-0,013
-651,057	-84,458	-0,103	-0,024
-650,043	-200,000	-0,013	-0,076
-649,028	-200,000	0,004	-0,132
-648,014	285,512	0,061	0,082
-646,999	184,975	0,036	-0,039
-645,984	-200,000	0,006	-0,149
-644,970	-200,000	-0,021	0,085
-643,955	219,944	-0,042	-0,049
-642,941	-200,000	0,016	-0,065
-641,926	800,000	0,024	0,055
-640,911	9,108	0,077	0,043
-639,897	800,000	0,023	-0,071
-638,882	211,024	-0,047	0,054
-637,868	-200,000	0,012	-0,054
-636,853	56,419	-0,093	-0,067
-635,838	445,539	0,112	-0,184
-634,824	-11,446	0,025	0,012
-633,809	-96,997	-0,025	-0,005
-632,795	-29,605	0,121	0,051
-631,780	800,000	-0,011	0,034
-630,765	78,566	-0,036	-0,029
-629,751	800,000	-0,052	-0,141
-628,736	-109,778	0,110	-0,017
-627,722	800,000	-0,024	-0,058
-626,707	-121,848	-0,070	0,008
-625,692	681,158	0,075	0,145
-624,678	342,653	-0,052	0,076
-623,663	-200,000	0,015	-0,113
-622,649	-200,000	-0,004	-0,141
-621,634	298,534	0,038	-0,052
-620,619	270,872	-0,077	-0,100
-619,605	272,724	0,067	-0,088
-618,590	-86,360	-0,062	0,014
-617,576	-200,000	0,016	-0,116
-616,561	-200,000	-0,003	-0,024
-615,546	-89,951	-0,052	-0,011
-614,532	800,000	-0,015	0,044
-613,517	2,352	-0,084	-0,045
-612,503	152,232	0,041	0,041
-611,488	-200,000	0,049	0,000
-610,474	-89,070	0,124	-0,027
-609,459	-49,755	-0,089	-0,031
-608,444	9,301	0,036	-0,020
-607,430	117,001	-0,050	-0,046
-606,415	-136,243	-0,092	-0,008
-605,401	800,000	0,060	-0,165
-604,386	-200,000	0,015	-0,081
-603,371	12,436	0,106	0,060
-602,357	235,156	-0,032	0,039
-601,342	263,955	0,009	-0,012
-600,328	800,000	0,029	-0,070
-599,313	103,349	0,101	-0,088
-598,298	231,143	0,064	-0,078
-597,284	63,309	0,045	-0,033
-596,269	-50,139	-0,065	-0,023
-595,255	-121,194	-0,090	0,011
-594,240	800,000	-0,022	-0,049
-593,225	6,688	-0,089	-0,049
-592,211	-143,296	-0,096	-0,007
-591,196	680,747	0,018	0,035
-590,182	-200,000	-0,054	-0,195
-589,167	174,850	0,045	0,048
-588,152	322,247	0,009	0,013
-587,138	41,817	-0,065	0,044
-586,123	800,000	0,051	-0,125
-585,109	-200,000	0,054	-0,201
-584,094	-200,000	0,001	-0,113
-583,079	520,430	0,031	0,055
-582,065	800,000	-0,028	0,063
-581,050	-200,000	-0,026	0,121
-580,036	-159,877	0,035	0,001
-579,021	-8,193	0,084	0,042
-578,006	90,837	-0,140	-0,116
-576,992	-14,280	0,094	0,045
-575,977	85,119	-0,074	0,060
-574,963	-200,000	-0,001	-0,116
-573,948	-200,000	-0,018	0,067
-572,934	17,296	-0,065	-0,038
-571,919	-126,995	-0,134	-0,014
-570,904	-200,000	0,029	-0,178
-569,890	191,262	-0,063	-0,070
-568,875	800,000	0,038	0,087
-567,861	-82,389	0,088	0,021
-566,846	-200,000	-0,001	0,079
-565,831	483,938	0,026	0,044
-564,817	472,178	-0,045	-0,075
-563,802	-48,507	-0,094	-0,033
-562,788	71,026	-0,126	-0,097
-561,773	461,717	0,085	-0,141
-560,758	-200,000	0,016	-0,055
-559,744	-200,000	-0,004	-0,065
-558,729	394,718	0,046	-0,071
-557,715	35,391	0,067	-0,044
-556,700	-200,000	-0,015	-0,053
-555,685	64,521	0,020	-0,015
-554,671	-200,000	-0,001	0,047
-553,656	-69,786	-0,103	0,029
-552,642	-37,462	0,093	0,036
-551,627	-46,564	0,042	-0,015
-550,612	-54,714	-0,018	0,006
-549,598	226,183	0,052	0,063
-548,583	-200,000	0,019	0,120
-547,569	-200,000	0,003	0,077
-546,554	25,180	0,082	0,051
-545,539	-3,074	0,160	0,082
-544,525	66,346	-0,066	0,049
-543,510	92,883	-0,161	-0,134
-542,496	-200,000	-0,155	0,001
-541,481	19,606	-0,095	-0,056
-540,466	-200,000	0,009	0,075
-539,452	-107,178	0,084	0,013
-538,437	-168,556	-0,129	0,004
-537,423	356,825	0,057	-0,084
-536,408	82,357	0,031	0,025
-535,393	800,000	-0,028	-0,091
-534,379	224,547	-0,030	-0,036
-533,364	587,061	0,041	-0,075
-532,350	-200,000	0,018	-0,104
-531,335	289,843	-0,061	0,082
-530,321	800,000	-0,023	0,053
-529,306	64,465	0,081	-0,060
-528,291	414,179	-0,079	0,125
-527,277	97,277	-0,200	-0,169
-526,262	800,000	0,026	0,077
-525,248	-94,983	0,053	0,010
-524,233	81,407	-0,106	-0,084
-523,218	-200,000	0,037	-0,137
-522,204	-96,823	0,166	0,032
-521,189	-62,238	-0,081	-0,025
-520,175	-125,277	-0,039	0,004
-519,160	-200,000	-0,009	0,050
-518,145	349,275	0,042	-0,062
-517,131	-200,000	0,029	0,184
-516,116	-200,000	0,008	0,038
-515,102	-200,000	-0,007	-0,036
-514,087	-5,927	-0,080	0,040
-513,072	-76,355	-0,105	0,027
-512,058	-54,264	0,111	0,037
-511,043	249,493	0,087	-0,109
-510,029	-45,799	0,082	0,030
-509,014	-141,177	0,070	-0,005
-507,999	800,000	0,049	-0,105
-506,985	47,552	0,057	0,040
-505,970	102,948	-0,023	0,020
-504,956	-44,697	-0,064	-0,023
-503,941	800,000	0,034	-0,100
-502,926	-200,000	-0,006	0,076
-501,912	-140,809	0,115	-0,009
-500,897	-200,000	0,033	-0,112
-499,883	64,601	0,085	0,063
-498,868	-114,474	-0,102	-0,014
-497,853	192,076	0,032	-0,036
-496,839	570,590	0,072	0,131
-495,824	-200,000	0,002	-0,023
-494,810	-200,000	-0,025	0,178
-493,795	-78,605	0,079	-0,020
-492,781	518,784	0,024	-0,041
-491,766	660,082	-0,046	-0,088
-490,751	-69,135	-0,191	-0,054
-489,737	249,481	-0,060	0,075
-488,722	66,844	0,015	-0,011
-487,708	-75,958	0,127	0,033
-486,693	538,346	0,061	0,108
-485,678	-47,103	-0,050	-0,018
-484,664	-130,599	0,092	0,009
-483,649	-200,000	0,035	-0,167
-482,635	36,522	0,053	-0,035
-481,620	546,530	-0,044	0,078
-480,605	528,199	0,051	0,089
-479,591	-44,770	0,007	-0,003
-478,576	41,241	-0,054	0,036
-477,562	-169,319	-0,130	0,003
-476,547	-200,000	0,021	-0,080
-475,532	800,000	0,011	-0,036
-474,518	108,516	0,064	0,056
-473,503	-26,333	-0,055	0,024
-472,489	112,579	0,069	0,061
-471,474	-157,357	-0,089	0,004
-470,459	66,346	-0,172	-0,129
-469,445	-79,011	-0,134	-0,033
-468,430	1,948	-0,084	-0,044
-467,416	260,358	0,053	-0,068
-466,401	44,872	-0,029	0,019
-465,386	-200,000	0,003	-0,021
-464,372	-120,887	-0,147	-0,018
-463,357	800,000	-0,112	-0,283
-462,343	-74,058	0,107	-0,028
-461,328	110,913	0,114	-0,101
-460,313	-38,055	0,147	0,057
-459,299	-200,000	-0,034	0,120
-458,284	-112,756	0,032	0,005
-457,270	296,050	0,048	0,065
-456,255	-200,000	-0,002	0,118
-455,241	800,000	-0,060	0,142
-454,226	3,275	-0,129	-0,069
-453,211	800,000	0,020	0,042
-452,197	-86,563	-0,081	-0,018
-451,182	113,510	0,035	0,031
-450,168	-200,000	0,057	0,216
-449,153	-121,235	-0,018	-0,002
-448,138	800,000	0,048	-0,105
-447,124	74,750	-0,078	-0,060
-446,109	504,148	0,085	-0,146
-445,095	335,424	0,116	0,166
-444,080	40,933	0,134	0,089
-443,065	-116,796	-0,097	-0,013
-442,051	-200,000	0,017	0,085
-441,036	88,530	-0,019	0,016
-440,022	337,095	0,081	-0,116
-439,007	-5,562	0,112	-0,057
-437,992	800,000	-0,051	0,107
-436,978	-200,000	0,001	-0,104
-435,963	-167,697	0,094	0,003
-434,949	800,000	0,049	0,107
-433,934	-200,000	0,005	0,051
-432,919	-200,000	0,031	0,143
-431,905	-71,642	-0,141	0,039
-430,890	468,496	0,050	-0,083
-429,876	177,830	-0,042	0,045
-428,861	0,154	0,135	0,071
-427,846	-10,893	-0,038	-0,018
-426,832	52,544	-0,128	0,090
-425,817	-79,654	0,056	0,014
-424,803	-92,964	0,103	0,021
-423,788	-155,728	-0,025	0,001
-422,773	-7,156	-0,055	-0,028
-421,759	-60,978	0,213	0,066
-420,744	-200,000	0,021	0,098
-419,730	-200,000	0,002	0,152
-418,715	138,157	-0,027	0,026
-417,701	-200,000	-0,008	-0,051
-416,686	18,586	0,109	-0,064
-415,671	-200,000	0,017	0,155
-414,657	-80,486	-0,094	0,023
-413,642	-101,708	0,049	0,009
-412,628	800,000	0,054	0,146
-411,613	-156,139	-0,047	0,002
-410,598	173,152	-0,097	0,103
-409,584	9,684	-0,130	0,073
-408,569	-200,000	0,012	-0,064
-407,555	-71,165	0,150	0,041
-406,540	-200,000	-0,018	0,066
-405,525	800,000	0,034	-0,104
-404,511	-200,000	-0,050	-0,185
-403,496	-54,276	-0,044	-0,014
-402,482	-50,390	-0,073	0,025
-401,467	52,637	0,092	0,065
-400,452	-141,528	-0,025	-0,002
-399,438	-200,000	0,001	0,094
-398,423	61,723	-0,082	0,060
-397,409	-79,261	-0,036	-0,009
-396,394	-113,764	0,075	0,011
-395,379	146,170	0,053	0,052
-394,365	317,674	0,026	0,036
-393,350	123,297	0,044	0,041
-392,336	-200,000	0,067	0,000
-391,321	-200,000	0,030	-0,112
-390,306	645,124	-0,036	0,067
-389,292	395,673	0,024	0,038
-388,277	-73,230	-0,095	0,025
-387,263	-200,000	0,008	-0,026
-386,248	-200,000	0,014	-0,061
-385,233	-200,000	-0,014	0,065
-384,219	-174,133	-0,124	-0,003
-383,204	-120,717	-0,108	0,013
-382,190	-200,000	-0,043	0,152
-381,175	-200,000	-0,050	-0,168
-380,160	-200,000	0,019	0,074
-379,146	79,016	0,039	-0,031
-378,131	-200,000	0,061	-0,216
-377,117	800,000	-0,040	0,107
-376,102	131,689	-0,146	-0,138
-375,088	259,866	0,089	-0,114
-374,073	121,431	-0,084	0,077
-373,058	-200,000	0,000	-0,038
-372,044	6,488	-0,088	-0,048
-371,029	-140,646	0,114	0,009
-370,015	-86,712	0,079	-0,018
-369,000	800,000	-0,050	-0,103
-367,985	0,593	-0,058	-0,031
-366,971	-200,000	0,002	-0,016
-365,956	303,149	0,055	0,075
-364,942	624,901	-0,021	-0,039
-363,927	800,000	0,059	0,162
-362,912	-32,438	-0,122	0,050
-361,898	-83,600	0,075	-0,017
-360,883	33,645	-0,089	-0,056
-359,869	49,467	-0,066	-0,046
-358,854	74,258	-0,040	0,031
-357,839	142,169	-0,045	0,043
-356,825	-27,312	-0,004	0,002
-355,810	-150,715	-0,094	-0,005
-354,796	368,279	0,011	0,017
-353,781	-118,360	-0,099	0,013
-352,766	-132,685	0,088	0,008
-351,752	166,847	0,054	0,057
-350,737	-51,437	-0,035	0,012
-349,723	-200,000	0,002	-0,121
-348,708	141,009	-0,071	0,069
-347,693	-94,115	0,062	0,012
-346,679	147,813	-0,056	0,055
-345,664	-162,626	-0,128	-0,005
-344,650	-174,159	0,094	-0,002
-343,635	214,079	-0,079	0,092
-342,620	-200,000	-0,021	-0,095
-341,606	-122,111	-0,050	0,006
-340,591	-121,538	-0,097	-0,012
-339,577	58,154	0,057	-0,041
-338,562	427,426	-0,059	-0,093
-337,548	119,186	0,047	-0,043
-336,533	-200,000	0,005	0,042
-335,518	-177,484	-0,068	-0,001
-334,504	-200,000	0,017	0,156
-333,489	-132,552	0,104	0,010
-332,475	-106,467	-0,058	0,009
-331,460	-200,000	-0,012	-0,148
-330,445	-130,040	-0,050	-0,005
-329,431	246,168	-0,093	0,115
-328,416	62,907	0,053	-0,039
-327,402	301,358	0,119	0,162
-326,387	-200,000	-0,016	-0,058
-325,372	-200,000	-0,001	-0,090
-324,358	27,985	-0,056	-0,035
-323,343	227,872	0,041	-0,049
-322,329	-32,749	0,104	-0,042
-321,314	304,491	-0,011	-0,015
-320,299	-51,329	0,105	0,036
-319,285	-200,000	-0,006	0,039
-318,270	81,649	-0,046	-0,036
-317,256	-92,708	-0,161	-0,033
-316,241	58,190	0,031	-0,022
-315,226	355,439	-0,033	0,048
-314,212	-128,090	0,132	0,014
-313,197	-119,577	-0,169	0,021
-312,183	-99,956	0,104	-0,019
-311,168	-200,000	0,013	-0,058
-310,153	174,455	-0,034	-0,036
-309,139	64,221	-0,046	0,034
-308,124	81,382	0,120	-0,095
-307,110	-97,671	0,151	0,028
-306,095	-200,000	0,013	0,098
-305,080	207,854	-0,077	0,088
-304,066	82,835	0,070	0,056
-303,051	800,000	-0,001	-0,003
-302,037	800,000	0,056	-0,145
-301,022	-33,815	-0,094	0,038
-300,008	143,468	-0,045	-0,044
-298,993	-200,000	0,002	0,136
-297,978	167,994	0,097	0,101
-296,964	1,582	0,049	-0,026
-295,949	46,945	0,058	0,040
-294,935	26,888	-0,010	-0,006
-293,920	-89,571	-0,019	0,004
-292,905	800,000	-0,029	-0,071
-291,891	231,458	-0,088	0,106
-290,876	800,000	0,075	0,164
-289,862	800,000	-0,007	0,015
-288,847	-200,000	-0,022	-0,162
-287,832	-174,004	0,072	-0,002
-286,818	800,000	0,035	0,080
-285,803	-200,000	-0,030	0,110
-284,789	-55,408	-0,050	-0,016
-283,774	203,303	-0,028	-0,031
-282,759	-200,000	0,004	-0,044
-281,745	-200,000	0,023	-0,098
-280,730	179,025	-0,126	-0,135
-279,716	800,000	0,031	-0,069
-278,701	-76,551	0,075	0,019
-277,686	2,001	0,013	-0,007
-276,672	-200,000	0,004	0,069
-275,657	14,960	-0,097	0,055
-274,643	-99,387	0,051	0,009
-273,628	314,282	-0,091	-0,125
-272,613	-65,401	0,056	-0,016
-271,599	374,708	0,081	-0,122
-270,584	156,614	-0,091	-0,092
-269,570	180,353	0,027	0,029
-268,555	-200,000	-0,005	-0,030
-267,540	39,814	0,074	-0,048
-266,526	133,733	0,147	-0,139
-265,511	800,000	0,026	0,060
-264,497	-200,000	0,012	0,062
-263,482	22,079	-0,022	0,013
-262,467	779,471	-0,074	0,149
-261,453	114,769	-0,013	-0,011
-260,438	-118,697	-0,035	0,004
-259,424	345,023	-0,062	0,089
-258,409	-126,682	0,068	0,007
-257,395	-200,000	0,005	0,040
-256,380	138,370	0,061	0,059
-255,365	-200,000	-0,020	0,215
-254,351	252,774	-0,029	-0,037
-253,336	-200,000	-0,019	0,108
-252,322	-200,000	-0,011	0,077
-251,307	22,953	-0,069	0,041
-250,292	219,594	-0,060	0,070
-249,278	64,667	0,119	0,087
-248,263	-200,000	-0,006	-0,046
-247,249	-183,565	-0,063	-0,001
-246,234	635,705	-0,031	-0,057
-245,219	70,557	-0,092	-0,070
-244,205	671,577	-0,011	-0,021
-243,190	-200,000	0,016	-0,078
-242,176	-24,633	0,080	-0,035
-241,161	-45,964	0,106	0,038
-240,146	247,718	-0,038	0,047
-239,132	-169,149	-0,212	-0,006
-238,117	800,000	-0,037	0,094
-237,103	239,056	0,031	0,037
-236,088	57,731	0,027	-0,020
-235,073	-86,728	0,129	0,028
-234,059	-200,000	0,010	0,062
-233,044	-200,000	0,007	0,080
-232,030	-200,000	-0,007	0,141
-231,015	-200,000	0,001	-0,033
-230,000	-153,706	0,105	0,005
-228,986	-69,115	-0,104	0,029
-227,971	24,237	0,085	0,051
-226,957	119,029	0,177	0,160
-225,942	318,791	0,022	-0,030
-224,927	-200,000	-0,002	0,081
-223,913	407,732	-0,051	-0,079
-222,898	341,384	0,039	-0,056
-221,884	-128,204	0,102	0,010
-220,869	643,694	0,036	-0,067
-219,855	-200,000	-0,001	0,151
-218,840	-200,000	0,016	0,083
-217,825	800,000	-0,015	-0,036
-216,811	-121,767	0,112	-0,013
-215,796	-68,491	-0,051	-0,014
-214,782	140,680	0,096	0,093
-213,767	115,642	-0,082	0,073
-212,752	80,359	-0,077	0,060
-211,738	18,654	0,045	0,026
-210,723	35,697	-0,118	0,076
-209,709	-78,055	0,087	-0,022
-208,694	-110,975	-0,097	0,014
-207,679	-200,000	-0,017	0,067
-206,665	-168,273	0,043	0,001
-205,650	3,212	0,113	0,060
-204,636	643,870	0,067	0,125
-203,621	-200,000	0,006	0,133
-202,606	-200,000	-0,001	-0,032
-201,592	-200,000	0,033	-0,200
-200,577	-14,305	-0,082	-0,038
-199,563	-32,105	-0,018	-0,007
-198,548	-13,236	-0,022	0,010
-197,533	-200,000	0,012	0,165
-196,519	256,877	-0,024	-0,030
-195,504	45,877	-0,081	-0,055
-194,490	-200,000	0,026	-0,114
-193,475	-11,624	0,093	-0,044
-192,460	-37,656	-0,118	-0,046
-191,446	800,000	0,027	-0,077
-190,431	117,181	-0,022	0,020
-189,417	-200,000	-0,014	0,109
-188,402	-200,000	-0,045	-0,152
-187,387	-44,703	0,038	0,014
-186,373	-112,450	0,119	0,017
-185,358	-200,000	-0,002	-0,141
-184,344	-200,000	0,000	0,042
-183,329	800,000	-0,055	0,137
-182,315	800,000	-0,044	0,133
-181,300	800,000	-0,024	-0,062
-180,285	458,645	0,051	-0,083
-179,271	516,408	-0,080	-0,137
-178,256	-200,000	0,009	-0,166
-177,242	800,000	-0,017	-0,039
-176,227	102,669	0,026	0,022
-175,212	-170,417	0,112	-0,003
-174,198	79,181	0,071	0,055
-173,183	-75,394	-0,149	-0,038
-172,169	-183,559	-0,149	0,002
-171,154	800,000	-0,069	-0,163
-170,139	22,426	0,070	-0,041
-169,125	244,817	-0,055	0,067
-168,110	-12,682	-0,073	-0,034
-167,096	228,932	0,029	-0,035
-166,081	-32,539	-0,101	-0,041
-165,066	167,449	0,040	-0,041
-164,052	148,388	0,091	-0,089
-163,037	340,320	0,076	0,108
-162,023	96,579	-0,143	0,119
-161,008	427,902	0,065	0,103
-159,993	785,473	-0,055	0,110
-158,979	-50,932	-0,029	0,010
-157,964	-23,412	-0,028	0,012
-156,950	79,790	0,111	0,087
-155,935	800,000	0,049	0,150
-154,920	-14,312	0,118	0,055
-153,906	-74,255	-0,015	-0,004
-152,891	-200,000	0,005	0,050
-151,877	-160,102	0,019	0,001
-150,862	326,304	-0,060	-0,084
-149,847	249,817	-0,019	-0,024
-148,833	-91,331	0,124	0,026
-147,818	-200,000	-0,006	-0,152
-146,804	-44,994	0,115	-0,042
-145,789	297,791	-0,030	0,041
-144,775	-119,796	-0,103	-0,013
-143,760	-75,102	0,112	0,029
-142,745	16,492	-0,136	-0,078
-141,731	-50,634	-0,043	-0,015
-140,716	300,645	0,028	0,038
-139,702	800,000	0,067	0,189
-138,687	800,000	0,038	-0,091
-137,672	-127,376	0,073	0,008
-136,658	800,000	-0,016	0,046
-135,643	-80,850	0,080	0,019
-134,629	49,631	-0,103	-0,070
-133,614	58,923	0,019	-0,014
-132,599	86,378	0,057	0,046
-131,585	244,567	-0,077	0,094
-130,570	79,210	-0,047	-0,036
-129,556	-85,495	-0,123	0,028
-128,541	195,977	-0,053	0,059
-127,526	116,952	0,073	0,066
-126,512	-6,644	0,065	0,032
-125,497	800,000	-0,009	0,018
-124,483	61,891	0,109	0,079
-123,468	-111,439	0,077	-0,011
-122,453	-200,000	-0,013	-0,100
-121,439	-200,000	0,010	0,070
-120,424	458,656	-0,021	0,034
-119,410	-200,000	-0,013	0,095
