DTS Sentinel unit serial number:	SN410029Multiplexer serial number:	ORYXHardware model number:	OX2-SRSoftware version number:	ORYX F/W v4,00 Oryx Data Collector v3.7.2.0data status	okinstallation	B6 Nyhavnadifferential loss correction	single-endedforward channel	channel 2reverse channel	N/Adate	2023/12/11time	03:30:08forward acquisition time	300,00reverse acquisition time	0,00gamma	499,1914k internal	0,3124k external	0,3124temperature offset calibration	1,0000default loss term (dB/km)	0,3820temperature slope calibration	1,0000multiplexer offset coefficient	1,0000multiplexer slope coefficient	1,0000fibre end	0,00T internal ref (°C)	21,15T ext. ref 1 (°C)	3,93T ext. ref 2 (°C)	3,94length (m)	temperature (°C)	Stokes	anti-Stokes-744,400	73,512	0,030	-0,024
-743,385	25,782	-0,204	0,127
-742,371	800,000	0,030	-0,077
-741,356	-107,405	-0,320	0,052
-740,342	28,060	-0,026	-0,016
-739,327	81,250	-0,123	0,099
-738,312	800,000	0,062	-0,158
-737,298	-85,049	-0,195	-0,045
-736,283	83,632	0,151	-0,123
-735,269	-98,327	-0,285	0,054
-734,254	-87,867	-0,066	0,015
-733,239	-94,848	-0,400	-0,080
-732,225	-110,498	0,162	0,025
-731,210	190,387	0,062	0,070
-730,196	-3,165	0,143	-0,074
-729,181	-200,000	0,004	0,015
-728,167	172,893	0,062	0,067
-727,152	-8,326	0,092	-0,046
-726,137	-200,000	-0,027	0,091
-725,123	800,000	0,034	-0,095
-724,108	-92,906	-0,186	-0,038
-723,094	188,390	-0,136	-0,151
-722,079	-200,000	-0,119	-0,000
-721,064	161,065	0,012	0,012
-720,050	229,645	-0,090	-0,109
-719,035	212,291	-0,065	-0,077
-718,021	-20,331	0,034	0,016
-717,006	162,686	-0,112	-0,117
-715,991	-42,645	-0,193	-0,073
-714,977	318,890	-0,037	-0,052
-713,962	-143,851	0,089	0,006
-712,948	-20,087	0,102	0,047
-711,933	703,786	-0,012	-0,025
-710,918	-200,000	0,035	-0,207
-709,904	-200,000	-0,039	-0,129
-708,889	88,682	-0,131	0,108
-707,875	-54,998	-0,052	0,017
-706,860	239,072	0,058	0,072
-705,845	-17,418	0,036	0,017
-704,831	-67,004	0,112	0,033
-703,816	104,750	-0,015	-0,013
-702,802	800,000	-0,025	-0,052
-701,787	-0,005	0,131	0,069
-700,772	20,129	0,064	-0,039
-699,758	373,513	-0,075	-0,114
-698,743	-14,885	-0,074	-0,035
-697,729	-166,942	-0,061	0,002
-696,714	163,759	-0,090	0,095
-695,699	12,460	0,029	0,017
-694,685	-200,000	-0,000	-0,077
-693,670	-40,561	-0,189	-0,072
-692,656	-58,285	0,088	-0,028
-691,641	-200,000	-0,014	-0,161
-690,627	492,821	-0,061	0,105
-689,612	-200,000	-0,005	0,042
-688,597	282,037	-0,092	-0,123
-687,583	-200,000	-0,003	0,017
-686,568	150,557	-0,025	-0,025
-685,554	-35,340	-0,182	-0,073
-684,539	-35,931	0,026	-0,010
-683,524	308,326	0,071	-0,099
-682,510	4,909	0,117	-0,064
-681,495	83,872	-0,075	-0,060
-680,481	320,766	0,031	0,044
-679,466	-200,000	-0,042	-0,153
-678,451	-154,186	-0,194	-0,010
-677,437	-84,803	-0,054	0,012
-676,422	-200,000	-0,026	0,133
-675,408	-200,000	-0,022	0,079
-674,393	2,366	-0,018	-0,010
-673,378	800,000	-0,015	-0,050
-672,364	186,739	-0,098	-0,109
-671,349	-149,480	0,011	-0,001
-670,335	71,968	0,070	-0,054
-669,320	56,613	-0,046	-0,033
-668,305	463,100	-0,021	0,035
-667,291	260,863	-0,037	0,047
-666,276	131,433	-0,089	0,085
-665,262	-37,599	-0,090	-0,036
-664,247	622,818	-0,078	-0,146
-663,232	125,518	-0,029	-0,027
-662,218	306,479	0,015	-0,020
-661,203	143,844	-0,042	-0,042
-660,189	-86,575	-0,081	0,018
-659,174	800,000	-0,069	-0,158
-658,159	-35,696	-0,067	-0,027
-657,145	-112,756	-0,135	-0,020
-656,130	-8,940	0,066	0,033
-655,116	241,018	-0,006	0,008
-654,101	-200,000	0,023	0,094
-653,086	-26,603	0,060	-0,026
-652,072	-28,291	0,068	0,029
-651,057	800,000	-0,061	-0,127
-650,043	800,000	0,071	-0,165
-649,028	-86,955	-0,085	-0,019
-648,014	-21,326	-0,114	-0,051
-646,999	-98,226	-0,022	-0,004
-645,984	-16,309	0,050	0,023
-644,970	-38,764	-0,043	0,017
-643,955	2,102	-0,055	-0,029
-642,941	-86,719	-0,038	0,009
-641,926	134,225	-0,161	0,155
-640,911	-51,354	0,080	0,028
-639,897	-185,738	0,087	-0,001
-638,882	800,000	0,030	-0,092
-637,868	800,000	-0,020	-0,055
-636,853	463,672	-0,033	-0,054
-635,838	144,387	-0,019	-0,019
-634,824	-200,000	0,015	-0,110
-633,809	178,280	0,133	-0,144
-632,795	-119,218	0,016	-0,002
-631,780	-170,287	0,096	-0,002
-630,765	-200,000	0,019	0,167
-629,751	-0,607	-0,073	0,038
-628,736	93,831	-0,117	0,098
-627,722	-103,182	-0,106	-0,018
-626,707	-61,334	0,131	-0,041
-625,692	-34,631	0,073	-0,029
-624,678	-161,251	0,083	-0,003
-623,663	-118,194	-0,049	-0,006
-622,649	252,133	-0,053	-0,067
-621,634	-48,743	-0,055	-0,020
-620,619	1,559	-0,018	-0,009
-619,605	-200,000	0,025	0,274
-618,590	146,812	0,052	-0,052
-617,576	225,817	0,080	0,097
-616,561	721,852	0,011	0,021
-615,546	42,583	-0,142	-0,096
-614,532	338,505	0,046	-0,067
-613,517	-157,065	-0,103	0,005
-612,503	23,265	-0,103	0,063
-611,488	800,000	-0,039	0,097
-610,474	-118,162	-0,005	-0,001
-609,459	-200,000	-0,014	0,098
-608,444	-200,000	0,002	-0,019
-607,430	-8,194	0,046	-0,023
-606,415	-52,588	0,030	-0,010
-605,401	-48,425	-0,100	-0,035
-604,386	2,876	0,064	-0,034
-603,371	-67,924	-0,106	-0,030
-602,357	4,604	0,080	-0,043
-601,342	-200,000	0,008	-0,102
-600,328	-200,000	-0,010	0,055
-599,313	-188,863	-0,083	-0,001
-598,298	102,498	0,050	-0,044
-597,284	800,000	-0,048	0,135
-596,269	23,175	-0,032	0,020
-595,255	58,976	-0,067	0,049
-594,240	-0,388	-0,024	0,013
-593,225	30,636	0,044	0,028
-592,211	800,000	-0,050	-0,142
-591,196	173,856	-0,021	-0,022
-590,182	189,882	-0,041	0,046
-589,167	-200,000	-0,002	-0,031
-588,152	49,147	0,043	0,030
-587,138	61,944	0,073	0,053
-586,123	67,565	-0,036	0,027
-585,109	-65,262	-0,129	-0,038
-584,094	800,000	-0,048	0,154
-583,079	787,876	-0,045	0,091
-582,065	-55,340	-0,127	0,042
-581,050	-200,000	0,007	-0,027
-580,036	-36,581	-0,171	0,068
-579,021	117,247	-0,055	-0,050
-578,006	800,000	-0,021	-0,067
-576,992	-28,578	-0,057	-0,024
-575,977	-83,073	-0,044	0,010
-574,963	78,262	0,226	0,179
-573,948	9,110	-0,138	-0,077
-572,934	352,572	-0,074	0,109
-571,919	301,571	0,028	-0,038
-570,904	359,907	0,133	-0,197
-569,890	122,769	-0,073	-0,067
-568,875	228,736	-0,017	-0,021
-567,861	800,000	0,031	0,098
-566,846	-31,697	-0,082	0,034
-565,831	35,212	0,126	-0,082
-564,817	-0,904	-0,093	-0,048
-563,802	525,732	-0,049	-0,086
-562,788	495,752	-0,010	0,017
-561,773	175,355	0,114	-0,123
-560,758	97,193	0,039	-0,033
-559,744	-200,000	-0,001	-0,011
-558,729	-81,039	-0,044	0,011
-557,715	800,000	-0,067	-0,139
-556,700	-200,000	0,023	-0,083
-555,685	-54,589	-0,154	-0,051
-554,671	65,821	-0,051	0,038
-553,656	-200,000	-0,011	0,067
-552,642	219,836	0,037	0,044
-551,627	800,000	0,016	-0,052
-550,612	246,916	0,062	-0,078
-549,598	-200,000	0,012	-0,093
-548,583	-200,000	0,063	0,000
-547,569	738,768	0,044	-0,088
-546,554	291,223	-0,063	-0,085
-545,539	-95,474	0,089	0,018
-544,525	201,904	0,037	0,042
-543,510	-127,063	-0,128	0,014
-542,496	-6,464	0,162	-0,082
-541,481	213,341	-0,047	-0,055
-540,466	-74,417	0,128	0,034
-539,452	-200,000	0,003	0,069
-538,437	102,032	0,019	-0,016
-537,423	472,481	-0,063	-0,105
-536,408	1,164	-0,077	0,041
-535,393	94,516	-0,046	0,038
-534,379	-200,000	-0,002	-0,098
-533,364	800,000	-0,045	0,128
-532,350	-172,250	0,160	0,004
-531,335	-60,736	0,120	0,037
-530,321	-94,325	0,090	0,018
-529,306	800,000	0,017	0,039
-528,291	-200,000	-0,004	-0,016
-527,277	572,170	-0,012	-0,022
-526,262	771,398	-0,043	-0,087
-525,248	800,000	0,015	-0,047
-524,233	-40,303	0,079	0,030
-523,218	122,034	0,051	0,047
-522,204	61,014	-0,181	-0,132
-521,189	800,000	-0,002	-0,006
-520,175	191,503	-0,092	0,102
-519,160	496,204	0,092	-0,157
-518,145	131,225	-0,033	-0,031
-517,131	800,000	-0,050	-0,112
-516,116	800,000	-0,047	-0,098
-515,102	-200,000	0,007	-0,065
-514,087	-32,283	-0,066	-0,027
-513,072	-108,800	-0,095	0,015
-512,058	-200,000	0,016	0,074
-511,043	592,252	-0,041	0,076
-510,029	-200,000	-0,002	0,201
-509,014	-9,587	0,112	0,055
-507,999	233,026	0,062	0,075
-506,985	-90,684	-0,183	-0,039
-505,970	800,000	-0,071	-0,204
-504,956	-200,000	0,000	-0,045
-503,941	34,406	0,145	0,093
-502,926	-57,283	0,094	0,030
-501,912	775,654	-0,067	0,136
-500,897	-22,486	0,072	-0,032
-499,883	-134,857	-0,219	0,019
-498,868	800,000	-0,035	-0,081
-497,853	-200,000	0,051	0,000
-496,839	800,000	-0,056	-0,132
-495,824	800,000	-0,024	0,075
-494,810	28,271	0,069	0,043
-493,795	273,211	-0,119	-0,156
-492,781	0,895	-0,099	-0,052
-491,766	-200,000	-0,022	-0,084
-490,751	-200,000	-0,025	-0,178
-489,737	800,000	0,027	0,083
-488,722	-200,000	0,008	-0,034
-487,708	258,069	0,079	0,101
-486,693	-200,000	0,013	0,079
-485,678	-46,804	0,079	-0,028
-484,664	98,738	0,089	0,075
-483,649	193,779	0,023	-0,026
-482,635	189,868	0,009	-0,010
-481,620	-168,671	-0,058	-0,002
-480,605	-102,494	0,091	0,016
-479,591	57,194	0,100	0,072
-478,576	513,914	-0,059	-0,103
-477,562	14,598	0,061	-0,035
-476,547	565,372	0,016	-0,028
-475,532	8,080	-0,031	-0,017
-474,518	53,188	-0,049	-0,035
-473,503	-76,391	-0,117	0,030
-472,489	113,732	0,064	0,057
-471,474	-200,000	-0,012	-0,135
-470,459	-200,000	-0,007	0,068
-469,445	-200,000	0,029	-0,095
-468,430	184,545	0,122	-0,133
-467,416	93,531	0,071	0,060
-466,401	-16,411	-0,003	0,001
-465,386	41,236	0,017	0,011
-464,372	-200,000	-0,015	0,081
-463,357	-112,281	-0,114	0,017
-462,343	-73,834	0,087	-0,023
-461,328	-200,000	0,012	-0,057
-460,313	34,933	-0,083	0,053
-459,299	800,000	0,035	0,104
-458,284	96,472	0,085	-0,071
-457,270	-125,660	0,086	-0,009
-456,255	285,633	-0,068	0,091
-455,241	295,434	0,016	-0,022
-454,226	57,594	-0,130	0,094
-453,211	800,000	0,038	0,089
-452,197	-200,000	-0,020	0,083
-451,182	800,000	-0,006	0,017
-450,168	341,366	0,015	0,022
-449,153	108,505	0,015	-0,013
-448,138	1,194	-0,037	-0,019
-447,124	-200,000	-0,003	-0,240
-446,109	-49,741	-0,062	-0,022
-445,095	-200,000	-0,020	-0,088
-444,080	-200,000	-0,004	0,044
-443,065	800,000	-0,038	0,107
-442,051	-75,954	-0,093	0,024
-441,036	-200,000	0,014	0,065
-440,022	77,531	-0,112	0,088
-439,007	800,000	-0,025	-0,069
-437,992	13,135	-0,060	-0,034
-436,978	-80,507	-0,111	0,027
-435,963	-101,625	0,166	0,029
-434,949	236,986	-0,059	-0,072
-433,934	800,000	-0,026	-0,070
-432,919	408,052	-0,115	-0,180
-431,905	479,393	0,091	-0,152
-430,890	800,000	0,037	0,082
-429,876	-65,607	0,022	-0,007
-428,861	126,399	-0,083	-0,077
-427,846	-119,972	0,071	-0,009
-426,832	131,596	0,083	-0,079
-425,817	345,859	-0,059	-0,086
-424,803	800,000	0,021	0,054
-423,788	277,790	0,076	0,100
-422,773	800,000	0,038	0,080
-421,759	312,507	-0,063	0,088
-420,744	114,496	-0,025	-0,022
-419,730	-56,902	0,024	-0,008
-418,715	-83,211	0,108	0,025
-417,701	-128,842	-0,140	-0,014
-416,686	-200,000	-0,012	0,063
-415,671	254,882	0,078	0,098
-414,657	477,790	0,010	0,017
-413,642	-200,000	0,002	0,076
-412,628	-200,000	0,009	0,065
-411,613	33,063	-0,071	-0,045
-410,598	48,452	0,098	-0,068
-409,584	800,000	0,021	0,063
-408,569	277,970	0,024	-0,031
-407,555	-200,000	-0,007	0,046
-406,540	-164,566	-0,088	-0,003
-405,525	425,593	-0,033	0,052
-404,511	-200,000	-0,004	-0,198
-403,496	-200,000	0,003	-0,060
-402,482	-1,229	-0,040	-0,021
-401,467	228,438	0,094	0,113
-400,452	1,285	0,056	0,030
-399,438	-78,791	-0,031	-0,008
-398,423	-133,534	-0,123	-0,011
-397,409	-200,000	0,008	0,030
-396,394	161,649	0,013	0,013
-395,379	-28,469	0,016	0,007
-394,365	-200,000	0,006	-0,024
-393,350	148,690	0,058	-0,057
-392,336	800,000	0,035	0,095
-391,321	-200,000	0,000	-0,006
-390,306	-54,904	-0,076	-0,025
-389,292	135,780	-0,022	-0,021
-388,277	800,000	0,033	0,104
-387,263	222,768	0,060	-0,071
-386,248	662,120	0,027	0,051
-385,233	376,706	0,062	0,093
-384,219	245,356	-0,035	0,044
-383,204	800,000	-0,046	-0,113
-382,190	-104,751	0,070	-0,012
-381,175	-166,378	-0,060	0,002
-380,160	-200,000	0,011	0,054
-379,146	-3,526	0,101	0,051
-378,131	-47,302	-0,027	-0,010
-377,117	-200,000	0,013	0,097
-376,102	161,210	-0,035	0,036
-375,088	254,462	0,099	-0,125
-374,073	800,000	0,005	0,014
-373,058	57,805	0,024	-0,017
-372,044	800,000	0,033	-0,074
-371,029	74,262	-0,157	-0,121
-370,015	-200,000	0,010	-0,035
-369,000	249,661	-0,081	0,101
-367,985	221,502	-0,063	0,074
-366,971	123,953	-0,033	0,031
-365,956	-200,000	0,012	-0,059
-364,942	-200,000	0,030	0,102
-363,927	800,000	-0,026	0,073
-362,912	459,993	0,018	0,029
-361,898	-41,492	0,118	-0,044
-360,883	-200,000	0,027	-0,089
-359,869	-200,000	0,006	0,034
-358,854	800,000	-0,014	-0,045
-357,839	62,837	-0,094	0,069
-356,825	-200,000	-0,005	0,126
-355,810	-14,405	0,146	-0,069
-354,796	-120,935	-0,111	0,013
-353,781	-86,820	-0,044	0,010
-352,766	3,257	-0,133	0,071
-351,752	14,001	-0,047	0,027
-350,737	241,044	0,091	0,111
-349,723	12,806	0,085	-0,048
-348,708	-200,000	0,010	0,053
-347,693	114,627	0,058	-0,052
-346,679	-67,580	-0,154	0,044
-345,664	71,692	0,098	-0,075
-344,650	86,801	-0,077	0,062
-343,635	-0,637	0,129	-0,067
-342,620	45,756	0,132	0,089
-341,606	-35,114	-0,111	0,044
-340,591	-200,000	-0,013	-0,072
-339,577	774,154	-0,041	-0,083
-338,562	322,576	0,047	-0,066
-337,548	-200,000	-0,011	0,046
-336,533	-200,000	-0,007	-0,096
-335,518	-4,443	0,059	-0,030
-334,504	-113,725	0,117	0,017
-333,489	-94,257	0,017	-0,003
-332,475	-200,000	0,008	-0,113
-331,460	259,493	-0,039	0,049
-330,445	5,528	-0,108	-0,058
-329,431	-200,000	0,011	0,088
-328,416	800,000	0,026	0,074
-327,402	746,829	0,046	-0,092
-326,387	-59,696	0,026	-0,008
-325,372	50,277	-0,103	-0,072
-324,358	-148,725	-0,116	0,007
-323,343	-169,306	-0,048	-0,001
-322,329	-112,867	0,114	-0,016
-321,314	-112,100	0,067	0,010
-320,299	800,000	0,023	0,058
-319,285	-200,000	0,011	-0,089
-318,270	66,765	-0,092	0,068
-317,256	74,799	0,074	0,057
-316,241	-2,610	0,088	0,045
-315,226	800,000	0,021	0,066
-314,212	-200,000	-0,027	-0,107
-313,197	565,711	-0,023	-0,042
-312,183	-37,735	0,095	-0,037
-311,168	-200,000	0,010	-0,102
-310,153	-73,958	0,090	0,024
-309,139	-200,000	-0,019	-0,119
-308,124	800,000	-0,010	-0,032
-307,110	-200,000	0,014	-0,073
-306,095	-200,000	0,022	-0,119
-305,080	225,374	-0,132	0,157
-304,066	-200,000	0,027	0,109
-303,051	221,471	-0,017	0,020
-302,037	-200,000	-0,004	0,122
-301,022	800,000	0,039	0,103
-300,008	-133,893	-0,148	0,013
-298,993	-111,706	0,031	0,005
-297,978	12,591	-0,069	-0,039
-296,964	164,226	0,061	0,063
-295,949	-200,000	0,005	0,043
-294,935	130,146	-0,101	0,094
-293,920	160,097	0,024	-0,025
-292,905	33,513	-0,024	-0,015
-291,891	-200,000	0,032	-0,126
-290,876	60,369	0,050	-0,036
-289,862	-47,506	0,065	-0,023
-288,847	34,026	-0,075	0,048
-287,832	-120,466	-0,055	0,007
-286,818	180,791	-0,029	-0,031
-285,803	114,751	-0,035	-0,031
-284,789	123,860	0,079	0,073
-283,774	39,462	-0,032	0,021
-282,759	6,254	-0,046	0,025
-281,745	129,152	-0,019	-0,018
-280,730	-4,263	0,065	-0,033
-279,716	-200,000	0,000	0,146
-278,701	-4,961	0,064	0,032
-277,686	434,561	-0,032	-0,051
-276,672	-25,221	-0,091	0,039
-275,657	-41,530	0,148	0,055
-274,643	10,733	0,039	0,022
-273,628	-200,000	0,041	-0,144
-272,613	-200,000	0,007	-0,054
-271,599	190,269	0,073	0,080
-270,584	77,714	0,136	-0,106
-269,570	-200,000	-0,016	0,067
-268,555	-185,218	0,164	-0,002
-267,540	-200,000	0,000	-0,087
-266,526	-60,171	-0,038	0,012
-265,511	333,676	0,027	-0,038
-264,497	115,621	0,108	0,096
-263,482	718,763	-0,019	-0,037
-262,467	-117,180	0,118	-0,016
-261,453	184,511	0,076	0,082
-260,438	-200,000	0,014	-0,186
-259,424	-33,201	0,154	-0,062
-258,409	496,364	-0,078	0,131
-257,395	25,000	-0,023	0,014
-256,380	62,077	-0,020	-0,014
-255,365	245,730	0,077	0,095
-254,351	468,381	-0,069	0,114
-253,336	-200,000	-0,005	0,079
-252,322	-56,917	0,098	0,031
-251,307	84,497	0,024	0,019
-250,292	-32,891	0,111	-0,045
-249,278	-200,000	0,018	-0,102
-248,263	221,002	-0,060	0,070
-247,249	-0,343	0,030	-0,016
-246,234	195,069	0,085	-0,094
-245,219	800,000	-0,025	0,066
-244,205	-200,000	-0,024	-0,120
-243,190	800,000	0,036	-0,087
-242,176	252,689	-0,030	0,038
-241,161	241,478	-0,047	0,058
-240,146	-200,000	0,003	-0,092
-239,132	-200,000	-0,009	-0,055
-238,117	120,752	-0,086	-0,078
-237,103	-2,891	-0,127	-0,065
-236,088	135,831	0,055	0,052
-235,073	82,884	0,124	0,099
-234,059	-200,000	-0,007	-0,040
-233,044	-118,991	0,143	-0,018
-232,030	-102,909	-0,053	0,009
-231,015	800,000	0,039	-0,117
-230,000	153,674	-0,035	-0,035
-228,986	308,414	0,049	0,067
-227,971	-200,000	0,004	0,074
-226,957	141,454	-0,015	-0,015
-225,942	-41,801	-0,041	0,015
-224,927	800,000	0,010	0,030
-223,913	28,608	-0,083	0,051
-222,898	517,331	-0,019	-0,033
-221,884	-200,000	0,039	0,144
-220,869	800,000	0,033	0,106
-219,855	-83,815	0,117	0,027
-218,840	-18,205	-0,032	0,015
-217,825	-200,000	0,021	0,144
-216,811	87,794	-0,035	0,028
-215,796	-41,087	-0,040	-0,015
-214,782	221,636	0,033	-0,038
-213,767	56,991	0,065	0,046
-212,752	-200,000	0,024	0,136
-211,738	-200,000	-0,014	0,097
-210,723	-24,549	0,075	-0,032
-209,709	247,102	-0,069	0,085
-208,694	-4,350	-0,072	0,036
-207,679	800,000	-0,020	0,063
-206,665	-54,103	0,123	0,040
-205,650	12,710	0,123	-0,069
-204,636	-2,396	0,041	0,021
-203,621	-200,000	-0,006	0,111
-202,606	800,000	0,042	-0,086
-201,592	-35,598	-0,088	-0,035
-200,577	228,348	-0,065	-0,078
-199,563	-200,000	0,011	-0,068
-198,548	-52,256	0,094	0,032
-197,533	-94,640	0,113	-0,022
-196,519	176,416	0,063	-0,067
-195,504	302,413	0,122	-0,165
-194,490	-200,000	-0,121	0,000
-193,475	169,774	0,117	-0,122
-192,460	-157,891	-0,038	0,002
-191,446	-200,000	-0,002	0,035
-190,431	-148,903	0,065	0,004
-189,417	800,000	0,076	0,187
-188,402	-41,474	-0,095	0,035
-187,387	-72,196	-0,080	0,021
-186,373	529,495	-0,079	0,136
-185,358	-95,041	-0,109	0,021
-184,344	-200,000	0,033	0,109
-183,329	273,713	0,056	0,072
-182,315	-70,304	-0,144	0,040
-181,300	177,290	-0,068	-0,072
-180,285	17,301	-0,055	0,032
-179,271	-84,474	0,098	-0,022
-178,256	62,066	0,155	-0,112
-177,242	-47,003	-0,037	-0,013
-176,227	-200,000	-0,018	0,071
-175,212	311,358	-0,014	-0,019
-174,198	-200,000	0,006	0,049
-173,183	-200,000	0,005	-0,052
-172,169	-120,799	0,025	-0,003
-171,154	276,065	0,012	0,015
-170,139	-200,000	-0,005	0,022
-169,125	101,672	0,081	0,068
-168,110	641,444	-0,070	0,131
-167,096	218,521	0,056	0,066
-166,081	800,000	0,031	0,075
-165,066	800,000	-0,088	-0,207
-164,052	34,459	-0,080	-0,051
-163,037	-200,000	0,018	0,077
-162,023	-200,000	-0,022	-0,098
-161,008	800,000	-0,030	-0,087
-159,993	29,914	-0,002	-0,001
-158,979	-118,259	-0,145	0,019
-157,964	66,906	-0,077	-0,057
-156,950	307,610	0,029	-0,039
-155,935	276,751	0,119	0,155
-154,920	46,827	-0,079	-0,053
-153,906	130,119	0,050	-0,047
-152,891	455,980	-0,037	-0,060
-151,877	-157,204	-0,057	0,002
-150,862	-55,535	-0,046	0,015
-149,847	-200,000	0,001	0,114
-148,833	-41,430	0,096	-0,036
-147,818	712,054	-0,032	0,061
-146,804	-115,799	0,055	0,007
-145,789	-33,261	0,069	0,028
-144,775	-200,000	0,020	-0,094
-143,760	-186,665	0,131	-0,001
-142,745	-116,327	0,166	-0,022
-141,731	800,000	0,015	0,040
-140,716	800,000	-0,051	-0,145
-139,702	-24,478	0,007	0,003
-138,687	-200,000	0,002	0,041
-137,672	71,764	-0,090	-0,068
-136,658	-200,000	-0,023	-0,202
-135,643	142,018	-0,064	-0,062
-134,629	65,898	0,107	0,079
-133,614	102,119	0,040	0,034
-132,599	494,946	0,070	-0,117
-131,585	141,609	0,046	0,045
-130,570	84,986	-0,010	-0,008
-129,556	800,000	0,049	0,106
-128,541	-49,263	-0,021	-0,007
-127,526	182,816	-0,028	0,030
-126,512	800,000	-0,059	-0,147
-125,497	-200,000	0,002	0,037
-124,483	-200,000	0,056	0,223
-123,468	-31,544	-0,079	0,032
-122,453	-13,608	0,035	0,017
-121,439	239,380	-0,059	0,072
-120,424	800,000	-0,028	-0,069
-119,410	2,361	0,096	0,050
-118,395	-114,868	0,127	-0,017
