DTS Sentinel unit serial number:	SN410029Multiplexer serial number:	ORYXHardware model number:	OX2-SRSoftware version number:	ORYX F/W v4,00 Oryx Data Collector v3.7.2.0data status	okinstallation	B6 Nyhavnadifferential loss correction	single-endedforward channel	channel 2reverse channel	N/Adate	2023/12/07time	20:20:08forward acquisition time	300,00reverse acquisition time	0,00gamma	499,1914k internal	0,3164k external	0,3164temperature offset calibration	1,0000default loss term (dB/km)	0,3820temperature slope calibration	1,0000multiplexer offset coefficient	1,0000multiplexer slope coefficient	1,0000fibre end	0,00T internal ref (°C)	13,85T ext. ref 1 (°C)	-3,11T ext. ref 2 (°C)	-3,11length (m)	temperature (°C)	Stokes	anti-Stokes-744,400	-200,000	0,012	-0,075
-743,385	-3,777	-0,305	0,155
-742,371	-200,000	0,013	0,143
-741,356	-57,740	-0,383	0,123
-740,342	-8,519	0,236	0,116
-739,327	-80,128	-0,305	-0,075
-738,312	396,886	0,057	-0,088
-737,298	-55,400	-0,213	-0,070
-736,283	188,876	0,090	0,099
-735,269	-89,928	-0,260	-0,055
-734,254	-121,501	0,124	0,015
-733,239	-91,368	-0,564	-0,118
-732,225	-38,241	0,210	0,081
-731,210	248,651	-0,027	-0,033
-730,196	73,661	0,052	0,040
-729,181	509,801	-0,059	-0,102
-728,167	-200,000	-0,031	0,113
-727,152	-200,000	0,012	-0,042
-726,137	498,479	0,046	0,078
-725,123	-200,000	-0,012	-0,104
-724,108	-200,000	0,017	-0,134
-723,094	800,000	0,013	0,039
-722,079	-58,937	-0,131	-0,041
-721,064	-58,897	-0,028	0,009
-720,050	-52,824	-0,114	-0,038
-719,035	-200,000	-0,021	-0,140
-718,021	126,628	-0,039	0,036
-717,006	-28,800	-0,073	-0,031
-715,991	-200,000	-0,049	-0,177
-714,977	228,057	-0,105	-0,126
-713,962	-11,282	0,109	0,053
-712,948	-200,000	-0,009	-0,150
-711,933	76,651	-0,098	0,076
-710,918	494,090	0,058	0,098
-709,904	800,000	-0,019	0,056
-708,889	204,712	-0,077	-0,087
-707,875	-200,000	0,002	-0,215
-706,860	-200,000	-0,016	-0,055
-705,845	-200,000	-0,014	-0,133
-704,831	-4,581	0,061	-0,031
-703,816	-174,944	-0,144	-0,003
-702,802	-200,000	-0,008	-0,141
-701,787	149,840	0,129	-0,128
-700,772	-70,998	0,167	-0,046
-699,758	159,657	-0,116	-0,119
-698,743	-18,876	0,046	-0,021
-697,729	-78,427	-0,034	0,008
-696,714	-200,000	0,027	0,097
-695,699	581,519	-0,008	-0,014
-694,685	-22,969	0,126	-0,055
-693,670	75,659	-0,165	0,128
-692,656	800,000	-0,021	0,044
-691,641	81,668	0,104	-0,083
-690,627	69,946	0,085	0,064
-689,612	-58,398	-0,176	0,056
-688,597	-135,032	0,055	-0,005
-687,583	-24,343	0,069	-0,030
-686,568	23,837	0,065	0,039
-685,554	299,025	0,015	-0,021
-684,539	-44,433	0,190	0,069
-683,524	800,000	0,013	-0,039
-682,510	186,327	0,080	-0,087
-681,495	-200,000	0,024	-0,133
-680,481	-138,264	-0,095	-0,008
-679,466	-134,885	-0,016	-0,001
-678,451	371,088	0,069	-0,103
-677,437	800,000	-0,040	-0,107
-676,422	255,807	0,079	0,099
-675,408	200,279	0,020	0,023
-674,393	119,171	-0,084	-0,076
-673,378	771,048	-0,028	-0,057
-672,364	543,783	-0,035	-0,061
-671,349	-200,000	-0,044	0,170
-670,335	17,705	0,132	0,077
-669,320	-200,000	-0,013	0,151
-668,305	-200,000	-0,000	0,045
-667,291	43,734	-0,088	0,059
-666,276	-200,000	-0,002	-0,065
-665,262	736,951	-0,021	-0,042
-664,247	-200,000	-0,001	0,070
-663,232	34,323	0,037	-0,024
-662,218	45,488	0,102	0,069
-661,203	-200,000	-0,020	0,098
-660,189	577,107	-0,036	-0,066
-659,174	-96,578	-0,076	-0,015
-658,159	328,123	-0,017	-0,023
-657,145	131,791	0,081	-0,077
-656,130	800,000	0,046	-0,111
-655,116	-169,081	0,041	0,001
-654,101	800,000	-0,043	0,139
-653,086	-62,170	-0,058	-0,017
-652,072	46,590	0,069	0,047
-651,057	-133,262	-0,018	0,002
-650,043	576,607	-0,049	-0,087
-649,028	800,000	-0,032	-0,101
-648,014	-21,554	-0,059	0,026
-646,999	142,117	0,068	-0,067
-645,984	-8,767	-0,145	-0,071
-644,970	800,000	0,019	-0,053
-643,955	381,899	-0,089	-0,135
-642,941	42,938	0,033	-0,022
-641,926	-200,000	0,013	-0,147
-640,911	507,245	-0,100	-0,170
-639,897	-127,890	0,076	-0,008
-638,882	-200,000	0,002	0,094
-637,868	-164,731	0,056	0,002
-636,853	-200,000	0,000	-0,004
-635,838	75,962	-0,070	0,054
-634,824	223,524	-0,022	0,026
-633,809	-200,000	-0,008	0,078
-632,795	279,576	0,039	0,051
-631,780	800,000	0,031	0,097
-630,765	-200,000	0,012	-0,113
-629,751	79,871	-0,104	0,082
-628,736	-200,000	-0,033	-0,138
-627,722	-88,198	0,066	0,014
-626,707	-44,545	-0,126	-0,046
-625,692	71,285	-0,089	0,067
-624,678	-90,808	-0,044	0,009
-623,663	17,715	-0,078	-0,045
-622,649	-142,514	-0,207	-0,015
-621,634	440,785	-0,055	-0,088
-620,619	478,714	-0,054	-0,090
-619,605	17,266	0,031	0,018
-618,590	30,229	0,079	-0,049
-617,576	109,727	-0,069	0,060
-616,561	24,731	-0,053	0,032
-615,546	360,064	0,044	-0,065
-614,532	-79,845	-0,078	-0,019
-613,517	377,585	-0,071	0,107
-612,503	85,548	0,042	0,034
-611,488	74,048	-0,033	-0,025
-610,474	-11,511	-0,067	0,032
-609,459	-200,000	0,006	0,060
-608,444	800,000	-0,022	-0,059
-607,430	48,709	-0,062	-0,042
-606,415	28,715	0,070	-0,043
-605,401	-104,086	-0,075	-0,013
-604,386	-200,000	-0,001	-0,049
-603,371	-200,000	-0,020	-0,093
-602,357	-9,536	-0,063	-0,031
-601,342	-55,579	0,112	0,036
-600,328	-77,393	-0,119	0,030
-599,313	-90,468	-0,126	-0,026
-598,298	-200,000	-0,001	0,037
-597,284	-200,000	0,006	0,055
-596,269	-200,000	-0,001	0,149
-595,255	338,596	-0,038	0,055
-594,240	-200,000	-0,004	0,046
-593,225	800,000	0,059	-0,120
-592,211	800,000	-0,017	-0,047
-591,196	-200,000	-0,009	-0,088
-590,182	-77,712	0,086	0,022
-589,167	1,063	-0,120	0,063
-588,152	-156,013	0,128	0,006
-587,138	-169,149	-0,141	0,004
-586,123	800,000	0,031	-0,084
-585,109	-21,287	0,024	0,011
-584,094	800,000	0,053	-0,151
-583,079	-200,000	0,001	0,113
-582,065	39,869	0,105	-0,069
-581,050	427,730	0,073	0,115
-580,036	-200,000	0,005	0,036
-579,021	117,733	-0,069	-0,062
-578,006	800,000	-0,025	0,080
-576,992	-200,000	0,011	-0,052
-575,977	-77,585	0,207	-0,052
-574,963	-200,000	-0,025	0,154
-573,948	13,411	-0,043	0,025
-572,934	-200,000	-0,036	0,135
-571,919	42,509	0,011	0,007
-570,904	258,413	-0,037	0,047
-569,890	-40,772	-0,068	0,026
-568,875	95,807	-0,056	-0,047
-567,861	6,848	-0,088	0,048
-566,846	-200,000	-0,015	0,098
-565,831	141,847	0,045	0,044
-564,817	-44,681	-0,030	-0,011
-563,802	800,000	-0,030	-0,071
-562,788	800,000	-0,060	-0,156
-561,773	-200,000	-0,003	-0,171
-560,758	17,367	0,053	0,030
-559,744	262,829	0,079	0,100
-558,729	-150,546	-0,057	-0,003
-557,715	-200,000	0,023	0,096
-556,700	-200,000	0,001	0,029
-555,685	-94,840	0,116	0,023
-554,671	-138,998	0,032	-0,003
-553,656	800,000	-0,036	0,078
-552,642	31,907	0,060	-0,037
-551,627	132,378	0,043	-0,040
-550,612	-200,000	-0,001	-0,075
-549,598	59,631	-0,076	0,055
-548,583	-28,109	0,095	0,040
-547,569	-200,000	0,004	0,016
-546,554	593,540	-0,059	0,107
-545,539	800,000	0,024	0,068
-544,525	800,000	0,035	-0,076
-543,510	-25,718	0,136	-0,058
-542,496	259,322	-0,074	-0,094
-541,481	334,464	0,008	-0,011
-540,466	800,000	0,037	-0,088
-539,452	148,711	0,127	-0,125
-538,437	400,240	-0,033	0,051
-537,423	-27,659	0,132	0,056
-536,408	800,000	0,026	0,069
-535,393	-200,000	0,017	0,124
-534,379	-50,147	-0,041	0,014
-533,364	311,929	-0,046	0,063
-532,350	-28,294	0,015	-0,006
-531,335	-63,257	-0,047	-0,014
-530,321	-117,575	0,053	-0,007
-529,306	-35,684	-0,103	-0,040
-528,291	-200,000	-0,005	-0,041
-527,277	-46,928	0,101	0,036
-526,262	-200,000	-0,017	0,123
-525,248	319,238	-0,045	-0,062
-524,233	67,200	-0,044	0,032
-523,218	-200,000	-0,218	0,000
-522,204	271,087	-0,034	0,044
-521,189	-117,779	-0,151	0,020
-520,175	800,000	0,028	-0,076
-519,160	87,726	0,098	-0,079
-518,145	367,567	0,043	-0,063
-517,131	-30,276	0,185	0,076
-516,116	-200,000	0,031	0,120
-515,102	800,000	-0,032	-0,096
-514,087	747,839	0,065	0,128
-513,072	-36,530	0,071	0,028
-512,058	185,555	-0,096	0,104
-511,043	162,044	-0,079	0,081
-510,029	-162,136	0,100	-0,004
-509,014	-13,782	-0,160	0,075
-507,999	-200,000	0,019	0,099
-506,985	-43,846	-0,101	-0,037
-505,970	800,000	0,033	0,097
-504,956	112,306	0,086	-0,076
-503,941	14,352	-0,079	-0,045
-502,926	-200,000	0,010	0,046
-501,912	-73,668	-0,072	-0,019
-500,897	800,000	0,060	0,138
-499,883	24,038	-0,083	0,050
-498,868	-200,000	-0,021	-0,121
-497,853	-38,782	-0,022	0,008
-496,839	-200,000	-0,048	0,161
-495,824	321,524	0,079	0,109
-494,810	-200,000	-0,043	0,162
-493,795	-118,451	0,150	0,019
-492,781	-3,681	-0,118	-0,060
-491,766	108,555	-0,038	0,033
-490,751	-141,876	-0,146	-0,010
-489,737	-122,777	-0,024	0,003
-488,722	373,981	0,059	0,088
-487,708	-200,000	-0,002	0,030
-486,693	22,475	-0,042	-0,025
-485,678	200,589	-0,099	-0,111
-484,664	113,459	-0,128	-0,113
-483,649	-200,000	-0,002	-0,192
-482,635	296,199	-0,118	-0,158
-481,620	-128,322	0,067	-0,007
-480,605	-80,079	0,041	-0,010
-479,591	47,621	-0,065	0,044
-478,576	587,336	0,021	-0,038
-477,562	800,000	-0,009	-0,025
-476,547	275,176	-0,063	-0,081
-475,532	142,113	-0,016	0,016
-474,518	-74,013	0,012	0,003
-473,503	501,264	0,064	-0,107
-472,489	-200,000	-0,040	0,180
-471,474	-5,185	0,121	0,060
-470,459	75,903	-0,112	-0,086
-469,445	800,000	0,027	0,077
-468,430	-200,000	0,006	-0,101
-467,416	276,368	0,091	-0,118
-466,401	800,000	0,052	0,118
-465,386	-108,321	-0,075	-0,012
-464,372	-54,365	-0,154	0,051
-463,357	-68,032	0,058	0,016
-462,343	2,801	-0,110	0,058
-461,328	-19,269	0,056	0,025
-460,313	47,741	0,032	0,022
-459,299	800,000	0,040	0,111
-458,284	66,361	-0,097	0,072
-457,270	42,678	0,032	0,021
-456,255	-124,414	0,096	0,011
-455,241	19,837	0,093	-0,054
-454,226	-12,775	-0,107	-0,051
-453,211	-134,878	0,092	-0,008
-452,197	-200,000	0,019	0,165
-451,182	22,855	-0,109	-0,065
-450,168	88,406	0,099	-0,080
-449,153	800,000	0,038	0,105
-448,138	-200,000	-0,013	0,106
-447,124	-200,000	-0,006	-0,036
-446,109	-164,408	0,159	-0,005
-445,095	-3,105	0,111	0,056
-444,080	435,605	0,042	0,067
-443,065	98,846	0,045	0,038
-442,051	-98,571	-0,132	0,024
-441,036	654,283	0,070	-0,132
-440,022	540,970	-0,051	0,088
-439,007	-200,000	0,009	0,053
-437,992	800,000	-0,067	-0,203
-436,978	800,000	0,045	0,121
-435,963	274,464	0,095	-0,122
-434,949	-1,964	-0,148	-0,075
-433,934	800,000	-0,044	-0,105
-432,919	-200,000	0,030	-0,103
-431,905	800,000	-0,080	-0,250
-430,890	-73,527	0,087	-0,023
-429,876	800,000	0,029	0,062
-428,861	149,820	-0,038	0,038
-427,846	-87,815	-0,082	0,018
-426,832	425,962	-0,052	-0,082
-425,817	800,000	0,057	0,132
-424,803	43,038	0,090	-0,060
-423,788	-117,999	-0,043	-0,005
-422,773	-200,000	-0,004	-0,049
-421,759	313,261	0,045	-0,062
-420,744	173,768	0,121	0,127
-419,730	-115,035	0,024	-0,003
-418,715	-200,000	-0,009	-0,032
-417,701	7,241	-0,202	0,109
-416,686	197,152	-0,012	0,013
-415,671	-109,865	0,114	-0,017
-414,657	207,155	-0,023	-0,026
-413,642	192,208	-0,074	0,081
-412,628	219,699	-0,120	-0,139
-411,613	489,982	0,076	-0,127
-410,598	-160,547	0,088	-0,003
-409,584	-107,629	0,117	-0,018
-408,569	197,383	0,097	0,108
-407,555	414,450	0,018	-0,028
-406,540	800,000	0,023	-0,058
-405,525	-87,501	0,085	0,019
-404,511	230,111	-0,066	0,079
-403,496	2,344	-0,123	0,064
-402,482	500,108	-0,041	0,069
-401,467	142,816	-0,114	0,110
-400,452	-21,055	0,157	0,070
-399,438	-9,633	-0,113	0,055
-398,423	-70,940	-0,128	0,035
-397,409	135,106	-0,128	-0,121
-396,394	-54,923	-0,056	0,018
-395,379	296,637	0,026	0,034
-394,365	23,957	0,106	0,064
-393,350	-77,914	-0,076	0,019
-392,336	800,000	0,023	-0,054
-391,321	383,650	0,072	0,108
-390,306	509,369	-0,048	-0,082
-389,292	37,299	0,049	-0,031
-388,277	-137,576	-0,102	-0,008
-387,263	-200,000	0,026	-0,102
-386,248	-38,024	0,109	-0,042
-385,233	-70,960	-0,072	-0,020
-384,219	-200,000	0,030	-0,203
-383,204	533,833	-0,081	-0,139
-382,190	-69,541	-0,045	-0,012
-381,175	261,186	0,054	0,068
-380,160	51,492	0,099	-0,068
-379,146	-184,721	0,113	-0,001
-378,131	800,000	0,059	-0,135
-377,117	-200,000	-0,030	-0,182
-376,102	800,000	-0,078	-0,194
-375,088	-103,187	0,114	0,019
-374,073	-1,045	0,059	-0,030
-373,058	-200,000	-0,001	-0,045
-372,044	-200,000	0,007	0,029
-371,029	391,808	0,086	0,130
-370,015	3,717	0,110	-0,058
-369,000	-73,249	-0,137	-0,036
-367,985	-200,000	0,034	0,139
-366,971	-149,134	0,124	-0,007
-365,956	11,609	-0,036	0,020
-364,942	87,800	0,028	-0,023
-363,927	-44,667	0,180	0,065
-362,912	-97,775	0,050	-0,009
-361,898	800,000	0,027	0,084
-360,883	46,004	0,050	-0,034
-359,869	385,710	0,050	-0,075
-358,854	800,000	-0,024	0,072
-357,839	-200,000	0,025	0,083
-356,825	-200,000	-0,027	0,136
-355,810	274,326	-0,025	0,032
-354,796	-200,000	0,015	-0,065
-353,781	89,054	-0,046	0,037
-352,766	-200,000	-0,008	0,080
-351,752	288,669	0,073	-0,096
-350,737	91,688	0,030	0,025
-349,723	52,844	-0,080	0,055
-348,708	32,658	0,131	-0,082
-347,693	-89,795	0,095	0,020
-346,679	-103,436	-0,061	-0,010
-345,664	-65,550	-0,083	-0,024
-344,650	647,717	-0,054	0,100
-343,635	-200,000	0,009	0,054
-342,620	800,000	-0,059	-0,130
-341,606	2,402	-0,018	-0,009
-340,591	-200,000	0,022	-0,085
-339,577	-90,909	-0,095	0,020
-338,562	48,401	0,029	-0,020
-337,548	-200,000	-0,002	0,044
-336,533	-59,897	0,042	0,013
-335,518	800,000	0,021	-0,053
-334,504	134,115	0,093	0,087
-333,489	-185,013	-0,066	0,001
-332,475	-41,742	0,060	-0,022
-331,460	-103,399	-0,068	-0,011
-330,445	206,895	-0,054	0,061
-329,431	217,385	0,082	0,095
-328,416	149,668	0,070	0,069
-327,402	29,464	0,033	-0,020
-326,387	187,910	0,044	-0,048
-325,372	96,156	-0,092	-0,076
-324,358	696,378	0,060	0,114
-323,343	-200,000	0,005	-0,043
-322,329	-200,000	0,006	-0,080
-321,314	365,779	0,075	0,110
-320,299	136,849	0,123	0,116
-319,285	241,523	-0,092	-0,111
-318,270	-58,783	-0,043	0,013
-317,256	124,752	-0,073	0,067
-316,241	334,897	-0,060	-0,084
-315,226	-200,000	-0,035	-0,120
-314,212	800,000	0,064	-0,158
-313,197	-101,001	0,057	-0,010
-312,183	691,741	-0,046	0,087
-311,168	-119,461	-0,138	0,017
-310,153	445,781	-0,066	-0,105
-309,139	-0,266	-0,169	-0,086
-308,124	14,735	-0,007	-0,004
-307,110	800,000	-0,024	-0,064
-306,095	58,522	0,149	-0,105
-305,080	589,486	-0,035	0,063
-304,066	564,956	-0,015	-0,027
-303,051	18,527	0,100	-0,058
-302,037	67,443	-0,011	-0,008
-301,022	800,000	-0,041	0,083
-300,008	-142,625	-0,074	-0,005
-298,993	-64,821	0,105	-0,031
-297,978	-200,000	0,007	0,108
-296,964	800,000	0,039	0,090
-295,949	-77,574	-0,085	0,021
-294,935	-32,593	0,084	-0,034
-293,920	-200,000	0,015	-0,080
-292,905	-7,181	0,068	0,033
-291,891	-200,000	-0,006	0,029
-290,876	-74,391	-0,070	0,018
-289,862	-200,000	0,027	0,088
-288,847	-64,394	0,082	0,024
-287,832	-200,000	0,045	-0,171
-286,818	191,390	0,016	-0,017
-285,803	-200,000	0,030	-0,127
-284,789	110,954	0,051	0,044
-283,774	629,918	-0,008	-0,015
-282,759	-25,455	-0,024	-0,010
-281,745	483,607	-0,016	0,027
-280,730	-51,480	-0,169	0,057
-279,716	104,136	-0,113	0,096
-278,701	-104,275	0,076	-0,013
-277,686	-46,311	0,055	0,019
-276,672	800,000	-0,050	-0,111
-275,657	-200,000	-0,008	-0,154
-274,643	17,363	0,045	-0,026
-273,628	-131,380	-0,086	0,008
-272,613	800,000	-0,053	-0,166
-271,599	-200,000	0,026	-0,176
-270,584	-5,082	0,124	-0,061
-269,570	88,100	0,059	0,047
-268,555	-90,759	-0,086	-0,018
-267,540	608,909	-0,057	-0,104
-266,526	-147,544	-0,054	-0,003
-265,511	143,441	-0,085	-0,082
-264,497	-80,789	0,095	-0,023
-263,482	800,000	0,067	0,142
-262,467	203,552	0,083	0,092
-261,453	-127,075	0,103	-0,011
-260,438	-21,399	0,173	-0,076
-259,424	-200,000	-0,000	-0,002
-258,409	800,000	0,027	0,057
-257,395	800,000	-0,077	0,208
-256,380	748,703	0,052	0,101
-255,365	-200,000	0,024	0,076
-254,351	-60,101	-0,015	0,005
-253,336	-12,455	0,058	0,027
-252,322	800,000	-0,013	-0,035
-251,307	195,022	0,012	-0,013
-250,292	179,257	-0,123	0,130
-249,278	365,168	0,100	0,145
-248,263	411,256	0,097	0,149
-247,249	79,570	-0,043	0,033
-246,234	-63,677	0,047	-0,014
-245,219	-68,618	-0,093	-0,026
-244,205	-78,126	0,187	-0,046
-243,190	-200,000	0,003	-0,078
-242,176	138,362	0,032	-0,031
-241,161	101,774	0,069	0,058
-240,146	-132,314	0,054	-0,005
-239,132	27,128	-0,127	0,077
-238,117	311,431	-0,074	-0,100
-237,103	154,045	0,096	0,095
-236,088	800,000	0,005	0,013
-235,073	-123,503	-0,016	-0,002
-234,059	800,000	0,060	0,145
-233,044	-112,361	0,045	0,006
-232,030	-159,740	-0,118	0,005
-231,015	226,095	0,055	0,065
-230,000	-18,068	-0,148	-0,067
-228,986	-162,757	0,190	-0,007
-227,971	-200,000	-0,012	0,083
-226,957	105,581	0,051	-0,044
-225,942	-131,065	0,017	0,002
-224,927	71,375	0,064	0,048
-223,913	-101,632	0,127	-0,022
-222,898	-200,000	0,023	-0,111
-221,884	800,000	0,080	-0,165
-220,869	83,809	-0,114	0,090
-219,855	-151,449	0,078	0,004
-218,840	-200,000	0,001	-0,023
-217,825	320,075	-0,105	-0,144
-216,811	-73,476	-0,045	0,012
-215,796	239,748	-0,101	-0,121
-214,782	388,654	0,051	0,076
-213,767	-128,939	0,085	-0,008
-212,752	-74,441	0,126	0,033
-211,738	-44,729	-0,095	0,034
-210,723	62,423	-0,055	-0,040
-209,709	-87,256	-0,147	0,032
-208,694	-200,000	0,003	-0,012
-207,679	85,216	-0,087	-0,069
-206,665	800,000	-0,017	0,039
-205,650	12,415	0,104	0,058
-204,636	236,476	-0,069	0,083
-203,621	104,987	0,053	0,045
-202,606	-20,334	-0,132	0,058
-201,592	-68,646	-0,125	0,035
-200,577	800,000	-0,017	0,036
-199,563	471,712	0,063	0,102
-198,548	56,545	0,066	-0,046
-197,533	413,183	-0,090	0,139
-196,519	264,239	-0,020	-0,025
-195,504	12,371	-0,082	-0,046
-194,490	47,344	-0,035	-0,023
-193,475	13,458	0,057	-0,032
-192,460	-66,323	-0,033	-0,009
-191,446	516,385	0,107	-0,180
-190,431	388,760	0,049	0,073
-189,417	800,000	0,048	0,099
-188,402	451,356	0,077	0,123
-187,387	-156,415	-0,086	-0,004
-186,373	-137,728	0,026	0,002
-185,358	50,533	-0,046	0,031
-184,344	-110,784	0,176	-0,026
-183,329	-200,000	-0,003	-0,111
-182,315	386,939	-0,067	0,100
-181,300	-200,000	0,006	0,040
-180,285	391,361	0,143	0,214
-179,271	-200,000	0,021	0,094
-178,256	347,130	0,087	-0,124
-177,242	800,000	0,047	-0,120
-176,227	-22,019	-0,105	-0,046
-175,212	-200,000	-0,023	0,078
-174,198	-144,876	0,135	0,009
-173,183	42,145	-0,095	0,062
-172,169	-42,886	-0,095	-0,035
-171,154	-92,830	-0,066	-0,013
-170,139	-82,282	0,047	-0,011
-169,125	23,979	-0,074	0,044
-168,110	282,329	-0,045	0,059
-167,096	128,990	-0,054	0,050
-166,081	-45,921	-0,162	0,057
-165,066	-25,091	0,049	-0,021
-164,052	800,000	-0,047	-0,137
-163,037	613,641	-0,076	-0,137
-162,023	-96,786	0,088	-0,017
-161,008	-200,000	0,019	0,146
-159,993	-77,780	0,119	-0,029
-158,979	800,000	-0,032	-0,077
-157,964	-200,000	0,035	-0,113
-156,950	147,112	0,087	-0,084
-155,935	-200,000	0,030	-0,139
-154,920	-111,921	0,093	-0,013
-153,906	-200,000	0,025	0,194
-152,891	-200,000	0,011	-0,064
-151,877	-200,000	-0,031	0,114
-150,862	-200,000	0,026	0,121
-149,847	800,000	0,031	-0,084
-148,833	49,369	-0,025	-0,017
-147,818	-200,000	-0,007	0,068
-146,804	-125,967	0,119	0,013
-145,789	-200,000	0,004	-0,033
-144,775	800,000	-0,017	0,043
-143,760	61,142	0,040	0,028
-142,745	184,963	-0,150	-0,160
-141,731	779,400	0,031	0,060
-140,716	-200,000	-0,009	0,152
-139,702	353,160	0,149	0,212
-138,687	10,477	0,012	-0,007
-137,672	626,835	-0,053	-0,096
-136,658	142,959	0,080	-0,077
-135,643	6,114	-0,008	0,004
-134,629	196,275	0,065	0,072
-133,614	-15,862	0,107	0,049
-132,599	65,047	0,130	0,094
-131,585	-200,000	-0,018	0,146
-130,570	-88,737	-0,169	0,036
-129,556	-200,000	0,031	-0,163
-128,541	-146,471	-0,084	-0,005
-127,526	9,160	-0,089	0,048
-126,512	-63,010	0,059	0,017
-125,497	-200,000	-0,014	0,118
-124,483	515,753	0,062	0,104
-123,468	-78,986	-0,040	-0,010
-122,453	210,871	-0,060	0,067
-121,439	-200,000	0,006	0,113
-120,424	138,075	-0,016	-0,015
-119,410	800,000	-0,024	0,064
-118,395	123,476	-0,026	-0,023
