DTS Sentinel unit serial number:	SN410029Multiplexer serial number:	ORYXHardware model number:	OX2-SRSoftware version number:	ORYX F/W v4,00 Oryx Data Collector v3.7.2.0data status	okinstallation	B6 Nyhavnadifferential loss correction	single-endedforward channel	channel 2reverse channel	N/Adate	2023/12/10time	08:25:08forward acquisition time	300,00reverse acquisition time	0,00gamma	499,1914k internal	0,3123k external	0,3123temperature offset calibration	1,0000default loss term (dB/km)	0,3820temperature slope calibration	1,0000multiplexer offset coefficient	1,0000multiplexer slope coefficient	1,0000fibre end	0,00T internal ref (°C)	22,57T ext. ref 1 (°C)	6,33T ext. ref 2 (°C)	6,32length (m)	temperature (°C)	Stokes	anti-Stokes-744,400	195,904	-0,068	-0,077
-743,385	-146,967	-0,139	-0,009
-742,371	31,747	0,058	-0,037
-741,356	-34,768	-0,159	0,064
-740,342	117,879	-0,101	-0,093
-739,327	-83,368	-0,234	0,056
-738,312	-200,000	-0,014	-0,048
-737,298	-133,104	-0,297	-0,028
-736,283	-32,110	0,015	-0,006
-735,269	-86,353	-0,118	0,027
-734,254	-200,000	0,006	0,055
-733,239	-60,123	-0,444	-0,140
-732,225	800,000	-0,007	-0,020
-731,210	250,522	0,047	0,060
-730,196	-200,000	-0,006	-0,048
-729,181	-66,350	0,106	0,031
-728,167	-200,000	0,018	0,059
-727,152	-113,908	0,102	0,015
-726,137	-63,253	-0,073	0,022
-725,123	-200,000	0,001	0,069
-724,108	800,000	0,020	-0,045
-723,094	175,846	-0,092	-0,100
-722,079	800,000	-0,040	-0,087
-721,064	752,018	-0,026	-0,053
-720,050	-200,000	-0,011	-0,050
-719,035	-145,464	-0,177	0,012
-718,021	-48,633	-0,110	-0,039
-717,006	2,835	-0,107	0,057
-715,991	68,229	-0,140	0,106
-714,977	25,371	-0,085	-0,052
-713,962	-14,273	0,117	-0,056
-712,948	424,300	-0,044	-0,071
-711,933	303,535	0,012	-0,016
-710,918	-200,000	-0,003	0,132
-709,904	-168,475	-0,121	-0,003
-708,889	-200,000	0,009	0,057
-707,875	-71,231	-0,133	0,037
-706,860	-78,226	0,051	0,013
-705,845	154,511	0,110	-0,112
-704,831	43,987	-0,056	-0,038
-703,816	15,366	-0,032	-0,019
-702,802	-11,257	-0,059	0,029
-701,787	27,811	0,038	-0,024
-700,772	29,320	-0,095	0,060
-699,758	-161,986	0,139	-0,005
-698,743	-130,073	0,106	-0,011
-697,729	-149,988	-0,080	-0,005
-696,714	800,000	-0,065	0,171
-695,699	-140,781	-0,073	-0,006
-694,685	215,689	0,067	-0,080
-693,670	-200,000	-0,037	0,192
-692,656	118,424	0,077	0,070
-691,641	0,386	0,116	-0,061
-690,627	240,561	0,032	0,040
-689,612	647,045	0,072	0,137
-688,597	-57,882	0,058	0,019
-687,583	-200,000	0,004	-0,039
-686,568	381,300	0,049	-0,075
-685,554	800,000	-0,051	-0,125
-684,539	728,356	-0,071	0,141
-683,524	-200,000	0,000	0,061
-682,510	-168,908	-0,119	-0,003
-681,495	591,421	-0,012	-0,022
-680,481	800,000	-0,063	-0,144
-679,466	233,683	-0,050	-0,062
-678,451	-200,000	-0,017	-0,132
-677,437	-32,871	-0,153	0,063
-676,422	-87,068	-0,067	-0,015
-675,408	-200,000	-0,010	0,069
-674,393	-69,434	0,085	0,024
-673,378	390,681	-0,043	-0,067
-672,364	800,000	-0,014	0,034
-671,349	-125,931	-0,093	0,010
-670,335	-200,000	0,017	-0,065
-669,320	-4,341	-0,194	-0,100
-668,305	408,580	-0,020	0,032
-667,291	-32,141	-0,066	0,027
-666,276	-200,000	0,021	-0,088
-665,262	81,243	-0,077	0,061
-664,247	800,000	0,065	-0,146
-663,232	86,615	-0,035	0,028
-662,218	-109,166	-0,076	-0,012
-661,203	-107,910	0,101	0,016
-660,189	670,585	-0,041	0,079
-659,174	-200,000	0,008	0,038
-658,159	-200,000	-0,047	-0,161
-657,145	616,115	-0,058	-0,109
-656,130	276,401	-0,083	0,110
-655,116	174,000	-0,074	0,080
-654,101	60,989	0,088	-0,065
-653,086	148,791	0,050	-0,051
-652,072	596,302	0,055	-0,102
-651,057	184,635	0,022	0,024
-650,043	-56,854	-0,009	0,003
-649,028	-147,782	0,023	-0,001
-648,014	115,304	-0,015	0,014
-646,999	-200,000	-0,036	0,140
-645,984	-41,635	-0,125	-0,047
-644,970	-55,009	-0,050	-0,017
-643,955	-170,853	-0,064	0,002
-642,941	564,269	-0,066	-0,119
-641,926	-153,869	-0,116	0,006
-640,911	164,941	0,065	0,069
-639,897	-200,000	0,022	-0,087
-638,882	-200,000	0,019	0,063
-637,868	-4,822	-0,173	-0,088
-636,853	468,908	0,034	0,058
-635,838	365,646	-0,025	-0,038
-634,824	-200,000	-0,005	0,029
-633,809	800,000	0,008	-0,018
-632,795	-200,000	-0,004	-0,095
-631,780	517,104	-0,017	-0,030
-630,765	-200,000	0,000	-0,036
-629,751	-200,000	-0,014	-0,058
-628,736	173,599	-0,070	-0,075
-627,722	-120,659	-0,037	-0,005
-626,707	94,742	0,052	-0,044
-625,692	591,621	0,077	0,141
-624,678	252,742	-0,024	0,031
-623,663	356,283	0,019	0,028
-622,649	-200,000	0,001	0,151
-621,634	-200,000	-0,020	-0,162
-620,619	-200,000	-0,023	-0,075
-619,605	-200,000	0,004	0,066
-618,590	-84,731	-0,135	0,031
-617,576	-0,519	-0,109	-0,057
-616,561	89,675	-0,100	0,083
-615,546	-200,000	0,005	-0,086
-614,532	800,000	-0,032	-0,089
-613,517	-96,793	-0,242	0,047
-612,503	800,000	0,060	-0,124
-611,488	322,212	0,038	0,054
-610,474	33,746	0,083	0,054
-609,459	67,846	0,078	0,059
-608,444	-5,553	-0,099	-0,050
-607,430	-135,037	-0,082	-0,007
-606,415	205,477	0,104	0,120
-605,401	-112,027	0,059	0,009
-604,386	-57,863	-0,048	-0,016
-603,371	260,694	0,057	-0,073
-602,357	-105,829	-0,047	0,008
-601,342	167,249	-0,057	-0,060
-600,328	800,000	-0,054	-0,112
-599,313	287,318	0,077	-0,104
-598,298	147,596	-0,083	-0,083
-597,284	-46,724	-0,033	-0,012
-596,269	298,068	-0,050	-0,069
-595,255	73,221	-0,090	0,069
-594,240	-82,897	-0,117	-0,028
-593,225	-41,919	-0,112	0,042
-592,211	-194,198	0,134	-0,001
-591,196	165,604	0,056	-0,059
-590,182	40,885	-0,047	-0,031
-589,167	167,546	-0,097	0,103
-588,152	447,981	0,052	0,085
-587,138	20,867	0,093	0,056
-586,123	-200,000	-0,075	-0,285
-585,109	-200,000	-0,009	-0,051
-584,094	161,367	0,103	-0,107
-583,079	-200,000	-0,020	0,151
-582,065	800,000	-0,040	0,123
-581,050	34,267	0,089	0,058
-580,036	-144,422	-0,063	0,004
-579,021	-157,979	-0,159	-0,007
-578,006	-200,000	0,030	-0,143
-576,992	800,000	-0,013	-0,042
-575,977	-136,431	0,106	-0,009
-574,963	-200,000	-0,011	-0,045
-573,948	800,000	-0,016	-0,036
-572,934	-110,219	-0,101	0,015
-571,919	69,418	-0,074	0,056
-570,904	-74,802	-0,157	-0,041
-569,890	143,545	0,047	-0,046
-568,875	-200,000	0,003	0,047
-567,861	-133,516	-0,074	0,007
-566,846	-200,000	-0,007	0,068
-565,831	37,049	-0,073	-0,048
-564,817	-42,131	-0,084	0,032
-563,802	-200,000	0,022	0,138
-562,788	-200,000	-0,046	-0,184
-561,773	26,242	0,005	-0,003
-560,758	12,815	-0,086	-0,049
-559,744	800,000	0,032	-0,092
-558,729	800,000	-0,010	-0,022
-557,715	80,866	-0,010	0,008
-556,700	-13,304	-0,072	-0,034
-555,685	96,616	0,046	-0,039
-554,671	-200,000	0,002	-0,102
-553,656	12,651	0,165	0,094
-552,642	6,502	0,090	-0,049
-551,627	-95,842	-0,155	-0,030
-550,612	-200,000	-0,007	0,031
-549,598	-11,020	-0,065	-0,032
-548,583	101,480	0,020	-0,017
-547,569	-200,000	-0,034	-0,121
-546,554	335,220	0,062	0,089
-545,539	-53,345	-0,038	-0,013
-544,525	272,690	0,064	-0,084
-543,510	125,105	0,040	-0,037
-542,496	-200,000	-0,032	-0,122
-541,481	-57,599	-0,087	0,028
-540,466	-88,350	0,034	0,007
-539,452	766,606	-0,026	0,053
-538,437	800,000	0,031	0,100
-537,423	71,188	0,059	-0,045
-536,408	-200,000	0,007	-0,058
-535,393	205,246	-0,037	0,042
-534,379	72,544	0,010	0,008
-533,364	-200,000	-0,006	-0,079
-532,350	165,985	0,043	0,045
-531,335	-109,752	-0,086	0,013
-530,321	-53,833	0,108	0,036
-529,306	713,223	0,020	-0,039
-528,291	-200,000	-0,041	-0,166
-527,277	453,001	-0,081	-0,134
-526,262	712,119	-0,070	-0,138
-525,248	-200,000	0,024	-0,122
-524,233	258,054	0,044	-0,057
-523,218	13,783	-0,024	-0,014
-522,204	-42,972	-0,149	-0,056
-521,189	-200,000	-0,005	0,055
-520,175	-148,801	0,056	0,003
-519,160	234,119	-0,038	0,046
-518,145	-200,000	0,006	0,035
-517,131	87,542	0,108	0,088
-516,116	467,997	0,032	-0,054
-515,102	-85,719	-0,122	-0,028
-514,087	-6,366	0,012	-0,006
-513,072	800,000	-0,013	0,038
-512,058	800,000	-0,074	0,152
-511,043	-8,341	0,084	-0,041
-510,029	223,457	-0,032	0,038
-509,014	-37,094	0,099	0,039
-507,999	-88,747	-0,043	-0,009
-506,985	142,265	-0,054	-0,052
-505,970	206,842	-0,064	-0,074
-504,956	-200,000	0,006	-0,114
-503,941	-200,000	0,017	0,065
-502,926	-40,078	-0,064	-0,024
-501,912	-98,161	0,139	0,026
-500,897	-12,490	0,068	0,032
-499,883	-124,690	-0,085	0,010
-498,868	21,604	-0,151	-0,091
-497,853	-200,000	0,028	-0,094
-496,839	462,298	0,029	-0,048
-495,824	-15,626	0,025	0,012
-494,810	-200,000	0,006	-0,029
-493,795	-200,000	0,016	0,075
-492,781	-12,299	0,123	-0,059
-491,766	30,868	0,064	-0,040
-490,751	-200,000	0,007	-0,101
-489,737	194,503	0,036	-0,040
-488,722	77,021	-0,102	0,080
-487,708	-52,981	0,175	0,059
-486,693	77,033	0,013	-0,010
-485,678	-200,000	0,004	0,060
-484,664	-135,657	0,050	0,004
-483,649	23,763	0,021	-0,013
-482,635	800,000	0,034	-0,094
-481,620	-41,588	0,027	0,010
-480,605	-9,636	-0,018	-0,009
-479,591	-94,659	-0,070	-0,014
-478,576	128,562	-0,122	-0,115
-477,562	-49,887	0,094	-0,033
-476,547	442,121	0,048	-0,078
-475,532	413,168	-0,030	0,048
-474,518	118,262	0,078	-0,071
-473,503	800,000	0,065	0,136
-472,489	358,249	0,063	-0,093
-471,474	353,405	0,063	-0,093
-470,459	-74,445	0,031	-0,008
-469,445	800,000	-0,010	0,028
-468,430	78,416	0,044	-0,034
-467,416	29,395	-0,088	-0,055
-466,401	-200,000	-0,007	-0,041
-465,386	23,921	0,136	-0,083
-464,372	175,436	-0,114	0,122
-463,357	120,956	-0,119	0,109
-462,343	-101,753	-0,127	0,023
-461,328	20,579	-0,087	-0,052
-460,313	-109,738	0,108	-0,017
-459,299	-200,000	-0,027	-0,095
-458,284	687,828	0,059	-0,114
-457,270	0,571	0,091	0,048
-456,255	774,790	-0,040	0,081
-455,241	173,425	0,068	-0,072
-454,226	800,000	-0,026	-0,082
-453,211	-105,091	-0,087	-0,015
-452,197	-200,000	0,012	0,063
-451,182	-200,000	0,014	0,121
-450,168	-88,504	0,063	-0,014
-449,153	-37,094	-0,088	0,035
-448,138	-111,543	-0,064	-0,009
-447,124	181,089	0,031	-0,034
-446,109	-16,833	-0,061	0,028
-445,095	58,611	0,104	0,075
-444,080	-102,273	0,083	-0,015
-443,065	-200,000	0,056	0,205
-442,051	-52,877	0,127	0,043
-441,036	203,398	-0,129	0,147
-440,022	247,308	-0,035	0,044
-439,007	226,303	-0,116	-0,139
-437,992	133,491	0,065	0,062
-436,978	53,622	0,075	0,053
-435,963	-148,671	0,058	0,003
-434,949	242,036	0,071	0,088
-433,934	20,231	0,030	0,018
-432,919	-200,000	-0,003	0,017
-431,905	551,800	0,063	0,112
-430,890	264,707	0,118	0,152
-429,876	114,732	0,082	0,073
-428,861	77,868	0,049	0,038
-427,846	1,713	-0,074	-0,039
-426,832	120,568	-0,043	-0,039
-425,817	303,068	0,059	-0,081
-424,803	800,000	-0,067	-0,140
-423,788	17,945	0,059	0,034
-422,773	800,000	-0,011	0,030
-421,759	800,000	-0,044	0,127
-420,744	6,926	-0,046	0,025
-419,730	43,759	-0,133	-0,089
-418,715	-200,000	-0,021	-0,165
-417,701	45,901	0,102	0,069
-416,686	310,387	-0,033	-0,046
-415,671	-200,000	0,056	0,192
-414,657	-85,786	0,066	0,015
-413,642	-200,000	0,033	0,129
-412,628	66,778	-0,030	0,023
-411,613	-72,242	0,134	-0,036
-410,598	-136,720	0,120	0,010
-409,584	800,000	-0,019	-0,039
-408,569	-200,000	-0,007	0,120
-407,555	-14,173	0,102	-0,048
-406,540	-200,000	-0,013	-0,081
-405,525	351,072	-0,065	-0,095
-404,511	-88,547	-0,035	0,008
-403,496	-200,000	0,029	0,101
-402,482	400,500	0,021	0,033
-401,467	-59,827	0,221	0,069
-400,452	415,887	-0,018	0,028
-399,438	647,413	-0,061	0,115
-398,423	-25,948	0,042	-0,018
-397,409	800,000	-0,023	-0,068
-396,394	-31,634	-0,092	-0,038
-395,379	356,895	-0,031	-0,046
-394,365	-200,000	0,005	-0,095
-393,350	128,264	0,064	-0,060
-392,336	-88,420	-0,079	0,017
-391,321	800,000	-0,034	0,098
-390,306	18,426	-0,023	-0,014
-389,292	800,000	-0,030	-0,076
-388,277	89,073	-0,121	-0,099
-387,263	24,631	-0,087	0,053
-386,248	-72,380	0,140	0,038
-385,233	37,702	0,085	0,055
-384,219	-85,678	-0,049	0,011
-383,204	-67,705	-0,081	0,023
-382,190	800,000	-0,017	-0,043
-381,175	-200,000	0,002	-0,027
-380,160	-200,000	0,007	-0,032
-379,146	673,214	-0,061	0,117
-378,131	-32,869	0,092	0,038
-377,117	-110,791	0,048	-0,007
-376,102	-182,885	-0,074	0,001
-375,088	-200,000	0,012	-0,112
-374,073	-200,000	-0,003	-0,070
-373,058	56,830	0,073	0,052
-372,044	84,163	0,137	0,110
-371,029	-47,831	0,072	0,025
-370,015	327,834	-0,057	0,080
-369,000	-170,264	-0,063	0,002
-367,985	800,000	-0,049	-0,148
-366,971	-168,860	-0,099	0,003
-365,956	-200,000	-0,021	0,117
-364,942	-200,000	-0,019	-0,078
-363,927	-56,338	-0,070	-0,023
-362,912	-92,752	-0,146	-0,030
-361,898	-200,000	-0,038	-0,136
-360,883	99,112	-0,165	-0,140
-359,869	174,364	0,014	0,014
-358,854	-164,565	0,070	-0,002
-357,839	800,000	-0,009	0,028
-356,825	-200,000	-0,013	-0,161
-355,810	-200,000	-0,044	0,207
-354,796	800,000	0,053	0,139
-353,781	-21,293	-0,106	-0,047
-352,766	-177,428	0,100	-0,002
-351,752	800,000	0,053	0,134
-350,737	800,000	-0,066	0,139
-349,723	-171,655	0,163	0,004
-348,708	142,708	0,053	-0,051
-347,693	-55,747	-0,113	-0,037
-346,679	-74,092	-0,113	-0,030
-345,664	-200,000	0,014	-0,230
-344,650	-200,000	-0,014	0,048
-343,635	31,502	0,106	0,067
-342,620	-159,159	0,083	-0,003
-341,606	696,573	-0,056	-0,108
-340,591	43,706	0,068	0,046
-339,577	-31,220	-0,088	-0,036
-338,562	604,438	-0,012	-0,022
-337,548	362,618	0,041	-0,061
-336,533	-38,558	-0,064	0,025
-335,518	800,000	-0,009	0,028
-334,504	21,927	-0,034	-0,021
-333,489	-200,000	0,004	-0,026
-332,475	582,877	-0,042	-0,077
-331,460	-200,000	-0,003	-0,034
-330,445	-146,556	-0,109	-0,007
-329,431	-200,000	0,056	0,183
-328,416	-151,980	0,149	0,008
-327,402	-101,495	0,116	0,020
-326,387	800,000	0,025	-0,064
-325,372	76,268	0,114	-0,088
-324,358	800,000	0,059	-0,121
-323,343	-78,881	0,086	0,021
-322,329	-200,000	0,007	0,128
-321,314	-166,607	0,087	-0,003
-320,299	-104,188	0,094	-0,016
-319,285	800,000	-0,011	0,031
-318,270	42,081	0,047	0,031
-317,256	207,512	0,044	0,051
-316,241	-25,713	-0,116	0,050
-315,226	-200,000	-0,009	0,055
-314,212	-148,119	0,167	-0,010
-313,197	800,000	-0,017	0,041
-312,183	-200,000	0,002	0,116
-311,168	-118,715	-0,037	-0,005
-310,153	50,313	-0,038	0,026
-309,139	-57,635	0,172	0,055
-308,124	800,000	-0,084	0,210
-307,110	-29,417	0,206	0,086
-306,095	-200,000	0,032	0,139
-305,080	800,000	0,054	0,162
-304,066	-200,000	-0,006	0,103
-303,051	-145,020	-0,095	0,006
-302,037	-110,555	-0,066	-0,010
-301,022	-111,028	0,030	0,005
-300,008	800,000	-0,017	0,046
-298,993	-200,000	-0,003	-0,017
-297,978	-151,765	-0,025	-0,001
-296,964	-200,000	-0,031	0,101
-295,949	800,000	0,058	0,123
-294,935	-114,120	-0,076	0,011
-293,920	-131,783	-0,068	0,006
-292,905	394,292	0,077	0,118
-291,891	-200,000	0,004	0,075
-290,876	89,671	0,085	0,069
-289,862	-115,728	-0,069	-0,009
-288,847	61,737	-0,116	-0,084
-287,832	-200,000	0,044	-0,239
-286,818	89,490	0,090	0,073
-285,803	59,724	0,081	-0,058
-284,789	91,055	-0,039	0,032
-283,774	85,327	0,078	0,062
-282,759	-200,000	0,028	-0,140
-281,745	-174,097	-0,107	0,002
-280,730	13,916	-0,132	-0,075
-279,716	590,767	0,036	-0,065
-278,701	-126,088	0,049	0,005
-277,686	-104,215	0,079	0,013
-276,672	91,081	0,139	0,114
-275,657	-119,126	-0,059	-0,007
-274,643	19,166	0,030	0,018
-273,628	-200,000	0,003	0,050
-272,613	163,490	0,032	0,033
-271,599	-69,346	0,145	0,040
-270,584	-39,422	-0,058	0,022
-269,570	-200,000	0,011	0,062
-268,555	-113,645	0,121	0,017
-267,540	52,957	-0,024	0,017
-266,526	-200,000	-0,013	0,059
-265,511	-89,745	0,058	0,012
-264,497	800,000	0,027	0,059
-263,482	83,387	0,126	0,100
-262,467	-90,376	0,067	0,014
-261,453	-49,737	-0,105	0,036
-260,438	98,335	0,067	0,057
-259,424	112,389	-0,090	-0,079
-258,409	769,888	0,036	-0,073
-257,395	111,979	0,065	-0,057
-256,380	-200,000	0,015	0,095
-255,365	800,000	0,043	0,107
-254,351	51,619	0,078	0,054
-253,336	675,688	-0,035	0,067
-252,322	-200,000	-0,017	0,159
-251,307	89,948	-0,098	-0,080
-250,292	-200,000	0,019	0,201
-249,278	-81,821	-0,078	0,019
-248,263	-11,099	-0,084	0,040
-247,249	-200,000	0,009	0,073
-246,234	-200,000	-0,016	0,073
-245,219	800,000	0,045	-0,114
-244,205	800,000	-0,006	-0,018
-243,190	186,079	0,008	0,009
-242,176	185,013	-0,040	-0,044
-241,161	-68,598	0,075	0,021
-240,146	-200,000	-0,018	-0,070
-239,132	-200,000	0,004	-0,056
-238,117	-200,000	0,005	-0,202
-237,103	177,371	-0,065	-0,069
-236,088	163,244	-0,078	-0,080
-235,073	-200,000	0,024	0,087
-234,059	-69,071	-0,121	-0,034
-233,044	-146,973	0,048	0,003
-232,030	-143,999	-0,067	-0,005
-231,015	-200,000	-0,013	0,072
-230,000	800,000	0,023	-0,048
-228,986	35,572	-0,088	0,057
-227,971	0,030	0,148	0,077
-226,957	62,969	0,065	0,048
-225,942	-81,983	0,121	0,029
-224,927	-37,205	0,038	-0,015
-223,913	-5,422	0,125	-0,062
-222,898	547,139	-0,032	-0,056
-221,884	173,920	0,107	-0,113
-220,869	-200,000	0,001	0,006
-219,855	158,030	-0,042	-0,042
-218,840	-200,000	-0,021	0,112
-217,825	679,880	0,030	0,057
-216,811	-77,839	0,078	0,020
-215,796	800,000	0,029	-0,074
-214,782	800,000	0,043	0,108
-213,767	-200,000	0,005	-0,025
-212,752	800,000	0,075	0,160
-211,738	-167,791	-0,054	-0,002
-210,723	-84,930	-0,085	-0,019
-209,709	800,000	-0,031	0,066
-208,694	-68,317	0,055	0,016
-207,679	-27,524	0,045	0,019
-206,665	88,348	0,016	0,013
-205,650	-15,926	-0,046	-0,021
-204,636	436,186	0,134	0,214
-203,621	62,532	-0,039	-0,029
-202,606	215,899	0,075	-0,087
-201,592	279,731	-0,060	-0,078
-200,577	17,026	0,105	-0,061
-199,563	800,000	-0,016	0,050
-198,548	-200,000	-0,008	-0,054
-197,533	-200,000	0,010	0,137
-196,519	151,952	-0,128	0,127
-195,504	800,000	-0,028	-0,069
-194,490	-33,234	-0,075	-0,030
-193,475	800,000	-0,063	-0,150
-192,460	384,683	-0,051	0,077
-191,446	-200,000	-0,020	0,197
-190,431	773,945	-0,025	0,049
-189,417	16,513	-0,029	0,016
-188,402	800,000	0,018	0,053
-187,387	288,489	-0,015	-0,019
-186,373	-40,453	-0,064	0,024
-185,358	-200,000	0,031	-0,165
-184,344	179,318	0,056	0,060
-183,329	264,668	0,026	0,033
-182,315	-200,000	0,021	-0,088
-181,300	-200,000	-0,004	-0,173
-180,285	-30,110	0,039	0,016
-179,271	-200,000	-0,023	0,086
-178,256	800,000	0,055	-0,140
-177,242	-93,609	0,114	0,023
-176,227	-141,009	-0,094	-0,007
-175,212	-184,603	0,021	-0,000
-174,198	38,757	-0,006	0,004
-173,183	800,000	-0,019	-0,050
-172,169	-8,534	-0,055	-0,027
-171,154	-125,320	0,078	0,009
-170,139	-200,000	0,006	0,135
-169,125	-22,573	0,099	0,044
-168,110	-126,633	-0,031	-0,003
-167,096	800,000	0,048	0,117
-166,081	-200,000	-0,013	-0,061
-165,066	-200,000	0,016	-0,105
-164,052	-200,000	-0,005	-0,028
-163,037	448,575	-0,063	-0,101
-162,023	-61,094	-0,083	-0,025
-161,008	296,806	-0,050	-0,067
-159,993	33,942	0,129	-0,082
-158,979	-200,000	-0,029	-0,117
-157,964	458,491	-0,104	-0,169
-156,950	81,681	-0,087	-0,069
-155,935	-200,000	-0,006	-0,030
-154,920	800,000	0,034	0,102
-153,906	-102,351	-0,022	-0,004
-152,891	-134,412	-0,058	-0,005
-151,877	800,000	-0,029	-0,090
-150,862	-109,677	0,112	0,017
-149,847	90,724	-0,127	0,104
-148,833	-149,112	-0,064	-0,004
-147,818	800,000	0,070	0,152
-146,804	195,371	0,101	0,112
-145,789	6,436	0,063	-0,034
-144,775	800,000	0,033	0,074
-143,760	-128,256	-0,116	0,012
-142,745	-95,251	-0,035	-0,007
-141,731	-125,438	0,064	-0,007
-140,716	-200,000	0,003	-0,059
-139,702	103,850	-0,058	0,050
-138,687	800,000	0,074	-0,191
-137,672	-8,480	0,011	-0,005
-136,658	800,000	-0,034	-0,094
-135,643	-200,000	-0,016	-0,068
-134,629	800,000	-0,028	-0,062
-133,614	102,260	-0,054	0,046
-132,599	-200,000	0,022	0,103
-131,585	112,666	0,078	-0,069
-130,570	27,155	-0,065	-0,039
-129,556	5,104	0,105	-0,056
-128,541	-121,132	-0,093	-0,011
-127,526	-156,336	0,194	-0,009
-126,512	69,670	0,070	0,052
-125,497	-105,950	0,085	0,014
-124,483	800,000	-0,013	0,034
-123,468	800,000	-0,034	-0,070
-122,453	365,538	-0,099	-0,146
-121,439	-21,197	0,078	0,035
-120,424	800,000	0,040	-0,120
-119,410	800,000	0,024	-0,050
