DTS Sentinel unit serial number:	SN410029Multiplexer serial number:	ORYXHardware model number:	OX2-SRSoftware version number:	ORYX F/W v4,00 Oryx Data Collector v3.7.2.0data status	okinstallation	B6 Nyhavnadifferential loss correction	single-endedforward channel	channel 2reverse channel	N/Adate	2023/12/08time	09:15:08forward acquisition time	300,00reverse acquisition time	0,00gamma	499,1914k internal	0,3167k external	0,3167temperature offset calibration	1,0000default loss term (dB/km)	0,3820temperature slope calibration	1,0000multiplexer offset coefficient	1,0000multiplexer slope coefficient	1,0000fibre end	0,00T internal ref (°C)	13,18T ext. ref 1 (°C)	-2,17T ext. ref 2 (°C)	-2,14length (m)	temperature (°C)	Stokes	anti-Stokes-744,400	-142,385	0,132	0,009
-743,385	-165,835	-0,232	-0,007
-742,371	-6,812	0,114	0,057
-741,356	-130,048	-0,317	0,031
-740,342	-61,828	0,237	0,073
-739,327	-171,495	-0,295	0,007
-738,312	525,642	0,082	0,143
-737,298	-161,313	-0,287	0,011
-736,283	155,701	0,140	0,142
-735,269	-14,004	-0,339	0,160
-734,254	-111,767	-0,036	0,005
-733,239	-55,603	-0,597	-0,195
-732,225	572,155	0,071	0,128
-731,210	-200,000	-0,012	-0,054
-730,196	-200,000	0,026	-0,090
-729,181	-200,000	-0,018	-0,144
-728,167	309,882	0,027	0,037
-727,152	629,871	0,012	0,023
-726,137	108,853	-0,061	-0,053
-725,123	800,000	-0,050	-0,117
-724,108	-200,000	0,013	-0,091
-723,094	800,000	-0,040	-0,083
-722,079	-200,000	0,027	-0,123
-721,064	800,000	-0,042	0,088
-720,050	420,707	-0,015	0,023
-719,035	290,476	0,047	-0,062
-718,021	101,738	0,104	0,089
-717,006	-112,416	0,008	0,001
-715,991	40,791	-0,152	-0,100
-714,977	-200,000	0,033	-0,109
-713,962	-144,677	-0,266	-0,018
-712,948	178,347	0,043	-0,046
-711,933	91,084	0,023	0,019
-710,918	800,000	-0,079	0,224
-709,904	-88,654	-0,178	0,039
-708,889	800,000	-0,058	0,145
-707,875	-200,000	0,034	0,155
-706,860	-140,789	0,064	0,005
-705,845	-200,000	0,023	0,082
-704,831	-58,700	0,111	-0,035
-703,816	-101,838	-0,108	0,019
-702,802	110,899	-0,012	-0,010
-701,787	-200,000	0,016	0,082
-700,772	-79,456	-0,067	-0,016
-699,758	800,000	0,058	-0,120
-698,743	-200,000	-0,003	-0,120
-697,729	78,758	0,107	-0,084
-696,714	417,830	-0,026	0,041
-695,699	57,797	-0,117	-0,084
-694,685	156,702	0,061	-0,062
-693,670	128,370	-0,054	-0,050
-692,656	-200,000	-0,018	0,113
-691,641	721,841	0,026	-0,050
-690,627	800,000	-0,029	-0,090
-689,612	700,078	0,034	0,066
-688,597	800,000	0,015	0,049
-687,583	-64,728	-0,075	-0,022
-686,568	17,465	-0,092	-0,053
-685,554	-43,905	0,028	0,010
-684,539	-200,000	-0,004	0,106
-683,524	118,593	-0,092	0,084
-682,510	401,327	-0,039	0,060
-681,495	366,719	0,081	-0,121
-680,481	800,000	0,036	-0,111
-679,466	770,039	-0,023	-0,045
-678,451	-200,000	0,001	0,011
-677,437	516,016	-0,042	0,072
-676,422	52,872	0,090	-0,063
-675,408	-200,000	-0,033	0,111
-674,393	83,865	-0,114	0,091
-673,378	-200,000	-0,043	0,219
-672,364	413,257	-0,048	0,075
-671,349	-49,837	0,067	0,023
-670,335	-200,000	0,012	-0,049
-669,320	-12,537	-0,023	-0,011
-668,305	800,000	-0,041	-0,123
-667,291	800,000	-0,040	0,113
-666,276	-200,000	0,014	-0,047
-665,262	2,724	-0,064	-0,034
-664,247	-83,781	-0,045	-0,010
-663,232	-200,000	0,009	0,034
-662,218	29,905	0,100	0,062
-661,203	330,564	0,013	0,018
-660,189	64,799	-0,102	0,075
-659,174	-180,967	-0,113	-0,002
-658,159	-200,000	-0,020	-0,155
-657,145	506,356	0,043	-0,073
-656,130	-142,707	-0,157	-0,011
-655,116	261,674	0,045	-0,058
-654,101	-95,921	0,142	0,027
-653,086	800,000	-0,059	0,136
-652,072	598,934	-0,091	-0,166
-651,057	-48,840	-0,082	-0,029
-650,043	34,645	-0,055	-0,035
-649,028	-163,200	-0,091	0,003
-648,014	211,647	0,023	0,027
-646,999	473,951	-0,080	0,132
-645,984	-111,349	-0,071	0,011
-644,970	257,537	-0,042	0,053
-643,955	507,536	0,048	0,082
-642,941	16,153	-0,132	0,076
-641,926	-200,000	-0,027	-0,152
-640,911	800,000	-0,031	0,085
-639,897	-23,570	0,038	0,017
-638,882	96,706	-0,130	-0,109
-637,868	-200,000	0,008	-0,051
-636,853	-200,000	-0,013	-0,154
-635,838	800,000	0,055	-0,118
-634,824	34,351	-0,138	-0,088
-633,809	465,855	0,091	0,149
-632,795	207,287	0,047	-0,054
-631,780	-200,000	0,011	0,186
-630,765	800,000	0,015	0,030
-629,751	174,924	-0,094	-0,099
-628,736	40,569	0,122	-0,080
-627,722	382,681	-0,064	0,097
-626,707	-98,559	0,025	0,005
-625,692	582,010	-0,071	0,128
-624,678	82,524	0,117	0,093
-623,663	469,064	0,029	-0,049
-622,649	-200,000	-0,011	-0,127
-621,634	-39,454	-0,139	-0,053
-620,619	800,000	0,062	-0,197
-619,605	-14,884	0,047	0,022
-618,590	13,933	0,178	-0,101
-617,576	487,963	0,070	-0,118
-616,561	-21,483	-0,051	0,023
-615,546	-102,045	-0,047	0,008
-614,532	-2,968	-0,152	-0,077
-613,517	-200,000	-0,002	-0,036
-612,503	-87,547	0,042	0,009
-611,488	800,000	0,037	0,076
-610,474	-200,000	0,017	0,144
-609,459	5,576	-0,083	0,045
-608,444	174,469	-0,056	0,059
-607,430	-163,730	-0,075	0,003
-606,415	793,571	-0,021	-0,043
-605,401	446,213	-0,035	-0,057
-604,386	259,658	-0,063	0,080
-603,371	-48,271	0,015	-0,005
-602,357	-123,096	-0,161	-0,019
-601,342	800,000	-0,056	-0,117
-600,328	45,900	-0,113	-0,076
-599,313	800,000	0,028	-0,068
-598,298	41,530	-0,098	0,064
-597,284	-200,000	-0,009	0,116
-596,269	-200,000	-0,001	-0,009
-595,255	-77,706	0,042	0,011
-594,240	800,000	0,018	-0,050
-593,225	41,678	0,033	-0,022
-592,211	123,870	0,075	0,069
-591,196	171,200	0,105	0,110
-590,182	-119,809	-0,084	-0,010
-589,167	-88,792	0,100	0,021
-588,152	800,000	0,033	0,068
-587,138	137,559	0,034	0,032
-586,123	-43,898	0,025	-0,009
-585,109	800,000	0,039	-0,102
-584,094	-170,641	-0,161	0,004
-583,079	22,767	-0,043	-0,026
-582,065	53,532	-0,010	0,007
-581,050	409,110	0,030	0,046
-580,036	343,800	0,079	0,113
-579,021	95,545	-0,075	-0,063
-578,006	-200,000	0,020	0,094
-576,992	800,000	-0,031	-0,082
-575,977	110,487	-0,047	-0,041
-574,963	-6,222	0,210	-0,104
-573,948	-16,426	0,078	0,036
-572,934	-200,000	-0,029	-0,125
-571,919	800,000	-0,033	-0,069
-570,904	-83,938	0,052	-0,012
-569,890	19,468	-0,076	-0,044
-568,875	517,065	-0,050	-0,085
-567,861	287,878	0,078	0,104
-566,846	-186,943	-0,157	0,002
-565,831	-200,000	0,010	0,072
-564,817	-172,363	-0,136	-0,003
-563,802	251,634	-0,059	0,074
-562,788	-66,418	0,173	0,050
-561,773	123,336	-0,076	0,070
-560,758	-24,609	0,095	-0,041
-559,744	373,100	0,034	0,051
-558,729	107,275	-0,050	0,044
-557,715	800,000	-0,048	-0,103
-556,700	-138,880	-0,079	0,006
-555,685	14,892	-0,101	-0,058
-554,671	-43,835	0,078	0,028
-553,656	-141,683	0,166	-0,012
-552,642	224,026	0,072	0,085
-551,627	-67,430	-0,052	0,015
-550,612	21,983	-0,050	0,030
-549,598	-200,000	-0,005	-0,063
-548,583	800,000	0,064	-0,138
-547,569	-140,191	0,106	0,008
-546,554	409,279	0,041	-0,064
-545,539	-200,000	-0,003	-0,044
-544,525	-50,440	0,130	-0,044
-543,510	8,787	-0,085	0,047
-542,496	-78,631	0,016	0,004
-541,481	-200,000	0,013	-0,046
-540,466	162,279	0,074	-0,076
-539,452	312,130	0,049	0,067
-538,437	-73,882	0,034	-0,009
-537,423	-83,416	-0,129	0,030
-536,408	277,078	0,067	-0,087
-535,393	461,090	-0,087	-0,142
-534,379	188,049	-0,152	-0,166
-533,364	671,444	0,058	0,110
-532,350	92,905	-0,016	-0,013
-531,335	-129,850	-0,024	-0,002
-530,321	-51,158	-0,073	-0,025
-529,306	408,979	-0,098	-0,152
-528,291	-200,000	0,004	-0,093
-527,277	22,846	-0,114	0,068
-526,262	0,588	0,058	0,030
-525,248	-200,000	0,000	0,005
-524,233	-122,366	-0,041	0,005
-523,218	543,598	-0,043	0,076
-522,204	-89,214	-0,108	-0,023
-521,189	265,062	0,054	0,069
-520,175	798,910	-0,027	0,054
-519,160	17,635	-0,098	-0,057
-518,145	-19,924	0,065	-0,029
-517,131	800,000	0,027	-0,081
-516,116	6,780	0,103	0,056
-515,102	-200,000	0,011	0,053
-514,087	-180,625	-0,091	0,001
-513,072	174,570	0,055	-0,058
-512,058	800,000	0,037	0,099
-511,043	-28,368	0,066	0,028
-510,029	696,599	0,015	-0,029
-509,014	-142,547	0,028	-0,002
-507,999	800,000	0,051	0,160
-506,985	-200,000	0,045	-0,161
-505,970	24,309	-0,054	-0,032
-504,956	-57,221	-0,070	0,022
-503,941	367,810	0,009	-0,013
-502,926	-200,000	-0,029	-0,100
-501,912	-200,000	0,022	-0,165
-500,897	492,003	-0,061	-0,102
-499,883	213,635	-0,061	0,070
-498,868	247,871	-0,012	-0,014
-497,853	-78,435	0,088	-0,022
-496,839	-113,179	0,154	-0,022
-495,824	71,400	-0,006	-0,005
-494,810	114,616	0,099	0,087
-493,795	-98,663	0,089	0,016
-492,781	38,124	-0,053	-0,034
-491,766	96,261	-0,085	0,071
-490,751	-200,000	-0,007	0,026
-489,737	162,531	0,057	0,058
-488,722	-128,791	0,118	-0,012
-487,708	278,380	0,100	0,129
-486,693	-90,965	0,031	0,006
-485,678	-200,000	0,041	-0,172
-484,664	52,916	-0,138	-0,096
-483,649	21,714	-0,154	0,091
-482,635	8,098	-0,086	0,047
-481,620	-131,060	0,108	-0,010
-480,605	800,000	0,064	0,139
-479,591	-107,636	0,172	0,027
-478,576	-200,000	-0,007	-0,074
-477,562	-200,000	0,018	-0,147
-476,547	178,504	0,051	-0,054
-475,532	-85,275	-0,121	0,027
-474,518	-41,648	0,141	-0,052
-473,503	536,854	-0,083	0,144
-472,489	-105,483	-0,102	-0,017
-471,474	-73,183	0,035	-0,009
-470,459	-200,000	-0,010	-0,045
-469,445	-103,429	-0,126	-0,021
-468,430	800,000	-0,020	0,060
-467,416	-200,000	0,042	0,141
-466,401	-127,113	0,079	-0,008
-465,386	-200,000	0,009	0,081
-464,372	-200,000	0,010	0,099
-463,357	146,617	0,134	-0,131
-462,343	-200,000	0,018	-0,104
-461,328	-32,331	0,073	0,029
-460,313	-148,455	0,041	0,002
-459,299	266,260	0,077	-0,098
-458,284	-109,437	0,070	0,011
-457,270	372,382	0,090	0,133
-456,255	-22,729	-0,078	-0,034
-455,241	351,731	-0,034	-0,049
-454,226	54,508	0,077	-0,054
-453,211	-200,000	-0,027	-0,099
-452,197	-124,552	0,078	0,009
-451,182	198,965	-0,043	0,048
-450,168	-200,000	0,004	0,128
-449,153	-6,933	0,142	0,070
-448,138	-68,797	-0,143	0,040
-447,124	178,771	0,067	-0,071
-446,109	-200,000	-0,003	0,042
-445,095	-200,000	0,005	0,072
-444,080	-51,080	0,098	0,033
-443,065	188,328	-0,091	-0,099
-442,051	275,205	-0,039	-0,050
-441,036	-105,708	-0,131	-0,021
-440,022	112,745	0,062	-0,055
-439,007	12,791	0,025	-0,014
-437,992	157,787	-0,080	0,080
-436,978	-35,059	-0,043	0,017
-435,963	800,000	-0,025	0,070
-434,949	700,024	0,040	-0,077
-433,934	-37,335	-0,103	-0,040
-432,919	-200,000	0,011	-0,071
-431,905	-200,000	0,047	0,200
-430,890	800,000	0,037	0,107
-429,876	357,188	-0,039	-0,057
-428,861	65,671	0,085	-0,062
-427,846	800,000	0,004	-0,011
-426,832	407,600	0,032	0,049
-425,817	-61,224	-0,091	-0,028
-424,803	-200,000	-0,023	-0,091
-423,788	-159,395	-0,100	-0,004
-422,773	469,308	0,062	0,102
-421,759	70,300	0,046	0,034
-420,744	-69,310	-0,126	0,035
-419,730	-115,873	-0,163	-0,022
-418,715	-78,360	0,072	-0,018
-417,701	33,219	-0,137	0,086
-416,686	338,395	-0,055	0,078
-415,671	76,556	-0,099	-0,076
-414,657	518,241	0,032	0,054
-413,642	-164,058	-0,078	0,003
-412,628	800,000	0,050	-0,106
-411,613	-111,608	0,022	-0,003
-410,598	215,509	0,043	0,049
-409,584	-200,000	-0,024	0,100
-408,569	-84,738	0,112	0,025
-407,555	-3,084	0,072	-0,036
-406,540	144,840	0,004	-0,004
-405,525	18,502	-0,092	0,053
-404,511	-41,748	-0,094	0,035
-403,496	-48,460	0,106	-0,037
-402,482	51,627	0,078	0,054
-401,467	304,747	0,042	0,057
-400,452	-200,000	-0,003	-0,018
-399,438	242,224	-0,025	0,030
-398,423	-76,754	0,066	-0,017
-397,409	-77,244	0,114	-0,029
-396,394	-2,342	0,141	-0,071
-395,379	-84,014	-0,023	0,005
-394,365	-167,210	0,024	0,001
-393,350	34,216	0,128	0,081
-392,336	-200,000	0,019	0,110
-391,321	800,000	0,047	0,138
-390,306	-159,547	-0,106	-0,004
-389,292	11,572	-0,087	0,048
-388,277	83,427	-0,053	0,042
-387,263	-41,938	0,103	0,038
-386,248	-81,772	0,152	0,036
-385,233	64,891	0,047	-0,034
-384,219	-200,000	-0,003	0,023
-383,204	207,538	-0,125	-0,141
-382,190	-57,065	-0,119	-0,038
-381,175	7,095	0,083	-0,045
-380,160	-200,000	0,002	0,031
-379,146	166,327	-0,052	-0,053
-378,131	-108,281	-0,037	-0,006
-377,117	800,000	-0,050	0,108
-376,102	741,281	0,005	0,011
-375,088	105,942	0,048	-0,041
-374,073	-200,000	0,010	-0,077
-373,058	-83,570	-0,070	0,016
-372,044	-200,000	0,049	0,169
-371,029	-192,969	-0,120	-0,001
-370,015	14,148	0,162	0,091
-369,000	-200,000	-0,017	-0,150
-367,985	-21,864	-0,155	-0,068
-366,971	-74,605	-0,047	-0,012
-365,956	800,000	-0,020	-0,045
-364,942	800,000	0,051	0,154
-363,927	-13,725	-0,154	0,072
-362,912	513,316	0,026	0,044
-361,898	-200,000	-0,005	-0,083
-360,883	800,000	0,028	-0,060
-359,869	199,260	-0,146	-0,162
-358,854	800,000	0,050	-0,131
-357,839	21,407	0,108	0,064
-356,825	800,000	-0,041	0,100
-355,810	111,467	-0,046	-0,040
-354,796	57,820	0,048	-0,034
-353,781	-141,949	-0,176	0,013
-352,766	36,590	0,013	0,008
-351,752	17,336	0,026	0,015
-350,737	-18,987	0,112	0,050
-349,723	-2,864	0,064	0,032
-348,708	23,214	0,081	-0,048
-347,693	-163,079	-0,171	0,006
-346,679	-200,000	-0,002	-0,185
-345,664	-8,874	-0,018	0,009
-344,650	800,000	-0,045	0,111
-343,635	-200,000	-0,007	0,023
-342,620	-9,205	0,166	-0,080
-341,606	258,261	0,043	-0,054
-340,591	-28,222	-0,155	0,065
-339,577	-200,000	0,032	-0,136
-338,562	-200,000	-0,028	-0,152
-337,548	277,270	-0,039	0,050
-336,533	6,000	-0,022	0,012
-335,518	-200,000	-0,020	0,132
-334,504	-200,000	-0,006	0,089
-333,489	-10,455	0,080	-0,038
-332,475	54,734	0,024	0,016
-331,460	35,979	-0,091	0,058
-330,445	800,000	-0,088	0,236
-329,431	643,279	0,009	-0,017
-328,416	-200,000	0,009	0,152
-327,402	800,000	0,056	-0,150
-326,387	90,066	0,090	0,073
-325,372	-20,155	0,049	0,022
-324,358	-90,907	-0,055	-0,011
-323,343	800,000	0,025	0,077
-322,329	800,000	-0,040	0,129
-321,314	115,939	0,086	0,076
-320,299	800,000	0,045	0,098
-319,285	-200,000	0,010	-0,139
-318,270	186,137	0,038	0,041
-317,256	-53,010	-0,078	-0,026
-316,241	261,253	0,043	-0,054
-315,226	242,813	-0,057	0,070
-314,212	-1,615	-0,015	-0,008
-313,197	202,709	0,016	0,018
-312,183	800,000	0,113	-0,235
-311,168	201,110	-0,064	-0,071
-310,153	-121,936	0,054	-0,006
-309,139	-24,332	0,103	-0,044
-308,124	800,000	0,048	0,128
-307,110	-200,000	-0,003	0,206
-306,095	206,332	0,037	0,041
-305,080	-39,434	0,038	-0,014
-304,066	-16,695	-0,064	-0,029
-303,051	-200,000	-0,020	0,066
-302,037	-200,000	0,002	0,067
-301,022	20,582	0,103	0,060
-300,008	193,213	0,045	0,049
-298,993	800,000	0,023	-0,058
-297,978	800,000	0,011	-0,028
-296,964	32,292	0,119	-0,074
-295,949	621,979	0,066	0,120
-294,935	779,665	0,041	-0,082
-293,920	-200,000	-0,002	0,037
-292,905	-200,000	-0,026	0,096
-291,891	129,268	0,220	0,203
-290,876	438,187	0,016	0,026
-289,862	-76,365	0,047	-0,012
-288,847	-200,000	-0,030	-0,107
-287,832	129,394	-0,071	-0,065
-286,818	800,000	-0,043	0,128
-285,803	800,000	-0,062	0,196
-284,789	-200,000	0,022	0,099
-283,774	295,475	0,049	-0,065
-282,759	800,000	-0,033	-0,068
-281,745	264,572	-0,055	-0,070
-280,730	-86,249	-0,055	0,012
-279,716	-83,765	0,035	-0,008
-278,701	-50,787	-0,048	0,016
-277,686	800,000	0,051	0,108
-276,672	219,921	0,028	0,032
-275,657	-37,875	-0,153	0,058
-274,643	-200,000	-0,017	0,081
-273,628	-200,000	0,009	-0,046
-272,613	-118,231	-0,043	-0,005
-271,599	-43,816	0,001	-0,000
-270,584	-200,000	0,004	0,069
-269,570	613,506	-0,044	0,080
-268,555	800,000	-0,070	-0,193
-267,540	47,607	0,019	-0,013
-266,526	-80,180	0,118	-0,028
-265,511	240,729	0,042	0,051
-264,497	91,647	0,121	0,098
-263,482	-200,000	0,003	0,042
-262,467	-40,249	0,154	-0,057
-261,453	-200,000	0,047	-0,165
-260,438	-200,000	0,022	-0,072
-259,424	-200,000	-0,023	-0,105
-258,409	-4,448	0,091	-0,045
-257,395	-200,000	-0,010	-0,091
-256,380	258,037	0,073	-0,091
-255,365	-200,000	0,021	-0,129
-254,351	-200,000	0,006	0,036
-253,336	17,452	-0,070	-0,040
-252,322	-52,347	0,069	-0,023
-251,307	121,559	0,060	-0,054
-250,292	-35,656	-0,089	0,035
-249,278	-200,000	0,013	-0,084
-248,263	800,000	-0,052	0,143
-247,249	106,217	0,032	0,027
-246,234	-200,000	0,008	-0,096
-245,219	487,189	-0,061	-0,101
-244,205	674,926	-0,062	0,117
-243,190	419,271	-0,064	0,099
-242,176	502,863	0,045	-0,075
-241,161	-74,178	0,015	-0,004
-240,146	-200,000	-0,018	-0,083
-239,132	-200,000	-0,018	-0,095
-238,117	127,797	-0,102	-0,094
-237,103	530,312	-0,076	-0,129
-236,088	-177,645	-0,122	0,002
-235,073	-99,406	0,154	0,028
-234,059	3,442	-0,063	-0,033
-233,044	-63,267	0,083	0,025
-232,030	4,570	-0,090	0,048
-231,015	214,352	0,045	0,051
-230,000	202,384	-0,086	-0,096
-228,986	800,000	0,033	-0,087
-227,971	-200,000	0,060	0,225
-226,957	412,788	0,089	-0,137
-225,942	-200,000	0,017	-0,065
-224,927	1,004	0,029	0,015
-223,913	176,645	-0,071	-0,074
-222,898	-113,706	-0,077	-0,011
-221,884	-100,471	-0,086	0,015
-220,869	-125,718	0,121	0,013
-219,855	-131,158	-0,038	0,004
-218,840	116,937	0,108	-0,096
-217,825	632,039	0,017	0,032
-216,811	-200,000	-0,000	-0,034
-215,796	-30,897	-0,075	-0,030
-214,782	-30,944	0,054	-0,022
-213,767	800,000	-0,068	0,164
-212,752	74,900	0,086	-0,065
-211,738	-200,000	-0,011	0,073
-210,723	446,786	-0,031	-0,049
-209,709	-117,082	-0,064	-0,008
-208,694	-200,000	-0,010	-0,046
-207,679	-200,000	-0,004	0,123
-206,665	11,958	0,118	-0,065
-205,650	-44,469	-0,051	-0,018
-204,636	-191,227	0,075	0,001
-203,621	19,224	0,145	0,084
-202,606	-5,050	0,070	0,034
-201,592	800,000	-0,020	-0,053
-200,577	327,464	-0,020	0,028
-199,563	-114,030	-0,144	-0,020
-198,548	-120,602	-0,103	-0,012
-197,533	101,703	0,106	0,089
-196,519	374,963	-0,069	0,101
-195,504	-93,836	-0,104	0,020
-194,490	-200,000	0,014	-0,112
-193,475	-40,372	-0,045	-0,017
-192,460	-200,000	-0,019	-0,075
-191,446	-26,186	-0,124	-0,052
-190,431	-200,000	-0,008	-0,082
-189,417	-101,016	0,078	0,014
-188,402	800,000	0,027	0,056
-187,387	-200,000	0,010	-0,131
-186,373	758,150	-0,050	0,097
-185,358	-149,696	0,074	0,004
-184,344	59,188	-0,079	-0,056
-183,329	81,738	0,072	-0,056
-182,315	155,163	0,065	0,065
-181,300	177,051	-0,073	0,076
-180,285	-78,519	0,071	0,017
-179,271	800,000	-0,030	-0,090
-178,256	4,984	0,090	-0,048
-177,242	4,179	-0,045	0,023
-176,227	-200,000	0,041	-0,145
-175,212	14,610	-0,026	0,014
-174,198	-200,000	-0,015	0,163
-173,183	364,441	0,016	-0,024
-172,169	-200,000	-0,023	0,113
-171,154	2,197	-0,098	0,051
-170,139	93,684	-0,046	-0,038
-169,125	800,000	-0,052	0,120
-168,110	326,094	-0,050	0,068
-167,096	-200,000	0,026	-0,165
-166,081	-97,467	0,115	0,021
-165,066	-151,209	-0,088	0,005
-164,052	-26,995	0,038	-0,016
-163,037	-21,587	-0,033	0,015
-162,023	-200,000	-0,015	-0,067
-161,008	-200,000	0,007	0,033
-159,993	-200,000	-0,016	0,060
-158,979	800,000	0,027	-0,066
-157,964	272,391	-0,049	-0,062
-156,950	-71,962	-0,038	-0,010
-155,935	684,336	-0,027	0,050
-154,920	800,000	-0,041	0,120
-153,906	27,814	0,061	-0,037
-152,891	-159,060	-0,070	-0,003
-151,877	123,197	0,070	0,063
-150,862	134,362	-0,018	-0,017
-149,847	-69,084	0,091	-0,025
-148,833	-78,526	0,097	-0,024
-147,818	800,000	-0,028	-0,086
-146,804	-200,000	-0,005	-0,053
-145,789	150,519	0,018	-0,018
-144,775	-44,643	-0,134	-0,048
-143,760	-102,391	-0,049	-0,008
-142,745	176,324	0,015	-0,015
-141,731	-77,286	0,065	0,016
-140,716	-77,002	0,020	-0,005
-139,702	-200,000	-0,010	0,111
-138,687	58,540	-0,031	-0,022
-137,672	443,533	0,043	-0,067
-136,658	-200,000	-0,007	0,081
-135,643	800,000	0,016	0,037
-134,629	800,000	0,005	-0,017
-133,614	139,323	-0,060	-0,057
-132,599	-200,000	0,014	-0,113
-131,585	92,334	-0,097	0,079
-130,570	406,492	0,003	0,005
-129,556	-136,465	-0,129	-0,011
-128,541	-200,000	0,012	0,048
-127,526	-152,599	0,099	-0,005
-126,512	-67,784	0,045	-0,013
-125,497	-200,000	-0,002	-0,162
-124,483	22,661	0,132	0,077
-123,468	-51,420	-0,095	-0,032
-122,453	-200,000	-0,001	0,073
-121,439	526,011	-0,007	-0,012
-120,424	793,037	-0,011	-0,022
-119,410	-124,434	0,048	-0,005
-118,395	-98,058	0,151	-0,028
