DTS Sentinel unit serial number:	SN410029Multiplexer serial number:	ORYXHardware model number:	OX2-SRSoftware version number:	ORYX F/W v4,00 Oryx Data Collector v3.7.2.0data status	okinstallation	B6 Nyhavnadifferential loss correction	single-endedforward channel	channel 2reverse channel	N/Adate	2023/12/10time	19:15:08forward acquisition time	300,00reverse acquisition time	0,00gamma	499,1914k internal	0,3122k external	0,3122temperature offset calibration	1,0000default loss term (dB/km)	0,3820temperature slope calibration	1,0000multiplexer offset coefficient	1,0000multiplexer slope coefficient	1,0000fibre end	0,00T internal ref (°C)	22,32T ext. ref 1 (°C)	6,01T ext. ref 2 (°C)	6,03length (m)	temperature (°C)	Stokes	anti-Stokes-744,400	-200,000	-0,006	-0,032
-743,385	-96,261	-0,328	0,064
-742,371	114,862	0,059	-0,053
-741,356	-4,709	-0,233	0,119
-740,342	-8,942	0,054	0,027
-739,327	80,738	-0,205	0,165
-738,312	71,695	-0,055	0,043
-737,298	-30,586	-0,237	0,100
-736,283	800,000	-0,011	0,029
-735,269	-29,088	-0,250	0,106
-734,254	620,607	0,013	0,025
-733,239	-49,565	-0,412	-0,146
-732,225	-31,700	0,071	-0,030
-731,210	-114,014	-0,045	-0,006
-730,196	-200,000	0,013	-0,148
-729,181	-200,000	0,034	-0,138
-728,167	-123,358	-0,050	0,006
-727,152	-200,000	-0,001	0,041
-726,137	531,997	0,134	-0,238
-725,123	113,286	-0,019	0,017
-724,108	-33,115	-0,141	-0,058
-723,094	80,333	-0,012	0,009
-722,079	33,598	-0,062	0,040
-721,064	256,759	0,088	0,113
-720,050	800,000	-0,049	-0,140
-719,035	322,491	-0,018	0,026
-718,021	-1,022	-0,080	0,042
-717,006	-200,000	-0,027	-0,110
-715,991	133,532	-0,108	-0,104
-714,977	-48,773	-0,131	-0,046
-713,962	-33,771	-0,052	-0,021
-712,948	150,876	-0,053	0,053
-711,933	-42,008	-0,153	-0,058
-710,918	-12,200	-0,036	-0,017
-709,904	245,443	-0,053	0,066
-708,889	414,214	-0,010	-0,015
-707,875	232,627	0,039	-0,048
-706,860	-200,000	-0,007	0,075
-705,845	-200,000	-0,037	-0,169
-704,831	-200,000	-0,012	-0,081
-703,816	-54,075	-0,078	-0,026
-702,802	33,275	0,105	0,068
-701,787	-112,803	-0,086	-0,012
-700,772	-172,304	-0,051	0,001
-699,758	-200,000	0,005	-0,154
-698,743	-148,775	-0,144	-0,009
-697,729	-74,125	-0,064	-0,017
-696,714	-200,000	0,018	0,070
-695,699	-100,954	-0,130	-0,024
-694,685	-67,164	-0,134	-0,039
-693,670	-200,000	0,036	-0,122
-692,656	-142,405	0,040	-0,003
-691,641	-200,000	0,026	-0,161
-690,627	800,000	0,038	0,081
-689,612	-40,471	-0,070	0,027
-688,597	141,762	0,059	-0,058
-687,583	800,000	0,013	-0,035
-686,568	-20,158	-0,175	-0,080
-685,554	207,581	0,091	-0,105
-684,539	-124,927	-0,033	0,004
-683,524	647,523	0,024	-0,046
-682,510	773,213	-0,045	0,091
-681,495	-84,001	0,071	0,017
-680,481	13,169	-0,042	-0,024
-679,466	-120,161	-0,120	0,015
-678,451	-200,000	-0,033	0,126
-677,437	-126,882	-0,076	-0,008
-676,422	-83,022	0,093	0,022
-675,408	424,247	-0,032	0,051
-674,393	-200,000	-0,030	0,103
-673,378	131,516	-0,220	-0,210
-672,364	28,084	0,090	0,056
-671,349	258,167	-0,045	-0,058
-670,335	478,984	0,023	0,039
-669,320	-126,508	-0,038	-0,004
-668,305	-86,380	-0,076	0,017
-667,291	204,773	-0,064	0,073
-666,276	134,781	-0,058	-0,056
-665,262	-2,359	-0,054	-0,028
-664,247	-200,000	0,020	0,111
-663,232	154,525	-0,054	-0,055
-662,218	2,981	-0,037	-0,020
-661,203	-200,000	-0,027	0,118
-660,189	76,820	-0,014	-0,011
-659,174	272,408	-0,037	-0,049
-658,159	127,602	-0,100	0,094
-657,145	153,428	0,058	-0,059
-656,130	-200,000	0,006	-0,028
-655,116	-200,000	-0,010	0,059
-654,101	752,163	-0,025	-0,050
-653,086	-9,257	0,160	-0,079
-652,072	3,040	0,110	-0,059
-651,057	-200,000	0,028	-0,127
-650,043	103,865	-0,057	-0,049
-649,028	-200,000	-0,013	-0,088
-648,014	160,136	-0,060	-0,063
-646,999	-200,000	-0,005	0,040
-645,984	800,000	0,005	0,012
-644,970	-200,000	-0,004	-0,090
-643,955	-200,000	0,009	-0,041
-642,941	219,757	-0,074	0,088
-641,926	115,075	0,051	0,046
-640,911	109,738	0,076	0,068
-639,897	60,215	-0,044	0,032
-638,882	800,000	0,019	0,049
-637,868	156,408	0,096	0,098
-636,853	-111,435	-0,082	-0,012
-635,838	-26,900	0,035	0,015
-634,824	-200,000	0,006	0,041
-633,809	-105,587	0,050	0,008
-632,795	-200,000	-0,008	0,051
-631,780	50,864	-0,064	0,045
-630,765	64,877	-0,018	0,013
-629,751	39,296	-0,075	0,049
-628,736	110,319	-0,091	-0,081
-627,722	119,881	0,044	-0,040
-626,707	63,869	0,099	-0,074
-625,692	800,000	-0,020	-0,052
-624,678	-200,000	-0,002	-0,009
-623,663	-143,237	0,083	0,006
-622,649	-200,000	0,017	-0,154
-621,634	31,672	-0,144	-0,092
-620,619	-200,000	0,003	-0,012
-619,605	-12,311	-0,012	-0,006
-618,590	254,504	0,059	-0,075
-617,576	-14,800	0,127	0,060
-616,561	26,577	0,053	0,033
-615,546	17,606	-0,148	0,087
-614,532	-17,281	0,012	0,005
-613,517	179,166	-0,079	-0,086
-612,503	-44,514	-0,036	-0,013
-611,488	-58,199	0,104	0,033
-610,474	800,000	0,053	0,132
-609,459	-91,473	0,112	0,023
-608,444	-12,075	-0,166	-0,081
-607,430	800,000	0,053	-0,137
-606,415	40,518	0,093	-0,062
-605,401	800,000	0,064	0,168
-604,386	-11,552	0,024	0,012
-603,371	501,421	-0,014	-0,025
-602,357	-200,000	0,009	-0,052
-601,342	217,777	-0,102	0,121
-600,328	-56,508	-0,095	0,031
-599,313	563,132	0,041	0,073
-598,298	-80,281	0,067	0,016
-597,284	-66,982	-0,075	0,022
-596,269	-96,749	0,138	0,027
-595,255	-11,823	-0,142	0,069
-594,240	-200,000	0,009	-0,078
-593,225	800,000	-0,041	-0,121
-592,211	-49,210	0,090	-0,032
-591,196	800,000	-0,028	-0,066
-590,182	-200,000	0,005	-0,024
-589,167	-90,248	0,040	-0,009
-588,152	177,908	-0,101	0,109
-587,138	462,850	0,057	0,094
-586,123	438,078	-0,059	-0,096
-585,109	266,351	-0,106	-0,137
-584,094	-200,000	0,005	-0,047
-583,079	-200,000	0,045	-0,196
-582,065	-200,000	0,040	-0,157
-581,050	545,036	-0,092	-0,163
-580,036	800,000	0,044	-0,106
-579,021	-200,000	-0,016	-0,102
-578,006	-200,000	-0,017	-0,155
-576,992	-28,250	-0,039	0,017
-575,977	165,696	0,092	0,096
-574,963	-108,527	0,023	-0,004
-573,948	54,389	0,062	-0,044
-572,934	81,306	0,017	0,014
-571,919	232,547	-0,074	-0,090
-570,904	-172,644	0,090	0,002
-569,890	-200,000	-0,003	-0,104
-568,875	340,976	0,062	0,090
-567,861	-200,000	0,001	-0,125
-566,846	370,361	0,072	-0,108
-565,831	138,411	-0,071	-0,069
-564,817	800,000	-0,020	0,050
-563,802	-3,219	-0,160	-0,082
-562,788	-200,000	-0,010	-0,166
-561,773	133,513	0,024	-0,023
-560,758	-200,000	-0,016	0,105
-559,744	-200,000	0,007	-0,070
-558,729	18,575	-0,086	-0,051
-557,715	-200,000	-0,003	0,048
-556,700	-129,368	0,202	-0,021
-555,685	800,000	0,040	-0,125
-554,671	800,000	0,050	-0,158
-553,656	25,522	0,146	-0,090
-552,642	800,000	0,021	-0,053
-551,627	-147,015	0,031	-0,002
-550,612	14,727	0,039	0,023
-549,598	800,000	-0,034	-0,100
-548,583	-146,943	-0,109	0,007
-547,569	272,449	-0,051	0,067
-546,554	-41,221	0,109	-0,041
-545,539	-134,827	0,141	0,012
-544,525	14,249	-0,092	0,053
-543,510	-39,600	0,068	-0,026
-542,496	-60,132	-0,154	-0,048
-541,481	800,000	0,042	-0,113
-540,466	2,501	-0,113	-0,060
-539,452	-29,641	0,045	-0,019
-538,437	472,816	-0,068	0,114
-537,423	97,674	-0,055	-0,047
-536,408	190,861	-0,098	-0,109
-535,393	201,432	-0,107	-0,122
-534,379	800,000	-0,041	-0,116
-533,364	238,280	0,017	0,022
-532,350	314,813	0,043	0,061
-531,335	-95,323	0,130	-0,026
-530,321	-27,840	0,052	-0,022
-529,306	-92,124	-0,017	-0,004
-528,291	-200,000	-0,010	-0,050
-527,277	49,517	-0,079	0,055
-526,262	443,319	-0,035	0,056
-525,248	274,501	0,030	-0,039
-524,233	-200,000	-0,003	0,107
-523,218	-200,000	-0,018	0,068
-522,204	106,720	0,060	0,053
-521,189	35,190	-0,103	-0,067
-520,175	105,276	0,082	-0,071
-519,160	-144,504	-0,052	0,003
-518,145	-10,394	0,152	0,074
-517,131	23,694	0,036	-0,022
-516,116	534,996	0,060	0,105
-515,102	150,190	-0,086	-0,086
-514,087	61,922	-0,032	-0,023
-513,072	-106,620	-0,039	0,006
-512,058	11,141	0,088	-0,050
-511,043	501,144	-0,031	0,053
-510,029	-143,555	0,022	-0,002
-509,014	-200,000	-0,006	-0,021
-507,999	-140,264	-0,105	0,008
-506,985	75,799	0,044	0,034
-505,970	-200,000	-0,020	0,101
-504,956	-104,909	0,196	-0,033
-503,941	-200,000	0,003	0,032
-502,926	-200,000	0,008	0,114
-501,912	-200,000	0,008	0,076
-500,897	800,000	0,054	-0,135
-499,883	800,000	0,052	-0,129
-498,868	30,352	-0,093	0,059
-497,853	-200,000	-0,005	-0,041
-496,839	94,584	-0,011	0,009
-495,824	-12,465	0,098	-0,047
-494,810	-42,183	0,118	0,044
-493,795	-200,000	0,021	0,085
-492,781	-200,000	-0,022	0,108
-491,766	100,914	-0,012	-0,010
-490,751	-200,000	0,025	0,102
-489,737	-95,690	-0,089	-0,017
-488,722	-36,285	0,116	0,046
-487,708	138,596	0,065	0,063
-486,693	-42,485	0,060	-0,022
-485,678	-118,797	-0,130	0,017
-484,664	-200,000	-0,013	0,087
-483,649	103,672	0,096	-0,083
-482,635	-71,589	-0,063	-0,017
-481,620	51,820	0,059	0,041
-480,605	-10,182	0,103	-0,050
-479,591	695,759	0,044	0,085
-478,576	-10,731	0,037	0,018
-477,562	-140,496	-0,053	-0,004
-476,547	66,812	0,098	-0,074
-475,532	74,301	-0,165	-0,128
-474,518	-59,567	0,096	-0,030
-473,503	-79,028	0,055	0,014
-472,489	800,000	0,040	0,103
-471,474	64,847	-0,065	-0,048
-470,459	239,426	-0,085	-0,104
-469,445	-200,000	0,014	-0,083
-468,430	-200,000	0,003	-0,043
-467,416	-200,000	0,002	0,072
-466,401	-200,000	-0,013	0,093
-465,386	-19,449	0,070	0,032
-464,372	800,000	-0,049	-0,121
-463,357	-76,138	-0,068	-0,018
-462,343	-130,031	-0,149	-0,015
-461,328	273,946	-0,063	-0,083
-460,313	800,000	-0,014	-0,039
-459,299	334,379	-0,027	0,038
-458,284	-200,000	-0,062	0,256
-457,270	537,981	-0,031	0,055
-456,255	139,631	0,063	0,061
-455,241	-200,000	-0,004	-0,015
-454,226	-200,000	0,001	-0,030
-453,211	351,531	-0,049	-0,072
-452,197	-19,185	0,117	0,053
-451,182	154,415	0,048	-0,048
-450,168	-200,000	-0,009	-0,097
-449,153	-63,664	-0,127	0,038
-448,138	-200,000	-0,012	-0,087
-447,124	-200,000	-0,001	-0,088
-446,109	-131,472	-0,039	0,004
-445,095	-200,000	0,016	-0,112
-444,080	58,168	-0,052	-0,037
-443,065	800,000	-0,034	0,100
-442,051	443,472	-0,078	-0,127
-441,036	-136,252	-0,094	0,008
-440,022	157,318	-0,087	0,089
-439,007	800,000	-0,036	-0,082
-437,992	22,907	-0,104	0,063
-436,978	800,000	0,032	-0,079
-435,963	334,294	0,066	0,094
-434,949	-200,000	0,004	-0,067
-433,934	4,885	0,003	0,002
-432,919	-200,000	-0,002	0,116
-431,905	-200,000	-0,004	0,144
-430,890	281,191	0,053	0,070
-429,876	800,000	-0,034	-0,076
-428,861	-26,110	-0,023	-0,010
-427,846	147,922	-0,090	-0,089
-426,832	-128,389	-0,092	0,010
-425,817	-85,204	-0,046	-0,011
-424,803	-131,237	0,064	-0,006
-423,788	-133,045	-0,062	-0,006
-422,773	-26,027	-0,060	0,026
-421,759	299,024	-0,106	0,144
-420,744	800,000	0,023	0,065
-419,730	-27,458	-0,172	-0,073
-418,715	-43,956	0,119	-0,044
-417,701	416,309	-0,021	-0,033
-416,686	-200,000	0,005	-0,062
-415,671	-56,609	0,130	0,042
-414,657	-77,682	0,134	0,034
-413,642	-200,000	0,002	0,006
-412,628	-71,410	-0,081	0,022
-411,613	83,080	-0,044	-0,035
-410,598	-140,040	0,048	-0,004
-409,584	-200,000	-0,002	-0,077
-408,569	-56,550	0,180	-0,058
-407,555	161,552	-0,107	0,110
-406,540	254,558	-0,050	-0,064
-405,525	-10,319	-0,096	0,047
-404,511	-0,955	-0,100	-0,052
-403,496	127,467	0,104	-0,097
-402,482	185,974	0,084	-0,091
-401,467	-200,000	0,014	0,099
-400,452	370,675	0,013	0,020
-399,438	-200,000	-0,005	0,164
-398,423	-200,000	0,022	-0,140
-397,409	-55,199	-0,054	-0,018
-396,394	-98,694	-0,031	0,006
-395,379	-145,118	-0,134	-0,009
-394,365	27,605	0,062	-0,038
-393,350	-200,000	-0,001	0,178
-392,336	154,584	0,007	0,007
-391,321	304,868	0,026	0,036
-390,306	618,659	0,076	-0,141
-389,292	222,340	0,081	-0,096
-388,277	-29,529	0,094	-0,039
-387,263	-46,348	0,158	-0,057
-386,248	62,413	0,130	0,095
-385,233	15,710	0,090	0,052
-384,219	91,098	0,046	0,038
-383,204	-200,000	-0,016	0,064
-382,190	-21,365	-0,014	0,006
-381,175	-200,000	-0,005	0,025
-380,160	43,713	-0,063	-0,042
-379,146	361,403	0,052	0,077
-378,131	-43,518	-0,120	0,044
-377,117	303,057	-0,082	0,111
-376,102	152,410	-0,063	0,064
-375,088	688,992	-0,018	-0,034
-374,073	-8,620	-0,029	0,014
-373,058	86,649	-0,056	-0,045
-372,044	-45,413	0,136	-0,049
-371,029	-200,000	-0,016	0,118
-370,015	-183,514	-0,114	0,001
-369,000	5,217	-0,049	-0,027
-367,985	142,972	0,035	0,034
-366,971	-27,417	0,087	-0,037
-365,956	161,723	0,087	-0,090
-364,942	37,525	0,107	0,069
-363,927	-16,560	-0,057	0,026
-362,912	-200,000	0,031	0,115
-361,898	190,697	0,024	-0,027
-360,883	569,633	-0,046	-0,082
-359,869	135,354	-0,055	0,052
-358,854	-200,000	0,049	0,000
-357,839	71,811	-0,021	-0,016
-356,825	-109,582	0,108	-0,017
-355,810	-9,428	0,044	-0,022
-354,796	57,699	-0,060	-0,043
-353,781	598,575	-0,044	-0,080
-352,766	21,548	0,113	0,068
-351,752	-200,000	-0,012	0,104
-350,737	-200,000	0,017	-0,099
-349,723	800,000	0,046	0,111
-348,708	-141,567	0,131	-0,010
-347,693	204,989	-0,032	0,037
-346,679	518,257	-0,083	0,143
-345,664	55,033	-0,097	0,069
-344,650	-114,783	0,022	0,003
-343,635	-131,529	-0,062	0,006
-342,620	-40,535	-0,114	-0,043
-341,606	478,041	-0,051	0,085
-340,591	-200,000	-0,005	0,043
-339,577	-14,273	-0,093	-0,044
-338,562	94,117	-0,066	-0,055
-337,548	-13,563	0,079	-0,037
-336,533	230,712	0,089	0,107
-335,518	-39,789	-0,082	0,031
-334,504	497,030	0,055	-0,093
-333,489	19,436	0,110	-0,065
-332,475	109,789	-0,072	0,063
-331,460	800,000	-0,011	-0,029
-330,445	76,892	0,158	-0,123
-329,431	183,431	-0,057	0,062
-328,416	-200,000	0,006	0,063
-327,402	800,000	-0,013	0,037
-326,387	22,025	-0,075	0,045
-325,372	211,956	-0,020	0,023
-324,358	-100,866	-0,133	-0,024
-323,343	130,507	0,028	0,026
-322,329	-79,565	0,081	0,020
-321,314	7,149	0,124	0,068
-320,299	800,000	0,045	0,132
-319,285	-200,000	-0,020	-0,089
-318,270	-200,000	0,001	-0,060
-317,256	88,928	0,030	-0,024
-316,241	-200,000	0,008	0,116
-315,226	-47,010	0,036	0,013
-314,212	800,000	0,015	0,041
-313,197	369,171	0,015	-0,022
-312,183	-189,367	-0,100	-0,001
-311,168	-200,000	0,009	0,072
-310,153	800,000	-0,024	0,068
-309,139	-137,078	0,009	0,001
-308,124	-200,000	0,013	-0,046
-307,110	-200,000	0,022	0,097
-306,095	800,000	0,046	0,126
-305,080	-111,640	-0,051	-0,007
-304,066	286,314	0,099	-0,132
-303,051	-14,997	-0,053	0,025
-302,037	-200,000	0,001	0,092
-301,022	-200,000	-0,008	0,086
-300,008	-200,000	-0,008	0,035
-298,993	389,190	-0,027	0,041
-297,978	800,000	-0,041	0,099
-296,964	-84,092	-0,182	0,042
-295,949	18,643	-0,091	0,053
-294,935	-200,000	0,000	-0,085
-293,920	800,000	-0,051	-0,134
-292,905	469,159	0,048	0,079
-291,891	-200,000	-0,016	0,125
-290,876	-200,000	-0,033	0,141
-289,862	287,954	0,051	-0,067
-288,847	800,000	0,032	-0,073
-287,832	-200,000	-0,005	-0,094
-286,818	-200,000	0,003	0,152
-285,803	800,000	-0,008	0,021
-284,789	56,269	0,106	-0,075
-283,774	755,740	-0,054	0,107
-282,759	-11,650	0,019	0,009
-281,745	800,000	-0,071	-0,192
-280,730	67,642	0,013	-0,009
-279,716	-128,773	0,115	0,012
-278,701	546,040	0,026	-0,045
-277,686	-200,000	0,067	-0,000
-276,672	-37,509	0,035	0,014
-275,657	-200,000	-0,001	0,076
-274,643	439,443	-0,042	0,067
-273,628	-200,000	-0,015	-0,127
-272,613	800,000	-0,043	-0,111
-271,599	-14,066	-0,100	0,047
-270,584	-104,826	0,128	0,021
-269,570	-200,000	0,007	-0,031
-268,555	800,000	0,044	0,102
-267,540	20,927	-0,083	-0,049
-266,526	-45,564	0,072	-0,026
-265,511	411,074	-0,073	-0,114
-264,497	-102,152	0,176	-0,031
-263,482	-72,726	0,072	0,019
-262,467	-200,000	0,023	-0,121
-261,453	200,026	-0,036	-0,041
-260,438	106,427	0,036	-0,031
-259,424	-58,336	-0,064	0,020
-258,409	-200,000	0,007	-0,029
-257,395	-46,637	-0,080	0,029
-256,380	260,110	0,065	-0,082
-255,365	-100,464	0,120	-0,021
-254,351	-200,000	0,012	0,073
-253,336	-67,204	-0,174	0,050
-252,322	-107,408	-0,139	-0,022
-251,307	168,089	-0,047	0,049
-250,292	-200,000	0,011	0,058
-249,278	52,998	0,055	0,038
-248,263	561,885	0,080	0,142
-247,249	236,229	-0,094	0,114
-246,234	-102,679	-0,060	-0,010
-245,219	134,023	-0,053	0,050
-244,205	126,282	-0,112	0,104
-243,190	-200,000	0,012	0,079
-242,176	319,526	-0,055	0,076
-241,161	520,140	-0,012	-0,021
-240,146	734,127	0,063	0,124
-239,132	-200,000	0,005	-0,127
-238,117	800,000	-0,043	-0,092
-237,103	672,400	-0,021	-0,039
-236,088	100,830	0,062	0,053
-235,073	210,000	0,069	0,080
-234,059	112,960	0,059	-0,052
-233,044	-24,950	-0,065	0,028
-232,030	82,704	-0,029	-0,023
-231,015	800,000	0,053	0,151
-230,000	800,000	0,014	0,034
-228,986	33,483	0,053	-0,033
-227,971	-200,000	0,022	0,093
-226,957	-75,208	0,057	0,015
-225,942	28,098	0,054	0,033
-224,927	-200,000	0,029	0,161
-223,913	-200,000	0,013	-0,085
-222,898	-104,990	-0,084	0,014
-221,884	348,755	0,034	-0,049
-220,869	-200,000	0,032	0,123
-219,855	-200,000	0,058	0,212
-218,840	-160,392	0,057	0,002
-217,825	12,945	-0,087	-0,049
-216,811	586,372	0,035	-0,064
-215,796	388,842	-0,089	-0,134
-214,782	685,184	-0,020	-0,037
-213,767	-144,424	0,167	0,011
-212,752	800,000	0,015	-0,039
-211,738	-14,800	0,069	-0,032
-210,723	188,764	0,086	0,095
-209,709	-115,550	-0,170	0,023
-208,694	315,885	0,023	-0,032
-207,679	-200,000	-0,007	-0,107
-206,665	-134,130	-0,010	0,001
-205,650	-200,000	0,010	0,130
-204,636	-200,000	-0,001	-0,088
-203,621	800,000	-0,042	-0,115
-202,606	-68,912	-0,052	-0,014
-201,592	98,869	-0,133	-0,112
-200,577	-19,003	0,059	0,027
-199,563	-200,000	-0,007	0,065
-198,548	-91,110	-0,118	-0,024
-197,533	150,342	0,117	0,116
-196,519	-200,000	-0,020	0,067
-195,504	62,610	0,096	-0,070
-194,490	505,457	0,113	0,191
-193,475	-200,000	-0,011	0,052
-192,460	587,559	0,003	0,006
-191,446	-20,734	0,008	0,004
-190,431	640,294	-0,047	0,088
-189,417	800,000	-0,094	0,208
-188,402	111,881	0,144	-0,127
-187,387	-48,522	-0,042	-0,015
-186,373	-40,684	0,045	-0,017
-185,358	236,928	-0,055	0,066
-184,344	107,479	0,165	0,143
-183,329	24,807	0,044	0,026
-182,315	800,000	0,014	-0,033
-181,300	-47,141	-0,165	-0,058
-180,285	-200,000	-0,062	-0,219
-179,271	800,000	0,047	-0,123
-178,256	-33,851	-0,055	-0,022
-177,242	-200,000	0,008	-0,216
-176,227	207,735	-0,048	-0,054
-175,212	347,819	0,107	0,154
-174,198	-200,000	0,010	0,077
-173,183	56,842	-0,148	-0,105
-172,169	-200,000	-0,004	0,045
-171,154	-200,000	-0,016	-0,108
-170,139	358,560	0,071	-0,103
-169,125	137,514	-0,070	-0,067
-168,110	286,329	0,036	-0,048
-167,096	800,000	0,035	0,085
-166,081	390,696	0,052	0,079
-165,066	-200,000	-0,037	0,000
-164,052	-200,000	-0,025	-0,154
-163,037	800,000	-0,019	0,051
-162,023	-200,000	0,012	0,148
-161,008	-200,000	-0,018	0,100
-159,993	-104,101	-0,052	0,009
-158,979	-93,172	-0,063	0,013
-157,964	-115,978	-0,058	0,008
-156,950	115,638	-0,031	-0,028
-155,935	35,930	-0,085	0,054
-154,920	26,035	0,163	0,099
-153,906	429,767	-0,039	-0,061
-152,891	-200,000	-0,008	0,097
-151,877	172,284	0,078	0,082
-150,862	800,000	0,016	0,038
-149,847	-42,136	-0,108	-0,040
-148,833	83,212	0,140	-0,111
-147,818	-200,000	0,010	0,084
-146,804	-105,118	-0,049	-0,008
-145,789	116,678	0,039	0,035
-144,775	-71,815	-0,214	0,058
-143,760	-200,000	-0,002	0,039
-142,745	126,228	-0,020	-0,019
-141,731	288,825	-0,042	0,055
-140,716	-200,000	-0,008	0,039
-139,702	-83,293	-0,076	-0,018
-138,687	356,079	0,113	0,165
-137,672	-200,000	-0,020	0,109
-136,658	-32,182	0,039	-0,016
-135,643	74,635	-0,069	0,053
-134,629	-76,089	0,090	-0,023
-133,614	431,101	-0,041	0,065
-132,599	277,318	0,089	0,115
-131,585	56,814	0,041	-0,029
-130,570	-20,309	-0,052	0,023
-129,556	261,633	-0,049	0,062
-128,541	288,131	-0,030	-0,040
-127,526	555,579	0,046	0,081
-126,512	527,758	-0,017	0,030
-125,497	-112,367	-0,062	0,009
-124,483	95,234	0,040	-0,033
-123,468	663,791	0,058	0,110
-122,453	-75,733	-0,104	-0,027
-121,439	321,271	-0,022	0,030
-120,424	-200,000	0,008	0,153
