DTS Sentinel unit serial number:	SN410029Multiplexer serial number:	ORYXHardware model number:	OX2-SRSoftware version number:	ORYX F/W v4,00 Oryx Data Collector v3.7.2.0data status	okinstallation	B6 Nyhavnadifferential loss correction	single-endedforward channel	channel 2reverse channel	N/Adate	2023/12/09time	11:25:08forward acquisition time	300,00reverse acquisition time	0,00gamma	499,1914k internal	0,3139k external	0,3139temperature offset calibration	1,0000default loss term (dB/km)	0,3820temperature slope calibration	1,0000multiplexer offset coefficient	1,0000multiplexer slope coefficient	1,0000fibre end	0,00T internal ref (°C)	18,81T ext. ref 1 (°C)	2,77T ext. ref 2 (°C)	2,77length (m)	temperature (°C)	Stokes	anti-Stokes-744,400	-60,134	0,177	-0,056
-743,385	-127,672	-0,276	-0,029
-742,371	-112,381	0,196	0,029
-741,356	-56,531	-0,288	0,094
-740,342	-95,985	-0,019	0,004
-739,327	-92,438	-0,202	0,042
-738,312	590,735	-0,003	0,005
-737,298	-70,265	-0,214	0,060
-736,283	800,000	0,037	0,088
-735,269	-91,745	-0,195	-0,041
-734,254	-57,693	0,055	-0,018
-733,239	-72,562	-0,477	-0,130
-732,225	-200,000	-0,015	0,156
-731,210	-200,000	-0,022	0,150
-730,196	519,544	-0,024	0,041
-729,181	42,501	0,094	-0,063
-728,167	-130,137	-0,026	-0,003
-727,152	52,446	0,022	0,016
-726,137	141,071	-0,041	-0,040
-725,123	-17,066	-0,150	0,070
-724,108	-200,000	0,037	-0,134
-723,094	-200,000	0,000	-0,052
-722,079	-105,269	-0,147	-0,025
-721,064	-117,545	-0,121	0,016
-720,050	-200,000	0,002	-0,064
-719,035	-200,000	-0,021	-0,088
-718,021	-129,702	0,048	0,005
-717,006	-92,032	-0,073	-0,015
-715,991	-73,282	-0,034	0,009
-714,977	-200,000	-0,016	-0,089
-713,962	800,000	0,038	-0,108
-712,948	145,827	-0,069	0,068
-711,933	162,952	-0,033	0,034
-710,918	171,042	0,050	-0,053
-709,904	28,597	-0,050	-0,031
-708,889	-200,000	-0,031	-0,207
-707,875	25,147	-0,019	-0,012
-706,860	-190,901	-0,042	-0,000
-705,845	394,892	0,066	0,103
-704,831	574,951	0,039	-0,071
-703,816	353,983	-0,068	-0,100
-702,802	-200,000	0,023	-0,151
-701,787	-55,122	-0,072	-0,024
-700,772	182,757	-0,015	-0,016
-699,758	31,255	0,032	-0,020
-698,743	800,000	0,050	0,125
-697,729	-82,461	0,127	0,030
-696,714	-118,749	-0,119	-0,015
-695,699	800,000	0,028	-0,061
-694,685	3,862	-0,149	0,080
-693,670	-50,328	0,106	-0,037
-692,656	346,899	-0,038	0,055
-691,641	76,889	-0,060	0,047
-690,627	-200,000	-0,011	0,129
-689,612	-128,098	-0,173	-0,018
-688,597	328,125	-0,060	-0,085
-687,583	-200,000	-0,028	-0,108
-686,568	21,413	-0,083	-0,050
-685,554	800,000	0,021	-0,055
-684,539	-48,181	0,178	0,063
-683,524	-158,879	-0,055	-0,002
-682,510	800,000	-0,039	-0,125
-681,495	193,635	-0,051	-0,058
-680,481	462,661	-0,050	-0,083
-679,466	-113,509	-0,047	-0,007
-678,451	-49,222	0,127	0,045
-677,437	-18,160	0,071	-0,033
-676,422	123,728	-0,098	0,091
-675,408	-46,231	0,007	-0,003
-674,393	154,577	-0,117	0,119
-673,378	-55,089	-0,125	-0,041
-672,364	517,374	-0,064	0,111
-671,349	705,543	-0,033	0,065
-670,335	-17,774	0,050	0,023
-669,320	800,000	0,049	0,107
-668,305	762,933	0,059	0,119
-667,291	-200,000	-0,031	-0,144
-666,276	-200,000	-0,001	-0,025
-665,262	11,218	-0,059	0,033
-664,247	-17,285	-0,128	0,059
-663,232	-200,000	-0,000	-0,006
-662,218	-41,340	0,122	-0,046
-661,203	800,000	0,071	0,147
-660,189	-200,000	-0,003	-0,012
-659,174	-200,000	-0,003	0,026
-658,159	-89,597	0,048	0,010
-657,145	-147,847	-0,115	0,007
-656,130	-70,812	-0,101	0,028
-655,116	75,372	-0,081	-0,063
-654,101	-200,000	0,011	0,043
-653,086	-200,000	0,009	0,086
-652,072	16,664	-0,039	0,023
-651,057	-23,949	-0,249	-0,110
-650,043	-200,000	-0,008	-0,194
-649,028	2,857	0,053	0,028
-648,014	100,649	0,088	-0,075
-646,999	171,877	0,035	-0,038
-645,984	800,000	0,056	0,177
-644,970	-98,068	-0,049	-0,009
-643,955	800,000	-0,044	-0,093
-642,941	-200,000	0,007	-0,074
-641,926	-36,868	0,170	-0,067
-640,911	800,000	-0,047	0,141
-639,897	-200,000	-0,032	-0,179
-638,882	-200,000	0,006	-0,059
-637,868	-200,000	-0,012	-0,116
-636,853	-200,000	-0,011	-0,041
-635,838	70,886	0,077	0,059
-634,824	-200,000	0,026	-0,115
-633,809	-200,000	-0,001	0,028
-632,795	111,898	0,046	-0,041
-631,780	24,744	-0,021	0,013
-630,765	-200,000	0,019	0,065
-629,751	331,581	-0,049	0,070
-628,736	62,262	-0,156	-0,115
-627,722	-161,406	0,006	-0,000
-626,707	100,558	-0,139	0,119
-625,692	-80,015	-0,032	0,008
-624,678	-200,000	0,047	0,184
-623,663	800,000	-0,057	0,145
-622,649	-158,369	0,118	-0,005
-621,634	261,778	0,099	-0,127
-620,619	-54,265	0,059	-0,020
-619,605	800,000	0,038	0,101
-618,590	64,365	0,048	-0,036
-617,576	-200,000	0,007	0,100
-616,561	135,049	-0,046	0,045
-615,546	-117,854	0,077	-0,010
-614,532	-68,110	-0,115	-0,033
-613,517	-75,106	0,067	-0,018
-612,503	-73,112	-0,092	-0,025
-611,488	-5,190	0,068	0,034
-610,474	-37,567	-0,095	-0,037
-609,459	-18,095	0,111	-0,051
-608,444	211,231	0,060	-0,069
-607,430	-40,176	-0,105	-0,040
-606,415	-52,984	-0,086	-0,029
-605,401	165,874	-0,051	0,053
-604,386	-176,749	0,048	-0,001
-603,371	-143,085	-0,035	-0,002
-602,357	144,895	-0,061	0,061
-601,342	-75,158	-0,029	-0,008
-600,328	637,125	-0,040	0,076
-599,313	-82,618	-0,123	0,029
-598,298	-44,236	0,055	0,020
-597,284	-200,000	-0,009	0,116
-596,269	-200,000	0,002	-0,055
-595,255	743,852	-0,017	0,034
-594,240	-110,921	-0,109	-0,016
-593,225	35,110	-0,048	-0,031
-592,211	-104,511	-0,054	-0,009
-591,196	176,566	0,131	0,140
-590,182	-67,707	0,059	-0,017
-589,167	-30,713	0,119	-0,049
-588,152	81,640	-0,106	-0,085
-587,138	-101,448	-0,152	0,027
-586,123	-200,000	-0,012	0,047
-585,109	191,200	-0,048	-0,053
-584,094	345,126	0,030	-0,043
-583,079	330,511	0,053	-0,075
-582,065	293,740	0,108	-0,145
-581,050	680,603	-0,056	0,107
-580,036	100,069	0,020	0,017
-579,021	412,865	-0,084	-0,132
-578,006	605,061	-0,068	0,125
-576,992	-200,000	0,007	-0,054
-575,977	800,000	0,056	-0,143
-574,963	-200,000	-0,000	-0,055
-573,948	248,708	0,053	0,067
-572,934	-124,376	0,067	-0,008
-571,919	1,672	-0,035	-0,018
-570,904	91,290	-0,052	0,043
-569,890	-92,999	0,059	-0,012
-568,875	-200,000	0,007	0,040
-567,861	-200,000	-0,043	0,232
-566,846	-200,000	-0,010	0,064
-565,831	-143,840	0,091	0,006
-564,817	-33,460	-0,046	0,019
-563,802	-200,000	-0,004	-0,044
-562,788	-200,000	-0,005	-0,044
-561,773	-200,000	-0,016	-0,094
-560,758	-200,000	-0,011	0,063
-559,744	37,727	0,061	-0,040
-558,729	507,603	0,008	-0,013
-557,715	117,952	0,082	0,075
-556,700	80,795	-0,140	-0,111
-555,685	-200,000	0,018	-0,087
-554,671	222,249	0,050	-0,060
-553,656	-3,277	0,099	-0,051
-552,642	88,201	-0,049	0,040
-551,627	-68,880	0,110	0,031
-550,612	148,505	0,063	-0,062
-549,598	800,000	0,017	0,049
-548,583	-20,013	-0,096	0,044
-547,569	-200,000	-0,035	0,144
-546,554	800,000	0,016	-0,049
-545,539	-71,380	0,079	-0,022
-544,525	-154,067	-0,112	-0,005
-543,510	788,080	0,047	-0,095
-542,496	-10,715	-0,057	0,028
-541,481	742,694	0,011	0,021
-540,466	133,938	-0,046	0,044
-539,452	323,150	0,051	-0,072
-538,437	581,281	-0,030	0,054
-537,423	169,363	0,035	-0,037
-536,408	-200,000	-0,004	0,024
-535,393	-128,290	-0,145	-0,015
-534,379	15,594	-0,070	-0,041
-533,364	235,901	-0,025	-0,030
-532,350	-200,000	0,023	-0,100
-531,335	94,740	0,068	0,057
-530,321	-200,000	0,025	0,109
-529,306	626,688	-0,042	0,077
-528,291	5,105	-0,139	0,075
-527,277	800,000	-0,029	-0,069
-526,262	107,522	-0,019	-0,017
-525,248	-51,046	-0,125	-0,043
-524,233	599,146	0,062	-0,114
-523,218	-36,920	-0,112	0,044
-522,204	112,216	0,052	0,047
-521,189	93,245	-0,057	-0,048
-520,175	-92,133	-0,073	0,015
-519,160	-200,000	0,004	-0,040
-518,145	-45,650	0,070	-0,025
-517,131	-121,505	0,123	0,015
-516,116	41,838	0,102	0,068
-515,102	-200,000	0,034	0,160
-514,087	322,191	0,048	-0,067
-513,072	6,886	-0,030	0,016
-512,058	481,926	0,015	0,024
-511,043	25,969	0,065	0,040
-510,029	-200,000	-0,030	0,124
-509,014	-142,665	0,101	0,007
-507,999	-200,000	0,045	0,163
-506,985	800,000	0,066	-0,173
-505,970	-140,860	0,049	0,004
-504,956	292,054	-0,022	0,029
-503,941	-200,000	0,005	0,106
-502,926	-200,000	0,017	0,199
-501,912	74,184	-0,024	-0,019
-500,897	-142,458	0,168	0,012
-499,883	226,038	-0,061	-0,073
-498,868	386,211	-0,037	0,056
-497,853	-200,000	0,019	-0,083
-496,839	131,273	-0,038	0,036
-495,824	680,775	0,036	0,068
-494,810	-200,000	-0,006	0,023
-493,795	-200,000	-0,002	-0,018
-492,781	33,117	-0,096	-0,061
-491,766	-200,000	-0,025	0,163
-490,751	195,154	-0,130	-0,145
-489,737	-82,533	-0,106	0,025
-488,722	-200,000	0,010	-0,236
-487,708	-15,115	0,111	-0,052
-486,693	-164,970	-0,195	-0,006
-485,678	198,774	0,024	-0,027
-484,664	59,053	-0,070	-0,050
-483,649	54,868	-0,094	0,066
-482,635	-200,000	-0,022	-0,106
-481,620	-200,000	0,009	-0,071
-480,605	91,128	0,011	0,009
-479,591	107,932	-0,074	0,065
-478,576	37,068	-0,107	0,069
-477,562	30,887	-0,017	-0,011
-476,547	-10,333	0,093	0,045
-475,532	-93,156	-0,092	0,019
-474,518	-200,000	-0,003	-0,023
-473,503	95,231	0,015	-0,013
-472,489	-200,000	0,010	0,102
-471,474	-80,136	-0,091	-0,022
-470,459	-10,369	-0,109	0,053
-469,445	-200,000	-0,012	-0,064
-468,430	542,459	0,054	-0,094
-467,416	123,535	0,013	0,012
-466,401	800,000	0,023	0,054
-465,386	-200,000	0,005	-0,062
-464,372	-200,000	0,029	0,165
-463,357	-200,000	-0,004	0,027
-462,343	-115,202	-0,182	-0,025
-461,328	381,976	0,079	-0,119
-460,313	-200,000	-0,007	-0,063
-459,299	-32,638	0,084	-0,034
-458,284	68,057	0,053	-0,040
-457,270	-118,001	0,062	0,008
-456,255	800,000	-0,074	-0,199
-455,241	77,854	-0,026	-0,020
-454,226	-200,000	-0,020	0,105
-453,211	-41,204	-0,094	-0,035
-452,197	-200,000	-0,001	0,091
-451,182	800,000	0,008	-0,021
-450,168	213,352	0,124	-0,143
-449,153	81,233	-0,070	-0,055
-448,138	-112,739	-0,148	0,021
-447,124	800,000	-0,060	-0,135
-446,109	-143,791	0,008	-0,001
-445,095	80,574	0,049	0,039
-444,080	-60,684	0,058	-0,018
-443,065	374,193	0,081	0,121
-442,051	-200,000	0,006	0,020
-441,036	27,925	-0,200	-0,123
-440,022	283,954	0,109	0,144
-439,007	800,000	-0,009	-0,022
-437,992	-200,000	0,047	0,165
-436,978	-13,872	0,077	-0,036
-435,963	-3,596	-0,127	0,065
-434,949	109,826	0,065	-0,057
-433,934	800,000	0,012	0,034
-432,919	26,685	-0,063	-0,039
-431,905	103,942	-0,063	0,055
-430,890	575,248	0,068	0,122
-429,876	47,890	0,082	0,056
-428,861	131,958	0,107	0,101
-427,846	-33,402	-0,044	-0,018
-426,832	103,993	0,008	0,007
-425,817	127,963	-0,018	-0,017
-424,803	1,506	-0,075	0,039
-423,788	-200,000	-0,001	0,046
-422,773	218,949	0,018	0,021
-421,759	-200,000	0,020	0,073
-420,744	-200,000	0,001	0,098
-419,730	800,000	0,022	-0,070
-418,715	435,581	-0,041	0,066
-417,701	-7,380	-0,152	-0,075
-416,686	-200,000	-0,037	0,143
-415,671	-127,717	0,069	0,007
-414,657	-0,966	0,055	-0,029
-413,642	-78,224	-0,093	-0,023
-412,628	800,000	-0,076	-0,199
-411,613	481,468	-0,114	-0,189
-410,598	-200,000	-0,013	0,063
-409,584	800,000	0,022	-0,065
-408,569	88,198	0,011	-0,009
-407,555	-49,677	-0,087	0,030
-406,540	800,000	-0,033	0,098
-405,525	268,252	-0,057	-0,074
-404,511	-87,806	-0,123	0,027
-403,496	-123,324	0,054	0,006
-402,482	800,000	-0,028	0,078
-401,467	-2,400	0,073	0,037
-400,452	-8,018	0,109	0,054
-399,438	459,062	0,025	0,042
-398,423	800,000	-0,072	-0,155
-397,409	800,000	-0,046	-0,117
-396,394	-200,000	0,011	-0,121
-395,379	81,869	-0,054	-0,042
-394,365	224,717	0,059	0,070
-393,350	-200,000	0,018	0,151
-392,336	175,392	0,093	0,099
-391,321	-23,266	-0,107	-0,047
-390,306	-200,000	-0,019	-0,122
-389,292	-8,517	-0,091	-0,044
-388,277	-20,988	-0,082	0,037
-387,263	-40,955	0,055	-0,021
-386,248	13,909	0,093	0,053
-385,233	-200,000	0,015	0,069
-384,219	-162,372	0,091	-0,003
-383,204	118,659	-0,049	0,044
-382,190	-181,855	-0,190	-0,003
-381,175	82,312	-0,093	-0,074
-380,160	-63,728	0,172	0,051
-379,146	623,784	-0,048	0,088
-378,131	-188,737	0,087	0,001
-377,117	104,749	0,112	0,097
-376,102	400,496	0,049	-0,076
-375,088	56,855	-0,023	-0,016
-374,073	800,000	-0,023	-0,068
-373,058	-200,000	0,046	0,211
-372,044	-85,064	0,087	-0,020
-371,029	-109,429	0,071	0,011
-370,015	198,112	-0,079	0,088
-369,000	-12,869	-0,034	-0,016
-367,985	36,830	-0,014	-0,009
-366,971	-200,000	0,013	-0,044
-365,956	-41,011	0,033	-0,012
-364,942	-181,608	-0,171	0,002
-363,927	108,649	0,123	0,107
-362,912	-200,000	-0,009	-0,072
-361,898	-8,715	-0,113	0,055
-360,883	104,957	-0,075	0,064
-359,869	-15,205	-0,087	-0,041
-358,854	53,652	-0,076	0,053
-357,839	-200,000	-0,052	0,207
-356,825	227,428	-0,030	0,036
-355,810	-103,158	-0,014	-0,002
-354,796	154,161	-0,018	0,018
-353,781	-71,168	-0,027	-0,007
-352,766	51,092	0,002	0,002
-351,752	800,000	-0,004	-0,010
-350,737	-105,844	0,099	-0,016
-349,723	-200,000	0,019	0,138
-348,708	65,752	0,105	0,078
-347,693	46,461	0,115	-0,078
-346,679	84,469	-0,044	0,035
-345,664	485,935	-0,071	-0,118
-344,650	-106,444	-0,082	0,013
-343,635	800,000	0,048	0,131
-342,620	127,581	0,046	0,042
-341,606	41,272	0,117	-0,077
-340,591	-62,054	0,153	0,046
-339,577	159,124	-0,020	-0,020
-338,562	216,367	0,028	-0,033
-337,548	57,121	0,174	-0,124
-336,533	-125,494	0,044	0,005
-335,518	-70,401	0,041	-0,011
-334,504	125,973	0,041	0,038
-333,489	113,768	-0,089	0,079
-332,475	-200,000	0,013	-0,047
-331,460	31,808	-0,114	-0,071
-330,445	155,557	0,026	0,026
-329,431	-200,000	0,005	-0,124
-328,416	-200,000	-0,005	0,040
-327,402	245,755	0,058	0,071
-326,387	-113,773	-0,099	-0,014
-325,372	-84,499	0,017	-0,004
-324,358	592,530	-0,098	-0,177
-323,343	800,000	-0,022	-0,053
-322,329	-147,338	0,069	0,004
-321,314	-200,000	-0,022	0,123
-320,299	364,322	0,051	-0,075
-319,285	800,000	0,025	0,065
-318,270	204,537	-0,050	-0,057
-317,256	-47,296	-0,056	-0,020
-316,241	-200,000	0,010	-0,122
-315,226	293,426	0,109	-0,146
-314,212	449,309	-0,016	-0,025
-313,197	-22,083	-0,071	-0,032
-312,183	52,569	-0,055	0,038
-311,168	-31,923	-0,073	0,030
-310,153	-54,214	-0,011	-0,003
-309,139	63,158	-0,087	0,063
-308,124	59,828	0,064	0,046
-307,110	-30,364	-0,091	-0,038
-306,095	800,000	0,035	-0,110
-305,080	-92,677	0,037	0,008
-304,066	-200,000	-0,002	-0,125
-303,051	-200,000	-0,005	-0,115
-302,037	248,800	0,059	-0,072
-301,022	800,000	0,061	0,150
-300,008	466,414	0,041	-0,067
-298,993	-71,725	0,061	0,017
-297,978	74,183	0,063	0,048
-296,964	363,786	0,044	0,065
-295,949	43,807	0,064	-0,043
-294,935	53,342	-0,083	0,058
-293,920	-68,181	0,149	-0,042
-292,905	164,858	0,030	0,031
-291,891	800,000	0,048	0,112
-290,876	587,392	-0,027	0,048
-289,862	39,053	-0,117	0,076
-288,847	407,148	-0,042	-0,065
-287,832	97,831	-0,034	0,029
-286,818	100,388	0,138	-0,116
-285,803	-102,398	-0,058	-0,010
-284,789	-2,869	0,096	-0,048
-283,774	129,601	0,164	0,153
-282,759	-200,000	0,009	0,127
-281,745	20,890	-0,142	0,083
-280,730	-59,888	-0,084	-0,026
-279,716	470,557	-0,054	0,089
-278,701	-19,001	0,068	0,031
-277,686	52,682	-0,174	-0,121
-276,672	72,643	0,053	-0,040
-275,657	800,000	-0,042	0,093
-274,643	85,267	-0,042	-0,033
-273,628	-159,855	0,038	0,002
-272,613	-200,000	-0,020	-0,181
-271,599	-42,760	-0,157	0,058
-270,584	719,651	0,044	0,086
-269,570	95,888	0,036	0,030
-268,555	22,993	0,058	0,035
-267,540	251,296	0,025	-0,031
-266,526	-191,940	-0,158	0,001
-265,511	569,104	-0,033	-0,059
-264,497	497,519	-0,092	-0,155
-263,482	800,000	0,092	0,217
-262,467	800,000	-0,047	0,139
-261,453	800,000	0,017	0,046
-260,438	800,000	0,024	-0,074
-259,424	65,866	-0,015	-0,011
-258,409	-200,000	-0,028	-0,120
-257,395	-13,193	0,037	0,017
-256,380	800,000	-0,035	-0,108
-255,365	432,370	0,030	-0,048
-254,351	-92,861	-0,058	0,012
-253,336	-200,000	0,020	-0,065
-252,322	374,479	-0,021	-0,031
-251,307	-103,348	0,085	-0,014
-250,292	-27,932	0,085	-0,036
-249,278	-41,447	0,105	0,039
-248,263	295,700	-0,056	-0,075
-247,249	514,143	0,107	0,182
-246,234	-152,470	-0,044	-0,002
-245,219	-58,188	-0,065	-0,020
-244,205	800,000	0,015	-0,048
-243,190	-200,000	0,028	-0,186
-242,176	-200,000	-0,005	-0,090
-241,161	-83,154	-0,067	0,016
-240,146	280,454	0,091	-0,118
-239,132	45,825	-0,118	-0,079
-238,117	-112,877	0,113	-0,016
-237,103	800,000	-0,044	-0,105
-236,088	27,082	-0,023	-0,014
-235,073	-89,566	0,157	-0,033
-234,059	11,639	-0,018	-0,010
-233,044	24,051	0,088	0,053
-232,030	-50,698	0,076	-0,026
-231,015	-80,277	-0,073	0,018
-230,000	-84,363	0,079	-0,018
-228,986	-11,972	-0,150	-0,071
-227,971	-14,948	-0,151	0,070
-226,957	126,679	0,092	-0,085
-225,942	165,422	-0,050	0,051
-224,927	800,000	-0,034	0,073
-223,913	115,015	-0,072	-0,064
-222,898	537,998	-0,044	-0,076
-221,884	258,684	-0,015	0,019
-220,869	775,167	0,047	-0,093
-219,855	-10,545	0,152	0,073
-218,840	-200,000	0,009	-0,034
-217,825	-200,000	-0,009	-0,032
-216,811	800,000	-0,011	-0,023
-215,796	-200,000	-0,004	-0,077
-214,782	-19,087	0,102	-0,046
-213,767	-200,000	-0,006	0,131
-212,752	800,000	0,049	0,106
-211,738	698,784	-0,047	0,090
-210,723	-172,092	0,047	-0,001
-209,709	-145,643	-0,046	0,003
-208,694	-99,351	0,130	-0,024
-207,679	-200,000	-0,002	-0,194
-206,665	-200,000	0,008	0,027
-205,650	21,447	0,093	-0,055
-204,636	-52,553	0,206	-0,069
-203,621	327,601	-0,026	-0,037
-202,606	-188,278	-0,146	-0,001
-201,592	-200,000	0,014	0,077
-200,577	78,269	0,119	-0,093
-199,563	24,981	0,039	0,023
-198,548	-166,134	0,122	-0,004
-197,533	762,210	-0,017	-0,033
-196,519	800,000	0,021	-0,044
-195,504	8,428	-0,040	-0,022
-194,490	800,000	-0,058	0,179
-193,475	-88,865	-0,095	0,020
-192,460	-105,658	0,041	-0,007
-191,446	800,000	0,020	0,054
-190,431	-200,000	0,030	-0,126
-189,417	-200,000	-0,004	-0,110
-188,402	-40,112	0,012	-0,004
-187,387	800,000	0,038	-0,081
-186,373	41,690	0,015	0,010
-185,358	389,884	0,026	0,039
-184,344	-61,717	0,026	0,008
-183,329	-192,796	0,119	0,001
-182,315	208,210	-0,024	0,028
-181,300	-36,310	0,143	-0,056
-180,285	21,116	-0,141	-0,083
-179,271	800,000	0,029	0,082
-178,256	567,445	-0,048	0,085
-177,242	-200,000	0,139	0,000
-176,227	767,104	0,012	-0,024
-175,212	-58,512	0,049	0,015
-174,198	-117,648	0,010	-0,001
-173,183	-200,000	0,011	0,073
-172,169	408,439	-0,021	0,032
-171,154	-200,000	-0,033	0,161
-170,139	-158,537	0,139	-0,006
-169,125	-107,614	0,059	0,009
-168,110	2,987	0,112	0,059
-167,096	573,471	-0,010	-0,017
-166,081	-200,000	0,006	0,045
-165,066	25,968	-0,058	0,035
-164,052	-150,827	-0,052	-0,003
-163,037	227,901	-0,021	0,025
-162,023	-87,798	0,107	0,023
-161,008	-153,120	-0,020	0,001
-159,993	-105,210	-0,138	-0,023
-158,979	-200,000	-0,006	-0,026
-157,964	800,000	0,059	0,164
-156,950	73,298	-0,111	-0,084
-155,935	-79,530	0,135	-0,033
-154,920	8,891	-0,062	0,034
-153,906	-154,171	-0,146	-0,007
-152,891	165,241	0,092	0,094
-151,877	-200,000	-0,007	0,078
-150,862	-32,433	0,056	-0,023
-149,847	317,689	-0,075	-0,102
-148,833	800,000	0,026	-0,066
-147,818	12,508	-0,077	-0,043
-146,804	-200,000	0,007	0,033
-145,789	-156,664	0,061	0,003
-144,775	-55,409	-0,223	-0,072
-143,760	-68,872	-0,054	0,015
-142,745	800,000	-0,024	0,048
-141,731	187,858	0,081	0,088
-140,716	-200,000	0,002	0,072
-139,702	800,000	-0,098	0,201
-138,687	800,000	0,024	-0,065
-137,672	-103,033	-0,070	0,012
-136,658	-63,132	0,015	0,004
-135,643	-200,000	0,015	0,097
-134,629	407,634	-0,051	0,078
-133,614	250,305	-0,028	0,035
-132,599	-186,824	0,066	0,001
-131,585	461,015	0,019	0,030
-130,570	34,027	-0,069	0,043
-129,556	776,769	-0,041	-0,081
-128,541	122,811	0,060	0,054
-127,526	521,337	-0,040	-0,068
-126,512	-109,008	-0,066	-0,010
-125,497	143,590	0,088	-0,084
-124,483	800,000	-0,025	0,080
-123,468	-200,000	0,002	-0,071
-122,453	224,700	-0,051	-0,060
-121,439	800,000	-0,039	-0,092
-120,424	114,963	0,077	0,068
-119,410	-102,941	0,092	0,016
