DTS Sentinel unit serial number:	SN410029Multiplexer serial number:	ORYXHardware model number:	OX2-SRSoftware version number:	ORYX F/W v4,00 Oryx Data Collector v3.7.2.0data status	okinstallation	B6 Nyhavnadifferential loss correction	single-endedforward channel	channel 2reverse channel	N/Adate	2023/12/10time	02:10:08forward acquisition time	300,00reverse acquisition time	0,00gamma	499,1914k internal	0,3125k external	0,3125temperature offset calibration	1,0000default loss term (dB/km)	0,3820temperature slope calibration	1,0000multiplexer offset coefficient	1,0000multiplexer slope coefficient	1,0000fibre end	0,00T internal ref (°C)	21,94T ext. ref 1 (°C)	5,71T ext. ref 2 (°C)	5,68length (m)	temperature (°C)	Stokes	anti-Stokes-744,400	-200,000	0,002	0,013
-743,385	-18,645	-0,322	0,149
-742,371	-152,543	0,236	0,012
-741,356	-127,267	-0,280	0,030
-740,342	320,692	0,104	-0,147
-739,327	-13,082	-0,106	0,051
-738,312	800,000	-0,025	-0,078
-737,298	-130,681	-0,291	0,029
-736,283	-21,865	0,076	-0,034
-735,269	800,000	-0,097	0,207
-734,254	-18,749	-0,048	0,022
-733,239	-179,155	-0,660	-0,011
-732,225	800,000	0,024	-0,075
-731,210	-200,000	0,022	0,099
-730,196	229,798	-0,062	-0,076
-729,181	-200,000	-0,018	-0,086
-728,167	-200,000	-0,009	-0,045
-727,152	-200,000	0,015	-0,059
-726,137	67,728	-0,042	-0,032
-725,123	-200,000	-0,017	-0,072
-724,108	251,800	-0,090	0,114
-723,094	311,378	-0,014	0,020
-722,079	-99,123	-0,114	-0,021
-721,064	-13,137	-0,065	-0,031
-720,050	800,000	0,030	0,080
-719,035	-200,000	0,007	0,157
-718,021	8,484	-0,060	0,033
-717,006	-118,720	-0,212	-0,027
-715,991	800,000	-0,044	-0,142
-714,977	-109,258	-0,132	0,021
-713,962	523,336	0,008	-0,014
-712,948	-64,423	-0,144	0,043
-711,933	-8,469	-0,074	0,037
-710,918	-200,000	-0,002	0,130
-709,904	800,000	0,060	0,148
-708,889	800,000	0,022	-0,069
-707,875	61,729	-0,099	-0,073
-706,860	19,315	-0,058	-0,035
-705,845	-80,641	-0,124	-0,030
-704,831	-200,000	0,017	0,103
-703,816	-200,000	-0,004	-0,078
-702,802	161,417	0,019	-0,020
-701,787	800,000	-0,055	-0,167
-700,772	800,000	-0,014	-0,046
-699,758	9,735	-0,034	-0,019
-698,743	45,025	-0,048	-0,033
-697,729	-5,118	0,094	-0,048
-696,714	-81,809	0,109	0,026
-695,699	193,270	-0,056	-0,063
-694,685	-200,000	-0,007	0,043
-693,670	11,328	-0,139	-0,079
-692,656	800,000	0,095	0,253
-691,641	303,264	0,041	-0,057
-690,627	-200,000	0,009	0,093
-689,612	-200,000	0,015	-0,074
-688,597	800,000	-0,014	-0,045
-687,583	-153,907	-0,101	-0,005
-686,568	55,799	-0,119	-0,086
-685,554	0,515	-0,238	0,126
-684,539	-78,472	-0,117	-0,030
-683,524	-141,853	0,014	0,001
-682,510	-183,343	-0,161	0,002
-681,495	73,626	0,067	0,052
-680,481	393,067	-0,016	0,024
-679,466	149,306	-0,137	-0,138
-678,451	70,730	-0,059	-0,045
-677,437	60,074	-0,151	-0,111
-676,422	-93,681	0,068	-0,014
-675,408	-25,411	-0,024	0,010
-674,393	-46,145	-0,053	0,019
-673,378	601,945	-0,030	0,056
-672,364	-111,131	-0,007	0,001
-671,349	-9,919	-0,073	0,036
-670,335	-78,921	-0,039	-0,010
-669,320	-112,966	-0,135	0,020
-668,305	262,779	0,028	0,037
-667,291	800,000	-0,022	-0,063
-666,276	-200,000	-0,011	-0,040
-665,262	-47,205	0,030	-0,011
-664,247	-45,751	0,074	0,027
-663,232	-200,000	-0,010	0,137
-662,218	125,790	0,035	0,033
-661,203	-8,870	0,062	-0,031
-660,189	230,464	0,035	0,043
-659,174	-200,000	0,001	0,015
-658,159	-89,470	-0,127	-0,027
-657,145	398,407	-0,083	-0,129
-656,130	-138,347	0,070	-0,006
-655,116	-121,195	0,073	-0,009
-654,101	800,000	-0,011	0,034
-653,086	-190,193	-0,087	0,001
-652,072	124,903	0,037	0,034
-651,057	48,788	0,102	-0,071
-650,043	-58,138	-0,069	0,022
-649,028	85,332	0,037	-0,030
-648,014	-138,976	-0,098	-0,008
-646,999	-125,793	-0,102	0,011
-645,984	-29,325	0,079	0,033
-644,970	116,137	-0,122	-0,111
-643,955	-73,415	-0,128	0,035
-642,941	762,696	0,014	-0,027
-641,926	-56,999	0,097	0,031
-640,911	671,470	-0,016	0,030
-639,897	-90,629	-0,051	0,011
-638,882	4,816	-0,077	0,042
-637,868	-67,473	-0,073	-0,021
-636,853	-200,000	-0,010	-0,076
-635,838	-200,000	0,005	-0,088
-634,824	-200,000	0,004	-0,222
-633,809	295,890	0,039	0,053
-632,795	-194,468	-0,083	0,000
-631,780	142,268	-0,088	0,087
-630,765	318,050	-0,067	0,094
-629,751	2,277	-0,109	-0,058
-628,736	800,000	-0,045	0,131
-627,722	-200,000	-0,031	0,117
-626,707	63,245	0,049	0,036
-625,692	-148,196	0,111	0,007
-624,678	-56,251	0,061	0,020
-623,663	-25,573	0,092	-0,040
-622,649	79,903	0,075	-0,060
-621,634	-200,000	0,001	0,034
-620,619	-200,000	0,016	-0,074
-619,605	-34,509	-0,066	0,027
-618,590	448,836	0,026	0,043
-617,576	-71,477	0,069	0,019
-616,561	-200,000	0,013	0,108
-615,546	800,000	-0,048	0,131
-614,532	-200,000	-0,010	-0,056
-613,517	723,907	-0,037	0,074
-612,503	80,294	0,033	-0,026
-611,488	-200,000	-0,005	0,115
-610,474	146,983	0,090	-0,090
-609,459	45,612	-0,037	-0,025
-608,444	-200,000	0,018	0,096
-607,430	-10,196	-0,065	-0,032
-606,415	-200,000	0,001	0,119
-605,401	11,917	0,032	0,018
-604,386	220,825	-0,072	-0,086
-603,371	-200,000	0,000	-0,203
-602,357	452,834	0,068	-0,111
-601,342	26,826	-0,098	0,061
-600,328	-24,515	0,028	-0,012
-599,313	132,464	0,069	-0,066
-598,298	49,607	-0,077	-0,054
-597,284	-44,850	0,107	-0,039
-596,269	-50,761	0,075	0,026
-595,255	-98,423	-0,009	0,002
-594,240	-200,000	-0,036	-0,142
-593,225	323,367	0,037	-0,052
-592,211	-57,507	-0,054	-0,017
-591,196	-200,000	0,019	-0,070
-590,182	-200,000	0,001	0,041
-589,167	800,000	0,084	-0,235
-588,152	28,905	0,136	-0,085
-587,138	-200,000	-0,031	0,137
-586,123	-200,000	0,032	-0,145
-585,109	-51,560	0,024	0,008
-584,094	-167,497	0,139	0,004
-583,079	129,795	0,035	0,033
-582,065	-145,745	0,022	0,001
-581,050	-92,384	-0,115	0,024
-580,036	800,000	-0,029	-0,069
-579,021	800,000	-0,009	0,028
-578,006	-200,000	0,003	0,062
-576,992	-126,642	0,112	0,012
-575,977	12,760	0,101	-0,058
-574,963	-200,000	0,003	0,093
-573,948	-200,000	-0,029	0,103
-572,934	413,177	0,069	0,110
-571,919	-200,000	0,004	-0,108
-570,904	800,000	-0,040	-0,098
-569,890	-145,793	-0,054	0,004
-568,875	188,886	0,047	0,052
-567,861	-167,120	-0,082	0,002
-566,846	47,064	0,049	0,034
-565,831	679,315	-0,062	0,120
-564,817	-200,000	0,015	-0,133
-563,802	333,447	0,016	0,023
-562,788	-200,000	0,013	-0,053
-561,773	-200,000	-0,029	-0,146
-560,758	-200,000	-0,005	0,036
-559,744	800,000	0,044	-0,136
-558,729	-13,116	-0,140	0,067
-557,715	-130,662	0,109	0,011
-556,700	-200,000	-0,023	-0,084
-555,685	-200,000	-0,010	0,042
-554,671	558,320	-0,017	0,031
-553,656	-43,597	0,106	0,039
-552,642	-200,000	-0,016	0,116
-551,627	-51,861	0,032	-0,011
-550,612	334,320	-0,052	-0,075
-549,598	800,000	0,066	-0,208
-548,583	800,000	0,051	-0,123
-547,569	-147,657	0,220	-0,013
-546,554	122,374	-0,071	-0,066
-545,539	442,697	-0,068	0,111
-544,525	-37,184	0,061	0,024
-543,510	800,000	-0,033	-0,106
-542,496	-200,000	-0,030	-0,155
-541,481	-200,000	-0,008	-0,032
-540,466	800,000	-0,037	0,088
-539,452	87,191	0,052	0,042
-538,437	-200,000	0,018	0,139
-537,423	-94,055	-0,081	-0,016
-536,408	-147,116	0,069	0,004
-535,393	467,045	-0,062	0,104
-534,379	173,724	0,077	-0,083
-533,364	-135,819	-0,098	0,008
-532,350	-110,582	-0,064	-0,010
-531,335	800,000	0,024	0,074
-530,321	536,730	-0,036	-0,064
-529,306	-200,000	-0,003	-0,035
-528,291	-109,833	0,017	0,003
-527,277	584,854	0,023	-0,042
-526,262	792,238	0,050	0,103
-525,248	7,140	-0,029	-0,016
-524,233	-13,162	0,101	0,048
-523,218	-200,000	-0,001	0,101
-522,204	800,000	-0,031	0,076
-521,189	26,197	-0,144	0,089
-520,175	223,462	-0,060	0,071
-519,160	116,346	-0,076	-0,069
-518,145	-200,000	-0,013	0,048
-517,131	39,940	0,167	-0,111
-516,116	545,818	0,010	-0,018
-515,102	88,997	-0,051	0,042
-514,087	215,309	0,004	0,005
-513,072	-83,457	-0,084	-0,020
-512,058	309,636	0,044	-0,061
-511,043	14,925	-0,074	-0,043
-510,029	800,000	-0,022	0,047
-509,014	-63,832	-0,097	0,029
-507,999	-200,000	0,001	0,065
-506,985	-69,568	-0,068	0,019
-505,970	102,655	-0,066	-0,057
-504,956	120,516	0,029	-0,027
-503,941	-19,459	0,136	-0,062
-502,926	800,000	-0,010	-0,031
-501,912	-200,000	-0,005	-0,149
-500,897	-200,000	0,012	-0,052
-499,883	214,447	-0,021	-0,024
-498,868	-200,000	-0,036	-0,193
-497,853	-7,291	-0,145	0,072
-496,839	800,000	-0,028	0,083
-495,824	420,910	0,031	0,050
-494,810	-200,000	-0,016	0,059
-493,795	-54,851	-0,101	-0,033
-492,781	800,000	-0,022	-0,051
-491,766	-200,000	0,025	0,096
-490,751	-200,000	0,004	0,092
-489,737	-200,000	-0,022	0,096
-488,722	-200,000	0,016	0,103
-487,708	-62,583	0,047	-0,014
-486,693	252,966	-0,029	0,037
-485,678	-200,000	-0,000	-0,006
-484,664	-200,000	-0,016	-0,134
-483,649	45,384	-0,091	-0,062
-482,635	24,730	-0,126	0,077
-481,620	272,088	0,131	0,171
-480,605	-142,817	0,122	-0,009
-479,591	71,266	0,122	0,093
-478,576	-200,000	-0,009	-0,187
-477,562	61,655	-0,059	0,043
-476,547	-46,945	-0,071	0,025
-475,532	-50,224	0,037	0,013
-474,518	-28,343	-0,079	0,034
-473,503	-19,462	0,078	-0,036
-472,489	118,100	-0,086	-0,078
-471,474	218,008	0,099	0,117
-470,459	-193,645	-0,132	0,001
-469,445	36,630	0,055	0,036
-468,430	-134,085	-0,160	0,014
-467,416	626,086	0,045	-0,084
-466,401	800,000	-0,066	0,188
-465,386	-72,750	0,123	-0,033
-464,372	800,000	-0,025	0,057
-463,357	38,055	0,072	0,047
-462,343	-58,769	-0,063	-0,020
-461,328	211,900	0,074	0,086
-460,313	-48,292	0,028	0,010
-459,299	287,514	0,095	0,126
-458,284	-200,000	-0,000	0,179
-457,270	-200,000	0,019	-0,070
-456,255	-173,704	0,083	-0,002
-455,241	357,311	-0,009	-0,013
-454,226	-117,725	0,053	0,007
-453,211	-200,000	-0,036	0,164
-452,197	-200,000	0,022	0,000
-451,182	-116,875	0,061	0,008
-450,168	10,158	0,086	-0,048
-449,153	-61,018	-0,086	0,027
-448,138	34,374	-0,052	-0,034
-447,124	-200,000	0,030	-0,173
-446,109	-200,000	-0,007	-0,064
-445,095	-200,000	0,002	-0,077
-444,080	-97,773	0,151	0,028
-443,065	-106,244	0,210	-0,034
-442,051	-27,365	-0,132	0,056
-441,036	357,940	0,072	-0,106
-440,022	724,607	-0,033	-0,065
-439,007	-31,431	0,095	0,039
-437,992	146,386	0,023	0,023
-436,978	595,366	-0,020	-0,037
-435,963	-121,717	-0,079	-0,010
-434,949	-200,000	0,018	0,081
-433,934	800,000	0,016	-0,034
-432,919	800,000	-0,037	0,089
-431,905	124,454	-0,036	0,033
-430,890	33,385	0,099	-0,063
-429,876	46,923	0,074	0,051
-428,861	164,069	0,067	0,069
-427,846	800,000	0,038	-0,078
-426,832	228,526	-0,123	-0,148
-425,817	-162,983	0,066	0,002
-424,803	-87,822	-0,020	0,004
-423,788	365,106	0,036	-0,053
-422,773	-200,000	0,008	0,063
-421,759	117,261	0,079	0,072
-420,744	-33,053	0,079	0,032
-419,730	800,000	-0,024	-0,051
-418,715	-80,779	-0,146	0,036
-417,701	232,866	0,016	-0,019
-416,686	-62,044	0,063	-0,019
-415,671	0,643	0,078	-0,041
-414,657	298,384	-0,094	0,127
-413,642	562,303	-0,038	0,068
-412,628	-200,000	-0,019	0,119
-411,613	-200,000	0,048	0,000
-410,598	-200,000	-0,017	-0,066
-409,584	800,000	-0,054	0,160
-408,569	800,000	0,031	0,080
-407,555	-80,466	0,014	-0,004
-406,540	800,000	-0,026	0,057
-405,525	-125,929	-0,022	0,002
-404,511	-154,217	-0,117	0,006
-403,496	73,089	0,062	0,047
-402,482	-200,000	0,004	-0,026
-401,467	5,370	0,031	0,017
-400,452	-148,599	0,094	-0,006
-399,438	-72,551	0,180	0,049
-398,423	-89,700	0,101	0,022
-397,409	800,000	0,051	0,113
-396,394	-81,720	-0,129	0,031
-395,379	-115,101	0,062	-0,008
-394,365	-200,000	-0,028	0,110
-393,350	63,118	0,043	0,032
-392,336	133,159	-0,100	0,095
-391,321	409,530	-0,066	-0,103
-390,306	157,010	-0,056	0,057
-389,292	800,000	-0,026	0,067
-388,277	-200,000	-0,003	-0,032
-387,263	116,810	-0,094	-0,085
-386,248	-38,097	-0,108	0,042
-385,233	364,722	-0,053	0,079
-384,219	-200,000	0,035	0,130
-383,204	404,778	-0,057	-0,089
-382,190	-200,000	0,013	-0,045
-381,175	-200,000	0,001	0,042
-380,160	187,716	-0,012	0,013
-379,146	800,000	0,044	0,093
-378,131	-148,141	-0,083	-0,005
-377,117	-139,936	-0,136	0,010
-376,102	23,604	-0,124	-0,075
-375,088	-134,807	0,085	-0,008
-374,073	-129,477	-0,038	-0,004
-373,058	79,125	0,102	0,080
-372,044	690,345	0,040	0,078
-371,029	800,000	0,031	0,067
-370,015	-92,400	-0,147	-0,030
-369,000	-36,382	-0,189	-0,074
-367,985	1,802	0,087	-0,046
-366,971	-30,297	-0,083	0,035
-365,956	24,597	-0,078	-0,047
-364,942	43,113	0,141	0,094
-363,927	117,116	0,107	-0,097
-362,912	800,000	-0,031	-0,097
-361,898	-200,000	-0,010	-0,040
-360,883	-114,199	-0,175	-0,024
-359,869	773,237	0,046	-0,092
-358,854	11,699	-0,039	-0,022
-357,839	-200,000	-0,013	-0,072
-356,825	800,000	-0,017	0,053
-355,810	-200,000	0,002	0,097
-354,796	-25,786	-0,087	0,037
-353,781	-200,000	-0,040	-0,155
-352,766	20,325	0,107	-0,063
-351,752	-16,642	0,052	0,024
-350,737	-5,592	-0,075	-0,038
-349,723	800,000	-0,011	0,024
-348,708	-76,657	0,086	0,022
-347,693	-42,457	-0,047	0,017
-346,679	800,000	-0,034	0,091
-345,664	-72,019	-0,057	-0,015
-344,650	25,794	0,082	0,050
-343,635	29,483	0,109	-0,068
-342,620	-200,000	0,009	-0,205
-341,606	717,543	-0,021	-0,040
-340,591	78,199	-0,021	0,017
-339,577	-200,000	-0,032	0,111
-338,562	800,000	-0,045	-0,114
-337,548	123,148	0,078	0,072
-336,533	-37,321	0,053	-0,021
-335,518	143,143	0,061	-0,059
-334,504	-200,000	-0,014	0,072
-333,489	-200,000	0,005	-0,046
-332,475	800,000	-0,041	-0,124
-331,460	800,000	0,032	-0,068
-330,445	31,112	-0,075	-0,047
-329,431	588,760	0,024	0,044
-328,416	298,356	0,095	0,128
-327,402	56,871	-0,018	0,013
-326,387	74,964	0,036	-0,028
-325,372	-19,572	-0,161	0,073
-324,358	-200,000	-0,002	-0,013
-323,343	-200,000	0,021	0,071
-322,329	36,581	0,038	0,025
-321,314	-200,000	-0,009	0,132
-320,299	-200,000	0,009	0,071
-319,285	-156,929	0,039	0,002
-318,270	209,214	-0,091	-0,105
-317,256	-26,702	-0,081	-0,035
-316,241	798,614	-0,057	-0,117
-315,226	148,341	0,093	0,092
-314,212	192,386	0,072	0,080
-313,197	154,892	0,085	0,086
-312,183	800,000	0,025	0,076
-311,168	-200,000	0,003	-0,085
-310,153	560,702	0,067	-0,119
-309,139	-200,000	0,030	-0,102
-308,124	-93,283	0,069	-0,014
-307,110	-16,376	0,166	0,077
-306,095	-34,082	-0,072	-0,029
-305,080	-59,821	-0,059	0,018
-304,066	-200,000	0,013	0,057
-303,051	-74,705	-0,091	0,024
-302,037	-61,929	0,029	-0,009
-301,022	-200,000	0,005	-0,067
-300,008	800,000	-0,023	-0,073
-298,993	175,973	0,112	0,119
-297,978	-200,000	0,034	0,161
-296,964	-46,871	0,043	-0,015
-295,949	-61,309	0,188	-0,058
-294,935	129,402	-0,057	-0,053
-293,920	-139,378	0,143	-0,011
-292,905	-200,000	0,018	0,066
-291,891	136,034	-0,044	0,042
-290,876	-177,325	-0,158	0,003
-289,862	159,874	0,094	-0,096
-288,847	62,702	-0,126	-0,092
-287,832	-69,676	0,053	-0,015
-286,818	-200,000	-0,020	-0,153
-285,803	-45,328	-0,044	0,016
-284,789	199,268	-0,053	0,060
-283,774	23,026	0,079	0,047
-282,759	-200,000	0,032	-0,108
-281,745	-100,166	0,028	-0,005
-280,730	170,234	0,021	-0,022
-279,716	-200,000	-0,011	0,056
-278,701	-28,050	0,151	-0,064
-277,686	379,894	-0,021	-0,032
-276,672	-100,906	-0,191	0,034
-275,657	-31,530	0,074	-0,030
-274,643	-200,000	-0,025	-0,102
-273,628	800,000	-0,060	-0,133
-272,613	372,943	-0,052	-0,077
-271,599	800,000	0,024	0,074
-270,584	396,785	-0,063	0,096
-269,570	-14,371	0,026	0,012
-268,555	750,514	-0,017	0,033
-267,540	180,120	0,061	0,066
-266,526	189,125	-0,059	-0,065
-265,511	-19,998	-0,108	-0,048
-264,497	319,637	0,099	0,137
-263,482	-200,000	0,002	0,071
-262,467	-200,000	0,021	0,107
-261,453	-200,000	0,008	0,031
-260,438	800,000	-0,020	-0,046
-259,424	-34,047	0,110	0,044
-258,409	800,000	-0,068	-0,159
-257,395	360,525	0,021	0,031
-256,380	160,349	0,080	0,082
-255,365	-34,312	-0,088	-0,035
-254,351	680,731	0,019	0,037
-253,336	167,308	-0,101	0,104
-252,322	11,941	-0,081	0,045
-251,307	800,000	-0,031	-0,094
-250,292	25,913	-0,042	0,026
-249,278	237,278	-0,117	0,141
-248,263	234,009	0,078	0,094
-247,249	26,877	-0,052	0,032
-246,234	800,000	0,035	-0,075
-245,219	-200,000	-0,022	-0,104
-244,205	-200,000	0,047	-0,179
-243,190	-200,000	-0,007	-0,146
-242,176	-38,753	0,074	-0,028
-241,161	171,701	0,098	0,103
-240,146	105,250	-0,066	-0,057
-239,132	218,466	-0,098	-0,115
-238,117	-200,000	-0,002	-0,078
-237,103	311,959	0,004	-0,005
-236,088	-200,000	-0,004	-0,017
-235,073	-26,709	0,065	-0,028
-234,059	800,000	-0,044	-0,106
-233,044	-155,801	-0,112	-0,005
-232,030	312,651	-0,095	-0,131
-231,015	800,000	0,024	-0,063
-230,000	-110,004	0,082	-0,012
-228,986	23,496	-0,046	-0,028
-227,971	297,701	0,066	0,088
-226,957	27,584	-0,079	0,049
-225,942	-96,747	0,055	-0,010
-224,927	214,559	0,058	-0,067
-223,913	800,000	-0,045	0,098
-222,898	-200,000	0,002	0,143
-221,884	-46,625	0,059	0,021
-220,869	-76,471	0,014	-0,004
-219,855	-71,690	0,109	0,029
-218,840	-44,523	-0,081	0,030
-217,825	-86,489	0,055	0,012
-216,811	-200,000	-0,000	-0,076
-215,796	-42,407	-0,064	-0,024
-214,782	446,694	0,032	0,052
-213,767	329,930	0,033	-0,047
-212,752	-200,000	-0,023	0,089
-211,738	-13,471	-0,072	0,034
-210,723	337,168	-0,032	-0,046
-209,709	800,000	0,009	0,018
-208,694	211,532	0,021	0,024
-207,679	-200,000	-0,026	-0,250
-206,665	800,000	-0,039	-0,116
-205,650	30,015	-0,092	0,057
-204,636	-200,000	-0,002	0,121
-203,621	-200,000	-0,013	-0,115
-202,606	-200,000	-0,034	-0,152
-201,592	-200,000	0,005	-0,101
-200,577	-79,703	0,157	-0,038
-199,563	-81,625	0,081	-0,019
-198,548	563,044	0,036	0,064
-197,533	-200,000	0,001	-0,102
-196,519	-96,950	-0,086	0,016
-195,504	-200,000	-0,040	-0,130
-194,490	139,140	-0,065	-0,063
-193,475	42,761	-0,118	0,078
-192,460	-160,178	-0,018	-0,001
-191,446	-200,000	-0,018	-0,125
-190,431	572,152	0,043	-0,077
-189,417	381,211	-0,086	-0,129
-188,402	292,084	-0,045	-0,060
-187,387	201,848	-0,015	-0,016
-186,373	-200,000	-0,010	0,116
-185,358	363,818	0,027	-0,039
-184,344	686,038	0,050	0,095
-183,329	800,000	0,056	0,171
-182,315	800,000	0,040	0,090
-181,300	-66,656	0,111	0,032
-180,285	-77,255	0,015	0,004
-179,271	800,000	-0,055	-0,132
-178,256	136,147	-0,045	0,043
-177,242	155,485	0,066	-0,066
-176,227	-167,215	0,073	-0,002
-175,212	441,086	-0,060	-0,095
-174,198	396,407	0,030	0,045
-173,183	493,056	-0,037	0,061
-172,169	-200,000	-0,027	-0,087
-171,154	-142,797	-0,127	-0,009
-170,139	-200,000	-0,020	0,079
-169,125	430,790	-0,005	-0,008
-168,110	-51,075	-0,054	-0,018
-167,096	-200,000	-0,005	0,127
-166,081	-46,760	-0,044	0,016
-165,066	-53,770	-0,206	-0,068
-164,052	-20,419	0,142	-0,063
-163,037	-85,897	0,095	0,021
-162,023	-30,824	0,105	0,043
-161,008	800,000	-0,008	0,021
-159,993	82,168	0,063	0,049
-158,979	108,458	-0,037	-0,032
-157,964	582,146	-0,078	0,140
-156,950	-133,016	0,073	0,007
-155,935	-155,802	0,103	-0,005
-154,920	128,168	0,104	0,097
-153,906	800,000	0,106	0,269
-152,891	16,012	-0,040	-0,023
-151,877	-200,000	-0,000	0,019
-150,862	-195,755	-0,046	-0,000
-149,847	800,000	0,066	0,181
-148,833	244,918	-0,027	0,033
-147,818	434,211	0,060	-0,095
-146,804	-93,392	-0,053	0,011
-145,789	-105,374	0,028	0,005
-144,775	24,365	0,093	-0,056
-143,760	265,745	-0,018	-0,023
-142,745	800,000	0,054	-0,138
-141,731	-75,956	0,116	0,030
-140,716	235,271	-0,084	0,101
-139,702	119,229	0,024	-0,022
-138,687	194,001	-0,133	0,147
-137,672	-200,000	0,007	-0,086
-136,658	78,440	0,089	0,069
-135,643	-15,891	0,007	0,003
-134,629	396,987	0,035	0,054
-133,614	-62,770	-0,090	-0,027
-132,599	-176,715	0,144	-0,003
-131,585	-179,847	0,053	0,001
-130,570	800,000	0,024	-0,052
-129,556	235,496	0,043	-0,052
-128,541	52,466	-0,057	-0,040
-127,526	-49,940	-0,085	0,029
-126,512	63,834	-0,015	0,011
-125,497	41,431	0,100	0,066
-124,483	-200,000	-0,011	0,035
-123,468	117,702	0,116	0,104
-122,453	-164,843	-0,084	0,003
-121,439	619,406	0,037	-0,069
-120,424	21,574	-0,043	0,025
-119,410	-200,000	-0,007	0,052
