DTS Sentinel unit serial number:	SN410029Multiplexer serial number:	ORYXHardware model number:	OX2-SRSoftware version number:	ORYX F/W v4,00 Oryx Data Collector v3.7.2.0data status	okinstallation	B6 Nyhavnadifferential loss correction	single-endedforward channel	channel 2reverse channel	N/Adate	2023/12/09time	12:35:08forward acquisition time	300,00reverse acquisition time	0,00gamma	499,1914k internal	0,3137k external	0,3137temperature offset calibration	1,0000default loss term (dB/km)	0,3820temperature slope calibration	1,0000multiplexer offset coefficient	1,0000multiplexer slope coefficient	1,0000fibre end	0,00T internal ref (°C)	19,39T ext. ref 1 (°C)	4,03T ext. ref 2 (°C)	4,03length (m)	temperature (°C)	Stokes	anti-Stokes-744,400	320,393	0,018	-0,025
-743,385	-133,558	-0,251	0,023
-742,371	361,782	0,071	0,106
-741,356	31,525	-0,225	0,143
-740,342	-28,242	0,108	0,046
-739,327	-32,322	-0,210	0,086
-738,312	186,141	0,072	-0,080
-737,298	-166,901	-0,302	0,009
-736,283	423,646	0,046	0,074
-735,269	0,256	-0,149	0,078
-734,254	-200,000	-0,004	-0,059
-733,239	-55,746	-0,349	-0,115
-732,225	-119,974	0,044	-0,006
-731,210	269,977	-0,005	-0,006
-730,196	-85,536	0,041	0,009
-729,181	-56,355	-0,059	-0,019
-728,167	369,844	-0,094	-0,142
-727,152	-200,000	-0,032	0,115
-726,137	215,029	-0,128	-0,150
-725,123	151,429	-0,037	0,038
-724,108	-43,344	-0,177	-0,066
-723,094	-115,806	-0,163	0,022
-722,079	-200,000	0,006	0,072
-721,064	43,203	-0,077	-0,052
-720,050	159,622	0,086	-0,089
-719,035	109,931	-0,028	-0,025
-718,021	0,297	-0,099	-0,052
-717,006	-90,794	0,133	-0,028
-715,991	112,271	-0,099	-0,088
-714,977	19,911	-0,094	-0,056
-713,962	303,324	-0,116	-0,160
-712,948	-200,000	0,009	-0,036
-711,933	307,946	-0,067	0,093
-710,918	800,000	-0,031	0,081
-709,904	176,261	-0,112	0,121
-708,889	-110,554	-0,070	0,011
-707,875	-200,000	0,011	-0,102
-706,860	-59,465	0,105	0,033
-705,845	800,000	-0,014	-0,038
-704,831	-200,000	-0,000	0,097
-703,816	-194,483	-0,203	0,001
-702,802	533,427	-0,036	-0,064
-701,787	-5,061	0,049	-0,025
-700,772	-174,887	0,029	-0,001
-699,758	-200,000	-0,014	0,089
-698,743	800,000	0,027	-0,080
-697,729	800,000	0,048	-0,102
-696,714	173,283	0,105	-0,113
-695,699	518,236	0,023	0,041
-694,685	572,110	-0,043	-0,077
-693,670	509,100	0,050	-0,086
-692,656	741,188	-0,062	-0,125
-691,641	-94,079	-0,036	-0,007
-690,627	467,129	-0,030	-0,049
-689,612	-159,504	-0,057	-0,002
-688,597	-133,218	0,026	-0,002
-687,583	-200,000	-0,039	-0,138
-686,568	-200,000	0,030	-0,130
-685,554	-137,268	-0,019	0,002
-684,539	-59,091	0,116	0,037
-683,524	-200,000	0,000	-0,084
-682,510	372,040	-0,063	0,095
-681,495	-64,372	-0,154	0,046
-680,481	443,679	0,033	-0,054
-679,466	-97,454	-0,066	0,013
-678,451	-5,398	0,015	-0,008
-677,437	-69,775	0,040	0,011
-676,422	306,210	0,024	0,033
-675,408	-10,347	-0,086	0,042
-674,393	-200,000	0,005	0,093
-673,378	-200,000	0,002	-0,064
-672,364	139,601	-0,015	-0,015
-671,349	-126,561	-0,122	-0,013
-670,335	41,184	-0,015	-0,010
-669,320	-30,520	-0,080	0,033
-668,305	-104,163	0,047	-0,008
-667,291	37,665	-0,070	0,046
-666,276	412,127	-0,056	-0,089
-665,262	142,643	0,080	0,078
-664,247	-71,508	-0,058	-0,016
-663,232	117,477	-0,098	0,089
-662,218	-84,985	0,180	0,041
-661,203	27,602	0,077	0,048
-660,189	47,221	0,060	0,041
-659,174	254,170	0,099	-0,126
-658,159	-200,000	-0,012	-0,078
-657,145	222,251	-0,036	0,043
-656,130	5,995	-0,134	0,073
-655,116	120,328	0,109	-0,100
-654,101	278,655	0,036	-0,047
-653,086	-200,000	-0,040	-0,152
-652,072	380,334	-0,069	-0,105
-651,057	-200,000	-0,022	-0,106
-650,043	-48,324	0,081	0,029
-649,028	-200,000	0,007	0,110
-648,014	70,521	-0,071	0,054
-646,999	-127,029	0,129	0,014
-645,984	-200,000	-0,017	0,064
-644,970	112,232	0,088	-0,079
-643,955	800,000	0,021	-0,048
-642,941	1,766	-0,083	0,044
-641,926	800,000	-0,013	-0,029
-640,911	-6,671	-0,103	0,052
-639,897	-200,000	-0,010	0,038
-638,882	190,731	0,098	0,109
-637,868	263,461	0,071	0,091
-636,853	-57,418	-0,051	-0,017
-635,838	588,474	0,071	-0,130
-634,824	308,608	-0,088	0,122
-633,809	-11,449	-0,094	-0,045
-632,795	-12,906	0,116	-0,055
-631,780	800,000	0,019	0,042
-630,765	-200,000	0,028	0,106
-629,751	394,738	-0,058	0,090
-628,736	-200,000	-0,020	-0,119
-627,722	671,232	0,027	-0,053
-626,707	679,409	-0,012	-0,023
-625,692	-31,536	-0,025	-0,010
-624,678	70,335	0,060	-0,046
-623,663	110,771	-0,070	0,062
-622,649	14,627	-0,056	-0,032
-621,634	-49,678	0,046	-0,016
-620,619	21,543	0,110	0,066
-619,605	180,775	-0,043	-0,047
-618,590	662,327	0,008	0,015
-617,576	-200,000	0,010	-0,099
-616,561	153,020	0,018	0,018
-615,546	37,140	-0,023	0,015
-614,532	510,190	0,037	-0,065
-613,517	-200,000	0,030	-0,101
-612,503	-98,758	-0,206	0,038
-611,488	-200,000	0,004	0,039
-610,474	-146,742	0,201	-0,013
-609,459	452,321	0,038	0,063
-608,444	-137,763	-0,094	0,008
-607,430	178,126	0,082	-0,088
-606,415	-200,000	-0,000	-0,034
-605,401	226,381	0,034	0,041
-604,386	-200,000	0,001	0,037
-603,371	174,030	-0,054	-0,057
-602,357	121,449	0,067	-0,062
-601,342	-106,699	0,048	-0,008
-600,328	800,000	-0,014	-0,035
-599,313	-200,000	0,002	0,077
-598,298	800,000	0,026	-0,063
-597,284	-200,000	0,010	-0,116
-596,269	-178,982	0,081	-0,001
-595,255	99,357	-0,058	0,050
-594,240	-200,000	-0,013	0,055
-593,225	186,633	0,013	-0,015
-592,211	-200,000	0,023	-0,086
-591,196	800,000	-0,047	-0,135
-590,182	-48,704	0,052	0,018
-589,167	-113,786	-0,037	-0,005
-588,152	625,954	-0,043	0,081
-587,138	-200,000	-0,025	-0,086
-586,123	58,965	-0,015	0,011
-585,109	3,896	-0,132	0,071
-584,094	-159,361	0,110	-0,004
-583,079	-200,000	0,010	0,048
-582,065	-200,000	0,019	-0,095
-581,050	-200,000	0,029	0,104
-580,036	8,648	-0,080	0,044
-579,021	-104,000	0,139	0,024
-578,006	530,153	0,054	-0,095
-576,992	-200,000	-0,026	-0,105
-575,977	54,606	-0,114	-0,081
-574,963	5,120	0,150	-0,081
-573,948	-6,434	-0,036	0,018
-572,934	136,526	-0,045	-0,043
-571,919	-148,374	0,059	0,004
-570,904	400,766	0,051	0,079
-569,890	-200,000	0,017	0,072
-568,875	-108,334	0,048	-0,007
-567,861	314,445	0,101	0,140
-566,846	65,081	0,122	0,090
-565,831	-128,105	-0,059	0,006
-564,817	800,000	-0,055	-0,122
-563,802	800,000	-0,068	-0,139
-562,788	201,152	0,012	0,013
-561,773	132,119	-0,030	0,029
-560,758	414,559	-0,023	0,037
-559,744	-200,000	-0,009	0,131
-558,729	-200,000	0,009	-0,075
-557,715	152,868	-0,086	-0,087
-556,700	-117,189	0,048	0,006
-555,685	25,532	0,050	0,031
-554,671	-108,409	0,062	0,010
-553,656	-200,000	-0,036	0,152
-552,642	-72,056	0,135	0,037
-551,627	296,279	-0,010	-0,014
-550,612	-200,000	-0,007	-0,120
-549,598	-49,399	-0,112	-0,039
-548,583	-200,000	-0,007	-0,127
-547,569	617,819	0,009	0,017
-546,554	-200,000	0,010	0,078
-545,539	17,049	-0,059	-0,034
-544,525	15,349	0,032	-0,018
-543,510	800,000	0,022	0,055
-542,496	317,500	-0,050	-0,070
-541,481	-160,574	-0,043	-0,002
-540,466	134,482	-0,079	-0,075
-539,452	-200,000	0,000	0,002
-538,437	800,000	0,083	0,204
-537,423	-166,389	-0,061	-0,002
-536,408	-11,235	-0,052	-0,025
-535,393	-10,575	-0,088	-0,043
-534,379	-200,000	-0,031	0,155
-533,364	-71,846	-0,083	-0,022
-532,350	-200,000	0,082	0,288
-531,335	111,833	0,097	0,086
-530,321	800,000	0,034	0,095
-529,306	-99,700	-0,036	0,007
-528,291	57,439	-0,019	-0,013
-527,277	83,868	-0,019	-0,015
-526,262	145,917	0,056	-0,055
-525,248	-45,967	0,149	0,054
-524,233	535,351	0,051	0,089
-523,218	-133,262	0,048	0,004
-522,204	800,000	-0,036	-0,086
-521,189	134,916	0,100	-0,095
-520,175	800,000	0,067	-0,139
-519,160	-200,000	-0,010	-0,050
-518,145	31,223	0,022	-0,014
-517,131	-146,765	0,164	0,010
-516,116	-44,980	-0,076	-0,028
-515,102	7,928	0,072	-0,040
-514,087	-200,000	-0,011	-0,062
-513,072	800,000	-0,017	-0,048
-512,058	163,397	0,032	-0,033
-511,043	216,463	-0,095	0,111
-510,029	-48,851	0,095	0,033
-509,014	27,420	-0,036	-0,022
-507,999	87,136	-0,018	-0,015
-506,985	268,896	0,104	-0,134
-505,970	-5,981	-0,091	-0,046
-504,956	163,700	-0,094	0,097
-503,941	-9,559	0,070	0,034
-502,926	-165,423	0,098	0,003
-501,912	108,727	0,150	0,132
-500,897	-175,732	-0,122	0,002
-499,883	64,371	0,015	0,011
-498,868	-200,000	-0,024	-0,124
-497,853	366,749	-0,039	-0,058
-496,839	-75,744	-0,113	0,029
-495,824	-78,888	0,048	0,012
-494,810	15,779	-0,106	0,061
-493,795	-200,000	0,004	0,106
-492,781	800,000	-0,011	-0,033
-491,766	-200,000	0,003	-0,096
-490,751	11,643	-0,079	0,045
-489,737	-39,195	0,060	-0,023
-488,722	-200,000	0,007	-0,093
-487,708	-200,000	-0,006	0,046
-486,693	705,653	0,057	0,110
-485,678	-200,000	-0,001	-0,016
-484,664	22,898	0,160	-0,096
-483,649	-75,582	-0,077	0,020
-482,635	800,000	-0,045	-0,101
-481,620	-19,723	-0,049	0,022
-480,605	-200,000	0,001	0,142
-479,591	-200,000	0,005	0,175
-478,576	167,796	0,073	0,076
-477,562	292,858	0,048	-0,065
-476,547	67,952	0,107	-0,080
-475,532	63,159	0,104	0,076
-474,518	-200,000	-0,015	-0,128
-473,503	31,601	0,173	0,109
-472,489	435,726	0,090	0,144
-471,474	316,177	-0,089	0,123
-470,459	339,501	0,058	-0,083
-469,445	-66,641	-0,107	-0,031
-468,430	-200,000	0,020	0,092
-467,416	800,000	0,023	-0,048
-466,401	-67,201	-0,038	0,011
-465,386	-166,809	0,137	0,004
-464,372	41,814	0,043	0,028
-463,357	-141,066	-0,042	0,003
-462,343	7,374	0,059	0,032
-461,328	-200,000	0,005	-0,064
-460,313	-33,592	0,090	0,036
-459,299	-200,000	0,010	0,130
-458,284	227,112	0,034	0,040
-457,270	145,083	0,039	0,039
-456,255	-82,692	-0,145	-0,034
-455,241	186,051	-0,106	-0,115
-454,226	716,633	-0,046	-0,091
-453,211	-59,202	0,107	-0,034
-452,197	-120,305	0,155	0,019
-451,182	800,000	0,001	0,001
-450,168	-200,000	-0,010	0,124
-449,153	-158,331	0,105	0,004
-448,138	-200,000	0,005	-0,157
-447,124	-140,488	-0,065	0,005
-446,109	-200,000	0,004	-0,045
-445,095	-200,000	-0,031	0,116
-444,080	421,244	0,039	0,062
-443,065	175,214	-0,021	0,023
-442,051	800,000	0,008	0,026
-441,036	-184,832	-0,090	-0,001
-440,022	258,159	-0,016	-0,020
-439,007	800,000	0,042	-0,098
-437,992	800,000	0,023	-0,055
-436,978	61,441	0,099	0,072
-435,963	434,913	-0,120	0,192
-434,949	408,918	-0,048	0,075
-433,934	-200,000	-0,002	0,015
-432,919	97,234	-0,080	0,068
-431,905	-8,065	-0,046	0,022
-430,890	33,672	0,082	0,052
-429,876	-200,000	0,018	0,178
-428,861	71,219	0,170	0,129
-427,846	31,976	-0,023	-0,014
-426,832	80,287	-0,059	0,046
-425,817	591,971	-0,080	-0,146
-424,803	67,039	-0,062	-0,046
-423,788	-83,208	0,111	0,026
-422,773	-106,114	0,105	0,017
-421,759	-200,000	0,025	0,141
-420,744	96,098	0,095	-0,080
-419,730	-153,133	0,115	0,006
-418,715	438,472	-0,084	-0,135
-417,701	110,068	0,063	-0,056
-416,686	57,529	-0,098	-0,070
-415,671	692,694	-0,029	0,056
-414,657	502,418	0,041	0,070
-413,642	93,253	-0,131	0,108
-412,628	800,000	0,031	0,084
-411,613	173,024	-0,083	-0,087
-410,598	84,775	-0,012	0,009
-409,584	48,312	0,172	0,118
-408,569	323,671	-0,008	-0,011
-407,555	13,242	-0,109	-0,062
-406,540	3,857	0,095	0,051
-405,525	-25,438	-0,072	0,031
-404,511	-200,000	-0,012	0,135
-403,496	-92,027	-0,021	-0,004
-402,482	-40,767	-0,073	0,028
-401,467	-200,000	-0,004	-0,016
-400,452	-200,000	-0,053	-0,226
-399,438	15,237	-0,128	0,073
-398,423	3,842	-0,179	-0,095
-397,409	-153,140	0,041	-0,002
-396,394	800,000	-0,044	-0,130
-395,379	-200,000	-0,006	-0,032
-394,365	764,766	0,030	0,059
-393,350	800,000	0,064	0,149
-392,336	-200,000	-0,018	0,102
-391,321	-153,362	-0,101	0,005
-390,306	658,816	-0,044	0,084
-389,292	800,000	0,036	-0,089
-388,277	72,056	-0,025	0,019
-387,263	-200,000	-0,009	-0,120
-386,248	93,933	0,076	-0,063
-385,233	-200,000	0,011	-0,043
-384,219	648,624	0,046	-0,087
-383,204	-115,755	-0,079	0,011
-382,190	800,000	-0,033	-0,102
-381,175	229,871	0,071	-0,085
-380,160	241,164	0,048	0,059
-379,146	-32,130	0,049	-0,020
-378,131	-200,000	-0,005	0,040
-377,117	-112,944	-0,116	-0,017
-376,102	800,000	-0,028	0,077
-375,088	29,613	-0,053	0,033
-374,073	-200,000	-0,017	0,099
-373,058	-110,956	0,043	0,006
-372,044	164,172	-0,075	0,077
-371,029	238,827	-0,033	-0,040
-370,015	800,000	-0,019	-0,060
-369,000	141,927	0,077	0,074
-367,985	-200,000	-0,004	-0,118
-366,971	680,638	0,041	-0,078
-365,956	800,000	-0,054	0,118
-364,942	-16,534	0,069	0,032
-363,927	209,851	-0,020	-0,023
-362,912	-200,000	-0,025	0,093
-361,898	117,503	0,084	-0,076
-360,883	-84,103	-0,151	0,035
-359,869	-53,427	0,128	-0,043
-358,854	52,539	-0,038	-0,026
-357,839	122,306	0,092	-0,084
-356,825	-111,232	0,022	0,003
-355,810	-27,927	-0,122	0,051
-354,796	-200,000	0,002	-0,101
-353,781	-200,000	-0,030	-0,163
-352,766	-200,000	-0,087	-0,296
-351,752	317,733	-0,085	0,118
-350,737	-19,890	0,078	0,035
-349,723	-200,000	-0,053	-0,000
-348,708	800,000	0,008	-0,018
-347,693	22,470	-0,067	0,040
-346,679	-150,015	-0,040	0,002
-345,664	207,689	-0,055	0,063
-344,650	-200,000	0,013	0,057
-343,635	800,000	-0,015	0,041
-342,620	-123,507	0,098	0,011
-341,606	689,655	0,082	0,158
-340,591	195,150	-0,065	-0,072
-339,577	-200,000	0,011	-0,149
-338,562	525,477	0,030	-0,052
-337,548	-200,000	0,020	-0,112
-336,533	340,832	0,045	0,064
-335,518	121,056	0,090	0,081
-334,504	8,559	0,055	-0,030
-333,489	225,282	-0,051	0,061
-332,475	116,116	-0,060	-0,054
-331,460	-200,000	-0,001	-0,088
-330,445	-200,000	-0,025	-0,122
-329,431	-33,651	-0,081	0,032
-328,416	312,880	0,081	0,112
-327,402	-200,000	0,004	0,017
-326,387	124,152	-0,097	0,089
-325,372	-57,311	-0,037	-0,012
-324,358	227,233	-0,079	-0,094
-323,343	14,252	-0,145	0,082
-322,329	800,000	-0,040	0,088
-321,314	316,708	0,053	0,073
-320,299	-200,000	0,020	-0,145
-319,285	342,846	0,080	-0,115
-318,270	-81,267	-0,047	-0,011
-317,256	0,652	-0,076	-0,040
-316,241	-46,483	-0,240	-0,086
-315,226	-14,861	-0,074	0,034
-314,212	-46,917	0,104	-0,037
-313,197	424,324	0,019	0,031
-312,183	160,193	-0,082	0,084
-311,168	-200,000	-0,012	-0,090
-310,153	72,314	-0,097	-0,074
-309,139	-200,000	-0,018	0,131
-308,124	743,409	0,099	0,196
-307,110	-200,000	0,008	-0,123
-306,095	673,419	-0,073	0,139
-305,080	-200,000	0,010	-0,044
-304,066	-53,446	-0,075	0,025
-303,051	-200,000	-0,041	-0,207
-302,037	217,647	0,036	-0,041
-301,022	-41,724	0,090	0,033
-300,008	17,748	0,058	-0,034
-298,993	-200,000	-0,014	0,050
-297,978	-131,724	0,097	0,009
-296,964	219,009	0,039	-0,045
-295,949	565,940	-0,058	-0,103
-294,935	-122,371	-0,100	-0,012
-293,920	-200,000	0,013	-0,044
-292,905	-200,000	0,008	-0,044
-291,891	-200,000	-0,002	-0,117
-290,876	-200,000	0,002	-0,051
-289,862	-200,000	-0,002	0,072
-288,847	619,091	-0,077	-0,142
-287,832	-127,303	-0,211	0,022
-286,818	243,833	0,092	-0,113
-285,803	258,390	0,055	0,069
-284,789	-46,731	0,115	-0,041
-283,774	-124,431	0,194	-0,022
-282,759	323,139	-0,032	0,044
-281,745	279,396	-0,059	0,077
-280,730	-43,618	-0,153	0,056
-279,716	8,469	0,075	-0,041
-278,701	-35,338	-0,118	-0,047
-277,686	-57,383	0,052	0,016
-276,672	-200,000	0,013	0,065
-275,657	-60,501	0,107	0,033
-274,643	800,000	0,003	0,007
-273,628	532,952	-0,007	0,012
-272,613	-129,549	-0,047	0,005
-271,599	391,130	-0,055	0,084
-270,584	800,000	0,025	0,073
-269,570	-200,000	-0,120	-0,000
-268,555	800,000	-0,063	-0,140
-267,540	-20,413	0,039	0,017
-266,526	-31,133	0,091	-0,037
-265,511	-200,000	-0,029	-0,146
-264,497	-151,836	0,038	-0,002
-263,482	281,543	0,070	-0,092
-262,467	-104,643	-0,063	0,011
-261,453	-114,065	-0,143	-0,020
-260,438	16,581	-0,065	0,037
-259,424	56,340	0,050	-0,035
-258,409	-200,000	0,005	0,041
-257,395	-200,000	0,011	-0,044
-256,380	-41,788	0,055	-0,020
-255,365	113,905	0,046	-0,041
-254,351	290,450	0,064	0,085
-253,336	-200,000	0,013	0,077
-252,322	-129,885	0,049	0,005
-251,307	394,719	0,042	-0,064
-250,292	15,023	-0,094	-0,054
-249,278	272,463	-0,019	-0,024
-248,263	589,734	0,047	0,084
-247,249	800,000	0,014	-0,040
-246,234	71,304	-0,116	-0,087
-245,219	463,223	0,026	-0,042
-244,205	-55,545	0,056	0,018
-243,190	-200,000	0,001	0,100
-242,176	-200,000	0,039	0,128
-241,161	800,000	-0,034	0,073
-240,146	-124,191	0,033	0,004
-239,132	800,000	0,043	-0,129
-238,117	79,764	-0,061	0,047
-237,103	39,104	0,098	0,063
-236,088	800,000	0,039	0,100
-235,073	-200,000	0,004	0,199
-234,059	-77,248	0,036	-0,009
-233,044	-47,626	0,015	0,005
-232,030	48,271	-0,082	-0,056
-231,015	800,000	-0,050	-0,110
-230,000	-48,244	-0,068	-0,024
-228,986	-200,000	0,003	0,103
-227,971	2,723	0,046	-0,024
-226,957	37,277	0,155	-0,100
-225,942	800,000	-0,033	0,067
-224,927	90,941	0,024	-0,020
-223,913	-200,000	0,002	-0,010
-222,898	748,821	-0,026	0,051
-221,884	800,000	0,031	-0,078
-220,869	29,830	0,034	-0,021
-219,855	54,359	0,086	0,060
-218,840	62,417	0,033	0,024
-217,825	328,581	0,068	-0,096
-216,811	108,278	-0,015	0,013
-215,796	-139,932	-0,090	-0,007
-214,782	-200,000	0,010	-0,099
-213,767	70,495	0,067	0,051
-212,752	-200,000	-0,001	0,004
-211,738	176,799	0,159	0,168
-210,723	-143,192	0,018	-0,001
-209,709	-200,000	-0,013	0,073
-208,694	-200,000	-0,035	-0,131
-207,679	-200,000	0,000	0,030
-206,665	-200,000	0,028	0,159
-205,650	800,000	0,020	-0,051
-204,636	-26,245	-0,027	0,011
-203,621	-148,223	-0,120	-0,007
-202,606	78,518	-0,036	0,028
-201,592	800,000	-0,068	-0,180
-200,577	-200,000	-0,001	-0,166
-199,563	-200,000	0,054	-0,180
-198,548	374,664	-0,039	0,058
-197,533	-56,366	-0,089	0,029
-196,519	-200,000	-0,025	0,143
-195,504	12,590	-0,018	0,010
-194,490	31,316	-0,103	-0,064
-193,475	-92,942	-0,066	0,013
-192,460	800,000	-0,022	-0,060
-191,446	-200,000	-0,012	0,058
-190,431	800,000	0,039	0,086
-189,417	800,000	0,078	0,183
-188,402	211,263	-0,084	0,096
-187,387	-57,175	-0,071	-0,023
-186,373	797,977	0,062	0,124
-185,358	279,236	-0,048	-0,063
-184,344	-22,311	0,044	-0,019
-183,329	639,344	0,032	0,059
-182,315	-131,828	-0,054	-0,005
-181,300	-18,332	0,009	-0,004
-180,285	-200,000	-0,000	-0,203
-179,271	800,000	0,055	-0,120
-178,256	-73,180	-0,056	0,015
-177,242	-59,980	0,072	0,022
-176,227	-28,613	-0,112	0,047
-175,212	56,632	0,012	-0,009
-174,198	761,583	0,039	-0,076
-173,183	497,255	-0,047	-0,079
-172,169	-200,000	0,059	-0,229
-171,154	-200,000	0,032	-0,116
-170,139	800,000	0,036	-0,113
-169,125	298,196	-0,071	0,095
-168,110	800,000	-0,025	0,061
-167,096	-166,844	-0,161	0,005
-166,081	305,091	-0,092	0,124
-165,066	517,779	0,046	-0,079
-164,052	-200,000	0,022	0,076
-163,037	-114,630	-0,051	0,007
-162,023	178,191	0,048	0,051
-161,008	800,000	-0,034	-0,096
-159,993	800,000	-0,018	0,043
-158,979	-118,164	-0,145	0,019
-157,964	484,737	0,039	0,064
-156,950	57,015	0,081	0,057
-155,935	800,000	0,035	-0,104
-154,920	40,776	0,075	-0,049
-153,906	8,748	-0,023	-0,013
-152,891	-89,982	-0,079	0,017
-151,877	203,229	0,070	-0,078
-150,862	-200,000	0,008	0,030
-149,847	-52,406	-0,098	-0,033
-148,833	-16,150	0,102	-0,047
-147,818	517,983	0,005	-0,009
-146,804	-164,551	-0,058	-0,002
-145,789	17,638	0,056	0,032
-144,775	800,000	-0,011	0,034
-143,760	-200,000	-0,000	0,016
-142,745	-37,615	-0,163	-0,063
-141,731	-183,511	0,197	-0,002
-140,716	-200,000	0,017	0,138
-139,702	507,723	0,038	-0,065
-138,687	54,824	-0,101	-0,071
-137,672	25,809	-0,128	0,077
-136,658	688,999	0,039	-0,075
-135,643	19,974	-0,056	0,033
-134,629	-119,313	0,069	-0,009
-133,614	21,105	-0,138	0,081
-132,599	221,810	0,076	0,089
-131,585	800,000	-0,052	0,111
-130,570	-200,000	0,004	-0,030
-129,556	527,719	-0,056	-0,095
-128,541	-61,565	-0,066	0,020
-127,526	-51,827	-0,032	-0,011
-126,512	-200,000	0,029	-0,107
-125,497	-200,000	0,002	-0,044
-124,483	156,377	0,100	-0,100
-123,468	-50,431	-0,063	-0,022
-122,453	75,167	0,110	-0,084
-121,439	-135,811	-0,044	0,004
-120,424	47,309	-0,044	-0,030
-119,410	25,368	0,097	0,058
-118,395	372,807	0,058	-0,085
