DTS Sentinel unit serial number:	SN410029Multiplexer serial number:	ORYXHardware model number:	OX2-SRSoftware version number:	ORYX F/W v4,00 Oryx Data Collector v3.7.2.0data status	okinstallation	B6 Nyhavnadifferential loss correction	single-endedforward channel	channel 2reverse channel	N/Adate	2023/12/09time	04:15:08forward acquisition time	300,00reverse acquisition time	0,00gamma	499,1914k internal	0,3149k external	0,3149temperature offset calibration	1,0000default loss term (dB/km)	0,3820temperature slope calibration	1,0000multiplexer offset coefficient	1,0000multiplexer slope coefficient	1,0000fibre end	0,00T internal ref (°C)	16,87T ext. ref 1 (°C)	1,41T ext. ref 2 (°C)	1,40length (m)	temperature (°C)	Stokes	anti-Stokes-744,400	-0,448	-0,065	-0,034
-743,385	-123,075	-0,232	-0,027
-742,371	314,457	-0,036	-0,051
-741,356	-21,984	-0,157	0,070
-740,342	800,000	0,004	0,013
-739,327	35,658	-0,123	0,080
-738,312	-23,803	0,062	0,027
-737,298	-152,228	-0,220	0,012
-736,283	-96,496	0,095	0,018
-735,269	65,871	-0,250	0,187
-734,254	53,060	0,048	-0,034
-733,239	-127,779	-0,496	-0,052
-732,225	-143,121	0,139	0,010
-731,210	800,000	0,049	0,115
-730,196	-200,000	0,019	0,092
-729,181	-25,408	-0,113	-0,049
-728,167	9,932	0,097	0,054
-727,152	64,259	0,029	-0,021
-726,137	460,392	0,058	-0,096
-725,123	245,195	-0,092	-0,115
-724,108	-18,786	-0,066	-0,030
-723,094	-45,037	-0,047	-0,017
-722,079	-184,731	0,097	-0,001
-721,064	800,000	-0,021	0,047
-720,050	-200,000	-0,007	-0,111
-719,035	326,690	-0,092	-0,131
-718,021	-17,062	-0,012	0,006
-717,006	-86,765	-0,094	-0,021
-715,991	35,777	-0,129	-0,084
-714,977	800,000	-0,090	-0,284
-713,962	-28,219	-0,094	-0,040
-712,948	800,000	0,064	-0,151
-711,933	66,713	-0,096	-0,072
-710,918	800,000	-0,059	0,122
-709,904	-200,000	0,034	-0,132
-708,889	347,985	-0,078	-0,113
-707,875	288,155	-0,064	-0,085
-706,860	-139,440	-0,093	-0,007
-705,845	28,823	0,084	0,052
-704,831	162,872	0,117	0,122
-703,816	11,316	-0,082	-0,046
-702,802	-200,000	-0,003	0,060
-701,787	84,164	-0,067	-0,054
-700,772	-86,656	-0,085	0,019
-699,758	-66,872	-0,124	0,036
-698,743	34,405	-0,047	0,030
-697,729	-16,967	0,080	-0,037
-696,714	366,510	0,040	-0,060
-695,699	-200,000	-0,004	0,113
-694,685	-200,000	-0,014	-0,135
-693,670	114,289	-0,056	-0,051
-692,656	-174,038	-0,062	0,001
-691,641	-200,000	0,067	-0,229
-690,627	177,052	0,093	-0,100
-689,612	717,010	-0,035	0,068
-688,597	800,000	-0,047	-0,151
-687,583	-200,000	-0,032	-0,151
-686,568	-159,226	-0,193	-0,008
-685,554	800,000	-0,025	-0,053
-684,539	266,015	0,053	0,069
-683,524	453,857	0,078	0,128
-682,510	-200,000	-0,013	0,170
-681,495	485,405	-0,035	0,059
-680,481	168,292	-0,074	0,077
-679,466	335,197	0,023	0,034
-678,451	218,939	-0,049	0,058
-677,437	-2,396	-0,122	-0,063
-676,422	88,977	0,040	-0,033
-675,408	19,122	-0,038	0,022
-674,393	37,169	-0,103	0,067
-673,378	14,602	-0,081	-0,046
-672,364	-120,544	-0,104	0,013
-671,349	-121,502	-0,093	0,011
-670,335	-200,000	-0,002	-0,023
-669,320	695,774	0,037	0,073
-668,305	49,032	0,024	0,017
-667,291	-185,285	-0,152	0,002
-666,276	552,853	0,015	-0,027
-665,262	-200,000	-0,017	-0,058
-664,247	-200,000	-0,007	-0,032
-663,232	156,743	0,034	-0,034
-662,218	-23,293	0,027	-0,012
-661,203	41,735	-0,052	-0,034
-660,189	6,017	0,037	-0,020
-659,174	-104,454	-0,125	0,021
-658,159	294,687	0,079	0,107
-657,145	66,606	-0,038	0,029
-656,130	800,000	-0,014	0,033
-655,116	-83,791	0,141	0,033
-654,101	-64,287	-0,060	-0,018
-653,086	800,000	-0,016	-0,047
-652,072	-76,999	-0,097	-0,025
-651,057	168,294	0,128	-0,134
-650,043	-200,000	0,007	-0,080
-649,028	157,935	0,110	-0,112
-648,014	800,000	-0,068	0,173
-646,999	20,015	-0,127	0,075
-645,984	-200,000	0,003	0,038
-644,970	800,000	0,030	0,094
-643,955	-200,000	-0,006	-0,148
-642,941	-8,967	-0,093	-0,046
-641,926	36,163	-0,036	-0,023
-640,911	-200,000	0,022	0,144
-639,897	400,524	0,052	0,080
-638,882	103,441	-0,134	-0,116
-637,868	-57,981	-0,077	0,025
-636,853	-89,906	-0,122	0,026
-635,838	-200,000	-0,030	-0,142
-634,824	-200,000	0,008	-0,066
-633,809	-200,000	0,003	0,030
-632,795	73,847	-0,022	0,017
-631,780	-200,000	0,040	-0,165
-630,765	765,133	-0,087	0,175
-629,751	-171,234	-0,076	0,002
-628,736	-50,566	0,008	0,003
-627,722	-50,664	0,149	0,051
-626,707	800,000	-0,028	0,062
-625,692	19,055	-0,099	0,058
-624,678	-48,470	-0,058	-0,020
-623,663	145,258	-0,053	0,052
-622,649	394,023	0,032	-0,050
-621,634	-92,562	-0,035	-0,007
-620,619	546,628	-0,049	0,086
-619,605	695,008	-0,039	0,075
-618,590	-86,992	0,079	0,018
-617,576	-200,000	0,002	0,057
-616,561	12,075	-0,006	-0,003
-615,546	800,000	0,009	-0,024
-614,532	-126,534	-0,140	0,015
-613,517	800,000	0,057	0,121
-612,503	-45,048	0,239	-0,087
-611,488	356,477	0,081	0,119
-610,474	-13,356	0,050	-0,024
-609,459	-44,925	-0,097	-0,036
-608,444	-200,000	0,008	-0,127
-607,430	-52,000	0,073	0,025
-606,415	358,996	-0,073	0,108
-605,401	94,250	-0,018	-0,015
-604,386	-112,578	0,220	0,032
-603,371	735,019	-0,005	-0,009
-602,357	9,136	-0,101	-0,056
-601,342	44,895	-0,011	0,007
-600,328	-200,000	-0,029	-0,182
-599,313	180,044	0,084	-0,090
-598,298	152,766	-0,118	-0,119
-597,284	-81,585	0,100	-0,024
-596,269	-39,407	-0,085	0,033
-595,255	-121,049	-0,142	-0,017
-594,240	79,060	-0,029	0,023
-593,225	109,264	0,073	0,064
-592,211	800,000	0,018	-0,049
-591,196	-101,896	-0,079	0,014
-590,182	399,005	-0,081	-0,125
-589,167	95,927	0,099	0,083
-588,152	-200,000	0,040	0,148
-587,138	-200,000	-0,003	-0,054
-586,123	-200,000	-0,017	-0,109
-585,109	-200,000	-0,012	-0,058
-584,094	-200,000	-0,025	0,162
-583,079	95,978	-0,039	-0,032
-582,065	-74,170	0,062	-0,016
-581,050	-82,032	-0,061	-0,015
-580,036	-0,734	-0,048	0,025
-579,021	461,261	-0,052	-0,086
-578,006	-200,000	-0,037	-0,136
-576,992	189,177	-0,027	-0,030
-575,977	206,396	-0,042	-0,048
-574,963	-132,943	0,110	0,010
-573,948	-116,604	0,018	0,002
-572,934	-200,000	0,004	-0,118
-571,919	-95,393	0,018	-0,003
-570,904	32,188	-0,160	-0,101
-569,890	-102,769	0,023	0,004
-568,875	-96,425	0,073	0,014
-567,861	258,351	-0,034	0,043
-566,846	453,469	0,048	-0,078
-565,831	-87,487	-0,135	0,030
-564,817	-111,181	-0,104	-0,016
-563,802	48,957	-0,126	-0,087
-562,788	-200,000	0,014	-0,127
-561,773	180,526	0,086	0,092
-560,758	52,614	-0,101	0,071
-559,744	-77,738	0,102	0,026
-558,729	242,523	0,063	-0,078
-557,715	-200,000	-0,009	-0,130
-556,700	296,893	-0,067	-0,091
-555,685	37,623	-0,100	-0,065
-554,671	215,592	-0,061	0,071
-553,656	39,698	-0,034	-0,022
-552,642	755,833	-0,038	-0,077
-551,627	496,993	-0,058	-0,097
-550,612	140,014	-0,109	-0,106
-549,598	197,074	0,098	-0,109
-548,583	99,507	-0,085	0,072
-547,569	800,000	-0,065	-0,195
-546,554	176,133	0,066	0,070
-545,539	-128,211	-0,145	0,015
-544,525	246,954	0,038	0,047
-543,510	-160,932	-0,127	0,005
-542,496	-200,000	-0,017	-0,087
-541,481	800,000	0,037	-0,084
-540,466	42,991	-0,134	0,089
-539,452	-200,000	-0,007	0,115
-538,437	-78,071	0,168	-0,042
-537,423	265,100	-0,096	0,123
-536,408	202,092	0,066	0,074
-535,393	-200,000	0,009	-0,169
-534,379	-152,187	-0,068	-0,004
-533,364	784,863	0,019	-0,038
-532,350	553,912	-0,025	0,045
-531,335	527,310	0,073	0,127
-530,321	399,376	0,068	-0,105
-529,306	-37,782	-0,141	-0,055
-528,291	800,000	0,022	-0,059
-527,277	800,000	-0,038	0,080
-526,262	-151,954	0,092	-0,005
-525,248	800,000	0,016	0,053
-524,233	315,227	-0,065	0,090
-523,218	104,910	0,041	-0,036
-522,204	-39,250	-0,016	-0,006
-521,189	349,581	0,017	0,024
-520,175	66,624	0,081	0,060
-519,160	21,328	0,045	-0,027
-518,145	-200,000	0,012	0,049
-517,131	-111,608	0,068	0,010
-516,116	580,085	0,070	0,126
-515,102	653,878	0,006	-0,012
-514,087	-11,346	-0,086	-0,041
-513,072	7,684	0,036	-0,020
-512,058	277,280	-0,079	0,104
-511,043	75,908	-0,105	0,081
-510,029	271,605	0,084	0,109
-509,014	-55,623	0,080	0,026
-507,999	-41,136	0,161	-0,061
-506,985	115,124	0,027	-0,024
-505,970	164,133	-0,079	0,081
-504,956	-76,793	0,037	0,009
-503,941	-149,237	0,073	0,004
-502,926	-28,220	-0,062	-0,026
-501,912	301,834	0,074	0,101
-500,897	62,966	0,118	0,086
-499,883	81,171	-0,107	-0,085
-498,868	-83,010	0,020	-0,005
-497,853	43,112	-0,084	-0,056
-496,839	-200,000	-0,008	0,113
-495,824	800,000	0,046	0,105
-494,810	14,739	-0,042	0,024
-493,795	800,000	0,040	0,119
-492,781	-93,305	-0,050	-0,010
-491,766	-13,225	-0,145	-0,069
-490,751	-200,000	-0,017	-0,101
-489,737	58,987	0,058	-0,042
-488,722	216,781	0,008	-0,009
-487,708	-200,000	-0,007	-0,060
-486,693	-132,604	0,053	-0,005
-485,678	58,237	-0,009	0,007
-484,664	-200,000	0,019	-0,067
-483,649	-200,000	-0,018	-0,131
-482,635	223,378	0,096	0,113
-481,620	68,264	-0,040	-0,030
-480,605	-96,671	0,111	-0,021
-479,591	-200,000	-0,008	0,037
-478,576	113,471	0,067	0,060
-477,562	447,979	-0,036	-0,059
-476,547	-152,319	-0,196	-0,010
-475,532	-200,000	-0,003	-0,052
-474,518	800,000	0,004	0,010
-473,503	-21,871	0,168	-0,074
-472,489	-200,000	0,020	0,107
-471,474	-200,000	-0,003	-0,032
-470,459	-152,158	-0,106	-0,006
-469,445	26,690	0,085	-0,052
-468,430	-200,000	0,027	0,144
-467,416	77,246	0,091	0,071
-466,401	-50,001	0,150	-0,052
-465,386	-200,000	-0,008	0,148
-464,372	-73,562	-0,121	0,032
-463,357	-176,924	0,091	0,002
-462,343	-1,218	0,044	-0,023
-461,328	-200,000	0,025	-0,105
-460,313	56,832	0,078	-0,055
-459,299	-92,188	0,148	-0,030
-458,284	44,844	0,144	0,097
-457,270	-200,000	0,047	0,200
-456,255	180,911	-0,104	0,112
-455,241	-92,773	-0,006	-0,001
-454,226	800,000	-0,026	-0,067
-453,211	-23,006	-0,069	0,030
-452,197	241,173	0,054	0,066
-451,182	800,000	0,018	-0,047
-450,168	178,317	-0,041	0,044
-449,153	263,672	0,007	0,008
-448,138	-111,403	0,058	-0,009
-447,124	120,055	-0,076	-0,069
-446,109	-24,773	-0,105	0,045
-445,095	-66,950	0,017	0,005
-444,080	800,000	-0,015	-0,040
-443,065	88,299	0,027	0,022
-442,051	-61,184	-0,102	-0,031
-441,036	41,491	-0,045	0,030
-440,022	107,212	-0,064	-0,056
-439,007	-132,655	-0,180	-0,017
-437,992	145,424	0,050	0,049
-436,978	-11,816	0,099	0,047
-435,963	-200,000	-0,023	0,081
-434,949	-200,000	-0,027	-0,140
-433,934	800,000	0,023	-0,062
-432,919	48,426	-0,106	-0,072
-431,905	-157,813	0,067	-0,003
-430,890	800,000	0,039	0,115
-429,876	-48,641	0,059	0,020
-428,861	-99,569	0,040	0,007
-427,846	60,480	0,073	-0,053
-426,832	-200,000	-0,001	-0,044
-425,817	-78,876	-0,060	0,015
-424,803	-200,000	-0,017	0,208
-423,788	800,000	-0,057	0,131
-422,773	528,168	-0,015	0,027
-421,759	119,608	-0,034	0,031
-420,744	213,581	0,086	0,100
-419,730	171,789	-0,142	0,149
-418,715	800,000	0,030	-0,062
-417,701	-200,000	0,008	-0,067
-416,686	386,031	-0,011	0,016
-415,671	-100,226	0,110	-0,020
-414,657	249,993	0,110	-0,137
-413,642	-118,867	-0,071	-0,009
-412,628	-4,663	0,111	-0,056
-411,613	560,824	-0,014	0,025
-410,598	-13,535	0,060	-0,028
-409,584	-55,830	0,044	0,014
-408,569	-200,000	0,010	-0,102
-407,555	189,505	-0,064	0,070
-406,540	293,424	0,077	-0,102
-405,525	-105,088	0,029	-0,005
-404,511	800,000	-0,018	0,045
-403,496	122,795	-0,034	-0,031
-402,482	-157,907	-0,076	-0,003
-401,467	800,000	0,025	0,067
-400,452	800,000	0,019	0,039
-399,438	-29,148	-0,129	0,054
-398,423	800,000	-0,021	-0,063
-397,409	800,000	-0,046	-0,130
-396,394	-200,000	0,020	-0,184
-395,379	71,718	0,199	0,151
-394,365	-200,000	0,027	0,108
-393,350	-57,186	-0,095	0,030
-392,336	800,000	0,023	0,055
-391,321	-20,642	-0,156	0,070
-390,306	95,758	0,052	0,044
-389,292	286,976	-0,103	-0,137
-388,277	112,159	-0,010	0,009
-387,263	59,990	-0,033	0,024
-386,248	-129,606	0,106	0,010
-385,233	-200,000	-0,027	0,113
-384,219	-158,156	-0,061	-0,003
-383,204	-200,000	0,015	-0,055
-382,190	-14,720	0,114	0,053
-381,175	-200,000	-0,004	-0,064
-380,160	-99,752	-0,090	0,016
-379,146	-200,000	0,036	0,150
-378,131	55,512	-0,120	0,085
-377,117	106,831	-0,034	-0,029
-376,102	-200,000	0,008	-0,055
-375,088	-200,000	-0,024	-0,182
-374,073	41,957	-0,145	0,096
-373,058	-182,058	0,107	-0,001
-372,044	-67,226	0,064	-0,018
-371,029	-5,619	0,118	-0,059
-370,015	285,911	-0,069	0,091
-369,000	-200,000	0,003	-0,164
-367,985	-200,000	-0,019	0,204
-366,971	-70,686	-0,100	0,027
-365,956	-200,000	0,036	0,132
-364,942	800,000	0,056	0,131
-363,927	800,000	-0,062	-0,146
-362,912	497,064	0,046	0,078
-361,898	-80,029	-0,105	-0,025
-360,883	16,708	-0,041	0,024
-359,869	-200,000	-0,024	-0,107
-358,854	800,000	-0,013	0,030
-357,839	292,815	0,059	0,079
-356,825	-200,000	-0,043	0,148
-355,810	-200,000	0,008	-0,093
-354,796	360,300	0,048	-0,070
-353,781	8,575	-0,096	0,053
-352,766	800,000	0,033	-0,076
-351,752	24,721	0,055	0,033
-350,737	-133,356	0,092	-0,008
-349,723	288,704	-0,025	0,034
-348,708	73,688	0,106	0,081
-347,693	800,000	-0,034	0,073
-346,679	-200,000	0,000	-0,070
-345,664	-95,544	-0,085	-0,017
-344,650	800,000	0,013	0,036
-343,635	800,000	0,027	-0,067
-342,620	-75,810	0,067	0,017
-341,606	-200,000	0,011	-0,103
-340,591	-200,000	0,008	0,100
-339,577	-64,824	-0,169	0,050
-338,562	-51,003	0,055	-0,019
-337,548	17,068	0,062	-0,036
-336,533	440,899	0,115	0,184
-335,518	84,397	0,024	-0,019
-334,504	-12,881	0,114	0,054
-333,489	800,000	-0,052	0,121
-332,475	403,767	0,064	0,098
-331,460	-200,000	-0,013	0,064
-330,445	-153,265	-0,127	0,006
-329,431	-200,000	-0,004	0,116
-328,416	326,083	0,030	-0,042
-327,402	375,903	-0,058	-0,086
-326,387	-200,000	-0,010	-0,075
-325,372	-122,743	-0,181	-0,021
-324,358	625,232	-0,020	-0,038
-323,343	298,124	-0,064	0,085
-322,329	-200,000	0,026	0,135
-321,314	-132,096	0,057	-0,005
-320,299	642,235	0,035	0,065
-319,285	-88,630	-0,153	-0,033
-318,270	800,000	0,048	-0,153
-317,256	-41,323	-0,009	-0,003
-316,241	-200,000	0,019	-0,062
-315,226	-200,000	0,023	-0,137
-314,212	84,028	0,115	-0,091
-313,197	-157,844	-0,049	0,002
-312,183	-200,000	-0,018	0,063
-311,168	-200,000	0,027	-0,100
-310,153	-10,220	-0,151	-0,072
-309,139	-200,000	0,024	-0,078
-308,124	242,637	0,074	0,090
-307,110	71,409	0,103	0,078
-306,095	-90,009	0,050	-0,010
-305,080	800,000	0,033	-0,079
-304,066	800,000	-0,031	-0,070
-303,051	18,596	-0,070	0,041
-302,037	-200,000	0,009	-0,108
-301,022	-200,000	0,000	0,070
-300,008	-200,000	-0,004	-0,054
-298,993	85,617	-0,078	0,062
-297,978	-12,690	-0,037	0,017
-296,964	-200,000	-0,003	-0,068
-295,949	-91,003	0,049	0,010
-294,935	150,425	-0,021	-0,021
-293,920	-40,757	0,090	-0,034
-292,905	80,640	-0,024	0,019
-291,891	263,274	0,080	-0,101
-290,876	-64,257	-0,066	-0,019
-289,862	-73,982	-0,219	-0,057
-288,847	-79,652	-0,078	-0,019
-287,832	-72,507	0,119	-0,032
-286,818	68,638	0,047	0,035
-285,803	-177,430	0,023	0,000
-284,789	800,000	0,008	-0,022
-283,774	441,815	0,027	0,043
-282,759	-74,471	-0,030	-0,008
-281,745	-200,000	0,001	-0,059
-280,730	577,574	-0,005	-0,010
-279,716	-83,990	0,009	0,002
-278,701	-200,000	0,015	-0,053
-277,686	-104,001	0,110	0,018
-276,672	-122,272	0,161	0,019
-275,657	800,000	0,050	0,125
-274,643	-112,813	0,091	0,013
-273,628	69,813	-0,048	-0,036
-272,613	-200,000	0,011	-0,048
-271,599	-200,000	-0,019	-0,074
-270,584	-122,789	-0,102	0,012
-269,570	800,000	0,029	0,065
-268,555	-200,000	-0,005	0,023
-267,540	599,463	-0,044	-0,080
-266,526	68,207	-0,016	0,012
-265,511	68,190	-0,059	0,044
-264,497	-155,755	0,019	-0,001
-263,482	-200,000	-0,023	0,108
-262,467	16,373	0,047	-0,027
-261,453	12,887	0,044	0,024
-260,438	-22,219	-0,131	0,057
-259,424	-41,087	-0,026	0,010
-258,409	-200,000	-0,063	0,223
-257,395	-150,912	0,131	-0,007
-256,380	-146,717	0,087	-0,005
-255,365	800,000	-0,054	0,111
-254,351	800,000	-0,018	-0,050
-253,336	-111,179	-0,172	-0,025
-252,322	97,870	-0,037	0,031
-251,307	35,051	0,071	-0,045
-250,292	-111,266	0,072	0,011
-249,278	285,574	0,114	0,149
-248,263	-180,423	0,222	0,003
-247,249	61,310	0,098	-0,070
-246,234	241,814	0,057	-0,069
-245,219	216,900	-0,103	0,119
-244,205	10,720	0,130	0,072
-243,190	111,592	-0,081	0,071
-242,176	743,573	0,011	0,021
-241,161	-13,410	-0,046	0,022
-240,146	146,137	-0,058	-0,057
-239,132	-200,000	0,014	-0,081
-238,117	-200,000	0,003	-0,121
-237,103	-68,705	-0,129	-0,036
-236,088	21,379	0,148	0,087
-235,073	118,674	-0,140	0,125
-234,059	2,856	0,064	0,033
-233,044	-26,510	-0,030	0,012
-232,030	-200,000	-0,006	0,046
-231,015	53,454	-0,089	-0,061
-230,000	-66,377	0,057	-0,016
-228,986	-76,333	0,068	0,017
-227,971	-57,727	0,072	-0,023
-226,957	269,510	-0,091	0,116
-225,942	241,823	0,057	-0,070
-224,927	-123,759	0,089	0,010
-223,913	80,325	-0,095	-0,074
-222,898	-24,652	0,040	0,017
-221,884	88,426	-0,044	0,035
-220,869	-151,108	0,200	-0,011
-219,855	405,763	0,081	-0,125
-218,840	89,406	0,084	0,068
-217,825	60,776	-0,064	-0,046
-216,811	603,186	0,023	-0,042
-215,796	-200,000	0,038	-0,211
-214,782	310,848	-0,064	-0,088
-213,767	-70,121	0,117	-0,032
-212,752	-125,664	0,114	-0,012
-211,738	-94,389	0,102	-0,020
-210,723	-200,000	0,018	-0,084
-209,709	165,533	-0,046	-0,047
-208,694	501,256	-0,101	-0,170
-207,679	-52,637	-0,135	-0,045
-206,665	107,445	-0,080	0,069
-205,650	800,000	-0,025	0,070
-204,636	-81,729	-0,155	0,036
-203,621	297,072	0,064	0,085
-202,606	-41,581	0,070	0,026
-201,592	-200,000	-0,001	-0,035
-200,577	195,269	-0,070	-0,078
-199,563	394,586	0,036	-0,055
-198,548	-200,000	-0,002	-0,141
-197,533	44,954	0,067	0,045
-196,519	-200,000	-0,001	-0,039
-195,504	251,363	0,094	0,116
-194,490	352,590	-0,082	-0,118
-193,475	-200,000	-0,000	-0,027
-192,460	800,000	-0,062	-0,176
-191,446	-200,000	-0,016	0,134
-190,431	1,116	0,101	0,052
-189,417	-56,230	-0,090	-0,029
-188,402	-126,752	-0,109	-0,011
-187,387	-69,257	-0,099	-0,027
-186,373	-108,693	0,100	0,015
-185,358	32,029	0,035	-0,022
-184,344	-177,730	0,110	-0,002
-183,329	412,219	0,031	0,047
-182,315	155,659	0,063	0,063
-181,300	59,944	-0,031	0,022
-180,285	38,579	0,108	-0,070
-179,271	205,211	-0,056	-0,063
-178,256	-200,000	-0,011	-0,085
-177,242	92,926	0,071	0,058
-176,227	14,599	0,048	0,027
-175,212	-200,000	-0,007	0,064
-174,198	204,675	0,053	0,059
-173,183	800,000	-0,064	0,139
-172,169	-200,000	-0,010	-0,156
-171,154	225,487	-0,087	-0,102
-170,139	198,445	0,044	0,049
-169,125	-30,390	-0,071	0,029
-168,110	37,698	0,044	-0,028
-167,096	493,892	0,011	-0,018
-166,081	131,814	-0,053	-0,049
-165,066	-163,465	0,166	-0,006
-164,052	736,100	0,041	-0,080
-163,037	2,248	-0,055	-0,029
-162,023	-129,381	0,092	0,009
-161,008	-127,442	0,062	-0,006
-159,993	-200,000	-0,003	-0,067
-158,979	-121,907	-0,102	-0,012
-157,964	-12,286	-0,032	0,015
-156,950	210,231	-0,066	-0,075
-155,935	101,438	0,110	0,093
-154,920	39,222	0,077	0,050
-153,906	190,441	0,056	0,061
-152,891	-185,213	0,012	0,000
-151,877	186,039	-0,080	-0,086
-150,862	800,000	0,027	-0,057
-149,847	-72,362	-0,061	0,016
-148,833	324,469	0,087	-0,120
-147,818	726,373	-0,008	-0,015
-146,804	569,208	0,017	-0,029
-145,789	78,940	0,023	0,018
-144,775	800,000	0,026	-0,066
-143,760	170,485	-0,037	0,039
-142,745	-79,351	-0,141	0,034
-141,731	-62,843	0,067	0,020
-140,716	-200,000	0,024	-0,165
-139,702	-148,218	-0,123	0,007
-138,687	152,836	0,143	0,141
-137,672	272,114	-0,074	0,095
-136,658	800,000	0,012	0,035
-135,643	-8,651	0,032	0,015
-134,629	-200,000	-0,018	0,146
-133,614	-141,746	0,054	0,004
-132,599	800,000	0,029	0,070
-131,585	380,724	0,033	0,049
-130,570	800,000	0,046	0,092
-129,556	-200,000	0,013	0,173
-128,541	-135,498	-0,065	-0,005
-127,526	14,543	-0,112	-0,063
-126,512	800,000	-0,023	-0,046
-125,497	86,636	0,032	0,026
-124,483	-134,177	-0,113	0,010
-123,468	-70,384	0,014	-0,004
-122,453	-60,473	0,081	0,025
-121,439	33,975	-0,026	-0,017
-120,424	-110,896	-0,141	0,021
-119,410	-200,000	-0,002	-0,038
-118,395	-91,630	-0,087	0,018
