DTS Sentinel unit serial number:	SN410029Multiplexer serial number:	ORYXHardware model number:	OX2-SRSoftware version number:	ORYX F/W v4,00 Oryx Data Collector v3.7.2.0data status	okinstallation	B6 Nyhavnadifferential loss correction	single-endedforward channel	channel 2reverse channel	N/Adate	2023/12/07time	18:00:08forward acquisition time	300,00reverse acquisition time	0,00gamma	499,1914k internal	0,3164k external	0,3164temperature offset calibration	1,0000default loss term (dB/km)	0,3820temperature slope calibration	1,0000multiplexer offset coefficient	1,0000multiplexer slope coefficient	1,0000fibre end	0,00T internal ref (°C)	14,36T ext. ref 1 (°C)	-2,61T ext. ref 2 (°C)	-2,60length (m)	temperature (°C)	Stokes	anti-Stokes-744,400	-134,302	0,134	-0,012
-743,385	-123,045	-0,386	0,045
-742,371	-49,860	0,219	0,076
-741,356	-119,922	-0,316	0,039
-740,342	800,000	0,044	0,106
-739,327	-146,893	-0,277	-0,017
-738,312	-171,697	0,063	-0,001
-737,298	-166,547	-0,272	-0,008
-736,283	-200,000	0,000	0,092
-735,269	-120,412	-0,297	-0,037
-734,254	2,077	-0,091	0,048
-733,239	-38,960	-0,305	-0,117
-732,225	21,246	0,091	-0,054
-731,210	-200,000	0,006	-0,037
-730,196	658,812	0,019	0,036
-729,181	-200,000	0,012	0,049
-728,167	-200,000	0,028	-0,141
-727,152	155,594	-0,105	-0,107
-726,137	-148,537	-0,147	-0,009
-725,123	-30,390	-0,132	0,055
-724,108	-53,931	0,018	-0,006
-723,094	152,846	-0,059	-0,059
-722,079	109,310	-0,015	0,013
-721,064	-84,976	0,082	0,019
-720,050	800,000	0,061	-0,125
-719,035	800,000	0,038	-0,115
-718,021	97,158	-0,161	-0,136
-717,006	-200,000	-0,014	-0,096
-715,991	-144,508	-0,120	0,008
-714,977	-38,420	-0,045	-0,017
-713,962	-100,622	-0,106	-0,019
-712,948	338,204	0,099	-0,142
-711,933	37,437	-0,093	-0,061
-710,918	-200,000	-0,009	-0,038
-709,904	-40,129	-0,080	-0,030
-708,889	706,952	0,067	-0,131
-707,875	800,000	-0,055	-0,129
-706,860	-65,784	-0,088	0,026
-705,845	90,698	0,028	-0,023
-704,831	106,299	0,082	0,071
-703,816	-149,891	-0,128	-0,007
-702,802	-41,615	-0,172	-0,064
-701,787	110,582	0,009	-0,008
-700,772	86,515	0,038	0,031
-699,758	161,834	0,102	0,105
-698,743	69,825	0,073	0,055
-697,729	-200,000	0,042	0,153
-696,714	-168,116	-0,036	0,001
-695,699	122,930	-0,013	0,012
-694,685	-111,931	-0,069	-0,010
-693,670	-77,970	-0,051	0,013
-692,656	-200,000	-0,023	0,133
-691,641	332,092	0,083	0,118
-690,627	800,000	0,010	-0,025
-689,612	800,000	-0,037	-0,095
-688,597	-200,000	0,007	0,091
-687,583	103,784	-0,151	-0,130
-686,568	-51,906	-0,188	-0,064
-685,554	-178,416	0,086	0,001
-684,539	-49,476	0,078	0,027
-683,524	13,582	0,053	0,030
-682,510	25,608	-0,037	0,023
-681,495	22,597	0,012	-0,007
-680,481	98,982	-0,163	-0,138
-679,466	-200,000	-0,009	-0,124
-678,451	-61,999	0,028	0,009
-677,437	313,654	-0,021	0,029
-676,422	132,511	0,039	0,037
-675,408	-79,453	0,045	0,011
-674,393	-142,134	-0,121	-0,009
-673,378	-200,000	-0,047	-0,163
-672,364	-96,882	0,046	0,009
-671,349	-141,902	0,076	-0,005
-670,335	-200,000	-0,015	0,088
-669,320	-89,027	-0,067	0,015
-668,305	-87,012	0,127	0,028
-667,291	524,453	-0,015	0,025
-666,276	-200,000	-0,020	0,080
-665,262	263,998	-0,087	-0,111
-664,247	-165,248	-0,124	0,004
-663,232	96,373	0,061	-0,051
-662,218	322,206	-0,053	-0,074
-661,203	396,350	0,052	-0,081
-660,189	129,721	0,046	0,043
-659,174	-28,049	0,061	-0,026
-658,159	82,876	-0,040	-0,032
-657,145	-128,753	-0,124	-0,013
-656,130	-23,096	0,033	-0,014
-655,116	800,000	0,040	0,117
-654,101	-170,946	-0,037	0,001
-653,086	-200,000	0,008	-0,039
-652,072	-55,770	-0,055	-0,018
-651,057	-26,005	-0,064	0,028
-650,043	13,885	-0,200	-0,113
-649,028	-131,625	-0,117	0,011
-648,014	10,661	0,166	0,092
-646,999	324,100	-0,005	0,007
-645,984	82,495	0,051	0,040
-644,970	-112,798	0,188	-0,027
-643,955	-37,288	0,015	-0,006
-642,941	-60,762	0,031	0,010
-641,926	-134,540	-0,221	-0,020
-640,911	42,777	0,092	-0,061
-639,897	800,000	0,039	0,096
-638,882	-200,000	-0,013	-0,044
-637,868	728,544	0,055	-0,108
-636,853	27,449	0,100	0,061
-635,838	-19,532	-0,122	0,055
-634,824	149,265	0,164	-0,163
-633,809	-200,000	0,134	-0,000
-632,795	-172,494	-0,163	0,004
-631,780	16,077	0,193	0,111
-630,765	-115,643	-0,059	-0,008
-629,751	-83,727	-0,092	0,021
-628,736	-200,000	0,002	-0,021
-627,722	-200,000	0,024	-0,100
-626,707	-90,200	0,087	0,018
-625,692	-63,748	0,119	-0,036
-624,678	186,448	-0,087	0,095
-623,663	-200,000	-0,002	0,056
-622,649	-91,921	-0,063	-0,013
-621,634	-135,331	-0,131	-0,011
-620,619	581,518	-0,092	-0,166
-619,605	243,053	0,076	-0,093
-618,590	-200,000	0,018	0,194
-617,576	26,458	0,103	0,063
-616,561	277,092	-0,026	-0,034
-615,546	-200,000	-0,016	-0,071
-614,532	269,323	-0,042	-0,055
-613,517	-119,003	0,072	0,009
-612,503	-4,033	0,039	0,020
-611,488	-129,789	-0,006	-0,001
-610,474	182,624	0,026	-0,028
-609,459	248,961	-0,049	-0,061
-608,444	124,828	-0,061	0,057
-607,430	579,195	0,017	-0,031
-606,415	265,422	-0,120	0,153
-605,401	-75,389	-0,067	0,017
-604,386	343,120	0,043	-0,062
-603,371	800,000	0,036	0,095
-602,357	-200,000	-0,071	0,285
-601,342	-166,492	-0,081	-0,002
-600,328	800,000	0,048	-0,098
-599,313	278,718	0,051	-0,066
-598,298	-13,481	-0,095	-0,045
-597,284	119,807	0,092	-0,083
-596,269	-200,000	0,025	0,173
-595,255	-125,012	0,110	-0,012
-594,240	-41,243	-0,101	0,038
-593,225	-200,000	0,005	-0,123
-592,211	41,738	-0,052	-0,034
-591,196	-200,000	-0,013	-0,045
-590,182	365,878	0,032	-0,047
-589,167	451,048	0,122	0,197
-588,152	173,592	0,026	-0,027
-587,138	-200,000	0,027	-0,180
-586,123	-200,000	-0,058	-0,232
-585,109	-200,000	-0,016	-0,085
-584,094	-30,898	0,088	-0,036
-583,079	99,726	-0,049	0,042
-582,065	800,000	0,031	0,068
-581,050	800,000	-0,042	0,116
-580,036	800,000	-0,045	0,127
-579,021	177,177	-0,079	-0,085
-578,006	-200,000	0,014	-0,064
-576,992	343,040	-0,059	-0,085
-575,977	52,588	-0,091	0,064
-574,963	460,287	-0,048	-0,079
-573,948	-200,000	-0,005	-0,038
-572,934	-200,000	-0,022	-0,204
-571,919	534,886	0,020	0,034
-570,904	-27,950	-0,071	-0,030
-569,890	199,478	0,060	-0,068
-568,875	-105,224	0,094	0,016
-567,861	-31,364	0,088	-0,036
-566,846	-200,000	-0,005	-0,023
-565,831	68,257	-0,094	-0,070
-564,817	-200,000	0,019	-0,102
-563,802	-97,828	-0,138	0,026
-562,788	-200,000	0,006	0,034
-561,773	218,794	0,106	0,124
-560,758	-27,898	0,145	0,061
-559,744	535,664	-0,113	0,197
-558,729	-130,435	0,039	0,004
-557,715	-200,000	0,001	-0,011
-556,700	661,610	-0,034	-0,064
-555,685	725,651	-0,034	-0,066
-554,671	800,000	-0,007	0,016
-553,656	-200,000	-0,014	0,137
-552,642	-200,000	-0,013	-0,051
-551,627	-200,000	-0,016	-0,125
-550,612	-38,013	-0,043	-0,016
-549,598	-25,017	-0,068	0,030
-548,583	-137,067	-0,007	0,001
-547,569	166,062	-0,062	-0,065
-546,554	-108,954	0,095	-0,015
-545,539	167,986	0,076	0,079
-544,525	217,795	0,013	0,015
-543,510	-143,804	0,109	-0,007
-542,496	800,000	-0,016	-0,047
-541,481	227,862	0,045	0,054
-540,466	-54,180	-0,158	-0,052
-539,452	-200,000	0,044	-0,150
-538,437	239,745	-0,043	0,052
-537,423	-4,314	0,133	-0,067
-536,408	185,613	-0,078	0,085
-535,393	-200,000	0,012	-0,127
-534,379	210,586	-0,047	-0,054
-533,364	-200,000	-0,038	-0,245
-532,350	-158,630	0,038	-0,002
-531,335	-200,000	-0,021	0,159
-530,321	-200,000	0,017	0,091
-529,306	156,182	-0,054	0,054
-528,291	28,951	0,057	-0,035
-527,277	-115,551	-0,126	0,017
-526,262	266,683	-0,052	0,066
-525,248	371,658	-0,027	0,041
-524,233	797,348	0,033	0,067
-523,218	-200,000	-0,025	-0,143
-522,204	-200,000	-0,008	-0,091
-521,189	800,000	0,035	-0,094
-520,175	-96,585	0,035	-0,007
-519,160	-95,530	0,048	-0,009
-518,145	-200,000	0,019	-0,092
-517,131	245,151	-0,083	-0,103
-516,116	429,286	0,017	0,027
-515,102	108,848	-0,095	-0,083
-514,087	94,229	-0,076	0,063
-513,072	163,200	0,080	0,082
-512,058	-145,257	-0,086	-0,006
-511,043	664,698	-0,047	0,090
-510,029	190,568	0,041	0,045
-509,014	-29,311	-0,104	-0,043
-507,999	-200,000	-0,005	0,083
-506,985	-95,084	0,130	-0,025
-505,970	-6,584	-0,131	0,065
-504,956	302,899	0,080	-0,108
-503,941	800,000	0,083	0,174
-502,926	800,000	0,064	0,131
-501,912	205,763	-0,082	0,093
-500,897	120,423	-0,099	-0,090
-499,883	185,229	-0,017	0,018
-498,868	179,048	-0,080	0,085
-497,853	-71,133	-0,104	-0,028
-496,839	-74,260	0,111	-0,029
-495,824	51,602	0,010	0,007
-494,810	-26,605	-0,065	-0,028
-493,795	393,385	-0,039	0,059
-492,781	10,627	-0,060	-0,033
-491,766	1,276	-0,081	-0,042
-490,751	-89,662	0,097	0,021
-489,737	-53,338	0,064	0,021
-488,722	671,674	0,040	0,076
-487,708	193,474	-0,105	0,116
-486,693	109,430	-0,066	-0,058
-485,678	-1,184	-0,042	0,022
-484,664	280,278	0,020	0,026
-483,649	85,257	-0,070	-0,056
-482,635	134,663	-0,073	-0,069
-481,620	800,000	-0,037	0,083
-480,605	132,863	0,065	0,061
-479,591	-200,000	-0,019	0,126
-478,576	-54,532	-0,009	-0,003
-477,562	-54,403	-0,110	-0,036
-476,547	42,370	-0,071	0,047
-475,532	-112,985	-0,137	0,019
-474,518	12,447	-0,057	-0,032
-473,503	-200,000	-0,009	0,045
-472,489	-200,000	-0,007	0,048
-471,474	-200,000	-0,009	-0,030
-470,459	-37,209	-0,041	0,016
-469,445	9,384	-0,057	-0,031
-468,430	-200,000	0,024	-0,079
-467,416	-200,000	0,020	0,088
-466,401	-67,596	0,071	0,020
-465,386	195,458	0,057	0,063
-464,372	176,637	0,132	-0,140
-463,357	509,682	-0,069	-0,116
-462,343	-60,285	-0,057	-0,018
-461,328	1,394	0,081	0,042
-460,313	-200,000	0,013	-0,088
-459,299	-94,124	0,051	-0,010
-458,284	-58,735	0,079	-0,025
-457,270	345,665	-0,039	-0,055
-456,255	-200,000	-0,013	-0,072
-455,241	-69,358	-0,133	0,037
-454,226	450,141	-0,055	0,089
-453,211	41,825	-0,101	-0,067
-452,197	-200,000	-0,009	0,040
-451,182	44,898	0,175	0,117
-450,168	-200,000	-0,008	0,133
-449,153	-74,763	-0,035	0,009
-448,138	-200,000	-0,005	0,078
-447,124	67,778	-0,018	-0,014
-446,109	-34,336	-0,037	0,015
-445,095	360,497	0,044	-0,065
-444,080	-200,000	0,013	0,108
-443,065	-200,000	-0,006	0,048
-442,051	411,446	-0,015	0,023
-441,036	641,364	0,034	-0,062
-440,022	-90,107	-0,197	-0,041
-439,007	-178,134	0,196	0,003
-437,992	466,932	-0,048	0,078
-436,978	21,791	-0,077	-0,045
-435,963	223,856	0,137	-0,161
-434,949	387,171	0,020	-0,030
-433,934	-200,000	-0,008	0,085
-432,919	320,564	0,078	-0,108
-431,905	-2,224	-0,095	-0,048
-430,890	-134,756	0,153	-0,013
-429,876	-199,652	0,158	0,001
-428,861	11,079	0,096	-0,053
-427,846	16,205	-0,033	-0,019
-426,832	800,000	-0,039	-0,099
-425,817	65,810	0,112	0,082
-424,803	-93,256	0,149	-0,030
-423,788	-34,605	0,047	-0,018
-422,773	-52,663	0,193	0,064
-421,759	224,772	0,012	-0,014
-420,744	-31,780	-0,124	0,050
-419,730	96,805	-0,059	0,049
-418,715	-200,000	-0,048	0,172
-417,701	-200,000	-0,008	0,049
-416,686	211,732	0,027	-0,031
-415,671	800,000	-0,079	0,217
-414,657	382,667	0,086	0,129
-413,642	-26,774	-0,100	0,042
-412,628	53,509	-0,072	0,050
-411,613	-55,014	-0,185	-0,060
-410,598	800,000	-0,031	-0,096
-409,584	200,456	-0,047	0,053
-408,569	248,474	0,029	-0,036
-407,555	-200,000	0,012	0,041
-406,540	688,525	0,020	-0,039
-405,525	-63,350	-0,114	0,034
-404,511	140,621	0,080	0,077
-403,496	12,948	-0,041	-0,023
-402,482	-200,000	-0,005	-0,044
-401,467	-26,336	0,095	-0,040
-400,452	141,200	-0,075	0,072
-399,438	12,782	0,176	0,098
-398,423	6,129	0,116	0,062
-397,409	-200,000	-0,023	-0,079
-396,394	-200,000	0,003	-0,047
-395,379	92,782	-0,051	-0,042
-394,365	417,727	-0,048	-0,075
-393,350	59,902	0,097	0,069
-392,336	-144,971	-0,103	0,007
-391,321	419,581	-0,049	-0,077
-390,306	-12,712	-0,040	-0,019
-389,292	102,401	0,152	-0,129
-388,277	-61,550	-0,107	-0,032
-387,263	800,000	0,038	-0,095
-386,248	-200,000	0,009	-0,060
-385,233	60,219	0,105	-0,075
-384,219	-200,000	0,024	-0,087
-383,204	-118,868	-0,020	0,003
-382,190	800,000	0,034	-0,104
-381,175	454,878	-0,039	-0,062
-380,160	800,000	0,070	0,148
-379,146	800,000	-0,070	0,149
-378,131	45,269	-0,057	-0,038
-377,117	178,578	0,062	0,066
-376,102	-89,739	-0,099	0,021
-375,088	269,355	-0,106	-0,136
-374,073	345,099	0,025	0,035
-373,058	-65,029	0,191	-0,056
-372,044	-85,205	-0,016	-0,004
-371,029	207,101	0,037	0,041
-370,015	-200,000	-0,007	-0,141
-369,000	-60,247	-0,139	0,043
-367,985	552,755	0,048	-0,083
-366,971	-200,000	0,001	-0,057
-365,956	-175,214	0,081	-0,002
-364,942	-200,000	-0,007	0,106
-363,927	-200,000	0,025	-0,102
-362,912	341,798	0,007	-0,010
-361,898	145,796	-0,024	0,023
-360,883	181,505	-0,027	-0,029
-359,869	89,399	-0,053	0,043
-358,854	800,000	0,035	-0,084
-357,839	-200,000	-0,036	0,129
-356,825	800,000	0,019	0,046
-355,810	172,425	0,039	0,041
-354,796	79,070	-0,033	-0,025
-353,781	800,000	0,085	-0,188
-352,766	61,862	0,106	-0,076
-351,752	-200,000	0,005	-0,026
-350,737	15,428	0,222	0,126
-349,723	180,697	-0,075	0,079
-348,708	-200,000	0,042	0,163
-347,693	232,628	0,045	-0,054
-346,679	-120,228	0,077	-0,009
-345,664	-7,789	-0,168	0,082
-344,650	-91,227	-0,034	-0,007
-343,635	-64,513	0,193	0,057
-342,620	-105,623	-0,010	-0,002
-341,606	-42,470	0,066	0,024
-340,591	-200,000	0,002	-0,112
-339,577	-200,000	-0,026	-0,135
-338,562	387,513	-0,063	-0,094
-337,548	-200,000	0,022	0,134
-336,533	-143,113	0,130	-0,009
-335,518	-20,841	-0,023	0,010
-334,504	-116,721	-0,032	0,004
-333,489	-78,097	-0,070	0,017
-332,475	-47,737	0,036	-0,013
-331,460	73,625	-0,080	0,061
-330,445	-200,000	-0,001	-0,069
-329,431	-200,000	0,024	0,085
-328,416	-200,000	-0,027	0,129
-327,402	123,119	0,080	-0,073
-326,387	-90,434	0,079	-0,016
-325,372	54,905	-0,083	-0,058
-324,358	800,000	0,012	0,034
-323,343	-114,586	-0,082	-0,011
-322,329	-101,728	-0,145	0,025
-321,314	777,370	-0,046	0,092
-320,299	-18,591	-0,025	0,011
-319,285	80,014	-0,030	-0,023
-318,270	-200,000	0,010	-0,052
-317,256	800,000	-0,057	-0,168
-316,241	-66,365	0,071	-0,020
-315,226	800,000	-0,041	-0,103
-314,212	-200,000	0,002	-0,053
-313,197	-72,400	0,058	0,015
-312,183	-200,000	0,015	0,171
-311,168	35,487	0,086	0,055
-310,153	-88,949	-0,018	0,004
-309,139	800,000	-0,066	-0,172
-308,124	43,005	0,031	0,020
-307,110	-63,672	0,118	0,035
-306,095	128,354	-0,068	0,062
-305,080	39,180	-0,049	-0,031
-304,066	12,802	-0,135	0,076
-303,051	-117,043	0,053	0,007
-302,037	127,285	0,040	-0,037
-301,022	90,044	-0,067	-0,054
-300,008	-200,000	-0,003	0,128
-298,993	-28,674	0,130	0,054
-297,978	800,000	-0,030	-0,066
-296,964	-114,028	0,084	-0,012
-295,949	124,055	-0,113	0,102
-294,935	-62,265	-0,127	-0,038
-293,920	-118,669	0,104	-0,013
-292,905	-200,000	-0,001	0,031
-291,891	-131,185	0,064	0,006
-290,876	83,015	-0,061	-0,048
-289,862	207,794	0,121	0,137
-288,847	-67,342	-0,065	-0,018
-287,832	800,000	0,043	0,086
-286,818	-82,845	-0,113	0,026
-285,803	-70,230	-0,108	0,029
-284,789	-200,000	0,031	0,107
-283,774	800,000	-0,040	0,097
-282,759	601,592	-0,031	-0,056
-281,745	-200,000	-0,012	0,049
-280,730	-200,000	0,002	-0,047
-279,716	-61,631	-0,146	0,044
-278,701	708,486	0,112	0,216
-277,686	-200,000	0,002	-0,048
-276,672	79,064	-0,047	0,036
-275,657	106,761	0,156	0,134
-274,643	800,000	-0,033	0,067
-273,628	-161,349	0,166	0,006
-272,613	194,070	-0,129	-0,141
-271,599	800,000	0,023	-0,061
-270,584	-200,000	0,032	0,157
-269,570	350,639	-0,069	0,099
-268,555	186,940	-0,050	-0,054
-267,540	308,135	0,043	0,059
-266,526	124,012	0,054	-0,049
-265,511	249,632	0,045	0,055
-264,497	89,877	-0,057	-0,046
-263,482	-200,000	0,001	0,012
-262,467	67,812	0,075	0,056
-261,453	-40,728	0,064	-0,024
-260,438	-92,923	-0,063	0,013
-259,424	346,993	-0,132	-0,188
-258,409	-82,160	-0,038	0,009
-257,395	800,000	-0,068	0,155
-256,380	-91,189	0,137	0,028
-255,365	249,999	-0,005	0,006
-254,351	678,486	0,021	0,039
-253,336	446,681	-0,059	0,094
-252,322	-200,000	0,001	-0,013
-251,307	800,000	-0,039	-0,080
-250,292	-200,000	-0,020	0,069
-249,278	-200,000	-0,027	-0,089
-248,263	-122,951	0,068	-0,008
-247,249	112,122	0,035	0,030
-246,234	-95,937	0,140	0,027
-245,219	387,946	-0,052	-0,078
-244,205	800,000	-0,043	-0,092
-243,190	122,975	-0,012	0,011
-242,176	-200,000	-0,020	-0,092
-241,161	800,000	0,031	-0,072
-240,146	34,087	-0,075	-0,047
-239,132	36,099	0,130	-0,082
-238,117	133,029	0,022	-0,021
-237,103	441,224	-0,010	-0,016
-236,088	-200,000	-0,113	0,000
-235,073	253,322	-0,010	0,013
-234,059	-172,144	0,144	0,003
-233,044	685,913	0,026	0,048
-232,030	99,667	-0,038	0,032
-231,015	175,790	-0,114	-0,119
-230,000	74,510	-0,093	-0,070
-228,986	482,267	-0,036	-0,059
-227,971	-63,008	-0,090	-0,027
-226,957	800,000	0,050	0,126
-225,942	-200,000	0,006	0,055
-224,927	800,000	0,072	-0,153
-223,913	800,000	-0,045	-0,101
-222,898	-200,000	-0,017	-0,160
-221,884	582,008	-0,046	-0,082
-220,869	-95,050	0,049	-0,009
-219,855	-200,000	0,018	0,135
-218,840	800,000	0,040	-0,095
-217,825	55,129	0,097	0,067
-216,811	165,678	0,034	-0,035
-215,796	570,706	0,037	-0,066
-214,782	278,361	-0,043	-0,055
-213,767	117,725	0,029	0,026
-212,752	-25,584	0,123	0,052
-211,738	-118,588	0,109	-0,014
-210,723	-143,156	0,095	0,007
-209,709	-96,496	0,126	0,024
-208,694	-32,744	-0,150	-0,060
-207,679	-14,581	0,080	-0,037
-206,665	-55,779	0,148	0,047
-205,650	294,195	0,069	0,090
-204,636	-61,537	-0,102	-0,031
-203,621	263,618	0,063	-0,079
-202,606	800,000	0,008	0,017
-201,592	800,000	-0,028	-0,085
-200,577	-200,000	0,005	-0,044
-199,563	-200,000	0,008	0,066
-198,548	800,000	0,040	0,083
-197,533	-39,180	-0,040	0,015
-196,519	280,597	0,038	-0,049
-195,504	800,000	-0,022	0,051
-194,490	-200,000	-0,002	-0,014
-193,475	1,888	-0,034	0,018
-192,460	48,451	0,060	0,040
-191,446	328,586	-0,019	0,026
-190,431	-0,447	0,028	-0,014
-189,417	15,077	0,077	0,043
-188,402	151,152	-0,137	-0,134
-187,387	800,000	0,016	-0,036
-186,373	-162,971	0,113	-0,004
-185,358	791,355	0,033	-0,066
-184,344	484,127	0,016	0,026
-183,329	-200,000	-0,035	0,178
-182,315	175,792	-0,073	0,076
-181,300	-81,540	-0,075	-0,018
-180,285	60,411	0,051	0,036
-179,271	378,487	0,036	-0,054
-178,256	800,000	0,035	0,108
-177,242	-200,000	-0,003	0,092
-176,227	-99,501	-0,150	-0,027
-175,212	-93,978	-0,056	0,011
-174,198	-139,692	-0,023	0,002
-173,183	240,976	-0,073	-0,088
-172,169	-167,307	-0,134	0,004
-171,154	800,000	-0,030	0,065
-170,139	108,968	0,093	-0,080
-169,125	338,109	-0,054	0,076
-168,110	49,165	0,018	0,012
-167,096	-88,312	0,074	0,016
-166,081	44,477	-0,053	-0,035
-165,066	-200,000	-0,001	0,087
-164,052	169,726	-0,101	-0,104
-163,037	800,000	-0,056	-0,175
-162,023	35,859	0,183	0,116
-161,008	764,379	0,089	0,175
-159,993	88,336	-0,047	-0,037
-158,979	-200,000	0,023	-0,156
-157,964	800,000	0,005	0,014
-156,950	583,702	0,052	0,093
-155,935	67,925	0,067	-0,050
-154,920	-77,615	-0,096	-0,024
-153,906	119,541	-0,025	-0,022
-152,891	-200,000	0,031	0,112
-151,877	-200,000	0,001	-0,007
-150,862	32,757	0,116	-0,072
-149,847	17,012	0,026	0,015
-148,833	800,000	0,009	-0,022
-147,818	410,001	-0,026	-0,039
-146,804	-46,161	-0,219	-0,077
-145,789	110,974	0,118	0,102
-144,775	-129,768	0,035	0,003
-143,760	350,926	0,034	-0,049
-142,745	-15,425	0,082	-0,037
-141,731	-200,000	0,003	-0,075
-140,716	-200,000	0,010	0,063
-139,702	581,795	0,009	-0,016
-138,687	-200,000	0,005	-0,046
-137,672	-200,000	0,025	-0,126
-136,658	79,162	-0,059	0,045
-135,643	-92,151	-0,072	-0,014
-134,629	324,844	-0,089	-0,123
-133,614	800,000	-0,052	-0,104
-132,599	800,000	0,043	0,117
-131,585	180,491	0,090	-0,095
-130,570	176,149	-0,063	0,066
-129,556	-152,792	0,089	0,004
-128,541	210,036	0,061	-0,069
-127,526	160,426	0,034	0,034
-126,512	518,684	0,029	-0,048
-125,497	-153,887	0,107	-0,005
-124,483	800,000	-0,047	0,136
-123,468	-103,990	-0,022	0,004
-122,453	-151,961	-0,154	0,008
-121,439	-200,000	-0,020	-0,075
-120,424	-10,441	-0,181	0,086
-119,410	400,030	0,096	-0,145
