DTS Sentinel unit serial number:	SN410029Multiplexer serial number:	ORYXHardware model number:	OX2-SRSoftware version number:	ORYX F/W v4,00 Oryx Data Collector v3.7.2.0data status	okinstallation	B6 Nyhavnadifferential loss correction	single-endedforward channel	channel 2reverse channel	N/Adate	2023/12/09time	01:45:08forward acquisition time	300,00reverse acquisition time	0,00gamma	499,1914k internal	0,3155k external	0,3155temperature offset calibration	1,0000default loss term (dB/km)	0,3820temperature slope calibration	1,0000multiplexer offset coefficient	1,0000multiplexer slope coefficient	1,0000fibre end	0,00T internal ref (°C)	15,82T ext. ref 1 (°C)	-0,49T ext. ref 2 (°C)	-0,51length (m)	temperature (°C)	Stokes	anti-Stokes-744,400	-200,000	-0,016	0,065
-743,385	-107,406	-0,264	-0,042
-742,371	40,534	0,131	0,087
-741,356	-79,878	-0,267	0,066
-740,342	231,430	0,082	0,100
-739,327	-67,419	-0,285	-0,082
-738,312	160,152	-0,004	0,004
-737,298	-86,105	-0,321	-0,072
-736,283	162,095	0,073	0,075
-735,269	-144,289	-0,250	0,017
-734,254	-19,523	0,186	0,085
-733,239	-127,191	-0,588	-0,063
-732,225	-122,620	0,194	-0,023
-731,210	-101,530	-0,066	-0,012
-730,196	554,818	-0,053	-0,095
-729,181	-31,051	-0,182	-0,075
-728,167	202,836	-0,117	0,133
-727,152	-43,390	0,058	0,022
-726,137	-79,205	-0,119	-0,030
-725,123	-99,482	-0,023	-0,004
-724,108	800,000	-0,025	-0,067
-723,094	105,228	0,095	-0,083
-722,079	-200,000	-0,016	0,102
-721,064	-200,000	-0,026	0,088
-720,050	800,000	-0,042	-0,094
-719,035	-200,000	-0,000	-0,033
-718,021	-200,000	-0,014	-0,077
-717,006	800,000	0,045	-0,129
-715,991	250,393	-0,064	-0,080
-714,977	47,193	-0,082	-0,056
-713,962	-200,000	-0,002	-0,127
-712,948	360,327	-0,132	-0,195
-711,933	584,409	-0,051	0,092
-710,918	211,823	-0,060	-0,069
-709,904	800,000	-0,043	-0,126
-708,889	-200,000	0,004	0,017
-707,875	137,715	-0,099	0,096
-706,860	-68,069	0,059	0,017
-705,845	-148,420	0,152	0,009
-704,831	-200,000	0,027	0,110
-703,816	-57,521	0,036	-0,012
-702,802	800,000	-0,015	-0,043
-701,787	43,478	-0,128	0,086
-700,772	503,266	-0,067	0,114
-699,758	-200,000	-0,001	0,030
-698,743	178,362	0,030	-0,032
-697,729	800,000	0,019	0,046
-696,714	-200,000	-0,022	-0,133
-695,699	71,086	0,007	0,005
-694,685	-161,312	0,045	0,002
-693,670	-97,356	-0,138	-0,026
-692,656	52,440	0,077	-0,054
-691,641	262,203	-0,044	-0,056
-690,627	-141,655	0,072	0,005
-689,612	-5,981	-0,080	0,040
-688,597	8,596	-0,041	-0,023
-687,583	-187,592	-0,166	0,002
-686,568	-147,508	0,011	-0,001
-685,554	-50,665	0,116	-0,040
-684,539	540,697	0,092	-0,162
-683,524	779,665	-0,045	0,091
-682,510	-200,000	-0,012	0,048
-681,495	-52,157	-0,147	0,050
-680,481	515,161	-0,101	-0,174
-679,466	-45,489	-0,155	-0,056
-678,451	-23,585	-0,165	-0,072
-677,437	-200,000	0,045	-0,150
-676,422	17,127	-0,021	0,012
-675,408	333,099	-0,074	-0,105
-674,393	-99,021	-0,166	0,031
-673,378	-200,000	0,004	0,064
-672,364	-43,266	-0,039	-0,015
-671,349	81,078	0,105	-0,084
-670,335	-200,000	-0,008	-0,049
-669,320	60,980	-0,043	0,031
-668,305	800,000	-0,067	0,151
-667,291	-72,751	0,016	-0,004
-666,276	-200,000	0,014	-0,078
-665,262	663,811	-0,069	-0,131
-664,247	-200,000	0,012	-0,077
-663,232	-200,000	0,027	-0,115
-662,218	-200,000	-0,013	0,147
-661,203	78,922	0,062	-0,049
-660,189	-82,068	-0,101	-0,024
-659,174	-200,000	-0,009	-0,145
-658,159	65,916	-0,078	-0,058
-657,145	-200,000	0,016	-0,095
-656,130	88,276	0,077	0,063
-655,116	-200,000	-0,006	-0,037
-654,101	800,000	-0,055	0,124
-653,086	-154,377	-0,153	0,007
-652,072	772,388	0,055	-0,111
-651,057	-66,304	0,035	-0,010
-650,043	268,040	-0,057	-0,074
-649,028	-20,325	0,124	-0,056
-648,014	-200,000	0,015	0,130
-646,999	-1,279	0,150	-0,078
-645,984	146,383	0,065	0,064
-644,970	31,002	-0,136	-0,086
-643,955	-200,000	-0,033	-0,108
-642,941	70,504	-0,088	-0,067
-641,926	135,825	-0,082	0,078
-640,911	800,000	-0,016	-0,041
-639,897	111,083	0,058	-0,051
-638,882	-130,127	-0,077	-0,008
-637,868	30,566	-0,092	-0,058
-636,853	800,000	0,023	-0,064
-635,838	330,715	-0,097	-0,137
-634,824	-111,091	-0,177	0,026
-633,809	246,117	0,082	0,102
-632,795	240,638	0,015	-0,019
-631,780	-90,584	-0,106	-0,022
-630,765	85,422	-0,077	0,062
-629,751	298,873	-0,047	0,064
-628,736	-200,000	0,007	0,106
-627,722	212,985	-0,010	0,012
-626,707	-84,366	0,058	0,013
-625,692	87,860	0,050	0,041
-624,678	-74,743	0,068	0,018
-623,663	-200,000	-0,016	0,052
-622,649	800,000	0,029	0,062
-621,634	800,000	-0,023	-0,049
-620,619	20,886	-0,056	0,033
-619,605	-105,187	0,090	0,015
-618,590	417,286	-0,044	0,069
-617,576	31,054	-0,080	0,050
-616,561	130,503	0,101	0,095
-615,546	-10,184	-0,060	-0,029
-614,532	-200,000	-0,009	-0,040
-613,517	-200,000	-0,001	0,003
-612,503	43,185	-0,132	-0,088
-611,488	-163,923	0,121	0,004
-610,474	50,033	0,019	-0,013
-609,459	800,000	0,042	-0,122
-608,444	-2,530	-0,041	-0,021
-607,430	800,000	-0,020	-0,064
-606,415	9,142	-0,076	0,042
-605,401	82,872	0,055	-0,044
-604,386	-181,190	-0,050	0,001
-603,371	-21,572	-0,087	-0,039
-602,357	800,000	0,064	-0,139
-601,342	27,991	-0,121	-0,075
-600,328	50,369	0,026	-0,018
-599,313	445,908	-0,039	-0,063
-598,298	361,845	-0,151	-0,223
-597,284	-48,914	0,081	0,028
-596,269	-109,011	0,077	-0,012
-595,255	236,364	-0,080	-0,098
-594,240	199,171	-0,043	0,048
-593,225	615,230	-0,016	-0,029
-592,211	-200,000	-0,012	-0,174
-591,196	145,934	0,092	0,090
-590,182	-109,649	-0,205	-0,031
-589,167	782,816	-0,018	0,036
-588,152	245,644	-0,017	-0,021
-587,138	-200,000	0,001	-0,105
-586,123	137,151	-0,109	-0,104
-585,109	569,343	0,015	-0,027
-584,094	800,000	0,039	-0,121
-583,079	112,301	0,043	-0,038
-582,065	73,137	0,070	0,054
-581,050	-28,425	0,034	-0,015
-580,036	-90,900	-0,128	0,027
-579,021	84,197	-0,092	-0,074
-578,006	-158,779	-0,099	0,004
-576,992	800,000	-0,031	-0,068
-575,977	-103,927	-0,079	0,013
-574,963	120,826	0,078	0,071
-573,948	-200,000	0,013	0,102
-572,934	-200,000	-0,011	0,165
-571,919	-85,280	0,115	-0,026
-570,904	-200,000	-0,043	-0,181
-569,890	800,000	-0,030	0,067
-568,875	-53,083	-0,124	0,042
-567,861	-64,457	-0,075	0,022
-566,846	800,000	-0,051	-0,111
-565,831	-200,000	0,020	0,076
-564,817	109,713	-0,014	-0,012
-563,802	336,694	-0,051	-0,073
-562,788	800,000	-0,018	-0,052
-561,773	-124,512	-0,025	0,003
-560,758	65,590	0,063	0,047
-559,744	28,938	0,093	0,058
-558,729	725,374	0,036	0,071
-557,715	-130,661	-0,164	0,016
-556,700	44,709	-0,096	-0,065
-555,685	-200,000	0,015	0,087
-554,671	80,614	0,078	-0,061
-553,656	332,091	0,054	0,076
-552,642	281,425	-0,063	-0,083
-551,627	563,874	-0,052	-0,093
-550,612	-99,264	0,091	0,017
-549,598	-111,378	-0,035	-0,005
-548,583	131,539	-0,062	-0,058
-547,569	-18,062	0,041	-0,019
-546,554	-200,000	0,019	0,075
-545,539	10,412	0,084	0,047
-544,525	-9,022	-0,139	-0,068
-543,510	286,368	0,067	-0,089
-542,496	604,934	0,051	-0,093
-541,481	-200,000	-0,006	-0,056
-540,466	74,587	-0,024	-0,019
-539,452	-138,946	0,138	-0,011
-538,437	344,098	0,091	-0,131
-537,423	-200,000	-0,052	-0,169
-536,408	54,845	0,054	0,038
-535,393	127,320	-0,058	0,054
-534,379	558,994	-0,024	-0,042
-533,364	-55,188	0,013	-0,004
-532,350	170,507	0,081	0,085
-531,335	378,574	-0,030	-0,046
-530,321	-200,000	-0,001	-0,102
-529,306	-153,010	-0,110	0,006
-528,291	213,537	0,070	-0,082
-527,277	800,000	-0,071	-0,185
-526,262	-200,000	-0,008	-0,146
-525,248	-200,000	-0,003	0,077
-524,233	-200,000	-0,032	0,195
-523,218	56,886	-0,062	0,044
-522,204	54,228	-0,076	0,053
-521,189	-184,874	-0,063	0,001
-520,175	282,218	-0,097	-0,128
-519,160	800,000	0,061	0,184
-518,145	316,157	-0,044	0,061
-517,131	66,926	0,102	0,076
-516,116	244,446	-0,091	0,112
-515,102	-38,087	0,011	-0,004
-514,087	-200,000	-0,009	-0,101
-513,072	-200,000	0,017	-0,083
-512,058	-200,000	0,003	-0,233
-511,043	-200,000	-0,040	0,154
-510,029	800,000	0,056	-0,127
-509,014	369,192	0,052	-0,077
-507,999	69,599	-0,048	0,036
-506,985	800,000	-0,043	0,132
-505,970	127,330	-0,041	-0,038
-504,956	86,558	-0,110	0,089
-503,941	-84,915	-0,053	-0,012
-502,926	65,432	0,105	-0,078
-501,912	-166,090	0,052	0,002
-500,897	800,000	-0,024	0,068
-499,883	-200,000	0,027	-0,134
-498,868	21,670	-0,108	-0,064
-497,853	-51,018	-0,063	-0,021
-496,839	-200,000	0,016	0,087
-495,824	-44,056	0,202	-0,074
-494,810	72,868	-0,092	-0,070
-493,795	-200,000	0,027	0,140
-492,781	129,933	-0,111	0,104
-491,766	800,000	0,017	-0,034
-490,751	630,402	-0,064	0,118
-489,737	-136,262	-0,112	-0,009
-488,722	58,510	0,065	0,046
-487,708	164,668	0,102	0,105
-486,693	-200,000	0,023	0,085
-485,678	-109,690	-0,091	-0,014
-484,664	800,000	-0,033	-0,080
-483,649	-200,000	0,023	0,083
-482,635	-11,052	-0,020	0,010
-481,620	800,000	-0,037	0,091
-480,605	45,463	-0,175	0,118
-479,591	113,016	0,089	0,079
-478,576	796,115	-0,032	-0,064
-477,562	-200,000	-0,009	-0,070
-476,547	-200,000	0,012	-0,069
-475,532	-69,361	0,050	0,014
-474,518	48,415	0,035	-0,024
-473,503	-118,533	0,170	0,022
-472,489	-65,423	-0,095	-0,028
-471,474	-200,000	-0,039	-0,128
-470,459	237,326	0,061	0,074
-469,445	800,000	0,018	-0,046
-468,430	-14,038	-0,079	-0,037
-467,416	-200,000	-0,007	-0,103
-466,401	515,728	0,060	0,103
-465,386	-200,000	-0,001	0,046
-464,372	800,000	0,047	0,106
-463,357	800,000	-0,033	-0,075
-462,343	425,379	-0,027	-0,043
-461,328	527,293	0,039	0,068
-460,313	131,659	-0,018	0,016
-459,299	-40,038	0,129	-0,049
-458,284	303,838	0,084	-0,114
-457,270	-200,000	-0,019	-0,078
-456,255	-181,613	-0,144	-0,002
-455,241	-39,466	-0,143	-0,054
-454,226	-16,249	0,112	0,052
-453,211	-55,268	-0,147	-0,048
-452,197	-47,097	0,111	-0,039
-451,182	21,820	0,060	-0,035
-450,168	-147,597	-0,107	0,006
-449,153	800,000	-0,008	0,018
-448,138	628,130	0,031	-0,057
-447,124	-2,157	0,144	-0,073
-446,109	99,326	-0,076	-0,064
-445,095	-200,000	0,031	0,167
-444,080	27,838	0,067	0,041
-443,065	800,000	-0,046	0,135
-442,051	-200,000	0,006	0,037
-441,036	-200,000	-0,006	-0,033
-440,022	-9,545	0,088	0,043
-439,007	6,292	-0,001	-0,001
-437,992	-11,066	0,154	0,074
-436,978	-7,223	-0,178	0,088
-435,963	29,022	-0,003	-0,002
-434,949	-200,000	-0,009	0,089
-433,934	-65,692	0,081	0,024
-432,919	-75,870	-0,050	0,013
-431,905	79,935	-0,087	-0,068
-430,890	109,765	0,060	0,052
-429,876	-9,982	0,099	-0,048
-428,861	164,104	0,091	-0,094
-427,846	501,640	-0,067	0,112
-426,832	-200,000	-0,006	-0,128
-425,817	-200,000	0,011	-0,088
-424,803	-146,915	-0,145	0,009
-423,788	773,631	-0,026	-0,052
-422,773	-200,000	-0,050	0,207
-421,759	-200,000	0,002	-0,054
-420,744	-42,666	-0,064	-0,024
-419,730	81,758	0,126	0,099
-418,715	-33,579	-0,093	0,037
-417,701	-61,320	0,148	-0,045
-416,686	-69,837	0,022	-0,006
-415,671	800,000	0,023	0,051
-414,657	-200,000	0,002	0,205
-413,642	729,046	0,074	0,144
-412,628	446,591	-0,008	0,013
-411,613	-21,336	-0,101	0,045
-410,598	96,675	-0,077	0,064
-409,584	-37,574	0,107	-0,041
-408,569	-83,431	0,103	0,024
-407,555	152,385	-0,045	-0,045
-406,540	88,146	-0,101	0,082
-405,525	219,850	0,039	0,045
-404,511	-200,000	0,024	-0,138
-403,496	-108,398	0,119	0,018
-402,482	-38,206	-0,040	0,015
-401,467	122,400	-0,067	-0,061
-400,452	-14,808	0,118	-0,055
-399,438	317,681	0,083	-0,115
-398,423	-108,328	-0,107	-0,017
-397,409	161,152	-0,058	-0,059
-396,394	-200,000	0,007	0,096
-395,379	260,150	0,011	0,014
-394,365	499,325	-0,018	0,031
-393,350	474,863	0,124	0,205
-392,336	89,821	-0,113	0,092
-391,321	-93,706	-0,033	-0,007
-390,306	800,000	0,020	-0,053
-389,292	-149,392	-0,132	-0,007
-388,277	758,178	0,032	-0,064
-387,263	466,034	-0,048	-0,078
-386,248	-200,000	-0,003	-0,012
-385,233	222,700	0,057	0,067
-384,219	272,678	0,078	-0,101
-383,204	800,000	-0,062	-0,142
-382,190	93,634	0,033	0,027
-381,175	210,165	-0,099	-0,114
-380,160	-200,000	0,022	-0,131
-379,146	367,601	-0,020	-0,030
-378,131	-200,000	-0,017	-0,086
-377,117	800,000	-0,033	0,085
-376,102	92,052	-0,054	-0,045
-375,088	76,596	-0,022	-0,017
-374,073	572,151	0,018	0,032
-373,058	-126,325	0,146	-0,016
-372,044	455,007	-0,035	0,057
-371,029	128,610	-0,016	-0,015
-370,015	-200,000	0,041	0,189
-369,000	513,804	-0,052	-0,088
-367,985	592,913	0,007	-0,012
-366,971	-200,000	-0,002	-0,122
-365,956	-46,066	0,197	0,070
-364,942	36,827	0,077	0,049
-363,927	-132,901	0,177	0,016
-362,912	238,721	0,083	0,100
-361,898	92,070	-0,049	0,040
-360,883	704,738	0,052	-0,100
-359,869	-97,689	-0,102	0,019
-358,854	131,810	-0,082	-0,077
-357,839	-130,540	0,081	-0,008
-356,825	-112,271	-0,045	0,006
-355,810	-69,462	0,034	-0,009
-354,796	-200,000	0,024	0,140
-353,781	-200,000	-0,030	-0,194
-352,766	323,210	-0,156	-0,217
-351,752	34,235	-0,153	-0,096
-350,737	-200,000	0,020	-0,085
-349,723	-68,953	0,179	0,050
-348,708	-47,987	0,119	0,042
-347,693	-93,743	-0,158	-0,031
-346,679	153,622	0,078	-0,077
-345,664	-53,743	0,030	-0,010
-344,650	-139,703	0,204	0,016
-343,635	-105,114	0,091	0,015
-342,620	381,062	0,068	0,102
-341,606	800,000	-0,015	0,039
-340,591	-20,774	-0,057	0,025
-339,577	-153,494	0,156	-0,008
-338,562	493,641	-0,054	-0,091
-337,548	145,442	0,102	0,099
-336,533	637,074	-0,004	0,008
-335,518	-200,000	-0,008	-0,136
-334,504	255,411	-0,145	0,181
-333,489	131,499	0,099	0,092
-332,475	-72,671	0,094	0,025
-331,460	-200,000	-0,020	-0,099
-330,445	21,676	-0,132	-0,078
-329,431	84,180	0,119	-0,095
-328,416	51,313	0,127	0,088
-327,402	800,000	0,061	-0,157
-326,387	-129,149	-0,057	-0,006
-325,372	65,408	-0,020	-0,014
-324,358	401,493	0,099	-0,152
-323,343	-126,453	-0,076	-0,008
-322,329	112,515	0,100	0,088
-321,314	270,986	-0,028	0,036
-320,299	-200,000	-0,000	0,125
-319,285	68,606	-0,029	-0,022
-318,270	357,048	-0,057	-0,083
-317,256	59,222	0,122	-0,087
-316,241	-200,000	0,004	-0,034
-315,226	-200,000	-0,013	-0,068
-314,212	538,731	0,064	0,111
-313,197	-200,000	-0,013	0,204
-312,183	-200,000	0,004	0,106
-311,168	-24,516	0,050	-0,021
-310,153	-90,767	-0,095	0,020
-309,139	-64,187	0,012	-0,003
-308,124	-82,848	-0,122	0,028
-307,110	-150,518	-0,057	0,003
-306,095	-20,675	0,150	0,066
-305,080	238,227	-0,065	0,078
-304,066	690,009	0,035	-0,067
-303,051	-200,000	-0,005	-0,061
-302,037	228,269	-0,052	-0,061
-301,022	-32,615	0,067	0,027
-300,008	800,000	-0,040	-0,109
-298,993	264,059	0,039	-0,050
-297,978	32,170	-0,026	-0,016
-296,964	-134,712	-0,136	-0,012
-295,949	-200,000	-0,001	-0,060
-294,935	449,461	0,033	-0,053
-293,920	-200,000	-0,011	0,042
-292,905	800,000	-0,043	0,128
-291,891	-200,000	-0,010	0,149
-290,876	-116,025	-0,091	-0,012
-289,862	-35,171	-0,040	-0,016
-288,847	9,512	0,091	0,050
-287,832	-200,000	0,014	0,076
-286,818	130,435	-0,066	-0,061
-285,803	-2,961	0,022	0,011
-284,789	-200,000	-0,024	0,169
-283,774	107,772	-0,061	0,053
-282,759	-200,000	0,008	0,121
-281,745	77,806	0,010	-0,008
-280,730	243,114	0,085	-0,103
-279,716	73,841	-0,032	0,024
-278,701	800,000	0,053	0,156
-277,686	-45,852	-0,087	0,031
-276,672	18,221	0,097	0,056
-275,657	115,347	0,057	-0,051
-274,643	-200,000	-0,024	-0,086
-273,628	415,519	0,037	-0,057
-272,613	-78,261	0,067	-0,016
-271,599	30,516	0,083	0,051
-270,584	-200,000	-0,009	0,032
-269,570	-200,000	0,019	-0,119
-268,555	800,000	0,041	0,100
-267,540	-200,000	0,014	0,176
-266,526	-91,574	0,117	-0,024
-265,511	800,000	-0,010	0,023
-264,497	76,569	0,057	0,044
-263,482	16,048	0,126	-0,071
-262,467	-200,000	-0,032	0,108
-261,453	-102,835	-0,117	0,020
-260,438	242,618	-0,128	-0,155
-259,424	39,296	0,185	-0,119
-258,409	156,183	-0,028	0,028
-257,395	-200,000	-0,010	0,089
-256,380	-200,000	0,011	0,067
-255,365	-13,996	-0,036	-0,017
-254,351	24,454	0,080	0,048
-253,336	352,051	-0,048	0,068
-252,322	-52,287	-0,041	0,014
-251,307	-200,000	-0,011	0,092
-250,292	245,922	-0,134	0,163
-249,278	427,287	0,018	0,028
-248,263	572,001	0,010	0,017
-247,249	210,326	0,084	-0,095
-246,234	-200,000	0,047	0,253
-245,219	-102,494	0,088	0,015
-244,205	-200,000	0,028	0,124
-243,190	-200,000	0,007	-0,052
-242,176	394,444	0,045	-0,068
-241,161	480,369	-0,018	0,030
-240,146	155,249	-0,039	-0,039
-239,132	89,175	-0,023	0,019
-238,117	669,117	0,077	-0,144
-237,103	800,000	-0,058	-0,154
-236,088	575,198	0,042	-0,075
-235,073	-200,000	0,015	-0,091
-234,059	-200,000	-0,016	-0,068
-233,044	-158,238	-0,085	0,004
-232,030	-40,131	-0,112	-0,042
-231,015	451,305	0,025	-0,041
-230,000	1,223	0,061	0,032
-228,986	598,784	0,069	0,123
-227,971	51,893	-0,070	0,048
-226,957	101,368	0,036	-0,030
-225,942	-134,460	-0,056	-0,005
-224,927	-200,000	0,042	0,177
-223,913	-200,000	0,004	0,051
-222,898	-114,193	-0,158	-0,022
-221,884	114,343	0,052	0,046
-220,869	675,125	-0,038	0,072
-219,855	800,000	-0,018	0,045
-218,840	-200,000	-0,007	0,228
-217,825	-200,000	0,013	-0,101
-216,811	77,944	-0,109	-0,084
-215,796	800,000	0,032	-0,070
-214,782	70,537	0,046	-0,034
-213,767	143,986	-0,064	0,062
-212,752	-89,253	-0,071	-0,015
-211,738	-4,775	0,072	-0,036
-210,723	425,469	0,015	-0,024
-209,709	88,436	-0,086	-0,069
-208,694	-45,896	-0,148	-0,052
-207,679	-200,000	-0,013	0,086
-206,665	102,078	0,091	0,077
-205,650	800,000	0,065	0,165
-204,636	-49,625	0,073	0,025
-203,621	-200,000	0,016	-0,116
-202,606	-200,000	-0,006	0,077
-201,592	-200,000	-0,010	-0,169
-200,577	0,725	0,068	-0,035
-199,563	-106,189	-0,145	-0,023
-198,548	-135,983	0,128	-0,011
-197,533	97,630	-0,120	0,100
-196,519	35,435	0,127	0,081
-195,504	157,165	0,117	0,117
-194,490	-65,704	-0,097	-0,028
-193,475	-170,152	0,059	0,001
-192,460	-33,469	0,100	-0,040
-191,446	-99,102	-0,062	-0,011
-190,431	-119,989	0,076	-0,009
-189,417	167,550	-0,120	0,123
-188,402	-18,453	-0,011	0,005
-187,387	429,220	-0,021	-0,032
-186,373	-30,650	0,108	0,044
-185,358	800,000	-0,028	0,059
-184,344	83,793	0,100	0,079
-183,329	394,761	0,053	-0,080
-182,315	-184,427	0,098	-0,001
-181,300	75,652	0,023	0,017
-180,285	800,000	-0,014	-0,032
-179,271	-200,000	-0,018	-0,072
-178,256	767,511	0,049	-0,096
-177,242	-40,765	0,079	0,029
-176,227	-200,000	0,009	0,097
-175,212	-165,041	0,118	-0,004
-174,198	800,000	-0,031	-0,075
-173,183	252,053	0,123	0,151
-172,169	67,263	0,056	0,041
-171,154	-200,000	-0,004	-0,023
-170,139	800,000	-0,062	-0,163
-169,125	-200,000	0,046	0,219
-168,110	-58,341	-0,073	-0,023
-167,096	-200,000	0,020	0,124
-166,081	-181,441	-0,058	-0,001
-165,066	800,000	0,054	-0,110
-164,052	100,682	-0,047	-0,039
-163,037	-200,000	-0,004	-0,032
-162,023	-200,000	0,011	0,051
-161,008	-200,000	-0,018	0,148
-159,993	-200,000	-0,009	0,031
-158,979	-139,458	-0,080	-0,006
-157,964	800,000	0,059	-0,121
-156,950	323,677	-0,047	0,064
-155,935	35,086	0,075	0,047
-154,920	423,885	0,054	-0,084
-153,906	218,231	0,062	-0,072
-152,891	67,917	-0,139	0,102
-151,877	207,431	-0,108	-0,122
-150,862	-200,000	-0,011	-0,067
-149,847	-137,326	-0,057	-0,005
-148,833	681,100	0,043	0,082
-147,818	40,567	0,059	0,038
-146,804	216,608	-0,028	0,032
-145,789	187,918	-0,028	0,030
-144,775	-20,638	-0,074	-0,033
-143,760	472,978	0,074	-0,121
-142,745	52,971	0,059	-0,041
-141,731	98,895	-0,089	0,074
-140,716	-126,250	0,147	-0,016
-139,702	361,238	-0,094	0,136
-138,687	241,401	0,069	-0,084
-137,672	-40,332	0,104	0,039
-136,658	-8,627	0,013	-0,006
-135,643	104,017	0,086	-0,073
-134,629	34,764	-0,040	0,025
-133,614	112,057	0,030	0,026
-132,599	-200,000	0,000	0,046
-131,585	72,885	0,022	-0,016
-130,570	2,472	-0,072	0,037
-129,556	170,087	-0,094	0,096
-128,541	22,423	-0,111	-0,065
-127,526	-121,947	0,138	0,016
-126,512	183,364	0,060	-0,064
-125,497	31,896	-0,079	0,049
-124,483	800,000	0,052	-0,137
-123,468	800,000	0,049	-0,133
-122,453	495,400	-0,023	-0,039
-121,439	-200,000	0,006	-0,069
-120,424	-200,000	0,007	-0,029
