DTS Sentinel unit serial number:	SN410029Multiplexer serial number:	ORYXHardware model number:	OX2-SRSoftware version number:	ORYX F/W v4,00 Oryx Data Collector v3.7.2.0data status	okinstallation	B6 Nyhavnadifferential loss correction	single-endedforward channel	channel 2reverse channel	N/Adate	2023/12/08time	16:20:08forward acquisition time	300,00reverse acquisition time	0,00gamma	499,1914k internal	0,3159k external	0,3159temperature offset calibration	1,0000default loss term (dB/km)	0,3820temperature slope calibration	1,0000multiplexer offset coefficient	1,0000multiplexer slope coefficient	1,0000fibre end	0,00T internal ref (°C)	15,11T ext. ref 1 (°C)	-1,46T ext. ref 2 (°C)	-1,48length (m)	temperature (°C)	Stokes	anti-Stokes-744,400	-88,140	-0,026	0,006
-743,385	-86,145	-0,220	0,050
-742,371	4,903	0,036	-0,019
-741,356	-67,596	-0,349	0,100
-740,342	455,844	0,060	0,098
-739,327	-90,756	-0,469	0,099
-738,312	510,654	0,066	0,114
-737,298	-44,977	-0,188	0,069
-736,283	241,716	0,165	0,204
-735,269	-170,326	-0,331	0,008
-734,254	155,527	0,059	0,060
-733,239	-141,688	-0,527	-0,038
-732,225	-56,130	0,159	-0,052
-731,210	230,282	0,038	0,046
-730,196	-176,572	0,139	0,003
-729,181	-77,639	-0,221	0,056
-728,167	800,000	-0,041	-0,124
-727,152	49,365	0,104	-0,072
-726,137	800,000	0,030	-0,081
-725,123	-93,955	-0,046	0,009
-724,108	-33,468	0,048	-0,019
-723,094	-200,000	-0,023	-0,129
-722,079	-109,541	-0,048	0,007
-721,064	-93,738	-0,015	-0,003
-720,050	792,404	-0,022	0,044
-719,035	-200,000	0,010	0,090
-718,021	800,000	-0,002	-0,005
-717,006	-175,927	-0,100	0,002
-715,991	395,382	-0,091	-0,140
-714,977	-129,247	0,130	-0,013
-713,962	-118,223	-0,148	-0,019
-712,948	-123,760	0,047	0,005
-711,933	-84,753	0,048	0,011
-710,918	-200,000	-0,044	-0,155
-709,904	260,513	0,040	0,051
-708,889	106,736	-0,042	0,037
-707,875	-11,305	-0,092	-0,045
-706,860	-200,000	-0,024	-0,199
-705,845	-141,987	0,212	0,015
-704,831	652,595	0,066	0,125
-703,816	273,755	0,096	-0,126
-702,802	464,571	-0,057	0,094
-701,787	-200,000	0,033	-0,132
-700,772	2,096	0,162	0,086
-699,758	-140,603	0,138	0,010
-698,743	-200,000	-0,005	0,098
-697,729	164,153	-0,031	-0,032
-696,714	-123,894	-0,135	0,016
-695,699	-200,000	-0,004	-0,083
-694,685	-165,878	-0,057	-0,002
-693,670	-139,124	-0,030	0,002
-692,656	-200,000	0,020	-0,166
-691,641	-32,343	0,127	-0,052
-690,627	192,270	0,163	0,181
-689,612	800,000	-0,019	0,056
-688,597	269,023	0,036	-0,047
-687,583	271,417	0,029	-0,037
-686,568	378,243	-0,031	-0,047
-685,554	-0,089	-0,070	0,037
-684,539	183,840	-0,105	0,114
-683,524	800,000	-0,023	-0,064
-682,510	-200,000	-0,011	0,041
-681,495	301,616	-0,008	0,010
-680,481	-133,292	-0,114	-0,010
-679,466	-200,000	-0,027	-0,119
-678,451	168,490	-0,019	0,019
-677,437	-109,833	0,164	0,025
-676,422	16,743	0,045	-0,026
-675,408	800,000	-0,082	0,194
-674,393	-58,459	-0,134	-0,042
-673,378	-131,427	0,131	-0,013
-672,364	-134,260	-0,129	-0,011
-671,349	800,000	-0,029	0,082
-670,335	-29,213	0,090	-0,038
-669,320	176,523	-0,026	0,028
-668,305	156,000	0,142	0,144
-667,291	49,761	-0,094	0,065
-666,276	131,578	-0,011	0,011
-665,262	-2,333	-0,087	-0,045
-664,247	-49,234	-0,141	-0,049
-663,232	-199,910	0,088	0,000
-662,218	239,935	0,094	0,116
-661,203	-200,000	0,029	-0,123
-660,189	49,109	-0,110	0,076
-659,174	215,061	-0,047	-0,055
-658,159	800,000	-0,076	-0,157
-657,145	-88,027	-0,095	-0,021
-656,130	42,684	-0,071	-0,047
-655,116	159,700	0,029	0,030
-654,101	218,076	-0,072	0,084
-653,086	-2,385	-0,076	0,039
-652,072	109,398	-0,039	0,034
-651,057	88,571	-0,145	-0,118
-650,043	48,064	-0,125	-0,086
-649,028	-200,000	0,014	0,123
-648,014	-200,000	0,018	0,086
-646,999	-200,000	-0,023	-0,092
-645,984	190,977	-0,057	-0,063
-644,970	51,463	-0,060	-0,042
-643,955	-5,371	-0,088	-0,044
-642,941	48,929	0,089	0,061
-641,926	-9,422	0,046	0,023
-640,911	47,823	-0,047	0,032
-639,897	128,715	0,032	0,030
-638,882	86,221	0,063	0,051
-637,868	-151,603	-0,191	-0,010
-636,853	49,911	-0,145	-0,100
-635,838	-2,300	-0,104	-0,053
-634,824	27,128	-0,082	-0,050
-633,809	-200,000	-0,016	0,058
-632,795	-74,025	-0,048	-0,013
-631,780	-200,000	-0,005	0,085
-630,765	-200,000	0,007	0,051
-629,751	58,970	-0,046	0,033
-628,736	38,685	0,059	0,038
-627,722	592,110	-0,032	0,058
-626,707	-26,498	-0,115	0,049
-625,692	32,045	0,034	0,022
-624,678	111,997	-0,019	0,016
-623,663	-106,006	0,105	-0,017
-622,649	-200,000	-0,012	-0,115
-621,634	-53,118	0,080	0,027
-620,619	391,439	-0,025	-0,038
-619,605	101,428	0,196	0,167
-618,590	-8,507	0,092	-0,045
-617,576	261,570	0,084	-0,107
-616,561	-200,000	0,017	-0,104
-615,546	-200,000	-0,019	-0,094
-614,532	342,000	-0,101	-0,146
-613,517	-24,450	0,061	-0,026
-612,503	-126,552	-0,157	-0,017
-611,488	505,948	0,105	-0,179
-610,474	345,180	0,085	-0,123
-609,459	694,031	-0,040	0,077
-608,444	-16,314	-0,090	-0,042
-607,430	306,588	-0,013	0,017
-606,415	800,000	-0,045	-0,137
-605,401	-76,682	0,073	-0,018
-604,386	800,000	-0,060	0,131
-603,371	322,757	0,071	0,099
-602,357	-200,000	-0,002	-0,054
-601,342	-200,000	-0,049	-0,175
-600,328	800,000	-0,016	-0,046
-599,313	-88,137	0,034	0,007
-598,298	800,000	-0,064	-0,183
-597,284	311,032	0,069	-0,095
-596,269	581,578	-0,041	-0,074
-595,255	234,377	0,086	-0,104
-594,240	253,294	-0,052	-0,065
-593,225	-44,380	-0,062	0,023
-592,211	279,104	-0,073	-0,096
-591,196	139,477	0,050	-0,048
-590,182	-200,000	-0,018	0,059
-589,167	110,788	0,105	0,093
-588,152	800,000	0,017	0,053
-587,138	270,981	0,117	-0,151
-586,123	262,578	-0,096	-0,122
-585,109	-200,000	-0,012	-0,090
-584,094	568,030	-0,005	-0,009
-583,079	-8,099	0,059	0,029
-582,065	-200,000	-0,018	0,135
-581,050	80,889	-0,026	-0,020
-580,036	10,842	-0,067	-0,038
-579,021	622,143	0,034	-0,063
-578,006	-200,000	-0,003	0,053
-576,992	-200,000	-0,009	-0,062
-575,977	641,898	0,036	-0,067
-574,963	55,552	0,059	0,042
-573,948	201,953	-0,082	0,092
-572,934	-200,000	-0,011	-0,039
-571,919	-130,396	0,039	-0,004
-570,904	39,279	-0,123	-0,080
-569,890	800,000	0,054	-0,111
-568,875	481,782	0,057	0,096
-567,861	294,650	0,017	-0,023
-566,846	-158,874	-0,068	0,003
-565,831	-200,000	0,018	-0,095
-564,817	-19,838	0,041	-0,019
-563,802	-135,907	-0,020	-0,002
-562,788	-15,278	-0,059	0,028
-561,773	-200,000	0,005	-0,017
-560,758	-200,000	-0,032	0,159
-559,744	150,387	0,031	0,031
-558,729	-188,566	-0,125	-0,001
-557,715	-129,953	-0,145	0,014
-556,700	-200,000	-0,017	-0,092
-555,685	-200,000	-0,013	-0,163
-554,671	367,845	0,080	0,119
-553,656	21,346	0,111	-0,066
-552,642	653,507	0,056	0,106
-551,627	800,000	-0,021	0,056
-550,612	-200,000	0,013	-0,069
-549,598	51,899	-0,162	-0,112
-548,583	360,976	-0,060	-0,089
-547,569	-200,000	0,005	-0,025
-546,554	800,000	0,006	-0,017
-545,539	174,908	0,066	0,070
-544,525	-200,000	-0,013	0,156
-543,510	-40,026	-0,089	0,034
-542,496	28,429	-0,165	0,102
-541,481	-67,924	0,092	0,026
-540,466	-200,000	-0,022	0,091
-539,452	291,871	-0,064	-0,085
-538,437	148,813	0,032	-0,031
-537,423	-0,099	0,127	0,066
-536,408	223,108	0,069	-0,082
-535,393	190,789	0,078	-0,086
-534,379	-99,725	0,032	-0,006
-533,364	454,406	0,033	-0,053
-532,350	800,000	-0,024	-0,064
-531,335	13,413	0,106	0,060
-530,321	25,441	0,055	0,033
-529,306	-189,152	-0,062	0,001
-528,291	16,878	-0,066	0,038
-527,277	279,752	-0,036	0,047
-526,262	-200,000	-0,009	-0,102
-525,248	13,113	0,251	-0,141
-524,233	-200,000	-0,006	0,051
-523,218	135,640	0,026	0,025
-522,204	-80,015	-0,099	0,024
-521,189	-24,494	0,070	0,030
-520,175	800,000	0,045	-0,101
-519,160	-71,424	0,065	-0,018
-518,145	-13,960	0,188	-0,088
-517,131	204,366	0,016	0,019
-516,116	-200,000	0,010	-0,106
-515,102	-122,262	0,039	0,005
-514,087	-200,000	-0,050	0,000
-513,072	800,000	0,020	-0,048
-512,058	41,576	0,084	-0,056
-511,043	174,105	0,026	0,027
-510,029	-158,220	0,075	-0,003
-509,014	-18,838	-0,016	-0,007
-507,999	416,058	-0,090	0,140
-506,985	-200,000	0,017	-0,062
-505,970	295,255	-0,054	0,072
-504,956	-200,000	-0,024	0,091
-503,941	-200,000	0,005	0,044
-502,926	800,000	-0,009	0,028
-501,912	-200,000	-0,006	0,143
-500,897	48,967	0,121	-0,083
-499,883	-200,000	0,001	-0,020
-498,868	457,000	-0,064	-0,104
-497,853	-86,914	0,033	-0,007
-496,839	186,015	0,166	-0,181
-495,824	800,000	0,063	0,140
-494,810	495,319	0,079	0,133
-493,795	-200,000	0,052	-0,174
-492,781	-200,000	0,009	-0,059
-491,766	-68,304	-0,155	-0,044
-490,751	195,743	0,021	-0,023
-489,737	-116,474	-0,037	0,005
-488,722	-200,000	0,019	0,089
-487,708	-200,000	0,033	0,205
-486,693	210,941	-0,103	0,118
-485,678	100,730	0,126	-0,107
-484,664	-87,811	0,031	0,007
-483,649	74,267	-0,098	-0,075
-482,635	14,352	-0,053	-0,030
-481,620	73,452	0,153	0,117
-480,605	-200,000	-0,054	0,191
-479,591	701,444	-0,053	-0,103
-478,576	-3,781	0,018	-0,009
-477,562	-89,144	0,047	-0,010
-476,547	284,479	-0,043	-0,057
-475,532	800,000	0,029	0,076
-474,518	234,158	0,064	0,077
-473,503	-184,325	0,086	-0,001
-472,489	658,391	0,069	0,130
-471,474	-200,000	0,013	0,098
-470,459	36,861	-0,089	-0,057
-469,445	800,000	-0,031	0,069
-468,430	-200,000	-0,010	0,104
-467,416	76,528	0,067	-0,052
-466,401	-200,000	-0,019	-0,097
-465,386	259,994	0,050	0,064
-464,372	-200,000	0,007	-0,056
-463,357	800,000	-0,022	0,064
-462,343	-50,488	-0,146	-0,050
-461,328	84,362	-0,048	-0,038
-460,313	-200,000	-0,005	0,028
-459,299	-41,733	-0,027	0,010
-458,284	47,170	0,134	0,091
-457,270	-112,003	0,099	0,014
-456,255	800,000	-0,041	0,115
-455,241	31,183	-0,084	0,052
-454,226	-200,000	0,019	-0,109
-453,211	800,000	-0,032	0,066
-452,197	-200,000	-0,004	0,028
-451,182	202,131	0,110	0,123
-450,168	337,764	0,042	0,059
-449,153	-17,532	-0,015	0,007
-448,138	189,949	-0,081	-0,088
-447,124	-200,000	0,049	-0,202
-446,109	-150,679	0,048	-0,003
-445,095	-48,717	-0,073	-0,025
-444,080	15,151	0,016	0,009
-443,065	-76,250	0,036	0,009
-442,051	34,672	-0,086	0,055
-441,036	-200,000	0,029	-0,149
-440,022	590,706	-0,035	-0,063
-439,007	127,644	0,029	-0,027
-437,992	-200,000	0,100	-0,000
-436,978	-45,975	-0,043	-0,015
-435,963	800,000	0,023	0,048
-434,949	281,394	0,042	0,055
-433,934	-40,009	-0,125	0,047
-432,919	-38,489	-0,111	0,043
-431,905	-137,696	-0,056	0,005
-430,890	-125,230	0,010	0,001
-429,876	-21,948	-0,080	-0,035
-428,861	-36,526	0,062	0,024
-427,846	-200,000	0,004	0,138
-426,832	-200,000	-0,005	-0,070
-425,817	442,359	0,080	0,127
-424,803	351,896	-0,051	0,074
-423,788	-16,115	0,060	-0,028
-422,773	14,640	0,071	0,040
-421,759	-83,742	-0,147	-0,034
-420,744	-81,943	-0,067	-0,016
-419,730	-70,947	-0,048	-0,013
-418,715	59,163	-0,035	-0,025
-417,701	800,000	-0,049	0,115
-416,686	367,159	0,089	0,131
-415,671	800,000	0,044	0,122
-414,657	524,285	0,052	-0,089
-413,642	-11,523	-0,077	-0,037
-412,628	-11,575	-0,085	-0,040
-411,613	-67,769	-0,237	0,067
-410,598	219,695	0,018	0,021
-409,584	-81,965	0,035	-0,008
-408,569	-32,534	0,074	0,030
-407,555	321,525	-0,061	0,085
-406,540	-34,471	0,053	0,021
-405,525	109,068	-0,034	0,029
-404,511	320,877	0,086	-0,119
-403,496	383,380	-0,047	-0,071
-402,482	479,571	0,088	0,146
-401,467	-200,000	0,022	-0,110
-400,452	-112,659	-0,074	-0,011
-399,438	-200,000	-0,033	-0,124
-398,423	1,602	-0,124	0,065
-397,409	-200,000	0,001	0,079
-396,394	258,988	-0,041	0,051
-395,379	-56,170	-0,045	0,015
-394,365	-200,000	0,010	0,076
-393,350	217,246	0,033	-0,038
-392,336	-200,000	-0,002	0,160
-391,321	-200,000	-0,007	0,089
-390,306	-200,000	0,001	0,102
-389,292	800,000	0,013	0,039
-388,277	390,608	0,072	-0,109
-387,263	-109,124	-0,041	0,006
-386,248	800,000	-0,048	-0,114
-385,233	-1,325	0,185	0,095
-384,219	-133,797	0,055	0,005
-383,204	96,277	0,112	-0,093
-382,190	-98,369	-0,112	0,021
-381,175	285,314	-0,014	0,018
-380,160	-200,000	0,023	0,103
-379,146	406,760	0,005	0,008
-378,131	509,853	0,041	0,069
-377,117	-64,917	0,128	-0,037
-376,102	-200,000	-0,007	-0,112
-375,088	-52,541	0,062	-0,021
-374,073	326,870	0,020	0,028
-373,058	-100,985	-0,048	-0,008
-372,044	457,174	0,042	-0,068
-371,029	373,946	-0,016	-0,023
-370,015	-200,000	-0,013	0,075
-369,000	-28,611	0,022	-0,009
-367,985	189,864	-0,020	-0,022
-366,971	-46,252	-0,051	0,018
-365,956	159,980	0,023	-0,024
-364,942	-111,718	0,104	-0,015
-363,927	-153,659	-0,053	-0,003
-362,912	277,878	0,068	0,088
-361,898	-119,681	0,112	0,014
-360,883	3,072	0,050	0,026
-359,869	-8,056	-0,043	-0,021
-358,854	800,000	0,020	0,062
-357,839	137,930	-0,030	-0,028
-356,825	-200,000	-0,003	0,116
-355,810	-78,301	-0,134	0,033
-354,796	800,000	0,030	-0,073
-353,781	800,000	-0,040	-0,084
-352,766	68,316	0,110	-0,082
-351,752	-200,000	0,012	-0,086
-350,737	-38,260	-0,111	-0,042
-349,723	-128,688	0,019	-0,002
-348,708	532,066	0,054	0,093
-347,693	-200,000	0,024	-0,106
-346,679	-22,968	-0,058	-0,025
-345,664	800,000	0,036	-0,116
-344,650	-90,691	0,132	-0,027
-343,635	-65,446	-0,082	-0,024
-342,620	-193,522	0,212	0,001
-341,606	-200,000	-0,012	0,125
-340,591	-200,000	0,032	-0,140
-339,577	-104,818	-0,134	-0,022
-338,562	-200,000	-0,005	0,046
-337,548	239,968	-0,050	-0,060
-336,533	716,718	0,021	-0,041
-335,518	800,000	0,069	0,200
-334,504	-74,837	-0,058	0,015
-333,489	430,848	-0,031	0,049
-332,475	-111,723	-0,064	-0,009
-331,460	800,000	-0,032	-0,098
-330,445	146,076	0,092	0,090
-329,431	263,809	0,074	0,093
-328,416	167,215	0,069	-0,071
-327,402	-60,442	-0,067	0,020
-326,387	254,752	0,089	0,111
-325,372	-200,000	-0,034	-0,143
-324,358	372,773	-0,048	0,070
-323,343	734,816	-0,038	0,074
-322,329	116,247	0,048	0,043
-321,314	-93,900	0,070	0,014
-320,299	-178,796	-0,173	0,003
-319,285	800,000	0,037	0,078
-318,270	-59,192	-0,036	-0,011
-317,256	0,901	-0,143	-0,074
-316,241	-62,653	0,074	0,022
-315,226	-200,000	-0,017	0,065
-314,212	-200,000	0,020	0,163
-313,197	17,220	-0,094	0,054
-312,183	164,043	-0,044	-0,045
-311,168	-9,826	-0,147	-0,071
-310,153	-34,054	0,067	-0,027
-309,139	518,830	-0,033	0,057
-308,124	-55,840	0,118	-0,038
-307,110	800,000	0,068	0,139
-306,095	67,950	0,062	-0,046
-305,080	-91,336	-0,136	-0,028
-304,066	222,153	-0,056	0,066
-303,051	189,488	-0,101	-0,110
-302,037	0,905	0,038	0,020
-301,022	-200,000	-0,008	0,074
-300,008	-27,060	-0,047	0,020
-298,993	-200,000	0,027	-0,114
-297,978	782,328	0,031	-0,061
-296,964	377,709	-0,108	-0,160
-295,949	52,702	0,025	-0,018
-294,935	362,590	0,025	0,036
-293,920	-139,027	0,117	-0,009
-292,905	-61,683	-0,039	-0,012
-291,891	-200,000	-0,010	0,061
-290,876	800,000	-0,048	0,099
-289,862	227,279	-0,041	-0,048
-288,847	-93,589	0,054	-0,011
-287,832	-200,000	-0,035	-0,122
-286,818	269,829	-0,088	-0,113
-285,803	-42,204	0,081	0,030
-284,789	159,139	0,063	0,064
-283,774	65,000	0,059	0,043
-282,759	13,010	-0,034	0,019
-281,745	800,000	-0,047	-0,095
-280,730	240,919	0,013	-0,016
-279,716	450,128	-0,054	0,087
-278,701	-104,719	0,180	0,030
-277,686	800,000	0,012	-0,032
-276,672	-200,000	0,027	0,115
-275,657	800,000	0,018	0,049
-274,643	-200,000	0,000	-0,012
-273,628	-200,000	-0,009	-0,032
-272,613	800,000	-0,061	-0,126
-271,599	-200,000	-0,023	-0,111
-270,584	164,688	0,021	0,022
-269,570	302,451	0,144	0,193
-268,555	-36,512	0,061	-0,024
-267,540	208,748	-0,106	0,120
-266,526	96,302	-0,045	0,038
-265,511	800,000	-0,015	-0,039
-264,497	94,645	0,074	-0,061
-263,482	-151,071	0,028	0,001
-262,467	234,485	0,027	-0,032
-261,453	565,561	-0,012	0,021
-260,438	800,000	-0,009	0,022
-259,424	27,938	-0,029	0,018
-258,409	-200,000	-0,009	0,049
-257,395	-178,805	0,061	-0,001
-256,380	772,639	0,035	0,070
-255,365	-200,000	0,015	0,125
-254,351	-200,000	0,023	-0,079
-253,336	431,019	-0,011	0,017
-252,322	436,520	-0,070	-0,110
-251,307	-200,000	-0,029	0,135
-250,292	-154,321	0,102	-0,005
-249,278	70,768	0,048	-0,036
-248,263	786,250	0,039	-0,078
-247,249	-200,000	-0,018	-0,075
-246,234	-60,869	-0,134	0,041
-245,219	800,000	0,031	-0,097
-244,205	422,069	0,082	-0,128
-243,190	569,207	-0,003	-0,005
-242,176	69,233	0,110	0,082
-241,161	106,204	-0,067	-0,057
-240,146	-200,000	0,015	0,162
-239,132	13,647	0,064	0,036
-238,117	-200,000	-0,009	-0,178
-237,103	-165,566	-0,183	-0,006
-236,088	-200,000	-0,008	-0,095
-235,073	92,219	0,076	0,062
-234,059	41,339	0,021	-0,013
-233,044	800,000	0,012	0,028
-232,030	73,372	-0,091	-0,068
-231,015	348,622	-0,062	-0,089
-230,000	121,108	-0,023	0,021
-228,986	133,331	0,129	0,120
-227,971	14,407	0,139	-0,078
-226,957	-153,212	-0,165	-0,008
-225,942	800,000	-0,025	0,057
-224,927	359,006	-0,022	-0,031
-223,913	412,964	-0,040	0,062
-222,898	136,486	-0,042	-0,040
-221,884	55,889	-0,063	0,044
-220,869	-61,050	0,067	-0,020
-219,855	-116,699	-0,029	0,004
-218,840	96,464	0,062	0,052
-217,825	-67,257	-0,117	0,033
-216,811	-200,000	0,001	-0,104
-215,796	-200,000	-0,007	-0,105
-214,782	-200,000	-0,003	-0,086
-213,767	-134,247	0,056	-0,005
-212,752	-200,000	0,008	-0,058
-211,738	18,848	-0,048	0,028
-210,723	90,542	-0,047	-0,038
-209,709	800,000	-0,038	0,104
-208,694	800,000	-0,050	0,119
-207,679	25,399	-0,043	0,026
-206,665	342,017	0,052	0,074
-205,650	-118,134	0,068	0,009
-204,636	-121,371	0,117	-0,014
-203,621	-200,000	-0,013	-0,061
-202,606	282,496	-0,045	-0,059
-201,592	-12,214	0,036	-0,017
-200,577	523,002	0,043	0,073
-199,563	406,987	-0,035	-0,054
-198,548	-64,342	0,088	0,026
-197,533	-200,000	-0,011	-0,046
-196,519	229,950	-0,067	0,079
-195,504	20,549	0,072	-0,042
-194,490	-200,000	0,020	-0,081
-193,475	-200,000	0,006	-0,031
-192,460	-51,165	0,040	0,014
-191,446	202,935	0,063	0,070
-190,431	240,706	-0,057	0,068
-189,417	-154,367	-0,022	0,001
-188,402	800,000	0,045	0,133
-187,387	-31,172	-0,053	-0,022
-186,373	-200,000	-0,033	-0,110
-185,358	-200,000	0,015	0,147
-184,344	-200,000	0,006	0,036
-183,329	-87,106	-0,094	0,020
-182,315	800,000	0,048	-0,132
-181,300	597,532	0,064	-0,116
-180,285	800,000	-0,018	-0,057
-179,271	-200,000	-0,012	-0,143
-178,256	159,638	-0,037	0,037
-177,242	19,944	0,056	-0,033
-176,227	800,000	-0,019	0,052
-175,212	-0,647	-0,073	0,037
-174,198	800,000	-0,050	0,148
-173,183	800,000	-0,026	-0,061
-172,169	-200,000	-0,018	-0,109
-171,154	-200,000	-0,011	0,041
-170,139	-26,013	-0,141	0,060
-169,125	31,129	-0,043	-0,027
-168,110	389,615	-0,012	0,018
-167,096	-200,000	-0,019	-0,150
-166,081	156,392	-0,056	0,056
-165,066	45,357	-0,068	0,045
-164,052	-13,114	-0,094	-0,044
-163,037	160,227	-0,046	0,046
-162,023	98,456	-0,037	0,031
-161,008	11,079	-0,068	0,037
-159,993	-161,032	0,082	-0,003
-158,979	587,265	-0,012	-0,022
-157,964	292,264	-0,063	-0,082
-156,950	-200,000	0,025	0,190
-155,935	-200,000	0,025	0,142
-154,920	-138,420	0,096	-0,007
-153,906	-27,753	0,059	0,025
-152,891	-200,000	0,007	0,068
-151,877	-200,000	0,026	-0,142
-150,862	-78,300	-0,066	0,016
-149,847	156,124	-0,061	0,061
-148,833	101,049	0,075	-0,062
-147,818	-190,554	-0,170	0,001
-146,804	-200,000	0,032	-0,135
-145,789	800,000	0,037	0,083
-144,775	253,599	-0,046	-0,057
-143,760	50,689	0,103	-0,070
-142,745	-200,000	-0,018	-0,073
-141,731	-62,659	-0,078	-0,023
-140,716	128,175	0,045	-0,042
-139,702	-200,000	0,009	0,057
-138,687	-21,846	0,083	0,036
-137,672	80,500	-0,038	-0,029
-136,658	122,200	-0,121	-0,109
-135,643	-200,000	-0,007	-0,037
-134,629	-91,245	-0,107	0,022
-133,614	800,000	0,054	-0,122
-132,599	186,721	-0,049	0,053
-131,585	-93,700	-0,065	-0,013
-130,570	18,231	-0,045	-0,026
-129,556	141,526	-0,043	0,041
-128,541	800,000	0,018	-0,037
-127,526	-117,810	-0,022	-0,003
-126,512	800,000	-0,055	0,121
-125,497	-129,229	-0,035	-0,003
-124,483	122,048	-0,044	-0,039
-123,468	117,090	0,042	0,037
-122,453	-92,494	0,047	-0,009
-121,439	-200,000	-0,010	0,057
-120,424	-131,075	0,190	0,018
-119,410	-6,312	0,108	0,053
