DTS Sentinel unit serial number:	SN410029Multiplexer serial number:	ORYXHardware model number:	OX2-SRSoftware version number:	ORYX F/W v4,00 Oryx Data Collector v3.7.2.0data status	okinstallation	B6 Nyhavnadifferential loss correction	single-endedforward channel	channel 2reverse channel	N/Adate	2023/12/11time	07:55:08forward acquisition time	300,00reverse acquisition time	0,00gamma	499,1914k internal	0,3128k external	0,3128temperature offset calibration	1,0000default loss term (dB/km)	0,3820temperature slope calibration	1,0000multiplexer offset coefficient	1,0000multiplexer slope coefficient	1,0000fibre end	0,00T internal ref (°C)	18,52T ext. ref 1 (°C)	0,82T ext. ref 2 (°C)	0,84length (m)	temperature (°C)	Stokes	anti-Stokes-744,400	800,000	-0,029	-0,093
-743,385	-84,245	-0,208	0,049
-742,371	-200,000	0,006	0,038
-741,356	-69,475	-0,256	0,073
-740,342	396,757	0,036	-0,056
-739,327	-143,386	-0,238	0,017
-738,312	594,826	-0,054	0,100
-737,298	-200,000	-0,195	-0,001
-736,283	-62,157	0,165	0,051
-735,269	-56,670	-0,383	0,125
-734,254	13,668	0,144	0,083
-733,239	-41,384	-0,420	-0,160
-732,225	140,390	0,084	0,082
-731,210	-129,513	0,173	-0,018
-730,196	5,495	-0,156	0,085
-729,181	-200,000	0,013	0,065
-728,167	-200,000	0,012	0,053
-727,152	4,639	-0,098	0,053
-726,137	800,000	-0,059	-0,126
-725,123	-115,260	-0,160	-0,022
-724,108	145,161	-0,097	0,097
-723,094	172,027	-0,102	-0,109
-722,079	-200,000	0,003	0,027
-721,064	60,799	0,089	-0,066
-720,050	-101,017	-0,072	-0,013
-719,035	-83,788	-0,059	-0,014
-718,021	-200,000	0,062	-0,231
-717,006	800,000	0,053	-0,175
-715,991	-139,682	-0,206	-0,016
-714,977	-200,000	-0,010	0,118
-713,962	-121,732	-0,036	-0,004
-712,948	-200,000	0,019	0,109
-711,933	71,487	-0,097	0,075
-710,918	-71,748	-0,106	-0,029
-709,904	409,135	0,060	-0,094
-708,889	-94,453	-0,077	-0,015
-707,875	-200,000	-0,014	-0,200
-706,860	800,000	0,013	-0,035
-705,845	800,000	-0,035	0,091
-704,831	800,000	0,043	0,103
-703,816	48,619	0,061	0,043
-702,802	-200,000	0,011	0,038
-701,787	178,539	-0,066	0,072
-700,772	73,968	0,010	0,008
-699,758	800,000	-0,031	-0,077
-698,743	-10,366	0,070	0,034
-697,729	182,948	-0,035	0,039
-696,714	90,369	-0,053	-0,044
-695,699	310,892	-0,083	-0,116
-694,685	82,241	-0,050	0,040
-693,670	295,951	-0,020	0,028
-692,656	-200,000	0,005	-0,030
-691,641	-200,000	0,006	-0,095
-690,627	800,000	0,042	0,107
-689,612	-157,874	-0,051	0,002
-688,597	229,459	0,018	-0,022
-687,583	800,000	-0,013	-0,036
-686,568	-37,111	-0,194	-0,077
-685,554	46,956	-0,121	-0,084
-684,539	425,593	0,079	-0,127
-683,524	33,434	-0,075	-0,048
-682,510	157,638	0,036	0,037
-681,495	530,414	-0,049	-0,087
-680,481	-112,089	0,054	-0,008
-679,466	800,000	-0,026	-0,076
-678,451	-200,000	-0,030	-0,116
-677,437	51,401	0,028	0,020
-676,422	-73,427	0,074	-0,020
-675,408	-200,000	-0,012	0,115
-674,393	800,000	-0,058	-0,145
-673,378	-200,000	0,014	-0,092
-672,364	800,000	-0,034	-0,111
-671,349	584,894	0,041	-0,075
-670,335	-84,348	0,098	0,023
-669,320	127,285	-0,044	0,042
-668,305	-200,000	-0,001	0,045
-667,291	479,264	-0,033	-0,056
-666,276	-200,000	-0,005	0,035
-665,262	109,710	-0,156	-0,139
-664,247	-134,328	0,075	-0,007
-663,232	-56,465	-0,077	-0,025
-662,218	800,000	0,065	0,183
-661,203	800,000	0,040	0,118
-660,189	-28,993	-0,145	0,061
-659,174	-200,000	-0,008	-0,146
-658,159	-200,000	-0,001	-0,056
-657,145	-122,589	-0,155	-0,018
-656,130	-200,000	0,030	-0,113
-655,116	125,598	0,059	0,055
-654,101	-200,000	-0,006	0,044
-653,086	-31,574	-0,028	0,012
-652,072	135,681	-0,088	-0,085
-651,057	-11,120	-0,033	-0,016
-650,043	-200,000	-0,002	-0,048
-649,028	24,134	-0,034	0,021
-648,014	800,000	-0,044	0,103
-646,999	-111,464	-0,064	0,010
-645,984	-26,915	0,066	0,029
-644,970	-200,000	0,014	0,075
-643,955	-116,396	-0,203	0,027
-642,941	-200,000	-0,011	-0,084
-641,926	-120,786	-0,038	0,005
-640,911	-200,000	0,002	-0,012
-639,897	144,319	0,069	0,068
-638,882	-200,000	0,024	0,090
-637,868	126,494	-0,020	0,019
-636,853	278,647	-0,054	-0,072
-635,838	34,293	-0,079	-0,051
-634,824	-81,203	0,061	-0,015
-633,809	15,489	-0,096	-0,056
-632,795	-200,000	0,024	0,097
-631,780	486,560	0,066	0,112
-630,765	-200,000	-0,012	0,153
-629,751	-97,241	-0,191	0,037
-628,736	800,000	-0,010	-0,027
-627,722	32,305	0,100	0,064
-626,707	-27,908	-0,028	0,012
-625,692	-200,000	0,020	-0,108
-624,678	-24,529	-0,136	0,060
-623,663	-200,000	0,010	-0,034
-622,649	37,718	-0,126	-0,082
-621,634	201,891	-0,111	-0,127
-620,619	-200,000	0,006	-0,153
-619,605	150,471	-0,120	0,121
-618,590	-117,616	-0,026	-0,003
-617,576	-200,000	-0,024	0,116
-616,561	-16,997	-0,132	-0,062
-615,546	88,415	-0,028	0,023
-614,532	-26,951	-0,038	0,016
-613,517	-200,000	-0,006	-0,102
-612,503	-67,534	0,111	-0,032
-611,488	-200,000	0,001	0,006
-610,474	39,941	0,138	0,092
-609,459	-105,917	0,146	0,024
-608,444	-200,000	-0,000	-0,155
-607,430	-12,700	-0,071	0,034
-606,415	-200,000	-0,018	-0,099
-605,401	339,480	0,053	-0,076
-604,386	170,044	0,045	-0,047
-603,371	-200,000	-0,032	-0,107
-602,357	-200,000	-0,009	-0,084
-601,342	-200,000	-0,010	-0,093
-600,328	-200,000	-0,038	-0,218
-599,313	379,728	-0,052	0,079
-598,298	-2,034	-0,069	0,036
-597,284	135,402	0,054	-0,052
-596,269	79,313	0,123	0,098
-595,255	102,855	0,020	-0,018
-594,240	622,544	-0,121	-0,226
-593,225	800,000	-0,014	-0,044
-592,211	69,604	0,108	-0,082
-591,196	800,000	0,050	-0,164
-590,182	156,286	0,084	-0,086
-589,167	71,872	-0,075	-0,058
-588,152	-117,182	-0,158	-0,021
-587,138	138,271	0,090	0,087
-586,123	-12,838	-0,077	0,037
-585,109	-200,000	0,003	-0,085
-584,094	-200,000	-0,038	-0,147
-583,079	-41,287	0,102	0,039
-582,065	618,510	-0,037	-0,068
-581,050	391,777	0,068	-0,105
-580,036	800,000	0,047	0,129
-579,021	-125,001	0,116	0,013
-578,006	-200,000	0,003	0,074
-576,992	-200,000	0,006	0,025
-575,977	-200,000	0,007	-0,075
-574,963	-102,639	0,140	-0,024
-573,948	-87,199	0,050	-0,011
-572,934	683,947	0,066	0,129
-571,919	-19,261	-0,158	0,072
-570,904	-9,825	-0,035	-0,017
-569,890	-200,000	0,024	0,082
-568,875	158,961	0,083	-0,085
-567,861	220,474	0,015	0,018
-566,846	-200,000	0,024	0,175
-565,831	800,000	0,058	0,157
-564,817	-200,000	0,001	0,004
-563,802	794,264	-0,022	0,045
-562,788	185,376	0,106	0,116
-561,773	-153,260	-0,116	-0,006
-560,758	259,876	0,049	0,063
-559,744	169,654	-0,055	0,059
-558,729	800,000	0,032	0,067
-557,715	51,260	-0,102	-0,072
-556,700	-137,743	-0,163	-0,013
-555,685	-200,000	0,002	-0,081
-554,671	-200,000	-0,031	-0,121
-553,656	376,124	0,022	0,033
-552,642	109,267	-0,124	0,109
-551,627	-200,000	0,027	0,088
-550,612	-200,000	0,007	-0,226
-549,598	545,706	-0,071	-0,125
-548,583	6,415	-0,039	0,021
-547,569	-31,893	-0,053	-0,022
-546,554	159,710	0,046	-0,048
-545,539	33,813	-0,037	-0,024
-544,525	-15,467	-0,059	0,028
-543,510	-200,000	-0,021	-0,090
-542,496	74,720	-0,100	-0,078
-541,481	140,787	-0,066	-0,064
-540,466	-4,621	0,088	0,045
-539,452	-200,000	-0,004	-0,043
-538,437	-88,036	0,018	-0,004
-537,423	-200,000	0,011	-0,113
-536,408	569,363	-0,024	-0,043
-535,393	193,926	-0,066	-0,073
-534,379	-200,000	-0,005	-0,073
-533,364	8,639	0,092	0,051
-532,350	713,688	0,023	-0,045
-531,335	109,032	0,045	0,040
-530,321	-146,918	0,056	0,004
-529,306	-34,444	-0,142	0,057
-528,291	800,000	-0,078	-0,170
-527,277	-69,555	0,070	-0,020
-526,262	537,137	-0,027	0,048
-525,248	-168,207	0,034	-0,001
-524,233	-200,000	0,014	0,077
-523,218	370,478	-0,053	0,080
-522,204	-76,148	-0,053	-0,014
-521,189	30,997	0,080	0,051
-520,175	159,653	-0,147	-0,151
-519,160	134,749	0,078	-0,075
-518,145	-47,376	-0,074	0,026
-517,131	-200,000	0,020	0,134
-516,116	335,702	0,069	0,099
-515,102	-92,808	-0,079	-0,016
-514,087	-200,000	-0,024	0,233
-513,072	106,951	-0,038	0,033
-512,058	-33,345	0,040	-0,016
-511,043	1,829	0,121	-0,064
-510,029	61,001	0,034	-0,025
-509,014	800,000	-0,058	0,174
-507,999	28,700	0,097	0,060
-506,985	-180,809	-0,168	-0,002
-505,970	-46,854	-0,120	-0,043
-504,956	680,053	-0,010	-0,019
-503,941	-200,000	0,011	0,165
-502,926	-86,260	0,166	0,038
-501,912	86,355	-0,076	-0,062
-500,897	53,030	0,071	-0,050
-499,883	-200,000	0,006	0,276
-498,868	-82,479	-0,069	-0,016
-497,853	176,020	0,083	0,089
-496,839	-200,000	0,004	-0,020
-495,824	401,036	-0,089	0,139
-494,810	-200,000	-0,048	0,204
-493,795	800,000	0,007	-0,017
-492,781	171,882	0,049	0,052
-491,766	-200,000	-0,030	-0,135
-490,751	800,000	0,035	0,094
-489,737	14,622	0,107	0,061
-488,722	386,346	0,046	-0,071
-487,708	428,215	-0,056	-0,090
-486,693	800,000	-0,027	0,068
-485,678	498,401	0,057	-0,096
-484,664	800,000	0,042	-0,128
-483,649	800,000	-0,029	-0,088
-482,635	59,818	-0,044	0,032
-481,620	46,517	0,086	0,059
-480,605	702,150	-0,069	0,134
-479,591	156,206	0,087	0,088
-478,576	507,096	-0,036	0,061
-477,562	-10,902	0,042	0,020
-476,547	53,128	0,072	0,051
-475,532	24,618	0,127	-0,077
-474,518	389,997	0,038	-0,059
-473,503	-69,670	0,084	-0,023
-472,489	-152,835	-0,106	0,005
-471,474	-183,464	-0,161	0,002
-470,459	343,158	-0,050	-0,073
-469,445	800,000	0,047	-0,140
-468,430	-200,000	-0,002	-0,039
-467,416	-200,000	0,005	-0,065
-466,401	-200,000	-0,007	-0,169
-465,386	86,416	-0,042	-0,034
-464,372	-133,582	-0,102	0,009
-463,357	-200,000	-0,019	-0,096
-462,343	-113,770	-0,194	0,027
-461,328	-17,902	-0,058	-0,027
-460,313	800,000	0,033	0,094
-459,299	91,587	-0,042	0,034
-458,284	-200,000	-0,001	0,074
-457,270	133,430	-0,105	-0,100
-456,255	-200,000	0,006	-0,064
-455,241	800,000	0,033	-0,098
-454,226	-200,000	0,020	-0,100
-453,211	-127,215	0,024	-0,003
-452,197	-113,316	-0,077	-0,011
-451,182	-200,000	-0,003	0,068
-450,168	800,000	-0,068	-0,212
-449,153	800,000	0,034	-0,097
-448,138	-26,762	-0,113	-0,048
-447,124	454,264	-0,021	-0,035
-446,109	213,697	0,025	-0,029
-445,095	-20,111	0,135	0,061
-444,080	180,923	-0,085	0,091
-443,065	131,962	-0,104	-0,098
-442,051	-200,000	0,007	0,087
-441,036	-41,381	-0,106	0,040
-440,022	-54,098	-0,010	0,003
-439,007	-32,042	0,107	0,044
-437,992	-32,366	0,030	0,012
-436,978	-45,894	0,082	0,029
-435,963	161,228	-0,047	-0,048
-434,949	335,881	-0,083	0,119
-433,934	800,000	-0,055	0,143
-432,919	606,640	0,023	0,043
-431,905	280,690	0,061	-0,080
-430,890	-67,787	0,066	-0,019
-429,876	-23,837	0,049	0,022
-428,861	-200,000	-0,003	0,069
-427,846	323,381	-0,050	-0,071
-426,832	84,749	-0,054	-0,043
-425,817	-200,000	-0,024	-0,121
-424,803	214,637	0,020	-0,023
-423,788	800,000	-0,074	0,207
-422,773	-102,944	0,162	0,028
-421,759	172,286	0,066	0,069
-420,744	396,723	0,099	-0,153
-419,730	-30,083	-0,103	-0,043
-418,715	361,982	-0,024	-0,036
-417,701	800,000	-0,010	-0,024
-416,686	1,231	-0,087	0,046
-415,671	-97,361	0,144	-0,027
-414,657	60,852	0,128	-0,093
-413,642	212,634	0,021	0,024
-412,628	179,535	-0,092	-0,099
-411,613	134,168	0,010	0,010
-410,598	371,188	0,048	0,072
-409,584	-30,202	0,114	0,047
-408,569	800,000	0,039	0,103
-407,555	-144,766	-0,145	0,010
-406,540	-102,284	-0,087	-0,015
-405,525	31,307	0,097	0,061
-404,511	149,786	0,097	0,096
-403,496	144,247	-0,075	-0,074
-402,482	37,574	0,074	0,048
-401,467	-200,000	-0,004	0,037
-400,452	-200,000	-0,034	0,124
-399,438	79,692	-0,112	0,089
-398,423	-101,817	0,060	0,011
-397,409	273,243	0,057	-0,075
-396,394	170,131	-0,143	-0,151
-395,379	-200,000	0,035	-0,200
-394,365	-200,000	0,000	0,052
-393,350	-200,000	0,005	0,110
-392,336	-61,848	-0,087	0,027
-391,321	214,076	-0,094	0,109
-390,306	-47,025	-0,060	-0,021
-389,292	-200,000	-0,005	-0,079
-388,277	-169,371	-0,075	-0,002
-387,263	800,000	-0,036	-0,077
-386,248	46,180	0,097	0,066
-385,233	98,296	0,036	-0,030
-384,219	421,356	-0,003	-0,005
-383,204	184,516	0,066	0,072
-382,190	-33,734	0,036	-0,014
-381,175	220,294	-0,039	0,046
-380,160	587,601	-0,015	-0,027
-379,146	-200,000	0,010	0,122
-378,131	29,229	0,061	0,038
-377,117	237,231	0,047	-0,058
-376,102	136,748	0,055	0,053
-375,088	800,000	0,057	-0,146
-374,073	-13,872	-0,045	0,021
-373,058	144,274	0,051	0,050
-372,044	111,929	0,054	0,048
-371,029	-127,931	0,066	0,007
-370,015	-139,388	-0,102	-0,008
-369,000	-200,000	-0,005	-0,031
-367,985	-89,231	0,174	-0,037
-366,971	-106,465	-0,091	0,015
-365,956	300,225	0,054	-0,073
-364,942	800,000	-0,012	-0,027
-363,927	71,137	0,055	0,042
-362,912	-116,480	-0,048	0,006
-361,898	-200,000	0,000	-0,097
-360,883	-70,798	0,080	-0,022
-359,869	-200,000	-0,007	-0,085
-358,854	338,401	-0,023	0,033
-357,839	800,000	0,046	0,130
-356,825	-4,501	0,019	0,009
-355,810	-167,069	0,035	0,001
-354,796	-200,000	0,003	-0,031
-353,781	-162,932	-0,035	-0,001
-352,766	-200,000	-0,021	0,138
-351,752	-97,365	0,128	0,024
-350,737	-200,000	-0,008	-0,055
-349,723	800,000	0,049	-0,134
-348,708	-45,788	0,080	0,029
-347,693	-200,000	-0,004	-0,052
-346,679	-200,000	-0,021	0,072
-345,664	249,746	0,046	-0,057
-344,650	-30,331	-0,025	0,010
-343,635	800,000	-0,031	0,067
-342,620	397,216	0,022	0,034
-341,606	-77,964	-0,148	0,037
-340,591	-200,000	-0,016	0,081
-339,577	158,872	-0,083	0,084
-338,562	60,615	0,087	-0,063
-337,548	-162,805	-0,032	-0,001
-336,533	800,000	-0,034	0,077
-335,518	236,700	0,059	-0,072
-334,504	56,344	-0,021	-0,015
-333,489	-78,240	-0,032	-0,008
-332,475	-167,239	0,073	-0,002
-331,460	-66,918	-0,081	-0,023
-330,445	-200,000	-0,014	-0,133
-329,431	10,592	0,097	0,054
-328,416	413,291	0,120	0,187
-327,402	-18,592	-0,070	-0,032
-326,387	395,399	0,033	-0,050
-325,372	62,889	-0,094	-0,069
-324,358	72,653	0,044	0,033
-323,343	181,727	-0,052	-0,057
-322,329	324,381	0,074	0,104
-321,314	-141,272	0,089	0,007
-320,299	800,000	0,059	-0,146
-319,285	-200,000	0,004	0,078
-318,270	126,448	-0,107	-0,099
-317,256	-200,000	-0,013	-0,119
-316,241	433,677	0,033	-0,053
-315,226	800,000	0,037	0,080
-314,212	-81,625	0,066	-0,016
-313,197	800,000	-0,007	0,020
-312,183	-105,647	-0,108	0,018
-311,168	-200,000	-0,014	-0,079
-310,153	67,993	-0,046	-0,035
-309,139	-200,000	0,010	-0,080
-308,124	800,000	0,044	0,097
-307,110	266,001	-0,055	-0,070
-306,095	295,465	0,061	0,082
-305,080	-147,797	-0,005	0,000
-304,066	-200,000	0,004	0,015
-303,051	-200,000	0,003	-0,022
-302,037	-200,000	0,001	-0,008
-301,022	625,425	0,042	0,078
-300,008	89,002	0,057	0,047
-298,993	800,000	-0,062	0,155
-297,978	161,090	0,016	0,016
-296,964	13,134	-0,124	-0,070
-295,949	-200,000	-0,005	-0,025
-294,935	-112,722	-0,083	-0,012
-293,920	800,000	0,033	0,076
-292,905	348,285	0,040	0,057
-291,891	-200,000	-0,000	-0,028
-290,876	-90,053	-0,063	-0,013
-289,862	-75,625	0,054	-0,014
-288,847	-200,000	0,009	-0,067
-287,832	-200,000	-0,025	-0,169
-286,818	-200,000	0,005	0,048
-285,803	137,734	0,122	0,117
-284,789	-152,223	-0,115	-0,006
-283,774	-200,000	0,012	-0,057
-282,759	762,508	-0,061	0,122
-281,745	-120,224	-0,121	-0,015
-280,730	-200,000	-0,023	-0,110
-279,716	800,000	-0,004	-0,009
-278,701	213,692	0,007	0,008
-277,686	800,000	-0,036	-0,112
-276,672	127,806	-0,065	-0,061
-275,657	737,930	0,039	-0,078
-274,643	291,669	-0,012	0,017
-273,628	506,795	0,045	-0,077
-272,613	-200,000	-0,027	-0,101
-271,599	800,000	0,032	0,088
-270,584	-34,513	0,116	0,046
-269,570	-200,000	0,000	0,020
-268,555	94,668	-0,079	-0,065
-267,540	68,334	-0,093	-0,069
-266,526	49,764	-0,113	0,078
-265,511	428,259	-0,033	0,052
-264,497	-91,467	-0,029	-0,006
-263,482	-181,501	-0,083	-0,001
-262,467	180,010	0,026	-0,028
-261,453	-81,269	-0,075	0,018
-260,438	331,676	-0,083	-0,117
-259,424	-155,548	-0,033	0,002
-258,409	24,829	0,043	-0,026
-257,395	800,000	0,033	0,086
-256,380	800,000	-0,068	0,182
-255,365	800,000	-0,081	0,168
-254,351	-162,718	0,112	-0,004
-253,336	-151,139	0,129	0,007
-252,322	633,696	-0,046	-0,085
-251,307	-82,445	-0,132	0,031
-250,292	-17,254	0,065	-0,030
-249,278	93,115	0,041	-0,034
-248,263	314,044	0,028	-0,038
-247,249	530,044	-0,011	-0,020
-246,234	-139,081	-0,142	0,011
-245,219	-38,345	0,063	-0,024
-244,205	16,570	-0,033	-0,019
-243,190	-200,000	-0,006	0,051
-242,176	-137,828	0,060	-0,005
-241,161	34,434	0,145	0,092
-240,146	332,728	-0,059	0,084
-239,132	-158,352	-0,064	-0,003
-238,117	-200,000	0,018	-0,120
-237,103	-179,616	-0,058	0,001
-236,088	-109,740	-0,039	0,006
-235,073	-148,470	-0,018	-0,001
-234,059	50,704	0,111	0,076
-233,044	-200,000	-0,036	0,165
-232,030	800,000	-0,020	0,053
-231,015	-200,000	0,026	-0,087
-230,000	-165,713	0,061	-0,002
-228,986	-200,000	0,001	-0,098
-227,971	-1,034	-0,037	0,019
-226,957	-133,447	0,098	-0,009
-225,942	229,208	-0,047	-0,056
-224,927	108,913	0,093	0,081
-223,913	181,384	0,043	0,047
-222,898	-200,000	0,015	-0,134
-221,884	285,282	0,004	0,005
-220,869	-4,557	0,072	0,036
-219,855	14,113	0,106	-0,060
-218,840	800,000	-0,028	0,088
-217,825	32,728	0,078	-0,049
-216,811	-200,000	0,019	-0,128
-215,796	-160,740	-0,090	0,003
-214,782	-200,000	0,007	-0,083
-213,767	-200,000	0,001	0,083
-212,752	23,277	0,116	0,069
-211,738	800,000	0,015	-0,046
-210,723	361,923	0,051	-0,074
-209,709	-4,783	-0,041	-0,021
-208,694	28,767	0,021	0,013
-207,679	126,825	-0,063	0,058
-206,665	269,173	-0,045	-0,058
-205,650	-109,442	0,148	0,023
-204,636	-183,918	0,070	-0,001
-203,621	-200,000	0,017	0,094
-202,606	50,557	0,144	0,099
-201,592	-200,000	-0,009	-0,053
-200,577	565,513	-0,021	0,036
-199,563	83,721	0,050	-0,040
-198,548	-185,061	0,042	0,000
-197,533	329,160	0,061	0,085
-196,519	-125,220	0,101	0,011
-195,504	-67,256	-0,090	0,026
-194,490	800,000	-0,004	-0,012
-193,475	-113,840	0,111	-0,016
-192,460	297,531	-0,058	-0,078
-191,446	-200,000	-0,010	0,047
-190,431	-200,000	-0,029	0,132
-189,417	800,000	-0,018	0,037
-188,402	17,527	0,076	-0,044
-187,387	-71,973	-0,058	0,016
-186,373	285,667	0,026	-0,035
-185,358	-114,137	-0,107	-0,015
-184,344	130,609	0,075	-0,070
-183,329	102,613	0,049	0,042
-182,315	50,762	0,079	0,055
-181,300	-10,767	0,074	0,035
-180,285	25,599	-0,005	0,003
-179,271	-113,249	0,080	0,011
-178,256	-200,000	0,003	-0,032
-177,242	800,000	0,038	0,103
-176,227	580,983	-0,022	0,040
-175,212	498,853	0,051	-0,086
-174,198	800,000	-0,018	0,055
-173,183	-200,000	-0,012	-0,162
-172,169	1,150	0,053	-0,028
-171,154	-110,785	-0,043	0,006
-170,139	216,438	0,100	-0,116
-169,125	213,582	0,108	-0,125
-168,110	227,035	-0,062	0,073
-167,096	303,564	0,071	0,096
-166,081	-185,509	-0,033	0,000
-165,066	270,826	-0,100	0,128
-164,052	-110,138	-0,010	0,002
-163,037	-41,722	0,089	0,033
-162,023	-50,589	0,155	0,053
-161,008	206,049	-0,052	0,059
-159,993	285,218	-0,025	-0,032
-158,979	-71,798	-0,035	0,009
-157,964	-53,773	0,022	0,007
-156,950	-200,000	0,010	-0,049
-155,935	-200,000	-0,002	0,089
-154,920	800,000	0,071	0,159
-153,906	800,000	0,036	0,090
-152,891	233,443	-0,041	0,050
-151,877	194,012	0,014	0,015
-150,862	-200,000	0,009	-0,119
-149,847	391,200	-0,041	0,063
-148,833	-64,780	-0,075	0,022
-147,818	284,936	0,064	0,084
-146,804	-200,000	-0,022	0,178
-145,789	-200,000	-0,011	0,071
-144,775	-200,000	0,008	0,033
-143,760	-200,000	0,002	0,014
-142,745	-118,462	-0,117	-0,015
-141,731	56,575	-0,024	-0,017
-140,716	-94,227	0,055	0,011
-139,702	50,997	0,030	0,021
-138,687	-16,204	0,043	0,020
-137,672	36,181	0,046	0,029
-136,658	-74,049	0,057	0,015
-135,643	682,825	-0,037	-0,070
-134,629	-26,012	-0,111	-0,047
-133,614	344,190	0,061	-0,087
-132,599	-101,777	0,072	0,012
-131,585	35,098	0,170	0,108
-130,570	-62,798	-0,111	0,033
-129,556	-200,000	0,010	0,067
-128,541	217,743	0,070	0,081
-127,526	360,677	0,044	0,065
-126,512	800,000	0,025	0,053
-125,497	144,041	0,066	0,064
-124,483	-200,000	0,018	0,143
-123,468	-12,715	-0,032	-0,015
-122,453	-72,777	-0,085	0,023
-121,439	-200,000	0,002	0,009
-120,424	224,560	-0,058	-0,069
-119,410	-32,458	0,116	-0,047
