DTS Sentinel unit serial number:	SN410029Multiplexer serial number:	ORYXHardware model number:	OX2-SRSoftware version number:	ORYX F/W v4,00 Oryx Data Collector v3.7.2.0data status	okinstallation	B6 Nyhavnadifferential loss correction	single-endedforward channel	channel 2reverse channel	N/Adate	2023/12/10time	05:35:08forward acquisition time	300,00reverse acquisition time	0,00gamma	499,1914k internal	0,3124k external	0,3124temperature offset calibration	1,0000default loss term (dB/km)	0,3820temperature slope calibration	1,0000multiplexer offset coefficient	1,0000multiplexer slope coefficient	1,0000fibre end	0,00T internal ref (°C)	22,44T ext. ref 1 (°C)	6,47T ext. ref 2 (°C)	6,45length (m)	temperature (°C)	Stokes	anti-Stokes-744,400	302,462	-0,027	-0,037
-743,385	-109,753	-0,236	-0,037
-742,371	-135,667	0,066	0,006
-741,356	148,341	-0,191	0,192
-740,342	-39,974	-0,064	-0,025
-739,327	54,271	-0,247	0,177
-738,312	301,034	-0,095	-0,131
-737,298	-136,367	-0,135	0,012
-736,283	173,972	0,042	0,045
-735,269	-40,975	-0,216	0,083
-734,254	-44,585	0,131	-0,049
-733,239	-61,497	-0,438	-0,136
-732,225	-44,950	0,136	0,050
-731,210	800,000	0,072	0,190
-730,196	30,059	-0,122	0,077
-729,181	150,469	-0,068	0,069
-728,167	800,000	-0,045	-0,122
-727,152	291,958	0,072	-0,098
-726,137	-69,310	-0,071	-0,020
-725,123	-200,000	-0,012	0,073
-724,108	488,327	0,106	-0,182
-723,094	-200,000	-0,001	-0,107
-722,079	37,549	0,089	-0,059
-721,064	-13,451	-0,146	-0,070
-720,050	-200,000	0,003	-0,209
-719,035	-50,788	-0,162	0,057
-718,021	330,431	-0,020	-0,029
-717,006	-200,000	-0,025	-0,099
-715,991	-80,568	-0,188	-0,046
-714,977	473,426	-0,069	-0,116
-713,962	800,000	0,042	0,087
-712,948	-133,550	0,168	0,015
-711,933	-146,344	-0,096	0,006
-710,918	725,119	0,033	0,065
-709,904	-147,262	-0,081	-0,005
-708,889	245,281	-0,034	0,042
-707,875	207,086	-0,073	0,085
-706,860	372,435	0,062	-0,093
-705,845	176,393	0,099	0,107
-704,831	800,000	-0,015	0,048
-703,816	-40,741	-0,091	-0,035
-702,802	-112,833	-0,097	-0,014
-701,787	-18,227	-0,011	-0,005
-700,772	-200,000	0,032	-0,123
-699,758	-74,572	-0,111	-0,030
-698,743	-89,984	0,106	0,023
-697,729	-200,000	-0,017	0,093
-696,714	-89,445	0,093	0,020
-695,699	-12,916	0,088	0,042
-694,685	-200,000	-0,028	-0,100
-693,670	-200,000	-0,009	0,131
-692,656	-200,000	0,004	-0,068
-691,641	-200,000	0,024	-0,113
-690,627	526,255	0,059	0,103
-689,612	-200,000	-0,011	0,173
-688,597	800,000	-0,037	-0,078
-687,583	561,573	-0,044	-0,079
-686,568	-134,237	-0,089	0,008
-685,554	223,015	-0,068	-0,081
-684,539	800,000	0,021	0,055
-683,524	490,534	-0,044	-0,075
-682,510	727,931	0,019	0,037
-681,495	-0,058	0,065	0,034
-680,481	-33,704	-0,079	0,032
-679,466	-200,000	0,012	-0,236
-678,451	30,089	-0,113	-0,071
-677,437	604,844	-0,026	-0,049
-676,422	-11,110	0,039	0,019
-675,408	-33,762	-0,128	-0,052
-674,393	-62,969	-0,081	-0,025
-673,378	663,771	-0,051	-0,099
-672,364	258,024	0,054	0,070
-671,349	78,526	-0,123	0,098
-670,335	542,261	-0,045	-0,081
-669,320	800,000	-0,048	-0,121
-668,305	468,352	-0,098	-0,164
-667,291	-36,109	-0,051	-0,020
-666,276	-139,920	-0,121	0,009
-665,262	-38,926	-0,119	0,046
-664,247	-40,756	-0,072	-0,027
-663,232	-111,246	-0,028	0,004
-662,218	800,000	0,015	-0,034
-661,203	800,000	-0,049	-0,124
-660,189	-111,924	0,093	-0,014
-659,174	4,730	-0,086	-0,047
-658,159	42,386	-0,119	-0,080
-657,145	58,260	0,101	-0,073
-656,130	-140,320	0,055	-0,004
-655,116	-134,993	0,113	-0,010
-654,101	133,100	0,022	0,021
-653,086	-168,924	0,060	0,002
-652,072	-2,917	-0,123	0,063
-651,057	-37,275	-0,049	-0,020
-650,043	-150,779	-0,123	-0,007
-649,028	553,758	-0,017	-0,031
-648,014	204,805	0,027	0,032
-646,999	-0,917	-0,109	0,057
-645,984	40,730	-0,051	0,034
-644,970	-55,927	-0,020	-0,007
-643,955	-8,763	-0,118	0,059
-642,941	8,763	-0,064	0,036
-641,926	642,120	0,032	-0,061
-640,911	327,524	-0,062	-0,089
-639,897	-200,000	0,034	0,122
-638,882	-26,439	-0,120	-0,052
-637,868	-25,197	0,137	0,060
-636,853	104,717	-0,062	0,054
-635,838	142,192	0,048	-0,048
-634,824	-200,000	-0,002	-0,058
-633,809	372,481	-0,054	-0,082
-632,795	226,507	-0,112	0,135
-631,780	-19,484	0,102	-0,047
-630,765	281,943	0,036	0,048
-629,751	287,999	-0,016	-0,021
-628,736	145,109	-0,111	-0,110
-627,722	-42,481	-0,030	-0,011
-626,707	162,051	-0,053	-0,055
-625,692	-200,000	-0,003	0,068
-624,678	-200,000	-0,026	-0,093
-623,663	-182,930	-0,069	-0,001
-622,649	800,000	0,017	0,044
-621,634	-82,553	0,042	0,010
-620,619	171,607	0,044	0,047
-619,605	-44,076	0,006	-0,002
-618,590	605,618	0,066	-0,122
-617,576	638,050	0,043	0,081
-616,561	116,490	-0,067	0,061
-615,546	-141,670	0,186	-0,014
-614,532	-200,000	-0,019	0,115
-613,517	-48,896	0,019	0,007
-612,503	-200,000	-0,008	0,078
-611,488	527,840	0,059	0,104
-610,474	345,013	-0,034	0,049
-609,459	800,000	-0,031	0,081
-608,444	800,000	-0,066	0,139
-607,430	-181,352	-0,100	-0,001
-606,415	-200,000	-0,023	-0,182
-605,401	-200,000	-0,022	0,133
-604,386	83,710	-0,063	0,051
-603,371	323,656	0,098	-0,139
-602,357	-17,301	-0,032	0,015
-601,342	800,000	0,042	0,087
-600,328	553,517	0,079	-0,141
-599,313	-200,000	-0,001	-0,106
-598,298	-83,467	-0,053	0,013
-597,284	348,602	-0,060	-0,087
-596,269	15,031	-0,075	-0,043
-595,255	800,000	-0,044	-0,120
-594,240	143,702	0,052	0,051
-593,225	800,000	0,043	0,138
-592,211	153,558	-0,013	-0,013
-591,196	-62,027	0,059	-0,018
-590,182	-9,662	-0,046	0,023
-589,167	-200,000	0,001	0,085
-588,152	-113,788	0,032	-0,005
-587,138	488,960	-0,033	-0,056
-586,123	-121,219	0,094	0,011
-585,109	119,833	-0,113	-0,104
-584,094	28,993	-0,052	0,033
-583,079	16,044	-0,066	0,039
-582,065	-104,593	-0,096	0,016
-581,050	159,201	0,120	0,123
-580,036	-200,000	-0,015	0,166
-579,021	470,401	-0,075	-0,126
-578,006	-21,094	-0,042	0,019
-576,992	-200,000	0,018	0,111
-575,977	-134,320	0,088	-0,008
-574,963	-155,619	-0,060	0,003
-573,948	108,777	-0,041	0,036
-572,934	475,134	-0,028	-0,047
-571,919	113,659	-0,073	-0,066
-570,904	-200,000	0,016	0,103
-569,890	80,446	-0,041	-0,033
-568,875	800,000	0,013	-0,035
-567,861	800,000	0,029	-0,073
-566,846	383,126	-0,052	-0,080
-565,831	105,247	-0,095	-0,083
-564,817	-200,000	-0,027	-0,123
-563,802	-66,776	0,032	0,009
-562,788	-156,155	-0,075	0,003
-561,773	-128,604	-0,076	0,008
-560,758	-200,000	0,036	0,164
-559,744	-200,000	-0,002	-0,037
-558,729	800,000	0,013	-0,038
-557,715	-15,787	-0,058	0,027
-556,700	800,000	-0,036	0,074
-555,685	-169,701	0,074	-0,002
-554,671	-7,940	-0,070	0,035
-553,656	800,000	-0,011	-0,026
-552,642	-146,252	0,152	-0,010
-551,627	235,669	0,034	-0,041
-550,612	800,000	-0,057	-0,125
-549,598	-74,923	0,132	-0,035
-548,583	-94,215	0,032	0,006
-547,569	800,000	-0,080	-0,200
-546,554	66,917	0,027	0,020
-545,539	-198,336	0,080	0,000
-544,525	-173,606	-0,081	-0,002
-543,510	289,817	-0,064	0,086
-542,496	-200,000	0,015	-0,106
-541,481	-52,691	-0,066	-0,022
-540,466	-5,135	0,051	-0,026
-539,452	-200,000	0,016	0,098
-538,437	-200,000	0,003	-0,012
-537,423	251,566	0,051	-0,064
-536,408	800,000	0,056	0,159
-535,393	-200,000	0,011	-0,141
-534,379	220,047	-0,066	-0,078
-533,364	38,865	-0,058	-0,038
-532,350	-63,107	0,112	-0,034
-531,335	-123,404	-0,057	-0,007
-530,321	-72,054	0,016	-0,004
-529,306	85,870	-0,056	-0,046
-528,291	600,612	-0,058	-0,107
-527,277	541,082	0,072	-0,127
-526,262	800,000	-0,036	0,084
-525,248	13,663	-0,087	-0,050
-524,233	91,372	0,060	0,050
-523,218	-200,000	-0,017	0,172
-522,204	327,330	-0,060	-0,085
-521,189	-200,000	-0,007	0,128
-520,175	-200,000	0,005	0,080
-519,160	-200,000	-0,015	-0,050
-518,145	179,107	0,061	0,066
-517,131	454,754	0,025	0,041
-516,116	-200,000	0,027	-0,099
-515,102	426,510	0,049	0,078
-514,087	-200,000	0,006	-0,134
-513,072	-200,000	0,005	-0,142
-512,058	128,809	0,071	0,067
-511,043	800,000	0,049	0,151
-510,029	-81,253	-0,070	0,017
-509,014	-195,917	0,023	0,000
-507,999	336,461	-0,123	0,177
-506,985	9,230	0,070	-0,039
-505,970	54,295	0,062	-0,044
-504,956	-200,000	-0,013	-0,106
-503,941	518,253	0,057	0,100
-502,926	239,531	-0,024	-0,029
-501,912	334,159	0,060	0,085
-500,897	-200,000	0,007	0,105
-499,883	20,861	-0,085	-0,050
-498,868	-200,000	0,001	0,010
-497,853	61,340	-0,038	-0,028
-496,839	392,444	-0,006	-0,010
-495,824	141,381	0,084	-0,082
-494,810	92,949	-0,079	-0,065
-493,795	-200,000	-0,029	0,133
-492,781	-54,948	0,098	-0,032
-491,766	-200,000	-0,037	-0,136
-490,751	139,517	0,072	0,070
-489,737	-106,975	-0,080	-0,013
-488,722	-200,000	0,032	0,147
-487,708	-105,913	0,156	-0,026
-486,693	800,000	0,042	-0,126
-485,678	212,600	-0,053	-0,062
-484,664	-200,000	-0,039	-0,128
-483,649	111,884	-0,092	-0,082
-482,635	175,515	0,080	0,085
-481,620	-34,576	0,057	0,023
-480,605	523,529	0,064	-0,112
-479,591	-49,305	-0,044	-0,015
-478,576	-200,000	0,002	0,063
-477,562	20,242	-0,090	-0,054
-476,547	-98,150	0,159	-0,030
-475,532	-200,000	0,020	0,106
-474,518	-131,066	0,095	0,009
-473,503	60,864	0,114	-0,084
-472,489	-200,000	0,013	0,071
-471,474	-200,000	0,009	0,030
-470,459	66,816	0,115	-0,086
-469,445	-58,015	-0,031	0,010
-468,430	124,936	-0,027	0,025
-467,416	800,000	0,031	-0,098
-466,401	-200,000	0,032	0,152
-465,386	29,135	0,095	0,059
-464,372	258,405	-0,112	-0,143
-463,357	521,973	0,039	-0,068
-462,343	-200,000	0,001	-0,022
-461,328	-200,000	0,003	-0,183
-460,313	135,832	0,038	0,036
-459,299	730,567	-0,038	0,075
-458,284	-200,000	0,002	-0,040
-457,270	800,000	-0,027	0,059
-456,255	195,350	0,020	0,022
-455,241	4,861	-0,070	-0,038
-454,226	-98,247	-0,116	-0,022
-453,211	-114,807	-0,022	-0,003
-452,197	-51,440	0,191	-0,065
-451,182	5,942	-0,087	0,047
-450,168	79,228	-0,095	-0,075
-449,153	800,000	0,035	-0,080
-448,138	250,651	0,102	0,129
-447,124	7,604	-0,069	0,038
-446,109	3,577	0,077	-0,041
-445,095	7,776	-0,111	0,061
-444,080	121,136	0,067	0,062
-443,065	-123,754	0,076	-0,009
-442,051	800,000	0,061	-0,127
-441,036	-183,864	0,011	-0,000
-440,022	800,000	-0,039	0,099
-439,007	-79,664	0,111	0,027
-437,992	-200,000	0,022	0,108
-436,978	-76,385	0,109	0,028
-435,963	-52,689	0,107	0,036
-434,949	223,468	-0,056	0,067
-433,934	-200,000	-0,008	0,056
-432,919	-200,000	0,013	0,106
-431,905	-161,122	0,086	-0,003
-430,890	-163,197	0,183	0,006
-429,876	693,436	0,027	-0,052
-428,861	-200,000	0,012	-0,072
-427,846	123,938	-0,087	0,081
-426,832	247,722	-0,040	-0,050
-425,817	49,566	-0,079	-0,055
-424,803	-13,933	-0,124	-0,059
-423,788	-200,000	0,007	0,105
-422,773	37,119	-0,081	0,052
-421,759	-121,039	0,112	-0,014
-420,744	-200,000	-0,007	0,068
-419,730	77,087	0,038	-0,030
-418,715	193,022	-0,043	-0,048
-417,701	329,911	0,052	0,074
-416,686	25,170	0,056	-0,034
-415,671	75,556	0,062	-0,048
-414,657	-19,857	-0,066	-0,030
-413,642	-4,234	0,037	0,019
-412,628	800,000	0,068	0,149
-411,613	-153,880	-0,136	0,007
-410,598	-200,000	0,008	0,052
-409,584	-200,000	-0,005	0,033
-408,569	-73,253	-0,147	0,039
-407,555	-51,463	-0,025	-0,008
-406,540	8,444	0,087	0,048
-405,525	-200,000	0,034	0,127
-404,511	-12,034	-0,139	0,067
-403,496	550,219	-0,013	-0,024
-402,482	564,993	0,106	-0,189
-401,467	-56,054	0,027	0,009
-400,452	-9,344	0,063	0,031
-399,438	-200,000	-0,043	-0,164
-398,423	636,046	0,048	-0,090
-397,409	798,776	-0,088	-0,180
-396,394	-200,000	-0,029	-0,149
-395,379	800,000	0,029	-0,078
-394,365	-14,310	-0,150	-0,071
-393,350	463,397	-0,067	-0,110
-392,336	154,001	0,066	-0,067
-391,321	-84,796	-0,023	-0,005
-390,306	-53,448	0,023	-0,008
-389,292	-200,000	0,004	-0,178
-388,277	142,781	-0,023	-0,022
-387,263	174,201	-0,058	0,062
-386,248	-200,000	0,006	-0,053
-385,233	-80,145	0,027	0,006
-384,219	-49,125	0,069	-0,024
-383,204	800,000	-0,068	-0,145
-382,190	800,000	-0,025	-0,072
-381,175	447,453	-0,019	0,031
-380,160	-30,325	-0,106	0,044
-379,146	-200,000	0,006	-0,116
-378,131	-200,000	0,020	-0,085
-377,117	800,000	0,021	0,045
-376,102	-107,269	-0,088	-0,014
-375,088	70,696	-0,092	0,070
-374,073	-200,000	0,015	0,115
-373,058	731,655	0,068	0,134
-372,044	-166,528	0,123	-0,004
-371,029	-72,475	-0,096	0,026
-370,015	-97,898	-0,073	0,014
-369,000	-200,000	0,004	-0,037
-367,985	-125,822	-0,083	0,009
-366,971	-175,123	0,055	0,001
-365,956	-200,000	0,012	-0,058
-364,942	256,938	-0,031	-0,039
-363,927	376,024	0,014	-0,022
-362,912	-172,956	-0,083	0,002
-361,898	800,000	-0,034	-0,076
-360,883	-133,345	-0,058	0,005
-359,869	-200,000	-0,035	-0,128
-358,854	120,895	0,092	-0,084
-357,839	-128,911	0,009	-0,001
-356,825	363,311	0,069	0,103
-355,810	-136,307	-0,051	0,004
-354,796	-200,000	0,026	0,139
-353,781	-200,000	-0,016	0,073
-352,766	36,677	-0,065	-0,042
-351,752	-3,083	-0,033	-0,017
-350,737	390,452	-0,053	-0,081
-349,723	564,611	0,025	0,044
-348,708	13,338	0,049	0,028
-347,693	-200,000	-0,004	0,024
-346,679	-40,956	-0,096	-0,036
-345,664	708,548	-0,011	0,022
-344,650	-110,513	0,054	0,008
-343,635	-200,000	-0,015	-0,051
-342,620	-200,000	0,002	-0,093
-341,606	20,752	0,119	-0,070
-340,591	54,884	0,108	-0,077
-339,577	-200,000	0,010	-0,053
-338,562	131,113	-0,030	0,028
-337,548	-200,000	0,013	0,150
-336,533	-200,000	-0,028	-0,127
-335,518	431,034	-0,029	-0,047
-334,504	261,180	0,057	-0,073
-333,489	53,679	-0,101	-0,071
-332,475	458,444	-0,036	0,059
-331,460	-73,379	-0,035	0,009
-330,445	-101,863	-0,055	-0,010
-329,431	195,529	-0,005	0,006
-328,416	128,791	0,071	-0,067
-327,402	-200,000	0,016	0,113
-326,387	-200,000	0,002	-0,062
-325,372	800,000	0,027	0,059
-324,358	105,403	0,113	-0,098
-323,343	-10,896	0,057	0,027
-322,329	800,000	-0,012	-0,031
-321,314	-105,379	0,099	0,016
-320,299	291,131	0,070	0,094
-319,285	-155,653	-0,074	0,003
-318,270	257,952	-0,048	-0,061
-317,256	44,497	0,090	-0,061
-316,241	10,877	-0,076	-0,042
-315,226	5,073	0,009	0,005
-314,212	65,490	-0,020	0,015
-313,197	-200,000	-0,010	0,038
-312,183	800,000	0,023	0,062
-311,168	-200,000	-0,011	-0,144
-310,153	-98,759	-0,079	-0,015
-309,139	800,000	-0,038	0,082
-308,124	-200,000	-0,005	0,047
-307,110	5,523	0,153	0,083
-306,095	40,527	0,115	0,076
-305,080	800,000	-0,048	-0,128
-304,066	599,462	-0,066	0,120
-303,051	52,781	0,066	0,046
-302,037	-9,330	-0,138	0,067
-301,022	211,462	-0,012	0,013
-300,008	-200,000	0,006	-0,098
-298,993	-152,837	0,182	0,009
-297,978	141,777	0,141	0,137
-296,964	43,152	0,059	-0,039
-295,949	-142,331	-0,135	-0,010
-294,935	19,875	-0,155	0,091
-293,920	-200,000	0,020	0,108
-292,905	17,732	0,109	-0,064
-291,891	14,944	-0,036	0,020
-290,876	-200,000	0,029	0,130
-289,862	-97,655	0,084	0,016
-288,847	-137,590	-0,152	0,012
-287,832	5,968	-0,117	-0,063
-286,818	-79,787	0,113	0,028
-285,803	-200,000	0,027	0,155
-284,789	181,872	-0,020	0,022
-283,774	800,000	0,027	0,068
-282,759	-200,000	-0,028	-0,144
-281,745	-200,000	-0,010	0,058
-280,730	131,261	-0,081	-0,076
-279,716	-144,619	-0,083	-0,005
-278,701	-100,849	0,176	0,031
-277,686	-200,000	-0,026	0,146
-276,672	-200,000	0,006	-0,069
-275,657	95,768	-0,047	0,039
-274,643	107,647	-0,064	-0,056
-273,628	-200,000	0,030	-0,121
-272,613	-200,000	0,029	-0,133
-271,599	-200,000	-0,005	-0,032
-270,584	-200,000	0,001	0,031
-269,570	-23,365	0,040	0,017
-268,555	-200,000	-0,017	0,099
-267,540	-92,982	-0,032	0,006
-266,526	-200,000	-0,023	-0,087
-265,511	-200,000	0,010	-0,212
-264,497	221,116	0,038	0,045
-263,482	-83,428	0,054	-0,013
-262,467	-0,826	0,038	0,020
-261,453	-200,000	0,002	0,018
-260,438	-200,000	0,046	0,222
-259,424	-68,574	-0,130	0,037
-258,409	-44,016	-0,071	-0,026
-257,395	-88,414	0,070	-0,015
-256,380	296,252	0,052	0,070
-255,365	107,016	-0,035	-0,030
-254,351	108,643	0,078	-0,068
-253,336	111,045	-0,036	0,032
-252,322	-3,126	-0,109	0,055
-251,307	42,701	-0,122	-0,081
-250,292	-200,000	-0,016	0,071
-249,278	34,206	0,115	0,073
-248,263	-200,000	0,012	-0,042
-247,249	-200,000	0,030	0,201
-246,234	677,621	0,046	0,088
-245,219	81,732	0,077	-0,061
-244,205	311,633	0,084	-0,115
-243,190	800,000	0,033	0,091
-242,176	-17,248	0,143	0,066
-241,161	481,603	0,011	0,018
-240,146	800,000	-0,044	0,096
-239,132	-34,790	-0,125	-0,050
-238,117	140,084	-0,071	-0,069
-237,103	-200,000	-0,013	0,169
-236,088	-76,787	-0,070	0,018
-235,073	198,310	0,094	0,105
-234,059	352,238	-0,043	0,063
-233,044	86,929	0,061	-0,049
-232,030	-200,000	0,012	0,105
-231,015	231,435	-0,027	0,032
-230,000	444,879	-0,031	0,050
-228,986	700,121	0,059	-0,114
-227,971	-200,000	0,029	-0,110
-226,957	683,567	0,074	0,141
-225,942	-36,168	-0,074	0,029
-224,927	150,806	0,113	-0,112
-223,913	292,618	-0,017	-0,022
-222,898	-18,806	0,118	-0,054
-221,884	438,557	0,060	0,096
-220,869	302,619	-0,047	0,064
-219,855	603,237	-0,017	0,032
-218,840	-200,000	-0,009	0,103
-217,825	239,488	-0,044	0,054
-216,811	-25,363	-0,061	-0,026
-215,796	-200,000	-0,004	-0,054
-214,782	49,998	-0,106	0,073
-213,767	235,025	-0,046	0,055
-212,752	573,831	0,028	0,050
-211,738	232,233	0,088	-0,106
-210,723	-78,700	0,047	0,012
-209,709	-113,900	0,148	-0,021
-208,694	156,288	-0,028	0,029
-207,679	38,694	-0,056	0,036
-206,665	265,805	-0,063	-0,080
-205,650	-200,000	0,006	-0,094
-204,636	-3,632	0,088	-0,044
-203,621	-55,502	-0,160	0,052
-202,606	322,554	0,054	0,075
-201,592	-9,409	-0,076	0,037
-200,577	-23,092	0,077	0,034
-199,563	-142,797	-0,034	0,002
-198,548	-200,000	0,004	-0,054
-197,533	748,808	0,041	0,082
-196,519	-200,000	-0,004	0,108
-195,504	-39,303	-0,159	0,061
-194,490	-200,000	0,027	-0,113
-193,475	719,642	-0,043	-0,084
-192,460	800,000	-0,065	-0,151
-191,446	88,878	-0,037	-0,030
-190,431	-9,798	0,019	0,009
-189,417	-200,000	0,011	0,043
-188,402	-200,000	-0,001	-0,027
-187,387	59,006	0,021	0,015
-186,373	231,846	-0,122	0,146
-185,358	-123,736	0,072	-0,008
-184,344	-200,000	0,109	-0,000
-183,329	65,870	0,059	0,044
-182,315	196,202	0,134	0,149
-181,300	-39,109	0,076	-0,029
-180,285	800,000	0,024	-0,057
-179,271	-156,303	-0,123	-0,006
-178,256	798,254	-0,092	-0,186
-177,242	754,495	0,079	-0,156
-176,227	-70,479	-0,140	0,038
-175,212	800,000	0,030	-0,083
-174,198	546,864	0,050	-0,088
-173,183	800,000	-0,026	-0,054
-172,169	-71,795	0,115	-0,031
-171,154	99,515	-0,045	-0,038
-170,139	-78,795	0,053	0,013
-169,125	800,000	0,064	0,181
-168,110	-0,346	0,117	-0,060
-167,096	-148,916	-0,080	0,005
-166,081	800,000	-0,044	0,143
-165,066	117,976	-0,039	-0,035
-164,052	196,775	-0,041	-0,046
-163,037	-48,108	-0,037	0,013
-162,023	82,783	0,118	0,094
-161,008	-40,857	0,061	-0,023
-159,993	241,138	-0,038	0,046
-158,979	143,602	0,028	-0,028
-157,964	131,251	0,032	0,030
-156,950	-200,000	-0,018	-0,133
-155,935	-9,162	-0,038	-0,018
-154,920	427,897	0,048	0,075
-153,906	-22,083	-0,019	0,008
-152,891	207,857	-0,111	0,126
-151,877	-137,243	0,112	-0,009
-150,862	800,000	0,004	-0,009
-149,847	764,239	0,024	-0,048
-148,833	-200,000	0,004	0,103
-147,818	17,594	0,126	-0,073
-146,804	-127,903	-0,169	-0,018
-145,789	-158,306	0,083	-0,003
-144,775	336,768	-0,015	0,021
-143,760	102,256	-0,027	-0,023
-142,745	-200,000	-0,008	0,094
-141,731	152,665	0,067	-0,067
-140,716	-5,542	0,100	-0,050
-139,702	115,908	0,083	-0,074
-138,687	723,838	-0,014	-0,028
-137,672	-31,829	0,028	-0,011
-136,658	-200,000	-0,004	-0,184
-135,643	-114,039	-0,170	-0,024
-134,629	255,984	-0,055	-0,068
-133,614	107,970	-0,063	0,054
-132,599	-200,000	-0,016	0,107
-131,585	797,417	-0,056	0,113
-130,570	-59,748	0,014	-0,004
-129,556	248,368	-0,037	0,046
-128,541	-200,000	-0,024	-0,156
-127,526	34,010	-0,099	-0,063
-126,512	-200,000	-0,025	-0,097
-125,497	61,623	-0,036	-0,026
-124,483	-13,608	0,036	0,017
-123,468	-200,000	-0,020	0,144
-122,453	2,297	-0,087	0,046
-121,439	356,016	0,032	-0,046
-120,424	-136,001	-0,083	0,007
-119,410	185,715	-0,012	0,013
