DTS Sentinel unit serial number:	SN410029Multiplexer serial number:	ORYXHardware model number:	OX2-SRSoftware version number:	ORYX F/W v4,00 Oryx Data Collector v3.7.2.0data status	okinstallation	B6 Nyhavnadifferential loss correction	single-endedforward channel	channel 2reverse channel	N/Adate	2023/12/08time	10:35:08forward acquisition time	300,00reverse acquisition time	0,00gamma	499,1914k internal	0,3163k external	0,3163temperature offset calibration	1,0000default loss term (dB/km)	0,3820temperature slope calibration	1,0000multiplexer offset coefficient	1,0000multiplexer slope coefficient	1,0000fibre end	0,00T internal ref (°C)	14,49T ext. ref 1 (°C)	-1,28T ext. ref 2 (°C)	-1,24length (m)	temperature (°C)	Stokes	anti-Stokes-744,400	-122,920	0,091	0,011
-743,385	-115,028	-0,283	0,039
-742,371	-200,000	0,007	0,160
-741,356	-65,785	-0,273	0,080
-740,342	-200,000	-0,019	0,100
-739,327	-154,904	-0,286	-0,014
-738,312	-3,820	0,020	0,010
-737,298	-105,529	-0,381	-0,063
-736,283	-32,857	0,241	0,098
-735,269	-168,057	-0,301	-0,008
-734,254	-36,672	0,115	0,045
-733,239	-21,416	-0,375	-0,168
-732,225	-141,570	0,170	0,012
-731,210	34,613	0,060	0,038
-730,196	37,366	0,128	0,083
-729,181	-200,000	0,004	0,101
-728,167	-200,000	-0,003	0,027
-727,152	-105,163	-0,124	-0,021
-726,137	48,348	-0,032	-0,022
-725,123	800,000	-0,056	-0,118
-724,108	-200,000	-0,009	-0,133
-723,094	-46,307	-0,108	-0,039
-722,079	487,444	-0,048	-0,080
-721,064	-10,939	-0,100	-0,048
-720,050	-190,157	0,038	-0,000
-719,035	25,616	-0,082	0,050
-718,021	-52,446	-0,088	0,030
-717,006	-200,000	0,026	-0,116
-715,991	197,791	-0,026	-0,029
-714,977	-78,931	0,032	0,008
-713,962	-200,000	0,021	-0,183
-712,948	-200,000	0,052	-0,211
-711,933	1,659	0,005	0,003
-710,918	800,000	0,040	-0,092
-709,904	139,941	0,017	0,016
-708,889	9,154	-0,147	-0,081
-707,875	95,118	-0,058	-0,049
-706,860	-200,000	0,001	-0,022
-705,845	105,058	0,062	0,054
-704,831	280,322	-0,024	-0,032
-703,816	175,081	-0,033	0,036
-702,802	88,489	-0,078	0,063
-701,787	9,079	-0,161	-0,089
-700,772	253,320	-0,060	-0,075
-699,758	39,603	-0,080	0,052
-698,743	-5,464	0,021	0,010
-697,729	-200,000	0,000	-0,078
-696,714	800,000	0,035	0,087
-695,699	749,295	0,061	-0,121
-694,685	800,000	-0,004	-0,009
-693,670	-200,000	-0,020	-0,113
-692,656	-200,000	0,024	-0,116
-691,641	-200,000	0,008	-0,058
-690,627	-200,000	0,006	0,040
-689,612	800,000	-0,021	-0,068
-688,597	383,830	-0,098	0,149
-687,583	39,194	-0,162	-0,106
-686,568	-200,000	-0,019	-0,064
-685,554	-200,000	0,012	-0,120
-684,539	-144,749	0,055	0,004
-683,524	292,979	-0,025	-0,034
-682,510	187,753	-0,093	0,102
-681,495	689,356	-0,017	0,032
-680,481	-65,586	-0,126	0,037
-679,466	31,448	-0,064	-0,040
-678,451	-25,491	-0,104	0,045
-677,437	-20,768	0,041	-0,019
-676,422	-120,971	0,055	-0,007
-675,408	9,479	0,111	-0,062
-674,393	304,258	-0,099	-0,135
-673,378	-200,000	-0,014	-0,139
-672,364	205,935	-0,059	-0,068
-671,349	283,931	-0,083	-0,110
-670,335	800,000	0,039	-0,081
-669,320	117,300	-0,081	-0,073
-668,305	-200,000	0,011	-0,139
-667,291	109,586	0,213	0,187
-666,276	-200,000	-0,018	0,086
-665,262	-200,000	-0,009	-0,112
-664,247	755,769	0,053	-0,107
-663,232	-200,000	0,042	-0,143
-662,218	-200,000	-0,003	-0,014
-661,203	800,000	-0,091	0,221
-660,189	-200,000	-0,026	0,121
-659,174	65,743	-0,043	0,032
-658,159	-200,000	0,003	-0,061
-657,145	95,937	0,114	0,095
-656,130	60,353	0,047	-0,034
-655,116	-137,798	-0,118	0,010
-654,101	529,916	0,022	0,038
-653,086	12,364	-0,088	-0,050
-652,072	-200,000	-0,033	-0,108
-651,057	131,601	-0,168	-0,158
-650,043	20,172	0,033	0,019
-649,028	216,588	0,082	-0,096
-648,014	-51,297	-0,141	0,048
-646,999	37,325	0,116	0,075
-645,984	-50,297	-0,105	0,036
-644,970	187,552	-0,071	-0,078
-643,955	368,514	0,035	-0,052
-642,941	-79,894	-0,118	-0,029
-641,926	800,000	-0,009	0,027
-640,911	-200,000	0,004	0,041
-639,897	90,771	0,092	-0,076
-638,882	-200,000	-0,004	0,025
-637,868	-99,375	-0,050	-0,009
-636,853	321,417	0,021	-0,030
-635,838	50,651	-0,088	-0,061
-634,824	-100,764	-0,145	-0,026
-633,809	35,325	0,056	-0,036
-632,795	403,910	-0,047	-0,073
-631,780	-6,590	-0,075	0,037
-630,765	-200,000	-0,025	-0,084
-629,751	31,179	-0,064	-0,040
-628,736	-75,899	-0,076	-0,020
-627,722	-93,964	0,041	-0,008
-626,707	800,000	-0,034	-0,075
-625,692	362,075	0,034	0,050
-624,678	-200,000	0,003	0,052
-623,663	503,807	-0,041	-0,069
-622,649	500,511	0,050	0,085
-621,634	-40,044	0,079	0,030
-620,619	-12,506	0,045	-0,021
-619,605	-23,653	-0,075	-0,033
-618,590	637,744	0,098	0,184
-617,576	-200,000	-0,002	-0,021
-616,561	51,088	0,089	-0,062
-615,546	-200,000	-0,006	0,243
-614,532	-200,000	-0,017	-0,068
-613,517	-200,000	0,007	0,029
-612,503	-33,581	-0,106	-0,043
-611,488	-144,888	0,047	-0,003
-610,474	296,714	0,031	-0,042
-609,459	800,000	-0,004	0,010
-608,444	487,823	0,067	-0,113
-607,430	-200,000	-0,003	-0,145
-606,415	-200,000	-0,011	-0,050
-605,401	236,877	-0,031	0,037
-604,386	137,604	0,011	-0,011
-603,371	363,169	0,072	0,105
-602,357	-8,974	0,031	0,015
-601,342	71,692	0,050	-0,038
-600,328	657,292	-0,019	-0,036
-599,313	-200,000	0,004	-0,056
-598,298	227,332	0,038	-0,045
-597,284	735,342	0,052	0,103
-596,269	448,518	0,057	-0,092
-595,255	80,655	-0,071	-0,056
-594,240	-68,090	0,065	-0,018
-593,225	-200,000	0,036	-0,227
-592,211	-200,000	-0,006	-0,163
-591,196	197,072	0,024	0,027
-590,182	-40,413	-0,050	0,019
-589,167	-98,325	-0,060	0,011
-588,152	-50,671	-0,100	0,034
-587,138	90,880	-0,067	-0,055
-586,123	209,075	-0,028	-0,032
-585,109	19,084	-0,164	0,096
-584,094	800,000	0,025	0,066
-583,079	106,067	0,086	0,074
-582,065	-62,009	0,193	-0,059
-581,050	14,328	0,050	0,029
-580,036	203,475	0,016	0,019
-579,021	-200,000	-0,019	0,101
-578,006	270,461	0,054	-0,070
-576,992	165,837	-0,081	0,084
-575,977	-36,485	-0,156	-0,061
-574,963	610,582	0,061	0,111
-573,948	800,000	-0,023	-0,050
-572,934	69,599	-0,076	0,058
-571,919	-80,854	-0,012	0,003
-570,904	-152,342	0,024	0,001
-569,890	800,000	-0,037	-0,084
-568,875	-4,579	0,052	0,026
-567,861	-7,798	0,036	-0,018
-566,846	-200,000	-0,008	-0,040
-565,831	800,000	-0,017	-0,046
-564,817	-200,000	-0,017	-0,099
-563,802	-200,000	-0,010	0,103
-562,788	-154,516	0,008	0,000
-561,773	800,000	0,030	-0,088
-560,758	-200,000	0,045	0,160
-559,744	-74,613	-0,012	0,003
-558,729	-200,000	-0,024	-0,086
-557,715	63,206	-0,052	0,038
-556,700	-200,000	-0,016	-0,124
-555,685	-200,000	-0,002	-0,028
-554,671	-121,061	-0,029	-0,004
-553,656	32,651	0,066	0,042
-552,642	4,549	0,041	0,022
-551,627	-200,000	0,005	0,123
-550,612	-200,000	-0,046	0,159
-549,598	-200,000	-0,030	0,097
-548,583	-147,424	-0,040	-0,002
-547,569	-200,000	0,000	-0,155
-546,554	-200,000	0,040	0,137
-545,539	164,642	0,095	0,098
-544,525	152,230	0,062	0,062
-543,510	450,927	0,058	-0,093
-542,496	12,399	-0,066	-0,037
-541,481	-200,000	0,005	-0,034
-540,466	-200,000	-0,010	0,076
-539,452	501,500	-0,046	0,078
-538,437	800,000	0,076	0,163
-537,423	-51,481	-0,115	-0,039
-536,408	-182,445	-0,111	-0,001
-535,393	18,477	0,046	-0,027
-534,379	479,978	-0,092	-0,153
-533,364	-4,880	-0,102	-0,051
-532,350	-84,311	-0,052	-0,012
-531,335	800,000	0,038	0,087
-530,321	101,931	0,124	0,106
-529,306	-22,517	-0,033	0,014
-528,291	90,778	-0,091	0,074
-527,277	-200,000	0,001	0,032
-526,262	-200,000	-0,003	-0,019
-525,248	170,925	0,044	0,046
-524,233	-174,161	0,081	0,002
-523,218	341,038	-0,019	0,028
-522,204	-200,000	0,014	-0,072
-521,189	-200,000	0,016	-0,106
-520,175	-200,000	0,004	0,049
-519,160	-200,000	0,008	-0,037
-518,145	152,397	-0,075	0,075
-517,131	-200,000	-0,007	0,044
-516,116	800,000	-0,034	0,097
-515,102	449,013	-0,049	0,079
-514,087	800,000	0,017	-0,045
-513,072	81,288	-0,171	-0,135
-512,058	-38,500	-0,096	-0,037
-511,043	485,886	0,035	0,059
-510,029	-200,000	-0,009	-0,054
-509,014	-49,924	-0,102	-0,035
-507,999	27,649	0,050	-0,031
-506,985	-162,673	-0,061	-0,002
-505,970	-6,360	0,065	-0,032
-504,956	800,000	-0,025	-0,056
-503,941	132,252	-0,028	-0,026
-502,926	800,000	-0,017	0,049
-501,912	-86,414	0,170	0,038
-500,897	78,291	0,089	-0,069
-499,883	644,063	-0,040	-0,075
-498,868	800,000	0,009	0,020
-497,853	404,559	0,071	0,109
-496,839	-22,640	0,078	0,034
-495,824	-181,290	0,073	-0,001
-494,810	39,248	-0,010	0,006
-493,795	393,611	0,070	-0,106
-492,781	-74,519	-0,066	0,017
-491,766	433,353	-0,088	0,140
-490,751	77,131	0,007	-0,005
-489,737	567,431	-0,086	0,153
-488,722	-87,679	0,124	0,027
-487,708	-89,419	-0,124	-0,026
-486,693	-200,000	0,024	0,084
-485,678	56,638	0,032	0,022
-484,664	85,774	-0,080	0,064
-483,649	-200,000	0,001	0,043
-482,635	77,011	-0,051	0,040
-481,620	-38,308	0,129	-0,050
-480,605	-80,366	-0,082	-0,020
-479,591	-2,515	0,087	-0,044
-478,576	-112,559	-0,084	-0,012
-477,562	800,000	0,019	0,045
-476,547	800,000	-0,009	-0,020
-475,532	-111,882	-0,059	-0,009
-474,518	-121,261	0,057	0,007
-473,503	-200,000	0,002	-0,044
-472,489	-200,000	0,007	-0,046
-471,474	251,133	0,037	0,045
-470,459	336,732	0,008	0,012
-469,445	-162,665	-0,069	-0,002
-468,430	-104,833	-0,215	-0,036
-467,416	242,556	0,027	0,032
-466,401	117,876	0,140	-0,126
-465,386	-180,942	-0,102	0,001
-464,372	-200,000	-0,015	0,083
-463,357	20,410	-0,096	-0,057
-462,343	510,966	0,028	-0,047
-461,328	-59,137	0,042	-0,013
-460,313	-0,161	-0,058	-0,030
-459,299	-17,197	0,126	0,058
-458,284	-141,582	0,133	0,010
-457,270	37,691	-0,042	-0,027
-456,255	-138,124	-0,024	-0,002
-455,241	-105,994	-0,190	0,031
-454,226	208,859	0,052	0,060
-453,211	-147,672	0,089	-0,005
-452,197	431,821	-0,085	-0,135
-451,182	-200,000	0,001	-0,016
-450,168	133,623	-0,046	0,043
-449,153	-200,000	-0,012	-0,093
-448,138	-200,000	-0,018	-0,069
-447,124	-60,713	-0,062	-0,019
-446,109	-200,000	-0,002	-0,106
-445,095	62,479	0,055	-0,040
-444,080	146,148	0,128	0,125
-443,065	-122,143	0,110	-0,013
-442,051	82,227	-0,112	-0,089
-441,036	251,774	-0,057	-0,071
-440,022	-42,108	0,142	0,052
-439,007	-200,000	-0,007	-0,064
-437,992	358,751	0,042	-0,062
-436,978	-82,489	0,114	0,027
-435,963	63,512	-0,115	0,084
-434,949	-200,000	0,040	0,169
-433,934	-200,000	-0,001	-0,041
-432,919	134,624	-0,128	-0,121
-431,905	292,923	0,100	-0,133
-430,890	-64,625	-0,157	0,046
-429,876	-200,000	-0,022	0,085
-428,861	-70,163	-0,195	-0,054
-427,846	-200,000	0,005	0,098
-426,832	-200,000	-0,006	-0,051
-425,817	362,484	-0,060	-0,087
-424,803	-200,000	-0,003	0,075
-423,788	667,257	0,084	0,159
-422,773	4,857	0,087	-0,046
-421,759	14,086	0,151	-0,085
-420,744	388,919	0,053	-0,079
-419,730	-68,906	0,048	0,013
-418,715	-200,000	-0,009	-0,125
-417,701	150,812	0,049	-0,048
-416,686	-200,000	-0,005	-0,079
-415,671	-200,000	-0,010	0,114
-414,657	-65,482	0,058	-0,017
-413,642	800,000	0,029	-0,060
-412,628	-200,000	-0,015	-0,138
-411,613	-200,000	0,001	-0,082
-410,598	-12,243	-0,138	-0,065
-409,584	78,822	0,076	-0,059
-408,569	-200,000	-0,003	0,035
-407,555	-96,943	0,183	0,035
-406,540	95,021	-0,142	-0,118
-405,525	-200,000	0,014	0,098
-404,511	-200,000	-0,021	0,073
-403,496	-102,245	0,083	0,014
-402,482	-200,000	-0,007	-0,034
-401,467	-125,938	0,057	0,006
-400,452	-78,785	-0,036	0,009
-399,438	508,927	-0,088	-0,149
-398,423	53,133	-0,095	0,066
-397,409	-200,000	-0,009	-0,043
-396,394	268,393	-0,014	-0,018
-395,379	800,000	0,020	0,060
-394,365	144,802	-0,049	0,048
-393,350	210,915	0,092	0,105
-392,336	-200,000	0,020	0,068
-391,321	102,337	-0,047	0,040
-390,306	17,913	-0,063	-0,036
-389,292	-25,883	0,072	-0,031
-388,277	-124,611	-0,015	0,002
-387,263	-95,768	-0,066	-0,013
-386,248	81,518	0,126	0,099
-385,233	116,416	0,088	0,078
-384,219	-6,983	-0,079	-0,039
-383,204	218,519	0,094	-0,110
-382,190	800,000	-0,017	-0,039
-381,175	415,087	0,048	0,074
-380,160	800,000	-0,049	0,148
-379,146	265,476	0,082	0,104
-378,131	800,000	0,040	-0,091
-377,117	800,000	0,018	-0,044
-376,102	-7,757	-0,054	0,027
-375,088	-6,380	-0,159	-0,078
-374,073	327,758	-0,076	0,106
-373,058	-115,108	0,088	-0,012
-372,044	411,708	-0,109	0,169
-371,029	40,289	0,107	0,070
-370,015	-25,350	-0,061	-0,026
-369,000	4,317	-0,097	-0,051
-367,985	-155,420	0,146	0,007
-366,971	-200,000	0,026	0,123
-365,956	-184,072	0,106	0,001
-364,942	179,248	-0,045	-0,048
-363,927	42,817	-0,012	-0,008
-362,912	800,000	-0,044	0,125
-361,898	-8,361	-0,135	-0,065
-360,883	28,030	0,115	-0,070
-359,869	-200,000	0,034	-0,186
-358,854	-200,000	0,014	-0,092
-357,839	57,471	0,108	-0,077
-356,825	61,294	-0,147	0,106
-355,810	-200,000	0,008	0,144
-354,796	-65,281	-0,101	0,029
-353,781	-200,000	0,004	-0,023
-352,766	-110,651	0,039	0,006
-351,752	-106,800	0,185	0,029
-350,737	-102,997	-0,033	-0,006
-349,723	539,365	0,081	0,140
-348,708	37,756	-0,027	0,017
-347,693	-84,928	-0,073	0,016
-346,679	-38,707	-0,068	0,026
-345,664	123,648	-0,054	-0,049
-344,650	94,665	-0,053	-0,044
-343,635	-200,000	-0,011	-0,075
-342,620	71,668	0,099	0,075
-341,606	277,311	0,056	-0,073
-340,591	53,400	-0,041	0,029
-339,577	-105,495	0,088	-0,014
-338,562	-182,409	-0,023	-0,000
-337,548	55,915	0,036	-0,025
-336,533	157,449	0,072	0,072
-335,518	437,253	0,034	0,054
-334,504	234,261	-0,084	0,100
-333,489	81,877	0,052	0,041
-332,475	93,461	0,082	-0,067
-331,460	-200,000	0,004	-0,020
-330,445	183,668	-0,110	0,118
-329,431	9,822	0,141	0,077
-328,416	-166,699	-0,155	0,005
-327,402	-200,000	0,005	-0,018
-326,387	-200,000	0,048	0,163
-325,372	-27,923	0,049	-0,021
-324,358	-200,000	-0,027	-0,103
-323,343	-1,438	0,082	-0,042
-322,329	-42,251	0,111	0,041
-321,314	-18,047	0,087	0,039
-320,299	-200,000	-0,001	0,131
-319,285	290,149	-0,125	0,164
-318,270	-137,463	0,088	-0,007
-317,256	-149,115	-0,031	-0,002
-316,241	800,000	0,007	-0,020
-315,226	-38,269	-0,033	0,012
-314,212	122,176	-0,048	0,043
-313,197	-79,421	0,070	-0,017
-312,183	-200,000	-0,002	0,104
-311,168	37,898	0,179	-0,115
-310,153	78,794	-0,082	-0,063
-309,139	-200,000	-0,035	-0,137
-308,124	-110,289	0,048	-0,007
-307,110	433,604	-0,033	-0,052
-306,095	800,000	0,026	-0,063
-305,080	-200,000	0,011	-0,042
-304,066	-81,823	-0,157	-0,037
-303,051	-200,000	-0,012	0,108
-302,037	-104,417	0,013	0,002
-301,022	-200,000	0,010	-0,074
-300,008	291,779	0,084	0,111
-298,993	-37,816	0,081	-0,031
-297,978	-200,000	-0,004	-0,173
-296,964	12,126	-0,115	0,064
-295,949	-73,180	-0,095	-0,025
-294,935	-15,296	0,128	0,059
-293,920	-200,000	-0,023	-0,140
-292,905	-200,000	-0,055	0,197
-291,891	-23,073	0,031	0,014
-290,876	-62,818	0,177	0,053
-289,862	-167,096	-0,072	0,002
-288,847	-200,000	0,012	-0,061
-287,832	71,026	-0,018	0,013
-286,818	-200,000	0,020	-0,104
-285,803	800,000	-0,031	-0,089
-284,789	213,255	0,102	0,116
-283,774	792,962	-0,047	0,094
-282,759	71,729	0,040	0,030
-281,745	-200,000	0,003	-0,050
-280,730	196,546	-0,063	-0,069
-279,716	-187,807	0,014	0,000
-278,701	-200,000	-0,031	0,137
-277,686	800,000	0,053	0,156
-276,672	356,547	0,030	0,044
-275,657	-128,827	0,072	-0,007
-274,643	140,517	0,092	0,087
-273,628	800,000	0,033	-0,097
-272,613	42,942	-0,044	0,029
-271,599	16,791	0,141	0,080
-270,584	-200,000	-0,013	-0,075
-269,570	-45,443	0,052	-0,019
-268,555	-5,969	0,014	0,007
-267,540	-162,575	-0,095	-0,003
-266,526	86,963	0,071	-0,056
-265,511	-25,745	0,104	0,044
-264,497	-200,000	0,041	-0,165
-263,482	-200,000	-0,019	0,167
-262,467	-139,057	-0,048	-0,004
-261,453	-38,275	0,030	0,011
-260,438	62,020	-0,111	-0,080
-259,424	342,392	0,008	0,011
-258,409	-73,626	0,118	0,031
-257,395	423,327	-0,044	0,069
-256,380	-200,000	0,022	0,209
-255,365	11,661	0,091	0,050
-254,351	-83,366	0,096	0,022
-253,336	-200,000	-0,010	-0,062
-252,322	-56,942	-0,121	-0,038
-251,307	17,408	0,009	-0,005
-250,292	202,558	-0,046	0,052
-249,278	800,000	-0,018	-0,042
-248,263	220,086	-0,056	0,065
-247,249	-114,266	0,029	-0,004
-246,234	-200,000	-0,003	0,022
-245,219	-84,367	0,054	0,012
-244,205	-44,750	-0,077	-0,028
-243,190	291,578	-0,031	-0,041
-242,176	128,988	0,136	-0,125
-241,161	547,802	-0,049	-0,085
-240,146	-88,659	-0,052	-0,011
-239,132	-91,609	0,082	0,017
-238,117	-29,090	-0,031	-0,013
-237,103	-160,921	-0,070	0,003
-236,088	105,911	-0,120	-0,102
-235,073	800,000	-0,045	0,105
-234,059	-112,373	0,068	0,010
-233,044	90,340	0,093	0,075
-232,030	-138,877	-0,091	-0,007
-231,015	358,829	-0,127	0,183
-230,000	-200,000	-0,029	-0,099
-228,986	99,875	-0,151	0,126
-227,971	-200,000	0,010	0,051
-226,957	-98,454	0,034	0,006
-225,942	-200,000	-0,021	0,069
-224,927	800,000	0,028	0,068
-223,913	-32,721	-0,109	-0,043
-222,898	523,267	-0,035	-0,059
-221,884	-200,000	0,018	-0,098
-220,869	-88,317	0,046	0,010
-219,855	196,475	0,041	0,045
-218,840	-200,000	-0,014	0,102
-217,825	15,557	0,025	-0,014
-216,811	17,432	-0,117	-0,067
-215,796	137,353	0,143	-0,135
-214,782	246,956	-0,063	-0,077
-213,767	-200,000	0,022	0,137
-212,752	120,686	0,065	-0,058
-211,738	-200,000	0,010	-0,055
-210,723	-200,000	-0,004	0,062
-209,709	-200,000	-0,034	-0,148
-208,694	800,000	0,045	0,094
-207,679	-48,958	-0,111	0,038
-206,665	-200,000	-0,001	0,019
-205,650	-55,894	0,089	0,028
-204,636	-80,553	-0,041	-0,010
-203,621	800,000	-0,019	-0,041
-202,606	800,000	-0,020	0,061
-201,592	48,022	-0,098	-0,066
-200,577	350,380	0,040	-0,058
-199,563	6,574	0,090	-0,048
-198,548	-58,813	-0,032	-0,010
-197,533	-149,320	-0,014	0,001
-196,519	556,025	-0,057	-0,100
-195,504	-200,000	0,000	-0,050
-194,490	363,093	-0,070	-0,102
-193,475	-200,000	-0,000	-0,014
-192,460	236,476	0,074	0,088
-191,446	170,454	0,085	0,088
-190,431	800,000	-0,021	-0,052
-189,417	800,000	0,012	0,037
-188,402	448,734	-0,077	0,122
-187,387	84,812	-0,076	0,060
-186,373	800,000	-0,058	-0,117
-185,358	-200,000	0,019	-0,129
-184,344	-104,979	0,145	-0,024
-183,329	-90,348	0,083	0,017
-182,315	-76,507	-0,077	-0,019
-181,300	289,521	-0,078	0,103
-180,285	454,104	-0,052	0,082
-179,271	-200,000	0,040	-0,224
-178,256	142,027	0,029	-0,028
-177,242	173,730	0,060	-0,062
-176,227	-160,819	0,056	0,002
-175,212	507,904	0,036	-0,061
-174,198	614,510	0,076	-0,137
-173,183	800,000	-0,026	-0,056
-172,169	390,921	-0,123	-0,184
-171,154	-200,000	-0,027	-0,131
-170,139	61,712	0,108	-0,078
-169,125	800,000	0,038	0,088
-168,110	792,802	0,048	0,096
-167,096	101,570	0,030	0,026
-166,081	800,000	-0,020	0,041
-165,066	-200,000	-0,005	-0,128
-164,052	713,993	-0,007	0,014
-163,037	-159,333	0,108	0,004
-162,023	800,000	0,015	0,034
-161,008	-200,000	-0,002	0,028
-159,993	110,592	-0,033	0,029
-158,979	-200,000	0,003	0,036
-157,964	-200,000	-0,002	0,164
-156,950	-69,025	-0,083	0,023
-155,935	740,429	-0,003	0,006
-154,920	374,301	0,040	0,059
-153,906	79,107	-0,109	-0,084
-152,891	-200,000	-0,004	0,071
-151,877	87,914	0,042	-0,034
-150,862	-21,246	-0,126	0,055
-149,847	-133,804	0,055	-0,005
-148,833	-51,044	-0,042	-0,014
-147,818	113,586	0,023	-0,020
-146,804	122,996	0,066	0,059
-145,789	7,207	-0,070	-0,038
-144,775	-200,000	-0,005	0,171
-143,760	800,000	-0,035	-0,109
-142,745	800,000	-0,027	-0,073
-141,731	-200,000	-0,028	0,105
-140,716	-82,683	0,076	0,018
-139,702	11,051	0,131	0,072
-138,687	27,199	0,102	0,061
-137,672	305,491	0,074	-0,099
-136,658	-67,465	-0,097	-0,027
-135,643	800,000	0,025	0,051
-134,629	800,000	0,022	0,065
-133,614	-17,133	0,018	-0,008
-132,599	-162,021	0,135	0,005
-131,585	-88,586	0,142	0,030
-130,570	-18,066	0,068	0,030
-129,556	-200,000	-0,013	-0,044
-128,541	153,495	-0,080	-0,079
-127,526	-63,962	-0,166	0,048
-126,512	681,630	0,052	0,098
-125,497	162,801	0,095	0,096
-124,483	800,000	-0,062	0,170
-123,468	-86,935	0,081	-0,018
-122,453	-200,000	0,006	-0,028
-121,439	-73,621	0,068	0,018
-120,424	101,707	-0,132	-0,110
-119,410	-200,000	0,047	0,158
