DTS Sentinel unit serial number:	SN410029Multiplexer serial number:	ORYXHardware model number:	OX2-SRSoftware version number:	ORYX F/W v4,00 Oryx Data Collector v3.7.2.0data status	okinstallation	B6 Nyhavnadifferential loss correction	single-endedforward channel	channel 2reverse channel	N/Adate	2023/12/08time	06:55:08forward acquisition time	300,00reverse acquisition time	0,00gamma	499,1914k internal	0,3166k external	0,3166temperature offset calibration	1,0000default loss term (dB/km)	0,3820temperature slope calibration	1,0000multiplexer offset coefficient	1,0000multiplexer slope coefficient	1,0000fibre end	0,00T internal ref (°C)	13,06T ext. ref 1 (°C)	-3,51T ext. ref 2 (°C)	-3,51length (m)	temperature (°C)	Stokes	anti-Stokes-744,400	-21,981	0,134	0,059
-743,385	10,574	-0,187	-0,105
-742,371	-112,823	0,147	-0,021
-741,356	-188,551	-0,249	0,002
-740,342	800,000	0,063	0,138
-739,327	-136,740	-0,284	0,024
-738,312	-48,231	0,126	-0,045
-737,298	-106,796	-0,385	-0,062
-736,283	78,983	0,088	-0,069
-735,269	106,252	-0,250	-0,218
-734,254	77,329	0,154	-0,120
-733,239	-41,056	-0,300	-0,113
-732,225	201,950	0,098	-0,111
-731,210	351,647	0,046	0,068
-730,196	-200,000	-0,006	0,075
-729,181	-200,000	0,001	-0,052
-728,167	-127,029	-0,150	-0,016
-727,152	155,497	0,034	-0,034
-726,137	-200,000	0,005	-0,056
-725,123	-200,000	-0,006	0,060
-724,108	269,034	-0,026	-0,033
-723,094	-200,000	-0,047	-0,155
-722,079	-200,000	0,042	-0,147
-721,064	378,015	-0,035	-0,052
-720,050	-200,000	-0,021	-0,093
-719,035	-25,176	0,078	0,034
-718,021	-78,857	-0,074	-0,018
-717,006	93,042	-0,121	-0,101
-715,991	-36,180	-0,060	-0,024
-714,977	-60,596	-0,054	-0,017
-713,962	-54,686	-0,101	-0,033
-712,948	-66,064	0,101	0,030
-711,933	-40,435	-0,061	-0,023
-710,918	-200,000	0,022	-0,111
-709,904	698,187	0,028	-0,055
-708,889	-11,384	-0,131	-0,063
-707,875	-101,681	-0,087	0,015
-706,860	800,000	0,026	0,083
-705,845	-111,914	0,032	-0,005
-704,831	139,505	0,053	-0,051
-703,816	-82,639	-0,071	0,017
-702,802	-88,891	-0,087	0,019
-701,787	243,231	-0,041	-0,051
-700,772	261,564	0,089	-0,113
-699,758	140,088	0,036	-0,035
-698,743	800,000	0,050	0,105
-697,729	-200,000	0,001	-0,086
-696,714	-20,966	0,075	0,034
-695,699	800,000	0,020	0,055
-694,685	275,976	-0,073	-0,096
-693,670	13,968	-0,049	-0,028
-692,656	425,567	-0,036	-0,057
-691,641	-22,458	0,120	-0,053
-690,627	800,000	0,070	-0,153
-689,612	7,563	-0,079	-0,043
-688,597	-54,685	-0,079	0,026
-687,583	43,610	-0,118	-0,079
-686,568	398,759	-0,019	-0,030
-685,554	-200,000	-0,000	-0,012
-684,539	-200,000	-0,004	0,119
-683,524	96,074	0,035	0,030
-682,510	800,000	0,033	-0,087
-681,495	-200,000	-0,005	0,093
-680,481	-16,608	-0,070	0,032
-679,466	-141,274	0,057	0,004
-678,451	302,281	0,034	0,046
-677,437	-200,000	0,036	0,122
-676,422	560,273	0,033	0,058
-675,408	-117,246	-0,061	0,008
-674,393	-47,836	-0,083	-0,029
-673,378	479,149	0,041	-0,068
-672,364	392,216	-0,103	-0,158
-671,349	87,581	-0,042	-0,034
-670,335	162,932	0,035	0,036
-669,320	89,993	-0,098	-0,080
-668,305	-200,000	0,024	0,140
-667,291	-33,993	-0,104	0,042
-666,276	318,314	0,042	-0,058
-665,262	589,622	-0,058	0,105
-664,247	-200,000	-0,006	0,027
-663,232	-200,000	0,000	-0,014
-662,218	-98,444	0,083	-0,015
-661,203	-200,000	0,008	-0,030
-660,189	672,943	-0,036	0,069
-659,174	96,863	-0,134	-0,113
-658,159	270,870	-0,099	-0,128
-657,145	42,522	-0,135	-0,090
-656,130	89,650	0,061	-0,050
-655,116	-200,000	0,002	-0,078
-654,101	-140,859	0,072	-0,005
-653,086	-20,337	-0,119	-0,053
-652,072	-63,465	0,127	-0,038
-651,057	-71,027	-0,092	0,025
-650,043	52,120	0,054	0,037
-649,028	-200,000	0,024	-0,113
-648,014	-184,420	-0,282	-0,003
-646,999	44,756	0,069	0,047
-645,984	-200,000	0,002	0,260
-644,970	-65,105	0,046	-0,013
-643,955	66,644	-0,069	-0,051
-642,941	-78,864	-0,038	-0,009
-641,926	800,000	-0,036	0,089
-640,911	-111,122	-0,050	-0,007
-639,897	76,524	0,126	0,098
-638,882	-200,000	0,006	-0,069
-637,868	71,872	-0,140	0,107
-636,853	674,823	-0,051	-0,097
-635,838	-31,848	0,143	-0,058
-634,824	18,364	0,068	-0,040
-633,809	215,887	-0,041	0,048
-632,795	54,536	-0,093	0,065
-631,780	-200,000	0,005	0,050
-630,765	-139,693	-0,125	-0,010
-629,751	1,390	0,030	0,015
-628,736	562,191	0,050	-0,089
-627,722	-200,000	0,010	-0,114
-626,707	17,340	-0,107	0,062
-625,692	-121,175	0,211	-0,026
-624,678	-37,534	-0,021	-0,008
-623,663	-200,000	-0,012	-0,088
-622,649	-54,328	-0,215	-0,071
-621,634	-136,019	0,134	-0,011
-620,619	800,000	-0,058	0,121
-619,605	238,169	-0,085	0,104
-618,590	47,975	0,058	0,040
-617,576	129,257	0,031	-0,029
-616,561	793,592	0,061	-0,124
-615,546	-200,000	0,011	-0,054
-614,532	-200,000	-0,029	-0,141
-613,517	-47,464	0,070	-0,025
-612,503	90,339	0,024	-0,020
-611,488	-66,858	-0,112	-0,032
-610,474	48,444	-0,073	-0,050
-609,459	-82,955	0,177	-0,042
-608,444	-200,000	0,006	-0,023
-607,430	45,257	-0,088	-0,059
-606,415	457,547	0,065	-0,107
-605,401	548,007	-0,035	-0,061
-604,386	-200,000	0,003	-0,011
-603,371	-27,865	0,093	0,039
-602,357	-55,010	-0,050	-0,017
-601,342	184,491	-0,124	-0,134
-600,328	-200,000	-0,105	0,000
-599,313	-135,586	-0,075	0,006
-598,298	116,748	-0,103	-0,092
-597,284	624,000	0,091	0,168
-596,269	-200,000	-0,006	0,048
-595,255	-126,712	-0,049	0,005
-594,240	800,000	0,019	-0,052
-593,225	-153,987	-0,081	0,004
-592,211	543,746	-0,061	-0,107
-591,196	-200,000	-0,010	0,078
-590,182	709,451	0,023	0,045
-589,167	-33,465	-0,107	-0,043
-588,152	800,000	-0,063	-0,136
-587,138	-200,000	0,020	-0,082
-586,123	9,721	-0,076	-0,042
-585,109	670,036	0,049	0,092
-584,094	-15,206	-0,066	0,031
-583,079	800,000	0,036	-0,084
-582,065	197,630	-0,081	0,091
-581,050	-86,868	-0,178	0,039
-580,036	-67,063	0,129	-0,037
-579,021	800,000	-0,035	0,098
-578,006	-88,612	0,072	-0,015
-576,992	79,049	0,007	-0,005
-575,977	-13,134	0,159	-0,075
-574,963	800,000	-0,029	-0,076
-573,948	-168,388	-0,070	-0,002
-572,934	-200,000	-0,002	0,034
-571,919	429,156	-0,025	0,040
-570,904	-3,763	-0,063	-0,032
-569,890	41,857	-0,149	-0,099
-568,875	52,513	0,043	0,030
-567,861	63,532	0,077	0,057
-566,846	-93,047	0,111	-0,022
-565,831	410,014	0,111	-0,173
-564,817	-26,991	0,108	-0,046
-563,802	-200,000	-0,009	-0,046
-562,788	96,363	-0,052	0,044
-561,773	3,460	0,118	-0,063
-560,758	307,193	-0,070	-0,096
-559,744	154,132	0,041	0,041
-558,729	-200,000	0,004	-0,070
-557,715	800,000	-0,041	-0,117
-556,700	-4,824	-0,085	-0,043
-555,685	622,731	-0,062	-0,114
-554,671	-200,000	0,009	-0,078
-553,656	-162,853	0,052	-0,002
-552,642	2,446	0,112	0,059
-551,627	263,654	-0,040	0,051
-550,612	153,372	0,049	-0,049
-549,598	-146,294	-0,085	-0,005
-548,583	-200,000	-0,004	-0,048
-547,569	25,920	-0,020	0,012
-546,554	-58,347	0,093	-0,029
-545,539	800,000	-0,042	0,096
-544,525	-101,044	0,064	0,011
-543,510	800,000	-0,012	-0,032
-542,496	-131,878	0,036	-0,003
-541,481	-158,276	-0,090	-0,004
-540,466	-61,546	-0,096	-0,029
-539,452	110,921	-0,069	-0,061
-538,437	294,197	0,029	0,039
-537,423	75,545	-0,090	0,069
-536,408	121,813	-0,029	-0,026
-535,393	-69,972	0,118	-0,033
-534,379	177,235	0,067	0,071
-533,364	-200,000	0,009	0,051
-532,350	-72,436	-0,027	0,007
-531,335	13,420	0,175	0,099
-530,321	541,613	-0,038	-0,067
-529,306	194,655	0,051	0,056
-528,291	-35,247	-0,095	0,038
-527,277	-200,000	0,012	-0,042
-526,262	-200,000	-0,025	-0,200
-525,248	-200,000	0,012	0,157
-524,233	-200,000	-0,002	0,059
-523,218	-73,948	-0,117	0,031
-522,204	800,000	0,028	0,061
-521,189	-178,860	-0,093	-0,001
-520,175	185,077	0,030	-0,032
-519,160	-3,009	-0,045	-0,023
-518,145	800,000	-0,062	-0,128
-517,131	-200,000	-0,005	-0,022
-516,116	-200,000	-0,003	-0,013
-515,102	-129,465	-0,089	0,009
-514,087	-176,403	0,114	0,002
-513,072	79,660	-0,112	0,087
-512,058	126,651	-0,041	0,038
-511,043	-200,000	-0,001	-0,117
-510,029	625,421	0,062	0,115
-509,014	800,000	-0,020	0,046
-507,999	390,433	-0,039	0,059
-506,985	437,436	-0,072	-0,115
-505,970	-156,883	0,129	0,006
-504,956	-80,409	0,096	-0,023
-503,941	-200,000	-0,002	0,027
-502,926	-85,924	0,054	-0,012
-501,912	74,237	0,042	-0,032
-500,897	-200,000	0,012	0,176
-499,883	-200,000	0,004	0,056
-498,868	-86,138	-0,061	-0,014
-497,853	-68,287	-0,021	0,006
-496,839	-45,915	-0,012	-0,004
-495,824	-200,000	-0,002	-0,101
-494,810	124,389	0,083	-0,076
-493,795	-110,536	0,155	-0,023
-492,781	430,361	0,054	-0,085
-491,766	-179,092	0,132	0,002
-490,751	169,735	-0,125	-0,130
-489,737	-173,512	-0,018	0,000
-488,722	382,821	0,067	0,100
-487,708	45,587	-0,104	-0,069
-486,693	624,648	-0,050	-0,092
-485,678	-200,000	0,026	-0,101
-484,664	73,563	-0,042	0,032
-483,649	-200,000	0,008	-0,026
-482,635	-79,230	-0,167	0,041
-481,620	93,693	-0,034	-0,028
-480,605	-200,000	0,020	0,102
-479,591	-200,000	0,001	0,105
-478,576	-91,977	-0,043	-0,009
-477,562	-200,000	0,003	-0,024
-476,547	-14,095	-0,044	0,021
-475,532	800,000	-0,050	-0,122
-474,518	-134,526	-0,068	0,006
-473,503	-200,000	0,079	0,000
-472,489	800,000	-0,032	0,079
-471,474	645,050	0,025	0,047
-470,459	-133,230	0,032	-0,003
-469,445	6,416	0,031	0,017
-468,430	-200,000	0,022	0,096
-467,416	-22,254	0,088	-0,038
-466,401	35,589	0,088	-0,056
-465,386	-60,186	0,047	0,015
-464,372	118,121	-0,053	0,047
-463,357	328,604	-0,110	-0,154
-462,343	800,000	0,058	-0,121
-461,328	312,673	-0,084	-0,115
-460,313	-200,000	-0,005	0,017
-459,299	800,000	0,029	0,079
-458,284	90,806	0,136	0,111
-457,270	-177,596	-0,115	-0,002
-456,255	356,810	0,056	-0,082
-455,241	-200,000	-0,008	-0,051
-454,226	361,896	-0,011	-0,016
-453,211	-40,703	0,049	0,018
-452,197	800,000	-0,017	-0,039
-451,182	-200,000	0,021	0,089
-450,168	299,027	-0,051	0,068
-449,153	-53,433	-0,028	0,009
-448,138	89,120	0,067	0,055
-447,124	57,442	-0,108	-0,077
-446,109	-147,704	0,045	-0,003
-445,095	-42,897	-0,073	0,027
-444,080	1,915	-0,126	-0,066
-443,065	-117,793	0,080	-0,010
-442,051	4,988	0,013	0,007
-441,036	179,244	-0,097	-0,104
-440,022	439,930	-0,014	-0,023
-439,007	800,000	-0,023	0,053
-437,992	-200,000	0,021	-0,090
-436,978	-200,000	0,007	0,030
-435,963	-142,254	0,039	-0,003
-434,949	-116,117	-0,097	0,013
-433,934	136,728	-0,065	-0,062
-432,919	278,214	-0,019	-0,025
-431,905	252,221	0,075	-0,093
-430,890	-72,993	0,077	-0,020
-429,876	-30,092	0,140	-0,058
-428,861	-186,542	0,113	0,001
-427,846	150,249	-0,031	-0,030
-426,832	800,000	-0,037	-0,119
-425,817	146,905	0,035	-0,034
-424,803	-200,000	-0,022	-0,132
-423,788	112,650	0,143	-0,125
-422,773	13,908	-0,020	-0,011
-421,759	800,000	-0,009	-0,024
-420,744	-149,320	-0,102	0,006
-419,730	3,913	-0,055	0,029
-418,715	-200,000	0,004	-0,043
-417,701	70,134	0,082	-0,062
-416,686	220,532	-0,010	-0,012
-415,671	28,540	0,034	0,021
-414,657	41,061	0,097	-0,063
-413,642	10,461	-0,073	0,040
-412,628	-112,964	-0,034	0,005
-411,613	-151,023	-0,069	0,004
-410,598	414,998	0,031	0,048
-409,584	-53,819	0,050	0,017
-408,569	632,176	0,117	0,216
-407,555	-129,057	-0,026	0,003
-406,540	-148,479	-0,058	-0,003
-405,525	8,735	0,083	0,045
-404,511	-153,015	0,063	-0,003
-403,496	-45,848	-0,201	0,072
-402,482	-161,972	0,143	-0,005
-401,467	-108,202	0,133	0,021
-400,452	79,924	0,050	0,039
-399,438	82,397	-0,132	0,103
-398,423	-47,808	-0,097	-0,034
-397,409	-42,804	-0,008	0,003
-396,394	-45,756	-0,027	0,009
-395,379	-168,184	0,097	-0,003
-394,365	800,000	0,020	0,042
-393,350	36,878	-0,119	0,076
-392,336	-59,875	-0,014	0,004
-391,321	162,890	-0,051	-0,052
-390,306	-56,409	0,101	-0,032
-389,292	-128,601	-0,040	-0,004
-388,277	-17,371	0,081	-0,037
-387,263	-135,755	-0,060	-0,005
-386,248	-200,000	0,013	-0,080
-385,233	-200,000	0,011	-0,064
-384,219	-200,000	-0,025	-0,079
-383,204	34,591	0,025	-0,016
-382,190	22,023	0,026	0,015
-381,175	101,977	0,029	0,024
-380,160	800,000	0,072	0,167
-379,146	285,216	0,122	0,160
-378,131	-6,492	-0,039	-0,019
-377,117	-119,435	-0,112	-0,014
-376,102	-134,700	-0,096	0,008
-375,088	-200,000	-0,001	-0,045
-374,073	-43,557	0,066	0,024
-373,058	387,068	-0,089	0,133
-372,044	19,021	0,057	-0,033
-371,029	538,281	0,076	0,132
-370,015	534,466	-0,106	0,184
-369,000	-200,000	-0,018	0,064
-367,985	-200,000	-0,009	0,045
-366,971	293,079	0,084	-0,112
-365,956	-200,000	-0,005	-0,015
-364,942	800,000	0,099	-0,200
-363,927	-200,000	-0,020	0,076
-362,912	30,773	0,084	0,052
-361,898	100,267	0,159	0,134
-360,883	800,000	-0,051	-0,130
-359,869	-200,000	-0,013	-0,068
-358,854	207,459	-0,084	0,095
-357,839	326,090	0,041	0,057
-356,825	-200,000	0,020	0,251
-355,810	-200,000	0,008	0,104
-354,796	150,951	0,048	-0,047
-353,781	-106,062	0,057	0,009
-352,766	415,312	0,024	0,037
-351,752	800,000	-0,064	0,147
-350,737	-36,179	0,083	-0,032
-349,723	-81,848	0,178	0,042
-348,708	135,965	0,091	0,085
-347,693	800,000	-0,053	-0,145
-346,679	123,792	-0,096	-0,087
-345,664	800,000	0,032	-0,075
-344,650	209,806	0,044	0,050
-343,635	-125,459	-0,131	0,014
-342,620	-86,187	0,088	0,020
-341,606	395,383	-0,039	0,059
-340,591	515,716	0,014	-0,024
-339,577	11,819	0,097	0,054
-338,562	144,955	-0,043	0,042
-337,548	82,446	0,129	-0,101
-336,533	800,000	0,044	0,096
-335,518	-86,045	-0,066	-0,015
-334,504	-174,140	0,105	0,002
-333,489	-200,000	-0,023	0,109
-332,475	16,583	0,051	0,029
-331,460	102,802	-0,057	0,048
-330,445	-28,536	-0,087	0,036
-329,431	668,648	0,072	0,135
-328,416	-200,000	0,004	0,093
-327,402	-177,328	0,139	0,002
-326,387	-200,000	-0,021	-0,114
-325,372	-37,704	0,089	-0,034
-324,358	-120,403	0,158	-0,019
-323,343	-200,000	-0,040	-0,134
-322,329	439,443	0,042	-0,067
-321,314	-200,000	0,022	0,100
-320,299	800,000	0,065	0,162
-319,285	-17,581	-0,050	0,023
-318,270	741,323	-0,041	0,081
-317,256	553,293	-0,049	-0,085
-316,241	395,943	-0,057	0,087
-315,226	97,894	0,031	-0,026
-314,212	-141,941	0,053	-0,004
-313,197	-10,269	0,114	0,055
-312,183	-92,111	0,086	0,018
-311,168	-21,309	-0,044	0,019
-310,153	-96,368	-0,062	0,012
-309,139	209,043	-0,067	0,076
-308,124	176,718	-0,038	0,040
-307,110	30,450	-0,074	-0,046
-306,095	6,882	0,056	-0,030
-305,080	-39,750	-0,034	-0,013
-304,066	556,130	-0,022	0,038
-303,051	572,659	0,053	-0,094
-302,037	38,440	-0,029	0,019
-301,022	-200,000	-0,005	-0,025
-300,008	-10,601	0,088	0,042
-298,993	-80,701	-0,067	-0,016
-297,978	-21,380	-0,050	-0,022
-296,964	-200,000	0,022	0,084
-295,949	-10,648	-0,104	0,050
-294,935	-200,000	0,008	0,052
-293,920	246,370	0,027	0,033
-292,905	800,000	0,012	0,023
-291,891	-200,000	0,056	-0,194
-290,876	800,000	-0,055	0,165
-289,862	-67,017	-0,130	0,037
-288,847	21,960	-0,059	-0,035
-287,832	466,498	-0,023	-0,037
-286,818	-149,680	0,148	0,008
-285,803	-154,749	0,020	-0,001
-284,789	472,564	0,058	0,094
-283,774	-146,976	0,064	0,004
-282,759	800,000	0,085	-0,199
-281,745	800,000	-0,119	-0,295
-280,730	-200,000	0,029	-0,094
-279,716	100,547	-0,040	0,033
-278,701	89,691	0,056	0,045
-277,686	202,295	0,075	0,084
-276,672	800,000	-0,040	0,115
-275,657	800,000	0,017	-0,037
-274,643	404,292	0,013	-0,020
-273,628	-200,000	0,001	-0,048
-272,613	285,299	-0,039	0,051
-271,599	-51,845	0,112	-0,037
-270,584	5,807	0,037	0,020
-269,570	377,277	0,000	-0,001
-268,555	19,924	0,122	0,071
-267,540	-200,000	0,010	-0,069
-266,526	63,690	0,054	0,039
-265,511	-185,051	0,099	0,001
-264,497	-200,000	-0,005	-0,116
-263,482	774,469	0,059	-0,118
-262,467	284,603	-0,008	0,011
-261,453	-200,000	0,014	0,165
-260,438	216,469	-0,007	-0,008
-259,424	521,649	-0,017	0,029
-258,409	-200,000	0,009	-0,078
-257,395	-86,828	0,152	-0,033
-256,380	800,000	0,020	0,051
-255,365	-200,000	-0,016	0,116
-254,351	800,000	0,045	0,090
-253,336	-7,678	-0,065	-0,032
-252,322	49,519	-0,091	0,062
-251,307	-200,000	-0,009	-0,097
-250,292	-200,000	0,002	0,053
-249,278	8,372	0,030	-0,016
-248,263	341,817	0,080	0,113
-247,249	251,504	0,117	0,144
-246,234	-200,000	-0,015	0,063
-245,219	99,652	-0,079	-0,066
-244,205	413,339	0,014	0,022
-243,190	-200,000	0,004	0,090
-242,176	-62,666	0,072	-0,021
-241,161	417,168	-0,028	-0,044
-240,146	-107,806	0,154	0,024
-239,132	-200,000	-0,020	0,117
-238,117	-64,560	-0,029	-0,008
-237,103	128,722	-0,119	-0,109
-236,088	800,000	-0,044	-0,129
-235,073	573,865	0,020	0,035
-234,059	-189,140	0,109	-0,001
-233,044	206,429	-0,046	-0,052
-232,030	161,148	-0,105	0,106
-231,015	64,405	-0,051	-0,037
-230,000	-200,000	0,020	-0,149
-228,986	-200,000	0,110	0,000
-227,971	141,181	0,108	-0,103
-226,957	800,000	0,036	0,094
-225,942	326,190	0,066	0,091
-224,927	-194,253	0,155	0,001
-223,913	800,000	-0,058	-0,135
-222,898	10,071	-0,062	0,034
-221,884	-35,677	-0,028	-0,011
-220,869	800,000	-0,009	0,025
-219,855	66,355	-0,106	0,078
-218,840	365,931	0,120	0,175
-217,825	-70,813	-0,105	-0,028
-216,811	-100,234	-0,100	-0,018
-215,796	204,515	-0,069	-0,077
-214,782	468,438	-0,049	-0,079
-213,767	-113,955	-0,071	-0,010
-212,752	228,505	0,053	0,063
-211,738	-66,869	-0,107	0,030
-210,723	133,555	-0,075	0,070
-209,709	420,027	-0,117	0,180
-208,694	800,000	-0,077	0,162
-207,679	-106,257	-0,092	-0,015
-206,665	85,614	0,094	-0,074
-205,650	-12,768	-0,074	-0,035
-204,636	800,000	-0,024	0,073
-203,621	26,009	-0,117	-0,070
-202,606	426,392	-0,046	-0,071
-201,592	800,000	0,033	-0,103
-200,577	212,430	0,089	-0,101
-199,563	-200,000	-0,026	0,114
-198,548	-200,000	0,020	0,114
-197,533	710,684	0,039	0,076
-196,519	145,133	-0,017	-0,017
-195,504	-200,000	-0,033	0,111
-194,490	-200,000	0,004	0,061
-193,475	-200,000	-0,028	0,139
-192,460	346,349	0,039	0,056
-191,446	-200,000	0,027	-0,182
-190,431	111,132	0,157	-0,136
-189,417	377,596	-0,025	-0,037
-188,402	-200,000	-0,005	0,063
-187,387	151,452	0,045	-0,044
-186,373	800,000	0,015	0,037
-185,358	-200,000	-0,015	-0,137
-184,344	381,382	-0,013	-0,019
-183,329	221,473	0,059	-0,069
-182,315	-200,000	-0,014	0,072
-181,300	-200,000	-0,059	-0,234
-180,285	433,499	0,048	0,075
-179,271	-21,303	-0,096	0,042
-178,256	-174,689	0,158	0,003
-177,242	-19,886	-0,105	-0,046
-176,227	-49,379	0,047	-0,016
-175,212	291,130	-0,098	-0,128
-174,198	11,165	0,061	0,033
-173,183	95,794	-0,054	0,044
-172,169	-200,000	-0,017	0,061
-171,154	-200,000	0,000	-0,054
-170,139	-36,835	-0,010	0,004
-169,125	-200,000	0,004	0,088
-168,110	456,410	0,061	0,097
-167,096	-200,000	-0,006	0,067
-166,081	800,000	-0,049	-0,118
-165,066	-24,882	-0,055	0,023
-164,052	267,975	-0,135	-0,170
-163,037	279,257	-0,105	-0,136
-162,023	203,185	-0,020	0,023
-161,008	800,000	-0,058	0,150
-159,993	-200,000	-0,019	0,063
-158,979	38,537	-0,050	-0,032
-157,964	800,000	-0,054	0,114
-156,950	230,338	0,060	-0,071
-155,935	268,440	-0,067	-0,085
-154,920	472,116	0,054	0,088
-153,906	-200,000	-0,024	0,147
-152,891	-200,000	-0,014	0,097
-151,877	-200,000	0,022	-0,089
-150,862	-53,751	-0,099	-0,032
-149,847	46,869	-0,096	-0,064
-148,833	228,455	-0,011	-0,013
-147,818	405,981	0,092	-0,140
-146,804	-200,000	-0,014	-0,072
-145,789	-51,828	-0,098	0,033
-144,775	-200,000	-0,002	-0,048
-143,760	-163,433	-0,123	0,004
-142,745	-136,018	-0,075	-0,006
-141,731	-57,111	0,040	-0,013
-140,716	151,118	0,107	0,105
-139,702	-200,000	0,028	0,140
-138,687	-200,000	-0,012	0,087
-137,672	-105,573	0,053	-0,009
-136,658	800,000	-0,064	-0,146
-135,643	-25,748	0,068	-0,029
-134,629	445,862	0,039	0,062
-133,614	-95,086	0,043	0,008
-132,599	-26,045	-0,066	0,028
-131,585	-16,139	-0,039	-0,018
-130,570	-108,366	-0,110	-0,017
-129,556	-24,035	0,036	0,016
-128,541	-200,000	0,010	0,050
-127,526	123,641	0,079	-0,071
-126,512	-200,000	-0,025	-0,193
-125,497	800,000	0,057	0,163
-124,483	-79,611	-0,082	-0,020
-123,468	-200,000	-0,028	-0,107
-122,453	272,768	0,087	0,110
-121,439	256,899	-0,045	-0,056
-120,424	-121,530	-0,009	-0,001
