DTS Sentinel unit serial number:	SN410029Multiplexer serial number:	ORYXHardware model number:	OX2-SRSoftware version number:	ORYX F/W v4,00 Oryx Data Collector v3.7.2.0data status	okinstallation	B6 Nyhavnadifferential loss correction	single-endedforward channel	channel 2reverse channel	N/Adate	2023/12/10time	21:00:08forward acquisition time	300,00reverse acquisition time	0,00gamma	499,1914k internal	0,3122k external	0,3122temperature offset calibration	1,0000default loss term (dB/km)	0,3820temperature slope calibration	1,0000multiplexer offset coefficient	1,0000multiplexer slope coefficient	1,0000fibre end	0,00T internal ref (°C)	22,25T ext. ref 1 (°C)	5,91T ext. ref 2 (°C)	5,92length (m)	temperature (°C)	Stokes	anti-Stokes-744,400	800,000	-0,062	-0,198
-743,385	128,997	-0,085	0,081
-742,371	-20,096	-0,012	-0,006
-741,356	237,337	-0,147	0,182
-740,342	-137,849	0,042	-0,003
-739,327	-60,106	-0,191	0,060
-738,312	-52,596	0,083	0,028
-737,298	-136,468	-0,392	0,033
-736,283	734,066	0,076	-0,152
-735,269	-37,806	-0,195	-0,077
-734,254	-169,512	0,065	0,002
-733,239	-12,759	-0,417	-0,202
-732,225	-130,827	0,019	0,002
-731,210	-102,358	-0,090	-0,016
-730,196	-14,082	0,192	-0,092
-729,181	91,507	-0,108	0,090
-728,167	106,142	-0,039	0,035
-727,152	800,000	-0,049	-0,111
-726,137	-200,000	0,003	0,023
-725,123	-200,000	0,010	-0,068
-724,108	6,780	0,065	-0,036
-723,094	86,169	-0,090	-0,074
-722,079	64,683	-0,033	-0,025
-721,064	117,292	-0,050	-0,045
-720,050	136,094	-0,086	0,083
-719,035	800,000	0,017	0,055
-718,021	458,504	-0,093	-0,154
-717,006	-200,000	-0,016	-0,147
-715,991	43,952	-0,077	0,053
-714,977	-200,000	-0,003	0,138
-713,962	349,791	-0,034	-0,050
-712,948	-200,000	0,025	-0,125
-711,933	231,752	-0,056	-0,068
-710,918	132,328	-0,115	-0,111
-709,904	-200,000	-0,019	-0,087
-708,889	103,887	-0,098	-0,086
-707,875	-56,774	-0,118	-0,039
-706,860	800,000	-0,042	0,124
-705,845	-98,843	0,089	-0,017
-704,831	306,363	0,072	-0,101
-703,816	-105,969	-0,100	0,017
-702,802	800,000	0,008	-0,025
-701,787	-200,000	0,003	-0,153
-700,772	149,401	-0,080	-0,080
-699,758	165,290	-0,132	0,139
-698,743	-200,000	0,026	0,091
-697,729	624,678	0,045	-0,086
-696,714	152,949	0,095	-0,097
-695,699	91,658	-0,072	-0,060
-694,685	93,026	-0,066	-0,056
-693,670	-200,000	-0,059	-0,246
-692,656	660,375	-0,058	-0,112
-691,641	800,000	0,011	0,034
-690,627	28,683	0,029	0,018
-689,612	-10,163	-0,159	-0,078
-688,597	60,562	-0,118	-0,087
-687,583	332,807	-0,097	-0,140
-686,568	53,360	-0,006	-0,004
-685,554	82,449	-0,028	-0,022
-684,539	-102,007	-0,073	0,013
-683,524	180,235	0,018	-0,020
-682,510	-76,307	-0,089	-0,023
-681,495	472,503	-0,037	-0,062
-680,481	-200,000	0,030	-0,146
-679,466	22,283	-0,101	-0,061
-678,451	-9,847	-0,154	-0,076
-677,437	194,846	0,040	-0,045
-676,422	-59,224	0,132	0,042
-675,408	68,863	0,062	-0,047
-674,393	-200,000	0,011	0,068
-673,378	-19,551	-0,117	-0,054
-672,364	-157,793	-0,090	-0,004
-671,349	512,332	-0,023	0,040
-670,335	-135,011	-0,147	0,013
-669,320	-200,000	0,002	0,079
-668,305	250,306	0,079	-0,100
-667,291	129,390	-0,092	-0,087
-666,276	37,330	0,077	-0,051
-665,262	325,760	-0,050	-0,071
-664,247	408,035	0,031	-0,049
-663,232	-74,168	0,072	0,019
-662,218	183,506	-0,042	0,046
-661,203	800,000	-0,006	0,016
-660,189	-200,000	-0,017	0,061
-659,174	-200,000	-0,005	-0,112
-658,159	173,607	-0,164	-0,176
-657,145	-200,000	0,063	-0,260
-656,130	800,000	0,057	0,122
-655,116	-148,706	-0,022	0,001
-654,101	90,171	-0,110	-0,091
-653,086	-200,000	-0,003	-0,088
-652,072	-16,191	-0,033	-0,016
-651,057	174,301	-0,077	-0,082
-650,043	164,432	0,038	-0,040
-649,028	2,795	0,076	-0,041
-648,014	163,561	0,112	0,118
-646,999	-200,000	0,001	-0,067
-645,984	-200,000	-0,002	-0,010
-644,970	696,596	0,055	-0,108
-643,955	-98,981	-0,028	0,005
-642,941	70,565	-0,064	0,049
-641,926	-73,630	-0,101	-0,027
-640,911	-200,000	-0,012	-0,060
-639,897	248,142	0,040	0,050
-638,882	-62,185	-0,075	0,023
-637,868	-3,128	-0,069	0,035
-636,853	-4,014	-0,158	-0,081
-635,838	-200,000	-0,015	-0,134
-634,824	350,517	0,023	-0,034
-633,809	-200,000	-0,019	-0,116
-632,795	-21,720	0,130	0,059
-631,780	-200,000	-0,011	-0,151
-630,765	732,930	0,037	0,073
-629,751	287,710	0,063	0,084
-628,736	-200,000	-0,011	0,096
-627,722	259,919	0,088	-0,113
-626,707	-146,939	0,088	0,006
-625,692	-200,000	0,010	0,067
-624,678	380,153	0,032	-0,048
-623,663	270,599	-0,074	0,097
-622,649	-200,000	-0,022	-0,088
-621,634	271,687	-0,100	-0,131
-620,619	-200,000	0,008	-0,033
-619,605	22,135	0,039	0,023
-618,590	800,000	-0,032	0,068
-617,576	765,142	0,051	-0,103
-616,561	-200,000	-0,021	-0,077
-615,546	-200,000	-0,002	-0,101
-614,532	800,000	-0,009	0,023
-613,517	-74,776	0,076	-0,020
-612,503	-111,455	0,048	0,007
-611,488	-200,000	-0,002	-0,018
-610,474	51,323	0,072	-0,051
-609,459	428,310	-0,031	0,049
-608,444	-7,899	-0,075	-0,037
-607,430	518,138	-0,016	0,027
-606,415	-200,000	0,013	0,059
-605,401	-200,000	-0,030	0,149
-604,386	184,144	-0,067	-0,073
-603,371	-71,076	0,093	-0,026
-602,357	18,175	-0,099	0,058
-601,342	504,043	-0,066	0,113
-600,328	45,151	0,031	-0,021
-599,313	385,748	0,066	-0,101
-598,298	-200,000	0,016	0,056
-597,284	80,676	-0,065	-0,052
-596,269	353,130	0,027	-0,040
-595,255	294,311	0,120	0,164
-594,240	-200,000	0,014	-0,092
-593,225	70,754	-0,186	-0,143
-592,211	-200,000	-0,007	0,034
-591,196	-0,461	-0,128	0,067
-590,182	800,000	0,015	0,041
-589,167	-200,000	-0,014	0,075
-588,152	20,334	-0,042	0,025
-587,138	-200,000	0,002	0,011
-586,123	-113,134	0,181	0,026
-585,109	-200,000	-0,000	0,065
-584,094	-200,000	0,020	-0,074
-583,079	-200,000	0,001	-0,089
-582,065	153,228	0,065	-0,066
-581,050	3,804	-0,082	0,044
-580,036	108,970	0,030	-0,027
-579,021	420,110	0,022	0,035
-578,006	-200,000	-0,049	-0,176
-576,992	-200,000	0,040	-0,181
-575,977	277,444	0,061	-0,080
-574,963	-174,663	0,148	-0,003
-573,948	-76,424	0,119	-0,031
-572,934	362,087	0,022	-0,032
-571,919	800,000	-0,057	-0,129
-570,904	-145,820	0,145	-0,009
-569,890	-54,858	-0,058	0,019
-568,875	87,537	-0,021	-0,017
-567,861	127,714	0,107	-0,101
-566,846	-108,848	0,055	-0,009
-565,831	27,562	-0,171	-0,107
-564,817	627,844	-0,005	-0,009
-563,802	-200,000	-0,000	0,056
-562,788	800,000	0,076	-0,228
-561,773	-200,000	0,003	-0,039
-560,758	-140,547	-0,035	0,003
-559,744	298,701	0,064	0,087
-558,729	308,281	-0,029	-0,041
-557,715	478,118	-0,036	-0,061
-556,700	-113,887	-0,033	-0,005
-555,685	223,677	-0,136	-0,163
-554,671	-200,000	0,004	-0,028
-553,656	-200,000	-0,002	0,105
-552,642	800,000	-0,028	0,088
-551,627	231,231	0,032	0,039
-550,612	-77,599	-0,067	-0,017
-549,598	206,126	-0,038	-0,043
-548,583	-200,000	-0,024	0,113
-547,569	-200,000	-0,009	0,050
-546,554	650,662	0,044	0,084
-545,539	-84,221	-0,034	0,008
-544,525	474,499	-0,037	-0,063
-543,510	-48,243	0,098	-0,035
-542,496	-200,000	0,017	-0,083
-541,481	127,210	-0,030	-0,028
-540,466	800,000	-0,052	-0,123
-539,452	283,739	0,104	-0,138
-538,437	286,805	-0,035	0,047
-537,423	-200,000	-0,012	-0,165
-536,408	-200,000	0,009	-0,071
-535,393	-200,000	-0,016	0,059
-534,379	-166,185	-0,138	-0,004
-533,364	-200,000	-0,009	-0,054
-532,350	800,000	-0,018	-0,046
-531,335	-125,225	-0,075	0,008
-530,321	-67,123	-0,040	-0,012
-529,306	-129,760	0,046	-0,005
-528,291	-105,063	-0,121	0,020
-527,277	39,467	-0,115	-0,076
-526,262	736,137	-0,065	-0,128
-525,248	-179,901	0,147	-0,002
-524,233	-133,261	0,047	-0,004
-523,218	766,432	-0,042	-0,084
-522,204	41,858	-0,080	0,054
-521,189	800,000	0,053	0,115
-520,175	-80,344	-0,037	0,009
-519,160	552,968	-0,055	-0,097
-518,145	-76,242	-0,100	-0,026
-517,131	-30,254	-0,102	-0,043
-516,116	-58,921	0,017	-0,005
-515,102	-32,992	0,080	0,033
-514,087	97,434	0,123	0,105
-513,072	-178,011	0,107	0,002
-512,058	43,647	-0,131	-0,088
-511,043	-200,000	0,020	0,090
-510,029	-114,058	0,109	-0,015
-509,014	250,788	-0,067	0,084
-507,999	-200,000	0,002	0,058
-506,985	-200,000	-0,020	-0,070
-505,970	-80,691	-0,078	-0,019
-504,956	60,690	-0,057	0,041
-503,941	-146,141	0,040	0,003
-502,926	800,000	0,015	0,041
-501,912	800,000	0,041	-0,088
-500,897	-45,152	0,046	-0,017
-499,883	-62,018	0,025	0,008
-498,868	-200,000	-0,021	0,118
-497,853	424,327	0,071	-0,113
-496,839	-82,280	0,073	0,017
-495,824	-200,000	-0,013	0,176
-494,810	-76,565	-0,027	-0,007
-493,795	-200,000	-0,022	-0,250
-492,781	125,055	-0,143	-0,133
-491,766	142,448	0,055	-0,054
-490,751	-41,038	0,065	-0,025
-489,737	-34,214	-0,113	-0,046
-488,722	117,347	0,086	0,078
-487,708	-93,161	0,128	-0,026
-486,693	224,248	0,030	0,036
-485,678	-56,682	-0,131	-0,043
-484,664	-180,032	-0,021	-0,000
-483,649	-200,000	-0,007	-0,196
-482,635	-54,379	0,070	-0,023
-481,620	-200,000	-0,011	-0,076
-480,605	430,699	0,053	0,086
-479,591	4,463	0,096	0,052
-478,576	4,663	-0,035	-0,019
-477,562	284,122	-0,070	-0,093
-476,547	-200,000	-0,020	-0,104
-475,532	-200,000	-0,010	0,042
-474,518	-41,634	-0,017	-0,007
-473,503	-143,047	0,073	0,005
-472,489	-20,654	-0,031	-0,014
-471,474	558,271	0,063	0,113
-470,459	800,000	-0,028	0,065
-469,445	-20,085	-0,106	0,048
-468,430	-36,910	0,063	0,025
-467,416	-38,301	0,125	0,049
-466,401	-200,000	-0,031	0,199
-465,386	117,045	-0,047	0,043
-464,372	-65,071	-0,073	-0,022
-463,357	-200,000	-0,006	-0,026
-462,343	-200,000	0,003	-0,086
-461,328	-59,157	-0,045	0,014
-460,313	-200,000	-0,014	-0,054
-459,299	556,939	0,072	-0,128
-458,284	-168,914	-0,128	-0,003
-457,270	-158,818	-0,061	-0,003
-456,255	-200,000	0,008	-0,135
-455,241	-200,000	0,023	-0,118
-454,226	-140,860	0,039	-0,003
-453,211	-200,000	-0,013	-0,122
-452,197	141,690	-0,013	0,013
-451,182	-133,484	0,038	0,003
-450,168	-200,000	0,007	0,100
-449,153	-89,511	0,041	0,009
-448,138	-200,000	0,038	-0,133
-447,124	48,643	0,016	-0,011
-446,109	703,937	-0,015	0,029
-445,095	296,872	0,047	0,064
-444,080	-88,752	-0,126	0,027
-443,065	785,021	-0,057	0,116
-442,051	-13,876	0,125	-0,059
-441,036	-200,000	0,004	0,037
-440,022	81,804	0,091	-0,073
-439,007	800,000	0,008	0,024
-437,992	-200,000	-0,004	0,055
-436,978	133,941	0,043	0,041
-435,963	492,602	0,085	0,144
-434,949	800,000	0,048	0,102
-433,934	-200,000	0,000	-0,105
-432,919	430,411	-0,050	0,079
-431,905	122,829	0,072	0,067
-430,890	800,000	0,037	0,077
-429,876	-25,168	0,080	-0,035
-428,861	-15,353	0,052	0,024
-427,846	32,030	-0,043	0,027
-426,832	-200,000	-0,000	-0,106
-425,817	-101,235	-0,062	0,011
-424,803	59,425	0,056	-0,041
-423,788	205,638	0,019	0,022
-422,773	300,472	0,026	-0,035
-421,759	333,064	0,022	0,031
-420,744	-156,080	0,055	-0,003
-419,730	-166,581	-0,101	0,003
-418,715	-200,000	0,025	-0,169
-417,701	471,453	-0,016	-0,027
-416,686	61,244	0,148	0,108
-415,671	25,356	-0,080	0,049
-414,657	1,193	-0,062	0,032
-413,642	-200,000	-0,040	0,159
-412,628	277,489	0,027	-0,036
-411,613	800,000	0,017	0,054
-410,598	-125,510	-0,158	-0,017
-409,584	-72,103	-0,080	0,022
-408,569	-26,711	0,019	0,008
-407,555	506,055	-0,039	-0,067
-406,540	800,000	0,027	-0,081
-405,525	-200,000	0,013	-0,046
-404,511	239,664	-0,089	-0,109
-403,496	281,546	-0,171	-0,226
-402,482	-200,000	-0,032	-0,147
-401,467	-200,000	0,016	-0,069
-400,452	96,462	0,106	-0,089
-399,438	291,133	-0,060	-0,081
-398,423	24,646	0,138	0,084
-397,409	107,427	-0,047	-0,041
-396,394	400,397	-0,051	-0,078
-395,379	26,616	0,079	-0,049
-394,365	-31,775	0,152	0,063
-393,350	-59,029	-0,032	-0,010
-392,336	38,157	-0,111	-0,072
-391,321	-200,000	-0,002	-0,019
-390,306	-70,200	-0,181	-0,050
-389,292	3,648	-0,047	-0,025
-388,277	-104,548	0,006	0,001
-387,263	-49,499	0,093	-0,032
-386,248	111,670	0,095	0,084
-385,233	5,886	0,083	0,045
-384,219	-43,981	-0,027	-0,010
-383,204	-200,000	-0,024	-0,119
-382,190	-189,723	-0,116	0,001
-381,175	630,524	0,022	-0,042
-380,160	800,000	-0,026	0,081
-379,146	-200,000	0,022	0,085
-378,131	-155,726	-0,119	0,005
-377,117	-56,000	-0,066	0,021
-376,102	346,611	-0,032	-0,046
-375,088	-200,000	0,011	0,055
-374,073	-97,031	-0,150	-0,029
-373,058	206,921	0,048	0,055
-372,044	270,890	0,059	0,077
-371,029	-86,896	0,085	0,019
-370,015	-0,463	-0,117	0,061
-369,000	23,882	-0,149	-0,090
-367,985	-113,212	0,035	-0,005
-366,971	-135,028	0,099	0,009
-365,956	-29,756	0,045	0,019
-364,942	-200,000	0,015	-0,085
-363,927	-200,000	0,006	-0,116
-362,912	-200,000	0,026	-0,159
-361,898	-112,444	-0,051	-0,007
-360,883	-82,555	0,036	0,009
-359,869	196,250	-0,024	-0,027
-358,854	155,158	-0,080	0,081
-357,839	800,000	-0,022	0,053
-356,825	-58,344	-0,054	-0,017
-355,810	362,384	-0,045	0,067
-354,796	0,248	-0,071	0,037
-353,781	800,000	-0,042	0,102
-352,766	-21,893	0,061	0,027
-351,752	36,040	0,073	0,047
-350,737	-22,237	0,077	-0,034
-349,723	-200,000	-0,018	0,085
-348,708	213,898	0,019	0,022
-347,693	-200,000	0,027	0,169
-346,679	-96,191	-0,068	0,013
-345,664	428,667	-0,039	0,063
-344,650	-83,990	0,078	0,018
-343,635	439,204	0,048	-0,077
-342,620	454,566	-0,054	0,088
-341,606	40,077	0,039	0,026
-340,591	-200,000	0,034	0,146
-339,577	-98,198	-0,085	0,016
-338,562	-200,000	-0,001	0,114
-337,548	-200,000	-0,009	-0,092
-336,533	3,859	-0,080	-0,043
-335,518	800,000	0,037	0,090
-334,504	-168,652	0,059	-0,002
-333,489	7,811	0,022	-0,012
-332,475	-167,621	0,045	-0,001
-331,460	-33,390	-0,046	-0,019
-330,445	144,399	0,093	-0,091
-329,431	-200,000	-0,021	0,083
-328,416	32,024	-0,061	-0,039
-327,402	-200,000	-0,020	0,079
-326,387	-33,181	0,126	0,051
-325,372	-103,586	-0,165	-0,028
-324,358	-200,000	-0,001	0,070
-323,343	-23,718	-0,030	0,013
-322,329	29,063	0,069	0,043
-321,314	-12,909	-0,107	0,051
-320,299	256,546	0,145	0,183
-319,285	177,951	0,014	-0,015
-318,270	106,919	0,005	0,005
-317,256	138,579	0,035	-0,033
-316,241	-81,796	-0,069	0,017
-315,226	-200,000	-0,022	0,115
-314,212	800,000	0,070	0,155
-313,197	-21,910	-0,037	0,016
-312,183	-37,650	-0,146	-0,057
-311,168	-99,137	0,077	-0,014
-310,153	273,046	-0,059	-0,076
-309,139	158,173	-0,018	0,018
-308,124	170,202	0,075	0,079
-307,110	22,451	0,118	-0,070
-306,095	398,678	0,062	0,095
-305,080	800,000	0,043	-0,091
-304,066	-200,000	-0,003	-0,036
-303,051	413,394	0,020	-0,031
-302,037	-63,730	-0,170	0,051
-301,022	25,643	-0,062	0,038
-300,008	66,732	-0,055	0,041
-298,993	-47,826	-0,051	-0,018
-297,978	800,000	-0,037	0,099
-296,964	-97,081	-0,044	-0,008
-295,949	-73,815	-0,027	0,007
-294,935	199,896	0,062	-0,070
-293,920	-200,000	-0,051	0,237
-292,905	31,932	0,083	0,052
-291,891	-69,490	-0,028	0,008
-290,876	-200,000	0,006	0,067
-289,862	40,753	-0,092	0,061
-288,847	-137,595	-0,058	0,005
-287,832	265,850	0,064	-0,083
-286,818	-105,298	0,111	-0,018
-285,803	597,770	-0,027	0,050
-284,789	-31,476	-0,145	0,059
-283,774	40,367	0,064	0,042
-282,759	-200,000	-0,043	-0,142
-281,745	-155,506	-0,035	0,002
-280,730	-200,000	-0,014	-0,129
-279,716	-200,000	0,024	-0,142
-278,701	800,000	0,021	0,056
-277,686	-167,168	0,048	0,001
-276,672	-200,000	0,016	0,139
-275,657	392,396	-0,096	0,146
-274,643	-79,050	0,053	0,013
-273,628	84,058	-0,118	-0,094
-272,613	46,811	0,088	-0,060
-271,599	339,390	0,092	0,132
-270,584	-200,000	0,007	0,037
-269,570	-141,874	0,132	0,009
-268,555	800,000	-0,053	0,108
-267,540	297,105	-0,070	-0,095
-266,526	800,000	0,015	-0,033
-265,511	-200,000	-0,012	0,042
-264,497	392,313	0,094	0,143
-263,482	800,000	-0,065	0,148
-262,467	194,772	0,094	0,105
-261,453	216,376	0,033	-0,038
-260,438	-72,868	-0,080	-0,021
-259,424	-118,312	-0,028	-0,004
-258,409	524,270	0,102	-0,176
-257,395	0,076	-0,012	-0,006
-256,380	-200,000	0,034	-0,124
-255,365	119,236	0,087	0,078
-254,351	8,716	-0,059	0,033
-253,336	-35,557	0,041	-0,016
-252,322	18,440	0,012	0,007
-251,307	611,335	-0,041	-0,076
-250,292	-200,000	-0,030	0,150
-249,278	205,713	-0,091	-0,103
-248,263	-200,000	0,020	0,136
-247,249	99,888	0,080	0,068
-246,234	52,989	-0,031	0,022
-245,219	-41,257	-0,092	0,035
-244,205	800,000	0,016	-0,046
-243,190	-200,000	-0,029	0,095
-242,176	-200,000	0,011	0,069
-241,161	-200,000	0,016	0,058
-240,146	319,582	0,090	-0,125
-239,132	550,190	-0,051	0,089
-238,117	781,391	0,051	-0,103
-237,103	-81,048	-0,040	-0,010
-236,088	180,280	0,031	-0,033
-235,073	-12,321	-0,151	-0,072
-234,059	-107,640	0,134	-0,021
-233,044	-88,013	-0,088	-0,019
-232,030	-36,607	0,095	0,037
-231,015	-200,000	0,003	-0,047
-230,000	409,051	0,005	0,008
-228,986	32,662	0,111	0,070
-227,971	-200,000	0,017	0,101
-226,957	-200,000	0,005	-0,070
-225,942	16,776	0,024	-0,014
-224,927	-138,766	0,034	-0,003
-223,913	-124,279	0,111	0,012
-222,898	800,000	-0,011	-0,034
-221,884	-200,000	0,013	-0,049
-220,869	360,859	0,071	-0,105
-219,855	800,000	0,050	0,111
-218,840	41,754	0,034	0,023
-217,825	-26,943	0,066	0,028
-216,811	800,000	-0,009	-0,027
-215,796	200,854	-0,093	0,105
-214,782	-154,623	0,115	-0,006
-213,767	76,024	0,070	-0,054
-212,752	-200,000	-0,001	-0,033
-211,738	714,077	0,054	0,104
-210,723	-116,989	-0,210	0,028
-209,709	800,000	-0,050	-0,134
-208,694	-200,000	-0,014	-0,164
-207,679	154,396	0,059	0,060
-206,665	800,000	0,032	0,094
-205,650	242,656	0,081	-0,099
-204,636	-9,610	0,030	0,014
-203,621	366,870	0,072	0,106
-202,606	800,000	0,043	-0,118
-201,592	800,000	-0,040	0,125
-200,577	117,761	0,093	0,084
-199,563	57,919	-0,064	0,046
-198,548	-127,750	0,080	-0,008
-197,533	-48,767	-0,066	0,023
-196,519	-172,360	-0,047	0,001
-195,504	1,427	0,048	-0,025
-194,490	-71,456	0,114	0,031
-193,475	373,770	-0,078	0,116
-192,460	-39,548	-0,143	0,054
-191,446	165,793	-0,087	0,090
-190,431	-6,300	0,060	-0,030
-189,417	-23,326	0,081	0,035
-188,402	129,625	-0,067	-0,063
-187,387	-8,954	0,040	-0,019
-186,373	-8,741	0,158	-0,077
-185,358	766,408	0,021	0,043
-184,344	-200,000	-0,003	-0,022
-183,329	-200,000	-0,026	0,112
-182,315	-200,000	-0,029	0,164
-181,300	32,654	-0,149	0,094
-180,285	-44,113	0,021	-0,008
-179,271	800,000	-0,019	-0,045
-178,256	-173,857	-0,072	-0,002
-177,242	170,678	-0,029	-0,030
-176,227	108,570	-0,078	0,068
-175,212	-8,735	0,127	-0,062
-174,198	-200,000	0,032	0,204
-173,183	696,910	-0,014	0,028
-172,169	-200,000	0,006	0,112
-171,154	-200,000	0,017	-0,077
-170,139	96,287	-0,097	0,081
-169,125	-48,607	0,060	0,021
-168,110	54,366	0,122	0,085
-167,096	-200,000	0,011	0,077
-166,081	192,659	-0,037	-0,041
-165,066	22,378	0,040	0,024
-164,052	-89,216	-0,090	0,019
-163,037	-138,296	-0,073	0,006
-162,023	38,404	0,169	0,110
-161,008	91,509	-0,030	0,025
-159,993	800,000	0,045	-0,098
-158,979	432,750	-0,016	-0,026
-157,964	134,223	-0,039	0,037
-156,950	6,848	-0,120	-0,065
-155,935	-200,000	0,001	0,011
-154,920	800,000	0,025	0,051
-153,906	-200,000	0,030	-0,112
-152,891	352,166	-0,031	0,045
-151,877	-180,940	-0,143	0,002
-150,862	73,716	-0,112	-0,086
-149,847	30,938	-0,080	0,050
-148,833	800,000	0,046	-0,104
-147,818	168,483	0,055	0,057
-146,804	18,659	0,047	0,027
-145,789	-200,000	-0,004	-0,023
-144,775	-21,001	-0,060	-0,027
-143,760	800,000	-0,053	-0,170
-142,745	-20,128	-0,020	-0,009
-141,731	-200,000	-0,015	0,167
-140,716	-78,613	-0,064	-0,016
-139,702	349,871	-0,065	-0,093
-138,687	50,180	-0,054	-0,037
-137,672	-11,737	0,026	0,012
-136,658	800,000	0,057	0,152
-135,643	-50,701	0,094	0,032
-134,629	114,996	-0,055	0,049
-133,614	-114,334	0,056	-0,008
-132,599	712,059	-0,044	-0,084
-131,585	370,483	0,007	-0,011
-130,570	-149,137	-0,013	0,001
-129,556	-99,023	0,076	-0,014
-128,541	-200,000	0,042	-0,144
-127,526	142,057	0,045	0,043
-126,512	31,169	-0,094	-0,058
-125,497	264,308	-0,039	0,049
-124,483	25,305	0,042	0,025
-123,468	-57,139	-0,102	-0,033
-122,453	-123,888	-0,106	0,012
-121,439	-35,230	-0,069	-0,027
-120,424	800,000	-0,039	-0,098
-119,410	800,000	0,037	0,102
