DTS Sentinel unit serial number:	SN410029Multiplexer serial number:	ORYXHardware model number:	OX2-SRSoftware version number:	ORYX F/W v4,00 Oryx Data Collector v3.7.2.0data status	okinstallation	B6 Nyhavnadifferential loss correction	single-endedforward channel	channel 2reverse channel	N/Adate	2023/12/08time	15:40:08forward acquisition time	300,00reverse acquisition time	0,00gamma	499,1914k internal	0,3159k external	0,3159temperature offset calibration	1,0000default loss term (dB/km)	0,3820temperature slope calibration	1,0000multiplexer offset coefficient	1,0000multiplexer slope coefficient	1,0000fibre end	0,00T internal ref (°C)	15,08T ext. ref 1 (°C)	-1,48T ext. ref 2 (°C)	-1,47length (m)	temperature (°C)	Stokes	anti-Stokes-744,400	562,123	-0,028	-0,051
-743,385	-121,290	-0,152	-0,018
-742,371	-78,229	0,171	0,043
-741,356	-82,741	-0,358	0,085
-740,342	542,866	-0,008	0,014
-739,327	-63,483	-0,248	0,075
-738,312	-97,836	-0,075	-0,014
-737,298	-67,508	-0,323	-0,093
-736,283	128,989	0,126	-0,118
-735,269	-101,896	-0,289	0,051
-734,254	800,000	-0,036	-0,106
-733,239	-76,237	-0,506	-0,130
-732,225	-27,689	0,252	0,107
-731,210	146,338	-0,078	0,077
-730,196	-140,268	0,077	-0,006
-729,181	-67,795	-0,129	0,037
-728,167	-200,000	-0,002	-0,069
-727,152	800,000	0,043	0,114
-726,137	67,936	-0,129	-0,097
-725,123	177,452	0,120	0,128
-724,108	-200,000	0,032	0,000
-723,094	246,263	-0,097	-0,120
-722,079	77,040	-0,070	-0,055
-721,064	-144,982	0,050	-0,003
-720,050	-103,976	0,067	-0,011
-719,035	-200,000	0,000	0,002
-718,021	90,989	-0,124	-0,102
-717,006	800,000	0,020	-0,054
-715,991	-200,000	0,002	-0,079
-714,977	34,034	-0,070	-0,045
-713,962	277,105	0,017	0,022
-712,948	84,136	0,084	-0,068
-711,933	351,218	0,073	-0,107
-710,918	-200,000	-0,008	-0,100
-709,904	-96,854	-0,117	-0,022
-708,889	-15,162	0,128	0,060
-707,875	-121,578	-0,109	0,013
-706,860	-200,000	-0,013	0,107
-705,845	800,000	0,032	-0,069
-704,831	22,609	-0,067	-0,040
-703,816	-112,249	-0,061	-0,009
-702,802	-200,000	-0,010	-0,078
-701,787	-200,000	-0,018	-0,093
-700,772	-200,000	-0,013	0,057
-699,758	-200,000	-0,008	0,121
-698,743	88,054	0,046	0,037
-697,729	-200,000	-0,001	-0,060
-696,714	-200,000	-0,002	-0,048
-695,699	275,924	0,037	-0,048
-694,685	242,412	-0,016	0,020
-693,670	-100,867	-0,069	-0,012
-692,656	79,462	-0,071	-0,056
-691,641	800,000	0,036	-0,106
-690,627	145,958	0,037	-0,036
-689,612	-115,023	-0,207	-0,029
-688,597	-2,824	-0,100	-0,051
-687,583	-2,240	0,048	0,025
-686,568	-75,185	0,082	-0,021
-685,554	-200,000	-0,001	-0,159
-684,539	800,000	-0,068	-0,150
-683,524	449,596	0,046	-0,075
-682,510	195,314	-0,017	-0,019
-681,495	800,000	-0,059	-0,135
-680,481	-200,000	-0,009	-0,044
-679,466	-182,974	-0,116	0,001
-678,451	-200,000	-0,026	-0,087
-677,437	601,946	0,025	0,047
-676,422	4,033	-0,096	0,051
-675,408	48,456	0,066	0,045
-674,393	186,555	0,028	-0,030
-673,378	-22,268	-0,114	-0,051
-672,364	91,931	0,097	0,080
-671,349	175,083	0,024	-0,025
-670,335	-125,966	0,140	-0,015
-669,320	-48,419	0,056	-0,020
-668,305	-200,000	-0,029	0,106
-667,291	800,000	0,036	-0,116
-666,276	24,618	-0,107	-0,065
-665,262	-123,315	-0,046	0,005
-664,247	-200,000	0,005	0,025
-663,232	-200,000	0,006	-0,076
-662,218	-200,000	-0,008	-0,079
-661,203	92,343	0,039	0,033
-660,189	44,226	-0,057	-0,038
-659,174	429,227	0,070	-0,111
-658,159	-200,000	-0,050	-0,185
-657,145	96,718	-0,117	-0,098
-656,130	257,299	0,149	-0,189
-655,116	-151,438	-0,138	0,007
-654,101	202,769	-0,055	0,063
-653,086	-150,055	-0,075	-0,004
-652,072	11,792	-0,079	0,045
-651,057	-10,890	-0,032	-0,015
-650,043	343,116	-0,072	-0,104
-649,028	60,746	0,024	-0,017
-648,014	-61,935	-0,032	0,010
-646,999	174,963	0,023	-0,024
-645,984	800,000	0,012	0,030
-644,970	-82,325	-0,073	0,017
-643,955	-71,893	-0,098	-0,027
-642,941	285,040	-0,051	-0,067
-641,926	-200,000	0,015	0,078
-640,911	244,129	0,119	-0,147
-639,897	579,542	-0,095	-0,171
-638,882	-200,000	-0,029	-0,132
-637,868	9,298	-0,021	-0,012
-636,853	532,710	-0,045	-0,079
-635,838	-200,000	-0,010	-0,046
-634,824	-200,000	-0,002	-0,029
-633,809	800,000	0,115	0,237
-632,795	32,471	-0,135	0,085
-631,780	19,796	-0,079	-0,047
-630,765	12,632	-0,181	-0,102
-629,751	107,853	-0,104	-0,091
-628,736	37,340	0,060	0,039
-627,722	371,914	0,068	0,102
-626,707	49,897	0,078	-0,054
-625,692	-200,000	-0,030	0,179
-624,678	119,119	0,101	0,092
-623,663	17,184	-0,148	-0,086
-622,649	-58,259	-0,183	-0,058
-621,634	78,847	-0,011	0,008
-620,619	-200,000	-0,004	-0,141
-619,605	800,000	0,017	0,037
-618,590	313,779	0,055	0,077
-617,576	109,249	-0,040	-0,035
-616,561	737,920	-0,033	-0,065
-615,546	12,878	-0,220	-0,124
-614,532	-66,432	0,021	-0,006
-613,517	107,077	-0,093	-0,081
-612,503	800,000	0,021	-0,044
-611,488	-200,000	0,009	0,031
-610,474	-200,000	-0,028	0,097
-609,459	-200,000	-0,028	0,102
-608,444	-137,326	-0,086	-0,007
-607,430	-26,273	0,125	-0,054
-606,415	800,000	-0,037	0,082
-605,401	-200,000	0,012	0,208
-604,386	800,000	0,009	-0,028
-603,371	-38,853	-0,100	0,038
-602,357	70,552	0,098	-0,074
-601,342	-200,000	-0,023	0,083
-600,328	-166,501	-0,111	0,003
-599,313	-100,591	-0,043	0,008
-598,298	18,987	-0,141	-0,083
-597,284	121,953	0,086	0,079
-596,269	-200,000	0,006	-0,125
-595,255	-200,000	0,014	-0,060
-594,240	-67,920	-0,090	0,026
-593,225	-200,000	-0,009	0,030
-592,211	69,557	-0,150	-0,113
-591,196	76,361	-0,074	-0,057
-590,182	71,173	-0,067	-0,051
-589,167	-10,990	-0,057	-0,027
-588,152	238,175	0,046	-0,056
-587,138	594,144	-0,062	-0,112
-586,123	110,837	-0,009	-0,008
-585,109	800,000	-0,016	-0,038
-584,094	-143,340	-0,010	-0,001
-583,079	-100,558	0,161	0,029
-582,065	-140,522	0,090	-0,007
-581,050	102,831	-0,020	-0,017
-580,036	196,961	-0,093	-0,104
-579,021	-200,000	-0,020	-0,230
-578,006	-28,403	-0,110	-0,046
-576,992	-35,079	-0,056	0,022
-575,977	18,754	0,080	0,047
-574,963	184,909	-0,037	-0,040
-573,948	-19,064	0,025	-0,011
-572,934	800,000	0,012	0,031
-571,919	800,000	-0,062	-0,129
-570,904	-91,327	0,065	0,014
-569,890	-39,493	-0,098	0,038
-568,875	-21,556	0,035	0,015
-567,861	800,000	0,055	-0,159
-566,846	-200,000	-0,014	0,126
-565,831	-40,936	-0,063	-0,024
-564,817	-130,020	0,049	-0,005
-563,802	62,663	-0,052	0,038
-562,788	-200,000	0,010	-0,065
-561,773	170,436	0,030	-0,031
-560,758	-200,000	-0,021	-0,154
-559,744	-200,000	-0,035	0,123
-558,729	247,241	0,010	0,012
-557,715	800,000	-0,046	0,100
-556,700	18,398	-0,041	0,024
-555,685	-170,562	-0,066	-0,002
-554,671	123,505	0,016	0,014
-553,656	-144,820	0,177	-0,012
-552,642	-200,000	0,001	0,087
-551,627	-103,269	0,103	0,018
-550,612	800,000	-0,059	-0,126
-549,598	-8,865	0,039	0,019
-548,583	-110,561	-0,114	-0,017
-547,569	-34,243	-0,135	-0,054
-546,554	-9,826	0,039	-0,019
-545,539	-77,328	0,096	0,024
-544,525	-34,454	-0,101	0,040
-543,510	800,000	-0,047	-0,096
-542,496	-21,062	0,115	0,051
-541,481	-136,329	-0,177	0,015
-540,466	632,943	0,065	-0,121
-539,452	178,764	0,120	-0,128
-538,437	187,229	0,106	0,116
-537,423	-200,000	0,003	0,062
-536,408	-200,000	0,031	0,129
-535,393	-200,000	0,008	-0,049
-534,379	-57,449	0,113	-0,036
-533,364	14,715	-0,100	-0,057
-532,350	743,732	0,037	0,072
-531,335	-2,076	0,031	0,016
-530,321	325,618	-0,096	0,134
-529,306	-200,000	0,005	0,018
-528,291	-200,000	0,009	-0,069
-527,277	194,065	-0,086	0,095
-526,262	-200,000	0,007	-0,080
-525,248	-76,238	0,086	-0,022
-524,233	52,354	-0,072	0,050
-523,218	9,229	-0,071	0,039
-522,204	-43,340	0,059	-0,022
-521,189	800,000	-0,031	-0,064
-520,175	-49,916	0,140	0,048
-519,160	48,971	-0,083	0,057
-518,145	78,166	0,072	-0,056
-517,131	280,759	0,085	0,112
-516,116	-92,924	0,067	-0,013
-515,102	-132,208	0,184	-0,017
-514,087	85,091	0,002	0,001
-513,072	-22,024	0,097	0,043
-512,058	800,000	-0,033	0,070
-511,043	133,853	0,036	0,034
-510,029	82,243	0,084	0,066
-509,014	77,580	0,175	0,136
-507,999	59,804	-0,111	0,080
-506,985	-12,611	-0,078	-0,037
-505,970	-11,314	-0,078	0,037
-504,956	-200,000	-0,014	-0,096
-503,941	193,763	0,087	-0,097
-502,926	-144,190	0,107	0,007
-501,912	245,147	-0,039	-0,048
-500,897	10,053	0,028	-0,016
-499,883	27,868	0,052	0,032
-498,868	800,000	-0,069	0,195
-497,853	520,314	-0,043	-0,074
-496,839	229,344	-0,050	-0,060
-495,824	-117,739	-0,061	-0,008
-494,810	-200,000	0,019	-0,096
-493,795	85,898	-0,035	-0,028
-492,781	-200,000	0,015	-0,086
-491,766	17,409	0,100	-0,058
-490,751	478,191	-0,058	0,096
-489,737	800,000	-0,039	0,086
-488,722	-101,525	0,110	-0,019
-487,708	-153,718	0,138	0,007
-486,693	144,168	-0,044	0,042
-485,678	13,205	-0,109	0,062
-484,664	-200,000	-0,029	-0,106
-483,649	-200,000	-0,004	0,038
-482,635	-200,000	-0,006	0,140
-481,620	-66,161	0,174	0,050
-480,605	-15,247	0,077	-0,036
-479,591	-74,593	-0,036	-0,009
-478,576	800,000	-0,053	-0,112
-477,562	-200,000	-0,008	-0,206
-476,547	-200,000	-0,008	-0,092
-475,532	364,963	-0,031	-0,046
-474,518	800,000	0,013	-0,032
-473,503	-200,000	-0,006	-0,030
-472,489	429,150	0,085	0,134
-471,474	10,901	0,022	-0,012
-470,459	800,000	0,007	-0,015
-469,445	289,701	-0,077	0,102
-468,430	122,689	-0,045	-0,041
-467,416	276,569	-0,034	0,044
-466,401	-200,000	-0,001	0,047
-465,386	-88,168	0,014	0,003
-464,372	110,007	0,030	-0,026
-463,357	-200,000	-0,005	-0,084
-462,343	-46,865	-0,101	-0,036
-461,328	-54,015	-0,115	0,038
-460,313	-200,000	-0,010	0,079
-459,299	-130,872	0,157	0,015
-458,284	62,915	-0,034	0,024
-457,270	-66,968	-0,010	0,003
-456,255	606,069	-0,042	-0,076
-455,241	223,327	-0,115	-0,135
-454,226	-200,000	-0,009	0,055
-453,211	49,635	0,120	0,082
-452,197	755,222	0,096	0,191
-451,182	-200,000	-0,013	0,045
-450,168	-200,000	-0,002	0,112
-449,153	-184,016	0,066	0,001
-448,138	-200,000	-0,023	-0,168
-447,124	144,202	-0,130	-0,127
-446,109	800,000	-0,079	-0,169
-445,095	-114,582	0,054	0,007
-444,080	-108,858	0,080	0,012
-443,065	800,000	0,020	-0,044
-442,051	270,841	-0,080	-0,103
-441,036	800,000	0,016	-0,051
-440,022	-200,000	-0,000	-0,052
-439,007	130,281	-0,151	-0,141
-437,992	48,086	0,107	-0,073
-436,978	-7,916	0,066	-0,032
-435,963	-24,337	0,028	0,012
-434,949	260,716	0,081	0,102
-433,934	-29,910	-0,088	-0,036
-432,919	147,834	-0,039	0,039
-431,905	368,591	-0,049	-0,073
-430,890	83,874	-0,063	-0,050
-429,876	148,901	0,058	0,057
-428,861	800,000	-0,073	0,181
-427,846	800,000	0,018	0,037
-426,832	71,990	-0,040	-0,030
-425,817	243,735	-0,060	-0,074
-424,803	96,757	0,145	0,121
-423,788	219,926	0,055	0,064
-422,773	405,196	0,058	-0,090
-421,759	446,624	-0,067	0,108
-420,744	-70,360	-0,003	-0,001
-419,730	-133,399	0,165	0,015
-418,715	800,000	-0,029	0,073
-417,701	38,296	0,051	0,033
-416,686	-8,895	0,148	-0,072
-415,671	800,000	0,052	0,150
-414,657	-66,533	0,099	0,028
-413,642	-75,927	0,044	-0,011
-412,628	-174,756	-0,082	0,002
-411,613	87,368	0,107	0,086
-410,598	-200,000	0,024	-0,145
-409,584	60,624	0,088	-0,063
-408,569	159,375	0,042	0,042
-407,555	96,957	0,104	0,087
-406,540	171,405	-0,008	0,009
-405,525	-200,000	-0,007	-0,052
-404,511	-62,157	0,129	-0,039
-403,496	-200,000	-0,020	0,065
-402,482	112,348	-0,047	-0,042
-401,467	44,480	0,095	0,064
-400,452	338,329	0,030	-0,043
-399,438	-66,270	-0,059	0,017
-398,423	50,566	-0,048	0,033
-397,409	175,344	-0,057	-0,060
-396,394	800,000	-0,044	-0,105
-395,379	-191,331	-0,041	0,000
-394,365	-200,000	-0,006	-0,044
-393,350	419,412	0,035	-0,054
-392,336	-200,000	0,003	0,021
-391,321	-16,507	-0,111	-0,051
-390,306	-39,594	0,099	-0,037
-389,292	21,414	-0,131	0,077
-388,277	500,440	-0,065	0,109
-387,263	-200,000	-0,008	-0,158
-386,248	449,356	-0,041	0,065
-385,233	5,807	-0,036	0,020
-384,219	800,000	-0,034	-0,076
-383,204	-200,000	0,007	-0,026
-382,190	-200,000	-0,007	-0,069
-381,175	-97,765	0,053	-0,010
-380,160	738,377	-0,029	0,057
-379,146	28,977	0,093	0,057
-378,131	436,173	-0,028	0,045
-377,117	-200,000	0,023	0,152
-376,102	-112,454	0,027	0,004
-375,088	-86,758	0,015	-0,003
-374,073	-200,000	-0,038	-0,144
-373,058	321,784	0,106	-0,148
-372,044	46,256	0,142	0,095
-371,029	363,778	0,056	0,082
-370,015	800,000	-0,014	0,033
-369,000	21,456	-0,035	-0,020
-367,985	167,283	-0,045	0,046
-366,971	85,926	0,101	-0,081
-365,956	72,417	0,065	0,049
-364,942	-200,000	0,002	0,104
-363,927	800,000	0,031	0,085
-362,912	-100,007	0,025	0,005
-361,898	56,274	-0,096	-0,068
-360,883	-70,388	-0,074	0,020
-359,869	517,711	-0,033	-0,057
-358,854	-200,000	-0,026	0,089
-357,839	67,787	-0,063	0,047
-356,825	-200,000	-0,017	-0,081
-355,810	70,254	0,081	-0,060
-354,796	800,000	0,045	0,132
-353,781	70,398	-0,017	0,013
-352,766	-7,116	0,060	-0,030
-351,752	800,000	-0,042	0,091
-350,737	-200,000	-0,007	0,081
-349,723	-36,372	0,107	0,041
-348,708	39,610	-0,054	-0,035
-347,693	-86,631	0,066	-0,015
-346,679	22,419	-0,103	0,061
-345,664	47,815	0,089	0,060
-344,650	-127,889	-0,068	0,007
-343,635	-200,000	-0,014	-0,135
-342,620	800,000	-0,010	-0,026
-341,606	-150,011	0,105	0,006
-340,591	800,000	0,067	-0,151
-339,577	188,601	-0,058	0,063
-338,562	27,652	-0,041	-0,025
-337,548	-200,000	-0,008	0,123
-336,533	800,000	-0,026	0,055
-335,518	-79,666	0,060	-0,014
-334,504	724,345	0,022	0,042
-333,489	154,458	-0,047	0,047
-332,475	-55,288	0,053	-0,017
-331,460	-25,876	-0,051	-0,022
-330,445	94,163	0,063	0,052
-329,431	118,715	0,054	-0,049
-328,416	-200,000	0,026	0,196
-327,402	800,000	0,044	0,102
-326,387	-200,000	0,001	-0,070
-325,372	-200,000	-0,012	-0,106
-324,358	800,000	-0,045	-0,116
-323,343	118,667	-0,052	0,047
-322,329	-120,094	-0,071	0,009
-321,314	800,000	-0,024	0,070
-320,299	800,000	0,040	0,114
-319,285	-200,000	-0,028	0,130
-318,270	97,931	0,038	0,032
-317,256	-200,000	0,028	-0,123
-316,241	-200,000	0,008	-0,113
-315,226	110,704	0,058	0,051
-314,212	274,505	0,049	0,064
-313,197	-200,000	0,008	0,044
-312,183	-200,000	0,027	-0,087
-311,168	162,953	-0,070	-0,071
-310,153	-86,542	-0,133	0,029
-309,139	276,625	0,086	0,111
-308,124	365,045	0,079	0,116
-307,110	438,267	0,039	-0,062
-306,095	-200,000	0,009	0,067
-305,080	240,046	0,088	-0,107
-304,066	240,881	0,055	-0,067
-303,051	247,495	0,018	-0,023
-302,037	599,454	0,025	0,045
-301,022	800,000	-0,032	0,099
-300,008	-135,681	-0,077	-0,007
-298,993	55,621	-0,036	0,025
-297,978	-200,000	0,011	0,099
-296,964	137,218	-0,037	-0,035
-295,949	-1,053	0,101	0,051
-294,935	-200,000	0,006	-0,039
-293,920	726,291	0,037	-0,071
-292,905	46,594	0,083	0,056
-291,891	15,513	-0,015	-0,009
-290,876	114,204	0,064	-0,056
-289,862	128,152	0,023	0,022
-288,847	45,559	-0,048	0,032
-287,832	-156,214	0,073	-0,003
-286,818	-200,000	-0,023	0,084
-285,803	-100,309	0,151	-0,027
-284,789	22,780	-0,096	0,057
-283,774	576,153	-0,068	0,120
-282,759	293,854	0,078	-0,103
-281,745	-55,617	-0,021	-0,007
-280,730	-68,526	-0,136	0,038
-279,716	108,406	-0,052	-0,045
-278,701	110,438	-0,085	0,074
-277,686	-200,000	-0,004	0,043
-276,672	-66,481	0,055	0,016
-275,657	-85,660	-0,078	-0,017
-274,643	127,704	0,065	0,059
-273,628	334,863	0,052	-0,073
-272,613	-14,459	-0,059	0,027
-271,599	89,711	0,099	0,080
-270,584	-85,008	-0,129	0,029
-269,570	800,000	0,039	0,113
-268,555	109,984	0,098	-0,085
-267,540	85,149	-0,050	0,039
-266,526	-81,375	-0,079	-0,019
-265,511	-200,000	0,004	0,084
-264,497	-200,000	-0,001	-0,008
-263,482	266,635	0,091	0,115
-262,467	17,865	-0,023	0,013
-261,453	334,146	0,049	0,069
-260,438	7,693	-0,063	0,034
-259,424	-113,285	-0,018	-0,003
-258,409	149,592	-0,120	-0,118
-257,395	61,222	0,076	-0,054
-256,380	785,815	0,056	-0,111
-255,365	263,349	-0,047	0,060
-254,351	479,776	-0,021	-0,034
-253,336	70,125	-0,167	0,125
-252,322	109,644	0,005	0,004
-251,307	-44,518	0,070	-0,025
-250,292	219,779	-0,022	0,026
-249,278	-44,155	0,051	-0,018
-248,263	79,611	0,067	-0,052
-247,249	-28,347	0,019	0,008
-246,234	102,695	-0,045	-0,038
-245,219	314,797	-0,075	0,102
-244,205	164,459	-0,027	-0,028
-243,190	-200,000	-0,062	0,233
-242,176	-50,080	0,012	0,004
-241,161	270,755	-0,019	0,024
-240,146	12,395	0,041	-0,023
-239,132	-200,000	0,009	0,126
-238,117	456,167	0,103	-0,166
-237,103	167,237	-0,080	-0,082
-236,088	-200,000	-0,008	0,045
-235,073	-20,846	-0,014	-0,006
-234,059	162,513	-0,041	0,042
-233,044	109,180	0,028	-0,024
-232,030	281,043	-0,044	-0,057
-231,015	3,075	-0,081	-0,042
-230,000	-200,000	0,013	-0,051
-228,986	-6,326	-0,132	0,065
-227,971	-107,651	0,142	-0,022
-226,957	-112,628	-0,075	0,011
-225,942	162,637	0,045	0,046
-224,927	114,496	0,075	0,066
-223,913	-200,000	0,010	-0,106
-222,898	303,044	-0,096	-0,129
-221,884	-200,000	0,014	-0,061
-220,869	800,000	0,028	0,063
-219,855	476,606	-0,082	0,135
-218,840	787,269	0,082	0,163
-217,825	-123,405	-0,085	0,010
-216,811	-174,827	0,132	-0,003
-215,796	-5,376	-0,040	0,020
-214,782	800,000	-0,045	-0,138
-213,767	-200,000	0,020	0,071
-212,752	-200,000	0,013	-0,178
-211,738	53,120	0,093	-0,064
-210,723	-0,746	0,167	0,085
-209,709	-77,729	0,085	-0,021
-208,694	221,319	-0,037	-0,043
-207,679	-200,000	-0,038	-0,156
-206,665	800,000	0,058	0,140
-205,650	-200,000	0,000	0,138
-204,636	-200,000	-0,007	0,114
-203,621	-200,000	0,016	0,061
-202,606	-172,142	-0,165	0,004
-201,592	-147,502	0,081	0,005
-200,577	-134,083	-0,019	-0,002
-199,563	-87,166	0,150	-0,033
-198,548	-145,159	0,158	-0,010
-197,533	-200,000	-0,018	0,064
-196,519	266,883	0,096	0,121
-195,504	-75,741	-0,109	-0,028
-194,490	-157,946	0,060	-0,003
-193,475	800,000	-0,032	-0,078
-192,460	-200,000	-0,014	-0,173
-191,446	-64,559	0,220	-0,064
-190,431	-72,537	-0,123	0,032
-189,417	138,291	-0,149	-0,141
-188,402	-200,000	-0,045	-0,149
-187,387	-200,000	-0,015	-0,057
-186,373	484,504	-0,035	0,058
-185,358	-200,000	-0,007	0,084
-184,344	-79,542	-0,004	-0,001
-183,329	800,000	0,045	-0,091
-182,315	-117,680	0,049	0,006
-181,300	-18,478	-0,095	0,043
-180,285	-18,110	0,030	-0,014
-179,271	127,752	0,087	-0,080
-178,256	378,326	0,062	-0,092
-177,242	-200,000	0,012	0,150
-176,227	-200,000	0,016	0,113
-175,212	70,162	0,058	0,043
-174,198	107,656	-0,044	-0,038
-173,183	239,275	-0,011	0,013
-172,169	0,201	-0,079	-0,041
-171,154	30,109	0,040	-0,025
-170,139	391,354	-0,079	-0,118
-169,125	-200,000	0,007	0,057
-168,110	-69,283	0,054	-0,015
-167,096	157,047	-0,091	0,091
-166,081	55,498	-0,025	0,017
-165,066	336,517	0,053	-0,074
-164,052	-180,105	0,067	-0,001
-163,037	-200,000	-0,009	0,074
-162,023	0,579	0,019	-0,010
-161,008	800,000	-0,024	0,073
-159,993	-51,439	-0,079	0,026
-158,979	-200,000	-0,008	0,098
-157,964	-200,000	-0,025	-0,206
-156,950	-118,254	-0,090	-0,011
-155,935	21,064	-0,078	-0,045
-154,920	256,292	-0,031	0,038
-153,906	64,459	0,077	-0,056
-152,891	-200,000	-0,002	-0,104
-151,877	800,000	-0,021	-0,049
-150,862	37,222	-0,139	-0,089
-149,847	143,189	0,116	-0,111
-148,833	-200,000	-0,003	-0,106
-147,818	-152,181	0,083	-0,004
-146,804	292,480	0,135	-0,178
-145,789	58,872	-0,087	0,061
-144,775	-65,555	-0,058	-0,017
-143,760	-200,000	0,036	-0,186
-142,745	126,559	0,083	-0,075
-141,731	-71,094	0,033	-0,009
-140,716	7,831	0,142	0,076
-139,702	196,155	-0,084	0,092
-138,687	-122,822	-0,091	0,010
-137,672	-75,525	-0,044	0,011
-136,658	-16,893	-0,053	0,024
-135,643	712,231	-0,041	0,079
-134,629	-48,091	-0,152	-0,053
-133,614	-72,821	-0,102	0,027
-132,599	800,000	0,025	-0,062
-131,585	-200,000	-0,011	0,039
-130,570	55,766	-0,081	-0,056
-129,556	-200,000	0,002	-0,036
-128,541	75,261	0,041	-0,031
-127,526	-44,676	0,068	0,024
-126,512	-200,000	-0,007	0,120
-125,497	-47,078	0,019	0,007
-124,483	452,324	-0,016	0,025
-123,468	68,803	-0,077	-0,056
-122,453	-57,417	-0,092	-0,029
-121,439	51,865	-0,066	-0,045
-120,424	-200,000	-0,068	-0,258
-119,410	-36,465	-0,099	-0,038
