DTS Sentinel unit serial number:	SN410029Multiplexer serial number:	ORYXHardware model number:	OX2-SRSoftware version number:	ORYX F/W v4,00 Oryx Data Collector v3.7.2.0data status	okinstallation	B6 Nyhavnadifferential loss correction	single-endedforward channel	channel 2reverse channel	N/Adate	2023/12/09time	14:00:08forward acquisition time	300,00reverse acquisition time	0,00gamma	499,1914k internal	0,3134k external	0,3134temperature offset calibration	1,0000default loss term (dB/km)	0,3820temperature slope calibration	1,0000multiplexer offset coefficient	1,0000multiplexer slope coefficient	1,0000fibre end	0,00T internal ref (°C)	20,43T ext. ref 1 (°C)	4,36T ext. ref 2 (°C)	4,37length (m)	temperature (°C)	Stokes	anti-Stokes-744,400	137,186	0,058	0,056
-743,385	33,380	-0,144	0,092
-742,371	800,000	-0,018	0,048
-741,356	46,257	-0,265	0,182
-740,342	107,597	0,164	-0,145
-739,327	-8,538	-0,170	0,084
-738,312	-66,295	-0,062	0,018
-737,298	-115,901	-0,208	0,029
-736,283	113,633	0,032	-0,029
-735,269	158,910	-0,178	0,184
-734,254	16,707	0,059	-0,035
-733,239	29,973	-0,420	-0,266
-732,225	-151,845	0,101	-0,005
-731,210	800,000	0,038	0,079
-730,196	-33,384	0,104	-0,042
-729,181	0,163	-0,078	0,041
-728,167	-200,000	0,008	0,128
-727,152	459,636	-0,065	0,108
-726,137	6,052	-0,050	0,027
-725,123	800,000	0,062	-0,160
-724,108	-4,920	-0,181	-0,092
-723,094	124,682	0,038	-0,035
-722,079	-200,000	-0,003	0,081
-721,064	-200,000	0,066	0,234
-720,050	-200,000	-0,019	0,097
-719,035	45,733	-0,026	-0,018
-718,021	800,000	-0,034	-0,107
-717,006	-200,000	-0,049	-0,217
-715,991	800,000	-0,008	0,020
-714,977	10,730	-0,023	-0,013
-713,962	800,000	-0,028	-0,065
-712,948	592,182	-0,057	0,105
-711,933	-30,937	0,087	-0,036
-710,918	-128,293	-0,075	-0,008
-709,904	465,260	-0,085	-0,141
-708,889	-39,297	-0,127	0,049
-707,875	21,997	-0,073	-0,044
-706,860	-200,000	-0,022	-0,131
-705,845	-81,547	0,080	0,019
-704,831	-17,080	-0,145	0,068
-703,816	800,000	-0,057	0,153
-702,802	-134,303	-0,199	0,018
-701,787	101,767	-0,042	0,036
-700,772	394,407	-0,024	0,037
-699,758	-126,373	0,116	0,013
-698,743	-26,360	0,110	0,048
-697,729	-200,000	0,036	-0,118
-696,714	-139,538	0,114	-0,009
-695,699	-200,000	-0,015	-0,114
-694,685	-46,566	-0,144	0,052
-693,670	7,606	0,060	-0,033
-692,656	-174,376	0,164	-0,003
-691,641	26,058	-0,168	0,104
-690,627	95,965	0,085	0,072
-689,612	-200,000	-0,023	0,094
-688,597	281,884	0,040	0,053
-687,583	800,000	0,037	-0,098
-686,568	-200,000	0,004	-0,020
-685,554	-148,482	-0,130	0,008
-684,539	214,453	0,136	0,160
-683,524	266,547	-0,121	0,158
-682,510	-200,000	-0,003	-0,032
-681,495	92,039	-0,051	0,042
-680,481	46,291	-0,031	-0,021
-679,466	67,012	-0,064	-0,048
-678,451	-95,329	0,026	0,005
-677,437	-107,068	-0,142	0,023
-676,422	117,616	-0,064	0,058
-675,408	409,906	0,027	-0,042
-674,393	800,000	-0,021	-0,055
-673,378	317,325	-0,053	-0,074
-672,364	-189,782	-0,030	0,000
-671,349	64,348	-0,125	-0,093
-670,335	-200,000	-0,003	-0,085
-669,320	-200,000	0,008	0,102
-668,305	21,236	0,076	0,045
-667,291	344,039	-0,055	0,080
-666,276	94,704	-0,063	-0,053
-665,262	-17,353	0,127	-0,059
-664,247	-200,000	0,006	0,038
-663,232	176,932	0,088	0,095
-662,218	-112,889	0,038	-0,005
-661,203	-124,427	-0,102	0,012
-660,189	101,421	-0,054	0,046
-659,174	800,000	0,048	-0,152
-658,159	93,758	0,127	-0,106
-657,145	-200,000	0,005	-0,071
-656,130	-200,000	-0,001	-0,010
-655,116	143,856	-0,044	0,044
-654,101	800,000	0,052	0,115
-653,086	-4,434	-0,106	0,054
-652,072	58,839	-0,146	-0,106
-651,057	485,497	-0,023	-0,039
-650,043	137,884	-0,166	-0,161
-649,028	-79,660	-0,032	0,008
-648,014	-3,485	-0,192	-0,098
-646,999	-154,248	0,088	-0,004
-645,984	-173,232	-0,028	-0,001
-644,970	-17,824	-0,048	0,022
-643,955	47,690	-0,154	-0,106
-642,941	242,397	-0,084	-0,104
-641,926	282,578	0,061	-0,081
-640,911	-62,741	0,061	-0,018
-639,897	-200,000	-0,008	0,173
-638,882	32,870	0,103	0,066
-637,868	800,000	-0,029	0,068
-636,853	-200,000	-0,011	-0,083
-635,838	-33,638	-0,097	-0,040
-634,824	42,424	-0,237	-0,159
-633,809	408,664	0,100	0,157
-632,795	6,580	0,082	-0,045
-631,780	-108,009	-0,156	-0,025
-630,765	-200,000	-0,004	-0,026
-629,751	524,807	-0,048	-0,084
-628,736	800,000	-0,020	-0,060
-627,722	-75,477	0,083	0,022
-626,707	123,045	0,088	0,082
-625,692	-121,669	0,048	0,006
-624,678	800,000	-0,061	0,147
-623,663	-200,000	0,020	0,217
-622,649	530,876	-0,060	0,106
-621,634	173,274	0,058	0,062
-620,619	410,376	-0,064	0,101
-619,605	21,755	0,072	-0,043
-618,590	114,002	-0,119	0,107
-617,576	68,503	0,047	-0,036
-616,561	-114,705	0,088	-0,012
-615,546	-20,337	0,102	-0,046
-614,532	178,144	-0,063	-0,068
-613,517	-31,655	0,046	-0,019
-612,503	-200,000	0,017	-0,070
-611,488	-200,000	-0,006	-0,144
-610,474	-183,008	-0,094	-0,001
-609,459	71,229	0,042	0,033
-608,444	-166,030	-0,122	0,004
-607,430	-200,000	0,001	0,060
-606,415	-74,720	-0,078	0,020
-605,401	91,432	0,090	0,075
-604,386	-200,000	0,015	0,067
-603,371	35,038	-0,083	0,053
-602,357	99,795	-0,082	0,070
-601,342	-200,000	0,003	-0,115
-600,328	-98,047	-0,008	-0,001
-599,313	240,126	0,088	-0,108
-598,298	800,000	0,022	-0,049
-597,284	19,007	0,064	-0,038
-596,269	-200,000	-0,008	-0,092
-595,255	800,000	-0,030	-0,063
-594,240	-49,567	-0,016	0,006
-593,225	800,000	0,033	-0,098
-592,211	800,000	-0,065	0,153
-591,196	463,381	0,007	-0,012
-590,182	-34,350	-0,091	0,037
-589,167	-94,399	0,079	0,016
-588,152	-200,000	0,004	0,081
-587,138	-57,639	-0,011	0,004
-586,123	-151,941	-0,137	-0,007
-585,109	-126,057	0,147	-0,016
-584,094	536,624	0,036	-0,063
-583,079	84,100	0,130	0,105
-582,065	71,905	0,135	0,104
-581,050	495,975	-0,015	-0,026
-580,036	458,380	-0,030	-0,050
-579,021	209,540	-0,084	0,098
-578,006	320,514	-0,015	-0,021
-576,992	666,141	0,042	0,080
-575,977	51,431	-0,037	-0,026
-574,963	800,000	0,071	0,171
-573,948	-100,873	0,009	-0,002
-572,934	165,550	0,091	-0,095
-571,919	201,895	0,014	0,016
-570,904	-200,000	0,012	-0,150
-569,890	800,000	0,054	-0,132
-568,875	800,000	0,028	-0,061
-567,861	-200,000	-0,030	0,117
-566,846	64,074	0,146	0,108
-565,831	-200,000	-0,010	0,042
-564,817	800,000	-0,064	0,139
-563,802	352,686	-0,029	-0,042
-562,788	800,000	-0,023	-0,057
-561,773	-200,000	-0,007	0,048
-560,758	177,250	-0,050	0,054
-559,744	198,872	0,033	0,037
-558,729	800,000	0,008	0,020
-557,715	7,664	0,068	-0,037
-556,700	-200,000	-0,023	-0,104
-555,685	102,633	-0,041	-0,036
-554,671	-133,146	-0,047	0,004
-553,656	-132,670	-0,038	0,004
-552,642	313,867	0,045	0,063
-551,627	-14,854	0,072	0,034
-550,612	-200,000	0,020	-0,108
-549,598	326,104	-0,039	-0,055
-548,583	65,563	0,069	0,051
-547,569	135,438	-0,075	0,072
-546,554	-108,783	0,140	0,022
-545,539	-7,298	-0,058	0,029
-544,525	-113,525	-0,123	0,018
-543,510	-200,000	-0,022	-0,110
-542,496	375,140	-0,063	-0,095
-541,481	-65,976	-0,047	-0,014
-540,466	150,264	-0,024	-0,024
-539,452	-200,000	-0,019	0,145
-538,437	208,982	0,034	-0,039
-537,423	-200,000	-0,009	0,141
-536,408	546,794	-0,059	-0,104
-535,393	-105,574	0,070	-0,012
-534,379	-200,000	0,037	-0,147
-533,364	107,229	0,130	0,114
-532,350	144,325	0,035	0,034
-531,335	416,931	0,049	0,077
-530,321	115,862	-0,107	0,096
-529,306	-31,120	-0,086	0,036
-528,291	-129,631	-0,018	-0,002
-527,277	-200,000	-0,009	-0,048
-526,262	494,362	-0,017	-0,029
-525,248	-39,018	-0,068	0,026
-524,233	122,931	-0,068	-0,062
-523,218	800,000	-0,012	0,032
-522,204	-200,000	0,008	0,054
-521,189	303,594	-0,070	-0,095
-520,175	483,893	-0,050	-0,084
-519,160	47,993	-0,017	0,011
-518,145	68,082	-0,060	-0,045
-517,131	694,248	0,066	0,127
-516,116	-200,000	-0,037	-0,178
-515,102	800,000	-0,044	0,134
-514,087	-69,488	0,075	-0,021
-513,072	498,478	-0,072	-0,122
-512,058	-66,348	0,100	-0,029
-511,043	800,000	0,044	-0,131
-510,029	-200,000	0,029	-0,098
-509,014	-200,000	0,020	-0,071
-507,999	31,738	0,072	0,045
-506,985	-35,587	-0,050	0,020
-505,970	-148,978	-0,172	-0,010
-504,956	-40,124	-0,109	0,042
-503,941	67,381	-0,056	-0,042
-502,926	13,262	0,048	-0,027
-501,912	-155,699	-0,110	0,005
-500,897	-96,863	0,045	-0,009
-499,883	-200,000	-0,006	0,068
-498,868	175,764	-0,111	-0,118
-497,853	-129,980	-0,080	-0,008
-496,839	-35,538	-0,068	-0,027
-495,824	-200,000	0,005	0,030
-494,810	333,203	0,135	0,193
-493,795	159,848	0,094	-0,097
-492,781	-134,999	-0,027	0,002
-491,766	-200,000	0,018	0,138
-490,751	-200,000	0,006	-0,036
-489,737	800,000	0,012	0,038
-488,722	105,060	0,134	0,116
-487,708	27,961	0,167	0,103
-486,693	147,987	0,054	-0,054
-485,678	-25,966	-0,029	-0,012
-484,664	291,881	-0,101	-0,136
-483,649	-54,588	-0,131	-0,043
-482,635	125,166	-0,101	0,094
-481,620	-200,000	0,014	0,186
-480,605	-56,820	0,117	0,038
-479,591	-118,437	-0,199	0,026
-478,576	-80,362	0,095	-0,023
-477,562	275,191	-0,070	-0,091
-476,547	800,000	-0,091	-0,212
-475,532	144,388	0,094	-0,093
-474,518	236,833	-0,041	-0,050
-473,503	-200,000	0,003	-0,112
-472,489	-81,647	-0,031	-0,007
-471,474	-83,384	0,058	-0,013
-470,459	-200,000	0,049	-0,186
-469,445	-79,757	-0,181	-0,044
-468,430	296,409	0,059	0,080
-467,416	93,571	-0,026	-0,022
-466,401	-200,000	-0,006	0,110
-465,386	-58,484	0,076	-0,024
-464,372	-200,000	-0,016	-0,087
-463,357	800,000	0,047	-0,149
-462,343	800,000	-0,091	-0,192
-461,328	224,611	-0,046	0,055
-460,313	800,000	0,076	0,157
-459,299	226,769	0,027	-0,033
-458,284	800,000	-0,052	-0,107
-457,270	800,000	-0,031	-0,084
-456,255	187,151	0,042	0,046
-455,241	-200,000	-0,016	0,057
-454,226	574,217	0,029	-0,052
-453,211	-200,000	0,104	0,000
-452,197	29,573	0,030	0,018
-451,182	800,000	-0,060	0,163
-450,168	800,000	0,026	-0,079
-449,153	-200,000	0,000	-0,071
-448,138	47,432	-0,097	-0,066
-447,124	312,680	0,056	-0,078
-446,109	-200,000	-0,003	-0,169
-445,095	-27,186	0,133	-0,057
-444,080	127,680	-0,075	0,070
-443,065	281,387	0,044	0,058
-442,051	281,044	0,036	-0,047
-441,036	-200,000	0,070	-0,255
-440,022	194,229	-0,098	-0,109
-439,007	26,539	0,051	0,031
-437,992	-84,703	-0,072	-0,016
-436,978	-9,020	0,104	-0,051
-435,963	-18,382	-0,062	0,028
-434,949	313,116	-0,070	0,097
-433,934	124,762	0,056	0,052
-432,919	127,825	-0,040	-0,037
-431,905	800,000	0,048	-0,099
-430,890	348,702	-0,077	-0,112
-429,876	60,454	0,113	-0,082
-428,861	37,817	-0,072	-0,047
-427,846	-200,000	-0,033	-0,179
-426,832	-152,512	-0,103	0,005
-425,817	284,257	0,081	0,107
-424,803	-200,000	0,013	-0,176
-423,788	21,193	-0,015	0,009
-422,773	-200,000	-0,002	-0,035
-421,759	495,912	0,082	0,139
-420,744	-98,524	-0,111	0,021
-419,730	-200,000	-0,020	-0,089
-418,715	102,343	-0,111	0,095
-417,701	5,590	-0,074	-0,040
-416,686	800,000	0,007	0,021
-415,671	3,551	0,052	0,028
-414,657	-103,674	-0,039	-0,007
-413,642	-108,096	-0,052	-0,008
-412,628	-200,000	0,030	0,111
-411,613	-52,487	0,100	0,034
-410,598	141,191	-0,039	-0,038
-409,584	20,544	0,054	-0,032
-408,569	800,000	-0,004	0,011
-407,555	-13,734	0,123	0,058
-406,540	-44,244	0,075	0,027
-405,525	-114,557	0,043	-0,006
-404,511	103,728	0,113	-0,097
-403,496	800,000	0,028	0,067
-402,482	183,831	0,045	0,049
-401,467	330,508	-0,021	-0,030
-400,452	230,566	0,078	0,094
-399,438	745,979	-0,055	-0,110
-398,423	259,044	-0,043	0,055
-397,409	-200,000	0,001	-0,065
-396,394	800,000	0,033	-0,086
-395,379	-146,905	0,061	0,004
-394,365	47,572	0,182	0,124
-393,350	235,948	-0,057	-0,069
-392,336	800,000	-0,023	0,062
-391,321	304,738	0,032	-0,043
-390,306	250,841	0,042	-0,052
-389,292	168,543	-0,054	-0,056
-388,277	48,882	-0,103	0,071
-387,263	-52,600	0,052	0,018
-386,248	162,021	-0,059	0,061
-385,233	-88,626	0,109	0,024
-384,219	123,060	-0,127	-0,116
-383,204	474,945	-0,041	-0,069
-382,190	-119,125	0,078	0,010
-381,175	-55,722	-0,030	0,010
-380,160	190,728	0,040	-0,044
-379,146	-144,611	-0,004	-0,000
-378,131	102,042	-0,109	0,093
-377,117	6,328	-0,033	-0,018
-376,102	-68,920	-0,054	0,015
-375,088	-200,000	-0,022	0,190
-374,073	-200,000	-0,003	-0,045
-373,058	-136,811	-0,216	0,018
-372,044	-115,131	0,145	0,020
-371,029	-144,281	-0,043	0,003
-370,015	-200,000	0,000	0,163
-369,000	373,812	-0,068	0,102
-367,985	-131,408	-0,081	0,008
-366,971	142,245	-0,083	-0,081
-365,956	-63,713	0,070	0,021
-364,942	800,000	-0,059	-0,124
-363,927	-200,000	-0,030	0,230
-362,912	-200,000	0,002	-0,027
-361,898	-55,244	-0,042	-0,014
-360,883	-59,597	-0,026	-0,008
-359,869	5,974	0,074	0,040
-358,854	-162,300	0,099	0,004
-357,839	-200,000	-0,011	0,078
-356,825	41,430	-0,010	0,007
-355,810	-75,365	-0,147	0,038
-354,796	-16,918	0,070	-0,032
-353,781	-200,000	-0,031	-0,159
-352,766	-200,000	0,002	0,094
-351,752	118,415	0,075	0,067
-350,737	800,000	-0,032	0,096
-349,723	800,000	0,059	0,135
-348,708	-200,000	-0,007	-0,033
-347,693	-92,085	-0,108	-0,022
-346,679	-183,671	-0,064	-0,001
-345,664	13,029	-0,055	0,031
-344,650	-113,495	-0,017	0,002
-343,635	-157,808	0,113	-0,005
-342,620	-10,166	0,118	0,057
-341,606	-126,411	0,101	0,011
-340,591	-40,418	0,088	-0,033
-339,577	63,943	-0,119	0,087
-338,562	-68,089	-0,077	-0,022
-337,548	800,000	-0,019	-0,059
-336,533	-111,547	0,035	-0,005
-335,518	-35,419	0,058	0,023
-334,504	304,320	-0,031	-0,042
-333,489	94,422	-0,045	-0,037
-332,475	-88,027	0,078	0,017
-331,460	-130,293	-0,094	-0,009
-330,445	493,553	0,105	-0,177
-329,431	-103,973	0,146	0,025
-328,416	-131,027	0,219	0,021
-327,402	536,241	0,010	0,018
-326,387	800,000	-0,042	0,133
-325,372	-17,334	-0,104	-0,048
-324,358	-200,000	0,003	0,059
-323,343	243,389	0,111	0,136
-322,329	176,795	0,071	0,075
-321,314	-36,832	0,067	0,026
-320,299	370,085	-0,061	0,091
-319,285	-137,514	-0,149	0,012
-318,270	-108,336	-0,123	-0,019
-317,256	348,674	-0,104	-0,150
-316,241	-48,742	-0,104	0,036
-315,226	15,397	0,171	-0,098
-314,212	-200,000	0,016	0,070
-313,197	328,988	0,037	0,052
-312,183	800,000	0,040	-0,110
-311,168	-200,000	-0,012	-0,147
-310,153	-5,305	0,161	-0,080
-309,139	113,740	0,018	0,016
-308,124	800,000	0,024	-0,055
-307,110	-32,235	-0,145	0,059
-306,095	800,000	-0,035	0,089
-305,080	54,076	0,075	-0,053
-304,066	554,838	0,021	-0,036
-303,051	511,539	0,025	-0,043
-302,037	653,760	-0,058	0,110
-301,022	479,611	-0,034	-0,056
-300,008	-192,867	0,064	0,000
-298,993	312,958	0,038	0,053
-297,978	-200,000	-0,013	0,068
-296,964	34,289	-0,105	0,067
-295,949	800,000	-0,054	-0,131
-294,935	-200,000	0,005	-0,055
-293,920	-200,000	0,011	0,080
-292,905	-200,000	0,004	0,110
-291,891	-70,010	-0,081	-0,022
-290,876	-200,000	0,012	-0,059
-289,862	337,338	-0,059	0,084
-288,847	335,272	-0,060	0,084
-287,832	800,000	-0,027	0,085
-286,818	714,619	-0,082	0,159
-285,803	-200,000	0,004	0,050
-284,789	-200,000	0,004	0,022
-283,774	-6,565	0,095	0,047
-282,759	530,795	-0,094	0,163
-281,745	432,573	-0,030	-0,048
-280,730	-70,842	-0,038	0,010
-279,716	339,460	0,071	0,101
-278,701	-100,185	0,084	-0,015
-277,686	-87,477	0,014	0,003
-276,672	-117,892	-0,042	-0,005
-275,657	-90,573	-0,099	0,021
-274,643	800,000	0,049	0,128
-273,628	800,000	-0,018	-0,040
-272,613	-9,644	-0,065	0,032
-271,599	-35,144	-0,065	-0,026
-270,584	17,100	-0,074	0,043
-269,570	-129,893	0,128	-0,013
-268,555	46,461	-0,067	-0,046
-267,540	-108,433	0,143	-0,022
-266,526	-200,000	-0,014	-0,048
-265,511	140,380	-0,032	0,031
-264,497	800,000	0,058	0,122
-263,482	800,000	0,006	-0,018
-262,467	-20,304	0,070	0,031
-261,453	-200,000	0,015	0,093
-260,438	-200,000	0,006	-0,042
-259,424	446,739	-0,097	-0,155
-258,409	-137,307	-0,130	0,011
-257,395	-200,000	0,008	0,064
-256,380	59,046	0,048	0,034
-255,365	-73,443	0,139	0,037
-254,351	-200,000	0,010	0,143
-253,336	119,363	0,016	-0,015
-252,322	-35,310	0,060	-0,024
-251,307	-102,802	-0,095	0,016
-250,292	800,000	-0,018	0,052
-249,278	800,000	0,020	-0,062
-248,263	-200,000	-0,013	0,062
-247,249	53,727	0,081	0,056
-246,234	165,191	-0,127	-0,131
-245,219	-200,000	0,004	0,072
-244,205	324,475	-0,089	-0,124
-243,190	-200,000	-0,011	0,120
-242,176	679,624	-0,019	0,036
-241,161	24,658	0,013	-0,008
-240,146	321,914	-0,079	0,110
-239,132	342,269	-0,014	-0,020
-238,117	800,000	0,011	-0,027
-237,103	187,345	-0,033	0,036
-236,088	257,617	0,042	-0,053
-235,073	-99,836	0,063	-0,011
-234,059	800,000	-0,048	-0,117
-233,044	-48,638	-0,046	-0,016
-232,030	-45,616	0,047	-0,017
-231,015	-41,163	-0,051	0,019
-230,000	29,577	-0,067	-0,042
-228,986	707,559	-0,026	0,050
-227,971	800,000	-0,015	0,033
-226,957	385,561	0,064	0,096
-225,942	-200,000	0,009	0,088
-224,927	458,240	-0,104	-0,168
-223,913	-93,892	-0,041	-0,008
-222,898	-20,786	-0,067	-0,030
-221,884	131,115	0,052	0,048
-220,869	51,729	0,102	-0,070
-219,855	-96,708	0,154	0,029
-218,840	-200,000	-0,003	0,043
-217,825	322,861	-0,073	-0,102
-216,811	-200,000	-0,015	-0,124
-215,796	140,541	-0,077	-0,074
-214,782	-200,000	-0,010	-0,071
-213,767	250,347	0,091	0,112
-212,752	-20,796	0,118	0,052
-211,738	-200,000	0,022	0,087
-210,723	-200,000	0,013	0,082
-209,709	162,060	0,037	0,037
-208,694	-200,000	0,008	-0,076
-207,679	800,000	-0,007	-0,018
-206,665	-78,633	0,039	0,010
-205,650	483,345	0,085	0,142
-204,636	-86,651	0,211	0,047
-203,621	-200,000	0,021	-0,132
-202,606	-80,758	-0,079	0,019
-201,592	-200,000	0,027	-0,141
-200,577	182,614	0,072	-0,077
-199,563	-200,000	-0,007	-0,051
-198,548	255,799	-0,066	-0,082
-197,533	-200,000	-0,004	-0,035
-196,519	73,583	-0,059	-0,045
-195,504	160,501	-0,030	-0,030
-194,490	2,336	-0,076	-0,040
-193,475	-49,556	-0,065	-0,022
-192,460	-142,048	0,103	-0,007
-191,446	25,541	0,162	0,098
-190,431	-200,000	-0,001	0,075
-189,417	-139,958	-0,038	0,003
-188,402	800,000	-0,038	0,095
-187,387	-200,000	0,024	-0,080
-186,373	90,479	-0,090	-0,073
-185,358	-125,342	0,116	-0,013
-184,344	670,541	-0,025	-0,046
-183,329	-136,035	0,244	0,021
-182,315	800,000	0,077	-0,161
-181,300	-200,000	0,001	0,014
-180,285	-56,067	-0,064	0,021
-179,271	-200,000	-0,036	-0,167
-178,256	-94,557	0,207	0,041
-177,242	95,063	0,089	0,073
-176,227	44,412	0,025	-0,017
-175,212	800,000	-0,012	-0,026
-174,198	86,057	-0,053	-0,042
-173,183	-200,000	-0,012	-0,049
-172,169	98,439	-0,075	-0,063
-171,154	315,181	-0,026	-0,035
-170,139	-15,087	0,002	0,001
-169,125	-200,000	-0,002	-0,131
-168,110	381,432	-0,021	-0,031
-167,096	-200,000	-0,023	-0,098
-166,081	337,594	0,032	0,046
-165,066	391,499	-0,045	-0,068
-164,052	-143,181	0,115	-0,008
-163,037	800,000	0,051	0,119
-162,023	496,619	0,103	0,173
-161,008	-5,900	-0,133	0,066
-159,993	-200,000	0,021	0,169
-158,979	-200,000	0,015	0,106
-157,964	-163,168	0,157	0,005
-156,950	-38,960	0,040	0,015
-155,935	-14,076	0,137	0,064
-154,920	-200,000	0,015	0,112
-153,906	800,000	0,014	-0,028
-152,891	89,876	-0,070	-0,057
-151,877	274,992	0,026	0,033
-150,862	-200,000	-0,020	0,116
-149,847	633,751	-0,037	-0,068
-148,833	175,709	-0,064	0,067
-147,818	296,998	0,034	-0,046
-146,804	-200,000	-0,003	-0,072
-145,789	800,000	0,017	-0,040
-144,775	110,193	-0,039	-0,034
-143,760	-109,909	-0,146	0,022
-142,745	-42,081	-0,100	-0,037
-141,731	145,272	-0,026	-0,025
-140,716	-89,345	-0,076	0,016
-139,702	-200,000	-0,006	0,165
-138,687	-200,000	0,003	-0,022
-137,672	103,887	0,070	0,060
-136,658	66,573	-0,042	0,031
-135,643	-200,000	-0,009	-0,141
-134,629	-200,000	0,030	0,106
-133,614	-126,368	0,080	0,009
-132,599	-107,281	0,027	-0,004
-131,585	-53,425	0,191	0,063
-130,570	-0,782	-0,049	0,025
-129,556	-36,884	0,049	-0,019
-128,541	-200,000	-0,020	0,093
-127,526	112,741	-0,078	0,069
-126,512	51,752	0,062	-0,043
-125,497	41,940	0,045	0,030
-124,483	-90,539	0,019	-0,004
-123,468	-200,000	0,010	0,197
-122,453	-200,000	0,017	0,056
-121,439	67,514	0,041	-0,031
-120,424	122,808	-0,082	0,074
-119,410	-61,160	0,157	0,048
