DTS Sentinel unit serial number:	SN410029Multiplexer serial number:	ORYXHardware model number:	OX2-SRSoftware version number:	ORYX F/W v4,00 Oryx Data Collector v3.7.2.0data status	okinstallation	B6 Nyhavnadifferential loss correction	single-endedforward channel	channel 2reverse channel	N/Adate	2023/12/10time	10:20:08forward acquisition time	300,00reverse acquisition time	0,00gamma	499,1914k internal	0,3123k external	0,3123temperature offset calibration	1,0000default loss term (dB/km)	0,3820temperature slope calibration	1,0000multiplexer offset coefficient	1,0000multiplexer slope coefficient	1,0000fibre end	0,00T internal ref (°C)	22,56T ext. ref 1 (°C)	6,41T ext. ref 2 (°C)	6,39length (m)	temperature (°C)	Stokes	anti-Stokes-744,400	193,084	0,118	0,133
-743,385	22,479	-0,271	0,165
-742,371	-173,572	0,017	-0,000
-741,356	365,443	-0,112	0,168
-740,342	461,864	0,044	0,074
-739,327	27,659	-0,159	0,099
-738,312	151,782	-0,023	0,023
-737,298	4,057	-0,174	0,095
-736,283	-32,136	0,090	0,038
-735,269	50,550	-0,268	0,188
-734,254	-200,000	0,020	0,065
-733,239	-91,076	-0,392	-0,083
-732,225	15,720	0,168	0,098
-731,210	-22,870	0,138	0,062
-730,196	350,114	0,010	-0,014
-729,181	-171,255	-0,085	0,002
-728,167	-200,000	-0,011	-0,172
-727,152	-22,750	0,127	-0,057
-726,137	-200,000	-0,005	0,045
-725,123	631,646	-0,028	-0,053
-724,108	800,000	-0,065	-0,183
-723,094	404,974	-0,108	-0,170
-722,079	-200,000	-0,014	-0,117
-721,064	145,960	-0,079	-0,079
-720,050	47,467	0,013	0,009
-719,035	-87,482	0,120	-0,027
-718,021	-36,190	-0,114	-0,046
-717,006	-13,545	-0,058	-0,028
-715,991	-73,095	-0,130	-0,035
-714,977	-62,478	-0,080	0,025
-713,962	47,599	-0,052	0,036
-712,948	119,857	-0,020	-0,019
-711,933	-114,597	-0,098	0,014
-710,918	-200,000	0,015	-0,070
-709,904	-200,000	0,010	0,057
-708,889	38,086	-0,065	-0,043
-707,875	-200,000	-0,006	-0,179
-706,860	103,102	-0,091	-0,079
-705,845	-48,437	0,044	-0,016
-704,831	800,000	-0,017	0,050
-703,816	43,941	-0,090	0,062
-702,802	-101,347	0,050	-0,009
-701,787	292,562	0,091	-0,124
-700,772	153,404	-0,058	-0,059
-699,758	-200,000	-0,012	-0,101
-698,743	79,683	-0,047	0,038
-697,729	84,049	0,102	-0,083
-696,714	341,150	0,062	-0,090
-695,699	800,000	0,047	0,148
-694,685	395,954	-0,071	0,110
-693,670	106,308	0,075	0,066
-692,656	-68,512	-0,174	-0,050
-691,641	83,538	-0,067	0,055
-690,627	800,000	0,086	0,185
-689,612	-27,539	-0,077	0,033
-688,597	-69,008	0,101	0,029
-687,583	-91,647	-0,132	0,028
-686,568	-92,227	-0,153	0,032
-685,554	137,615	-0,048	-0,047
-684,539	71,451	0,155	-0,120
-683,524	-200,000	0,004	-0,028
-682,510	-73,856	0,126	0,034
-681,495	-67,921	0,183	-0,053
-680,481	78,356	-0,123	0,098
-679,466	30,765	0,020	-0,013
-678,451	-107,986	-0,096	-0,015
-677,437	-200,000	-0,001	0,114
-676,422	-173,678	-0,073	-0,002
-675,408	13,886	0,128	-0,074
-674,393	-138,613	0,088	-0,007
-673,378	-136,380	0,006	-0,000
-672,364	-158,670	-0,059	-0,002
-671,349	800,000	-0,059	-0,130
-670,335	-140,569	-0,085	-0,006
-669,320	800,000	0,017	0,055
-668,305	238,750	-0,050	0,062
-667,291	-133,443	-0,188	0,017
-666,276	800,000	-0,018	0,046
-665,262	116,512	-0,021	0,019
-664,247	-125,557	-0,058	-0,006
-663,232	-170,970	-0,124	0,003
-662,218	-200,000	0,019	-0,139
-661,203	80,398	0,081	-0,065
-660,189	-200,000	0,012	-0,134
-659,174	800,000	-0,047	-0,118
-658,159	-107,611	-0,116	0,019
-657,145	26,573	0,051	0,031
-656,130	167,553	-0,028	-0,029
-655,116	111,542	0,093	0,083
-654,101	800,000	0,066	0,146
-653,086	-120,163	-0,061	-0,008
-652,072	-167,946	-0,069	0,002
-651,057	-39,881	0,054	0,021
-650,043	-87,275	-0,075	-0,017
-649,028	742,176	0,029	0,058
-648,014	-14,581	-0,030	0,014
-646,999	800,000	0,007	-0,015
-645,984	-81,839	0,112	0,027
-644,970	762,932	0,028	0,057
-643,955	-79,827	-0,094	0,023
-642,941	502,330	-0,013	-0,023
-641,926	323,601	-0,074	-0,105
-640,911	99,606	0,083	0,071
-639,897	653,590	0,075	0,144
-638,882	14,074	0,075	0,043
-637,868	-45,879	0,145	-0,053
-636,853	800,000	-0,026	0,064
-635,838	-200,000	-0,034	-0,140
-634,824	-3,266	-0,249	-0,128
-633,809	800,000	-0,029	-0,073
-632,795	172,962	0,123	0,132
-631,780	84,639	0,055	0,045
-630,765	-169,776	-0,035	-0,001
-629,751	109,977	0,060	-0,054
-628,736	217,469	0,035	0,042
-627,722	467,633	0,010	-0,017
-626,707	-98,656	0,033	0,006
-625,692	-92,035	0,103	-0,021
-624,678	653,154	-0,037	0,071
-623,663	-160,130	-0,057	-0,002
-622,649	-88,041	-0,110	-0,024
-621,634	132,825	-0,132	-0,126
-620,619	-92,461	-0,045	-0,009
-619,605	13,471	0,054	0,031
-618,590	-88,261	0,017	0,004
-617,576	277,573	-0,042	0,056
-616,561	59,357	0,070	-0,051
-615,546	29,650	-0,036	0,023
-614,532	465,571	-0,082	-0,137
-613,517	481,729	-0,059	0,099
-612,503	-155,924	-0,132	0,006
-611,488	3,253	0,021	0,011
-610,474	-200,000	0,020	0,076
-609,459	-144,717	-0,021	-0,001
-608,444	800,000	-0,006	-0,012
-607,430	124,678	-0,111	-0,104
-606,415	533,819	-0,040	-0,071
-605,401	800,000	-0,045	0,146
-604,386	-59,494	0,155	-0,049
-603,371	-200,000	0,003	-0,050
-602,357	-200,000	-0,024	0,155
-601,342	227,576	-0,071	0,086
-600,328	-90,581	-0,032	0,007
-599,313	38,060	0,010	-0,007
-598,298	-200,000	-0,008	0,039
-597,284	800,000	-0,051	0,165
-596,269	800,000	0,056	-0,160
-595,255	419,955	0,079	-0,126
-594,240	13,159	-0,098	-0,056
-593,225	122,095	-0,080	-0,074
-592,211	281,360	-0,109	-0,145
-591,196	185,786	0,034	-0,037
-590,182	-74,399	-0,107	0,028
-589,167	-200,000	0,013	0,075
-588,152	112,613	-0,100	-0,090
-587,138	93,090	-0,078	0,065
-586,123	172,581	0,047	0,050
-585,109	78,775	-0,083	-0,066
-584,094	-86,462	-0,129	0,029
-583,079	290,141	-0,050	0,068
-582,065	205,410	0,089	0,102
-581,050	-200,000	0,019	-0,069
-580,036	20,757	-0,058	0,035
-579,021	-169,379	0,025	0,001
-578,006	-200,000	0,001	-0,047
-576,992	-200,000	-0,017	0,067
-575,977	22,126	-0,083	0,050
-574,963	270,080	0,050	0,065
-573,948	800,000	-0,039	-0,118
-572,934	-200,000	0,010	0,098
-571,919	-200,000	0,021	-0,074
-570,904	-13,126	-0,067	-0,032
-569,890	800,000	-0,087	-0,208
-568,875	-200,000	0,009	-0,032
-567,861	159,766	-0,046	0,047
-566,846	-48,285	0,026	0,009
-565,831	238,181	-0,030	-0,036
-564,817	-105,721	0,066	-0,011
-563,802	800,000	0,055	-0,157
-562,788	2,734	-0,108	-0,058
-561,773	162,914	0,103	0,107
-560,758	-200,000	0,007	0,064
-559,744	-200,000	0,000	0,000
-558,729	502,245	-0,029	-0,050
-557,715	410,816	-0,059	-0,093
-556,700	-58,840	-0,030	-0,010
-555,685	-72,357	0,055	-0,015
-554,671	-200,000	0,016	-0,116
-553,656	66,195	0,072	0,054
-552,642	-200,000	0,004	-0,040
-551,627	-40,114	-0,127	0,049
-550,612	70,209	-0,068	-0,052
-549,598	59,610	0,012	-0,009
-548,583	52,863	-0,092	-0,065
-547,569	-161,165	0,053	-0,002
-546,554	-120,560	-0,039	-0,005
-545,539	-200,000	-0,004	0,067
-544,525	63,675	-0,075	-0,056
-543,510	180,405	0,128	-0,139
-542,496	685,358	-0,042	-0,082
-541,481	-200,000	0,024	-0,101
-540,466	-200,000	0,001	-0,054
-539,452	215,410	0,060	0,071
-538,437	155,187	-0,060	0,061
-537,423	-200,000	0,006	0,035
-536,408	26,355	0,027	0,016
-535,393	800,000	-0,016	-0,034
-534,379	-75,326	-0,181	-0,047
-533,364	-200,000	-0,002	0,055
-532,350	-79,346	0,051	0,013
-531,335	37,723	0,147	0,096
-530,321	-115,756	0,014	0,002
-529,306	353,893	0,049	-0,072
-528,291	52,537	0,027	0,019
-527,277	800,000	-0,032	0,076
-526,262	6,616	0,066	0,036
-525,248	487,342	0,048	-0,082
-524,233	-200,000	0,020	0,074
-523,218	-90,917	-0,004	-0,001
-522,204	-200,000	0,011	0,060
-521,189	130,798	0,070	0,066
-520,175	569,556	0,073	0,132
-519,160	800,000	-0,061	0,130
-518,145	-92,930	0,098	0,020
-517,131	556,786	-0,063	0,113
-516,116	800,000	0,048	0,149
-515,102	-90,015	-0,090	0,019
-514,087	-200,000	-0,022	-0,136
-513,072	800,000	0,007	-0,021
-512,058	-200,000	-0,007	-0,112
-511,043	87,366	-0,031	-0,025
-510,029	-76,218	0,136	-0,035
-509,014	5,039	0,104	0,056
-507,999	-200,000	-0,001	0,039
-506,985	18,470	0,082	0,048
-505,970	-73,871	-0,099	-0,026
-504,956	-200,000	0,002	-0,072
-503,941	-105,196	0,101	0,017
-502,926	800,000	0,043	0,090
-501,912	284,366	-0,097	0,129
-500,897	-180,769	0,114	-0,002
-499,883	-81,516	-0,117	0,028
-498,868	-5,381	0,049	-0,025
-497,853	-142,261	-0,087	-0,006
-496,839	47,557	0,136	0,094
-495,824	260,883	0,100	0,128
-494,810	-55,838	0,140	-0,046
-493,795	-89,821	0,121	-0,026
-492,781	800,000	-0,012	0,030
-491,766	113,974	0,165	-0,148
-490,751	-175,860	-0,159	-0,003
-489,737	-200,000	0,018	0,063
-488,722	-200,000	0,013	0,132
-487,708	800,000	-0,057	0,143
-486,693	506,508	-0,046	0,079
-485,678	211,304	0,016	-0,018
-484,664	-150,249	-0,034	0,002
-483,649	-145,051	0,077	0,005
-482,635	-56,855	0,088	-0,029
-481,620	-200,000	0,023	0,141
-480,605	-200,000	0,006	0,094
-479,591	621,612	-0,019	-0,035
-478,576	13,484	-0,090	-0,052
-477,562	800,000	-0,032	-0,081
-476,547	500,543	-0,042	-0,072
-475,532	-200,000	-0,000	-0,017
-474,518	-200,000	0,003	0,017
-473,503	88,026	0,023	0,019
-472,489	-200,000	0,025	0,000
-471,474	-200,000	-0,013	0,164
-470,459	-87,173	-0,167	0,037
-469,445	-94,183	-0,125	0,025
-468,430	-200,000	-0,016	-0,151
-467,416	85,063	0,114	-0,092
-466,401	-200,000	0,005	0,131
-465,386	623,761	-0,040	0,074
-464,372	-127,291	-0,136	0,014
-463,357	96,906	-0,093	-0,078
-462,343	306,090	-0,139	-0,191
-461,328	80,618	-0,110	0,087
-460,313	-25,395	0,067	0,029
-459,299	-200,000	-0,016	0,073
-458,284	-200,000	0,036	-0,147
-457,270	-7,334	-0,064	0,032
-456,255	-186,921	-0,124	-0,001
-455,241	261,450	-0,043	0,055
-454,226	-200,000	-0,000	0,111
-453,211	372,928	0,037	-0,055
-452,197	-200,000	0,017	-0,069
-451,182	-86,546	0,158	-0,035
-450,168	-156,666	0,085	-0,004
-449,153	27,146	0,014	-0,009
-448,138	-45,746	-0,079	0,029
-447,124	-31,597	-0,114	-0,047
-446,109	-200,000	-0,005	-0,039
-445,095	614,312	0,045	-0,083
-444,080	-81,672	0,072	0,017
-443,065	-114,674	0,128	-0,018
-442,051	163,478	-0,080	-0,083
-441,036	29,700	-0,041	-0,025
-440,022	784,805	-0,071	-0,145
-439,007	-78,431	0,053	0,013
-437,992	-7,124	-0,004	-0,002
-436,978	-200,000	0,048	0,160
-435,963	-200,000	0,029	0,103
-434,949	30,440	-0,095	-0,060
-433,934	109,016	0,059	0,052
-432,919	-88,943	-0,141	-0,030
-431,905	347,150	0,021	0,031
-430,890	-200,000	-0,026	-0,095
-429,876	15,845	0,091	0,053
-428,861	81,847	0,160	0,128
-427,846	175,142	-0,104	-0,111
-426,832	-200,000	0,003	0,028
-425,817	-77,804	0,084	-0,021
-424,803	168,002	0,023	0,024
-423,788	-118,379	0,053	0,007
-422,773	-76,917	0,131	0,033
-421,759	-200,000	0,004	-0,068
-420,744	-15,320	0,072	0,034
-419,730	-80,072	-0,162	-0,040
-418,715	431,359	-0,084	0,134
-417,701	-200,000	-0,010	-0,071
-416,686	800,000	0,015	0,043
-415,671	800,000	0,064	0,165
-414,657	-50,266	0,027	-0,009
-413,642	-101,362	0,032	-0,006
-412,628	33,324	0,062	0,039
-411,613	-74,984	-0,028	0,007
-410,598	283,856	0,015	-0,020
-409,584	-58,651	-0,098	0,031
-408,569	512,781	-0,083	-0,143
-407,555	682,486	-0,048	0,092
-406,540	800,000	0,016	0,036
-405,525	298,174	0,049	0,066
-404,511	393,457	0,055	0,085
-403,496	-200,000	-0,009	-0,084
-402,482	301,957	0,026	-0,036
-401,467	371,924	-0,033	-0,049
-400,452	-97,702	0,100	-0,019
-399,438	-104,843	-0,046	-0,008
-398,423	-200,000	-0,024	-0,092
-397,409	22,023	-0,018	0,011
-396,394	371,836	0,092	-0,137
-395,379	44,813	-0,074	-0,050
-394,365	-12,608	-0,031	-0,015
-393,350	-200,000	-0,011	0,065
-392,336	116,786	0,095	0,086
-391,321	235,666	0,045	-0,055
-390,306	-200,000	-0,000	0,006
-389,292	-72,388	0,106	-0,029
-388,277	29,574	-0,038	-0,024
-387,263	800,000	0,046	0,096
-386,248	800,000	-0,022	0,060
-385,233	128,818	-0,080	0,075
-384,219	-93,133	-0,138	-0,028
-383,204	-101,885	0,057	0,010
-382,190	-139,395	-0,041	0,003
-381,175	396,499	-0,049	0,075
-380,160	-200,000	-0,014	-0,089
-379,146	-200,000	0,009	0,069
-378,131	-200,000	0,022	-0,098
-377,117	800,000	-0,052	-0,120
-376,102	764,201	-0,019	0,037
-375,088	317,539	-0,072	0,100
-374,073	1,938	0,168	0,089
-373,058	-200,000	-0,027	0,101
-372,044	169,945	0,020	0,021
-371,029	800,000	0,055	0,123
-370,015	219,277	-0,076	0,090
-369,000	110,569	0,047	-0,041
-367,985	-144,023	-0,024	0,002
-366,971	74,752	0,065	0,050
-365,956	-200,000	0,015	-0,056
-364,942	-123,278	0,079	0,009
-363,927	627,225	0,082	0,152
-362,912	-46,416	0,086	0,031
-361,898	295,275	0,036	0,049
-360,883	-200,000	-0,010	-0,084
-359,869	-200,000	-0,008	0,029
-358,854	188,353	0,070	0,077
-357,839	273,949	0,044	0,058
-356,825	-200,000	-0,006	0,095
-355,810	223,725	0,107	-0,127
-354,796	-74,055	-0,086	0,023
-353,781	-70,868	0,084	-0,023
-352,766	-19,132	-0,083	-0,038
-351,752	7,203	-0,039	-0,021
-350,737	-200,000	-0,015	0,083
-349,723	-10,769	0,093	0,045
-348,708	2,332	0,062	-0,033
-347,693	570,695	-0,012	-0,022
-346,679	-200,000	-0,003	-0,022
-345,664	-99,411	0,071	0,013
-344,650	499,190	-0,021	-0,036
-343,635	161,042	-0,092	-0,095
-342,620	-62,469	0,030	0,009
-341,606	800,000	-0,025	-0,069
-340,591	348,227	0,033	0,048
-339,577	-140,582	0,065	0,005
-338,562	-200,000	-0,008	-0,040
-337,548	21,485	0,076	-0,045
-336,533	41,329	-0,091	-0,060
-335,518	262,713	0,052	-0,067
-334,504	-98,373	0,037	-0,007
-333,489	350,517	0,071	-0,103
-332,475	-200,000	0,001	-0,023
-331,460	800,000	-0,009	0,025
-330,445	800,000	0,046	-0,139
-329,431	654,008	0,020	0,038
-328,416	18,123	-0,096	-0,056
-327,402	-200,000	0,007	0,056
-326,387	127,729	0,077	0,072
-325,372	-89,387	-0,009	0,002
-324,358	243,600	-0,062	-0,076
-323,343	480,671	0,049	0,082
-322,329	563,518	-0,043	-0,077
-321,314	-137,906	-0,075	0,006
-320,299	62,331	0,061	0,045
-319,285	615,651	-0,024	-0,043
-318,270	-166,748	0,122	-0,004
-317,256	9,972	0,045	-0,025
-316,241	-35,873	0,135	-0,053
-315,226	-123,866	0,061	-0,007
-314,212	-58,780	-0,059	0,019
-313,197	800,000	-0,039	-0,123
-312,183	4,424	-0,075	-0,040
-311,168	658,218	-0,103	-0,195
-310,153	-122,916	-0,075	0,009
-309,139	212,389	0,034	-0,040
-308,124	23,691	-0,099	0,060
-307,110	217,252	-0,110	0,129
-306,095	397,014	-0,071	0,110
-305,080	-100,982	0,089	0,016
-304,066	-141,619	0,042	-0,003
-303,051	-178,350	-0,160	-0,003
-302,037	361,770	0,085	-0,125
-301,022	-200,000	0,008	0,074
-300,008	-118,191	0,124	0,016
-298,993	389,391	0,023	0,036
-297,978	-200,000	-0,021	0,090
-296,964	307,183	-0,026	-0,036
-295,949	800,000	-0,057	-0,141
-294,935	38,525	-0,034	-0,022
-293,920	800,000	0,030	0,086
-292,905	800,000	0,087	0,188
-291,891	103,318	0,010	-0,009
-290,876	-77,461	-0,094	-0,024
-289,862	-69,665	0,106	-0,030
-288,847	800,000	0,058	-0,149
-287,832	628,008	0,028	0,052
-286,818	-158,859	0,138	0,006
-285,803	114,722	0,029	0,026
-284,789	103,171	0,088	0,075
-283,774	-120,989	0,124	0,015
-282,759	-200,000	-0,009	-0,109
-281,745	800,000	0,027	0,074
-280,730	-0,247	0,138	0,072
-279,716	386,455	-0,088	0,134
-278,701	-91,036	0,036	-0,007
-277,686	252,152	-0,027	-0,033
-276,672	116,524	0,078	0,070
-275,657	-151,091	-0,133	0,007
-274,643	36,307	0,057	0,037
-273,628	78,237	0,046	0,036
-272,613	-64,103	0,040	0,012
-271,599	113,050	0,089	-0,079
-270,584	-53,084	-0,052	0,018
-269,570	-66,998	0,130	-0,037
-268,555	284,246	-0,068	-0,090
-267,540	120,613	-0,051	-0,046
-266,526	800,000	-0,049	-0,119
-265,511	-85,005	0,052	-0,012
-264,497	-200,000	0,001	-0,014
-263,482	185,778	0,026	-0,028
-262,467	-200,000	0,011	0,127
-261,453	703,011	0,076	-0,148
-260,438	77,134	-0,038	-0,029
-259,424	22,142	-0,041	0,025
-258,409	67,415	0,017	0,013
-257,395	-45,189	-0,144	0,052
-256,380	-55,457	0,062	-0,020
-255,365	-200,000	-0,002	-0,067
-254,351	59,237	-0,008	-0,006
-253,336	38,345	0,105	-0,068
-252,322	404,928	-0,144	-0,223
-251,307	800,000	0,055	-0,138
-250,292	710,868	0,017	-0,034
-249,278	454,385	0,049	0,080
-248,263	94,173	0,022	-0,018
-247,249	84,889	0,065	-0,052
-246,234	325,243	0,047	-0,066
-245,219	-200,000	-0,010	-0,039
-244,205	478,976	0,021	0,035
-243,190	-11,391	-0,065	0,031
-242,176	800,000	0,033	0,087
-241,161	34,886	-0,052	-0,033
-240,146	-41,966	-0,041	0,015
-239,132	-115,098	-0,259	0,036
-238,117	519,947	-0,032	-0,055
-237,103	-4,099	0,079	-0,040
-236,088	368,063	-0,020	0,030
-235,073	-200,000	-0,042	0,251
-234,059	-200,000	-0,011	0,093
-233,044	-84,986	0,147	-0,033
-232,030	335,368	-0,054	-0,077
-231,015	-6,708	-0,083	0,041
-230,000	134,878	0,061	0,058
-228,986	-200,000	-0,001	0,035
-227,971	-117,994	0,080	0,010
-226,957	545,718	-0,056	0,098
-225,942	448,996	-0,012	0,020
-224,927	-200,000	-0,002	0,015
-223,913	536,647	0,046	-0,081
-222,898	115,212	-0,093	0,083
-221,884	73,716	-0,059	0,045
-220,869	91,604	0,019	-0,016
-219,855	-200,000	0,020	0,152
-218,840	95,342	0,097	0,081
-217,825	-27,933	0,054	0,023
-216,811	-200,000	0,010	-0,036
-215,796	88,383	-0,027	-0,022
-214,782	-200,000	0,039	-0,139
-213,767	-174,739	-0,025	-0,001
-212,752	123,638	0,135	-0,124
-211,738	800,000	0,038	-0,102
-210,723	-86,207	-0,099	0,022
-209,709	-200,000	0,017	-0,102
-208,694	33,086	0,096	-0,061
-207,679	243,491	-0,037	-0,045
-206,665	-200,000	-0,002	-0,071
-205,650	201,632	-0,096	0,108
-204,636	800,000	0,029	0,066
-203,621	800,000	-0,051	-0,121
-202,606	97,826	-0,088	0,073
-201,592	800,000	-0,044	-0,094
-200,577	-34,709	0,067	-0,027
-199,563	-51,660	-0,101	-0,034
-198,548	49,319	0,057	0,039
-197,533	-42,887	-0,168	0,062
-196,519	-62,076	-0,066	0,020
-195,504	-200,000	-0,024	0,083
-194,490	110,550	0,066	-0,057
-193,475	39,605	-0,017	0,011
-192,460	-200,000	-0,037	0,118
-191,446	-96,463	0,144	-0,028
-190,431	79,307	0,029	-0,023
-189,417	-101,105	-0,085	-0,015
-188,402	-121,695	-0,018	0,002
-187,387	127,083	-0,103	-0,096
-186,373	640,753	-0,081	0,152
-185,358	167,951	-0,052	-0,054
-184,344	143,681	0,096	-0,093
-183,329	-200,000	-0,006	0,036
-182,315	-39,929	-0,143	0,054
-181,300	-92,914	0,073	0,015
-180,285	75,205	-0,125	-0,096
-179,271	-200,000	-0,011	-0,114
-178,256	81,719	-0,114	-0,090
-177,242	-103,335	0,187	0,032
-176,227	-82,358	-0,045	0,011
-175,212	130,272	0,017	-0,015
-174,198	109,546	0,058	0,050
-173,183	-100,225	-0,105	-0,019
-172,169	665,708	0,046	-0,088
-171,154	-36,301	-0,040	0,015
-170,139	800,000	-0,049	-0,157
-169,125	283,973	-0,078	-0,102
-168,110	92,773	0,051	-0,042
-167,096	-200,000	0,001	0,093
-166,081	-51,996	-0,066	-0,022
-165,066	-200,000	0,023	-0,082
-164,052	-141,055	-0,077	0,006
-163,037	200,892	-0,026	0,029
-162,023	-138,685	0,118	0,009
-161,008	800,000	0,011	0,035
-159,993	-95,516	0,139	-0,027
-158,979	685,789	-0,043	0,082
-157,964	246,972	0,059	-0,073
-156,950	34,238	-0,042	-0,027
-155,935	-29,109	0,103	-0,043
-154,920	431,273	-0,078	0,124
-153,906	-200,000	0,021	0,143
-152,891	-200,000	-0,020	0,073
-151,877	-200,000	0,003	-0,079
-150,862	800,000	-0,038	-0,093
-149,847	52,179	-0,037	-0,026
-148,833	-200,000	0,002	0,051
-147,818	561,434	0,088	0,155
-146,804	84,258	0,075	0,060
-145,789	208,132	0,034	-0,039
-144,775	89,141	0,021	-0,017
-143,760	-200,000	0,033	0,186
-142,745	476,290	0,038	-0,063
-141,731	53,001	0,119	0,083
-140,716	122,405	-0,132	0,120
-139,702	-200,000	-0,006	-0,098
-138,687	197,381	0,055	0,061
-137,672	-200,000	0,002	-0,048
-136,658	-76,861	-0,077	0,019
-135,643	-200,000	0,019	0,137
-134,629	-18,725	-0,015	0,007
-133,614	-159,459	-0,023	0,001
-132,599	145,230	-0,044	-0,043
-131,585	250,461	0,069	0,085
-130,570	-200,000	0,015	-0,062
-129,556	374,871	0,035	-0,052
-128,541	454,516	0,056	-0,090
-127,526	-116,267	0,090	0,012
-126,512	-200,000	0,027	0,206
-125,497	169,394	0,074	0,077
-124,483	-40,336	0,108	-0,041
-123,468	-84,977	0,131	0,030
-122,453	157,750	-0,120	-0,121
-121,439	-147,602	0,072	-0,004
-120,424	143,171	-0,072	0,069
-119,410	270,300	-0,046	-0,059
-118,395	-200,000	0,040	0,180
