DTS Sentinel unit serial number:	SN410029Multiplexer serial number:	ORYXHardware model number:	OX2-SRSoftware version number:	ORYX F/W v4,00 Oryx Data Collector v3.7.2.0data status	okinstallation	B6 Nyhavnadifferential loss correction	single-endedforward channel	channel 2reverse channel	N/Adate	2023/12/10time	07:05:08forward acquisition time	300,00reverse acquisition time	0,00gamma	499,1914k internal	0,3124k external	0,3124temperature offset calibration	1,0000default loss term (dB/km)	0,3820temperature slope calibration	1,0000multiplexer offset coefficient	1,0000multiplexer slope coefficient	1,0000fibre end	0,00T internal ref (°C)	22,62T ext. ref 1 (°C)	6,33T ext. ref 2 (°C)	6,32length (m)	temperature (°C)	Stokes	anti-Stokes-744,400	353,759	0,096	-0,143
-743,385	12,320	-0,190	0,109
-742,371	-11,016	0,063	-0,031
-741,356	3,957	-0,165	0,090
-740,342	800,000	0,032	0,088
-739,327	-24,347	-0,182	0,080
-738,312	198,310	0,139	0,158
-737,298	-40,416	-0,253	0,097
-736,283	144,206	0,066	-0,066
-735,269	-55,890	-0,310	0,103
-734,254	-200,000	-0,008	0,044
-733,239	-176,128	-0,326	-0,006
-732,225	-200,000	0,026	0,095
-731,210	-81,578	-0,056	-0,014
-730,196	153,600	0,059	0,061
-729,181	-21,440	0,037	0,017
-728,167	50,338	0,040	-0,028
-727,152	-200,000	-0,008	0,037
-726,137	-98,865	-0,106	0,020
-725,123	54,687	-0,078	0,056
-724,108	-164,672	-0,058	-0,002
-723,094	534,710	-0,047	-0,083
-722,079	800,000	0,037	-0,098
-721,064	-200,000	-0,009	-0,079
-720,050	61,068	-0,062	0,046
-719,035	700,997	0,031	-0,061
-718,021	-200,000	-0,000	0,022
-717,006	18,520	-0,083	-0,049
-715,991	264,272	-0,103	-0,134
-714,977	-200,000	0,012	-0,094
-713,962	150,533	-0,077	-0,078
-712,948	-18,792	-0,031	0,014
-711,933	218,378	0,080	-0,096
-710,918	-200,000	-0,022	-0,119
-709,904	-51,187	-0,059	0,020
-708,889	221,244	-0,008	-0,010
-707,875	-200,000	0,025	-0,105
-706,860	-68,957	0,041	-0,012
-705,845	89,603	-0,021	-0,018
-704,831	158,506	-0,080	0,083
-703,816	103,566	-0,062	0,054
-702,802	-98,079	-0,135	-0,026
-701,787	241,162	-0,073	-0,090
-700,772	-200,000	-0,003	-0,022
-699,758	800,000	-0,038	0,082
-698,743	-200,000	0,005	0,019
-697,729	-141,552	0,104	0,008
-696,714	800,000	-0,046	-0,110
-695,699	291,647	0,045	-0,061
-694,685	-200,000	0,014	-0,114
-693,670	-200,000	-0,003	0,015
-692,656	-114,786	0,049	0,007
-691,641	-89,920	-0,110	0,024
-690,627	-88,762	0,100	-0,022
-689,612	-145,980	-0,061	-0,004
-688,597	-200,000	-0,005	-0,056
-687,583	236,266	-0,093	-0,114
-686,568	67,760	-0,073	0,056
-685,554	733,860	0,047	-0,094
-684,539	-31,025	0,101	0,042
-683,524	800,000	-0,038	-0,103
-682,510	788,577	0,049	-0,100
-681,495	800,000	-0,037	-0,112
-680,481	-200,000	-0,021	0,078
-679,466	365,993	0,099	-0,149
-678,451	269,891	-0,015	-0,020
-677,437	-200,000	0,022	-0,137
-676,422	800,000	-0,008	-0,021
-675,408	387,327	0,057	0,087
-674,393	-200,000	-0,016	0,110
-673,378	19,568	0,027	0,016
-672,364	90,243	-0,063	-0,053
-671,349	-141,298	-0,128	0,010
-670,335	443,462	-0,060	-0,097
-669,320	-50,423	-0,136	-0,047
-668,305	-96,634	-0,097	-0,019
-667,291	-200,000	0,007	-0,035
-666,276	-200,000	-0,011	0,139
-665,262	-57,136	0,098	0,032
-664,247	800,000	0,046	-0,127
-663,232	-200,000	0,019	-0,128
-662,218	-100,245	0,064	-0,012
-661,203	-137,099	0,109	0,009
-660,189	800,000	-0,016	-0,038
-659,174	-200,000	-0,010	-0,073
-658,159	118,473	-0,089	-0,081
-657,145	-131,784	0,111	0,011
-656,130	12,062	0,012	-0,007
-655,116	21,399	-0,074	-0,045
-654,101	-177,098	-0,059	-0,001
-653,086	-198,423	-0,148	-0,001
-652,072	-200,000	0,006	0,059
-651,057	80,912	-0,129	-0,103
-650,043	-167,880	-0,150	-0,004
-649,028	60,616	0,129	-0,095
-648,014	379,188	-0,045	-0,069
-646,999	4,274	0,137	-0,074
-645,984	-135,703	-0,147	-0,013
-644,970	238,965	0,018	0,022
-643,955	-200,000	-0,021	-0,174
-642,941	-200,000	-0,032	-0,142
-641,926	89,043	0,035	0,029
-640,911	800,000	0,032	-0,079
-639,897	44,233	0,070	0,048
-638,882	-126,357	0,041	-0,004
-637,868	-74,479	0,046	0,012
-636,853	185,601	0,024	0,027
-635,838	-200,000	-0,009	0,063
-634,824	141,333	-0,103	-0,101
-633,809	49,500	-0,121	0,084
-632,795	83,101	-0,048	-0,039
-631,780	226,182	0,055	-0,067
-630,765	22,003	-0,079	-0,047
-629,751	-200,000	0,026	-0,189
-628,736	105,959	0,046	0,041
-627,722	89,059	-0,030	0,025
-626,707	246,630	-0,070	-0,087
-625,692	800,000	0,083	0,194
-624,678	57,461	0,093	0,067
-623,663	-4,058	0,042	0,021
-622,649	42,020	0,035	-0,024
-621,634	-200,000	0,012	0,041
-620,619	90,651	-0,089	0,074
-619,605	487,487	0,047	0,081
-618,590	-129,857	0,136	-0,014
-617,576	-30,455	-0,068	0,028
-616,561	-200,000	-0,085	0,000
-615,546	-21,035	-0,063	-0,028
-614,532	340,995	0,066	-0,096
-613,517	-200,000	0,063	-0,217
-612,503	-56,263	-0,098	-0,032
-611,488	70,817	0,086	0,066
-610,474	153,289	0,081	0,082
-609,459	-54,255	-0,199	0,066
-608,444	48,304	-0,070	-0,048
-607,430	800,000	0,012	-0,035
-606,415	-200,000	-0,009	-0,110
-605,401	800,000	-0,027	0,073
-604,386	-62,859	0,115	-0,035
-603,371	-113,989	0,103	0,015
-602,357	800,000	0,018	-0,037
-601,342	-95,504	-0,108	-0,021
-600,328	84,133	-0,050	0,040
-599,313	-200,000	-0,008	-0,092
-598,298	790,443	0,048	0,099
-597,284	-109,347	-0,164	-0,025
-596,269	93,684	0,059	-0,049
-595,255	-200,000	-0,027	0,096
-594,240	-167,764	-0,084	0,002
-593,225	475,456	-0,047	-0,079
-592,211	-22,187	-0,084	-0,038
-591,196	800,000	0,052	-0,134
-590,182	800,000	-0,031	0,093
-589,167	-48,203	0,050	-0,018
-588,152	800,000	0,060	0,143
-587,138	171,452	-0,114	0,122
-586,123	800,000	-0,050	-0,162
-585,109	-112,820	-0,029	-0,004
-584,094	213,316	0,046	0,053
-583,079	14,925	-0,035	-0,020
-582,065	-200,000	-0,019	0,092
-581,050	-127,371	-0,127	0,014
-580,036	-128,771	0,073	-0,008
-579,021	-65,065	0,112	-0,033
-578,006	-200,000	0,026	-0,100
-576,992	-98,741	-0,121	-0,023
-575,977	266,217	0,062	0,081
-574,963	196,257	-0,009	0,010
-573,948	734,031	-0,034	-0,068
-572,934	81,177	0,106	-0,085
-571,919	-74,895	0,085	-0,022
-570,904	-111,756	-0,116	-0,017
-569,890	-100,924	0,033	-0,006
-568,875	-200,000	0,028	0,115
-567,861	-200,000	-0,017	0,107
-566,846	247,898	-0,055	0,069
-565,831	-200,000	0,020	0,090
-564,817	100,974	-0,054	0,047
-563,802	41,011	-0,148	-0,099
-562,788	-200,000	-0,027	-0,120
-561,773	-200,000	0,017	0,078
-560,758	-50,008	0,013	-0,005
-559,744	800,000	-0,027	0,077
-558,729	82,031	-0,041	-0,033
-557,715	800,000	0,029	-0,091
-556,700	800,000	-0,042	-0,105
-555,685	-200,000	0,003	0,091
-554,671	-3,577	0,029	-0,015
-553,656	197,178	-0,052	0,058
-552,642	102,582	0,066	-0,057
-551,627	-200,000	0,004	-0,077
-550,612	-200,000	0,010	-0,137
-549,598	260,717	-0,106	-0,136
-548,583	800,000	0,057	-0,155
-547,569	-200,000	-0,006	-0,021
-546,554	-78,459	-0,022	-0,005
-545,539	329,029	0,017	0,024
-544,525	-200,000	-0,019	0,094
-543,510	483,467	0,042	-0,071
-542,496	-200,000	-0,049	-0,169
-541,481	-200,000	-0,018	-0,202
-540,466	-200,000	-0,099	0,000
-539,452	-200,000	-0,006	0,047
-538,437	-42,152	0,074	0,028
-537,423	800,000	-0,023	0,053
-536,408	28,868	-0,109	-0,068
-535,393	800,000	0,031	-0,070
-534,379	146,209	0,038	0,038
-533,364	190,113	-0,079	0,088
-532,350	800,000	-0,021	0,052
-531,335	-42,958	0,033	-0,012
-530,321	28,828	0,088	-0,055
-529,306	154,228	-0,075	0,076
-528,291	352,476	-0,061	-0,090
-527,277	-54,017	0,035	-0,012
-526,262	-200,000	-0,002	0,015
-525,248	800,000	-0,008	-0,023
-524,233	800,000	-0,035	-0,092
-523,218	-200,000	-0,001	-0,080
-522,204	-149,024	-0,080	0,005
-521,189	-109,366	-0,217	0,034
-520,175	-170,616	-0,134	0,003
-519,160	-200,000	0,025	-0,112
-518,145	19,387	0,048	0,028
-517,131	-200,000	-0,021	0,078
-516,116	-200,000	-0,001	0,078
-515,102	-55,865	0,072	-0,024
-514,087	-200,000	-0,000	-0,067
-513,072	-200,000	-0,005	-0,032
-512,058	-200,000	0,019	0,076
-511,043	800,000	0,041	0,113
-510,029	-43,502	0,055	-0,021
-509,014	6,302	0,085	0,046
-507,999	-87,377	0,053	0,012
-506,985	-136,973	-0,145	0,012
-505,970	-200,000	-0,004	-0,054
-504,956	-124,067	-0,137	-0,016
-503,941	6,017	0,098	-0,053
-502,926	-87,145	-0,082	0,018
-501,912	-40,116	-0,035	-0,013
-500,897	111,861	0,019	-0,017
-499,883	183,213	-0,036	-0,039
-498,868	800,000	-0,057	-0,176
-497,853	-25,214	0,062	0,027
-496,839	-200,000	0,001	0,024
-495,824	35,128	0,031	0,020
-494,810	113,744	0,130	-0,117
-493,795	-23,337	-0,087	0,038
-492,781	-40,517	0,032	0,012
-491,766	103,451	-0,036	-0,031
-490,751	52,484	-0,002	0,001
-489,737	-30,676	0,062	0,026
-488,722	-50,836	-0,092	-0,032
-487,708	-0,494	0,095	-0,049
-486,693	-200,000	-0,015	0,149
-485,678	800,000	-0,053	-0,114
-484,664	-200,000	0,025	-0,094
-483,649	-200,000	0,003	-0,023
-482,635	25,862	-0,089	-0,055
-481,620	-200,000	-0,000	-0,069
-480,605	41,656	0,142	0,095
-479,591	-200,000	0,002	-0,019
-478,576	640,084	-0,068	-0,129
-477,562	333,555	-0,114	-0,163
-476,547	8,449	-0,062	-0,034
-475,532	622,349	-0,047	-0,087
-474,518	-110,195	0,017	-0,003
-473,503	394,964	0,025	0,039
-472,489	240,352	-0,058	0,071
-471,474	-200,000	0,019	0,212
-470,459	-5,896	-0,058	-0,029
-469,445	-58,303	0,038	0,012
-468,430	-66,098	0,052	-0,015
-467,416	4,017	-0,014	-0,007
-466,401	-82,957	0,087	0,020
-465,386	134,698	-0,041	-0,040
-464,372	-6,044	0,022	0,011
-463,357	63,427	0,042	0,031
-462,343	-4,115	-0,088	0,045
-461,328	-200,000	-0,005	-0,049
-460,313	-133,577	-0,076	0,007
-459,299	227,364	-0,038	0,046
-458,284	209,318	-0,022	-0,025
-457,270	-63,685	-0,054	0,016
-456,255	128,649	0,013	-0,012
-455,241	84,460	0,149	-0,120
-454,226	783,128	-0,081	-0,165
-453,211	800,000	0,057	-0,137
-452,197	-5,502	-0,057	-0,029
-451,182	-200,000	-0,015	0,066
-450,168	800,000	-0,046	0,123
-449,153	-162,532	-0,070	0,003
-448,138	187,724	-0,085	-0,093
-447,124	800,000	-0,007	0,017
-446,109	43,806	-0,091	0,061
-445,095	292,865	-0,101	0,136
-444,080	423,086	-0,034	-0,054
-443,065	205,197	0,015	-0,017
-442,051	-23,568	0,029	-0,013
-441,036	167,246	-0,050	-0,052
-440,022	-33,334	-0,129	0,052
-439,007	291,490	-0,042	0,057
-437,992	-114,988	0,120	0,017
-436,978	44,948	-0,049	0,033
-435,963	-200,000	-0,031	0,105
-434,949	800,000	0,003	-0,008
-433,934	-3,748	-0,087	0,044
-432,919	-200,000	-0,011	-0,043
-431,905	73,453	0,049	0,037
-430,890	-73,403	0,078	-0,021
-429,876	361,116	-0,019	-0,028
-428,861	-200,000	0,025	0,093
-427,846	117,152	-0,039	-0,035
-426,832	308,435	0,102	-0,140
-425,817	-51,505	-0,050	-0,017
-424,803	540,729	0,073	-0,128
-423,788	131,921	-0,098	-0,093
-422,773	800,000	0,029	0,066
-421,759	255,387	0,066	-0,083
-420,744	800,000	-0,057	0,120
-419,730	-33,254	0,079	-0,032
-418,715	-200,000	-0,034	-0,178
-417,701	242,620	-0,044	-0,054
-416,686	-200,000	0,016	-0,149
-415,671	-200,000	-0,000	-0,081
-414,657	121,155	0,164	0,150
-413,642	-2,267	0,073	-0,037
-412,628	-200,000	-0,037	-0,179
-411,613	-200,000	-0,036	-0,159
-410,598	-200,000	-0,004	-0,019
-409,584	81,608	-0,053	-0,042
-408,569	-88,873	0,041	0,009
-407,555	-200,000	0,051	-0,169
-406,540	73,651	0,078	0,060
-405,525	-67,401	0,021	-0,006
-404,511	-65,165	0,085	0,025
-403,496	762,607	0,014	0,029
-402,482	467,642	0,014	-0,023
-401,467	322,464	0,074	0,104
-400,452	-12,913	0,073	0,035
-399,438	-200,000	0,000	0,090
-398,423	-25,365	0,048	0,021
-397,409	304,125	-0,022	-0,031
-396,394	73,282	-0,171	-0,132
-395,379	800,000	0,010	0,030
-394,365	-96,040	0,099	-0,019
-393,350	-12,456	0,115	0,055
-392,336	800,000	0,035	0,091
-391,321	23,774	-0,074	0,045
-390,306	143,671	0,046	0,045
-389,292	-104,103	0,110	0,019
-388,277	-200,000	-0,012	0,164
-387,263	627,139	-0,060	0,112
-386,248	658,361	0,023	0,043
-385,233	591,977	0,045	0,082
-384,219	-200,000	-0,015	-0,102
-383,204	201,000	-0,055	-0,062
-382,190	256,914	-0,035	0,044
-381,175	39,094	0,055	0,036
-380,160	137,890	-0,088	0,085
-379,146	-200,000	-0,001	-0,149
-378,131	-200,000	0,029	-0,098
-377,117	240,348	-0,064	-0,078
-376,102	341,663	-0,040	-0,057
-375,088	-111,564	-0,100	0,015
-374,073	-126,047	-0,115	0,013
-373,058	-82,138	0,141	0,034
-372,044	-42,691	0,088	0,033
-371,029	19,646	-0,090	0,053
-370,015	-34,375	0,031	0,012
-369,000	39,895	-0,096	-0,063
-367,985	-119,576	-0,151	-0,019
-366,971	582,541	0,045	-0,082
-365,956	393,131	0,038	-0,059
-364,942	679,201	-0,029	0,057
-363,927	-200,000	-0,011	0,152
-362,912	-34,692	0,089	-0,036
-361,898	-58,952	-0,087	0,027
-360,883	-200,000	-0,006	-0,077
-359,869	159,781	-0,012	-0,013
-358,854	163,351	0,117	0,120
-357,839	-200,000	0,046	0,175
-356,825	263,265	0,045	-0,057
-355,810	800,000	0,105	0,216
-354,796	-200,000	0,001	-0,042
-353,781	-184,521	-0,110	-0,001
-352,766	-200,000	0,005	0,053
-351,752	-200,000	0,002	-0,024
-350,737	-200,000	-0,011	-0,094
-349,723	106,563	0,080	0,070
-348,708	800,000	-0,035	0,108
-347,693	394,958	-0,014	-0,022
-346,679	241,336	-0,074	-0,090
-345,664	112,103	-0,083	-0,074
-344,650	-33,240	-0,056	0,023
-343,635	290,232	0,052	0,070
-342,620	83,026	0,029	-0,023
-341,606	-126,917	0,060	0,006
-340,591	188,678	0,092	0,101
-339,577	-165,517	0,172	-0,005
-338,562	302,442	0,042	-0,057
-337,548	436,386	-0,037	-0,060
-336,533	302,274	0,064	0,087
-335,518	-200,000	-0,013	0,084
-334,504	800,000	0,032	0,092
-333,489	103,257	-0,102	0,087
-332,475	90,284	0,037	0,031
-331,460	-200,000	0,001	0,050
-330,445	800,000	0,046	-0,118
-329,431	-128,958	0,073	-0,007
-328,416	800,000	0,061	0,129
-327,402	-200,000	0,001	0,027
-326,387	519,412	0,083	0,143
-325,372	101,074	-0,032	0,028
-324,358	-200,000	0,042	-0,146
-323,343	-9,007	-0,059	0,029
-322,329	52,119	0,115	-0,081
-321,314	713,897	0,028	0,055
-320,299	309,299	0,121	0,167
-319,285	412,295	0,023	0,036
-318,270	19,955	-0,097	0,057
-317,256	-200,000	0,006	0,039
-316,241	-138,422	-0,018	-0,001
-315,226	114,507	0,034	0,030
-314,212	11,231	0,117	-0,065
-313,197	-200,000	-0,006	-0,091
-312,183	-120,227	0,130	0,016
-311,168	-87,584	-0,100	-0,022
-310,153	-200,000	0,005	-0,046
-309,139	57,020	-0,077	0,055
-308,124	-67,401	0,088	0,025
-307,110	49,284	0,127	-0,088
-306,095	-80,243	0,065	-0,016
-305,080	-59,655	-0,125	0,039
-304,066	-122,822	-0,145	0,017
-303,051	-54,693	-0,127	-0,042
-302,037	100,080	-0,041	0,034
-301,022	800,000	0,052	0,128
-300,008	800,000	-0,033	0,081
-298,993	-129,421	0,166	0,017
-297,978	800,000	-0,049	0,142
-296,964	-150,249	-0,084	0,005
-295,949	435,842	0,066	-0,105
-294,935	800,000	-0,046	-0,137
-293,920	800,000	-0,026	0,065
-292,905	640,331	0,016	0,031
-291,891	167,517	-0,066	-0,069
-290,876	-200,000	0,035	0,148
-289,862	32,050	-0,098	0,062
-288,847	-200,000	0,023	-0,109
-287,832	-200,000	-0,028	-0,146
-286,818	209,960	0,052	0,060
-285,803	800,000	0,079	0,170
-284,789	274,250	-0,052	-0,067
-283,774	262,450	0,042	0,054
-282,759	-200,000	0,015	-0,054
-281,745	437,839	-0,071	-0,113
-280,730	-41,359	0,058	-0,022
-279,716	-24,797	0,036	0,015
-278,701	39,315	0,153	0,100
-277,686	26,259	0,125	0,076
-276,672	800,000	-0,016	0,041
-275,657	-49,914	0,087	-0,030
-274,643	138,455	-0,100	-0,096
-273,628	-82,102	0,021	-0,005
-272,613	800,000	0,009	-0,025
-271,599	-116,755	0,075	0,010
-270,584	153,895	0,129	0,130
-269,570	-41,228	0,094	-0,035
-268,555	-200,000	0,001	-0,123
-267,540	-200,000	-0,036	-0,117
-266,526	-200,000	-0,014	0,071
-265,511	5,335	0,108	-0,058
-264,497	-200,000	-0,003	-0,038
-263,482	371,612	-0,014	0,020
-262,467	-200,000	-0,029	0,143
-261,453	30,224	-0,086	0,053
-260,438	-200,000	0,015	-0,103
-259,424	-200,000	-0,002	-0,047
-258,409	139,925	0,074	0,072
-257,395	-200,000	0,016	0,081
-256,380	-30,909	-0,057	-0,024
-255,365	-200,000	0,045	-0,187
-254,351	226,936	0,094	-0,112
-253,336	-71,030	0,067	0,018
-252,322	16,109	-0,047	-0,027
-251,307	-143,979	-0,045	0,003
-250,292	26,119	0,104	0,063
-249,278	170,216	0,031	0,033
-248,263	-142,484	-0,078	0,006
-247,249	135,890	-0,040	0,038
-246,234	-90,069	-0,052	-0,011
-245,219	-110,782	-0,113	-0,017
-244,205	800,000	-0,015	-0,033
-243,190	-120,609	-0,127	0,016
-242,176	800,000	0,038	-0,081
-241,161	-200,000	0,016	0,149
-240,146	-14,472	0,151	0,071
-239,132	139,213	0,027	0,026
-238,117	-107,760	-0,022	-0,004
-237,103	-75,058	-0,128	0,033
-236,088	49,589	0,112	0,077
-235,073	800,000	-0,035	0,104
-234,059	-200,000	0,004	-0,017
-233,044	-83,925	0,078	-0,018
-232,030	445,407	0,021	-0,033
-231,015	800,000	-0,028	0,063
-230,000	-200,000	-0,007	0,034
-228,986	456,806	0,059	0,096
-227,971	158,353	0,049	0,049
-226,957	-163,148	0,042	0,001
-225,942	-22,041	-0,045	0,020
-224,927	-126,120	-0,023	0,003
-223,913	521,532	0,033	-0,057
-222,898	537,670	0,032	0,055
-221,884	800,000	-0,022	0,048
-220,869	366,314	-0,030	0,044
-219,855	-100,144	0,042	0,008
-218,840	41,516	0,034	0,023
-217,825	102,982	0,084	0,072
-216,811	84,970	-0,050	-0,040
-215,796	-200,000	-0,003	-0,098
-214,782	113,657	0,041	0,037
-213,767	82,754	0,007	0,006
-212,752	31,729	-0,045	0,028
-211,738	130,622	-0,093	0,087
-210,723	800,000	0,049	0,109
-209,709	-12,961	-0,153	0,072
-208,694	492,515	-0,042	0,070
-207,679	320,603	0,025	-0,035
-206,665	800,000	-0,036	0,108
-205,650	800,000	0,028	0,058
-204,636	115,240	0,107	0,095
-203,621	210,210	0,097	-0,111
-202,606	-24,094	0,050	-0,022
-201,592	-200,000	0,017	-0,144
-200,577	-193,879	-0,102	-0,001
-199,563	148,560	0,106	0,105
-198,548	-200,000	0,010	0,168
-197,533	-128,700	0,070	0,007
-196,519	-81,036	0,105	-0,025
-195,504	-93,534	-0,013	-0,003
-194,490	800,000	-0,052	-0,129
-193,475	-65,953	0,067	-0,019
-192,460	-27,551	-0,051	-0,022
-191,446	800,000	0,030	0,096
-190,431	800,000	0,033	-0,073
-189,417	-200,000	0,003	0,012
-188,402	-200,000	0,005	-0,030
-187,387	-18,730	-0,075	-0,034
-186,373	-13,884	0,030	0,014
-185,358	60,190	-0,126	-0,091
-184,344	-95,219	0,057	0,011
-183,329	-33,671	-0,044	-0,017
-182,315	-200,000	-0,017	0,077
-181,300	-152,892	-0,051	-0,003
-180,285	-200,000	0,003	0,087
-179,271	-200,000	0,002	-0,068
-178,256	-200,000	0,008	-0,059
-177,242	-200,000	0,001	-0,082
-176,227	-35,393	0,044	0,018
-175,212	-58,193	0,088	0,028
-174,198	124,994	-0,051	0,047
-173,183	800,000	-0,052	0,110
-172,169	-200,000	0,020	-0,144
-171,154	-89,639	0,020	0,004
-170,139	-200,000	-0,005	0,033
-169,125	34,672	0,040	0,025
-168,110	-200,000	-0,024	0,079
-167,096	-131,864	-0,032	-0,003
-166,081	-74,536	-0,116	0,030
-165,066	146,563	0,042	-0,041
-164,052	73,748	-0,134	-0,102
-163,037	269,154	0,032	0,041
-162,023	-19,311	0,047	0,021
-161,008	97,721	-0,149	0,125
-159,993	-130,180	-0,107	0,011
-158,979	-200,000	0,013	0,066
-157,964	-200,000	-0,001	0,168
-156,950	-200,000	0,002	0,019
-155,935	152,127	0,061	-0,060
-154,920	195,228	0,135	0,149
-153,906	-170,103	0,027	0,001
-152,891	-200,000	-0,030	0,106
-151,877	-200,000	0,004	0,017
-150,862	-18,096	-0,056	0,026
-149,847	469,799	-0,060	-0,098
-148,833	-200,000	0,010	0,071
-147,818	-200,000	0,003	-0,019
-146,804	352,181	0,039	0,056
-145,789	-89,507	-0,119	0,025
-144,775	800,000	0,014	-0,029
-143,760	800,000	0,050	-0,104
-142,745	476,194	0,017	-0,028
-141,731	-193,925	0,135	0,001
-140,716	134,385	0,143	-0,135
-139,702	800,000	-0,014	0,036
-138,687	372,274	-0,050	-0,074
-137,672	83,298	-0,040	-0,031
-136,658	-200,000	-0,148	0,000
-135,643	-93,189	-0,036	-0,007
-134,629	-169,004	0,129	-0,003
-133,614	110,094	0,119	0,104
-132,599	-112,429	0,050	0,007
-131,585	800,000	0,025	0,070
-130,570	-200,000	-0,013	-0,079
-129,556	-200,000	0,005	0,059
-128,541	-200,000	0,020	-0,092
-127,526	12,046	-0,061	0,034
-126,512	-161,687	0,154	-0,006
-125,497	800,000	0,004	-0,010
-124,483	-200,000	0,001	0,180
-123,468	260,627	-0,088	0,111
-122,453	-200,000	-0,006	-0,047
-121,439	-122,990	-0,025	0,003
-120,424	249,088	0,082	-0,102
-119,410	559,935	-0,024	-0,043
