DTS Sentinel unit serial number:	SN410029Multiplexer serial number:	ORYXHardware model number:	OX2-SRSoftware version number:	ORYX F/W v4,00 Oryx Data Collector v3.7.2.0data status	okinstallation	B6 Nyhavnadifferential loss correction	single-endedforward channel	channel 2reverse channel	N/Adate	2023/12/09time	23:05:08forward acquisition time	300,00reverse acquisition time	0,00gamma	499,1914k internal	0,3127k external	0,3127temperature offset calibration	1,0000default loss term (dB/km)	0,3820temperature slope calibration	1,0000multiplexer offset coefficient	1,0000multiplexer slope coefficient	1,0000fibre end	0,00T internal ref (°C)	21,69T ext. ref 1 (°C)	5,43T ext. ref 2 (°C)	5,41length (m)	temperature (°C)	Stokes	anti-Stokes-744,400	-62,083	0,067	-0,021
-743,385	-144,300	-0,249	0,017
-742,371	39,723	0,041	-0,027
-741,356	-25,732	-0,226	0,099
-740,342	-96,169	0,110	-0,022
-739,327	-104,502	-0,199	-0,034
-738,312	415,944	0,048	-0,076
-737,298	-8,757	-0,153	-0,076
-736,283	139,820	0,060	-0,059
-735,269	120,660	-0,241	0,223
-734,254	-182,583	0,179	0,002
-733,239	-160,834	-0,382	-0,015
-732,225	-79,452	0,052	0,013
-731,210	800,000	-0,023	0,075
-730,196	193,012	0,044	-0,050
-729,181	-200,000	-0,016	0,070
-728,167	-200,000	0,013	-0,058
-727,152	95,185	-0,054	-0,045
-726,137	136,014	-0,027	0,026
-725,123	173,428	-0,072	-0,077
-724,108	-200,000	-0,023	-0,123
-723,094	390,996	-0,069	-0,107
-722,079	-200,000	0,019	-0,062
-721,064	-61,901	-0,069	-0,021
-720,050	800,000	0,057	0,125
-719,035	-200,000	-0,003	0,013
-718,021	800,000	0,041	0,110
-717,006	-3,531	0,098	0,050
-715,991	-164,600	-0,088	-0,003
-714,977	800,000	-0,047	-0,098
-713,962	-28,677	-0,065	-0,028
-712,948	252,792	-0,066	-0,084
-711,933	-25,500	0,036	-0,016
-710,918	-200,000	0,019	-0,065
-709,904	25,951	-0,032	-0,020
-708,889	-104,667	-0,167	-0,028
-707,875	-114,333	0,081	-0,011
-706,860	-126,868	-0,150	-0,016
-705,845	526,215	0,039	-0,068
-704,831	-131,468	0,031	0,003
-703,816	800,000	0,038	-0,084
-702,802	250,255	-0,024	0,030
-701,787	31,580	-0,068	-0,044
-700,772	-4,945	-0,038	0,019
-699,758	800,000	-0,015	-0,036
-698,743	224,328	0,053	-0,064
-697,729	-200,000	0,005	0,116
-696,714	-91,568	-0,086	-0,018
-695,699	-9,620	-0,205	-0,101
-694,685	92,146	0,109	0,091
-693,670	-200,000	-0,000	-0,114
-692,656	437,625	-0,044	-0,072
-691,641	210,563	0,060	-0,071
-690,627	-200,000	0,013	0,112
-689,612	189,571	-0,073	0,081
-688,597	800,000	-0,036	0,092
-687,583	62,627	-0,085	-0,063
-686,568	-13,607	0,042	-0,020
-685,554	-33,605	-0,101	0,041
-684,539	64,125	0,062	0,046
-683,524	150,868	0,046	0,046
-682,510	-74,951	-0,097	0,026
-681,495	547,770	0,049	-0,088
-680,481	-91,201	0,099	0,021
-679,466	427,771	0,060	-0,096
-678,451	-13,538	-0,165	-0,079
-677,437	74,573	0,138	-0,108
-676,422	-86,865	-0,090	-0,020
-675,408	-164,428	0,114	0,004
-674,393	311,342	0,058	-0,081
-673,378	711,059	-0,062	-0,122
-672,364	-200,000	-0,017	-0,131
-671,349	-25,799	0,136	-0,059
-670,335	168,151	-0,101	-0,107
-669,320	-200,000	0,003	-0,148
-668,305	126,251	-0,046	0,044
-667,291	-200,000	-0,026	-0,091
-666,276	316,810	-0,045	0,064
-665,262	-200,000	-0,002	0,018
-664,247	170,496	-0,178	-0,190
-663,232	2,308	-0,064	-0,034
-662,218	85,663	0,085	0,070
-661,203	-14,842	0,140	-0,067
-660,189	35,019	0,105	-0,068
-659,174	35,615	0,087	-0,057
-658,159	177,546	-0,160	-0,173
-657,145	147,308	-0,080	-0,080
-656,130	103,486	0,086	-0,075
-655,116	478,812	-0,035	0,060
-654,101	168,156	-0,063	-0,066
-653,086	143,988	-0,111	-0,110
-652,072	-91,025	0,043	0,009
-651,057	-141,172	-0,165	0,012
-650,043	675,464	-0,054	-0,104
-649,028	157,135	0,079	-0,081
-648,014	518,627	0,015	-0,026
-646,999	-75,770	0,067	0,017
-645,984	154,949	-0,054	-0,055
-644,970	-200,000	0,012	-0,042
-643,955	800,000	0,035	0,083
-642,941	-62,324	0,071	-0,022
-641,926	-70,497	-0,004	0,001
-640,911	-200,000	-0,006	-0,060
-639,897	550,699	0,043	0,076
-638,882	-15,522	-0,101	-0,048
-637,868	-83,146	0,103	-0,024
-636,853	-79,780	-0,157	0,039
-635,838	-47,616	-0,086	0,031
-634,824	-22,556	-0,065	-0,029
-633,809	-134,125	0,113	-0,010
-632,795	140,510	0,086	0,084
-631,780	-200,000	0,016	0,106
-630,765	488,446	-0,097	0,165
-629,751	-16,204	-0,100	-0,047
-628,736	800,000	-0,050	-0,114
-627,722	-200,000	0,016	0,112
-626,707	168,344	0,032	-0,033
-625,692	-136,436	0,044	0,004
-624,678	19,671	-0,112	0,067
-623,663	154,066	0,082	0,083
-622,649	-149,659	-0,068	0,004
-621,634	122,843	0,095	0,088
-620,619	-200,000	0,013	-0,092
-619,605	37,595	-0,014	0,009
-618,590	83,541	-0,086	0,069
-617,576	54,557	0,061	-0,043
-616,561	800,000	0,018	0,058
-615,546	-200,000	-0,020	-0,104
-614,532	-24,391	-0,047	-0,021
-613,517	-200,000	-0,015	-0,154
-612,503	800,000	0,037	-0,083
-611,488	99,006	-0,130	0,111
-610,474	-66,918	0,018	0,005
-609,459	132,151	0,014	0,014
-608,444	81,271	-0,090	0,072
-607,430	-57,052	0,006	0,002
-606,415	157,149	-0,089	-0,091
-605,401	247,824	0,015	-0,019
-604,386	-200,000	0,004	0,072
-603,371	-109,728	0,078	-0,012
-602,357	-32,400	-0,055	-0,023
-601,342	220,599	0,063	0,075
-600,328	278,660	-0,048	0,063
-599,313	-200,000	-0,016	-0,196
-598,298	587,084	-0,014	-0,025
-597,284	-200,000	0,006	-0,148
-596,269	-68,393	0,070	0,020
-595,255	-200,000	-0,031	0,106
-594,240	52,808	-0,079	0,056
-593,225	20,583	-0,059	-0,035
-592,211	-50,614	-0,162	-0,056
-591,196	675,291	-0,002	-0,004
-590,182	-98,988	0,061	0,011
-589,167	8,667	0,136	0,075
-588,152	178,279	0,023	0,025
-587,138	-200,000	-0,021	-0,098
-586,123	800,000	-0,024	-0,067
-585,109	-51,656	-0,072	-0,025
-584,094	205,961	-0,099	-0,114
-583,079	149,710	0,030	0,030
-582,065	163,659	0,053	0,055
-581,050	317,814	-0,105	0,147
-580,036	800,000	-0,039	0,087
-579,021	172,912	0,018	0,019
-578,006	-200,000	0,000	0,119
-576,992	8,998	-0,057	0,032
-575,977	157,538	0,059	0,060
-574,963	-200,000	0,027	0,193
-573,948	-200,000	-0,016	-0,097
-572,934	-200,000	-0,028	0,130
-571,919	-44,697	0,093	-0,034
-570,904	75,894	0,059	0,046
-569,890	572,231	0,039	-0,071
-568,875	105,670	-0,106	0,092
-567,861	-200,000	-0,000	0,045
-566,846	-48,536	0,061	-0,022
-565,831	-59,480	0,034	-0,011
-564,817	-200,000	0,013	-0,094
-563,802	-115,547	-0,178	-0,025
-562,788	3,715	-0,080	0,043
-561,773	800,000	0,015	-0,043
-560,758	800,000	0,034	0,103
-559,744	-200,000	-0,018	0,106
-558,729	800,000	-0,020	0,061
-557,715	61,905	-0,094	-0,069
-556,700	-29,675	-0,077	0,033
-555,685	-200,000	0,007	0,061
-554,671	276,438	-0,055	-0,073
-553,656	2,097	0,068	-0,036
-552,642	41,400	0,111	0,074
-551,627	-200,000	-0,033	-0,205
-550,612	554,456	-0,072	-0,128
-549,598	71,218	-0,013	0,010
-548,583	85,566	-0,115	-0,094
-547,569	-54,588	-0,054	0,018
-546,554	125,096	-0,033	0,031
-545,539	44,360	0,113	0,077
-544,525	44,362	-0,034	-0,023
-543,510	-87,434	-0,025	-0,006
-542,496	800,000	-0,032	-0,070
-541,481	-200,000	0,007	-0,072
-540,466	-200,000	0,001	-0,057
-539,452	800,000	-0,056	0,145
-538,437	-139,024	0,089	0,007
-537,423	-1,171	0,089	-0,046
-536,408	-200,000	-0,016	-0,119
-535,393	496,018	0,039	-0,067
-534,379	177,934	-0,062	-0,067
-533,364	52,026	0,088	0,062
-532,350	-81,233	0,056	-0,014
-531,335	-122,171	-0,114	0,014
-530,321	111,496	0,105	-0,094
-529,306	313,249	-0,102	0,142
-528,291	-80,803	-0,041	0,010
-527,277	-68,249	0,140	-0,040
-526,262	242,828	0,047	-0,058
-525,248	203,382	0,018	0,020
-524,233	287,859	0,089	-0,119
-523,218	-200,000	-0,048	-0,156
-522,204	505,969	-0,065	-0,112
-521,189	800,000	-0,047	0,101
-520,175	54,745	0,064	-0,046
-519,160	-200,000	-0,054	0,192
-518,145	-107,538	0,132	0,021
-517,131	319,885	-0,077	0,108
-516,116	95,074	0,071	-0,059
-515,102	-109,925	-0,011	0,002
-514,087	49,859	-0,163	-0,113
-513,072	-200,000	0,016	-0,059
-512,058	-200,000	-0,018	-0,104
-511,043	34,670	0,066	0,042
-510,029	800,000	-0,049	0,123
-509,014	110,024	0,159	0,140
-507,999	-163,486	0,036	0,001
-506,985	126,281	0,062	0,058
-505,970	-200,000	0,013	-0,067
-504,956	18,337	0,115	-0,068
-503,941	-40,944	-0,043	0,016
-502,926	-177,494	-0,074	-0,001
-501,912	86,726	-0,063	-0,051
-500,897	-200,000	0,002	0,035
-499,883	296,197	-0,073	0,099
-498,868	-200,000	-0,002	-0,020
-497,853	324,501	0,095	0,134
-496,839	575,742	-0,016	-0,028
-495,824	800,000	-0,005	-0,012
-494,810	-200,000	-0,006	0,086
-493,795	800,000	-0,031	-0,091
-492,781	-200,000	0,001	0,028
-491,766	-200,000	-0,001	-0,019
-490,751	-200,000	0,003	-0,082
-489,737	800,000	0,024	-0,056
-488,722	71,319	0,123	0,094
-487,708	-7,220	-0,034	-0,017
-486,693	53,308	0,090	-0,064
-485,678	-8,891	-0,163	0,080
-484,664	-164,659	-0,119	0,004
-483,649	461,319	0,042	-0,069
-482,635	-200,000	-0,019	0,073
-481,620	80,333	-0,035	-0,028
-480,605	258,506	0,017	0,022
-479,591	-200,000	0,015	-0,049
-478,576	-105,939	0,036	0,006
-477,562	800,000	-0,029	0,084
-476,547	-68,540	-0,116	-0,033
-475,532	298,260	-0,070	-0,095
-474,518	-69,294	0,123	0,035
-473,503	-127,460	-0,102	-0,011
-472,489	800,000	0,040	0,110
-471,474	-26,484	-0,096	0,041
-470,459	-200,000	0,001	-0,079
-469,445	86,826	0,024	0,019
-468,430	152,359	0,044	-0,044
-467,416	420,670	-0,077	0,123
-466,401	-200,000	-0,013	0,084
-465,386	-200,000	-0,007	-0,074
-464,372	24,895	-0,116	-0,070
-463,357	225,713	-0,039	0,047
-462,343	-133,248	0,020	-0,002
-461,328	108,298	-0,112	0,098
-460,313	3,393	0,085	0,045
-459,299	161,631	-0,038	-0,040
-458,284	-98,904	0,045	0,008
-457,270	-200,000	0,004	0,034
-456,255	108,387	0,024	0,021
-455,241	800,000	-0,035	-0,081
-454,226	5,959	0,099	-0,054
-453,211	-200,000	-0,003	-0,119
-452,197	-200,000	-0,032	0,146
-451,182	184,217	-0,089	0,097
-450,168	-200,000	-0,001	-0,011
-449,153	39,601	-0,068	-0,045
-448,138	-200,000	0,026	-0,096
-447,124	210,137	0,043	0,050
-446,109	59,922	-0,027	0,020
-445,095	700,184	0,013	0,025
-444,080	753,108	0,048	0,095
-443,065	-98,799	-0,110	0,020
-442,051	-86,269	0,068	-0,015
-441,036	74,932	-0,060	-0,047
-440,022	2,053	-0,056	-0,030
-439,007	606,524	0,017	0,032
-437,992	94,395	-0,037	-0,031
-436,978	281,302	0,108	0,143
-435,963	-54,769	-0,052	-0,017
-434,949	295,101	-0,036	0,049
-433,934	3,097	-0,024	0,013
-432,919	28,536	-0,111	0,069
-431,905	73,859	-0,083	-0,064
-430,890	-20,252	0,024	0,011
-429,876	-19,758	0,113	0,051
-428,861	-200,000	-0,002	-0,071
-427,846	369,130	0,019	-0,028
-426,832	-95,257	-0,050	0,010
-425,817	800,000	-0,076	-0,197
-424,803	-64,353	0,097	0,029
-423,788	-200,000	-0,031	0,169
-422,773	239,293	0,030	0,036
-421,759	-182,598	0,066	0,001
-420,744	-22,199	-0,104	-0,046
-419,730	604,262	0,073	-0,134
-418,715	-200,000	0,017	-0,133
-417,701	-200,000	-0,025	-0,088
-416,686	-82,519	0,127	0,030
-415,671	224,767	0,040	-0,048
-414,657	578,412	-0,011	0,020
-413,642	221,837	0,053	-0,063
-412,628	30,270	-0,052	-0,032
-411,613	120,840	-0,096	-0,088
-410,598	564,676	-0,052	-0,093
-409,584	265,690	0,079	0,101
-408,569	-200,000	-0,002	0,092
-407,555	139,178	-0,066	-0,064
-406,540	203,868	-0,046	0,053
-405,525	-75,258	-0,100	0,026
-404,511	92,332	0,046	-0,038
-403,496	-21,953	0,064	-0,028
-402,482	-172,668	0,107	0,002
-401,467	147,710	0,029	0,029
-400,452	60,933	0,066	0,048
-399,438	-140,222	0,081	-0,006
-398,423	277,641	-0,063	-0,082
-397,409	-200,000	0,008	-0,104
-396,394	111,938	-0,095	-0,084
-395,379	-104,696	0,035	-0,006
-394,365	135,467	-0,029	-0,028
-393,350	-73,467	0,073	-0,019
-392,336	54,878	0,139	0,098
-391,321	-200,000	-0,004	0,014
-390,306	-82,305	-0,119	-0,028
-389,292	622,296	0,072	-0,133
-388,277	89,520	0,088	0,072
-387,263	800,000	-0,073	-0,162
-386,248	210,839	0,007	-0,008
-385,233	-17,651	-0,126	0,058
-384,219	81,381	0,119	0,094
-383,204	-200,000	0,002	-0,049
-382,190	156,110	-0,117	-0,118
-381,175	-52,426	-0,063	-0,021
-380,160	-186,936	0,135	0,001
-379,146	102,805	0,075	-0,064
-378,131	-200,000	0,004	0,207
-377,117	-200,000	0,044	0,181
-376,102	50,432	0,076	-0,053
-375,088	-200,000	0,014	-0,119
-374,073	-133,010	0,042	0,004
-373,058	-51,178	0,078	0,027
-372,044	-26,597	0,073	-0,031
-371,029	-41,488	0,012	-0,005
-370,015	-200,000	-0,011	-0,085
-369,000	706,685	0,038	0,075
-367,985	-131,729	-0,165	-0,016
-366,971	-200,000	0,015	-0,069
-365,956	152,247	0,072	-0,072
-364,942	-91,662	0,023	0,005
-363,927	-200,000	0,017	0,102
-362,912	-200,000	-0,012	0,104
-361,898	800,000	0,024	0,067
-360,883	518,212	-0,044	-0,075
-359,869	204,477	0,052	-0,060
-358,854	10,401	0,153	0,085
-357,839	-200,000	0,024	0,114
-356,825	118,145	0,083	-0,075
-355,810	83,460	0,069	-0,055
-354,796	78,323	-0,046	0,036
-353,781	-93,721	-0,241	-0,048
-352,766	49,130	-0,063	-0,043
-351,752	800,000	0,045	-0,107
-350,737	641,924	-0,027	0,051
-349,723	-138,525	-0,030	0,002
-348,708	-69,207	-0,085	-0,024
-347,693	38,341	-0,036	0,024
-346,679	800,000	-0,026	0,078
-345,664	800,000	0,019	0,043
-344,650	-200,000	-0,003	0,085
-343,635	-51,698	0,060	0,020
-342,620	-39,661	0,104	0,040
-341,606	272,368	0,062	0,081
-340,591	-200,000	-0,029	0,121
-339,577	131,898	0,068	-0,065
-338,562	800,000	-0,043	-0,096
-337,548	-200,000	-0,008	0,062
-336,533	-106,966	0,013	0,002
-335,518	-108,738	0,126	0,020
-334,504	552,562	0,036	-0,064
-333,489	-49,019	0,141	0,049
-332,475	-83,231	-0,025	0,006
-331,460	18,109	0,077	0,045
-330,445	-200,000	0,007	0,120
-329,431	800,000	-0,023	0,074
-328,416	-130,153	0,125	0,012
-327,402	800,000	0,015	0,047
-326,387	48,792	-0,156	0,107
-325,372	152,319	-0,030	-0,030
-324,358	0,076	-0,023	-0,012
-323,343	594,831	-0,035	0,063
-322,329	-200,000	0,012	0,163
-321,314	138,026	0,044	0,042
-320,299	91,147	0,043	0,036
-319,285	-50,289	-0,111	0,038
-318,270	98,804	-0,050	0,042
-317,256	800,000	0,003	0,007
-316,241	-72,898	0,115	0,031
-315,226	417,214	-0,030	0,047
-314,212	8,456	-0,079	-0,043
-313,197	-200,000	-0,008	0,064
-312,183	80,782	-0,034	0,027
-311,168	-97,392	-0,094	0,018
-310,153	30,742	0,073	-0,046
-309,139	-21,545	-0,134	-0,060
-308,124	-200,000	0,007	-0,122
-307,110	-168,428	0,148	-0,004
-306,095	800,000	-0,012	0,033
-305,080	-121,071	0,031	0,004
-304,066	800,000	0,062	-0,136
-303,051	800,000	0,065	-0,138
-302,037	9,120	-0,039	-0,021
-301,022	-200,000	0,003	0,036
-300,008	-200,000	0,009	0,054
-298,993	-84,141	0,184	0,042
-297,978	800,000	-0,029	0,066
-296,964	415,570	-0,038	-0,060
-295,949	-70,208	-0,177	0,049
-294,935	-16,635	-0,174	0,080
-293,920	72,855	-0,112	0,085
-292,905	48,906	0,019	-0,013
-291,891	800,000	0,070	-0,153
-290,876	18,914	-0,058	-0,034
-289,862	800,000	0,011	0,029
-288,847	-200,000	-0,001	-0,036
-287,832	792,525	0,005	-0,010
-286,818	-118,745	0,054	0,007
-285,803	-200,000	-0,013	-0,055
-284,789	-10,868	0,101	0,048
-283,774	244,473	0,050	0,062
-282,759	800,000	-0,025	-0,073
-281,745	-12,465	-0,183	-0,087
-280,730	-200,000	0,003	-0,110
-279,716	292,974	0,020	0,026
-278,701	-67,517	-0,028	-0,008
-277,686	513,256	0,038	-0,066
-276,672	508,010	-0,040	0,069
-275,657	153,501	0,028	0,028
-274,643	-200,000	0,003	-0,020
-273,628	-55,054	-0,050	0,016
-272,613	224,417	0,040	-0,047
-271,599	170,079	-0,076	-0,079
-270,584	647,771	0,077	-0,145
-269,570	800,000	0,028	0,070
-268,555	-200,000	0,016	-0,117
-267,540	800,000	-0,057	-0,132
-266,526	262,918	-0,088	-0,112
-265,511	47,784	-0,073	0,049
-264,497	-40,721	-0,103	-0,039
-263,482	7,961	0,022	-0,012
-262,467	-9,432	0,070	-0,034
-261,453	-200,000	-0,004	-0,179
-260,438	-200,000	0,003	-0,058
-259,424	-22,631	0,133	-0,059
-258,409	438,103	-0,052	-0,083
-257,395	217,465	0,022	0,026
-256,380	35,463	0,090	0,057
-255,365	800,000	-0,053	0,113
-254,351	-109,221	-0,102	-0,016
-253,336	68,510	0,095	0,071
-252,322	-200,000	-0,002	-0,029
-251,307	-187,501	0,068	0,001
-250,292	-0,687	0,220	-0,114
-249,278	-85,759	0,025	-0,006
-248,263	-48,513	0,064	0,022
-247,249	-181,675	-0,047	-0,001
-246,234	800,000	0,027	0,083
-245,219	113,466	-0,017	-0,015
-244,205	800,000	-0,099	-0,233
-243,190	19,949	0,129	0,076
-242,176	-200,000	0,011	0,182
-241,161	-200,000	-0,003	-0,083
-240,146	458,259	0,051	-0,083
-239,132	73,733	0,102	0,078
-238,117	-136,527	-0,098	-0,008
-237,103	28,406	-0,101	-0,062
-236,088	800,000	0,025	-0,078
-235,073	-54,608	0,159	0,052
-234,059	189,951	0,121	0,132
-233,044	77,011	-0,029	-0,023
-232,030	597,671	0,058	0,105
-231,015	-86,463	-0,111	-0,025
-230,000	348,624	-0,041	-0,060
-228,986	-200,000	0,006	-0,135
-227,971	31,991	0,030	0,019
-226,957	-37,560	-0,012	0,005
-225,942	800,000	0,022	0,056
-224,927	-79,658	0,149	-0,036
-223,913	-141,700	-0,071	0,005
-222,898	-33,334	0,084	0,034
-221,884	-70,700	-0,040	-0,011
-220,869	-21,948	0,089	-0,039
-219,855	-163,171	-0,087	-0,003
-218,840	218,317	0,038	0,044
-217,825	67,827	-0,043	0,032
-216,811	-117,460	0,023	0,003
-215,796	-200,000	-0,037	-0,130
-214,782	-36,031	0,078	-0,031
-213,767	28,803	0,117	0,072
-212,752	-200,000	-0,006	-0,086
-211,738	-200,000	0,008	0,031
-210,723	139,163	0,073	0,070
-209,709	-200,000	-0,012	-0,063
-208,694	-103,573	-0,117	-0,020
-207,679	-43,263	0,070	0,026
-206,665	800,000	-0,040	-0,104
-205,650	364,691	0,034	0,049
-204,636	5,588	-0,045	0,024
-203,621	800,000	0,071	-0,213
-202,606	76,087	-0,112	0,086
-201,592	-62,366	-0,055	0,016
-200,577	800,000	-0,033	-0,103
-199,563	213,590	0,056	-0,064
-198,548	-63,815	0,092	-0,027
-197,533	30,035	-0,111	0,069
-196,519	160,183	0,087	-0,088
-195,504	97,735	0,060	0,050
-194,490	-132,785	-0,100	0,009
-193,475	-127,731	0,044	-0,005
-192,460	-29,744	0,108	-0,045
-191,446	-200,000	0,004	0,056
-190,431	-200,000	0,003	0,112
-189,417	-200,000	-0,024	0,119
-188,402	163,598	0,090	0,093
-187,387	-25,767	-0,065	0,028
-186,373	-161,644	0,077	0,003
-185,358	-70,627	-0,048	-0,013
-184,344	-200,000	-0,013	0,048
-183,329	504,916	0,094	0,159
-182,315	65,919	-0,082	-0,061
-181,300	250,776	-0,028	0,035
-180,285	-100,215	-0,042	-0,008
-179,271	667,010	-0,057	0,108
-178,256	-200,000	-0,002	0,072
-177,242	286,635	0,058	-0,077
-176,227	699,986	0,010	0,020
-175,212	-6,865	0,069	0,034
-174,198	2,834	-0,066	0,035
-173,183	47,702	-0,098	-0,067
-172,169	-200,000	-0,022	-0,129
-171,154	-8,246	0,038	-0,018
-170,139	-122,523	-0,086	0,010
-169,125	-50,503	0,140	0,048
-168,110	-200,000	0,005	-0,045
-167,096	23,907	0,011	0,006
-166,081	201,039	0,129	0,145
-165,066	400,696	0,049	-0,075
-164,052	-134,829	-0,050	0,004
-163,037	-52,878	0,140	0,047
-162,023	170,179	-0,048	-0,050
-161,008	-167,245	-0,069	0,002
-159,993	155,546	0,017	0,017
-158,979	121,497	-0,081	-0,073
-157,964	25,202	-0,094	0,057
-156,950	-91,332	-0,172	0,036
-155,935	36,134	-0,077	-0,049
-154,920	-35,202	0,172	0,068
-153,906	178,979	-0,023	0,024
-152,891	135,130	-0,136	0,128
-151,877	-46,115	-0,135	-0,048
-150,862	436,900	-0,059	-0,094
-149,847	365,423	0,090	-0,133
-148,833	-65,529	0,119	-0,034
-147,818	-116,841	0,067	-0,009
-146,804	-150,759	-0,092	0,005
-145,789	-200,000	0,009	-0,115
-144,775	-200,000	-0,006	-0,172
-143,760	-200,000	-0,004	0,033
-142,745	-57,299	-0,031	0,010
-141,731	-31,964	0,029	-0,012
-140,716	110,498	0,096	0,084
-139,702	800,000	0,028	0,058
-138,687	-94,322	0,040	0,008
-137,672	93,945	-0,076	0,063
-136,658	86,027	-0,063	-0,050
-135,643	-96,732	0,061	0,012
-134,629	193,366	0,016	-0,018
-133,614	-155,900	0,069	-0,003
-132,599	106,295	-0,124	-0,106
-131,585	-68,360	0,123	0,034
-130,570	800,000	-0,026	-0,052
-129,556	131,579	-0,052	-0,049
-128,541	-200,000	0,000	-0,036
-127,526	275,514	0,033	-0,043
-126,512	-179,272	0,162	-0,003
-125,497	108,719	0,078	-0,068
-124,483	416,291	0,031	0,047
-123,468	-145,272	0,080	0,005
-122,453	335,518	-0,078	-0,111
-121,439	800,000	0,030	-0,082
-120,424	-53,523	0,055	0,018
-119,410	-200,000	-0,016	0,112
-118,395	73,593	-0,057	0,044
-117,380	576,319	-0,045	-0,080
