DTS Sentinel unit serial number:	SN410029Multiplexer serial number:	ORYXHardware model number:	OX2-SRSoftware version number:	ORYX F/W v4,00 Oryx Data Collector v3.7.2.0data status	okinstallation	B6 Nyhavnadifferential loss correction	single-endedforward channel	channel 2reverse channel	N/Adate	2023/12/11time	08:35:08forward acquisition time	300,00reverse acquisition time	0,00gamma	499,1914k internal	0,3131k external	0,3131temperature offset calibration	1,0000default loss term (dB/km)	0,3820temperature slope calibration	1,0000multiplexer offset coefficient	1,0000multiplexer slope coefficient	1,0000fibre end	0,00T internal ref (°C)	17,71T ext. ref 1 (°C)	0,00T ext. ref 2 (°C)	-0,01length (m)	temperature (°C)	Stokes	anti-Stokes-744,400	-147,009	0,147	0,009
-743,385	-75,674	-0,341	0,090
-742,371	57,398	0,123	0,089
-741,356	-81,361	-0,224	0,055
-740,342	800,000	0,039	-0,082
-739,327	9,622	-0,095	0,053
-738,312	-155,936	0,218	0,010
-737,298	-160,825	-0,423	-0,016
-736,283	-16,795	0,120	0,056
-735,269	-54,677	-0,254	0,085
-734,254	-30,251	0,120	0,051
-733,239	-91,791	-0,521	-0,109
-732,225	-84,986	0,219	0,051
-731,210	-200,000	0,010	0,037
-730,196	-200,000	-0,005	0,054
-729,181	800,000	-0,019	-0,043
-728,167	-33,456	-0,089	-0,036
-727,152	-132,985	0,088	-0,008
-726,137	-103,107	-0,144	-0,025
-725,123	-200,000	-0,017	-0,072
-724,108	800,000	-0,038	-0,117
-723,094	159,291	-0,059	-0,061
-722,079	35,383	0,073	0,047
-721,064	-200,000	-0,003	-0,056
-720,050	138,198	-0,077	-0,075
-719,035	214,811	-0,101	-0,119
-718,021	-200,000	-0,024	0,138
-717,006	73,227	-0,091	-0,071
-715,991	-136,810	-0,089	-0,008
-714,977	-200,000	0,018	-0,082
-713,962	-123,470	0,072	-0,008
-712,948	-200,000	-0,006	-0,068
-711,933	265,267	0,047	-0,061
-710,918	239,775	-0,041	-0,051
-709,904	164,970	0,046	-0,048
-708,889	-200,000	-0,064	-0,000
-707,875	170,919	-0,061	0,065
-706,860	49,337	0,050	0,035
-705,845	199,797	-0,064	-0,073
-704,831	636,339	0,066	-0,125
-703,816	320,591	0,053	-0,075
-702,802	-200,000	-0,002	-0,069
-701,787	155,938	-0,098	-0,101
-700,772	11,858	-0,086	-0,049
-699,758	-23,236	0,061	-0,027
-698,743	800,000	-0,016	-0,043
-697,729	640,619	-0,063	0,120
-696,714	-36,352	-0,037	0,015
-695,699	71,188	-0,122	-0,093
-694,685	-154,344	-0,127	0,006
-693,670	338,056	-0,049	-0,072
-692,656	329,270	0,058	-0,082
-691,641	800,000	-0,010	-0,034
-690,627	234,799	0,020	-0,025
-689,612	386,683	-0,018	-0,027
-688,597	28,764	0,075	-0,047
-687,583	122,604	-0,071	-0,065
-686,568	-66,046	-0,103	0,030
-685,554	23,742	-0,033	-0,020
-684,539	-200,000	-0,011	0,059
-683,524	-167,151	-0,101	-0,003
-682,510	131,714	-0,134	-0,128
-681,495	800,000	-0,029	-0,095
-680,481	289,920	0,050	-0,068
-679,466	-200,000	-0,017	-0,135
-678,451	-200,000	0,007	0,106
-677,437	189,352	-0,069	-0,077
-676,422	35,844	0,104	0,068
-675,408	18,944	0,012	0,007
-674,393	-48,357	-0,054	0,019
-673,378	404,758	-0,045	0,070
-672,364	-141,083	0,079	0,006
-671,349	-87,321	-0,090	-0,020
-670,335	30,439	0,045	-0,029
-669,320	217,886	0,072	0,085
-668,305	-200,000	-0,033	-0,156
-667,291	577,607	-0,071	0,130
-666,276	-106,740	-0,048	-0,008
-665,262	800,000	0,027	-0,076
-664,247	323,355	-0,058	-0,082
-663,232	-200,000	0,019	0,143
-662,218	-19,086	0,140	0,064
-661,203	-168,812	-0,081	0,002
-660,189	11,552	-0,101	0,057
-659,174	-200,000	-0,026	-0,110
-658,159	173,110	-0,096	-0,103
-657,145	-20,346	0,063	0,029
-656,130	-125,106	0,191	-0,021
-655,116	259,413	0,082	0,105
-654,101	289,764	0,098	-0,132
-653,086	800,000	-0,038	0,107
-652,072	-42,847	0,080	-0,030
-651,057	296,485	0,028	0,039
-650,043	-11,614	-0,030	-0,014
-649,028	-94,634	-0,130	-0,026
-648,014	-104,250	0,109	0,019
-646,999	170,063	-0,069	-0,074
-645,984	325,933	-0,057	0,081
-644,970	-200,000	0,005	-0,068
-643,955	-200,000	-0,056	0,000
-642,941	191,003	-0,124	-0,138
-641,926	-200,000	-0,018	-0,105
-640,911	-200,000	-0,025	0,090
-639,897	171,240	0,028	-0,030
-638,882	201,304	-0,086	0,098
-637,868	-82,836	-0,095	0,023
-636,853	-180,972	-0,078	0,001
-635,838	-28,303	0,125	0,053
-634,824	800,000	-0,027	-0,059
-633,809	420,260	-0,037	0,059
-632,795	-42,484	-0,101	0,038
-631,780	-33,114	-0,078	0,032
-630,765	105,848	0,046	0,040
-629,751	-109,478	-0,089	-0,014
-628,736	72,886	0,128	-0,099
-627,722	111,606	0,046	0,041
-626,707	136,994	-0,074	-0,071
-625,692	10,931	-0,020	-0,011
-624,678	202,494	0,063	0,072
-623,663	129,493	0,061	-0,058
-622,649	559,289	-0,026	-0,047
-621,634	684,505	0,029	-0,057
-620,619	-44,080	-0,085	-0,031
-619,605	-200,000	-0,000	0,129
-618,590	800,000	0,022	-0,049
-617,576	193,439	0,092	0,103
-616,561	589,051	0,044	0,081
-615,546	266,783	-0,052	0,067
-614,532	78,091	-0,104	-0,082
-613,517	-200,000	-0,021	-0,083
-612,503	80,005	0,067	0,054
-611,488	800,000	0,015	0,043
-610,474	-136,464	0,108	0,009
-609,459	800,000	-0,011	-0,032
-608,444	63,150	-0,115	-0,085
-607,430	290,190	-0,052	-0,070
-606,415	81,534	-0,020	-0,016
-605,401	800,000	0,015	0,047
-604,386	800,000	0,027	0,079
-603,371	800,000	-0,043	0,095
-602,357	182,828	0,031	-0,034
-601,342	213,271	0,049	-0,057
-600,328	-200,000	0,009	-0,130
-599,313	190,449	-0,039	-0,044
-598,298	800,000	0,026	-0,067
-597,284	-163,415	0,085	-0,003
-596,269	431,732	-0,056	0,090
-595,255	57,858	-0,087	0,063
-594,240	93,081	-0,125	0,105
-593,225	-146,825	0,133	-0,008
-592,211	717,315	-0,037	-0,072
-591,196	-85,520	-0,038	-0,009
-590,182	-90,155	0,130	0,028
-589,167	800,000	-0,019	-0,055
-588,152	-104,756	0,038	0,006
-587,138	-127,890	-0,034	0,004
-586,123	-121,128	-0,038	-0,005
-585,109	-21,706	-0,118	0,053
-584,094	-37,940	-0,008	0,003
-583,079	42,688	0,029	-0,019
-582,065	-37,439	-0,050	-0,020
-581,050	54,118	0,008	-0,006
-580,036	19,241	-0,096	-0,057
-579,021	308,969	0,094	-0,130
-578,006	98,203	-0,041	0,035
-576,992	38,485	-0,068	-0,045
-575,977	23,022	0,056	-0,034
-574,963	304,856	-0,004	0,005
-573,948	800,000	-0,048	-0,121
-572,934	60,567	-0,061	-0,045
-571,919	-200,000	-0,001	0,058
-570,904	-64,855	-0,187	0,056
-569,890	-200,000	-0,060	-0,206
-568,875	174,080	-0,047	-0,050
-567,861	-200,000	0,006	0,079
-566,846	800,000	-0,022	-0,061
-565,831	8,270	0,063	-0,035
-564,817	800,000	0,030	-0,092
-563,802	-200,000	0,004	0,132
-562,788	666,376	-0,032	-0,061
-561,773	267,542	-0,043	-0,055
-560,758	-200,000	0,013	0,072
-559,744	800,000	-0,022	-0,066
-558,729	-114,430	0,031	-0,004
-557,715	125,660	-0,112	-0,104
-556,700	38,851	-0,095	-0,062
-555,685	-200,000	0,048	-0,218
-554,671	-200,000	0,032	-0,134
-553,656	-48,704	0,096	0,034
-552,642	260,267	0,065	-0,083
-551,627	-36,643	-0,094	-0,037
-550,612	286,741	0,075	-0,101
-549,598	800,000	0,024	0,054
-548,583	-94,982	-0,146	-0,029
-547,569	284,918	-0,071	0,095
-546,554	-39,350	0,098	-0,038
-545,539	-41,617	0,027	-0,010
-544,525	2,787	0,140	0,075
-543,510	-83,221	0,030	0,007
-542,496	-106,289	-0,120	-0,020
-541,481	800,000	-0,041	-0,111
-540,466	334,725	-0,030	0,043
-539,452	-25,882	0,165	0,071
-538,437	800,000	-0,055	-0,148
-537,423	800,000	0,043	-0,092
-536,408	-93,070	-0,059	-0,012
-535,393	231,818	0,034	-0,041
-534,379	271,316	0,038	-0,050
-533,364	-200,000	-0,027	-0,095
-532,350	-51,527	0,143	0,049
-531,335	-34,075	0,088	0,036
-530,321	-200,000	-0,016	-0,063
-529,306	-200,000	0,001	-0,044
-528,291	-53,165	-0,075	-0,025
-527,277	325,855	0,042	0,060
-526,262	-84,936	-0,152	0,035
-525,248	148,363	0,055	-0,055
-524,233	800,000	-0,013	-0,031
-523,218	166,227	-0,024	0,025
-522,204	-200,000	0,012	0,065
-521,189	800,000	-0,039	-0,082
-520,175	152,935	-0,072	-0,072
-519,160	82,526	0,047	0,038
-518,145	295,889	0,045	0,060
-517,131	-200,000	-0,011	0,086
-516,116	-200,000	-0,010	0,139
-515,102	800,000	0,044	0,098
-514,087	-138,299	-0,153	0,012
-513,072	5,767	-0,119	-0,065
-512,058	41,774	0,012	-0,008
-511,043	-200,000	0,018	0,085
-510,029	-200,000	0,003	-0,060
-509,014	-200,000	0,028	0,164
-507,999	-84,348	0,042	-0,010
-506,985	-27,974	-0,131	0,056
-505,970	-200,000	-0,009	-0,115
-504,956	-32,445	-0,157	0,064
-503,941	-200,000	0,007	0,053
-502,926	379,853	-0,069	0,105
-501,912	187,196	-0,043	0,047
-500,897	-200,000	0,020	-0,133
-499,883	37,105	-0,035	-0,023
-498,868	-15,331	0,059	-0,027
-497,853	173,442	-0,066	0,070
-496,839	219,624	-0,061	-0,073
-495,824	800,000	0,051	0,111
-494,810	800,000	-0,042	0,117
-493,795	172,032	-0,043	0,045
-492,781	-144,035	-0,040	-0,003
-491,766	-77,377	0,097	0,025
-490,751	-37,716	-0,041	-0,016
-489,737	245,015	-0,153	-0,190
-488,722	-200,000	-0,016	0,128
-487,708	655,686	-0,044	0,083
-486,693	-143,138	-0,033	-0,002
-485,678	-175,725	0,061	0,001
-484,664	205,104	-0,032	0,037
-483,649	-200,000	-0,010	-0,085
-482,635	-117,601	-0,152	-0,020
-481,620	800,000	0,042	0,106
-480,605	800,000	0,058	0,188
-479,591	-83,728	-0,036	0,008
-478,576	-44,375	-0,022	0,008
-477,562	-200,000	-0,009	-0,132
-476,547	800,000	0,022	0,046
-475,532	800,000	-0,032	0,076
-474,518	85,702	0,071	0,057
-473,503	-59,140	0,134	0,042
-472,489	800,000	-0,025	0,077
-471,474	-200,000	-0,016	-0,075
-470,459	-35,147	-0,046	0,018
-469,445	11,526	0,083	-0,046
-468,430	-91,917	-0,042	-0,009
-467,416	587,450	0,015	0,027
-466,401	326,746	0,091	0,129
-465,386	-200,000	0,001	0,142
-464,372	539,864	0,051	-0,090
-463,357	-111,684	0,085	0,013
-462,343	-14,531	-0,031	-0,015
-461,328	-47,652	-0,087	0,031
-460,313	369,890	-0,096	0,143
-459,299	-165,179	-0,115	0,004
-458,284	800,000	0,046	0,105
-457,270	18,361	0,042	0,024
-456,255	-200,000	0,014	-0,055
-455,241	-200,000	-0,041	-0,149
-454,226	-200,000	-0,024	-0,128
-453,211	-66,675	-0,055	-0,016
-452,197	-169,812	0,085	0,002
-451,182	-63,653	0,047	0,014
-450,168	-90,234	0,031	-0,007
-449,153	-8,352	-0,071	0,035
-448,138	-14,642	-0,074	-0,035
-447,124	-67,128	0,041	-0,012
-446,109	300,786	-0,011	-0,015
-445,095	-112,410	0,080	-0,012
-444,080	12,736	-0,045	-0,026
-443,065	148,981	0,031	-0,030
-442,051	168,753	-0,053	-0,056
-441,036	214,391	-0,064	-0,074
-440,022	-200,000	0,026	0,111
-439,007	-200,000	0,001	-0,038
-437,992	-47,196	-0,068	0,024
-436,978	-200,000	0,033	0,155
-435,963	-21,397	0,074	0,033
-434,949	800,000	-0,019	-0,051
-433,934	114,422	0,054	-0,049
-432,919	800,000	-0,039	0,086
-431,905	-200,000	-0,004	-0,177
-430,890	-104,146	-0,140	-0,024
-429,876	-74,593	0,036	-0,009
-428,861	800,000	-0,028	0,080
-427,846	101,084	0,120	0,103
-426,832	-200,000	-0,009	-0,175
-425,817	-83,403	0,096	0,022
-424,803	83,187	-0,081	0,065
-423,788	800,000	0,050	-0,127
-422,773	-158,481	-0,088	-0,004
-421,759	-6,999	-0,026	0,013
-420,744	-200,000	0,008	0,044
-419,730	800,000	-0,035	-0,095
-418,715	-64,026	-0,153	-0,045
-417,701	-171,106	0,157	-0,004
-416,686	-108,541	-0,105	0,016
-415,671	-24,216	0,063	-0,028
-414,657	259,569	0,090	0,114
-413,642	-200,000	-0,039	0,142
-412,628	-200,000	-0,003	0,090
-411,613	-76,996	-0,021	-0,005
-410,598	-10,367	-0,127	0,062
-409,584	-111,426	0,033	-0,005
-408,569	272,646	0,050	-0,065
-407,555	-140,246	-0,056	0,004
-406,540	-106,191	0,123	0,020
-405,525	-1,387	-0,038	-0,020
-404,511	-200,000	0,019	-0,071
-403,496	92,983	-0,049	0,041
-402,482	135,924	-0,058	0,055
-401,467	-127,209	0,097	-0,010
-400,452	-69,018	0,104	0,029
-399,438	93,156	-0,123	-0,102
-398,423	90,692	-0,141	-0,115
-397,409	47,338	-0,024	0,016
-396,394	-200,000	-0,013	-0,162
-395,379	162,787	0,067	-0,069
-394,365	211,874	-0,035	0,040
-393,350	85,020	0,073	-0,059
-392,336	649,781	-0,064	0,121
-391,321	9,917	0,207	0,115
-390,306	800,000	-0,055	0,167
-389,292	369,162	0,054	0,081
-388,277	77,731	0,091	-0,071
-387,263	40,524	0,101	0,066
-386,248	3,047	0,149	0,079
-385,233	320,401	-0,089	-0,124
-384,219	770,476	-0,053	-0,107
-383,204	653,492	-0,053	-0,100
-382,190	26,341	0,066	-0,040
-381,175	111,057	0,097	-0,085
-380,160	11,662	-0,144	0,081
-379,146	86,155	0,056	0,045
-378,131	319,268	-0,021	0,029
-377,117	-200,000	-0,009	0,076
-376,102	-200,000	0,014	-0,093
-375,088	146,016	-0,093	-0,091
-374,073	800,000	-0,015	-0,030
-373,058	-82,438	0,195	-0,046
-372,044	32,431	0,112	0,071
-371,029	-109,867	0,188	0,029
-370,015	-200,000	0,115	-0,000
-369,000	800,000	0,043	-0,092
-367,985	-200,000	-0,018	-0,107
-366,971	-30,199	-0,084	-0,035
-365,956	-83,759	0,072	-0,017
-364,942	57,915	0,064	0,046
-363,927	431,548	0,057	0,091
-362,912	-200,000	0,017	0,129
-361,898	146,956	0,043	0,043
-360,883	217,861	-0,047	0,055
-359,869	744,424	-0,037	-0,073
-358,854	800,000	0,031	0,068
-357,839	-122,498	0,061	-0,007
-356,825	800,000	-0,013	-0,038
-355,810	230,262	0,021	-0,025
-354,796	43,770	-0,060	0,040
-353,781	-26,488	-0,107	-0,046
-352,766	130,308	-0,179	-0,168
-351,752	166,901	0,058	-0,060
-350,737	-52,728	0,044	0,015
-349,723	-200,000	0,029	0,130
-348,708	479,598	-0,042	-0,071
-347,693	-200,000	-0,023	0,081
-346,679	256,675	-0,079	0,099
-345,664	-5,973	-0,123	-0,061
-344,650	800,000	-0,065	0,132
-343,635	-59,986	0,146	-0,045
-342,620	800,000	-0,037	0,098
-341,606	-200,000	0,010	0,046
-340,591	309,253	0,058	-0,079
-339,577	-28,634	0,116	0,049
-338,562	8,006	-0,051	-0,028
-337,548	-200,000	0,029	-0,141
-336,533	-200,000	0,007	0,024
-335,518	135,089	0,032	-0,031
-334,504	145,989	0,072	-0,071
-333,489	800,000	0,069	-0,183
-332,475	209,861	-0,071	-0,081
-331,460	-87,446	-0,056	0,012
-330,445	-81,920	0,150	-0,036
-329,431	211,768	0,091	-0,105
-328,416	14,505	0,047	0,027
-327,402	114,759	-0,069	0,062
-326,387	-200,000	0,016	-0,097
-325,372	-200,000	0,016	-0,068
-324,358	800,000	0,016	-0,045
-323,343	25,004	-0,117	0,071
-322,329	-53,428	0,117	0,039
-321,314	230,458	0,079	0,095
-320,299	-120,970	0,032	0,004
-319,285	-17,766	-0,057	-0,026
-318,270	-61,196	-0,118	-0,036
-317,256	-200,000	0,003	-0,040
-316,241	316,632	0,048	0,066
-315,226	77,015	-0,092	-0,072
-314,212	800,000	-0,015	0,045
-313,197	-200,000	0,014	-0,063
-312,183	19,623	-0,061	0,036
-311,168	446,980	-0,053	0,085
-310,153	-139,771	-0,095	-0,007
-309,139	-177,591	-0,142	0,002
-308,124	279,491	0,043	-0,057
-307,110	-161,023	0,164	-0,006
-306,095	800,000	-0,076	0,218
-305,080	623,140	0,044	-0,081
-304,066	55,691	-0,152	-0,107
-303,051	72,255	-0,107	-0,081
-302,037	-200,000	-0,007	0,026
-301,022	-93,658	0,083	0,017
-300,008	-85,367	0,011	-0,002
-298,993	-200,000	0,001	0,149
-297,978	290,634	0,023	0,031
-296,964	800,000	0,030	-0,087
-295,949	800,000	0,036	0,082
-294,935	-25,539	-0,044	0,019
-293,920	-200,000	0,021	-0,094
-292,905	586,032	-0,083	0,150
-291,891	-200,000	0,011	0,131
-290,876	-88,022	-0,036	-0,008
-289,862	-106,346	-0,127	-0,021
-288,847	146,830	-0,065	0,064
-287,832	-1,251	0,100	-0,051
-286,818	448,917	-0,038	0,062
-285,803	-78,831	0,079	-0,020
-284,789	42,995	0,062	-0,041
-283,774	242,270	0,047	0,057
-282,759	137,170	-0,052	0,050
-281,745	214,700	0,090	0,105
-280,730	-182,506	0,067	-0,001
-279,716	-100,420	0,035	0,006
-278,701	-188,935	0,150	0,001
-277,686	163,108	0,053	0,054
-276,672	-200,000	-0,017	-0,189
-275,657	-200,000	0,000	-0,025
-274,643	-200,000	0,003	-0,029
-273,628	-94,820	0,028	-0,006
-272,613	-200,000	-0,007	0,117
-271,599	-92,585	0,091	-0,019
-270,584	118,773	0,132	0,119
-269,570	121,616	0,092	0,084
-268,555	-151,052	0,110	-0,006
-267,540	9,686	-0,054	-0,030
-266,526	758,847	0,050	-0,100
-265,511	743,813	-0,053	-0,105
-264,497	294,964	0,044	0,059
-263,482	-96,044	0,054	-0,010
-262,467	138,960	-0,094	-0,090
-261,453	27,165	0,061	0,038
-260,438	289,757	0,055	-0,073
-259,424	-200,000	-0,011	0,046
-258,409	608,542	0,034	0,063
-257,395	195,555	-0,071	0,079
-256,380	438,977	0,098	0,156
-255,365	200,011	0,130	-0,145
-254,351	-62,545	0,065	0,019
-253,336	-188,155	-0,101	0,001
-252,322	-59,707	-0,053	-0,016
-251,307	-84,259	-0,112	-0,026
-250,292	112,877	-0,030	0,027
-249,278	-71,177	0,143	0,039
-248,263	14,913	0,051	0,029
-247,249	800,000	-0,034	0,082
-246,234	595,373	-0,052	-0,095
-245,219	432,640	-0,089	-0,141
-244,205	91,023	0,091	-0,074
-243,190	64,400	-0,032	0,024
-242,176	-200,000	-0,001	0,097
-241,161	-8,507	-0,062	-0,030
-240,146	-3,779	0,096	0,048
-239,132	92,557	0,080	-0,065
-238,117	-75,831	-0,092	-0,024
-237,103	565,762	-0,044	-0,078
-236,088	670,030	0,076	-0,144
-235,073	89,100	0,050	-0,041
-234,059	-19,121	0,124	0,056
-233,044	800,000	-0,059	0,128
-232,030	-46,278	-0,074	0,026
-231,015	496,850	0,067	0,112
-230,000	95,465	0,073	-0,061
-228,986	-4,504	0,043	-0,022
-227,971	221,727	0,053	-0,062
-226,957	-200,000	-0,014	0,078
-225,942	-45,440	0,101	-0,036
-224,927	-24,831	0,032	0,014
-223,913	292,123	0,131	0,174
-222,898	304,456	0,038	-0,051
-221,884	800,000	-0,074	-0,189
-220,869	-4,512	0,049	0,025
-219,855	-132,697	-0,059	-0,005
-218,840	-200,000	-0,001	0,017
-217,825	-200,000	0,008	-0,027
-216,811	-200,000	0,022	-0,125
-215,796	-13,347	-0,128	-0,060
-214,782	-60,082	-0,146	0,045
-213,767	379,469	0,131	0,196
-212,752	-200,000	0,059	0,278
-211,738	746,858	-0,030	0,058
-210,723	69,583	0,115	-0,086
-209,709	800,000	0,066	0,154
-208,694	-200,000	-0,017	0,124
-207,679	660,379	-0,037	0,070
-206,665	87,028	0,040	0,032
-205,650	-136,632	-0,035	-0,003
-204,636	-151,208	-0,116	0,006
-203,621	800,000	0,046	0,119
-202,606	211,371	0,088	-0,101
-201,592	-82,118	-0,056	-0,013
-200,577	-92,827	-0,085	-0,017
-199,563	111,093	-0,110	-0,096
-198,548	-74,004	0,041	0,011
-197,533	-200,000	0,016	-0,059
-196,519	-200,000	0,029	0,157
-195,504	-200,000	0,014	-0,057
-194,490	-1,993	-0,063	0,032
-193,475	-200,000	0,022	-0,091
-192,460	52,412	0,105	0,073
-191,446	-113,570	0,067	0,009
-190,431	101,580	-0,050	0,042
-189,417	-82,109	0,148	-0,035
-188,402	31,338	0,080	0,050
-187,387	273,907	0,029	-0,038
-186,373	-84,429	-0,068	-0,016
-185,358	-170,656	0,048	0,001
-184,344	29,137	-0,042	0,026
-183,329	-65,869	0,099	0,029
-182,315	-117,329	0,034	0,004
-181,300	800,000	-0,054	0,131
-180,285	41,744	0,052	-0,034
-179,271	800,000	-0,043	-0,132
-178,256	501,499	0,069	-0,116
-177,242	-96,757	0,153	0,029
-176,227	132,404	-0,073	0,068
-175,212	-179,815	-0,093	-0,001
-174,198	-124,132	-0,100	0,011
-173,183	52,632	0,120	0,084
-172,169	-200,000	0,021	-0,121
-171,154	-200,000	-0,004	0,041
-170,139	-23,343	-0,067	0,029
-169,125	800,000	-0,036	0,079
-168,110	681,351	-0,097	-0,185
-167,096	335,318	0,028	-0,039
-166,081	-200,000	-0,007	-0,042
-165,066	41,215	-0,109	-0,071
-164,052	-144,637	0,096	0,006
-163,037	800,000	-0,015	0,041
-162,023	-76,493	0,119	0,030
-161,008	-78,501	-0,045	-0,011
-159,993	-21,168	-0,157	-0,069
-158,979	-87,383	-0,145	0,032
-157,964	-200,000	0,119	-0,000
-156,950	474,226	0,055	0,090
-155,935	800,000	-0,018	-0,038
-154,920	252,441	0,066	0,082
-153,906	-200,000	-0,000	0,021
-152,891	-200,000	-0,020	0,150
-151,877	-200,000	-0,021	0,131
-150,862	-200,000	0,023	-0,087
-149,847	477,620	0,039	-0,064
-148,833	9,199	-0,133	-0,073
-147,818	-96,571	0,055	-0,011
-146,804	-105,658	0,091	0,015
-145,789	87,726	-0,113	-0,091
-144,775	163,734	0,021	-0,021
-143,760	160,068	0,090	0,091
-142,745	-65,735	-0,087	0,025
-141,731	-11,229	-0,111	-0,053
-140,716	113,167	-0,089	0,079
-139,702	70,192	0,090	0,067
-138,687	-200,000	0,033	0,158
-137,672	187,175	-0,086	-0,093
-136,658	38,115	-0,041	-0,026
-135,643	800,000	0,026	-0,064
-134,629	-51,785	-0,173	-0,058
-133,614	-76,393	0,208	0,053
-132,599	54,003	-0,050	-0,035
-131,585	800,000	-0,054	0,157
-130,570	59,959	0,133	0,095
-129,556	-152,236	-0,018	-0,001
-128,541	-34,338	-0,037	-0,015
-127,526	-122,054	-0,081	0,010
-126,512	-25,457	-0,139	0,059
-125,497	352,509	-0,019	0,028
-124,483	-54,694	0,132	-0,043
-123,468	-200,000	0,126	-0,000
-122,453	-28,796	-0,135	-0,056
-121,439	68,375	-0,102	0,076
-120,424	66,735	0,095	0,070
-119,410	-200,000	-0,004	0,069
