DTS Sentinel unit serial number:	SN410029Multiplexer serial number:	ORYXHardware model number:	OX2-SRSoftware version number:	ORYX F/W v4,00 Oryx Data Collector v3.7.2.0data status	okinstallation	B6 Nyhavnadifferential loss correction	single-endedforward channel	channel 2reverse channel	N/Adate	2023/12/09time	11:40:08forward acquisition time	300,00reverse acquisition time	0,00gamma	499,1914k internal	0,3139k external	0,3139temperature offset calibration	1,0000default loss term (dB/km)	0,3820temperature slope calibration	1,0000multiplexer offset coefficient	1,0000multiplexer slope coefficient	1,0000fibre end	0,00T internal ref (°C)	18,92T ext. ref 1 (°C)	2,94T ext. ref 2 (°C)	2,93length (m)	temperature (°C)	Stokes	anti-Stokes-744,400	-1,123	0,200	-0,104
-743,385	-177,020	-0,215	-0,004
-742,371	-60,261	0,157	-0,049
-741,356	13,651	-0,189	0,108
-740,342	30,409	0,055	0,035
-739,327	-71,394	-0,214	0,059
-738,312	-51,094	0,110	0,038
-737,298	-93,412	-0,227	-0,046
-736,283	188,728	0,095	0,106
-735,269	122,622	-0,178	0,165
-734,254	-200,000	0,000	0,076
-733,239	-52,176	-0,479	-0,164
-732,225	780,838	0,128	0,261
-731,210	-200,000	0,005	0,047
-730,196	87,772	0,018	-0,015
-729,181	-50,653	-0,164	0,057
-728,167	-200,000	-0,004	0,032
-727,152	-7,820	0,082	-0,041
-726,137	-95,903	-0,123	0,024
-725,123	-51,703	-0,173	-0,060
-724,108	-200,000	0,001	-0,021
-723,094	-47,631	-0,083	0,030
-722,079	-121,539	-0,270	0,033
-721,064	-68,299	0,033	0,009
-720,050	73,477	-0,106	0,082
-719,035	-120,135	-0,069	0,009
-718,021	-132,713	-0,025	-0,002
-717,006	276,552	-0,059	0,077
-715,991	450,957	-0,016	-0,027
-714,977	-160,242	0,067	-0,003
-713,962	-200,000	-0,044	-0,157
-712,948	800,000	0,034	-0,075
-711,933	10,461	-0,012	-0,007
-710,918	-200,000	0,003	0,027
-709,904	-158,917	-0,064	-0,003
-708,889	-149,713	0,066	-0,004
-707,875	-158,712	-0,131	-0,005
-706,860	800,000	0,012	-0,033
-705,845	56,846	0,046	-0,033
-704,831	171,748	0,066	-0,071
-703,816	105,501	-0,078	0,069
-702,802	-198,107	-0,084	-0,000
-701,787	-200,000	-0,036	-0,221
-700,772	43,987	-0,025	0,017
-699,758	-200,000	-0,003	-0,048
-698,743	-200,000	0,004	-0,133
-697,729	-116,240	-0,133	-0,018
-696,714	188,733	0,048	0,053
-695,699	-200,000	0,005	0,089
-694,685	-72,778	-0,036	-0,010
-693,670	-144,727	-0,133	0,009
-692,656	182,845	-0,106	0,115
-691,641	-76,114	0,209	-0,054
-690,627	800,000	0,020	-0,047
-689,612	-200,000	0,005	0,046
-688,597	-200,000	-0,013	0,123
-687,583	-126,581	-0,037	-0,004
-686,568	-200,000	0,018	0,130
-685,554	800,000	-0,019	-0,058
-684,539	-200,000	0,001	0,022
-683,524	62,176	0,037	-0,027
-682,510	128,810	-0,030	0,028
-681,495	-105,883	-0,062	-0,010
-680,481	-200,000	0,005	-0,138
-679,466	-200,000	0,008	-0,184
-678,451	800,000	-0,046	-0,115
-677,437	285,329	-0,068	-0,090
-676,422	108,969	-0,032	0,029
-675,408	-200,000	-0,010	0,075
-674,393	-200,000	-0,008	0,077
-673,378	773,797	-0,055	-0,111
-672,364	227,656	0,015	0,018
-671,349	-66,538	0,045	-0,013
-670,335	800,000	0,052	0,118
-669,320	19,044	0,176	-0,104
-668,305	150,904	0,145	0,146
-667,291	100,297	0,043	-0,036
-666,276	371,401	0,016	0,025
-665,262	289,711	0,106	-0,142
-664,247	-200,000	-0,010	-0,089
-663,232	752,879	-0,027	0,053
-662,218	800,000	0,031	0,077
-661,203	149,185	-0,123	0,123
-660,189	512,547	0,080	-0,138
-659,174	-200,000	-0,002	-0,096
-658,159	-2,424	-0,137	-0,071
-657,145	17,588	-0,073	0,043
-656,130	188,243	0,081	0,089
-655,116	-163,273	-0,089	-0,003
-654,101	-166,955	-0,081	-0,002
-653,086	548,219	-0,019	0,034
-652,072	-106,762	-0,087	-0,014
-651,057	34,968	0,055	-0,036
-650,043	-200,000	0,011	-0,119
-649,028	137,575	0,067	-0,065
-648,014	-200,000	0,010	-0,072
-646,999	40,844	0,121	-0,081
-645,984	278,104	0,007	-0,009
-644,970	-96,126	-0,018	-0,004
-643,955	-200,000	0,003	0,054
-642,941	-139,179	-0,162	-0,013
-641,926	-128,080	0,092	-0,010
-640,911	161,571	-0,076	0,078
-639,897	-59,023	0,207	0,066
-638,882	39,443	0,095	-0,063
-637,868	-200,000	0,004	-0,170
-636,853	800,000	-0,068	-0,206
-635,838	-160,357	-0,045	-0,002
-634,824	-16,696	0,064	0,030
-633,809	187,973	0,039	0,043
-632,795	-108,590	-0,133	0,021
-631,780	131,427	-0,060	-0,057
-630,765	-200,000	-0,035	0,000
-629,751	-35,186	0,023	-0,009
-628,736	-200,000	0,011	0,072
-627,722	-170,863	-0,045	-0,001
-626,707	800,000	0,019	-0,060
-625,692	-158,774	0,163	0,007
-624,678	83,044	0,012	-0,010
-623,663	140,442	0,038	0,037
-622,649	231,548	-0,042	-0,051
-621,634	35,755	-0,084	0,054
-620,619	-86,310	0,118	0,027
-619,605	-200,000	0,013	-0,043
-618,590	-200,000	0,020	0,079
-617,576	14,248	0,114	0,066
-616,561	158,947	-0,074	0,076
-615,546	73,706	-0,109	-0,084
-614,532	-200,000	-0,026	-0,217
-613,517	530,281	0,042	0,074
-612,503	-200,000	-0,010	-0,093
-611,488	442,931	-0,047	0,077
-610,474	-72,583	0,024	0,007
-609,459	-200,000	0,029	-0,125
-608,444	-200,000	-0,001	0,072
-607,430	244,298	-0,079	0,098
-606,415	-61,751	-0,075	-0,023
-605,401	-200,000	-0,024	-0,155
-604,386	800,000	0,043	0,132
-603,371	-35,713	-0,130	-0,052
-602,357	720,213	-0,069	-0,137
-601,342	-44,173	-0,075	-0,028
-600,328	39,381	0,031	-0,021
-599,313	45,480	-0,054	0,037
-598,298	-62,436	-0,029	-0,009
-597,284	-10,507	0,073	-0,036
-596,269	-168,097	-0,075	-0,002
-595,255	-165,522	0,032	-0,001
-594,240	-10,853	-0,082	-0,040
-593,225	99,918	-0,039	-0,034
-592,211	800,000	-0,007	0,018
-591,196	69,837	-0,029	-0,022
-590,182	-113,331	-0,061	-0,009
-589,167	137,039	0,067	-0,064
-588,152	244,842	-0,034	-0,043
-587,138	-200,000	-0,016	-0,083
-586,123	312,790	-0,046	-0,064
-585,109	69,047	0,048	0,037
-584,094	150,315	-0,118	-0,118
-583,079	-152,640	0,127	0,007
-582,065	-200,000	0,014	-0,074
-581,050	200,813	-0,096	-0,109
-580,036	707,142	-0,003	-0,006
-579,021	-200,000	0,001	-0,011
-578,006	-200,000	-0,032	-0,121
-576,992	3,816	0,151	0,081
-575,977	77,309	-0,062	0,049
-574,963	196,397	-0,113	0,127
-573,948	-200,000	-0,005	-0,047
-572,934	6,872	0,019	-0,011
-571,919	-5,876	-0,033	0,017
-570,904	800,000	-0,028	-0,061
-569,890	-119,599	-0,166	-0,021
-568,875	97,622	-0,108	0,091
-567,861	37,224	0,127	0,082
-566,846	394,014	0,061	0,093
-565,831	-101,687	-0,077	-0,014
-564,817	41,286	-0,087	-0,058
-563,802	236,086	0,113	-0,138
-562,788	-200,000	-0,002	-0,076
-561,773	171,920	0,046	-0,048
-560,758	-95,153	0,090	-0,018
-559,744	174,933	0,050	0,053
-558,729	696,289	-0,074	-0,144
-557,715	800,000	-0,005	-0,012
-556,700	-200,000	0,006	-0,029
-555,685	-200,000	0,006	-0,134
-554,671	60,759	0,085	-0,062
-553,656	-40,064	0,140	0,053
-552,642	258,953	-0,007	-0,009
-551,627	-193,104	-0,143	0,001
-550,612	-126,785	-0,044	-0,005
-549,598	80,062	-0,032	-0,026
-548,583	242,124	-0,087	-0,107
-547,569	418,291	-0,012	-0,018
-546,554	-200,000	0,031	-0,167
-545,539	-114,722	0,139	-0,019
-544,525	-200,000	0,017	0,115
-543,510	112,098	-0,076	-0,067
-542,496	159,036	0,019	0,019
-541,481	-82,686	-0,050	-0,012
-540,466	800,000	-0,026	-0,072
-539,452	-90,192	-0,130	-0,028
-538,437	174,125	-0,040	-0,043
-537,423	800,000	0,047	0,107
-536,408	-163,811	0,085	0,003
-535,393	-67,675	-0,212	-0,061
-534,379	-119,517	0,014	0,002
-533,364	208,504	0,040	0,046
-532,350	-200,000	0,018	-0,097
-531,335	53,092	-0,030	-0,021
-530,321	417,280	0,020	0,032
-529,306	800,000	0,053	-0,116
-528,291	179,728	0,049	-0,053
-527,277	800,000	0,014	0,034
-526,262	-167,635	-0,044	0,001
-525,248	39,655	-0,070	0,046
-524,233	-200,000	0,016	0,084
-523,218	75,335	0,135	0,105
-522,204	-200,000	0,000	0,056
-521,189	-19,413	-0,130	-0,059
-520,175	800,000	-0,012	-0,028
-519,160	-94,688	-0,033	0,007
-518,145	-54,501	0,068	0,023
-517,131	-200,000	0,058	-0,189
-516,116	-200,000	0,016	0,090
-515,102	-80,100	-0,052	0,013
-514,087	253,190	0,076	0,095
-513,072	800,000	0,051	-0,113
-512,058	-129,275	-0,095	0,010
-511,043	-176,894	0,081	-0,001
-510,029	59,355	0,072	-0,052
-509,014	5,398	0,143	0,077
-507,999	-20,267	-0,055	0,025
-506,985	535,973	0,038	0,066
-505,970	-2,382	-0,049	0,025
-504,956	-127,731	-0,095	0,010
-503,941	510,006	0,029	0,050
-502,926	774,896	-0,079	0,159
-501,912	-200,000	-0,004	-0,059
-500,897	-36,140	0,104	-0,041
-499,883	152,405	0,080	-0,080
-498,868	197,760	-0,095	-0,106
-497,853	89,338	0,034	-0,028
-496,839	-75,824	0,037	-0,010
-495,824	31,665	-0,017	0,011
-494,810	398,321	0,075	0,116
-493,795	499,509	0,020	0,033
-492,781	-200,000	0,012	-0,063
-491,766	296,769	0,074	-0,101
-490,751	-8,126	-0,171	-0,084
-489,737	-112,411	-0,037	-0,005
-488,722	-30,769	-0,053	-0,022
-487,708	-45,328	-0,025	-0,009
-486,693	-68,473	0,088	-0,025
-485,678	-108,767	0,138	-0,021
-484,664	-48,762	-0,140	-0,049
-483,649	456,231	-0,012	-0,020
-482,635	800,000	-0,015	-0,046
-481,620	-137,034	0,099	0,008
-480,605	781,808	0,053	0,106
-479,591	449,584	-0,031	0,050
-478,576	-200,000	0,001	0,045
-477,562	-100,835	-0,134	-0,024
-476,547	-24,261	0,029	-0,013
-475,532	-200,000	0,018	0,069
-474,518	0,076	0,112	0,059
-473,503	208,700	0,015	-0,017
-472,489	-200,000	0,008	0,121
-471,474	116,093	-0,016	-0,014
-470,459	96,992	0,103	-0,086
-469,445	147,151	-0,058	0,058
-468,430	-98,197	-0,046	0,009
-467,416	45,415	-0,051	-0,035
-466,401	100,288	0,055	0,047
-465,386	-31,640	0,059	-0,024
-464,372	-37,901	-0,078	0,030
-463,357	202,589	0,032	0,037
-462,343	-78,608	-0,076	-0,019
-461,328	3,606	0,024	-0,013
-460,313	663,284	0,021	-0,040
-459,299	-50,633	0,075	-0,026
-458,284	111,693	0,103	0,092
-457,270	3,584	0,021	0,011
-456,255	520,964	0,082	0,141
-455,241	800,000	-0,073	0,172
-454,226	-124,267	0,103	0,012
-453,211	800,000	-0,056	0,174
-452,197	-132,119	-0,050	0,005
-451,182	698,674	0,062	0,121
-450,168	-42,362	0,025	0,009
-449,153	-200,000	-0,001	0,046
-448,138	84,531	0,058	-0,046
-447,124	280,375	-0,024	-0,032
-446,109	-200,000	0,003	0,082
-445,095	249,943	0,111	0,138
-444,080	5,272	0,033	-0,018
-443,065	-97,335	-0,061	0,012
-442,051	-200,000	0,008	-0,227
-441,036	297,538	0,046	-0,062
-440,022	-200,000	0,001	-0,076
-439,007	-56,190	-0,064	-0,021
-437,992	258,958	0,036	0,046
-436,978	-200,000	0,002	0,021
-435,963	186,477	0,063	0,069
-434,949	-74,481	-0,097	-0,025
-433,934	800,000	-0,013	0,037
-432,919	189,309	0,031	-0,034
-431,905	454,027	-0,043	-0,071
-430,890	-200,000	-0,023	0,112
-429,876	-200,000	-0,024	-0,086
-428,861	-123,483	-0,110	0,013
-427,846	-48,051	0,119	-0,042
-426,832	-46,018	-0,118	-0,042
-425,817	-200,000	0,016	-0,057
-424,803	99,776	0,065	0,055
-423,788	347,963	-0,033	0,048
-422,773	111,893	-0,022	-0,019
-421,759	-80,448	0,073	-0,018
-420,744	-200,000	-0,001	0,003
-419,730	800,000	0,030	-0,095
-418,715	-200,000	-0,016	-0,119
-417,701	279,184	-0,074	-0,096
-416,686	-200,000	0,019	-0,085
-415,671	800,000	0,025	0,073
-414,657	-92,996	0,135	-0,027
-413,642	-200,000	-0,029	-0,113
-412,628	-81,983	0,023	0,005
-411,613	52,263	-0,060	0,042
-410,598	78,046	0,061	0,047
-409,584	135,818	0,030	-0,029
-408,569	-10,250	0,037	-0,018
-407,555	135,735	-0,002	-0,002
-406,540	-200,000	-0,002	0,050
-405,525	-126,214	-0,118	-0,013
-404,511	-200,000	0,010	-0,038
-403,496	-4,860	-0,115	-0,058
-402,482	-200,000	0,029	0,105
-401,467	-133,100	0,112	-0,010
-400,452	68,934	-0,061	0,046
-399,438	-133,563	0,165	0,015
-398,423	-62,381	-0,074	-0,022
-397,409	-200,000	0,015	-0,082
-396,394	-200,000	0,001	0,032
-395,379	-59,712	-0,142	0,044
-394,365	285,259	-0,003	0,005
-393,350	98,786	0,116	0,098
-392,336	800,000	-0,022	0,046
-391,321	127,708	-0,076	-0,071
-390,306	800,000	-0,016	0,043
-389,292	592,632	-0,028	0,051
-388,277	-44,750	0,188	-0,068
-387,263	85,637	0,023	-0,019
-386,248	800,000	0,024	-0,054
-385,233	16,532	-0,081	0,047
-384,219	-200,000	0,026	0,131
-383,204	259,540	-0,076	0,096
-382,190	160,985	-0,016	0,017
-381,175	-137,957	-0,025	0,002
-380,160	104,105	-0,051	0,044
-379,146	-147,603	0,058	-0,004
-378,131	591,878	0,042	0,077
-377,117	-109,520	-0,204	0,031
-376,102	-145,299	0,079	0,005
-375,088	735,967	0,016	0,031
-374,073	163,721	0,101	-0,104
-373,058	-200,000	0,016	-0,092
-372,044	-30,597	-0,055	0,023
-371,029	350,284	0,025	-0,036
-370,015	124,860	0,062	0,058
-369,000	3,399	0,031	-0,016
-367,985	-200,000	0,003	-0,048
-366,971	-125,978	-0,143	-0,016
-365,956	408,173	0,080	-0,123
-364,942	-6,463	0,083	0,041
-363,927	-26,163	-0,042	0,018
-362,912	23,820	-0,084	-0,050
-361,898	800,000	-0,001	0,004
-360,883	103,766	-0,049	-0,042
-359,869	429,485	0,026	0,041
-358,854	119,438	0,064	-0,058
-357,839	89,188	0,042	0,034
-356,825	742,948	0,027	0,054
-355,810	-56,398	-0,046	0,015
-354,796	-200,000	-0,008	-0,082
-353,781	-190,464	-0,116	-0,001
-352,766	216,401	0,043	0,050
-351,752	572,239	-0,070	-0,125
-350,737	-200,000	0,009	0,139
-349,723	96,872	-0,064	0,053
-348,708	-200,000	0,019	0,215
-347,693	12,486	-0,076	-0,042
-346,679	-200,000	-0,000	-0,016
-345,664	282,509	-0,034	0,044
-344,650	107,378	0,090	0,078
-343,635	112,478	0,069	-0,061
-342,620	141,273	0,106	-0,103
-341,606	-36,345	-0,166	0,065
-340,591	393,514	-0,024	-0,037
-339,577	46,020	0,013	0,009
-338,562	-20,858	-0,056	-0,025
-337,548	129,051	0,024	-0,023
-336,533	412,868	0,066	0,103
-335,518	193,292	0,076	0,084
-334,504	71,133	0,050	0,038
-333,489	-200,000	-0,025	0,085
-332,475	-200,000	0,005	-0,022
-331,460	800,000	-0,016	-0,043
-330,445	397,651	0,057	-0,087
-329,431	-52,868	0,054	-0,018
-328,416	-200,000	-0,017	0,083
-327,402	397,269	0,043	-0,065
-326,387	-119,997	0,076	-0,009
-325,372	-200,000	-0,007	-0,073
-324,358	-85,374	-0,042	-0,010
-323,343	800,000	-0,044	-0,118
-322,329	-56,348	0,094	0,030
-321,314	268,135	-0,009	-0,012
-320,299	-108,720	0,135	0,021
-319,285	-200,000	-0,007	0,065
-318,270	-200,000	-0,026	-0,120
-317,256	-58,429	-0,116	-0,037
-316,241	-200,000	0,004	-0,220
-315,226	236,629	-0,045	0,055
-314,212	160,477	0,041	0,041
-313,197	399,933	-0,030	0,045
-312,183	29,380	-0,105	0,065
-311,168	-200,000	0,004	0,166
-310,153	52,890	0,096	0,067
-309,139	-200,000	0,001	-0,035
-308,124	52,875	-0,047	0,033
-307,110	800,000	-0,010	0,033
-306,095	188,876	0,116	0,127
-305,080	269,391	-0,063	0,081
-304,066	800,000	0,028	0,082
-303,051	119,984	0,053	-0,048
-302,037	-37,566	0,017	-0,007
-301,022	-200,000	0,008	-0,078
-300,008	-45,476	0,183	0,066
-298,993	-200,000	0,013	0,054
-297,978	-200,000	0,008	0,082
-296,964	800,000	-0,046	-0,099
-295,949	-58,707	-0,110	-0,034
-294,935	800,000	0,014	0,030
-293,920	167,732	0,011	0,012
-292,905	-126,248	0,129	0,014
-291,891	-79,780	0,089	0,022
-290,876	-200,000	0,001	-0,057
-289,862	-200,000	0,004	-0,084
-288,847	-200,000	0,013	0,049
-287,832	-200,000	-0,003	0,080
-286,818	271,791	-0,055	-0,070
-285,803	48,617	-0,042	0,029
-284,789	-75,870	-0,029	0,007
-283,774	-173,077	0,111	-0,002
-282,759	58,558	0,021	-0,015
-281,745	-200,000	-0,013	-0,117
-280,730	-50,452	-0,113	-0,039
-279,716	786,599	-0,038	0,076
-278,701	-42,079	-0,055	-0,021
-277,686	797,891	-0,011	-0,022
-276,672	800,000	-0,040	-0,096
-275,657	-200,000	-0,012	0,052
-274,643	79,272	0,034	0,027
-273,628	697,886	-0,046	-0,089
-272,613	800,000	0,017	0,040
-271,599	282,353	0,067	0,088
-270,584	176,308	0,077	0,082
-269,570	456,120	0,004	-0,007
-268,555	-14,002	0,066	-0,031
-267,540	671,168	0,022	-0,042
-266,526	96,665	0,164	-0,137
-265,511	194,048	0,008	-0,009
-264,497	-200,000	0,017	0,092
-263,482	330,939	0,059	0,083
-262,467	-60,087	-0,084	-0,026
-261,453	124,172	-0,106	0,097
-260,438	-70,763	-0,092	0,025
-259,424	-4,070	-0,077	-0,039
-258,409	-200,000	-0,025	0,079
-257,395	800,000	0,032	0,068
-256,380	-35,892	-0,106	0,041
-255,365	1,810	0,067	-0,035
-254,351	337,791	-0,015	-0,021
-253,336	54,742	-0,061	-0,043
-252,322	778,111	0,078	0,156
-251,307	170,949	0,064	0,067
-250,292	248,473	-0,040	0,050
-249,278	-94,835	-0,156	0,030
-248,263	140,309	0,025	-0,024
-247,249	208,065	-0,153	-0,174
-246,234	800,000	-0,015	0,036
-245,219	6,239	-0,015	0,008
-244,205	588,705	-0,045	-0,081
-243,190	-148,543	-0,047	0,003
-242,176	280,475	0,126	-0,165
-241,161	226,188	0,097	0,115
-240,146	-126,502	0,107	0,011
-239,132	365,960	0,012	0,018
-238,117	-89,080	0,152	0,032
-237,103	145,885	0,053	0,052
-236,088	131,185	-0,103	-0,096
-235,073	-83,087	-0,151	0,035
-234,059	800,000	0,018	0,037
-233,044	473,019	0,053	0,088
-232,030	-62,293	0,071	0,021
-231,015	708,605	-0,053	-0,102
-230,000	-200,000	0,004	-0,012
-228,986	800,000	0,014	-0,038
-227,971	82,095	0,056	0,044
-226,957	-200,000	0,031	0,120
-225,942	-200,000	-0,016	0,123
-224,927	-200,000	-0,011	0,130
-223,913	165,637	-0,043	0,044
-222,898	-200,000	0,007	-0,056
-221,884	-200,000	-0,005	-0,093
-220,869	-200,000	-0,018	-0,082
-219,855	-50,994	-0,024	0,008
-218,840	-44,921	0,050	0,018
-217,825	800,000	0,043	0,100
-216,811	-118,205	-0,087	-0,011
-215,796	759,651	-0,086	-0,169
-214,782	-95,001	0,134	0,026
-213,767	800,000	0,054	-0,114
-212,752	-30,568	0,062	-0,025
-211,738	687,153	-0,057	-0,109
-210,723	800,000	-0,049	0,108
-209,709	227,410	-0,089	0,105
-208,694	-4,291	-0,046	-0,023
-207,679	800,000	0,063	-0,146
-206,665	94,112	0,043	-0,036
-205,650	320,637	-0,095	0,131
-204,636	191,692	-0,094	0,103
-203,621	-106,108	0,086	-0,014
-202,606	-91,526	-0,053	0,011
-201,592	105,903	0,077	-0,066
-200,577	-48,172	-0,059	0,021
-199,563	175,934	-0,030	0,032
-198,548	-109,186	-0,100	-0,015
-197,533	-135,342	0,046	-0,004
-196,519	130,572	0,098	0,092
-195,504	468,262	-0,021	-0,034
-194,490	35,981	-0,044	0,028
-193,475	-200,000	0,028	0,111
-192,460	-200,000	-0,010	0,112
-191,446	-200,000	-0,007	0,029
-190,431	-118,120	0,054	0,007
-189,417	200,683	-0,028	-0,031
-188,402	-76,369	-0,096	0,024
-187,387	-200,000	0,015	0,068
-186,373	-97,246	0,090	-0,017
-185,358	-41,483	-0,171	-0,063
-184,344	170,148	0,069	0,072
-183,329	-171,330	0,110	-0,003
-182,315	-200,000	0,012	0,126
-181,300	250,253	-0,069	0,086
-180,285	-15,996	-0,076	0,035
-179,271	738,250	0,005	-0,010
-178,256	800,000	-0,024	-0,070
-177,242	-200,000	0,018	0,181
-176,227	-200,000	-0,006	-0,046
-175,212	179,188	-0,059	-0,063
-174,198	549,868	-0,034	0,059
-173,183	-200,000	-0,001	-0,165
-172,169	722,791	0,042	-0,082
-171,154	454,723	0,050	-0,080
-170,139	-66,415	0,081	-0,023
-169,125	-200,000	0,001	0,076
-168,110	529,546	0,064	0,109
-167,096	-200,000	-0,013	0,099
-166,081	-200,000	0,005	-0,039
-165,066	-58,004	-0,094	0,030
-164,052	279,394	0,074	-0,096
-163,037	70,205	-0,079	0,059
-162,023	480,650	0,122	0,201
-161,008	800,000	0,014	0,040
-159,993	593,374	-0,039	-0,070
-158,979	-83,085	-0,015	0,004
-157,964	-51,990	0,064	0,021
-156,950	-200,000	0,008	-0,033
-155,935	97,782	-0,047	-0,039
-154,920	101,959	-0,093	0,079
-153,906	611,775	-0,068	0,124
-152,891	154,267	-0,133	-0,132
-151,877	625,764	0,072	-0,131
-150,862	800,000	-0,072	-0,170
-149,847	-200,000	-0,017	-0,153
-148,833	414,510	-0,046	-0,071
-147,818	-200,000	0,049	0,217
-146,804	800,000	-0,047	0,121
-145,789	136,183	0,057	0,054
-144,775	347,301	0,063	-0,090
-143,760	-2,181	-0,196	-0,099
-142,745	117,307	0,065	0,058
-141,731	581,328	0,035	-0,063
-140,716	156,305	0,045	0,045
-139,702	49,731	0,057	-0,039
-138,687	-155,659	-0,088	-0,004
-137,672	443,852	0,042	-0,067
-136,658	800,000	0,025	-0,059
-135,643	800,000	0,007	-0,020
-134,629	22,259	0,162	-0,095
-133,614	-200,000	-0,010	0,068
-132,599	-47,742	0,156	0,055
-131,585	-200,000	0,050	0,193
-130,570	-123,004	0,085	0,010
-129,556	13,153	0,055	0,031
-128,541	-200,000	-0,006	-0,033
-127,526	538,550	-0,053	-0,091
-126,512	2,401	0,024	-0,013
-125,497	74,678	-0,093	0,071
-124,483	-19,863	0,080	0,036
-123,468	38,839	0,110	-0,071
-122,453	-200,000	0,016	-0,157
-121,439	-33,715	-0,104	-0,041
-120,424	-172,737	-0,060	-0,001
-119,410	-200,000	-0,029	0,131
