DTS Sentinel unit serial number:	SN410029Multiplexer serial number:	ORYXHardware model number:	OX2-SRSoftware version number:	ORYX F/W v4,00 Oryx Data Collector v3.7.2.0data status	okinstallation	B6 Nyhavnadifferential loss correction	single-endedforward channel	channel 2reverse channel	N/Adate	2023/12/07time	17:50:08forward acquisition time	300,00reverse acquisition time	0,00gamma	499,1914k internal	0,3164k external	0,3164temperature offset calibration	1,0000default loss term (dB/km)	0,3820temperature slope calibration	1,0000multiplexer offset coefficient	1,0000multiplexer slope coefficient	1,0000fibre end	0,00T internal ref (°C)	14,38T ext. ref 1 (°C)	-2,58T ext. ref 2 (°C)	-2,57length (m)	temperature (°C)	Stokes	anti-Stokes-744,400	72,853	0,131	0,100
-743,385	-59,590	-0,315	0,099
-742,371	789,376	0,044	0,088
-741,356	46,542	-0,288	0,196
-740,342	174,354	0,115	0,122
-739,327	-82,523	-0,356	-0,084
-738,312	800,000	0,036	0,093
-737,298	-64,317	-0,406	0,121
-736,283	-137,550	0,148	0,012
-735,269	-89,094	-0,262	-0,056
-734,254	37,680	0,037	0,024
-733,239	96,338	-0,483	-0,407
-732,225	-200,000	0,007	0,041
-731,210	-44,267	-0,024	0,009
-730,196	-200,000	0,006	0,033
-729,181	354,529	0,028	-0,040
-728,167	-108,724	0,082	-0,013
-727,152	4,319	-0,047	-0,026
-726,137	94,793	-0,070	-0,058
-725,123	-200,000	0,001	-0,064
-724,108	337,787	-0,049	-0,070
-723,094	769,240	-0,066	-0,133
-722,079	-34,885	-0,053	-0,021
-721,064	93,089	-0,087	0,072
-720,050	-190,410	-0,086	0,001
-719,035	800,000	0,062	-0,174
-718,021	-200,000	-0,049	0,169
-717,006	-38,638	-0,156	-0,060
-715,991	-200,000	-0,031	-0,115
-714,977	-200,000	0,001	-0,108
-713,962	115,479	-0,073	0,065
-712,948	-200,000	0,033	-0,130
-711,933	16,765	-0,148	-0,086
-710,918	-11,292	0,084	0,041
-709,904	-135,008	-0,048	-0,004
-708,889	-200,000	0,019	-0,084
-707,875	0,123	-0,163	0,085
-706,860	231,229	-0,036	-0,043
-705,845	-183,015	0,179	0,002
-704,831	252,309	0,051	0,064
-703,816	800,000	0,069	0,145
-702,802	-43,398	0,086	-0,032
-701,787	124,461	-0,075	-0,070
-700,772	800,000	0,028	-0,083
-699,758	-103,204	0,118	-0,020
-698,743	-200,000	0,019	0,092
-697,729	136,303	-0,044	-0,042
-696,714	32,533	-0,179	0,113
-695,699	-123,174	0,037	-0,004
-694,685	-55,521	0,062	-0,020
-693,670	-67,737	-0,099	0,028
-692,656	124,025	-0,031	0,028
-691,641	800,000	-0,020	0,048
-690,627	-200,000	-0,013	-0,125
-689,612	473,302	0,060	0,099
-688,597	11,751	0,081	-0,045
-687,583	800,000	-0,054	-0,121
-686,568	255,500	-0,080	0,101
-685,554	-55,643	-0,108	-0,035
-684,539	-63,563	0,114	-0,034
-683,524	-126,423	0,137	-0,015
-682,510	37,473	0,057	-0,037
-681,495	109,779	-0,068	-0,060
-680,481	-161,580	-0,033	-0,001
-679,466	297,256	-0,033	-0,044
-678,451	10,283	-0,077	-0,043
-677,437	-123,777	0,181	-0,021
-676,422	800,000	-0,039	0,086
-675,408	2,219	-0,035	0,019
-674,393	2,882	-0,052	0,028
-673,378	-200,000	0,004	-0,071
-672,364	800,000	0,008	-0,026
-671,349	487,018	-0,014	-0,024
-670,335	-42,548	-0,064	0,024
-669,320	-200,000	-0,006	0,100
-668,305	9,092	0,065	-0,036
-667,291	-200,000	0,011	-0,067
-666,276	750,973	-0,058	0,116
-665,262	-53,551	-0,148	0,049
-664,247	800,000	0,017	-0,043
-663,232	-200,000	-0,001	-0,089
-662,218	-8,631	0,085	0,042
-661,203	-131,313	0,062	-0,006
-660,189	-152,692	-0,162	-0,008
-659,174	-200,000	-0,014	-0,094
-658,159	354,404	-0,036	0,053
-657,145	36,613	-0,099	-0,064
-656,130	44,160	0,073	0,049
-655,116	107,958	0,043	0,037
-654,101	89,495	0,094	0,077
-653,086	-122,130	-0,122	-0,014
-652,072	476,459	-0,010	-0,017
-651,057	166,727	0,078	-0,081
-650,043	222,868	-0,095	0,112
-649,028	41,570	0,057	-0,038
-648,014	-200,000	-0,018	-0,150
-646,999	307,548	0,079	0,109
-645,984	-89,235	-0,087	0,019
-644,970	19,202	-0,067	-0,039
-643,955	173,789	-0,043	-0,045
-642,941	-117,764	-0,153	-0,020
-641,926	132,553	-0,039	-0,037
-640,911	-200,000	-0,006	0,074
-639,897	333,520	0,021	0,030
-638,882	-39,968	0,113	-0,043
-637,868	800,000	-0,031	0,064
-636,853	-181,764	-0,096	0,001
-635,838	119,118	0,043	-0,039
-634,824	-143,320	0,133	0,009
-633,809	-200,000	0,001	-0,010
-632,795	196,767	0,075	0,084
-631,780	800,000	0,016	-0,051
-630,765	118,532	-0,115	-0,104
-629,751	-17,962	-0,198	-0,091
-628,736	332,171	0,039	-0,055
-627,722	278,422	0,091	0,118
-626,707	-21,153	0,027	-0,012
-625,692	95,536	0,055	0,046
-624,678	121,684	0,053	-0,048
-623,663	745,775	0,008	-0,015
-622,649	33,677	0,020	-0,013
-621,634	290,826	0,089	-0,119
-620,619	800,000	0,017	-0,037
-619,605	-200,000	0,011	-0,130
-618,590	256,318	-0,052	-0,065
-617,576	107,956	-0,036	0,032
-616,561	-113,341	-0,031	0,004
-615,546	19,692	0,089	0,052
-614,532	-200,000	-0,051	0,000
-613,517	188,517	-0,047	-0,051
-612,503	-62,324	0,034	0,010
-611,488	219,353	0,025	0,029
-610,474	800,000	-0,027	0,075
-609,459	-6,412	-0,045	0,022
-608,444	-37,040	-0,051	-0,020
-607,430	-42,286	0,063	0,023
-606,415	108,924	-0,067	-0,059
-605,401	-200,000	0,015	-0,137
-604,386	800,000	-0,021	-0,054
-603,371	-130,378	0,122	0,012
-602,357	-151,917	0,051	-0,003
-601,342	707,541	0,025	-0,048
-600,328	-200,000	0,006	-0,146
-599,313	-128,143	0,078	-0,008
-598,298	22,764	0,095	0,057
-597,284	-177,400	-0,085	0,001
-596,269	44,052	0,148	0,099
-595,255	-82,223	-0,079	0,019
-594,240	-33,436	0,079	-0,032
-593,225	-200,000	0,001	0,011
-592,211	800,000	0,030	0,083
-591,196	800,000	0,026	-0,061
-590,182	6,042	-0,064	0,035
-589,167	800,000	-0,025	-0,079
-588,152	-24,302	-0,026	-0,011
-587,138	-140,046	-0,073	-0,006
-586,123	-200,000	0,013	0,071
-585,109	-72,687	-0,158	0,042
-584,094	-31,937	-0,078	0,032
-583,079	333,423	0,029	0,041
-582,065	-116,954	-0,098	0,013
-581,050	435,618	-0,069	0,110
-580,036	-148,358	0,044	0,003
-579,021	63,364	-0,055	-0,041
-578,006	-92,992	-0,086	-0,017
-576,992	55,136	0,109	-0,077
-575,977	-125,491	0,107	0,012
-574,963	800,000	0,119	0,249
-573,948	136,209	-0,089	0,085
-572,934	800,000	0,028	-0,083
-571,919	800,000	0,056	-0,124
-570,904	63,914	0,069	-0,050
-569,890	-200,000	-0,017	-0,084
-568,875	-58,723	0,065	0,020
-567,861	110,833	-0,115	0,101
-566,846	679,306	-0,018	0,034
-565,831	-23,824	-0,071	-0,031
-564,817	-65,812	-0,247	-0,072
-563,802	-200,000	-0,031	-0,125
-562,788	220,733	0,096	0,113
-561,773	24,849	-0,078	-0,047
-560,758	284,115	0,026	0,034
-559,744	344,363	0,053	-0,076
-558,729	-46,621	0,099	-0,035
-557,715	35,621	0,043	0,027
-556,700	56,993	0,080	-0,057
-555,685	800,000	-0,044	-0,097
-554,671	542,466	0,068	-0,118
-553,656	-200,000	-0,002	0,031
-552,642	379,913	0,056	-0,084
-551,627	-138,885	-0,108	0,008
-550,612	404,053	-0,095	0,146
-549,598	-95,206	-0,103	-0,020
-548,583	-4,544	0,043	-0,022
-547,569	-200,000	-0,024	0,154
-546,554	-105,096	0,161	-0,027
-545,539	-200,000	-0,009	-0,103
-544,525	-44,549	-0,080	-0,029
-543,510	-138,875	-0,006	0,000
-542,496	24,576	-0,046	-0,028
-541,481	322,494	0,028	0,040
-540,466	-200,000	0,012	-0,077
-539,452	78,371	-0,182	-0,142
-538,437	747,822	-0,038	-0,075
-537,423	-47,576	-0,021	0,007
-536,408	-200,000	-0,025	0,080
-535,393	-13,643	-0,048	0,023
-534,379	352,632	0,018	-0,026
-533,364	651,038	-0,016	0,030
-532,350	453,590	0,037	0,060
-531,335	800,000	0,032	0,080
-530,321	676,004	-0,088	-0,168
-529,306	-24,614	-0,105	-0,046
-528,291	-148,283	-0,071	0,004
-527,277	117,419	-0,020	-0,018
-526,262	800,000	-0,044	0,109
-525,248	-91,714	0,140	0,029
-524,233	800,000	0,011	-0,035
-523,218	-56,935	-0,101	-0,032
-522,204	567,339	-0,076	-0,135
-521,189	-31,670	-0,068	-0,028
-520,175	-129,878	0,055	-0,005
-519,160	51,671	0,029	-0,020
-518,145	-200,000	0,012	0,100
-517,131	-69,122	-0,134	-0,037
-516,116	800,000	0,061	0,142
-515,102	9,329	0,148	0,081
-514,087	-200,000	0,015	0,158
-513,072	-63,386	-0,173	0,051
-512,058	4,335	-0,031	-0,016
-511,043	-38,259	-0,125	0,048
-510,029	209,765	-0,026	-0,029
-509,014	324,760	0,039	-0,055
-507,999	-71,834	0,104	0,028
-506,985	-102,291	-0,072	0,012
-505,970	-189,326	0,023	0,000
-504,956	411,855	0,034	-0,053
-503,941	-63,572	0,069	0,020
-502,926	190,270	0,096	0,106
-501,912	-79,422	0,042	-0,010
-500,897	-26,072	-0,190	-0,081
-499,883	-152,898	0,226	-0,011
-498,868	-67,470	-0,078	0,022
-497,853	800,000	0,031	0,066
-496,839	466,686	-0,058	-0,095
-495,824	190,573	0,082	0,090
-494,810	216,894	-0,013	-0,016
-493,795	274,703	-0,047	-0,061
-492,781	800,000	0,025	-0,052
-491,766	800,000	0,080	-0,186
-490,751	-143,834	-0,114	-0,008
-489,737	659,804	-0,078	0,147
-488,722	91,837	0,097	0,079
-487,708	366,850	0,009	-0,014
-486,693	-200,000	0,025	0,151
-485,678	54,239	0,024	-0,017
-484,664	800,000	0,020	-0,062
-483,649	123,033	-0,020	0,018
-482,635	258,393	0,031	-0,039
-481,620	419,266	0,018	0,027
-480,605	-200,000	0,007	0,047
-479,591	-200,000	0,015	0,069
-478,576	800,000	0,049	-0,106
-477,562	92,350	0,114	-0,093
-476,547	-117,298	-0,090	-0,012
-475,532	476,410	-0,061	0,101
-474,518	25,664	0,071	-0,043
-473,503	800,000	0,049	-0,131
-472,489	-200,000	-0,025	-0,112
-471,474	800,000	0,013	-0,030
-470,459	-31,223	0,029	-0,012
-469,445	-95,623	-0,167	0,032
-468,430	213,892	0,063	-0,073
-467,416	301,794	0,045	-0,061
-466,401	317,822	0,028	-0,039
-465,386	-200,000	0,001	-0,007
-464,372	-200,000	-0,005	-0,121
-463,357	126,735	-0,015	0,014
-462,343	-200,000	0,005	0,029
-461,328	-74,031	0,024	-0,006
-460,313	6,888	-0,133	0,072
-459,299	-89,585	0,089	0,019
-458,284	19,795	0,181	-0,106
-457,270	224,065	0,035	-0,041
-456,255	800,000	-0,045	0,129
-455,241	66,607	-0,120	0,089
-454,226	-88,039	0,104	-0,022
-453,211	-105,431	0,022	0,004
-452,197	-89,126	0,075	-0,016
-451,182	170,386	0,038	-0,040
-450,168	211,307	0,100	-0,115
-449,153	56,450	-0,039	0,028
-448,138	14,053	-0,062	-0,035
-447,124	-200,000	-0,016	-0,079
-446,109	800,000	-0,011	-0,028
-445,095	665,085	-0,048	-0,090
-444,080	51,889	0,083	-0,057
-443,065	451,253	-0,027	0,044
-442,051	-87,134	-0,044	0,010
-441,036	-32,384	0,104	0,042
-440,022	-141,771	-0,138	-0,010
-439,007	575,447	-0,008	0,015
-437,992	-43,297	0,099	0,036
-436,978	-200,000	0,059	0,000
-435,963	800,000	-0,033	-0,073
-434,949	-200,000	-0,013	0,065
-433,934	-200,000	-0,019	-0,096
-432,919	800,000	0,022	0,055
-431,905	216,397	0,039	0,045
-430,890	12,185	0,042	-0,023
-429,876	-200,000	0,010	-0,037
-428,861	546,493	-0,035	0,061
-427,846	166,586	0,086	0,088
-426,832	-59,320	0,111	-0,035
-425,817	-200,000	0,015	0,050
-424,803	302,938	-0,010	0,014
-423,788	-133,800	0,024	0,002
-422,773	-98,362	0,025	-0,005
-421,759	80,933	-0,035	0,027
-420,744	261,364	-0,041	0,052
-419,730	-95,535	-0,108	0,021
-418,715	-200,000	0,004	-0,026
-417,701	130,256	-0,062	-0,058
-416,686	-20,150	-0,056	-0,025
-415,671	-82,851	0,101	-0,023
-414,657	-200,000	0,014	0,115
-413,642	653,195	-0,053	-0,100
-412,628	342,100	-0,028	0,040
-411,613	582,659	-0,035	-0,063
-410,598	-200,000	-0,014	-0,134
-409,584	-120,950	-0,026	-0,003
-408,569	599,188	-0,045	0,081
-407,555	-200,000	0,001	0,047
-406,540	4,040	0,157	-0,083
-405,525	-27,389	-0,235	-0,099
-404,511	-128,337	0,055	0,006
-403,496	476,812	0,058	-0,095
-402,482	-200,000	0,002	-0,079
-401,467	410,663	0,058	-0,090
-400,452	-182,856	0,244	0,003
-399,438	322,347	-0,046	0,064
-398,423	122,263	-0,144	0,131
-397,409	239,355	0,078	0,094
-396,394	150,682	-0,188	-0,185
-395,379	762,035	0,064	0,126
-394,365	-141,688	-0,139	-0,010
-393,350	30,809	0,088	0,055
-392,336	-160,407	-0,053	0,002
-391,321	16,433	0,088	-0,051
-390,306	-200,000	-0,000	0,024
-389,292	-146,233	-0,032	-0,002
-388,277	-179,193	-0,077	-0,001
-387,263	-82,906	-0,067	0,016
-386,248	455,256	-0,049	0,079
-385,233	800,000	-0,009	0,019
-384,219	244,531	-0,058	-0,071
-383,204	56,258	-0,063	-0,044
-382,190	166,461	0,022	-0,023
-381,175	114,167	-0,074	-0,066
-380,160	146,028	-0,047	-0,046
-379,146	-200,000	0,004	-0,162
-378,131	800,000	-0,031	-0,082
-377,117	47,019	-0,090	0,061
-376,102	-200,000	0,017	-0,156
-375,088	-12,249	-0,134	-0,063
-374,073	-113,189	-0,102	0,014
-373,058	800,000	0,061	0,193
-372,044	24,467	0,094	0,056
-371,029	-12,679	0,058	0,027
-370,015	-37,821	0,049	-0,019
-369,000	91,097	0,137	-0,111
-367,985	-200,000	-0,014	-0,132
-366,971	639,726	-0,039	-0,073
-365,956	-200,000	0,016	-0,114
-364,942	-200,000	-0,010	0,065
-363,927	-63,213	-0,112	-0,033
-362,912	-200,000	0,007	-0,053
-361,898	-2,700	0,013	0,006
-360,883	-72,325	-0,073	-0,019
-359,869	166,702	0,067	-0,069
-358,854	145,576	-0,037	-0,036
-357,839	-200,000	0,030	0,165
-356,825	-200,000	0,051	0,214
-355,810	295,244	0,106	0,140
-354,796	-161,934	0,067	0,002
-353,781	49,417	0,083	0,057
-352,766	-77,623	-0,083	0,021
-351,752	22,352	-0,068	-0,040
-350,737	18,592	0,138	-0,080
-349,723	-200,000	0,032	0,141
-348,708	-129,032	-0,085	0,009
-347,693	577,756	-0,036	0,064
-346,679	161,738	0,089	-0,090
-345,664	-174,858	-0,104	-0,002
-344,650	798,765	-0,054	0,109
-343,635	99,601	0,029	-0,025
-342,620	-27,446	0,043	-0,018
-341,606	785,898	-0,048	0,095
-340,591	800,000	-0,018	-0,055
-339,577	-27,999	-0,111	-0,046
-338,562	-200,000	0,009	0,058
-337,548	-200,000	0,011	-0,044
-336,533	390,357	0,051	-0,077
-335,518	15,669	-0,133	-0,075
-334,504	-14,758	0,022	0,010
-333,489	-200,000	-0,041	0,179
-332,475	-24,906	0,073	0,031
-331,460	-200,000	0,010	0,151
-330,445	681,654	-0,041	0,078
-329,431	520,141	-0,027	0,046
-328,416	174,112	-0,036	0,037
-327,402	-200,000	0,061	0,215
-326,387	-112,354	-0,062	-0,009
-325,372	-74,101	-0,061	-0,016
-324,358	235,343	0,019	-0,023
-323,343	267,255	0,052	0,067
-322,329	116,431	0,135	0,120
-321,314	-26,006	-0,033	0,014
-320,299	165,798	0,067	-0,069
-319,285	402,059	-0,045	0,069
-318,270	71,580	-0,051	0,039
-317,256	-200,000	0,001	-0,114
-316,241	685,087	0,053	-0,100
-315,226	-200,000	0,010	0,082
-314,212	-138,521	0,042	0,003
-313,197	21,449	0,032	-0,019
-312,183	-113,227	-0,039	-0,005
-311,168	-200,000	0,000	-0,147
-310,153	-10,356	0,115	-0,055
-309,139	-7,954	-0,095	0,046
-308,124	-200,000	-0,012	-0,141
-307,110	713,341	-0,045	-0,087
-306,095	-74,494	-0,056	0,014
-305,080	-188,578	0,072	0,001
-304,066	104,230	-0,073	-0,062
-303,051	333,227	-0,078	-0,109
-302,037	507,743	-0,071	-0,119
-301,022	-116,499	0,128	-0,017
-300,008	-21,199	0,059	-0,026
-298,993	-134,123	0,158	-0,014
-297,978	-200,000	0,010	0,095
-296,964	800,000	0,017	-0,039
-295,949	-200,000	-0,009	0,087
-294,935	-200,000	-0,032	0,109
-293,920	31,965	-0,044	-0,027
-292,905	-200,000	-0,018	-0,068
-291,891	800,000	-0,009	0,028
-290,876	-90,798	-0,036	0,008
-289,862	63,461	-0,011	-0,008
-288,847	399,209	0,033	0,050
-287,832	19,269	0,147	-0,085
-286,818	61,305	-0,078	-0,056
-285,803	800,000	0,023	0,046
-284,789	-129,556	0,069	0,007
-283,774	-36,465	0,076	0,029
-282,759	503,392	-0,088	-0,147
-281,745	-51,827	-0,126	0,042
-280,730	31,256	0,025	0,016
-279,716	753,122	-0,013	-0,025
-278,701	-141,172	0,119	0,009
-277,686	-117,364	0,037	0,005
-276,672	155,676	0,040	0,040
-275,657	148,667	-0,088	-0,086
-274,643	800,000	0,048	0,109
-273,628	-32,975	0,092	0,037
-272,613	800,000	0,050	-0,122
-271,599	648,818	-0,009	-0,017
-270,584	-200,000	-0,012	0,075
-269,570	190,458	-0,094	0,102
-268,555	-200,000	-0,009	-0,054
-267,540	-107,643	0,076	0,012
-266,526	800,000	0,051	0,119
-265,511	-153,594	0,138	-0,007
-264,497	-88,150	0,044	0,009
-263,482	-200,000	0,015	0,131
-262,467	-131,782	0,134	-0,013
-261,453	82,653	-0,041	-0,032
-260,438	-200,000	-0,073	0,286
-259,424	-64,125	0,088	0,026
-258,409	-200,000	0,024	0,115
-257,395	-35,074	0,177	-0,069
-256,380	-50,969	0,042	-0,014
-255,365	-51,424	0,137	0,046
-254,351	-47,077	0,041	-0,014
-253,336	-188,004	-0,057	-0,001
-252,322	441,533	-0,039	0,062
-251,307	-4,294	-0,054	0,027
-250,292	249,329	0,046	-0,057
-249,278	419,982	0,011	0,017
-248,263	218,356	-0,033	-0,038
-247,249	0,749	-0,068	-0,035
-246,234	713,211	0,030	0,057
-245,219	-13,965	-0,011	-0,005
-244,205	-200,000	-0,020	-0,163
-243,190	-78,731	0,146	-0,036
-242,176	-200,000	0,035	0,143
-241,161	-200,000	0,034	0,130
-240,146	-200,000	-0,014	0,116
-239,132	759,021	-0,018	0,036
-238,117	-141,631	-0,063	0,005
-237,103	-91,506	-0,132	-0,027
-236,088	184,011	-0,100	-0,107
-235,073	165,487	0,052	0,053
-234,059	45,450	0,108	-0,072
-233,044	359,154	-0,054	0,078
-232,030	-200,000	0,210	-0,000
-231,015	-200,000	-0,011	-0,065
-230,000	704,296	-0,080	-0,153
-228,986	-71,874	0,071	0,019
-227,971	-200,000	-0,002	0,039
-226,957	800,000	0,023	0,056
-225,942	45,956	-0,054	-0,036
-224,927	-93,212	0,118	0,023
-223,913	-200,000	-0,005	0,129
-222,898	-200,000	0,002	-0,043
-221,884	203,958	-0,054	-0,061
-220,869	800,000	-0,048	0,150
-219,855	-2,805	0,055	0,027
-218,840	589,520	0,080	0,143
-217,825	-200,000	-0,012	0,071
-216,811	-24,631	-0,122	-0,052
-215,796	-62,525	0,046	-0,014
-214,782	-200,000	0,019	0,103
-213,767	295,389	-0,108	-0,143
-212,752	-12,294	0,149	0,070
-211,738	800,000	0,040	0,095
-210,723	800,000	0,029	0,071
-209,709	-101,183	-0,127	0,022
-208,694	-200,000	-0,022	-0,091
-207,679	26,420	-0,116	-0,070
-206,665	151,182	-0,100	0,098
-205,650	11,314	0,019	0,010
-204,636	157,009	0,039	0,039
-203,621	-200,000	-0,006	-0,069
-202,606	1,356	0,094	-0,049
-201,592	-200,000	-0,028	0,095
-200,577	270,737	0,016	0,020
-199,563	-52,609	0,069	0,023
-198,548	17,828	0,124	0,071
-197,533	-200,000	-0,002	-0,077
-196,519	-137,648	-0,131	0,010
-195,504	287,259	-0,060	0,079
-194,490	204,011	0,027	0,030
-193,475	11,837	0,057	0,031
-192,460	-89,927	-0,039	0,008
-191,446	357,025	-0,030	-0,044
-190,431	218,864	-0,073	0,084
-189,417	60,572	-0,113	-0,080
-188,402	-85,490	-0,047	0,010
-187,387	-200,000	0,005	-0,036
-186,373	-200,000	-0,031	-0,107
-185,358	191,976	-0,073	-0,079
-184,344	-56,408	0,140	0,044
-183,329	-200,000	-0,017	0,064
-182,315	-84,788	0,058	0,013
-181,300	-58,363	-0,141	-0,044
-180,285	-200,000	0,011	-0,134
-179,271	118,045	-0,052	-0,046
-178,256	98,069	-0,077	0,064
-177,242	477,882	0,084	-0,138
-176,227	-200,000	0,009	-0,067
-175,212	-53,986	-0,019	-0,006
-174,198	-109,924	-0,070	-0,010
-173,183	-200,000	0,019	0,067
-172,169	223,864	-0,099	0,115
-171,154	-90,178	-0,135	0,028
-170,139	-34,060	0,162	0,064
-169,125	800,000	0,047	-0,095
-168,110	800,000	-0,041	0,117
-167,096	82,528	-0,098	0,076
-166,081	3,615	-0,097	0,051
-165,066	-155,080	0,066	-0,003
-164,052	112,063	0,150	0,131
-163,037	-104,549	0,013	0,002
-162,023	-200,000	-0,013	0,072
-161,008	81,613	0,058	0,045
-159,993	230,552	0,029	-0,034
-158,979	159,571	-0,119	0,120
-157,964	-200,000	-0,004	0,019
-156,950	-28,489	-0,060	0,025
-155,935	300,677	0,084	-0,112
-154,920	-80,747	-0,001	0,000
-153,906	800,000	-0,027	0,054
-152,891	-63,531	0,046	0,013
-151,877	-7,020	-0,101	0,049
-150,862	-200,000	-0,026	-0,083
-149,847	-58,764	0,082	0,025
-148,833	3,979	0,032	0,017
-147,818	-200,000	0,026	0,187
-146,804	800,000	0,026	0,059
-145,789	554,963	-0,032	0,056
-144,775	20,375	-0,054	-0,031
-143,760	-10,803	0,093	0,044
-142,745	-200,000	0,022	-0,119
-141,731	-200,000	0,028	-0,128
-140,716	-200,000	-0,010	0,051
-139,702	-30,966	0,133	-0,054
-138,687	-200,000	-0,022	0,133
-137,672	-161,567	0,074	-0,003
-136,658	158,207	0,020	0,020
-135,643	379,235	-0,021	0,032
-134,629	-161,754	-0,159	0,006
-133,614	800,000	-0,021	0,059
-132,599	-200,000	-0,022	0,092
-131,585	-16,233	0,087	0,039
-130,570	-43,001	0,049	0,018
-129,556	-200,000	0,005	-0,018
-128,541	-53,760	-0,068	-0,022
-127,526	112,156	0,147	0,127
-126,512	-130,072	-0,094	-0,009
-125,497	-158,607	0,098	-0,004
-124,483	91,316	0,042	-0,034
-123,468	-200,000	-0,030	-0,095
-122,453	-200,000	0,008	-0,087
-121,439	160,455	0,057	-0,057
-120,424	-124,307	-0,030	-0,003
-119,410	-200,000	-0,003	-0,041
