DTS Sentinel unit serial number:	SN410029Multiplexer serial number:	ORYXHardware model number:	OX2-SRSoftware version number:	ORYX F/W v4,00 Oryx Data Collector v3.7.2.0data status	okinstallation	B6 Nyhavnadifferential loss correction	single-endedforward channel	channel 2reverse channel	N/Adate	2023/12/08time	07:10:08forward acquisition time	300,00reverse acquisition time	0,00gamma	499,1914k internal	0,3166k external	0,3166temperature offset calibration	1,0000default loss term (dB/km)	0,3820temperature slope calibration	1,0000multiplexer offset coefficient	1,0000multiplexer slope coefficient	1,0000fibre end	0,00T internal ref (°C)	13,12T ext. ref 1 (°C)	-3,44T ext. ref 2 (°C)	-3,43length (m)	temperature (°C)	Stokes	anti-Stokes-744,400	-200,000	0,027	0,159
-743,385	-100,808	-0,175	0,031
-742,371	-200,000	0,045	0,152
-741,356	-56,079	-0,244	0,079
-740,342	751,438	0,079	0,158
-739,327	-149,326	-0,294	0,017
-738,312	-200,000	-0,022	0,072
-737,298	-53,510	-0,284	0,095
-736,283	-56,340	0,186	0,060
-735,269	-52,067	-0,318	0,108
-734,254	26,334	0,083	0,051
-733,239	-61,245	-0,591	-0,182
-732,225	-82,604	0,206	0,049
-731,210	-84,087	0,050	-0,012
-730,196	293,562	0,153	0,206
-729,181	576,317	-0,045	0,081
-728,167	59,302	-0,067	-0,048
-727,152	800,000	-0,056	0,132
-726,137	-200,000	-0,070	0,000
-725,123	-167,295	-0,111	0,003
-724,108	164,107	-0,198	-0,205
-723,094	529,088	-0,023	0,041
-722,079	-200,000	-0,006	0,032
-721,064	-161,978	0,155	-0,006
-720,050	800,000	0,022	0,056
-719,035	-200,000	-0,034	-0,125
-718,021	519,704	0,050	0,086
-717,006	-186,222	-0,040	0,000
-715,991	104,262	-0,017	-0,015
-714,977	800,000	-0,027	-0,079
-713,962	90,124	-0,062	-0,050
-712,948	-98,220	0,058	-0,011
-711,933	57,547	-0,053	-0,038
-710,918	-28,560	-0,085	-0,036
-709,904	-34,420	-0,059	0,023
-708,889	18,117	-0,098	-0,057
-707,875	318,908	-0,071	-0,099
-706,860	800,000	-0,041	0,114
-705,845	800,000	0,049	0,105
-704,831	-200,000	0,027	0,095
-703,816	186,072	0,098	0,107
-702,802	-127,025	-0,100	0,011
-701,787	800,000	0,024	-0,072
-700,772	202,258	0,031	-0,035
-699,758	192,715	0,101	-0,112
-698,743	-200,000	-0,006	-0,040
-697,729	-8,268	0,043	-0,021
-696,714	-200,000	0,008	-0,100
-695,699	99,518	-0,105	0,089
-694,685	56,758	-0,094	0,067
-693,670	181,736	-0,154	-0,166
-692,656	800,000	0,034	0,082
-691,641	-103,548	0,120	-0,020
-690,627	800,000	-0,038	-0,079
-689,612	-142,030	-0,136	0,010
-688,597	151,745	0,020	-0,020
-687,583	51,575	-0,074	-0,052
-686,568	-200,000	-0,017	0,089
-685,554	584,537	-0,042	0,076
-684,539	-26,400	0,107	-0,046
-683,524	4,628	-0,039	-0,021
-682,510	-200,000	-0,024	0,136
-681,495	27,532	0,109	0,067
-680,481	-78,163	-0,043	0,011
-679,466	-200,000	-0,022	-0,103
-678,451	655,002	-0,062	0,117
-677,437	800,000	-0,014	-0,031
-676,422	-200,000	0,006	0,070
-675,408	-200,000	0,017	0,064
-674,393	176,392	0,057	-0,061
-673,378	189,580	0,042	-0,046
-672,364	-170,940	-0,084	-0,002
-671,349	-107,268	-0,071	-0,011
-670,335	800,000	-0,009	-0,020
-669,320	800,000	-0,011	-0,033
-668,305	15,100	-0,055	0,031
-667,291	324,889	-0,128	0,180
-666,276	-200,000	-0,002	0,113
-665,262	-200,000	-0,018	0,155
-664,247	-66,398	-0,111	-0,032
-663,232	-200,000	0,011	0,060
-662,218	190,260	0,025	0,028
-661,203	-44,127	-0,050	0,018
-660,189	-200,000	-0,012	0,106
-659,174	451,911	0,084	0,137
-658,159	297,204	0,086	-0,115
-657,145	215,362	0,095	-0,111
-656,130	38,210	-0,124	0,081
-655,116	473,771	0,088	0,146
-654,101	57,116	-0,034	-0,024
-653,086	-109,775	-0,075	-0,011
-652,072	-41,719	0,032	0,012
-651,057	261,686	-0,055	0,070
-650,043	42,431	-0,086	-0,057
-649,028	1,146	-0,087	0,046
-648,014	-200,000	0,013	0,104
-646,999	216,177	-0,053	0,062
-645,984	-17,876	0,075	0,035
-644,970	-200,000	-0,007	0,153
-643,955	-80,146	0,060	-0,015
-642,941	-200,000	0,008	0,079
-641,926	146,700	-0,094	0,092
-640,911	18,775	0,109	-0,064
-639,897	106,440	0,020	-0,017
-638,882	101,439	-0,024	-0,020
-637,868	-36,523	-0,084	-0,033
-636,853	95,939	0,066	0,056
-635,838	-37,202	-0,130	-0,051
-634,824	121,158	-0,077	0,070
-633,809	800,000	0,028	-0,067
-632,795	-200,000	-0,003	0,072
-631,780	800,000	0,034	-0,070
-630,765	-22,365	0,060	-0,027
-629,751	-200,000	-0,006	-0,021
-628,736	-200,000	0,001	0,011
-627,722	-146,297	-0,130	-0,008
-626,707	-15,339	0,069	-0,032
-625,692	-200,000	-0,027	-0,123
-624,678	500,896	0,018	0,031
-623,663	-200,000	0,003	-0,033
-622,649	95,068	-0,063	-0,053
-621,634	-200,000	0,010	-0,039
-620,619	-122,534	-0,036	-0,004
-619,605	-82,370	0,102	-0,024
-618,590	-105,769	0,132	0,022
-617,576	-200,000	-0,009	-0,104
-616,561	105,127	0,085	-0,073
-615,546	43,064	0,066	-0,044
-614,532	179,166	0,034	0,036
-613,517	-200,000	-0,009	0,055
-612,503	-176,727	-0,020	0,000
-611,488	-160,961	-0,080	0,003
-610,474	149,463	0,035	0,035
-609,459	-104,013	0,022	-0,004
-608,444	-200,000	0,026	0,112
-607,430	-36,575	-0,075	-0,029
-606,415	-200,000	-0,013	-0,167
-605,401	-20,409	0,043	-0,019
-604,386	-200,000	-0,042	-0,136
-603,371	-26,576	0,138	-0,059
-602,357	-11,179	-0,035	-0,017
-601,342	0,232	0,067	0,035
-600,328	118,707	-0,062	-0,056
-599,313	-200,000	-0,007	0,027
-598,298	369,289	0,007	0,010
-597,284	105,854	0,070	0,061
-596,269	-14,863	0,096	-0,045
-595,255	-200,000	-0,004	0,028
-594,240	800,000	-0,055	-0,126
-593,225	671,414	-0,027	-0,051
-592,211	9,623	-0,185	-0,102
-591,196	140,956	0,078	0,076
-590,182	248,908	0,061	0,076
-589,167	90,337	0,031	-0,025
-588,152	93,045	-0,073	-0,060
-587,138	-133,664	-0,149	-0,013
-586,123	-41,348	-0,081	0,030
-585,109	800,000	0,040	-0,110
-584,094	-138,387	0,081	0,006
-583,079	-15,711	-0,082	-0,038
-582,065	-82,306	0,109	-0,026
-581,050	64,450	-0,120	-0,088
-580,036	800,000	-0,034	-0,082
-579,021	-73,531	-0,082	-0,022
-578,006	212,302	0,067	-0,077
-576,992	-43,888	-0,059	0,021
-575,977	166,029	0,034	0,036
-574,963	-15,109	0,073	-0,034
-573,948	-6,724	-0,078	0,039
-572,934	-200,000	-0,004	-0,140
-571,919	53,993	0,060	-0,042
-570,904	-200,000	-0,016	-0,123
-569,890	25,377	0,062	0,037
-568,875	-200,000	0,013	0,117
-567,861	-200,000	0,007	-0,037
-566,846	-200,000	0,014	0,056
-565,831	458,224	-0,013	0,021
-564,817	95,360	-0,090	0,075
-563,802	-200,000	0,010	0,076
-562,788	800,000	-0,041	-0,115
-561,773	-200,000	0,000	-0,020
-560,758	-200,000	-0,007	-0,056
-559,744	80,396	-0,067	-0,053
-558,729	-184,606	-0,121	0,001
-557,715	183,557	-0,071	-0,077
-556,700	-45,126	0,023	0,008
-555,685	76,331	0,057	0,044
-554,671	800,000	0,036	-0,105
-553,656	-30,151	0,074	0,030
-552,642	91,901	0,136	0,112
-551,627	-25,474	-0,090	0,039
-550,612	28,998	-0,105	-0,065
-549,598	87,013	0,178	-0,143
-548,583	116,704	-0,067	0,060
-547,569	-108,074	0,082	0,013
-546,554	-200,000	-0,004	0,019
-545,539	-61,636	0,111	-0,034
-544,525	312,221	-0,068	-0,093
-543,510	340,969	0,011	0,015
-542,496	275,809	-0,101	-0,131
-541,481	335,293	-0,077	-0,109
-540,466	327,425	0,034	0,048
-539,452	800,000	0,029	-0,062
-538,437	-45,161	0,112	0,040
-537,423	800,000	-0,056	-0,113
-536,408	-97,389	0,141	0,027
-535,393	241,108	-0,090	-0,110
-534,379	-126,476	-0,015	0,002
-533,364	-200,000	-0,034	-0,191
-532,350	-200,000	-0,002	-0,102
-531,335	779,382	-0,031	-0,062
-530,321	50,487	-0,028	-0,020
-529,306	17,520	0,049	0,028
-528,291	-55,898	0,024	-0,008
-527,277	126,200	-0,041	-0,037
-526,262	-200,000	-0,006	-0,043
-525,248	42,103	0,030	-0,020
-524,233	473,841	0,090	0,148
-523,218	-200,000	0,012	-0,117
-522,204	-185,548	0,059	0,001
-521,189	-200,000	0,000	0,066
-520,175	-83,790	-0,019	0,004
-519,160	326,921	-0,050	-0,070
-518,145	-200,000	-0,047	0,159
-517,131	-200,000	0,009	0,042
-516,116	381,569	0,035	0,052
-515,102	760,967	-0,053	0,106
-514,087	7,985	-0,030	0,016
-513,072	71,512	0,049	0,037
-512,058	281,861	-0,097	-0,127
-511,043	-82,503	-0,096	0,023
-510,029	108,760	0,079	0,069
-509,014	-65,473	0,108	0,031
-507,999	-75,376	0,030	0,008
-506,985	22,699	0,018	-0,011
-505,970	800,000	-0,052	-0,112
-504,956	-200,000	0,002	0,029
-503,941	800,000	-0,053	-0,150
-502,926	-134,641	0,035	-0,003
-501,912	-72,861	-0,061	-0,016
-500,897	-66,563	-0,076	-0,022
-499,883	79,327	0,039	0,030
-498,868	-200,000	-0,041	-0,139
-497,853	297,584	-0,053	-0,071
-496,839	-38,982	-0,141	-0,054
-495,824	800,000	0,069	0,165
-494,810	74,960	0,041	0,031
-493,795	-200,000	0,016	-0,053
-492,781	-57,162	-0,152	0,048
-491,766	-200,000	0,029	0,101
-490,751	779,242	-0,021	-0,042
-489,737	249,580	-0,037	-0,046
-488,722	546,450	0,034	0,060
-487,708	778,158	-0,025	0,049
-486,693	489,523	-0,058	-0,096
-485,678	145,615	-0,059	0,057
-484,664	431,235	0,038	-0,061
-483,649	-130,026	-0,110	-0,011
-482,635	20,621	0,031	0,018
-481,620	800,000	-0,032	0,085
-480,605	800,000	-0,041	-0,091
-479,591	-112,329	0,114	-0,016
-478,576	197,956	0,029	0,032
-477,562	-0,260	-0,031	-0,016
-476,547	60,384	-0,038	0,027
-475,532	-74,563	-0,095	0,025
-474,518	-200,000	-0,006	-0,062
-473,503	-93,163	-0,051	0,010
-472,489	489,172	-0,016	-0,027
-471,474	-200,000	0,007	0,107
-470,459	-200,000	0,022	0,215
-469,445	118,105	-0,101	-0,091
-468,430	-200,000	0,000	-0,138
-467,416	-128,639	0,058	-0,006
-466,401	22,992	-0,086	0,051
-465,386	-8,237	-0,044	-0,021
-464,372	-2,546	0,153	0,077
-463,357	267,455	-0,056	0,071
-462,343	4,444	-0,164	-0,087
-461,328	52,082	0,102	-0,070
-460,313	-200,000	0,036	0,126
-459,299	-200,000	-0,022	0,073
-458,284	646,538	0,047	0,087
-457,270	-95,889	0,103	0,020
-456,255	-200,000	-0,002	0,054
-455,241	111,186	-0,110	-0,097
-454,226	800,000	-0,031	0,080
-453,211	-41,863	-0,033	-0,012
-452,197	800,000	-0,019	-0,045
-451,182	74,325	0,051	-0,039
-450,168	596,695	-0,005	0,008
-449,153	-72,571	-0,119	0,032
-448,138	-200,000	0,000	0,047
-447,124	-55,311	-0,015	-0,005
-446,109	293,824	-0,093	-0,124
-445,095	170,456	0,109	0,113
-444,080	139,465	0,093	0,089
-443,065	-200,000	0,017	0,101
-442,051	26,103	-0,011	-0,007
-441,036	800,000	-0,062	-0,164
-440,022	-183,458	0,092	0,001
-439,007	-200,000	-0,009	-0,132
-437,992	2,155	0,037	-0,019
-436,978	436,753	0,077	0,122
-435,963	-113,147	-0,151	0,021
-434,949	-77,164	0,122	-0,031
-433,934	443,737	-0,062	0,099
-432,919	168,677	-0,059	0,061
-431,905	146,513	0,112	-0,110
-430,890	261,975	0,113	0,143
-429,876	89,966	-0,105	-0,085
-428,861	64,842	-0,040	0,030
-427,846	-68,981	-0,074	0,021
-426,832	-77,768	-0,082	-0,021
-425,817	-44,367	0,042	-0,015
-424,803	42,688	-0,086	-0,057
-423,788	-200,000	0,013	-0,081
-422,773	-200,000	0,013	0,074
-421,759	-63,298	-0,091	-0,027
-420,744	250,777	0,023	-0,028
-419,730	-200,000	-0,002	0,039
-418,715	-143,453	-0,134	0,009
-417,701	63,917	0,146	-0,107
-416,686	-21,259	0,104	0,046
-415,671	162,836	-0,036	0,037
-414,657	-75,220	0,156	0,040
-413,642	-200,000	-0,004	-0,093
-412,628	-7,783	0,098	-0,048
-411,613	-39,964	-0,100	-0,038
-410,598	448,616	0,025	-0,041
-409,584	143,500	0,025	-0,024
-408,569	366,902	0,033	-0,048
-407,555	279,266	0,057	0,074
-406,540	800,000	-0,011	0,027
-405,525	-200,000	-0,011	-0,058
-404,511	117,688	-0,073	0,065
-403,496	-132,302	-0,143	0,013
-402,482	-200,000	0,023	-0,117
-401,467	-129,307	0,088	0,009
-400,452	239,377	0,094	0,113
-399,438	175,279	0,060	0,063
-398,423	-82,986	-0,121	-0,028
-397,409	-200,000	-0,041	-0,178
-396,394	-29,505	0,078	-0,032
-395,379	800,000	-0,064	-0,164
-394,365	-69,228	-0,044	0,012
-393,350	7,681	0,091	-0,049
-392,336	87,460	-0,082	-0,066
-391,321	-62,849	0,095	0,028
-390,306	29,800	-0,053	-0,033
-389,292	-106,675	-0,257	-0,041
-388,277	425,169	0,050	0,078
-387,263	702,254	-0,059	-0,113
-386,248	-200,000	-0,002	0,133
-385,233	-90,303	0,080	-0,017
-384,219	67,538	0,077	-0,057
-383,204	-86,577	-0,037	-0,008
-382,190	-144,592	0,044	0,003
-381,175	528,386	-0,023	0,040
-380,160	-160,828	0,115	0,004
-379,146	169,881	-0,026	-0,027
-378,131	-57,663	-0,076	0,024
-377,117	800,000	-0,010	-0,025
-376,102	-18,213	-0,021	0,010
-375,088	248,996	-0,061	0,075
-374,073	-200,000	-0,038	-0,131
-373,058	123,682	0,087	-0,079
-372,044	-200,000	0,172	-0,000
-371,029	800,000	-0,021	-0,047
-370,015	-200,000	0,013	-0,148
-369,000	-200,000	0,009	0,070
-367,985	-200,000	-0,002	-0,030
-366,971	770,404	-0,025	0,050
-365,956	102,388	-0,049	0,041
-364,942	-200,000	-0,011	-0,046
-363,927	-200,000	0,009	0,139
-362,912	800,000	0,050	0,123
-361,898	179,855	0,021	0,022
-360,883	-200,000	-0,007	-0,094
-359,869	62,638	0,075	-0,054
-358,854	79,235	0,081	0,063
-357,839	-200,000	-0,006	-0,061
-356,825	56,475	0,075	0,053
-355,810	191,622	-0,050	-0,055
-354,796	800,000	-0,088	0,193
-353,781	800,000	-0,055	-0,126
-352,766	-0,848	0,151	0,077
-351,752	762,613	0,039	0,076
-350,737	-200,000	0,015	0,169
-349,723	256,519	-0,101	0,125
-348,708	800,000	0,030	0,068
-347,693	-16,024	0,102	0,047
-346,679	-200,000	-0,026	0,094
-345,664	800,000	-0,061	-0,125
-344,650	800,000	0,051	-0,106
-343,635	97,495	-0,033	0,027
-342,620	108,271	-0,014	-0,012
-341,606	209,300	-0,043	0,049
-340,591	-200,000	0,001	-0,062
-339,577	-54,991	-0,086	-0,028
-338,562	-200,000	-0,013	-0,056
-337,548	-200,000	-0,002	-0,036
-336,533	95,259	-0,054	-0,045
-335,518	-200,000	-0,008	-0,035
-334,504	800,000	-0,069	0,183
-333,489	-200,000	-0,002	0,064
-332,475	-98,855	-0,064	-0,012
-331,460	121,279	0,085	-0,077
-330,445	-200,000	0,005	0,060
-329,431	-139,783	-0,056	0,004
-328,416	28,496	0,141	0,086
-327,402	-200,000	0,022	0,090
-326,387	21,254	-0,041	-0,024
-325,372	49,886	0,044	0,030
-324,358	761,834	0,011	-0,023
-323,343	-200,000	-0,016	0,090
-322,329	-103,718	0,296	0,050
-321,314	-186,768	-0,078	-0,001
-320,299	-200,000	-0,016	0,062
-319,285	584,852	0,016	-0,029
-318,270	-200,000	-0,041	-0,216
-317,256	533,822	-0,056	0,096
-316,241	800,000	0,086	-0,187
-315,226	800,000	0,023	0,068
-314,212	596,045	0,091	0,163
-313,197	800,000	-0,012	0,036
-312,183	82,569	0,121	0,095
-311,168	-200,000	-0,024	-0,111
-310,153	-127,980	0,113	0,012
-309,139	-21,205	-0,067	0,029
-308,124	-149,533	0,156	0,009
-307,110	36,804	0,105	0,067
-306,095	29,977	0,137	0,084
-305,080	-200,000	-0,012	0,179
-304,066	110,004	-0,071	0,062
-303,051	-116,430	0,064	0,008
-302,037	-200,000	0,016	-0,059
-301,022	5,982	0,040	-0,022
-300,008	800,000	0,025	0,056
-298,993	-5,708	0,114	-0,056
-297,978	67,126	0,025	0,018
-296,964	-145,883	-0,152	-0,010
-295,949	-116,431	-0,058	0,008
-294,935	73,065	-0,057	-0,043
-293,920	-200,000	0,021	0,071
-292,905	-111,872	-0,082	0,012
-291,891	-200,000	0,001	0,056
-290,876	-200,000	-0,025	0,086
-289,862	-200,000	-0,006	0,030
-288,847	-200,000	-0,027	-0,097
-287,832	-200,000	0,014	0,123
-286,818	404,162	-0,028	0,043
-285,803	-200,000	-0,002	0,065
-284,789	199,364	0,051	-0,056
-283,774	145,863	-0,164	0,159
-282,759	-72,184	0,077	-0,020
-281,745	-200,000	-0,008	0,028
-280,730	800,000	-0,010	-0,030
-279,716	6,106	-0,039	-0,021
-278,701	-140,252	-0,099	-0,007
-277,686	800,000	0,008	0,018
-276,672	-87,508	-0,064	-0,014
-275,657	-142,751	0,022	0,002
-274,643	-42,568	-0,079	0,029
-273,628	-200,000	-0,018	-0,084
-272,613	-75,267	0,143	0,036
-271,599	58,059	0,195	-0,138
-270,584	110,108	-0,104	0,090
-269,570	141,376	0,066	0,063
-268,555	31,513	0,103	0,064
-267,540	-200,000	-0,019	0,148
-266,526	405,848	-0,041	-0,063
-265,511	144,595	-0,074	0,072
-264,497	800,000	-0,007	-0,019
-263,482	800,000	0,007	-0,016
-262,467	248,296	0,071	0,087
-261,453	761,714	-0,042	-0,083
-260,438	800,000	-0,026	0,066
-259,424	8,586	0,025	0,014
-258,409	-200,000	-0,002	-0,050
-257,395	114,382	-0,062	-0,055
-256,380	-153,335	0,074	0,004
-255,365	614,385	-0,055	0,101
-254,351	-2,497	0,033	-0,017
-253,336	-41,636	0,065	0,024
-252,322	28,974	-0,183	0,112
-251,307	-200,000	-0,026	-0,145
-250,292	143,351	0,011	0,011
-249,278	405,185	-0,039	0,060
-248,263	6,187	-0,066	0,035
-247,249	743,103	0,021	0,041
-246,234	192,253	-0,103	-0,112
-245,219	-200,000	0,009	-0,041
-244,205	-200,000	0,001	-0,081
-243,190	298,737	-0,028	0,037
-242,176	-125,151	0,080	0,009
-241,161	-200,000	-0,008	0,118
-240,146	-49,196	0,026	0,009
-239,132	-75,546	0,077	-0,020
-238,117	326,941	0,066	-0,091
-237,103	115,713	-0,075	-0,066
-236,088	800,000	0,012	-0,035
-235,073	-200,000	0,012	0,048
-234,059	10,531	0,124	0,068
-233,044	-96,869	-0,065	-0,012
-232,030	633,038	0,023	0,042
-231,015	-132,715	-0,172	-0,016
-230,000	501,778	0,071	-0,118
-228,986	387,830	0,022	0,033
-227,971	52,448	0,067	0,046
-226,957	-87,061	0,121	-0,026
-225,942	550,801	-0,022	-0,039
-224,927	450,255	-0,033	0,053
-223,913	-164,792	-0,109	-0,003
-222,898	-121,044	-0,093	0,011
-221,884	364,734	-0,037	-0,053
-220,869	800,000	-0,020	0,042
-219,855	-147,867	0,126	-0,007
-218,840	451,463	-0,065	0,104
-217,825	-42,885	-0,024	0,009
-216,811	-51,548	-0,057	0,019
-215,796	-200,000	-0,015	-0,171
-214,782	800,000	-0,047	-0,105
-213,767	-200,000	0,021	0,183
-212,752	-119,704	-0,001	0,000
-211,738	-200,000	-0,003	0,107
-210,723	-200,000	0,034	0,127
-209,709	800,000	-0,018	0,037
-208,694	626,213	-0,035	-0,063
-207,679	-18,014	-0,162	0,073
-206,665	-129,292	-0,074	0,007
-205,650	20,850	-0,052	-0,030
-204,636	529,458	0,058	0,099
-203,621	-26,751	0,028	0,012
-202,606	800,000	-0,008	-0,023
-201,592	77,752	0,059	-0,045
-200,577	54,892	-0,058	-0,040
-199,563	-200,000	-0,052	-0,184
-198,548	-52,919	-0,041	0,013
-197,533	135,985	0,103	0,097
-196,519	-146,674	0,008	-0,000
-195,504	800,000	-0,033	0,104
-194,490	-200,000	-0,007	-0,028
-193,475	800,000	-0,051	0,112
-192,460	-200,000	-0,015	-0,078
-191,446	-200,000	0,004	0,138
-190,431	-200,000	0,032	0,137
-189,417	-124,176	-0,045	0,005
-188,402	692,741	-0,038	-0,072
-187,387	-136,077	0,073	-0,006
-186,373	-26,496	-0,034	0,014
-185,358	-25,792	0,100	-0,042
-184,344	141,439	0,091	0,087
-183,329	-109,333	0,056	0,009
-182,315	-200,000	-0,003	0,039
-181,300	-200,000	0,021	0,135
-180,285	-200,000	0,004	-0,084
-179,271	-120,517	0,123	0,015
-178,256	-200,000	0,012	0,040
-177,242	52,601	-0,042	-0,029
-176,227	-200,000	-0,008	-0,040
-175,212	800,000	0,051	0,140
-174,198	504,898	0,067	-0,113
-173,183	-184,266	-0,225	-0,003
-172,169	-82,874	0,049	-0,011
-171,154	63,770	0,131	-0,095
-170,139	-105,648	-0,146	0,023
-169,125	-17,299	0,066	-0,030
-168,110	425,359	-0,012	-0,019
-167,096	800,000	0,016	0,032
-166,081	-200,000	0,012	-0,102
-165,066	115,814	0,018	-0,016
-164,052	770,329	0,027	0,053
-163,037	-50,110	0,072	-0,024
-162,023	-200,000	0,020	0,079
-161,008	800,000	0,026	0,064
-159,993	204,837	0,036	0,040
-158,979	-200,000	0,008	-0,113
-157,964	112,735	0,056	-0,049
-156,950	-30,925	0,125	-0,050
-155,935	-200,000	-0,006	0,056
-154,920	-200,000	0,003	-0,073
-153,906	608,852	-0,047	-0,085
-152,891	-131,496	0,100	0,009
-151,877	-136,151	0,075	0,006
-150,862	-117,961	-0,061	-0,008
-149,847	382,476	0,055	-0,081
-148,833	800,000	-0,019	0,048
-147,818	135,950	-0,097	0,091
-146,804	-200,000	0,003	0,101
-145,789	88,452	-0,024	0,019
-144,775	-200,000	0,007	-0,049
-143,760	-4,710	0,081	-0,040
-142,745	800,000	0,030	-0,065
-141,731	92,773	0,057	-0,046
-140,716	-6,406	-0,166	-0,081
-139,702	-83,947	0,156	0,035
-138,687	-200,000	0,004	0,022
-137,672	102,066	0,059	-0,049
-136,658	-77,313	-0,081	-0,020
-135,643	-133,358	-0,288	-0,026
-134,629	800,000	-0,006	0,019
-133,614	42,429	0,100	0,065
-132,599	28,859	0,121	0,073
-131,585	-63,086	-0,017	0,005
-130,570	-30,406	0,165	-0,067
-129,556	800,000	0,018	-0,048
-128,541	47,107	0,056	-0,038
-127,526	-200,000	-0,007	-0,031
-126,512	-138,975	0,085	-0,006
-125,497	-157,357	0,121	-0,005
-124,483	-187,712	-0,104	0,001
-123,468	-191,656	0,038	0,000
-122,453	-150,410	-0,080	-0,004
-121,439	-200,000	-0,014	-0,050
-120,424	398,508	0,041	-0,062
-119,410	2,000	-0,209	0,108
