DTS Sentinel unit serial number:	SN410029Multiplexer serial number:	ORYXHardware model number:	OX2-SRSoftware version number:	ORYX F/W v4,00 Oryx Data Collector v3.7.2.0data status	okinstallation	B6 Nyhavnadifferential loss correction	single-endedforward channel	channel 2reverse channel	N/Adate	2023/12/10time	08:55:09forward acquisition time	300,00reverse acquisition time	0,00gamma	499,1914k internal	0,3123k external	0,3123temperature offset calibration	1,0000default loss term (dB/km)	0,3820temperature slope calibration	1,0000multiplexer offset coefficient	1,0000multiplexer slope coefficient	1,0000fibre end	0,00T internal ref (°C)	22,56T ext. ref 1 (°C)	6,29T ext. ref 2 (°C)	6,26length (m)	temperature (°C)	Stokes	anti-Stokes-744,400	-44,630	-0,100	0,037
-743,385	38,524	-0,230	0,152
-742,371	480,696	0,096	-0,162
-741,356	327,601	-0,170	0,243
-740,342	-200,000	-0,028	0,175
-739,327	11,767	-0,310	0,177
-738,312	120,996	-0,041	-0,038
-737,298	-140,617	-0,291	-0,022
-736,283	60,141	0,112	0,082
-735,269	145,253	-0,218	0,217
-734,254	-200,000	0,009	0,034
-733,239	-113,908	-0,387	0,055
-732,225	-20,757	0,036	0,016
-731,210	800,000	-0,075	0,167
-730,196	-104,185	0,106	0,018
-729,181	235,157	-0,076	-0,094
-728,167	-200,000	0,014	0,115
-727,152	-129,097	-0,043	-0,004
-726,137	-164,530	-0,149	-0,005
-725,123	-92,957	-0,072	0,015
-724,108	-7,520	-0,165	-0,083
-723,094	159,699	-0,072	-0,075
-722,079	280,831	-0,083	0,111
-721,064	-32,638	0,026	0,011
-720,050	-119,836	-0,150	0,019
-719,035	-200,000	-0,045	0,272
-718,021	163,993	0,068	-0,071
-717,006	-161,656	-0,196	0,007
-715,991	-42,547	-0,130	-0,049
-714,977	53,449	-0,096	-0,069
-713,962	181,998	-0,091	-0,099
-712,948	-200,000	-0,002	0,050
-711,933	800,000	0,053	-0,135
-710,918	179,173	0,051	-0,056
-709,904	-80,054	0,091	0,023
-708,889	-200,000	0,022	0,097
-707,875	800,000	-0,032	-0,072
-706,860	366,928	0,038	-0,057
-705,845	-200,000	0,012	-0,082
-704,831	-200,000	0,030	0,111
-703,816	-96,241	0,079	0,015
-702,802	-91,046	-0,186	0,039
-701,787	800,000	0,014	-0,029
-700,772	-57,583	-0,030	0,010
-699,758	800,000	0,028	0,072
-698,743	-28,588	0,061	0,026
-697,729	24,221	0,056	-0,035
-696,714	-24,284	-0,037	-0,016
-695,699	25,899	0,056	-0,035
-694,685	-200,000	-0,007	0,067
-693,670	800,000	0,051	-0,132
-692,656	137,506	-0,103	-0,100
-691,641	-200,000	-0,007	0,041
-690,627	-200,000	-0,016	0,106
-689,612	86,862	-0,082	-0,067
-688,597	-36,632	0,078	-0,031
-687,583	800,000	-0,040	-0,099
-686,568	-200,000	0,007	-0,220
-685,554	209,779	0,028	-0,033
-684,539	-19,876	-0,050	-0,023
-683,524	295,947	-0,027	-0,038
-682,510	-200,000	0,026	-0,116
-681,495	11,734	-0,111	-0,063
-680,481	326,820	-0,064	-0,091
-679,466	800,000	-0,058	-0,165
-678,451	-200,000	-0,032	-0,157
-677,437	169,931	0,071	-0,076
-676,422	23,311	0,118	0,072
-675,408	-200,000	-0,023	0,122
-674,393	-20,363	-0,021	-0,010
-673,378	-200,000	-0,057	-0,251
-672,364	800,000	-0,028	-0,070
-671,349	100,875	-0,079	-0,069
-670,335	-200,000	-0,018	-0,063
-669,320	-200,000	-0,013	-0,062
-668,305	25,463	-0,079	-0,049
-667,291	-132,765	-0,215	-0,020
-666,276	-101,829	-0,040	-0,007
-665,262	800,000	-0,021	-0,055
-664,247	172,282	-0,069	-0,073
-663,232	40,466	-0,083	-0,056
-662,218	-9,859	0,191	0,094
-661,203	800,000	-0,034	-0,070
-660,189	-106,059	0,169	-0,028
-659,174	273,556	-0,037	-0,048
-658,159	-200,000	-0,035	0,122
-657,145	398,825	-0,020	-0,032
-656,130	800,000	0,009	0,024
-655,116	800,000	-0,015	0,032
-654,101	248,722	-0,092	0,116
-653,086	115,499	-0,077	0,070
-652,072	181,877	-0,031	0,034
-651,057	-200,000	0,013	0,050
-650,043	-123,355	-0,109	0,013
-649,028	-112,012	0,109	-0,016
-648,014	-200,000	0,014	-0,117
-646,999	-104,777	0,045	0,008
-645,984	-200,000	0,002	0,035
-644,970	50,971	-0,066	-0,046
-643,955	58,450	-0,026	0,019
-642,941	688,291	0,064	-0,125
-641,926	-160,572	-0,033	0,001
-640,911	475,792	-0,026	0,043
-639,897	800,000	0,021	0,063
-638,882	333,847	-0,065	0,094
-637,868	62,325	-0,079	-0,059
-636,853	-123,197	-0,088	0,010
-635,838	-72,678	-0,059	0,016
-634,824	-200,000	0,004	0,033
-633,809	-85,163	0,048	-0,011
-632,795	-200,000	-0,018	0,122
-631,780	-75,390	0,120	0,032
-630,765	-200,000	0,011	-0,140
-629,751	-123,530	-0,069	-0,008
-628,736	-62,058	-0,180	0,055
-627,722	800,000	0,042	-0,096
-626,707	-176,900	0,116	-0,002
-625,692	-73,185	0,228	-0,062
-624,678	800,000	-0,040	0,116
-623,663	-200,000	0,005	0,055
-622,649	313,821	-0,079	-0,110
-621,634	800,000	-0,059	-0,166
-620,619	-173,911	-0,105	-0,002
-619,605	558,198	0,006	0,010
-618,590	350,190	-0,033	0,049
-617,576	291,793	0,092	-0,124
-616,561	217,507	-0,024	-0,029
-615,546	800,000	-0,040	0,089
-614,532	-48,841	-0,040	-0,014
-613,517	191,359	-0,031	-0,034
-612,503	96,848	-0,065	-0,055
-611,488	2,749	0,108	0,058
-610,474	-200,000	-0,010	0,138
-609,459	-200,000	0,007	0,039
-608,444	40,279	-0,194	-0,129
-607,430	305,772	0,084	-0,116
-606,415	112,817	-0,028	0,025
-605,401	502,325	0,033	0,057
-604,386	800,000	-0,031	0,075
-603,371	800,000	0,039	0,085
-602,357	-200,000	-0,033	0,171
-601,342	-128,616	-0,047	-0,005
-600,328	99,149	0,090	-0,077
-599,313	37,554	0,048	-0,032
-598,298	-146,044	-0,145	-0,009
-597,284	124,565	0,097	0,091
-596,269	-5,516	-0,055	0,028
-595,255	-137,064	-0,072	0,006
-594,240	800,000	0,035	-0,081
-593,225	-46,654	-0,169	0,061
-592,211	-114,996	-0,094	-0,013
-591,196	800,000	-0,057	0,119
-590,182	112,928	-0,107	-0,096
-589,167	-200,000	0,071	0,237
-588,152	-141,847	0,066	-0,005
-587,138	-126,705	0,009	-0,001
-586,123	-200,000	-0,009	0,062
-585,109	499,110	0,038	0,064
-584,094	257,362	0,022	0,028
-583,079	-75,161	0,069	-0,018
-582,065	-53,168	0,050	-0,017
-581,050	211,048	-0,085	-0,099
-580,036	-2,220	0,054	-0,028
-579,021	67,762	-0,075	-0,056
-578,006	-200,000	-0,008	-0,032
-576,992	-200,000	0,016	-0,087
-575,977	243,507	0,039	0,049
-574,963	800,000	0,056	0,120
-573,948	338,237	0,055	0,079
-572,934	-200,000	0,012	0,074
-571,919	-200,000	0,006	-0,099
-570,904	-200,000	-0,015	0,053
-569,890	-200,000	0,011	-0,045
-568,875	469,987	-0,017	-0,029
-567,861	-140,887	-0,103	0,008
-566,846	338,600	0,082	0,119
-565,831	800,000	0,015	-0,043
-564,817	167,669	0,023	0,025
-563,802	-143,997	-0,111	-0,008
-562,788	800,000	0,043	-0,101
-561,773	79,817	-0,040	0,031
-560,758	-75,428	-0,061	0,016
-559,744	-10,083	0,070	0,034
-558,729	103,767	-0,107	0,093
-557,715	-78,644	0,123	-0,031
-556,700	-200,000	0,034	-0,114
-555,685	800,000	-0,075	-0,175
-554,671	-123,866	0,073	-0,008
-553,656	223,604	0,057	0,068
-552,642	343,198	0,105	0,152
-551,627	16,254	-0,022	0,013
-550,612	195,283	-0,056	0,063
-549,598	-200,000	-0,004	0,018
-548,583	61,655	-0,035	-0,025
-547,569	-34,207	0,034	-0,014
-546,554	800,000	0,022	-0,052
-545,539	-121,130	0,129	0,016
-544,525	-200,000	0,025	0,086
-543,510	-124,888	-0,029	0,003
-542,496	-128,036	-0,047	-0,005
-541,481	-200,000	-0,023	0,084
-540,466	131,988	-0,061	0,058
-539,452	146,908	0,004	0,004
-538,437	-200,000	0,009	0,041
-537,423	71,363	-0,044	0,034
-536,408	-92,699	-0,126	0,026
-535,393	90,824	-0,049	-0,041
-534,379	37,469	-0,084	0,055
-533,364	-66,867	0,100	0,029
-532,350	-200,000	0,003	0,016
-531,335	-200,000	-0,023	-0,093
-530,321	-95,509	0,007	-0,001
-529,306	265,928	-0,031	0,040
-528,291	-76,837	0,100	0,026
-527,277	-200,000	0,001	0,037
-526,262	796,146	-0,034	-0,070
-525,248	-66,632	0,035	0,010
-524,233	-200,000	-0,010	-0,059
-523,218	-200,000	-0,031	-0,102
-522,204	112,472	0,106	-0,095
-521,189	170,793	0,014	0,015
-520,175	247,702	-0,113	-0,142
-519,160	130,609	0,078	-0,074
-518,145	175,580	0,083	0,089
-517,131	113,081	0,033	-0,029
-516,116	409,474	-0,044	-0,069
-515,102	-200,000	0,007	0,074
-514,087	-200,000	-0,017	-0,098
-513,072	-139,543	-0,114	0,009
-512,058	-200,000	-0,006	0,094
-511,043	180,942	0,032	0,035
-510,029	800,000	0,012	0,026
-509,014	567,503	-0,031	-0,055
-507,999	-200,000	0,001	-0,041
-506,985	492,750	0,049	-0,084
-505,970	-200,000	-0,026	-0,247
-504,956	-200,000	-0,024	-0,148
-503,941	638,953	-0,029	0,055
-502,926	231,900	-0,068	0,083
-501,912	-200,000	-0,006	-0,023
-500,897	321,162	0,060	0,084
-499,883	99,302	-0,056	-0,048
-498,868	-26,822	-0,076	-0,033
-497,853	-98,352	0,031	-0,006
-496,839	-75,991	-0,130	0,034
-495,824	-106,345	0,050	-0,008
-494,810	-68,851	0,088	-0,025
-493,795	7,005	-0,056	-0,031
-492,781	431,682	0,049	-0,079
-491,766	-200,000	-0,001	-0,033
-490,751	-35,021	0,015	0,006
-489,737	1,466	0,111	-0,059
-488,722	-141,858	0,169	-0,012
-487,708	45,275	0,087	-0,059
-486,693	800,000	-0,027	-0,067
-485,678	618,398	0,025	0,046
-484,664	-21,690	0,038	-0,017
-483,649	-71,807	0,114	-0,031
-482,635	54,059	0,109	-0,077
-481,620	-200,000	0,021	0,097
-480,605	800,000	-0,041	0,099
-479,591	-7,757	0,075	0,037
-478,576	144,077	-0,091	-0,089
-477,562	202,515	-0,088	-0,100
-476,547	486,599	0,021	0,035
-475,532	800,000	0,036	-0,082
-474,518	146,879	-0,090	0,089
-473,503	800,000	-0,017	-0,049
-472,489	-1,249	0,028	-0,015
-471,474	48,441	-0,029	0,020
-470,459	800,000	0,048	-0,109
-469,445	-200,000	-0,046	-0,167
-468,430	61,024	0,116	-0,085
-467,416	-200,000	-0,013	0,089
-466,401	187,190	-0,038	0,042
-465,386	522,896	0,031	-0,054
-464,372	188,517	-0,041	0,045
-463,357	-47,397	-0,037	-0,013
-462,343	-103,559	0,090	0,015
-461,328	321,581	-0,015	-0,021
-460,313	-200,000	-0,042	-0,199
-459,299	161,870	0,036	-0,037
-458,284	-81,423	0,087	-0,021
-457,270	-196,022	-0,091	-0,000
-456,255	24,013	0,119	0,072
-455,241	132,535	-0,153	-0,145
-454,226	-72,517	-0,091	0,025
-453,211	219,289	-0,081	0,095
-452,197	-200,000	-0,013	0,068
-451,182	-200,000	-0,015	0,132
-450,168	-8,842	0,090	-0,044
-449,153	-28,736	-0,069	-0,029
-448,138	73,614	-0,118	-0,091
-447,124	0,567	-0,046	-0,024
-446,109	447,602	0,017	-0,027
-445,095	-71,603	0,163	0,045
-444,080	-55,534	0,092	-0,030
-443,065	-200,000	0,019	0,132
-442,051	800,000	-0,027	0,073
-441,036	-200,000	0,013	-0,052
-440,022	53,452	-0,137	-0,097
-439,007	800,000	0,015	0,048
-437,992	-172,226	0,085	0,002
-436,978	-200,000	-0,007	0,146
-435,963	231,183	0,076	0,092
-434,949	475,141	-0,009	-0,015
-433,934	129,311	0,071	0,067
-432,919	-49,252	-0,139	-0,049
-431,905	-68,745	-0,039	0,011
-430,890	-165,881	0,090	0,003
-429,876	-200,000	-0,004	-0,046
-428,861	63,877	-0,094	0,070
-427,846	-200,000	-0,011	-0,117
-426,832	800,000	0,038	-0,099
-425,817	-4,968	-0,090	0,045
-424,803	-74,141	0,083	-0,022
-423,788	-119,003	-0,072	-0,009
-422,773	166,267	0,058	0,061
-421,759	62,131	0,113	0,083
-420,744	-200,000	-0,016	-0,130
-419,730	498,393	0,052	-0,089
-418,715	-133,040	0,056	-0,005
-417,701	11,293	0,063	-0,035
-416,686	-200,000	-0,020	-0,122
-415,671	95,591	0,070	-0,059
-414,657	-200,000	0,022	0,100
-413,642	517,676	0,047	-0,081
-412,628	-50,321	-0,086	-0,030
-411,613	97,897	-0,122	-0,103
-410,598	-37,435	0,051	0,020
-409,584	-200,000	0,005	-0,038
-408,569	-127,846	0,097	0,010
-407,555	-117,129	0,111	0,015
-406,540	428,006	0,017	0,027
-405,525	-79,689	-0,107	0,026
-404,511	137,799	-0,104	-0,100
-403,496	-200,000	-0,009	0,045
-402,482	800,000	0,047	-0,133
-401,467	-13,147	0,052	0,025
-400,452	-62,349	-0,079	-0,024
-399,438	78,906	-0,053	0,042
-398,423	540,024	0,030	-0,053
-397,409	800,000	-0,029	-0,060
-396,394	279,208	-0,073	-0,096
-395,379	800,000	-0,016	0,045
-394,365	166,017	0,028	-0,030
-393,350	67,538	-0,069	-0,051
-392,336	4,389	0,075	-0,041
-391,321	-200,000	-0,011	-0,082
-390,306	800,000	-0,011	-0,033
-389,292	-56,027	-0,068	-0,022
-388,277	314,462	-0,069	-0,095
-387,263	-117,077	0,134	0,018
-386,248	-200,000	-0,003	-0,045
-385,233	125,929	-0,079	-0,073
-384,219	-108,735	0,086	0,013
-383,204	-41,912	-0,148	0,055
-382,190	707,445	-0,021	-0,040
-381,175	66,399	0,105	-0,079
-380,160	-87,967	0,077	-0,017
-379,146	596,805	0,081	0,149
-378,131	-19,852	0,064	0,029
-377,117	264,669	-0,099	-0,127
-376,102	-200,000	-0,006	-0,033
-375,088	-200,000	-0,026	-0,101
-374,073	561,253	0,041	-0,072
-373,058	-200,000	-0,002	0,026
-372,044	-9,293	0,058	0,028
-371,029	800,000	-0,061	0,141
-370,015	-200,000	-0,004	0,204
-369,000	96,183	-0,077	0,065
-367,985	-119,471	-0,169	0,021
-366,971	739,559	-0,028	0,056
-365,956	-137,810	0,158	0,013
-364,942	-200,000	0,021	0,111
-363,927	-31,556	-0,019	-0,008
-362,912	-79,855	-0,097	-0,024
-361,898	800,000	-0,057	-0,142
-360,883	104,972	0,124	0,108
-359,869	-55,401	-0,082	-0,027
-358,854	336,085	0,052	0,075
-357,839	-200,000	0,004	0,058
-356,825	-200,000	-0,010	-0,043
-355,810	800,000	0,036	0,084
-354,796	800,000	-0,043	-0,115
-353,781	248,128	-0,051	0,064
-352,766	-65,785	-0,101	0,029
-351,752	800,000	-0,033	-0,072
-350,737	67,989	0,153	0,115
-349,723	564,884	0,113	0,201
-348,708	-13,148	0,115	0,055
-347,693	-200,000	0,006	0,057
-346,679	800,000	-0,030	-0,068
-345,664	57,048	-0,062	-0,045
-344,650	-200,000	0,041	-0,197
-343,635	-25,588	0,178	-0,077
-342,620	371,775	-0,050	0,074
-341,606	270,521	0,064	-0,082
-340,591	530,608	0,015	-0,027
-339,577	-200,000	0,003	0,061
-338,562	-200,000	-0,008	-0,048
-337,548	156,717	-0,090	0,091
-336,533	185,092	0,024	0,026
-335,518	800,000	0,030	0,095
-334,504	-200,000	-0,008	0,042
-333,489	38,287	0,086	-0,056
-332,475	-200,000	-0,029	-0,112
-331,460	-96,499	-0,082	-0,016
-330,445	-59,352	0,030	0,010
-329,431	-176,140	-0,047	-0,001
-328,416	397,522	0,059	0,091
-327,402	289,242	-0,087	-0,116
-326,387	-116,142	0,035	0,005
-325,372	-137,076	-0,128	-0,011
-324,358	-93,316	-0,140	-0,028
-323,343	275,888	-0,053	-0,069
-322,329	-133,587	0,124	0,011
-321,314	-200,000	0,014	0,188
-320,299	-126,458	-0,129	0,014
-319,285	174,443	-0,083	0,088
-318,270	320,346	-0,108	0,151
-317,256	-152,723	-0,066	-0,003
-316,241	-48,064	0,109	-0,039
-315,226	-109,376	-0,117	0,018
-314,212	-200,000	0,000	-0,005
-313,197	118,935	0,054	-0,049
-312,183	530,648	0,048	-0,084
-311,168	-200,000	-0,019	0,134
-310,153	-116,231	0,040	0,005
-309,139	84,617	-0,058	-0,047
-308,124	0,289	0,157	0,082
-307,110	-112,174	-0,121	-0,018
-306,095	69,218	0,126	0,095
-305,080	-200,000	-0,007	0,100
-304,066	5,433	-0,038	0,021
-303,051	798,568	0,087	-0,177
-302,037	105,369	-0,056	0,048
-301,022	35,710	-0,053	0,034
-300,008	-200,000	0,008	0,097
-298,993	-85,608	-0,054	-0,012
-297,978	800,000	-0,063	0,135
-296,964	800,000	-0,060	0,172
-295,949	327,330	0,047	-0,066
-294,935	22,072	0,078	-0,047
-293,920	-183,199	-0,049	-0,001
-292,905	-200,000	-0,006	0,032
-291,891	372,096	0,039	0,058
-290,876	80,603	0,087	-0,068
-289,862	69,965	-0,057	0,043
-288,847	-19,573	-0,028	0,013
-287,832	-129,770	-0,142	-0,014
-286,818	800,000	0,048	-0,141
-285,803	699,987	-0,054	-0,105
-284,789	-200,000	-0,047	0,197
-283,774	-93,085	0,145	-0,029
-282,759	-118,989	0,095	0,012
-281,745	-51,866	-0,088	0,030
-280,730	68,768	-0,060	0,045
-279,716	800,000	0,017	-0,039
-278,701	400,489	0,048	0,074
-277,686	-125,563	0,083	0,009
-276,672	39,552	-0,015	-0,010
-275,657	-200,000	-0,012	0,072
-274,643	100,912	-0,041	0,035
-273,628	-199,370	-0,195	-0,001
-272,613	3,519	0,036	-0,019
-271,599	-108,756	0,029	0,005
-270,584	84,056	-0,119	0,095
-269,570	-200,000	-0,002	0,051
-268,555	800,000	0,012	0,027
-267,540	800,000	0,024	-0,064
-266,526	-130,121	-0,176	0,017
-265,511	-200,000	0,026	0,104
-264,497	-151,774	0,140	0,007
-263,482	-141,213	0,118	0,009
-262,467	800,000	-0,014	0,036
-261,453	102,410	0,085	0,073
-260,438	45,800	0,035	-0,023
-259,424	67,127	0,086	-0,064
-258,409	-32,535	-0,078	-0,032
-257,395	-110,329	0,167	0,025
-256,380	322,618	0,032	-0,045
-255,365	790,643	0,032	-0,064
-254,351	397,817	0,053	0,081
-253,336	-24,293	0,072	0,031
-252,322	800,000	0,064	-0,131
-251,307	66,406	0,047	0,035
-250,292	-148,564	0,105	-0,006
-249,278	159,289	-0,077	0,078
-248,263	-125,384	-0,010	0,001
-247,249	-200,000	0,012	0,105
-246,234	-200,000	-0,017	0,068
-245,219	-22,146	-0,036	0,016
-244,205	277,203	0,060	-0,078
-243,190	800,000	-0,014	0,033
-242,176	162,569	-0,075	-0,077
-241,161	276,766	0,025	0,033
-240,146	142,721	0,050	-0,048
-239,132	-200,000	0,010	0,077
-238,117	-126,917	-0,125	-0,013
-237,103	-24,629	-0,130	0,056
-236,088	-200,000	0,012	-0,045
-235,073	47,870	0,071	-0,049
-234,059	-85,998	-0,127	0,028
-233,044	15,541	0,092	-0,053
-232,030	226,165	0,054	-0,064
-231,015	485,584	-0,095	-0,158
-230,000	800,000	0,044	0,100
-228,986	800,000	-0,042	0,104
-227,971	222,736	0,100	-0,118
-226,957	-94,661	0,072	-0,014
-225,942	-137,153	0,049	-0,004
-224,927	15,542	-0,067	-0,038
-223,913	-50,516	0,072	-0,025
-222,898	-200,000	-0,004	-0,049
-221,884	386,862	0,093	-0,141
-220,869	800,000	0,042	-0,099
-219,855	64,677	-0,071	0,052
-218,840	800,000	0,006	0,013
-217,825	0,185	-0,098	0,051
-216,811	633,650	-0,049	0,091
-215,796	-200,000	-0,004	0,024
-214,782	18,049	-0,071	0,041
-213,767	-10,408	-0,068	-0,033
-212,752	-200,000	0,002	0,044
-211,738	-43,361	0,062	-0,023
-210,723	175,142	-0,024	-0,026
-209,709	-119,818	0,056	0,007
-208,694	483,091	0,142	-0,236
-207,679	360,958	-0,019	0,028
-206,665	-200,000	-0,001	-0,044
-205,650	483,393	0,114	0,191
-204,636	-106,741	0,128	-0,021
-203,621	-123,391	0,120	-0,014
-202,606	-91,948	-0,167	0,034
-201,592	541,365	0,028	0,049
-200,577	446,644	-0,053	-0,085
-199,563	-200,000	0,025	0,117
-198,548	285,363	0,112	0,148
-197,533	-200,000	0,002	0,130
-196,519	0,861	0,062	0,032
-195,504	-118,504	0,058	-0,007
-194,490	142,497	-0,029	0,028
-193,475	-27,470	-0,118	0,050
-192,460	800,000	-0,048	0,102
-191,446	197,081	0,087	0,097
-190,431	-200,000	0,009	0,037
-189,417	57,192	-0,077	-0,055
-188,402	800,000	0,026	-0,076
-187,387	145,337	-0,106	-0,104
-186,373	-119,074	-0,111	0,014
-185,358	800,000	-0,064	0,137
-184,344	19,122	0,081	-0,047
-183,329	-178,302	0,083	0,001
-182,315	800,000	0,019	-0,045
-181,300	-200,000	-0,007	-0,084
-180,285	275,123	0,094	-0,121
-179,271	-124,821	0,080	0,009
-178,256	56,678	-0,025	0,018
-177,242	376,197	-0,080	-0,119
-176,227	-200,000	-0,015	0,162
-175,212	-200,000	-0,015	0,111
-174,198	104,404	-0,072	0,062
-173,183	359,037	-0,105	-0,154
-172,169	-5,464	-0,126	-0,063
-171,154	99,977	0,023	-0,019
-170,139	-200,000	0,016	-0,054
-169,125	-103,359	0,073	-0,012
-168,110	275,419	0,106	-0,137
-167,096	188,621	-0,088	0,096
-166,081	346,674	-0,034	-0,049
-165,066	800,000	0,013	0,038
-164,052	72,728	-0,082	0,063
-163,037	418,217	-0,073	0,114
-162,023	800,000	0,071	0,195
-161,008	800,000	0,021	-0,053
-159,993	123,687	0,029	-0,026
-158,979	-200,000	0,004	-0,054
-157,964	15,304	0,039	-0,022
-156,950	-200,000	0,006	0,080
-155,935	-200,000	-0,005	0,083
-154,920	800,000	-0,048	-0,112
-153,906	-200,000	0,002	-0,034
-152,891	-96,561	0,030	0,006
-151,877	-59,899	0,124	-0,039
-150,862	646,495	0,025	-0,046
-149,847	800,000	0,013	0,036
-148,833	3,464	-0,103	-0,055
-147,818	-134,521	-0,096	-0,008
-146,804	143,240	0,030	0,029
-145,789	-200,000	-0,017	0,110
-144,775	250,440	-0,030	0,037
-143,760	124,460	-0,024	-0,022
-142,745	88,802	-0,096	0,078
-141,731	-200,000	0,016	0,122
-140,716	28,716	0,024	-0,014
-139,702	90,602	0,033	-0,027
-138,687	702,464	0,051	0,099
-137,672	3,246	-0,109	0,058
-136,658	-200,000	-0,026	-0,102
-135,643	800,000	0,036	0,076
-134,629	-200,000	0,014	0,071
-133,614	608,013	0,070	0,127
-132,599	-200,000	-0,012	0,121
-131,585	-153,687	-0,118	-0,006
-130,570	121,983	-0,061	0,056
-129,556	-200,000	-0,005	0,126
-128,541	-27,436	-0,085	-0,036
-127,526	-200,000	0,015	-0,061
-126,512	-75,850	0,141	0,036
-125,497	-181,187	0,178	0,003
-124,483	-200,000	0,044	0,200
-123,468	800,000	-0,052	0,119
-122,453	-200,000	0,025	-0,111
-121,439	800,000	0,033	-0,085
-120,424	468,873	-0,093	-0,152
-119,410	269,582	-0,071	0,091
