DTS Sentinel unit serial number:	SN410029Multiplexer serial number:	ORYXHardware model number:	OX2-SRSoftware version number:	ORYX F/W v4,00 Oryx Data Collector v3.7.2.0data status	okinstallation	B6 Nyhavnadifferential loss correction	single-endedforward channel	channel 2reverse channel	N/Adate	2023/12/08time	19:10:08forward acquisition time	300,00reverse acquisition time	0,00gamma	499,1914k internal	0,3158k external	0,3158temperature offset calibration	1,0000default loss term (dB/km)	0,3820temperature slope calibration	1,0000multiplexer offset coefficient	1,0000multiplexer slope coefficient	1,0000fibre end	0,00T internal ref (°C)	15,25T ext. ref 1 (°C)	-1,40T ext. ref 2 (°C)	-1,40length (m)	temperature (°C)	Stokes	anti-Stokes-744,400	-109,030	0,143	0,022
-743,385	-128,635	-0,258	-0,027
-742,371	-21,552	0,155	0,069
-741,356	-200,000	-0,248	0,000
-740,342	-138,573	0,195	0,016
-739,327	-169,100	-0,354	-0,010
-738,312	-152,756	0,067	0,003
-737,298	68,069	-0,294	-0,222
-736,283	178,622	0,142	0,153
-735,269	-119,982	-0,371	0,046
-734,254	800,000	0,041	0,112
-733,239	-43,622	-0,481	-0,178
-732,225	-93,822	0,266	0,054
-731,210	800,000	0,021	0,065
-730,196	179,401	-0,069	-0,074
-729,181	-200,000	0,026	-0,084
-728,167	469,322	0,079	-0,131
-727,152	800,000	-0,031	-0,066
-726,137	-200,000	0,005	-0,041
-725,123	14,925	-0,099	-0,057
-724,108	-200,000	-0,011	-0,096
-723,094	-107,105	-0,083	-0,013
-722,079	-200,000	-0,006	-0,059
-721,064	-28,255	-0,063	-0,027
-720,050	-153,529	0,088	-0,004
-719,035	-3,034	-0,169	-0,086
-718,021	-79,924	0,021	-0,005
-717,006	-15,492	-0,045	-0,021
-715,991	-53,302	-0,128	-0,043
-714,977	-200,000	0,018	-0,255
-713,962	-118,146	0,006	0,001
-712,948	232,412	0,008	-0,010
-711,933	660,513	0,016	-0,030
-710,918	124,215	-0,031	-0,029
-709,904	762,102	-0,014	0,027
-708,889	-200,000	-0,003	-0,012
-707,875	60,511	-0,121	-0,088
-706,860	-147,234	0,051	-0,003
-705,845	-149,753	0,112	-0,006
-704,831	163,885	0,048	0,050
-703,816	-200,000	0,016	-0,132
-702,802	800,000	-0,031	0,079
-701,787	-13,548	-0,077	-0,036
-700,772	800,000	0,048	-0,148
-699,758	-63,893	0,052	0,016
-698,743	-8,462	0,065	0,032
-697,729	-195,963	0,168	-0,001
-696,714	33,496	-0,046	0,029
-695,699	800,000	0,064	-0,196
-694,685	555,553	0,063	-0,111
-693,670	-68,183	-0,075	-0,021
-692,656	-58,678	-0,110	-0,035
-691,641	-200,000	-0,025	0,137
-690,627	-112,176	0,145	-0,021
-689,612	2,514	-0,026	0,014
-688,597	311,917	0,052	-0,073
-687,583	205,163	-0,081	-0,093
-686,568	-73,674	-0,080	-0,021
-685,554	134,065	-0,079	-0,075
-684,539	-84,447	-0,119	-0,027
-683,524	-99,290	0,093	-0,017
-682,510	-138,064	0,122	0,010
-681,495	526,432	0,012	0,021
-680,481	800,000	-0,081	-0,225
-679,466	126,352	-0,078	-0,073
-678,451	800,000	-0,082	-0,224
-677,437	800,000	-0,047	0,144
-676,422	489,036	0,083	-0,141
-675,408	-45,081	0,072	-0,026
-674,393	647,509	-0,052	-0,098
-673,378	-20,764	-0,169	-0,076
-672,364	-45,641	0,046	-0,017
-671,349	800,000	0,025	-0,056
-670,335	-148,291	0,042	-0,002
-669,320	-200,000	0,012	0,049
-668,305	-200,000	0,008	-0,039
-667,291	359,374	0,106	-0,156
-666,276	-200,000	-0,007	0,061
-665,262	-200,000	-0,050	-0,193
-664,247	-200,000	0,024	-0,116
-663,232	273,925	0,032	0,042
-662,218	-200,000	-0,023	-0,160
-661,203	-200,000	0,019	0,075
-660,189	-200,000	-0,009	0,032
-659,174	445,749	-0,046	-0,075
-658,159	800,000	-0,011	-0,037
-657,145	694,138	-0,026	0,050
-656,130	34,250	-0,046	-0,030
-655,116	800,000	-0,038	0,107
-654,101	150,524	-0,028	0,028
-653,086	-200,000	-0,008	0,056
-652,072	285,908	-0,095	-0,126
-651,057	-142,204	-0,128	-0,009
-650,043	334,287	-0,071	-0,101
-649,028	-200,000	-0,022	0,110
-648,014	-200,000	0,024	0,161
-646,999	292,368	0,111	-0,149
-645,984	77,318	0,030	-0,024
-644,970	-112,439	-0,166	-0,024
-643,955	71,936	-0,063	0,048
-642,941	-70,036	-0,088	-0,025
-641,926	-38,574	-0,060	0,023
-640,911	-66,703	0,021	-0,006
-639,897	12,864	0,091	0,052
-638,882	24,137	0,064	0,039
-637,868	129,954	-0,026	-0,024
-636,853	800,000	-0,048	-0,112
-635,838	18,962	-0,095	-0,056
-634,824	800,000	-0,043	-0,100
-633,809	-21,043	0,142	0,064
-632,795	-200,000	0,002	0,183
-631,780	-3,301	0,075	0,038
-630,765	-24,591	-0,190	-0,083
-629,751	182,282	0,096	-0,103
-628,736	-34,364	-0,015	0,006
-627,722	800,000	-0,027	-0,071
-626,707	-147,022	-0,126	0,008
-625,692	-98,712	-0,053	0,010
-624,678	-200,000	0,017	0,063
-623,663	-85,988	0,026	0,006
-622,649	93,180	-0,115	0,095
-621,634	-200,000	-0,013	-0,105
-620,619	-200,000	0,003	-0,107
-619,605	800,000	0,022	0,046
-618,590	-200,000	-0,011	-0,136
-617,576	-200,000	-0,006	0,066
-616,561	800,000	-0,056	-0,131
-615,546	1,482	-0,070	-0,037
-614,532	-200,000	0,002	-0,073
-613,517	326,273	-0,028	-0,040
-612,503	30,000	-0,091	-0,057
-611,488	204,869	0,056	0,064
-610,474	800,000	-0,054	-0,135
-609,459	83,234	-0,040	-0,032
-608,444	236,594	-0,099	-0,120
-607,430	-200,000	-0,041	-0,178
-606,415	104,637	0,046	0,040
-605,401	-150,447	0,140	0,008
-604,386	-82,723	0,060	0,014
-603,371	107,166	-0,152	-0,133
-602,357	100,762	0,039	0,033
-601,342	-200,000	0,004	0,017
-600,328	144,823	0,021	0,020
-599,313	800,000	0,027	0,067
-598,298	-63,898	0,107	-0,032
-597,284	225,388	0,011	0,013
-596,269	-200,000	-0,011	0,053
-595,255	-200,000	0,009	0,037
-594,240	283,532	-0,097	-0,128
-593,225	-6,297	-0,085	-0,042
-592,211	-100,934	-0,057	-0,010
-591,196	1,029	0,129	-0,068
-590,182	-9,930	0,087	-0,042
-589,167	-200,000	0,003	0,068
-588,152	-124,510	-0,039	-0,004
-587,138	125,470	-0,051	-0,047
-586,123	-5,615	-0,132	-0,066
-585,109	368,473	0,061	-0,090
-584,094	114,729	0,104	0,093
-583,079	252,599	0,053	0,066
-582,065	-77,347	-0,004	-0,001
-581,050	2,146	0,101	0,053
-580,036	253,250	0,028	-0,035
-579,021	-17,262	-0,136	-0,063
-578,006	332,707	-0,044	-0,063
-576,992	28,652	-0,058	-0,036
-575,977	-33,551	0,147	0,059
-574,963	-17,169	-0,060	-0,028
-573,948	-104,673	0,084	0,014
-572,934	-200,000	-0,021	0,131
-571,919	748,400	-0,033	0,066
-570,904	337,357	0,108	0,153
-569,890	-42,476	-0,157	0,058
-568,875	300,748	-0,039	0,053
-567,861	95,562	0,058	-0,048
-566,846	-200,000	-0,006	0,058
-565,831	800,000	-0,046	0,114
-564,817	-95,794	-0,095	-0,018
-563,802	-28,375	-0,074	0,031
-562,788	-17,587	-0,063	0,029
-561,773	-200,000	0,001	-0,054
-560,758	69,079	0,092	0,069
-559,744	369,329	0,113	0,168
-558,729	-152,627	0,055	-0,003
-557,715	-200,000	0,007	-0,075
-556,700	-200,000	-0,005	-0,067
-555,685	82,832	-0,029	0,023
-554,671	-96,185	-0,123	0,024
-553,656	-105,189	0,067	-0,011
-552,642	236,628	0,035	0,042
-551,627	34,271	-0,082	-0,052
-550,612	-130,488	-0,031	-0,003
-549,598	-200,000	-0,000	-0,065
-548,583	-46,486	0,069	-0,025
-547,569	69,284	0,056	-0,042
-546,554	-200,000	0,012	0,122
-545,539	104,467	-0,104	0,090
-544,525	-200,000	-0,009	-0,037
-543,510	206,021	0,051	-0,058
-542,496	33,993	0,057	-0,036
-541,481	-106,650	-0,129	-0,021
-540,466	740,290	0,029	-0,057
-539,452	43,928	0,062	-0,041
-538,437	409,160	0,027	-0,043
-537,423	-200,000	0,004	0,053
-536,408	-200,000	0,019	0,184
-535,393	20,822	-0,064	-0,038
-534,379	324,548	-0,115	-0,161
-533,364	-200,000	0,034	-0,167
-532,350	-200,000	0,016	-0,085
-531,335	41,861	0,038	-0,025
-530,321	-162,655	0,107	-0,004
-529,306	-200,000	-0,031	0,202
-528,291	-200,000	-0,006	0,019
-527,277	-46,451	0,042	-0,015
-526,262	-142,550	-0,037	-0,003
-525,248	182,899	-0,023	-0,024
-524,233	-192,645	0,116	0,001
-523,218	-200,000	0,024	0,182
-522,204	-5,209	0,088	-0,044
-521,189	20,931	-0,064	0,038
-520,175	800,000	0,029	-0,071
-519,160	168,029	-0,050	-0,052
-518,145	-113,511	0,161	0,023
-517,131	-52,198	-0,075	-0,025
-516,116	-170,553	0,087	0,002
-515,102	-200,000	0,016	0,057
-514,087	371,859	-0,068	-0,101
-513,072	600,620	0,039	-0,071
-512,058	179,067	-0,114	-0,122
-511,043	20,350	0,114	-0,067
-510,029	184,545	0,039	0,043
-509,014	73,311	0,075	-0,058
-507,999	-20,789	-0,137	0,061
-506,985	-136,020	-0,092	-0,008
-505,970	-136,458	0,028	-0,002
-504,956	-200,000	0,001	0,108
-503,941	28,202	0,020	0,013
-502,926	92,306	0,044	-0,037
-501,912	79,702	-0,050	-0,039
-500,897	439,469	-0,026	-0,042
-499,883	-200,000	-0,005	-0,077
-498,868	-200,000	-0,012	-0,164
-497,853	674,067	-0,034	-0,066
-496,839	-123,402	0,066	0,008
-495,824	-200,000	0,008	-0,113
-494,810	569,885	-0,057	0,101
-493,795	20,543	0,185	0,109
-492,781	-200,000	0,017	-0,069
-491,766	768,866	-0,024	0,048
-490,751	-40,190	-0,029	-0,011
-489,737	-200,000	-0,004	-0,028
-488,722	-60,034	0,106	-0,033
-487,708	-200,000	0,021	0,121
-486,693	114,001	-0,045	0,040
-485,678	363,993	-0,008	-0,012
-484,664	146,963	0,144	-0,142
-483,649	-76,475	0,131	-0,033
-482,635	75,732	-0,091	-0,070
-481,620	199,262	0,054	0,060
-480,605	-137,888	0,235	0,019
-479,591	21,663	0,011	-0,007
-478,576	800,000	-0,032	-0,100
-477,562	-46,914	0,023	0,008
-476,547	-105,138	-0,049	0,008
-475,532	409,756	-0,052	0,080
-474,518	14,451	0,130	0,074
-473,503	-85,772	-0,142	0,032
-472,489	800,000	0,011	-0,025
-471,474	159,071	-0,063	-0,063
-470,459	70,620	0,146	-0,110
-469,445	210,250	-0,042	-0,049
-468,430	-35,829	0,053	0,021
-467,416	-0,960	-0,051	0,026
-466,401	-113,942	0,049	0,007
-465,386	-79,334	0,086	-0,021
-464,372	-200,000	0,001	0,122
-463,357	-6,039	-0,126	-0,063
-462,343	-10,473	-0,121	0,058
-461,328	-200,000	0,009	0,038
-460,313	-200,000	0,015	0,065
-459,299	-200,000	-0,029	0,121
-458,284	14,411	0,035	-0,020
-457,270	800,000	0,039	0,104
-456,255	-200,000	-0,016	0,094
-455,241	800,000	-0,062	-0,148
-454,226	-100,293	-0,068	0,012
-453,211	168,727	0,099	0,102
-452,197	164,729	-0,048	0,049
-451,182	-200,000	-0,016	-0,080
-450,168	380,055	-0,023	-0,035
-449,153	-200,000	0,012	0,063
-448,138	800,000	-0,035	0,087
-447,124	412,486	-0,034	0,053
-446,109	-200,000	0,037	0,153
-445,095	-107,200	0,045	0,007
-444,080	-133,291	0,011	-0,001
-443,065	-200,000	-0,014	-0,061
-442,051	316,017	0,099	0,137
-441,036	800,000	0,026	0,074
-440,022	-17,475	-0,063	0,029
-439,007	-173,518	0,066	0,001
-437,992	800,000	-0,047	0,106
-436,978	63,150	-0,060	-0,043
-435,963	75,165	0,081	-0,062
-434,949	-143,830	-0,061	-0,004
-433,934	122,555	-0,071	-0,064
-432,919	800,000	0,022	-0,046
-431,905	-200,000	-0,001	0,018
-430,890	-174,837	-0,097	0,002
-429,876	197,352	-0,031	-0,035
-428,861	-200,000	-0,018	-0,126
-427,846	504,131	0,035	-0,059
-426,832	-200,000	0,024	-0,156
-425,817	-23,046	-0,115	-0,050
-424,803	-200,000	-0,003	-0,108
-423,788	800,000	-0,051	0,122
-422,773	-33,265	0,054	0,022
-421,759	627,121	0,009	-0,017
-420,744	800,000	-0,018	0,052
-419,730	431,723	0,079	-0,125
-418,715	21,354	-0,125	-0,074
-417,701	-97,458	-0,133	-0,025
-416,686	356,181	0,043	0,062
-415,671	45,488	-0,027	0,018
-414,657	-200,000	-0,010	0,147
-413,642	800,000	-0,020	0,052
-412,628	292,464	-0,016	-0,022
-411,613	-108,786	0,044	-0,007
-410,598	-200,000	-0,028	0,152
-409,584	40,086	0,126	0,082
-408,569	-122,967	-0,197	-0,023
-407,555	-200,000	0,040	-0,130
-406,540	-41,921	-0,045	-0,017
-405,525	800,000	0,022	0,047
-404,511	-115,765	-0,131	-0,018
-403,496	-41,714	-0,064	-0,024
-402,482	-149,818	0,133	0,007
-401,467	274,983	-0,094	0,121
-400,452	145,222	0,114	0,111
-399,438	102,024	0,038	-0,032
-398,423	0,991	-0,069	-0,036
-397,409	125,189	-0,042	-0,039
-396,394	-66,924	-0,119	0,034
-395,379	398,164	0,023	-0,034
-394,365	800,000	-0,013	0,033
-393,350	421,054	-0,079	0,123
-392,336	800,000	0,034	0,085
-391,321	16,470	-0,117	-0,067
-390,306	-181,823	-0,191	0,003
-389,292	800,000	0,021	0,066
-388,277	-200,000	0,007	-0,148
-387,263	-34,890	0,113	0,045
-386,248	-38,481	0,121	0,046
-385,233	-200,000	-0,013	0,074
-384,219	-200,000	0,005	0,095
-383,204	-32,031	-0,107	-0,043
-382,190	-64,785	0,141	0,041
-381,175	314,126	-0,119	-0,164
-380,160	-200,000	-0,038	0,142
-379,146	232,214	-0,053	0,063
-378,131	588,691	0,049	-0,089
-377,117	250,123	-0,097	-0,120
-376,102	272,077	-0,059	-0,075
-375,088	559,566	0,024	-0,041
-374,073	-97,811	0,046	0,009
-373,058	209,790	-0,028	0,032
-372,044	14,410	-0,109	-0,062
-371,029	-200,000	-0,001	0,117
-370,015	341,278	-0,028	0,039
-369,000	-52,861	-0,042	0,014
-367,985	-200,000	0,001	-0,128
-366,971	709,242	0,009	-0,017
-365,956	-67,804	0,059	0,017
-364,942	186,446	0,075	0,081
-363,927	800,000	0,043	0,093
-362,912	-200,000	0,012	0,199
-361,898	112,437	0,061	-0,054
-360,883	205,050	-0,090	-0,102
-359,869	-200,000	0,001	-0,024
-358,854	176,949	0,079	0,084
-357,839	-200,000	0,016	0,105
-356,825	39,547	0,016	0,010
-355,810	-200,000	-0,015	0,087
-354,796	-200,000	-0,009	-0,042
-353,781	238,222	0,081	-0,098
-352,766	-117,896	0,096	-0,012
-351,752	800,000	-0,050	-0,104
-350,737	800,000	0,039	-0,103
-349,723	245,027	-0,088	-0,107
-348,708	-35,702	-0,066	-0,026
-347,693	255,527	0,089	0,110
-346,679	411,775	-0,053	-0,082
-345,664	-200,000	0,010	-0,061
-344,650	-200,000	0,004	-0,061
-343,635	442,515	0,099	0,158
-342,620	101,740	-0,032	-0,027
-341,606	261,266	0,018	-0,022
-340,591	112,367	-0,055	-0,048
-339,577	381,269	0,101	-0,152
-338,562	-200,000	-0,004	-0,046
-337,548	-44,500	-0,075	-0,027
-336,533	-200,000	0,027	-0,110
-335,518	-200,000	-0,003	0,095
-334,504	11,649	0,092	0,051
-333,489	57,524	-0,058	0,041
-332,475	-200,000	-0,014	-0,107
-331,460	800,000	-0,036	0,092
-330,445	800,000	-0,021	-0,047
-329,431	-90,315	-0,101	-0,021
-328,416	48,559	0,051	-0,034
-327,402	-200,000	0,008	0,097
-326,387	-200,000	0,004	0,024
-325,372	-81,681	-0,170	0,040
-324,358	-17,271	0,061	0,028
-323,343	-200,000	-0,031	-0,148
-322,329	-89,317	0,125	0,026
-321,314	134,066	-0,103	-0,097
-320,299	-200,000	0,001	0,097
-319,285	800,000	-0,039	0,105
-318,270	800,000	0,029	-0,059
-317,256	-200,000	-0,010	-0,125
-316,241	-117,692	0,134	-0,017
-315,226	800,000	0,065	0,163
-314,212	-134,796	0,044	0,004
-313,197	598,931	-0,013	0,023
-312,183	113,439	0,019	0,016
-311,168	800,000	-0,036	-0,103
-310,153	800,000	0,029	-0,068
-309,139	183,703	0,036	-0,039
-308,124	63,422	0,049	-0,036
-307,110	157,431	0,069	0,070
-306,095	29,429	-0,041	-0,025
-305,080	-14,857	-0,080	-0,037
-304,066	42,456	-0,110	-0,072
-303,051	271,412	-0,047	0,060
-302,037	298,297	0,143	-0,190
-301,022	115,211	-0,006	0,005
-300,008	-39,857	0,040	0,015
-298,993	-200,000	0,011	0,036
-297,978	493,514	0,056	-0,093
-296,964	-200,000	0,051	-0,174
-295,949	47,291	-0,049	-0,033
-294,935	-77,798	-0,077	-0,019
-293,920	-9,880	0,084	0,040
-292,905	-200,000	0,033	0,139
-291,891	-200,000	0,021	0,068
-290,876	800,000	-0,018	-0,058
-289,862	13,348	0,048	-0,027
-288,847	277,048	0,041	0,052
-287,832	-129,703	0,081	-0,008
-286,818	-78,546	0,148	0,036
-285,803	-200,000	0,003	0,022
-284,789	-200,000	0,037	-0,125
-283,774	55,308	0,034	0,024
-282,759	18,403	0,016	0,010
-281,745	-180,298	-0,123	-0,002
-280,730	-200,000	-0,014	-0,081
-279,716	147,074	0,067	0,065
-278,701	-81,178	0,078	-0,019
-277,686	-200,000	0,035	-0,131
-276,672	800,000	0,024	0,058
-275,657	284,594	0,016	0,021
-274,643	800,000	0,031	-0,091
-273,628	-86,507	-0,052	-0,012
-272,613	97,309	0,043	0,036
-271,599	174,357	0,115	0,120
-270,584	-75,039	0,126	0,033
-269,570	129,870	0,058	0,054
-268,555	-26,885	-0,099	-0,042
-267,540	283,804	0,051	-0,067
-266,526	283,173	0,017	0,022
-265,511	-8,064	-0,042	0,020
-264,497	-114,687	0,054	-0,007
-263,482	800,000	-0,037	0,077
-262,467	28,380	0,024	-0,014
-261,453	111,240	-0,069	0,060
-260,438	-41,366	-0,096	-0,036
-259,424	-98,113	-0,169	-0,031
-258,409	-200,000	0,026	-0,144
-257,395	-10,064	-0,042	-0,020
-256,380	122,196	0,066	0,059
-255,365	58,919	0,132	0,094
-254,351	-39,091	-0,115	-0,044
-253,336	415,623	-0,011	-0,017
-252,322	-56,944	-0,086	0,027
-251,307	2,169	0,049	-0,025
-250,292	100,567	-0,089	0,075
-249,278	91,844	0,091	-0,074
-248,263	-200,000	-0,031	0,103
-247,249	7,903	-0,199	0,108
-246,234	-108,186	-0,121	0,019
-245,219	236,202	0,051	0,062
-244,205	-8,067	-0,117	0,057
-243,190	113,051	-0,040	0,035
-242,176	-39,959	0,048	-0,018
-241,161	154,582	0,063	0,062
-240,146	287,935	-0,077	-0,101
-239,132	344,818	0,097	-0,138
-238,117	-79,652	0,092	-0,022
-237,103	83,983	-0,025	0,019
-236,088	180,539	-0,043	-0,045
-235,073	2,366	0,036	0,019
-234,059	-154,400	0,072	-0,003
-233,044	355,565	-0,116	0,168
-232,030	94,762	-0,064	-0,053
-231,015	121,170	-0,095	-0,085
-230,000	-58,589	-0,024	-0,007
-228,986	142,157	0,081	0,078
-227,971	-41,307	0,069	0,026
-226,957	-63,362	0,165	0,049
-225,942	-200,000	0,043	0,140
-224,927	27,800	-0,048	0,029
-223,913	148,243	0,047	-0,046
-222,898	-137,568	-0,037	-0,003
-221,884	-71,400	-0,099	-0,027
-220,869	-200,000	0,035	0,117
-219,855	-25,017	0,136	-0,058
-218,840	800,000	0,050	0,132
-217,825	-200,000	0,013	-0,127
-216,811	100,487	-0,136	0,114
-215,796	-200,000	-0,026	-0,117
-214,782	141,099	-0,086	-0,082
-213,767	-200,000	-0,010	-0,081
-212,752	87,299	0,022	0,018
-211,738	207,667	0,105	0,119
-210,723	17,863	-0,094	-0,054
-209,709	-132,269	0,047	-0,004
-208,694	52,433	0,054	-0,037
-207,679	34,603	0,076	0,048
-206,665	96,224	0,130	-0,107
-205,650	800,000	0,039	0,106
-204,636	454,383	0,038	0,062
-203,621	7,970	0,149	0,080
-202,606	251,731	-0,033	0,041
-201,592	-72,658	-0,042	-0,011
-200,577	-181,939	-0,104	-0,001
-199,563	243,368	0,066	0,080
-198,548	143,002	0,070	0,067
-197,533	31,804	0,029	0,018
-196,519	309,008	0,131	0,177
-195,504	800,000	0,015	-0,030
-194,490	106,546	-0,058	0,049
-193,475	-200,000	-0,002	0,042
-192,460	-103,281	-0,038	-0,006
-191,446	51,693	-0,041	-0,028
-190,431	150,924	0,122	0,120
-189,417	202,686	-0,079	0,088
-188,402	-200,000	-0,021	0,099
-187,387	-200,000	-0,127	0,000
-186,373	-28,325	0,111	-0,046
-185,358	-132,750	0,108	0,010
-184,344	-200,000	0,038	-0,190
-183,329	800,000	-0,037	0,106
-182,315	-136,341	-0,127	0,010
-181,300	107,675	0,038	-0,033
-180,285	-200,000	-0,040	-0,154
-179,271	800,000	0,031	-0,067
-178,256	-116,529	-0,073	-0,010
-177,242	-178,005	0,064	-0,001
-176,227	-178,715	-0,113	-0,002
-175,212	-200,000	-0,003	-0,044
-174,198	637,133	-0,082	0,150
-173,183	750,432	-0,064	0,125
-172,169	-200,000	-0,000	-0,031
-171,154	-200,000	0,011	0,038
-170,139	344,037	0,080	0,114
-169,125	-200,000	-0,026	0,104
-168,110	-11,500	0,060	0,028
-167,096	19,509	-0,107	-0,062
-166,081	-200,000	0,016	0,109
-165,066	-159,804	0,114	0,004
-164,052	4,629	0,169	0,089
-163,037	267,141	-0,107	-0,135
-162,023	73,925	-0,090	0,068
-161,008	-59,792	-0,039	0,012
-159,993	462,099	0,020	-0,032
-158,979	56,352	0,093	0,065
-157,964	800,000	-0,031	-0,097
-156,950	36,219	-0,223	-0,141
-155,935	-75,334	0,126	-0,032
-154,920	-130,648	0,089	-0,009
-153,906	111,042	-0,077	-0,067
-152,891	-39,176	0,110	0,041
-151,877	-72,952	-0,125	0,033
-150,862	-200,000	0,005	-0,147
-149,847	800,000	0,009	0,026
-148,833	-197,886	0,077	-0,000
-147,818	800,000	-0,024	0,051
-146,804	442,868	-0,013	0,021
-145,789	-116,022	0,131	-0,017
-144,775	24,987	0,074	-0,044
-143,760	-200,000	0,009	-0,061
-142,745	-200,000	-0,006	-0,083
-141,731	42,716	-0,026	-0,017
-140,716	-200,000	0,007	0,184
-139,702	503,039	0,057	0,095
-138,687	159,508	0,095	0,095
-137,672	-200,000	-0,019	0,113
-136,658	-200,000	0,018	-0,110
-135,643	-70,857	-0,078	-0,021
-134,629	-129,336	-0,055	0,005
-133,614	123,587	-0,011	0,010
-132,599	-40,849	-0,079	-0,029
-131,585	-75,588	-0,104	-0,026
-130,570	-200,000	0,014	-0,126
-129,556	43,058	0,117	0,076
-128,541	-200,000	0,037	0,116
-127,526	11,542	0,071	0,039
-126,512	-31,248	-0,074	-0,030
-125,497	-8,099	0,079	0,038
-124,483	301,064	-0,047	-0,063
-123,468	-93,108	0,034	0,007
-122,453	-4,207	-0,069	-0,034
-121,439	109,640	0,102	-0,088
-120,424	-82,881	-0,017	-0,004
-119,410	-200,000	0,015	0,063
