DTS Sentinel unit serial number:	SN410029Multiplexer serial number:	ORYXHardware model number:	OX2-SRSoftware version number:	ORYX F/W v4,00 Oryx Data Collector v3.7.2.0data status	okinstallation	B6 Nyhavnadifferential loss correction	single-endedforward channel	channel 2reverse channel	N/Adate	2023/12/09time	00:45:08forward acquisition time	300,00reverse acquisition time	0,00gamma	499,1914k internal	0,3156k external	0,3156temperature offset calibration	1,0000default loss term (dB/km)	0,3820temperature slope calibration	1,0000multiplexer offset coefficient	1,0000multiplexer slope coefficient	1,0000fibre end	0,00T internal ref (°C)	15,63T ext. ref 1 (°C)	-0,75T ext. ref 2 (°C)	-0,74length (m)	temperature (°C)	Stokes	anti-Stokes-744,400	800,000	0,010	0,023
-743,385	-189,895	-0,350	0,003
-742,371	-32,049	0,164	-0,067
-741,356	-188,558	-0,415	0,004
-740,342	-17,636	0,127	-0,059
-739,327	-82,661	-0,291	0,069
-738,312	-192,445	0,143	0,001
-737,298	-49,352	-0,352	-0,123
-736,283	-184,480	0,138	0,002
-735,269	-172,069	-0,302	0,007
-734,254	-13,542	0,092	-0,044
-733,239	-10,055	-0,556	-0,271
-732,225	-126,997	0,204	-0,022
-731,210	-200,000	0,010	0,062
-730,196	-22,946	-0,100	-0,044
-729,181	-44,838	-0,054	-0,020
-728,167	-200,000	0,000	-0,127
-727,152	-200,000	-0,016	-0,072
-726,137	-49,306	0,061	0,021
-725,123	800,000	-0,038	0,106
-724,108	800,000	-0,044	-0,112
-723,094	407,684	-0,044	0,068
-722,079	-200,000	-0,019	-0,105
-721,064	-116,457	0,093	-0,012
-720,050	800,000	-0,010	0,030
-719,035	75,085	-0,041	0,032
-718,021	-107,290	-0,112	-0,018
-717,006	152,904	-0,079	-0,079
-715,991	-41,808	-0,065	-0,024
-714,977	800,000	-0,060	-0,122
-713,962	-200,000	0,000	0,020
-712,948	258,522	-0,054	-0,068
-711,933	-200,000	-0,006	0,052
-710,918	205,345	-0,066	0,076
-709,904	-200,000	-0,004	-0,024
-708,889	800,000	-0,040	-0,094
-707,875	800,000	-0,025	-0,061
-706,860	-105,909	0,099	0,016
-705,845	-100,230	-0,067	0,012
-704,831	3,915	-0,060	-0,032
-703,816	42,187	-0,099	-0,066
-702,802	800,000	-0,079	-0,188
-701,787	-40,495	-0,067	-0,025
-700,772	15,123	-0,087	-0,050
-699,758	-75,106	0,125	-0,033
-698,743	-107,644	-0,069	0,011
-697,729	-100,526	-0,077	0,014
-696,714	-29,804	-0,015	0,006
-695,699	800,000	-0,024	-0,060
-694,685	-140,384	-0,083	0,006
-693,670	-136,047	0,105	0,009
-692,656	800,000	-0,004	-0,009
-691,641	5,545	-0,049	0,027
-690,627	223,332	0,045	-0,053
-689,612	800,000	0,026	-0,079
-688,597	-200,000	-0,024	0,140
-687,583	189,986	-0,104	-0,115
-686,568	-200,000	0,022	-0,077
-685,554	-200,000	0,012	-0,205
-684,539	-200,000	0,010	0,074
-683,524	61,007	-0,049	-0,036
-682,510	-200,000	0,008	-0,141
-681,495	-14,466	0,053	0,025
-680,481	166,771	-0,102	-0,106
-679,466	-107,896	-0,097	0,015
-678,451	25,610	-0,047	-0,029
-677,437	53,999	-0,122	0,086
-676,422	800,000	-0,029	0,065
-675,408	91,914	0,044	-0,036
-674,393	24,581	-0,085	-0,052
-673,378	-105,765	0,093	-0,015
-672,364	800,000	0,074	-0,162
-671,349	-56,827	-0,014	0,005
-670,335	553,724	-0,015	0,027
-669,320	32,744	0,073	0,046
-668,305	376,041	0,083	-0,124
-667,291	18,652	-0,093	-0,055
-666,276	-200,000	0,020	-0,153
-665,262	800,000	-0,039	0,083
-664,247	-132,433	0,056	-0,005
-663,232	44,721	0,129	-0,087
-662,218	800,000	0,032	0,076
-661,203	12,679	0,071	0,040
-660,189	558,492	0,016	-0,029
-659,174	207,565	-0,058	-0,066
-658,159	800,000	-0,033	0,075
-657,145	184,767	0,066	-0,072
-656,130	-0,307	0,145	-0,076
-655,116	158,431	0,065	0,066
-654,101	66,214	-0,105	0,078
-653,086	57,489	0,098	-0,070
-652,072	122,667	-0,077	-0,070
-651,057	309,383	-0,138	0,190
-650,043	-200,000	-0,002	0,076
-649,028	800,000	0,023	-0,050
-648,014	294,483	0,128	-0,173
-646,999	165,422	-0,020	-0,021
-645,984	-1,851	0,047	-0,024
-644,970	-200,000	-0,035	-0,136
-643,955	-200,000	-0,035	-0,149
-642,941	-43,929	0,016	0,006
-641,926	800,000	0,015	0,043
-640,911	800,000	0,014	-0,029
-639,897	67,005	-0,039	0,029
-638,882	209,634	-0,019	0,022
-637,868	25,567	-0,070	0,042
-636,853	800,000	-0,003	0,009
-635,838	359,241	-0,032	0,047
-634,824	89,760	-0,088	-0,072
-633,809	88,849	-0,095	0,077
-632,795	-102,484	0,157	-0,027
-631,780	-110,456	0,117	-0,018
-630,765	-92,945	-0,020	-0,004
-629,751	689,891	0,064	-0,123
-628,736	19,611	-0,118	0,070
-627,722	-23,093	0,066	-0,029
-626,707	-59,009	-0,047	0,015
-625,692	12,348	0,130	-0,073
-624,678	-105,737	-0,078	-0,013
-623,663	-200,000	-0,014	0,067
-622,649	258,300	0,075	-0,095
-621,634	-54,206	-0,214	-0,071
-620,619	54,708	-0,037	-0,026
-619,605	-115,050	-0,058	-0,008
-618,590	29,714	0,108	0,067
-617,576	800,000	-0,017	0,049
-616,561	-33,768	-0,129	-0,052
-615,546	-200,000	-0,022	-0,149
-614,532	-6,348	-0,174	-0,087
-613,517	-200,000	-0,008	-0,140
-612,503	0,118	0,015	-0,008
-611,488	-16,381	0,040	-0,018
-610,474	-6,851	-0,128	0,063
-609,459	404,129	-0,048	0,075
-608,444	-200,000	-0,004	-0,060
-607,430	230,199	-0,045	0,054
-606,415	7,401	0,105	-0,057
-605,401	-200,000	0,011	-0,058
-604,386	-119,575	-0,055	-0,007
-603,371	-125,824	-0,099	0,011
-602,357	37,784	-0,053	-0,034
-601,342	483,391	0,037	0,062
-600,328	66,404	-0,111	0,083
-599,313	800,000	-0,053	0,164
-598,298	-98,082	0,036	-0,007
-597,284	-200,000	0,042	0,140
-596,269	-200,000	0,000	-0,037
-595,255	31,168	-0,098	0,062
-594,240	8,186	0,104	-0,057
-593,225	357,648	0,043	-0,064
-592,211	19,571	-0,027	-0,016
-591,196	539,239	0,034	-0,059
-590,182	-200,000	-0,023	-0,077
-589,167	293,295	-0,046	-0,062
-588,152	-200,000	-0,010	0,099
-587,138	120,617	0,049	0,044
-586,123	-57,139	-0,124	-0,040
-585,109	247,475	0,029	-0,036
-584,094	32,383	-0,046	0,029
-583,079	281,908	0,025	-0,033
-582,065	589,158	0,045	-0,082
-581,050	154,077	0,163	0,164
-580,036	286,271	-0,073	-0,097
-579,021	463,052	-0,076	-0,125
-578,006	139,509	0,116	-0,112
-576,992	-154,970	-0,072	-0,003
-575,977	135,725	-0,044	-0,042
-574,963	224,385	0,080	-0,095
-573,948	-131,532	-0,043	0,004
-572,934	103,166	0,060	0,051
-571,919	-20,483	-0,076	-0,034
-570,904	156,057	0,005	-0,005
-569,890	-80,515	-0,067	0,016
-568,875	395,607	-0,028	0,042
-567,861	-200,000	-0,020	0,237
-566,846	800,000	0,028	-0,059
-565,831	192,717	-0,047	0,052
-564,817	-60,625	-0,092	-0,028
-563,802	-200,000	0,016	0,082
-562,788	-30,928	-0,088	-0,036
-561,773	-200,000	0,028	0,127
-560,758	-128,276	0,190	0,020
-559,744	-200,000	0,025	-0,141
-558,729	-200,000	0,020	0,070
-557,715	800,000	0,033	-0,081
-556,700	-68,237	-0,008	-0,002
-555,685	-68,826	-0,105	-0,029
-554,671	55,927	0,031	0,022
-553,656	-200,000	0,018	-0,110
-552,642	-72,137	0,099	0,027
-551,627	800,000	-0,037	0,102
-550,612	800,000	0,042	0,114
-549,598	-200,000	0,013	0,090
-548,583	722,890	-0,054	-0,105
-547,569	-200,000	0,003	0,074
-546,554	-3,977	0,068	0,034
-545,539	800,000	-0,043	-0,113
-544,525	-59,199	0,113	0,035
-543,510	-200,000	0,017	-0,105
-542,496	411,278	-0,045	-0,071
-541,481	-200,000	-0,068	-0,275
-540,466	-127,393	0,099	0,010
-539,452	-200,000	0,017	0,113
-538,437	800,000	0,047	0,115
-537,423	-200,000	0,021	0,114
-536,408	800,000	-0,034	0,076
-535,393	208,799	0,093	-0,106
-534,379	311,960	0,067	-0,093
-533,364	-200,000	0,015	0,076
-532,350	-113,465	0,114	-0,016
-531,335	-54,926	0,071	0,023
-530,321	84,041	0,074	0,059
-529,306	125,978	0,042	-0,039
-528,291	-200,000	0,015	-0,092
-527,277	-52,138	0,082	0,028
-526,262	43,151	0,066	0,044
-525,248	-6,643	-0,048	-0,024
-524,233	-26,359	0,119	0,051
-523,218	-200,000	0,012	0,186
-522,204	-200,000	0,003	0,038
-521,189	247,603	-0,076	-0,094
-520,175	160,836	0,061	-0,063
-519,160	-200,000	0,001	-0,107
-518,145	-86,810	0,074	0,016
-517,131	50,323	-0,061	0,042
-516,116	260,089	0,039	0,050
-515,102	-172,615	-0,058	-0,001
-514,087	-200,000	-0,007	-0,047
-513,072	-17,469	-0,076	0,035
-512,058	-161,842	-0,250	0,009
-511,043	232,486	-0,099	0,119
-510,029	-136,969	0,089	-0,007
-509,014	-44,751	-0,076	0,028
-507,999	-31,545	-0,100	0,041
-506,985	711,272	0,077	-0,151
-505,970	-148,950	-0,137	-0,008
-504,956	159,178	-0,048	-0,048
-503,941	-200,000	-0,001	-0,028
-502,926	-53,981	0,085	-0,028
-501,912	-200,000	-0,045	-0,173
-500,897	-160,174	-0,220	-0,009
-499,883	278,371	0,035	-0,046
-498,868	-143,631	-0,131	0,009
-497,853	376,237	-0,023	0,034
-496,839	800,000	-0,025	-0,067
-495,824	-90,179	0,202	0,042
-494,810	-56,931	-0,070	0,023
-493,795	63,555	-0,034	0,025
-492,781	-200,000	0,018	-0,066
-491,766	-119,834	-0,110	0,014
-490,751	-7,783	-0,095	0,047
-489,737	11,863	0,115	0,065
-488,722	-197,383	0,100	-0,000
-487,708	402,324	-0,046	0,071
-486,693	-124,010	-0,073	-0,008
-485,678	-200,000	0,035	-0,180
-484,664	-200,000	-0,020	-0,116
-483,649	-109,786	-0,041	0,006
-482,635	-75,543	0,083	-0,022
-481,620	-200,000	-0,001	-0,009
-480,605	-71,022	0,037	-0,010
-479,591	15,577	0,098	0,056
-478,576	-200,000	0,005	0,045
-477,562	45,291	-0,080	0,053
-476,547	-61,240	-0,025	-0,008
-475,532	-200,000	0,099	-0,000
-474,518	-48,779	0,090	0,031
-473,503	706,446	0,020	0,040
-472,489	-191,061	0,013	0,000
-471,474	800,000	-0,063	0,152
-470,459	92,762	0,104	0,085
-469,445	-63,978	0,055	0,016
-468,430	-200,000	-0,007	-0,072
-467,416	800,000	0,053	0,167
-466,401	800,000	0,034	0,076
-465,386	-200,000	0,005	0,083
-464,372	-83,379	-0,048	0,011
-463,357	70,661	0,036	0,027
-462,343	-104,751	-0,039	-0,006
-461,328	-200,000	-0,043	-0,157
-460,313	-200,000	-0,097	0,000
-459,299	800,000	-0,040	0,082
-458,284	96,658	-0,004	-0,004
-457,270	151,811	-0,044	-0,044
-456,255	126,442	-0,044	-0,041
-455,241	12,045	-0,020	0,011
-454,226	121,808	0,104	0,094
-453,211	-200,000	0,018	-0,119
-452,197	224,599	0,080	-0,094
-451,182	-200,000	0,028	-0,189
-450,168	-101,506	-0,113	0,020
-449,153	33,347	0,057	-0,036
-448,138	800,000	-0,046	-0,099
-447,124	-200,000	0,012	-0,046
-446,109	-15,806	-0,060	-0,028
-445,095	326,514	0,029	-0,040
-444,080	-65,373	0,082	0,024
-443,065	539,186	-0,035	0,061
-442,051	27,003	0,052	0,032
-441,036	36,806	0,072	-0,046
-440,022	800,000	0,018	-0,046
-439,007	-53,797	-0,092	0,030
-437,992	32,926	-0,052	0,032
-436,978	385,756	0,050	-0,075
-435,963	-75,254	-0,104	-0,027
-434,949	-200,000	-0,020	0,091
-433,934	800,000	-0,015	-0,032
-432,919	39,225	0,099	-0,064
-431,905	-76,059	-0,072	0,018
-430,890	-151,021	-0,079	-0,004
-429,876	-200,000	-0,006	0,183
-428,861	-166,606	-0,068	-0,002
-427,846	362,619	0,090	-0,132
-426,832	-200,000	-0,101	0,000
-425,817	-200,000	0,011	-0,051
-424,803	354,064	-0,056	-0,082
-423,788	165,572	0,132	-0,136
-422,773	800,000	-0,078	0,160
-421,759	483,790	0,011	0,019
-420,744	-121,740	0,124	-0,015
-419,730	120,109	-0,112	-0,101
-418,715	76,859	0,104	0,080
-417,701	-23,964	0,047	-0,020
-416,686	-200,000	-0,002	0,039
-415,671	-200,000	0,032	-0,125
-414,657	75,037	0,154	0,118
-413,642	679,258	0,013	-0,025
-412,628	-77,375	0,173	0,043
-411,613	100,020	0,071	-0,060
-410,598	384,168	-0,038	-0,057
-409,584	-9,005	0,150	0,073
-408,569	-200,000	0,018	0,090
-407,555	389,203	0,062	0,094
-406,540	800,000	-0,044	0,135
-405,525	-89,665	0,151	0,032
-404,511	-44,355	0,028	0,010
-403,496	20,612	-0,101	0,059
-402,482	329,012	0,039	0,055
-401,467	133,352	0,127	-0,120
-400,452	-128,769	-0,099	-0,010
-399,438	-200,000	0,016	0,161
-398,423	186,283	0,075	-0,082
-397,409	272,380	0,042	0,055
-396,394	80,529	-0,115	-0,090
-395,379	-200,000	-0,012	-0,052
-394,365	74,341	-0,042	0,032
-393,350	-200,000	-0,004	0,066
-392,336	-48,821	0,083	0,029
-391,321	-100,426	-0,078	-0,014
-390,306	-110,639	0,105	0,016
-389,292	-152,113	-0,123	-0,006
-388,277	-24,577	-0,040	-0,017
-387,263	800,000	0,063	0,188
-386,248	-200,000	0,019	-0,153
-385,233	-200,000	-0,017	-0,056
-384,219	327,916	0,039	-0,055
-383,204	800,000	-0,034	-0,087
-382,190	-200,000	-0,107	0,000
-381,175	-200,000	-0,013	-0,119
-380,160	165,051	-0,056	0,058
-379,146	100,142	0,203	0,171
-378,131	183,300	0,044	-0,047
-377,117	122,636	-0,163	0,148
-376,102	800,000	0,018	-0,049
-375,088	-15,420	-0,091	-0,042
-374,073	-149,487	0,132	0,007
-373,058	29,528	0,009	0,006
-372,044	-116,426	-0,021	0,003
-371,029	642,773	0,033	0,062
-370,015	-200,000	0,004	-0,106
-369,000	50,490	0,069	-0,047
-367,985	8,582	-0,108	-0,059
-366,971	-107,041	0,032	-0,005
-365,956	800,000	0,043	0,090
-364,942	375,264	0,078	0,116
-363,927	12,148	-0,034	0,019
-362,912	800,000	-0,018	-0,050
-361,898	-200,000	-0,013	-0,044
-360,883	462,645	-0,029	-0,047
-359,869	-149,303	-0,063	0,004
-358,854	-41,122	-0,028	0,010
-357,839	-119,168	0,032	0,004
-356,825	-44,611	0,072	0,026
-355,810	3,973	0,079	-0,042
-354,796	-100,616	0,016	0,003
-353,781	264,683	-0,037	-0,047
-352,766	-200,000	0,007	0,028
-351,752	-200,000	-0,002	0,118
-350,737	-149,397	-0,026	0,002
-349,723	-54,869	-0,065	-0,021
-348,708	459,870	-0,023	0,037
-347,693	-200,000	-0,026	0,226
-346,679	-200,000	0,010	-0,124
-345,664	141,007	-0,045	0,044
-344,650	-35,682	0,040	0,016
-343,635	800,000	0,026	-0,057
-342,620	-28,860	0,102	-0,042
-341,606	800,000	0,024	0,058
-340,591	800,000	0,011	0,028
-339,577	161,398	-0,105	-0,107
-338,562	-106,039	0,093	0,015
-337,548	800,000	0,005	-0,014
-336,533	-104,053	0,263	0,044
-335,518	-200,000	-0,018	0,061
-334,504	-93,389	0,189	-0,038
-333,489	-200,000	0,004	0,040
-332,475	-200,000	0,003	-0,185
-331,460	87,344	-0,048	-0,038
-330,445	-28,785	-0,127	-0,053
-329,431	455,860	0,032	-0,051
-328,416	421,914	0,109	0,171
-327,402	286,221	-0,056	-0,073
-326,387	-40,513	0,086	-0,032
-325,372	-55,512	-0,063	-0,020
-324,358	42,944	0,089	-0,059
-323,343	194,632	-0,059	-0,065
-322,329	-97,957	0,087	0,016
-321,314	-200,000	0,005	-0,091
-320,299	60,771	0,006	0,004
-319,285	304,658	0,016	-0,021
-318,270	-200,000	-0,013	-0,057
-317,256	188,354	-0,094	-0,102
-316,241	-70,835	-0,096	-0,026
-315,226	800,000	0,043	0,092
-314,212	-200,000	0,019	0,158
-313,197	16,576	-0,040	-0,023
-312,183	261,673	0,069	0,087
-311,168	108,447	-0,080	-0,070
-310,153	800,000	-0,040	0,104
-309,139	21,610	0,135	0,079
-308,124	-83,224	0,027	-0,006
-307,110	177,271	0,090	-0,095
-306,095	-200,000	-0,042	-0,254
-305,080	-131,508	-0,089	-0,008
-304,066	106,412	0,106	0,091
-303,051	-138,707	-0,116	-0,009
-302,037	285,153	-0,042	-0,055
-301,022	-149,660	0,072	0,004
-300,008	-200,000	0,002	-0,102
-298,993	-38,611	-0,029	0,011
-297,978	129,795	-0,094	-0,087
-296,964	163,440	0,035	-0,036
-295,949	13,295	-0,131	0,073
-294,935	800,000	0,057	0,137
-293,920	-11,475	0,109	0,052
-292,905	211,803	0,085	-0,097
-291,891	273,496	-0,031	0,039
-290,876	88,085	0,072	0,058
-289,862	-112,102	-0,146	0,021
-288,847	-200,000	-0,011	0,047
-287,832	-200,000	0,015	-0,062
-286,818	327,753	-0,043	-0,060
-285,803	-16,689	0,173	0,079
-284,789	-10,989	0,204	0,097
-283,774	113,750	-0,077	0,068
-282,759	781,035	-0,019	0,037
-281,745	-175,775	-0,131	-0,002
-280,730	-78,293	-0,050	-0,012
-279,716	-56,894	-0,131	0,042
-278,701	728,191	-0,050	0,096
-277,686	333,283	-0,037	0,052
-276,672	-200,000	0,002	0,101
-275,657	-200,000	0,000	0,041
-274,643	-124,073	-0,025	0,003
-273,628	64,076	-0,040	0,029
-272,613	800,000	-0,020	0,057
-271,599	-116,393	0,062	0,008
-270,584	-200,000	-0,008	0,049
-269,570	291,493	-0,046	-0,061
-268,555	-169,114	0,075	0,002
-267,540	800,000	-0,037	0,096
-266,526	-32,318	0,095	0,038
-265,511	800,000	-0,022	0,071
-264,497	-92,866	-0,065	0,013
-263,482	367,203	-0,060	0,088
-262,467	779,925	-0,040	-0,080
-261,453	117,380	0,029	-0,026
-260,438	-83,880	-0,121	0,028
-259,424	-200,000	0,007	0,117
-258,409	9,494	-0,082	-0,045
-257,395	-73,487	0,163	0,043
-256,380	240,806	0,019	-0,023
-255,365	31,255	0,113	-0,070
-254,351	800,000	-0,045	-0,115
-253,336	204,376	-0,028	0,032
-252,322	14,465	-0,065	0,036
-251,307	368,236	0,056	0,082
-250,292	-28,007	-0,111	0,046
-249,278	151,022	0,221	-0,217
-248,263	-138,162	0,118	0,009
-247,249	54,618	0,020	-0,014
-246,234	796,883	-0,069	-0,138
-245,219	-200,000	-0,000	-0,090
-244,205	112,616	-0,148	-0,129
-243,190	-200,000	0,002	0,111
-242,176	-200,000	0,026	0,116
-241,161	-122,771	0,108	0,013
-240,146	-200,000	0,003	-0,069
-239,132	-71,802	-0,037	0,010
-238,117	-178,377	-0,064	-0,001
-237,103	420,456	-0,028	-0,043
-236,088	138,964	0,048	0,046
-235,073	-150,312	0,106	0,006
-234,059	-200,000	0,028	0,095
-233,044	256,737	-0,028	-0,035
-232,030	-50,993	-0,029	-0,010
-231,015	280,914	0,082	0,106
-230,000	-96,219	-0,116	0,022
-228,986	-200,000	-0,012	0,135
-227,971	800,000	0,050	-0,113
-226,957	800,000	0,054	0,108
-225,942	25,506	-0,031	0,019
-224,927	800,000	0,008	-0,019
-223,913	403,455	-0,046	0,070
-222,898	180,907	-0,045	-0,048
-221,884	-70,566	0,238	-0,065
-220,869	141,683	0,047	0,045
-219,855	-28,258	-0,080	0,033
-218,840	-200,000	0,041	-0,150
-217,825	-200,000	-0,003	-0,020
-216,811	118,619	-0,007	0,006
-215,796	92,879	-0,045	0,037
-214,782	96,518	-0,054	0,045
-213,767	-200,000	0,013	0,052
-212,752	-200,000	0,016	-0,056
-211,738	126,694	-0,104	0,095
-210,723	-200,000	-0,002	-0,014
-209,709	105,539	-0,081	-0,069
-208,694	-200,000	-0,007	-0,138
-207,679	-116,148	0,082	0,011
-206,665	25,167	-0,058	0,035
-205,650	-151,007	0,122	-0,007
-204,636	-200,000	-0,065	0,233
-203,621	52,966	-0,158	0,109
-202,606	-39,186	-0,115	-0,044
-201,592	-200,000	-0,003	-0,085
-200,577	345,529	0,045	-0,065
-199,563	402,553	-0,087	-0,132
-198,548	800,000	0,029	0,083
-197,533	-200,000	-0,030	0,108
-196,519	-200,000	-0,001	0,086
-195,504	-200,000	0,001	-0,014
-194,490	800,000	-0,026	-0,064
-193,475	-53,127	-0,185	-0,061
-192,460	-107,440	0,103	-0,016
-191,446	800,000	-0,026	0,078
-190,431	98,302	-0,025	0,021
-189,417	-200,000	-0,005	-0,052
-188,402	-200,000	-0,000	0,036
-187,387	92,198	0,023	0,019
-186,373	743,484	-0,016	0,031
-185,358	-200,000	0,022	-0,083
-184,344	-10,528	0,058	0,028
-183,329	800,000	0,056	0,134
-182,315	137,466	0,073	0,069
-181,300	176,715	-0,023	-0,025
-180,285	143,811	-0,134	0,129
-179,271	800,000	0,030	-0,089
-178,256	800,000	-0,059	0,133
-177,242	-200,000	0,002	0,114
-176,227	-200,000	0,021	0,121
-175,212	-73,857	0,021	0,005
-174,198	-200,000	0,012	0,073
-173,183	291,741	0,084	0,111
-172,169	-60,344	-0,047	-0,014
-171,154	-96,108	-0,140	0,027
-170,139	277,915	0,093	0,120
-169,125	-200,000	0,011	0,044
-168,110	-200,000	-0,006	-0,029
-167,096	-135,111	-0,081	0,007
-166,081	-200,000	0,003	-0,066
-165,066	367,147	-0,093	-0,136
-164,052	143,308	-0,037	-0,035
-163,037	-97,629	0,096	-0,018
-162,023	141,396	0,056	-0,053
-161,008	407,746	0,035	0,053
-159,993	-200,000	0,011	-0,055
-158,979	0,552	-0,069	0,036
-157,964	-0,969	-0,174	-0,088
-156,950	-200,000	-0,030	-0,165
-155,935	320,321	0,033	-0,045
-154,920	-108,947	0,082	0,012
-153,906	800,000	-0,011	-0,023
-152,891	-200,000	0,004	-0,042
-151,877	35,464	-0,068	0,043
-150,862	247,903	-0,082	-0,100
-149,847	118,519	0,052	-0,046
-148,833	58,309	-0,052	-0,037
-147,818	105,291	0,042	-0,036
-146,804	-200,000	-0,005	-0,116
-145,789	-200,000	0,009	0,055
-144,775	91,657	-0,123	-0,099
-143,760	-200,000	0,008	0,047
-142,745	-200,000	-0,004	0,167
-141,731	20,775	0,092	0,054
-140,716	105,192	0,070	0,059
-139,702	237,209	0,009	0,011
-138,687	-59,397	-0,017	0,005
-137,672	-105,592	-0,180	-0,029
-136,658	-6,823	0,044	-0,021
-135,643	-61,039	-0,034	-0,010
-134,629	595,287	-0,033	-0,060
-133,614	-200,000	0,010	0,115
-132,599	375,315	0,057	-0,085
-131,585	-97,407	0,096	0,018
-130,570	63,393	-0,104	-0,075
-129,556	-200,000	0,018	-0,109
-128,541	-200,000	-0,004	-0,070
-127,526	800,000	0,023	-0,053
-126,512	190,841	-0,053	0,058
-125,497	54,527	0,140	0,097
-124,483	-200,000	-0,010	0,188
-123,468	-200,000	0,001	0,014
-122,453	-200,000	-0,008	-0,193
-121,439	-200,000	-0,022	-0,107
-120,424	202,453	0,133	-0,148
