DTS Sentinel unit serial number:	SN410029Multiplexer serial number:	ORYXHardware model number:	OX2-SRSoftware version number:	ORYX F/W v4,00 Oryx Data Collector v3.7.2.0data status	okinstallation	B6 Nyhavnadifferential loss correction	single-endedforward channel	channel 2reverse channel	N/Adate	2023/12/11time	05:45:08forward acquisition time	300,00reverse acquisition time	0,00gamma	499,1914k internal	0,3127k external	0,3127temperature offset calibration	1,0000default loss term (dB/km)	0,3820temperature slope calibration	1,0000multiplexer offset coefficient	1,0000multiplexer slope coefficient	1,0000fibre end	0,00T internal ref (°C)	19,87T ext. ref 1 (°C)	3,04T ext. ref 2 (°C)	3,07length (m)	temperature (°C)	Stokes	anti-Stokes-744,400	800,000	0,029	-0,081
-743,385	-60,925	-0,349	0,109
-742,371	122,539	0,131	0,122
-741,356	507,472	-0,173	0,301
-740,342	-116,115	-0,118	-0,016
-739,327	-94,993	-0,257	0,051
-738,312	-158,306	0,136	-0,006
-737,298	-55,705	-0,295	0,097
-736,283	102,174	0,041	-0,036
-735,269	-120,862	-0,261	0,032
-734,254	66,308	0,241	-0,182
-733,239	-93,728	-0,452	-0,092
-732,225	-156,056	0,120	0,006
-731,210	800,000	-0,048	-0,137
-730,196	-200,000	0,012	0,175
-729,181	-178,530	-0,133	0,002
-728,167	-200,000	0,005	-0,021
-727,152	-34,622	0,087	0,035
-726,137	127,864	-0,053	-0,050
-725,123	217,153	-0,092	-0,109
-724,108	61,058	-0,065	-0,048
-723,094	-14,519	-0,091	-0,043
-722,079	728,511	-0,041	-0,081
-721,064	469,179	-0,081	-0,135
-720,050	16,257	-0,076	-0,045
-719,035	778,967	0,035	0,071
-718,021	800,000	-0,026	-0,067
-717,006	49,253	-0,097	-0,068
-715,991	-200,000	-0,014	-0,063
-714,977	36,899	-0,095	0,062
-713,962	-200,000	-0,043	0,163
-712,948	732,255	-0,086	-0,171
-711,933	-15,769	0,066	0,031
-710,918	-50,721	-0,028	0,010
-709,904	53,635	-0,069	0,049
-708,889	510,266	-0,052	-0,090
-707,875	-85,632	-0,046	-0,010
-706,860	-71,474	-0,092	-0,025
-705,845	-200,000	0,134	-0,000
-704,831	800,000	-0,073	0,160
-703,816	745,940	0,054	0,108
-702,802	-189,576	-0,035	0,000
-701,787	370,438	0,111	-0,168
-700,772	-200,000	-0,020	-0,170
-699,758	172,910	0,068	0,073
-698,743	-134,211	0,072	-0,007
-697,729	800,000	-0,038	-0,114
-696,714	307,172	-0,096	-0,133
-695,699	-128,084	0,031	0,003
-694,685	800,000	-0,040	-0,090
-693,670	-3,805	-0,119	-0,061
-692,656	800,000	-0,085	0,196
-691,641	-200,000	-0,005	0,071
-690,627	-122,760	0,144	0,017
-689,612	32,679	-0,057	-0,037
-688,597	-200,000	0,005	0,045
-687,583	-19,871	-0,227	-0,104
-686,568	800,000	0,036	-0,080
-685,554	-59,794	-0,053	0,017
-684,539	-149,398	-0,096	0,006
-683,524	46,954	0,026	-0,018
-682,510	11,012	0,085	0,048
-681,495	433,993	-0,044	0,071
-680,481	-200,000	0,026	0,113
-679,466	-200,000	-0,001	0,057
-678,451	-93,222	0,123	-0,025
-677,437	-65,576	0,100	0,030
-676,422	-137,182	-0,057	-0,005
-675,408	152,562	0,032	0,032
-674,393	29,849	-0,071	-0,045
-673,378	-200,000	0,030	-0,118
-672,364	180,516	0,017	-0,018
-671,349	800,000	-0,033	0,090
-670,335	2,361	-0,099	0,053
-669,320	307,765	-0,041	-0,057
-668,305	800,000	0,039	-0,100
-667,291	-73,991	0,094	0,025
-666,276	-200,000	-0,004	0,031
-665,262	-200,000	-0,002	0,059
-664,247	-165,544	-0,224	0,007
-663,232	386,804	-0,055	0,085
-662,218	-200,000	0,069	0,000
-661,203	-144,178	-0,136	-0,009
-660,189	-8,203	0,103	0,051
-659,174	54,522	-0,043	0,031
-658,159	-200,000	-0,037	-0,160
-657,145	-58,841	-0,089	0,028
-656,130	-200,000	-0,008	-0,052
-655,116	103,308	-0,065	-0,057
-654,101	-52,723	-0,054	0,019
-653,086	-20,275	0,057	0,026
-652,072	55,228	0,018	0,013
-651,057	-200,000	-0,015	0,061
-650,043	247,086	-0,088	0,110
-649,028	-200,000	-0,037	-0,202
-648,014	800,000	0,040	0,085
-646,999	-98,445	-0,017	-0,003
-645,984	-200,000	-0,018	0,101
-644,970	408,754	0,021	0,033
-643,955	-51,812	-0,081	0,028
-642,941	-200,000	0,039	-0,179
-641,926	-103,533	0,025	-0,004
-640,911	-200,000	0,027	0,201
-639,897	800,000	-0,026	0,080
-638,882	800,000	0,074	0,179
-637,868	-31,118	-0,068	-0,028
-636,853	-24,080	-0,141	-0,062
-635,838	-114,344	-0,054	-0,008
-634,824	-200,000	-0,023	-0,093
-633,809	-14,004	-0,075	0,036
-632,795	800,000	0,009	-0,025
-631,780	-119,850	-0,074	0,009
-630,765	403,581	0,023	0,036
-629,751	-200,000	-0,034	0,188
-628,736	142,270	-0,030	-0,030
-627,722	-54,158	-0,094	-0,031
-626,707	48,692	0,081	-0,057
-625,692	576,283	0,059	0,107
-624,678	-63,832	0,132	0,040
-623,663	13,444	-0,143	0,082
-622,649	82,841	0,015	-0,012
-621,634	446,159	0,056	-0,091
-620,619	-200,000	0,003	0,073
-619,605	-200,000	-0,036	0,139
-618,590	-200,000	0,013	-0,047
-617,576	356,487	0,079	0,117
-616,561	306,004	-0,042	0,059
-615,546	-79,415	-0,033	-0,008
-614,532	800,000	-0,028	0,089
-613,517	-93,196	-0,036	0,007
-612,503	612,828	0,010	0,019
-611,488	68,699	0,055	0,041
-610,474	23,066	0,038	-0,023
-609,459	-200,000	-0,013	0,046
-608,444	-200,000	-0,000	-0,088
-607,430	-36,756	-0,057	-0,022
-606,415	60,015	0,092	-0,067
-605,401	188,717	0,030	-0,033
-604,386	308,240	-0,033	0,046
-603,371	-30,355	-0,091	0,038
-602,357	213,804	0,066	-0,077
-601,342	-200,000	-0,012	-0,103
-600,328	13,013	-0,164	-0,094
-599,313	-126,056	-0,101	0,011
-598,298	98,110	0,072	-0,061
-597,284	143,193	0,068	-0,067
-596,269	181,583	0,023	0,025
-595,255	236,833	0,105	0,129
-594,240	-96,806	-0,142	0,027
-593,225	-111,040	0,094	-0,014
-592,211	-107,471	-0,130	0,021
-591,196	-132,670	0,040	-0,004
-590,182	9,907	-0,121	0,068
-589,167	96,169	0,023	0,019
-588,152	-87,720	-0,009	-0,002
-587,138	0,059	-0,077	0,041
-586,123	558,100	0,032	-0,058
-585,109	307,479	-0,069	0,095
-584,094	-80,510	0,056	-0,014
-583,079	336,723	0,074	-0,106
-582,065	800,000	-0,083	0,208
-581,050	800,000	0,063	0,164
-580,036	-200,000	-0,012	0,073
-579,021	-142,527	-0,143	0,010
-578,006	99,601	-0,051	-0,044
-576,992	-200,000	-0,008	0,035
-575,977	489,293	-0,021	0,036
-574,963	174,952	0,080	0,086
-573,948	800,000	-0,022	0,071
-572,934	-137,338	-0,134	0,011
-571,919	-48,314	-0,026	-0,009
-570,904	800,000	-0,021	-0,060
-569,890	399,614	-0,032	-0,050
-568,875	685,409	-0,052	-0,101
-567,861	-200,000	0,015	-0,049
-566,846	127,782	-0,035	-0,033
-565,831	800,000	-0,031	0,076
-564,817	800,000	-0,030	-0,080
-563,802	-200,000	0,006	-0,045
-562,788	147,784	0,002	-0,002
-561,773	-200,000	-0,021	0,072
-560,758	-138,130	0,156	0,013
-559,744	520,441	-0,053	0,092
-558,729	800,000	0,009	-0,025
-557,715	800,000	-0,041	0,124
-556,700	800,000	0,046	-0,124
-555,685	-62,065	-0,052	0,016
-554,671	609,699	-0,067	0,124
-553,656	3,589	-0,031	0,017
-552,642	-27,731	0,144	-0,061
-551,627	123,354	-0,060	0,056
-550,612	29,822	-0,064	-0,040
-549,598	-134,339	0,084	0,007
-548,583	800,000	-0,042	0,091
-547,569	-24,463	-0,096	-0,042
-546,554	83,548	-0,053	0,042
-545,539	-111,462	0,094	-0,014
-544,525	87,726	-0,055	0,045
-543,510	217,495	-0,083	-0,098
-542,496	-200,000	-0,034	-0,129
-541,481	232,408	-0,129	-0,157
-540,466	-200,000	0,014	0,097
-539,452	-5,482	-0,055	0,028
-538,437	-200,000	0,024	-0,165
-537,423	-94,935	-0,068	0,013
-536,408	-1,455	0,087	0,045
-535,393	-44,333	0,028	0,010
-534,379	-200,000	-0,009	-0,152
-533,364	-200,000	-0,019	-0,063
-532,350	14,698	0,117	0,067
-531,335	-200,000	0,082	0,000
-530,321	-14,081	0,066	0,031
-529,306	572,734	0,014	-0,025
-528,291	107,154	-0,049	-0,043
-527,277	-113,712	-0,095	-0,014
-526,262	694,745	0,057	-0,111
-525,248	-200,000	-0,001	0,018
-524,233	800,000	0,066	0,193
-523,218	241,846	-0,068	0,084
-522,204	800,000	0,033	-0,097
-521,189	76,308	-0,114	0,089
-520,175	180,603	0,060	-0,065
-519,160	-127,243	0,116	-0,012
-518,145	-200,000	-0,009	-0,030
-517,131	370,805	-0,051	-0,077
-516,116	142,105	0,045	0,044
-515,102	-155,632	-0,106	-0,005
-514,087	438,304	0,057	-0,093
-513,072	74,321	0,029	-0,023
-512,058	-200,000	-0,006	-0,041
-511,043	-27,553	-0,029	-0,012
-510,029	800,000	0,045	0,099
-509,014	-84,516	0,086	-0,020
-507,999	-74,568	0,062	0,016
-506,985	800,000	-0,028	-0,081
-505,970	154,679	-0,081	-0,082
-504,956	-30,567	-0,170	-0,071
-503,941	800,000	0,046	0,097
-502,926	-200,000	0,020	0,149
-501,912	-87,939	-0,046	-0,010
-500,897	-8,683	-0,037	-0,018
-499,883	-42,863	0,018	0,007
-498,868	-200,000	0,004	-0,107
-497,853	-200,000	0,047	-0,155
-496,839	0,562	0,090	-0,047
-495,824	651,293	-0,025	-0,048
-494,810	-200,000	0,049	0,166
-493,795	256,606	-0,064	0,081
-492,781	-200,000	0,047	0,183
-491,766	3,835	0,015	-0,008
-490,751	-200,000	0,076	-0,295
-489,737	88,345	0,154	-0,126
-488,722	-8,196	-0,027	-0,013
-487,708	462,933	0,043	0,071
-486,693	490,520	0,028	-0,047
-485,678	-200,000	0,023	-0,149
-484,664	-116,778	-0,152	0,020
-483,649	800,000	-0,057	0,117
-482,635	-200,000	0,008	0,126
-481,620	-200,000	0,013	0,064
-480,605	-200,000	0,056	-0,193
-479,591	157,980	-0,034	0,035
-478,576	153,373	-0,023	0,024
-477,562	3,805	0,080	0,043
-476,547	-54,692	-0,120	0,040
-475,532	-200,000	0,009	0,061
-474,518	-32,323	0,154	0,063
-473,503	-200,000	-0,015	0,069
-472,489	-200,000	-0,008	0,091
-471,474	63,073	-0,056	0,041
-470,459	449,701	-0,060	0,098
-469,445	-200,000	-0,036	-0,131
-468,430	149,918	-0,090	-0,090
-467,416	-200,000	-0,002	-0,017
-466,401	800,000	0,043	-0,097
-465,386	-200,000	0,029	-0,140
-464,372	219,615	-0,022	-0,026
-463,357	519,090	0,086	0,149
-462,343	800,000	-0,050	-0,125
-461,328	-200,000	0,034	-0,126
-460,313	27,275	-0,055	-0,034
-459,299	-62,449	0,085	-0,026
-458,284	459,596	0,057	0,094
-457,270	-200,000	0,003	0,137
-456,255	-200,000	-0,015	0,065
-455,241	184,549	-0,059	0,064
-454,226	485,438	-0,039	-0,066
-453,211	-136,287	-0,069	-0,006
-452,197	329,632	-0,007	0,011
-451,182	390,367	-0,025	0,038
-450,168	-37,750	-0,086	0,033
-449,153	29,500	-0,122	-0,076
-448,138	-200,000	0,023	-0,110
-447,124	30,196	-0,033	0,020
-446,109	451,250	-0,046	-0,074
-445,095	-200,000	0,009	0,072
-444,080	-110,663	0,155	0,023
-443,065	110,121	0,074	0,065
-442,051	-200,000	0,009	0,233
-441,036	21,985	-0,107	-0,064
-440,022	148,023	-0,069	-0,069
-439,007	-73,173	0,091	-0,024
-437,992	-114,635	-0,070	-0,010
-436,978	800,000	-0,002	-0,005
-435,963	-176,947	0,097	0,002
-434,949	800,000	0,027	-0,086
-433,934	800,000	-0,034	-0,076
-432,919	-59,964	-0,055	-0,017
-431,905	-37,527	0,092	-0,036
-430,890	-97,756	0,035	0,007
-429,876	-200,000	0,008	0,052
-428,861	12,902	-0,013	0,007
-427,846	800,000	-0,038	0,092
-426,832	800,000	-0,026	-0,068
-425,817	621,640	-0,090	-0,167
-424,803	-200,000	0,003	-0,050
-423,788	-104,644	-0,113	0,019
-422,773	354,787	0,060	0,088
-421,759	412,293	-0,108	0,169
-420,744	265,502	0,094	-0,120
-419,730	-92,861	0,097	0,020
-418,715	79,624	-0,073	0,058
-417,701	-36,952	-0,069	0,027
-416,686	514,721	-0,006	0,010
-415,671	334,915	0,125	0,179
-414,657	-66,954	0,091	0,026
-413,642	14,122	-0,099	0,057
-412,628	-200,000	0,006	-0,041
-411,613	-200,000	-0,022	0,106
-410,598	-143,391	0,066	-0,005
-409,584	31,467	0,108	-0,068
-408,569	800,000	0,062	0,151
-407,555	-86,907	0,080	-0,018
-406,540	439,600	-0,051	0,083
-405,525	800,000	0,017	-0,039
-404,511	46,512	-0,134	0,091
-403,496	94,549	0,130	0,108
-402,482	800,000	0,054	0,118
-401,467	233,285	-0,049	0,060
-400,452	-130,923	0,058	0,006
-399,438	118,816	-0,043	0,039
-398,423	137,102	0,058	-0,056
-397,409	207,174	0,058	0,066
-396,394	-97,943	-0,042	0,008
-395,379	124,805	0,029	-0,027
-394,365	325,833	0,060	-0,085
-393,350	35,092	0,130	0,084
-392,336	-200,000	-0,007	0,106
-391,321	473,044	0,059	0,098
-390,306	800,000	0,043	-0,092
-389,292	131,188	-0,111	-0,105
-388,277	-19,580	-0,057	-0,026
-387,263	145,540	0,099	0,097
-386,248	495,448	0,059	0,100
-385,233	173,260	0,042	-0,044
-384,219	-173,939	0,080	0,002
-383,204	358,923	-0,061	-0,089
-382,190	97,267	0,142	-0,120
-381,175	-200,000	0,008	0,108
-380,160	-200,000	0,012	-0,056
-379,146	119,671	-0,045	0,041
-378,131	-200,000	-0,015	0,096
-377,117	800,000	-0,025	0,080
-376,102	-148,445	-0,138	0,008
-375,088	366,151	-0,045	0,067
-374,073	-106,981	0,045	0,007
-373,058	-200,000	-0,002	-0,019
-372,044	34,883	-0,055	-0,035
-371,029	280,933	0,021	-0,027
-370,015	165,836	0,019	-0,020
-369,000	157,743	-0,016	-0,016
-367,985	66,921	-0,205	-0,153
-366,971	381,256	-0,020	0,030
-365,956	-200,000	-0,012	0,130
-364,942	-200,000	0,014	-0,120
-363,927	-200,000	-0,037	-0,139
-362,912	-74,583	0,116	-0,030
-361,898	800,000	0,026	0,068
-360,883	685,284	0,010	0,020
-359,869	20,188	0,067	0,040
-358,854	216,815	0,129	-0,151
-357,839	-200,000	-0,007	-0,040
-356,825	13,124	-0,067	-0,038
-355,810	800,000	0,032	0,093
-354,796	-200,000	-0,004	-0,047
-353,781	-125,523	-0,048	0,005
-352,766	-200,000	0,045	-0,178
-351,752	21,419	0,066	0,039
-350,737	-200,000	0,000	0,072
-349,723	-111,453	0,084	-0,012
-348,708	-97,055	-0,029	-0,006
-347,693	-200,000	0,012	-0,160
-346,679	-8,201	-0,025	0,012
-345,664	800,000	-0,047	0,098
-344,650	800,000	0,026	-0,061
-343,635	800,000	0,067	-0,137
-342,620	488,550	-0,025	0,043
-341,606	59,367	0,054	0,039
-340,591	42,835	0,101	0,068
-339,577	-63,009	-0,118	0,035
-338,562	-41,068	0,064	-0,024
-337,548	-200,000	-0,009	0,080
-336,533	87,888	0,134	-0,109
-335,518	-200,000	0,005	0,066
-334,504	117,667	0,061	-0,055
-333,489	-39,842	-0,097	0,037
-332,475	800,000	-0,036	0,075
-331,460	254,571	-0,107	-0,135
-330,445	34,148	-0,090	-0,057
-329,431	18,268	0,055	-0,032
-328,416	-100,612	0,087	-0,016
-327,402	-200,000	-0,012	0,095
-326,387	-76,827	-0,005	-0,001
-325,372	-89,154	-0,203	-0,044
-324,358	-200,000	0,021	-0,107
-323,343	40,635	0,083	-0,055
-322,329	119,893	0,084	0,076
-321,314	800,000	0,039	-0,119
-320,299	-128,095	0,014	-0,001
-319,285	-200,000	0,004	0,087
-318,270	-200,000	-0,006	-0,021
-317,256	136,934	0,030	-0,029
-316,241	342,771	0,033	-0,047
-315,226	-200,000	-0,006	-0,235
-314,212	-200,000	-0,003	-0,116
-313,197	-29,060	0,027	-0,011
-312,183	-200,000	-0,027	0,106
-311,168	467,299	-0,026	0,043
-310,153	-200,000	0,019	-0,095
-309,139	-106,746	-0,007	0,001
-308,124	246,396	-0,032	0,040
-307,110	-200,000	-0,001	-0,137
-306,095	-61,898	-0,025	0,008
-305,080	568,402	0,025	0,044
-304,066	-102,431	-0,107	-0,019
-303,051	800,000	0,028	0,065
-302,037	-5,384	0,043	-0,021
-301,022	21,862	0,093	-0,055
-300,008	120,291	0,046	-0,042
-298,993	-48,941	0,047	0,016
-297,978	422,052	0,045	-0,071
-296,964	274,696	0,028	0,037
-295,949	26,616	-0,041	-0,025
-294,935	274,719	0,079	-0,102
-293,920	-200,000	0,009	-0,036
-292,905	315,451	0,069	0,096
-291,891	743,550	0,076	0,151
-290,876	1,862	-0,058	-0,031
-289,862	-96,396	-0,017	-0,003
-288,847	698,174	-0,030	-0,058
-287,832	356,569	0,065	-0,095
-286,818	-200,000	-0,017	0,093
-285,803	351,538	-0,041	0,059
-284,789	-124,834	0,124	0,014
-283,774	-200,000	0,011	-0,080
-282,759	-177,230	0,020	-0,000
-281,745	517,810	-0,043	0,074
-280,730	-164,778	-0,148	-0,005
-279,716	-166,705	0,268	-0,008
-278,701	576,615	-0,079	0,142
-277,686	-200,000	0,004	0,035
-276,672	-38,231	-0,124	-0,048
-275,657	353,787	0,010	-0,014
-274,643	-23,392	-0,079	0,034
-273,628	800,000	0,059	0,135
-272,613	98,893	-0,053	-0,045
-271,599	-200,000	-0,014	-0,094
-270,584	253,184	0,073	0,091
-269,570	-200,000	-0,016	-0,082
-268,555	-8,081	-0,054	-0,026
-267,540	800,000	-0,056	-0,139
-266,526	311,795	0,124	-0,170
-265,511	431,084	0,034	-0,054
-264,497	43,989	0,086	0,058
-263,482	-200,000	0,011	0,102
-262,467	139,986	-0,059	0,057
-261,453	-66,398	0,121	-0,035
-260,438	582,595	0,036	-0,066
-259,424	4,315	-0,098	0,052
-258,409	800,000	0,014	0,030
-257,395	270,703	-0,086	0,111
-256,380	111,123	0,019	-0,017
-255,365	134,032	-0,116	-0,110
-254,351	354,291	-0,066	-0,096
-253,336	-132,201	-0,067	-0,006
-252,322	8,226	-0,006	-0,003
-251,307	-75,788	0,066	0,017
-250,292	-124,771	0,178	0,020
-249,278	-147,405	0,045	0,003
-248,263	-40,482	-0,152	0,057
-247,249	105,127	0,022	-0,019
-246,234	-200,000	-0,008	-0,116
-245,219	-56,437	0,026	0,008
-244,205	800,000	-0,057	-0,146
-243,190	-127,211	0,045	0,005
-242,176	89,703	0,154	0,125
-241,161	31,172	0,121	0,076
-240,146	-200,000	-0,005	0,066
-239,132	-62,323	0,093	-0,028
-238,117	101,280	-0,039	0,034
-237,103	149,044	-0,103	-0,102
-236,088	-55,455	-0,122	-0,040
-235,073	28,330	0,112	0,069
-234,059	-200,000	0,001	0,036
-233,044	342,162	-0,093	-0,134
-232,030	-200,000	-0,008	-0,075
-231,015	230,701	-0,103	0,123
-230,000	-103,878	-0,067	-0,011
-228,986	82,061	-0,049	-0,039
-227,971	-23,104	-0,148	-0,065
-226,957	-200,000	-0,019	0,082
-225,942	66,894	-0,063	0,047
-224,927	-200,000	-0,010	-0,039
-223,913	-62,890	0,129	-0,039
-222,898	63,769	0,044	-0,032
-221,884	800,000	0,057	-0,125
-220,869	-200,000	-0,002	0,043
-219,855	172,778	-0,094	0,099
-218,840	469,374	0,015	0,025
-217,825	656,832	0,058	-0,110
-216,811	-200,000	0,011	-0,084
-215,796	800,000	0,051	-0,108
-214,782	-200,000	-0,089	-0,000
-213,767	127,319	0,032	-0,030
-212,752	-71,922	0,196	-0,053
-211,738	-200,000	0,014	-0,072
-210,723	11,104	0,005	0,003
-209,709	-85,050	-0,097	0,022
-208,694	-121,311	-0,159	-0,019
-207,679	15,792	0,042	0,024
-206,665	-110,600	0,065	0,010
-205,650	800,000	-0,016	0,047
-204,636	93,271	0,065	-0,053
-203,621	-200,000	0,006	0,056
-202,606	181,313	0,047	-0,051
-201,592	132,214	-0,059	0,055
-200,577	-19,631	-0,050	-0,022
-199,563	-143,455	0,132	0,009
-198,548	53,990	0,044	0,031
-197,533	257,328	0,016	-0,020
-196,519	166,706	0,044	-0,045
-195,504	-48,827	0,020	0,007
-194,490	313,517	-0,046	0,063
-193,475	-142,932	-0,055	-0,004
-192,460	-200,000	0,022	0,098
-191,446	90,671	0,135	-0,110
-190,431	471,956	0,039	0,065
-189,417	188,879	-0,008	0,009
-188,402	-200,000	-0,009	-0,047
-187,387	592,185	-0,055	-0,100
-186,373	800,000	-0,031	-0,074
-185,358	501,713	0,021	-0,036
-184,344	51,533	-0,053	0,037
-183,329	-200,000	-0,022	0,129
-182,315	-75,619	0,102	-0,026
-181,300	96,032	-0,126	-0,105
-180,285	-136,175	0,140	-0,012
-179,271	-200,000	0,005	0,095
-178,256	-200,000	-0,012	0,109
-177,242	-200,000	0,000	0,035
-176,227	158,025	-0,058	-0,059
-175,212	165,521	0,115	0,119
-174,198	-200,000	-0,016	0,061
-173,183	800,000	-0,047	-0,144
-172,169	-3,532	-0,026	0,013
-171,154	138,649	-0,017	0,016
-170,139	-39,844	0,014	0,005
-169,125	800,000	0,017	0,051
-168,110	56,478	0,102	0,072
-167,096	-153,523	-0,162	-0,008
-166,081	-200,000	-0,006	-0,154
-165,066	-200,000	-0,002	-0,115
-164,052	274,792	0,013	0,016
-163,037	56,043	-0,076	-0,053
-162,023	66,663	-0,038	-0,028
-161,008	800,000	0,020	0,043
-159,993	722,953	0,051	0,100
-158,979	-200,000	-0,024	-0,105
-157,964	800,000	-0,035	-0,082
-156,950	78,553	0,072	-0,056
-155,935	215,398	-0,099	0,114
-154,920	-200,000	0,024	0,151
-153,906	-200,000	0,011	0,165
-152,891	-200,000	0,025	0,087
-151,877	-81,917	0,015	0,004
-150,862	-200,000	-0,029	-0,103
-149,847	30,309	-0,040	-0,025
-148,833	209,741	-0,112	0,128
-147,818	-200,000	0,000	-0,025
-146,804	-200,000	0,011	0,108
-145,789	-200,000	-0,024	0,162
-144,775	374,042	-0,045	0,067
-143,760	-172,772	-0,006	0,000
-142,745	344,741	0,087	0,125
-141,731	-124,466	0,083	-0,009
-140,716	200,556	-0,039	0,044
-139,702	60,606	0,078	0,056
-138,687	700,578	-0,016	0,031
-137,672	-52,574	0,080	-0,027
-136,658	200,292	0,087	-0,098
-135,643	38,530	-0,079	-0,051
-134,629	-200,000	-0,005	-0,081
-133,614	79,787	0,053	-0,041
-132,599	-200,000	0,005	-0,057
-131,585	-18,289	-0,096	-0,043
-130,570	22,015	-0,073	-0,043
-129,556	272,846	-0,022	0,029
-128,541	165,610	0,028	0,029
-127,526	124,186	-0,024	-0,022
-126,512	84,502	0,060	0,048
-125,497	286,793	0,059	0,077
-124,483	24,546	0,143	0,086
-123,468	361,257	0,090	0,131
-122,453	33,570	-0,048	0,030
-121,439	800,000	-0,076	-0,183
-120,424	-78,782	-0,138	-0,034
-119,410	673,500	-0,023	0,044
