DTS Sentinel unit serial number:	SN410029Multiplexer serial number:	ORYXHardware model number:	OX2-SRSoftware version number:	ORYX F/W v4,00 Oryx Data Collector v3.7.2.0data status	okinstallation	B6 Nyhavnadifferential loss correction	single-endedforward channel	channel 2reverse channel	N/Adate	2023/12/08time	07:05:08forward acquisition time	300,00reverse acquisition time	0,00gamma	499,1914k internal	0,3166k external	0,3166temperature offset calibration	1,0000default loss term (dB/km)	0,3820temperature slope calibration	1,0000multiplexer offset coefficient	1,0000multiplexer slope coefficient	1,0000fibre end	0,00T internal ref (°C)	13,09T ext. ref 1 (°C)	-3,45T ext. ref 2 (°C)	-3,45length (m)	temperature (°C)	Stokes	anti-Stokes-744,400	98,229	0,093	0,078
-743,385	43,629	-0,185	-0,124
-742,371	800,000	0,002	-0,004
-741,356	-115,430	-0,325	-0,045
-740,342	-110,326	0,215	0,033
-739,327	-91,675	-0,302	-0,063
-738,312	265,727	0,068	0,088
-737,298	-56,274	-0,343	-0,111
-736,283	-41,087	-0,114	0,043
-735,269	53,471	-0,282	0,198
-734,254	-53,272	0,029	0,010
-733,239	-24,850	-0,454	-0,197
-732,225	399,029	0,048	0,074
-731,210	121,887	0,086	0,079
-730,196	272,374	-0,022	-0,028
-729,181	78,686	-0,058	-0,046
-728,167	-34,942	-0,066	-0,027
-727,152	-200,000	-0,017	-0,091
-726,137	60,494	-0,117	-0,085
-725,123	800,000	0,032	-0,078
-724,108	61,249	-0,035	0,026
-723,094	-200,000	-0,000	-0,079
-722,079	210,152	0,093	-0,108
-721,064	-24,767	-0,135	-0,059
-720,050	800,000	-0,036	0,114
-719,035	-150,557	0,044	0,002
-718,021	800,000	-0,016	-0,048
-717,006	800,000	-0,051	-0,126
-715,991	-124,396	-0,076	-0,009
-714,977	-179,584	-0,092	-0,001
-713,962	512,087	0,034	0,058
-712,948	49,112	0,019	0,013
-711,933	-154,695	-0,093	0,004
-710,918	45,993	-0,077	0,052
-709,904	800,000	-0,050	-0,130
-708,889	800,000	-0,049	-0,110
-707,875	-99,553	-0,134	-0,024
-706,860	-200,000	-0,041	-0,188
-705,845	663,126	-0,077	-0,147
-704,831	-37,651	0,064	-0,025
-703,816	447,730	0,062	0,100
-702,802	-59,846	0,177	-0,055
-701,787	118,440	-0,130	-0,117
-700,772	103,056	-0,105	0,091
-699,758	-140,562	0,087	0,007
-698,743	-46,480	0,138	-0,050
-697,729	227,295	0,020	0,024
-696,714	800,000	0,036	0,096
-695,699	-200,000	0,007	-0,068
-694,685	34,705	0,055	0,035
-693,670	185,795	-0,077	-0,084
-692,656	-169,608	-0,100	-0,003
-691,641	800,000	-0,035	0,100
-690,627	-78,511	-0,135	0,034
-689,612	71,801	-0,130	0,099
-688,597	-72,333	-0,192	0,052
-687,583	800,000	0,015	0,041
-686,568	-200,000	0,023	-0,120
-685,554	111,618	-0,088	-0,078
-684,539	-19,463	0,123	0,056
-683,524	67,621	0,040	-0,030
-682,510	-113,202	0,081	0,012
-681,495	-200,000	-0,027	-0,157
-680,481	-200,000	-0,028	-0,160
-679,466	-161,662	-0,269	-0,010
-678,451	-200,000	0,006	0,032
-677,437	800,000	0,019	0,044
-676,422	-83,617	-0,011	0,003
-675,408	239,235	0,048	-0,059
-674,393	-200,000	0,020	0,066
-673,378	-41,603	-0,120	-0,045
-672,364	117,265	0,065	-0,059
-671,349	-178,337	-0,191	-0,003
-670,335	-200,000	-0,014	-0,055
-669,320	-200,000	-0,015	-0,081
-668,305	-130,649	-0,087	-0,008
-667,291	-200,000	-0,034	0,132
-666,276	228,306	-0,088	0,105
-665,262	232,697	-0,118	-0,143
-664,247	-138,192	-0,097	-0,008
-663,232	96,955	-0,054	0,045
-662,218	-57,443	0,010	0,003
-661,203	800,000	-0,011	0,027
-660,189	-200,000	-0,004	0,113
-659,174	-21,573	-0,050	-0,022
-658,159	2,776	-0,141	-0,075
-657,145	800,000	0,057	-0,147
-656,130	-126,108	-0,031	-0,003
-655,116	57,477	0,121	-0,086
-654,101	800,000	-0,021	-0,054
-653,086	-200,000	0,011	-0,049
-652,072	450,505	-0,065	-0,105
-651,057	-17,959	0,052	-0,024
-650,043	-57,572	0,053	0,017
-649,028	61,305	-0,039	0,028
-648,014	69,551	0,068	0,052
-646,999	208,769	0,026	-0,030
-645,984	151,142	0,043	0,043
-644,970	383,640	0,007	0,010
-643,955	-200,000	-0,021	-0,084
-642,941	65,054	0,087	-0,065
-641,926	-200,000	0,009	-0,044
-640,911	-25,887	-0,037	-0,016
-639,897	675,397	0,030	-0,058
-638,882	585,050	0,064	0,116
-637,868	427,383	-0,017	0,028
-636,853	-127,337	0,048	-0,005
-635,838	-26,181	0,096	-0,041
-634,824	-109,597	-0,096	-0,015
-633,809	-200,000	-0,031	-0,128
-632,795	253,975	-0,033	-0,042
-631,780	-200,000	-0,010	0,156
-630,765	184,037	-0,189	0,205
-629,751	-102,415	-0,050	-0,009
-628,736	-141,726	0,033	0,002
-627,722	-24,905	0,025	0,011
-626,707	-90,954	0,188	-0,039
-625,692	-200,000	-0,021	0,097
-624,678	-158,239	0,120	-0,005
-623,663	-159,383	-0,079	-0,003
-622,649	138,148	-0,040	-0,038
-621,634	-28,811	-0,224	-0,094
-620,619	-55,822	-0,063	-0,020
-619,605	-200,000	0,001	0,109
-618,590	797,355	0,036	-0,073
-617,576	-200,000	-0,041	0,135
-616,561	736,681	-0,070	-0,138
-615,546	-39,519	0,131	-0,050
-614,532	77,167	-0,074	-0,058
-613,517	800,000	0,035	0,091
-612,503	-200,000	-0,010	0,072
-611,488	-200,000	-0,003	-0,059
-610,474	468,559	0,048	-0,079
-609,459	76,221	-0,093	-0,072
-608,444	-112,677	-0,066	-0,010
-607,430	-200,000	-0,023	-0,122
-606,415	240,081	0,046	0,056
-605,401	-130,877	-0,066	0,006
-604,386	-103,738	0,028	-0,005
-603,371	-200,000	0,002	0,035
-602,357	-44,778	-0,121	0,044
-601,342	-200,000	0,036	0,176
-600,328	-65,037	0,121	0,035
-599,313	-67,763	0,072	-0,020
-598,298	-38,934	-0,132	-0,050
-597,284	222,999	-0,030	-0,035
-596,269	-200,000	0,004	0,064
-595,255	773,279	-0,037	0,073
-594,240	-200,000	-0,004	-0,078
-593,225	304,943	-0,088	0,120
-592,211	-50,547	-0,215	-0,074
-591,196	51,900	-0,113	-0,078
-590,182	-114,818	0,118	0,016
-589,167	8,399	-0,157	0,086
-588,152	44,418	-0,143	0,096
-587,138	-76,896	-0,052	-0,013
-586,123	800,000	-0,028	-0,067
-585,109	-32,726	-0,056	0,023
-584,094	-158,153	-0,127	0,005
-583,079	-174,008	0,204	0,004
-582,065	337,705	0,055	0,078
-581,050	-142,033	-0,090	0,006
-580,036	-200,000	-0,034	0,121
-579,021	25,701	-0,118	-0,071
-578,006	800,000	0,022	-0,052
-576,992	71,942	0,002	0,001
-575,977	217,438	0,028	-0,032
-574,963	-200,000	0,023	-0,103
-573,948	195,575	-0,065	0,072
-572,934	-200,000	0,026	-0,209
-571,919	-30,947	0,084	-0,034
-570,904	102,659	-0,088	-0,075
-569,890	359,156	-0,019	-0,028
-568,875	-200,000	-0,001	0,099
-567,861	200,427	-0,032	0,036
-566,846	-89,138	0,167	-0,036
-565,831	-22,737	0,157	-0,069
-564,817	207,723	0,014	0,016
-563,802	29,300	0,078	-0,048
-562,788	-200,000	0,002	-0,012
-561,773	-11,606	0,130	-0,062
-560,758	-58,844	0,068	-0,021
-559,744	-145,356	-0,031	-0,002
-558,729	-103,202	0,160	0,027
-557,715	-161,123	-0,114	-0,004
-556,700	316,155	-0,049	-0,068
-555,685	-127,911	-0,099	-0,010
-554,671	515,703	0,074	0,126
-553,656	347,285	-0,050	-0,073
-552,642	-88,044	0,063	0,014
-551,627	-200,000	-0,016	-0,078
-550,612	106,191	-0,078	0,067
-549,598	-22,609	-0,050	0,022
-548,583	14,499	-0,100	-0,057
-547,569	697,060	0,050	0,096
-546,554	200,854	-0,041	-0,046
-545,539	-200,000	0,004	0,035
-544,525	-200,000	-0,001	0,120
-543,510	-112,534	0,045	0,007
-542,496	-83,844	-0,098	-0,022
-541,481	-94,154	0,067	-0,013
-540,466	-200,000	0,019	0,071
-539,452	-69,694	0,052	0,014
-538,437	13,760	0,136	-0,077
-537,423	-82,234	-0,066	-0,016
-536,408	516,562	-0,037	-0,064
-535,393	-103,366	-0,147	-0,025
-534,379	191,342	0,043	0,048
-533,364	608,940	0,026	0,047
-532,350	266,330	-0,103	0,132
-531,335	-200,000	0,013	0,095
-530,321	-3,719	0,062	0,032
-529,306	15,852	-0,080	-0,046
-528,291	12,183	0,076	0,042
-527,277	-71,001	0,087	-0,024
-526,262	192,809	0,086	-0,094
-525,248	-83,643	0,132	-0,031
-524,233	-9,520	-0,083	-0,040
-523,218	800,000	0,016	0,047
-522,204	-2,028	0,044	0,023
-521,189	5,355	-0,055	-0,030
-520,175	66,109	0,058	0,043
-519,160	-7,694	0,029	0,014
-518,145	64,983	-0,115	-0,085
-517,131	-71,218	0,041	0,011
-516,116	281,911	0,045	0,058
-515,102	401,836	-0,013	-0,019
-514,087	800,000	-0,064	-0,156
-513,072	519,944	0,030	0,051
-512,058	800,000	0,047	-0,101
-511,043	-64,142	0,110	0,033
-510,029	-7,872	0,105	0,052
-509,014	344,617	0,083	0,119
-507,999	800,000	-0,019	0,059
-506,985	52,289	0,148	-0,103
-505,970	574,747	-0,022	0,039
-504,956	800,000	0,029	-0,079
-503,941	-26,861	-0,038	-0,016
-502,926	-88,879	0,023	0,005
-501,912	394,305	0,044	0,066
-500,897	16,562	0,023	0,013
-499,883	775,856	-0,015	-0,031
-498,868	-154,547	0,146	-0,007
-497,853	-200,000	-0,000	-0,055
-496,839	155,831	0,093	-0,093
-495,824	-17,296	0,048	0,022
-494,810	-100,399	0,009	0,002
-493,795	-33,041	-0,081	-0,033
-492,781	-138,849	-0,090	0,007
-491,766	114,368	-0,110	-0,098
-490,751	501,633	-0,072	-0,121
-489,737	-200,000	-0,004	-0,074
-488,722	-200,000	0,000	0,118
-487,708	368,014	0,055	-0,081
-486,693	-200,000	-0,006	0,025
-485,678	208,873	-0,082	0,094
-484,664	465,426	-0,034	-0,055
-483,649	526,379	-0,042	-0,073
-482,635	-192,244	-0,122	-0,001
-481,620	-200,000	0,022	0,134
-480,605	800,000	0,021	-0,056
-479,591	40,232	0,083	0,054
-478,576	-200,000	-0,022	0,102
-477,562	-1,543	0,089	-0,046
-476,547	326,309	0,052	-0,073
-475,532	-120,043	0,075	-0,009
-474,518	-108,681	0,016	0,003
-473,503	-59,888	0,121	-0,037
-472,489	52,388	-0,071	0,050
-471,474	518,397	0,028	0,048
-470,459	379,404	-0,091	-0,137
-469,445	202,337	0,026	-0,029
-468,430	-200,000	-0,016	-0,106
-467,416	-200,000	0,001	0,177
-466,401	-26,558	0,086	0,037
-465,386	-78,069	0,067	-0,017
-464,372	-106,971	-0,148	-0,024
-463,357	-118,975	0,097	-0,012
-462,343	-54,198	-0,134	0,044
-461,328	-200,000	-0,016	-0,144
-460,313	780,908	0,049	0,099
-459,299	299,691	0,086	-0,115
-458,284	417,720	-0,019	0,030
-457,270	594,587	-0,084	0,151
-456,255	59,071	0,073	0,052
-455,241	-200,000	0,025	-0,176
-454,226	-28,599	-0,103	0,043
-453,211	-200,000	0,031	-0,134
-452,197	230,083	0,071	0,085
-451,182	-95,504	0,065	0,012
-450,168	-200,000	-0,001	-0,098
-449,153	40,137	0,097	-0,063
-448,138	-2,880	-0,191	-0,096
-447,124	-33,166	0,069	-0,028
-446,109	237,883	0,073	-0,088
-445,095	433,652	-0,034	0,054
-444,080	-82,344	0,135	-0,032
-443,065	-134,048	-0,059	0,005
-442,051	-200,000	-0,021	-0,152
-441,036	357,603	-0,126	-0,184
-440,022	-118,953	-0,098	0,012
-439,007	211,157	-0,069	-0,079
-437,992	51,155	-0,164	0,113
-436,978	489,730	0,083	-0,138
-435,963	-1,712	-0,026	-0,013
-434,949	-200,000	0,001	-0,081
-433,934	141,878	-0,082	0,079
-432,919	-90,317	-0,093	0,019
-431,905	-81,762	-0,029	0,007
-430,890	469,632	0,049	-0,080
-429,876	-107,948	0,069	0,011
-428,861	5,879	0,024	0,013
-427,846	69,004	-0,058	-0,043
-426,832	-200,000	0,025	0,098
-425,817	-200,000	0,000	-0,078
-424,803	-52,022	-0,128	-0,043
-423,788	217,536	0,063	0,074
-422,773	-122,774	-0,055	0,006
-421,759	96,864	0,097	-0,081
-420,744	-200,000	-0,007	0,055
-419,730	88,735	-0,065	0,052
-418,715	-200,000	-0,024	-0,090
-417,701	-4,801	-0,071	0,035
-416,686	-105,939	-0,130	0,021
-415,671	-175,237	0,069	-0,001
-414,657	-150,372	0,041	0,002
-413,642	-200,000	0,048	-0,165
-412,628	690,713	-0,074	-0,142
-411,613	-161,579	-0,052	0,002
-410,598	-79,258	-0,061	-0,015
-409,584	2,974	-0,006	-0,003
-408,569	709,343	0,034	0,066
-407,555	127,188	-0,038	-0,035
-406,540	-200,000	0,026	0,170
-405,525	235,415	-0,068	-0,082
-404,511	-200,000	0,054	-0,187
-403,496	-10,988	0,011	-0,005
-402,482	-37,979	0,070	-0,027
-401,467	527,701	0,040	0,068
-400,452	35,689	0,113	0,072
-399,438	-200,000	0,003	0,039
-398,423	372,759	0,040	-0,060
-397,409	-22,874	-0,045	0,020
-396,394	-112,990	0,108	-0,015
-395,379	67,935	-0,082	-0,061
-394,365	800,000	0,033	0,084
-393,350	118,788	0,010	0,009
-392,336	-200,000	0,008	0,176
-391,321	27,633	-0,088	0,054
-390,306	-200,000	0,021	-0,149
-389,292	800,000	0,009	-0,019
-388,277	-200,000	0,154	0,000
-387,263	-110,727	0,094	0,014
-386,248	800,000	-0,022	0,057
-385,233	800,000	0,006	-0,014
-384,219	276,358	-0,142	0,183
-383,204	185,457	-0,036	-0,039
-382,190	34,987	0,022	0,014
-381,175	800,000	0,028	-0,078
-380,160	-200,000	0,014	0,091
-379,146	-90,278	-0,085	-0,018
-378,131	-200,000	0,019	0,126
-377,117	-200,000	0,022	0,106
-376,102	-103,041	-0,127	-0,022
-375,088	578,884	-0,062	-0,111
-374,073	81,746	0,139	0,109
-373,058	159,517	0,098	0,099
-372,044	7,885	0,077	0,042
-371,029	-200,000	-0,013	0,047
-370,015	220,566	-0,019	0,022
-369,000	-41,995	-0,075	-0,028
-367,985	548,998	-0,021	0,036
-366,971	-200,000	-0,013	0,046
-365,956	800,000	0,042	-0,125
-364,942	800,000	0,034	-0,078
-363,927	-34,978	0,107	0,042
-362,912	-200,000	-0,033	0,108
-361,898	-200,000	0,023	-0,076
-360,883	141,783	0,050	0,048
-359,869	183,453	-0,079	0,084
-358,854	632,547	0,055	0,102
-357,839	-33,905	0,043	-0,017
-356,825	-200,000	0,016	0,087
-355,810	-200,000	0,031	-0,118
-354,796	26,544	-0,014	-0,009
-353,781	-200,000	-0,005	0,070
-352,766	231,177	-0,061	-0,072
-351,752	717,999	-0,032	-0,062
-350,737	210,512	0,099	0,113
-349,723	28,378	-0,062	-0,038
-348,708	-200,000	0,016	-0,098
-347,693	-200,000	0,016	0,131
-346,679	-165,961	0,044	0,001
-345,664	59,556	-0,127	0,091
-344,650	141,843	-0,015	-0,015
-343,635	800,000	0,029	0,077
-342,620	-200,000	-0,027	0,093
-341,606	-200,000	-0,022	-0,117
-340,591	-200,000	-0,005	-0,095
-339,577	-145,372	-0,185	-0,012
-338,562	184,753	0,075	-0,081
-337,548	-6,482	0,181	-0,089
-336,533	42,562	0,003	-0,002
-335,518	-200,000	0,009	0,067
-334,504	-200,000	-0,007	0,194
-333,489	-96,895	0,157	0,030
-332,475	213,935	0,045	0,052
-331,460	43,706	0,108	-0,071
-330,445	-200,000	0,004	-0,038
-329,431	-50,676	-0,071	0,024
-328,416	244,260	0,127	-0,155
-327,402	-126,829	-0,190	0,020
-326,387	-200,000	-0,004	0,069
-325,372	66,690	-0,040	0,030
-324,358	800,000	-0,032	-0,094
-323,343	282,799	-0,061	-0,079
-322,329	-200,000	0,007	0,060
-321,314	15,005	-0,024	-0,013
-320,299	38,966	0,037	-0,024
-319,285	756,355	0,039	-0,077
-318,270	-200,000	-0,013	-0,077
-317,256	90,704	0,021	0,017
-316,241	-200,000	0,009	0,194
-315,226	-200,000	-0,012	-0,118
-314,212	-160,289	0,030	-0,001
-313,197	-200,000	-0,014	-0,066
-312,183	648,406	0,076	0,141
-311,168	-46,054	0,025	0,009
-310,153	-200,000	-0,008	-0,213
-309,139	800,000	-0,070	-0,184
-308,124	434,811	0,086	-0,136
-307,110	285,449	-0,049	-0,064
-306,095	610,619	0,077	0,139
-305,080	800,000	0,027	-0,060
-304,066	427,085	-0,095	-0,148
-303,051	515,002	0,092	-0,156
-302,037	-162,609	-0,103	0,004
-301,022	-200,000	-0,031	0,122
-300,008	800,000	0,035	0,073
-298,993	-200,000	-0,001	-0,028
-297,978	-105,135	0,048	-0,008
-296,964	-17,036	-0,064	-0,029
-295,949	-108,507	0,149	0,023
-294,935	-121,995	-0,110	-0,013
-293,920	800,000	0,017	0,050
-292,905	-200,000	0,017	0,109
-291,891	105,869	0,104	0,089
-290,876	655,656	0,088	0,164
-289,862	800,000	0,022	0,067
-288,847	170,502	-0,095	-0,098
-287,832	68,684	0,065	-0,048
-286,818	1,777	-0,026	-0,014
-285,803	-74,295	-0,105	0,027
-284,789	-156,542	0,124	0,005
-283,774	-17,083	0,062	-0,028
-282,759	297,719	-0,021	0,028
-281,745	-32,344	-0,061	-0,024
-280,730	-200,000	-0,022	-0,109
-279,716	181,376	0,075	-0,080
-278,701	365,280	-0,016	-0,023
-277,686	800,000	-0,022	-0,047
-276,672	677,079	-0,047	-0,089
-275,657	277,007	0,036	0,046
-274,643	306,819	0,108	0,146
-273,628	800,000	0,050	-0,127
-272,613	-200,000	0,014	-0,046
-271,599	-200,000	-0,003	0,030
-270,584	156,673	-0,078	0,078
-269,570	563,729	0,005	-0,008
-268,555	-200,000	0,005	0,020
-267,540	6,221	0,068	-0,036
-266,526	687,548	-0,064	-0,122
-265,511	183,449	0,058	0,062
-264,497	152,932	0,052	0,051
-263,482	38,843	-0,011	-0,007
-262,467	-118,289	0,064	0,008
-261,453	443,325	0,082	0,131
-260,438	125,188	-0,104	0,094
-259,424	46,253	-0,047	-0,032
-258,409	800,000	-0,024	-0,060
-257,395	800,000	-0,040	0,086
-256,380	-27,711	0,063	-0,026
-255,365	-200,000	0,016	-0,063
-254,351	-200,000	0,016	0,112
-253,336	-200,000	-0,015	0,134
-252,322	21,741	-0,064	-0,038
-251,307	-200,000	0,011	0,078
-250,292	687,788	-0,092	0,174
-249,278	106,238	0,086	0,074
-248,263	-200,000	-0,004	-0,021
-247,249	51,301	0,114	0,078
-246,234	-200,000	-0,003	-0,073
-245,219	-200,000	0,016	-0,088
-244,205	800,000	0,028	0,066
-243,190	1,523	-0,152	0,079
-242,176	-164,984	0,080	-0,003
-241,161	196,833	0,068	-0,075
-240,146	420,143	-0,055	0,085
-239,132	395,409	0,034	0,052
-238,117	745,734	-0,058	0,114
-237,103	16,479	-0,059	-0,033
-236,088	-68,568	-0,131	0,036
-235,073	-200,000	-0,006	0,068
-234,059	-108,615	-0,016	0,002
-233,044	-200,000	-0,012	0,066
-232,030	167,348	-0,028	0,029
-231,015	-20,711	-0,061	-0,027
-230,000	-18,630	-0,068	0,030
-228,986	800,000	0,029	-0,072
-227,971	-200,000	-0,039	0,131
-226,957	800,000	0,088	0,178
-225,942	-87,844	0,060	0,013
-224,927	-80,747	-0,168	-0,040
-223,913	123,530	0,072	-0,065
-222,898	250,071	-0,054	-0,066
-221,884	-34,360	-0,061	0,024
-220,869	-19,147	0,147	0,066
-219,855	-200,000	-0,010	-0,093
-218,840	131,658	0,017	0,015
-217,825	609,634	0,033	-0,060
-216,811	127,635	-0,056	-0,051
-215,796	-100,753	-0,043	0,008
-214,782	-74,018	0,058	0,015
-213,767	800,000	0,016	0,043
-212,752	22,210	-0,146	0,086
-211,738	-200,000	-0,002	-0,008
-210,723	720,084	0,017	-0,033
-209,709	-112,933	-0,052	-0,007
-208,694	-9,839	0,023	-0,011
-207,679	-200,000	0,014	0,060
-206,665	-78,218	0,028	-0,007
-205,650	425,494	0,046	0,072
-204,636	-200,000	0,002	0,078
-203,621	443,700	-0,029	0,045
-202,606	242,360	-0,050	-0,060
-201,592	800,000	0,010	0,023
-200,577	-200,000	-0,036	-0,172
-199,563	-50,539	-0,075	0,025
-198,548	427,215	0,057	-0,089
-197,533	-80,773	0,143	-0,034
-196,519	-40,796	0,134	-0,050
-195,504	800,000	0,041	0,086
-194,490	-200,000	-0,006	-0,113
-193,475	582,851	-0,022	-0,039
-192,460	144,513	-0,050	0,048
-191,446	-9,820	0,034	0,016
-190,431	800,000	-0,029	-0,072
-189,417	-200,000	-0,015	0,061
-188,402	-200,000	-0,003	0,145
-187,387	-200,000	-0,001	-0,063
-186,373	416,549	0,080	-0,123
-185,358	-72,605	0,098	-0,026
-184,344	-147,264	-0,060	-0,004
-183,329	800,000	0,069	0,147
-182,315	269,730	0,037	-0,047
-181,300	393,646	0,093	0,139
-180,285	-36,013	0,048	-0,018
-179,271	641,442	0,051	0,093
-178,256	-4,564	-0,159	0,079
-177,242	22,151	-0,055	0,032
-176,227	600,473	0,094	0,169
-175,212	670,669	0,071	-0,132
-174,198	-139,281	0,077	0,006
-173,183	68,270	-0,131	-0,097
-172,169	-200,000	-0,012	0,090
-171,154	-200,000	0,020	-0,095
-170,139	-92,084	-0,068	0,014
-169,125	-12,040	0,111	0,052
-168,110	-141,549	-0,088	0,006
-167,096	623,789	-0,024	0,044
-166,081	69,248	-0,127	0,094
-165,066	147,091	-0,032	0,031
-164,052	-108,653	-0,085	-0,013
-163,037	-200,000	-0,025	0,172
-162,023	-200,000	0,019	-0,119
-161,008	19,562	-0,059	-0,034
-159,993	-8,168	0,052	0,025
-158,979	60,114	-0,047	-0,034
-157,964	-86,672	-0,031	-0,007
-156,950	45,162	-0,086	-0,057
-155,935	-200,000	-0,038	-0,187
-154,920	365,213	0,043	-0,063
-153,906	228,296	-0,113	0,133
-152,891	-68,150	0,068	-0,019
-151,877	800,000	-0,043	-0,129
-150,862	160,614	-0,088	-0,088
-149,847	800,000	-0,009	-0,023
-148,833	-103,493	0,070	0,012
-147,818	-130,517	-0,015	0,001
-146,804	800,000	0,018	-0,040
-145,789	800,000	-0,045	0,091
-144,775	-200,000	0,039	0,124
-143,760	-200,000	-0,005	0,109
-142,745	800,000	0,026	0,068
-141,731	800,000	0,017	0,054
-140,716	228,166	0,058	0,069
-139,702	266,087	0,039	-0,049
-138,687	81,950	0,061	-0,047
-137,672	91,813	0,069	0,056
-136,658	77,959	-0,076	-0,058
-135,643	247,607	-0,037	0,045
-134,629	800,000	-0,060	-0,156
-133,614	-200,000	0,014	0,135
-132,599	-200,000	-0,010	0,122
-131,585	-200,000	0,006	0,026
-130,570	26,217	-0,140	-0,084
-129,556	210,113	0,055	-0,062
-128,541	719,243	0,035	-0,068
-127,526	-30,553	-0,107	-0,043
-126,512	106,643	0,072	0,061
-125,497	-121,545	0,122	-0,014
-124,483	-200,000	0,013	0,113
-123,468	-124,074	0,060	0,007
-122,453	64,941	-0,068	0,049
-121,439	-20,930	0,013	-0,006
-120,424	800,000	-0,006	-0,013
-119,410	-117,996	0,019	-0,002
