DTS Sentinel unit serial number:	SN410029Multiplexer serial number:	ORYXHardware model number:	OX2-SRSoftware version number:	ORYX F/W v4,00 Oryx Data Collector v3.7.2.0data status	okinstallation	B6 Nyhavnadifferential loss correction	single-endedforward channel	channel 2reverse channel	N/Adate	2023/12/08time	18:10:08forward acquisition time	300,00reverse acquisition time	0,00gamma	499,1914k internal	0,3159k external	0,3159temperature offset calibration	1,0000default loss term (dB/km)	0,3820temperature slope calibration	1,0000multiplexer offset coefficient	1,0000multiplexer slope coefficient	1,0000fibre end	0,00T internal ref (°C)	15,25T ext. ref 1 (°C)	-1,26T ext. ref 2 (°C)	-1,27length (m)	temperature (°C)	Stokes	anti-Stokes-744,400	331,472	0,049	-0,069
-743,385	-143,376	-0,302	-0,021
-742,371	-90,775	0,121	0,026
-741,356	-195,400	-0,355	0,002
-740,342	-153,296	0,118	-0,006
-739,327	-128,803	-0,360	-0,037
-738,312	-36,974	0,202	0,079
-737,298	-158,973	-0,375	-0,015
-736,283	-57,761	0,240	0,077
-735,269	-115,070	-0,375	-0,052
-734,254	-108,344	0,210	0,033
-733,239	-76,543	-0,476	-0,122
-732,225	-88,127	0,157	0,034
-731,210	133,336	-0,064	0,061
-730,196	299,675	-0,042	-0,057
-729,181	-200,000	-0,026	-0,138
-728,167	217,818	-0,014	0,017
-727,152	378,038	-0,102	-0,154
-726,137	-91,831	-0,054	0,011
-725,123	-76,846	-0,076	0,019
-724,108	800,000	-0,057	-0,144
-723,094	-43,567	-0,187	-0,069
-722,079	-200,000	-0,027	-0,228
-721,064	-200,000	-0,007	-0,031
-720,050	-92,146	0,034	-0,007
-719,035	800,000	0,032	-0,066
-718,021	109,362	-0,075	-0,066
-717,006	290,487	0,099	-0,133
-715,991	-51,527	-0,245	-0,084
-714,977	-63,447	0,052	-0,016
-713,962	-10,683	-0,082	-0,040
-712,948	-200,000	-0,013	0,072
-711,933	-118,875	-0,142	-0,018
-710,918	-14,474	-0,055	0,026
-709,904	599,312	0,006	-0,012
-708,889	800,000	-0,028	0,075
-707,875	287,525	-0,047	-0,063
-706,860	102,575	0,043	0,037
-705,845	-200,000	0,015	-0,080
-704,831	-81,294	-0,054	-0,013
-703,816	-38,055	0,006	0,002
-702,802	-200,000	0,010	0,049
-701,787	-200,000	-0,015	-0,152
-700,772	-200,000	0,036	-0,211
-699,758	-200,000	0,032	-0,146
-698,743	-52,942	-0,057	-0,019
-697,729	437,705	-0,018	-0,029
-696,714	93,487	-0,017	-0,014
-695,699	103,297	-0,064	-0,055
-694,685	-200,000	-0,001	0,073
-693,670	243,172	-0,079	-0,098
-692,656	-111,968	0,069	0,010
-691,641	627,162	-0,040	0,075
-690,627	-200,000	-0,008	0,215
-689,612	-200,000	-0,015	0,078
-688,597	-200,000	0,022	-0,089
-687,583	97,399	-0,099	-0,083
-686,568	-200,000	0,001	0,060
-685,554	800,000	-0,056	-0,119
-684,539	304,953	-0,045	-0,062
-683,524	128,366	-0,072	0,068
-682,510	-84,433	0,109	-0,025
-681,495	-32,604	-0,133	-0,054
-680,481	-200,000	0,054	-0,191
-679,466	-109,529	0,075	-0,011
-678,451	-200,000	0,000	-0,065
-677,437	-36,223	-0,069	-0,027
-676,422	800,000	-0,030	-0,061
-675,408	-111,393	0,057	0,009
-674,393	553,051	0,058	0,103
-673,378	258,830	-0,088	-0,112
-672,364	432,744	-0,074	0,119
-671,349	29,636	-0,033	-0,021
-670,335	300,957	-0,033	-0,045
-669,320	514,264	0,080	-0,138
-668,305	48,384	0,113	-0,078
-667,291	8,645	-0,082	-0,045
-666,276	-158,129	0,027	-0,001
-665,262	-7,895	-0,013	-0,006
-664,247	130,593	-0,086	0,081
-663,232	800,000	-0,021	-0,053
-662,218	108,125	0,031	-0,027
-661,203	-137,940	-0,083	-0,007
-660,189	-115,229	-0,117	0,016
-659,174	79,785	-0,055	0,043
-658,159	346,530	-0,016	0,023
-657,145	262,975	-0,069	-0,089
-656,130	-200,000	0,004	0,017
-655,116	17,958	0,114	-0,067
-654,101	1,289	0,115	0,060
-653,086	35,324	0,055	0,035
-652,072	118,957	0,107	-0,097
-651,057	-200,000	-0,025	-0,090
-650,043	491,463	-0,044	0,074
-649,028	-19,463	0,006	0,003
-648,014	130,425	0,050	0,047
-646,999	-56,365	0,085	0,028
-645,984	749,796	0,016	-0,031
-644,970	-162,283	-0,187	-0,007
-643,955	-200,000	0,001	-0,051
-642,941	161,434	-0,006	-0,006
-641,926	14,145	-0,016	0,009
-640,911	-200,000	0,009	-0,083
-639,897	-120,332	0,032	0,004
-638,882	340,039	-0,108	0,155
-637,868	-200,000	0,019	-0,151
-636,853	-200,000	-0,010	-0,145
-635,838	-19,120	-0,101	0,046
-634,824	108,625	-0,079	0,069
-633,809	-200,000	0,023	-0,102
-632,795	562,908	-0,016	-0,029
-631,780	410,112	-0,060	0,094
-630,765	-200,000	-0,004	0,116
-629,751	-200,000	-0,002	-0,048
-628,736	-144,503	-0,123	0,008
-627,722	-35,890	-0,067	-0,026
-626,707	-200,000	0,024	0,093
-625,692	154,145	0,044	0,044
-624,678	31,750	0,075	-0,047
-623,663	-200,000	0,006	-0,095
-622,649	800,000	-0,035	-0,095
-621,634	94,915	-0,084	0,070
-620,619	82,331	0,034	-0,027
-619,605	49,012	0,145	-0,100
-618,590	-200,000	-0,011	-0,060
-617,576	-64,498	-0,171	-0,051
-616,561	-178,539	-0,058	0,001
-615,546	417,082	-0,066	0,103
-614,532	-84,992	-0,161	0,037
-613,517	-200,000	-0,049	-0,175
-612,503	35,074	-0,063	-0,040
-611,488	461,927	-0,051	-0,084
-610,474	-200,000	0,010	-0,049
-609,459	433,480	0,025	0,039
-608,444	189,871	-0,043	-0,048
-607,430	-84,717	-0,089	0,020
-606,415	-200,000	-0,009	0,061
-605,401	-159,247	-0,135	0,005
-604,386	-200,000	0,018	-0,129
-603,371	800,000	0,028	0,058
-602,357	-200,000	0,008	0,075
-601,342	-200,000	-0,036	0,167
-600,328	93,715	-0,065	0,054
-599,313	-13,889	-0,127	-0,060
-598,298	-155,356	-0,055	0,003
-597,284	800,000	0,031	-0,075
-596,269	296,608	0,046	0,063
-595,255	-65,780	0,116	0,034
-594,240	-200,000	0,008	0,171
-593,225	227,795	-0,080	0,095
-592,211	800,000	0,047	-0,102
-591,196	-200,000	-0,008	0,054
-590,182	-200,000	-0,001	0,090
-589,167	-200,000	0,035	0,130
-588,152	55,427	-0,144	0,102
-587,138	-116,081	0,036	0,005
-586,123	249,510	-0,100	-0,125
-585,109	-200,000	-0,018	-0,106
-584,094	800,000	0,047	-0,125
-583,079	-22,949	-0,068	0,030
-582,065	161,893	-0,035	-0,036
-581,050	-26,580	0,073	-0,031
-580,036	496,793	0,039	0,067
-579,021	-66,565	0,109	-0,031
-578,006	-200,000	-0,013	-0,119
-576,992	800,000	-0,012	0,025
-575,977	593,774	-0,033	0,059
-574,963	18,153	0,156	0,091
-573,948	-200,000	0,004	0,083
-572,934	-134,321	-0,076	0,007
-571,919	-200,000	-0,014	-0,175
-570,904	800,000	-0,015	-0,038
-569,890	-153,610	0,037	-0,002
-568,875	-200,000	0,009	-0,028
-567,861	-60,879	-0,040	0,012
-566,846	62,247	0,095	-0,070
-565,831	-51,843	-0,098	-0,033
-564,817	643,852	0,030	-0,056
-563,802	-200,000	0,014	-0,061
-562,788	82,350	-0,113	0,090
-561,773	561,527	0,035	0,062
-560,758	-200,000	-0,014	0,054
-559,744	3,363	-0,104	0,055
-558,729	-200,000	0,008	0,136
-557,715	-200,000	0,005	0,037
-556,700	800,000	-0,065	-0,135
-555,685	-108,024	0,042	-0,007
-554,671	302,541	-0,024	0,033
-553,656	189,974	-0,146	-0,161
-552,642	-12,810	0,067	-0,032
-551,627	190,531	0,040	0,044
-550,612	156,071	-0,104	-0,105
-549,598	-77,305	-0,051	-0,013
-548,583	-200,000	-0,001	-0,124
-547,569	117,146	-0,049	0,044
-546,554	800,000	0,029	-0,063
-545,539	-63,313	0,130	-0,039
-544,525	-86,509	0,052	0,012
-543,510	800,000	-0,020	-0,050
-542,496	-137,087	-0,159	-0,013
-541,481	-200,000	-0,013	-0,196
-540,466	-159,611	-0,083	0,003
-539,452	-95,791	-0,031	-0,006
-538,437	-23,713	-0,064	0,028
-537,423	-200,000	0,032	0,229
-536,408	-200,000	-0,056	0,000
-535,393	800,000	-0,056	-0,127
-534,379	49,689	-0,130	-0,089
-533,364	375,546	0,039	0,058
-532,350	-178,125	-0,036	-0,001
-531,335	447,621	-0,040	-0,064
-530,321	93,271	0,104	0,086
-529,306	103,073	-0,113	-0,097
-528,291	205,760	-0,168	-0,192
-527,277	797,480	0,049	-0,100
-526,262	-200,000	0,031	-0,115
-525,248	-200,000	-0,028	-0,127
-524,233	-200,000	-0,001	0,041
-523,218	2,916	0,113	-0,060
-522,204	-70,393	-0,050	-0,014
-521,189	-191,233	0,134	-0,001
-520,175	389,510	-0,082	-0,125
-519,160	-155,028	-0,078	-0,004
-518,145	-26,830	0,145	0,062
-517,131	-200,000	-0,026	0,141
-516,116	-134,655	-0,044	0,004
-515,102	-200,000	-0,005	0,019
-514,087	-200,000	0,042	0,140
-513,072	9,242	-0,155	-0,086
-512,058	59,031	-0,115	-0,083
-511,043	165,691	0,056	-0,058
-510,029	-24,761	-0,109	-0,047
-509,014	800,000	-0,032	0,092
-507,999	-200,000	-0,008	-0,057
-506,985	173,158	-0,041	0,043
-505,970	-5,197	-0,089	-0,044
-504,956	167,474	0,044	-0,045
-503,941	88,377	0,043	0,035
-502,926	118,342	-0,095	0,086
-501,912	277,991	0,107	0,140
-500,897	26,134	-0,051	0,031
-499,883	800,000	0,032	0,086
-498,868	606,609	-0,030	-0,055
-497,853	-200,000	-0,000	-0,073
-496,839	217,698	0,036	-0,042
-495,824	200,030	0,036	0,041
-494,810	129,018	0,113	0,105
-493,795	800,000	-0,018	-0,042
-492,781	363,547	-0,060	0,088
-491,766	-156,941	0,008	0,000
-490,751	-160,312	-0,148	-0,006
-489,737	800,000	-0,058	-0,143
-488,722	150,383	0,069	0,069
-487,708	800,000	-0,047	0,124
-486,693	585,208	-0,059	0,107
-485,678	6,631	-0,052	0,028
-484,664	675,598	-0,044	0,083
-483,649	-137,032	-0,100	0,008
-482,635	-200,000	-0,001	-0,038
-481,620	166,198	-0,066	0,068
-480,605	111,602	0,128	0,113
-479,591	-200,000	-0,005	-0,026
-478,576	9,326	-0,082	-0,045
-477,562	181,186	-0,044	0,047
-476,547	-200,000	0,000	-0,052
-475,532	-69,148	-0,159	-0,044
-474,518	116,591	0,037	0,033
-473,503	14,180	0,040	0,023
-472,489	324,193	0,092	0,128
-471,474	-76,003	0,132	0,034
-470,459	-52,739	-0,091	-0,031
-469,445	-183,035	-0,056	-0,001
-468,430	-110,614	0,142	-0,021
-467,416	-140,802	0,043	-0,003
-466,401	-38,475	-0,150	0,057
-465,386	-200,000	0,017	-0,064
-464,372	-3,708	-0,038	0,019
-463,357	-113,241	-0,005	-0,001
-462,343	-134,900	0,030	-0,003
-461,328	-200,000	0,002	-0,133
-460,313	-32,003	-0,072	-0,029
-459,299	114,346	0,088	0,078
-458,284	107,516	0,122	0,105
-457,270	-200,000	-0,017	-0,064
-456,255	800,000	-0,030	-0,084
-455,241	-149,654	0,039	-0,002
-454,226	-43,870	0,068	-0,025
-453,211	278,474	-0,067	-0,088
-452,197	117,037	0,101	0,091
-451,182	-200,000	-0,010	0,234
-450,168	587,533	0,059	0,107
-449,153	-22,761	-0,043	-0,019
-448,138	101,251	0,091	0,077
-447,124	103,853	-0,093	0,080
-446,109	-108,906	0,025	0,004
-445,095	800,000	-0,013	0,029
-444,080	-125,727	0,164	0,018
-443,065	800,000	0,058	0,160
-442,051	-50,154	-0,055	-0,019
-441,036	-200,000	-0,046	-0,180
-440,022	-129,909	0,076	-0,007
-439,007	-83,701	-0,078	0,018
-437,992	-200,000	-0,025	0,084
-436,978	-15,593	0,115	0,053
-435,963	702,359	-0,017	0,032
-434,949	108,521	-0,023	-0,020
-433,934	42,894	0,130	-0,086
-432,919	173,230	-0,006	0,007
-431,905	415,129	-0,044	-0,069
-430,890	334,548	0,057	0,080
-429,876	14,478	0,024	0,013
-428,861	800,000	0,033	0,078
-427,846	64,027	-0,053	0,039
-426,832	-200,000	-0,062	-0,217
-425,817	-117,919	0,058	-0,007
-424,803	508,621	-0,051	-0,087
-423,788	160,089	0,060	0,061
-422,773	-200,000	0,053	0,192
-421,759	-123,993	-0,119	-0,014
-420,744	-200,000	0,004	0,117
-419,730	800,000	0,034	0,084
-418,715	38,996	-0,110	-0,071
-417,701	-108,571	0,098	-0,015
-416,686	7,399	0,026	0,014
-415,671	725,912	-0,066	-0,129
-414,657	-138,007	0,110	0,009
-413,642	-200,000	-0,016	0,095
-412,628	163,700	-0,066	-0,068
-411,613	80,119	-0,105	-0,082
-410,598	186,103	-0,027	-0,030
-409,584	-51,464	-0,190	0,064
-408,569	-73,452	0,198	-0,052
-407,555	107,496	0,099	0,086
-406,540	-96,117	-0,100	0,019
-405,525	439,553	0,040	0,064
-404,511	800,000	0,026	-0,077
-403,496	-136,087	0,112	0,009
-402,482	-200,000	-0,027	0,101
-401,467	-46,815	0,110	0,039
-400,452	-41,032	0,087	-0,033
-399,438	304,604	0,028	-0,037
-398,423	127,384	-0,039	-0,036
-397,409	-121,230	0,085	-0,010
-396,394	-200,000	0,000	-0,093
-395,379	322,775	-0,059	-0,082
-394,365	25,871	0,109	-0,066
-393,350	12,629	0,101	0,056
-392,336	-200,000	0,028	0,127
-391,321	800,000	-0,016	0,043
-390,306	-51,999	-0,047	-0,016
-389,292	593,621	0,050	-0,090
-388,277	-107,673	0,108	-0,017
-387,263	307,034	0,021	-0,029
-386,248	-118,799	0,045	0,006
-385,233	-27,032	0,011	0,005
-384,219	-200,000	0,038	0,144
-383,204	30,997	-0,097	-0,061
-382,190	234,201	0,096	-0,116
-381,175	-119,133	0,161	0,020
-380,160	91,369	-0,107	0,088
-379,146	299,209	0,124	0,166
-378,131	19,248	0,088	-0,051
-377,117	800,000	0,021	-0,059
-376,102	-200,000	0,017	-0,190
-375,088	97,183	-0,126	-0,105
-374,073	23,291	-0,021	0,013
-373,058	-200,000	-0,007	-0,044
-372,044	-200,000	-0,009	0,042
-371,029	-22,995	-0,107	-0,047
-370,015	-97,427	-0,148	-0,028
-369,000	-200,000	-0,001	-0,110
-367,985	-84,414	-0,029	-0,007
-366,971	1,912	-0,163	0,085
-365,956	0,061	0,035	0,018
-364,942	14,157	0,090	0,051
-363,927	-85,475	0,130	0,029
-362,912	6,256	0,103	-0,055
-361,898	-145,903	-0,110	0,007
-360,883	800,000	0,076	-0,179
-359,869	98,602	0,062	0,052
-358,854	-19,769	0,092	-0,041
-357,839	510,773	0,088	0,148
-356,825	-148,516	0,096	0,006
-355,810	800,000	-0,023	-0,058
-354,796	-60,296	0,038	0,012
-353,781	-79,266	-0,018	0,004
-352,766	-200,000	-0,011	-0,081
-351,752	31,661	-0,047	-0,029
-350,737	-200,000	-0,003	-0,042
-349,723	-141,010	0,161	0,012
-348,708	-200,000	-0,017	0,151
-347,693	-200,000	-0,011	0,053
-346,679	92,862	-0,045	-0,037
-345,664	275,929	-0,036	-0,046
-344,650	-200,000	-0,019	0,082
-343,635	-200,000	0,016	-0,068
-342,620	48,614	-0,073	-0,050
-341,606	339,142	-0,044	0,062
-340,591	800,000	-0,064	-0,130
-339,577	197,022	0,107	-0,119
-338,562	-200,000	-0,021	0,070
-337,548	258,117	-0,015	-0,019
-336,533	62,045	0,072	-0,052
-335,518	-172,649	-0,079	0,002
-334,504	330,944	-0,039	0,055
-333,489	156,552	0,052	-0,053
-332,475	-120,085	0,073	-0,009
-331,460	270,475	0,014	0,018
-330,445	-200,000	0,008	0,036
-329,431	411,728	-0,012	0,019
-328,416	-81,904	0,063	-0,015
-327,402	12,907	0,020	0,011
-326,387	53,511	-0,074	-0,051
-325,372	-200,000	0,019	-0,201
-324,358	-200,000	-0,024	-0,136
-323,343	524,743	-0,030	-0,052
-322,329	-200,000	-0,008	-0,100
-321,314	175,172	0,061	0,064
-320,299	-23,538	-0,059	-0,025
-319,285	-6,308	-0,086	-0,043
-318,270	-168,803	-0,085	-0,002
-317,256	124,072	0,041	0,038
-316,241	17,828	0,062	0,036
-315,226	800,000	-0,004	0,009
-314,212	-41,159	0,205	-0,076
-313,197	-46,810	-0,036	-0,013
-312,183	-200,000	-0,007	-0,136
-311,168	-106,923	0,147	-0,023
-310,153	800,000	0,018	0,052
-309,139	800,000	0,048	-0,106
-308,124	-67,061	0,096	-0,027
-307,110	-200,000	0,020	0,086
-306,095	-200,000	0,013	0,072
-305,080	-200,000	-0,008	0,061
-304,066	-65,597	-0,137	0,040
-303,051	81,895	0,090	0,070
-302,037	371,169	-0,103	-0,151
-301,022	71,057	0,031	0,023
-300,008	800,000	0,023	0,064
-298,993	69,422	-0,031	0,023
-297,978	-200,000	0,005	-0,081
-296,964	-200,000	0,015	0,074
-295,949	111,266	0,053	-0,046
-294,935	173,632	-0,075	0,078
-293,920	133,398	0,074	0,069
-292,905	41,822	-0,060	0,039
-291,891	626,433	-0,045	0,082
-290,876	-200,000	-0,005	0,034
-289,862	-200,000	0,061	0,295
-288,847	1,629	0,125	-0,065
-287,832	-200,000	-0,042	-0,147
-286,818	-44,942	-0,015	-0,005
-285,803	-144,130	0,079	0,005
-284,789	-92,060	0,047	-0,009
-283,774	-42,778	0,003	-0,001
-282,759	-200,000	0,039	0,165
-281,745	-138,049	0,034	-0,003
-280,730	168,093	-0,028	-0,029
-279,716	370,999	-0,052	0,077
-278,701	177,242	0,069	0,072
-277,686	57,613	0,027	0,019
-276,672	104,006	0,137	0,116
-275,657	800,000	0,033	0,092
-274,643	-73,076	-0,133	-0,035
-273,628	103,458	-0,130	-0,110
-272,613	97,370	-0,064	0,053
-271,599	128,440	0,030	-0,027
-270,584	325,846	0,123	0,171
-269,570	663,160	-0,079	0,148
-268,555	-46,193	0,074	0,026
-267,540	157,354	-0,031	-0,031
-266,526	92,693	-0,104	-0,085
-265,511	-18,426	-0,020	0,009
-264,497	-89,909	0,110	-0,023
-263,482	-61,026	0,166	-0,050
-262,467	133,491	-0,094	0,088
-261,453	800,000	-0,028	0,085
-260,438	204,300	-0,030	-0,034
-259,424	-65,442	-0,049	0,014
-258,409	-155,207	0,073	0,003
-257,395	-200,000	0,018	-0,067
-256,380	-200,000	-0,101	0,000
-255,365	-43,874	-0,037	-0,014
-254,351	-103,755	0,134	-0,022
-253,336	217,486	-0,088	0,101
-252,322	84,960	0,130	-0,103
-251,307	83,070	0,022	0,017
-250,292	-200,000	-0,015	0,052
-249,278	344,420	-0,049	0,070
-248,263	109,291	0,030	0,026
-247,249	-97,006	0,050	0,009
-246,234	-146,753	0,047	-0,003
-245,219	800,000	0,017	-0,036
-244,205	163,276	-0,020	-0,020
-243,190	-23,155	0,086	0,037
-242,176	137,067	-0,035	-0,033
-241,161	-145,130	0,100	0,006
-240,146	-55,585	0,030	-0,010
-239,132	626,128	-0,032	0,059
-238,117	800,000	0,037	-0,111
-237,103	13,246	-0,056	0,031
-236,088	-200,000	0,002	-0,052
-235,073	-200,000	-0,003	-0,070
-234,059	-200,000	-0,008	0,182
-233,044	-200,000	0,022	0,076
-232,030	288,685	-0,062	-0,082
-231,015	-174,031	0,167	-0,003
-230,000	87,998	-0,136	-0,109
-228,986	-75,182	0,051	-0,013
-227,971	194,081	0,072	-0,079
-226,957	124,650	-0,055	0,050
-225,942	-80,724	0,207	-0,049
-224,927	144,837	-0,049	-0,048
-223,913	-76,791	-0,091	0,023
-222,898	-167,827	0,050	0,001
-221,884	-84,019	-0,103	0,023
-220,869	39,256	0,145	0,094
-219,855	-152,772	0,072	0,004
-218,840	800,000	0,027	0,077
-217,825	-66,793	0,077	-0,022
-216,811	-200,000	-0,010	0,042
-215,796	150,911	0,097	-0,096
-214,782	-24,872	-0,029	-0,012
-213,767	382,002	0,028	-0,042
-212,752	562,232	0,042	0,074
-211,738	224,065	0,115	0,134
-210,723	-103,208	-0,030	-0,005
-209,709	43,933	-0,071	0,047
-208,694	83,233	-0,132	0,103
-207,679	-34,668	0,082	-0,032
-206,665	-22,745	-0,086	-0,037
-205,650	58,322	0,128	-0,091
-204,636	274,785	0,057	0,074
-203,621	-200,000	-0,006	0,032
-202,606	204,538	0,069	-0,077
-201,592	208,979	0,049	-0,056
-200,577	32,698	-0,116	-0,072
-199,563	6,639	-0,104	0,056
-198,548	61,652	0,073	-0,053
-197,533	-51,229	0,037	0,012
-196,519	111,416	0,069	0,060
-195,504	-160,151	-0,102	0,004
-194,490	51,753	-0,085	-0,058
-193,475	452,764	0,049	-0,079
-192,460	29,761	0,151	0,093
-191,446	-114,002	-0,077	0,011
-190,431	-130,335	0,038	-0,004
-189,417	-200,000	-0,006	0,065
-188,402	-200,000	-0,001	0,066
-187,387	88,104	0,177	0,141
-186,373	-35,477	0,032	0,013
-185,358	-56,556	-0,119	-0,038
-184,344	-200,000	0,004	-0,067
-183,329	-31,537	-0,124	0,050
-182,315	-155,441	-0,056	0,003
-181,300	800,000	0,029	0,086
-180,285	-200,000	0,020	-0,072
-179,271	-200,000	-0,009	0,042
-178,256	634,635	-0,004	0,007
-177,242	-136,010	0,263	-0,022
-176,227	52,887	-0,023	0,016
-175,212	-200,000	-0,017	0,079
-174,198	172,792	0,057	-0,059
-173,183	-107,321	0,044	-0,007
-172,169	-200,000	-0,019	-0,105
-171,154	69,399	0,064	-0,047
-170,139	-35,603	0,102	-0,040
-169,125	800,000	0,013	0,032
-168,110	-200,000	0,019	-0,105
-167,096	-200,000	-0,007	-0,130
-166,081	-200,000	-0,012	-0,115
-165,066	800,000	-0,017	0,039
-164,052	-64,504	-0,053	-0,015
-163,037	7,917	0,041	0,022
-162,023	-61,840	-0,096	-0,029
-161,008	-172,934	-0,067	-0,001
-159,993	-200,000	-0,009	0,117
-158,979	-86,872	-0,173	0,038
-157,964	222,476	-0,063	-0,073
-156,950	800,000	-0,015	0,043
-155,935	-25,633	-0,137	-0,058
-154,920	-58,555	-0,028	-0,009
-153,906	-57,442	0,179	0,056
-152,891	800,000	-0,037	0,102
-151,877	19,241	-0,159	-0,092
-150,862	62,035	0,161	-0,115
-149,847	-18,127	-0,093	-0,042
-148,833	-200,000	0,008	-0,057
-147,818	112,764	0,106	-0,092
-146,804	336,147	-0,028	-0,039
-145,789	220,610	-0,038	0,044
-144,775	-82,014	0,063	0,015
-143,760	17,067	0,058	-0,033
-142,745	35,786	-0,136	-0,086
-141,731	-167,802	0,046	0,001
-140,716	800,000	-0,027	0,075
-139,702	-72,863	0,070	0,018
-138,687	78,957	0,035	0,027
-137,672	-149,825	0,049	-0,003
-136,658	-200,000	0,029	-0,178
-135,643	800,000	-0,006	-0,019
-134,629	114,669	0,077	0,068
-133,614	-113,833	-0,080	0,011
-132,599	800,000	0,035	0,088
-131,585	-165,296	-0,069	0,002
-130,570	89,264	-0,047	-0,038
-129,556	200,040	-0,082	0,090
-128,541	-87,594	-0,099	-0,021
-127,526	493,811	0,019	-0,032
-126,512	-97,019	0,132	0,025
-125,497	-107,294	0,126	-0,020
-124,483	169,597	0,079	0,081
-123,468	-10,835	-0,116	-0,055
-122,453	-111,961	0,030	0,004
-121,439	-36,759	-0,129	0,050
-120,424	310,548	0,047	0,063
