DTS Sentinel unit serial number:	SN410029Multiplexer serial number:	ORYXHardware model number:	OX2-SRSoftware version number:	ORYX F/W v4,00 Oryx Data Collector v3.7.2.0data status	okinstallation	B6 Nyhavnadifferential loss correction	single-endedforward channel	channel 2reverse channel	N/Adate	2023/12/09time	07:50:08forward acquisition time	300,00reverse acquisition time	0,00gamma	499,1914k internal	0,3138k external	0,3138temperature offset calibration	1,0000default loss term (dB/km)	0,3820temperature slope calibration	1,0000multiplexer offset coefficient	1,0000multiplexer slope coefficient	1,0000fibre end	0,00T internal ref (°C)	18,53T ext. ref 1 (°C)	1,90T ext. ref 2 (°C)	1,89length (m)	temperature (°C)	Stokes	anti-Stokes-744,400	78,882	0,065	-0,052
-743,385	58,113	-0,186	0,135
-742,371	-24,989	0,178	0,078
-741,356	8,752	-0,321	0,179
-740,342	272,266	0,112	0,146
-739,327	-190,573	-0,295	-0,002
-738,312	133,451	-0,010	-0,010
-737,298	-186,589	-0,166	0,002
-736,283	-200,000	-0,002	-0,036
-735,269	-104,775	-0,209	-0,035
-734,254	82,835	0,012	0,010
-733,239	-110,214	-0,614	-0,094
-732,225	-140,253	0,157	0,012
-731,210	-1,808	0,052	-0,027
-730,196	56,596	-0,075	0,054
-729,181	-200,000	-0,001	-0,071
-728,167	800,000	-0,026	-0,070
-727,152	-116,052	0,033	0,005
-726,137	166,901	-0,060	-0,063
-725,123	8,627	-0,088	-0,049
-724,108	-139,584	0,125	0,010
-723,094	-200,000	-0,028	-0,105
-722,079	800,000	-0,034	-0,079
-721,064	-89,988	-0,087	0,019
-720,050	-134,823	-0,156	-0,014
-719,035	-80,336	-0,095	-0,023
-718,021	83,411	-0,112	-0,091
-717,006	-200,000	-0,000	-0,130
-715,991	376,814	-0,063	-0,095
-714,977	-147,983	-0,073	-0,004
-713,962	-200,000	-0,038	0,133
-712,948	256,474	0,059	-0,075
-711,933	-200,000	0,059	0,211
-710,918	-179,656	-0,115	0,002
-709,904	-61,152	-0,082	-0,025
-708,889	49,674	-0,117	-0,082
-707,875	306,627	0,115	-0,159
-706,860	442,965	-0,040	0,065
-705,845	11,356	-0,123	-0,070
-704,831	169,794	-0,103	0,109
-703,816	800,000	0,036	-0,082
-702,802	800,000	0,064	-0,145
-701,787	-200,000	0,013	-0,082
-700,772	-200,000	-0,014	0,055
-699,758	-200,000	-0,005	0,056
-698,743	-47,013	0,108	-0,039
-697,729	220,717	0,031	0,037
-696,714	-9,259	0,045	-0,022
-695,699	260,199	-0,039	0,050
-694,685	195,593	-0,090	-0,101
-693,670	513,534	-0,094	0,164
-692,656	-168,852	-0,082	0,002
-691,641	-200,000	-0,007	0,072
-690,627	800,000	0,019	0,044
-689,612	194,256	0,060	0,068
-688,597	304,284	-0,028	-0,038
-687,583	-78,431	-0,061	0,015
-686,568	400,318	-0,117	-0,182
-685,554	60,527	-0,046	-0,034
-684,539	800,000	-0,032	0,087
-683,524	-200,000	-0,006	0,077
-682,510	96,322	-0,086	0,073
-681,495	-200,000	-0,022	0,141
-680,481	31,153	-0,190	0,121
-679,466	18,213	0,056	0,033
-678,451	-39,019	-0,168	0,065
-677,437	175,902	-0,031	-0,033
-676,422	800,000	0,069	-0,169
-675,408	18,133	-0,041	-0,024
-674,393	-200,000	0,029	-0,211
-673,378	800,000	-0,082	-0,169
-672,364	-67,161	0,116	0,033
-671,349	559,400	-0,062	-0,111
-670,335	-200,000	0,040	0,000
-669,320	800,000	0,040	-0,109
-668,305	5,848	-0,118	0,064
-667,291	-200,000	-0,020	-0,093
-666,276	202,633	0,058	0,067
-665,262	449,169	-0,025	-0,041
-664,247	-200,000	-0,005	-0,106
-663,232	292,268	-0,053	-0,071
-662,218	216,447	0,061	-0,072
-661,203	321,815	-0,038	-0,053
-660,189	107,883	-0,035	-0,031
-659,174	-36,557	-0,227	-0,090
-658,159	-200,000	-0,060	-0,201
-657,145	-16,231	-0,025	-0,012
-656,130	-66,622	-0,122	0,036
-655,116	220,292	0,057	-0,068
-654,101	198,763	-0,057	0,064
-653,086	42,387	0,082	0,055
-652,072	-200,000	-0,029	-0,184
-651,057	-200,000	0,004	0,074
-650,043	-200,000	0,007	0,072
-649,028	53,896	-0,034	0,024
-648,014	262,054	-0,099	0,127
-646,999	139,748	-0,143	0,140
-645,984	-200,000	-0,002	0,008
-644,970	-153,175	-0,059	-0,003
-643,955	800,000	-0,055	-0,166
-642,941	88,605	-0,146	0,120
-641,926	-185,988	0,069	0,001
-640,911	-184,730	-0,027	-0,000
-639,897	-28,787	0,155	0,065
-638,882	130,411	0,100	0,095
-637,868	-200,000	-0,022	-0,073
-636,853	-200,000	-0,009	-0,131
-635,838	179,102	0,037	0,039
-634,824	-199,326	-0,147	0,001
-633,809	209,236	-0,112	-0,130
-632,795	-200,000	0,001	0,068
-631,780	100,048	-0,019	0,016
-630,765	-200,000	0,043	-0,155
-629,751	800,000	-0,028	-0,067
-628,736	-200,000	-0,006	-0,085
-627,722	246,183	0,053	-0,067
-626,707	-75,427	0,112	-0,029
-625,692	135,887	0,034	-0,033
-624,678	492,836	0,059	0,101
-623,663	-67,701	-0,100	0,029
-622,649	403,670	-0,063	-0,098
-621,634	161,294	-0,063	-0,065
-620,619	800,000	-0,016	-0,045
-619,605	646,765	-0,005	-0,009
-618,590	-200,000	-0,002	-0,023
-617,576	232,298	-0,044	-0,053
-616,561	350,560	0,053	-0,078
-615,546	800,000	-0,071	-0,220
-614,532	202,483	-0,089	-0,102
-613,517	-7,542	-0,096	-0,048
-612,503	-30,016	0,086	-0,036
-611,488	-26,537	0,024	0,010
-610,474	45,100	0,084	0,057
-609,459	-200,000	0,007	0,101
-608,444	74,451	0,059	-0,046
-607,430	38,136	-0,083	-0,054
-606,415	-140,827	-0,101	-0,008
-605,401	134,025	0,020	-0,019
-604,386	800,000	-0,005	0,014
-603,371	-132,769	0,049	0,005
-602,357	-112,127	0,099	-0,014
-601,342	-16,174	-0,100	0,047
-600,328	-47,089	0,048	0,017
-599,313	-200,000	0,007	-0,085
-598,298	-141,909	0,177	-0,013
-597,284	800,000	-0,039	-0,094
-596,269	-118,449	0,075	-0,010
-595,255	-68,388	0,130	-0,037
-594,240	-200,000	-0,043	-0,161
-593,225	-120,311	-0,063	0,008
-592,211	800,000	-0,024	0,050
-591,196	-200,000	0,004	-0,052
-590,182	-200,000	0,010	0,188
-589,167	800,000	0,086	0,196
-588,152	-115,105	0,072	-0,010
-587,138	-200,000	-0,006	-0,039
-586,123	61,643	-0,144	0,106
-585,109	-0,637	-0,045	0,024
-584,094	-200,000	0,022	-0,090
-583,079	-200,000	-0,031	-0,153
-582,065	800,000	0,036	-0,097
-581,050	280,518	0,033	-0,043
-580,036	800,000	-0,041	-0,095
-579,021	468,595	0,032	0,053
-578,006	-200,000	-0,007	0,101
-576,992	-68,001	0,080	0,023
-575,977	-200,000	0,013	-0,095
-574,963	-200,000	0,046	0,165
-573,948	-41,027	0,095	-0,036
-572,934	17,893	-0,059	0,034
-571,919	267,293	-0,049	0,063
-570,904	-172,150	-0,159	-0,004
-569,890	-40,767	0,052	0,020
-568,875	167,996	-0,024	0,025
-567,861	-58,100	-0,129	0,041
-566,846	-200,000	-0,009	-0,080
-565,831	-200,000	-0,014	-0,071
-564,817	252,332	0,041	-0,051
-563,802	-200,000	0,010	-0,068
-562,788	99,054	-0,015	0,013
-561,773	42,864	-0,024	-0,016
-560,758	53,418	-0,036	-0,026
-559,744	-140,030	0,154	-0,012
-558,729	81,041	-0,039	-0,031
-557,715	-0,708	-0,073	0,038
-556,700	-106,720	-0,190	-0,031
-555,685	104,862	-0,178	0,155
-554,671	-74,007	0,143	0,038
-553,656	-200,000	0,009	0,083
-552,642	126,331	0,099	0,092
-551,627	-200,000	0,011	-0,089
-550,612	-28,179	-0,116	-0,049
-549,598	549,558	-0,010	0,018
-548,583	530,715	-0,102	-0,178
-547,569	-48,863	0,025	-0,009
-546,554	-200,000	-0,026	0,124
-545,539	800,000	0,032	-0,101
-544,525	-96,518	0,007	0,001
-543,510	103,119	-0,128	-0,110
-542,496	189,621	-0,083	0,092
-541,481	800,000	0,027	-0,082
-540,466	682,537	0,026	0,050
-539,452	20,250	0,053	-0,032
-538,437	202,197	0,087	0,099
-537,423	83,696	-0,032	0,026
-536,408	-200,000	0,001	-0,075
-535,393	269,722	0,040	-0,051
-534,379	117,588	0,023	-0,021
-533,364	92,605	0,026	0,021
-532,350	176,959	0,017	-0,018
-531,335	41,791	0,043	-0,029
-530,321	800,000	-0,016	0,036
-529,306	-200,000	0,061	0,000
-528,291	-164,634	0,060	-0,002
-527,277	739,562	-0,043	-0,085
-526,262	56,323	0,073	-0,052
-525,248	800,000	0,023	0,066
-524,233	-200,000	0,011	0,064
-523,218	718,735	0,043	0,084
-522,204	-134,271	-0,042	0,004
-521,189	-200,000	-0,009	-0,127
-520,175	61,386	-0,129	-0,094
-519,160	-200,000	0,012	-0,042
-518,145	-200,000	0,004	0,185
-517,131	109,284	-0,033	-0,029
-516,116	800,000	-0,088	0,179
-515,102	-200,000	-0,002	0,088
-514,087	223,473	0,038	0,045
-513,072	472,370	-0,020	0,033
-512,058	199,993	-0,048	-0,055
-511,043	14,600	0,081	0,046
-510,029	-108,198	0,112	0,018
-509,014	90,748	0,031	-0,026
-507,999	-200,000	-0,018	0,100
-506,985	-200,000	-0,012	-0,167
-505,970	-200,000	0,006	0,030
-504,956	682,464	-0,022	0,042
-503,941	205,025	-0,065	-0,074
-502,926	-119,393	0,148	-0,019
-501,912	-20,137	0,056	-0,025
-500,897	-200,000	-0,006	0,117
-499,883	0,768	0,023	-0,012
-498,868	102,483	0,119	-0,102
-497,853	-111,955	-0,011	-0,002
-496,839	-200,000	-0,010	-0,043
-495,824	800,000	0,038	0,109
-494,810	193,113	-0,073	0,081
-493,795	24,210	-0,190	0,115
-492,781	266,136	-0,026	0,033
-491,766	-91,511	-0,180	0,037
-490,751	-154,568	-0,033	-0,002
-489,737	-82,364	0,023	-0,006
-488,722	-24,297	0,074	0,032
-487,708	-177,852	0,033	-0,001
-486,693	800,000	-0,031	0,064
-485,678	171,596	0,109	-0,115
-484,664	-48,734	-0,044	-0,015
-483,649	-82,160	0,113	-0,027
-482,635	86,054	0,094	-0,076
-481,620	-70,372	-0,029	-0,008
-480,605	757,288	-0,042	0,084
-479,591	-200,000	0,002	0,078
-478,576	-200,000	0,004	0,091
-477,562	-200,000	-0,028	-0,125
-476,547	261,077	-0,087	-0,111
-475,532	388,905	0,017	-0,026
-474,518	225,276	0,081	0,096
-473,503	34,158	-0,035	0,022
-472,489	-3,467	0,172	0,088
-471,474	-119,649	-0,082	0,010
-470,459	-200,000	0,027	-0,099
-469,445	800,000	-0,018	-0,037
-468,430	-200,000	-0,041	-0,142
-467,416	-150,368	-0,049	-0,003
-466,401	-5,214	0,074	0,037
-465,386	32,018	0,116	-0,073
-464,372	353,690	0,031	-0,045
-463,357	-91,129	0,024	0,005
-462,343	5,280	-0,104	-0,056
-461,328	106,343	-0,069	-0,060
-460,313	800,000	-0,027	-0,080
-459,299	-64,407	0,022	-0,007
-458,284	-200,000	-0,016	0,090
-457,270	-38,162	0,135	0,052
-456,255	-200,000	-0,025	-0,101
-455,241	203,672	-0,036	-0,041
-454,226	652,187	0,029	-0,055
-453,211	-6,687	0,078	-0,039
-452,197	-158,032	-0,125	0,005
-451,182	-200,000	-0,005	0,115
-450,168	-126,998	-0,106	-0,011
-449,153	-200,000	0,043	0,169
-448,138	322,986	-0,073	-0,103
-447,124	-126,187	0,089	0,010
-446,109	127,978	-0,067	0,062
-445,095	-200,000	-0,024	0,087
-444,080	252,083	-0,137	0,172
-443,065	306,298	-0,048	0,066
-442,051	800,000	0,040	-0,090
-441,036	-200,000	-0,029	-0,146
-440,022	-200,000	0,032	0,171
-439,007	-200,000	0,014	-0,050
-437,992	-62,576	-0,112	0,034
-436,978	-8,453	-0,067	0,033
-435,963	-25,799	-0,073	-0,031
-434,949	14,264	0,078	-0,044
-433,934	524,363	-0,011	-0,019
-432,919	800,000	-0,019	-0,045
-431,905	316,963	-0,051	-0,071
-430,890	-200,000	0,024	0,077
-429,876	154,268	0,026	-0,026
-428,861	-200,000	0,033	0,118
-427,846	-83,082	0,089	-0,021
-426,832	-200,000	0,010	0,098
-425,817	-17,622	-0,095	-0,044
-424,803	-200,000	-0,008	-0,062
-423,788	-88,347	0,141	-0,031
-422,773	150,779	-0,060	0,060
-421,759	-8,682	0,187	0,091
-420,744	-131,377	-0,078	-0,007
-419,730	800,000	-0,016	-0,047
-418,715	118,291	-0,020	0,018
-417,701	-79,797	0,165	-0,040
-416,686	-1,101	-0,063	0,032
-415,671	-87,930	0,195	0,043
-414,657	362,932	-0,015	0,022
-413,642	23,971	0,055	0,033
-412,628	53,612	-0,025	0,018
-411,613	-200,000	-0,026	-0,089
-410,598	269,921	-0,042	0,054
-409,584	115,251	0,037	0,033
-408,569	-63,372	-0,097	-0,029
-407,555	18,546	0,061	-0,036
-406,540	-15,019	0,115	0,054
-405,525	-200,000	-0,008	0,107
-404,511	114,459	-0,054	-0,049
-403,496	-44,226	0,052	-0,019
-402,482	-8,356	0,027	0,013
-401,467	-78,314	-0,085	-0,021
-400,452	663,375	-0,022	-0,042
-399,438	-129,838	0,071	0,007
-398,423	66,149	-0,059	0,044
-397,409	-46,580	0,051	-0,018
-396,394	-200,000	0,021	-0,153
-395,379	45,300	-0,011	0,007
-394,365	-52,721	0,194	0,065
-393,350	63,777	0,197	0,144
-392,336	-200,000	-0,010	0,033
-391,321	82,975	0,081	0,065
-390,306	410,827	-0,037	-0,057
-389,292	-38,949	-0,083	-0,032
-388,277	-32,981	0,071	-0,029
-387,263	-141,710	-0,074	-0,005
-386,248	104,988	0,062	-0,054
-385,233	-200,000	-0,003	0,033
-384,219	3,527	-0,058	0,031
-383,204	57,708	0,053	0,038
-382,190	-120,979	-0,145	-0,018
-381,175	184,220	0,080	-0,087
-380,160	602,918	0,047	-0,085
-379,146	800,000	0,059	0,156
-378,131	-185,834	0,059	0,001
-377,117	187,860	-0,059	-0,065
-376,102	-105,034	-0,049	-0,008
-375,088	-106,281	-0,041	-0,007
-374,073	128,000	-0,060	0,056
-373,058	-200,000	-0,004	0,032
-372,044	-102,440	-0,029	0,005
-371,029	-200,000	-0,002	-0,056
-370,015	-200,000	0,011	0,040
-369,000	1,369	-0,076	0,040
-367,985	-200,000	0,009	0,088
-366,971	139,310	-0,045	-0,043
-365,956	322,028	0,031	-0,044
-364,942	-62,406	0,100	0,030
-363,927	-54,614	0,061	0,020
-362,912	145,083	0,102	-0,099
-361,898	-200,000	-0,008	-0,123
-360,883	47,665	-0,021	0,014
-359,869	104,100	-0,151	-0,129
-358,854	220,789	0,067	-0,078
-357,839	-197,330	0,067	0,000
-356,825	-200,000	0,006	-0,041
-355,810	293,209	0,045	0,059
-354,796	-200,000	0,005	0,041
-353,781	-85,911	-0,043	-0,010
-352,766	133,497	-0,025	-0,024
-351,752	287,941	0,117	-0,155
-350,737	-200,000	-0,017	0,101
-349,723	800,000	0,033	0,073
-348,708	-200,000	-0,010	-0,055
-347,693	-200,000	0,030	0,122
-346,679	133,022	-0,022	0,021
-345,664	-200,000	-0,011	0,059
-344,650	-200,000	-0,017	-0,132
-343,635	41,660	0,058	0,038
-342,620	-78,504	0,027	-0,007
-341,606	111,947	0,064	0,056
-340,591	31,736	-0,070	0,044
-339,577	-20,624	-0,044	0,020
-338,562	-96,285	-0,052	0,010
-337,548	-200,000	-0,012	-0,073
-336,533	-200,000	-0,030	0,142
-335,518	-200,000	0,002	-0,020
-334,504	-22,501	-0,141	0,062
-333,489	403,309	-0,070	-0,107
-332,475	1,636	-0,068	-0,036
-331,460	-74,230	-0,005	-0,001
-330,445	90,328	-0,065	-0,053
-329,431	299,737	0,067	-0,090
-328,416	110,120	0,042	0,037
-327,402	-68,495	0,083	-0,023
-326,387	-200,000	-0,007	0,095
-325,372	6,171	-0,009	-0,005
-324,358	800,000	-0,042	0,095
-323,343	139,682	0,088	0,085
-322,329	-49,998	0,105	-0,036
-321,314	143,184	0,028	0,027
-320,299	-200,000	0,004	-0,053
-319,285	800,000	0,066	0,195
-318,270	800,000	-0,069	-0,156
-317,256	7,469	0,058	-0,032
-316,241	800,000	0,019	0,056
-315,226	59,782	-0,011	-0,008
-314,212	31,775	0,051	-0,032
-313,197	482,841	0,050	0,084
-312,183	5,749	0,047	0,025
-311,168	-200,000	0,007	0,023
-310,153	-42,914	0,110	-0,041
-309,139	126,980	0,028	0,026
-308,124	87,193	-0,085	-0,068
-307,110	193,627	-0,094	-0,104
-306,095	194,927	0,037	0,041
-305,080	800,000	0,042	-0,123
-304,066	800,000	0,019	0,041
-303,051	270,302	-0,106	0,136
-302,037	-200,000	0,023	0,148
-301,022	300,399	0,028	0,038
-300,008	30,046	0,011	0,007
-298,993	-200,000	-0,008	0,059
-297,978	-178,907	0,113	-0,002
-296,964	677,982	-0,059	-0,113
-295,949	354,105	-0,011	0,016
-294,935	650,050	-0,057	-0,107
-293,920	340,484	0,055	0,079
-292,905	-135,942	0,098	0,008
-291,891	-5,322	-0,050	-0,025
-290,876	-200,000	0,002	0,053
-289,862	-200,000	-0,009	-0,069
-288,847	9,381	-0,042	-0,023
-287,832	-98,645	-0,073	-0,013
-286,818	58,094	0,015	-0,011
-285,803	95,051	0,029	-0,024
-284,789	800,000	0,049	-0,117
-283,774	-200,000	0,009	0,117
-282,759	10,536	-0,032	-0,018
-281,745	325,054	0,055	-0,077
-280,730	284,765	0,055	0,072
-279,716	-200,000	-0,005	-0,049
-278,701	800,000	-0,019	-0,048
-277,686	32,151	-0,026	-0,016
-276,672	442,504	0,077	-0,123
-275,657	63,356	-0,032	-0,024
-274,643	345,504	0,016	0,023
-273,628	95,091	-0,136	-0,113
-272,613	800,000	0,032	0,079
-271,599	-14,280	-0,075	0,035
-270,584	-90,202	-0,059	0,012
-269,570	72,702	0,086	0,065
-268,555	-111,607	-0,111	0,016
-267,540	-192,156	-0,146	0,001
-266,526	-110,878	0,109	-0,016
-265,511	-75,532	-0,152	-0,039
-264,497	37,469	0,061	-0,039
-263,482	-200,000	-0,018	0,124
-262,467	377,007	-0,089	0,132
-261,453	-134,156	-0,081	0,007
-260,438	800,000	0,024	-0,068
-259,424	393,959	-0,039	-0,059
-258,409	-200,000	0,045	-0,168
-257,395	-200,000	-0,033	-0,148
-256,380	-200,000	0,005	0,114
-255,365	-75,782	0,092	-0,024
-254,351	-71,295	0,034	-0,009
-253,336	73,979	-0,147	0,112
-252,322	-98,577	0,143	0,026
-251,307	-158,352	-0,115	0,005
-250,292	-55,021	0,079	-0,026
-249,278	30,860	0,069	0,043
-248,263	16,032	-0,016	-0,009
-247,249	-200,000	-0,004	0,091
-246,234	800,000	-0,025	0,074
-245,219	-200,000	-0,009	0,051
-244,205	536,093	0,050	0,087
-243,190	-200,000	-0,004	0,037
-242,176	-200,000	0,016	0,080
-241,161	-200,000	0,002	0,054
-240,146	292,225	0,010	0,013
-239,132	-100,451	-0,171	0,030
-238,117	-200,000	0,011	-0,188
-237,103	298,025	-0,071	-0,095
-236,088	429,301	-0,041	-0,065
-235,073	-31,029	-0,110	0,045
-234,059	223,812	0,048	0,056
-233,044	-200,000	-0,002	0,061
-232,030	486,903	-0,026	-0,043
-231,015	-66,072	-0,125	-0,036
-230,000	113,727	-0,069	-0,061
-228,986	184,067	0,069	0,075
-227,971	-66,776	0,058	-0,017
-226,957	-20,786	0,081	-0,036
-225,942	42,224	0,023	-0,015
-224,927	-200,000	0,016	-0,078
-223,913	800,000	-0,020	-0,044
-222,898	662,736	-0,047	0,089
-221,884	672,938	-0,053	-0,101
-220,869	-200,000	0,011	-0,073
-219,855	55,865	0,071	-0,050
-218,840	-200,000	-0,001	0,101
-217,825	-144,084	0,263	-0,018
-216,811	11,037	-0,132	0,073
-215,796	-200,000	-0,012	-0,061
-214,782	199,794	-0,054	-0,060
-213,767	181,088	0,044	-0,047
-212,752	179,077	0,035	-0,037
-211,738	598,751	-0,028	0,051
-210,723	213,279	0,037	-0,043
-209,709	-11,238	0,025	0,012
-208,694	113,276	0,050	-0,044
-207,679	-74,909	-0,073	-0,019
-206,665	-64,512	0,134	-0,039
-205,650	800,000	-0,062	0,131
-204,636	-200,000	0,005	0,068
-203,621	236,676	0,046	0,055
-202,606	-132,787	0,050	0,005
-201,592	-200,000	0,006	-0,150
-200,577	-200,000	-0,027	-0,096
-199,563	800,000	0,037	0,080
-198,548	51,094	0,119	0,082
-197,533	190,275	-0,059	0,064
-196,519	-71,541	0,064	0,017
-195,504	-200,000	0,010	0,094
-194,490	-67,910	-0,068	-0,019
-193,475	-17,533	-0,060	-0,027
-192,460	-152,564	0,104	0,005
-191,446	759,057	0,039	0,077
-190,431	-200,000	0,003	0,137
-189,417	332,209	-0,018	0,025
-188,402	-200,000	-0,031	-0,164
-187,387	-107,843	0,073	0,011
-186,373	-28,266	-0,033	0,014
-185,358	800,000	-0,040	0,115
-184,344	92,471	0,106	0,087
-183,329	-200,000	0,005	-0,021
-182,315	-200,000	0,016	-0,063
-181,300	-162,607	0,070	0,002
-180,285	355,350	-0,127	0,184
-179,271	-53,668	-0,153	-0,051
-178,256	-21,034	-0,038	-0,017
-177,242	491,336	-0,071	-0,119
-176,227	800,000	-0,033	0,073
-175,212	-200,000	0,037	0,150
-174,198	-165,835	0,074	-0,002
-173,183	-200,000	0,002	-0,049
-172,169	-169,169	-0,062	0,002
-171,154	-200,000	-0,002	0,016
-170,139	-200,000	-0,002	-0,025
-169,125	652,200	-0,065	0,121
-168,110	-200,000	0,015	0,062
-167,096	-28,773	-0,063	0,026
-166,081	60,792	0,080	-0,057
-165,066	299,605	-0,097	-0,130
-164,052	360,278	-0,044	0,064
-163,037	5,781	0,097	0,052
-162,023	800,000	0,044	0,124
-161,008	260,054	-0,060	0,076
-159,993	375,918	0,033	0,048
-158,979	-200,000	0,028	-0,098
-157,964	800,000	0,057	-0,128
-156,950	800,000	-0,022	0,048
-155,935	151,179	-0,073	-0,072
-154,920	800,000	0,042	0,107
-153,906	-200,000	-0,005	0,057
-152,891	702,383	0,061	-0,118
-151,877	98,813	0,060	0,050
-150,862	-167,002	-0,044	0,001
-149,847	184,375	-0,034	-0,036
-148,833	73,542	0,038	0,029
-147,818	-200,000	-0,009	0,070
-146,804	-99,612	0,111	0,020
-145,789	800,000	0,037	0,102
-144,775	-88,035	0,114	-0,025
-143,760	-200,000	-0,033	-0,108
-142,745	-42,466	-0,059	-0,022
-141,731	-200,000	0,004	-0,060
-140,716	800,000	-0,009	0,027
-139,702	-144,488	0,088	0,006
-138,687	-162,527	0,027	0,001
-137,672	800,000	-0,032	0,091
-136,658	-15,650	-0,040	-0,018
-135,643	540,704	-0,067	-0,117
-134,629	-200,000	-0,018	-0,133
-133,614	-88,793	0,170	0,036
-132,599	127,837	-0,050	-0,046
-131,585	800,000	-0,054	0,146
-130,570	369,439	0,027	0,040
-129,556	800,000	-0,039	-0,119
-128,541	-159,465	0,074	-0,003
-127,526	-33,350	0,072	0,029
-126,512	-84,304	0,039	-0,009
-125,497	800,000	0,075	-0,165
-124,483	800,000	0,029	-0,080
-123,468	-28,933	-0,164	0,068
-122,453	-122,311	-0,074	-0,009
-121,439	-128,269	-0,056	-0,006
-120,424	13,398	0,039	-0,022
