DTS Sentinel unit serial number:	SN410029Multiplexer serial number:	ORYXHardware model number:	OX2-SRSoftware version number:	ORYX F/W v4,00 Oryx Data Collector v3.7.2.0data status	okinstallation	B6 Nyhavnadifferential loss correction	single-endedforward channel	channel 2reverse channel	N/Adate	2023/12/08time	21:15:08forward acquisition time	300,00reverse acquisition time	0,00gamma	499,1914k internal	0,3158k external	0,3158temperature offset calibration	1,0000default loss term (dB/km)	0,3820temperature slope calibration	1,0000multiplexer offset coefficient	1,0000multiplexer slope coefficient	1,0000fibre end	0,00T internal ref (°C)	15,22T ext. ref 1 (°C)	-1,35T ext. ref 2 (°C)	-1,36length (m)	temperature (°C)	Stokes	anti-Stokes-744,400	-200,000	-0,000	0,060
-743,385	-91,928	-0,355	-0,074
-742,371	162,517	0,078	-0,081
-741,356	46,983	-0,102	-0,070
-740,342	422,683	0,062	-0,099
-739,327	-185,890	-0,358	-0,004
-738,312	222,408	0,074	-0,087
-737,298	-66,815	-0,350	-0,101
-736,283	800,000	0,038	-0,093
-735,269	-170,046	-0,367	-0,009
-734,254	460,567	0,018	0,029
-733,239	59,150	-0,384	-0,278
-732,225	-82,873	0,153	0,036
-731,210	800,000	0,054	0,159
-730,196	530,291	0,014	0,024
-729,181	-200,000	-0,021	-0,078
-728,167	-200,000	-0,040	-0,219
-727,152	800,000	-0,014	-0,029
-726,137	-200,000	-0,007	-0,049
-725,123	800,000	-0,047	-0,111
-724,108	-182,455	0,045	-0,001
-723,094	-200,000	-0,012	-0,169
-722,079	800,000	-0,070	-0,169
-721,064	-200,000	-0,015	-0,179
-720,050	-40,684	0,019	0,007
-719,035	-200,000	0,022	0,000
-718,021	6,258	0,069	0,037
-717,006	61,848	-0,057	-0,042
-715,991	-32,581	-0,129	-0,053
-714,977	-200,000	0,005	0,083
-713,962	-51,986	0,065	0,022
-712,948	800,000	-0,035	-0,076
-711,933	800,000	0,033	-0,079
-710,918	12,721	0,221	-0,125
-709,904	800,000	-0,059	-0,151
-708,889	-200,000	0,019	0,193
-707,875	800,000	0,003	0,008
-706,860	-0,588	-0,053	0,027
-705,845	800,000	0,005	0,013
-704,831	97,634	-0,069	0,058
-703,816	-200,000	0,034	0,137
-702,802	800,000	-0,013	-0,028
-701,787	347,587	-0,072	-0,105
-700,772	147,808	-0,113	-0,112
-699,758	800,000	0,024	-0,074
-698,743	370,722	0,065	0,097
-697,729	-118,375	0,026	0,003
-696,714	235,655	0,097	0,119
-695,699	672,490	0,018	0,034
-694,685	222,007	0,052	-0,061
-693,670	-29,666	-0,123	0,051
-692,656	-7,067	0,068	-0,034
-691,641	800,000	0,032	0,086
-690,627	-200,000	0,011	0,090
-689,612	800,000	-0,034	-0,090
-688,597	-200,000	0,001	-0,028
-687,583	145,760	-0,050	-0,049
-686,568	-200,000	0,007	-0,178
-685,554	800,000	0,037	-0,100
-684,539	-200,000	-0,028	0,106
-683,524	31,610	0,017	-0,011
-682,510	-200,000	0,036	-0,134
-681,495	-19,936	0,072	-0,033
-680,481	70,862	-0,038	-0,029
-679,466	285,190	-0,051	-0,067
-678,451	-33,483	0,105	-0,042
-677,437	800,000	-0,017	-0,039
-676,422	-49,340	-0,058	-0,020
-675,408	45,937	-0,035	0,024
-674,393	-200,000	0,009	-0,133
-673,378	-200,000	0,007	-0,094
-672,364	-132,941	-0,060	0,006
-671,349	60,241	0,104	-0,075
-670,335	116,865	0,079	-0,071
-669,320	87,136	-0,068	0,055
-668,305	35,468	-0,024	0,016
-667,291	-118,992	-0,145	-0,019
-666,276	39,806	-0,076	0,050
-665,262	391,452	0,017	0,025
-664,247	-11,704	0,034	-0,016
-663,232	-200,000	0,016	-0,179
-662,218	-54,864	0,188	-0,062
-661,203	371,688	0,098	0,147
-660,189	770,825	-0,091	0,183
-659,174	214,251	-0,048	-0,055
-658,159	779,119	-0,037	0,074
-657,145	135,982	0,065	-0,063
-656,130	120,282	0,089	-0,081
-655,116	-46,561	0,072	-0,026
-654,101	-95,138	0,148	-0,029
-653,086	-200,000	-0,015	-0,070
-652,072	8,987	-0,075	0,041
-651,057	-200,000	-0,005	-0,129
-650,043	-200,000	-0,001	0,057
-649,028	-200,000	0,018	0,086
-648,014	417,325	0,103	-0,162
-646,999	-152,091	0,081	0,004
-645,984	-112,580	-0,102	-0,015
-644,970	65,781	-0,136	-0,101
-643,955	-92,816	-0,183	-0,037
-642,941	363,006	-0,030	-0,044
-641,926	-84,089	-0,092	0,021
-640,911	278,728	0,069	0,091
-639,897	311,495	-0,024	0,033
-638,882	800,000	0,014	-0,043
-637,868	-108,897	0,041	-0,006
-636,853	-9,609	-0,086	-0,042
-635,838	800,000	-0,053	-0,133
-634,824	800,000	0,022	0,060
-633,809	-200,000	-0,046	0,221
-632,795	336,530	0,030	0,043
-631,780	-53,866	-0,019	0,006
-630,765	-200,000	-0,010	-0,103
-629,751	-200,000	0,015	-0,090
-628,736	38,078	-0,034	-0,022
-627,722	132,649	-0,082	0,078
-626,707	-23,857	0,052	-0,023
-625,692	105,007	0,167	0,145
-624,678	-115,335	-0,152	-0,021
-623,663	-200,000	0,002	-0,022
-622,649	-55,064	-0,119	-0,039
-621,634	-61,031	-0,050	0,015
-620,619	800,000	-0,058	-0,136
-619,605	143,728	-0,032	0,031
-618,590	800,000	0,023	0,051
-617,576	-180,955	0,124	0,002
-616,561	-107,797	-0,120	0,019
-615,546	-116,267	0,102	0,014
-614,532	-200,000	0,037	-0,187
-613,517	-200,000	-0,004	-0,029
-612,503	179,350	-0,074	0,079
-611,488	75,823	0,046	0,036
-610,474	-120,240	-0,111	0,014
-609,459	420,122	0,010	0,015
-608,444	-90,437	-0,088	-0,019
-607,430	2,475	-0,073	-0,039
-606,415	-200,000	-0,007	-0,099
-605,401	-178,241	-0,015	-0,000
-604,386	-200,000	-0,010	-0,139
-603,371	-106,844	0,172	0,028
-602,357	174,023	0,065	0,069
-601,342	98,581	0,097	-0,082
-600,328	800,000	-0,046	-0,117
-599,313	119,188	0,046	-0,041
-598,298	-102,600	-0,100	-0,017
-597,284	-40,278	0,146	0,055
-596,269	727,770	0,006	0,011
-595,255	800,000	0,026	0,056
-594,240	-200,000	0,026	-0,127
-593,225	-200,000	0,026	-0,135
-592,211	3,612	-0,151	-0,081
-591,196	312,186	0,020	-0,028
-590,182	-108,115	-0,004	-0,001
-589,167	69,280	-0,084	-0,063
-588,152	800,000	0,029	-0,094
-587,138	-113,336	-0,037	-0,005
-586,123	-200,000	-0,011	-0,097
-585,109	-70,296	-0,148	-0,041
-584,094	165,312	-0,059	-0,061
-583,079	800,000	0,029	0,092
-582,065	-200,000	-0,022	0,093
-581,050	-200,000	0,013	-0,048
-580,036	103,985	-0,049	-0,042
-579,021	510,712	-0,023	0,039
-578,006	-97,955	0,144	0,027
-576,992	783,459	-0,048	-0,097
-575,977	-6,369	0,054	-0,027
-574,963	800,000	-0,074	0,179
-573,948	306,363	-0,056	0,077
-572,934	800,000	0,018	0,055
-571,919	-43,398	-0,103	-0,038
-570,904	-138,103	0,052	-0,004
-569,890	-137,160	0,108	-0,009
-568,875	-120,977	0,099	0,012
-567,861	-200,000	-0,005	0,162
-566,846	-148,796	0,164	-0,010
-565,831	-17,589	0,093	0,043
-564,817	-152,422	-0,122	-0,006
-563,802	509,055	-0,061	0,104
-562,788	183,931	-0,100	-0,109
-561,773	800,000	0,025	0,059
-560,758	113,242	0,046	-0,041
-559,744	163,528	-0,024	-0,025
-558,729	800,000	-0,036	0,100
-557,715	358,269	-0,030	0,044
-556,700	550,365	-0,048	-0,084
-555,685	72,080	-0,088	-0,067
-554,671	800,000	0,053	0,142
-553,656	253,735	-0,074	0,093
-552,642	252,766	0,008	0,010
-551,627	-51,430	0,066	-0,023
-550,612	-200,000	-0,033	-0,133
-549,598	-200,000	0,012	0,074
-548,583	69,329	0,068	0,051
-547,569	183,670	0,045	0,048
-546,554	-114,533	0,029	0,004
-545,539	800,000	0,043	-0,122
-544,525	69,968	-0,086	-0,065
-543,510	149,177	0,052	-0,052
-542,496	-33,254	-0,069	-0,028
-541,481	146,102	-0,031	0,031
-540,466	-162,655	-0,069	0,002
-539,452	-46,411	-0,095	0,034
-538,437	212,086	0,059	-0,068
-537,423	-93,104	0,111	-0,022
-536,408	-134,795	-0,140	0,012
-535,393	163,160	-0,079	-0,081
-534,379	244,229	-0,102	-0,125
-533,364	-200,000	0,028	-0,184
-532,350	800,000	-0,024	0,073
-531,335	-200,000	-0,001	-0,107
-530,321	28,716	0,159	0,098
-529,306	660,342	0,030	0,058
-528,291	-200,000	-0,037	0,147
-527,277	-128,213	0,057	0,006
-526,262	-200,000	-0,007	-0,074
-525,248	516,572	-0,064	0,111
-524,233	492,252	0,113	0,190
-523,218	-200,000	0,032	0,125
-522,204	-200,000	0,018	0,131
-521,189	-125,811	0,005	-0,001
-520,175	134,676	-0,075	-0,071
-519,160	170,858	-0,064	0,068
-518,145	-27,018	0,092	0,039
-517,131	-11,055	0,080	0,038
-516,116	219,595	-0,092	-0,107
-515,102	127,164	-0,123	0,114
-514,087	-4,970	0,037	-0,018
-513,072	608,561	-0,079	-0,145
-512,058	-155,830	-0,088	-0,004
-511,043	800,000	-0,010	-0,025
-510,029	-200,000	-0,017	0,116
-509,014	39,893	-0,051	0,033
-507,999	-13,764	0,145	0,068
-506,985	-200,000	0,011	0,052
-505,970	331,849	-0,035	-0,050
-504,956	8,057	0,053	-0,029
-503,941	704,754	0,020	-0,040
-502,926	98,316	0,111	0,093
-501,912	244,502	0,059	0,073
-500,897	111,063	-0,015	0,013
-499,883	221,373	-0,087	-0,103
-498,868	697,101	-0,027	-0,052
-497,853	-167,394	0,182	-0,005
-496,839	800,000	0,048	-0,129
-495,824	-200,000	-0,022	-0,118
-494,810	-112,457	0,078	-0,011
-493,795	-154,624	-0,048	-0,002
-492,781	-158,415	0,040	-0,002
-491,766	-178,609	-0,088	-0,001
-490,751	-109,930	-0,048	-0,007
-489,737	-93,987	-0,115	-0,023
-488,722	46,443	0,091	0,062
-487,708	-46,319	-0,113	0,040
-486,693	-152,137	0,105	-0,005
-485,678	-3,910	-0,060	0,030
-484,664	800,000	0,019	-0,049
-483,649	-200,000	-0,014	-0,047
-482,635	79,777	-0,036	-0,028
-481,620	-93,079	0,063	0,013
-480,605	800,000	0,013	-0,030
-479,591	-200,000	0,005	-0,091
-478,576	-8,474	-0,121	0,059
-477,562	-200,000	0,003	0,129
-476,547	326,656	0,017	-0,024
-475,532	377,119	-0,053	0,080
-474,518	800,000	0,035	0,073
-473,503	-200,000	0,009	0,058
-472,489	-61,088	0,018	0,005
-471,474	-200,000	-0,002	-0,022
-470,459	-71,303	-0,026	-0,007
-469,445	-170,681	0,099	0,002
-468,430	800,000	-0,010	-0,029
-467,416	-150,997	0,051	-0,003
-466,401	183,170	-0,037	0,040
-465,386	-42,004	-0,098	-0,037
-464,372	255,809	0,039	0,049
-463,357	212,170	0,081	0,094
-462,343	-1,820	0,061	-0,031
-461,328	-149,550	0,108	0,006
-460,313	223,476	-0,078	-0,092
-459,299	345,448	-0,060	-0,086
-458,284	-200,000	-0,007	0,095
-457,270	-157,732	0,075	0,003
-456,255	-68,311	-0,060	0,017
-455,241	800,000	-0,053	-0,165
-454,226	-73,726	0,072	-0,019
-453,211	-94,231	0,081	0,016
-452,197	139,985	0,080	-0,077
-451,182	-200,000	-0,001	-0,030
-450,168	21,369	0,038	-0,022
-449,153	-108,376	-0,104	-0,016
-448,138	-12,429	-0,019	-0,009
-447,124	-3,472	-0,048	-0,024
-446,109	46,691	0,050	0,034
-445,095	800,000	0,033	0,091
-444,080	422,535	0,045	0,070
-443,065	203,034	0,060	0,068
-442,051	-42,732	0,071	-0,026
-441,036	-200,000	0,010	-0,143
-440,022	538,765	-0,056	-0,098
-439,007	-36,952	-0,044	0,017
-437,992	-31,339	0,054	0,022
-436,978	55,238	0,080	0,056
-435,963	800,000	-0,012	-0,026
-434,949	378,155	-0,058	0,086
-433,934	-111,853	-0,146	0,021
-432,919	-52,340	-0,049	0,016
-431,905	170,555	-0,041	-0,043
-430,890	-51,216	0,118	0,040
-429,876	-52,304	0,150	0,050
-428,861	355,239	0,036	-0,053
-427,846	30,273	-0,053	-0,033
-426,832	112,554	-0,021	0,019
-425,817	-133,168	0,067	0,006
-424,803	800,000	-0,019	-0,042
-423,788	-6,442	0,179	0,089
-422,773	67,059	0,102	0,076
-421,759	387,567	0,030	0,046
-420,744	-155,710	-0,107	0,005
-419,730	800,000	0,027	0,077
-418,715	-148,779	-0,042	0,002
-417,701	554,026	-0,059	-0,104
-416,686	348,616	0,105	0,151
-415,671	800,000	0,036	0,092
-414,657	480,588	-0,053	-0,088
-413,642	-57,502	-0,069	-0,022
-412,628	-200,000	0,012	-0,116
-411,613	289,561	-0,024	-0,032
-410,598	-200,000	0,007	-0,188
-409,584	-200,000	0,018	-0,075
-408,569	572,517	-0,057	0,101
-407,555	-103,909	0,047	0,008
-406,540	800,000	-0,068	0,154
-405,525	-136,790	-0,181	-0,015
-404,511	-200,000	-0,003	0,022
-403,496	-200,000	0,026	-0,085
-402,482	-200,000	0,003	0,019
-401,467	-123,983	-0,027	-0,003
-400,452	-101,203	0,140	0,025
-399,438	-200,000	0,019	0,093
-398,423	85,360	-0,136	0,109
-397,409	283,558	-0,065	0,085
-396,394	97,987	0,070	-0,058
-395,379	-99,620	0,094	0,017
-394,365	-200,000	0,002	-0,080
-393,350	-200,000	0,008	0,047
-392,336	38,287	0,067	0,043
-391,321	-141,986	-0,051	-0,004
-390,306	-178,477	0,056	0,001
-389,292	317,878	-0,118	-0,163
-388,277	800,000	0,046	-0,131
-387,263	-200,000	-0,033	0,175
-386,248	-2,798	0,087	0,044
-385,233	800,000	-0,025	0,067
-384,219	-129,558	-0,100	0,010
-383,204	-56,007	0,060	0,019
-382,190	-200,000	-0,006	0,066
-381,175	43,096	-0,085	-0,056
-380,160	800,000	0,059	0,180
-379,146	779,108	0,028	-0,057
-378,131	-112,695	-0,184	0,026
-377,117	347,343	-0,112	-0,161
-376,102	362,993	-0,071	-0,104
-375,088	389,491	0,101	-0,153
-374,073	-200,000	0,129	-0,000
-373,058	-116,561	-0,041	0,005
-372,044	-163,604	0,114	-0,004
-371,029	800,000	-0,030	-0,064
-370,015	-84,472	-0,037	-0,008
-369,000	-11,440	0,155	-0,074
-367,985	-200,000	-0,017	-0,104
-366,971	-130,910	0,058	0,006
-365,956	60,755	-0,059	0,042
-364,942	24,776	-0,084	0,050
-363,927	800,000	-0,054	-0,131
-362,912	-109,674	-0,103	-0,016
-361,898	-25,454	-0,128	0,055
-360,883	182,652	0,045	-0,048
-359,869	22,032	-0,039	-0,023
-358,854	48,280	0,041	0,027
-357,839	-69,306	0,070	0,019
-356,825	-200,000	-0,034	0,135
-355,810	120,079	0,049	0,044
-354,796	800,000	-0,030	-0,065
-353,781	800,000	0,051	-0,123
-352,766	29,436	-0,087	0,054
-351,752	-123,324	-0,029	0,003
-350,737	-15,683	0,042	0,019
-349,723	188,456	-0,089	0,097
-348,708	-52,202	0,094	0,031
-347,693	-200,000	0,005	0,029
-346,679	417,097	0,115	-0,178
-345,664	-179,017	-0,037	-0,001
-344,650	-200,000	0,031	-0,100
-343,635	193,255	0,036	-0,039
-342,620	143,626	-0,067	-0,065
-341,606	-97,292	0,137	0,026
-340,591	-68,661	-0,198	-0,055
-339,577	486,419	-0,046	0,076
-338,562	-181,251	-0,089	0,001
-337,548	653,607	0,034	-0,064
-336,533	-200,000	0,005	-0,127
-335,518	-69,715	-0,075	-0,021
-334,504	-200,000	0,035	0,118
-333,489	640,164	-0,042	-0,078
-332,475	-95,213	-0,063	-0,012
-331,460	-43,928	-0,062	0,022
-330,445	800,000	-0,036	-0,072
-329,431	-3,722	0,085	0,043
-328,416	800,000	-0,095	0,199
-327,402	112,908	0,019	-0,017
-326,387	-34,470	0,071	-0,028
-325,372	-0,035	-0,099	0,051
-324,358	-74,366	-0,050	0,013
-323,343	-126,729	0,096	-0,010
-322,329	98,103	0,064	-0,054
-321,314	394,102	0,045	0,069
-320,299	299,966	-0,069	0,093
-319,285	9,710	-0,103	0,057
-318,270	-171,735	0,137	-0,003
-317,256	-67,279	0,098	0,028
-316,241	800,000	-0,058	-0,146
-315,226	307,964	0,015	0,020
-314,212	-200,000	-0,014	0,134
-313,197	-200,000	0,000	0,049
-312,183	-164,825	0,123	-0,004
-311,168	24,385	-0,032	-0,019
-310,153	-200,000	-0,009	0,094
-309,139	259,337	0,054	0,067
-308,124	800,000	0,000	0,001
-307,110	-200,000	-0,006	-0,071
-306,095	-200,000	0,013	0,094
-305,080	6,765	-0,084	-0,045
-304,066	-200,000	0,018	-0,125
-303,051	-64,944	0,064	0,019
-302,037	-105,696	0,167	-0,027
-301,022	-200,000	0,021	-0,163
-300,008	-200,000	0,003	0,041
-298,993	454,892	0,041	0,065
-297,978	-107,697	0,048	0,008
-296,964	-146,498	-0,064	0,004
-295,949	800,000	-0,034	0,094
-294,935	257,090	0,048	-0,060
-293,920	800,000	-0,016	0,050
-292,905	-200,000	0,002	0,046
-291,891	-200,000	0,009	0,045
-290,876	468,513	-0,044	0,071
-289,862	-200,000	0,003	-0,106
-288,847	59,466	0,141	-0,100
-287,832	-13,223	-0,101	0,047
-286,818	-53,005	-0,118	0,039
-285,803	260,479	0,001	0,001
-284,789	70,528	-0,028	0,021
-283,774	-200,000	0,004	-0,084
-282,759	-50,326	-0,137	-0,047
-281,745	-200,000	0,016	0,067
-280,730	297,050	-0,008	-0,011
-279,716	141,815	-0,041	0,039
-278,701	131,526	-0,129	-0,120
-277,686	-74,192	0,141	0,037
-276,672	247,341	-0,039	-0,047
-275,657	-122,238	-0,069	-0,008
-274,643	228,161	-0,101	-0,119
-273,628	746,762	0,021	-0,040
-272,613	800,000	-0,011	-0,024
-271,599	-200,000	0,004	-0,022
-270,584	74,938	0,014	0,010
-269,570	-173,448	0,083	0,002
-268,555	-66,757	0,109	-0,031
-267,540	69,901	0,052	-0,039
-266,526	-200,000	0,034	-0,150
-265,511	-200,000	0,034	0,111
-264,497	128,022	-0,074	-0,068
-263,482	-62,356	0,061	-0,018
-262,467	-109,474	0,107	0,016
-261,453	25,145	0,122	0,073
-260,438	35,243	0,119	-0,075
-259,424	91,236	-0,042	0,034
-258,409	-200,000	0,016	0,056
-257,395	261,220	0,030	0,037
-256,380	-185,961	0,079	0,001
-255,365	-102,138	0,128	-0,022
-254,351	800,000	-0,030	-0,069
-253,336	800,000	0,047	-0,117
-252,322	-200,000	0,018	0,078
-251,307	800,000	0,018	-0,042
-250,292	-172,230	0,060	0,001
-249,278	800,000	-0,027	0,057
-248,263	-121,345	0,062	0,007
-247,249	-152,615	-0,078	0,004
-246,234	38,401	-0,103	-0,066
-245,219	-200,000	-0,030	-0,106
-244,205	800,000	0,038	0,092
-243,190	19,898	-0,055	-0,032
-242,176	40,576	-0,035	-0,023
-241,161	-200,000	0,013	0,201
-240,146	-113,022	-0,013	-0,002
-239,132	-200,000	0,008	0,049
-238,117	-84,226	0,014	0,003
-237,103	-200,000	0,002	-0,053
-236,088	-200,000	-0,002	-0,117
-235,073	282,962	0,095	0,123
-234,059	800,000	-0,028	0,075
-233,044	-153,345	0,108	-0,005
-232,030	800,000	-0,048	-0,126
-231,015	800,000	0,027	-0,077
-230,000	66,040	-0,065	-0,047
-228,986	-141,252	0,114	0,008
-227,971	26,886	0,142	-0,086
-226,957	-200,000	-0,027	0,119
-225,942	-27,760	0,082	0,034
-224,927	800,000	-0,010	-0,028
-223,913	-112,329	-0,066	0,009
-222,898	-186,466	0,102	-0,001
-221,884	800,000	-0,038	-0,087
-220,869	168,042	0,054	0,056
-219,855	269,857	-0,013	0,017
-218,840	800,000	0,017	0,045
-217,825	3,881	0,042	0,022
-216,811	-69,532	-0,047	0,013
-215,796	-200,000	-0,020	-0,103
-214,782	258,771	0,039	-0,049
-213,767	-58,343	0,103	0,032
-212,752	-200,000	0,024	-0,107
-211,738	74,324	0,020	0,015
-210,723	-82,055	-0,036	0,008
-209,709	-111,075	-0,153	0,022
-208,694	419,772	-0,092	-0,143
-207,679	26,769	-0,160	0,096
-206,665	121,985	0,085	0,076
-205,650	139,063	0,069	0,065
-204,636	160,395	-0,039	0,039
-203,621	-113,720	-0,063	0,009
-202,606	-137,725	-0,068	-0,005
-201,592	600,192	0,017	0,030
-200,577	304,212	-0,080	0,107
-199,563	179,677	0,035	-0,037
-198,548	166,115	0,140	0,144
-197,533	800,000	-0,052	0,131
-196,519	-200,000	0,043	0,138
-195,504	277,787	0,021	-0,027
-194,490	800,000	-0,085	-0,199
-193,475	426,126	0,013	-0,020
-192,460	-7,492	0,017	-0,008
-191,446	-200,000	-0,017	0,139
-190,431	-200,000	-0,012	0,039
-189,417	800,000	-0,018	-0,046
-188,402	800,000	0,024	0,056
-187,387	73,267	-0,072	0,054
-186,373	-83,956	-0,084	-0,019
-185,358	-14,676	0,092	0,043
-184,344	800,000	0,064	0,191
-183,329	109,359	-0,072	0,062
-182,315	92,432	-0,122	-0,099
-181,300	800,000	0,041	-0,108
-180,285	800,000	-0,044	0,093
-179,271	-90,013	0,236	0,049
-178,256	357,316	0,068	0,098
-177,242	-5,910	-0,032	0,016
-176,227	-101,338	0,091	0,016
-175,212	-200,000	-0,006	0,171
-174,198	-200,000	0,021	0,093
-173,183	607,782	0,056	-0,101
-172,169	-200,000	0,004	0,053
-171,154	-200,000	0,000	0,035
-170,139	615,739	-0,003	-0,005
-169,125	247,844	0,056	0,069
-168,110	-11,494	-0,025	-0,012
-167,096	255,907	0,058	-0,072
-166,081	800,000	0,036	-0,094
-165,066	-47,181	0,048	-0,017
-164,052	272,681	-0,009	-0,011
-163,037	-200,000	-0,018	0,127
-162,023	-80,413	-0,062	-0,015
-161,008	-187,972	-0,079	0,001
-159,993	762,877	-0,034	-0,067
-158,979	-62,471	-0,042	0,012
-157,964	-200,000	-0,014	0,056
-156,950	25,070	-0,039	0,023
-155,935	-80,239	0,033	-0,008
-154,920	526,791	0,119	-0,203
-153,906	422,675	-0,067	0,104
-152,891	-53,762	-0,123	0,040
-151,877	120,762	-0,016	-0,014
-150,862	161,987	-0,116	0,117
-149,847	19,116	0,088	-0,050
-148,833	-20,727	-0,067	0,029
-147,818	-200,000	-0,007	-0,027
-146,804	-200,000	-0,000	0,091
-145,789	-200,000	-0,004	0,112
-144,775	-69,291	-0,135	0,037
-143,760	-200,000	0,009	-0,050
-142,745	-66,164	0,087	-0,025
-141,731	-200,000	-0,004	-0,063
-140,716	-68,349	-0,047	0,013
-139,702	132,014	0,032	-0,030
-138,687	-57,166	0,086	-0,027
-137,672	232,168	0,054	0,064
-136,658	12,911	-0,115	-0,064
-135,643	29,064	-0,024	0,015
-134,629	-38,949	0,078	0,029
-133,614	694,928	-0,031	0,058
-132,599	-200,000	0,020	-0,072
-131,585	-46,417	-0,136	-0,048
-130,570	-200,000	-0,010	-0,058
-129,556	294,972	-0,017	0,023
-128,541	425,934	-0,047	-0,073
-127,526	-136,162	-0,015	0,001
-126,512	-200,000	-0,005	-0,057
-125,497	22,498	-0,105	-0,062
-124,483	-14,190	0,021	0,010
-123,468	-29,508	0,154	-0,063
-122,453	29,088	-0,061	-0,037
-121,439	366,170	0,025	0,036
-120,424	505,932	-0,032	0,053
