DTS Sentinel unit serial number:	SN410029Multiplexer serial number:	ORYXHardware model number:	OX2-SRSoftware version number:	ORYX F/W v4,00 Oryx Data Collector v3.7.2.0data status	okinstallation	B6 Nyhavnadifferential loss correction	single-endedforward channel	channel 2reverse channel	N/Adate	2023/12/07time	20:40:08forward acquisition time	300,00reverse acquisition time	0,00gamma	499,1914k internal	0,3165k external	0,3165temperature offset calibration	1,0000default loss term (dB/km)	0,3820temperature slope calibration	1,0000multiplexer offset coefficient	1,0000multiplexer slope coefficient	1,0000fibre end	0,00T internal ref (°C)	13,80T ext. ref 1 (°C)	-3,13T ext. ref 2 (°C)	-3,14length (m)	temperature (°C)	Stokes	anti-Stokes-744,400	800,000	0,063	-0,159
-743,385	-110,848	-0,325	-0,049
-742,371	303,264	0,121	0,165
-741,356	-107,002	-0,261	0,042
-740,342	158,372	0,061	0,062
-739,327	-111,725	-0,254	-0,037
-738,312	-123,724	0,109	-0,013
-737,298	-102,901	-0,264	0,046
-736,283	558,042	0,095	0,168
-735,269	-46,284	-0,293	-0,105
-734,254	-10,682	0,121	0,059
-733,239	-38,662	-0,461	-0,178
-732,225	-182,404	0,315	0,004
-731,210	-146,252	-0,070	0,004
-730,196	698,699	0,052	0,101
-729,181	304,991	-0,096	0,132
-728,167	-200,000	-0,001	-0,059
-727,152	800,000	-0,035	-0,098
-726,137	-98,350	-0,036	0,007
-725,123	294,337	0,052	-0,070
-724,108	-4,038	-0,120	-0,061
-723,094	800,000	-0,049	-0,102
-722,079	-163,598	-0,058	-0,002
-721,064	451,265	-0,027	-0,044
-720,050	757,763	0,008	-0,016
-719,035	-200,000	0,002	0,070
-718,021	800,000	0,031	-0,074
-717,006	-200,000	-0,020	-0,170
-715,991	312,067	-0,165	-0,228
-714,977	249,562	-0,061	-0,077
-713,962	-111,958	0,056	-0,008
-712,948	-124,441	-0,188	0,021
-711,933	-31,613	-0,038	-0,016
-710,918	-200,000	-0,005	-0,105
-709,904	601,593	-0,082	-0,150
-708,889	800,000	-0,087	-0,206
-707,875	-200,000	-0,007	-0,039
-706,860	536,588	0,055	-0,096
-705,845	800,000	-0,016	0,039
-704,831	228,485	0,041	-0,049
-703,816	11,766	0,039	0,022
-702,802	63,286	0,125	-0,092
-701,787	-26,294	-0,016	0,007
-700,772	-184,704	-0,031	0,000
-699,758	124,648	-0,057	-0,053
-698,743	106,125	0,092	-0,080
-697,729	-137,761	0,130	0,011
-696,714	-119,579	-0,127	0,016
-695,699	-36,868	-0,040	-0,016
-694,685	299,351	0,049	-0,067
-693,670	-140,590	-0,035	-0,003
-692,656	-67,536	0,029	0,008
-691,641	800,000	-0,046	0,094
-690,627	-200,000	0,001	-0,142
-689,612	-112,179	0,060	-0,009
-688,597	-200,000	0,036	-0,140
-687,583	118,142	0,055	-0,050
-686,568	-200,000	0,042	-0,167
-685,554	250,710	-0,080	0,100
-684,539	28,108	-0,034	-0,021
-683,524	800,000	-0,046	0,117
-682,510	512,639	0,030	0,051
-681,495	-200,000	0,047	-0,178
-680,481	-190,640	0,108	-0,001
-679,466	33,636	-0,141	-0,090
-678,451	-162,773	-0,016	0,001
-677,437	35,703	0,116	0,074
-676,422	-135,440	0,110	-0,009
-675,408	-23,972	-0,119	-0,052
-674,393	226,271	0,024	0,029
-673,378	278,994	-0,096	-0,126
-672,364	789,820	-0,032	-0,065
-671,349	20,180	-0,098	0,058
-670,335	14,637	-0,025	-0,015
-669,320	-66,194	0,058	0,017
-668,305	37,104	0,040	-0,026
-667,291	-88,834	-0,099	-0,021
-666,276	380,153	0,060	-0,090
-665,262	800,000	-0,031	-0,087
-664,247	459,519	-0,038	-0,062
-663,232	507,387	0,024	0,041
-662,218	657,663	0,028	-0,052
-661,203	269,249	-0,022	0,028
-660,189	-200,000	0,004	-0,094
-659,174	-200,000	-0,023	-0,138
-658,159	-147,829	-0,096	0,006
-657,145	290,719	-0,043	-0,058
-656,130	-144,976	0,140	0,009
-655,116	505,538	-0,037	-0,063
-654,101	86,358	-0,058	-0,047
-653,086	236,639	-0,032	0,039
-652,072	521,900	-0,058	-0,100
-651,057	-200,000	-0,008	-0,062
-650,043	-200,000	-0,010	0,084
-649,028	-79,734	-0,118	-0,029
-648,014	-101,348	0,034	-0,006
-646,999	429,296	0,054	0,085
-645,984	126,924	-0,078	0,073
-644,970	800,000	-0,042	-0,103
-643,955	800,000	-0,035	-0,086
-642,941	-200,000	-0,008	-0,046
-641,926	183,694	0,036	-0,039
-640,911	17,670	0,026	0,015
-639,897	298,270	-0,062	-0,084
-638,882	-39,969	-0,066	-0,025
-637,868	800,000	0,064	0,130
-636,853	338,333	-0,066	-0,094
-635,838	800,000	-0,036	-0,095
-634,824	800,000	-0,026	-0,055
-633,809	-82,777	-0,069	0,016
-632,795	111,397	0,079	-0,070
-631,780	167,361	-0,068	-0,071
-630,765	-200,000	-0,000	0,045
-629,751	608,211	0,033	0,061
-628,736	269,747	-0,037	-0,048
-627,722	800,000	-0,011	0,031
-626,707	-200,000	0,000	-0,028
-625,692	-78,585	0,184	0,046
-624,678	-24,833	-0,109	0,047
-623,663	800,000	-0,016	0,038
-622,649	-200,000	-0,019	0,102
-621,634	800,000	-0,024	-0,070
-620,619	88,978	0,078	-0,063
-619,605	528,587	-0,017	0,030
-618,590	-200,000	-0,030	0,102
-617,576	6,398	0,030	0,016
-616,561	-200,000	0,014	-0,063
-615,546	213,787	-0,043	-0,050
-614,532	42,871	-0,079	0,052
-613,517	206,114	0,035	-0,040
-612,503	-56,538	0,076	0,024
-611,488	352,378	0,053	0,077
-610,474	237,298	-0,074	0,090
-609,459	277,999	-0,085	-0,112
-608,444	-46,671	-0,103	0,037
-607,430	-143,502	-0,092	-0,006
-606,415	800,000	0,039	-0,094
-605,401	-136,283	0,069	-0,006
-604,386	110,856	0,043	0,038
-603,371	583,992	0,050	0,091
-602,357	15,733	-0,106	0,061
-601,342	23,521	-0,096	0,058
-600,328	4,555	0,029	-0,016
-599,313	26,209	-0,047	0,029
-598,298	8,542	0,126	0,069
-597,284	147,950	-0,077	0,076
-596,269	-88,061	-0,123	0,027
-595,255	-102,521	-0,051	0,009
-594,240	-162,601	-0,115	0,004
-593,225	124,586	0,044	-0,041
-592,211	141,241	-0,084	-0,082
-591,196	800,000	0,029	0,078
-590,182	-200,000	0,007	-0,030
-589,167	800,000	-0,032	0,093
-588,152	231,377	-0,031	0,037
-587,138	-5,562	-0,070	-0,035
-586,123	800,000	0,051	-0,122
-585,109	789,391	0,035	-0,072
-584,094	-4,086	-0,037	-0,019
-583,079	-165,881	-0,040	0,001
-582,065	-24,572	0,091	0,039
-581,050	-146,451	0,056	-0,004
-580,036	-50,753	0,051	0,017
-579,021	-100,016	-0,101	-0,018
-578,006	-200,000	0,025	-0,100
-576,992	-64,121	0,082	-0,024
-575,977	-76,702	0,024	-0,006
-574,963	223,329	-0,169	0,200
-573,948	800,000	0,058	-0,146
-572,934	-7,147	0,069	0,034
-571,919	-129,421	0,096	-0,010
-570,904	-29,979	-0,115	-0,047
-569,890	-200,000	-0,026	0,091
-568,875	699,333	0,038	-0,073
-567,861	214,335	0,028	-0,033
-566,846	-200,000	-0,014	0,196
-565,831	227,857	-0,123	0,146
-564,817	-78,610	0,034	-0,008
-563,802	-200,000	0,027	-0,100
-562,788	-127,920	-0,155	-0,016
-561,773	-200,000	-0,016	-0,150
-560,758	-200,000	0,002	-0,109
-559,744	-38,493	0,043	0,016
-558,729	473,924	0,061	0,101
-557,715	195,013	-0,080	0,089
-556,700	711,900	-0,048	-0,093
-555,685	91,347	-0,093	0,076
-554,671	800,000	0,040	-0,101
-553,656	800,000	0,027	0,070
-552,642	800,000	0,057	-0,124
-551,627	-82,833	0,044	-0,010
-550,612	800,000	-0,001	0,004
-549,598	96,972	0,082	0,069
-548,583	800,000	-0,015	0,039
-547,569	-200,000	-0,012	-0,056
-546,554	162,328	0,044	0,045
-545,539	119,593	-0,082	0,074
-544,525	-14,143	0,140	-0,066
-543,510	379,857	0,029	0,044
-542,496	-200,000	0,043	-0,161
-541,481	-25,539	-0,238	-0,102
-540,466	-43,776	0,055	0,020
-539,452	411,845	0,008	-0,013
-538,437	-61,472	0,074	-0,022
-537,423	86,923	-0,053	-0,043
-536,408	800,000	0,026	0,069
-535,393	736,653	-0,023	-0,044
-534,379	-2,355	0,131	-0,067
-533,364	-35,223	-0,045	-0,018
-532,350	-200,000	-0,021	0,107
-531,335	800,000	-0,039	0,109
-530,321	733,517	0,032	0,063
-529,306	67,974	-0,050	0,037
-528,291	130,225	0,108	-0,101
-527,277	394,688	-0,107	-0,162
-526,262	-82,018	0,152	-0,036
-525,248	383,510	-0,025	-0,038
-524,233	-107,403	0,025	-0,004
-523,218	158,223	0,096	0,097
-522,204	-200,000	-0,006	-0,096
-521,189	385,248	0,060	-0,091
-520,175	151,209	0,058	-0,057
-519,160	-108,910	-0,025	-0,004
-518,145	800,000	0,023	-0,061
-517,131	-200,000	0,020	-0,106
-516,116	62,061	0,050	-0,037
-515,102	-109,373	-0,100	0,015
-514,087	-200,000	-0,017	-0,109
-513,072	369,363	-0,033	-0,049
-512,058	46,537	0,079	-0,054
-511,043	-200,000	-0,002	0,050
-510,029	-200,000	0,020	-0,092
-509,014	-168,464	0,159	-0,004
-507,999	97,179	0,081	0,068
-506,985	-200,000	-0,013	0,096
-505,970	-139,049	-0,074	0,006
-504,956	539,297	0,030	-0,053
-503,941	87,462	0,057	0,046
-502,926	126,254	0,044	0,041
-501,912	-58,310	0,086	-0,027
-500,897	800,000	0,020	-0,052
-499,883	800,000	-0,012	0,024
-498,868	66,383	-0,063	-0,047
-497,853	800,000	0,107	-0,236
-496,839	-13,558	0,063	-0,030
-495,824	16,245	0,060	0,034
-494,810	-49,432	-0,017	-0,006
-493,795	62,842	-0,155	0,113
-492,781	459,392	-0,055	-0,090
-491,766	110,493	0,081	0,071
-490,751	-200,000	-0,013	-0,134
-489,737	262,907	0,028	-0,035
-488,722	-98,573	0,060	0,011
-487,708	493,712	0,028	0,046
-486,693	-200,000	0,010	0,054
-485,678	29,870	-0,056	0,035
-484,664	11,075	-0,022	0,012
-483,649	-200,000	-0,007	-0,085
-482,635	-28,467	-0,091	0,038
-481,620	-181,262	0,187	0,003
-480,605	-200,000	-0,005	0,043
-479,591	-200,000	0,008	0,094
-478,576	-200,000	-0,004	0,027
-477,562	-200,000	-0,025	-0,106
-476,547	-63,843	-0,161	-0,048
-475,532	-200,000	0,031	0,105
-474,518	-106,488	0,103	-0,017
-473,503	-54,224	-0,136	0,045
-472,489	-88,359	0,122	0,026
-471,474	800,000	-0,004	0,011
-470,459	192,343	0,060	0,066
-469,445	478,055	-0,043	-0,072
-468,430	625,713	0,043	-0,079
-467,416	26,659	0,045	0,027
-466,401	134,356	-0,109	0,103
-465,386	65,259	0,082	0,061
-464,372	121,802	-0,094	0,086
-463,357	39,293	-0,064	-0,041
-462,343	81,678	-0,113	0,089
-461,328	191,774	-0,066	0,072
-460,313	-200,000	0,070	0,237
-459,299	-75,138	0,118	0,031
-458,284	-31,296	0,043	-0,017
-457,270	36,683	0,058	0,037
-456,255	800,000	-0,040	-0,087
-455,241	771,363	0,069	0,137
-454,226	-200,000	-0,014	0,184
-453,211	-57,123	-0,206	0,065
-452,197	170,176	-0,102	0,107
-451,182	-200,000	-0,005	0,048
-450,168	205,445	0,026	-0,029
-449,153	-200,000	0,012	0,054
-448,138	680,873	0,038	-0,072
-447,124	383,319	0,092	0,137
-446,109	800,000	0,013	0,042
-445,095	21,815	0,020	0,012
-444,080	448,945	-0,080	0,128
-443,065	-102,766	0,070	0,012
-442,051	-114,193	0,083	-0,011
-441,036	-52,253	-0,116	-0,039
-440,022	-200,000	0,010	0,109
-439,007	16,112	0,097	-0,056
-437,992	-71,705	0,187	-0,050
-436,978	-200,000	0,017	0,061
-435,963	243,053	-0,050	0,061
-434,949	13,039	0,244	0,137
-433,934	-5,515	-0,053	0,026
-432,919	227,528	0,042	-0,050
-431,905	-200,000	0,026	0,142
-430,890	463,317	0,097	-0,158
-429,876	192,539	-0,012	0,014
-428,861	-200,000	-0,008	0,112
-427,846	-9,063	-0,097	-0,047
-426,832	755,652	0,058	0,114
-425,817	138,745	0,049	-0,046
-424,803	224,115	0,055	0,065
-423,788	-200,000	0,004	0,050
-422,773	-150,667	-0,059	-0,003
-421,759	350,512	-0,016	0,023
-420,744	49,565	-0,110	0,075
-419,730	-133,742	-0,060	-0,005
-418,715	-200,000	0,013	0,106
-417,701	800,000	-0,031	-0,078
-416,686	-82,667	0,118	0,028
-415,671	148,189	0,101	0,099
-414,657	-200,000	-0,029	0,130
-413,642	-200,000	-0,012	0,083
-412,628	461,561	-0,068	-0,110
-411,613	-200,000	0,007	0,053
-410,598	800,000	-0,030	-0,076
-409,584	-200,000	0,014	0,298
-408,569	-64,429	0,071	-0,021
-407,555	178,251	-0,032	-0,034
-406,540	-200,000	0,001	0,067
-405,525	43,427	0,102	-0,068
-404,511	-0,407	-0,095	-0,049
-403,496	68,697	-0,173	-0,129
-402,482	-49,600	0,121	0,042
-401,467	-16,742	-0,071	0,032
-400,452	-200,000	-0,025	0,190
-399,438	602,569	-0,068	0,123
-398,423	-200,000	-0,013	-0,056
-397,409	-25,728	0,048	-0,021
-396,394	-200,000	-0,001	0,017
-395,379	161,279	-0,051	0,052
-394,365	-120,310	0,087	0,011
-393,350	-77,634	0,172	0,043
-392,336	-200,000	-0,013	0,097
-391,321	-167,639	0,055	-0,002
-390,306	800,000	-0,047	-0,110
-389,292	346,661	0,043	-0,061
-388,277	-77,866	0,032	-0,008
-387,263	800,000	0,027	-0,070
-386,248	-129,225	-0,059	-0,006
-385,233	800,000	0,010	-0,025
-384,219	800,000	-0,055	0,149
-383,204	-135,964	-0,083	-0,007
-382,190	-200,000	-0,002	-0,014
-381,175	515,303	0,046	0,078
-380,160	142,591	0,119	0,115
-379,146	613,527	0,077	0,140
-378,131	565,810	-0,025	0,045
-377,117	-200,000	0,008	-0,053
-376,102	-200,000	-0,008	-0,033
-375,088	143,774	-0,065	-0,063
-374,073	-200,000	0,015	-0,065
-373,058	-200,000	0,021	0,096
-372,044	39,996	0,176	-0,114
-371,029	800,000	-0,038	-0,112
-370,015	-90,103	0,074	0,016
-369,000	-200,000	-0,009	-0,104
-367,985	-122,896	-0,031	-0,004
-366,971	-0,824	-0,087	0,044
-365,956	-105,447	0,078	-0,013
-364,942	-200,000	0,043	0,141
-363,927	-200,000	-0,023	0,189
-362,912	-200,000	0,012	-0,096
-361,898	-128,045	-0,071	-0,007
-360,883	800,000	-0,069	-0,158
-359,869	-80,471	-0,029	-0,007
-358,854	800,000	-0,065	-0,151
-357,839	-127,788	-0,104	0,011
-356,825	-92,146	0,182	0,037
-355,810	-71,854	-0,037	0,010
-354,796	-17,407	0,076	0,035
-353,781	130,717	0,067	-0,062
-352,766	25,396	-0,088	-0,053
-351,752	-38,221	-0,096	-0,037
-350,737	800,000	0,044	-0,101
-349,723	-200,000	-0,026	0,094
-348,708	-51,417	0,025	0,008
-347,693	-200,000	-0,001	-0,091
-346,679	-28,049	-0,073	-0,030
-345,664	800,000	0,011	0,036
-344,650	-200,000	0,023	0,131
-343,635	-200,000	-0,026	-0,110
-342,620	-200,000	0,003	0,116
-341,606	53,327	-0,045	0,031
-340,591	18,972	-0,052	-0,030
-339,577	165,257	-0,054	-0,056
-338,562	109,713	-0,034	-0,029
-337,548	-33,664	0,110	0,044
-336,533	-15,823	0,112	0,052
-335,518	108,774	0,082	0,071
-334,504	-27,887	0,054	0,023
-333,489	800,000	0,035	-0,085
-332,475	58,217	0,021	0,015
-331,460	37,356	-0,071	-0,046
-330,445	58,647	0,020	0,015
-329,431	-16,362	0,032	-0,015
-328,416	800,000	-0,024	0,063
-327,402	-200,000	-0,015	0,134
-326,387	49,174	-0,091	0,062
-325,372	-71,200	-0,034	0,009
-324,358	-200,000	0,011	-0,049
-323,343	-200,000	-0,040	-0,130
-322,329	2,834	-0,080	0,042
-321,314	-59,932	0,130	-0,040
-320,299	104,107	-0,121	-0,103
-319,285	40,667	-0,131	-0,086
-318,270	-200,000	-0,037	-0,122
-317,256	-200,000	-0,058	-0,248
-316,241	-200,000	0,007	-0,057
-315,226	152,827	0,072	0,072
-314,212	78,920	-0,027	0,021
-313,197	449,460	-0,015	-0,024
-312,183	238,664	0,026	0,032
-311,168	-12,589	-0,142	-0,067
-310,153	800,000	0,007	-0,021
-309,139	-120,821	-0,072	0,009
-308,124	295,965	-0,030	-0,040
-307,110	-127,672	-0,116	-0,012
-306,095	800,000	0,057	0,117
-305,080	-200,000	-0,035	0,148
-304,066	790,777	0,038	-0,076
-303,051	-127,707	-0,108	0,011
-302,037	800,000	0,034	-0,084
-301,022	44,330	0,016	0,010
-300,008	-117,646	0,128	-0,016
-298,993	785,924	-0,093	-0,185
-297,978	167,141	-0,053	0,054
-296,964	243,092	-0,083	-0,101
-295,949	800,000	0,018	-0,055
-294,935	408,787	-0,063	-0,096
-293,920	94,505	0,050	0,041
-292,905	-6,920	0,122	-0,060
-291,891	-200,000	0,002	0,039
-290,876	-56,265	0,084	-0,027
-289,862	-200,000	0,010	-0,122
-288,847	-200,000	-0,007	0,093
-287,832	800,000	0,012	-0,024
-286,818	494,147	-0,072	-0,120
-285,803	800,000	0,045	-0,118
-284,789	-112,254	0,092	0,013
-283,774	-200,000	0,020	0,082
-282,759	47,590	-0,040	-0,027
-281,745	-200,000	0,031	-0,137
-280,730	-13,651	-0,140	-0,065
-279,716	-200,000	-0,004	0,062
-278,701	285,672	0,073	0,095
-277,686	800,000	0,030	-0,084
-276,672	417,024	0,069	0,107
-275,657	157,302	-0,039	-0,039
-274,643	128,860	-0,091	0,084
-273,628	-200,000	0,042	-0,169
-272,613	302,453	-0,060	-0,081
-271,599	288,564	-0,070	0,092
-270,584	-200,000	0,002	0,049
-269,570	622,436	0,033	0,061
-268,555	258,747	0,056	0,070
-267,540	-200,000	-0,002	0,083
-266,526	-143,126	-0,028	-0,002
-265,511	-200,000	-0,022	-0,116
-264,497	-200,000	-0,034	0,114
-263,482	-62,101	0,047	-0,014
-262,467	230,339	0,060	-0,071
-261,453	-151,591	0,083	-0,004
-260,438	259,471	-0,078	-0,097
-259,424	800,000	-0,030	-0,063
-258,409	800,000	-0,031	-0,075
-257,395	-200,000	-0,017	0,070
-256,380	57,366	0,049	-0,034
-255,365	-3,380	-0,088	-0,044
-254,351	-178,828	-0,083	0,001
-253,336	-200,000	-0,042	-0,153
-252,322	12,137	-0,048	0,027
-251,307	-200,000	-0,020	-0,136
-250,292	183,385	0,109	0,116
-249,278	800,000	-0,051	0,125
-248,263	-110,028	0,129	-0,019
-247,249	-79,230	0,075	0,018
-246,234	-56,725	-0,093	0,030
-245,219	713,085	0,042	-0,081
-244,205	800,000	-0,047	-0,106
-243,190	553,363	0,052	0,091
-242,176	800,000	0,008	-0,021
-241,161	-117,502	0,130	0,017
-240,146	352,886	0,026	0,037
-239,132	-200,000	-0,000	-0,041
-238,117	-187,741	0,090	-0,001
-237,103	57,038	-0,106	-0,074
-236,088	-72,000	0,150	0,040
-235,073	362,890	-0,009	0,013
-234,059	81,137	-0,026	0,021
-233,044	-200,000	0,015	0,177
-232,030	-121,475	0,066	-0,008
-231,015	800,000	0,051	-0,126
-230,000	161,765	-0,074	-0,075
-228,986	-200,000	0,009	0,049
-227,971	82,070	-0,101	-0,079
-226,957	187,942	0,097	0,104
-225,942	-143,427	-0,039	0,003
-224,927	-10,712	-0,104	0,049
-223,913	-200,000	0,011	-0,092
-222,898	800,000	0,037	-0,115
-221,884	-66,003	-0,012	0,003
-220,869	79,518	0,026	0,020
-219,855	-200,000	0,003	-0,018
-218,840	-200,000	0,012	0,148
-217,825	538,852	-0,039	0,066
-216,811	-124,834	0,055	-0,006
-215,796	-69,896	0,007	-0,002
-214,782	-164,304	-0,151	-0,005
-213,767	-114,201	0,088	-0,012
-212,752	15,307	0,088	0,050
-211,738	180,868	0,102	-0,108
-210,723	45,901	-0,045	-0,030
-209,709	37,258	-0,054	0,034
-208,694	132,779	0,074	0,069
-207,679	241,170	-0,047	0,057
-206,665	-200,000	-0,003	-0,067
-205,650	-200,000	-0,004	0,059
-204,636	800,000	0,041	-0,102
-203,621	800,000	0,034	0,095
-202,606	800,000	0,038	-0,106
-201,592	-86,009	-0,235	-0,052
-200,577	-94,560	-0,082	-0,016
-199,563	-200,000	0,028	-0,120
-198,548	-97,319	0,102	0,019
-197,533	-171,879	0,086	0,002
-196,519	-1,857	-0,055	0,028
-195,504	55,230	0,063	-0,044
-194,490	-200,000	0,015	-0,057
-193,475	-111,766	-0,070	-0,010
-192,460	69,700	-0,115	-0,085
-191,446	127,472	-0,026	0,023
-190,431	333,525	0,078	0,108
-189,417	-200,000	-0,028	-0,114
-188,402	-200,000	-0,033	-0,131
-187,387	259,277	-0,100	-0,124
-186,373	685,090	-0,041	-0,077
-185,358	-200,000	-0,025	0,085
-184,344	-63,163	0,086	0,025
-183,329	256,141	-0,087	0,108
-182,315	17,771	0,056	-0,032
-181,300	174,283	-0,042	-0,044
-180,285	157,355	-0,091	-0,091
-179,271	-200,000	-0,023	0,073
-178,256	-200,000	-0,050	0,220
-177,242	-117,271	0,071	-0,009
-176,227	399,430	-0,045	0,069
-175,212	800,000	-0,022	0,069
-174,198	105,449	0,100	0,085
-173,183	800,000	-0,043	0,111
-172,169	163,678	0,088	-0,089
-171,154	-52,137	-0,065	-0,021
-170,139	-117,012	0,112	-0,015
-169,125	51,874	-0,069	0,047
-168,110	114,158	0,068	-0,059
-167,096	108,884	-0,100	0,086
-166,081	-170,383	0,067	-0,002
-165,066	800,000	0,016	0,032
-164,052	7,011	0,082	0,044
-163,037	98,660	-0,123	-0,102
-162,023	374,070	0,042	0,062
-161,008	246,980	-0,011	0,013
-159,993	-200,000	-0,002	-0,090
-158,979	67,971	-0,077	-0,056
-157,964	108,399	0,046	0,040
-156,950	238,752	0,182	-0,218
-155,935	-200,000	0,028	0,103
-154,920	-25,045	-0,057	-0,024
-153,906	800,000	0,020	-0,048
-152,891	227,974	-0,062	0,073
-151,877	-200,000	0,019	-0,060
-150,862	-200,000	-0,022	-0,108
-149,847	-29,959	-0,037	0,015
-148,833	-62,425	0,071	0,021
-147,818	-67,684	0,171	-0,048
-146,804	-200,000	-0,010	0,063
-145,789	0,558	-0,042	-0,021
-144,775	87,674	-0,105	-0,084
-143,760	-71,930	0,071	0,019
-142,745	-62,317	-0,096	0,029
-141,731	-200,000	0,001	-0,087
-140,716	199,912	-0,051	0,057
-139,702	359,234	0,006	0,009
-138,687	-109,266	-0,038	0,006
-137,672	3,196	-0,121	0,063
-136,658	18,317	-0,085	0,048
-135,643	-200,000	0,016	0,154
-134,629	-79,093	0,038	0,009
-133,614	800,000	-0,014	-0,034
-132,599	-200,000	-0,003	0,041
-131,585	44,145	0,049	0,032
-130,570	800,000	-0,035	-0,090
-129,556	-161,149	-0,139	-0,005
-128,541	800,000	0,019	-0,051
-127,526	800,000	0,051	-0,117
-126,512	35,599	0,086	-0,054
-125,497	-200,000	0,019	0,093
-124,483	293,858	0,011	0,014
-123,468	12,121	-0,043	0,024
-122,453	-65,301	-0,057	0,016
-121,439	111,483	-0,131	-0,114
-120,424	-33,681	-0,063	-0,025
