DTS Sentinel unit serial number:	SN410029Multiplexer serial number:	ORYXHardware model number:	OX2-SRSoftware version number:	ORYX F/W v4,00 Oryx Data Collector v3.7.2.0data status	okinstallation	B6 Nyhavnadifferential loss correction	single-endedforward channel	channel 2reverse channel	N/Adate	2023/12/10time	02:15:08forward acquisition time	300,00reverse acquisition time	0,00gamma	499,1914k internal	0,3125k external	0,3125temperature offset calibration	1,0000default loss term (dB/km)	0,3820temperature slope calibration	1,0000multiplexer offset coefficient	1,0000multiplexer slope coefficient	1,0000fibre end	0,00T internal ref (°C)	21,94T ext. ref 1 (°C)	5,71T ext. ref 2 (°C)	5,69length (m)	temperature (°C)	Stokes	anti-Stokes-744,400	-200,000	-0,004	0,053
-743,385	195,713	-0,132	0,150
-742,371	-200,000	0,008	0,107
-741,356	118,217	-0,180	0,165
-740,342	137,038	0,032	-0,032
-739,327	800,000	-0,089	0,236
-738,312	-21,377	0,046	-0,021
-737,298	71,947	-0,128	0,099
-736,283	-43,549	0,001	0,001
-735,269	-57,738	-0,373	0,121
-734,254	135,351	0,116	0,113
-733,239	-95,426	-0,348	-0,069
-732,225	273,985	0,081	-0,106
-731,210	-122,324	-0,128	0,015
-730,196	-200,000	-0,008	0,081
-729,181	476,425	0,080	-0,134
-728,167	800,000	0,038	0,097
-727,152	608,309	0,008	0,015
-726,137	390,493	-0,137	-0,212
-725,123	-200,000	-0,020	-0,088
-724,108	-200,000	0,001	-0,102
-723,094	-200,000	-0,006	-0,130
-722,079	-110,269	-0,107	-0,016
-721,064	81,514	-0,078	0,063
-720,050	93,625	0,098	0,082
-719,035	-200,000	0,017	0,111
-718,021	800,000	0,072	0,195
-717,006	-142,633	-0,103	-0,007
-715,991	325,181	-0,075	0,108
-714,977	253,185	-0,063	-0,080
-713,962	134,393	0,083	0,080
-712,948	0,651	0,088	0,047
-711,933	193,460	-0,043	-0,048
-710,918	-187,067	-0,093	-0,001
-709,904	-200,000	-0,013	-0,123
-708,889	800,000	-0,059	-0,162
-707,875	-200,000	-0,007	0,030
-706,860	54,072	-0,052	-0,037
-705,845	27,424	0,129	-0,080
-704,831	-52,712	0,080	0,027
-703,816	-75,547	-0,080	0,021
-702,802	-48,675	-0,142	-0,050
-701,787	-38,734	0,191	0,075
-700,772	150,825	0,034	-0,035
-699,758	270,898	-0,016	0,021
-698,743	-72,994	0,203	0,055
-697,729	-22,684	0,061	0,027
-696,714	279,800	0,085	0,114
-695,699	-106,688	0,086	-0,014
-694,685	-200,000	0,004	-0,080
-693,670	-200,000	0,004	-0,193
-692,656	689,283	-0,023	0,045
-691,641	-126,345	0,096	-0,011
-690,627	-67,920	0,073	-0,021
-689,612	-109,749	0,144	0,022
-688,597	54,438	-0,083	-0,059
-687,583	-45,812	0,036	-0,013
-686,568	800,000	-0,034	-0,100
-685,554	-100,401	-0,186	0,034
-684,539	-131,044	0,042	0,004
-683,524	217,044	0,032	0,038
-682,510	-100,214	-0,122	0,022
-681,495	-116,347	-0,108	-0,015
-680,481	396,413	0,037	-0,057
-679,466	34,687	-0,100	-0,065
-678,451	-200,000	0,007	0,100
-677,437	237,983	0,028	-0,035
-676,422	800,000	0,020	-0,045
-675,408	-97,484	0,035	0,007
-674,393	316,077	-0,032	-0,045
-673,378	-200,000	-0,020	0,085
-672,364	-115,658	-0,040	-0,006
-671,349	-200,000	0,006	-0,160
-670,335	-200,000	-0,000	0,073
-669,320	51,856	-0,039	-0,028
-668,305	202,253	0,082	0,094
-667,291	-200,000	-0,030	-0,112
-666,276	800,000	-0,022	-0,059
-665,262	-20,190	-0,075	-0,034
-664,247	383,575	-0,069	-0,106
-663,232	19,331	0,101	0,060
-662,218	-156,623	-0,070	0,003
-661,203	-66,591	-0,103	0,030
-660,189	800,000	-0,048	-0,149
-659,174	-132,299	0,102	-0,010
-658,159	231,851	-0,139	-0,169
-657,145	-124,703	-0,062	-0,007
-656,130	-88,783	0,033	0,007
-655,116	-86,807	-0,072	0,016
-654,101	-49,005	0,097	0,034
-653,086	-70,867	-0,084	0,023
-652,072	559,735	-0,047	-0,084
-651,057	-200,000	-0,003	-0,015
-650,043	359,300	0,016	-0,024
-649,028	-200,000	0,035	-0,126
-648,014	800,000	-0,047	-0,112
-646,999	248,737	0,095	-0,120
-645,984	800,000	-0,068	-0,141
-644,970	800,000	0,030	-0,072
-643,955	800,000	-0,010	0,031
-642,941	82,633	-0,045	-0,036
-641,926	-200,000	0,031	-0,109
-640,911	190,804	-0,011	0,012
-639,897	-90,784	0,093	0,020
-638,882	-80,263	0,095	-0,023
-637,868	800,000	-0,035	-0,089
-636,853	160,848	-0,078	-0,081
-635,838	-93,542	-0,140	-0,029
-634,824	-200,000	0,000	-0,080
-633,809	435,412	0,052	-0,084
-632,795	39,107	-0,094	-0,062
-631,780	9,234	0,061	-0,034
-630,765	800,000	0,034	-0,087
-629,751	-111,194	-0,065	-0,010
-628,736	381,663	0,014	0,021
-627,722	42,662	-0,101	-0,068
-626,707	-70,629	0,062	-0,017
-625,692	-200,000	0,005	0,043
-624,678	-200,000	-0,011	0,047
-623,663	42,708	-0,181	0,122
-622,649	77,126	0,062	-0,049
-621,634	329,180	-0,096	0,137
-620,619	-134,082	-0,162	-0,015
-619,605	412,325	0,090	0,143
-618,590	172,969	-0,076	0,082
-617,576	-69,748	0,085	0,024
-616,561	-200,000	0,022	-0,091
-615,546	-3,310	-0,078	-0,040
-614,532	-21,062	-0,027	-0,012
-613,517	-26,401	0,082	-0,035
-612,503	143,750	-0,114	-0,112
-611,488	90,744	-0,061	-0,050
-610,474	21,166	0,042	-0,025
-609,459	-9,614	0,116	-0,057
-608,444	-200,000	-0,006	-0,029
-607,430	575,343	0,037	0,067
-606,415	-200,000	-0,003	0,011
-605,401	-200,000	0,012	-0,048
-604,386	373,511	0,067	-0,101
-603,371	-128,638	0,098	-0,010
-602,357	-4,257	-0,039	0,020
-601,342	432,837	-0,032	0,052
-600,328	-128,846	-0,043	-0,004
-599,313	292,279	-0,078	-0,106
-598,298	-200,000	0,002	-0,075
-597,284	-200,000	-0,007	0,068
-596,269	-132,203	0,077	0,007
-595,255	-101,658	-0,072	-0,013
-594,240	-200,000	0,026	0,092
-593,225	800,000	-0,048	-0,153
-592,211	244,749	0,133	-0,166
-591,196	800,000	-0,044	-0,126
-590,182	358,489	-0,034	0,051
-589,167	-200,000	0,006	0,106
-588,152	623,879	-0,015	0,028
-587,138	217,830	-0,047	0,055
-586,123	-200,000	0,015	0,060
-585,109	6,381	-0,091	0,050
-584,094	-14,113	0,064	0,030
-583,079	193,644	0,006	-0,007
-582,065	-64,731	-0,034	0,010
-581,050	-71,429	-0,036	-0,010
-580,036	622,467	0,041	0,076
-579,021	91,131	0,152	0,126
-578,006	92,891	-0,098	0,082
-576,992	800,000	0,043	-0,131
-575,977	25,426	-0,058	-0,036
-574,963	-200,000	0,026	0,097
-573,948	-21,201	0,081	0,037
-572,934	-146,451	-0,096	-0,006
-571,919	-121,061	-0,071	-0,009
-570,904	-134,385	0,082	-0,007
-569,890	-200,000	0,007	0,039
-568,875	125,207	0,065	0,061
-567,861	153,761	-0,056	-0,057
-566,846	299,019	0,062	0,085
-565,831	-200,000	-0,005	0,037
-564,817	-4,865	0,148	-0,075
-563,802	469,732	0,047	0,078
-562,788	-7,841	-0,090	-0,045
-561,773	0,620	-0,069	0,036
-560,758	-175,669	-0,074	0,001
-559,744	800,000	-0,011	0,033
-558,729	800,000	0,024	0,057
-557,715	800,000	-0,040	-0,103
-556,700	-200,000	-0,009	0,085
-555,685	25,728	0,048	0,030
-554,671	-83,950	0,145	0,034
-553,656	800,000	-0,112	0,256
-552,642	-200,000	-0,021	0,119
-551,627	274,225	0,034	0,044
-550,612	251,640	0,027	-0,034
-549,598	26,373	-0,084	-0,052
-548,583	-126,442	-0,147	-0,016
-547,569	800,000	0,027	0,072
-546,554	-106,700	-0,020	0,003
-545,539	112,787	0,116	0,104
-544,525	6,273	0,043	-0,023
-543,510	-157,956	0,091	0,004
-542,496	128,437	-0,066	0,062
-541,481	-114,624	-0,065	-0,009
-540,466	-200,000	0,007	0,023
-539,452	52,962	0,022	0,015
-538,437	46,750	0,121	0,083
-537,423	-35,631	-0,094	0,037
-536,408	-200,000	0,000	0,017
-535,393	59,381	0,020	0,014
-534,379	577,968	0,047	-0,085
-533,364	10,741	-0,087	0,049
-532,350	256,703	0,063	0,080
-531,335	800,000	-0,018	0,056
-530,321	-200,000	-0,001	-0,029
-529,306	-89,944	-0,117	-0,025
-528,291	-99,974	0,030	-0,005
-527,277	-47,349	-0,030	0,011
-526,262	-82,517	-0,038	0,009
-525,248	212,216	-0,050	-0,058
-524,233	-88,357	-0,062	0,014
-523,218	-99,116	-0,026	-0,005
-522,204	-111,762	0,080	0,012
-521,189	76,301	-0,075	0,059
-520,175	-70,616	-0,122	0,034
-519,160	-200,000	-0,024	0,162
-518,145	248,959	0,087	0,109
-517,131	123,215	0,023	0,021
-516,116	101,469	-0,065	-0,056
-515,102	352,445	0,013	0,019
-514,087	800,000	-0,069	0,171
-513,072	-22,964	-0,039	0,017
-512,058	78,539	-0,081	-0,064
-511,043	-200,000	-0,012	0,139
-510,029	-105,039	0,126	-0,021
-509,014	800,000	0,032	-0,086
-507,999	800,000	0,050	0,108
-506,985	-63,790	0,056	-0,017
-505,970	541,361	-0,087	-0,154
-504,956	-4,615	-0,086	-0,044
-503,941	10,094	0,125	0,070
-502,926	135,172	-0,086	0,082
-501,912	349,699	0,064	-0,094
-500,897	-87,909	0,098	0,022
-499,883	143,075	-0,022	0,022
-498,868	92,810	0,077	-0,064
-497,853	-200,000	-0,005	-0,050
-496,839	72,484	0,076	0,059
-495,824	48,471	0,131	-0,091
-494,810	-40,288	0,053	0,020
-493,795	149,229	0,034	-0,034
-492,781	649,133	-0,021	-0,041
-491,766	800,000	-0,017	-0,048
-490,751	-200,000	0,014	0,065
-489,737	64,374	0,090	-0,067
-488,722	-200,000	-0,002	-0,090
-487,708	159,142	-0,039	-0,040
-486,693	47,769	0,038	0,026
-485,678	359,658	0,012	-0,018
-484,664	-200,000	0,029	-0,138
-483,649	-36,261	0,096	0,038
-482,635	-118,825	0,119	-0,015
-481,620	-200,000	-0,021	0,071
-480,605	258,153	0,035	0,045
-479,591	800,000	0,022	0,067
-478,576	-200,000	0,018	0,072
-477,562	70,171	-0,118	-0,090
-476,547	56,463	0,044	-0,032
-475,532	199,506	-0,070	-0,079
-474,518	20,302	-0,107	0,064
-473,503	-200,000	0,010	-0,091
-472,489	-19,236	0,043	-0,019
-471,474	64,316	-0,046	0,034
-470,459	-173,889	0,015	-0,000
-469,445	-200,000	-0,016	-0,061
-468,430	-200,000	-0,017	-0,075
-467,416	94,325	0,116	-0,097
-466,401	20,233	-0,118	-0,070
-465,386	67,911	0,063	-0,047
-464,372	333,794	-0,062	-0,089
-463,357	542,655	0,083	-0,146
-462,343	62,483	-0,146	-0,107
-461,328	251,366	0,059	-0,073
-460,313	229,134	0,042	-0,051
-459,299	-200,000	0,035	-0,218
-458,284	76,098	-0,072	-0,056
-457,270	70,115	0,071	-0,054
-456,255	149,166	-0,017	-0,017
-455,241	-200,000	-0,006	0,076
-454,226	-200,000	0,019	-0,100
-453,211	29,896	0,065	0,040
-452,197	4,117	0,049	-0,026
-451,182	48,780	-0,071	-0,049
-450,168	-82,509	-0,029	0,007
-449,153	-100,249	0,059	-0,011
-448,138	45,475	-0,042	-0,029
-447,124	58,447	-0,120	0,087
-446,109	-200,000	0,010	-0,058
-445,095	-200,000	0,045	0,168
-444,080	-200,000	-0,016	-0,074
-443,065	481,075	0,046	-0,077
-442,051	262,223	-0,083	0,106
-441,036	535,392	-0,076	0,134
-440,022	-121,869	-0,104	-0,013
-439,007	-91,328	-0,081	-0,017
-437,992	223,170	0,072	0,086
-436,978	-84,539	0,106	0,024
-435,963	800,000	-0,037	-0,079
-434,949	494,681	-0,077	0,131
-433,934	-91,280	-0,052	0,011
-432,919	97,113	0,075	-0,063
-431,905	800,000	-0,035	-0,104
-430,890	154,936	-0,056	-0,057
-429,876	-200,000	0,169	0,001
-428,861	-200,000	0,004	0,149
-427,846	-139,492	-0,167	-0,013
-426,832	510,905	-0,054	0,094
-425,817	15,375	-0,136	0,078
-424,803	-200,000	-0,044	0,210
-423,788	800,000	-0,064	0,148
-422,773	78,789	0,086	0,068
-421,759	50,365	-0,139	-0,096
-420,744	81,271	0,072	0,057
-419,730	-200,000	-0,057	0,261
-418,715	800,000	0,022	0,056
-417,701	-6,176	-0,041	-0,020
-416,686	800,000	-0,044	-0,123
-415,671	-160,155	0,165	-0,006
-414,657	128,052	0,150	0,141
-413,642	-86,548	-0,086	0,019
-412,628	-200,000	0,024	-0,138
-411,613	-200,000	0,002	-0,011
-410,598	800,000	0,078	0,197
-409,584	-57,637	0,009	0,003
-408,569	-95,004	0,065	-0,013
-407,555	-200,000	-0,003	0,023
-406,540	314,411	-0,059	-0,082
-405,525	-200,000	-0,002	-0,123
-404,511	800,000	0,029	0,065
-403,496	800,000	-0,028	-0,068
-402,482	-35,874	-0,043	0,017
-401,467	229,126	-0,045	-0,054
-400,452	-136,776	-0,073	0,006
-399,438	800,000	0,022	0,067
-398,423	-137,747	-0,141	0,011
-397,409	-26,925	-0,108	0,046
-396,394	-10,059	0,105	0,051
-395,379	-138,038	0,081	-0,007
-394,365	-139,388	0,041	0,003
-393,350	-118,697	-0,030	0,004
-392,336	88,265	-0,093	0,076
-391,321	65,298	0,051	0,038
-390,306	-116,047	0,168	-0,023
-389,292	-184,220	-0,120	0,001
-388,277	-129,325	-0,108	-0,011
-387,263	19,584	0,042	0,025
-386,248	254,522	0,084	0,106
-385,233	35,335	-0,159	0,102
-384,219	62,712	-0,137	-0,101
-383,204	800,000	-0,006	-0,014
-382,190	-113,752	-0,037	-0,005
-381,175	131,557	0,124	0,117
-380,160	793,241	-0,068	0,138
-379,146	-200,000	0,005	0,117
-378,131	-200,000	0,014	-0,102
-377,117	225,084	0,108	0,129
-376,102	800,000	0,069	0,199
-375,088	383,670	0,050	0,076
-374,073	800,000	-0,029	0,094
-373,058	-114,827	0,038	0,005
-372,044	-200,000	-0,005	-0,021
-371,029	-92,191	0,020	0,004
-370,015	-200,000	-0,011	0,060
-369,000	646,358	-0,070	-0,132
-367,985	84,409	0,039	-0,031
-366,971	174,155	0,039	-0,041
-365,956	12,012	0,055	-0,031
-364,942	221,867	0,078	-0,092
-363,927	127,035	0,052	0,049
-362,912	415,970	-0,062	-0,097
-361,898	271,891	-0,073	0,095
-360,883	-61,136	-0,056	0,017
-359,869	-102,225	0,053	0,009
-358,854	136,817	-0,106	-0,102
-357,839	283,589	0,033	-0,044
-356,825	80,025	0,100	0,079
-355,810	-40,297	0,157	0,060
-354,796	689,066	0,037	-0,071
-353,781	80,209	-0,157	-0,124
-352,766	-200,000	0,000	0,069
-351,752	800,000	-0,022	0,059
-350,737	7,445	0,214	0,117
-349,723	539,767	0,041	-0,072
-348,708	85,977	0,043	-0,035
-347,693	800,000	-0,011	0,023
-346,679	570,647	0,054	-0,097
-345,664	-200,000	-0,002	-0,021
-344,650	64,038	-0,080	0,059
-343,635	-39,612	0,101	0,039
-342,620	-113,375	-0,099	-0,014
-341,606	283,537	-0,075	0,099
-340,591	106,764	-0,083	0,072
-339,577	746,023	-0,058	-0,115
-338,562	494,717	0,018	0,031
-337,548	-200,000	-0,001	0,071
-336,533	154,647	0,143	0,144
-335,518	540,799	0,018	-0,032
-334,504	-62,390	0,032	0,010
-333,489	-134,614	-0,019	0,002
-332,475	-70,477	-0,052	0,014
-331,460	147,537	0,039	-0,038
-330,445	-22,826	0,049	0,021
-329,431	-102,824	-0,058	0,010
-328,416	800,000	0,031	0,098
-327,402	800,000	0,015	-0,036
-326,387	-143,690	0,110	-0,008
-325,372	168,747	-0,126	-0,132
-324,358	64,063	-0,121	-0,089
-323,343	-200,000	0,003	-0,043
-322,329	642,809	0,067	0,126
-321,314	-200,000	0,013	0,157
-320,299	41,962	-0,034	-0,023
-319,285	-93,820	0,040	-0,008
-318,270	255,705	-0,044	-0,055
-317,256	649,792	-0,081	-0,153
-316,241	150,720	-0,069	-0,069
-315,226	-200,000	0,007	-0,042
-314,212	-200,000	-0,003	0,091
-313,197	110,783	-0,107	0,094
-312,183	140,747	0,010	-0,009
-311,168	800,000	-0,042	-0,120
-310,153	373,816	0,031	0,046
-309,139	-145,007	-0,114	0,007
-308,124	-137,157	0,081	0,007
-307,110	127,254	-0,075	0,069
-306,095	800,000	0,066	0,166
-305,080	-50,467	-0,060	0,021
-304,066	539,312	-0,143	-0,250
-303,051	800,000	0,027	-0,068
-302,037	-84,665	-0,120	0,028
-301,022	-53,703	-0,031	0,010
-300,008	102,848	-0,065	0,056
-298,993	105,149	0,080	0,069
-297,978	33,795	-0,048	0,030
-296,964	3,777	0,089	0,047
-295,949	-200,000	-0,000	0,004
-294,935	33,353	0,107	-0,068
-293,920	800,000	-0,013	0,037
-292,905	-159,202	0,148	-0,006
-291,891	476,085	0,048	0,080
-290,876	-131,047	-0,054	-0,005
-289,862	-131,669	0,089	0,008
-288,847	354,022	-0,086	-0,125
-287,832	-200,000	0,011	-0,161
-286,818	-0,420	-0,101	-0,053
-285,803	-0,207	-0,047	-0,024
-284,789	-65,133	0,032	-0,009
-283,774	31,108	0,026	-0,016
-282,759	-9,627	-0,081	-0,039
-281,745	800,000	-0,040	0,090
-280,730	-125,247	-0,084	0,009
-279,716	-14,977	0,228	0,106
-278,701	-43,183	-0,025	0,009
-277,686	-152,037	0,049	-0,003
-276,672	800,000	0,040	0,126
-275,657	-24,303	-0,011	0,005
-274,643	76,403	-0,144	-0,112
-273,628	36,976	0,134	-0,086
-272,613	-200,000	-0,010	-0,096
-271,599	121,009	0,034	0,031
-270,584	332,012	-0,029	0,041
-269,570	800,000	0,009	0,020
-268,555	-200,000	-0,013	0,197
-267,540	30,029	-0,064	0,040
-266,526	-76,878	-0,181	-0,046
-265,511	498,453	0,091	-0,154
-264,497	-131,372	0,048	-0,005
-263,482	-87,683	0,184	-0,040
-262,467	-166,512	0,012	0,000
-261,453	42,284	-0,053	0,035
-260,438	14,910	-0,179	-0,102
-259,424	290,314	0,004	-0,005
-258,409	181,781	-0,048	-0,052
-257,395	-41,610	0,175	0,066
-256,380	81,368	0,087	-0,069
-255,365	-115,682	0,041	-0,006
-254,351	425,273	0,044	0,069
-253,336	98,935	-0,107	-0,090
-252,322	-200,000	0,022	0,085
-251,307	119,375	0,100	0,091
-250,292	-200,000	0,030	-0,121
-249,278	0,216	-0,119	0,062
-248,263	-200,000	-0,017	-0,097
-247,249	-200,000	-0,006	-0,081
-246,234	22,351	0,108	-0,064
-245,219	-23,806	-0,118	-0,051
-244,205	386,785	0,032	0,049
-243,190	-79,723	0,174	-0,042
-242,176	160,031	0,043	0,044
-241,161	800,000	0,025	-0,053
-240,146	-200,000	-0,008	0,052
-239,132	3,063	-0,149	-0,079
-238,117	-156,996	-0,184	-0,008
-237,103	-127,461	-0,014	0,001
-236,088	800,000	-0,013	-0,030
-235,073	-132,054	0,131	-0,012
-234,059	-182,941	-0,106	-0,001
-233,044	-62,037	0,047	0,014
-232,030	-200,000	-0,014	-0,106
-231,015	-51,916	-0,170	-0,058
-230,000	243,960	-0,023	0,028
-228,986	-95,462	0,041	0,008
-227,971	314,984	0,063	0,087
-226,957	-38,462	-0,079	-0,031
-225,942	101,704	0,099	0,084
-224,927	-200,000	0,036	0,133
-223,913	-200,000	-0,028	-0,124
-222,898	-161,539	0,138	-0,005
-221,884	800,000	-0,058	0,136
-220,869	-1,145	0,135	0,069
-219,855	-90,654	0,026	-0,005
-218,840	315,057	-0,036	-0,049
-217,825	-200,000	-0,024	0,094
-216,811	-200,000	-0,017	-0,076
-215,796	523,056	0,030	-0,051
-214,782	800,000	0,028	-0,066
-213,767	-200,000	0,010	0,042
-212,752	388,386	0,093	-0,141
-211,738	-109,558	0,080	-0,012
-210,723	-200,000	-0,004	-0,059
-209,709	-200,000	-0,003	-0,060
-208,694	585,884	0,076	0,136
-207,679	-200,000	-0,006	-0,064
-206,665	145,819	0,134	-0,131
-205,650	-47,971	0,179	0,063
-204,636	-46,664	0,026	0,009
-203,621	-98,604	0,065	-0,012
-202,606	227,837	0,068	0,080
-201,592	27,275	-0,051	0,031
-200,577	117,682	-0,028	-0,025
-199,563	269,410	-0,125	-0,161
-198,548	744,638	-0,043	0,086
-197,533	1,161	0,074	0,039
-196,519	800,000	-0,024	-0,062
-195,504	84,225	-0,070	-0,056
-194,490	-149,875	0,123	0,007
-193,475	42,441	-0,090	0,060
-192,460	-73,347	-0,054	-0,014
-191,446	-66,521	-0,070	-0,020
-190,431	-65,485	-0,091	0,026
-189,417	507,895	0,060	0,101
-188,402	408,810	0,021	-0,032
-187,387	800,000	-0,028	-0,057
-186,373	270,566	-0,053	0,068
-185,358	784,118	0,088	0,176
-184,344	800,000	-0,023	-0,051
-183,329	68,173	0,064	0,048
-182,315	800,000	0,033	0,093
-181,300	-200,000	0,008	-0,111
-180,285	-2,907	-0,136	-0,069
-179,271	-35,116	0,162	0,064
-178,256	-78,121	-0,063	0,016
-177,242	24,089	0,133	0,080
-176,227	-134,086	0,024	-0,002
-175,212	8,807	0,097	-0,053
-174,198	-200,000	0,015	0,102
-173,183	73,654	-0,094	-0,072
-172,169	-1,977	0,078	-0,040
-171,154	-84,100	0,081	-0,019
-170,139	-200,000	-0,025	0,084
-169,125	-200,000	-0,003	-0,084
-168,110	58,689	-0,041	0,029
-167,096	-200,000	0,034	-0,162
-166,081	800,000	0,047	-0,101
-165,066	-8,755	0,028	0,014
-164,052	-141,223	0,070	0,005
-163,037	-75,574	-0,031	-0,008
-162,023	-98,243	0,164	-0,030
-161,008	-1,482	-0,114	-0,058
-159,993	-24,756	-0,107	-0,046
-158,979	37,706	-0,102	-0,066
-157,964	-48,727	-0,126	0,044
-156,950	-60,588	-0,087	0,027
-155,935	126,710	-0,087	-0,080
-154,920	82,004	0,071	-0,056
-153,906	-158,610	0,134	0,006
-152,891	-200,000	-0,017	0,096
-151,877	99,883	-0,077	-0,065
-150,862	-59,574	0,024	-0,007
-149,847	800,000	-0,028	0,078
-148,833	800,000	-0,005	0,011
-147,818	-200,000	0,041	0,143
-146,804	133,751	0,016	-0,015
-145,789	539,474	0,062	0,107
-144,775	174,501	-0,061	0,065
-143,760	335,115	0,027	0,038
-142,745	-200,000	-0,017	-0,101
-141,731	-200,000	-0,025	0,096
-140,716	-157,509	-0,039	0,002
-139,702	-200,000	0,021	0,091
-138,687	-200,000	0,002	0,018
-137,672	121,551	0,060	0,054
-136,658	-107,615	-0,038	0,006
-135,643	-106,515	-0,052	0,008
-134,629	729,533	-0,052	0,101
-133,614	-200,000	0,033	0,129
-132,599	-200,000	0,004	-0,030
-131,585	-200,000	-0,019	0,092
-130,570	-75,833	-0,068	0,017
-129,556	-200,000	-0,008	0,035
-128,541	37,961	0,074	-0,048
-127,526	-76,905	-0,238	-0,060
-126,512	-147,799	0,066	-0,004
-125,497	800,000	-0,049	0,149
-124,483	-200,000	0,004	-0,028
-123,468	-24,313	-0,090	0,039
-122,453	-26,808	-0,024	-0,010
-121,439	-63,865	0,076	-0,023
-120,424	800,000	0,014	-0,031
-119,410	-200,000	0,053	0,183
-118,395	800,000	0,021	-0,043
