DTS Sentinel unit serial number:	SN410029Multiplexer serial number:	ORYXHardware model number:	OX2-SRSoftware version number:	ORYX F/W v4,00 Oryx Data Collector v3.7.2.0data status	okinstallation	B6 Nyhavnadifferential loss correction	single-endedforward channel	channel 2reverse channel	N/Adate	2023/12/09time	15:30:08forward acquisition time	300,00reverse acquisition time	0,00gamma	499,1914k internal	0,3133k external	0,3133temperature offset calibration	1,0000default loss term (dB/km)	0,3820temperature slope calibration	1,0000multiplexer offset coefficient	1,0000multiplexer slope coefficient	1,0000fibre end	0,00T internal ref (°C)	20,66T ext. ref 1 (°C)	4,59T ext. ref 2 (°C)	4,58length (m)	temperature (°C)	Stokes	anti-Stokes-744,400	-200,000	-0,004	0,101
-743,385	-32,728	-0,360	0,148
-742,371	-109,560	0,070	0,011
-741,356	-31,899	-0,266	0,110
-740,342	365,693	0,041	-0,062
-739,327	-73,580	-0,256	0,069
-738,312	-200,000	0,007	-0,106
-737,298	-137,338	-0,203	0,017
-736,283	339,069	-0,018	0,026
-735,269	-84,183	-0,237	0,055
-734,254	-200,000	-0,027	-0,134
-733,239	-101,930	-0,364	-0,065
-732,225	-31,827	-0,071	0,029
-731,210	800,000	-0,015	-0,046
-730,196	-200,000	0,008	0,030
-729,181	47,596	-0,062	0,043
-728,167	800,000	0,057	0,156
-727,152	800,000	-0,040	0,104
-726,137	147,098	-0,099	-0,099
-725,123	88,403	-0,135	-0,111
-724,108	10,072	-0,217	0,122
-723,094	181,931	0,113	0,124
-722,079	15,923	-0,084	-0,049
-721,064	-200,000	0,011	0,090
-720,050	111,569	-0,109	0,097
-719,035	-200,000	0,009	0,035
-718,021	786,652	-0,043	0,089
-717,006	-200,000	-0,040	-0,135
-715,991	-46,382	-0,218	-0,079
-714,977	800,000	-0,024	-0,050
-713,962	315,730	-0,108	-0,151
-712,948	800,000	0,094	-0,218
-711,933	-59,803	-0,058	-0,018
-710,918	33,060	-0,062	-0,040
-709,904	6,748	-0,155	-0,085
-708,889	-79,131	-0,077	-0,019
-707,875	81,240	0,044	-0,036
-706,860	-200,000	0,026	0,144
-705,845	-36,958	-0,107	0,042
-704,831	-110,605	0,063	-0,010
-703,816	-79,233	-0,137	0,034
-702,802	73,514	0,010	0,007
-701,787	-141,174	0,048	-0,004
-700,772	-200,000	-0,015	-0,082
-699,758	-200,000	-0,013	-0,098
-698,743	-200,000	0,019	0,092
-697,729	-63,705	-0,109	-0,033
-696,714	213,238	0,130	-0,153
-695,699	800,000	-0,085	-0,222
-694,685	-73,271	-0,034	0,009
-693,670	124,528	-0,111	-0,103
-692,656	-121,303	0,065	0,008
-691,641	-119,219	-0,065	0,008
-690,627	478,383	-0,012	0,020
-689,612	87,040	-0,023	0,019
-688,597	290,498	0,117	-0,157
-687,583	503,883	0,050	-0,087
-686,568	-200,000	0,002	-0,064
-685,554	10,415	-0,073	0,041
-684,539	800,000	0,015	0,045
-683,524	800,000	0,032	-0,077
-682,510	-200,000	-0,016	0,085
-681,495	348,276	-0,066	-0,097
-680,481	-142,089	-0,053	0,004
-679,466	399,723	-0,021	0,033
-678,451	292,676	0,075	-0,102
-677,437	138,150	0,034	0,033
-676,422	97,494	-0,023	-0,019
-675,408	-122,622	0,054	-0,006
-674,393	-78,761	0,044	-0,011
-673,378	-200,000	-0,018	-0,147
-672,364	124,079	-0,090	-0,084
-671,349	800,000	-0,024	-0,062
-670,335	800,000	-0,036	0,081
-669,320	800,000	0,043	0,098
-668,305	-200,000	0,009	0,066
-667,291	-105,461	-0,079	-0,013
-666,276	94,785	-0,069	-0,058
-665,262	-200,000	-0,023	-0,107
-664,247	688,846	-0,044	-0,087
-663,232	345,728	-0,060	0,087
-662,218	-1,968	0,042	0,022
-661,203	-133,832	0,081	-0,007
-660,189	164,473	0,106	0,110
-659,174	207,512	-0,068	-0,078
-658,159	-136,458	-0,095	0,008
-657,145	109,208	-0,166	-0,147
-656,130	800,000	-0,019	-0,061
-655,116	800,000	-0,026	-0,057
-654,101	-132,913	0,040	0,004
-653,086	727,802	0,043	-0,085
-652,072	-200,000	0,029	0,114
-651,057	578,474	-0,103	-0,187
-650,043	-29,632	0,040	0,017
-649,028	-145,610	0,126	-0,008
-648,014	99,468	-0,081	-0,069
-646,999	-200,000	-0,004	0,080
-645,984	704,668	-0,051	-0,099
-644,970	-200,000	0,024	0,078
-643,955	69,729	-0,197	-0,150
-642,941	800,000	-0,041	0,083
-641,926	627,308	-0,073	-0,137
-640,911	-82,649	0,067	-0,016
-639,897	-54,129	0,155	-0,052
-638,882	130,659	-0,070	0,067
-637,868	69,775	-0,133	-0,101
-636,853	-200,000	-0,020	-0,136
-635,838	-200,000	0,018	-0,116
-634,824	-93,535	-0,077	-0,016
-633,809	-58,366	0,111	-0,035
-632,795	111,289	0,093	-0,083
-631,780	800,000	0,067	-0,138
-630,765	18,615	0,035	0,021
-629,751	-178,024	-0,059	-0,001
-628,736	800,000	0,030	-0,073
-627,722	17,922	-0,060	-0,035
-626,707	-52,146	0,048	0,016
-625,692	442,034	-0,039	0,063
-624,678	131,106	-0,089	-0,085
-623,663	72,071	-0,063	-0,049
-622,649	757,565	-0,013	-0,027
-621,634	46,462	0,067	0,046
-620,619	-200,000	0,018	-0,083
-619,605	4,031	0,064	0,035
-618,590	-200,000	0,043	-0,184
-617,576	-45,877	-0,116	0,042
-616,561	-8,755	-0,139	0,069
-615,546	-200,000	0,014	-0,073
-614,532	38,021	0,067	0,044
-613,517	90,459	-0,033	0,027
-612,503	-200,000	-0,011	-0,059
-611,488	18,747	0,124	-0,073
-610,474	-5,160	0,104	-0,053
-609,459	-200,000	0,019	0,083
-608,444	-200,000	0,017	0,065
-607,430	128,354	0,011	0,010
-606,415	215,599	-0,060	0,070
-605,401	800,000	0,046	0,123
-604,386	221,106	0,057	0,068
-603,371	-40,176	0,031	0,012
-602,357	-129,055	-0,067	0,007
-601,342	-14,122	-0,118	0,056
-600,328	800,000	-0,032	0,066
-599,313	-200,000	-0,021	-0,086
-598,298	-48,033	0,047	-0,017
-597,284	800,000	0,061	0,133
-596,269	800,000	0,010	0,020
-595,255	-61,633	-0,145	0,045
-594,240	-200,000	0,000	0,035
-593,225	-76,301	-0,089	0,023
-592,211	-200,000	0,012	-0,053
-591,196	84,891	0,061	0,050
-590,182	800,000	-0,031	0,089
-589,167	389,442	0,069	0,106
-588,152	-200,000	-0,005	0,113
-587,138	104,833	-0,046	-0,040
-586,123	583,189	0,054	0,099
-585,109	153,466	0,056	-0,056
-584,094	-190,502	-0,127	0,001
-583,079	-200,000	-0,013	-0,061
-582,065	156,026	-0,027	-0,027
-581,050	-172,572	0,055	0,001
-580,036	530,222	0,058	0,101
-579,021	195,835	-0,015	-0,016
-578,006	-163,481	-0,214	0,007
-576,992	800,000	-0,031	-0,087
-575,977	465,031	0,022	0,037
-574,963	302,625	0,075	-0,103
-573,948	-200,000	0,019	-0,087
-572,934	800,000	-0,015	0,030
-571,919	290,811	-0,055	0,074
-570,904	-200,000	-0,007	0,046
-569,890	-92,213	-0,071	-0,015
-568,875	-200,000	-0,014	-0,069
-567,861	-48,268	-0,095	-0,034
-566,846	-27,649	-0,074	-0,032
-565,831	-76,126	-0,104	0,027
-564,817	218,823	0,059	-0,070
-563,802	-200,000	-0,007	-0,061
-562,788	800,000	-0,025	-0,069
-561,773	282,367	0,051	0,067
-560,758	-81,313	0,224	0,054
-559,744	314,121	-0,086	0,120
-558,729	755,756	0,019	0,038
-557,715	-200,000	-0,013	0,096
-556,700	214,278	-0,053	-0,062
-555,685	-200,000	-0,010	0,069
-554,671	211,934	0,012	0,014
-553,656	-142,886	-0,118	0,008
-552,642	-51,010	-0,026	0,009
-551,627	761,742	-0,047	-0,094
-550,612	111,024	-0,023	0,021
-549,598	-74,016	0,050	0,013
-548,583	34,691	-0,019	-0,012
-547,569	225,241	-0,035	0,041
-546,554	-200,000	0,022	0,110
-545,539	284,621	-0,102	0,136
-544,525	-200,000	-0,030	0,103
-543,510	-200,000	-0,013	-0,138
-542,496	-6,368	-0,152	-0,076
-541,481	800,000	0,045	-0,120
-540,466	-45,846	-0,124	-0,045
-539,452	17,848	0,177	0,104
-538,437	659,139	-0,012	0,024
-537,423	644,172	-0,057	-0,107
-536,408	-19,219	-0,118	-0,054
-535,393	-52,359	-0,021	-0,007
-534,379	137,908	-0,036	0,034
-533,364	296,779	0,010	0,014
-532,350	-103,945	0,134	0,023
-531,335	101,975	0,050	0,043
-530,321	302,433	0,055	0,075
-529,306	-200,000	-0,024	-0,129
-528,291	49,290	-0,090	0,063
-527,277	-141,099	0,051	-0,004
-526,262	31,002	-0,127	0,080
-525,248	-200,000	0,019	-0,078
-524,233	-200,000	0,020	0,065
-523,218	800,000	0,051	0,128
-522,204	267,172	-0,017	-0,021
-521,189	-130,044	-0,034	0,003
-520,175	-200,000	0,051	-0,232
-519,160	-200,000	-0,009	-0,084
-518,145	-200,000	0,011	-0,058
-517,131	-27,606	-0,044	0,019
-516,116	17,721	0,107	0,062
-515,102	282,322	0,086	-0,113
-514,087	-84,344	0,025	0,006
-513,072	299,320	-0,040	-0,054
-512,058	-147,887	-0,044	-0,003
-511,043	800,000	-0,024	-0,075
-510,029	-5,671	-0,022	-0,011
-509,014	-200,000	0,000	-0,098
-507,999	800,000	0,015	0,031
-506,985	210,482	-0,033	0,038
-505,970	-181,141	-0,034	-0,000
-504,956	174,295	0,073	-0,078
-503,941	397,546	0,049	0,076
-502,926	-74,499	-0,091	-0,024
-501,912	-146,265	0,057	-0,004
-500,897	-200,000	0,007	-0,037
-499,883	-57,676	0,100	-0,032
-498,868	-21,403	0,072	-0,032
-497,853	-200,000	-0,022	-0,103
-496,839	-200,000	-0,017	-0,082
-495,824	74,438	0,085	-0,066
-494,810	9,471	-0,051	-0,028
-493,795	51,091	0,053	-0,037
-492,781	634,900	0,044	-0,082
-491,766	-200,000	0,007	-0,113
-490,751	158,515	-0,072	-0,073
-489,737	-200,000	-0,014	-0,062
-488,722	-200,000	0,005	-0,034
-487,708	800,000	0,021	-0,048
-486,693	541,977	0,063	0,111
-485,678	-20,654	-0,028	-0,012
-484,664	-200,000	-0,003	-0,120
-483,649	-200,000	0,003	0,104
-482,635	-140,532	0,006	0,000
-481,620	-162,433	0,059	0,002
-480,605	130,085	0,052	-0,049
-479,591	6,925	0,089	0,049
-478,576	454,122	-0,023	-0,037
-477,562	101,673	0,066	-0,056
-476,547	800,000	0,008	0,023
-475,532	-200,000	0,011	-0,085
-474,518	800,000	0,047	-0,115
-473,503	800,000	-0,022	0,061
-472,489	-67,479	-0,126	0,036
-471,474	-200,000	0,016	0,195
-470,459	-84,316	-0,095	-0,022
-469,445	581,325	-0,055	-0,100
-468,430	92,361	0,102	0,084
-467,416	-98,701	-0,116	-0,022
-466,401	-51,348	-0,056	-0,019
-465,386	-200,000	0,030	0,147
-464,372	138,997	-0,053	-0,051
-463,357	-51,560	-0,041	0,014
-462,343	-93,465	0,096	-0,019
-461,328	-106,444	0,030	0,005
-460,313	-200,000	0,020	0,082
-459,299	-200,000	0,006	0,066
-458,284	800,000	0,017	0,044
-457,270	-200,000	-0,049	0,197
-456,255	800,000	0,021	0,066
-455,241	60,047	-0,031	-0,022
-454,226	-200,000	-0,047	-0,162
-453,211	-3,288	-0,082	0,042
-452,197	641,246	-0,009	-0,018
-451,182	-16,733	-0,080	0,037
-450,168	134,440	-0,099	0,095
-449,153	35,239	0,069	-0,045
-448,138	800,000	0,021	0,053
-447,124	-200,000	-0,013	-0,171
-446,109	800,000	-0,029	-0,063
-445,095	800,000	-0,006	-0,013
-444,080	-68,010	0,058	-0,016
-443,065	800,000	-0,012	0,035
-442,051	-200,000	0,010	-0,066
-441,036	800,000	-0,014	0,029
-440,022	510,021	-0,050	0,085
-439,007	-200,000	-0,003	0,015
-437,992	188,212	0,058	0,064
-436,978	559,748	-0,040	0,072
-435,963	-37,946	-0,049	-0,019
-434,949	795,518	0,050	-0,102
-433,934	259,715	0,035	0,045
-432,919	800,000	0,023	-0,056
-431,905	467,222	-0,030	0,050
-430,890	153,195	0,090	0,090
-429,876	-67,300	-0,085	-0,024
-428,861	-200,000	-0,001	-0,046
-427,846	-200,000	0,018	0,085
-426,832	-200,000	-0,015	-0,051
-425,817	-142,469	-0,157	0,011
-424,803	-200,000	0,009	-0,081
-423,788	62,858	0,072	0,052
-422,773	-49,273	0,093	-0,032
-421,759	-200,000	0,022	0,126
-420,744	-104,557	0,184	0,031
-419,730	660,474	0,038	0,071
-418,715	-200,000	-0,012	-0,112
-417,701	-200,000	-0,003	0,029
-416,686	87,811	-0,044	-0,036
-415,671	-9,713	-0,010	-0,005
-414,657	47,760	0,085	0,058
-413,642	-131,793	0,070	-0,007
-412,628	-200,000	-0,011	-0,043
-411,613	-31,462	-0,102	-0,042
-410,598	-24,011	-0,088	-0,038
-409,584	-134,367	0,084	0,007
-408,569	-39,568	0,022	0,008
-407,555	-200,000	-0,004	0,168
-406,540	40,895	-0,018	-0,012
-405,525	610,860	0,006	-0,011
-404,511	143,407	-0,076	-0,074
-403,496	-90,892	-0,057	0,012
-402,482	739,209	-0,066	0,130
-401,467	-200,000	-0,004	-0,085
-400,452	-75,929	0,160	0,041
-399,438	-189,151	-0,037	-0,000
-398,423	-195,050	-0,130	0,001
-397,409	518,271	-0,060	-0,104
-396,394	-117,449	-0,070	-0,009
-395,379	716,594	0,063	0,123
-394,365	-152,253	0,011	0,001
-393,350	-200,000	-0,010	0,112
-392,336	-107,600	0,057	-0,009
-391,321	263,830	-0,018	0,023
-390,306	545,018	-0,033	-0,059
-389,292	800,000	-0,015	-0,042
-388,277	538,526	0,055	-0,097
-387,263	-144,593	0,097	-0,006
-386,248	150,646	-0,063	0,062
-385,233	370,809	-0,057	0,086
-384,219	-139,147	-0,064	0,005
-383,204	52,518	0,077	0,053
-382,190	800,000	-0,035	0,109
-381,175	-111,715	0,077	0,011
-380,160	-3,897	0,088	0,045
-379,146	47,475	0,155	-0,105
-378,131	295,183	0,025	-0,033
-377,117	-20,076	-0,094	-0,042
-376,102	61,070	0,075	0,054
-375,088	-159,383	0,091	-0,004
-374,073	17,946	-0,117	-0,068
-373,058	-200,000	0,002	-0,031
-372,044	257,823	-0,049	0,062
-371,029	-200,000	0,017	-0,062
-370,015	-111,252	0,169	0,025
-369,000	-200,000	0,010	-0,071
-367,985	325,753	-0,086	-0,121
-366,971	800,000	0,027	-0,064
-365,956	-200,000	0,001	-0,054
-364,942	147,731	-0,054	-0,053
-363,927	-37,445	-0,028	0,011
-362,912	245,756	0,067	0,082
-361,898	263,748	0,036	-0,046
-360,883	3,581	-0,081	-0,043
-359,869	-200,000	0,002	-0,046
-358,854	-80,068	0,018	-0,004
-357,839	137,996	0,088	0,084
-356,825	-100,745	-0,096	0,017
-355,810	-33,854	-0,073	0,029
-354,796	800,000	-0,026	-0,082
-353,781	-200,000	0,004	-0,173
-352,766	800,000	-0,019	-0,053
-351,752	84,979	0,078	-0,063
-350,737	677,372	0,062	-0,118
-349,723	-200,000	-0,025	-0,081
-348,708	56,484	0,033	-0,023
-347,693	681,943	-0,078	0,149
-346,679	239,424	0,066	-0,080
-345,664	29,011	-0,193	0,119
-344,650	-157,496	-0,030	0,001
-343,635	-200,000	0,026	0,115
-342,620	-200,000	-0,019	0,089
-341,606	229,977	0,089	0,106
-340,591	-200,000	0,004	-0,046
-339,577	479,255	-0,023	-0,039
-338,562	-200,000	0,007	-0,047
-337,548	209,945	-0,051	-0,059
-336,533	-200,000	0,017	0,118
-335,518	-200,000	0,006	-0,069
-334,504	410,034	-0,043	-0,067
-333,489	800,000	0,010	0,028
-332,475	-127,857	0,057	-0,006
-331,460	-135,763	-0,140	0,012
-330,445	800,000	0,054	-0,113
-329,431	178,440	0,054	-0,057
-328,416	41,548	0,166	0,110
-327,402	137,588	-0,067	-0,064
-326,387	186,805	0,041	0,045
-325,372	-22,215	0,117	0,051
-324,358	-30,365	0,038	-0,016
-323,343	-152,028	0,156	-0,008
-322,329	265,531	-0,051	0,066
-321,314	213,916	0,050	0,058
-320,299	62,154	0,084	0,061
-319,285	160,937	-0,034	0,035
-318,270	777,941	0,082	-0,166
-317,256	24,702	0,030	-0,018
-316,241	53,404	-0,048	-0,034
-315,226	-105,167	0,160	-0,026
-314,212	-200,000	0,013	0,049
-313,197	456,137	-0,008	0,013
-312,183	514,477	-0,050	-0,086
-311,168	-200,000	-0,008	0,121
-310,153	800,000	-0,036	0,082
-309,139	-37,270	0,020	-0,008
-308,124	-200,000	0,009	-0,041
-307,110	-200,000	-0,070	0,000
-306,095	223,883	-0,054	0,064
-305,080	152,687	0,066	0,066
-304,066	208,833	0,029	-0,033
-303,051	-69,168	-0,108	0,030
-302,037	800,000	0,028	0,056
-301,022	-101,054	0,174	0,031
-300,008	88,271	0,056	0,045
-298,993	-195,746	-0,033	0,000
-297,978	155,879	0,125	0,125
-296,964	226,774	0,085	-0,100
-295,949	-200,000	-0,004	-0,076
-294,935	-103,075	-0,039	-0,007
-293,920	-16,252	0,017	-0,008
-292,905	185,529	0,167	0,181
-291,891	676,023	0,061	0,116
-290,876	14,551	0,105	0,059
-289,862	-184,761	0,065	-0,001
-288,847	-200,000	-0,024	0,110
-287,832	800,000	-0,020	-0,051
-286,818	5,084	-0,083	-0,045
-285,803	167,952	0,050	-0,052
-284,789	800,000	0,052	0,109
-283,774	48,846	0,077	0,053
-282,759	-133,857	-0,185	0,017
-281,745	53,637	-0,147	-0,103
-280,730	-3,370	0,147	-0,075
-279,716	-200,000	0,005	0,058
-278,701	21,548	-0,114	0,068
-277,686	220,523	0,097	0,114
-276,672	-158,555	0,150	0,006
-275,657	800,000	-0,030	-0,069
-274,643	569,355	0,066	0,117
-273,628	58,120	-0,071	0,051
-272,613	-200,000	-0,024	0,104
-271,599	-200,000	-0,011	0,091
-270,584	319,632	0,103	0,143
-269,570	-53,159	0,140	-0,047
-268,555	294,688	0,079	-0,105
-267,540	112,463	-0,078	-0,069
-266,526	641,037	0,047	-0,088
-265,511	-200,000	-0,001	-0,105
-264,497	-108,385	0,188	-0,029
-263,482	800,000	0,048	0,117
-262,467	181,422	0,072	0,077
-261,453	41,949	-0,062	-0,041
-260,438	800,000	-0,017	0,054
-259,424	330,086	0,097	-0,136
-258,409	649,880	-0,062	0,116
-257,395	197,417	0,066	0,074
-256,380	800,000	-0,016	-0,042
-255,365	252,398	0,047	-0,058
-254,351	-136,605	-0,068	0,006
-253,336	800,000	-0,021	-0,058
-252,322	81,141	0,072	0,056
-251,307	-109,771	0,149	-0,023
-250,292	800,000	-0,055	0,134
-249,278	-168,192	0,036	0,001
-248,263	380,832	0,016	-0,023
-247,249	-87,958	0,090	0,020
-246,234	146,610	-0,054	-0,053
-245,219	486,031	-0,026	0,043
-244,205	-12,385	-0,048	0,023
-243,190	800,000	0,011	0,023
-242,176	-51,717	0,053	0,018
-241,161	468,719	0,072	0,119
-240,146	-28,292	-0,054	-0,023
-239,132	232,460	-0,133	-0,159
-238,117	114,738	-0,077	-0,068
-237,103	132,703	0,059	-0,056
-236,088	-91,586	-0,038	0,008
-235,073	117,110	-0,084	0,076
-234,059	-160,206	0,127	0,005
-233,044	-45,099	0,144	-0,052
-232,030	522,031	-0,029	0,050
-231,015	800,000	-0,019	-0,051
-230,000	60,990	-0,156	-0,112
-228,986	437,306	-0,062	-0,099
-227,971	526,006	0,023	0,039
-226,957	89,059	0,046	-0,037
-225,942	800,000	-0,046	0,110
-224,927	-50,698	0,088	0,030
-223,913	591,468	0,069	-0,125
-222,898	800,000	-0,046	-0,117
-221,884	-200,000	0,009	0,051
-220,869	18,448	-0,098	-0,057
-219,855	-43,097	0,022	-0,008
-218,840	515,820	-0,063	0,108
-217,825	-200,000	-0,025	-0,088
-216,811	267,438	-0,064	0,081
-215,796	-128,875	-0,137	-0,014
-214,782	119,544	-0,021	-0,019
-213,767	549,829	-0,078	0,136
-212,752	-200,000	-0,023	0,097
-211,738	-20,639	0,038	-0,017
-210,723	-56,835	-0,105	0,034
-209,709	-24,335	0,049	-0,021
-208,694	800,000	0,041	-0,101
-207,679	93,765	-0,050	0,041
-206,665	800,000	-0,087	0,182
-205,650	112,099	-0,047	-0,041
-204,636	-200,000	-0,005	-0,034
-203,621	-88,717	0,149	-0,032
-202,606	128,719	-0,042	-0,039
-201,592	-200,000	-0,009	0,073
-200,577	-110,455	-0,121	-0,018
-199,563	-154,896	0,065	0,003
-198,548	-200,000	0,003	0,108
-197,533	-200,000	0,029	0,100
-196,519	800,000	0,029	-0,070
-195,504	-200,000	0,005	-0,025
-194,490	-200,000	0,008	0,082
-193,475	-200,000	0,021	-0,101
-192,460	99,962	-0,067	-0,056
-191,446	239,536	-0,116	0,141
-190,431	392,142	0,043	0,065
-189,417	4,710	-0,135	-0,072
-188,402	800,000	0,056	0,148
-187,387	-107,562	0,091	-0,014
-186,373	800,000	0,065	-0,145
-185,358	148,786	-0,040	-0,040
-184,344	552,127	0,060	0,105
-183,329	100,569	0,030	0,025
-182,315	-104,030	-0,069	-0,012
-181,300	800,000	-0,056	-0,133
-180,285	-200,000	0,011	-0,199
-179,271	-200,000	0,013	-0,144
-178,256	339,378	-0,101	0,143
-177,242	159,294	0,048	0,049
-176,227	21,762	0,061	0,036
-175,212	76,143	-0,087	0,067
-174,198	-200,000	-0,005	0,042
-173,183	658,060	-0,039	-0,073
-172,169	-200,000	0,007	-0,079
-171,154	-105,068	0,062	0,010
-170,139	320,759	-0,085	0,118
-169,125	-101,188	-0,122	0,022
-168,110	-51,165	0,026	-0,009
-167,096	800,000	-0,020	0,060
-166,081	-115,033	-0,047	0,006
-165,066	0,266	-0,110	-0,057
-164,052	-150,704	-0,159	-0,009
-163,037	139,697	-0,033	0,032
-162,023	-200,000	-0,011	0,190
-161,008	224,860	0,053	-0,063
-159,993	-120,824	0,091	-0,011
-158,979	-57,428	0,004	-0,001
-157,964	49,555	-0,081	-0,055
-156,950	800,000	-0,032	0,077
-155,935	-119,763	0,064	0,008
-154,920	332,951	0,038	0,054
-153,906	-200,000	-0,005	0,069
-152,891	-200,000	-0,007	-0,108
-151,877	-147,970	-0,144	0,009
-150,862	800,000	-0,026	0,064
-149,847	604,033	-0,105	-0,190
-148,833	800,000	-0,047	0,117
-147,818	-200,000	0,068	0,233
-146,804	-31,484	0,068	-0,028
-145,789	-98,078	0,070	0,013
-144,775	-200,000	-0,016	0,066
-143,760	443,577	-0,038	0,060
-142,745	800,000	-0,057	-0,144
-141,731	-115,431	-0,035	0,005
-140,716	-200,000	0,008	-0,171
-139,702	6,304	0,041	-0,022
-138,687	410,215	0,045	0,069
-137,672	-200,000	0,018	-0,096
-136,658	-9,874	-0,059	0,028
-135,643	21,532	-0,066	0,039
-134,629	-88,576	0,084	-0,018
-133,614	-56,869	0,064	-0,020
-132,599	800,000	0,032	0,104
-131,585	800,000	0,036	0,077
-130,570	-200,000	0,014	0,063
-129,556	-50,344	-0,130	0,044
-128,541	90,582	-0,057	-0,046
-127,526	15,765	-0,070	-0,040
-126,512	49,456	0,075	0,051
-125,497	-60,258	-0,092	-0,028
-124,483	-200,000	-0,009	0,091
-123,468	174,636	-0,053	0,056
-122,453	-200,000	-0,014	0,100
-121,439	-137,217	0,094	-0,008
-120,424	266,594	-0,092	-0,116
