DTS Sentinel unit serial number:	SN410029Multiplexer serial number:	ORYXHardware model number:	OX2-SRSoftware version number:	ORYX F/W v4,00 Oryx Data Collector v3.7.2.0data status	okinstallation	B6 Nyhavnadifferential loss correction	single-endedforward channel	channel 2reverse channel	N/Adate	2023/12/10time	21:30:08forward acquisition time	300,00reverse acquisition time	0,00gamma	499,1914k internal	0,3123k external	0,3123temperature offset calibration	1,0000default loss term (dB/km)	0,3820temperature slope calibration	1,0000multiplexer offset coefficient	1,0000multiplexer slope coefficient	1,0000fibre end	0,00T internal ref (°C)	22,28T ext. ref 1 (°C)	6,05T ext. ref 2 (°C)	6,05length (m)	temperature (°C)	Stokes	anti-Stokes-744,400	380,938	-0,024	-0,036
-743,385	77,875	-0,295	0,234
-742,371	19,346	0,140	-0,084
-741,356	247,249	-0,151	0,190
-740,342	-200,000	0,013	-0,103
-739,327	107,632	-0,205	0,182
-738,312	-200,000	0,006	-0,079
-737,298	-44,615	-0,408	0,151
-736,283	-200,000	0,012	-0,189
-735,269	-106,334	-0,261	0,043
-734,254	431,340	0,056	0,091
-733,239	-168,773	-0,500	-0,014
-732,225	-129,348	0,131	-0,013
-731,210	408,086	0,040	0,063
-730,196	-12,701	0,094	-0,046
-729,181	-46,226	-0,055	0,020
-728,167	-200,000	-0,035	0,224
-727,152	-101,991	0,095	-0,017
-726,137	253,012	-0,089	0,113
-725,123	-200,000	0,012	-0,063
-724,108	-200,000	0,028	-0,098
-723,094	-200,000	-0,056	-0,269
-722,079	-200,000	0,005	-0,023
-721,064	-88,447	-0,145	-0,032
-720,050	-188,429	-0,099	-0,001
-719,035	262,176	-0,069	0,089
-718,021	29,014	-0,014	0,009
-717,006	-200,000	-0,020	-0,098
-715,991	186,761	-0,148	-0,164
-714,977	-130,568	-0,054	0,005
-713,962	-30,826	0,145	0,061
-712,948	-148,806	-0,114	0,007
-711,933	-84,924	0,097	-0,022
-710,918	-149,703	0,089	0,005
-709,904	-200,000	0,010	-0,045
-708,889	672,362	-0,075	-0,146
-707,875	-180,755	-0,126	-0,002
-706,860	410,371	-0,039	-0,061
-705,845	114,122	0,021	-0,019
-704,831	165,417	0,078	0,082
-703,816	-182,585	0,002	0,000
-702,802	-200,000	0,008	-0,046
-701,787	-200,000	-0,016	-0,100
-700,772	-200,000	-0,009	-0,067
-699,758	-200,000	-0,000	0,089
-698,743	-200,000	-0,028	-0,100
-697,729	82,223	0,141	0,113
-696,714	30,817	0,064	0,041
-695,699	151,082	-0,123	-0,125
-694,685	470,882	-0,021	0,035
-693,670	800,000	-0,019	-0,052
-692,656	55,378	-0,085	-0,061
-691,641	-95,050	-0,106	0,021
-690,627	-25,766	0,147	0,064
-689,612	637,263	0,013	0,025
-688,597	-108,282	-0,085	0,014
-687,583	-200,000	-0,035	-0,129
-686,568	243,543	0,047	0,059
-685,554	-166,707	-0,055	-0,002
-684,539	-200,000	0,035	0,155
-683,524	23,779	-0,133	0,081
-682,510	800,000	-0,032	0,068
-681,495	-82,357	-0,052	-0,012
-680,481	732,885	-0,076	-0,151
-679,466	388,801	-0,065	-0,101
-678,451	-85,445	-0,091	0,021
-677,437	-30,609	0,056	0,023
-676,422	800,000	-0,043	0,137
-675,408	156,144	0,093	-0,096
-674,393	-200,000	0,013	0,061
-673,378	17,519	-0,061	-0,036
-672,364	-0,921	-0,046	0,024
-671,349	289,495	0,083	-0,113
-670,335	-41,100	-0,053	-0,020
-669,320	-102,499	0,078	0,014
-668,305	-60,251	0,084	-0,026
-667,291	601,650	-0,022	-0,041
-666,276	-200,000	0,024	-0,079
-665,262	-70,132	-0,077	0,022
-664,247	-79,608	-0,142	0,035
-663,232	800,000	-0,027	-0,083
-662,218	199,569	-0,048	-0,054
-661,203	-119,907	0,076	0,010
-660,189	-200,000	0,005	-0,107
-659,174	-200,000	-0,051	-0,171
-658,159	-8,259	0,033	-0,017
-657,145	569,226	0,058	-0,106
-656,130	358,607	-0,052	-0,078
-655,116	-119,951	0,081	-0,010
-654,101	-102,929	0,128	-0,022
-653,086	-87,912	-0,026	-0,006
-652,072	-149,734	-0,048	-0,003
-651,057	-14,958	0,049	-0,023
-650,043	193,138	-0,042	-0,047
-649,028	412,247	0,096	0,152
-648,014	800,000	0,032	-0,088
-646,999	-73,266	0,061	0,017
-645,984	-54,150	0,055	0,018
-644,970	-200,000	0,005	0,085
-643,955	800,000	0,020	-0,056
-642,941	-200,000	0,007	-0,098
-641,926	-200,000	-0,012	0,070
-640,911	154,037	-0,044	-0,045
-639,897	-200,000	0,008	-0,026
-638,882	-200,000	-0,013	-0,045
-637,868	-78,164	-0,120	-0,030
-636,853	58,268	0,086	-0,062
-635,838	540,174	0,031	-0,055
-634,824	-60,231	-0,115	-0,036
-633,809	-77,129	0,040	-0,010
-632,795	-200,000	0,005	-0,062
-631,780	-200,000	-0,026	0,104
-630,765	800,000	0,037	0,085
-629,751	-36,217	-0,143	-0,057
-628,736	329,322	-0,045	-0,065
-627,722	-73,201	0,023	0,006
-626,707	-113,412	-0,049	-0,007
-625,692	-46,181	-0,074	0,027
-624,678	143,462	-0,026	0,026
-623,663	-109,230	0,127	0,020
-622,649	450,895	-0,094	-0,155
-621,634	-77,748	-0,035	0,009
-620,619	-124,686	0,094	0,011
-619,605	-68,576	-0,037	0,011
-618,590	-63,320	-0,042	-0,013
-617,576	153,069	0,066	0,067
-616,561	539,416	-0,040	-0,071
-615,546	800,000	-0,042	-0,089
-614,532	-200,000	0,000	-0,063
-613,517	-88,567	0,045	-0,010
-612,503	30,079	-0,030	-0,019
-611,488	-31,576	0,042	-0,017
-610,474	-31,313	0,125	0,052
-609,459	3,825	-0,019	-0,010
-608,444	-87,113	-0,081	0,018
-607,430	-200,000	-0,004	-0,128
-606,415	318,652	-0,083	-0,117
-605,401	-200,000	-0,019	-0,090
-604,386	-79,470	0,136	-0,034
-603,371	-23,877	-0,069	-0,030
-602,357	3,118	-0,040	0,022
-601,342	-200,000	-0,006	-0,099
-600,328	787,012	-0,035	-0,072
-599,313	-54,415	-0,025	-0,008
-598,298	93,402	0,081	0,068
-597,284	800,000	-0,039	0,083
-596,269	64,254	0,093	0,069
-595,255	-26,551	-0,035	0,015
-594,240	-200,000	0,001	-0,093
-593,225	800,000	-0,017	-0,036
-592,211	-200,000	0,012	0,093
-591,196	-200,000	-0,011	-0,087
-590,182	-55,890	0,093	-0,031
-589,167	-200,000	-0,004	0,076
-588,152	493,235	0,030	-0,051
-587,138	266,644	-0,037	0,048
-586,123	241,237	-0,061	-0,075
-585,109	-200,000	0,007	0,101
-584,094	-200,000	0,016	0,109
-583,079	24,199	-0,078	0,047
-582,065	455,377	0,103	0,169
-581,050	800,000	-0,037	0,117
-580,036	-22,993	-0,093	-0,041
-579,021	-200,000	-0,029	-0,115
-578,006	800,000	0,029	-0,064
-576,992	69,524	0,076	-0,058
-575,977	-21,827	0,049	0,022
-574,963	-200,000	-0,010	0,047
-573,948	-200,000	0,000	0,079
-572,934	-133,598	0,105	0,010
-571,919	108,302	-0,084	-0,075
-570,904	800,000	-0,037	0,120
-569,890	-13,327	0,175	-0,084
-568,875	239,904	-0,041	-0,051
-567,861	-23,510	0,149	0,066
-566,846	-200,000	0,029	0,178
-565,831	186,345	-0,009	-0,010
-564,817	339,935	-0,087	0,126
-563,802	497,102	-0,036	-0,062
-562,788	13,695	-0,127	-0,073
-561,773	48,817	-0,128	-0,088
-560,758	22,249	0,051	-0,031
-559,744	168,005	-0,034	0,036
-558,729	668,503	0,005	0,010
-557,715	800,000	-0,051	0,113
-556,700	-200,000	-0,007	-0,024
-555,685	646,084	-0,044	-0,084
-554,671	-200,000	-0,004	0,104
-553,656	-122,157	-0,006	-0,001
-552,642	-1,907	-0,035	-0,018
-551,627	-160,428	-0,032	0,001
-550,612	447,603	0,065	-0,107
-549,598	-200,000	0,010	-0,076
-548,583	22,865	0,128	-0,077
-547,569	800,000	0,017	-0,044
-546,554	-38,069	0,162	0,063
-545,539	-11,024	-0,052	0,025
-544,525	51,622	-0,061	-0,043
-543,510	-64,429	0,031	0,009
-542,496	222,807	-0,012	0,014
-541,481	-167,614	0,066	0,002
-540,466	-97,791	0,156	-0,030
-539,452	16,497	-0,044	0,025
-538,437	-200,000	-0,026	-0,163
-537,423	82,115	0,085	0,068
-536,408	-140,697	0,114	-0,009
-535,393	201,935	0,060	-0,068
-534,379	-200,000	-0,024	0,082
-533,364	-200,000	0,006	-0,078
-532,350	800,000	0,041	0,098
-531,335	800,000	-0,010	0,022
-530,321	-130,624	0,156	0,015
-529,306	-25,927	-0,085	-0,037
-528,291	38,164	-0,158	-0,104
-527,277	-48,249	-0,097	0,035
-526,262	800,000	0,011	0,035
-525,248	254,273	0,112	-0,142
-524,233	213,474	-0,021	0,025
-523,218	-73,667	0,180	0,048
-522,204	15,643	-0,094	-0,054
-521,189	298,027	-0,111	-0,152
-520,175	-200,000	-0,017	-0,173
-519,160	-200,000	0,012	0,107
-518,145	328,054	0,026	0,038
-517,131	47,468	-0,065	0,045
-516,116	32,441	0,171	0,109
-515,102	77,275	-0,096	-0,075
-514,087	-103,595	-0,049	0,008
-513,072	-51,105	-0,092	-0,032
-512,058	800,000	-0,019	0,040
-511,043	-200,000	0,004	0,031
-510,029	475,149	-0,007	0,012
-509,014	-200,000	-0,002	0,065
-507,999	482,094	-0,032	-0,054
-506,985	325,848	0,042	-0,059
-505,970	185,068	-0,038	0,042
-504,956	-29,473	-0,067	0,028
-503,941	800,000	-0,024	0,057
-502,926	-97,666	0,062	0,012
-501,912	76,768	0,058	0,045
-500,897	-200,000	0,014	0,080
-499,883	-42,329	0,010	-0,004
-498,868	-200,000	-0,027	-0,091
-497,853	800,000	-0,074	-0,187
-496,839	154,969	0,069	0,070
-495,824	-69,152	-0,107	0,030
-494,810	800,000	0,039	0,110
-493,795	-5,509	-0,089	0,045
-492,781	543,653	0,044	-0,078
-491,766	-58,665	0,046	-0,015
-490,751	594,850	0,044	0,080
-489,737	-200,000	0,005	-0,147
-488,722	800,000	0,029	-0,079
-487,708	217,836	-0,038	0,044
-486,693	-46,434	-0,067	-0,024
-485,678	-104,689	-0,055	-0,009
-484,664	-96,252	0,120	0,023
-483,649	-13,323	0,099	0,047
-482,635	-200,000	-0,022	0,129
-481,620	-12,022	-0,047	0,023
-480,605	187,820	0,041	0,045
-479,591	326,346	0,034	0,048
-478,576	-81,318	-0,058	-0,014
-477,562	-200,000	-0,018	0,168
-476,547	-116,288	-0,183	-0,025
-475,532	-84,763	-0,037	0,008
-474,518	-200,000	0,100	-0,000
-473,503	-123,055	0,116	-0,014
-472,489	-126,319	-0,035	0,004
-471,474	-125,765	0,066	-0,007
-470,459	800,000	0,042	0,110
-469,445	55,496	0,007	0,005
-468,430	-61,942	0,090	0,028
-467,416	-52,025	-0,047	-0,016
-466,401	-89,990	-0,069	-0,015
-465,386	119,567	0,100	-0,092
-464,372	-49,643	0,040	-0,014
-463,357	457,682	-0,074	0,122
-462,343	22,253	-0,105	0,063
-461,328	800,000	-0,032	0,066
-460,313	-11,757	-0,127	-0,061
-459,299	102,944	0,096	-0,083
-458,284	800,000	0,014	0,041
-457,270	-200,000	-0,017	-0,068
-456,255	66,426	-0,043	0,032
-455,241	800,000	-0,003	-0,011
-454,226	-47,050	-0,041	0,015
-453,211	770,391	-0,022	-0,044
-452,197	-40,320	-0,098	0,037
-451,182	19,207	0,106	0,063
-450,168	364,865	-0,009	0,014
-449,153	-200,000	0,011	-0,044
-448,138	-10,868	-0,058	-0,028
-447,124	70,429	0,112	-0,085
-446,109	-28,272	0,030	-0,013
-445,095	800,000	-0,037	0,088
-444,080	-69,128	0,080	0,023
-443,065	800,000	-0,039	0,104
-442,051	216,310	-0,045	-0,053
-441,036	-32,346	-0,055	0,022
-440,022	263,845	0,052	-0,067
-439,007	39,679	-0,078	0,052
-437,992	-19,982	0,065	-0,030
-436,978	-200,000	0,021	-0,080
-435,963	708,213	0,036	-0,070
-434,949	47,900	0,150	-0,103
-433,934	-104,349	-0,061	0,010
-432,919	800,000	0,046	0,118
-431,905	239,977	0,032	-0,039
-430,890	372,617	0,046	0,070
-429,876	108,720	0,042	0,037
-428,861	354,365	-0,087	0,127
-427,846	146,250	0,061	-0,060
-426,832	-137,800	-0,131	-0,011
-425,817	433,993	-0,059	-0,095
-424,803	-51,210	-0,058	0,020
-423,788	800,000	0,035	0,072
-422,773	-117,109	-0,014	-0,002
-421,759	-200,000	0,000	0,110
-420,744	800,000	0,011	-0,034
-419,730	800,000	0,035	-0,079
-418,715	-13,963	-0,236	-0,112
-417,701	83,099	-0,111	-0,088
-416,686	-6,329	0,116	-0,058
-415,671	94,187	-0,085	0,071
-414,657	544,141	-0,069	0,122
-413,642	-106,796	-0,125	-0,020
-412,628	-87,366	-0,130	-0,029
-411,613	-200,000	0,003	-0,103
-410,598	800,000	-0,058	0,138
-409,584	-109,047	-0,067	0,010
-408,569	-70,145	0,064	0,018
-407,555	-200,000	0,004	0,029
-406,540	409,759	0,041	0,065
-405,525	-135,791	-0,074	0,006
-404,511	772,839	0,010	-0,021
-403,496	-80,309	-0,060	-0,015
-402,482	248,320	0,038	0,048
-401,467	-200,000	0,001	0,104
-400,452	-56,894	-0,081	0,026
-399,438	0,041	0,204	0,107
-398,423	-3,984	0,052	0,026
-397,409	-131,096	0,077	-0,007
-396,394	-135,844	-0,083	-0,007
-395,379	-200,000	-0,015	0,083
-394,365	-117,406	0,168	0,022
-393,350	124,856	-0,025	-0,023
-392,336	-200,000	0,011	0,093
-391,321	198,662	-0,103	-0,116
-390,306	800,000	0,023	0,062
-389,292	-200,000	0,015	-0,112
-388,277	-11,502	0,065	-0,031
-387,263	100,446	0,073	0,062
-386,248	-88,907	0,084	0,018
-385,233	800,000	0,009	0,024
-384,219	-200,000	0,001	-0,121
-383,204	132,862	-0,059	0,056
-382,190	30,065	-0,088	-0,055
-381,175	-44,016	0,157	-0,058
-380,160	-200,000	-0,020	0,107
-379,146	-2,625	-0,106	0,054
-378,131	-41,355	-0,009	-0,003
-377,117	800,000	-0,032	-0,068
-376,102	-200,000	0,008	0,040
-375,088	-47,120	-0,063	-0,022
-374,073	26,910	0,020	0,012
-373,058	-142,795	0,061	0,004
-372,044	800,000	-0,067	0,142
-371,029	379,371	-0,090	0,135
-370,015	416,913	0,043	-0,068
-369,000	-200,000	0,005	0,057
-367,985	-95,323	-0,081	0,016
-366,971	800,000	0,014	-0,031
-365,956	-43,900	-0,126	0,046
-364,942	-200,000	0,007	0,104
-363,927	-162,884	-0,072	0,003
-362,912	-200,000	-0,009	0,052
-361,898	463,450	0,015	-0,025
-360,883	-139,049	-0,131	-0,010
-359,869	-33,583	-0,099	-0,040
-358,854	492,582	-0,079	-0,134
-357,839	745,455	0,052	-0,102
-356,825	-49,636	-0,073	0,025
-355,810	-160,430	-0,152	-0,006
-354,796	38,037	-0,056	-0,037
-353,781	303,326	0,084	-0,115
-352,766	535,449	0,030	-0,052
-351,752	800,000	-0,017	0,050
-350,737	800,000	-0,018	0,038
-349,723	97,562	-0,129	0,109
-348,708	-41,596	0,131	-0,049
-347,693	-200,000	0,017	-0,110
-346,679	-200,000	0,032	0,125
-345,664	-73,401	-0,101	-0,027
-344,650	-200,000	0,026	0,108
-343,635	-200,000	-0,026	0,152
-342,620	-200,000	-0,008	-0,053
-341,606	-64,724	-0,066	-0,019
-340,591	800,000	-0,048	-0,136
-339,577	-34,216	-0,011	-0,004
-338,562	167,883	0,090	0,094
-337,548	92,836	0,118	-0,098
-336,533	284,453	-0,006	0,008
-335,518	758,482	0,053	-0,106
-334,504	309,132	0,036	0,049
-333,489	-157,195	0,085	-0,004
-332,475	331,721	0,030	-0,043
-331,460	-33,827	0,042	-0,017
-330,445	-200,000	-0,003	-0,032
-329,431	98,280	0,050	-0,043
-328,416	-104,373	-0,044	0,007
-327,402	411,695	0,029	-0,045
-326,387	-200,000	-0,005	0,195
-325,372	800,000	-0,019	0,041
-324,358	-200,000	0,017	0,081
-323,343	-3,092	0,065	-0,033
-322,329	605,601	-0,044	-0,081
-321,314	78,889	0,062	-0,049
-320,299	395,115	0,052	-0,080
-319,285	-116,642	0,155	-0,021
-318,270	800,000	-0,026	-0,059
-317,256	6,756	0,054	-0,029
-316,241	-28,218	0,133	0,056
-315,226	-42,550	0,051	0,019
-314,212	800,000	0,033	0,072
-313,197	800,000	0,026	0,068
-312,183	-132,391	-0,042	0,004
-311,168	-185,563	-0,055	0,001
-310,153	335,357	0,057	-0,081
-309,139	-200,000	-0,037	-0,166
-308,124	-36,420	0,050	-0,020
-307,110	176,601	-0,040	0,042
-306,095	152,499	0,082	0,082
-305,080	469,970	-0,096	0,158
-304,066	-121,524	0,162	0,020
-303,051	281,823	-0,083	-0,109
-302,037	147,921	-0,040	-0,040
-301,022	8,180	0,111	0,061
-300,008	-200,000	-0,009	0,086
-298,993	-200,000	-0,003	-0,057
-297,978	-200,000	0,018	0,060
-296,964	-200,000	-0,002	-0,136
-295,949	-90,869	-0,111	-0,023
-294,935	-80,422	0,154	-0,037
-293,920	800,000	-0,023	-0,074
-292,905	389,141	0,039	0,059
-291,891	233,197	0,065	0,079
-290,876	38,292	-0,108	0,070
-289,862	-147,205	0,026	0,002
-288,847	-69,891	-0,131	0,036
-287,832	142,465	0,027	0,026
-286,818	-200,000	-0,015	0,086
-285,803	-200,000	0,014	0,216
-284,789	-103,605	-0,122	0,021
-283,774	800,000	0,019	-0,053
-282,759	-75,454	0,095	-0,025
-281,745	-6,284	0,056	0,028
-280,730	-95,976	-0,071	0,014
-279,716	-200,000	0,012	-0,045
-278,701	0,266	-0,096	-0,050
-277,686	58,552	0,088	0,063
-276,672	76,659	0,065	0,050
-275,657	-46,727	-0,072	-0,026
-274,643	-200,000	0,008	0,107
-273,628	-200,000	0,015	-0,052
-272,613	2,549	-0,138	0,073
-271,599	-200,000	-0,009	-0,043
-270,584	32,203	0,208	-0,131
-269,570	-127,890	0,051	0,005
-268,555	238,334	0,041	0,050
-267,540	218,517	-0,082	0,096
-266,526	31,821	-0,047	0,030
-265,511	161,989	0,109	0,112
-264,497	550,562	0,069	0,122
-263,482	166,853	-0,065	0,067
-262,467	-200,000	0,021	-0,096
-261,453	23,100	-0,041	0,025
-260,438	800,000	-0,035	0,096
-259,424	800,000	-0,035	0,083
-258,409	122,022	-0,086	-0,079
-257,395	212,494	0,072	0,083
-256,380	-200,000	-0,017	-0,145
-255,365	-200,000	-0,003	-0,202
-254,351	78,455	0,041	0,032
-253,336	112,172	-0,145	-0,128
-252,322	33,831	0,085	-0,054
-251,307	-200,000	0,023	-0,116
-250,292	420,225	0,061	-0,096
-249,278	152,231	0,096	-0,096
-248,263	-78,902	-0,047	0,012
-247,249	-200,000	0,006	-0,103
-246,234	86,593	-0,084	-0,068
-245,219	-79,242	-0,078	0,019
-244,205	68,674	0,094	-0,070
-243,190	479,218	-0,002	0,003
-242,176	-200,000	0,011	-0,043
-241,161	155,681	0,038	-0,039
-240,146	-41,247	0,093	-0,035
-239,132	111,087	-0,099	-0,087
-238,117	-150,407	-0,091	0,005
-237,103	93,322	-0,089	-0,074
-236,088	-71,630	-0,032	0,009
-235,073	70,628	0,093	-0,070
-234,059	-30,498	0,102	-0,042
-233,044	-34,304	-0,134	-0,053
-232,030	-59,087	-0,165	0,052
-231,015	-154,698	0,097	0,005
-230,000	-44,743	-0,078	-0,028
-228,986	-45,526	-0,021	-0,007
-227,971	-200,000	-0,004	0,058
-226,957	242,643	-0,015	0,018
-225,942	800,000	-0,030	0,085
-224,927	-12,536	-0,119	0,057
-223,913	124,225	-0,006	-0,005
-222,898	-152,784	-0,045	-0,002
-221,884	144,240	0,143	-0,139
-220,869	46,403	0,007	-0,005
-219,855	103,310	0,093	0,080
-218,840	800,000	-0,023	0,073
-217,825	-200,000	-0,033	0,169
-216,811	-200,000	0,003	-0,012
-215,796	-200,000	-0,015	-0,124
-214,782	-200,000	-0,080	0,000
-213,767	8,258	0,179	-0,098
-212,752	-7,646	0,134	0,066
-211,738	-43,396	0,117	0,043
-210,723	-77,997	0,069	0,017
-209,709	-21,053	-0,072	-0,032
-208,694	-200,000	-0,015	0,102
-207,679	-29,436	0,076	0,032
-206,665	-200,000	-0,007	-0,062
-205,650	-124,219	0,058	-0,007
-204,636	800,000	-0,061	0,126
-203,621	513,859	0,072	0,123
-202,606	-14,585	-0,080	0,037
-201,592	-200,000	-0,003	-0,057
-200,577	800,000	0,064	-0,155
-199,563	-200,000	0,012	0,132
-198,548	271,960	0,068	0,087
-197,533	666,437	0,055	0,103
-196,519	262,612	-0,042	-0,053
-195,504	16,153	-0,010	-0,006
-194,490	-98,512	-0,218	-0,040
-193,475	-10,686	-0,054	-0,026
-192,460	77,568	0,133	0,103
-191,446	-200,000	0,028	0,100
-190,431	-200,000	0,020	0,073
-189,417	482,130	-0,082	0,136
-188,402	-200,000	0,003	0,024
-187,387	156,525	0,075	-0,075
-186,373	800,000	-0,054	-0,113
-185,358	762,821	0,045	-0,090
-184,344	276,132	0,047	-0,061
-183,329	800,000	0,043	-0,103
-182,315	-164,410	0,039	0,001
-181,300	-200,000	-0,021	0,130
-180,285	-200,000	-0,000	-0,020
-179,271	-200,000	0,006	-0,168
-178,256	-200,000	-0,006	0,056
-177,242	-5,601	-0,065	0,032
-176,227	-92,789	0,177	0,036
-175,212	545,881	-0,011	-0,019
-174,198	-200,000	0,007	0,083
-173,183	-200,000	-0,040	-0,169
-172,169	-200,000	0,018	-0,068
-171,154	163,417	0,035	0,036
-170,139	-81,853	0,059	0,014
-169,125	-200,000	0,022	-0,165
-168,110	-122,964	-0,032	0,004
-167,096	-87,993	-0,172	0,037
-166,081	9,261	-0,093	-0,051
-165,066	-125,264	-0,028	-0,003
-164,052	-135,653	-0,190	0,016
-163,037	-47,942	0,109	-0,038
-162,023	800,000	0,005	-0,016
-161,008	-33,430	0,073	0,029
-159,993	-13,284	0,062	-0,029
-158,979	-118,098	-0,086	-0,011
-157,964	473,752	0,032	-0,053
-156,950	800,000	-0,017	-0,036
-155,935	61,391	0,088	-0,064
-154,920	-200,000	0,005	0,060
-153,906	-200,000	0,018	0,165
-152,891	-200,000	-0,002	0,018
-151,877	-200,000	0,008	-0,028
-150,862	-200,000	0,009	-0,088
-149,847	198,682	0,082	-0,092
-148,833	9,730	-0,088	-0,049
-147,818	265,306	0,020	-0,025
-146,804	7,963	-0,052	-0,028
-145,789	126,174	0,062	-0,057
-144,775	239,525	-0,074	0,090
-143,760	-64,525	0,032	0,009
-142,745	800,000	0,033	-0,099
-141,731	800,000	-0,034	0,071
-140,716	-74,312	0,044	-0,011
-139,702	-145,971	0,070	-0,004
-138,687	297,225	0,063	0,084
-137,672	202,729	-0,073	-0,083
-136,658	-62,954	0,090	-0,027
-135,643	800,000	0,021	0,055
-134,629	800,000	-0,084	-0,172
-133,614	-122,066	0,147	-0,017
-132,599	-91,651	-0,066	0,014
-131,585	800,000	-0,025	0,065
-130,570	-200,000	0,002	-0,055
-129,556	800,000	-0,052	-0,131
-128,541	-121,852	-0,203	0,024
-127,526	-69,001	-0,102	0,028
-126,512	-200,000	0,014	0,087
-125,497	-200,000	0,005	-0,056
-124,483	337,243	-0,057	0,081
-123,468	-35,607	0,059	0,023
-122,453	280,343	0,057	0,074
-121,439	-30,515	0,165	0,068
-120,424	800,000	-0,047	-0,094
