DTS Sentinel unit serial number:	SN410029Multiplexer serial number:	ORYXHardware model number:	OX2-SRSoftware version number:	ORYX F/W v4,00 Oryx Data Collector v3.7.2.0data status	okinstallation	B6 Nyhavnadifferential loss correction	single-endedforward channel	channel 2reverse channel	N/Adate	2023/12/07time	22:25:08forward acquisition time	300,00reverse acquisition time	0,00gamma	499,1914k internal	0,3165k external	0,3165temperature offset calibration	1,0000default loss term (dB/km)	0,3820temperature slope calibration	1,0000multiplexer offset coefficient	1,0000multiplexer slope coefficient	1,0000fibre end	0,00T internal ref (°C)	13,57T ext. ref 1 (°C)	-3,35T ext. ref 2 (°C)	-3,35length (m)	temperature (°C)	Stokes	anti-Stokes-744,400	80,031	0,114	0,090
-743,385	-114,624	-0,242	-0,034
-742,371	-37,450	0,168	-0,066
-741,356	-111,196	-0,302	0,045
-740,342	-1,675	0,110	0,057
-739,327	-53,086	-0,413	-0,139
-738,312	295,728	0,097	-0,131
-737,298	-121,148	-0,373	-0,045
-736,283	-189,536	0,161	-0,001
-735,269	0,083	-0,247	-0,129
-734,254	-152,192	0,302	-0,016
-733,239	-60,572	-0,522	-0,162
-732,225	-124,129	0,207	0,024
-731,210	-91,162	-0,054	-0,011
-730,196	-200,000	-0,002	0,092
-729,181	60,205	0,050	0,037
-728,167	89,966	0,059	-0,049
-727,152	368,027	-0,054	-0,080
-726,137	-90,080	-0,024	0,005
-725,123	97,792	-0,076	-0,064
-724,108	7,709	-0,121	-0,067
-723,094	-200,000	-0,029	-0,184
-722,079	800,000	-0,057	-0,137
-721,064	11,738	-0,085	0,048
-720,050	-200,000	0,021	-0,073
-719,035	85,290	0,074	-0,060
-718,021	800,000	0,045	0,101
-717,006	-125,563	-0,186	-0,020
-715,991	800,000	-0,095	-0,243
-714,977	38,638	-0,115	0,075
-713,962	-55,635	-0,114	0,037
-712,948	-107,127	-0,080	0,013
-711,933	-200,000	0,005	-0,131
-710,918	606,292	-0,100	-0,185
-709,904	-200,000	-0,021	0,087
-708,889	164,195	-0,077	0,080
-707,875	-51,228	-0,078	-0,027
-706,860	178,397	0,062	-0,067
-705,845	161,116	-0,028	-0,029
-704,831	-200,000	-0,022	-0,126
-703,816	-93,149	-0,040	-0,008
-702,802	360,709	-0,094	-0,139
-701,787	-200,000	0,040	-0,204
-700,772	-31,113	-0,100	-0,041
-699,758	800,000	0,071	-0,180
-698,743	38,031	0,136	-0,089
-697,729	85,087	-0,060	0,048
-696,714	-200,000	0,008	-0,044
-695,699	456,827	-0,032	0,052
-694,685	-69,732	-0,043	-0,012
-693,670	-171,619	-0,111	-0,003
-692,656	800,000	-0,041	-0,088
-691,641	436,822	-0,043	-0,070
-690,627	9,845	0,095	-0,053
-689,612	-5,275	0,046	0,023
-688,597	-200,000	0,011	-0,083
-687,583	146,344	-0,074	0,073
-686,568	10,445	-0,065	-0,036
-685,554	-35,975	0,171	-0,067
-684,539	-200,000	-0,001	-0,114
-683,524	-99,638	0,040	-0,007
-682,510	800,000	0,014	0,045
-681,495	800,000	-0,048	0,113
-680,481	-200,000	0,030	-0,226
-679,466	15,714	-0,141	-0,081
-678,451	-200,000	0,017	-0,101
-677,437	-200,000	-0,003	0,120
-676,422	800,000	-0,041	0,130
-675,408	137,238	-0,034	0,032
-674,393	800,000	0,064	0,138
-673,378	-26,047	-0,134	-0,057
-672,364	-200,000	-0,013	-0,072
-671,349	-109,822	-0,148	-0,023
-670,335	-200,000	-0,018	0,137
-669,320	-126,740	0,028	-0,003
-668,305	88,171	-0,038	0,031
-667,291	800,000	-0,039	-0,082
-666,276	313,386	-0,029	-0,041
-665,262	-72,782	0,192	-0,051
-664,247	-32,571	0,125	0,051
-663,232	-200,000	-0,002	0,087
-662,218	234,222	-0,049	0,059
-661,203	201,418	0,085	-0,096
-660,189	800,000	-0,031	0,098
-659,174	7,995	-0,071	-0,039
-658,159	4,472	-0,088	-0,047
-657,145	3,158	-0,080	-0,042
-656,130	38,760	0,036	0,024
-655,116	-121,542	0,116	-0,014
-654,101	144,027	-0,007	0,007
-653,086	-30,101	-0,037	0,015
-652,072	23,237	-0,056	0,034
-651,057	-105,498	-0,142	-0,023
-650,043	800,000	-0,018	0,039
-649,028	-200,000	0,008	-0,086
-648,014	255,250	-0,057	-0,072
-646,999	-12,835	-0,067	-0,032
-645,984	634,255	-0,040	0,074
-644,970	800,000	0,027	0,074
-643,955	-200,000	0,045	-0,151
-642,941	92,919	-0,020	-0,016
-641,926	169,474	0,032	0,034
-640,911	-64,890	0,154	0,045
-639,897	-113,577	-0,054	-0,008
-638,882	508,059	0,106	-0,181
-637,868	241,474	-0,040	-0,049
-636,853	-53,066	-0,049	-0,016
-635,838	374,686	-0,097	-0,145
-634,824	-200,000	-0,004	-0,047
-633,809	-112,951	0,094	0,013
-632,795	113,706	0,128	-0,114
-631,780	146,315	-0,049	0,048
-630,765	800,000	-0,026	0,071
-629,751	-200,000	0,036	-0,166
-628,736	800,000	0,036	-0,093
-627,722	-22,928	0,109	-0,048
-626,707	126,459	-0,084	-0,078
-625,692	604,439	0,061	0,112
-624,678	-200,000	-0,008	0,072
-623,663	-74,013	-0,051	-0,014
-622,649	136,305	-0,120	-0,115
-621,634	149,359	-0,054	-0,053
-620,619	-43,573	-0,213	0,078
-619,605	17,098	0,102	-0,059
-618,590	-135,067	-0,075	-0,007
-617,576	-200,000	0,004	0,059
-616,561	-185,891	-0,139	0,001
-615,546	293,993	0,014	-0,019
-614,532	-200,000	-0,027	-0,164
-613,517	473,456	-0,018	0,030
-612,503	302,726	-0,069	-0,093
-611,488	19,143	0,093	-0,055
-610,474	26,809	0,060	0,036
-609,459	10,716	-0,056	-0,031
-608,444	-122,917	-0,130	-0,015
-607,430	263,925	-0,040	0,051
-606,415	393,053	-0,049	0,075
-605,401	47,429	0,067	0,046
-604,386	-112,030	0,147	-0,021
-603,371	-58,682	-0,153	0,048
-602,357	45,287	0,068	0,046
-601,342	-200,000	-0,007	0,074
-600,328	86,842	-0,040	-0,032
-599,313	-200,000	-0,041	-0,187
-598,298	-200,000	-0,016	-0,090
-597,284	101,137	0,058	-0,050
-596,269	-35,095	0,102	-0,040
-595,255	800,000	-0,050	0,125
-594,240	-145,272	0,190	0,012
-593,225	800,000	-0,071	-0,151
-592,211	-84,006	0,071	-0,016
-591,196	230,665	0,054	0,065
-590,182	-18,797	0,098	0,045
-589,167	-76,902	0,110	0,028
-588,152	66,781	0,123	0,091
-587,138	77,615	0,083	-0,065
-586,123	-200,000	-0,000	0,104
-585,109	211,289	0,048	0,055
-584,094	-200,000	-0,004	0,036
-583,079	-157,590	-0,173	-0,007
-582,065	-200,000	-0,010	-0,051
-581,050	229,583	-0,066	-0,078
-580,036	-58,059	0,185	-0,059
-579,021	133,155	-0,127	-0,120
-578,006	800,000	-0,041	0,087
-576,992	-200,000	-0,026	-0,232
-575,977	-19,931	0,059	-0,026
-574,963	-140,696	0,148	0,011
-573,948	98,857	-0,198	-0,167
-572,934	-200,000	-0,016	-0,112
-571,919	119,486	-0,054	-0,049
-570,904	-67,543	-0,083	-0,024
-569,890	-155,194	0,052	-0,002
-568,875	92,678	0,043	-0,035
-567,861	-200,000	-0,017	0,084
-566,846	545,290	0,033	-0,057
-565,831	536,796	0,043	0,074
-564,817	237,964	-0,031	-0,038
-563,802	800,000	-0,081	-0,219
-562,788	-200,000	-0,015	0,123
-561,773	800,000	-0,054	0,121
-560,758	-60,400	-0,039	-0,012
-559,744	800,000	0,026	0,082
-558,729	-200,000	-0,007	0,221
-557,715	-200,000	0,011	-0,050
-556,700	-76,372	-0,109	0,028
-555,685	-140,257	0,147	0,011
-554,671	-200,000	-0,011	0,046
-553,656	156,957	0,017	-0,017
-552,642	173,451	0,052	-0,055
-551,627	20,540	-0,084	0,050
-550,612	-126,436	-0,147	0,016
-549,598	-200,000	0,006	-0,061
-548,583	-42,784	-0,125	-0,046
-547,569	67,407	0,056	0,042
-546,554	94,091	0,035	-0,029
-545,539	-47,297	0,134	0,047
-544,525	88,147	-0,046	0,037
-543,510	-5,687	-0,051	-0,025
-542,496	-200,000	0,038	-0,199
-541,481	800,000	-0,019	-0,044
-540,466	443,696	-0,022	0,036
-539,452	-81,509	-0,075	-0,018
-538,437	44,131	-0,041	0,027
-537,423	-200,000	0,017	0,083
-536,408	539,291	0,093	-0,162
-535,393	-200,000	-0,010	-0,034
-534,379	59,517	-0,078	-0,056
-533,364	-49,464	-0,100	0,035
-532,350	-86,896	-0,031	-0,007
-531,335	52,174	0,088	0,061
-530,321	52,493	0,092	-0,064
-529,306	54,376	-0,026	0,018
-528,291	-159,566	-0,059	-0,002
-527,277	-88,156	0,016	0,003
-526,262	-91,517	-0,002	-0,000
-525,248	-200,000	-0,008	-0,052
-524,233	388,338	-0,047	-0,071
-523,218	-200,000	-0,021	-0,066
-522,204	-51,728	0,076	-0,026
-521,189	383,843	-0,002	-0,003
-520,175	-66,438	-0,136	-0,039
-519,160	800,000	0,030	0,088
-518,145	7,412	-0,009	-0,005
-517,131	324,418	0,110	0,154
-516,116	-80,342	-0,115	0,028
-515,102	120,318	0,081	-0,074
-514,087	643,619	-0,042	0,079
-513,072	-200,000	-0,010	-0,098
-512,058	386,582	0,030	0,045
-511,043	626,016	0,028	0,051
-510,029	-12,314	0,105	-0,050
-509,014	84,687	-0,024	0,019
-507,999	800,000	0,003	-0,009
-506,985	-200,000	0,010	-0,089
-505,970	233,924	0,022	-0,026
-504,956	800,000	0,024	0,053
-503,941	800,000	-0,039	0,095
-502,926	-69,928	0,067	-0,019
-501,912	111,945	0,013	-0,012
-500,897	-41,350	0,108	-0,040
-499,883	800,000	0,016	0,039
-498,868	-67,158	-0,121	-0,034
-497,853	746,057	-0,025	-0,050
-496,839	-41,380	-0,187	0,070
-495,824	135,305	-0,035	-0,033
-494,810	18,524	0,136	0,079
-493,795	-78,927	0,006	0,002
-492,781	-35,815	-0,065	0,025
-491,766	26,733	-0,035	-0,021
-490,751	423,315	-0,114	-0,179
-489,737	88,751	0,134	0,108
-488,722	257,526	-0,103	0,129
-487,708	252,086	0,040	0,050
-486,693	-200,000	0,010	0,039
-485,678	12,755	0,091	0,051
-484,664	114,110	-0,123	-0,109
-483,649	391,819	0,010	-0,016
-482,635	-200,000	-0,007	-0,072
-481,620	88,037	0,088	-0,071
-480,605	-200,000	0,003	0,158
-479,591	-200,000	-0,008	0,209
-478,576	148,322	0,054	0,053
-477,562	161,362	0,063	0,064
-476,547	24,414	0,062	-0,037
-475,532	18,800	-0,095	-0,055
-474,518	198,150	-0,038	0,042
-473,503	-178,066	0,196	-0,003
-472,489	-200,000	0,003	0,040
-471,474	800,000	0,032	0,093
-470,459	329,489	0,013	-0,019
-469,445	61,413	-0,090	-0,065
-468,430	-123,777	-0,020	-0,002
-467,416	717,488	0,037	0,072
-466,401	-73,491	0,177	0,047
-465,386	-200,000	-0,005	-0,059
-464,372	301,161	0,028	0,037
-463,357	-138,889	-0,143	-0,011
-462,343	-200,000	-0,003	-0,180
-461,328	466,736	-0,017	-0,028
-460,313	-84,270	0,066	-0,015
-459,299	-200,000	0,004	-0,057
-458,284	11,962	0,092	0,051
-457,270	190,003	0,028	-0,031
-456,255	-116,910	-0,100	-0,013
-455,241	25,318	0,157	-0,094
-454,226	-200,000	0,008	0,105
-453,211	-200,000	-0,003	0,037
-452,197	-200,000	-0,025	-0,090
-451,182	590,318	0,041	-0,073
-450,168	55,868	0,036	-0,025
-449,153	-200,000	0,012	-0,085
-448,138	-200,000	0,008	0,093
-447,124	169,689	-0,073	-0,076
-446,109	-200,000	0,001	0,027
-445,095	-200,000	0,006	0,040
-444,080	-42,952	0,098	0,036
-443,065	-200,000	-0,024	0,101
-442,051	-102,930	0,016	0,003
-441,036	-22,693	-0,116	-0,051
-440,022	266,563	-0,010	0,013
-439,007	87,788	0,043	-0,035
-437,992	239,545	0,073	0,088
-436,978	800,000	0,058	0,135
-435,963	-95,605	-0,183	-0,035
-434,949	800,000	-0,058	0,117
-433,934	-59,683	0,091	0,028
-432,919	800,000	-0,028	-0,059
-431,905	-200,000	0,002	0,111
-430,890	-68,366	0,101	0,028
-429,876	740,392	-0,079	0,155
-428,861	142,737	0,043	-0,042
-427,846	800,000	0,044	0,110
-426,832	-18,241	-0,164	0,074
-425,817	-200,000	0,004	-0,118
-424,803	301,021	0,031	0,042
-423,788	-99,934	0,178	0,032
-422,773	520,088	-0,022	0,038
-421,759	-200,000	0,001	0,148
-420,744	-10,795	0,048	-0,023
-419,730	-107,138	-0,101	0,016
-418,715	800,000	-0,012	0,034
-417,701	-200,000	0,007	-0,101
-416,686	611,729	-0,041	-0,075
-415,671	-200,000	0,005	-0,123
-414,657	215,042	-0,015	0,017
-413,642	800,000	-0,012	0,036
-412,628	49,157	-0,097	-0,066
-411,613	-115,513	0,063	0,008
-410,598	92,379	0,022	0,018
-409,584	-200,000	-0,001	-0,006
-408,569	456,050	-0,056	0,090
-407,555	-200,000	-0,047	0,167
-406,540	-59,799	-0,055	0,017
-405,525	227,283	-0,069	0,082
-404,511	-127,280	-0,135	-0,014
-403,496	-200,000	0,011	-0,046
-402,482	-200,000	-0,001	-0,057
-401,467	-151,893	0,059	0,003
-400,452	38,829	-0,154	0,100
-399,438	38,867	-0,107	-0,069
-398,423	-96,190	0,088	0,017
-397,409	800,000	-0,025	-0,068
-396,394	657,133	0,055	-0,102
-395,379	800,000	-0,038	0,077
-394,365	29,452	0,057	0,035
-393,350	-200,000	-0,006	0,101
-392,336	-38,728	-0,077	0,029
-391,321	-200,000	-0,020	-0,142
-390,306	735,891	0,049	-0,095
-389,292	31,755	0,043	-0,027
-388,277	33,946	-0,048	0,030
-387,263	370,380	0,095	-0,140
-386,248	145,968	-0,107	0,104
-385,233	386,046	0,036	-0,054
-384,219	357,415	-0,078	-0,114
-383,204	-200,000	-0,036	-0,166
-382,190	426,056	0,079	0,124
-381,175	340,569	-0,070	0,099
-380,160	442,941	0,065	0,104
-379,146	800,000	-0,065	0,184
-378,131	-75,317	0,061	-0,016
-377,117	-151,963	-0,067	-0,003
-376,102	-84,165	-0,113	0,026
-375,088	-135,607	0,149	-0,013
-374,073	450,533	-0,027	-0,043
-373,058	201,349	0,122	0,137
-372,044	258,617	0,115	0,144
-371,029	22,570	0,112	-0,066
-370,015	800,000	0,015	0,039
-369,000	72,732	-0,132	-0,100
-367,985	460,645	0,035	0,057
-366,971	649,393	0,028	0,051
-365,956	-178,971	-0,097	0,002
-364,942	-92,065	0,081	-0,016
-363,927	105,122	0,042	0,036
-362,912	7,816	-0,063	-0,034
-361,898	-15,265	0,079	0,036
-360,883	268,795	-0,080	-0,102
-359,869	169,422	0,107	-0,111
-358,854	-200,000	-0,008	-0,132
-357,839	-29,623	0,064	-0,027
-356,825	88,834	-0,078	0,062
-355,810	-200,000	0,016	-0,100
-354,796	26,395	-0,082	0,050
-353,781	137,535	-0,083	0,079
-352,766	-30,353	-0,115	0,047
-351,752	219,179	-0,063	0,073
-350,737	-50,079	0,136	0,046
-349,723	-200,000	-0,012	0,071
-348,708	-200,000	0,000	-0,163
-347,693	257,940	-0,047	0,059
-346,679	-83,256	-0,144	0,033
-345,664	-29,149	-0,071	-0,029
-344,650	-89,973	0,118	-0,025
-343,635	46,116	0,116	-0,078
-342,620	284,188	-0,058	0,076
-341,606	-18,570	0,164	0,074
-340,591	87,394	-0,095	-0,076
-339,577	22,220	0,053	-0,031
-338,562	72,136	0,061	-0,046
-337,548	-200,000	0,019	-0,091
-336,533	-125,766	0,179	0,019
-335,518	800,000	-0,043	0,106
-334,504	-200,000	-0,019	0,175
-333,489	800,000	0,025	-0,058
-332,475	-36,825	-0,038	-0,015
-331,460	800,000	0,062	-0,126
-330,445	159,455	-0,124	-0,125
-329,431	-47,537	-0,032	0,011
-328,416	355,794	0,078	0,112
-327,402	45,250	0,055	0,037
-326,387	182,888	-0,044	-0,047
-325,372	-183,768	0,129	0,002
-324,358	156,216	-0,091	-0,091
-323,343	201,467	-0,072	-0,080
-322,329	800,000	-0,031	0,065
-321,314	-200,000	-0,028	0,214
-320,299	-135,523	-0,123	0,010
-319,285	-200,000	0,013	0,066
-318,270	-200,000	-0,037	-0,127
-317,256	169,730	0,048	-0,049
-316,241	-92,641	-0,116	-0,023
-315,226	-6,790	0,064	0,032
-314,212	-114,768	0,173	-0,024
-313,197	-137,894	-0,095	0,008
-312,183	466,297	0,048	-0,078
-311,168	800,000	-0,046	-0,128
-310,153	384,142	0,044	-0,066
-309,139	-10,257	0,145	0,069
-308,124	34,529	-0,085	0,054
-307,110	-2,695	0,069	0,035
-306,095	400,582	0,026	0,040
-305,080	800,000	0,017	0,043
-304,066	12,982	0,055	0,031
-303,051	-30,471	-0,154	-0,063
-302,037	-76,646	-0,052	0,013
-301,022	60,317	0,076	0,055
-300,008	-200,000	-0,006	0,076
-298,993	-200,000	0,041	-0,142
-297,978	-81,733	-0,029	0,007
-296,964	29,167	0,005	0,003
-295,949	601,891	-0,064	-0,115
-294,935	314,454	0,048	-0,065
-293,920	800,000	-0,018	0,055
-292,905	800,000	-0,056	0,116
-291,891	275,644	-0,147	0,189
-290,876	-171,910	0,180	0,004
-289,862	355,653	-0,097	0,140
-288,847	-136,630	-0,133	-0,011
-287,832	-200,000	-0,040	-0,129
-286,818	217,885	-0,029	-0,034
-285,803	445,023	-0,040	-0,064
-284,789	-157,721	0,066	-0,003
-283,774	18,618	0,021	0,012
-282,759	800,000	-0,024	-0,073
-281,745	-184,091	-0,096	-0,001
-280,730	173,949	-0,036	-0,038
-279,716	-120,262	0,063	0,008
-278,701	-152,270	0,056	-0,003
-277,686	-200,000	-0,002	0,159
-276,672	-200,000	-0,003	0,103
-275,657	-103,583	-0,162	0,027
-274,643	46,206	0,009	-0,006
-273,628	693,633	-0,017	-0,032
-272,613	-28,519	-0,046	-0,019
-271,599	287,766	0,051	0,066
-270,584	256,798	0,044	0,054
-269,570	172,062	0,035	0,037
-268,555	-200,000	-0,031	0,127
-267,540	-200,000	-0,013	0,060
-266,526	-6,504	-0,128	0,063
-265,511	135,183	0,080	0,075
-264,497	360,195	-0,010	0,015
-263,482	-52,451	0,054	0,018
-262,467	800,000	0,088	0,189
-261,453	50,096	0,116	0,079
-260,438	800,000	0,083	0,198
-259,424	-200,000	-0,002	0,013
-258,409	515,884	-0,060	-0,101
-257,395	53,717	-0,077	0,054
-256,380	-19,500	0,079	-0,035
-255,365	-105,274	0,125	0,020
-254,351	-200,000	-0,013	0,190
-253,336	-4,399	-0,128	-0,064
-252,322	391,863	0,018	-0,027
-251,307	-60,259	-0,183	-0,056
-250,292	-20,478	-0,068	-0,030
-249,278	77,940	0,062	0,048
-248,263	-200,000	-0,008	0,042
-247,249	252,759	0,066	0,082
-246,234	89,924	-0,094	0,076
-245,219	800,000	-0,063	-0,180
-244,205	-118,164	-0,126	0,016
-243,190	52,816	0,012	-0,008
-242,176	116,878	0,043	-0,038
-241,161	-200,000	0,029	0,111
-240,146	98,241	0,112	-0,093
-239,132	253,756	0,024	0,030
-238,117	-15,001	-0,045	0,021
-237,103	425,299	-0,067	-0,104
-236,088	-200,000	0,145	-0,000
-235,073	-104,192	-0,044	-0,007
-234,059	66,753	0,033	0,024
-233,044	-90,195	-0,100	0,021
-232,030	-25,301	0,056	0,024
-231,015	-54,807	0,037	0,012
-230,000	27,547	-0,081	0,049
-228,986	-143,500	-0,089	0,006
-227,971	-63,180	-0,013	-0,004
-226,957	-136,956	-0,082	0,007
-225,942	-105,765	-0,116	0,019
-224,927	-162,204	0,054	0,002
-223,913	67,677	0,120	0,088
-222,898	141,015	-0,074	-0,070
-221,884	-200,000	-0,005	-0,115
-220,869	-66,266	0,158	0,045
-219,855	-200,000	-0,005	0,088
-218,840	-102,474	0,081	-0,014
-217,825	-200,000	0,019	-0,123
-216,811	-29,433	-0,066	0,027
-215,796	-94,296	0,025	0,005
-214,782	-2,674	-0,122	-0,061
-213,767	-200,000	0,040	-0,161
-212,752	68,454	0,136	0,100
-211,738	800,000	0,022	-0,053
-210,723	-8,855	-0,076	-0,036
-209,709	800,000	-0,049	0,104
-208,694	108,708	-0,099	0,085
-207,679	-13,063	-0,025	-0,012
-206,665	-33,534	0,233	-0,092
-205,650	-22,797	-0,119	-0,051
-204,636	211,250	0,075	0,085
-203,621	103,313	-0,050	0,042
-202,606	800,000	0,017	-0,048
-201,592	284,090	0,016	-0,020
-200,577	-200,000	-0,009	-0,163
-199,563	-133,075	0,065	0,006
-198,548	-166,767	0,113	-0,003
-197,533	-200,000	-0,027	-0,091
-196,519	-200,000	0,014	0,118
-195,504	299,885	0,052	0,069
-194,490	-71,207	-0,119	0,032
-193,475	800,000	-0,040	-0,109
-192,460	373,909	-0,076	-0,112
-191,446	-200,000	-0,021	0,091
-190,431	232,287	0,191	0,226
-189,417	-200,000	-0,019	0,064
-188,402	-200,000	-0,056	-0,256
-187,387	570,916	0,082	0,145
-186,373	554,862	0,053	-0,092
-185,358	-141,602	-0,044	0,003
-184,344	-19,175	0,304	-0,135
-183,329	-90,125	-0,106	0,022
-182,315	1,521	0,061	0,032
-181,300	800,000	0,018	-0,037
-180,285	-200,000	-0,016	-0,064
-179,271	-143,315	-0,028	-0,002
-178,256	668,656	-0,104	-0,194
-177,242	162,435	0,055	0,055
-176,227	800,000	0,058	0,146
-175,212	-40,324	0,054	0,020
-174,198	-200,000	-0,026	0,101
-173,183	-200,000	-0,027	-0,120
-172,169	-200,000	0,002	0,105
-171,154	455,264	0,048	0,077
-170,139	-135,326	0,061	0,005
-169,125	-200,000	-0,016	-0,058
-168,110	800,000	-0,023	0,049
-167,096	-200,000	0,002	0,066
-166,081	800,000	-0,059	-0,148
-165,066	183,282	0,034	-0,037
-164,052	119,798	-0,043	0,039
-163,037	-68,344	0,143	0,040
-162,023	-112,655	0,066	0,009
-161,008	-88,059	-0,005	0,001
-159,993	-200,000	0,017	0,062
-158,979	26,494	-0,070	-0,042
-157,964	-200,000	-0,002	-0,033
-156,950	800,000	0,030	-0,062
-155,935	800,000	-0,033	-0,068
-154,920	-30,572	0,058	-0,024
-153,906	800,000	0,011	-0,032
-152,891	501,187	0,024	-0,040
-151,877	35,515	0,079	-0,049
-150,862	800,000	-0,045	-0,092
-149,847	-116,184	0,154	-0,020
-148,833	-84,376	-0,039	-0,009
-147,818	-20,297	0,171	0,075
-146,804	265,046	0,015	0,019
-145,789	-200,000	0,008	0,057
-144,775	18,371	-0,010	0,006
-143,760	-47,205	-0,046	-0,016
-142,745	-200,000	0,017	-0,116
-141,731	83,298	-0,018	-0,014
-140,716	-200,000	0,000	-0,193
-139,702	177,091	0,098	-0,103
-138,687	800,000	-0,011	-0,025
-137,672	-200,000	0,006	0,024
-136,658	-200,000	-0,010	0,073
-135,643	-27,592	-0,071	-0,030
-134,629	-145,739	0,028	0,002
-133,614	-200,000	0,011	0,160
-132,599	800,000	0,022	0,044
-131,585	106,150	-0,052	-0,044
-130,570	800,000	-0,037	0,094
-129,556	-200,000	-0,020	-0,123
-128,541	72,757	-0,262	-0,196
-127,526	800,000	0,027	0,072
-126,512	800,000	0,046	-0,112
-125,497	114,504	-0,061	-0,053
-124,483	53,098	0,081	0,056
-123,468	-200,000	-0,028	0,115
-122,453	800,000	0,037	0,094
-121,439	42,527	0,054	0,035
-120,424	93,233	0,053	0,043
-119,410	329,112	0,054	-0,075
