DTS Sentinel unit serial number:	SN410029Multiplexer serial number:	ORYXHardware model number:	OX2-SRSoftware version number:	ORYX F/W v4,00 Oryx Data Collector v3.7.2.0data status	okinstallation	B6 Nyhavnadifferential loss correction	single-endedforward channel	channel 2reverse channel	N/Adate	2023/12/11time	00:25:08forward acquisition time	300,00reverse acquisition time	0,00gamma	499,1914k internal	0,3122k external	0,3122temperature offset calibration	1,0000default loss term (dB/km)	0,3820temperature slope calibration	1,0000multiplexer offset coefficient	1,0000multiplexer slope coefficient	1,0000fibre end	0,00T internal ref (°C)	22,34T ext. ref 1 (°C)	5,84T ext. ref 2 (°C)	5,87length (m)	temperature (°C)	Stokes	anti-Stokes-744,400	53,193	0,155	-0,110
-743,385	-141,167	-0,157	0,012
-742,371	178,290	0,073	-0,080
-741,356	306,470	-0,213	0,296
-740,342	555,351	-0,032	-0,058
-739,327	800,000	-0,090	0,254
-738,312	4,101	0,085	0,046
-737,298	50,977	-0,238	-0,168
-736,283	-200,000	-0,026	-0,091
-735,269	118,289	-0,201	0,185
-734,254	-92,785	-0,075	-0,015
-733,239	-109,771	-0,328	-0,051
-732,225	18,348	-0,053	0,031
-731,210	59,946	0,147	0,108
-730,196	416,995	0,035	0,055
-729,181	123,075	-0,066	0,062
-728,167	70,296	0,061	0,047
-727,152	800,000	-0,096	0,212
-726,137	102,619	-0,077	-0,067
-725,123	68,649	-0,062	0,047
-724,108	252,750	-0,044	-0,056
-723,094	90,630	-0,082	-0,068
-722,079	-200,000	-0,004	0,041
-721,064	40,862	0,032	-0,021
-720,050	-104,551	-0,046	0,008
-719,035	-200,000	-0,127	0,000
-718,021	423,058	-0,094	0,151
-717,006	-140,165	-0,133	-0,010
-715,991	6,874	-0,076	-0,042
-714,977	83,678	-0,103	-0,083
-713,962	19,632	0,123	-0,074
-712,948	-200,000	-0,011	-0,091
-711,933	-4,520	0,132	-0,068
-710,918	118,668	-0,068	-0,063
-709,904	114,963	-0,096	-0,087
-708,889	-129,077	-0,068	-0,007
-707,875	-61,980	0,129	-0,040
-706,860	800,000	0,049	-0,102
-705,845	800,000	-0,022	0,053
-704,831	-200,000	0,004	0,035
-703,816	180,244	-0,092	0,100
-702,802	-157,520	-0,108	0,005
-701,787	-200,000	0,055	-0,198
-700,772	4,177	-0,037	-0,020
-699,758	-200,000	-0,002	-0,032
-698,743	-200,000	-0,019	-0,102
-697,729	-200,000	-0,011	0,046
-696,714	-53,568	-0,057	0,019
-695,699	-200,000	-0,024	-0,175
-694,685	-163,839	0,095	0,003
-693,670	-121,405	-0,184	-0,022
-692,656	6,794	-0,093	0,051
-691,641	-144,252	0,154	-0,011
-690,627	-60,528	0,060	0,019
-689,612	-200,000	0,011	0,046
-688,597	-159,181	-0,121	-0,005
-687,583	147,018	-0,067	-0,067
-686,568	-39,813	-0,112	0,044
-685,554	-200,000	0,002	-0,042
-684,539	-54,282	0,091	-0,031
-683,524	-200,000	-0,030	-0,100
-682,510	33,731	-0,108	0,070
-681,495	-200,000	0,005	-0,097
-680,481	-55,325	-0,056	0,019
-679,466	254,045	-0,056	-0,071
-678,451	42,398	0,055	-0,037
-677,437	-200,000	-0,000	-0,056
-676,422	-200,000	-0,007	0,071
-675,408	-55,471	-0,126	0,042
-674,393	-103,359	-0,090	-0,016
-673,378	216,345	0,044	-0,052
-672,364	-200,000	0,023	0,080
-671,349	74,371	0,020	-0,016
-670,335	-200,000	0,006	-0,062
-669,320	474,434	-0,024	0,040
-668,305	-200,000	-0,027	0,142
-667,291	569,824	-0,021	-0,038
-666,276	-41,055	-0,071	-0,027
-665,262	800,000	-0,066	-0,180
-664,247	-200,000	-0,025	-0,090
-663,232	800,000	-0,018	0,056
-662,218	410,972	-0,060	0,095
-661,203	-200,000	0,014	0,150
-660,189	800,000	-0,045	0,095
-659,174	404,698	-0,111	-0,174
-658,159	-200,000	0,017	-0,060
-657,145	-65,895	-0,071	0,021
-656,130	208,626	0,021	0,024
-655,116	15,917	0,119	-0,069
-654,101	-114,332	0,080	0,011
-653,086	-47,451	0,067	0,024
-652,072	-128,357	-0,092	0,010
-651,057	225,942	-0,081	-0,098
-650,043	-107,597	-0,081	0,013
-649,028	-200,000	-0,031	-0,206
-648,014	-200,000	-0,009	0,072
-646,999	134,113	-0,032	0,030
-645,984	-27,297	-0,054	0,023
-644,970	-191,665	-0,040	0,000
-643,955	800,000	-0,040	0,090
-642,941	-3,126	-0,120	-0,062
-641,926	10,762	0,084	-0,048
-640,911	800,000	-0,015	-0,045
-639,897	800,000	-0,020	0,061
-638,882	23,114	0,117	0,071
-637,868	17,351	-0,190	-0,112
-636,853	114,519	-0,165	-0,150
-635,838	-67,790	-0,137	-0,040
-634,824	306,859	-0,039	-0,055
-633,809	-200,000	-0,013	0,057
-632,795	502,356	-0,053	0,092
-631,780	-105,416	0,087	0,014
-630,765	-200,000	0,022	-0,077
-629,751	-200,000	-0,019	-0,068
-628,736	22,159	0,075	0,045
-627,722	-200,000	-0,004	-0,173
-626,707	-200,000	-0,020	-0,206
-625,692	-131,190	-0,157	0,015
-624,678	31,044	0,055	0,035
-623,663	-197,095	-0,045	0,000
-622,649	248,526	0,035	-0,044
-621,634	225,782	-0,043	-0,052
-620,619	84,498	0,019	0,016
-619,605	-200,000	-0,009	0,044
-618,590	125,752	0,051	0,048
-617,576	-120,546	-0,117	0,015
-616,561	800,000	0,012	-0,029
-615,546	242,965	-0,085	-0,106
-614,532	255,343	-0,061	-0,078
-613,517	-121,241	-0,115	-0,014
-612,503	14,377	0,045	0,026
-611,488	-200,000	-0,016	0,078
-610,474	273,690	0,019	0,025
-609,459	-42,991	-0,165	-0,062
-608,444	24,716	0,041	-0,025
-607,430	306,375	-0,053	-0,073
-606,415	126,930	0,007	0,007
-605,401	-104,290	0,134	0,023
-604,386	37,273	0,179	0,117
-603,371	800,000	0,037	0,109
-602,357	-108,027	0,048	0,008
-601,342	-196,527	-0,091	-0,000
-600,328	127,900	-0,104	-0,099
-599,313	-117,627	-0,088	-0,012
-598,298	-200,000	0,013	0,097
-597,284	-109,066	0,103	-0,016
-596,269	-200,000	0,042	0,204
-595,255	575,278	0,038	0,069
-594,240	12,268	0,019	0,011
-593,225	-68,963	-0,070	-0,020
-592,211	-63,040	-0,103	0,031
-591,196	34,666	0,011	-0,007
-590,182	800,000	-0,036	0,086
-589,167	800,000	0,023	0,072
-588,152	-22,025	-0,091	-0,041
-587,138	-146,160	-0,155	-0,010
-586,123	800,000	0,018	-0,039
-585,109	80,422	0,061	-0,048
-584,094	800,000	-0,016	-0,049
-583,079	383,036	0,049	0,075
-582,065	-200,000	0,002	-0,068
-581,050	394,496	-0,043	-0,066
-580,036	-200,000	0,028	0,111
-579,021	581,971	0,030	0,056
-578,006	-71,841	-0,072	-0,020
-576,992	375,764	-0,022	0,034
-575,977	-56,856	0,078	-0,026
-574,963	-51,402	0,129	0,045
-573,948	209,699	0,042	-0,049
-572,934	299,424	-0,078	0,107
-571,919	-117,012	0,008	-0,001
-570,904	240,942	-0,041	-0,051
-569,890	800,000	0,033	0,091
-568,875	-38,763	0,139	0,054
-567,861	-144,043	-0,040	-0,003
-566,846	-77,826	0,078	-0,020
-565,831	800,000	0,046	-0,112
-564,817	-24,529	-0,123	-0,054
-563,802	85,122	-0,101	0,082
-562,788	-99,710	-0,069	-0,013
-561,773	52,433	0,042	0,030
-560,758	236,242	-0,032	0,039
-559,744	-71,579	0,122	0,034
-558,729	-200,000	-0,013	0,089
-557,715	-66,959	-0,028	0,008
-556,700	-200,000	0,003	-0,096
-555,685	-200,000	-0,012	-0,139
-554,671	800,000	-0,024	-0,061
-553,656	-36,994	0,072	0,029
-552,642	-200,000	-0,024	0,096
-551,627	-18,951	-0,060	-0,027
-550,612	228,140	-0,108	-0,130
-549,598	114,437	-0,048	0,043
-548,583	-49,714	0,126	-0,044
-547,569	800,000	-0,007	-0,014
-546,554	800,000	0,037	-0,103
-545,539	-200,000	0,007	0,034
-544,525	-200,000	0,011	-0,109
-543,510	-136,857	-0,067	-0,006
-542,496	289,350	0,090	0,122
-541,481	-120,186	0,128	0,016
-540,466	73,718	0,086	0,067
-539,452	-96,267	-0,077	0,015
-538,437	-200,000	-0,008	0,028
-537,423	-200,000	0,036	0,150
-536,408	-95,867	0,060	0,012
-535,393	56,249	-0,033	0,024
-534,379	800,000	-0,034	-0,078
-533,364	-65,781	0,078	-0,023
-532,350	544,774	0,022	-0,038
-531,335	484,998	0,016	-0,027
-530,321	50,705	-0,110	0,077
-529,306	23,212	0,188	0,114
-528,291	800,000	-0,042	-0,134
-527,277	800,000	0,015	-0,034
-526,262	-96,808	-0,067	0,013
-525,248	-76,725	-0,137	-0,035
-524,233	243,211	0,033	0,040
-523,218	278,249	-0,074	0,097
-522,204	800,000	-0,020	0,058
-521,189	673,751	-0,023	0,044
-520,175	-88,228	-0,104	-0,023
-519,160	2,215	0,063	-0,034
-518,145	170,586	0,016	-0,017
-517,131	-200,000	-0,003	0,031
-516,116	6,115	0,090	-0,049
-515,102	-200,000	-0,008	0,142
-514,087	-200,000	0,004	0,105
-513,072	159,295	0,034	0,035
-512,058	283,366	0,013	0,017
-511,043	484,488	-0,024	0,041
-510,029	-110,578	-0,012	0,002
-509,014	-32,866	0,062	-0,026
-507,999	-133,827	0,094	-0,009
-506,985	385,002	-0,048	0,073
-505,970	800,000	-0,019	-0,051
-504,956	-72,655	-0,108	-0,029
-503,941	-200,000	0,017	-0,081
-502,926	800,000	0,031	0,071
-501,912	371,822	0,073	-0,110
-500,897	800,000	-0,036	0,107
-499,883	-66,235	0,053	0,015
-498,868	-200,000	-0,008	-0,045
-497,853	-200,000	0,019	0,098
-496,839	-200,000	0,000	0,016
-495,824	-200,000	0,006	0,036
-494,810	6,255	-0,090	0,049
-493,795	-28,548	0,127	0,054
-492,781	800,000	0,031	-0,071
-491,766	-68,098	0,053	0,015
-490,751	-200,000	0,027	-0,094
-489,737	-101,981	-0,045	-0,008
-488,722	-200,000	-0,002	-0,072
-487,708	-150,990	-0,130	0,007
-486,693	800,000	0,049	0,148
-485,678	366,174	-0,065	0,097
-484,664	118,112	-0,043	-0,039
-483,649	37,663	0,067	0,044
-482,635	-142,270	-0,043	-0,003
-481,620	-0,742	0,148	0,077
-480,605	-200,000	0,004	-0,048
-479,591	577,923	0,105	0,189
-478,576	-74,779	-0,148	0,039
-477,562	159,923	-0,031	-0,032
-476,547	-19,398	-0,067	-0,030
-475,532	-200,000	-0,014	-0,071
-474,518	63,075	0,084	0,062
-473,503	-200,000	0,018	0,063
-472,489	-73,066	-0,011	-0,003
-471,474	386,981	-0,059	-0,090
-470,459	-11,811	0,010	0,005
-469,445	-41,811	0,074	-0,028
-468,430	800,000	-0,024	-0,069
-467,416	-200,000	-0,016	0,058
-466,401	84,002	0,101	0,081
-465,386	161,449	-0,027	0,028
-464,372	-32,140	-0,045	-0,019
-463,357	613,998	-0,039	0,071
-462,343	137,296	-0,038	-0,036
-461,328	799,318	0,053	-0,108
-460,313	-114,419	-0,030	-0,004
-459,299	-109,175	0,045	-0,007
-458,284	800,000	-0,052	0,116
-457,270	-78,513	0,081	0,020
-456,255	-200,000	-0,020	0,105
-455,241	-177,733	-0,055	0,001
-454,226	-25,887	-0,070	0,030
-453,211	331,870	0,011	0,015
-452,197	354,309	0,077	0,113
-451,182	-200,000	0,020	0,142
-450,168	-200,000	-0,007	0,044
-449,153	61,933	-0,105	-0,077
-448,138	-178,473	-0,061	-0,001
-447,124	-105,566	0,042	-0,007
-446,109	-131,940	-0,152	-0,014
-445,095	-200,000	0,004	0,014
-444,080	-157,599	0,109	0,005
-443,065	800,000	-0,053	0,118
-442,051	54,236	-0,072	0,051
-441,036	71,694	0,123	-0,094
-440,022	800,000	-0,028	0,078
-439,007	-200,000	-0,034	0,142
-437,992	28,794	0,140	0,087
-436,978	-65,337	-0,079	0,023
-435,963	108,188	0,089	-0,078
-434,949	800,000	-0,030	-0,088
-433,934	800,000	0,057	-0,158
-432,919	375,345	-0,023	-0,035
-431,905	-149,481	0,006	-0,000
-430,890	-54,530	-0,112	-0,037
-429,876	289,491	0,036	0,049
-428,861	-10,385	0,041	0,020
-427,846	126,907	-0,105	-0,098
-426,832	-24,620	-0,124	-0,054
-425,817	39,396	-0,095	-0,063
-424,803	-79,437	0,074	-0,018
-423,788	-200,000	0,004	0,027
-422,773	73,288	0,065	0,050
-421,759	268,620	-0,051	-0,066
-420,744	-73,652	0,120	-0,032
-419,730	-129,573	0,090	0,009
-418,715	172,804	0,012	-0,013
-417,701	800,000	-0,059	-0,133
-416,686	-200,000	0,023	-0,106
-415,671	-163,551	-0,100	0,003
-414,657	-200,000	0,024	0,111
-413,642	75,273	-0,077	-0,059
-412,628	334,652	0,025	-0,036
-411,613	-98,978	0,044	0,008
-410,598	-117,012	0,038	0,005
-409,584	-200,000	-0,021	0,076
-408,569	-70,628	0,065	0,018
-407,555	3,389	0,052	-0,028
-406,540	-200,000	-0,008	-0,050
-405,525	11,362	-0,073	-0,041
-404,511	225,109	0,077	-0,091
-403,496	-54,665	-0,130	-0,043
-402,482	800,000	-0,033	0,077
-401,467	-99,420	0,106	-0,019
-400,452	-3,676	-0,098	-0,050
-399,438	-130,704	-0,033	0,003
-398,423	-107,353	0,117	0,019
-397,409	-200,000	0,020	-0,087
-396,394	227,529	0,024	-0,029
-395,379	800,000	0,036	0,076
-394,365	71,159	0,032	0,024
-393,350	-10,143	0,094	0,046
-392,336	-101,798	0,088	0,016
-391,321	66,779	-0,037	-0,028
-390,306	157,890	-0,056	-0,057
-389,292	-70,818	-0,049	-0,013
-388,277	177,204	0,025	0,027
-387,263	100,356	-0,076	0,065
-386,248	-200,000	-0,013	0,086
-385,233	-200,000	-0,033	0,161
-384,219	-115,891	-0,072	-0,010
-383,204	-200,000	-0,010	0,059
-382,190	39,786	-0,017	0,011
-381,175	800,000	0,026	-0,058
-380,160	-4,309	0,117	-0,059
-379,146	-104,019	-0,063	0,011
-378,131	-123,439	0,124	0,014
-377,117	-110,707	-0,017	-0,003
-376,102	-200,000	0,008	-0,037
-375,088	-168,277	-0,060	-0,002
-374,073	-40,381	0,005	-0,002
-373,058	94,040	0,114	-0,095
-372,044	499,646	0,082	-0,140
-371,029	-3,275	0,020	0,010
-370,015	370,353	-0,039	0,059
-369,000	-92,333	-0,078	0,016
-367,985	-200,000	-0,016	0,143
-366,971	146,279	-0,075	-0,074
-365,956	-200,000	-0,019	0,075
-364,942	-200,000	-0,007	0,055
-363,927	800,000	0,002	-0,006
-362,912	-67,845	-0,042	0,012
-361,898	110,489	-0,092	-0,081
-360,883	-44,316	-0,016	0,006
-359,869	70,866	-0,062	-0,047
-358,854	-169,961	0,195	-0,005
-357,839	-18,452	0,025	-0,011
-356,825	-200,000	-0,002	0,065
-355,810	47,088	-0,026	0,018
-354,796	314,841	0,059	0,081
-353,781	-200,000	-0,040	-0,156
-352,766	-80,983	0,031	-0,008
-351,752	-100,272	0,052	0,009
-350,737	800,000	-0,037	-0,112
-349,723	-41,488	0,127	0,048
-348,708	-85,922	-0,045	0,010
-347,693	451,106	-0,055	-0,090
-346,679	-200,000	0,024	-0,184
-345,664	-200,000	-0,017	-0,120
-344,650	340,198	0,039	-0,056
-343,635	-126,898	0,184	0,020
-342,620	67,114	-0,010	0,008
-341,606	800,000	0,085	0,201
-340,591	-200,000	-0,004	-0,057
-339,577	154,169	0,027	-0,027
-338,562	800,000	-0,084	-0,228
-337,548	118,586	0,060	-0,054
-336,533	-200,000	-0,027	0,098
-335,518	66,450	0,081	0,061
-334,504	-165,120	0,110	-0,003
-333,489	-135,180	-0,108	0,009
-332,475	444,710	-0,071	-0,115
-331,460	141,248	-0,037	-0,036
-330,445	45,673	0,021	0,014
-329,431	800,000	0,008	0,019
-328,416	-83,514	0,065	0,015
-327,402	-19,064	0,078	-0,035
-326,387	317,480	-0,055	-0,077
-325,372	117,459	-0,036	0,033
-324,358	800,000	-0,018	0,054
-323,343	-71,191	0,060	0,017
-322,329	-200,000	0,016	0,120
-321,314	800,000	0,056	0,152
-320,299	6,720	0,145	0,079
-319,285	-200,000	0,010	0,117
-318,270	381,626	-0,036	-0,055
-317,256	611,979	-0,024	0,044
-316,241	-200,000	-0,001	-0,023
-315,226	76,360	0,030	0,023
-314,212	75,557	0,190	0,147
-313,197	-157,368	0,127	-0,006
-312,183	-44,430	0,071	-0,026
-311,168	-63,904	-0,091	-0,027
-310,153	-65,255	0,050	-0,015
-309,139	-200,000	0,025	-0,113
-308,124	-23,367	-0,116	0,051
-307,110	800,000	-0,021	0,059
-306,095	57,646	0,091	0,065
-305,080	-59,243	-0,075	0,024
-304,066	-4,918	-0,119	-0,060
-303,051	-200,000	0,011	-0,103
-302,037	558,459	0,039	-0,070
-301,022	-200,000	-0,002	-0,075
-300,008	-200,000	-0,012	-0,097
-298,993	116,621	0,167	-0,150
-297,978	800,000	-0,020	-0,052
-296,964	-40,316	0,009	0,003
-295,949	-62,513	-0,188	0,057
-294,935	-63,971	-0,095	0,028
-293,920	-67,558	-0,105	-0,030
-292,905	-53,545	0,085	0,028
-291,891	-113,423	0,060	0,008
-290,876	574,567	0,049	0,087
-289,862	-200,000	-0,002	-0,116
-288,847	72,984	-0,011	-0,008
-287,832	-200,000	0,015	-0,146
-286,818	-200,000	0,029	-0,101
-285,803	71,162	0,099	-0,075
-284,789	-117,687	0,108	0,014
-283,774	-62,122	0,124	0,038
-282,759	777,895	0,005	0,010
-281,745	-200,000	0,012	-0,069
-280,730	12,188	0,030	-0,017
-279,716	152,025	0,022	-0,022
-278,701	-112,412	0,042	-0,006
-277,686	18,539	0,128	0,075
-276,672	800,000	0,024	0,050
-275,657	800,000	-0,042	-0,088
-274,643	193,422	0,030	0,034
-273,628	-200,000	0,035	0,125
-272,613	-200,000	-0,001	-0,074
-271,599	-122,710	0,142	0,017
-270,584	253,481	0,018	0,022
-269,570	800,000	0,037	-0,101
-268,555	125,882	0,064	0,059
-267,540	28,601	-0,024	-0,015
-266,526	-200,000	-0,015	-0,092
-265,511	800,000	-0,008	-0,022
-264,497	14,213	0,077	-0,044
-263,482	800,000	0,044	-0,105
-262,467	-200,000	0,018	0,096
-261,453	-84,002	0,070	0,016
-260,438	-200,000	0,005	-0,024
-259,424	-57,222	0,107	-0,034
-258,409	800,000	0,026	0,061
-257,395	-200,000	-0,034	-0,112
-256,380	-200,000	-0,040	0,135
-255,365	144,335	0,188	0,183
-254,351	-7,718	-0,077	-0,038
-253,336	157,394	-0,156	-0,158
-252,322	63,435	-0,123	0,090
-251,307	-200,000	0,006	-0,036
-250,292	-169,210	-0,049	0,001
-249,278	467,748	0,086	0,141
-248,263	-3,018	-0,025	0,013
-247,249	69,022	-0,110	0,083
-246,234	133,387	-0,050	0,047
-245,219	133,467	-0,058	-0,055
-244,205	-23,828	0,075	0,032
-243,190	74,846	0,075	0,058
-242,176	159,575	-0,024	0,024
-241,161	800,000	0,018	0,055
-240,146	-200,000	-0,017	-0,135
-239,132	116,122	-0,070	-0,063
-238,117	-50,302	-0,141	-0,049
-237,103	-35,284	-0,140	-0,056
-236,088	800,000	-0,034	0,076
-235,073	168,215	-0,052	0,054
-234,059	161,304	0,056	-0,057
-233,044	800,000	-0,051	0,107
-232,030	-145,035	-0,050	-0,003
-231,015	374,222	-0,114	-0,170
-230,000	531,862	0,085	-0,148
-228,986	-200,000	-0,006	-0,064
-227,971	319,248	0,090	0,125
-226,957	323,255	0,128	0,179
-225,942	-200,000	-0,003	0,041
-224,927	386,379	-0,051	0,077
-223,913	-21,908	-0,017	0,007
-222,898	190,876	-0,062	-0,069
-221,884	283,206	0,065	0,086
-220,869	160,596	0,090	0,092
-219,855	115,949	-0,076	0,068
-218,840	419,265	-0,054	0,085
-217,825	-124,191	-0,066	0,007
-216,811	-59,903	0,073	-0,023
-215,796	114,951	-0,018	-0,016
-214,782	-28,302	0,090	-0,038
-213,767	104,224	0,116	-0,099
-212,752	-72,683	-0,039	0,010
-211,738	85,726	-0,056	-0,045
-210,723	256,243	0,014	-0,017
-209,709	-200,000	-0,011	-0,094
-208,694	147,061	-0,070	-0,069
-207,679	-123,866	-0,093	-0,011
-206,665	800,000	0,050	0,132
-205,650	-200,000	0,016	0,078
-204,636	-174,041	0,050	0,001
-203,621	-110,435	-0,110	-0,017
-202,606	-7,971	-0,039	-0,019
-201,592	-25,273	-0,113	-0,049
-200,577	425,398	0,013	-0,021
-199,563	31,237	-0,100	-0,063
-198,548	-200,000	0,021	-0,156
-197,533	66,167	0,060	0,044
-196,519	-89,553	0,098	0,021
-195,504	89,251	0,099	0,081
-194,490	-200,000	0,021	-0,114
-193,475	21,027	-0,055	-0,032
-192,460	-200,000	0,006	-0,062
-191,446	-106,639	0,036	-0,006
-190,431	788,668	0,054	0,108
-189,417	800,000	-0,052	0,145
-188,402	59,647	0,010	-0,007
-187,387	-200,000	0,006	0,025
-186,373	55,200	-0,050	-0,035
-185,358	-200,000	0,009	0,088
-184,344	-200,000	-0,001	-0,042
-183,329	-80,696	0,144	0,035
-182,315	501,787	-0,088	0,149
-181,300	-53,665	-0,081	-0,027
-180,285	-200,000	0,026	-0,152
-179,271	-200,000	0,007	-0,061
-178,256	-63,072	-0,156	-0,047
-177,242	62,584	-0,061	0,044
-176,227	237,894	-0,052	0,064
-175,212	800,000	0,015	0,036
-174,198	-187,677	0,123	0,001
-173,183	35,721	-0,236	-0,151
-172,169	-200,000	-0,020	0,112
-171,154	-25,935	-0,038	-0,016
-170,139	-200,000	0,031	0,119
-169,125	800,000	0,025	-0,071
-168,110	37,990	-0,116	0,075
-167,096	214,200	-0,078	-0,090
-166,081	-121,633	-0,044	0,005
-165,066	-65,819	-0,042	-0,012
-164,052	147,904	0,020	-0,020
-163,037	-42,274	0,065	0,024
-162,023	86,815	0,066	-0,053
-161,008	18,267	-0,065	0,037
-159,993	214,029	0,106	0,122
-158,979	-200,000	0,036	-0,120
-157,964	63,470	-0,115	0,084
-156,950	19,094	-0,055	-0,032
-155,935	-56,974	0,046	0,015
-154,920	-6,621	0,059	-0,029
-153,906	76,034	0,097	-0,075
-152,891	284,250	0,047	-0,062
-151,877	-200,000	0,037	0,135
-150,862	800,000	-0,023	-0,062
-149,847	205,352	-0,045	0,051
-148,833	565,226	-0,048	0,086
-147,818	125,209	0,095	0,088
-146,804	-13,269	-0,067	-0,031
-145,789	-200,000	0,001	0,064
-144,775	-198,393	-0,131	0,001
-143,760	2,416	-0,024	-0,012
-142,745	8,400	-0,005	0,003
-141,731	619,065	0,052	-0,095
-140,716	-200,000	0,023	-0,102
-139,702	-140,582	0,134	-0,010
-138,687	800,000	-0,038	0,091
-137,672	-200,000	-0,045	0,153
-136,658	800,000	0,023	0,048
-135,643	-146,555	-0,126	0,008
-134,629	6,156	-0,094	-0,050
-133,614	-200,000	0,002	-0,078
-132,599	112,442	0,067	0,059
-131,585	-200,000	-0,011	0,041
-130,570	208,237	0,075	-0,085
-129,556	-200,000	-0,009	-0,131
-128,541	93,904	0,016	-0,013
-127,526	457,918	0,062	0,101
-126,512	18,242	0,026	0,015
-125,497	-200,000	-0,002	0,102
-124,483	764,568	0,044	0,086
-123,468	12,491	0,133	0,074
-122,453	121,400	0,055	-0,049
-121,439	-200,000	-0,010	0,068
-120,424	263,916	-0,062	-0,079
-119,410	72,933	-0,020	0,015
