DTS Sentinel unit serial number:	SN410029Multiplexer serial number:	ORYXHardware model number:	OX2-SRSoftware version number:	ORYX F/W v4,00 Oryx Data Collector v3.7.2.0data status	okinstallation	B6 Nyhavnadifferential loss correction	single-endedforward channel	channel 2reverse channel	N/Adate	2023/12/09time	11:10:08forward acquisition time	300,00reverse acquisition time	0,00gamma	499,1914k internal	0,3139k external	0,3139temperature offset calibration	1,0000default loss term (dB/km)	0,3820temperature slope calibration	1,0000multiplexer offset coefficient	1,0000multiplexer slope coefficient	1,0000fibre end	0,00T internal ref (°C)	18,74T ext. ref 1 (°C)	2,60T ext. ref 2 (°C)	2,59length (m)	temperature (°C)	Stokes	anti-Stokes-744,400	652,338	0,032	-0,062
-743,385	42,041	-0,165	0,111
-742,371	-200,000	-0,003	0,078
-741,356	5,919	-0,249	0,137
-740,342	-200,000	-0,025	0,136
-739,327	-78,865	-0,275	0,069
-738,312	-107,896	-0,016	-0,003
-737,298	-66,187	-0,235	0,069
-736,283	-126,694	0,072	-0,008
-735,269	-52,950	-0,233	0,079
-734,254	-29,514	0,054	0,023
-733,239	-38,042	-0,493	-0,193
-732,225	-168,619	0,264	-0,007
-731,210	136,166	0,070	-0,067
-730,196	-161,605	0,126	-0,005
-729,181	-200,000	-0,001	-0,039
-728,167	800,000	-0,008	-0,025
-727,152	113,092	0,129	0,116
-726,137	-152,760	-0,134	-0,007
-725,123	45,030	-0,058	-0,040
-724,108	-200,000	0,018	-0,186
-723,094	43,032	-0,107	-0,072
-722,079	240,143	0,056	-0,069
-721,064	-18,015	0,106	-0,049
-720,050	71,162	-0,059	-0,045
-719,035	161,484	0,048	-0,050
-718,021	-142,133	-0,089	0,006
-717,006	-200,000	-0,005	-0,096
-715,991	-200,000	-0,016	-0,075
-714,977	104,761	-0,139	-0,121
-713,962	784,078	0,055	0,111
-712,948	-43,007	0,105	-0,039
-711,933	102,076	-0,073	0,063
-710,918	-27,367	0,071	0,030
-709,904	800,000	-0,047	-0,139
-708,889	-153,227	-0,205	-0,010
-707,875	18,455	-0,048	-0,028
-706,860	-47,839	-0,062	0,022
-705,845	-18,815	0,077	0,035
-704,831	-200,000	-0,010	-0,035
-703,816	800,000	-0,027	-0,060
-702,802	77,398	-0,070	-0,055
-701,787	304,815	-0,127	-0,175
-700,772	-46,907	0,011	0,004
-699,758	-140,543	-0,093	0,007
-698,743	274,154	-0,122	0,160
-697,729	-62,075	-0,173	0,053
-696,714	800,000	-0,040	-0,126
-695,699	11,932	-0,066	-0,038
-694,685	-200,000	0,008	-0,048
-693,670	800,000	-0,125	-0,264
-692,656	800,000	-0,065	-0,189
-691,641	-103,009	0,041	-0,007
-690,627	626,979	-0,031	0,058
-689,612	5,047	0,101	-0,055
-688,597	-56,842	-0,066	-0,021
-687,583	-200,000	0,001	-0,223
-686,568	-200,000	0,012	-0,107
-685,554	752,284	0,026	-0,053
-684,539	776,049	-0,078	-0,158
-683,524	-33,604	-0,146	0,060
-682,510	-200,000	0,021	-0,074
-681,495	677,139	0,043	-0,083
-680,481	342,006	-0,046	0,067
-679,466	-98,276	0,053	-0,010
-678,451	191,468	-0,125	-0,139
-677,437	800,000	0,045	-0,107
-676,422	26,001	0,042	0,026
-675,408	90,685	-0,029	0,024
-674,393	-84,123	-0,084	0,020
-673,378	-75,307	-0,108	-0,028
-672,364	107,368	-0,056	-0,049
-671,349	-68,140	-0,076	0,022
-670,335	-130,902	-0,099	0,010
-669,320	-200,000	0,016	-0,131
-668,305	-29,936	0,066	0,028
-667,291	800,000	-0,011	-0,031
-666,276	800,000	0,020	0,042
-665,262	70,069	-0,096	0,073
-664,247	2,348	-0,122	-0,065
-663,232	-200,000	0,001	0,118
-662,218	511,574	0,057	0,099
-661,203	-120,980	-0,036	0,004
-660,189	-200,000	-0,009	0,032
-659,174	34,700	-0,035	-0,023
-658,159	-78,825	-0,182	-0,045
-657,145	800,000	-0,025	0,058
-656,130	3,188	-0,149	-0,080
-655,116	176,568	0,046	-0,049
-654,101	168,477	-0,021	-0,023
-653,086	208,959	-0,063	-0,073
-652,072	74,907	-0,052	-0,040
-651,057	166,039	-0,100	-0,105
-650,043	800,000	-0,004	-0,010
-649,028	-200,000	0,014	-0,201
-648,014	-200,000	-0,021	-0,217
-646,999	170,910	0,051	-0,054
-645,984	21,767	-0,021	-0,012
-644,970	800,000	-0,079	-0,173
-643,955	-54,417	0,081	0,027
-642,941	353,144	0,033	0,049
-641,926	-200,000	-0,010	0,107
-640,911	-200,000	0,007	-0,076
-639,897	-103,923	0,067	0,011
-638,882	91,809	0,050	-0,042
-637,868	-65,500	0,037	-0,011
-636,853	239,114	-0,051	0,063
-635,838	-10,777	-0,098	-0,048
-634,824	105,696	-0,047	0,041
-633,809	415,388	-0,052	0,083
-632,795	238,005	0,036	-0,044
-631,780	157,610	-0,068	-0,070
-630,765	271,701	-0,054	0,070
-629,751	800,000	-0,020	-0,049
-628,736	800,000	-0,014	0,041
-627,722	770,374	-0,046	-0,094
-626,707	-200,000	0,011	-0,091
-625,692	800,000	0,021	0,062
-624,678	-127,528	-0,032	-0,003
-623,663	18,048	-0,086	-0,050
-622,649	238,585	-0,031	0,038
-621,634	-9,247	0,127	-0,063
-620,619	800,000	0,037	-0,080
-619,605	-41,673	-0,021	0,008
-618,590	-200,000	0,026	-0,112
-617,576	328,950	0,013	-0,019
-616,561	65,962	0,026	0,019
-615,546	800,000	-0,058	-0,134
-614,532	800,000	0,026	-0,079
-613,517	-200,000	0,005	-0,067
-612,503	53,165	-0,039	-0,028
-611,488	28,321	-0,043	0,027
-610,474	-101,117	-0,085	0,015
-609,459	-171,682	0,115	0,003
-608,444	278,215	-0,054	-0,071
-607,430	-200,000	-0,008	-0,096
-606,415	-133,174	-0,085	0,008
-605,401	-11,117	-0,149	0,072
-604,386	-200,000	0,033	0,113
-603,371	800,000	0,057	-0,148
-602,357	30,336	0,043	0,027
-601,342	-21,015	-0,068	-0,031
-600,328	5,777	-0,187	-0,102
-599,313	-200,000	0,026	-0,129
-598,298	62,552	0,026	0,019
-597,284	-200,000	-0,002	-0,028
-596,269	-25,612	-0,112	0,049
-595,255	800,000	-0,026	0,072
-594,240	-101,531	-0,155	0,027
-593,225	-69,424	-0,062	-0,017
-592,211	-73,433	-0,021	0,006
-591,196	291,201	-0,082	0,110
-590,182	-200,000	0,004	-0,037
-589,167	214,556	-0,045	-0,053
-588,152	-93,920	-0,154	0,031
-587,138	-200,000	-0,001	0,055
-586,123	800,000	-0,025	-0,069
-585,109	-23,329	0,152	-0,067
-584,094	121,569	-0,071	0,065
-583,079	-14,427	0,047	-0,022
-582,065	-31,362	0,040	0,016
-581,050	101,328	-0,033	-0,028
-580,036	-63,300	-0,105	-0,032
-579,021	-156,936	-0,220	0,010
-578,006	670,985	-0,009	-0,018
-576,992	-200,000	0,001	0,005
-575,977	509,451	0,075	0,129
-574,963	800,000	0,030	0,079
-573,948	-200,000	-0,000	0,058
-572,934	377,388	-0,021	0,032
-571,919	-113,344	-0,031	0,004
-570,904	-200,000	0,005	-0,077
-569,890	-33,261	0,064	0,026
-568,875	800,000	-0,020	0,056
-567,861	176,406	0,125	0,134
-566,846	-200,000	0,017	0,067
-565,831	729,868	-0,076	-0,150
-564,817	2,289	0,120	0,064
-563,802	-200,000	0,011	-0,088
-562,788	800,000	-0,055	-0,125
-561,773	239,493	0,052	0,064
-560,758	6,278	0,132	0,072
-559,744	-200,000	-0,002	0,067
-558,729	357,049	0,063	-0,092
-557,715	-200,000	0,011	-0,070
-556,700	352,512	-0,027	0,039
-555,685	-20,592	-0,017	0,008
-554,671	-135,602	0,091	0,008
-553,656	94,344	0,112	-0,093
-552,642	17,118	0,078	-0,045
-551,627	145,749	0,072	0,071
-550,612	-39,666	-0,044	0,017
-549,598	380,640	-0,046	-0,070
-548,583	-172,935	0,022	-0,000
-547,569	15,276	-0,136	-0,078
-546,554	150,564	0,085	0,085
-545,539	243,313	-0,070	-0,087
-544,525	-169,519	0,071	0,002
-543,510	-200,000	-0,019	0,153
-542,496	670,144	-0,022	0,042
-541,481	-77,143	0,170	-0,043
-540,466	264,828	0,052	0,066
-539,452	-200,000	0,035	0,130
-538,437	244,442	0,046	0,057
-537,423	123,472	0,062	0,058
-536,408	-142,480	0,119	-0,008
-535,393	-200,000	0,012	-0,046
-534,379	1,828	0,046	0,025
-533,364	-117,332	-0,079	-0,010
-532,350	43,544	-0,055	0,037
-531,335	284,010	-0,049	0,065
-530,321	182,655	0,039	0,043
-529,306	800,000	0,034	0,079
-528,291	-11,419	-0,069	-0,033
-527,277	800,000	0,002	-0,007
-526,262	4,686	0,160	-0,086
-525,248	147,812	-0,098	-0,097
-524,233	-100,773	0,058	-0,010
-523,218	800,000	-0,041	-0,093
-522,204	-119,853	-0,019	0,002
-521,189	397,924	-0,040	0,062
-520,175	-200,000	-0,015	0,080
-519,160	-200,000	-0,009	-0,083
-518,145	-23,649	0,109	0,048
-517,131	78,451	-0,119	0,093
-516,116	-93,295	0,199	0,040
-515,102	800,000	-0,052	0,126
-514,087	219,260	-0,051	0,060
-513,072	48,908	-0,128	-0,088
-512,058	800,000	0,019	-0,044
-511,043	-200,000	0,011	-0,126
-510,029	-200,000	-0,003	-0,033
-509,014	-176,107	-0,015	0,000
-507,999	-88,135	0,069	-0,015
-506,985	560,260	-0,057	-0,101
-505,970	-200,000	-0,015	-0,102
-504,956	12,641	0,080	-0,045
-503,941	-200,000	-0,000	0,010
-502,926	57,414	0,110	0,079
-501,912	455,107	0,070	-0,114
-500,897	-50,027	0,107	0,037
-499,883	-7,559	-0,041	-0,020
-498,868	-93,536	0,059	-0,012
-497,853	238,777	-0,113	-0,138
-496,839	-200,000	0,001	0,030
-495,824	30,287	0,102	0,064
-494,810	800,000	-0,042	0,091
-493,795	46,420	0,029	-0,020
-492,781	-132,714	-0,052	-0,005
-491,766	248,918	-0,030	0,037
-490,751	46,413	0,093	0,063
-489,737	177,458	-0,063	0,068
-488,722	800,000	-0,021	0,060
-487,708	-58,843	0,134	0,042
-486,693	150,757	-0,089	0,089
-485,678	38,737	0,035	0,023
-484,664	317,744	-0,052	-0,073
-483,649	-29,173	-0,071	0,030
-482,635	-126,210	0,172	0,019
-481,620	-200,000	-0,006	0,040
-480,605	0,677	-0,071	-0,037
-479,591	503,788	0,031	0,053
-478,576	-90,203	0,048	-0,010
-477,562	-143,237	-0,080	-0,006
-476,547	800,000	-0,020	-0,041
-475,532	-145,020	0,030	0,002
-474,518	36,253	-0,016	-0,010
-473,503	189,811	0,044	-0,048
-472,489	800,000	0,069	-0,172
-471,474	-200,000	0,007	0,023
-470,459	-200,000	-0,027	-0,122
-469,445	-0,889	-0,209	-0,108
-468,430	-41,692	0,066	0,025
-467,416	-200,000	0,038	0,145
-466,401	-200,000	-0,008	-0,115
-465,386	57,273	0,088	0,063
-464,372	49,936	0,118	0,081
-463,357	137,379	-0,133	-0,128
-462,343	-200,000	0,000	-0,116
-461,328	-102,191	-0,097	0,017
-460,313	35,698	-0,062	-0,040
-459,299	-200,000	-0,003	0,056
-458,284	128,562	0,011	0,010
-457,270	123,591	0,046	0,042
-456,255	-200,000	0,007	0,028
-455,241	168,650	-0,067	-0,070
-454,226	361,384	-0,024	-0,036
-453,211	-7,843	0,031	-0,015
-452,197	-19,601	-0,077	-0,035
-451,182	-97,447	0,112	0,021
-450,168	213,139	0,041	0,048
-449,153	-73,020	-0,084	-0,022
-448,138	2,476	-0,111	-0,059
-447,124	-15,903	0,075	-0,035
-446,109	800,000	-0,011	-0,024
-445,095	800,000	0,027	-0,056
-444,080	147,113	0,095	0,094
-443,065	74,257	0,123	0,095
-442,051	158,449	-0,028	-0,028
-441,036	-84,250	-0,165	-0,038
-440,022	164,898	-0,075	-0,078
-439,007	-112,077	-0,131	0,019
-437,992	136,029	-0,020	0,019
-436,978	328,012	0,111	0,157
-435,963	-8,167	0,121	-0,060
-434,949	-101,732	-0,131	-0,023
-433,934	-119,933	-0,165	0,021
-432,919	13,375	-0,077	-0,044
-431,905	-141,233	-0,146	-0,011
-430,890	257,457	-0,053	0,067
-429,876	790,354	0,033	-0,066
-428,861	184,241	-0,092	0,100
-427,846	-200,000	-0,005	-0,054
-426,832	94,839	0,063	0,052
-425,817	432,275	-0,074	-0,119
-424,803	-200,000	-0,008	-0,062
-423,788	268,088	0,033	0,043
-422,773	41,280	-0,094	0,062
-421,759	124,820	0,011	0,010
-420,744	68,795	0,058	0,044
-419,730	-85,700	0,037	-0,008
-418,715	-200,000	-0,012	-0,080
-417,701	255,763	0,071	-0,089
-416,686	305,099	-0,066	-0,089
-415,671	-45,313	0,070	-0,025
-414,657	-200,000	0,002	-0,088
-413,642	-42,837	0,021	-0,008
-412,628	-9,450	-0,048	-0,023
-411,613	465,423	0,027	-0,045
-410,598	207,689	-0,027	-0,031
-409,584	392,027	-0,024	-0,036
-408,569	148,774	0,070	-0,069
-407,555	-200,000	-0,023	-0,157
-406,540	7,657	-0,142	0,078
-405,525	-200,000	-0,018	0,132
-404,511	-35,042	-0,155	-0,062
-403,496	800,000	0,054	-0,119
-402,482	800,000	-0,025	-0,069
-401,467	-77,770	-0,121	0,030
-400,452	323,604	0,054	0,076
-399,438	189,618	0,097	0,106
-398,423	134,732	-0,040	0,038
-397,409	800,000	-0,045	0,096
-396,394	-13,623	0,146	-0,069
-395,379	10,628	0,123	-0,069
-394,365	583,056	-0,018	0,032
-393,350	-200,000	-0,018	-0,087
-392,336	800,000	-0,054	-0,162
-391,321	-28,820	0,065	-0,027
-390,306	-200,000	0,012	0,055
-389,292	106,767	-0,076	-0,066
-388,277	-200,000	0,013	-0,070
-387,263	-200,000	0,026	0,097
-386,248	-52,145	0,063	0,021
-385,233	220,792	-0,081	0,095
-384,219	217,387	0,007	-0,009
-383,204	800,000	0,038	-0,089
-382,190	-79,479	-0,076	0,019
-381,175	-33,998	0,082	-0,033
-380,160	-56,924	-0,093	-0,030
-379,146	-200,000	-0,039	0,204
-378,131	-89,576	0,172	0,037
-377,117	-200,000	0,006	0,065
-376,102	1,654	-0,095	0,050
-375,088	5,746	0,024	-0,013
-374,073	800,000	0,061	-0,177
-373,058	-5,465	-0,033	-0,017
-372,044	331,187	0,036	0,050
-371,029	-200,000	0,004	0,038
-370,015	800,000	-0,011	-0,024
-369,000	-33,386	0,060	-0,024
-367,985	81,736	0,037	-0,029
-366,971	-200,000	-0,001	0,022
-365,956	-74,283	0,143	-0,037
-364,942	702,113	-0,017	-0,032
-363,927	-200,000	-0,000	0,101
-362,912	-200,000	0,005	0,043
-361,898	800,000	0,041	0,100
-360,883	-200,000	-0,001	-0,067
-359,869	421,712	0,030	-0,047
-358,854	-107,901	0,021	-0,003
-357,839	240,728	0,054	-0,066
-356,825	-103,541	0,071	-0,012
-355,810	579,232	0,074	-0,132
-354,796	99,185	0,047	0,039
-353,781	-200,000	0,012	-0,153
-352,766	142,298	0,049	0,047
-351,752	-200,000	-0,014	-0,049
-350,737	-200,000	0,002	0,065
-349,723	-200,000	0,038	0,152
-348,708	800,000	0,024	0,049
-347,693	-200,000	0,006	0,100
-346,679	-200,000	-0,002	-0,009
-345,664	171,693	0,053	-0,056
-344,650	-109,576	0,083	-0,013
-343,635	107,375	0,053	0,046
-342,620	620,885	0,040	-0,074
-341,606	800,000	0,012	0,027
-340,591	14,678	-0,205	-0,117
-339,577	-129,335	-0,105	0,011
-338,562	-47,493	0,108	0,038
-337,548	-136,154	-0,108	-0,009
-336,533	-128,924	0,090	0,009
-335,518	-200,000	-0,001	0,052
-334,504	-28,198	-0,104	0,043
-333,489	251,262	0,057	-0,071
-332,475	-200,000	0,021	-0,129
-331,460	-80,361	-0,075	0,018
-330,445	800,000	0,031	-0,092
-329,431	-68,655	0,220	-0,062
-328,416	-138,487	0,095	-0,007
-327,402	800,000	0,001	0,002
-326,387	222,538	0,083	0,098
-325,372	487,472	-0,028	0,046
-324,358	134,946	-0,040	-0,038
-323,343	170,852	-0,020	-0,021
-322,329	522,948	-0,030	-0,052
-321,314	800,000	-0,087	-0,220
-320,299	-200,000	0,040	0,000
-319,285	-200,000	-0,001	0,058
-318,270	74,083	-0,047	0,036
-317,256	-14,025	-0,055	-0,026
-316,241	-43,071	-0,172	-0,063
-315,226	-200,000	0,017	0,090
-314,212	-0,015	0,106	0,055
-313,197	800,000	0,061	0,148
-312,183	-200,000	-0,004	0,079
-311,168	-200,000	-0,007	-0,188
-310,153	266,666	0,017	0,022
-309,139	-55,773	-0,053	0,017
-308,124	4,257	0,125	0,066
-307,110	572,426	-0,065	-0,115
-306,095	-15,064	0,305	0,142
-305,080	-200,000	0,062	0,227
-304,066	490,992	-0,036	-0,061
-303,051	390,949	0,033	-0,050
-302,037	286,667	-0,091	-0,120
-301,022	-200,000	-0,018	0,148
-300,008	524,381	-0,026	-0,045
-298,993	800,000	-0,038	0,094
-297,978	254,049	-0,043	0,054
-296,964	-81,003	-0,060	-0,014
-295,949	133,803	0,087	0,083
-294,935	-31,112	-0,107	-0,044
-293,920	-70,267	0,109	-0,030
-292,905	64,425	0,126	0,092
-291,891	-200,000	-0,000	-0,029
-290,876	-94,619	0,078	-0,015
-289,862	-124,368	0,105	-0,012
-288,847	126,745	-0,054	-0,050
-287,832	800,000	-0,011	-0,025
-286,818	-123,287	0,050	0,006
-285,803	-162,533	-0,051	0,002
-284,789	-7,896	-0,065	0,032
-283,774	-200,000	-0,014	0,141
-282,759	126,468	0,085	-0,079
-281,745	-200,000	-0,014	0,085
-280,730	384,918	-0,128	-0,192
-279,716	-200,000	0,010	0,062
-278,701	6,155	0,132	0,071
-277,686	-200,000	0,016	0,075
-276,672	-200,000	0,009	0,046
-275,657	-82,765	0,047	0,011
-274,643	132,192	-0,148	-0,138
-273,628	565,573	0,120	-0,213
-272,613	-95,973	0,181	0,035
-271,599	-200,000	0,050	0,180
-270,584	-73,860	-0,100	-0,026
-269,570	244,159	-0,034	0,041
-268,555	-200,000	0,008	-0,066
-267,540	800,000	-0,054	0,119
-266,526	96,239	-0,098	-0,081
-265,511	-200,000	-0,029	-0,136
-264,497	71,936	-0,099	0,075
-263,482	-61,983	0,084	0,025
-262,467	800,000	0,048	0,125
-261,453	134,302	-0,052	0,049
-260,438	-200,000	0,000	-0,028
-259,424	-38,586	-0,035	-0,014
-258,409	252,435	0,102	-0,127
-257,395	49,245	0,100	-0,069
-256,380	183,366	-0,090	0,096
-255,365	-79,269	-0,032	0,008
-254,351	800,000	-0,050	-0,100
-253,336	130,516	0,117	-0,109
-252,322	124,644	-0,084	0,077
-251,307	368,879	0,026	0,038
-250,292	800,000	0,035	0,078
-249,278	-200,000	-0,005	0,085
-248,263	126,178	0,119	0,109
-247,249	52,237	-0,092	0,064
-246,234	-167,693	-0,082	0,002
-245,219	800,000	-0,075	-0,153
-244,205	-55,114	0,028	-0,009
-243,190	22,772	-0,059	0,035
-242,176	-200,000	0,012	-0,114
-241,161	-38,427	-0,037	0,014
-240,146	-98,479	-0,049	0,009
-239,132	22,361	0,042	-0,025
-238,117	-22,731	0,076	0,033
-237,103	-200,000	-0,016	0,150
-236,088	-2,567	0,038	-0,019
-235,073	328,620	-0,030	0,042
-234,059	-137,069	0,080	0,007
-233,044	-200,000	0,020	0,157
-232,030	-200,000	-0,023	0,113
-231,015	800,000	-0,017	0,053
-230,000	-69,466	-0,079	0,022
-228,986	-2,049	0,084	0,043
-227,971	21,897	-0,023	-0,014
-226,957	208,116	0,013	0,015
-225,942	568,296	-0,062	0,110
-224,927	799,632	0,016	0,031
-223,913	-200,000	0,037	-0,141
-222,898	228,480	-0,015	0,018
-221,884	-200,000	0,020	-0,077
-220,869	-47,262	0,134	0,047
-219,855	153,639	-0,015	0,015
-218,840	-200,000	-0,002	-0,040
-217,825	537,524	-0,081	0,141
-216,811	-200,000	0,008	-0,124
-215,796	247,380	-0,030	0,037
-214,782	-200,000	0,001	0,016
-213,767	-54,780	-0,135	-0,044
-212,752	800,000	0,021	0,050
-211,738	-19,684	-0,054	0,024
-210,723	-0,607	-0,018	0,009
-209,709	-162,360	0,138	0,005
-208,694	-200,000	-0,027	-0,111
-207,679	-153,689	-0,028	-0,001
-206,665	106,317	0,046	0,040
-205,650	-200,000	-0,021	0,068
-204,636	-200,000	-0,027	0,136
-203,621	170,759	0,067	-0,069
-202,606	43,995	-0,058	0,038
-201,592	-62,025	-0,027	-0,008
-200,577	71,619	0,022	-0,016
-199,563	-200,000	0,018	-0,080
-198,548	282,669	0,098	0,128
-197,533	800,000	0,045	0,102
-196,519	461,048	-0,027	-0,043
-195,504	235,896	-0,053	0,064
-194,490	-57,773	-0,112	0,035
-193,475	-200,000	0,001	-0,031
-192,460	-77,814	-0,146	-0,036
-191,446	-200,000	-0,009	-0,041
-190,431	288,117	0,052	-0,068
-189,417	-200,000	-0,005	0,099
-188,402	-50,510	-0,145	-0,049
-187,387	-200,000	0,016	-0,060
-186,373	200,460	-0,098	-0,109
-185,358	-125,379	0,095	-0,010
-184,344	-200,000	0,015	0,066
-183,329	170,752	0,027	0,029
-182,315	404,484	0,062	0,095
-181,300	-59,517	-0,123	0,038
-180,285	208,595	-0,040	-0,045
-179,271	-35,043	-0,026	-0,010
-178,256	117,944	0,127	-0,113
-177,242	-200,000	0,015	0,069
-176,227	-53,218	0,097	0,032
-175,212	-200,000	0,024	0,241
-174,198	-200,000	-0,038	0,210
-173,183	218,723	-0,035	-0,041
-172,169	19,250	-0,068	0,039
-171,154	800,000	0,036	0,104
-170,139	-99,845	-0,050	0,009
-169,125	50,130	0,025	0,017
-168,110	800,000	0,042	0,102
-167,096	800,000	0,042	0,091
-166,081	-116,494	-0,140	-0,019
-165,066	800,000	-0,045	0,093
-164,052	173,717	-0,063	-0,066
-163,037	-200,000	0,004	-0,037
-162,023	458,864	0,079	0,129
-161,008	-200,000	0,003	0,044
-159,993	159,452	0,050	0,050
-158,979	-200,000	-0,010	-0,034
-157,964	132,890	0,021	0,020
-156,950	287,798	-0,064	0,084
-155,935	-91,848	0,077	0,016
-154,920	800,000	0,013	0,029
-153,906	0,373	-0,044	-0,023
-152,891	-200,000	0,002	-0,159
-151,877	-76,710	-0,088	0,022
-150,862	136,152	0,021	-0,019
-149,847	271,815	0,055	0,070
-148,833	36,045	0,056	0,036
-147,818	2,729	-0,086	-0,045
-146,804	800,000	0,018	-0,038
-145,789	-31,697	-0,108	-0,044
-144,775	-200,000	0,045	-0,227
-143,760	686,737	0,052	0,100
-142,745	-148,688	-0,047	0,003
-141,731	164,238	0,027	0,027
-140,716	-67,834	0,036	0,010
-139,702	22,794	-0,058	0,034
-138,687	800,000	0,047	-0,138
-137,672	-12,306	-0,034	-0,016
-136,658	134,982	-0,107	-0,101
-135,643	64,929	-0,044	-0,032
-134,629	-115,648	-0,092	-0,012
-133,614	-200,000	-0,017	-0,073
-132,599	-68,436	0,029	0,008
-131,585	291,042	0,027	0,035
-130,570	376,258	-0,047	-0,070
-129,556	96,412	-0,085	-0,070
-128,541	483,905	0,077	-0,127
-127,526	-147,010	-0,077	0,005
-126,512	-200,000	0,007	0,087
-125,497	454,476	0,077	-0,124
-124,483	-200,000	0,030	-0,122
-123,468	-15,669	0,116	-0,053
-122,453	637,753	-0,067	-0,125
-121,439	-136,897	-0,168	-0,014
-120,424	-3,886	0,068	0,034
-119,410	321,792	-0,081	0,111
