DTS Sentinel unit serial number:	SN410029Multiplexer serial number:	ORYXHardware model number:	OX2-SRSoftware version number:	ORYX F/W v4,00 Oryx Data Collector v3.7.2.0data status	okinstallation	B6 Nyhavnadifferential loss correction	single-endedforward channel	channel 2reverse channel	N/Adate	2023/12/09time	00:35:08forward acquisition time	300,00reverse acquisition time	0,00gamma	499,1914k internal	0,3157k external	0,3157temperature offset calibration	1,0000default loss term (dB/km)	0,3820temperature slope calibration	1,0000multiplexer offset coefficient	1,0000multiplexer slope coefficient	1,0000fibre end	0,00T internal ref (°C)	15,62T ext. ref 1 (°C)	-0,78T ext. ref 2 (°C)	-0,80length (m)	temperature (°C)	Stokes	anti-Stokes-744,400	387,116	0,101	0,155
-743,385	2,347	-0,172	0,091
-742,371	-57,260	0,228	0,074
-741,356	-108,391	-0,244	-0,038
-740,342	149,342	0,063	0,063
-739,327	-95,784	-0,342	0,067
-738,312	594,339	0,042	-0,076
-737,298	-158,225	-0,391	-0,017
-736,283	99,242	0,074	0,063
-735,269	-181,861	-0,229	-0,003
-734,254	-64,224	0,124	0,037
-733,239	-112,352	-0,672	-0,098
-732,225	-117,160	0,103	0,014
-731,210	-42,814	-0,106	0,040
-730,196	-171,849	0,059	0,001
-729,181	-84,063	0,132	0,031
-728,167	85,944	-0,047	0,038
-727,152	-45,611	0,048	-0,017
-726,137	31,759	-0,076	0,048
-725,123	-200,000	-0,007	0,138
-724,108	156,562	-0,028	-0,028
-723,094	800,000	0,040	-0,093
-722,079	-29,308	-0,069	0,029
-721,064	-200,000	-0,029	-0,111
-720,050	-200,000	-0,017	-0,175
-719,035	419,425	-0,066	-0,105
-718,021	-0,938	-0,036	0,019
-717,006	25,539	-0,160	-0,098
-715,991	411,573	-0,111	-0,174
-714,977	463,052	-0,029	-0,048
-713,962	-200,000	-0,021	-0,070
-712,948	800,000	-0,013	-0,041
-711,933	800,000	-0,034	-0,075
-710,918	-139,525	-0,023	-0,002
-709,904	201,701	-0,021	-0,024
-708,889	-72,742	0,057	-0,015
-707,875	-24,375	-0,057	0,025
-706,860	15,922	0,079	0,046
-705,845	43,690	-0,069	-0,046
-704,831	441,980	0,088	0,143
-703,816	7,981	-0,107	-0,059
-702,802	-103,626	0,018	0,003
-701,787	350,476	0,032	-0,046
-700,772	800,000	0,019	-0,051
-699,758	132,369	0,014	-0,013
-698,743	-51,667	-0,073	0,025
-697,729	-68,673	0,167	-0,047
-696,714	-200,000	0,006	0,029
-695,699	-40,028	0,131	0,050
-694,685	-200,000	0,031	-0,124
-693,670	-200,000	0,010	-0,172
-692,656	329,539	0,059	-0,084
-691,641	-107,977	0,132	-0,021
-690,627	-36,237	-0,036	-0,014
-689,612	-10,306	-0,135	-0,066
-688,597	-200,000	0,023	-0,094
-687,583	442,861	-0,043	-0,070
-686,568	-10,865	-0,031	-0,015
-685,554	-200,000	-0,019	-0,101
-684,539	-94,003	0,152	0,030
-683,524	-200,000	-0,025	0,127
-682,510	-142,343	0,218	-0,016
-681,495	74,155	-0,059	0,045
-680,481	45,899	-0,067	-0,045
-679,466	-160,082	0,154	-0,006
-678,451	-200,000	-0,007	-0,087
-677,437	-200,000	-0,002	-0,008
-676,422	-105,833	0,106	-0,017
-675,408	-45,470	-0,163	-0,059
-674,393	-200,000	-0,002	0,047
-673,378	800,000	0,019	0,056
-672,364	139,822	-0,135	-0,131
-671,349	-130,649	0,071	0,007
-670,335	-200,000	0,008	-0,075
-669,320	-106,697	-0,140	-0,023
-668,305	-94,328	-0,103	0,020
-667,291	15,366	-0,040	0,023
-666,276	-200,000	0,003	-0,012
-665,262	166,285	-0,127	-0,132
-664,247	195,554	0,014	-0,016
-663,232	-143,322	-0,087	-0,006
-662,218	-200,000	-0,004	-0,104
-661,203	-200,000	-0,003	0,026
-660,189	388,607	0,029	0,044
-659,174	-200,000	-0,010	-0,126
-658,159	406,795	-0,032	0,050
-657,145	184,518	-0,039	0,042
-656,130	18,077	0,165	0,096
-655,116	-113,178	0,100	-0,014
-654,101	-24,157	-0,107	0,047
-653,086	800,000	-0,038	0,101
-652,072	238,547	-0,104	-0,127
-651,057	800,000	-0,020	-0,046
-650,043	-0,005	-0,108	0,056
-649,028	-37,228	0,061	-0,024
-648,014	-98,964	0,040	-0,007
-646,999	-84,571	-0,141	-0,032
-645,984	71,798	-0,068	0,052
-644,970	627,611	-0,024	-0,045
-643,955	29,286	0,084	-0,052
-642,941	-200,000	0,006	0,052
-641,926	-200,000	-0,021	0,078
-640,911	-188,574	0,072	0,001
-639,897	-68,845	-0,062	0,017
-638,882	270,295	-0,072	0,093
-637,868	97,260	-0,052	0,044
-636,853	-198,083	-0,048	0,000
-635,838	148,635	-0,079	-0,079
-634,824	-200,000	-0,006	-0,055
-633,809	-200,000	-0,030	0,116
-632,795	-60,706	-0,046	0,014
-631,780	-111,114	0,072	0,011
-630,765	-200,000	-0,006	-0,119
-629,751	-3,295	-0,027	-0,014
-628,736	-200,000	-0,021	0,084
-627,722	-47,911	0,108	0,038
-626,707	639,510	-0,065	-0,122
-625,692	39,059	0,042	-0,028
-624,678	448,855	0,058	-0,094
-623,663	66,226	-0,078	0,058
-622,649	39,057	0,020	0,013
-621,634	299,388	0,080	-0,109
-620,619	-32,003	0,160	-0,065
-619,605	103,610	-0,126	0,108
-618,590	-200,000	0,025	0,170
-617,576	-68,270	0,115	0,032
-616,561	-50,108	-0,036	0,012
-615,546	111,788	-0,031	-0,028
-614,532	800,000	-0,034	-0,102
-613,517	-111,582	0,045	0,007
-612,503	394,559	-0,074	0,114
-611,488	-67,090	-0,086	0,025
-610,474	-139,609	0,151	-0,012
-609,459	-82,496	-0,070	-0,017
-608,444	-82,637	-0,089	0,021
-607,430	170,693	0,026	0,027
-606,415	-200,000	-0,029	-0,150
-605,401	-127,174	0,038	0,004
-604,386	303,645	0,074	0,100
-603,371	-109,183	0,027	-0,004
-602,357	11,016	-0,095	0,053
-601,342	254,956	-0,047	-0,059
-600,328	-95,281	0,093	-0,018
-599,313	800,000	-0,038	-0,106
-598,298	73,258	0,093	0,071
-597,284	183,529	0,136	0,148
-596,269	-135,275	-0,049	-0,004
-595,255	-200,000	-0,023	-0,119
-594,240	456,322	0,053	-0,086
-593,225	-136,509	-0,148	-0,012
-592,211	-200,000	0,038	-0,146
-591,196	-200,000	0,030	-0,116
-590,182	122,993	0,025	0,023
-589,167	-200,000	0,028	0,100
-588,152	-136,000	-0,099	0,008
-587,138	-106,023	-0,118	0,019
-586,123	131,306	-0,099	-0,093
-585,109	401,173	0,069	-0,107
-584,094	-115,117	-0,009	0,001
-583,079	-43,102	0,047	-0,017
-582,065	318,919	0,095	-0,132
-581,050	474,092	0,047	0,077
-580,036	97,338	0,116	-0,098
-579,021	-108,912	-0,091	0,014
-578,006	402,052	0,064	-0,098
-576,992	-200,000	0,016	-0,054
-575,977	357,614	-0,028	0,041
-574,963	114,002	0,042	0,038
-573,948	249,604	0,042	0,053
-572,934	-91,234	0,047	-0,010
-571,919	-200,000	0,000	-0,029
-570,904	39,643	0,090	-0,059
-569,890	42,714	-0,068	-0,045
-568,875	800,000	0,019	0,044
-567,861	797,434	-0,042	-0,086
-566,846	31,666	-0,084	-0,053
-565,831	19,138	-0,160	0,093
-564,817	-200,000	-0,005	-0,050
-563,802	800,000	-0,066	-0,162
-562,788	-200,000	-0,028	-0,094
-561,773	-106,528	0,053	-0,009
-560,758	-200,000	0,004	0,026
-559,744	-57,898	-0,035	-0,011
-558,729	-200,000	0,016	-0,131
-557,715	800,000	0,015	0,043
-556,700	-92,537	-0,061	0,012
-555,685	800,000	-0,061	-0,155
-554,671	-200,000	-0,008	0,053
-553,656	-200,000	-0,018	-0,078
-552,642	32,131	0,062	-0,039
-551,627	125,779	-0,111	0,103
-550,612	800,000	0,040	0,103
-549,598	-28,037	-0,108	-0,045
-548,583	800,000	-0,034	-0,081
-547,569	-82,526	-0,084	-0,020
-546,554	-200,000	0,011	-0,049
-545,539	-200,000	-0,014	0,059
-544,525	81,107	0,098	0,078
-543,510	231,562	-0,082	-0,099
-542,496	-200,000	-0,001	-0,022
-541,481	-200,000	-0,021	0,072
-540,466	-200,000	-0,014	-0,102
-539,452	-108,104	0,142	-0,022
-538,437	-81,206	0,160	-0,038
-537,423	-200,000	0,019	-0,071
-536,408	224,089	-0,098	-0,116
-535,393	800,000	-0,055	-0,168
-534,379	800,000	0,030	0,062
-533,364	800,000	0,041	-0,110
-532,350	800,000	-0,019	-0,057
-531,335	-200,000	0,003	0,072
-530,321	-1,457	0,046	0,024
-529,306	118,199	0,005	0,005
-528,291	261,606	0,019	0,024
-527,277	-8,082	-0,049	-0,024
-526,262	-200,000	-0,001	0,004
-525,248	800,000	0,025	-0,053
-524,233	166,991	0,024	-0,025
-523,218	-200,000	0,001	0,014
-522,204	800,000	-0,052	-0,112
-521,189	78,323	0,082	0,064
-520,175	-200,000	-0,003	-0,123
-519,160	154,881	-0,087	0,088
-518,145	155,708	-0,089	0,090
-517,131	232,166	0,026	0,031
-516,116	-199,019	0,202	-0,001
-515,102	-10,656	-0,027	-0,013
-514,087	800,000	-0,034	-0,096
-513,072	50,779	-0,010	-0,007
-512,058	-200,000	0,010	0,099
-511,043	-200,000	0,029	0,144
-510,029	479,332	0,115	0,191
-509,014	392,602	0,042	0,065
-507,999	-109,758	-0,122	0,019
-506,985	800,000	0,055	-0,121
-505,970	-200,000	0,004	-0,071
-504,956	-25,736	0,094	-0,040
-503,941	-138,761	-0,024	-0,002
-502,926	419,175	-0,024	0,038
-501,912	139,865	0,086	-0,083
-500,897	-200,000	0,010	0,117
-499,883	800,000	-0,010	-0,022
-498,868	105,061	-0,038	-0,033
-497,853	73,788	0,059	0,045
-496,839	-200,000	0,000	-0,061
-495,824	198,846	0,061	0,068
-494,810	800,000	-0,027	0,055
-493,795	96,666	-0,018	-0,015
-492,781	-200,000	0,007	0,041
-491,766	-6,912	-0,195	-0,097
-490,751	-200,000	0,014	-0,106
-489,737	0,769	-0,092	-0,048
-488,722	800,000	-0,024	-0,071
-487,708	-200,000	0,005	-0,098
-486,693	-64,035	0,138	-0,041
-485,678	-35,486	-0,103	-0,041
-484,664	-115,147	-0,106	0,014
-483,649	0,431	-0,163	-0,085
-482,635	143,408	-0,087	-0,085
-481,620	-21,038	0,057	-0,025
-480,605	634,441	-0,096	0,178
-479,591	-200,000	-0,009	0,135
-478,576	29,001	0,092	0,057
-477,562	418,698	-0,011	-0,018
-476,547	3,288	-0,049	-0,026
-475,532	-62,627	0,073	0,022
-474,518	527,759	-0,046	0,080
-473,503	-200,000	0,019	-0,090
-472,489	370,127	-0,074	0,109
-471,474	800,000	0,035	-0,101
-470,459	800,000	0,048	-0,111
-469,445	-137,782	-0,078	-0,006
-468,430	255,644	0,031	-0,039
-467,416	800,000	0,023	0,057
-466,401	-12,846	-0,025	-0,012
-465,386	256,055	0,018	0,023
-464,372	-119,704	-0,090	-0,011
-463,357	-140,863	0,070	0,005
-462,343	-200,000	-0,011	-0,175
-461,328	-9,697	-0,105	0,051
-460,313	-11,180	0,041	0,019
-459,299	-200,000	0,014	-0,184
-458,284	114,122	0,104	-0,092
-457,270	800,000	0,011	-0,026
-456,255	370,959	-0,046	-0,067
-455,241	-159,864	-0,031	-0,001
-454,226	464,355	0,064	-0,105
-453,211	-200,000	-0,005	0,084
-452,197	521,228	0,029	0,050
-451,182	108,360	0,066	0,058
-450,168	122,949	-0,087	-0,079
-449,153	-200,000	-0,001	-0,031
-448,138	800,000	0,064	0,132
-447,124	-177,905	-0,134	-0,002
-446,109	49,090	0,037	0,025
-445,095	-134,304	0,044	0,004
-444,080	-45,562	-0,118	-0,042
-443,065	325,423	0,042	0,058
-442,051	132,746	-0,054	0,051
-441,036	-95,679	0,061	0,012
-440,022	-200,000	0,002	-0,117
-439,007	800,000	0,051	-0,136
-437,992	477,448	0,065	0,108
-436,978	171,545	0,134	0,140
-435,963	800,000	-0,046	-0,109
-434,949	-200,000	-0,011	-0,049
-433,934	800,000	-0,028	-0,069
-432,919	-169,176	-0,091	-0,002
-431,905	128,154	0,075	-0,069
-430,890	538,393	-0,069	-0,119
-429,876	4,636	0,045	-0,024
-428,861	141,722	0,115	0,111
-427,846	44,202	-0,126	-0,084
-426,832	-150,606	-0,156	0,009
-425,817	-124,843	-0,086	0,010
-424,803	-41,825	-0,016	-0,006
-423,788	-20,985	0,083	-0,037
-422,773	7,787	0,020	0,011
-421,759	-5,299	-0,110	0,055
-420,744	76,768	0,141	0,108
-419,730	-91,639	0,063	-0,013
-418,715	-200,000	-0,011	-0,062
-417,701	-200,000	0,017	-0,077
-416,686	-22,676	-0,120	0,053
-415,671	9,958	0,111	0,061
-414,657	-109,370	0,078	0,012
-413,642	-73,301	0,054	0,014
-412,628	-6,368	0,051	0,025
-411,613	22,869	-0,112	0,067
-410,598	157,368	0,049	-0,050
-409,584	-186,773	0,077	-0,001
-408,569	165,012	0,107	0,110
-407,555	740,639	0,055	0,107
-406,540	-200,000	0,017	0,105
-405,525	-200,000	-0,003	0,116
-404,511	800,000	0,021	0,058
-403,496	800,000	0,024	0,059
-402,482	798,828	-0,044	0,090
-401,467	-90,680	-0,119	0,025
-400,452	1,726	0,144	0,075
-399,438	-200,000	-0,009	0,089
-398,423	-99,123	-0,118	0,022
-397,409	317,789	0,031	-0,043
-396,394	268,553	-0,019	0,024
-395,379	79,133	0,160	-0,124
-394,365	-200,000	0,016	-0,058
-393,350	82,828	-0,058	0,046
-392,336	-146,313	0,081	0,005
-391,321	800,000	-0,006	-0,018
-390,306	800,000	0,031	0,063
-389,292	137,332	-0,115	-0,109
-388,277	800,000	0,024	0,055
-387,263	241,656	0,079	0,096
-386,248	236,699	-0,032	-0,038
-385,233	-57,360	-0,016	0,005
-384,219	717,990	0,055	0,106
-383,204	-3,422	-0,113	0,057
-382,190	191,910	0,118	-0,130
-381,175	-200,000	-0,021	-0,121
-380,160	-60,431	0,111	0,034
-379,146	-165,862	0,211	0,006
-378,131	169,467	-0,054	-0,056
-377,117	-200,000	0,006	-0,031
-376,102	800,000	0,021	0,067
-375,088	-200,000	-0,019	-0,074
-374,073	207,645	-0,081	-0,092
-373,058	65,008	0,068	-0,050
-372,044	-200,000	-0,016	0,069
-371,029	800,000	-0,041	0,124
-370,015	701,672	0,017	0,033
-369,000	403,887	0,028	0,043
-367,985	-137,944	-0,119	0,009
-366,971	510,193	-0,046	-0,078
-365,956	142,757	0,008	-0,007
-364,942	-154,034	0,126	0,006
-363,927	208,389	-0,023	-0,026
-362,912	800,000	-0,051	0,104
-361,898	-200,000	0,009	-0,039
-360,883	-200,000	-0,028	0,097
-359,869	-200,000	0,002	-0,090
-358,854	-104,064	-0,072	-0,012
-357,839	-96,432	0,158	0,030
-356,825	-83,188	0,083	-0,019
-355,810	-46,986	0,054	-0,019
-354,796	11,674	-0,040	-0,022
-353,781	-104,086	-0,188	-0,031
-352,766	176,800	-0,091	0,096
-351,752	800,000	0,037	-0,080
-350,737	-200,000	0,053	-0,193
-349,723	207,184	-0,091	-0,103
-348,708	-184,464	0,205	0,002
-347,693	800,000	0,018	0,052
-346,679	-33,021	0,078	-0,031
-345,664	278,013	0,043	-0,056
-344,650	152,107	-0,116	0,115
-343,635	38,905	0,087	0,056
-342,620	-85,740	-0,062	0,014
-341,606	224,803	0,059	0,069
-340,591	648,481	-0,052	0,097
-339,577	145,911	0,036	0,035
-338,562	-39,719	0,012	0,005
-337,548	205,127	-0,044	0,050
-336,533	-29,836	0,070	0,029
-335,518	-94,186	-0,038	0,007
-334,504	200,601	-0,033	0,036
-333,489	-152,849	-0,161	-0,008
-332,475	-160,085	-0,036	0,001
-331,460	150,425	-0,048	-0,048
-330,445	800,000	-0,027	-0,060
-329,431	-115,669	0,111	0,015
-328,416	297,498	0,081	0,109
-327,402	281,054	-0,068	0,089
-326,387	5,016	0,092	0,049
-325,372	800,000	0,061	0,156
-324,358	-132,364	-0,019	-0,002
-323,343	46,265	-0,093	0,062
-322,329	298,641	-0,005	-0,006
-321,314	-200,000	0,049	0,178
-320,299	-99,172	0,073	-0,013
-319,285	800,000	-0,011	0,024
-318,270	-200,000	0,027	-0,136
-317,256	-200,000	-0,027	-0,148
-316,241	800,000	0,024	-0,056
-315,226	-200,000	0,006	-0,167
-314,212	395,431	-0,027	-0,042
-313,197	800,000	-0,037	0,097
-312,183	-70,685	0,121	0,033
-311,168	7,682	-0,177	0,096
-310,153	-139,708	-0,052	0,004
-309,139	-31,838	0,071	-0,029
-308,124	196,320	-0,065	-0,072
-307,110	-70,888	0,071	0,019
-306,095	7,328	0,056	-0,030
-305,080	458,166	0,092	-0,149
-304,066	604,694	0,063	0,115
-303,051	14,703	-0,047	-0,027
-302,037	-163,708	0,132	0,004
-301,022	487,100	-0,060	-0,100
-300,008	14,978	0,072	0,041
-298,993	356,912	0,010	-0,014
-297,978	338,304	-0,070	0,099
-296,964	733,906	0,017	0,034
-295,949	-40,349	-0,022	0,008
-294,935	398,649	-0,072	0,110
-293,920	-80,128	0,101	-0,024
-292,905	-11,738	-0,087	0,041
-291,891	21,389	0,052	-0,030
-290,876	93,006	0,010	-0,008
-289,862	-200,000	0,051	0,260
-288,847	-149,203	0,044	-0,003
-287,832	123,524	0,043	0,039
-286,818	326,917	-0,014	0,019
-285,803	-3,448	0,094	0,047
-284,789	711,363	-0,067	-0,129
-283,774	-31,454	0,054	-0,022
-282,759	83,530	-0,061	-0,048
-281,745	-41,814	-0,028	0,010
-280,730	202,621	-0,044	-0,049
-279,716	12,459	0,086	-0,048
-278,701	-110,385	-0,052	0,008
-277,686	380,618	0,066	-0,099
-276,672	210,716	-0,050	0,057
-275,657	-85,883	-0,184	0,041
-274,643	800,000	-0,027	-0,072
-273,628	326,864	0,037	-0,052
-272,613	-82,410	0,140	0,033
-271,599	-200,000	-0,002	0,104
-270,584	-17,739	0,035	0,016
-269,570	21,932	0,079	0,047
-268,555	-115,722	-0,068	0,009
-267,540	-25,945	-0,065	0,027
-266,526	-200,000	0,009	-0,148
-265,511	-81,749	-0,054	-0,013
-264,497	-200,000	-0,001	0,011
-263,482	-13,082	0,059	-0,028
-262,467	-200,000	0,016	0,065
-261,453	-90,061	0,042	0,009
-260,438	-200,000	0,004	0,030
-259,424	543,937	0,071	0,124
-258,409	-200,000	-0,033	0,128
-257,395	-200,000	0,006	-0,173
-256,380	-200,000	-0,018	-0,116
-255,365	245,915	0,022	0,026
-254,351	-200,000	-0,001	-0,030
-253,336	-104,156	0,035	0,006
-252,322	-200,000	0,018	-0,080
-251,307	-200,000	-0,004	0,016
-250,292	-154,373	-0,041	-0,002
-249,278	-39,327	0,037	0,014
-248,263	-46,570	0,039	-0,014
-247,249	-116,217	-0,089	-0,012
-246,234	499,040	-0,070	0,117
-245,219	283,373	-0,012	-0,016
-244,205	69,673	-0,116	0,087
-243,190	-141,284	-0,151	-0,011
-242,176	-200,000	0,002	0,023
-241,161	314,157	0,153	0,209
-240,146	-200,000	-0,012	0,102
-239,132	3,936	-0,055	0,029
-238,117	-200,000	0,004	-0,106
-237,103	51,957	-0,110	-0,076
-236,088	143,532	-0,070	0,067
-235,073	53,527	-0,072	0,050
-234,059	-145,131	0,122	0,008
-233,044	436,060	0,032	0,050
-232,030	104,588	-0,075	-0,064
-231,015	654,331	-0,024	0,046
-230,000	-117,642	-0,103	-0,013
-228,986	800,000	-0,038	-0,102
-227,971	457,626	0,104	0,168
-226,957	-200,000	-0,034	0,143
-225,942	-122,505	0,077	0,009
-224,927	800,000	-0,023	-0,069
-223,913	547,263	-0,056	-0,097
-222,898	163,285	0,043	-0,044
-221,884	181,225	0,059	-0,063
-220,869	-200,000	-0,002	-0,030
-219,855	1,793	0,067	-0,035
-218,840	-200,000	-0,019	0,128
-217,825	800,000	0,040	0,102
-216,811	283,546	0,030	-0,039
-215,796	-85,597	0,056	0,012
-214,782	121,155	-0,055	-0,049
-213,767	659,691	0,044	0,083
-212,752	87,976	-0,031	0,024
-211,738	113,443	0,117	0,103
-210,723	800,000	0,034	0,091
-209,709	800,000	-0,015	-0,036
-208,694	-146,888	-0,110	-0,007
-207,679	-131,784	0,088	0,008
-206,665	454,719	0,040	0,065
-205,650	800,000	0,037	0,076
-204,636	273,826	-0,087	0,111
-203,621	-200,000	0,000	0,038
-202,606	482,137	-0,062	0,102
-201,592	427,539	0,019	-0,029
-200,577	-200,000	-0,002	-0,083
-199,563	800,000	0,021	0,065
-198,548	-200,000	-0,045	0,170
-197,533	800,000	0,031	0,093
-196,519	800,000	-0,023	0,074
-195,504	-200,000	0,002	0,027
-194,490	334,340	0,013	-0,019
-193,475	40,607	-0,057	0,037
-192,460	-50,005	-0,041	-0,014
-191,446	-70,192	0,096	-0,026
-190,431	-200,000	0,001	0,022
-189,417	-122,221	0,033	-0,004
-188,402	-127,666	-0,093	0,010
-187,387	-46,857	-0,125	-0,044
-186,373	-200,000	-0,020	-0,108
-185,358	-26,090	0,019	0,008
-184,344	-51,163	-0,049	-0,017
-183,329	369,337	-0,010	0,015
-182,315	430,149	-0,028	-0,043
-181,300	327,065	-0,068	-0,094
-180,285	-37,079	0,044	-0,017
-179,271	-200,000	-0,004	0,039
-178,256	800,000	-0,049	-0,122
-177,242	356,537	0,052	-0,075
-176,227	38,915	0,178	0,115
-175,212	-41,101	-0,113	-0,042
-174,198	-17,492	-0,073	-0,033
-173,183	272,438	-0,061	-0,078
-172,169	333,010	-0,046	-0,064
-171,154	-79,028	-0,065	0,016
-170,139	-167,038	0,063	0,002
-169,125	53,541	0,098	-0,068
-168,110	800,000	0,030	0,065
-167,096	-115,081	-0,100	0,013
-166,081	-149,488	0,108	-0,006
-165,066	800,000	-0,093	-0,186
-164,052	369,990	0,005	-0,008
-163,037	-33,526	-0,017	0,007
-162,023	-84,555	0,046	-0,010
-161,008	-173,494	-0,045	0,001
-159,993	-200,000	0,014	0,102
-158,979	-22,597	0,049	0,021
-157,964	-127,158	-0,053	0,005
-156,950	-92,017	-0,084	0,017
-155,935	800,000	-0,040	0,104
-154,920	-3,387	0,105	0,053
-153,906	800,000	0,031	0,069
-152,891	-200,000	-0,001	0,058
-151,877	679,483	0,030	0,056
-150,862	82,526	-0,076	-0,059
-149,847	-39,508	0,054	-0,020
-148,833	-200,000	0,000	0,064
-147,818	-200,000	0,055	0,235
-146,804	-200,000	-0,011	0,116
-145,789	-200,000	-0,010	0,062
-144,775	21,490	-0,150	-0,088
-143,760	-144,893	0,115	0,007
-142,745	615,980	0,039	0,071
-141,731	135,733	-0,037	-0,035
-140,716	360,770	0,076	-0,109
-139,702	-52,486	0,127	0,042
-138,687	-200,000	0,005	0,088
-137,672	-123,576	-0,133	-0,015
-136,658	800,000	-0,085	-0,172
-135,643	-141,065	0,064	0,005
-134,629	-34,242	0,158	0,062
-133,614	-189,932	-0,029	-0,000
-132,599	-105,706	0,075	-0,012
-131,585	-0,662	0,146	0,074
-130,570	-63,596	-0,141	0,041
-129,556	-3,768	-0,100	-0,050
-128,541	800,000	0,008	-0,024
-127,526	800,000	0,039	-0,099
-126,512	197,066	-0,025	-0,027
-125,497	800,000	-0,024	0,054
-124,483	534,643	0,060	0,102
-123,468	-175,839	-0,120	0,002
-122,453	800,000	0,059	-0,174
-121,439	46,661	-0,109	-0,073
-120,424	-49,633	-0,070	0,024
-119,410	66,105	-0,038	-0,028
