DTS Sentinel unit serial number:	SN410029Multiplexer serial number:	ORYXHardware model number:	OX2-SRSoftware version number:	ORYX F/W v4,00 Oryx Data Collector v3.7.2.0data status	okinstallation	B6 Nyhavnadifferential loss correction	single-endedforward channel	channel 2reverse channel	N/Adate	2023/12/11time	09:20:08forward acquisition time	300,00reverse acquisition time	0,00gamma	499,1914k internal	0,3137k external	0,3137temperature offset calibration	1,0000default loss term (dB/km)	0,3820temperature slope calibration	1,0000multiplexer offset coefficient	1,0000multiplexer slope coefficient	1,0000fibre end	0,00T internal ref (°C)	16,84T ext. ref 1 (°C)	-0,73T ext. ref 2 (°C)	-0,74length (m)	temperature (°C)	Stokes	anti-Stokes-744,400	-55,609	0,078	0,026
-743,385	-114,956	-0,212	-0,030
-742,371	-192,415	0,243	0,002
-741,356	-184,981	-0,201	0,002
-740,342	-61,489	0,206	0,064
-739,327	-96,687	-0,334	0,065
-738,312	-200,000	-0,017	-0,130
-737,298	-150,958	-0,329	-0,018
-736,283	-129,796	0,183	-0,018
-735,269	-171,715	-0,334	-0,008
-734,254	800,000	-0,024	0,052
-733,239	-47,839	-0,433	-0,155
-732,225	-103,698	0,145	0,025
-731,210	800,000	-0,073	-0,154
-730,196	255,852	0,061	-0,078
-729,181	286,119	0,071	-0,095
-728,167	-54,200	-0,127	-0,043
-727,152	800,000	-0,008	-0,021
-726,137	800,000	0,037	0,100
-725,123	-53,174	-0,156	-0,053
-724,108	53,307	-0,091	-0,064
-723,094	99,587	-0,067	0,058
-722,079	-13,559	-0,091	-0,043
-721,064	11,190	0,030	-0,017
-720,050	-11,862	-0,087	-0,042
-719,035	297,508	-0,036	-0,049
-718,021	-124,312	-0,074	0,008
-717,006	24,987	-0,034	-0,021
-715,991	-200,000	0,018	-0,157
-714,977	-200,000	-0,144	-0,000
-713,962	446,565	-0,082	-0,135
-712,948	-200,000	-0,020	-0,065
-711,933	-18,915	-0,093	-0,043
-710,918	-200,000	-0,017	0,089
-709,904	187,946	-0,025	0,028
-708,889	-91,717	0,032	0,007
-707,875	13,646	-0,127	0,073
-706,860	-44,334	-0,084	-0,031
-705,845	800,000	0,044	-0,092
-704,831	533,942	-0,051	0,090
-703,816	-50,928	-0,034	0,012
-702,802	16,704	0,039	-0,023
-701,787	-72,786	-0,184	0,050
-700,772	245,822	-0,021	-0,027
-699,758	-106,579	0,084	-0,014
-698,743	-44,992	0,134	0,049
-697,729	-200,000	0,012	0,062
-696,714	800,000	-0,035	0,101
-695,699	256,802	0,008	0,010
-694,685	-200,000	-0,021	-0,119
-693,670	800,000	-0,016	-0,033
-692,656	72,022	0,103	-0,080
-691,641	547,175	-0,116	-0,206
-690,627	800,000	-0,025	-0,060
-689,612	6,716	0,036	0,020
-688,597	431,681	-0,116	-0,187
-687,583	195,889	-0,140	-0,158
-686,568	191,507	-0,111	-0,124
-685,554	118,492	-0,057	0,052
-684,539	30,686	-0,141	-0,089
-683,524	800,000	0,028	0,074
-682,510	234,130	0,024	0,029
-681,495	-26,399	-0,089	0,039
-680,481	-65,903	0,076	-0,022
-679,466	369,949	-0,019	0,029
-678,451	800,000	-0,034	-0,100
-677,437	165,398	-0,049	-0,051
-676,422	614,694	-0,020	0,038
-675,408	84,700	0,034	-0,028
-674,393	-7,620	0,061	0,030
-673,378	63,948	-0,025	0,018
-672,364	-50,591	0,111	0,039
-671,349	128,208	0,012	-0,011
-670,335	-200,000	0,004	-0,044
-669,320	-2,626	0,181	0,094
-668,305	35,242	0,046	-0,030
-667,291	800,000	-0,031	-0,066
-666,276	-200,000	0,012	-0,057
-665,262	69,409	-0,147	-0,112
-664,247	-11,484	-0,118	-0,057
-663,232	701,729	0,052	0,101
-662,218	45,823	0,137	0,093
-661,203	-200,000	0,004	0,121
-660,189	-200,000	0,016	0,085
-659,174	29,416	-0,024	-0,015
-658,159	-62,210	-0,169	-0,052
-657,145	-200,000	0,011	-0,088
-656,130	800,000	0,036	-0,100
-655,116	164,626	0,068	-0,070
-654,101	-200,000	0,034	-0,116
-653,086	-200,000	0,017	-0,068
-652,072	-176,247	-0,085	-0,002
-651,057	-46,948	-0,101	-0,036
-650,043	330,353	-0,025	-0,036
-649,028	800,000	0,049	0,101
-648,014	74,019	0,037	-0,029
-646,999	45,442	-0,070	0,048
-645,984	800,000	-0,032	-0,073
-644,970	-200,000	-0,033	-0,128
-643,955	-42,250	-0,051	0,019
-642,941	154,536	0,099	-0,101
-641,926	-26,394	0,105	-0,045
-640,911	93,159	-0,022	-0,019
-639,897	-112,584	-0,160	0,023
-638,882	60,420	0,068	-0,050
-637,868	196,078	-0,052	0,059
-636,853	506,246	0,020	-0,034
-635,838	183,416	0,051	-0,055
-634,824	67,508	0,074	0,056
-633,809	194,823	0,036	0,041
-632,795	-200,000	-0,025	0,120
-631,780	-108,861	0,053	0,008
-630,765	-84,107	-0,256	0,060
-629,751	29,010	0,057	-0,036
-628,736	800,000	-0,029	-0,088
-627,722	-200,000	0,016	-0,071
-626,707	-200,000	-0,011	0,078
-625,692	-86,900	0,083	-0,019
-624,678	380,543	-0,053	0,081
-623,663	-181,040	-0,114	0,002
-622,649	800,000	-0,051	-0,118
-621,634	583,175	-0,037	-0,067
-620,619	800,000	0,024	-0,065
-619,605	-13,978	0,151	0,072
-618,590	-74,875	0,094	-0,025
-617,576	61,848	0,129	0,095
-616,561	195,377	-0,104	0,117
-615,546	-200,000	0,033	-0,109
-614,532	11,398	-0,138	-0,078
-613,517	4,248	-0,071	0,038
-612,503	461,937	-0,073	-0,121
-611,488	-200,000	0,003	0,073
-610,474	-145,905	0,077	-0,005
-609,459	113,538	0,026	0,023
-608,444	-20,076	0,032	-0,015
-607,430	-84,180	-0,067	0,016
-606,415	-200,000	0,030	-0,110
-605,401	28,523	0,021	0,013
-604,386	82,524	-0,008	0,007
-603,371	-200,000	0,000	-0,055
-602,357	6,051	0,165	-0,090
-601,342	52,062	0,049	-0,035
-600,328	-200,000	0,013	-0,058
-599,313	-200,000	0,016	-0,073
-598,298	-200,000	-0,024	-0,147
-597,284	90,807	0,111	-0,092
-596,269	800,000	-0,077	0,176
-595,255	501,966	0,022	-0,037
-594,240	-200,000	0,013	-0,215
-593,225	-200,000	0,034	-0,121
-592,211	800,000	-0,061	-0,128
-591,196	800,000	-0,039	-0,082
-590,182	-24,385	0,154	-0,068
-589,167	800,000	0,029	0,083
-588,152	-200,000	0,022	0,108
-587,138	-183,257	0,015	-0,000
-586,123	-200,000	-0,038	-0,128
-585,109	-44,528	-0,098	-0,036
-584,094	-76,842	-0,136	-0,035
-583,079	-145,392	0,047	0,003
-582,065	-200,000	-0,001	-0,066
-581,050	37,883	0,047	-0,031
-580,036	800,000	-0,030	0,097
-579,021	-115,715	-0,120	-0,016
-578,006	-200,000	0,010	-0,054
-576,992	211,793	0,014	-0,016
-575,977	-169,457	0,132	0,003
-574,963	76,461	-0,138	0,108
-573,948	-101,635	0,107	-0,019
-572,934	93,070	0,063	-0,052
-571,919	800,000	-0,083	-0,195
-570,904	13,716	-0,175	-0,100
-569,890	-200,000	0,021	0,082
-568,875	-200,000	-0,040	0,149
-567,861	-200,000	-0,017	0,067
-566,846	178,985	-0,009	-0,010
-565,831	247,487	0,148	0,185
-564,817	155,216	-0,058	-0,059
-563,802	27,100	-0,091	-0,056
-562,788	118,715	-0,074	-0,067
-561,773	712,481	-0,053	-0,105
-560,758	-95,564	0,104	-0,020
-559,744	800,000	0,024	-0,076
-558,729	-200,000	-0,007	-0,035
-557,715	-111,704	-0,056	0,008
-556,700	-200,000	0,002	-0,094
-555,685	-200,000	-0,006	0,022
-554,671	-15,673	-0,055	0,026
-553,656	786,308	0,066	0,135
-552,642	38,219	0,117	-0,076
-551,627	156,422	-0,059	0,060
-550,612	48,319	0,051	0,035
-549,598	-107,485	-0,122	-0,020
-548,583	-200,000	-0,012	-0,104
-547,569	205,017	0,026	-0,029
-546,554	244,197	0,022	0,027
-545,539	800,000	0,029	0,089
-544,525	-200,000	0,003	0,111
-543,510	160,495	-0,071	0,073
-542,496	31,254	-0,135	-0,085
-541,481	-200,000	-0,011	-0,046
-540,466	800,000	-0,022	-0,065
-539,452	-200,000	-0,026	-0,139
-538,437	191,570	-0,061	0,068
-537,423	-200,000	-0,013	-0,058
-536,408	-83,181	-0,117	-0,027
-535,393	707,225	-0,034	-0,066
-534,379	800,000	-0,044	-0,101
-533,364	-38,702	0,081	0,031
-532,350	-11,203	0,053	0,026
-531,335	-76,425	-0,029	-0,008
-530,321	14,256	0,113	-0,065
-529,306	800,000	0,028	-0,078
-528,291	-200,000	-0,032	0,126
-527,277	-65,023	-0,103	0,030
-526,262	140,815	0,080	-0,078
-525,248	47,353	0,084	0,057
-524,233	-95,982	-0,077	0,015
-523,218	-200,000	0,034	0,183
-522,204	9,357	-0,037	-0,020
-521,189	-200,000	-0,034	-0,120
-520,175	481,715	-0,041	-0,069
-519,160	36,002	0,069	-0,044
-518,145	-200,000	-0,008	0,093
-517,131	800,000	-0,043	-0,092
-516,116	-200,000	0,015	0,150
-515,102	-55,229	-0,107	0,035
-514,087	800,000	-0,065	0,134
-513,072	81,335	0,045	-0,036
-512,058	-200,000	-0,004	-0,078
-511,043	113,709	0,019	0,017
-510,029	-51,117	-0,063	0,022
-509,014	339,856	-0,078	0,112
-507,999	-56,810	-0,062	-0,020
-506,985	182,386	-0,024	0,026
-505,970	-16,880	0,044	0,021
-504,956	197,914	-0,079	0,089
-503,941	-200,000	0,003	0,011
-502,926	-90,059	0,074	-0,016
-501,912	423,277	-0,028	0,044
-500,897	271,684	0,070	-0,090
-499,883	528,374	0,062	0,109
-498,868	163,067	-0,117	-0,121
-497,853	156,624	0,081	-0,082
-496,839	800,000	0,028	-0,068
-495,824	35,661	0,103	-0,066
-494,810	-200,000	0,009	0,083
-493,795	-48,365	0,110	-0,039
-492,781	-200,000	0,003	0,012
-491,766	-200,000	-0,021	-0,086
-490,751	26,588	-0,101	0,062
-489,737	155,221	-0,058	0,058
-488,722	-135,039	0,069	0,006
-487,708	-200,000	0,008	0,090
-486,693	-31,707	-0,050	0,020
-485,678	137,357	-0,054	-0,052
-484,664	-65,835	0,029	0,009
-483,649	-200,000	0,011	-0,065
-482,635	-98,535	-0,110	-0,020
-481,620	-98,799	0,137	0,025
-480,605	-200,000	0,004	-0,066
-479,591	574,427	-0,048	0,087
-478,576	123,228	0,034	0,031
-477,562	-159,397	0,046	0,002
-476,547	-171,203	-0,017	-0,000
-475,532	800,000	0,018	-0,044
-474,518	-200,000	-0,033	-0,170
-473,503	-200,000	-0,013	0,154
-472,489	156,527	-0,046	-0,046
-471,474	-200,000	0,010	0,130
-470,459	505,934	0,016	0,027
-469,445	-20,393	-0,085	-0,038
-468,430	233,511	-0,040	0,049
-467,416	136,140	0,041	-0,039
-466,401	19,940	-0,099	-0,059
-465,386	113,278	0,044	0,039
-464,372	-200,000	0,019	0,101
-463,357	-200,000	0,001	-0,133
-462,343	-200,000	0,019	0,072
-461,328	-31,298	0,137	-0,056
-460,313	-12,092	-0,107	-0,051
-459,299	77,335	0,078	-0,061
-458,284	-46,270	-0,025	-0,009
-457,270	-200,000	0,016	0,066
-456,255	-172,991	-0,089	0,002
-455,241	260,028	-0,041	0,052
-454,226	-200,000	-0,013	-0,097
-453,211	155,245	0,051	-0,052
-452,197	339,426	-0,005	0,007
-451,182	188,950	0,025	0,028
-450,168	123,717	0,090	0,083
-449,153	253,939	0,017	0,021
-448,138	476,439	0,081	0,136
-447,124	800,000	0,021	0,045
-446,109	533,423	0,074	0,130
-445,095	-200,000	-0,001	-0,055
-444,080	196,302	0,030	0,034
-443,065	409,608	-0,055	0,085
-442,051	62,207	-0,056	-0,041
-441,036	-200,000	-0,005	-0,045
-440,022	-200,000	0,020	-0,074
-439,007	248,497	-0,078	-0,097
-437,992	-200,000	-0,006	-0,078
-436,978	166,444	-0,100	0,104
-435,963	-143,431	0,039	-0,003
-434,949	595,796	-0,014	-0,026
-433,934	37,315	-0,057	0,037
-432,919	148,092	-0,106	-0,105
-431,905	-200,000	0,047	-0,202
-430,890	333,866	-0,052	0,075
-429,876	-127,317	-0,149	0,016
-428,861	-200,000	0,005	0,020
-427,846	-121,593	-0,042	0,005
-426,832	-200,000	0,011	-0,053
-425,817	523,058	-0,089	-0,155
-424,803	-129,530	-0,101	-0,010
-423,788	-133,909	0,038	-0,003
-422,773	780,879	0,031	0,062
-421,759	-84,981	0,037	-0,008
-420,744	-200,000	-0,005	-0,059
-419,730	-18,425	-0,056	-0,026
-418,715	-69,842	-0,099	-0,027
-417,701	-28,391	0,037	-0,015
-416,686	-200,000	0,000	0,033
-415,671	263,921	0,110	0,140
-414,657	-5,846	0,131	0,065
-413,642	-200,000	-0,036	0,159
-412,628	-93,865	0,092	-0,018
-411,613	-23,663	-0,054	0,023
-410,598	61,730	-0,130	-0,094
-409,584	-200,000	0,001	0,013
-408,569	-0,653	0,053	0,027
-407,555	274,938	-0,020	-0,026
-406,540	800,000	0,019	-0,053
-405,525	-78,262	0,143	-0,036
-404,511	159,003	0,046	-0,047
-403,496	-200,000	0,011	0,068
-402,482	377,210	-0,048	-0,073
-401,467	145,756	-0,080	0,079
-400,452	14,595	0,060	-0,034
-399,438	368,608	0,056	0,083
-398,423	-50,597	-0,128	0,044
-397,409	744,831	0,036	-0,071
-396,394	11,983	-0,057	-0,032
-395,379	800,000	-0,018	-0,048
-394,365	-51,438	0,093	0,032
-393,350	190,556	-0,118	0,130
-392,336	282,404	0,097	0,128
-391,321	-147,131	-0,072	0,004
-390,306	-93,073	-0,094	0,019
-389,292	560,607	-0,077	-0,137
-388,277	78,478	0,128	-0,100
-387,263	-200,000	0,032	-0,122
-386,248	800,000	-0,017	0,038
-385,233	121,637	0,054	0,050
-384,219	401,085	-0,021	-0,032
-383,204	-200,000	0,015	-0,056
-382,190	226,676	0,019	0,022
-381,175	-87,312	0,050	0,011
-380,160	800,000	-0,035	0,104
-379,146	81,174	0,029	0,023
-378,131	461,627	0,017	0,029
-377,117	361,577	0,038	0,056
-376,102	96,793	-0,063	-0,053
-375,088	457,540	0,148	-0,242
-374,073	800,000	0,036	0,076
-373,058	-53,598	0,074	-0,025
-372,044	52,581	0,042	0,029
-371,029	10,320	0,050	-0,028
-370,015	224,858	-0,042	0,050
-369,000	-20,354	-0,063	-0,028
-367,985	158,495	-0,060	-0,061
-366,971	53,365	-0,079	-0,055
-365,956	-200,000	-0,009	0,059
-364,942	-84,106	-0,088	-0,020
-363,927	-146,256	0,121	-0,008
-362,912	-93,442	0,022	0,004
-361,898	325,134	-0,028	0,039
-360,883	215,399	-0,033	-0,039
-359,869	71,099	-0,062	-0,047
-358,854	537,021	0,081	0,142
-357,839	310,859	0,058	-0,079
-356,825	-200,000	-0,021	0,106
-355,810	-115,210	-0,060	-0,008
-354,796	91,988	-0,166	-0,137
-353,781	-200,000	0,000	-0,023
-352,766	800,000	-0,045	-0,096
-351,752	245,774	-0,022	-0,027
-350,737	-200,000	-0,012	0,053
-349,723	800,000	-0,041	0,098
-348,708	-113,040	0,164	0,023
-347,693	-158,296	-0,132	0,006
-346,679	217,147	-0,043	-0,050
-345,664	-200,000	-0,028	-0,123
-344,650	66,411	-0,089	-0,066
-343,635	241,980	0,151	0,185
-342,620	-15,148	0,020	0,010
-341,606	160,333	-0,028	0,029
-340,591	-200,000	-0,001	0,176
-339,577	-40,068	-0,019	0,007
-338,562	9,963	0,042	0,023
-337,548	-200,000	-0,003	0,071
-336,533	323,533	-0,019	-0,027
-335,518	-110,649	-0,063	-0,009
-334,504	-52,920	0,124	-0,041
-333,489	-76,153	-0,101	0,026
-332,475	361,089	-0,024	-0,035
-331,460	-200,000	0,054	-0,225
-330,445	-104,794	-0,036	-0,006
-329,431	800,000	0,011	-0,023
-328,416	-200,000	-0,006	0,082
-327,402	800,000	-0,048	0,133
-326,387	-89,626	-0,023	-0,005
-325,372	68,770	-0,036	-0,027
-324,358	772,649	-0,066	0,132
-323,343	-63,394	-0,130	0,039
-322,329	369,143	0,089	-0,131
-321,314	87,316	-0,063	-0,051
-320,299	-200,000	-0,014	-0,078
-319,285	-125,501	0,090	0,010
-318,270	478,791	0,058	-0,096
-317,256	800,000	-0,025	-0,076
-316,241	800,000	0,027	-0,074
-315,226	-200,000	-0,026	0,169
-314,212	800,000	-0,020	-0,059
-313,197	-64,510	0,254	-0,075
-312,183	399,267	0,082	0,125
-311,168	-116,052	-0,089	0,012
-310,153	135,877	0,051	-0,049
-309,139	-138,027	-0,088	0,007
-308,124	-21,758	0,147	0,065
-307,110	-200,000	0,009	0,051
-306,095	138,478	-0,042	0,040
-305,080	-92,701	0,102	0,021
-304,066	800,000	-0,025	-0,078
-303,051	110,739	0,136	0,120
-302,037	730,860	-0,011	0,021
-301,022	-200,000	-0,015	0,073
-300,008	-85,062	0,036	0,008
-298,993	-25,639	-0,086	-0,037
-297,978	-200,000	0,020	0,075
-296,964	800,000	-0,053	-0,117
-295,949	-200,000	-0,016	0,106
-294,935	189,328	-0,096	0,105
-293,920	146,364	-0,055	0,054
-292,905	336,052	0,042	-0,060
-291,891	-170,541	0,049	0,001
-290,876	800,000	0,049	0,117
-289,862	34,894	-0,066	-0,042
-288,847	-200,000	0,008	-0,095
-287,832	-200,000	0,014	-0,088
-286,818	-10,376	-0,036	-0,017
-285,803	239,679	0,067	0,081
-284,789	-127,624	0,113	0,012
-283,774	-200,000	-0,039	0,162
-282,759	790,764	0,019	0,038
-281,745	70,991	0,011	0,009
-280,730	-55,436	-0,096	0,031
-279,716	-27,802	-0,044	-0,018
-278,701	800,000	0,076	0,174
-277,686	-162,031	0,038	-0,001
-276,672	48,027	0,086	0,058
-275,657	-132,061	0,134	-0,013
-274,643	-25,385	-0,050	0,021
-273,628	526,150	0,074	-0,127
-272,613	800,000	0,013	-0,029
-271,599	-158,541	0,073	-0,003
-270,584	800,000	0,054	0,111
-269,570	-200,000	-0,000	0,149
-268,555	231,897	0,090	-0,108
-267,540	238,841	-0,040	-0,048
-266,526	-177,546	0,082	0,001
-265,511	-164,575	-0,049	-0,002
-264,497	-200,000	-0,064	-0,209
-263,482	-200,000	-0,012	0,112
-262,467	210,803	0,040	0,046
-261,453	64,129	0,037	-0,027
-260,438	643,123	0,021	-0,039
-259,424	-200,000	-0,009	0,073
-258,409	8,578	-0,071	0,039
-257,395	-123,390	-0,163	-0,019
-256,380	99,583	0,187	0,157
-255,365	-200,000	0,000	-0,004
-254,351	269,829	0,048	0,062
-253,336	204,046	0,096	-0,108
-252,322	-200,000	-0,007	-0,076
-251,307	-200,000	0,002	-0,064
-250,292	-91,694	0,041	-0,009
-249,278	12,610	0,107	0,060
-248,263	429,813	0,035	0,055
-247,249	333,857	0,038	-0,053
-246,234	588,547	-0,043	0,078
-245,219	-58,433	-0,146	-0,046
-244,205	-200,000	-0,008	-0,042
-243,190	512,516	-0,035	-0,059
-242,176	-200,000	-0,036	-0,121
-241,161	-67,653	0,100	0,028
-240,146	-142,665	-0,077	-0,005
-239,132	81,422	-0,086	-0,067
-238,117	800,000	-0,066	-0,146
-237,103	111,489	0,082	-0,072
-236,088	522,309	0,020	0,034
-235,073	158,966	0,110	0,111
-234,059	-159,661	-0,085	0,003
-233,044	410,878	-0,044	0,068
-232,030	800,000	-0,053	0,137
-231,015	-17,470	0,037	0,017
-230,000	-65,621	0,114	-0,033
-228,986	-44,598	0,084	-0,031
-227,971	-200,000	0,022	-0,107
-226,957	23,481	0,131	-0,078
-225,942	-200,000	0,027	0,108
-224,927	4,431	-0,010	0,005
-223,913	304,791	0,124	-0,168
-222,898	-48,176	-0,142	0,049
-221,884	149,200	-0,145	0,143
-220,869	-156,405	-0,048	-0,002
-219,855	215,349	-0,057	0,066
-218,840	341,882	0,101	0,144
-217,825	-200,000	-0,008	0,082
-216,811	-79,603	-0,044	0,011
-215,796	-124,616	-0,074	0,008
-214,782	129,573	0,063	0,058
-213,767	-200,000	0,015	0,059
-212,752	-116,920	0,055	0,007
-211,738	800,000	0,043	-0,107
-210,723	286,233	-0,051	-0,066
-209,709	-88,187	-0,114	0,025
-208,694	86,144	0,086	-0,069
-207,679	49,679	0,059	-0,040
-206,665	433,824	0,020	0,032
-205,650	-194,983	0,136	-0,001
-204,636	266,238	0,057	0,072
-203,621	27,214	-0,076	-0,046
-202,606	-93,335	-0,068	-0,014
-201,592	800,000	0,068	-0,185
-200,577	-3,856	-0,129	-0,065
-199,563	37,888	0,114	-0,073
-198,548	394,134	0,062	0,094
-197,533	-36,977	0,199	0,077
-196,519	62,511	0,029	0,021
-195,504	157,085	-0,017	-0,017
-194,490	154,373	-0,067	0,067
-193,475	800,000	0,068	0,214
-192,460	243,732	-0,005	0,006
-191,446	109,149	0,075	0,065
-190,431	800,000	0,041	0,124
-189,417	-166,172	-0,103	-0,003
-188,402	754,752	0,100	0,198
-187,387	800,000	-0,032	0,071
-186,373	467,667	-0,035	0,057
-185,358	1,691	0,102	0,053
-184,344	800,000	0,046	0,124
-183,329	800,000	-0,026	0,054
-182,315	800,000	0,048	0,098
-181,300	-144,601	-0,186	-0,012
-180,285	728,033	0,070	0,136
-179,271	-69,489	-0,133	-0,037
-178,256	141,019	-0,020	0,019
-177,242	691,252	-0,037	0,071
-176,227	-76,889	0,086	-0,022
-175,212	414,496	-0,045	-0,070
-174,198	-200,000	0,011	0,089
-173,183	-117,209	-0,095	-0,012
-172,169	800,000	-0,042	0,109
-171,154	587,168	0,077	-0,139
-170,139	-200,000	0,003	-0,024
-169,125	35,015	0,128	-0,081
-168,110	-84,599	-0,128	-0,029
-167,096	-200,000	-0,007	0,146
-166,081	-155,449	0,093	-0,004
-165,066	376,256	-0,099	-0,147
-164,052	-90,160	0,062	-0,013
-163,037	-200,000	0,053	0,175
-162,023	61,423	-0,059	-0,043
-161,008	-200,000	-0,002	-0,051
-159,993	-116,300	0,024	-0,003
-158,979	304,154	-0,068	-0,092
-157,964	-59,203	-0,054	-0,017
-156,950	800,000	0,020	0,062
-155,935	12,476	-0,059	0,033
-154,920	97,465	-0,048	0,040
-153,906	800,000	-0,023	0,066
-152,891	800,000	0,042	-0,087
-151,877	-172,202	-0,013	-0,000
-150,862	205,621	0,087	-0,098
-149,847	250,471	0,046	-0,057
-148,833	-2,965	-0,028	0,014
-147,818	-25,055	0,040	0,017
-146,804	-200,000	-0,001	0,063
-145,789	800,000	0,028	-0,070
-144,775	-90,678	-0,066	0,014
-143,760	-17,449	-0,111	-0,051
-142,745	-200,000	-0,004	-0,044
-141,731	-105,103	0,175	0,029
-140,716	128,119	0,056	-0,051
-139,702	-200,000	-0,005	0,123
-138,687	-61,110	-0,106	-0,032
-137,672	57,112	-0,038	-0,027
-136,658	118,352	-0,078	-0,069
-135,643	334,403	0,050	-0,070
-134,629	-7,482	-0,069	-0,034
-133,614	186,330	0,122	0,132
-132,599	212,362	-0,061	0,070
-131,585	-200,000	0,023	-0,109
-130,570	-146,878	0,157	0,010
-129,556	53,427	-0,162	0,112
-128,541	-75,154	-0,041	0,011
-127,526	119,231	0,094	0,084
-126,512	466,160	0,044	0,072
-125,497	232,055	-0,009	0,011
-124,483	-45,980	0,054	0,019
-123,468	-120,108	0,097	0,012
-122,453	-200,000	-0,003	-0,012
-121,439	-200,000	-0,005	-0,050
-120,424	-150,460	-0,071	0,004
-119,410	-78,722	0,124	0,030
