DTS Sentinel unit serial number:	SN410029Multiplexer serial number:	ORYXHardware model number:	OX2-SRSoftware version number:	ORYX F/W v4,00 Oryx Data Collector v3.7.2.0data status	okinstallation	B6 Nyhavnadifferential loss correction	single-endedforward channel	channel 2reverse channel	N/Adate	2023/12/08time	09:05:08forward acquisition time	300,00reverse acquisition time	0,00gamma	499,1914k internal	0,3168k external	0,3168temperature offset calibration	1,0000default loss term (dB/km)	0,3820temperature slope calibration	1,0000multiplexer offset coefficient	1,0000multiplexer slope coefficient	1,0000fibre end	0,00T internal ref (°C)	12,93T ext. ref 1 (°C)	-2,24T ext. ref 2 (°C)	-2,23length (m)	temperature (°C)	Stokes	anti-Stokes-744,400	-22,656	0,023	0,010
-743,385	-161,822	-0,242	-0,009
-742,371	-95,591	0,184	0,036
-741,356	-124,078	-0,246	-0,028
-740,342	800,000	0,034	0,080
-739,327	-105,902	-0,481	-0,079
-738,312	2,708	0,117	0,062
-737,298	-170,605	-0,364	0,009
-736,283	15,017	0,098	0,056
-735,269	-58,026	-0,370	-0,118
-734,254	738,891	0,063	0,126
-733,239	-87,373	-0,560	-0,124
-732,225	43,836	0,145	0,098
-731,210	399,362	0,019	0,029
-730,196	184,931	0,016	0,017
-729,181	-200,000	-0,024	-0,120
-728,167	56,461	0,024	-0,017
-727,152	-118,206	0,032	-0,004
-726,137	-132,451	-0,108	-0,010
-725,123	6,246	0,019	-0,010
-724,108	240,455	-0,108	-0,133
-723,094	230,102	-0,112	-0,135
-722,079	320,461	0,059	-0,083
-721,064	-200,000	-0,005	-0,103
-720,050	-200,000	0,006	0,171
-719,035	-9,636	0,065	-0,032
-718,021	287,016	-0,057	0,076
-717,006	-200,000	-0,012	-0,119
-715,991	-200,000	0,001	-0,102
-714,977	-3,453	0,071	-0,036
-713,962	-56,049	-0,014	-0,004
-712,948	72,911	0,144	0,110
-711,933	-200,000	0,019	0,094
-710,918	-102,016	-0,135	0,024
-709,904	800,000	-0,058	-0,159
-708,889	706,308	0,042	-0,082
-707,875	-31,172	-0,094	-0,039
-706,860	-116,678	0,079	-0,011
-705,845	-46,762	-0,093	-0,033
-704,831	-200,000	-0,044	0,204
-703,816	-144,352	-0,189	-0,013
-702,802	55,210	-0,105	-0,075
-701,787	800,000	0,008	0,026
-700,772	-71,872	0,084	-0,023
-699,758	-200,000	0,001	-0,039
-698,743	-64,908	0,079	0,023
-697,729	800,000	-0,035	0,088
-696,714	-200,000	-0,000	-0,084
-695,699	800,000	0,018	-0,056
-694,685	629,549	0,027	-0,050
-693,670	35,835	-0,048	-0,031
-692,656	-200,000	-0,009	-0,088
-691,641	19,060	-0,112	-0,066
-690,627	683,785	0,033	0,063
-689,612	74,375	-0,123	-0,095
-688,597	66,263	-0,077	0,057
-687,583	174,384	-0,121	-0,129
-686,568	97,401	0,091	0,076
-685,554	127,567	0,180	0,167
-684,539	-166,213	-0,050	-0,002
-683,524	0,241	0,072	-0,038
-682,510	-200,000	0,001	0,068
-681,495	-200,000	0,017	-0,065
-680,481	-54,161	0,032	-0,011
-679,466	130,541	-0,112	0,105
-678,451	-200,000	-0,014	0,125
-677,437	235,087	-0,081	0,098
-676,422	-200,000	-0,007	0,043
-675,408	-101,658	-0,039	0,007
-674,393	-200,000	-0,007	-0,147
-673,378	800,000	-0,008	-0,022
-672,364	-155,432	-0,158	0,007
-671,349	-97,584	-0,172	0,032
-670,335	-121,069	0,076	0,009
-669,320	116,773	0,045	0,040
-668,305	-163,189	0,034	-0,001
-667,291	800,000	0,006	0,018
-666,276	735,471	0,065	-0,129
-665,262	-200,000	0,013	0,051
-664,247	262,005	-0,063	-0,080
-663,232	371,598	-0,036	0,053
-662,218	150,318	-0,156	0,155
-661,203	-52,848	0,116	-0,039
-660,189	800,000	-0,047	-0,097
-659,174	-29,734	-0,053	0,022
-658,159	96,822	-0,110	-0,092
-657,145	-200,000	0,008	0,125
-656,130	-200,000	-0,027	-0,140
-655,116	256,276	-0,032	0,040
-654,101	-178,124	0,204	-0,003
-653,086	-200,000	0,003	-0,096
-652,072	120,914	-0,018	-0,017
-651,057	80,604	-0,105	-0,083
-650,043	-134,407	-0,059	0,005
-649,028	-30,211	-0,102	-0,042
-648,014	-74,248	0,139	0,037
-646,999	-37,459	-0,090	-0,035
-645,984	-148,527	0,044	-0,003
-644,970	-200,000	-0,005	-0,079
-643,955	800,000	-0,035	-0,093
-642,941	51,995	0,019	0,013
-641,926	-11,322	0,093	-0,044
-640,911	-200,000	-0,009	-0,110
-639,897	-200,000	-0,001	-0,010
-638,882	321,850	0,059	0,082
-637,868	-35,146	-0,081	0,032
-636,853	59,563	-0,073	-0,052
-635,838	800,000	-0,021	-0,059
-634,824	-146,223	-0,091	0,006
-633,809	-114,983	0,049	-0,007
-632,795	74,447	0,016	0,012
-631,780	-77,660	0,059	0,015
-630,765	12,266	0,106	0,060
-629,751	783,796	-0,089	-0,179
-628,736	28,201	-0,150	-0,092
-627,722	27,340	-0,041	0,025
-626,707	37,806	0,157	-0,102
-625,692	38,014	0,068	0,044
-624,678	-23,479	0,062	-0,027
-623,663	230,910	0,097	-0,117
-622,649	154,205	-0,023	-0,023
-621,634	55,914	-0,093	-0,066
-620,619	-47,892	-0,036	0,013
-619,605	800,000	0,042	-0,118
-618,590	800,000	0,055	0,115
-617,576	-91,408	0,201	0,042
-616,561	-96,473	-0,159	-0,030
-615,546	161,483	-0,081	0,083
-614,532	-200,000	-0,007	-0,058
-613,517	-200,000	-0,016	-0,064
-612,503	-11,674	0,014	-0,007
-611,488	553,212	-0,068	-0,121
-610,474	24,005	0,015	-0,009
-609,459	164,174	0,049	0,051
-608,444	800,000	-0,050	-0,111
-607,430	-84,018	-0,084	-0,019
-606,415	-200,000	0,000	-0,129
-605,401	800,000	0,007	-0,014
-604,386	240,062	-0,012	-0,014
-603,371	800,000	-0,060	0,130
-602,357	217,723	-0,067	0,078
-601,342	49,143	0,048	-0,033
-600,328	-200,000	0,001	-0,018
-599,313	800,000	-0,005	0,013
-598,298	300,061	0,067	0,090
-597,284	-200,000	0,017	-0,075
-596,269	43,364	0,055	-0,036
-595,255	-9,198	0,126	0,062
-594,240	-119,942	-0,035	0,004
-593,225	800,000	0,033	0,097
-592,211	-42,068	-0,090	0,034
-591,196	-200,000	0,032	0,106
-590,182	-200,000	0,004	0,140
-589,167	174,539	0,103	0,109
-588,152	88,020	-0,115	0,093
-587,138	151,150	-0,099	0,099
-586,123	-200,000	-0,024	-0,095
-585,109	183,576	-0,061	-0,066
-584,094	-81,354	-0,033	0,008
-583,079	238,442	0,075	-0,091
-582,065	2,441	0,107	0,057
-581,050	-72,513	-0,009	0,002
-580,036	-200,000	0,018	-0,092
-579,021	64,125	-0,196	-0,144
-578,006	-116,359	0,078	-0,010
-576,992	-200,000	0,028	-0,118
-575,977	-200,000	0,022	-0,104
-574,963	16,148	-0,028	-0,016
-573,948	187,297	0,059	-0,064
-572,934	244,711	-0,068	-0,084
-571,919	393,035	-0,017	0,025
-570,904	-139,330	0,084	0,006
-569,890	312,951	0,046	0,063
-568,875	18,310	-0,086	-0,050
-567,861	670,443	0,040	0,076
-566,846	-200,000	0,002	0,219
-565,831	-96,874	0,080	-0,015
-564,817	-59,479	0,031	-0,010
-563,802	-200,000	0,024	-0,094
-562,788	800,000	-0,079	-0,187
-561,773	-177,910	0,105	0,002
-560,758	-53,677	-0,110	-0,036
-559,744	-200,000	-0,003	0,020
-558,729	-119,387	0,085	-0,011
-557,715	-134,170	-0,074	-0,007
-556,700	-95,377	-0,050	0,010
-555,685	-200,000	0,010	-0,078
-554,671	4,772	-0,080	-0,043
-553,656	620,979	-0,069	-0,126
-552,642	434,059	0,049	0,077
-551,627	77,049	0,079	0,061
-550,612	-200,000	0,001	0,055
-549,598	79,811	-0,044	0,034
-548,583	73,839	0,070	-0,053
-547,569	172,722	0,057	0,060
-546,554	800,000	0,044	0,098
-545,539	800,000	0,056	0,153
-544,525	-200,000	0,011	-0,037
-543,510	110,908	-0,020	-0,017
-542,496	238,880	0,023	-0,028
-541,481	764,485	-0,018	-0,036
-540,466	-200,000	-0,007	-0,052
-539,452	327,723	0,039	0,055
-538,437	-4,562	0,061	0,030
-537,423	138,987	0,042	-0,040
-536,408	-19,019	-0,087	0,039
-535,393	6,206	-0,197	-0,106
-534,379	-6,860	0,043	0,021
-533,364	-200,000	-0,029	-0,157
-532,350	-200,000	0,003	-0,035
-531,335	-93,107	0,135	-0,027
-530,321	613,422	0,028	0,051
-529,306	164,033	-0,027	0,028
-528,291	-22,141	0,059	0,026
-527,277	28,024	-0,032	0,020
-526,262	-200,000	-0,006	0,050
-525,248	-79,367	0,244	0,060
-524,233	498,657	-0,108	0,181
-523,218	-200,000	0,011	0,107
-522,204	398,376	-0,034	-0,052
-521,189	461,355	0,042	-0,069
-520,175	-74,193	0,100	-0,026
-519,160	320,396	-0,045	-0,062
-518,145	35,001	-0,036	-0,023
-517,131	-147,747	0,195	-0,012
-516,116	578,033	0,088	0,157
-515,102	115,642	-0,075	0,067
-514,087	264,449	0,037	-0,047
-513,072	37,069	0,082	-0,053
-512,058	-167,144	-0,115	0,003
-511,043	284,935	0,031	0,041
-510,029	-148,913	0,091	0,005
-509,014	-90,579	-0,139	-0,029
-507,999	800,000	-0,027	0,056
-506,985	-200,000	0,005	-0,034
-505,970	113,631	0,071	0,063
-504,956	-66,994	-0,045	-0,013
-503,941	-90,486	-0,045	0,009
-502,926	5,815	0,097	0,052
-501,912	132,355	0,079	-0,074
-500,897	579,975	-0,089	0,160
-499,883	-200,000	0,016	0,061
-498,868	125,339	-0,053	0,049
-497,853	-67,353	-0,040	-0,011
-496,839	109,191	0,017	-0,015
-495,824	-200,000	0,004	0,044
-494,810	364,660	0,016	0,024
-493,795	538,579	-0,060	-0,105
-492,781	-200,000	-0,008	0,071
-491,766	-72,878	0,064	-0,017
-490,751	17,102	-0,106	0,061
-489,737	106,956	-0,091	0,078
-488,722	242,393	0,076	-0,092
-487,708	-14,770	0,109	0,051
-486,693	293,072	-0,045	0,060
-485,678	-200,000	-0,001	-0,081
-484,664	800,000	-0,050	-0,114
-483,649	257,953	-0,014	0,018
-482,635	278,913	0,164	-0,213
-481,620	177,062	-0,027	-0,029
-480,605	-82,469	0,162	-0,038
-479,591	-200,000	0,023	0,073
-478,576	31,903	0,073	0,046
-477,562	800,000	0,066	0,136
-476,547	-200,000	-0,002	-0,138
-475,532	158,778	0,031	-0,031
-474,518	457,929	0,006	0,010
-473,503	-200,000	-0,031	0,190
-472,489	-182,664	0,130	0,002
-471,474	232,164	0,051	0,061
-470,459	800,000	-0,009	0,025
-469,445	-200,000	-0,062	-0,224
-468,430	24,874	0,073	0,044
-467,416	169,045	0,029	-0,030
-466,401	-140,700	0,104	0,008
-465,386	-200,000	0,020	0,108
-464,372	-200,000	-0,027	0,128
-463,357	318,183	-0,020	0,027
-462,343	24,963	-0,042	0,025
-461,328	631,867	-0,020	0,037
-460,313	-95,822	-0,028	0,005
-459,299	800,000	0,034	0,106
-458,284	-138,393	-0,193	0,015
-457,270	-200,000	-0,004	0,040
-456,255	-188,594	0,068	-0,001
-455,241	9,813	0,110	-0,060
-454,226	378,744	-0,038	-0,057
-453,211	242,219	-0,032	-0,039
-452,197	105,838	0,136	0,117
-451,182	36,767	-0,177	0,113
-450,168	-57,424	-0,091	-0,029
-449,153	81,009	-0,062	-0,048
-448,138	-17,757	-0,113	0,051
-447,124	-101,784	0,031	0,005
-446,109	-119,059	0,050	-0,006
-445,095	-35,889	0,144	0,056
-444,080	-200,000	-0,004	0,082
-443,065	157,962	0,088	0,089
-442,051	-92,940	0,050	0,010
-441,036	-160,038	-0,089	-0,003
-440,022	800,000	-0,051	-0,108
-439,007	-34,296	-0,097	0,039
-437,992	-52,296	0,098	0,033
-436,978	209,940	0,095	0,109
-435,963	88,893	0,054	-0,043
-434,949	41,851	-0,069	-0,045
-433,934	186,613	-0,027	-0,030
-432,919	-200,000	0,011	-0,052
-431,905	-200,000	-0,001	0,009
-430,890	620,863	0,021	0,038
-429,876	-110,916	0,129	-0,019
-428,861	-14,254	-0,102	-0,048
-427,846	168,866	-0,099	0,102
-426,832	111,600	0,053	-0,046
-425,817	110,521	-0,081	-0,070
-424,803	63,694	0,046	-0,034
-423,788	-153,550	-0,071	-0,004
-422,773	365,656	0,102	-0,150
-421,759	-96,366	-0,083	-0,016
-420,744	800,000	0,014	-0,032
-419,730	90,446	-0,032	0,026
-418,715	-88,609	-0,153	-0,033
-417,701	800,000	0,008	-0,022
-416,686	-125,481	-0,046	-0,005
-415,671	800,000	0,023	0,072
-414,657	-200,000	0,026	0,092
-413,642	98,974	0,056	0,047
-412,628	-24,749	0,042	0,018
-411,613	-200,000	0,015	0,086
-410,598	144,201	-0,103	-0,100
-409,584	800,000	-0,007	-0,022
-408,569	325,808	0,080	0,111
-407,555	43,589	0,166	0,110
-406,540	-200,000	-0,017	0,087
-405,525	444,076	-0,077	-0,123
-404,511	-200,000	-0,009	-0,080
-403,496	327,994	0,047	-0,066
-402,482	250,139	0,058	-0,071
-401,467	-200,000	0,015	0,122
-400,452	-200,000	-0,023	0,123
-399,438	-94,907	-0,088	-0,017
-398,423	42,147	-0,100	-0,066
-397,409	800,000	-0,030	-0,069
-396,394	-49,894	-0,118	0,040
-395,379	319,756	0,104	0,144
-394,365	-182,880	0,162	-0,002
-393,350	-37,070	-0,097	0,038
-392,336	-20,475	-0,122	-0,054
-391,321	604,466	0,032	0,058
-390,306	39,569	-0,112	0,072
-389,292	-130,199	-0,144	0,014
-388,277	91,061	-0,032	0,026
-387,263	124,108	-0,044	-0,040
-386,248	62,963	0,084	0,061
-385,233	253,259	0,070	0,087
-384,219	-14,848	0,167	-0,077
-383,204	9,537	-0,032	-0,018
-382,190	-200,000	-0,003	-0,095
-381,175	-200,000	-0,019	0,064
-380,160	-45,815	-0,065	-0,023
-379,146	210,132	0,044	0,050
-378,131	432,565	0,028	-0,045
-377,117	-177,820	0,035	-0,001
-376,102	-110,279	-0,060	0,009
-375,088	232,487	-0,097	-0,115
-374,073	236,147	-0,061	0,073
-373,058	85,457	0,061	0,048
-372,044	-200,000	-0,012	-0,103
-371,029	-114,338	0,050	-0,007
-370,015	800,000	-0,040	-0,106
-369,000	-200,000	-0,021	-0,081
-367,985	42,690	0,003	-0,002
-366,971	169,789	-0,099	-0,102
-365,956	64,412	-0,046	-0,033
-364,942	-24,140	0,031	-0,013
-363,927	-200,000	-0,006	0,114
-362,912	-171,449	-0,076	0,002
-361,898	-77,291	-0,003	-0,001
-360,883	-28,859	-0,145	-0,060
-359,869	-0,167	0,060	0,031
-358,854	-87,008	-0,075	0,016
-357,839	-132,322	0,101	-0,009
-356,825	-128,804	-0,096	0,010
-355,810	10,799	0,135	0,074
-354,796	-118,564	-0,005	0,001
-353,781	397,337	0,040	-0,061
-352,766	16,234	-0,095	0,054
-351,752	-200,000	-0,042	-0,194
-350,737	-200,000	0,008	0,105
-349,723	-200,000	-0,004	-0,025
-348,708	-200,000	0,007	-0,054
-347,693	-139,495	-0,042	0,003
-346,679	-25,849	0,074	-0,031
-345,664	-116,089	-0,123	0,016
-344,650	800,000	-0,061	-0,166
-343,635	212,458	0,053	-0,061
-342,620	-76,301	0,060	-0,015
-341,606	316,318	-0,041	-0,057
-340,591	32,622	0,055	-0,035
-339,577	-200,000	0,013	-0,117
-338,562	-200,000	-0,002	-0,068
-337,548	-177,664	-0,069	0,001
-336,533	-53,891	0,012	0,004
-335,518	67,549	0,103	-0,076
-334,504	17,387	-0,089	0,051
-333,489	-200,000	0,020	0,132
-332,475	-146,717	0,064	-0,004
-331,460	101,590	-0,049	-0,042
-330,445	-15,941	-0,009	-0,004
-329,431	98,869	0,055	-0,046
-328,416	-41,199	0,150	-0,056
-327,402	800,000	-0,017	-0,044
-326,387	216,496	0,066	-0,076
-325,372	800,000	0,005	0,015
-324,358	-74,378	-0,064	0,017
-323,343	800,000	-0,054	0,127
-322,329	351,534	-0,055	-0,079
-321,314	37,809	-0,010	-0,006
-320,299	-28,317	-0,168	0,070
-319,285	263,061	-0,063	-0,079
-318,270	800,000	-0,048	0,122
-317,256	-99,646	-0,068	-0,012
-316,241	-145,864	0,100	-0,006
-315,226	-200,000	-0,014	-0,108
-314,212	-200,000	0,013	0,064
-313,197	-200,000	0,008	-0,072
-312,183	-112,652	0,079	-0,011
-311,168	-52,830	-0,109	-0,036
-310,153	126,494	-0,028	-0,026
-309,139	48,931	0,072	0,049
-308,124	-117,144	-0,094	-0,012
-307,110	-200,000	0,010	0,099
-306,095	104,872	0,115	0,098
-305,080	800,000	0,049	0,134
-304,066	-122,122	-0,146	0,017
-303,051	-98,064	-0,074	0,014
-302,037	340,910	0,058	-0,083
-301,022	165,523	0,044	0,045
-300,008	81,678	0,047	0,037
-298,993	23,950	0,096	-0,057
-297,978	-41,913	0,054	0,020
-296,964	-200,000	-0,058	-0,198
-295,949	-200,000	-0,001	0,046
-294,935	229,475	-0,045	-0,053
-293,920	285,882	0,045	0,059
-292,905	-200,000	0,041	-0,199
-291,891	-200,000	0,017	0,087
-290,876	-33,623	-0,066	0,026
-289,862	92,321	-0,067	0,054
-288,847	-79,714	0,069	0,017
-287,832	91,548	-0,050	0,040
-286,818	-200,000	0,004	-0,031
-285,803	291,382	-0,098	-0,128
-284,789	-20,744	-0,040	0,018
-283,774	800,000	0,024	0,068
-282,759	391,251	-0,012	0,018
-281,745	57,140	-0,072	0,050
-280,730	-200,000	0,011	-0,081
-279,716	-200,000	0,001	-0,072
-278,701	31,840	0,110	0,068
-277,686	-83,418	0,129	-0,030
-276,672	175,334	0,099	0,104
-275,657	23,733	-0,068	-0,040
-274,643	0,459	-0,038	0,020
-273,628	-104,156	0,073	0,012
-272,613	-176,561	-0,048	0,001
-271,599	-200,000	0,017	0,124
-270,584	308,041	0,083	0,113
-269,570	-72,711	-0,020	0,005
-268,555	149,502	-0,092	0,090
-267,540	-200,000	-0,004	0,018
-266,526	395,953	-0,066	0,100
-265,511	281,783	0,048	0,062
-264,497	-200,000	0,011	-0,044
-263,482	120,987	0,119	0,107
-262,467	-200,000	-0,037	-0,129
-261,453	143,499	-0,044	-0,043
-260,438	596,869	0,015	-0,027
-259,424	218,472	-0,127	-0,146
-258,409	-14,884	0,032	0,015
-257,395	-11,226	-0,090	0,043
-256,380	363,241	0,012	0,018
-255,365	153,112	0,008	-0,008
-254,351	800,000	0,049	0,109
-253,336	-24,655	0,048	-0,020
-252,322	319,905	-0,075	-0,102
-251,307	-200,000	-0,011	0,096
-250,292	-200,000	0,033	0,156
-249,278	276,185	0,032	0,041
-248,263	364,589	0,081	0,118
-247,249	211,972	0,033	-0,038
-246,234	-64,159	-0,053	0,016
-245,219	-200,000	-0,012	-0,056
-244,205	800,000	-0,009	-0,021
-243,190	800,000	-0,026	-0,065
-242,176	-54,525	0,156	-0,051
-241,161	-9,287	0,060	0,029
-240,146	-200,000	0,027	-0,106
-239,132	19,480	-0,119	-0,069
-238,117	203,224	-0,046	0,051
-237,103	-200,000	0,010	0,083
-236,088	-111,601	-0,156	-0,023
-235,073	800,000	-0,053	0,111
-234,059	-70,974	-0,004	0,001
-233,044	-41,452	0,066	0,024
-232,030	84,272	-0,090	-0,071
-231,015	-200,000	0,002	-0,010
-230,000	391,757	0,109	-0,163
-228,986	435,676	-0,069	-0,109
-227,971	192,284	0,027	-0,029
-226,957	-200,000	-0,005	-0,059
-225,942	-200,000	-0,018	0,088
-224,927	213,643	0,053	0,061
-223,913	-200,000	-0,013	-0,060
-222,898	138,928	-0,069	-0,065
-221,884	-89,684	0,049	0,010
-220,869	47,248	0,009	0,006
-219,855	-46,767	-0,002	0,001
-218,840	-29,483	0,074	0,031
-217,825	581,571	-0,075	-0,132
-216,811	-200,000	-0,002	-0,142
-215,796	-156,701	-0,027	-0,001
-214,782	-117,926	0,176	0,022
-213,767	-139,418	-0,055	-0,004
-212,752	-83,831	0,137	0,031
-211,738	534,338	-0,019	0,033
-210,723	6,327	-0,050	0,027
-209,709	558,251	-0,067	0,116
-208,694	-200,000	0,020	-0,083
-207,679	-190,880	-0,015	-0,000
-206,665	-200,000	0,012	0,098
-205,650	-200,000	-0,035	0,190
-204,636	800,000	0,056	0,115
-203,621	-200,000	0,014	0,053
-202,606	122,543	-0,045	0,041
-201,592	800,000	0,076	0,190
-200,577	-200,000	0,008	-0,056
-199,563	800,000	0,041	-0,114
-198,548	52,653	0,053	0,036
-197,533	-54,133	0,149	0,048
-196,519	709,026	-0,029	0,055
-195,504	443,850	-0,054	-0,086
-194,490	370,822	0,046	-0,067
-193,475	-15,106	-0,040	0,018
-192,460	-15,377	-0,034	0,016
-191,446	-200,000	-0,010	-0,062
-190,431	-24,333	-0,083	0,036
-189,417	-78,365	-0,125	0,031
-188,402	-200,000	-0,010	-0,051
-187,387	21,063	-0,073	-0,043
-186,373	214,106	0,049	-0,056
-185,358	96,486	-0,058	0,048
-184,344	-200,000	0,020	-0,110
-183,329	800,000	0,040	0,106
-182,315	118,689	-0,079	-0,070
-181,300	-56,688	0,175	-0,055
-180,285	-200,000	-0,018	-0,081
-179,271	-13,022	-0,117	-0,054
-178,256	328,120	-0,059	0,081
-177,242	-12,087	0,120	0,056
-176,227	-200,000	-0,014	0,096
-175,212	126,608	0,126	0,115
-174,198	-158,532	-0,102	-0,004
-173,183	-32,433	-0,061	-0,024
-172,169	800,000	0,007	-0,021
-171,154	-123,822	0,083	0,009
-170,139	-200,000	-0,016	-0,072
-169,125	59,297	0,001	-0,001
-168,110	-200,000	-0,033	0,195
-167,096	330,024	0,061	0,084
-166,081	-200,000	-0,001	0,069
-165,066	800,000	-0,019	0,055
-164,052	-200,000	-0,018	0,096
-163,037	112,362	-0,036	-0,032
-162,023	122,325	0,004	-0,004
-161,008	-200,000	-0,012	0,060
-159,993	-200,000	0,002	-0,084
-158,979	188,922	-0,090	-0,097
-157,964	-200,000	-0,006	-0,067
-156,950	-71,165	-0,027	0,007
-155,935	-200,000	0,011	-0,138
-154,920	-110,530	0,032	-0,005
-153,906	573,900	0,040	0,070
-152,891	-16,505	-0,091	-0,041
-151,877	583,128	0,072	0,127
-150,862	72,216	0,093	0,069
-149,847	-133,378	-0,035	-0,003
-148,833	800,000	0,011	0,026
-147,818	-200,000	-0,003	0,153
-146,804	-200,000	-0,039	0,136
-145,789	184,978	-0,042	-0,045
-144,775	-62,314	-0,176	-0,052
-143,760	95,013	-0,044	-0,036
-142,745	800,000	-0,075	-0,159
-141,731	800,000	0,021	-0,064
-140,716	800,000	0,063	-0,199
-139,702	-21,040	0,068	0,030
-138,687	-200,000	0,027	0,089
-137,672	-200,000	-0,000	0,031
-136,658	-200,000	0,022	-0,081
-135,643	220,219	-0,069	-0,079
-134,629	-200,000	0,010	-0,096
-133,614	130,336	0,044	0,041
-132,599	425,235	-0,054	-0,083
-131,585	30,134	0,094	0,057
-130,570	369,653	0,027	-0,040
-129,556	-200,000	0,016	-0,102
-128,541	377,133	0,048	0,071
-127,526	-154,576	0,040	0,002
-126,512	9,251	-0,083	0,045
-125,497	-65,870	-0,073	0,021
-124,483	727,559	0,104	-0,200
-123,468	-92,816	0,110	-0,022
-122,453	33,934	-0,019	0,012
-121,439	-32,564	-0,081	-0,032
-120,424	800,000	0,029	0,062
-119,410	-200,000	0,009	0,054
