DTS Sentinel unit serial number:	SN410029Multiplexer serial number:	ORYXHardware model number:	OX2-SRSoftware version number:	ORYX F/W v4,00 Oryx Data Collector v3.7.2.0data status	okinstallation	B6 Nyhavnadifferential loss correction	single-endedforward channel	channel 2reverse channel	N/Adate	2023/12/10time	14:00:08forward acquisition time	300,00reverse acquisition time	0,00gamma	499,1914k internal	0,3122k external	0,3122temperature offset calibration	1,0000default loss term (dB/km)	0,3820temperature slope calibration	1,0000multiplexer offset coefficient	1,0000multiplexer slope coefficient	1,0000fibre end	0,00T internal ref (°C)	22,69T ext. ref 1 (°C)	6,21T ext. ref 2 (°C)	6,22length (m)	temperature (°C)	Stokes	anti-Stokes-744,400	800,000	-0,012	-0,035
-743,385	80,507	-0,171	0,137
-742,371	-200,000	-0,001	0,033
-741,356	13,913	-0,108	0,062
-740,342	167,555	0,068	0,072
-739,327	14,449	-0,268	0,156
-738,312	-200,000	0,012	-0,098
-737,298	123,491	-0,239	0,223
-736,283	-20,850	-0,153	-0,070
-735,269	116,289	-0,164	0,150
-734,254	-200,000	-0,013	0,151
-733,239	-108,558	-0,420	-0,067
-732,225	-54,727	0,119	-0,040
-731,210	-200,000	0,011	-0,041
-730,196	800,000	-0,069	-0,190
-729,181	11,576	0,046	-0,026
-728,167	800,000	-0,032	-0,104
-727,152	-200,000	0,001	-0,106
-726,137	-109,657	-0,108	-0,017
-725,123	-70,200	-0,092	0,026
-724,108	-140,493	-0,077	-0,006
-723,094	636,472	-0,087	-0,166
-722,079	64,003	-0,101	-0,076
-721,064	28,746	-0,133	-0,084
-720,050	216,418	0,116	0,138
-719,035	674,050	-0,023	-0,045
-718,021	-39,574	-0,100	0,039
-717,006	-105,110	-0,153	0,026
-715,991	537,948	-0,083	-0,148
-714,977	262,247	-0,094	-0,122
-713,962	139,882	-0,019	-0,019
-712,948	164,090	0,047	-0,049
-711,933	222,422	0,056	-0,067
-710,918	-200,000	0,024	-0,092
-709,904	-71,637	-0,144	0,040
-708,889	800,000	0,062	-0,169
-707,875	-200,000	-0,016	-0,154
-706,860	800,000	-0,017	-0,039
-705,845	407,584	-0,068	0,107
-704,831	446,728	0,027	0,044
-703,816	-92,239	0,056	-0,012
-702,802	-200,000	-0,006	0,037
-701,787	-200,000	-0,008	-0,110
-700,772	11,695	-0,044	0,025
-699,758	-118,136	0,022	0,003
-698,743	788,659	-0,054	0,111
-697,729	-200,000	-0,005	0,116
-696,714	527,954	0,065	-0,114
-695,699	97,869	0,109	-0,093
-694,685	800,000	0,021	0,051
-693,670	468,990	-0,119	-0,200
-692,656	800,000	0,022	-0,067
-691,641	-200,000	-0,005	0,149
-690,627	-68,582	0,050	-0,014
-689,612	-92,184	-0,104	0,022
-688,597	800,000	0,029	0,084
-687,583	58,431	0,051	-0,037
-686,568	526,126	-0,032	-0,056
-685,554	800,000	-0,066	-0,158
-684,539	86,795	-0,084	-0,069
-683,524	313,213	-0,003	-0,005
-682,510	264,550	-0,087	-0,113
-681,495	-200,000	0,039	-0,238
-680,481	139,466	0,033	-0,033
-679,466	76,629	-0,139	-0,110
-678,451	800,000	-0,027	-0,078
-677,437	174,433	-0,031	-0,033
-676,422	800,000	0,016	0,043
-675,408	-101,766	0,089	-0,016
-674,393	38,592	0,073	0,048
-673,378	-200,000	0,010	0,048
-672,364	-200,000	-0,034	0,121
-671,349	-162,242	-0,112	-0,004
-670,335	162,489	0,025	0,026
-669,320	-68,425	0,085	0,024
-668,305	-62,120	0,175	0,054
-667,291	22,481	-0,042	-0,025
-666,276	85,340	-0,109	0,089
-665,262	-71,186	0,117	-0,032
-664,247	131,542	0,067	-0,064
-663,232	800,000	-0,055	0,122
-662,218	46,802	0,048	0,033
-661,203	-200,000	-0,008	0,127
-660,189	74,153	-0,158	-0,123
-659,174	-200,000	-0,020	-0,107
-658,159	-106,455	0,079	0,013
-657,145	-181,786	0,122	-0,002
-656,130	37,516	-0,061	0,040
-655,116	-0,654	0,079	-0,042
-654,101	290,136	0,063	-0,085
-653,086	-200,000	-0,012	-0,088
-652,072	800,000	-0,035	-0,081
-651,057	197,036	0,073	-0,082
-650,043	-200,000	0,014	-0,061
-649,028	110,467	-0,093	0,083
-648,014	185,111	0,112	0,123
-646,999	180,879	0,068	-0,075
-645,984	-27,016	-0,124	-0,053
-644,970	67,909	-0,147	0,112
-643,955	-123,873	-0,061	0,007
-642,941	-102,148	-0,113	-0,020
-641,926	15,508	0,038	-0,022
-640,911	-200,000	-0,000	-0,040
-639,897	-114,733	0,031	0,004
-638,882	800,000	-0,025	-0,060
-637,868	-14,201	-0,121	-0,058
-636,853	312,736	0,086	-0,121
-635,838	800,000	-0,017	-0,038
-634,824	-200,000	0,003	-0,071
-633,809	-7,508	-0,024	-0,012
-632,795	338,526	0,029	-0,042
-631,780	-200,000	0,022	-0,083
-630,765	326,323	-0,030	-0,043
-629,751	800,000	-0,006	-0,014
-628,736	-200,000	0,031	-0,143
-627,722	-200,000	0,006	-0,143
-626,707	177,773	0,071	0,077
-625,692	162,271	0,138	0,144
-624,678	581,576	-0,020	-0,037
-623,663	-46,888	0,025	0,009
-622,649	-200,000	0,003	-0,013
-621,634	-28,984	0,080	-0,034
-620,619	269,742	-0,090	-0,118
-619,605	-77,492	0,049	0,013
-618,590	-69,564	0,026	0,007
-617,576	391,255	-0,026	0,041
-616,561	-180,259	-0,031	0,000
-615,546	113,541	0,104	-0,094
-614,532	416,956	0,005	0,008
-613,517	-200,000	-0,036	0,120
-612,503	-200,000	0,019	0,123
-611,488	22,856	0,097	0,059
-610,474	-200,000	-0,005	-0,117
-609,459	356,528	-0,057	0,085
-608,444	451,425	0,038	-0,063
-607,430	-200,000	0,037	-0,130
-606,415	108,046	0,027	-0,024
-605,401	119,659	0,084	0,077
-604,386	-109,487	0,129	0,020
-603,371	303,283	0,047	0,065
-602,357	23,633	-0,127	0,077
-601,342	238,791	0,052	-0,064
-600,328	-200,000	-0,008	-0,064
-599,313	161,176	0,026	0,027
-598,298	800,000	-0,069	-0,159
-597,284	-28,288	0,021	0,009
-596,269	-103,940	-0,159	-0,027
-595,255	214,851	-0,004	0,005
-594,240	25,173	-0,066	0,040
-593,225	-21,794	-0,061	-0,028
-592,211	-154,278	-0,069	0,003
-591,196	800,000	0,020	0,043
-590,182	800,000	-0,067	0,157
-589,167	413,762	0,047	0,075
-588,152	-78,876	-0,112	0,028
-587,138	15,630	0,036	0,021
-586,123	114,403	-0,102	-0,092
-585,109	-200,000	-0,014	-0,076
-584,094	147,524	-0,106	-0,106
-583,079	-42,113	0,093	0,035
-582,065	62,613	0,036	-0,027
-581,050	400,450	-0,061	0,096
-580,036	610,403	-0,060	0,112
-579,021	-35,571	-0,098	0,039
-578,006	-78,874	-0,078	0,020
-576,992	241,328	-0,069	-0,086
-575,977	-73,491	-0,066	0,018
-574,963	-106,834	0,021	-0,003
-573,948	35,664	-0,071	0,046
-572,934	58,746	-0,028	-0,020
-571,919	4,687	-0,073	-0,040
-570,904	147,690	0,083	0,083
-569,890	-200,000	-0,025	-0,108
-568,875	-200,000	0,019	0,107
-567,861	-67,526	0,093	0,027
-566,846	-200,000	-0,003	0,031
-565,831	-200,000	0,018	0,076
-564,817	-200,000	-0,007	-0,066
-563,802	-200,000	0,011	0,044
-562,788	-200,000	-0,003	-0,114
-561,773	-200,000	-0,003	0,048
-560,758	-12,927	0,076	-0,036
-559,744	-200,000	0,009	-0,146
-558,729	-200,000	0,012	-0,052
-557,715	33,524	-0,151	0,097
-556,700	-160,906	-0,173	-0,007
-555,685	-14,328	-0,074	0,035
-554,671	-42,838	0,112	-0,042
-553,656	-200,000	-0,024	-0,084
-552,642	117,412	-0,069	0,063
-551,627	194,070	-0,059	0,067
-550,612	-76,665	0,056	-0,014
-549,598	800,000	-0,039	-0,082
-548,583	210,415	-0,041	0,048
-547,569	50,804	-0,046	0,032
-546,554	156,470	0,083	0,084
-545,539	800,000	0,032	-0,104
-544,525	800,000	0,017	0,039
-543,510	-92,413	0,113	-0,023
-542,496	-200,000	-0,011	-0,230
-541,481	800,000	0,003	-0,011
-540,466	-200,000	0,022	-0,166
-539,452	73,876	-0,120	-0,093
-538,437	280,993	-0,074	0,099
-537,423	49,988	0,077	0,054
-536,408	68,646	-0,104	-0,079
-535,393	136,370	-0,028	-0,027
-534,379	-93,820	-0,096	-0,019
-533,364	2,290	-0,047	0,025
-532,350	800,000	-0,043	0,139
-531,335	-33,142	0,071	0,029
-530,321	-72,059	-0,099	-0,027
-529,306	166,661	-0,076	-0,080
-528,291	686,567	-0,037	-0,072
-527,277	800,000	0,030	0,063
-526,262	-200,000	0,007	-0,031
-525,248	142,083	0,180	-0,177
-524,233	315,571	0,061	0,085
-523,218	-85,857	0,063	-0,014
-522,204	40,039	-0,147	-0,098
-521,189	-200,000	0,014	-0,084
-520,175	800,000	-0,073	-0,153
-519,160	-200,000	-0,005	-0,055
-518,145	-200,000	0,013	-0,117
-517,131	-75,011	-0,056	0,015
-516,116	-200,000	0,021	0,130
-515,102	334,538	0,024	-0,035
-514,087	-12,873	-0,114	-0,055
-513,072	-13,034	0,112	-0,053
-512,058	168,184	-0,076	-0,080
-511,043	-200,000	0,016	-0,071
-510,029	661,207	-0,012	0,024
-509,014	274,822	0,026	-0,034
-507,999	800,000	-0,073	-0,207
-506,985	-117,010	-0,085	-0,011
-505,970	-156,902	0,076	-0,003
-504,956	800,000	-0,039	-0,124
-503,941	591,392	0,048	0,087
-502,926	404,158	0,027	-0,043
-501,912	-39,908	0,082	0,031
-500,897	-200,000	0,012	0,076
-499,883	38,971	0,038	-0,025
-498,868	800,000	0,050	-0,139
-497,853	-59,440	-0,130	-0,041
-496,839	372,299	0,079	-0,119
-495,824	520,222	-0,065	0,113
-494,810	59,116	0,092	0,067
-493,795	-126,128	0,078	0,008
-492,781	362,762	0,024	0,036
-491,766	138,328	-0,074	-0,071
-490,751	-200,000	0,000	-0,033
-489,737	-200,000	-0,014	0,129
-488,722	-50,500	0,074	0,026
-487,708	-69,453	0,034	-0,009
-486,693	-200,000	0,001	0,059
-485,678	272,760	0,047	0,062
-484,664	754,007	-0,059	0,117
-483,649	46,823	-0,020	0,014
-482,635	-119,549	0,024	0,003
-481,620	410,884	0,011	0,017
-480,605	-200,000	-0,008	0,064
-479,591	353,962	-0,083	0,121
-478,576	-176,688	0,109	-0,002
-477,562	31,403	0,122	0,077
-476,547	-81,623	-0,125	-0,030
-475,532	-200,000	-0,004	0,092
-474,518	800,000	0,017	0,046
-473,503	800,000	0,033	0,069
-472,489	601,617	0,010	0,019
-471,474	800,000	0,052	0,127
-470,459	106,541	-0,046	-0,040
-469,445	800,000	-0,007	-0,014
-468,430	-119,831	0,109	0,014
-467,416	-138,345	-0,099	-0,008
-466,401	150,623	-0,031	-0,031
-465,386	800,000	0,029	-0,074
-464,372	-200,000	0,018	0,170
-463,357	67,320	-0,004	-0,003
-462,343	56,644	-0,099	0,071
-461,328	113,167	0,015	-0,013
-460,313	63,862	-0,081	-0,060
-459,299	171,099	0,064	-0,068
-458,284	-111,879	-0,017	-0,002
-457,270	-146,167	0,105	-0,007
-456,255	-200,000	-0,003	-0,058
-455,241	-182,939	-0,098	0,001
-454,226	122,975	-0,062	-0,057
-453,211	57,335	0,050	0,036
-452,197	116,219	-0,055	0,050
-451,182	254,953	0,077	0,097
-450,168	83,040	0,059	0,047
-449,153	121,580	0,047	0,043
-448,138	-11,430	0,012	-0,006
-447,124	106,512	0,124	-0,109
-446,109	168,046	-0,088	0,092
-445,095	-200,000	-0,040	-0,155
-444,080	-200,000	0,015	0,073
-443,065	27,533	-0,091	-0,056
-442,051	-12,951	0,086	0,041
-441,036	-200,000	0,006	-0,113
-440,022	470,958	0,076	-0,127
-439,007	-64,791	0,043	0,013
-437,992	60,389	0,049	0,036
-436,978	547,391	-0,078	0,138
-435,963	-42,945	0,067	0,025
-434,949	-53,922	-0,058	-0,019
-433,934	800,000	-0,053	-0,129
-432,919	-200,000	-0,013	-0,099
-431,905	-21,885	0,098	0,044
-430,890	-27,363	-0,037	0,016
-429,876	-56,013	0,063	-0,021
-428,861	-142,745	0,059	0,004
-427,846	-120,858	0,026	0,003
-426,832	-200,000	0,017	-0,100
-425,817	-200,000	-0,020	-0,179
-424,803	-180,622	0,063	0,001
-423,788	253,911	-0,073	0,091
-422,773	800,000	-0,016	-0,033
-421,759	-105,328	0,149	-0,025
-420,744	236,734	-0,103	-0,126
-419,730	-108,045	-0,166	-0,026
-418,715	-200,000	0,026	-0,141
-417,701	-200,000	0,016	-0,239
-416,686	108,518	0,045	-0,039
-415,671	42,032	0,078	0,052
-414,657	29,560	0,048	-0,030
-413,642	800,000	-0,033	0,080
-412,628	-67,626	-0,135	-0,039
-411,613	367,674	-0,018	0,027
-410,598	-200,000	-0,005	-0,051
-409,584	-200,000	-0,021	0,116
-408,569	135,603	0,071	-0,068
-407,555	800,000	-0,009	-0,021
-406,540	102,168	0,041	0,035
-405,525	455,028	-0,043	0,070
-404,511	71,328	-0,058	0,044
-403,496	-200,000	0,011	-0,090
-402,482	603,520	-0,064	0,118
-401,467	800,000	-0,036	0,086
-400,452	-93,179	0,131	-0,026
-399,438	60,655	-0,152	-0,111
-398,423	171,298	0,053	-0,056
-397,409	-200,000	-0,001	-0,164
-396,394	-110,746	-0,110	0,016
-395,379	307,235	0,075	0,103
-394,365	800,000	-0,052	0,142
-393,350	-146,475	0,051	-0,003
-392,336	800,000	-0,021	0,043
-391,321	800,000	-0,002	-0,005
-390,306	-200,000	-0,007	-0,124
-389,292	151,283	0,077	0,077
-388,277	-200,000	0,006	0,109
-387,263	-45,512	-0,091	-0,033
-386,248	-200,000	0,039	0,174
-385,233	-165,780	0,123	0,004
-384,219	59,912	0,058	0,042
-383,204	59,188	-0,089	-0,064
-382,190	-200,000	0,030	-0,163
-381,175	-10,367	-0,055	-0,027
-380,160	220,611	-0,058	0,069
-379,146	123,160	0,094	0,087
-378,131	-45,715	0,015	0,005
-377,117	-29,630	-0,057	0,024
-376,102	104,264	0,049	0,042
-375,088	453,608	0,063	0,102
-374,073	800,000	-0,023	0,056
-373,058	114,129	-0,009	-0,008
-372,044	-14,613	0,056	0,026
-371,029	-200,000	0,003	0,085
-370,015	-93,493	-0,113	-0,023
-369,000	672,965	-0,030	-0,058
-367,985	249,000	-0,073	-0,091
-366,971	-200,000	-0,022	-0,082
-365,956	-68,436	-0,089	-0,025
-364,942	18,398	0,029	0,017
-363,927	126,331	0,063	0,059
-362,912	-50,758	0,024	0,008
-361,898	500,807	-0,049	0,084
-360,883	-200,000	0,002	-0,082
-359,869	66,101	0,052	0,039
-358,854	-85,568	0,040	0,009
-357,839	-127,449	0,109	0,012
-356,825	534,597	0,066	0,116
-355,810	-200,000	0,014	-0,075
-354,796	800,000	-0,022	-0,052
-353,781	440,010	0,053	-0,086
-352,766	800,000	-0,039	0,124
-351,752	800,000	0,042	0,113
-350,737	230,834	0,097	0,117
-349,723	34,716	-0,081	0,052
-348,708	-66,357	0,066	-0,019
-347,693	-200,000	0,004	-0,202
-346,679	37,633	-0,028	0,018
-345,664	199,979	-0,067	0,076
-344,650	675,569	-0,053	0,101
-343,635	-200,000	0,002	0,129
-342,620	-200,000	0,006	0,081
-341,606	-109,379	-0,070	-0,011
-340,591	-200,000	0,007	-0,051
-339,577	-200,000	-0,021	0,165
-338,562	148,917	-0,165	0,164
-337,548	-21,548	0,116	0,052
-336,533	800,000	0,099	0,226
-335,518	-200,000	-0,022	0,082
-334,504	800,000	0,019	0,058
-333,489	-7,412	-0,086	-0,042
-332,475	62,061	-0,124	-0,090
-331,460	-200,000	0,027	-0,098
-330,445	73,622	0,072	0,055
-329,431	-143,251	0,066	-0,005
-328,416	87,385	0,082	-0,067
-327,402	800,000	0,012	0,024
-326,387	246,224	-0,038	-0,047
-325,372	46,229	0,053	0,036
-324,358	-64,687	-0,040	-0,012
-323,343	-123,246	-0,027	0,003
-322,329	163,002	-0,024	-0,024
-321,314	800,000	0,043	0,107
-320,299	29,183	0,040	0,025
-319,285	-146,545	-0,032	0,002
-318,270	-32,322	-0,084	0,034
-317,256	216,309	-0,057	0,067
-316,241	15,875	0,035	0,020
-315,226	-72,454	0,147	-0,040
-314,212	-78,084	0,133	-0,033
-313,197	-141,717	0,019	0,001
-312,183	188,742	0,071	0,078
-311,168	800,000	-0,017	0,040
-310,153	-200,000	-0,009	0,036
-309,139	-140,348	-0,012	-0,001
-308,124	800,000	-0,014	0,039
-307,110	800,000	0,025	0,079
-306,095	159,750	-0,037	0,038
-305,080	1,101	-0,083	-0,043
-304,066	309,751	-0,028	-0,039
-303,051	-200,000	-0,013	-0,078
-302,037	-200,000	-0,019	-0,076
-301,022	-89,942	0,089	-0,019
-300,008	325,689	0,133	0,187
-298,993	-200,000	-0,004	0,218
-297,978	629,081	-0,035	0,065
-296,964	800,000	0,024	-0,070
-295,949	-200,000	-0,004	0,116
-294,935	800,000	-0,039	-0,114
-293,920	-91,547	0,151	-0,031
-292,905	27,653	0,092	-0,057
-291,891	40,378	-0,089	0,058
-290,876	395,872	0,014	-0,021
-289,862	-200,000	-0,002	0,057
-288,847	800,000	-0,047	-0,144
-287,832	-200,000	-0,001	-0,163
-286,818	112,986	-0,144	-0,128
-285,803	9,879	0,085	-0,047
-284,789	176,362	0,041	0,044
-283,774	183,240	0,105	0,114
-282,759	12,558	0,016	-0,009
-281,745	-200,000	0,014	0,073
-280,730	800,000	-0,015	-0,037
-279,716	800,000	-0,028	0,060
-278,701	-200,000	0,018	0,067
-277,686	13,238	0,105	-0,060
-276,672	27,257	-0,094	-0,058
-275,657	-200,000	-0,010	0,051
-274,643	800,000	0,083	-0,179
-273,628	-200,000	-0,007	-0,153
-272,613	16,258	0,033	-0,019
-271,599	727,624	0,052	0,102
-270,584	-200,000	0,005	-0,083
-269,570	-200,000	0,013	0,049
-268,555	21,797	-0,011	0,007
-267,540	800,000	-0,036	-0,103
-266,526	705,380	-0,039	-0,075
-265,511	71,052	0,053	-0,040
-264,497	-200,000	0,010	-0,104
-263,482	7,664	-0,082	-0,045
-262,467	-135,104	0,047	0,004
-261,453	-200,000	0,001	-0,084
-260,438	800,000	-0,047	-0,116
-259,424	-200,000	-0,011	-0,094
-258,409	-200,000	0,008	-0,076
-257,395	800,000	-0,029	-0,077
-256,380	-85,750	0,078	0,018
-255,365	-73,777	0,173	-0,046
-254,351	355,500	-0,030	-0,044
-253,336	-115,492	-0,125	-0,017
-252,322	237,062	-0,027	-0,032
-251,307	248,315	-0,064	-0,079
-250,292	-3,696	-0,086	-0,043
-249,278	-125,466	0,166	0,018
-248,263	15,286	0,069	0,040
-247,249	800,000	0,049	0,113
-246,234	-200,000	-0,017	0,060
-245,219	800,000	0,032	-0,073
-244,205	121,012	0,066	0,060
-243,190	-200,000	-0,025	0,107
-242,176	55,997	0,052	0,037
-241,161	-172,874	0,037	-0,001
-240,146	433,187	-0,061	0,097
-239,132	281,679	0,054	-0,070
-238,117	530,749	0,029	-0,050
-237,103	3,221	0,054	-0,029
-236,088	-200,000	-0,009	0,068
-235,073	800,000	0,037	-0,112
-234,059	-200,000	-0,015	0,122
-233,044	-200,000	0,015	-0,053
-232,030	-200,000	0,020	-0,150
-231,015	387,378	-0,011	0,016
-230,000	800,000	-0,008	0,023
-228,986	-109,322	-0,124	0,019
-227,971	-200,000	0,026	0,167
-226,957	-102,307	0,043	0,007
-225,942	181,464	0,049	-0,053
-224,927	800,000	-0,007	0,018
-223,913	-32,831	-0,118	-0,048
-222,898	800,000	-0,040	0,093
-221,884	-200,000	-0,008	-0,038
-220,869	-53,934	0,090	-0,030
-219,855	247,032	-0,047	0,058
-218,840	-96,493	0,109	-0,021
-217,825	-84,507	-0,030	0,007
-216,811	17,394	-0,042	0,025
-215,796	25,334	-0,119	0,072
-214,782	800,000	-0,051	0,116
-213,767	343,239	0,068	-0,098
-212,752	105,433	-0,122	0,106
-211,738	-200,000	-0,005	0,118
-210,723	-200,000	-0,008	0,146
-209,709	226,581	-0,022	0,026
-208,694	-200,000	0,016	-0,089
-207,679	115,446	0,017	0,015
-206,665	-200,000	0,028	0,102
-205,650	-200,000	-0,011	0,199
-204,636	-200,000	0,031	0,153
-203,621	-31,771	-0,023	-0,009
-202,606	-181,083	-0,071	0,001
-201,592	-200,000	-0,016	-0,094
-200,577	474,210	0,038	-0,063
-199,563	-19,194	-0,068	0,031
-198,548	141,497	0,019	0,018
-197,533	7,502	0,100	0,054
-196,519	63,818	-0,150	-0,110
-195,504	-37,445	0,070	0,027
-194,490	250,239	-0,039	0,048
-193,475	-109,134	-0,016	-0,002
-192,460	-200,000	0,010	-0,038
-191,446	440,441	0,039	-0,062
-190,431	169,144	0,034	0,035
-189,417	-62,510	0,051	0,015
-188,402	321,161	-0,042	0,058
-187,387	-96,306	-0,104	0,020
-186,373	259,477	0,109	-0,137
-185,358	-150,386	0,067	-0,004
-184,344	-70,699	0,088	0,024
-183,329	6,171	0,121	-0,065
-182,315	349,329	0,028	0,040
-181,300	-200,000	-0,029	0,195
-180,285	-41,489	0,031	0,012
-179,271	-139,424	-0,061	-0,005
-178,256	-106,665	-0,097	-0,016
-177,242	-200,000	-0,010	0,130
-176,227	-200,000	-0,011	-0,066
-175,212	352,020	0,043	0,062
-174,198	135,399	-0,033	0,031
-173,183	242,190	-0,026	-0,031
-172,169	-45,182	-0,080	-0,029
-171,154	163,151	-0,027	0,027
-170,139	800,000	0,063	0,137
-169,125	-94,034	0,081	0,016
-168,110	-200,000	-0,009	0,100
-167,096	6,467	-0,122	-0,066
-166,081	-135,729	0,164	-0,014
-165,066	-200,000	-0,013	-0,051
-164,052	-166,234	-0,033	0,001
-163,037	-200,000	-0,003	0,068
-162,023	-200,000	0,002	0,043
-161,008	-200,000	0,029	0,113
-159,993	85,073	-0,054	-0,043
-158,979	800,000	-0,046	-0,109
-157,964	-200,000	-0,004	0,049
-156,950	-200,000	0,004	0,056
-155,935	275,217	0,060	-0,078
-154,920	-200,000	-0,012	-0,096
-153,906	-65,025	0,029	-0,008
-152,891	559,284	0,013	-0,023
-151,877	-17,598	0,088	-0,040
-150,862	42,656	0,043	-0,028
-149,847	-200,000	-0,007	-0,093
-148,833	-34,217	-0,036	-0,015
-147,818	164,929	0,068	-0,070
-146,804	84,773	-0,059	0,047
-145,789	23,346	0,086	0,051
-144,775	100,409	-0,059	0,050
-143,760	-102,905	0,099	-0,017
-142,745	152,670	0,060	-0,060
-141,731	135,860	-0,094	0,089
-140,716	-61,711	0,128	0,039
-139,702	-78,576	0,066	0,016
-138,687	250,189	-0,051	0,063
-137,672	50,413	-0,086	0,059
-136,658	-200,000	-0,005	0,029
-135,643	-48,454	0,037	-0,013
-134,629	-200,000	0,013	0,142
-133,614	-112,348	-0,028	0,004
-132,599	46,286	0,045	0,030
-131,585	-200,000	-0,008	-0,033
-130,570	601,390	0,053	0,097
-129,556	-200,000	-0,007	-0,066
-128,541	-200,000	-0,007	-0,040
-127,526	-74,219	0,146	-0,038
-126,512	223,967	0,011	-0,013
-125,497	-200,000	0,023	0,109
-124,483	-200,000	-0,005	-0,034
-123,468	-200,000	-0,005	0,041
-122,453	-165,306	0,023	0,001
-121,439	-77,018	-0,112	-0,028
-120,424	271,886	0,072	-0,092
-119,410	316,078	0,067	-0,092
