DTS Sentinel unit serial number:	SN410029Multiplexer serial number:	ORYXHardware model number:	OX2-SRSoftware version number:	ORYX F/W v4,00 Oryx Data Collector v3.7.2.0data status	okinstallation	B6 Nyhavnadifferential loss correction	single-endedforward channel	channel 2reverse channel	N/Adate	2023/12/08time	15:30:08forward acquisition time	300,00reverse acquisition time	0,00gamma	499,1914k internal	0,3159k external	0,3159temperature offset calibration	1,0000default loss term (dB/km)	0,3820temperature slope calibration	1,0000multiplexer offset coefficient	1,0000multiplexer slope coefficient	1,0000fibre end	0,00T internal ref (°C)	15,08T ext. ref 1 (°C)	-1,46T ext. ref 2 (°C)	-1,46length (m)	temperature (°C)	Stokes	anti-Stokes-744,400	431,796	0,047	-0,075
-743,385	-98,874	-0,189	-0,035
-742,371	-163,194	0,135	0,005
-741,356	-4,144	-0,179	0,091
-740,342	329,650	0,051	0,073
-739,327	-141,120	-0,357	0,027
-738,312	138,609	-0,038	0,037
-737,298	-152,352	-0,441	-0,023
-736,283	-87,008	0,110	-0,024
-735,269	-152,944	-0,296	-0,015
-734,254	310,650	-0,118	0,163
-733,239	-57,778	-0,542	-0,174
-732,225	-200,000	0,044	0,208
-731,210	-99,828	0,106	0,019
-730,196	125,293	-0,008	0,008
-729,181	53,084	-0,078	-0,055
-728,167	72,426	-0,089	-0,068
-727,152	-140,619	-0,123	-0,009
-726,137	77,216	-0,090	-0,070
-725,123	-150,593	0,048	-0,003
-724,108	247,926	-0,074	-0,092
-723,094	-154,385	-0,168	-0,008
-722,079	-61,850	-0,056	0,017
-721,064	-54,591	-0,025	0,008
-720,050	-108,607	-0,019	0,003
-719,035	-63,636	-0,120	-0,036
-718,021	-200,000	-0,002	0,040
-717,006	254,769	-0,043	-0,054
-715,991	181,881	-0,129	-0,140
-714,977	40,572	-0,077	0,051
-713,962	800,000	0,046	-0,107
-712,948	-200,000	-0,006	0,053
-711,933	556,762	-0,009	0,015
-710,918	800,000	-0,026	0,069
-709,904	-200,000	-0,069	-0,226
-708,889	800,000	-0,022	-0,059
-707,875	-7,011	-0,053	-0,027
-706,860	-118,677	-0,043	0,005
-705,845	-200,000	0,004	-0,032
-704,831	-56,531	-0,150	0,049
-703,816	75,949	-0,076	-0,059
-702,802	74,675	0,095	0,074
-701,787	715,293	0,084	0,165
-700,772	95,257	-0,104	-0,087
-699,758	-200,000	0,017	-0,120
-698,743	220,556	0,098	-0,116
-697,729	-200,000	0,027	-0,098
-696,714	800,000	-0,058	0,146
-695,699	-10,800	-0,143	-0,069
-694,685	-15,396	-0,106	-0,050
-693,670	86,502	-0,097	-0,079
-692,656	245,643	0,089	0,111
-691,641	-200,000	0,001	-0,056
-690,627	-10,033	0,023	0,011
-689,612	97,270	-0,151	-0,127
-688,597	27,862	-0,033	-0,020
-687,583	800,000	-0,038	-0,092
-686,568	-36,580	-0,117	0,046
-685,554	-86,992	0,013	-0,003
-684,539	39,787	0,026	0,017
-683,524	800,000	0,086	0,185
-682,510	259,763	0,028	-0,035
-681,495	800,000	-0,061	0,132
-680,481	-95,648	-0,049	0,009
-679,466	-48,504	-0,081	0,029
-678,451	-200,000	-0,015	0,087
-677,437	-200,000	-0,017	0,058
-676,422	-65,655	0,155	0,045
-675,408	-133,977	-0,081	-0,007
-674,393	-103,419	0,041	-0,007
-673,378	124,792	0,024	0,022
-672,364	154,273	0,068	0,068
-671,349	462,344	-0,049	-0,081
-670,335	717,406	-0,057	0,112
-669,320	12,009	0,094	-0,053
-668,305	617,918	-0,069	-0,128
-667,291	-200,000	-0,014	0,105
-666,276	257,724	0,089	-0,113
-665,262	-200,000	0,016	-0,069
-664,247	800,000	0,079	-0,214
-663,232	189,734	-0,076	-0,084
-662,218	800,000	0,055	-0,139
-661,203	350,116	0,055	0,079
-660,189	302,844	0,043	0,058
-659,174	582,639	-0,046	-0,083
-658,159	353,971	0,028	0,041
-657,145	-96,735	-0,034	0,006
-656,130	137,133	-0,013	0,012
-655,116	-2,172	0,116	0,060
-654,101	328,105	-0,041	-0,058
-653,086	-112,399	-0,106	0,015
-652,072	-106,989	0,166	-0,027
-651,057	88,585	-0,081	-0,066
-650,043	-166,562	-0,128	0,004
-649,028	-101,930	0,112	0,020
-648,014	-98,236	0,016	0,003
-646,999	28,106	-0,057	0,035
-645,984	122,648	-0,027	0,025
-644,970	385,177	-0,047	-0,071
-643,955	-200,000	0,002	-0,181
-642,941	800,000	-0,049	-0,153
-641,926	-200,000	-0,001	0,014
-640,911	139,707	-0,131	-0,126
-639,897	-200,000	0,004	-0,059
-638,882	142,356	-0,053	0,052
-637,868	800,000	0,062	0,133
-636,853	186,112	-0,099	-0,109
-635,838	245,898	-0,111	-0,137
-634,824	36,584	0,064	0,041
-633,809	800,000	0,062	-0,177
-632,795	-66,459	0,049	-0,014
-631,780	800,000	-0,038	0,113
-630,765	-200,000	-0,008	0,056
-629,751	800,000	-0,026	-0,079
-628,736	-23,185	-0,130	0,057
-627,722	-12,352	0,075	-0,036
-626,707	356,375	-0,034	0,050
-625,692	157,199	0,048	0,048
-624,678	-119,247	-0,051	0,006
-623,663	470,425	-0,082	-0,136
-622,649	2,330	-0,086	-0,045
-621,634	-200,000	0,013	0,054
-620,619	660,221	-0,009	-0,017
-619,605	800,000	0,019	-0,056
-618,590	-200,000	0,003	0,018
-617,576	-147,955	0,148	-0,009
-616,561	73,086	-0,140	-0,107
-615,546	800,000	-0,058	-0,147
-614,532	-200,000	-0,001	-0,101
-613,517	291,269	-0,041	-0,054
-612,503	24,639	0,020	0,012
-611,488	-200,000	0,012	-0,053
-610,474	526,913	-0,052	-0,090
-609,459	36,180	0,016	0,010
-608,444	186,689	0,064	-0,070
-607,430	746,833	-0,097	-0,192
-606,415	800,000	0,061	-0,142
-605,401	23,319	-0,095	-0,057
-604,386	-200,000	0,007	0,037
-603,371	800,000	-0,070	0,143
-602,357	800,000	-0,046	0,116
-601,342	40,307	-0,066	-0,043
-600,328	-171,260	0,007	-0,000
-599,313	-144,897	-0,047	0,003
-598,298	-119,356	0,091	-0,011
-597,284	-75,981	0,173	0,044
-596,269	800,000	0,041	-0,105
-595,255	-1,362	-0,040	-0,021
-594,240	800,000	-0,027	-0,082
-593,225	-43,960	-0,129	0,047
-592,211	-24,281	-0,114	-0,050
-591,196	-139,080	-0,089	-0,007
-590,182	-78,883	0,130	-0,032
-589,167	-200,000	-0,001	0,062
-588,152	800,000	-0,050	-0,107
-587,138	6,851	0,037	0,020
-586,123	604,952	0,064	-0,117
-585,109	35,680	-0,072	-0,046
-584,094	-200,000	-0,008	-0,103
-583,079	-200,000	-0,019	0,076
-582,065	800,000	0,030	0,069
-581,050	468,216	0,103	0,169
-580,036	-80,534	-0,035	-0,008
-579,021	-29,013	-0,023	-0,010
-578,006	-200,000	0,005	-0,028
-576,992	-32,429	-0,008	-0,003
-575,977	275,074	0,100	0,130
-574,963	144,368	0,074	0,073
-573,948	-200,000	0,008	0,077
-572,934	86,215	-0,080	0,065
-571,919	130,271	-0,053	0,050
-570,904	8,495	0,103	-0,057
-569,890	800,000	0,035	0,098
-568,875	298,695	0,038	0,052
-567,861	-200,000	0,039	0,199
-566,846	-200,000	-0,012	-0,048
-565,831	800,000	-0,031	-0,067
-564,817	-200,000	0,004	-0,046
-563,802	-101,322	-0,097	-0,017
-562,788	-200,000	-0,041	-0,176
-561,773	-200,000	0,010	-0,040
-560,758	14,103	0,155	0,088
-559,744	701,767	-0,034	0,066
-558,729	-136,906	-0,042	-0,003
-557,715	661,282	-0,047	0,089
-556,700	-136,585	-0,026	-0,002
-555,685	-200,000	0,007	-0,065
-554,671	304,988	0,018	0,025
-553,656	-143,372	0,146	-0,010
-552,642	-200,000	-0,014	0,087
-551,627	-200,000	-0,032	-0,122
-550,612	-117,617	0,006	-0,001
-549,598	-200,000	-0,018	-0,144
-548,583	248,310	-0,047	-0,059
-547,569	38,869	0,096	-0,062
-546,554	-167,253	-0,084	0,002
-545,539	374,308	0,046	-0,068
-544,525	-91,399	0,076	0,016
-543,510	549,817	-0,054	0,095
-542,496	54,320	-0,032	-0,023
-541,481	-32,069	0,037	-0,015
-540,466	-18,286	0,079	-0,036
-539,452	-84,232	0,245	0,056
-538,437	14,791	-0,049	0,028
-537,423	-117,082	0,107	-0,014
-536,408	-122,596	-0,134	0,016
-535,393	-76,354	0,113	-0,029
-534,379	33,483	-0,071	-0,045
-533,364	-90,371	0,053	-0,011
-532,350	-81,255	0,102	-0,024
-531,335	580,651	0,081	0,145
-530,321	59,570	-0,047	0,034
-529,306	196,565	-0,069	-0,077
-528,291	800,000	-0,023	0,053
-527,277	-8,737	-0,145	-0,071
-526,262	-29,369	-0,042	-0,017
-525,248	24,305	-0,088	0,053
-524,233	800,000	0,049	0,139
-523,218	-10,292	0,128	-0,062
-522,204	190,882	-0,093	0,102
-521,189	800,000	-0,050	0,130
-520,175	800,000	0,084	-0,187
-519,160	34,643	-0,057	-0,036
-518,145	-173,114	-0,179	-0,004
-517,131	50,119	0,038	0,026
-516,116	47,166	-0,084	0,057
-515,102	372,148	-0,067	-0,099
-514,087	180,999	-0,109	-0,117
-513,072	-200,000	-0,007	-0,109
-512,058	-200,000	-0,005	-0,146
-511,043	284,324	-0,016	0,020
-510,029	227,728	0,037	-0,044
-509,014	199,950	0,032	0,036
-507,999	40,176	-0,052	-0,034
-506,985	-58,184	-0,039	-0,012
-505,970	-200,000	0,005	0,018
-504,956	800,000	0,051	-0,156
-503,941	-124,134	0,053	-0,006
-502,926	-200,000	0,012	0,078
-501,912	-110,190	0,072	0,011
-500,897	800,000	-0,045	-0,119
-499,883	-49,509	0,181	0,063
-498,868	800,000	0,049	-0,127
-497,853	-200,000	-0,016	-0,147
-496,839	-67,165	0,078	0,022
-495,824	-200,000	0,008	-0,072
-494,810	-10,716	0,114	0,055
-493,795	-104,873	-0,020	-0,003
-492,781	800,000	-0,056	0,136
-491,766	800,000	0,045	-0,096
-490,751	-9,596	-0,067	-0,033
-489,737	800,000	-0,024	0,053
-488,722	-152,380	-0,051	-0,003
-487,708	-98,514	0,139	0,026
-486,693	-140,414	0,136	0,010
-485,678	195,636	0,028	-0,031
-484,664	-111,540	-0,130	0,019
-483,649	-17,107	0,097	0,044
-482,635	800,000	0,065	-0,133
-481,620	216,019	0,033	0,039
-480,605	-200,000	-0,005	0,082
-479,591	3,710	0,025	0,013
-478,576	800,000	0,010	0,020
-477,562	-33,896	-0,046	-0,018
-476,547	380,436	-0,032	-0,047
-475,532	-200,000	-0,002	0,023
-474,518	504,388	-0,053	-0,089
-473,503	474,208	-0,017	0,029
-472,489	147,694	-0,100	-0,098
-471,474	-74,949	-0,106	0,028
-470,459	-200,000	0,008	-0,041
-469,445	800,000	0,024	-0,073
-468,430	-200,000	-0,012	-0,079
-467,416	120,623	-0,040	0,036
-466,401	-41,650	-0,025	0,009
-465,386	-200,000	-0,009	0,038
-464,372	208,105	0,016	0,019
-463,357	800,000	-0,045	-0,100
-462,343	90,619	0,081	-0,066
-461,328	579,831	-0,071	-0,128
-460,313	800,000	0,018	-0,049
-459,299	-200,000	-0,017	-0,071
-458,284	-200,000	-0,025	0,133
-457,270	143,341	-0,058	0,056
-456,255	-65,685	0,103	0,030
-455,241	93,922	-0,019	-0,016
-454,226	800,000	-0,036	-0,073
-453,211	-153,840	0,065	0,003
-452,197	-98,028	0,030	-0,006
-451,182	-200,000	-0,013	-0,073
-450,168	230,047	-0,024	0,028
-449,153	254,988	-0,024	0,030
-448,138	76,228	0,070	0,054
-447,124	-28,098	-0,108	0,045
-446,109	158,653	-0,023	0,023
-445,095	-82,610	-0,059	-0,014
-444,080	-152,944	-0,159	-0,008
-443,065	148,105	0,138	-0,136
-442,051	-135,050	-0,125	0,011
-441,036	-67,704	0,118	0,033
-440,022	275,321	-0,008	0,011
-439,007	-6,999	0,201	0,099
-437,992	-200,000	0,010	0,093
-436,978	-200,000	0,022	0,079
-435,963	617,862	0,055	-0,101
-434,949	800,000	-0,006	-0,012
-433,934	-63,101	-0,076	-0,023
-432,919	-74,562	-0,145	-0,038
-431,905	604,268	0,049	-0,089
-430,890	-64,440	0,118	0,035
-429,876	150,387	0,055	0,055
-428,861	69,569	0,054	0,041
-427,846	-200,000	0,005	0,114
-426,832	396,847	0,035	0,054
-425,817	-200,000	0,012	-0,136
-424,803	-200,000	-0,004	-0,133
-423,788	4,075	0,147	0,078
-422,773	130,563	0,041	0,038
-421,759	-200,000	-0,023	0,129
-420,744	-160,826	0,130	-0,005
-419,730	-93,335	-0,085	-0,017
-418,715	800,000	0,041	0,132
-417,701	-61,836	0,089	0,027
-416,686	767,776	-0,068	0,135
-415,671	203,567	0,023	0,026
-414,657	-200,000	-0,006	0,071
-413,642	-68,117	0,084	-0,024
-412,628	149,615	-0,060	0,060
-411,613	153,666	-0,101	-0,101
-410,598	-81,233	-0,094	-0,022
-409,584	-200,000	0,002	-0,018
-408,569	118,689	-0,043	0,039
-407,555	-151,053	0,093	0,005
-406,540	134,892	-0,017	0,016
-405,525	800,000	0,033	-0,074
-404,511	297,362	-0,095	-0,127
-403,496	-50,165	-0,202	-0,069
-402,482	114,408	0,010	0,008
-401,467	-200,000	-0,003	0,189
-400,452	380,035	0,126	0,188
-399,438	2,970	0,045	0,023
-398,423	270,156	-0,079	0,102
-397,409	-200,000	0,014	-0,062
-396,394	697,242	0,043	-0,082
-395,379	-200,000	-0,014	-0,069
-394,365	-8,052	0,139	-0,068
-393,350	-40,778	-0,078	0,029
-392,336	609,807	-0,013	0,024
-391,321	-26,873	-0,092	0,039
-390,306	327,989	-0,037	-0,052
-389,292	-200,000	-0,000	-0,081
-388,277	-200,000	-0,025	0,096
-387,263	800,000	0,024	0,076
-386,248	692,758	0,030	0,057
-385,233	-200,000	0,032	0,108
-384,219	-4,640	-0,100	0,050
-383,204	-200,000	-0,011	0,062
-382,190	-123,959	-0,059	-0,007
-381,175	66,711	0,057	0,042
-380,160	-2,501	0,077	0,039
-379,146	470,257	-0,054	0,088
-378,131	-200,000	0,020	-0,077
-377,117	-39,122	-0,083	-0,031
-376,102	475,894	-0,063	-0,104
-375,088	-36,497	-0,078	0,030
-374,073	-134,717	0,050	-0,004
-373,058	289,956	-0,022	-0,030
-372,044	-112,870	0,135	-0,019
-371,029	-200,000	0,036	0,155
-370,015	249,774	-0,059	-0,073
-369,000	-128,779	0,059	-0,006
-367,985	53,819	-0,054	0,038
-366,971	-181,783	0,092	0,001
-365,956	33,302	0,119	-0,075
-364,942	-22,379	-0,055	-0,024
-363,927	-200,000	0,020	0,082
-362,912	117,204	-0,097	-0,086
-361,898	782,514	-0,050	0,100
-360,883	800,000	0,028	0,078
-359,869	-200,000	0,003	0,068
-358,854	540,949	-0,026	0,045
-357,839	-200,000	0,029	0,124
-356,825	755,850	0,060	-0,118
-355,810	79,857	-0,097	0,076
-354,796	-200,000	-0,050	0,176
-353,781	161,801	-0,045	-0,046
-352,766	-200,000	-0,008	-0,078
-351,752	-200,000	-0,003	-0,038
-350,737	-51,025	0,191	-0,065
-349,723	-119,649	0,115	-0,014
-348,708	-200,000	-0,015	0,064
-347,693	-84,715	-0,022	0,005
-346,679	-9,654	-0,051	-0,024
-345,664	73,681	-0,086	0,065
-344,650	-142,332	0,050	0,004
-343,635	7,017	0,077	-0,042
-342,620	165,357	0,068	0,069
-341,606	16,955	0,205	-0,118
-340,591	-200,000	0,002	-0,056
-339,577	-40,376	-0,112	-0,042
-338,562	800,000	-0,019	-0,043
-337,548	-200,000	0,025	0,101
-336,533	-65,287	0,183	-0,053
-335,518	800,000	-0,049	0,137
-334,504	-27,467	-0,108	-0,046
-333,489	382,991	0,068	-0,102
-332,475	-3,718	0,097	-0,049
-331,460	689,464	-0,019	-0,035
-330,445	800,000	-0,031	0,072
-329,431	6,322	0,148	0,079
-328,416	323,605	-0,040	-0,056
-327,402	338,940	-0,056	-0,079
-326,387	-89,967	0,159	-0,033
-325,372	-91,866	0,079	-0,016
-324,358	-20,432	0,074	-0,033
-323,343	779,176	-0,042	-0,084
-322,329	-200,000	-0,002	-0,017
-321,314	-159,831	0,089	-0,003
-320,299	-69,702	0,091	-0,025
-319,285	153,873	-0,013	0,012
-318,270	242,397	0,070	-0,085
-317,256	48,176	-0,112	-0,076
-316,241	-134,363	-0,210	0,018
-315,226	-200,000	0,001	0,032
-314,212	-116,290	-0,071	-0,009
-313,197	800,000	0,062	0,180
-312,183	85,384	0,071	-0,057
-311,168	-56,776	-0,103	0,033
-310,153	-29,632	0,051	-0,021
-309,139	-200,000	-0,013	0,101
-308,124	306,490	0,012	0,016
-307,110	138,534	0,101	0,096
-306,095	418,903	-0,047	0,074
-305,080	800,000	-0,042	0,096
-304,066	148,469	0,044	-0,043
-303,051	800,000	-0,025	-0,062
-302,037	-200,000	0,003	0,066
-301,022	61,585	0,061	-0,044
-300,008	54,560	-0,062	0,043
-298,993	-200,000	0,011	0,078
-297,978	800,000	0,036	0,075
-296,964	284,473	0,029	-0,038
-295,949	-200,000	0,005	0,072
-294,935	24,388	-0,158	-0,095
-293,920	-200,000	0,011	-0,117
-292,905	299,436	0,050	-0,066
-291,891	99,991	0,055	-0,046
-290,876	-200,000	0,026	0,125
-289,862	270,223	0,047	0,060
-288,847	-200,000	0,069	-0,237
-287,832	68,733	-0,136	0,101
-286,818	272,006	-0,076	0,098
-285,803	765,050	0,053	0,105
-284,789	233,914	0,028	0,034
-283,774	94,854	0,033	0,027
-282,759	-58,032	-0,219	-0,069
-281,745	-84,316	-0,046	-0,011
-280,730	-135,165	-0,051	0,004
-279,716	191,852	-0,010	-0,011
-278,701	800,000	-0,030	0,066
-277,686	-2,650	-0,093	0,047
-276,672	-82,536	0,158	0,037
-275,657	491,945	0,092	0,154
-274,643	-200,000	0,012	-0,126
-273,628	-200,000	-0,010	-0,111
-272,613	800,000	0,026	-0,069
-271,599	323,069	0,107	0,148
-270,584	-99,920	0,102	0,018
-269,570	21,121	-0,108	-0,063
-268,555	-113,233	-0,122	0,017
-267,540	255,822	0,093	-0,116
-266,526	-25,790	-0,071	0,030
-265,511	16,453	-0,085	0,049
-264,497	800,000	0,020	-0,058
-263,482	-68,086	0,050	0,014
-262,467	-200,000	-0,002	0,100
-261,453	274,170	0,028	0,035
-260,438	-200,000	-0,001	-0,058
-259,424	16,155	0,112	-0,064
-258,409	-35,337	-0,066	-0,026
-257,395	213,733	-0,096	-0,109
-256,380	-200,000	-0,003	-0,016
-255,365	800,000	0,035	-0,086
-254,351	-200,000	0,047	0,202
-253,336	-200,000	0,021	0,075
-252,322	446,182	0,046	0,073
-251,307	157,135	-0,120	0,120
-250,292	-200,000	0,065	0,000
-249,278	800,000	-0,013	-0,027
-248,263	-98,110	0,115	-0,021
-247,249	-200,000	0,034	0,120
-246,234	800,000	0,055	-0,116
-245,219	800,000	-0,048	-0,106
-244,205	800,000	0,036	0,076
-243,190	-109,450	0,032	-0,005
-242,176	-106,020	0,137	-0,022
-241,161	-200,000	-0,017	0,088
-240,146	131,049	-0,114	-0,106
-239,132	-100,769	0,185	-0,033
-238,117	444,865	-0,080	-0,128
-237,103	-19,814	-0,073	-0,033
-236,088	800,000	-0,021	-0,043
-235,073	800,000	0,024	0,052
-234,059	-60,647	0,047	0,014
-233,044	800,000	-0,051	0,149
-232,030	800,000	-0,012	-0,024
-231,015	15,438	-0,136	-0,077
-230,000	-59,471	-0,071	-0,022
-228,986	800,000	0,009	0,024
-227,971	117,841	-0,137	-0,122
-226,957	79,977	-0,024	-0,019
-225,942	-200,000	0,020	0,131
-224,927	68,886	-0,014	-0,011
-223,913	371,125	0,028	0,042
-222,898	-82,556	-0,027	0,006
-221,884	402,277	0,035	-0,053
-220,869	-54,544	-0,080	-0,026
-219,855	91,740	0,064	-0,052
-218,840	11,285	-0,077	0,042
-217,825	800,000	0,023	0,054
-216,811	-200,000	-0,027	-0,133
-215,796	57,104	-0,039	0,027
-214,782	-200,000	0,033	0,126
-213,767	62,616	-0,026	0,019
-212,752	-200,000	-0,026	-0,181
-211,738	-84,815	-0,123	-0,028
-210,723	66,507	0,029	0,021
-209,709	-200,000	0,009	-0,051
-208,694	-200,000	-0,005	-0,089
-207,679	-176,078	-0,061	0,001
-206,665	-94,063	0,026	0,005
-205,650	799,349	0,017	0,035
-204,636	103,985	0,131	0,111
-203,621	800,000	0,055	0,170
-202,606	-104,758	-0,196	-0,032
-201,592	173,314	-0,102	-0,106
-200,577	-75,864	-0,036	-0,009
-199,563	-200,000	-0,018	0,071
-198,548	800,000	0,047	0,095
-197,533	-200,000	-0,006	0,118
-196,519	-200,000	0,027	-0,093
-195,504	61,236	-0,137	-0,098
-194,490	-200,000	0,024	0,138
-193,475	-180,010	-0,169	-0,003
-192,460	-200,000	-0,028	0,098
-191,446	-90,726	0,143	0,030
-190,431	-200,000	0,029	0,173
-189,417	-18,142	0,201	0,090
-188,402	-200,000	0,023	0,097
-187,387	249,842	0,030	0,036
-186,373	2,145	-0,020	-0,010
-185,358	249,046	0,034	0,041
-184,344	-200,000	0,021	0,069
-183,329	-166,976	0,039	-0,001
-182,315	-200,000	0,002	-0,034
-181,300	-25,639	0,025	0,011
-180,285	349,027	0,104	0,148
-179,271	800,000	-0,060	-0,127
-178,256	-7,364	-0,036	-0,018
-177,242	-3,529	0,118	0,059
-176,227	183,442	-0,027	-0,029
-175,212	772,661	0,034	0,066
-174,198	-200,000	0,026	-0,106
-173,183	800,000	-0,013	-0,028
-172,169	-200,000	0,002	0,011
-171,154	-8,026	0,060	0,029
-170,139	-102,689	-0,078	0,013
-169,125	11,059	-0,070	0,038
-168,110	-167,466	0,109	0,003
-167,096	-72,396	0,047	-0,013
-166,081	191,990	-0,070	0,076
-165,066	800,000	-0,041	-0,086
-164,052	-48,185	-0,065	0,023
-163,037	800,000	0,005	-0,011
-162,023	108,213	0,038	0,033
-161,008	800,000	0,033	0,092
-159,993	-200,000	-0,003	0,068
-158,979	187,185	-0,042	0,045
-157,964	211,298	-0,064	0,072
-156,950	118,641	-0,012	-0,010
-155,935	52,403	-0,084	0,058
-154,920	-200,000	0,001	0,105
-153,906	34,601	0,039	0,024
-152,891	479,690	-0,050	-0,082
-151,877	82,337	-0,055	-0,043
-150,862	157,505	0,016	-0,016
-149,847	-141,559	-0,176	-0,013
-148,833	-200,000	-0,002	-0,088
-147,818	344,593	-0,034	-0,049
-146,804	-50,556	-0,064	0,022
-145,789	800,000	-0,074	-0,151
-144,775	800,000	0,018	0,052
-143,760	-20,443	0,069	-0,030
-142,745	17,244	-0,076	-0,043
-141,731	184,688	-0,033	0,035
-140,716	800,000	-0,031	0,083
-139,702	-200,000	0,003	0,082
-138,687	55,243	0,061	0,043
-137,672	47,761	-0,111	0,075
-136,658	800,000	-0,087	-0,269
-135,643	-29,400	0,068	-0,028
-134,629	-99,284	-0,144	-0,026
-133,614	394,040	-0,063	-0,094
-132,599	28,088	-0,023	0,014
-131,585	-28,541	0,105	-0,043
-130,570	31,706	0,083	0,051
-129,556	520,261	-0,075	-0,127
-128,541	800,000	0,024	-0,072
-127,526	168,830	-0,018	-0,019
-126,512	361,206	0,026	0,038
-125,497	-14,618	0,045	0,021
-124,483	-23,916	0,143	-0,061
-123,468	70,458	0,097	0,072
-122,453	-35,553	-0,063	-0,025
-121,439	-54,241	-0,132	-0,043
-120,424	18,532	0,106	-0,061
-119,410	800,000	-0,059	0,152
