DTS Sentinel unit serial number:	SN410029Multiplexer serial number:	ORYXHardware model number:	OX2-SRSoftware version number:	ORYX F/W v4,00 Oryx Data Collector v3.7.2.0data status	okinstallation	B6 Nyhavnadifferential loss correction	single-endedforward channel	channel 2reverse channel	N/Adate	2023/12/09time	18:55:08forward acquisition time	300,00reverse acquisition time	0,00gamma	499,1914k internal	0,3130k external	0,3130temperature offset calibration	1,0000default loss term (dB/km)	0,3820temperature slope calibration	1,0000multiplexer offset coefficient	1,0000multiplexer slope coefficient	1,0000fibre end	0,00T internal ref (°C)	21,06T ext. ref 1 (°C)	4,76T ext. ref 2 (°C)	4,75length (m)	temperature (°C)	Stokes	anti-Stokes-744,400	800,000	-0,018	-0,044
-743,385	-170,663	-0,245	-0,006
-742,371	-28,336	0,188	0,080
-741,356	217,856	-0,151	0,180
-740,342	77,402	0,079	-0,062
-739,327	4,197	-0,187	0,102
-738,312	484,900	0,094	-0,160
-737,298	-82,999	-0,274	0,065
-736,283	164,257	0,029	0,031
-735,269	-36,011	-0,180	0,072
-734,254	292,872	0,068	-0,092
-733,239	-54,667	-0,467	-0,156
-732,225	-122,898	0,247	0,029
-731,210	-103,711	-0,046	0,008
-730,196	-67,961	-0,182	-0,052
-729,181	-200,000	-0,009	0,059
-728,167	-154,264	0,119	-0,006
-727,152	105,653	0,057	0,050
-726,137	66,127	0,038	0,029
-725,123	-29,499	-0,086	-0,036
-724,108	-200,000	-0,036	-0,152
-723,094	201,198	-0,166	-0,190
-722,079	544,426	-0,056	-0,100
-721,064	-200,000	0,010	-0,207
-720,050	-0,218	-0,115	-0,061
-719,035	604,881	0,018	0,033
-718,021	-200,000	0,016	-0,107
-717,006	-86,582	-0,208	0,047
-715,991	-31,253	-0,122	-0,051
-714,977	-124,055	0,011	-0,001
-713,962	-141,946	0,066	0,005
-712,948	-73,369	0,059	0,016
-711,933	800,000	0,018	0,037
-710,918	-126,206	-0,070	-0,008
-709,904	247,594	-0,080	0,101
-708,889	216,687	-0,061	-0,073
-707,875	-59,167	-0,140	0,044
-706,860	149,753	-0,072	0,072
-705,845	-110,245	0,115	-0,018
-704,831	-200,000	-0,013	-0,062
-703,816	-200,000	0,001	-0,024
-702,802	-97,599	-0,131	0,025
-701,787	-91,831	-0,044	0,009
-700,772	-200,000	-0,009	0,032
-699,758	-61,603	0,025	0,008
-698,743	-200,000	-0,002	-0,121
-697,729	445,864	0,054	0,089
-696,714	77,256	-0,151	0,119
-695,699	39,772	0,054	-0,036
-694,685	-121,704	-0,147	0,018
-693,670	287,192	-0,056	-0,075
-692,656	455,059	0,086	-0,143
-691,641	-180,933	0,093	0,001
-690,627	-84,073	-0,112	0,026
-689,612	-200,000	0,019	0,133
-688,597	202,073	-0,042	-0,049
-687,583	337,782	-0,084	-0,122
-686,568	527,834	-0,060	0,105
-685,554	-2,087	0,048	-0,025
-684,539	86,451	0,087	-0,071
-683,524	-200,000	-0,008	-0,117
-682,510	-147,400	0,029	0,002
-681,495	800,000	-0,029	0,065
-680,481	-27,724	-0,065	-0,028
-679,466	-67,399	0,074	0,022
-678,451	1,683	0,105	-0,056
-677,437	-134,799	0,051	0,004
-676,422	-144,087	0,030	0,002
-675,408	-35,961	0,021	-0,008
-674,393	11,956	-0,083	-0,047
-673,378	143,336	-0,044	0,044
-672,364	472,128	-0,018	0,030
-671,349	499,864	0,043	0,073
-670,335	-105,335	-0,119	0,020
-669,320	313,815	-0,004	0,006
-668,305	158,396	-0,144	0,149
-667,291	-71,113	-0,077	0,021
-666,276	-55,265	-0,190	-0,063
-665,262	-82,163	-0,064	-0,015
-664,247	-200,000	-0,011	0,048
-663,232	459,012	0,077	-0,128
-662,218	54,124	-0,075	0,054
-661,203	-58,144	0,005	0,002
-660,189	613,644	-0,100	0,186
-659,174	764,275	0,050	-0,100
-658,159	-200,000	-0,037	-0,187
-657,145	-50,423	-0,024	-0,008
-656,130	-8,845	-0,148	-0,073
-655,116	-79,352	-0,090	0,022
-654,101	800,000	0,043	0,113
-653,086	-100,421	-0,047	0,009
-652,072	53,582	-0,040	-0,029
-651,057	-200,000	-0,010	-0,066
-650,043	-200,000	-0,003	-0,052
-649,028	-10,383	0,065	-0,032
-648,014	198,308	-0,065	-0,074
-646,999	247,498	0,053	0,066
-645,984	-200,000	0,004	0,100
-644,970	276,987	-0,047	-0,062
-643,955	-44,167	-0,067	-0,025
-642,941	800,000	-0,037	-0,083
-641,926	388,743	-0,030	-0,047
-640,911	14,403	-0,055	0,032
-639,897	332,493	-0,131	0,188
-638,882	800,000	-0,007	0,017
-637,868	111,309	-0,039	0,035
-636,853	-20,430	-0,040	0,018
-635,838	533,094	-0,047	-0,082
-634,824	-66,539	-0,119	0,035
-633,809	105,603	-0,079	0,069
-632,795	800,000	0,053	0,114
-631,780	8,286	0,006	-0,003
-630,765	56,660	-0,077	0,055
-629,751	124,923	-0,085	-0,079
-628,736	496,924	-0,062	-0,106
-627,722	-45,942	-0,155	0,056
-626,707	-200,000	0,002	-0,066
-625,692	242,841	0,147	0,182
-624,678	-19,164	-0,077	-0,035
-623,663	231,368	-0,038	-0,046
-622,649	115,610	-0,046	0,041
-621,634	800,000	-0,036	-0,082
-620,619	203,411	-0,067	-0,077
-619,605	-200,000	0,013	0,065
-618,590	444,704	0,041	0,067
-617,576	-123,406	-0,051	-0,006
-616,561	-69,231	-0,137	0,039
-615,546	-131,961	0,092	-0,009
-614,532	158,509	-0,107	-0,110
-613,517	119,996	-0,044	-0,041
-612,503	-147,847	0,100	0,006
-611,488	242,611	0,035	0,043
-610,474	-200,000	0,022	0,094
-609,459	156,969	-0,036	0,037
-608,444	241,693	-0,069	-0,085
-607,430	118,498	-0,150	-0,137
-606,415	-200,000	0,005	-0,141
-605,401	-200,000	-0,022	-0,127
-604,386	114,753	0,099	-0,089
-603,371	-200,000	0,004	0,090
-602,357	-48,687	0,107	0,038
-601,342	-200,000	-0,013	0,043
-600,328	177,848	-0,126	-0,136
-599,313	97,767	0,038	0,032
-598,298	111,055	0,081	-0,072
-597,284	-59,572	-0,089	-0,028
-596,269	-19,440	-0,008	-0,004
-595,255	74,225	-0,040	-0,031
-594,240	800,000	0,023	-0,047
-593,225	-116,280	-0,137	0,019
-592,211	7,689	-0,045	0,025
-591,196	-200,000	-0,002	-0,064
-590,182	-112,026	0,126	0,019
-589,167	-73,674	-0,116	0,031
-588,152	111,229	-0,100	0,089
-587,138	-97,562	0,144	-0,027
-586,123	800,000	-0,009	0,024
-585,109	-14,971	0,018	0,009
-584,094	-183,205	-0,106	-0,001
-583,079	-200,000	0,016	-0,247
-582,065	530,796	0,051	0,090
-581,050	-109,463	-0,002	-0,000
-580,036	20,755	0,061	0,036
-579,021	-200,000	-0,007	-0,078
-578,006	-109,166	-0,127	-0,020
-576,992	800,000	-0,032	-0,071
-575,977	3,235	0,073	-0,039
-574,963	-200,000	0,004	-0,133
-573,948	-200,000	-0,011	0,121
-572,934	107,687	-0,017	0,015
-571,919	133,303	-0,189	-0,180
-570,904	107,270	0,022	-0,019
-569,890	34,281	-0,143	-0,092
-568,875	454,016	0,023	0,038
-567,861	-37,799	0,152	-0,059
-566,846	-166,545	-0,071	0,002
-565,831	-146,384	0,178	0,011
-564,817	126,533	-0,075	0,070
-563,802	196,373	0,007	-0,008
-562,788	82,131	0,129	0,103
-561,773	-58,349	-0,043	0,014
-560,758	800,000	-0,037	0,100
-559,744	380,013	0,029	0,044
-558,729	-200,000	0,016	0,100
-557,715	-200,000	0,033	0,140
-556,700	-51,963	-0,135	-0,046
-555,685	-24,699	-0,087	-0,038
-554,671	-200,000	0,006	-0,037
-553,656	-200,000	-0,000	-0,013
-552,642	-34,503	0,084	0,034
-551,627	-200,000	0,041	0,171
-550,612	133,250	0,054	-0,052
-549,598	649,756	-0,050	-0,096
-548,583	54,311	-0,054	0,038
-547,569	-200,000	0,004	0,093
-546,554	-26,801	-0,045	-0,019
-545,539	-200,000	-0,014	0,080
-544,525	-200,000	0,011	0,113
-543,510	-163,133	-0,225	0,008
-542,496	494,249	-0,055	-0,093
-541,481	-200,000	0,054	-0,207
-540,466	770,991	0,038	-0,077
-539,452	800,000	0,003	0,008
-538,437	-85,685	0,066	0,015
-537,423	8,299	0,053	0,029
-536,408	3,187	0,059	0,032
-535,393	304,250	0,049	-0,067
-534,379	-75,165	-0,083	0,022
-533,364	-40,380	-0,020	-0,008
-532,350	202,944	0,059	0,068
-531,335	-65,121	0,152	0,045
-530,321	38,871	-0,020	-0,013
-529,306	101,126	0,042	0,036
-528,291	-200,000	-0,006	-0,087
-527,277	-86,273	-0,038	-0,009
-526,262	221,327	0,032	0,038
-525,248	-200,000	0,058	0,225
-524,233	800,000	0,044	0,105
-523,218	-72,614	0,173	-0,047
-522,204	178,051	0,045	-0,049
-521,189	-200,000	-0,021	-0,119
-520,175	-66,230	-0,069	0,020
-519,160	131,283	-0,025	-0,024
-518,145	-200,000	0,007	0,033
-517,131	239,547	0,090	-0,110
-516,116	-144,359	0,135	-0,009
-515,102	515,840	-0,084	-0,144
-514,087	-200,000	0,014	-0,103
-513,072	800,000	-0,038	-0,107
-512,058	87,263	0,037	-0,030
-511,043	-53,814	-0,067	-0,022
-510,029	62,919	0,140	-0,103
-509,014	397,048	-0,062	-0,096
-507,999	154,700	0,042	-0,043
-506,985	-8,784	-0,034	-0,017
-505,970	800,000	-0,044	0,112
-504,956	306,943	-0,050	-0,068
-503,941	800,000	0,028	-0,081
-502,926	19,494	0,057	-0,034
-501,912	88,113	0,100	0,082
-500,897	420,814	-0,061	0,097
-499,883	319,233	0,008	0,011
-498,868	-72,808	-0,119	0,032
-497,853	27,860	-0,114	-0,070
-496,839	15,734	0,061	-0,035
-495,824	547,908	0,048	-0,086
-494,810	-58,291	0,071	-0,023
-493,795	-200,000	0,012	0,040
-492,781	-112,299	-0,080	-0,012
-491,766	79,897	0,100	0,079
-490,751	77,810	0,092	-0,072
-489,737	236,522	-0,051	-0,062
-488,722	-200,000	0,025	0,098
-487,708	-7,513	0,101	0,050
-486,693	-200,000	0,008	-0,071
-485,678	-48,064	-0,131	-0,046
-484,664	126,469	0,067	-0,062
-483,649	-77,140	0,052	0,013
-482,635	86,774	0,054	-0,044
-481,620	602,486	0,054	-0,099
-480,605	-176,041	0,032	0,001
-479,591	-5,982	0,105	-0,053
-478,576	131,138	0,019	0,018
-477,562	800,000	0,061	0,152
-476,547	-49,773	-0,068	0,023
-475,532	-200,000	-0,001	-0,091
-474,518	-200,000	0,019	0,092
-473,503	181,759	-0,036	-0,039
-472,489	-200,000	0,014	0,076
-471,474	524,217	0,016	0,028
-470,459	800,000	-0,049	-0,106
-469,445	-52,526	0,005	-0,002
-468,430	-123,282	0,086	-0,010
-467,416	-200,000	-0,001	0,047
-466,401	-47,161	0,100	0,036
-465,386	-15,271	-0,158	0,074
-464,372	-111,222	0,053	-0,008
-463,357	225,143	-0,014	0,017
-462,343	110,556	0,126	-0,111
-461,328	-131,355	-0,079	-0,008
-460,313	-113,665	-0,115	0,016
-459,299	-20,985	0,127	-0,057
-458,284	-200,000	0,010	0,057
-457,270	-200,000	-0,019	-0,132
-456,255	-163,593	0,034	0,001
-455,241	26,301	-0,100	-0,061
-454,226	-200,000	-0,001	0,069
-453,211	-63,497	-0,051	0,015
-452,197	57,059	-0,073	0,052
-451,182	715,303	0,022	0,044
-450,168	378,330	-0,081	0,123
-449,153	800,000	-0,018	-0,046
-448,138	-200,000	-0,010	-0,059
-447,124	-200,000	0,015	-0,083
-446,109	-46,430	0,094	0,034
-445,095	64,827	0,047	-0,035
-444,080	-90,164	0,040	-0,009
-443,065	-200,000	0,004	-0,066
-442,051	74,187	-0,025	0,019
-441,036	-200,000	-0,008	-0,044
-440,022	-31,593	-0,182	-0,075
-439,007	800,000	0,086	0,193
-437,992	-200,000	-0,003	0,079
-436,978	800,000	0,046	0,120
-435,963	-200,000	0,010	-0,066
-434,949	-37,029	0,019	0,008
-433,934	-152,565	-0,176	-0,009
-432,919	153,747	-0,033	-0,033
-431,905	-66,383	0,035	-0,010
-430,890	800,000	-0,033	0,077
-429,876	-200,000	-0,012	0,106
-428,861	43,822	0,121	-0,081
-427,846	109,038	0,033	0,029
-426,832	-107,943	-0,074	0,012
-425,817	-0,788	-0,082	0,042
-424,803	-86,078	-0,105	0,024
-423,788	-115,628	0,099	-0,013
-422,773	-74,439	0,072	-0,019
-421,759	-40,492	-0,113	0,043
-420,744	800,000	0,026	-0,062
-419,730	-200,000	-0,037	-0,138
-418,715	-200,000	0,008	-0,025
-417,701	83,882	0,067	0,054
-416,686	-200,000	-0,007	0,095
-415,671	128,827	0,151	0,141
-414,657	-92,095	0,094	-0,019
-413,642	-200,000	0,003	-0,045
-412,628	-113,065	0,065	0,009
-411,613	340,588	-0,118	0,169
-410,598	614,058	-0,061	0,113
-409,584	-66,414	-0,079	0,023
-408,569	800,000	0,031	0,088
-407,555	800,000	0,062	0,173
-406,540	-99,749	0,070	-0,013
-405,525	-200,000	-0,009	0,056
-404,511	-35,307	0,105	-0,042
-403,496	213,568	-0,037	-0,043
-402,482	-68,937	0,080	-0,023
-401,467	499,056	0,083	-0,140
-400,452	-200,000	0,024	0,105
-399,438	208,728	-0,014	-0,016
-398,423	-200,000	-0,003	-0,090
-397,409	-200,000	0,028	0,111
-396,394	201,858	-0,067	0,075
-395,379	563,848	-0,060	0,107
-394,365	-89,770	0,095	0,020
-393,350	800,000	0,019	0,058
-392,336	153,711	0,039	-0,039
-391,321	-104,169	-0,124	-0,021
-390,306	-151,249	-0,172	0,009
-389,292	139,647	0,080	0,077
-388,277	341,674	-0,050	-0,072
-387,263	-200,000	-0,009	0,052
-386,248	-200,000	-0,032	0,142
-385,233	679,377	0,063	0,121
-384,219	-200,000	-0,007	0,100
-383,204	190,094	0,045	-0,050
-382,190	192,654	-0,104	-0,115
-381,175	504,971	-0,011	0,019
-380,160	-74,177	-0,018	-0,005
-379,146	216,789	-0,038	-0,044
-378,131	800,000	0,034	-0,092
-377,117	-200,000	-0,037	0,133
-376,102	800,000	-0,018	0,057
-375,088	-200,000	-0,014	-0,078
-374,073	800,000	0,023	-0,055
-373,058	264,711	-0,031	-0,039
-372,044	-200,000	-0,010	0,072
-371,029	-1,450	0,082	-0,042
-370,015	145,486	0,090	-0,089
-369,000	-200,000	0,027	-0,100
-367,985	-0,111	-0,066	0,035
-366,971	145,160	-0,057	0,056
-365,956	-200,000	0,037	0,145
-364,942	320,292	-0,042	0,059
-363,927	312,507	0,006	0,009
-362,912	800,000	-0,043	0,100
-361,898	-200,000	0,010	0,087
-360,883	-116,039	0,121	-0,016
-359,869	-0,738	-0,191	-0,099
-358,854	-105,609	0,063	-0,010
-357,839	30,185	-0,035	-0,022
-356,825	800,000	0,018	0,050
-355,810	-5,343	0,154	-0,077
-354,796	-19,461	-0,134	-0,061
-353,781	59,682	0,043	-0,031
-352,766	-132,202	0,074	0,007
-351,752	422,879	0,059	-0,093
-350,737	244,255	0,068	0,084
-349,723	-54,163	0,176	0,058
-348,708	-138,423	-0,054	-0,004
-347,693	-48,614	0,077	-0,027
-346,679	-200,000	-0,016	-0,063
-345,664	-69,200	0,065	-0,018
-344,650	-200,000	-0,011	-0,087
-343,635	-90,234	0,035	0,007
-342,620	-159,632	0,143	0,006
-341,606	48,908	-0,037	-0,025
-340,591	26,819	0,071	-0,043
-339,577	-50,525	-0,012	0,004
-338,562	-200,000	-0,023	-0,112
-337,548	110,573	-0,115	-0,101
-336,533	-138,538	0,111	-0,009
-335,518	365,313	0,045	0,067
-334,504	75,006	-0,011	0,009
-333,489	-112,619	-0,043	-0,006
-332,475	525,572	-0,059	-0,103
-331,460	800,000	0,021	0,053
-330,445	724,411	0,069	0,136
-329,431	-58,852	-0,196	-0,062
-328,416	374,704	-0,011	-0,016
-327,402	-200,000	0,016	-0,126
-326,387	-114,505	0,084	0,012
-325,372	-156,609	-0,088	-0,004
-324,358	-12,287	-0,127	-0,060
-323,343	218,305	-0,035	0,041
-322,329	-55,462	-0,046	-0,015
-321,314	5,425	0,027	-0,015
-320,299	197,218	0,022	0,025
-319,285	-100,111	-0,060	0,011
-318,270	197,286	-0,044	0,049
-317,256	-200,000	0,017	0,097
-316,241	15,017	0,048	0,028
-315,226	6,523	0,118	-0,064
-314,212	30,950	-0,049	0,031
-313,197	800,000	0,024	0,050
-312,183	-200,000	0,003	0,178
-311,168	-200,000	-0,052	-0,188
-310,153	655,720	0,066	-0,125
-309,139	-47,587	0,101	0,035
-308,124	407,267	0,038	-0,059
-307,110	-81,703	0,077	0,018
-306,095	-32,109	0,062	0,025
-305,080	-40,355	-0,146	0,055
-304,066	76,808	0,084	0,065
-303,051	-150,387	-0,109	0,006
-302,037	-58,838	-0,051	0,016
-301,022	48,288	0,028	-0,019
-300,008	-70,207	0,029	0,008
-298,993	-200,000	0,008	0,093
-297,978	-200,000	-0,004	0,037
-296,964	-75,703	-0,029	0,008
-295,949	-200,000	0,024	-0,098
-294,935	98,439	-0,088	-0,074
-293,920	706,550	-0,038	0,074
-292,905	89,549	0,147	0,120
-291,891	-127,675	0,024	-0,003
-290,876	-38,646	-0,090	0,035
-289,862	104,773	-0,064	-0,055
-288,847	-36,574	-0,085	0,033
-287,832	800,000	-0,054	-0,132
-286,818	-200,000	0,002	-0,071
-285,803	-200,000	-0,012	0,106
-284,789	800,000	0,042	-0,124
-283,774	-178,516	0,107	-0,002
-282,759	800,000	0,058	0,118
-281,745	69,502	0,086	-0,065
-280,730	-200,000	-0,022	0,104
-279,716	247,882	0,035	-0,043
-278,701	648,714	0,071	0,134
-277,686	-200,000	-0,039	0,167
-276,672	-122,793	0,072	-0,008
-275,657	42,622	0,048	0,032
-274,643	9,444	-0,062	0,034
-273,628	51,363	-0,025	0,017
-272,613	-46,730	0,028	0,010
-271,599	800,000	-0,018	-0,037
-270,584	-200,000	-0,016	0,081
-269,570	216,821	-0,093	0,108
-268,555	-98,492	-0,130	-0,024
-267,540	716,198	-0,033	0,065
-266,526	304,871	-0,112	-0,152
-265,511	100,102	-0,048	0,041
-264,497	-2,801	-0,017	0,008
-263,482	399,953	0,079	-0,121
-262,467	220,540	-0,075	0,088
-261,453	-58,717	-0,031	-0,010
-260,438	-38,390	0,044	-0,017
-259,424	58,864	-0,035	-0,025
-258,409	-200,000	-0,005	-0,176
-257,395	-200,000	-0,009	0,054
-256,380	57,870	0,099	0,071
-255,365	-200,000	0,005	-0,023
-254,351	433,141	0,093	0,148
-253,336	-68,772	-0,099	0,028
-252,322	800,000	0,042	-0,127
-251,307	245,518	-0,073	0,089
-250,292	359,659	-0,054	-0,079
-249,278	-200,000	0,028	0,140
-248,263	706,126	-0,048	0,093
-247,249	-81,924	0,067	0,016
-246,234	-70,402	0,017	-0,005
-245,219	-54,010	-0,070	-0,023
-244,205	16,008	-0,065	0,037
-243,190	399,987	-0,042	0,064
-242,176	-200,000	0,017	0,138
-241,161	-9,624	0,191	0,093
-240,146	-98,436	0,042	0,008
-239,132	800,000	0,043	-0,099
-238,117	-46,491	-0,033	-0,012
-237,103	420,333	-0,079	-0,124
-236,088	398,708	0,018	0,027
-235,073	-200,000	-0,013	-0,144
-234,059	158,720	0,106	-0,108
-233,044	150,377	-0,059	-0,058
-232,030	96,004	0,046	0,038
-231,015	234,398	0,031	0,037
-230,000	71,649	0,064	0,048
-228,986	185,697	0,048	0,052
-227,971	-200,000	0,042	0,146
-226,957	121,335	0,041	0,037
-225,942	253,534	0,065	0,081
-224,927	118,520	0,051	-0,045
-223,913	-200,000	-0,003	-0,066
-222,898	183,838	-0,130	-0,141
-221,884	-88,216	0,089	0,019
-220,869	56,096	0,083	-0,058
-219,855	356,868	0,079	-0,114
-218,840	60,982	-0,070	-0,051
-217,825	119,130	-0,028	-0,025
-216,811	800,000	0,044	0,090
-215,796	-70,841	0,042	-0,012
-214,782	34,559	-0,046	0,029
-213,767	487,019	-0,080	-0,134
-212,752	94,592	-0,040	-0,033
-211,738	-12,510	-0,120	0,057
-210,723	-130,628	-0,113	0,011
-209,709	268,541	-0,049	0,062
-208,694	-192,860	-0,058	-0,000
-207,679	-200,000	0,004	-0,106
-206,665	-200,000	-0,029	-0,141
-205,650	272,994	-0,014	0,018
-204,636	87,777	-0,055	0,045
-203,621	-200,000	0,008	0,171
-202,606	-73,871	-0,134	0,035
-201,592	-165,069	-0,098	0,003
-200,577	67,281	-0,105	0,078
-199,563	45,054	0,049	0,033
-198,548	-200,000	0,012	0,060
-197,533	442,801	0,060	0,096
-196,519	70,069	0,094	-0,071
-195,504	-98,746	0,172	-0,032
-194,490	-164,112	-0,071	0,002
-193,475	-91,464	-0,116	-0,024
-192,460	-16,419	-0,044	0,020
-191,446	800,000	0,013	-0,035
-190,431	-200,000	-0,005	0,035
-189,417	182,851	-0,015	-0,016
-188,402	77,760	-0,029	-0,023
-187,387	48,862	0,043	0,029
-186,373	800,000	-0,070	-0,187
-185,358	-126,299	0,170	-0,018
-184,344	-200,000	-0,011	0,072
-183,329	-200,000	0,050	-0,187
-182,315	800,000	0,046	-0,144
-181,300	88,513	-0,076	0,061
-180,285	800,000	-0,047	0,105
-179,271	-200,000	-0,029	-0,111
-178,256	-61,892	0,139	-0,042
-177,242	308,535	0,030	-0,040
-176,227	-124,397	0,134	-0,015
-175,212	168,951	0,072	0,075
-174,198	-200,000	-0,008	0,076
-173,183	-200,000	0,009	0,066
-172,169	435,217	0,073	-0,116
-171,154	130,053	-0,082	0,076
-170,139	148,028	0,029	-0,029
-169,125	115,398	0,103	0,092
-168,110	-142,688	0,075	0,005
-167,096	-200,000	-0,003	-0,087
-166,081	-144,760	0,126	0,008
-165,066	-77,985	-0,082	0,020
-164,052	110,743	0,099	-0,087
-163,037	669,903	-0,069	0,131
-162,023	321,075	0,073	0,101
-161,008	800,000	-0,006	0,015
-159,993	800,000	0,034	0,093
-158,979	-200,000	-0,000	0,003
-157,964	-56,102	-0,120	-0,039
-156,950	800,000	-0,044	-0,121
-155,935	-6,411	0,064	0,032
-154,920	-200,000	0,007	-0,069
-153,906	-38,943	0,195	-0,074
-152,891	800,000	-0,052	-0,133
-151,877	800,000	-0,069	0,191
-150,862	-200,000	-0,004	-0,198
-149,847	-58,971	-0,142	-0,044
-148,833	-92,122	-0,116	-0,024
-147,818	451,548	0,083	0,133
-146,804	-111,072	0,108	0,016
-145,789	-114,709	0,086	-0,012
-144,775	117,161	-0,129	-0,115
-143,760	294,121	-0,080	-0,107
-142,745	106,414	-0,145	0,125
-141,731	-119,686	0,038	0,005
-140,716	93,744	0,027	-0,022
-139,702	-90,502	-0,132	0,028
-138,687	561,915	-0,013	0,023
-137,672	-162,341	-0,136	0,005
-136,658	-18,400	-0,053	0,024
-135,643	37,807	-0,126	0,081
-134,629	-200,000	-0,012	0,050
-133,614	-200,000	-0,002	0,020
-132,599	235,473	-0,043	0,052
-131,585	-154,014	0,070	0,003
-130,570	776,868	0,093	-0,185
-129,556	196,124	0,060	-0,066
-128,541	-200,000	0,038	-0,126
-127,526	-116,639	-0,005	-0,001
-126,512	89,800	-0,055	0,045
-125,497	-25,131	0,093	-0,040
-124,483	246,461	0,048	0,058
-123,468	800,000	-0,026	0,077
-122,453	712,904	0,011	-0,021
-121,439	-58,044	-0,058	0,018
-120,424	230,511	0,068	0,080
-119,410	118,411	0,081	-0,072
