DTS Sentinel unit serial number:	SN410029Multiplexer serial number:	ORYXHardware model number:	OX2-SRSoftware version number:	ORYX F/W v4,00 Oryx Data Collector v3.7.2.0data status	okinstallation	B6 Nyhavnadifferential loss correction	single-endedforward channel	channel 2reverse channel	N/Adate	2023/12/09time	13:15:08forward acquisition time	300,00reverse acquisition time	0,00gamma	499,1914k internal	0,3137k external	0,3137temperature offset calibration	1,0000default loss term (dB/km)	0,3820temperature slope calibration	1,0000multiplexer offset coefficient	1,0000multiplexer slope coefficient	1,0000fibre end	0,00T internal ref (°C)	20,00T ext. ref 1 (°C)	4,73T ext. ref 2 (°C)	4,72length (m)	temperature (°C)	Stokes	anti-Stokes-744,400	435,363	0,111	-0,180
-743,385	-53,078	-0,316	0,107
-742,371	78,526	0,117	0,093
-741,356	196,188	-0,161	0,182
-740,342	247,921	-0,044	-0,055
-739,327	-174,424	-0,272	0,006
-738,312	-181,943	0,113	0,002
-737,298	-113,034	-0,267	0,039
-736,283	-67,796	0,092	0,027
-735,269	-11,278	-0,242	0,118
-734,254	14,166	0,105	0,061
-733,239	-48,564	-0,378	-0,134
-732,225	-88,499	0,145	-0,032
-731,210	-200,000	-0,000	-0,005
-730,196	-141,421	-0,060	0,004
-729,181	-200,000	-0,010	-0,077
-728,167	-76,660	-0,073	0,019
-727,152	187,431	0,067	-0,075
-726,137	-123,787	0,068	0,008
-725,123	800,000	-0,025	-0,059
-724,108	-200,000	0,022	-0,120
-723,094	-200,000	-0,013	-0,087
-722,079	49,494	-0,135	0,094
-721,064	-53,110	-0,019	0,007
-720,050	17,880	0,056	0,033
-719,035	800,000	-0,022	-0,048
-718,021	22,678	-0,077	0,046
-717,006	800,000	-0,048	-0,115
-715,991	-200,000	0,042	-0,175
-714,977	-200,000	-0,028	-0,116
-713,962	800,000	-0,052	-0,115
-712,948	-110,207	0,113	-0,017
-711,933	-200,000	0,020	-0,086
-710,918	-200,000	0,013	-0,101
-709,904	-200,000	0,001	-0,177
-708,889	-200,000	-0,036	-0,128
-707,875	-200,000	0,037	-0,157
-706,860	-200,000	-0,035	0,154
-705,845	-200,000	-0,008	0,095
-704,831	-121,122	-0,072	0,009
-703,816	-132,876	-0,219	-0,020
-702,802	286,512	-0,059	0,079
-701,787	242,809	-0,140	-0,174
-700,772	-200,000	0,013	-0,115
-699,758	-86,113	-0,056	-0,013
-698,743	800,000	0,056	0,126
-697,729	-200,000	-0,001	0,053
-696,714	20,547	0,071	-0,042
-695,699	414,341	-0,059	0,093
-694,685	15,484	-0,094	-0,054
-693,670	-118,956	-0,101	-0,013
-692,656	-200,000	0,016	-0,085
-691,641	-17,392	0,059	-0,028
-690,627	218,790	0,023	0,027
-689,612	-200,000	0,026	0,147
-688,597	-200,000	-0,006	0,082
-687,583	-200,000	0,017	0,118
-686,568	-200,000	0,002	-0,046
-685,554	-200,000	0,030	-0,124
-684,539	-65,476	0,044	-0,013
-683,524	800,000	-0,035	-0,083
-682,510	800,000	0,037	0,092
-681,495	800,000	0,016	0,039
-680,481	219,598	-0,072	-0,085
-679,466	61,969	-0,152	-0,112
-678,451	476,833	0,079	-0,133
-677,437	-200,000	-0,038	-0,209
-676,422	21,760	0,077	0,046
-675,408	-91,241	-0,068	-0,014
-674,393	800,000	-0,035	-0,097
-673,378	-48,530	-0,105	0,037
-672,364	-200,000	-0,003	-0,039
-671,349	399,542	-0,058	-0,090
-670,335	-84,691	0,037	0,009
-669,320	367,870	-0,072	0,108
-668,305	520,317	-0,046	0,081
-667,291	-177,609	0,058	0,001
-666,276	-22,837	0,058	0,026
-665,262	114,020	0,064	-0,058
-664,247	460,831	0,069	-0,114
-663,232	-87,158	0,062	-0,014
-662,218	-200,000	-0,000	0,066
-661,203	-69,746	0,133	0,037
-660,189	457,097	0,042	-0,069
-659,174	19,072	-0,039	0,023
-658,159	-200,000	-0,017	-0,095
-657,145	-7,009	0,068	0,034
-656,130	-65,949	-0,083	0,024
-655,116	26,195	-0,031	-0,019
-654,101	800,000	0,034	-0,105
-653,086	27,784	0,035	-0,022
-652,072	-200,000	0,021	0,161
-651,057	-31,850	-0,068	-0,028
-650,043	195,040	0,087	-0,098
-649,028	-200,000	0,005	-0,105
-648,014	-80,410	0,008	-0,002
-646,999	150,420	0,052	0,052
-645,984	131,358	-0,118	-0,112
-644,970	-200,000	-0,000	-0,087
-643,955	-200,000	-0,008	-0,049
-642,941	47,277	-0,066	-0,046
-641,926	537,223	-0,066	0,117
-640,911	-183,500	0,151	0,002
-639,897	-121,426	0,042	0,005
-638,882	474,078	0,035	-0,059
-637,868	362,289	-0,093	0,138
-636,853	397,475	-0,010	0,016
-635,838	372,817	-0,101	-0,152
-634,824	726,490	0,038	-0,076
-633,809	-115,575	0,216	0,030
-632,795	46,222	-0,150	-0,102
-631,780	-200,000	-0,005	0,091
-630,765	-200,000	0,003	-0,030
-629,751	800,000	-0,028	-0,090
-628,736	26,747	-0,076	-0,047
-627,722	-200,000	-0,022	-0,160
-626,707	-2,436	0,134	-0,069
-625,692	-200,000	-0,031	0,214
-624,678	800,000	-0,040	0,107
-623,663	323,386	0,004	0,006
-622,649	-81,554	-0,043	-0,010
-621,634	281,185	-0,111	-0,147
-620,619	-132,931	0,080	-0,007
-619,605	236,361	-0,091	0,111
-618,590	450,566	0,013	0,021
-617,576	206,943	0,112	0,129
-616,561	124,384	-0,107	0,099
-615,546	-200,000	-0,015	-0,080
-614,532	129,296	-0,055	-0,052
-613,517	-200,000	0,023	0,202
-612,503	444,376	0,035	0,057
-611,488	194,792	-0,084	0,094
-610,474	101,663	-0,015	-0,013
-609,459	254,655	-0,084	-0,106
-608,444	800,000	0,024	-0,049
-607,430	800,000	0,059	-0,173
-606,415	-200,000	0,007	-0,029
-605,401	-200,000	-0,000	-0,114
-604,386	-160,120	-0,119	0,005
-603,371	-64,777	-0,134	-0,040
-602,357	-183,477	0,091	-0,001
-601,342	99,636	-0,089	-0,076
-600,328	-200,000	0,004	-0,100
-599,313	148,081	0,075	0,075
-598,298	-166,033	0,107	0,003
-597,284	285,455	0,033	0,045
-596,269	-69,330	0,063	-0,018
-595,255	13,379	-0,093	-0,053
-594,240	800,000	-0,040	-0,097
-593,225	521,807	0,066	-0,114
-592,211	-80,851	-0,121	-0,029
-591,196	800,000	0,033	0,079
-590,182	115,751	0,149	-0,134
-589,167	800,000	-0,008	-0,019
-588,152	180,165	-0,113	0,122
-587,138	200,300	0,024	0,028
-586,123	-200,000	-0,025	-0,154
-585,109	-175,043	-0,244	-0,005
-584,094	800,000	-0,010	0,026
-583,079	-53,830	0,016	0,005
-582,065	336,372	-0,031	-0,045
-581,050	165,514	0,033	-0,034
-580,036	132,147	0,013	0,012
-579,021	-200,000	0,025	-0,167
-578,006	14,242	-0,042	-0,024
-576,992	-114,627	-0,201	0,028
-575,977	-145,300	0,121	-0,008
-574,963	42,292	-0,051	0,034
-573,948	62,179	0,072	0,053
-572,934	-200,000	0,000	-0,003
-571,919	-80,552	-0,129	0,031
-570,904	152,310	-0,059	0,059
-569,890	-87,868	0,051	-0,011
-568,875	17,175	0,053	-0,031
-567,861	30,093	-0,049	0,031
-566,846	795,674	0,098	0,199
-565,831	35,226	0,127	0,082
-564,817	-185,339	-0,024	-0,000
-563,802	19,948	-0,044	0,026
-562,788	-200,000	-0,016	-0,081
-561,773	381,018	0,020	-0,031
-560,758	541,683	0,071	0,125
-559,744	84,668	-0,070	0,056
-558,729	800,000	0,052	-0,114
-557,715	91,749	-0,041	-0,034
-556,700	-200,000	-0,011	-0,096
-555,685	-165,969	0,138	-0,004
-554,671	438,848	-0,033	0,053
-553,656	222,317	0,072	0,086
-552,642	53,370	0,127	0,089
-551,627	76,719	-0,097	0,076
-550,612	-160,563	-0,052	0,002
-549,598	414,913	-0,083	-0,130
-548,583	-22,210	-0,052	-0,023
-547,569	-130,523	0,071	0,007
-546,554	-154,190	0,056	0,003
-545,539	205,558	-0,046	-0,053
-544,525	-200,000	0,002	0,020
-543,510	-2,475	0,133	-0,068
-542,496	28,890	-0,079	0,049
-541,481	129,903	0,065	0,061
-540,466	-122,262	-0,065	0,008
-539,452	117,735	0,029	0,026
-538,437	-200,000	0,002	-0,015
-537,423	65,097	-0,039	-0,029
-536,408	281,494	-0,076	-0,100
-535,393	369,854	-0,040	0,060
-534,379	-29,496	0,177	0,074
-533,364	800,000	-0,043	-0,091
-532,350	11,973	-0,074	-0,042
-531,335	800,000	0,037	0,087
-530,321	-64,163	0,113	0,034
-529,306	340,616	0,024	0,034
-528,291	-87,253	-0,070	0,016
-527,277	-200,000	0,011	-0,072
-526,262	-200,000	0,008	0,073
-525,248	800,000	0,008	0,024
-524,233	800,000	0,073	-0,151
-523,218	-200,000	0,003	0,128
-522,204	800,000	-0,066	0,158
-521,189	-138,104	-0,047	0,004
-520,175	800,000	0,008	0,025
-519,160	-130,609	-0,062	-0,006
-518,145	31,264	-0,025	-0,016
-517,131	-114,954	0,161	-0,022
-516,116	-200,000	-0,021	-0,073
-515,102	-200,000	-0,002	0,006
-514,087	-167,467	0,081	0,002
-513,072	-200,000	0,011	-0,135
-512,058	-200,000	-0,004	0,056
-511,043	-200,000	0,024	-0,108
-510,029	800,000	0,027	0,065
-509,014	-200,000	0,030	0,139
-507,999	-200,000	-0,008	0,048
-506,985	-31,404	-0,089	-0,036
-505,970	-200,000	0,010	-0,067
-504,956	-200,000	-0,012	-0,087
-503,941	-167,744	0,059	0,002
-502,926	-135,221	-0,058	0,005
-501,912	800,000	0,027	0,059
-500,897	8,785	0,057	0,032
-499,883	90,935	-0,058	-0,048
-498,868	-75,937	-0,064	-0,016
-497,853	30,916	-0,087	-0,055
-496,839	-18,295	0,030	0,014
-495,824	800,000	-0,053	-0,111
-494,810	800,000	0,040	0,086
-493,795	19,279	0,155	-0,091
-492,781	573,947	0,031	0,055
-491,766	341,672	0,070	0,100
-490,751	-39,227	-0,127	-0,049
-489,737	80,291	0,076	0,060
-488,722	74,452	-0,068	0,052
-487,708	-2,920	0,059	-0,030
-486,693	-166,879	0,053	0,002
-485,678	-200,000	-0,016	-0,054
-484,664	38,138	-0,166	0,109
-483,649	9,181	-0,085	-0,047
-482,635	-68,863	-0,098	0,028
-481,620	447,430	0,063	-0,103
-480,605	-200,000	0,029	0,114
-479,591	-27,505	0,204	0,087
-478,576	259,153	0,062	-0,078
-477,562	65,204	-0,065	0,048
-476,547	75,836	0,134	-0,104
-475,532	-94,556	0,087	0,017
-474,518	-200,000	0,005	0,074
-473,503	543,169	-0,040	0,071
-472,489	80,574	0,068	0,054
-471,474	35,921	0,060	0,039
-470,459	62,150	-0,089	0,065
-469,445	69,418	-0,099	-0,075
-468,430	-200,000	0,003	-0,105
-467,416	97,234	-0,033	0,028
-466,401	170,228	0,051	0,053
-465,386	-200,000	-0,009	0,064
-464,372	295,549	-0,042	0,056
-463,357	-200,000	-0,000	-0,069
-462,343	316,497	-0,090	-0,125
-461,328	-62,649	0,089	0,027
-460,313	-200,000	0,012	-0,054
-459,299	-200,000	0,019	0,107
-458,284	800,000	0,045	0,114
-457,270	-200,000	0,024	0,137
-456,255	27,979	-0,141	-0,087
-455,241	800,000	-0,044	-0,091
-454,226	766,968	0,042	0,084
-453,211	409,376	-0,069	0,108
-452,197	78,449	0,062	0,048
-451,182	107,917	0,110	-0,096
-450,168	-200,000	0,018	0,096
-449,153	-19,491	-0,046	0,021
-448,138	540,989	-0,059	-0,103
-447,124	-32,099	-0,167	-0,068
-446,109	-26,371	0,088	0,038
-445,095	504,830	-0,011	0,019
-444,080	800,000	-0,013	0,042
-443,065	800,000	0,037	0,075
-442,051	-31,438	-0,043	-0,018
-441,036	-200,000	0,005	0,031
-440,022	118,166	0,092	-0,083
-439,007	-83,928	-0,026	-0,006
-437,992	-152,922	0,234	-0,012
-436,978	-200,000	0,014	0,147
-435,963	-200,000	0,011	0,088
-434,949	-200,000	-0,004	0,169
-433,934	-189,603	-0,098	0,001
-432,919	11,207	0,024	0,014
-431,905	-200,000	0,017	0,127
-430,890	-108,336	0,140	-0,022
-429,876	463,560	-0,021	0,035
-428,861	44,620	0,046	-0,031
-427,846	-200,000	0,004	-0,031
-426,832	-200,000	-0,010	-0,066
-425,817	56,382	-0,094	-0,067
-424,803	-29,804	-0,055	-0,023
-423,788	651,458	0,061	-0,114
-422,773	-200,000	0,007	0,042
-421,759	160,686	-0,102	0,105
-420,744	-200,000	0,005	-0,037
-419,730	109,948	-0,091	-0,080
-418,715	-125,685	0,033	0,004
-417,701	141,530	-0,046	0,044
-416,686	-200,000	0,006	0,120
-415,671	110,434	-0,020	-0,018
-414,657	-8,538	0,064	-0,031
-413,642	-125,766	0,078	-0,008
-412,628	800,000	-0,030	-0,061
-411,613	-124,041	-0,120	0,014
-410,598	-200,000	0,009	-0,048
-409,584	53,514	0,089	0,063
-408,569	-174,412	-0,050	0,001
-407,555	136,909	-0,049	0,047
-406,540	570,107	-0,043	0,076
-405,525	88,566	-0,067	0,055
-404,511	-4,420	-0,121	0,061
-403,496	-200,000	0,004	0,034
-402,482	-18,835	0,098	0,044
-401,467	800,000	-0,011	0,023
-400,452	-200,000	0,021	0,069
-399,438	-89,230	-0,190	-0,041
-398,423	-200,000	0,023	-0,159
-397,409	13,707	-0,063	0,036
-396,394	-147,694	-0,072	0,004
-395,379	-200,000	0,003	0,053
-394,365	19,286	-0,026	-0,015
-393,350	359,659	-0,021	0,031
-392,336	-200,000	-0,024	-0,086
-391,321	-2,754	-0,133	0,068
-390,306	6,960	0,044	0,024
-389,292	64,542	-0,118	-0,087
-388,277	-200,000	-0,025	0,136
-387,263	18,934	0,016	-0,009
-386,248	800,000	-0,092	0,204
-385,233	800,000	-0,078	0,214
-384,219	300,092	0,044	-0,059
-383,204	153,316	-0,080	0,080
-382,190	-101,262	0,122	0,022
-381,175	-94,470	-0,024	0,005
-380,160	142,228	0,093	-0,091
-379,146	-163,375	0,118	-0,004
-378,131	774,978	0,019	0,039
-377,117	18,902	-0,029	-0,017
-376,102	240,687	-0,086	-0,105
-375,088	-23,184	-0,148	-0,065
-374,073	12,135	0,078	-0,044
-373,058	-53,299	0,103	-0,034
-372,044	-37,296	0,122	-0,048
-371,029	33,687	0,070	-0,044
-370,015	-200,000	-0,016	0,083
-369,000	800,000	-0,035	-0,077
-367,985	-200,000	-0,003	-0,038
-366,971	800,000	0,034	-0,088
-365,956	-45,992	0,086	0,031
-364,942	800,000	-0,017	-0,045
-363,927	-140,399	0,129	-0,010
-362,912	-74,130	0,029	-0,008
-361,898	-97,050	0,040	-0,007
-360,883	111,530	-0,087	-0,077
-359,869	-200,000	0,025	-0,092
-358,854	-200,000	0,012	0,161
-357,839	152,085	-0,070	-0,070
-356,825	-200,000	0,014	-0,206
-355,810	-140,876	0,052	-0,004
-354,796	464,200	0,018	-0,030
-353,781	509,600	0,036	-0,062
-352,766	512,707	0,070	-0,119
-351,752	-200,000	0,009	-0,111
-350,737	-200,000	-0,022	0,127
-349,723	-200,000	0,004	-0,038
-348,708	-200,000	-0,002	-0,014
-347,693	800,000	-0,039	0,103
-346,679	-194,450	-0,047	0,000
-345,664	160,526	-0,088	-0,090
-344,650	-60,490	-0,132	0,041
-343,635	-200,000	-0,024	0,109
-342,620	-200,000	0,038	0,142
-341,606	-121,844	0,147	0,018
-340,591	-200,000	0,021	-0,077
-339,577	748,939	0,041	0,081
-338,562	465,905	-0,067	-0,111
-337,548	220,837	0,119	-0,140
-336,533	800,000	0,055	0,126
-335,518	258,333	0,086	0,108
-334,504	24,074	0,073	0,044
-333,489	-84,998	-0,074	-0,017
-332,475	-200,000	-0,009	-0,049
-331,460	-200,000	0,013	-0,045
-330,445	-200,000	0,010	0,046
-329,431	-129,669	-0,041	0,004
-328,416	-17,233	0,130	0,060
-327,402	30,038	0,113	0,070
-326,387	-200,000	0,045	0,191
-325,372	33,421	-0,131	-0,083
-324,358	-69,337	0,087	0,024
-323,343	484,235	-0,028	0,047
-322,329	-200,000	-0,014	0,072
-321,314	-138,079	0,086	0,007
-320,299	210,813	0,036	0,041
-319,285	-25,993	0,080	0,034
-318,270	-87,487	-0,154	0,034
-317,256	-200,000	-0,013	-0,081
-316,241	-200,000	-0,007	-0,092
-315,226	129,056	0,060	-0,055
-314,212	-29,438	0,015	0,006
-313,197	110,846	0,034	-0,030
-312,183	451,968	-0,044	-0,071
-311,168	-122,710	-0,067	0,008
-310,153	-200,000	0,048	-0,168
-309,139	-83,344	-0,080	0,019
-308,124	-200,000	-0,000	0,041
-307,110	111,860	-0,025	0,022
-306,095	-174,477	0,066	0,001
-305,080	73,790	-0,049	-0,037
-304,066	271,899	0,103	-0,132
-303,051	7,503	-0,031	-0,017
-302,037	354,910	0,053	0,078
-301,022	-200,000	-0,012	0,117
-300,008	800,000	0,051	-0,129
-298,993	238,587	0,037	0,046
-297,978	173,344	-0,042	0,045
-296,964	211,838	-0,024	0,027
-295,949	-4,673	0,063	-0,032
-294,935	800,000	0,053	-0,168
-293,920	80,567	0,030	0,024
-292,905	-3,588	-0,074	0,038
-291,891	-158,426	0,043	0,002
-290,876	184,437	-0,102	0,110
-289,862	27,797	-0,056	-0,034
-288,847	-15,025	-0,145	-0,068
-287,832	-15,045	-0,141	-0,066
-286,818	133,587	-0,020	0,018
-285,803	800,000	0,045	-0,108
-284,789	79,736	0,034	0,027
-283,774	149,634	0,099	0,098
-282,759	-200,000	0,012	-0,086
-281,745	-139,388	-0,257	-0,020
-280,730	800,000	-0,029	-0,083
-279,716	-29,393	0,058	0,024
-278,701	403,081	0,062	0,095
-277,686	-16,874	-0,084	0,038
-276,672	440,248	-0,081	0,129
-275,657	800,000	0,021	-0,052
-274,643	-200,000	0,037	-0,208
-273,628	-200,000	-0,006	0,044
-272,613	-119,984	0,220	0,027
-271,599	-200,000	-0,006	-0,132
-270,584	-6,236	0,051	0,025
-269,570	296,828	-0,024	0,032
-268,555	-48,991	-0,024	0,008
-267,540	414,678	-0,059	0,091
-266,526	113,069	-0,045	-0,039
-265,511	800,000	-0,032	-0,085
-264,497	-200,000	0,015	-0,097
-263,482	102,772	-0,005	0,004
-262,467	-23,777	0,072	0,031
-261,453	800,000	-0,024	0,051
-260,438	717,947	-0,061	0,118
-259,424	-200,000	0,010	0,051
-258,409	479,400	-0,054	-0,090
-257,395	800,000	-0,064	0,141
-256,380	-200,000	0,034	-0,122
-255,365	142,756	0,026	0,026
-254,351	-200,000	-0,016	0,081
-253,336	168,103	0,015	-0,016
-252,322	-200,000	0,009	0,084
-251,307	800,000	0,043	0,124
-250,292	-200,000	-0,003	-0,105
-249,278	69,721	-0,058	-0,043
-248,263	-200,000	-0,000	0,048
-247,249	800,000	-0,028	-0,089
-246,234	56,234	-0,079	0,056
-245,219	38,089	-0,135	0,087
-244,205	-5,768	-0,028	0,014
-243,190	10,884	0,074	0,041
-242,176	557,982	-0,056	0,099
-241,161	-15,828	0,156	0,072
-240,146	800,000	-0,021	-0,068
-239,132	-83,732	0,048	-0,011
-238,117	81,858	0,013	-0,010
-237,103	147,993	0,058	-0,057
-236,088	800,000	0,025	-0,060
-235,073	-200,000	-0,037	0,147
-234,059	-155,034	-0,015	0,001
-233,044	-43,754	0,124	-0,045
-232,030	-72,942	0,059	-0,016
-231,015	-200,000	-0,013	-0,072
-230,000	-99,503	0,038	0,007
-228,986	800,000	0,032	0,065
-227,971	29,743	0,089	0,055
-226,957	-200,000	0,007	-0,085
-225,942	-200,000	0,005	-0,172
-224,927	242,813	0,087	0,106
-223,913	201,122	-0,070	0,078
-222,898	-200,000	0,023	0,101
-221,884	-132,369	-0,031	0,003
-220,869	-134,028	0,143	-0,013
-219,855	217,348	-0,040	0,047
-218,840	-23,948	0,181	-0,078
-217,825	800,000	-0,032	-0,067
-216,811	130,844	-0,007	-0,006
-215,796	249,265	0,034	-0,042
-214,782	109,003	0,060	-0,052
-213,767	151,482	0,019	0,019
-212,752	125,960	0,093	0,085
-211,738	-187,888	0,030	0,000
-210,723	-200,000	0,001	-0,071
-209,709	126,753	-0,074	0,068
-208,694	-27,618	-0,105	-0,044
-207,679	-200,000	0,001	-0,029
-206,665	21,461	0,067	0,039
-205,650	-114,766	0,039	-0,005
-204,636	-47,901	-0,065	-0,023
-203,621	-145,048	-0,059	0,004
-202,606	-200,000	-0,010	-0,132
-201,592	330,633	-0,073	-0,102
-200,577	493,138	-0,022	0,038
-199,563	-200,000	-0,030	0,136
-198,548	153,524	0,017	-0,017
-197,533	173,636	0,025	-0,026
-196,519	-200,000	0,000	0,091
-195,504	800,000	-0,042	-0,094
-194,490	-174,516	0,114	-0,002
-193,475	125,822	-0,097	0,089
-192,460	109,496	0,125	0,109
-191,446	-99,743	0,054	-0,010
-190,431	-9,279	-0,019	0,009
-189,417	82,997	-0,072	0,057
-188,402	-200,000	-0,016	0,095
-187,387	-200,000	-0,003	-0,044
-186,373	13,024	-0,031	-0,017
-185,358	-200,000	0,003	-0,022
-184,344	-81,753	0,132	0,031
-183,329	-97,309	0,143	0,027
-182,315	-200,000	0,016	-0,061
-181,300	-200,000	0,003	-0,075
-180,285	-200,000	-0,028	-0,107
-179,271	358,409	0,087	-0,126
-178,256	-200,000	-0,001	0,102
-177,242	45,473	0,035	0,023
-176,227	-126,760	-0,089	0,009
-175,212	-131,910	-0,092	0,009
-174,198	13,134	-0,114	-0,064
-173,183	-200,000	-0,026	-0,214
-172,169	-101,240	-0,123	-0,022
-171,154	91,838	-0,072	0,059
-170,139	-200,000	-0,005	-0,038
-169,125	-200,000	0,009	0,053
-168,110	119,870	-0,071	-0,064
-167,096	130,136	0,044	-0,041
-166,081	131,747	0,035	-0,033
-165,066	-26,665	-0,094	-0,040
-164,052	22,251	-0,080	-0,047
-163,037	-89,111	0,078	0,017
-162,023	743,660	0,099	0,193
-161,008	781,466	0,020	0,039
-159,993	514,331	0,049	-0,084
-158,979	-103,547	-0,007	-0,001
-157,964	800,000	0,032	-0,094
-156,950	31,994	-0,039	0,024
-155,935	286,182	-0,043	-0,056
-154,920	102,576	0,067	0,057
-153,906	-74,345	-0,020	-0,005
-152,891	800,000	-0,021	0,055
-151,877	-200,000	-0,001	0,107
-150,862	-200,000	-0,019	-0,070
-149,847	-91,568	-0,273	0,056
-148,833	800,000	-0,030	-0,079
-147,818	800,000	0,070	0,140
-146,804	75,190	-0,100	0,076
-145,789	57,531	-0,065	-0,046
-144,775	800,000	0,015	-0,038
-143,760	-19,213	0,013	-0,006
-142,745	49,416	-0,100	-0,068
-141,731	-200,000	-0,002	0,067
-140,716	-200,000	0,030	0,121
-139,702	-196,427	-0,100	0,000
-138,687	585,247	0,025	-0,045
-137,672	224,535	0,042	-0,050
-136,658	102,506	-0,058	-0,049
-135,643	-200,000	-0,019	-0,089
-134,629	-16,863	0,028	-0,013
-133,614	183,704	-0,072	0,077
-132,599	-200,000	-0,004	-0,059
-131,585	-134,555	0,103	0,009
-130,570	597,695	-0,042	0,075
-129,556	800,000	0,004	-0,009
-128,541	634,333	0,017	-0,031
-127,526	-200,000	0,001	-0,047
-126,512	-138,341	0,114	-0,009
-125,497	22,057	-0,100	0,059
-124,483	10,169	0,091	0,050
-123,468	316,260	0,051	-0,070
-122,453	202,283	-0,090	-0,101
-121,439	407,577	-0,039	-0,059
-120,424	-200,000	-0,017	-0,145
-119,410	284,643	-0,046	0,060
