DTS Sentinel unit serial number:	SN410029Multiplexer serial number:	ORYXHardware model number:	OX2-SRSoftware version number:	ORYX F/W v4,00 Oryx Data Collector v3.7.2.0data status	okinstallation	B6 Nyhavnadifferential loss correction	single-endedforward channel	channel 2reverse channel	N/Adate	2023/12/09time	06:00:08forward acquisition time	300,00reverse acquisition time	0,00gamma	499,1914k internal	0,3142k external	0,3142temperature offset calibration	1,0000default loss term (dB/km)	0,3820temperature slope calibration	1,0000multiplexer offset coefficient	1,0000multiplexer slope coefficient	1,0000fibre end	0,00T internal ref (°C)	18,25T ext. ref 1 (°C)	2,33T ext. ref 2 (°C)	2,36length (m)	temperature (°C)	Stokes	anti-Stokes-744,400	103,757	-0,030	-0,026
-743,385	-172,631	-0,143	0,003
-742,371	800,000	-0,047	0,146
-741,356	-87,869	-0,291	0,064
-740,342	58,292	0,091	0,066
-739,327	-162,317	-0,311	0,011
-738,312	83,452	-0,089	-0,072
-737,298	-92,835	-0,247	0,051
-736,283	251,601	0,062	-0,078
-735,269	50,515	-0,293	0,205
-734,254	800,000	0,011	-0,022
-733,239	-117,625	-0,593	-0,078
-732,225	-127,908	0,133	0,014
-731,210	300,175	0,094	0,129
-730,196	107,592	-0,024	0,021
-729,181	800,000	0,026	0,072
-728,167	-41,316	0,136	0,052
-727,152	5,357	0,014	-0,007
-726,137	-91,613	-0,232	-0,049
-725,123	192,757	-0,032	-0,036
-724,108	-83,148	-0,086	0,020
-723,094	163,905	-0,115	-0,120
-722,079	-200,000	-0,013	0,054
-721,064	27,296	-0,070	0,044
-720,050	494,238	0,061	-0,104
-719,035	800,000	0,031	-0,070
-718,021	-146,190	-0,070	0,004
-717,006	54,275	-0,086	-0,062
-715,991	-138,249	-0,114	-0,009
-714,977	-200,000	-0,041	-0,153
-713,962	47,788	-0,119	-0,082
-712,948	-109,285	0,120	0,019
-711,933	161,352	-0,073	-0,075
-710,918	1,134	-0,064	0,034
-709,904	800,000	-0,036	-0,107
-708,889	9,983	-0,087	-0,049
-707,875	709,543	0,027	0,054
-706,860	-200,000	0,004	-0,023
-705,845	800,000	0,009	0,029
-704,831	111,086	-0,089	-0,079
-703,816	769,289	-0,030	0,060
-702,802	100,029	-0,080	-0,069
-701,787	800,000	0,039	0,101
-700,772	-200,000	-0,014	0,124
-699,758	-200,000	0,001	-0,058
-698,743	-167,082	0,054	-0,002
-697,729	-120,384	0,022	-0,003
-696,714	800,000	0,020	0,065
-695,699	109,534	-0,125	-0,111
-694,685	800,000	0,014	-0,045
-693,670	-200,000	0,001	0,056
-692,656	15,171	0,149	0,086
-691,641	83,057	0,089	-0,072
-690,627	-43,433	-0,061	-0,023
-689,612	800,000	-0,034	0,108
-688,597	48,635	-0,134	0,093
-687,583	491,301	0,031	-0,053
-686,568	-200,000	0,047	-0,166
-685,554	73,738	-0,037	-0,028
-684,539	-53,229	0,055	-0,019
-683,524	-30,330	0,061	0,025
-682,510	-152,390	-0,037	-0,002
-681,495	73,083	-0,021	0,016
-680,481	-200,000	0,000	-0,015
-679,466	157,891	-0,065	-0,067
-678,451	371,650	0,145	-0,219
-677,437	-200,000	-0,011	-0,100
-676,422	12,839	0,106	0,061
-675,408	0,902	-0,115	-0,061
-674,393	800,000	-0,057	-0,163
-673,378	-200,000	0,041	-0,145
-672,364	643,790	-0,102	-0,192
-671,349	2,613	-0,043	-0,023
-670,335	-67,866	-0,094	0,027
-669,320	685,136	0,039	0,076
-668,305	340,283	-0,051	0,074
-667,291	800,000	-0,055	-0,114
-666,276	405,078	-0,013	-0,021
-665,262	109,827	-0,067	0,060
-664,247	204,010	0,028	-0,032
-663,232	16,280	0,073	-0,043
-662,218	-95,950	-0,072	-0,014
-661,203	-78,768	0,062	0,016
-660,189	192,912	-0,023	0,025
-659,174	500,766	-0,034	-0,059
-658,159	-44,035	0,086	-0,032
-657,145	800,000	-0,049	-0,126
-656,130	-11,084	-0,067	0,033
-655,116	-2,148	0,028	-0,014
-654,101	-200,000	0,041	0,145
-653,086	-90,932	-0,129	-0,027
-652,072	210,469	-0,056	-0,065
-651,057	524,919	0,011	-0,019
-650,043	800,000	-0,068	-0,165
-649,028	763,648	-0,059	-0,118
-648,014	697,961	0,090	0,176
-646,999	571,032	-0,049	0,088
-645,984	800,000	0,003	-0,008
-644,970	50,027	-0,095	0,066
-643,955	-7,278	-0,043	-0,022
-642,941	800,000	0,028	-0,058
-641,926	-140,926	0,073	0,005
-640,911	127,232	0,048	0,045
-639,897	323,686	0,147	0,207
-638,882	73,316	0,174	0,134
-637,868	15,495	0,067	0,039
-636,853	-27,778	-0,190	-0,081
-635,838	18,805	-0,110	-0,065
-634,824	800,000	0,049	-0,114
-633,809	-200,000	-0,047	-0,158
-632,795	800,000	0,031	0,090
-631,780	83,048	-0,009	-0,007
-630,765	203,960	0,021	0,024
-629,751	800,000	-0,046	-0,100
-628,736	82,339	-0,078	0,062
-627,722	11,943	-0,048	-0,027
-626,707	77,920	0,086	0,068
-625,692	286,099	-0,048	0,064
-624,678	800,000	0,026	0,065
-623,663	-132,147	0,142	0,013
-622,649	450,085	-0,043	-0,071
-621,634	-200,000	0,001	-0,044
-620,619	-40,540	0,133	0,050
-619,605	-200,000	-0,023	0,125
-618,590	-200,000	-0,037	0,159
-617,576	320,237	0,063	-0,088
-616,561	267,976	-0,007	0,009
-615,546	65,009	-0,093	-0,069
-614,532	-157,194	-0,156	-0,007
-613,517	104,748	0,091	0,079
-612,503	56,254	-0,133	-0,095
-611,488	-200,000	0,006	-0,204
-610,474	-123,231	0,019	-0,002
-609,459	13,337	-0,111	0,063
-608,444	-200,000	-0,007	0,046
-607,430	77,881	0,068	-0,053
-606,415	-141,520	0,054	-0,004
-605,401	-200,000	0,019	-0,173
-604,386	-25,491	0,020	-0,009
-603,371	160,488	0,056	0,057
-602,357	-22,712	-0,075	0,033
-601,342	99,190	-0,021	0,018
-600,328	728,024	0,070	-0,138
-599,313	-200,000	0,011	-0,090
-598,298	153,551	0,054	0,054
-597,284	-21,709	-0,083	0,037
-596,269	-200,000	-0,043	0,196
-595,255	-200,000	0,008	0,039
-594,240	84,759	-0,042	0,034
-593,225	270,493	0,030	0,039
-592,211	-150,896	-0,139	-0,008
-591,196	-106,850	-0,105	0,017
-590,182	-200,000	0,045	0,157
-589,167	206,823	0,026	-0,030
-588,152	-76,181	-0,190	-0,049
-587,138	-85,928	0,099	0,022
-586,123	63,983	-0,019	-0,014
-585,109	101,499	0,084	0,072
-584,094	800,000	-0,027	0,077
-583,079	46,642	0,075	0,051
-582,065	800,000	-0,016	-0,037
-581,050	-200,000	0,020	0,069
-580,036	-200,000	-0,002	0,016
-579,021	685,508	-0,013	0,025
-578,006	-200,000	0,008	-0,035
-576,992	-46,706	0,065	0,023
-575,977	-118,640	0,109	-0,014
-574,963	-200,000	0,025	0,094
-573,948	78,518	-0,104	0,082
-572,934	-200,000	-0,002	0,019
-571,919	800,000	-0,016	-0,034
-570,904	-200,000	0,050	-0,224
-569,890	-45,263	0,102	0,037
-568,875	539,472	-0,007	-0,012
-567,861	157,269	0,034	0,034
-566,846	-136,418	0,060	-0,005
-565,831	11,600	-0,072	-0,040
-564,817	800,000	0,007	0,018
-563,802	93,742	-0,073	-0,061
-562,788	133,296	-0,031	-0,029
-561,773	17,845	-0,023	-0,013
-560,758	285,720	0,014	0,018
-559,744	-49,265	-0,024	0,008
-558,729	-35,569	0,035	0,014
-557,715	21,981	-0,061	0,036
-556,700	-50,477	0,088	-0,031
-555,685	-200,000	0,003	-0,037
-554,671	230,244	-0,011	-0,013
-553,656	81,758	0,021	-0,017
-552,642	-200,000	0,000	0,082
-551,627	292,749	-0,028	0,038
-550,612	91,905	-0,063	0,052
-549,598	179,487	0,050	0,054
-548,583	800,000	-0,019	0,054
-547,569	-200,000	-0,029	-0,100
-546,554	800,000	-0,030	0,089
-545,539	-200,000	0,003	-0,010
-544,525	322,871	0,030	-0,043
-543,510	-200,000	0,017	-0,107
-542,496	800,000	0,077	-0,172
-541,481	-200,000	0,004	-0,110
-540,466	-87,005	0,131	-0,029
-539,452	471,909	0,015	0,025
-538,437	-34,408	0,134	0,054
-537,423	106,596	0,022	0,019
-536,408	-43,594	-0,112	-0,041
-535,393	22,108	-0,048	-0,028
-534,379	-81,004	-0,130	0,031
-533,364	221,632	-0,031	-0,036
-532,350	800,000	-0,036	-0,089
-531,335	173,436	0,133	-0,141
-530,321	-200,000	-0,012	0,080
-529,306	800,000	-0,031	-0,083
-528,291	-64,585	-0,102	-0,030
-527,277	-41,891	-0,116	-0,043
-526,262	41,909	0,107	-0,071
-525,248	-89,166	0,102	0,022
-524,233	800,000	-0,034	0,099
-523,218	294,314	0,039	-0,053
-522,204	38,066	-0,149	0,097
-521,189	277,657	-0,047	-0,062
-520,175	252,164	0,051	0,064
-519,160	42,833	-0,116	-0,078
-518,145	718,086	0,025	0,049
-517,131	363,448	-0,053	-0,079
-516,116	-200,000	-0,005	0,094
-515,102	-9,910	0,219	0,107
-514,087	-31,057	-0,054	-0,022
-513,072	-84,743	0,079	0,018
-512,058	800,000	-0,009	0,026
-511,043	-200,000	0,009	0,158
-510,029	-12,773	-0,075	0,036
-509,014	10,821	0,075	0,042
-507,999	103,924	-0,025	-0,022
-506,985	-200,000	-0,006	-0,078
-505,970	259,233	0,121	-0,153
-504,956	759,463	-0,034	-0,068
-503,941	306,198	0,003	0,004
-502,926	688,218	0,016	-0,031
-501,912	67,173	0,075	-0,056
-500,897	-61,611	-0,074	-0,023
-499,883	-39,277	-0,052	0,020
-498,868	583,444	0,014	-0,025
-497,853	120,673	0,024	-0,022
-496,839	-200,000	-0,016	0,077
-495,824	424,803	-0,025	0,040
-494,810	-163,841	0,114	-0,004
-493,795	521,219	-0,044	0,076
-492,781	-2,807	-0,118	0,060
-491,766	-200,000	-0,012	0,074
-490,751	640,892	-0,037	-0,069
-489,737	-34,831	0,044	0,017
-488,722	361,987	0,092	0,136
-487,708	-127,500	-0,066	-0,007
-486,693	-168,219	-0,072	0,002
-485,678	677,553	-0,029	-0,056
-484,664	595,736	-0,028	-0,052
-483,649	-200,000	-0,011	-0,175
-482,635	-200,000	-0,008	0,111
-481,620	-97,955	0,068	-0,013
-480,605	91,878	-0,031	0,026
-479,591	-200,000	-0,003	0,080
-478,576	700,261	0,044	0,084
-477,562	-26,940	-0,183	-0,078
-476,547	424,085	-0,091	0,145
-475,532	195,416	-0,049	-0,054
-474,518	323,206	0,078	0,109
-473,503	800,000	-0,050	-0,108
-472,489	308,484	-0,013	0,018
-471,474	-27,012	-0,104	0,044
-470,459	-200,000	-0,012	-0,045
-469,445	-200,000	-0,006	-0,127
-468,430	573,955	-0,026	-0,046
-467,416	800,000	0,022	-0,048
-466,401	-28,483	0,154	0,065
-465,386	-200,000	0,012	-0,081
-464,372	800,000	0,021	0,063
-463,357	-200,000	0,026	-0,086
-462,343	-112,872	-0,010	0,001
-461,328	-44,129	-0,076	-0,028
-460,313	249,104	-0,009	-0,012
-459,299	800,000	0,018	0,048
-458,284	13,491	0,158	0,090
-457,270	82,076	-0,057	0,045
-456,255	-75,458	-0,067	0,017
-455,241	-200,000	0,024	-0,161
-454,226	-92,076	-0,115	0,024
-453,211	-200,000	-0,029	0,101
-452,197	121,672	-0,038	0,034
-451,182	800,000	-0,048	-0,098
-450,168	-16,093	0,079	0,037
-449,153	224,688	-0,035	-0,041
-448,138	-60,789	-0,070	-0,022
-447,124	800,000	0,013	-0,028
-446,109	-200,000	-0,006	-0,043
-445,095	-200,000	0,000	0,040
-444,080	-167,553	-0,036	0,001
-443,065	-33,997	0,091	-0,037
-442,051	24,194	-0,037	0,023
-441,036	800,000	-0,026	-0,066
-440,022	-96,756	-0,081	-0,016
-439,007	157,415	-0,061	-0,062
-437,992	-74,486	0,123	-0,032
-436,978	-31,907	0,066	-0,027
-435,963	26,982	-0,138	0,084
-434,949	800,000	-0,022	-0,065
-433,934	-73,703	0,009	-0,002
-432,919	50,845	-0,032	0,022
-431,905	98,674	0,035	0,029
-430,890	-56,190	0,124	-0,040
-429,876	599,948	-0,038	0,069
-428,861	-200,000	0,014	0,135
-427,846	800,000	0,028	-0,066
-426,832	-200,000	-0,002	0,007
-425,817	-200,000	-0,032	-0,124
-424,803	-200,000	-0,022	-0,085
-423,788	83,796	0,181	0,144
-422,773	128,762	-0,021	-0,020
-421,759	-71,919	0,160	-0,043
-420,744	-93,830	-0,102	0,020
-419,730	176,153	-0,179	-0,190
-418,715	240,763	-0,063	-0,078
-417,701	53,072	-0,160	0,112
-416,686	-100,107	0,117	-0,021
-415,671	97,506	-0,163	-0,137
-414,657	-13,236	0,052	0,025
-413,642	-200,000	0,024	0,078
-412,628	365,214	0,092	-0,136
-411,613	800,000	-0,043	0,093
-410,598	425,755	-0,049	-0,077
-409,584	-200,000	0,001	0,019
-408,569	161,900	0,086	0,088
-407,555	170,071	0,046	-0,048
-406,540	271,983	-0,091	-0,117
-405,525	-200,000	0,022	0,152
-404,511	-54,066	-0,111	0,037
-403,496	568,648	0,051	-0,091
-402,482	48,489	0,139	0,095
-401,467	-200,000	-0,046	-0,152
-400,452	-200,000	0,027	0,113
-399,438	800,000	-0,012	-0,034
-398,423	635,961	0,011	-0,020
-397,409	-71,829	0,095	-0,026
-396,394	284,094	0,019	0,026
-395,379	360,498	-0,007	-0,011
-394,365	-200,000	0,033	0,142
-393,350	256,253	-0,060	0,075
-392,336	-2,107	0,080	0,041
-391,321	449,434	0,037	-0,060
-390,306	800,000	-0,053	-0,116
-389,292	-200,000	-0,026	-0,134
-388,277	-68,856	0,142	-0,040
-387,263	-104,370	-0,038	-0,006
-386,248	800,000	0,005	-0,012
-385,233	144,151	-0,141	0,137
-384,219	-41,834	0,072	0,027
-383,204	-22,921	0,038	-0,017
-382,190	320,035	0,045	-0,063
-381,175	414,154	-0,053	-0,082
-380,160	-200,000	-0,010	0,090
-379,146	120,755	0,067	0,061
-378,131	-200,000	-0,019	0,155
-377,117	112,986	-0,101	0,089
-376,102	425,837	-0,072	-0,114
-375,088	291,111	-0,011	0,014
-374,073	94,098	-0,076	0,063
-373,058	-200,000	-0,008	0,072
-372,044	800,000	0,068	0,139
-371,029	44,887	0,038	-0,025
-370,015	800,000	0,016	0,037
-369,000	23,082	-0,102	0,061
-367,985	-14,109	0,112	-0,053
-366,971	118,384	-0,030	-0,027
-365,956	550,135	0,051	-0,089
-364,942	-200,000	0,005	-0,131
-363,927	-200,000	-0,011	0,074
-362,912	800,000	-0,027	-0,060
-361,898	-47,049	-0,065	0,023
-360,883	-200,000	0,002	0,008
-359,869	-125,362	-0,083	-0,009
-358,854	15,706	-0,033	-0,019
-357,839	-200,000	0,002	-0,068
-356,825	-200,000	-0,010	-0,043
-355,810	108,753	-0,042	0,036
-354,796	353,078	0,021	-0,030
-353,781	264,132	-0,028	0,036
-352,766	800,000	-0,062	-0,142
-351,752	-200,000	0,010	-0,067
-350,737	800,000	0,046	0,093
-349,723	750,619	-0,044	-0,086
-348,708	193,805	0,058	-0,064
-347,693	643,559	-0,037	0,070
-346,679	86,549	-0,101	0,081
-345,664	-141,960	0,129	-0,009
-344,650	8,168	0,092	-0,050
-343,635	-200,000	-0,008	-0,091
-342,620	-69,468	-0,052	0,014
-341,606	800,000	0,017	0,045
-340,591	-200,000	0,004	-0,115
-339,577	40,657	-0,217	0,142
-338,562	331,862	-0,075	-0,106
-337,548	800,000	-0,062	0,133
-336,533	-189,788	0,046	0,000
-335,518	172,803	-0,100	0,105
-334,504	-200,000	-0,018	0,092
-333,489	510,487	-0,019	0,032
-332,475	-200,000	-0,038	0,185
-331,460	183,774	-0,070	-0,076
-330,445	-200,000	-0,004	-0,031
-329,431	333,398	-0,030	-0,042
-328,416	46,841	0,069	-0,046
-327,402	176,309	0,064	-0,068
-326,387	47,385	-0,056	-0,038
-325,372	10,484	-0,004	0,002
-324,358	-200,000	0,008	-0,065
-323,343	-72,680	0,072	-0,019
-322,329	142,445	-0,068	0,066
-321,314	-36,340	0,131	-0,051
-320,299	-200,000	-0,034	0,137
-319,285	-200,000	0,005	0,052
-318,270	-200,000	0,011	-0,051
-317,256	71,868	-0,030	-0,023
-316,241	294,881	-0,031	0,041
-315,226	800,000	0,025	0,068
-314,212	-128,688	0,088	0,009
-313,197	182,635	-0,029	0,031
-312,183	103,373	-0,004	0,004
-311,168	286,837	-0,102	0,135
-310,153	-200,000	-0,017	-0,124
-309,139	71,568	0,051	-0,039
-308,124	27,044	0,003	-0,002
-307,110	800,000	0,076	-0,177
-306,095	740,633	-0,036	-0,070
-305,080	-165,464	-0,018	0,001
-304,066	126,439	0,125	-0,115
-303,051	-92,554	0,069	-0,014
-302,037	432,412	0,021	-0,033
-301,022	-200,000	-0,021	-0,205
-300,008	162,953	0,046	-0,047
-298,993	800,000	-0,065	-0,193
-297,978	133,920	-0,103	0,097
-296,964	4,327	0,109	-0,058
-295,949	13,655	-0,039	0,022
-294,935	-84,742	-0,118	-0,027
-293,920	-69,088	0,023	-0,007
-292,905	-159,172	0,119	0,005
-291,891	800,000	-0,013	0,029
-290,876	-164,205	0,027	0,001
-289,862	148,494	-0,046	-0,045
-288,847	800,000	-0,021	-0,062
-287,832	-174,457	-0,045	0,001
-286,818	-53,723	0,085	-0,028
-285,803	800,000	-0,044	-0,132
-284,789	106,624	-0,071	0,062
-283,774	-113,407	0,088	-0,012
-282,759	800,000	0,019	-0,048
-281,745	-200,000	-0,001	0,017
-280,730	-200,000	0,014	-0,139
-279,716	71,309	0,036	-0,027
-278,701	-52,093	-0,079	-0,027
-277,686	-28,877	0,146	-0,061
-276,672	306,577	-0,032	0,043
-275,657	4,273	0,104	0,055
-274,643	-101,258	-0,088	-0,016
-273,628	414,751	-0,074	-0,115
-272,613	800,000	0,044	0,110
-271,599	272,151	0,021	-0,027
-270,584	-140,273	0,102	-0,008
-269,570	314,774	-0,060	-0,083
-268,555	-115,136	0,168	-0,023
-267,540	800,000	0,054	-0,121
-266,526	507,349	-0,054	0,092
-265,511	-71,424	0,084	-0,023
-264,497	800,000	-0,030	-0,062
-263,482	70,069	-0,117	0,088
-262,467	800,000	-0,015	-0,032
-261,453	0,538	0,112	-0,058
-260,438	-27,290	0,058	-0,024
-259,424	-200,000	-0,004	-0,019
-258,409	193,091	0,063	0,070
-257,395	11,464	0,059	-0,033
-256,380	-69,366	0,145	0,040
-255,365	800,000	0,004	-0,010
-254,351	-200,000	0,006	0,052
-253,336	-66,135	0,142	-0,041
-252,322	59,712	-0,134	0,096
-251,307	45,196	0,072	-0,048
-250,292	-200,000	-0,028	0,151
-249,278	800,000	0,019	0,055
-248,263	195,183	0,058	0,065
-247,249	136,018	0,076	0,072
-246,234	106,604	-0,050	0,043
-245,219	273,736	-0,019	0,025
-244,205	-200,000	-0,008	0,049
-243,190	46,280	0,046	0,031
-242,176	-200,000	-0,001	0,016
-241,161	166,606	0,076	0,079
-240,146	800,000	-0,051	-0,119
-239,132	-75,829	-0,048	-0,012
-238,117	800,000	-0,023	-0,049
-237,103	-161,325	0,124	-0,005
-236,088	-200,000	-0,002	-0,172
-235,073	23,676	-0,093	0,056
-234,059	-200,000	-0,020	0,104
-233,044	-19,420	-0,097	0,043
-232,030	-200,000	-0,011	0,041
-231,015	-200,000	0,002	0,022
-230,000	99,679	0,110	0,092
-228,986	134,978	0,048	-0,045
-227,971	-200,000	0,021	-0,151
-226,957	-200,000	-0,031	-0,106
-225,942	-200,000	0,007	0,166
-224,927	140,465	-0,011	0,010
-223,913	757,832	-0,032	0,063
-222,898	-200,000	0,010	-0,214
-221,884	15,486	-0,034	0,020
-220,869	-200,000	0,013	0,044
-219,855	-160,478	-0,139	0,005
-218,840	-200,000	-0,014	-0,054
-217,825	34,555	-0,057	0,036
-216,811	94,058	0,081	-0,067
-215,796	-200,000	-0,003	0,023
-214,782	293,320	0,050	0,066
-213,767	534,600	0,033	-0,057
-212,752	-97,469	0,034	0,006
-211,738	-200,000	0,003	0,139
-210,723	800,000	0,036	0,096
-209,709	19,627	-0,101	0,059
-208,694	74,220	-0,126	-0,096
-207,679	-200,000	0,013	0,090
-206,665	-142,289	0,073	0,005
-205,650	-200,000	0,003	0,130
-204,636	-36,541	-0,080	0,031
-203,621	-15,285	0,051	-0,024
-202,606	-72,744	-0,061	-0,016
-201,592	8,588	-0,078	0,043
-200,577	-200,000	0,008	-0,077
-199,563	-34,872	0,066	-0,026
-198,548	-86,006	0,064	0,014
-197,533	118,874	0,056	-0,050
-196,519	122,913	0,044	0,040
-195,504	-50,553	0,097	-0,033
-194,490	-200,000	-0,005	0,158
-193,475	-165,387	0,107	-0,003
-192,460	800,000	-0,044	0,090
-191,446	2,246	0,022	0,011
-190,431	609,275	0,059	-0,107
-189,417	800,000	-0,025	-0,072
-188,402	-103,306	0,060	0,010
-187,387	64,458	0,013	-0,009
-186,373	469,906	0,074	-0,121
-185,358	26,322	-0,081	-0,049
-184,344	-200,000	-0,005	-0,075
-183,329	403,413	0,060	0,091
-182,315	-112,712	0,027	0,004
-181,300	366,734	0,037	0,054
-180,285	535,792	0,014	-0,025
-179,271	-200,000	-0,018	0,063
-178,256	-200,000	0,002	0,050
-177,242	800,000	0,021	0,046
-176,227	379,597	0,090	0,135
-175,212	380,128	0,018	-0,027
-174,198	-81,854	-0,052	-0,012
-173,183	-200,000	-0,009	0,055
-172,169	-53,993	-0,062	0,020
-171,154	202,218	-0,100	-0,112
-170,139	-200,000	-0,031	-0,124
-169,125	466,878	0,025	0,041
-168,110	156,127	-0,078	0,078
-167,096	800,000	0,020	-0,062
-166,081	-200,000	0,016	0,062
-165,066	-21,646	-0,007	-0,003
-164,052	74,963	0,118	0,090
-163,037	-8,213	0,014	-0,007
-162,023	-108,988	0,096	0,015
-161,008	73,220	-0,015	0,011
-159,993	800,000	0,004	0,011
-158,979	-99,208	-0,203	-0,037
-157,964	-185,217	0,075	-0,001
-156,950	-13,333	-0,060	-0,028
-155,935	-200,000	-0,010	0,110
-154,920	800,000	-0,043	0,125
-153,906	44,324	0,125	0,083
-152,891	19,587	-0,104	0,061
-151,877	-200,000	0,004	0,110
-150,862	-98,223	0,044	-0,008
-149,847	201,471	0,054	-0,060
-148,833	67,973	-0,184	0,136
-147,818	-129,262	0,134	-0,013
-146,804	-126,928	-0,168	0,018
-145,789	-200,000	-0,022	0,134
-144,775	-185,161	-0,110	0,001
-143,760	0,789	-0,047	0,024
-142,745	800,000	-0,069	0,156
-141,731	523,584	0,030	-0,051
-140,716	-200,000	0,011	0,205
-139,702	734,497	-0,050	0,097
-138,687	498,425	0,028	-0,046
-137,672	-200,000	0,004	0,065
-136,658	-200,000	-0,025	-0,127
-135,643	288,935	-0,076	0,099
-134,629	227,811	0,123	0,145
-133,614	501,035	0,076	0,127
-132,599	-200,000	-0,018	0,093
-131,585	-57,940	0,080	-0,025
-130,570	136,956	0,038	0,036
-129,556	800,000	-0,010	0,026
-128,541	-168,794	-0,183	0,005
-127,526	55,035	0,075	0,053
-126,512	-1,713	0,044	-0,022
-125,497	291,791	-0,052	0,069
-124,483	800,000	-0,032	0,071
-123,468	-100,451	0,229	0,041
-122,453	-57,149	-0,041	0,013
-121,439	134,187	-0,043	-0,040
-120,424	800,000	0,031	-0,085
-119,410	-200,000	-0,050	0,168
-118,395	316,403	0,057	-0,077
