DTS Sentinel unit serial number:	SN410029Multiplexer serial number:	ORYXHardware model number:	OX2-SRSoftware version number:	ORYX F/W v4,00 Oryx Data Collector v3.7.2.0data status	okinstallation	B6 Nyhavnadifferential loss correction	single-endedforward channel	channel 2reverse channel	N/Adate	2023/12/10time	00:25:08forward acquisition time	300,00reverse acquisition time	0,00gamma	499,1914k internal	0,3126k external	0,3126temperature offset calibration	1,0000default loss term (dB/km)	0,3820temperature slope calibration	1,0000multiplexer offset coefficient	1,0000multiplexer slope coefficient	1,0000fibre end	0,00T internal ref (°C)	21,81T ext. ref 1 (°C)	5,70T ext. ref 2 (°C)	5,69length (m)	temperature (°C)	Stokes	anti-Stokes-744,400	-200,000	0,001	-0,029
-743,385	90,600	-0,220	0,184
-742,371	-9,734	0,088	0,043
-741,356	-41,459	-0,287	0,109
-740,342	800,000	0,072	-0,149
-739,327	-45,189	-0,196	0,072
-738,312	49,517	0,090	0,063
-737,298	-111,361	-0,278	0,042
-736,283	-200,000	-0,003	-0,093
-735,269	-28,778	-0,178	0,076
-734,254	-145,393	-0,105	0,007
-733,239	-123,220	-0,464	-0,055
-732,225	-200,000	0,003	-0,065
-731,210	-200,000	0,015	0,123
-730,196	-200,000	-0,019	-0,083
-729,181	395,501	-0,083	0,129
-728,167	-126,242	-0,079	-0,009
-727,152	-104,004	0,098	-0,017
-726,137	230,853	-0,046	0,056
-725,123	-81,132	-0,077	-0,019
-724,108	-200,000	-0,051	-0,221
-723,094	694,266	0,022	-0,042
-722,079	28,208	-0,124	-0,077
-721,064	382,541	-0,054	0,083
-720,050	133,003	0,047	0,045
-719,035	-3,956	0,045	-0,023
-718,021	800,000	0,019	-0,044
-717,006	-18,455	-0,082	-0,038
-715,991	150,633	-0,056	-0,057
-714,977	-200,000	-0,071	0,000
-713,962	800,000	0,029	0,080
-712,948	482,499	0,042	0,072
-711,933	-32,506	0,044	0,018
-710,918	-128,837	-0,059	0,006
-709,904	-118,461	-0,129	0,017
-708,889	-110,091	-0,025	0,004
-707,875	307,102	-0,062	-0,086
-706,860	800,000	-0,023	-0,058
-705,845	438,533	-0,098	0,160
-704,831	354,148	0,030	-0,045
-703,816	7,502	-0,164	-0,091
-702,802	-200,000	0,040	-0,143
-701,787	-24,806	-0,108	-0,048
-700,772	115,438	0,027	-0,024
-699,758	329,494	0,059	-0,084
-698,743	181,678	-0,122	-0,134
-697,729	800,000	0,026	0,053
-696,714	-47,122	-0,044	-0,016
-695,699	-200,000	-0,015	0,059
-694,685	-88,844	-0,120	0,026
-693,670	-23,876	-0,073	0,032
-692,656	75,551	-0,049	-0,038
-691,641	-66,784	-0,095	-0,028
-690,627	-155,699	-0,089	-0,004
-689,612	-200,000	-0,009	-0,064
-688,597	-200,000	-0,021	-0,073
-687,583	800,000	0,034	-0,098
-686,568	800,000	-0,059	0,132
-685,554	51,035	0,070	-0,049
-684,539	119,791	0,091	-0,084
-683,524	-200,000	-0,003	-0,013
-682,510	-66,939	0,105	0,031
-681,495	-150,552	-0,024	-0,001
-680,481	-200,000	0,007	-0,119
-679,466	196,977	-0,092	-0,104
-678,451	138,830	-0,011	-0,011
-677,437	-167,595	0,047	0,001
-676,422	-200,000	0,022	0,124
-675,408	800,000	0,064	0,135
-674,393	-200,000	-0,022	0,084
-673,378	75,106	0,047	-0,037
-672,364	-200,000	-0,035	0,145
-671,349	84,533	-0,090	-0,073
-670,335	-57,224	0,096	0,031
-669,320	45,469	0,075	-0,051
-668,305	-97,468	-0,112	-0,021
-667,291	662,863	-0,049	0,094
-666,276	-71,174	-0,040	-0,011
-665,262	18,145	-0,038	0,022
-664,247	-34,744	-0,071	0,029
-663,232	378,424	-0,074	-0,113
-662,218	-87,588	-0,148	-0,033
-661,203	363,015	0,084	0,126
-660,189	-200,000	0,019	0,102
-659,174	-124,581	-0,198	0,023
-658,159	-9,977	-0,090	0,044
-657,145	-200,000	-0,022	-0,108
-656,130	-64,714	0,038	-0,011
-655,116	202,990	0,078	-0,089
-654,101	179,695	0,091	-0,099
-653,086	-172,175	-0,025	-0,001
-652,072	-11,835	-0,144	-0,070
-651,057	-16,011	-0,110	-0,052
-650,043	-30,331	-0,108	0,045
-649,028	-128,248	-0,111	-0,012
-648,014	-200,000	0,009	0,069
-646,999	-114,725	0,058	-0,008
-645,984	6,446	-0,031	-0,017
-644,970	800,000	-0,009	-0,024
-643,955	218,268	0,056	0,066
-642,941	-11,459	0,052	-0,025
-641,926	-83,697	0,095	-0,022
-640,911	-200,000	0,042	0,150
-639,897	-200,000	0,014	0,079
-638,882	134,942	0,077	-0,074
-637,868	107,084	-0,124	-0,109
-636,853	-102,981	-0,122	-0,021
-635,838	800,000	-0,042	-0,110
-634,824	-200,000	0,015	0,089
-633,809	-200,000	0,035	0,135
-632,795	-200,000	-0,023	-0,097
-631,780	63,234	-0,155	-0,115
-630,765	168,819	-0,065	0,069
-629,751	4,446	-0,105	0,057
-628,736	800,000	0,015	-0,037
-627,722	800,000	0,046	0,112
-626,707	-105,550	0,046	0,008
-625,692	70,466	0,075	0,058
-624,678	-36,659	0,106	0,042
-623,663	800,000	-0,073	-0,187
-622,649	205,746	0,034	0,039
-621,634	55,280	-0,034	-0,024
-620,619	160,999	-0,012	0,012
-619,605	179,749	-0,057	-0,062
-618,590	290,725	0,017	-0,023
-617,576	159,654	-0,105	-0,109
-616,561	386,918	-0,076	0,116
-615,546	-200,000	0,009	-0,052
-614,532	-135,910	-0,021	0,002
-613,517	-89,835	0,079	0,017
-612,503	49,389	0,055	-0,038
-611,488	96,163	-0,057	0,048
-610,474	800,000	-0,047	-0,103
-609,459	800,000	0,020	-0,052
-608,444	-134,112	-0,221	0,020
-607,430	-85,814	0,095	0,022
-606,415	20,067	0,058	0,034
-605,401	-59,015	-0,068	0,022
-604,386	-36,727	-0,056	0,022
-603,371	-200,000	-0,007	0,076
-602,357	499,751	0,034	-0,058
-601,342	51,806	0,077	-0,054
-600,328	-113,279	0,054	-0,008
-599,313	-160,202	-0,051	0,002
-598,298	-28,564	-0,157	0,067
-597,284	-36,235	0,094	0,038
-596,269	104,908	-0,066	-0,058
-595,255	306,700	-0,024	0,033
-594,240	-130,884	-0,113	0,011
-593,225	1,738	-0,056	-0,030
-592,211	40,949	0,068	-0,045
-591,196	800,000	0,042	-0,104
-590,182	-76,207	0,073	-0,019
-589,167	302,275	-0,089	0,122
-588,152	-161,805	-0,072	0,003
-587,138	-52,968	0,044	-0,015
-586,123	511,273	-0,049	-0,084
-585,109	-200,000	-0,011	0,037
-584,094	-76,665	-0,148	-0,038
-583,079	100,719	0,029	-0,025
-582,065	800,000	0,052	0,116
-581,050	-200,000	0,050	0,196
-580,036	61,246	-0,008	-0,006
-579,021	800,000	0,017	0,055
-578,006	101,799	-0,038	0,033
-576,992	211,172	-0,087	0,102
-575,977	-200,000	-0,004	0,029
-574,963	-18,202	0,038	0,017
-573,948	-73,194	-0,139	-0,038
-572,934	222,954	0,037	-0,045
-571,919	412,231	-0,088	-0,138
-570,904	749,145	0,032	-0,065
-569,890	60,852	0,073	-0,054
-568,875	72,493	0,151	0,117
-567,861	-110,302	0,167	-0,025
-566,846	279,257	0,065	0,086
-565,831	-200,000	0,000	0,002
-564,817	263,607	-0,053	0,068
-563,802	-200,000	-0,013	0,129
-562,788	800,000	0,050	0,148
-561,773	-200,000	0,008	0,029
-560,758	800,000	-0,030	0,068
-559,744	800,000	0,038	0,088
-558,729	800,000	-0,078	0,161
-557,715	-110,599	-0,157	0,024
-556,700	-200,000	-0,032	-0,151
-555,685	-200,000	0,013	-0,106
-554,671	-81,206	0,185	-0,045
-553,656	20,049	-0,164	0,097
-552,642	-200,000	-0,015	0,172
-551,627	-200,000	0,010	0,071
-550,612	-200,000	0,009	0,073
-549,598	-62,325	-0,104	-0,032
-548,583	-128,340	0,072	-0,008
-547,569	312,470	0,043	-0,060
-546,554	352,158	0,052	0,077
-545,539	-120,073	-0,045	0,006
-544,525	181,940	0,096	0,104
-543,510	129,789	-0,103	-0,097
-542,496	572,911	0,053	-0,096
-541,481	-200,000	0,003	-0,070
-540,466	-129,791	-0,160	-0,016
-539,452	511,775	-0,019	-0,033
-538,437	-24,683	-0,228	0,100
-537,423	298,469	-0,084	0,115
-536,408	-200,000	-0,002	-0,029
-535,393	248,369	-0,036	-0,046
-534,379	-86,020	-0,040	-0,009
-533,364	46,636	-0,121	0,083
-532,350	-200,000	0,091	0,000
-531,335	430,781	-0,094	0,151
-530,321	800,000	-0,059	0,145
-529,306	-200,000	-0,010	0,169
-528,291	-200,000	0,015	-0,053
-527,277	46,202	-0,060	0,041
-526,262	-142,718	0,103	-0,007
-525,248	104,272	0,046	-0,040
-524,233	369,657	-0,065	0,098
-523,218	129,686	0,033	-0,031
-522,204	-83,720	0,085	-0,020
-521,189	-88,089	-0,104	-0,023
-520,175	168,408	-0,055	-0,058
-519,160	-33,991	0,014	-0,006
-518,145	800,000	-0,025	0,056
-517,131	226,220	-0,068	-0,082
-516,116	-200,000	-0,002	0,087
-515,102	800,000	-0,007	-0,021
-514,087	-176,591	-0,108	-0,002
-513,072	516,133	0,047	-0,082
-512,058	55,701	0,084	-0,060
-511,043	346,629	0,089	0,129
-510,029	800,000	-0,026	-0,065
-509,014	767,635	0,069	0,139
-507,999	78,924	0,118	0,093
-506,985	800,000	-0,032	0,077
-505,970	-29,857	-0,073	-0,031
-504,956	352,134	-0,095	-0,140
-503,941	-200,000	0,010	-0,058
-502,926	-200,000	0,008	0,058
-501,912	309,185	-0,077	0,106
-500,897	145,334	0,044	0,044
-499,883	-200,000	0,012	0,097
-498,868	-25,589	-0,101	-0,044
-497,853	-200,000	-0,047	-0,204
-496,839	-200,000	-0,016	-0,111
-495,824	-200,000	-0,005	-0,034
-494,810	-69,228	0,090	-0,025
-493,795	357,171	0,024	-0,036
-492,781	2,354	-0,030	-0,016
-491,766	-200,000	-0,013	0,117
-490,751	-35,670	-0,057	-0,023
-489,737	-111,544	0,032	-0,005
-488,722	248,625	0,093	0,116
-487,708	-200,000	-0,012	-0,058
-486,693	-200,000	-0,034	-0,127
-485,678	74,748	-0,081	0,063
-484,664	95,287	-0,080	-0,067
-483,649	-101,624	-0,031	0,005
-482,635	-200,000	0,007	0,175
-481,620	22,658	0,153	-0,092
-480,605	331,992	0,031	-0,044
-479,591	83,977	0,112	-0,090
-478,576	-44,963	-0,126	0,046
-477,562	800,000	-0,069	-0,177
-476,547	-74,911	-0,049	0,013
-475,532	-200,000	0,029	-0,178
-474,518	-200,000	0,009	-0,057
-473,503	541,053	0,051	-0,089
-472,489	-79,313	0,109	-0,027
-471,474	255,519	-0,006	0,008
-470,459	-55,602	0,112	-0,037
-469,445	76,681	-0,045	-0,035
-468,430	-200,000	0,027	0,215
-467,416	-200,000	-0,023	-0,079
-466,401	-21,664	0,044	0,020
-465,386	262,245	0,052	-0,067
-464,372	-173,897	-0,074	-0,002
-463,357	-92,504	0,039	0,008
-462,343	-81,352	-0,097	0,023
-461,328	-200,000	-0,017	-0,062
-460,313	12,729	-0,036	0,021
-459,299	-35,439	-0,051	0,020
-458,284	69,943	0,142	-0,107
-457,270	457,449	0,054	0,088
-456,255	622,210	-0,050	-0,093
-455,241	259,406	-0,069	-0,088
-454,226	55,615	0,077	-0,055
-453,211	13,860	-0,146	0,083
-452,197	-62,534	-0,051	-0,016
-451,182	-105,061	0,123	-0,021
-450,168	-106,552	0,091	0,015
-449,153	83,867	-0,074	-0,059
-448,138	553,171	0,054	0,096
-447,124	22,386	-0,082	-0,049
-446,109	-154,625	-0,167	0,008
-445,095	387,492	0,072	0,111
-444,080	102,081	-0,061	-0,052
-443,065	254,187	-0,093	-0,117
-442,051	800,000	0,068	-0,147
-441,036	353,077	0,050	-0,074
-440,022	48,612	0,103	0,071
-439,007	-200,000	-0,016	0,063
-437,992	-49,140	-0,065	0,023
-436,978	-93,422	0,119	0,024
-435,963	-66,511	0,052	0,015
-434,949	800,000	0,008	0,021
-433,934	512,477	-0,034	0,059
-432,919	-200,000	-0,018	-0,222
-431,905	800,000	-0,039	-0,119
-430,890	335,056	0,073	0,104
-429,876	-39,274	-0,107	0,041
-428,861	-10,847	0,049	0,023
-427,846	-166,706	0,042	-0,001
-426,832	-27,826	-0,023	-0,010
-425,817	-200,000	-0,002	-0,067
-424,803	-156,345	-0,111	0,005
-423,788	800,000	-0,006	0,017
-422,773	-126,193	-0,102	0,011
-421,759	77,919	0,088	-0,069
-420,744	800,000	0,034	-0,103
-419,730	-134,965	-0,161	-0,014
-418,715	-46,949	-0,046	-0,016
-417,701	-77,621	-0,123	0,031
-416,686	71,981	0,081	-0,062
-415,671	-200,000	0,015	-0,082
-414,657	557,961	-0,088	0,157
-413,642	800,000	0,010	0,027
-412,628	-200,000	0,003	-0,061
-411,613	-48,682	-0,028	-0,010
-410,598	152,202	0,041	-0,041
-409,584	-14,063	0,089	-0,042
-408,569	29,389	-0,125	0,078
-407,555	-62,002	0,094	0,029
-406,540	66,558	0,026	0,020
-405,525	147,915	-0,039	-0,039
-404,511	11,193	-0,026	0,015
-403,496	80,407	-0,018	-0,014
-402,482	94,222	-0,030	0,025
-401,467	169,740	0,091	-0,096
-400,452	-47,957	0,052	0,019
-399,438	0,851	0,080	0,042
-398,423	322,764	-0,091	0,127
-397,409	97,240	0,072	-0,061
-396,394	-200,000	0,040	-0,165
-395,379	-181,128	-0,064	0,001
-394,365	800,000	0,048	0,141
-393,350	-200,000	0,027	0,100
-392,336	-62,440	0,106	-0,032
-391,321	57,910	0,057	0,041
-390,306	484,063	0,023	0,039
-389,292	153,747	-0,029	0,029
-388,277	-200,000	0,011	-0,073
-387,263	-60,611	-0,052	0,016
-386,248	-4,062	0,126	0,064
-385,233	800,000	0,014	-0,041
-384,219	12,764	0,027	0,015
-383,204	295,322	-0,047	0,063
-382,190	800,000	0,040	0,096
-381,175	186,480	-0,120	-0,132
-380,160	43,543	-0,059	0,039
-379,146	800,000	-0,027	-0,073
-378,131	-200,000	0,012	0,062
-377,117	800,000	-0,034	-0,071
-376,102	154,199	0,074	-0,075
-375,088	-120,142	-0,174	0,022
-374,073	-200,000	0,017	-0,102
-373,058	133,148	0,050	-0,048
-372,044	48,581	0,099	0,068
-371,029	-123,386	0,157	0,018
-370,015	-200,000	-0,023	0,174
-369,000	-175,486	0,135	-0,003
-367,985	-32,866	-0,104	-0,042
-366,971	800,000	0,013	-0,037
-365,956	-200,000	0,001	-0,112
-364,942	20,190	-0,076	0,045
-363,927	-199,017	-0,070	0,000
-362,912	-120,383	0,037	-0,005
-361,898	-21,615	-0,065	-0,029
-360,883	-159,026	0,197	0,008
-359,869	529,206	0,028	0,049
-358,854	80,978	0,085	0,067
-357,839	-200,000	0,008	-0,037
-356,825	-200,000	-0,000	0,016
-355,810	545,889	-0,071	0,126
-354,796	255,879	-0,098	0,124
-353,781	186,437	-0,079	-0,086
-352,766	-0,869	0,020	-0,010
-351,752	547,252	-0,085	-0,150
-350,737	-42,964	-0,075	-0,028
-349,723	-61,958	-0,086	0,026
-348,708	-200,000	-0,001	-0,049
-347,693	78,617	0,083	-0,065
-346,679	-200,000	0,001	-0,082
-345,664	-116,457	-0,139	-0,019
-344,650	800,000	-0,040	-0,096
-343,635	797,962	0,032	-0,065
-342,620	-200,000	-0,004	0,067
-341,606	-200,000	0,008	0,066
-340,591	272,829	-0,088	-0,114
-339,577	800,000	-0,047	-0,109
-338,562	113,540	-0,071	0,063
-337,548	-97,663	0,005	0,001
-336,533	86,495	-0,085	-0,069
-335,518	-105,538	0,063	-0,010
-334,504	495,609	0,036	-0,060
-333,489	141,368	-0,052	0,051
-332,475	192,094	-0,090	-0,100
-331,460	498,692	-0,043	-0,073
-330,445	-0,407	-0,064	-0,033
-329,431	-200,000	-0,012	0,042
-328,416	-121,354	0,064	0,008
-327,402	-117,263	-0,021	-0,003
-326,387	477,507	-0,028	0,047
-325,372	-200,000	-0,009	-0,111
-324,358	89,811	-0,074	-0,061
-323,343	43,906	-0,098	-0,065
-322,329	495,419	0,042	-0,071
-321,314	-106,670	-0,116	0,019
-320,299	147,576	0,084	0,083
-319,285	-146,311	0,030	-0,002
-318,270	254,786	-0,070	-0,088
-317,256	14,310	-0,072	-0,041
-316,241	-15,746	0,031	0,015
-315,226	2,410	0,034	0,018
-314,212	-19,097	0,048	0,022
-313,197	250,739	0,090	0,113
-312,183	260,149	-0,042	0,054
-311,168	800,000	-0,033	0,096
-310,153	55,556	0,050	-0,036
-309,139	-38,212	0,085	-0,033
-308,124	238,601	-0,010	0,013
-307,110	194,295	-0,039	0,043
-306,095	707,872	0,099	-0,193
-305,080	-149,930	-0,072	-0,004
-304,066	668,965	-0,036	0,069
-303,051	-200,000	0,018	-0,083
-302,037	60,114	-0,020	0,014
-301,022	-200,000	-0,016	-0,158
-300,008	5,369	0,063	0,034
-298,993	521,673	0,057	0,098
-297,978	-10,972	0,230	0,111
-296,964	-37,688	-0,029	0,011
-295,949	-20,398	0,102	0,046
-294,935	800,000	-0,027	-0,075
-293,920	371,539	0,047	0,070
-292,905	-109,704	0,100	0,015
-291,891	-119,251	-0,133	-0,017
-290,876	146,620	-0,127	-0,125
-289,862	-83,341	0,042	-0,010
-288,847	800,000	-0,036	-0,100
-287,832	-172,302	0,139	-0,003
-286,818	-200,000	-0,014	-0,154
-285,803	-134,397	0,100	0,009
-284,789	-112,925	0,094	0,013
-283,774	-22,763	0,047	-0,021
-282,759	800,000	-0,023	0,060
-281,745	686,366	0,050	0,096
-280,730	-200,000	-0,005	0,024
-279,716	-86,663	-0,060	-0,013
-278,701	-80,022	0,195	-0,048
-277,686	-115,290	0,092	0,013
-276,672	800,000	-0,037	0,110
-275,657	-200,000	0,003	0,077
-274,643	800,000	0,046	-0,116
-273,628	-200,000	-0,029	0,095
-272,613	194,490	-0,046	-0,051
-271,599	-84,477	0,178	-0,041
-270,584	-91,039	0,101	-0,021
-269,570	800,000	0,048	0,114
-268,555	147,808	-0,049	-0,048
-267,540	800,000	-0,036	-0,107
-266,526	-90,654	-0,048	-0,010
-265,511	101,979	0,036	-0,031
-264,497	-121,420	0,099	0,012
-263,482	32,921	0,077	0,049
-262,467	-45,357	0,101	0,036
-261,453	800,000	0,037	-0,104
-260,438	-198,365	-0,040	-0,000
-259,424	-200,000	0,029	-0,172
-258,409	368,509	0,061	-0,090
-257,395	800,000	0,011	0,034
-256,380	-4,998	-0,044	0,022
-255,365	-200,000	-0,015	-0,074
-254,351	-200,000	-0,015	-0,055
-253,336	50,806	0,110	-0,076
-252,322	-112,229	0,082	0,012
-251,307	-135,328	0,058	-0,005
-250,292	-94,235	-0,116	-0,023
-249,278	346,735	0,071	0,103
-248,263	-105,553	0,042	-0,007
-247,249	-56,097	-0,119	-0,039
-246,234	404,075	-0,037	0,057
-245,219	-42,482	0,073	-0,027
-244,205	87,011	0,075	0,061
-243,190	423,780	-0,016	0,025
-242,176	-161,436	0,188	-0,007
-241,161	108,147	0,101	0,088
-240,146	-109,417	0,073	-0,011
-239,132	-200,000	-0,021	0,111
-238,117	348,668	0,081	-0,117
-237,103	800,000	-0,037	0,087
-236,088	-29,523	0,075	0,031
-235,073	-127,146	-0,026	0,003
-234,059	130,928	-0,088	0,083
-233,044	376,603	0,023	0,035
-232,030	-54,944	-0,031	0,010
-231,015	43,587	-0,103	-0,069
-230,000	-200,000	-0,032	-0,118
-228,986	-132,762	0,132	0,012
-227,971	-90,523	0,115	-0,024
-226,957	-175,876	0,088	0,002
-225,942	-200,000	-0,027	0,139
-224,927	-185,879	0,036	-0,000
-223,913	-139,122	0,055	0,004
-222,898	252,676	-0,050	-0,062
-221,884	-26,043	0,132	-0,056
-220,869	-72,473	0,053	-0,014
-219,855	492,127	0,035	-0,059
-218,840	-66,221	0,035	0,010
-217,825	-88,180	-0,158	0,034
-216,811	-200,000	-0,021	-0,157
-215,796	800,000	-0,012	-0,024
-214,782	-200,000	-0,013	0,113
-213,767	-200,000	0,029	-0,105
-212,752	-200,000	-0,008	0,049
-211,738	-87,866	0,097	-0,021
-210,723	529,853	0,040	-0,070
-209,709	-38,257	-0,071	0,027
-208,694	105,010	0,052	-0,045
-207,679	-200,000	-0,006	-0,067
-206,665	-200,000	0,003	-0,025
-205,650	96,036	-0,088	0,073
-204,636	133,740	0,077	0,073
-203,621	33,036	-0,038	0,024
-202,606	-200,000	-0,007	-0,104
-201,592	-76,070	-0,120	-0,031
-200,577	-200,000	-0,055	-0,189
-199,563	156,777	-0,077	-0,077
-198,548	126,442	0,157	0,145
-197,533	-41,604	0,096	0,036
-196,519	800,000	-0,026	-0,076
-195,504	800,000	0,037	0,095
-194,490	55,079	-0,083	0,058
-193,475	100,124	-0,129	-0,109
-192,460	2,310	0,044	0,023
-191,446	365,361	-0,056	0,082
-190,431	596,144	0,069	0,124
-189,417	-73,890	0,146	-0,038
-188,402	31,001	-0,048	0,030
-187,387	-15,026	-0,031	-0,014
-186,373	339,643	-0,028	-0,041
-185,358	-200,000	-0,008	0,108
-184,344	-127,530	0,080	0,008
-183,329	800,000	0,078	-0,160
-182,315	-40,277	0,115	0,043
-181,300	565,885	0,038	-0,068
-180,285	-139,844	-0,143	0,011
-179,271	13,932	-0,160	0,090
-178,256	-113,742	-0,094	0,013
-177,242	-200,000	0,004	0,114
-176,227	-200,000	0,040	0,225
-175,212	800,000	-0,047	0,106
-174,198	-57,252	0,065	0,021
-173,183	780,488	0,013	-0,026
-172,169	243,610	-0,039	0,048
-171,154	161,214	-0,113	-0,115
-170,139	800,000	0,029	0,071
-169,125	40,869	0,069	0,045
-168,110	-5,070	-0,054	-0,027
-167,096	-35,261	-0,110	-0,043
-166,081	800,000	-0,024	-0,060
-165,066	-200,000	0,021	0,149
-164,052	-200,000	-0,018	-0,084
-163,037	26,809	-0,070	0,043
-162,023	-163,070	0,102	0,004
-161,008	-2,181	0,057	0,029
-159,993	800,000	0,053	0,126
-158,979	800,000	0,041	0,123
-157,964	800,000	-0,020	-0,058
-156,950	-101,908	0,093	0,016
-155,935	-200,000	-0,015	0,102
-154,920	572,364	0,083	0,149
-153,906	69,152	-0,060	-0,045
-152,891	227,226	0,073	0,086
-151,877	158,339	0,043	-0,043
-150,862	587,737	-0,050	-0,089
-149,847	227,500	0,026	-0,031
-148,833	179,097	-0,094	0,100
-147,818	300,046	0,035	-0,047
-146,804	-66,593	-0,122	0,035
-145,789	-200,000	-0,011	0,036
-144,775	-200,000	-0,015	0,070
-143,760	363,193	0,011	0,017
-142,745	-200,000	-0,018	-0,074
-141,731	-68,249	0,056	0,016
-140,716	-200,000	-0,017	0,065
-139,702	-200,000	-0,060	0,000
-138,687	443,201	0,032	0,051
-137,672	105,261	-0,046	0,039
-136,658	-10,601	0,043	-0,020
-135,643	-200,000	0,002	0,129
-134,629	-147,578	0,098	0,006
-133,614	77,809	0,061	-0,047
-132,599	6,586	0,043	0,023
-131,585	-80,302	0,044	-0,011
-130,570	287,227	-0,082	-0,108
-129,556	-59,766	0,043	-0,013
-128,541	454,154	-0,076	0,122
-127,526	293,739	0,066	-0,088
-126,512	-200,000	0,027	-0,094
-125,497	52,371	0,032	0,022
-124,483	-84,504	0,105	0,024
-123,468	-159,222	-0,098	-0,004
-122,453	-121,744	0,060	0,007
-121,439	-6,474	-0,124	-0,061
-120,424	183,761	-0,161	-0,173
-119,410	605,463	-0,012	-0,022
