DTS Sentinel unit serial number:	SN410029Multiplexer serial number:	ORYXHardware model number:	OX2-SRSoftware version number:	ORYX F/W v4,00 Oryx Data Collector v3.7.2.0data status	okinstallation	B6 Nyhavnadifferential loss correction	single-endedforward channel	channel 2reverse channel	N/Adate	2023/12/10time	15:55:08forward acquisition time	300,00reverse acquisition time	0,00gamma	499,1914k internal	0,3122k external	0,3122temperature offset calibration	1,0000default loss term (dB/km)	0,3820temperature slope calibration	1,0000multiplexer offset coefficient	1,0000multiplexer slope coefficient	1,0000fibre end	0,00T internal ref (°C)	22,37T ext. ref 1 (°C)	6,01T ext. ref 2 (°C)	6,00length (m)	temperature (°C)	Stokes	anti-Stokes-744,400	45,215	0,048	-0,033
-743,385	-2,117	-0,162	0,085
-742,371	-200,000	0,039	0,162
-741,356	-66,766	-0,224	0,066
-740,342	-200,000	-0,008	0,040
-739,327	-86,919	-0,214	0,048
-738,312	800,000	0,035	-0,093
-737,298	164,715	-0,146	0,153
-736,283	-200,000	0,031	-0,103
-735,269	60,742	-0,225	0,166
-734,254	800,000	-0,035	0,081
-733,239	-140,686	-0,350	0,027
-732,225	800,000	0,044	-0,111
-731,210	800,000	-0,048	0,137
-730,196	125,498	-0,017	0,016
-729,181	-200,000	-0,011	-0,113
-728,167	-19,888	-0,108	0,049
-727,152	-66,167	-0,104	-0,031
-726,137	160,694	0,038	-0,039
-725,123	-200,000	-0,017	0,108
-724,108	84,691	-0,098	0,080
-723,094	-56,257	-0,046	-0,015
-722,079	-85,947	-0,059	-0,014
-721,064	-9,261	-0,113	-0,056
-720,050	-12,265	-0,015	0,007
-719,035	264,251	-0,050	0,065
-718,021	107,625	-0,052	-0,046
-717,006	-200,000	0,019	-0,102
-715,991	470,234	-0,059	-0,099
-714,977	800,000	0,031	-0,079
-713,962	-82,444	-0,173	-0,041
-712,948	403,772	0,034	-0,053
-711,933	182,996	-0,077	0,085
-710,918	1,888	0,040	-0,021
-709,904	258,470	0,091	-0,117
-708,889	564,431	-0,078	-0,140
-707,875	78,097	0,044	-0,035
-706,860	-55,075	-0,057	-0,019
-705,845	297,306	0,074	-0,101
-704,831	-200,000	-0,002	0,015
-703,816	20,773	0,038	-0,023
-702,802	800,000	0,035	-0,111
-701,787	43,860	-0,071	0,049
-700,772	-200,000	-0,024	-0,108
-699,758	194,243	0,056	0,064
-698,743	800,000	0,024	0,067
-697,729	-63,119	0,057	0,018
-696,714	800,000	-0,033	-0,067
-695,699	-200,000	-0,017	-0,072
-694,685	-200,000	0,016	-0,114
-693,670	-17,542	0,041	-0,019
-692,656	-200,000	-0,009	0,111
-691,641	-200,000	-0,001	0,041
-690,627	800,000	-0,016	0,046
-689,612	81,470	-0,040	-0,032
-688,597	200,279	-0,081	-0,093
-687,583	-79,666	-0,092	0,023
-686,568	103,427	-0,051	0,044
-685,554	-4,358	0,127	-0,065
-684,539	-48,682	0,136	0,048
-683,524	-200,000	0,000	0,056
-682,510	73,082	-0,037	0,029
-681,495	-200,000	0,004	-0,135
-680,481	800,000	-0,092	-0,199
-679,466	-70,836	-0,076	0,021
-678,451	241,220	-0,083	-0,103
-677,437	66,401	0,023	0,017
-676,422	-98,019	0,100	0,019
-675,408	36,096	-0,034	-0,022
-674,393	-77,066	-0,086	-0,022
-673,378	181,664	-0,098	-0,107
-672,364	164,250	0,058	-0,061
-671,349	410,043	0,037	0,058
-670,335	70,689	-0,195	0,150
-669,320	18,247	0,105	0,062
-668,305	800,000	0,040	0,099
-667,291	482,633	-0,076	0,129
-666,276	-200,000	0,030	-0,120
-665,262	800,000	-0,050	-0,115
-664,247	433,944	0,039	-0,064
-663,232	59,882	0,105	-0,077
-662,218	25,872	-0,096	-0,059
-661,203	169,895	-0,068	0,072
-660,189	800,000	0,036	0,101
-659,174	123,142	-0,104	-0,097
-658,159	800,000	0,023	-0,072
-657,145	26,391	-0,054	0,033
-656,130	690,705	0,070	0,138
-655,116	-36,614	-0,045	0,018
-654,101	-72,508	0,070	0,019
-653,086	-40,551	-0,038	-0,015
-652,072	141,274	-0,034	0,033
-651,057	-145,957	-0,100	-0,006
-650,043	-55,999	-0,151	-0,050
-649,028	792,630	-0,067	-0,137
-648,014	-7,927	0,155	0,078
-646,999	456,096	-0,068	0,112
-645,984	800,000	-0,028	0,060
-644,970	-200,000	-0,004	0,106
-643,955	-19,708	-0,064	-0,029
-642,941	800,000	-0,037	-0,092
-641,926	50,222	-0,118	0,083
-640,911	-61,851	-0,050	-0,015
-639,897	97,138	-0,086	0,073
-638,882	-89,060	-0,066	-0,014
-637,868	-0,053	-0,076	0,040
-636,853	-149,015	-0,202	-0,012
-635,838	800,000	0,042	-0,122
-634,824	554,643	0,063	0,113
-633,809	-200,000	0,012	0,000
-632,795	-126,410	0,144	-0,016
-631,780	800,000	-0,045	0,099
-630,765	139,200	-0,068	-0,067
-629,751	800,000	-0,039	-0,087
-628,736	28,383	-0,015	0,010
-627,722	-2,292	-0,022	-0,012
-626,707	122,159	-0,084	-0,078
-625,692	-115,835	-0,066	-0,009
-624,678	271,021	0,017	0,023
-623,663	166,450	0,050	-0,052
-622,649	800,000	0,025	0,079
-621,634	63,948	-0,059	-0,044
-620,619	454,628	0,089	-0,147
-619,605	800,000	-0,028	-0,082
-618,590	690,578	0,027	-0,053
-617,576	800,000	-0,045	0,121
-616,561	252,349	0,104	0,132
-615,546	330,377	0,079	-0,114
-614,532	800,000	0,016	-0,047
-613,517	-94,205	0,091	0,018
-612,503	-4,973	0,058	0,030
-611,488	-74,316	0,098	0,026
-610,474	-200,000	0,009	0,114
-609,459	-200,000	0,006	0,094
-608,444	-49,949	-0,087	0,031
-607,430	430,505	-0,075	-0,120
-606,415	-3,544	-0,170	-0,087
-605,401	-22,243	0,017	0,008
-604,386	26,015	0,107	-0,066
-603,371	-22,368	0,020	0,009
-602,357	-200,000	0,010	-0,077
-601,342	-80,379	-0,039	-0,010
-600,328	62,637	0,020	-0,015
-599,313	-90,187	0,010	-0,002
-598,298	-200,000	0,004	-0,054
-597,284	-200,000	-0,008	-0,069
-596,269	690,600	0,050	-0,098
-595,255	-35,550	-0,031	-0,012
-594,240	505,840	-0,050	0,086
-593,225	117,811	-0,024	-0,022
-592,211	-119,644	0,099	-0,013
-591,196	-27,165	-0,035	-0,015
-590,182	-131,178	0,044	-0,004
-589,167	-188,075	-0,082	-0,001
-588,152	-200,000	0,009	-0,038
-587,138	234,192	0,065	0,080
-586,123	800,000	-0,025	0,055
-585,109	-66,584	-0,141	-0,041
-584,094	289,256	0,093	0,125
-583,079	116,729	0,056	-0,051
-582,065	800,000	0,030	-0,080
-581,050	-51,836	0,084	-0,029
-580,036	800,000	-0,032	-0,086
-579,021	-200,000	-0,004	0,072
-578,006	-126,954	0,065	-0,007
-576,992	371,720	-0,030	0,044
-575,977	-56,988	-0,059	-0,019
-574,963	115,595	-0,030	0,027
-573,948	-200,000	-0,020	0,123
-572,934	-200,000	-0,013	0,088
-571,919	-92,152	0,051	-0,011
-570,904	-200,000	-0,026	-0,165
-569,890	800,000	-0,044	0,125
-568,875	800,000	-0,021	-0,046
-567,861	-114,190	0,058	0,008
-566,846	101,164	0,050	0,043
-565,831	-200,000	-0,002	-0,043
-564,817	-121,524	-0,148	0,018
-563,802	-126,411	0,032	0,003
-562,788	800,000	-0,021	-0,056
-561,773	-46,483	-0,094	0,034
-560,758	800,000	0,053	0,150
-559,744	-98,427	0,045	-0,008
-558,729	237,575	-0,052	-0,064
-557,715	800,000	-0,068	0,153
-556,700	800,000	-0,034	-0,073
-555,685	-166,249	0,043	0,001
-554,671	27,092	0,089	-0,055
-553,656	-52,909	0,039	-0,013
-552,642	88,343	-0,080	0,066
-551,627	-72,860	-0,038	0,010
-550,612	326,489	-0,050	-0,071
-549,598	294,684	-0,043	0,059
-548,583	441,684	-0,146	-0,237
-547,569	-200,000	-0,015	-0,052
-546,554	-85,821	0,181	0,041
-545,539	-36,283	0,074	0,029
-544,525	-18,512	-0,088	0,040
-543,510	-142,119	0,066	0,005
-542,496	766,057	-0,078	-0,157
-541,481	800,000	-0,053	-0,114
-540,466	435,213	-0,118	0,190
-539,452	97,001	0,085	-0,072
-538,437	-200,000	0,001	-0,071
-537,423	800,000	0,022	0,065
-536,408	247,172	-0,078	0,097
-535,393	-79,686	-0,063	-0,016
-534,379	-158,998	-0,102	0,004
-533,364	42,790	0,064	-0,043
-532,350	800,000	0,018	0,047
-531,335	-16,917	0,067	-0,031
-530,321	528,203	0,035	0,060
-529,306	-200,000	-0,015	-0,162
-528,291	75,509	-0,051	0,040
-527,277	800,000	-0,031	-0,069
-526,262	-7,978	-0,156	0,077
-525,248	128,864	0,090	0,084
-524,233	-32,852	0,064	-0,026
-523,218	59,304	0,012	-0,009
-522,204	-193,651	-0,035	0,000
-521,189	-200,000	0,002	-0,060
-520,175	5,121	-0,044	-0,024
-519,160	800,000	0,015	-0,044
-518,145	260,479	-0,084	-0,108
-517,131	147,662	0,070	0,070
-516,116	800,000	0,043	0,114
-515,102	50,229	-0,044	0,030
-514,087	800,000	0,038	0,082
-513,072	75,476	0,008	0,006
-512,058	-200,000	-0,000	0,025
-511,043	-200,000	0,003	-0,025
-510,029	-200,000	-0,032	0,000
-509,014	-87,635	-0,080	-0,018
-507,999	541,428	0,063	0,111
-506,985	77,841	0,107	-0,084
-505,970	31,256	-0,232	-0,147
-504,956	77,566	0,109	-0,085
-503,941	-100,641	-0,074	0,013
-502,926	-125,925	0,020	-0,002
-501,912	189,644	0,110	0,122
-500,897	301,936	0,036	0,049
-499,883	380,394	0,055	-0,084
-498,868	-68,246	-0,130	0,037
-497,853	-200,000	-0,013	-0,063
-496,839	-131,408	0,095	-0,009
-495,824	643,478	-0,041	0,078
-494,810	-200,000	-0,018	0,123
-493,795	165,316	0,049	-0,052
-492,781	-76,514	-0,135	0,035
-491,766	58,872	0,089	0,065
-490,751	-67,610	-0,131	-0,038
-489,737	-200,000	-0,054	-0,178
-488,722	-200,000	0,020	-0,082
-487,708	72,771	0,095	-0,073
-486,693	179,061	0,076	0,082
-485,678	-200,000	-0,053	0,200
-484,664	-143,560	-0,201	-0,014
-483,649	233,509	-0,036	0,044
-482,635	16,996	-0,012	0,007
-481,620	218,098	0,044	0,052
-480,605	-200,000	0,012	0,071
-479,591	32,673	0,114	0,073
-478,576	-84,318	0,146	0,034
-477,562	520,040	0,047	0,081
-476,547	-40,240	-0,064	-0,024
-475,532	9,442	0,084	0,047
-474,518	485,147	-0,046	-0,077
-473,503	86,392	0,082	0,066
-472,489	728,548	-0,057	-0,113
-471,474	800,000	0,013	0,041
-470,459	-104,344	-0,137	0,023
-469,445	-69,939	-0,051	0,014
-468,430	-200,000	0,012	-0,041
-467,416	-104,961	0,101	-0,017
-466,401	-200,000	-0,006	-0,105
-465,386	159,869	0,108	-0,111
-464,372	-200,000	0,052	0,173
-463,357	296,391	0,032	-0,044
-462,343	62,239	-0,028	0,021
-461,328	79,254	0,108	-0,085
-460,313	-77,582	-0,021	-0,005
-459,299	-63,359	0,056	0,017
-458,284	-200,000	0,000	-0,012
-457,270	-200,000	0,001	-0,005
-456,255	197,820	-0,081	-0,092
-455,241	800,000	0,069	0,193
-454,226	153,330	0,037	-0,037
-453,211	-44,629	0,157	-0,058
-452,197	255,652	-0,013	-0,017
-451,182	-200,000	-0,015	0,071
-450,168	-200,000	0,009	0,139
-449,153	-71,787	-0,095	0,026
-448,138	3,669	0,048	0,026
-447,124	493,456	-0,095	-0,160
-446,109	211,037	-0,048	-0,056
-445,095	110,863	-0,061	-0,054
-444,080	800,000	0,051	0,140
-443,065	-91,242	-0,124	-0,026
-442,051	213,522	-0,121	-0,141
-441,036	362,733	0,045	-0,067
-440,022	-200,000	0,001	-0,033
-439,007	-19,083	0,132	-0,060
-437,992	-99,648	0,143	0,026
-436,978	399,230	-0,029	0,044
-435,963	-200,000	-0,005	-0,098
-434,949	-200,000	0,145	-0,000
-433,934	-200,000	-0,014	-0,065
-432,919	-200,000	0,009	-0,075
-431,905	-129,714	-0,180	-0,018
-430,890	-200,000	-0,003	0,064
-429,876	-200,000	0,011	-0,042
-428,861	672,371	0,032	0,062
-427,846	-200,000	-0,003	-0,102
-426,832	33,697	0,066	-0,042
-425,817	-200,000	-0,018	-0,098
-424,803	-7,334	0,071	0,035
-423,788	285,627	-0,070	0,093
-422,773	-128,777	-0,039	-0,004
-421,759	308,481	-0,028	0,038
-420,744	124,825	-0,045	0,042
-419,730	-200,000	-0,019	-0,159
-418,715	25,357	-0,075	0,046
-417,701	485,924	0,041	-0,070
-416,686	-200,000	-0,010	0,147
-415,671	158,944	0,120	-0,123
-414,657	-96,442	-0,030	0,006
-413,642	-200,000	0,006	0,130
-412,628	157,259	0,030	-0,030
-411,613	800,000	0,057	-0,167
-410,598	131,485	-0,097	-0,092
-409,584	423,518	0,072	-0,114
-408,569	-24,617	-0,153	-0,067
-407,555	-53,293	-0,085	0,028
-406,540	553,528	-0,081	0,144
-405,525	-200,000	-0,101	0,000
-404,511	42,786	0,079	-0,053
-403,496	291,296	-0,033	-0,045
-402,482	-63,732	0,057	-0,017
-401,467	234,764	0,099	0,120
-400,452	-183,464	-0,052	-0,001
-399,438	-94,326	0,092	-0,018
-398,423	765,386	-0,021	-0,042
-397,409	-29,809	-0,105	0,044
-396,394	6,258	-0,100	-0,055
-395,379	800,000	-0,017	0,053
-394,365	-200,000	-0,009	0,282
-393,350	-200,000	-0,117	-0,000
-392,336	-120,545	-0,173	-0,021
-391,321	-16,965	0,058	-0,027
-390,306	138,044	-0,082	-0,079
-389,292	77,427	-0,055	-0,043
-388,277	-200,000	-0,019	-0,130
-387,263	-200,000	-0,006	0,091
-386,248	747,903	-0,016	0,033
-385,233	141,556	-0,114	0,111
-384,219	522,216	-0,053	-0,091
-383,204	800,000	-0,030	0,096
-382,190	800,000	-0,040	0,121
-381,175	-10,089	0,177	-0,086
-380,160	95,997	0,085	0,072
-379,146	-11,282	0,099	0,048
-378,131	450,655	0,072	0,118
-377,117	-14,884	0,050	0,024
-376,102	-200,000	0,005	0,040
-375,088	157,496	-0,046	0,047
-374,073	-166,779	-0,036	-0,001
-373,058	422,898	-0,017	-0,027
-372,044	-200,000	0,028	-0,099
-371,029	-87,878	0,091	0,020
-370,015	-93,130	-0,111	-0,022
-369,000	502,876	-0,071	-0,122
-367,985	-200,000	0,004	-0,036
-366,971	361,188	0,009	-0,013
-365,956	-64,325	0,116	0,034
-364,942	55,078	-0,090	0,064
-363,927	62,312	0,070	-0,051
-362,912	255,627	0,039	0,049
-361,898	431,918	-0,061	-0,098
-360,883	-200,000	-0,016	-0,109
-359,869	800,000	-0,024	0,058
-358,854	-200,000	-0,001	-0,004
-357,839	-200,000	0,034	0,123
-356,825	132,592	0,104	0,098
-355,810	-200,000	-0,014	0,104
-354,796	172,584	0,048	0,051
-353,781	800,000	-0,015	-0,047
-352,766	-200,000	0,019	0,164
-351,752	504,926	0,075	-0,129
-350,737	-76,481	0,127	-0,032
-349,723	-53,343	0,036	0,012
-348,708	-38,449	-0,056	0,022
-347,693	508,968	0,042	-0,072
-346,679	-200,000	-0,020	-0,128
-345,664	256,173	-0,033	-0,042
-344,650	125,937	-0,026	-0,024
-343,635	800,000	-0,040	0,089
-342,620	-200,000	0,044	0,218
-341,606	-200,000	-0,028	0,122
-340,591	-200,000	-0,014	0,077
-339,577	-200,000	-0,008	-0,037
-338,562	-200,000	-0,004	-0,151
-337,548	-58,893	0,020	0,006
-336,533	-10,401	-0,201	0,097
-335,518	-200,000	-0,048	0,157
-334,504	800,000	-0,086	0,195
-333,489	87,436	-0,074	-0,060
-332,475	-200,000	-0,048	-0,178
-331,460	424,309	-0,070	-0,111
-330,445	-200,000	0,027	-0,121
-329,431	-74,169	0,177	-0,047
-328,416	-18,986	-0,088	0,040
-327,402	-141,568	0,068	-0,005
-326,387	55,548	-0,085	-0,060
-325,372	800,000	-0,024	0,052
-324,358	57,730	0,031	-0,022
-323,343	-121,382	-0,045	0,005
-322,329	10,387	-0,051	0,029
-321,314	-88,932	0,062	0,013
-320,299	9,605	0,081	-0,045
-319,285	79,851	-0,066	-0,052
-318,270	-50,390	0,176	-0,061
-317,256	-83,987	0,076	0,018
-316,241	-200,000	-0,001	0,057
-315,226	-16,419	0,011	0,005
-314,212	-200,000	0,017	0,168
-313,197	147,828	0,047	0,046
-312,183	-200,000	0,002	0,006
-311,168	128,781	-0,095	0,089
-310,153	-16,720	-0,172	-0,079
-309,139	352,314	0,016	-0,023
-308,124	69,127	0,089	0,067
-307,110	783,774	0,086	0,174
-306,095	-89,080	0,024	-0,005
-305,080	-8,606	0,077	-0,038
-304,066	236,625	-0,038	-0,047
-303,051	-105,342	0,085	-0,014
-302,037	461,319	0,039	0,064
-301,022	52,873	0,031	0,022
-300,008	-61,473	0,123	0,037
-298,993	26,860	-0,048	0,030
-297,978	217,826	0,064	-0,075
-296,964	99,598	-0,084	-0,071
-295,949	800,000	-0,051	-0,118
-294,935	-106,776	0,161	-0,026
-293,920	-68,394	0,119	0,034
-292,905	-52,656	-0,112	0,038
-291,891	67,464	-0,068	0,051
-290,876	141,781	0,067	0,065
-289,862	-85,164	-0,054	-0,012
-288,847	-9,649	0,055	-0,027
-287,832	91,360	-0,165	-0,136
-286,818	2,056	0,068	0,036
-285,803	800,000	0,066	0,161
-284,789	137,755	0,061	-0,058
-283,774	170,062	-0,082	0,086
-282,759	-200,000	-0,019	0,068
-281,745	630,715	-0,056	0,104
-280,730	508,502	-0,030	-0,052
-279,716	-200,000	0,005	0,052
-278,701	-200,000	0,016	0,123
-277,686	691,922	0,061	0,117
-276,672	-200,000	0,009	0,051
-275,657	-22,372	0,125	-0,055
-274,643	-200,000	0,002	-0,025
-273,628	800,000	0,041	-0,087
-272,613	-103,821	-0,120	-0,020
-271,599	66,607	0,082	-0,061
-270,584	-110,629	0,032	0,005
-269,570	195,163	-0,097	0,108
-268,555	625,202	-0,062	0,114
-267,540	-200,000	0,019	0,125
-266,526	192,675	-0,078	-0,086
-265,511	105,206	-0,014	-0,012
-264,497	-92,658	0,210	0,043
-263,482	800,000	-0,009	0,029
-262,467	69,485	-0,078	0,059
-261,453	-61,479	0,161	0,049
-260,438	800,000	-0,010	-0,022
-259,424	49,569	-0,069	-0,047
-258,409	121,347	0,013	0,012
-257,395	53,642	-0,018	-0,013
-256,380	133,051	0,070	0,067
-255,365	245,988	0,010	0,013
-254,351	-200,000	0,007	-0,038
-253,336	33,032	0,032	-0,020
-252,322	-200,000	-0,016	-0,107
-251,307	800,000	0,019	0,043
-250,292	-200,000	-0,018	-0,131
-249,278	-40,778	0,053	-0,020
-248,263	398,640	0,019	0,029
-247,249	-45,633	-0,060	0,022
-246,234	240,625	0,078	-0,095
-245,219	32,976	-0,008	0,005
-244,205	-52,094	-0,025	0,008
-243,190	-200,000	0,028	0,122
-242,176	800,000	0,055	-0,111
-241,161	-200,000	-0,022	-0,138
-240,146	418,959	0,067	0,105
-239,132	429,228	0,031	0,049
-238,117	90,459	-0,136	0,112
-237,103	573,090	-0,034	-0,062
-236,088	-200,000	-0,027	-0,195
-235,073	-200,000	-0,011	0,113
-234,059	299,984	0,076	-0,103
-233,044	-200,000	0,002	-0,099
-232,030	-36,997	-0,026	-0,010
-231,015	-200,000	-0,018	-0,126
-230,000	499,517	-0,002	-0,003
-228,986	800,000	0,034	0,078
-227,971	-200,000	-0,050	-0,163
-226,957	179,285	-0,093	-0,099
-225,942	250,762	0,074	0,091
-224,927	89,676	0,042	0,034
-223,913	800,000	0,042	-0,124
-222,898	205,739	-0,093	-0,106
-221,884	-15,996	0,131	0,061
-220,869	-102,610	0,031	0,005
-219,855	445,978	0,074	-0,119
-218,840	-147,019	-0,049	-0,003
-217,825	187,785	0,112	0,122
-216,811	770,162	0,017	-0,034
-215,796	64,761	0,018	-0,013
-214,782	438,876	-0,032	-0,051
-213,767	-94,629	-0,082	0,016
-212,752	-200,000	0,001	0,184
-211,738	0,704	-0,049	-0,025
-210,723	230,925	-0,090	0,108
-209,709	-167,279	-0,045	-0,001
-208,694	-200,000	-0,048	-0,158
-207,679	148,282	0,107	-0,106
-206,665	-80,435	0,085	0,020
-205,650	263,756	0,040	-0,051
-204,636	800,000	0,016	0,036
-203,621	700,036	0,089	0,171
-202,606	-165,772	-0,069	-0,002
-201,592	-142,269	0,044	-0,003
-200,577	800,000	0,025	-0,064
-199,563	-76,022	0,155	-0,040
-198,548	6,547	0,165	0,089
-197,533	-101,483	0,037	0,007
-196,519	800,000	-0,041	0,085
-195,504	99,650	-0,047	-0,039
-194,490	-48,772	0,038	-0,013
-193,475	-200,000	-0,046	-0,174
-192,460	60,288	-0,054	-0,039
-191,446	188,218	0,072	-0,079
-190,431	-14,123	-0,033	0,016
-189,417	52,374	-0,027	-0,019
-188,402	16,710	0,034	0,020
-187,387	34,727	0,020	0,013
-186,373	129,305	-0,023	0,021
-185,358	-200,000	0,015	-0,065
-184,344	-200,000	0,008	-0,048
-183,329	-24,248	-0,011	-0,005
-182,315	-200,000	0,069	0,310
-181,300	790,772	-0,088	0,176
-180,285	52,683	0,081	0,056
-179,271	-67,749	0,078	-0,022
-178,256	-200,000	-0,001	0,007
-177,242	-177,723	-0,132	-0,002
-176,227	-163,387	0,070	0,002
-175,212	127,423	-0,107	0,099
-174,198	-113,095	0,051	-0,007
-173,183	649,228	-0,044	-0,082
-172,169	-200,000	0,007	0,063
-171,154	221,852	0,017	0,021
-170,139	68,383	-0,068	-0,050
-169,125	89,901	0,121	-0,099
-168,110	800,000	-0,055	-0,131
-167,096	489,654	-0,024	-0,039
-166,081	107,906	0,082	-0,071
-165,066	20,097	-0,030	0,017
-164,052	-200,000	-0,012	-0,063
-163,037	-105,131	0,060	0,010
-162,023	462,619	0,053	0,087
-161,008	-200,000	-0,014	-0,056
-159,993	157,742	-0,092	0,093
-158,979	-79,744	-0,101	0,025
-157,964	-7,297	0,047	-0,023
-156,950	-200,000	-0,011	-0,048
-155,935	800,000	0,010	0,022
-154,920	-200,000	0,026	0,097
-153,906	-200,000	0,005	-0,140
-152,891	-107,405	0,066	-0,010
-151,877	-200,000	-0,023	0,113
-150,862	-10,952	-0,107	0,051
-149,847	-200,000	-0,013	0,084
-148,833	420,335	0,057	0,089
-147,818	-200,000	0,043	0,145
-146,804	-106,777	0,092	0,015
-145,789	-20,600	0,028	0,012
-144,775	-153,232	0,037	0,002
-143,760	35,822	0,040	0,026
-142,745	-200,000	-0,027	-0,115
-141,731	-200,000	-0,010	0,044
-140,716	284,999	-0,046	0,060
-139,702	-200,000	-0,022	-0,087
-138,687	-18,277	0,086	-0,039
-137,672	263,803	0,044	-0,056
-136,658	578,815	0,023	-0,041
-135,643	49,853	0,089	0,061
-134,629	91,383	0,061	-0,050
-133,614	-104,398	0,122	-0,020
-132,599	55,729	-0,023	0,017
-131,585	-200,000	0,003	0,057
-130,570	-200,000	0,011	-0,046
-129,556	-102,779	-0,061	0,010
-128,541	800,000	0,043	0,091
-127,526	-178,227	0,085	0,001
-126,512	171,722	-0,009	-0,009
-125,497	800,000	-0,046	0,114
-124,483	-200,000	0,025	-0,110
-123,468	-58,114	0,068	0,021
-122,453	-200,000	-0,034	-0,196
-121,439	176,176	-0,040	-0,042
-120,424	52,027	0,047	0,033
-119,410	800,000	0,024	-0,059
-118,395	-200,000	0,047	0,162
