DTS Sentinel unit serial number:	SN410029Multiplexer serial number:	ORYXHardware model number:	OX2-SRSoftware version number:	ORYX F/W v4,00 Oryx Data Collector v3.7.2.0data status	okinstallation	B6 Nyhavnadifferential loss correction	single-endedforward channel	channel 2reverse channel	N/Adate	2023/12/09time	08:10:08forward acquisition time	300,00reverse acquisition time	0,00gamma	499,1914k internal	0,3139k external	0,3139temperature offset calibration	1,0000default loss term (dB/km)	0,3820temperature slope calibration	1,0000multiplexer offset coefficient	1,0000multiplexer slope coefficient	1,0000fibre end	0,00T internal ref (°C)	18,50T ext. ref 1 (°C)	1,94T ext. ref 2 (°C)	1,92length (m)	temperature (°C)	Stokes	anti-Stokes-744,400	-125,849	0,120	-0,013
-743,385	-162,598	-0,373	-0,013
-742,371	86,818	0,023	0,019
-741,356	261,674	-0,036	-0,047
-740,342	137,155	0,035	-0,034
-739,327	-98,929	-0,306	0,057
-738,312	82,865	-0,064	-0,052
-737,298	-35,274	-0,274	0,110
-736,283	-200,000	-0,005	-0,109
-735,269	-92,502	-0,303	-0,063
-734,254	500,859	0,024	-0,041
-733,239	-116,824	-0,485	-0,065
-732,225	-86,877	0,312	-0,070
-731,210	318,884	-0,055	0,078
-730,196	45,333	-0,092	-0,063
-729,181	453,348	0,038	0,063
-728,167	-1,414	0,097	0,051
-727,152	-65,377	-0,116	-0,034
-726,137	291,846	-0,071	-0,096
-725,123	-200,000	0,014	-0,056
-724,108	13,489	-0,074	0,042
-723,094	8,764	-0,144	0,080
-722,079	-200,000	-0,000	-0,025
-721,064	-144,885	-0,176	-0,012
-720,050	800,000	-0,029	-0,064
-719,035	168,535	-0,025	0,026
-718,021	-87,299	-0,178	-0,040
-717,006	4,620	0,120	-0,065
-715,991	102,728	-0,099	-0,086
-714,977	382,271	-0,101	-0,155
-713,962	-127,031	-0,148	0,016
-712,948	194,710	0,097	-0,109
-711,933	311,546	-0,016	0,023
-710,918	34,745	-0,133	0,086
-709,904	-200,000	-0,009	-0,086
-708,889	-59,209	0,017	0,005
-707,875	-153,458	0,046	0,002
-706,860	279,713	-0,057	-0,075
-705,845	52,182	0,071	-0,050
-704,831	621,210	0,060	0,112
-703,816	-2,861	0,092	-0,047
-702,802	40,818	-0,102	-0,068
-701,787	-99,773	-0,087	0,016
-700,772	-200,000	0,035	-0,182
-699,758	96,510	0,035	-0,030
-698,743	380,832	-0,094	0,144
-697,729	800,000	0,028	0,065
-696,714	-21,944	0,032	0,014
-695,699	800,000	-0,013	-0,040
-694,685	800,000	-0,033	-0,068
-693,670	289,645	-0,020	-0,027
-692,656	317,685	-0,026	0,037
-691,641	-141,554	-0,067	-0,005
-690,627	800,000	-0,040	0,090
-689,612	-57,073	-0,115	-0,037
-688,597	95,451	0,102	-0,086
-687,583	-69,945	-0,064	0,018
-686,568	613,099	-0,051	-0,096
-685,554	-99,385	-0,089	0,016
-684,539	-188,367	-0,082	-0,001
-683,524	-200,000	-0,004	0,111
-682,510	-26,882	0,009	-0,004
-681,495	34,459	-0,088	-0,057
-680,481	577,775	-0,033	-0,059
-679,466	736,370	0,037	-0,074
-678,451	-28,105	-0,088	0,038
-677,437	-147,945	0,109	-0,007
-676,422	-200,000	-0,004	-0,024
-675,408	52,905	-0,119	0,084
-674,393	169,726	-0,102	-0,108
-673,378	52,885	-0,045	0,032
-672,364	62,564	-0,112	-0,083
-671,349	800,000	-0,055	-0,116
-670,335	62,026	0,030	0,022
-669,320	177,581	-0,070	-0,076
-668,305	-97,844	0,152	-0,029
-667,291	-26,416	-0,168	-0,072
-666,276	-81,681	0,174	0,042
-665,262	267,358	-0,049	0,063
-664,247	-193,672	-0,143	0,001
-663,232	-200,000	-0,008	0,138
-662,218	379,125	-0,127	0,193
-661,203	-23,225	0,111	-0,049
-660,189	-88,786	-0,092	0,020
-659,174	349,670	0,073	-0,107
-658,159	-200,000	0,044	-0,145
-657,145	-73,345	-0,065	-0,018
-656,130	800,000	-0,023	0,060
-655,116	-46,599	0,116	0,042
-654,101	-200,000	0,018	0,105
-653,086	-131,533	-0,165	0,016
-652,072	-200,000	0,033	-0,163
-651,057	71,760	-0,072	-0,055
-650,043	21,367	-0,095	-0,057
-649,028	-108,265	-0,029	0,005
-648,014	416,690	0,032	-0,051
-646,999	-94,287	-0,149	0,030
-645,984	-120,477	-0,110	-0,014
-644,970	-47,258	-0,217	0,078
-643,955	368,934	-0,051	-0,077
-642,941	-11,580	-0,048	-0,023
-641,926	800,000	0,045	-0,094
-640,911	-200,000	-0,000	0,126
-639,897	800,000	0,060	0,151
-638,882	37,490	-0,084	0,055
-637,868	19,108	0,059	-0,035
-636,853	101,923	-0,013	0,011
-635,838	355,004	-0,120	-0,176
-634,824	-200,000	0,042	-0,144
-633,809	800,000	0,039	0,090
-632,795	114,465	0,091	0,081
-631,780	-107,371	-0,157	-0,025
-630,765	639,913	0,038	0,071
-629,751	49,766	0,053	0,037
-628,736	-200,000	0,028	0,103
-627,722	-200,000	-0,003	-0,098
-626,707	800,000	0,033	-0,070
-625,692	61,187	-0,051	-0,037
-624,678	800,000	-0,014	-0,031
-623,663	26,148	-0,043	0,027
-622,649	-200,000	-0,024	0,106
-621,634	800,000	0,044	0,091
-620,619	-42,451	0,077	-0,029
-619,605	284,823	-0,061	-0,081
-618,590	170,210	0,100	0,105
-617,576	800,000	-0,038	0,120
-616,561	-84,340	-0,103	0,024
-615,546	-200,000	0,041	-0,153
-614,532	276,852	-0,056	-0,073
-613,517	-200,000	-0,000	0,087
-612,503	327,065	-0,030	0,043
-611,488	-63,153	0,070	0,021
-610,474	-40,414	0,087	0,033
-609,459	-29,110	-0,145	0,061
-608,444	11,470	-0,077	-0,043
-607,430	37,656	-0,076	-0,050
-606,415	-37,265	-0,086	-0,034
-605,401	800,000	-0,048	0,152
-604,386	800,000	-0,002	-0,004
-603,371	-123,962	0,121	-0,014
-602,357	4,716	-0,104	0,056
-601,342	-135,095	-0,057	0,005
-600,328	419,710	-0,068	-0,107
-599,313	800,000	0,021	-0,051
-598,298	44,288	-0,004	0,003
-597,284	168,017	-0,056	0,058
-596,269	79,687	0,042	-0,033
-595,255	-166,301	-0,064	-0,002
-594,240	303,932	-0,048	-0,066
-593,225	-2,138	-0,073	-0,038
-592,211	45,609	-0,117	-0,079
-591,196	800,000	0,019	0,049
-590,182	286,468	-0,106	0,141
-589,167	-27,222	0,076	-0,032
-588,152	-25,537	0,104	-0,045
-587,138	23,784	-0,032	0,019
-586,123	127,655	-0,028	-0,027
-585,109	-200,000	-0,016	-0,068
-584,094	-133,499	-0,152	-0,014
-583,079	-35,733	0,155	0,061
-582,065	1,686	0,052	0,028
-581,050	800,000	0,043	-0,112
-580,036	-103,394	-0,100	0,017
-579,021	279,826	0,090	-0,119
-578,006	-200,000	-0,027	-0,101
-576,992	79,912	-0,033	-0,026
-575,977	56,116	-0,129	-0,092
-574,963	-155,582	0,088	-0,004
-573,948	800,000	-0,056	0,132
-572,934	310,457	-0,053	0,074
-571,919	-90,535	-0,075	-0,016
-570,904	-200,000	-0,002	0,183
-569,890	399,268	0,020	-0,031
-568,875	122,771	-0,087	0,080
-567,861	-200,000	0,002	0,041
-566,846	-15,200	0,055	-0,026
-565,831	-129,104	-0,127	-0,013
-564,817	-120,759	0,016	-0,002
-563,802	660,501	0,021	-0,041
-562,788	498,050	0,034	0,058
-561,773	-200,000	0,002	0,038
-560,758	64,254	-0,035	0,026
-559,744	-5,770	0,068	0,034
-558,729	-46,775	-0,050	0,018
-557,715	302,459	-0,026	0,035
-556,700	90,481	-0,093	0,077
-555,685	-200,000	-0,020	-0,077
-554,671	66,830	0,055	-0,041
-553,656	306,788	0,105	-0,144
-552,642	-105,776	-0,106	0,018
-551,627	-200,000	0,004	-0,024
-550,612	-10,706	-0,044	0,021
-549,598	800,000	-0,066	-0,173
-548,583	-200,000	0,001	-0,049
-547,569	261,168	-0,055	0,071
-546,554	-4,667	-0,026	0,013
-545,539	-21,114	0,089	0,040
-544,525	151,430	0,131	0,132
-543,510	253,440	-0,017	0,021
-542,496	-200,000	0,014	0,070
-541,481	800,000	0,015	-0,046
-540,466	-185,385	0,117	-0,001
-539,452	179,549	0,056	0,060
-538,437	22,624	0,059	0,035
-537,423	-105,800	0,151	0,025
-536,408	-200,000	-0,034	-0,118
-535,393	-200,000	-0,010	0,061
-534,379	2,286	0,111	0,059
-533,364	-89,429	-0,144	0,031
-532,350	207,516	0,037	-0,042
-531,335	469,919	-0,069	0,114
-530,321	202,731	0,066	0,075
-529,306	76,354	0,033	-0,026
-528,291	-85,597	-0,022	0,005
-527,277	-200,000	-0,027	-0,177
-526,262	31,259	-0,114	0,072
-525,248	-200,000	-0,025	0,144
-524,233	33,426	-0,108	-0,069
-523,218	99,817	-0,045	-0,038
-522,204	-200,000	0,049	0,178
-521,189	251,618	-0,079	-0,099
-520,175	800,000	0,071	-0,166
-519,160	260,999	0,009	0,012
-518,145	-46,988	0,075	0,027
-517,131	-75,704	0,068	0,018
-516,116	-200,000	0,026	0,103
-515,102	-83,677	0,129	-0,030
-514,087	12,393	-0,077	0,044
-513,072	800,000	-0,082	-0,208
-512,058	-71,336	-0,040	0,011
-511,043	-34,605	0,090	0,036
-510,029	34,579	0,088	0,056
-509,014	-131,929	0,068	-0,006
-507,999	-200,000	-0,027	0,095
-506,985	243,399	0,035	0,044
-505,970	-103,663	-0,111	-0,019
-504,956	201,812	0,042	0,047
-503,941	9,300	0,045	-0,025
-502,926	-48,725	0,041	0,014
-501,912	800,000	-0,008	0,024
-500,897	-200,000	0,008	-0,050
-499,883	146,011	-0,079	-0,078
-498,868	254,366	0,028	-0,035
-497,853	-200,000	-0,014	-0,097
-496,839	552,304	0,029	-0,052
-495,824	-200,000	-0,004	0,055
-494,810	290,996	-0,062	0,083
-493,795	-63,511	-0,132	0,040
-492,781	122,982	0,039	-0,035
-491,766	37,491	-0,197	-0,128
-490,751	-200,000	0,009	-0,069
-489,737	-200,000	-0,014	-0,047
-488,722	215,237	0,119	0,139
-487,708	51,541	0,086	-0,060
-486,693	10,119	0,112	-0,063
-485,678	-88,526	0,144	-0,031
-484,664	-69,676	-0,135	0,038
-483,649	-200,000	0,022	-0,094
-482,635	800,000	-0,026	-0,054
-481,620	-200,000	-0,003	0,080
-480,605	-200,000	0,016	-0,095
-479,591	-70,308	0,070	0,019
-478,576	169,884	0,022	-0,023
-477,562	668,527	0,030	-0,057
-476,547	255,052	-0,115	-0,145
-475,532	-90,981	-0,231	-0,048
-474,518	398,808	0,088	-0,135
-473,503	-20,832	0,134	0,060
-472,489	12,045	-0,015	0,008
-471,474	800,000	0,058	-0,124
-470,459	-200,000	0,009	0,104
-469,445	263,575	0,083	-0,106
-468,430	0,562	0,042	-0,022
-467,416	501,057	-0,038	0,064
-466,401	800,000	0,040	-0,107
-465,386	-200,000	-0,003	0,064
-464,372	555,837	-0,072	-0,128
-463,357	34,898	-0,049	0,031
-462,343	-72,101	-0,027	-0,007
-461,328	-27,421	0,068	-0,029
-460,313	319,921	-0,027	-0,037
-459,299	-200,000	-0,003	0,100
-458,284	598,678	0,046	0,085
-457,270	-200,000	0,014	-0,105
-456,255	199,016	-0,063	-0,071
-455,241	-200,000	0,003	-0,067
-454,226	167,452	-0,107	-0,111
-453,211	94,388	0,008	0,007
-452,197	-52,378	0,113	-0,038
-451,182	-94,180	-0,079	-0,016
-450,168	-9,986	0,093	0,045
-449,153	-153,951	-0,075	-0,004
-448,138	-105,465	-0,134	0,022
-447,124	202,348	0,052	0,059
-446,109	-28,651	0,044	-0,018
-445,095	21,027	0,097	0,058
-444,080	800,000	0,008	0,020
-443,065	-74,629	-0,097	-0,025
-442,051	-200,000	-0,020	0,112
-441,036	165,657	0,033	0,034
-440,022	-200,000	-0,013	-0,045
-439,007	176,910	-0,080	-0,085
-437,992	-200,000	-0,007	0,065
-436,978	375,920	-0,094	-0,141
-435,963	-200,000	-0,012	-0,042
-434,949	-200,000	0,030	-0,216
-433,934	113,882	0,031	-0,028
-432,919	-91,888	0,046	-0,009
-431,905	-46,862	0,136	0,049
-430,890	316,690	-0,032	-0,044
-429,876	-32,439	0,037	0,015
-428,861	-175,661	-0,028	0,001
-427,846	800,000	0,022	0,056
-426,832	800,000	0,029	-0,086
-425,817	-200,000	-0,007	-0,026
-424,803	-200,000	-0,003	-0,083
-423,788	-200,000	0,001	-0,039
-422,773	800,000	-0,023	-0,054
-421,759	800,000	0,036	-0,110
-420,744	-6,541	0,050	0,025
-419,730	120,626	-0,036	-0,032
-418,715	42,676	-0,040	0,026
-417,701	143,163	-0,125	0,122
-416,686	-40,419	0,170	0,064
-415,671	-200,000	0,014	0,091
-414,657	-200,000	0,029	0,126
-413,642	-62,228	-0,063	0,019
-412,628	-14,266	-0,116	-0,055
-411,613	-200,000	-0,016	0,053
-410,598	-200,000	-0,017	-0,065
-409,584	800,000	0,012	-0,036
-408,569	-200,000	-0,025	0,114
-407,555	800,000	0,045	0,125
-406,540	-200,000	0,021	-0,138
-405,525	-94,162	-0,028	0,005
-404,511	239,066	-0,089	0,109
-403,496	-60,346	0,077	0,024
-402,482	-200,000	0,009	-0,030
-401,467	424,305	-0,063	0,099
-400,452	35,092	-0,094	0,060
-399,438	-200,000	0,002	0,024
-398,423	289,000	0,044	0,059
-397,409	-200,000	-0,004	-0,088
-396,394	-200,000	-0,013	0,053
-395,379	60,079	0,086	-0,062
-394,365	125,969	0,089	-0,082
-393,350	-200,000	-0,018	0,089
-392,336	-97,212	0,123	-0,023
-391,321	231,280	0,043	0,052
-390,306	529,573	-0,077	-0,133
-389,292	53,442	0,070	0,049
-388,277	800,000	0,033	-0,091
-387,263	500,957	0,052	-0,087
-386,248	-81,379	-0,074	0,018
-385,233	800,000	-0,023	0,066
-384,219	-67,636	0,053	0,015
-383,204	800,000	0,027	-0,071
-382,190	101,913	-0,069	-0,059
-381,175	-54,429	0,112	-0,037
-380,160	75,565	-0,071	-0,054
-379,146	51,994	0,048	0,033
-378,131	137,861	0,074	0,071
-377,117	-94,453	-0,033	0,006
-376,102	13,585	-0,064	-0,036
-375,088	-79,360	-0,096	-0,023
-374,073	316,695	-0,023	0,031
-373,058	-36,077	0,061	0,024
-372,044	-82,528	0,114	-0,027
-371,029	-31,558	0,073	-0,030
-370,015	-68,390	-0,075	0,021
-369,000	215,930	0,110	0,128
-367,985	219,222	-0,039	-0,046
-366,971	347,861	0,027	0,039
-365,956	204,152	0,030	0,034
-364,942	-200,000	-0,009	0,076
-363,927	-200,000	-0,008	0,053
-362,912	-200,000	-0,009	-0,047
-361,898	-200,000	-0,004	-0,101
-360,883	102,975	0,105	0,090
-359,869	-138,489	0,095	-0,008
-358,854	7,435	0,054	-0,030
-357,839	-200,000	-0,012	0,042
-356,825	-200,000	-0,002	-0,066
-355,810	309,441	0,085	0,117
-354,796	-200,000	-0,005	-0,089
-353,781	227,925	-0,030	-0,036
-352,766	-200,000	-0,001	0,025
-351,752	-200,000	0,033	0,107
-350,737	201,376	0,035	0,039
-349,723	21,411	-0,020	-0,012
-348,708	-200,000	-0,002	0,125
-347,693	-200,000	-0,001	-0,013
-346,679	238,099	0,002	0,002
-345,664	187,065	-0,031	-0,034
-344,650	800,000	-0,037	-0,091
-343,635	-100,270	-0,038	0,007
-342,620	-200,000	0,021	0,169
-341,606	-200,000	-0,019	-0,156
-340,591	-200,000	-0,022	0,100
-339,577	122,043	0,039	-0,035
-338,562	211,371	-0,056	-0,065
-337,548	-78,283	-0,033	-0,008
-336,533	180,034	0,155	-0,166
-335,518	125,646	-0,072	0,066
-334,504	-200,000	-0,008	0,072
-333,489	-200,000	0,015	-0,075
-332,475	-200,000	0,002	-0,049
-331,460	-200,000	0,021	0,111
-330,445	113,228	0,036	-0,032
-329,431	800,000	0,031	-0,092
-328,416	-50,185	0,129	0,044
-327,402	-171,238	0,194	0,005
-326,387	-9,550	-0,106	0,051
-325,372	-200,000	-0,002	-0,051
-324,358	93,439	-0,061	-0,050
-323,343	-59,656	-0,069	0,021
-322,329	-200,000	-0,021	-0,127
-321,314	-200,000	0,019	-0,091
-320,299	79,474	0,098	0,076
-319,285	130,868	0,104	0,098
-318,270	-200,000	0,025	-0,093
-317,256	418,282	0,034	-0,053
-316,241	-7,137	-0,049	-0,024
-315,226	800,000	0,055	-0,143
-314,212	-48,861	-0,042	0,015
-313,197	490,651	-0,087	0,145
-312,183	-200,000	-0,006	0,072
-311,168	-128,454	0,109	-0,011
-310,153	800,000	-0,059	-0,183
-309,139	591,651	0,078	-0,142
-308,124	-87,627	0,094	-0,020
-307,110	-200,000	0,015	-0,074
-306,095	57,688	-0,094	0,067
-305,080	94,142	-0,044	0,036
-304,066	24,576	0,048	0,029
-303,051	337,704	-0,035	-0,050
-302,037	366,303	-0,022	0,033
-301,022	-141,134	0,044	-0,003
-300,008	-128,637	-0,123	0,012
-298,993	314,495	0,084	-0,116
-297,978	-143,543	0,067	0,005
-296,964	154,548	-0,047	-0,047
-295,949	81,942	-0,055	-0,043
-294,935	800,000	-0,019	-0,042
-293,920	-200,000	-0,002	-0,032
-292,905	-120,638	0,131	0,016
-291,891	-40,877	0,100	-0,038
-290,876	15,967	0,079	0,045
-289,862	386,490	0,059	0,089
-288,847	-200,000	-0,006	0,021
-287,832	-200,000	-0,016	-0,077
-286,818	195,340	-0,060	-0,066
-285,803	-200,000	0,013	-0,106
-284,789	-32,042	0,151	0,061
-283,774	-200,000	0,026	0,156
-282,759	-26,904	-0,056	0,024
-281,745	800,000	0,034	-0,073
-280,730	-51,133	-0,067	-0,023
-279,716	173,446	0,020	0,021
-278,701	-103,095	-0,137	0,023
-277,686	40,317	-0,080	-0,052
-276,672	-199,700	-0,148	-0,001
-275,657	800,000	0,020	-0,056
-274,643	-144,443	-0,105	-0,007
-273,628	-97,962	-0,055	-0,010
-272,613	800,000	0,030	-0,087
-271,599	-35,401	0,102	-0,040
-270,584	142,166	-0,065	0,062
-269,570	800,000	-0,068	0,161
-268,555	-92,238	0,016	0,003
-267,540	-200,000	-0,008	-0,027
-266,526	352,915	0,052	0,075
-265,511	800,000	0,017	0,036
-264,497	635,595	0,026	-0,048
-263,482	4,592	0,086	0,046
-262,467	374,560	0,030	0,044
-261,453	-200,000	-0,042	0,158
-260,438	-84,455	-0,112	0,025
-259,424	800,000	0,036	-0,093
-258,409	-200,000	0,014	-0,132
-257,395	138,035	-0,034	0,032
-256,380	800,000	0,047	0,102
-255,365	-65,471	0,081	0,024
-254,351	-76,990	-0,127	0,032
-253,336	198,586	0,071	-0,079
-252,322	800,000	-0,027	-0,064
-251,307	739,371	-0,021	0,041
-250,292	800,000	0,041	0,116
-249,278	-200,000	0,009	0,075
-248,263	800,000	0,041	0,110
-247,249	98,203	0,101	0,085
-246,234	26,731	-0,027	-0,017
-245,219	-200,000	0,011	0,122
-244,205	-29,561	-0,043	0,018
-243,190	-35,205	-0,064	0,025
-242,176	508,087	0,015	-0,026
-241,161	-200,000	0,138	0,000
-240,146	800,000	-0,012	0,025
-239,132	-10,795	-0,136	-0,065
-238,117	314,293	-0,034	-0,046
-237,103	64,339	-0,018	-0,013
-236,088	226,736	-0,083	0,098
-235,073	-200,000	0,001	0,083
-234,059	-67,559	0,030	0,008
-233,044	739,237	0,016	-0,030
-232,030	67,106	0,040	-0,030
-231,015	27,727	0,066	0,041
-230,000	800,000	-0,039	0,102
-228,986	-200,000	-0,020	-0,191
-227,971	225,537	-0,028	-0,033
-226,957	800,000	0,009	-0,025
-225,942	196,456	-0,043	0,047
-224,927	326,710	-0,037	0,052
-223,913	-37,710	-0,038	0,014
-222,898	-200,000	0,004	-0,066
-221,884	-200,000	0,006	0,049
-220,869	-200,000	-0,011	0,104
-219,855	141,654	-0,070	0,068
-218,840	-4,072	0,108	-0,054
-217,825	154,254	0,079	0,079
-216,811	299,499	-0,018	0,024
-215,796	-200,000	-0,056	-0,208
-214,782	-200,000	0,004	0,018
-213,767	127,969	0,082	-0,076
-212,752	84,402	-0,005	-0,004
-211,738	-109,158	0,083	0,013
-210,723	241,765	0,112	0,136
-209,709	310,250	0,072	0,098
-208,694	-98,432	-0,064	0,012
-207,679	458,616	0,068	-0,110
-206,665	746,601	-0,011	-0,022
-205,650	-110,399	0,074	-0,011
-204,636	296,237	0,071	-0,095
-203,621	-69,925	0,043	0,012
-202,606	-77,527	-0,078	0,019
-201,592	133,181	-0,051	-0,048
-200,577	-200,000	-0,017	-0,147
-199,563	488,598	-0,033	0,055
-198,548	568,672	0,032	0,056
-197,533	800,000	0,043	0,115
-196,519	-200,000	0,010	0,250
-195,504	399,094	-0,034	-0,053
-194,490	167,317	-0,072	-0,075
-193,475	800,000	0,012	0,032
-192,460	800,000	-0,035	-0,110
-191,446	254,559	0,056	0,069
-190,431	-14,230	0,063	0,029
-189,417	46,105	-0,099	0,067
-188,402	603,571	-0,044	-0,079
-187,387	-200,000	-0,001	0,031
-186,373	800,000	0,023	-0,063
-185,358	-147,482	0,032	0,002
-184,344	54,510	0,077	0,054
-183,329	-159,750	0,102	0,004
-182,315	251,428	0,106	0,132
-181,300	-151,216	-0,047	0,002
-180,285	-200,000	-0,023	-0,074
-179,271	-2,042	-0,078	-0,040
-178,256	-78,855	0,021	-0,005
-177,242	-52,179	0,044	0,015
-176,227	800,000	0,019	0,057
-175,212	614,863	0,037	0,067
-174,198	-200,000	0,020	-0,107
-173,183	18,075	-0,096	0,056
-172,169	-155,035	-0,158	-0,007
-171,154	44,202	0,034	0,022
-170,139	-35,963	0,051	0,020
-169,125	-125,443	0,129	0,014
-168,110	115,801	-0,104	0,092
-167,096	-200,000	-0,008	0,053
-166,081	7,604	-0,075	-0,040
-165,066	-77,091	-0,098	-0,025
-164,052	180,096	0,021	-0,022
-163,037	227,559	0,116	0,137
-162,023	-74,173	-0,071	-0,018
-161,008	-200,000	0,030	0,159
-159,993	-200,000	-0,027	0,129
-158,979	278,263	-0,035	0,045
-157,964	-200,000	-0,012	0,051
-156,950	133,052	0,013	-0,013
-155,935	800,000	0,055	-0,118
-154,920	14,972	0,127	-0,072
-153,906	-25,181	-0,116	-0,050
-152,891	-87,123	-0,071	-0,016
-151,877	-200,000	-0,000	-0,059
-150,862	-200,000	0,081	0,000
-149,847	-65,363	-0,034	-0,010
-148,833	-189,511	0,091	-0,001
-147,818	800,000	-0,019	-0,055
-146,804	-120,164	-0,050	0,006
-145,789	800,000	0,021	-0,057
-144,775	800,000	-0,021	-0,057
-143,760	-137,381	-0,075	-0,006
-142,745	388,144	-0,038	0,057
-141,731	-200,000	0,055	0,218
-140,716	188,457	-0,015	-0,016
-139,702	-113,965	-0,057	0,008
-138,687	-200,000	0,016	-0,060
-137,672	-200,000	-0,030	0,130
-136,658	800,000	0,015	-0,046
-135,643	259,216	-0,059	-0,074
-134,629	75,447	0,066	-0,050
-133,614	-200,000	-0,020	-0,079
-132,599	800,000	-0,040	0,101
-131,585	176,431	0,009	-0,009
-130,570	-118,209	-0,173	-0,022
-129,556	50,518	-0,116	-0,079
-128,541	223,243	-0,039	0,045
-127,526	95,301	-0,048	-0,039
-126,512	-13,817	0,152	-0,071
-125,497	56,205	0,042	-0,029
-124,483	64,218	0,082	-0,060
-123,468	11,093	0,154	-0,085
-122,453	67,843	-0,078	-0,058
-121,439	-76,612	0,082	-0,021
-120,424	800,000	-0,039	-0,108
-119,410	507,415	0,058	-0,098
