DTS Sentinel unit serial number:	SN410029Multiplexer serial number:	ORYXHardware model number:	OX2-SRSoftware version number:	ORYX F/W v4,00 Oryx Data Collector v3.7.2.0data status	okinstallation	B6 Nyhavnadifferential loss correction	single-endedforward channel	channel 2reverse channel	N/Adate	2023/12/08time	21:35:08forward acquisition time	300,00reverse acquisition time	0,00gamma	499,1914k internal	0,3158k external	0,3158temperature offset calibration	1,0000default loss term (dB/km)	0,3820temperature slope calibration	1,0000multiplexer offset coefficient	1,0000multiplexer slope coefficient	1,0000fibre end	0,00T internal ref (°C)	15,25T ext. ref 1 (°C)	-1,27T ext. ref 2 (°C)	-1,28length (m)	temperature (°C)	Stokes	anti-Stokes-744,400	-6,474	0,093	-0,047
-743,385	-67,159	-0,395	-0,114
-742,371	-125,187	0,091	0,010
-741,356	-23,683	-0,275	0,121
-740,342	24,196	0,192	0,117
-739,327	-184,396	-0,298	0,003
-738,312	20,700	0,119	0,071
-737,298	-63,447	-0,330	0,099
-736,283	671,720	0,104	0,200
-735,269	-69,434	-0,159	-0,045
-734,254	800,000	0,022	0,062
-733,239	-135,521	-0,488	-0,042
-732,225	-17,598	0,256	-0,118
-731,210	60,722	0,083	-0,060
-730,196	13,775	-0,146	-0,083
-729,181	-34,617	-0,150	-0,060
-728,167	229,545	-0,048	0,058
-727,152	-7,210	0,097	-0,048
-726,137	600,904	-0,076	-0,141
-725,123	1,692	-0,098	-0,052
-724,108	-200,000	-0,008	-0,125
-723,094	350,041	-0,063	-0,092
-722,079	-34,595	0,061	-0,025
-721,064	769,395	-0,067	-0,136
-720,050	-85,589	0,143	0,032
-719,035	77,356	-0,013	-0,010
-718,021	800,000	0,016	0,037
-717,006	238,739	0,068	-0,083
-715,991	-69,370	-0,204	-0,057
-714,977	-144,239	-0,068	-0,005
-713,962	124,925	-0,042	0,039
-712,948	42,284	0,022	0,015
-711,933	14,374	-0,114	-0,065
-710,918	94,092	0,053	-0,044
-709,904	-200,000	-0,016	-0,093
-708,889	800,000	-0,056	-0,147
-707,875	800,000	0,016	-0,050
-706,860	-109,684	-0,011	-0,002
-705,845	125,003	0,115	0,106
-704,831	-200,000	0,016	-0,054
-703,816	-171,209	-0,142	-0,003
-702,802	29,547	0,011	-0,007
-701,787	33,177	-0,024	-0,016
-700,772	-200,000	0,009	0,037
-699,758	-120,915	-0,104	0,013
-698,743	52,086	0,157	-0,110
-697,729	800,000	0,041	-0,128
-696,714	-200,000	-0,010	0,139
-695,699	-25,702	-0,109	-0,047
-694,685	800,000	0,049	-0,133
-693,670	355,989	-0,109	-0,160
-692,656	162,685	0,114	0,118
-691,641	800,000	-0,052	0,111
-690,627	-116,054	-0,075	-0,010
-689,612	41,414	0,057	-0,038
-688,597	78,288	-0,037	-0,029
-687,583	-16,403	0,030	0,014
-686,568	-200,000	-0,031	-0,171
-685,554	800,000	-0,032	0,083
-684,539	-114,491	0,094	0,013
-683,524	-152,682	0,038	-0,002
-682,510	308,592	-0,021	-0,028
-681,495	-200,000	-0,003	-0,119
-680,481	199,353	0,085	-0,096
-679,466	107,144	0,073	0,063
-678,451	142,056	0,057	0,055
-677,437	93,522	0,044	-0,036
-676,422	-130,519	-0,020	-0,002
-675,408	-113,580	0,108	0,015
-674,393	-200,000	-0,027	-0,140
-673,378	-10,095	-0,041	-0,020
-672,364	800,000	0,011	-0,022
-671,349	-200,000	-0,020	-0,168
-670,335	-200,000	0,028	0,152
-669,320	-173,816	0,066	0,001
-668,305	800,000	0,024	-0,054
-667,291	-200,000	0,024	-0,154
-666,276	800,000	-0,031	0,073
-665,262	-82,560	-0,056	-0,013
-664,247	-23,335	0,056	0,025
-663,232	308,992	0,053	0,073
-662,218	98,814	-0,029	0,025
-661,203	33,614	-0,078	0,050
-660,189	292,812	-0,087	0,117
-659,174	-84,993	-0,210	0,048
-658,159	-180,898	-0,027	-0,000
-657,145	-101,146	-0,197	-0,035
-656,130	436,239	-0,054	-0,087
-655,116	-139,411	0,077	-0,006
-654,101	57,411	0,093	0,067
-653,086	181,011	0,066	-0,071
-652,072	-158,564	0,097	0,004
-651,057	-200,000	0,019	-0,089
-650,043	101,961	-0,032	-0,027
-649,028	434,634	0,101	-0,162
-648,014	-102,894	0,033	0,006
-646,999	120,108	0,073	0,066
-645,984	-88,951	-0,103	-0,022
-644,970	-200,000	-0,063	-0,213
-643,955	-26,471	-0,113	0,048
-642,941	3,463	0,105	0,056
-641,926	20,930	0,061	0,036
-640,911	124,628	-0,060	-0,055
-639,897	-27,305	-0,199	0,084
-638,882	800,000	0,045	-0,129
-637,868	-164,578	-0,062	-0,002
-636,853	-181,116	-0,076	-0,001
-635,838	81,016	-0,081	0,064
-634,824	25,660	0,048	-0,029
-633,809	-156,285	0,058	0,003
-632,795	12,685	-0,068	0,038
-631,780	-200,000	-0,016	-0,085
-630,765	64,317	-0,033	0,024
-629,751	-200,000	0,015	-0,059
-628,736	-129,106	-0,091	0,009
-627,722	-47,548	-0,061	-0,022
-626,707	90,354	-0,037	-0,031
-625,692	87,450	-0,011	0,009
-624,678	125,756	-0,049	0,045
-623,663	-130,798	-0,102	-0,010
-622,649	-200,000	-0,011	-0,137
-621,634	-52,182	-0,102	-0,034
-620,619	-200,000	-0,024	-0,105
-619,605	-68,321	0,010	0,003
-618,590	-200,000	0,006	0,102
-617,576	-200,000	-0,002	0,055
-616,561	-200,000	0,001	-0,078
-615,546	137,086	-0,035	-0,033
-614,532	730,326	-0,004	-0,009
-613,517	-200,000	-0,026	-0,185
-612,503	102,030	-0,033	-0,028
-611,488	212,021	0,088	0,102
-610,474	154,178	0,098	0,099
-609,459	61,872	0,032	-0,024
-608,444	800,000	-0,033	-0,094
-607,430	800,000	0,076	-0,167
-606,415	800,000	0,049	-0,125
-605,401	800,000	0,038	-0,102
-604,386	110,672	0,160	0,141
-603,371	-200,000	0,006	0,117
-602,357	-200,000	-0,014	0,048
-601,342	777,852	-0,051	-0,103
-600,328	8,584	-0,153	0,084
-599,313	800,000	0,032	0,071
-598,298	-200,000	0,003	-0,081
-597,284	800,000	-0,055	0,148
-596,269	295,927	0,092	0,124
-595,255	277,255	-0,055	-0,072
-594,240	-51,266	-0,184	0,063
-593,225	800,000	0,010	-0,023
-592,211	-62,341	0,104	-0,032
-591,196	-91,013	0,036	0,008
-590,182	3,292	0,058	0,031
-589,167	246,543	0,129	0,160
-588,152	800,000	-0,036	0,082
-587,138	72,401	-0,013	-0,010
-586,123	800,000	0,068	-0,178
-585,109	292,926	-0,079	-0,106
-584,094	152,028	-0,050	-0,050
-583,079	93,031	0,048	0,040
-582,065	800,000	0,063	0,144
-581,050	-200,000	-0,026	-0,124
-580,036	-42,077	-0,188	-0,070
-579,021	800,000	0,017	0,051
-578,006	-200,000	-0,010	-0,046
-576,992	393,509	-0,024	-0,036
-575,977	-7,465	0,105	-0,052
-574,963	30,355	0,119	0,074
-573,948	-200,000	-0,001	0,083
-572,934	-200,000	0,006	0,065
-571,919	43,418	-0,102	0,068
-570,904	150,360	-0,064	-0,063
-569,890	800,000	-0,060	0,180
-568,875	800,000	0,016	-0,035
-567,861	-200,000	0,033	0,165
-566,846	-40,095	0,079	0,030
-565,831	-200,000	-0,005	0,020
-564,817	83,830	0,025	0,020
-563,802	-200,000	0,019	-0,149
-562,788	-77,171	-0,130	-0,033
-561,773	-87,281	-0,026	-0,006
-560,758	-122,417	0,142	0,017
-559,744	13,556	0,059	0,033
-558,729	117,117	-0,053	0,048
-557,715	-13,035	0,087	-0,041
-556,700	-200,000	0,014	-0,051
-555,685	-200,000	-0,022	-0,127
-554,671	-41,405	0,058	-0,022
-553,656	-64,888	-0,013	-0,004
-552,642	28,095	0,044	0,027
-551,627	-70,297	0,136	-0,037
-550,612	-200,000	-0,025	-0,087
-549,598	550,757	-0,064	-0,113
-548,583	93,267	-0,235	-0,194
-547,569	95,199	0,110	0,092
-546,554	5,709	-0,078	-0,042
-545,539	-200,000	-0,013	0,090
-544,525	178,556	0,032	-0,034
-543,510	288,960	-0,066	0,088
-542,496	-15,119	-0,075	-0,035
-541,481	86,130	-0,026	-0,021
-540,466	220,899	-0,041	-0,048
-539,452	-200,000	-0,012	-0,040
-538,437	-163,084	-0,102	-0,004
-537,423	714,293	-0,087	0,169
-536,408	-151,258	0,098	-0,005
-535,393	800,000	-0,065	-0,160
-534,379	86,268	0,026	0,021
-533,364	318,278	0,038	0,053
-532,350	800,000	-0,024	0,062
-531,335	-146,668	0,100	0,006
-530,321	-1,979	0,038	0,019
-529,306	243,339	-0,071	-0,087
-528,291	-148,372	-0,114	-0,007
-527,277	-81,531	0,044	0,011
-526,262	254,752	0,063	-0,079
-525,248	-86,713	-0,171	-0,038
-524,233	800,000	-0,013	-0,042
-523,218	-200,000	-0,025	0,118
-522,204	243,027	0,072	0,089
-521,189	264,290	-0,041	-0,053
-520,175	378,509	0,109	-0,164
-519,160	-13,099	-0,153	-0,072
-518,145	103,901	-0,044	-0,038
-517,131	-66,201	0,082	0,024
-516,116	152,104	0,114	0,114
-515,102	-114,729	0,177	-0,024
-514,087	68,500	-0,106	-0,079
-513,072	-200,000	0,007	-0,063
-512,058	-68,228	-0,117	-0,033
-511,043	-200,000	-0,001	-0,129
-510,029	720,968	-0,063	0,123
-509,014	-5,141	0,013	-0,006
-507,999	-172,413	-0,055	-0,001
-506,985	-41,469	0,053	-0,020
-505,970	800,000	-0,054	-0,166
-504,956	-172,170	0,038	-0,001
-503,941	-134,786	0,140	0,012
-502,926	486,626	-0,018	-0,031
-501,912	-200,000	0,032	-0,136
-500,897	61,633	-0,038	-0,028
-499,883	-50,910	-0,102	-0,035
-498,868	-200,000	-0,009	-0,037
-497,853	-137,026	0,023	0,002
-496,839	38,203	-0,132	-0,086
-495,824	-88,718	0,067	-0,014
-494,810	94,582	0,059	-0,049
-493,795	-200,000	-0,034	0,118
-492,781	800,000	-0,022	-0,048
-491,766	-55,857	0,092	0,030
-490,751	-7,749	0,024	-0,012
-489,737	-87,071	0,057	0,013
-488,722	-200,000	-0,013	0,131
-487,708	362,428	0,064	0,095
-486,693	218,430	-0,117	0,136
-485,678	-68,766	-0,051	-0,014
-484,664	-200,000	0,016	0,091
-483,649	187,506	-0,090	-0,098
-482,635	800,000	-0,026	-0,077
-481,620	-4,003	0,065	-0,033
-480,605	-165,102	0,184	0,006
-479,591	-200,000	0,039	-0,152
-478,576	72,043	0,167	-0,126
-477,562	-200,000	0,005	0,111
-476,547	-1,912	-0,014	0,007
-475,532	114,011	-0,018	-0,016
-474,518	-188,543	0,073	0,001
-473,503	-200,000	0,006	0,036
-472,489	128,197	0,078	-0,073
-471,474	343,894	-0,029	0,042
-470,459	-200,000	-0,018	-0,103
-469,445	-25,520	-0,136	-0,058
-468,430	241,335	-0,068	-0,083
-467,416	-200,000	0,002	-0,053
-466,401	-200,000	0,004	-0,020
-465,386	-74,163	-0,031	-0,008
-464,372	286,484	0,104	-0,137
-463,357	-77,833	-0,050	0,013
-462,343	-159,189	0,038	-0,002
-461,328	22,026	-0,081	0,048
-460,313	-18,524	0,104	0,047
-459,299	607,008	-0,029	-0,053
-458,284	-107,112	-0,071	0,011
-457,270	-25,055	0,062	0,027
-456,255	-200,000	-0,002	-0,043
-455,241	20,373	0,086	-0,050
-454,226	58,603	-0,103	-0,074
-453,211	323,305	0,071	0,100
-452,197	-54,950	0,149	0,049
-451,182	62,975	-0,052	-0,038
-450,168	-200,000	-0,004	-0,015
-449,153	-24,558	-0,147	-0,064
-448,138	-62,128	-0,106	0,032
-447,124	800,000	-0,041	-0,097
-446,109	-23,693	-0,057	0,025
-445,095	-200,000	-0,005	-0,033
-444,080	-62,872	0,075	-0,023
-443,065	-93,483	-0,119	-0,024
-442,051	6,989	0,159	0,086
-441,036	-28,461	-0,068	-0,029
-440,022	19,209	0,164	-0,095
-439,007	104,580	0,009	0,008
-437,992	26,865	0,096	-0,059
-436,978	-2,880	0,087	0,044
-435,963	52,259	0,114	-0,079
-434,949	-45,329	-0,062	-0,022
-433,934	800,000	0,062	-0,175
-432,919	-96,845	-0,246	0,047
-431,905	-8,728	0,049	0,024
-430,890	-200,000	0,016	0,060
-429,876	233,836	0,120	0,144
-428,861	-191,522	-0,040	-0,000
-427,846	-116,387	0,063	0,008
-426,832	115,836	0,030	0,026
-425,817	-117,049	-0,092	-0,012
-424,803	-200,000	0,050	0,180
-423,788	-200,000	0,001	0,034
-422,773	-200,000	0,003	-0,019
-421,759	800,000	-0,035	0,084
-420,744	149,710	-0,070	0,069
-419,730	-200,000	-0,006	0,096
-418,715	11,208	-0,139	0,077
-417,701	110,667	-0,015	-0,013
-416,686	-200,000	-0,017	0,065
-415,671	800,000	0,065	-0,144
-414,657	-200,000	0,013	0,074
-413,642	509,599	0,069	0,116
-412,628	206,419	-0,128	-0,145
-411,613	264,277	0,059	0,075
-410,598	-85,971	-0,065	0,014
-409,584	-200,000	-0,001	0,140
-408,569	693,148	-0,030	-0,057
-407,555	-160,081	-0,164	-0,006
-406,540	-200,000	-0,031	0,116
-405,525	10,908	-0,147	-0,081
-404,511	505,011	0,045	-0,077
-403,496	365,332	0,026	-0,038
-402,482	11,721	0,052	-0,029
-401,467	34,708	0,070	-0,045
-400,452	308,337	-0,059	0,080
-399,438	-143,473	-0,036	0,002
-398,423	-200,000	-0,011	-0,141
-397,409	361,396	-0,029	-0,042
-396,394	-200,000	0,021	-0,160
-395,379	212,396	0,098	0,112
-394,365	-58,523	0,146	0,046
-393,350	-200,000	0,047	0,198
-392,336	800,000	0,063	0,138
-391,321	55,286	0,031	-0,022
-390,306	661,177	-0,075	-0,142
-389,292	85,533	-0,141	-0,113
-388,277	100,574	0,046	-0,039
-387,263	39,633	0,125	0,081
-386,248	257,829	0,102	-0,127
-385,233	4,713	-0,010	0,005
-384,219	-68,519	0,016	-0,005
-383,204	421,374	-0,042	-0,066
-382,190	388,930	0,080	-0,121
-381,175	-200,000	-0,006	-0,111
-380,160	74,008	0,064	0,049
-379,146	-51,830	0,049	0,017
-378,131	-200,000	-0,019	0,218
-377,117	-200,000	0,004	-0,022
-376,102	-120,428	-0,195	-0,024
-375,088	68,586	0,046	-0,035
-374,073	-33,813	-0,121	0,048
-373,058	-200,000	0,015	-0,075
-372,044	114,620	0,096	-0,085
-371,029	800,000	-0,019	-0,057
-370,015	35,895	-0,094	-0,060
-369,000	93,221	0,054	0,044
-367,985	121,582	0,043	-0,039
-366,971	248,445	-0,054	-0,066
-365,956	-122,726	0,104	-0,012
-364,942	-200,000	-0,017	0,078
-363,927	-68,728	-0,084	0,023
-362,912	-20,090	-0,090	-0,040
-361,898	-33,270	0,066	0,026
-360,883	82,849	0,036	-0,028
-359,869	9,917	0,058	0,032
-358,854	800,000	-0,062	0,130
-357,839	-7,466	0,134	0,065
-356,825	264,667	0,064	0,081
-355,810	800,000	-0,059	0,151
-354,796	-157,687	-0,046	-0,002
-353,781	123,173	0,038	0,035
-352,766	7,315	-0,034	0,019
-351,752	800,000	0,017	-0,049
-350,737	94,303	-0,132	0,109
-349,723	-76,786	0,112	-0,028
-348,708	1,178	0,086	0,045
-347,693	44,014	0,051	-0,034
-346,679	-200,000	-0,022	-0,168
-345,664	-31,953	-0,060	0,024
-344,650	-200,000	0,004	0,022
-343,635	143,772	0,120	0,116
-342,620	-200,000	0,009	0,049
-341,606	-200,000	0,030	0,122
-340,591	520,054	-0,033	0,056
-339,577	126,671	-0,003	-0,003
-338,562	-200,000	-0,002	0,015
-337,548	-28,389	0,012	-0,005
-336,533	-200,000	-0,035	0,147
-335,518	10,278	-0,151	0,083
-334,504	-134,702	0,118	-0,010
-333,489	146,967	-0,078	0,077
-332,475	-200,000	-0,001	0,009
-331,460	611,040	-0,036	-0,066
-330,445	115,930	-0,081	-0,072
-329,431	13,730	0,040	0,022
-328,416	800,000	0,050	0,102
-327,402	-2,616	0,124	0,063
-326,387	-145,871	-0,146	0,009
-325,372	-24,926	-0,062	-0,027
-324,358	69,240	0,113	0,084
-323,343	-95,043	0,034	0,007
-322,329	800,000	-0,024	-0,049
-321,314	-200,000	-0,002	-0,067
-320,299	800,000	-0,031	0,082
-319,285	31,182	-0,196	0,122
-318,270	0,606	-0,032	0,016
-317,256	-40,618	0,121	0,045
-316,241	578,123	-0,081	-0,145
-315,226	800,000	0,013	0,032
-314,212	-115,525	0,158	0,021
-313,197	686,889	0,083	-0,158
-312,183	67,267	-0,134	-0,099
-311,168	-160,204	-0,108	0,004
-310,153	1,776	0,115	-0,060
-309,139	800,000	-0,033	0,096
-308,124	150,189	0,040	0,039
-307,110	-127,990	0,151	-0,016
-306,095	800,000	-0,043	0,087
-305,080	586,030	0,084	0,151
-304,066	-45,944	0,041	0,014
-303,051	-200,000	0,007	-0,098
-302,037	-91,690	-0,109	0,022
-301,022	104,579	0,138	0,118
-300,008	-16,688	0,036	-0,016
-298,993	-50,380	-0,021	-0,007
-297,978	-57,191	-0,051	0,016
-296,964	37,649	-0,059	-0,038
-295,949	583,140	-0,056	-0,100
-294,935	130,045	0,123	-0,114
-293,920	705,551	0,017	0,033
-292,905	-17,744	-0,091	-0,041
-291,891	-200,000	-0,013	0,118
-290,876	-146,026	0,068	0,004
-289,862	75,460	-0,098	0,075
-288,847	-192,012	-0,010	0,000
-287,832	-130,255	-0,053	-0,005
-286,818	122,461	-0,075	-0,068
-285,803	126,176	0,036	-0,033
-284,789	145,851	0,044	-0,042
-283,774	-32,170	0,050	-0,020
-282,759	177,785	0,063	0,067
-281,745	79,817	-0,077	-0,060
-280,730	-63,119	0,062	-0,019
-279,716	-200,000	0,010	-0,033
-278,701	-200,000	-0,005	0,107
-277,686	-200,000	-0,006	0,051
-276,672	-116,946	0,079	0,010
-275,657	255,626	0,053	-0,066
-274,643	-200,000	-0,009	-0,063
-273,628	800,000	-0,008	-0,023
-272,613	85,816	-0,112	0,089
-271,599	800,000	-0,008	-0,024
-270,584	101,686	0,076	0,065
-269,570	302,127	0,028	0,038
-268,555	-109,116	-0,053	-0,008
-267,540	-200,000	0,022	-0,126
-266,526	614,647	0,008	-0,015
-265,511	-73,670	0,070	0,018
-264,497	-4,042	0,093	0,047
-263,482	116,543	0,036	0,032
-262,467	434,697	0,076	0,119
-261,453	-157,938	0,077	0,003
-260,438	-157,870	-0,081	0,003
-259,424	106,212	0,093	-0,080
-258,409	-141,286	0,032	0,002
-257,395	187,061	-0,072	0,078
-256,380	-188,530	0,165	0,001
-255,365	517,004	-0,018	-0,030
-254,351	23,646	0,180	0,107
-253,336	-200,000	-0,010	-0,071
-252,322	-200,000	0,019	0,093
-251,307	88,142	-0,161	-0,129
-250,292	-200,000	0,042	-0,197
-249,278	-67,888	0,120	-0,034
-248,263	413,715	0,057	0,089
-247,249	112,436	-0,141	0,123
-246,234	221,171	0,056	0,065
-245,219	132,416	-0,183	-0,171
-244,205	-103,928	-0,084	-0,014
-243,190	-200,000	0,012	0,102
-242,176	163,149	-0,051	-0,052
-241,161	644,215	0,061	0,113
-240,146	-35,249	-0,044	0,017
-239,132	-200,000	0,013	0,064
-238,117	-164,000	0,067	0,002
-237,103	80,880	-0,083	-0,064
-236,088	-40,865	0,052	0,019
-235,073	-200,000	0,030	0,226
-234,059	-200,000	0,070	0,243
-233,044	-200,000	-0,011	0,057
-232,030	800,000	0,039	0,120
-231,015	33,725	-0,087	-0,055
-230,000	155,517	0,044	0,044
-228,986	44,802	-0,086	0,057
-227,971	800,000	-0,033	-0,072
-226,957	-161,675	0,090	-0,003
-225,942	106,989	-0,072	0,062
-224,927	-120,916	0,149	0,018
-223,913	103,294	-0,060	-0,051
-222,898	326,661	-0,053	-0,073
-221,884	80,256	0,082	-0,064
-220,869	800,000	0,037	-0,103
-219,855	779,934	0,035	-0,069
-218,840	-200,000	-0,053	0,183
-217,825	-200,000	0,000	0,056
-216,811	-151,717	0,114	0,006
-215,796	-200,000	-0,009	-0,077
-214,782	75,259	-0,141	0,108
-213,767	59,882	0,107	0,076
-212,752	-200,000	0,021	0,131
-211,738	300,706	-0,050	0,066
-210,723	-37,985	-0,063	-0,024
-209,709	113,321	-0,026	0,023
-208,694	333,642	-0,101	0,142
-207,679	177,469	-0,051	0,053
-206,665	-200,000	-0,013	0,046
-205,650	76,829	0,077	0,059
-204,636	-111,032	0,066	0,010
-203,621	800,000	-0,043	0,113
-202,606	142,413	-0,053	0,050
-201,592	800,000	-0,051	0,131
-200,577	25,294	-0,052	-0,031
-199,563	154,221	0,066	-0,065
-198,548	800,000	0,010	0,031
-197,533	-6,391	0,168	-0,082
-196,519	255,173	0,017	0,021
-195,504	18,243	-0,046	0,026
-194,490	441,396	-0,100	-0,158
-193,475	145,637	-0,024	-0,023
-192,460	-100,367	0,027	0,005
-191,446	406,978	-0,046	0,070
-190,431	-200,000	0,035	0,167
-189,417	90,899	0,068	-0,055
-188,402	-175,551	-0,068	0,001
-187,387	800,000	0,065	-0,160
-186,373	-67,013	-0,087	-0,025
-185,358	-2,383	0,083	-0,042
-184,344	542,957	0,060	-0,104
-183,329	-12,510	-0,121	-0,057
-182,315	-38,136	-0,069	-0,026
-181,300	-200,000	0,001	-0,050
-180,285	-35,386	-0,096	-0,037
-179,271	-50,536	0,050	-0,017
-178,256	-70,666	0,075	0,020
-177,242	-29,867	0,028	0,011
-176,227	-200,000	0,001	0,099
-175,212	46,033	0,184	0,123
-174,198	-38,739	-0,108	0,041
-173,183	800,000	-0,076	-0,198
-172,169	473,160	0,016	0,027
-171,154	-97,693	-0,223	-0,041
-170,139	307,677	-0,086	-0,116
-169,125	527,629	0,028	0,048
-168,110	800,000	0,057	0,141
-167,096	-9,787	-0,010	0,005
-166,081	-136,134	0,073	-0,006
-165,066	305,827	0,064	-0,085
-164,052	-200,000	-0,018	-0,095
-163,037	-200,000	0,001	-0,005
-162,023	259,783	0,080	-0,099
-161,008	-69,052	-0,107	0,030
-159,993	-200,000	-0,068	0,223
-158,979	800,000	0,046	0,126
-157,964	40,394	0,046	-0,030
-156,950	800,000	-0,025	-0,066
-155,935	-200,000	0,013	-0,087
-154,920	754,537	0,065	-0,126
-153,906	800,000	0,036	0,078
-152,891	278,459	-0,077	-0,099
-151,877	-200,000	0,000	0,070
-150,862	800,000	0,049	-0,138
-149,847	-30,234	-0,041	-0,017
-148,833	-200,000	-0,005	0,087
-147,818	-200,000	-0,009	0,136
-146,804	800,000	-0,002	-0,005
-145,789	249,244	0,083	-0,102
-144,775	74,532	-0,072	0,055
-143,760	67,910	-0,053	-0,039
-142,745	138,928	-0,041	0,039
-141,731	11,178	-0,037	-0,020
-140,716	-189,266	0,073	-0,001
-139,702	107,668	0,078	-0,067
-138,687	-200,000	0,037	0,144
-137,672	-35,476	0,039	-0,015
-136,658	-114,544	-0,088	0,012
-135,643	777,479	0,017	-0,033
-134,629	214,253	-0,036	-0,041
-133,614	-200,000	-0,007	-0,097
-132,599	-42,445	0,079	-0,029
-131,585	137,373	0,013	-0,012
-130,570	-20,643	-0,128	-0,056
-129,556	77,221	-0,039	0,029
-128,541	-42,554	-0,118	0,043
-127,526	-200,000	-0,027	0,135
-126,512	800,000	0,021	-0,049
-125,497	302,518	0,037	0,050
-124,483	-200,000	-0,043	0,140
-123,468	91,454	0,067	0,054
-122,453	-200,000	0,009	-0,091
-121,439	106,180	0,030	-0,025
-120,424	-48,884	-0,071	-0,024
-119,410	400,935	-0,088	-0,133
-118,395	-200,000	-0,007	-0,164
