DTS Sentinel unit serial number:	SN410029Multiplexer serial number:	ORYXHardware model number:	OX2-SRSoftware version number:	ORYX F/W v4,00 Oryx Data Collector v3.7.2.0data status	okinstallation	B6 Nyhavnadifferential loss correction	single-endedforward channel	channel 2reverse channel	N/Adate	2023/12/10time	00:15:08forward acquisition time	300,00reverse acquisition time	0,00gamma	499,1914k internal	0,3126k external	0,3126temperature offset calibration	1,0000default loss term (dB/km)	0,3820temperature slope calibration	1,0000multiplexer offset coefficient	1,0000multiplexer slope coefficient	1,0000fibre end	0,00T internal ref (°C)	21,78T ext. ref 1 (°C)	5,68T ext. ref 2 (°C)	5,66length (m)	temperature (°C)	Stokes	anti-Stokes-744,400	-200,000	-0,023	-0,165
-743,385	-115,085	-0,136	0,019
-742,371	-200,000	0,013	0,049
-741,356	-31,142	-0,174	0,073
-740,342	-14,214	-0,039	-0,019
-739,327	64,570	-0,215	0,161
-738,312	-56,146	0,019	0,006
-737,298	-109,918	-0,156	0,024
-736,283	-110,292	0,116	0,018
-735,269	-62,060	-0,251	0,077
-734,254	800,000	0,049	-0,108
-733,239	-30,898	-0,344	-0,144
-732,225	-96,057	0,183	0,036
-731,210	-65,369	0,046	-0,014
-730,196	792,306	-0,060	-0,124
-729,181	-138,827	-0,131	-0,010
-728,167	190,450	0,120	-0,135
-727,152	179,342	-0,101	-0,110
-726,137	-192,930	-0,031	-0,000
-725,123	-83,788	0,004	0,001
-724,108	-200,000	-0,019	-0,147
-723,094	-86,339	-0,050	-0,011
-722,079	288,061	-0,018	-0,025
-721,064	-26,150	0,039	-0,017
-720,050	-200,000	0,002	-0,069
-719,035	-200,000	0,038	-0,131
-718,021	75,286	-0,063	-0,050
-717,006	-125,615	-0,095	-0,011
-715,991	-200,000	0,005	-0,103
-714,977	-25,992	-0,072	-0,032
-713,962	-58,824	-0,128	-0,041
-712,948	175,142	0,081	-0,087
-711,933	-200,000	0,024	0,157
-710,918	800,000	0,075	-0,162
-709,904	-119,206	-0,088	-0,011
-708,889	361,970	-0,075	-0,113
-707,875	52,266	-0,128	-0,091
-706,860	-200,000	0,004	-0,035
-705,845	-176,088	0,046	0,001
-704,831	-200,000	-0,006	-0,034
-703,816	-200,000	0,035	-0,156
-702,802	-35,517	-0,101	-0,040
-701,787	800,000	-0,034	-0,078
-700,772	-39,466	-0,063	-0,024
-699,758	-200,000	0,015	0,148
-698,743	730,735	0,020	-0,040
-697,729	-200,000	0,011	-0,071
-696,714	193,207	0,067	-0,075
-695,699	800,000	0,015	-0,044
-694,685	-35,964	-0,087	-0,035
-693,670	-200,000	0,001	0,028
-692,656	200,212	-0,074	-0,084
-691,641	-200,000	0,008	-0,069
-690,627	-200,000	-0,020	-0,090
-689,612	305,060	-0,052	-0,071
-688,597	120,867	-0,051	0,047
-687,583	800,000	0,086	-0,237
-686,568	-85,340	-0,152	0,035
-685,554	374,168	-0,043	0,065
-684,539	800,000	-0,050	0,116
-683,524	-131,096	-0,103	0,010
-682,510	-55,386	-0,080	0,026
-681,495	140,327	-0,042	0,041
-680,481	-99,097	-0,131	0,024
-679,466	94,735	-0,078	0,066
-678,451	-110,156	-0,057	0,009
-677,437	510,637	0,067	-0,116
-676,422	31,198	-0,034	-0,022
-675,408	-23,302	0,062	0,027
-674,393	143,183	-0,027	0,026
-673,378	175,482	-0,035	-0,038
-672,364	790,854	-0,013	-0,027
-671,349	108,296	0,107	-0,095
-670,335	15,332	0,099	0,057
-669,320	-12,768	-0,008	-0,004
-668,305	331,923	0,067	0,097
-667,291	-200,000	0,012	0,064
-666,276	-200,000	-0,017	0,126
-665,262	300,451	-0,028	-0,038
-664,247	27,914	-0,066	0,041
-663,232	60,825	0,048	-0,035
-662,218	-65,501	-0,082	-0,024
-661,203	716,524	-0,048	-0,095
-660,189	499,799	-0,085	-0,145
-659,174	-32,603	-0,089	-0,037
-658,159	-97,687	-0,093	0,018
-657,145	12,351	-0,045	-0,025
-656,130	270,875	-0,016	0,021
-655,116	-200,000	0,008	-0,060
-654,101	-200,000	-0,004	-0,017
-653,086	800,000	0,052	-0,119
-652,072	-200,000	-0,006	0,053
-651,057	-200,000	-0,033	-0,122
-650,043	29,913	-0,066	-0,042
-649,028	-200,000	-0,014	-0,125
-648,014	23,558	0,089	0,054
-646,999	-95,049	-0,187	0,037
-645,984	38,320	-0,103	-0,068
-644,970	800,000	0,035	-0,109
-643,955	181,643	-0,071	-0,077
-642,941	800,000	-0,046	-0,128
-641,926	-200,000	-0,011	-0,065
-640,911	-200,000	-0,013	0,168
-639,897	265,500	-0,075	-0,098
-638,882	-200,000	-0,007	0,039
-637,868	302,934	0,080	0,110
-636,853	183,141	-0,038	-0,042
-635,838	-200,000	0,007	-0,192
-634,824	-70,596	-0,015	0,004
-633,809	800,000	-0,051	0,137
-632,795	8,981	0,087	0,049
-631,780	800,000	0,072	-0,162
-630,765	385,132	-0,072	-0,111
-629,751	260,212	-0,046	-0,058
-628,736	-127,333	0,050	0,005
-627,722	632,413	-0,046	0,086
-626,707	-27,834	0,126	0,054
-625,692	125,639	0,018	0,017
-624,678	777,626	-0,048	-0,098
-623,663	316,808	-0,063	-0,089
-622,649	-200,000	-0,091	0,000
-621,634	-111,042	0,146	-0,022
-620,619	139,785	0,087	-0,085
-619,605	-65,930	0,061	-0,018
-618,590	-11,848	-0,060	0,029
-617,576	6,823	-0,114	-0,063
-616,561	73,884	0,056	-0,044
-615,546	-116,550	-0,113	0,015
-614,532	-200,000	-0,016	0,091
-613,517	-200,000	-0,022	-0,159
-612,503	-59,302	0,129	-0,041
-611,488	-200,000	0,013	0,056
-610,474	44,559	-0,040	-0,027
-609,459	800,000	0,045	0,123
-608,444	-200,000	-0,011	-0,082
-607,430	800,000	0,030	-0,065
-606,415	-200,000	-0,158	0,000
-605,401	173,852	0,102	-0,109
-604,386	-200,000	-0,044	0,177
-603,371	119,482	0,022	0,020
-602,357	-5,618	-0,096	0,048
-601,342	512,339	-0,019	0,033
-600,328	-13,582	-0,097	-0,046
-599,313	-28,471	-0,017	-0,007
-598,298	-200,000	-0,019	0,104
-597,284	-97,617	0,130	0,025
-596,269	61,382	0,051	0,037
-595,255	-126,144	0,020	0,002
-594,240	-200,000	0,000	0,006
-593,225	118,211	0,008	-0,007
-592,211	59,026	-0,032	0,023
-591,196	-200,000	-0,018	-0,155
-590,182	800,000	-0,038	-0,100
-589,167	628,758	0,014	0,025
-588,152	800,000	-0,038	-0,101
-587,138	-200,000	-0,023	0,166
-586,123	800,000	0,062	-0,165
-585,109	507,731	-0,016	-0,027
-584,094	800,000	-0,031	-0,077
-583,079	-30,090	-0,091	0,038
-582,065	-171,701	0,037	0,001
-581,050	-84,933	0,099	-0,023
-580,036	-200,000	-0,001	-0,037
-579,021	-26,367	-0,115	-0,050
-578,006	296,882	0,058	-0,080
-576,992	-85,730	-0,007	-0,002
-575,977	800,000	0,020	0,058
-574,963	-200,000	0,002	0,126
-573,948	333,786	0,048	0,069
-572,934	800,000	-0,039	-0,093
-571,919	-200,000	-0,016	0,059
-570,904	14,252	0,081	-0,046
-569,890	-2,430	0,043	-0,022
-568,875	33,152	-0,050	-0,032
-567,861	-134,047	-0,104	0,009
-566,846	254,497	-0,014	-0,018
-565,831	-200,000	-0,021	0,141
-564,817	800,000	0,016	-0,049
-563,802	-200,000	-0,004	-0,061
-562,788	636,153	0,060	0,112
-561,773	131,942	-0,074	-0,070
-560,758	82,488	0,084	-0,067
-559,744	-200,000	-0,027	0,089
-558,729	-200,000	0,012	-0,093
-557,715	219,388	0,088	0,104
-556,700	-157,047	0,074	-0,003
-555,685	139,045	-0,092	-0,090
-554,671	385,066	-0,110	-0,168
-553,656	-166,216	0,212	0,006
-552,642	11,655	0,081	0,046
-551,627	-42,665	-0,112	-0,042
-550,612	800,000	-0,028	0,080
-549,598	800,000	0,028	-0,059
-548,583	800,000	-0,053	0,123
-547,569	-96,618	-0,022	-0,004
-546,554	-200,000	-0,003	-0,046
-545,539	257,512	0,054	0,069
-544,525	606,412	-0,028	0,052
-543,510	67,386	-0,082	-0,062
-542,496	-200,000	0,009	-0,077
-541,481	304,657	-0,038	0,052
-540,466	800,000	0,036	0,076
-539,452	-0,074	0,063	-0,033
-538,437	-200,000	-0,037	0,150
-537,423	-200,000	-0,015	0,061
-536,408	-36,583	-0,102	-0,040
-535,393	-200,000	-0,022	-0,091
-534,379	459,270	-0,017	-0,028
-533,364	144,762	-0,067	-0,067
-532,350	-96,350	-0,051	0,010
-531,335	222,904	0,068	0,082
-530,321	247,365	-0,077	0,097
-529,306	-200,000	0,002	0,029
-528,291	800,000	-0,047	-0,133
-527,277	-131,659	-0,083	-0,008
-526,262	91,047	-0,044	-0,037
-525,248	111,750	0,077	-0,069
-524,233	-138,054	-0,060	-0,005
-523,218	800,000	0,064	-0,152
-522,204	0,657	-0,142	0,075
-521,189	103,619	-0,136	-0,118
-520,175	104,016	0,061	-0,053
-519,160	-200,000	-0,017	0,057
-518,145	-26,697	-0,012	-0,005
-517,131	-200,000	0,004	-0,069
-516,116	-200,000	0,059	0,206
-515,102	-21,981	-0,045	0,020
-514,087	-90,603	0,037	-0,008
-513,072	800,000	0,024	-0,072
-512,058	94,760	0,054	-0,046
-511,043	-10,567	0,056	-0,027
-510,029	99,196	0,042	0,036
-509,014	-200,000	-0,189	-0,001
-507,999	-57,419	0,031	-0,010
-506,985	-200,000	-0,012	-0,129
-505,970	783,505	-0,014	-0,029
-504,956	36,112	0,046	0,030
-503,941	77,817	0,080	-0,063
-502,926	72,340	-0,031	0,024
-501,912	193,647	0,029	-0,033
-500,897	-200,000	0,000	0,029
-499,883	-99,058	-0,128	0,024
-498,868	-99,798	-0,086	-0,016
-497,853	50,644	0,158	-0,110
-496,839	-43,633	0,114	0,042
-495,824	800,000	-0,007	-0,020
-494,810	199,209	-0,094	0,106
-493,795	176,800	0,178	0,191
-492,781	-30,025	-0,098	-0,041
-491,766	800,000	0,016	0,048
-490,751	252,492	0,088	-0,111
-489,737	334,186	-0,024	0,034
-488,722	-185,266	0,096	-0,001
-487,708	-122,946	-0,071	-0,008
-486,693	44,563	-0,020	-0,014
-485,678	47,168	0,053	0,037
-484,664	800,000	-0,039	-0,123
-483,649	-100,765	-0,157	-0,028
-482,635	-0,142	0,120	0,063
-481,620	-68,959	0,175	-0,049
-480,605	-87,007	-0,050	0,011
-479,591	26,633	-0,101	0,062
-478,576	-200,000	0,035	-0,177
-477,562	-200,000	0,017	0,062
-476,547	-200,000	-0,010	0,051
-475,532	-142,139	0,052	0,004
-474,518	-200,000	0,016	0,055
-473,503	294,725	0,089	0,121
-472,489	-82,245	0,091	-0,022
-471,474	62,344	-0,089	0,066
-470,459	-200,000	0,002	-0,070
-469,445	399,095	0,021	-0,033
-468,430	-200,000	0,026	-0,113
-467,416	244,805	0,036	-0,045
-466,401	-200,000	-0,008	0,052
-465,386	-34,908	-0,016	-0,006
-464,372	260,520	0,030	-0,038
-463,357	442,613	0,040	-0,065
-462,343	125,175	-0,073	0,068
-461,328	-45,973	-0,094	-0,034
-460,313	-59,765	0,018	-0,006
-459,299	1,621	0,172	0,091
-458,284	-200,000	-0,017	0,100
-457,270	276,823	-0,090	0,119
-456,255	-200,000	0,002	0,122
-455,241	-119,878	-0,103	0,013
-454,226	-200,000	0,016	0,075
-453,211	15,219	0,121	-0,070
-452,197	112,121	0,060	0,053
-451,182	-200,000	0,022	0,158
-450,168	-70,713	0,190	0,053
-449,153	-200,000	-0,012	-0,046
-448,138	-10,494	-0,087	-0,042
-447,124	-169,264	0,074	-0,002
-446,109	365,013	0,077	0,114
-445,095	42,730	0,068	-0,045
-444,080	241,961	0,055	0,068
-443,065	791,224	-0,074	0,150
-442,051	247,736	0,042	0,052
-441,036	-200,000	0,018	-0,125
-440,022	-200,000	-0,003	-0,081
-439,007	-200,000	-0,010	-0,087
-437,992	-200,000	0,120	0,000
-436,978	-1,663	0,094	-0,049
-435,963	213,995	-0,026	0,030
-434,949	218,900	-0,115	0,135
-433,934	-140,250	-0,023	0,002
-432,919	-56,398	-0,068	0,022
-431,905	21,467	-0,100	0,059
-430,890	-177,120	0,146	-0,003
-429,876	81,968	0,103	0,082
-428,861	-121,480	0,132	-0,016
-427,846	137,635	0,084	-0,081
-426,832	24,173	-0,112	-0,068
-425,817	208,805	0,035	-0,040
-424,803	20,395	0,038	0,023
-423,788	-147,339	0,098	-0,006
-422,773	-200,000	-0,005	0,121
-421,759	-200,000	0,019	0,100
-420,744	-200,000	0,011	0,092
-419,730	-200,000	-0,021	-0,080
-418,715	141,670	0,039	-0,038
-417,701	12,425	-0,133	-0,075
-416,686	-200,000	0,004	0,023
-415,671	91,330	-0,077	0,064
-414,657	80,918	0,059	0,047
-413,642	33,617	0,045	0,029
-412,628	-200,000	0,040	-0,170
-411,613	-100,492	-0,104	0,019
-410,598	-200,000	-0,005	0,067
-409,584	-23,399	-0,086	-0,038
-408,569	447,155	0,057	0,092
-407,555	-53,645	0,130	0,043
-406,540	69,245	0,097	-0,073
-405,525	-200,000	0,004	-0,067
-404,511	-200,000	0,010	-0,095
-403,496	12,131	0,152	-0,086
-402,482	-27,163	0,055	-0,023
-401,467	71,294	0,077	0,059
-400,452	-200,000	-0,020	-0,069
-399,438	140,938	-0,006	-0,006
-398,423	-200,000	0,001	-0,133
-397,409	800,000	0,087	0,180
-396,394	-59,953	-0,067	-0,021
-395,379	613,126	-0,027	-0,050
-394,365	-200,000	0,005	0,045
-393,350	-200,000	0,018	0,159
-392,336	-109,187	0,069	0,011
-391,321	99,555	0,095	-0,081
-390,306	67,647	0,026	-0,019
-389,292	166,271	-0,092	-0,096
-388,277	244,569	-0,055	-0,068
-387,263	170,064	0,148	-0,156
-386,248	9,264	-0,047	-0,026
-385,233	-200,000	-0,051	0,168
-384,219	-131,792	-0,102	-0,010
-383,204	-200,000	0,014	-0,071
-382,190	66,447	-0,135	-0,100
-381,175	-162,618	0,077	0,003
-380,160	800,000	0,037	-0,111
-379,146	-200,000	-0,012	0,052
-378,131	-84,751	0,110	-0,025
-377,117	800,000	-0,037	-0,111
-376,102	437,490	0,033	-0,053
-375,088	800,000	-0,015	-0,045
-374,073	96,848	0,055	-0,046
-373,058	172,089	-0,126	0,133
-372,044	587,945	0,043	0,077
-371,029	13,106	-0,109	0,062
-370,015	656,841	0,073	0,138
-369,000	-14,159	-0,027	0,013
-367,985	-200,000	-0,008	-0,124
-366,971	-68,123	-0,178	-0,051
-365,956	396,845	-0,017	0,026
-364,942	178,551	0,109	0,117
-363,927	-200,000	0,033	0,125
-362,912	-200,000	-0,002	0,007
-361,898	151,845	-0,029	0,029
-360,883	139,448	-0,059	0,057
-359,869	800,000	0,035	-0,078
-358,854	75,789	0,104	0,081
-357,839	-119,037	0,059	0,008
-356,825	800,000	0,045	0,095
-355,810	-200,000	0,014	-0,068
-354,796	-22,884	-0,050	0,022
-353,781	523,223	0,073	-0,126
-352,766	-158,693	-0,107	0,004
-351,752	-142,210	0,058	-0,004
-350,737	-200,000	0,001	0,099
-349,723	161,474	0,070	0,072
-348,708	-122,327	0,049	-0,006
-347,693	16,010	-0,170	0,098
-346,679	-105,003	-0,133	0,022
-345,664	96,773	-0,115	0,097
-344,650	-200,000	-0,010	-0,052
-343,635	569,718	-0,007	0,012
-342,620	100,124	-0,039	-0,033
-341,606	374,037	-0,084	0,126
-340,591	-174,951	0,021	-0,000
-339,577	740,564	0,008	-0,016
-338,562	800,000	-0,007	0,021
-337,548	-200,000	0,020	0,114
-336,533	339,966	0,014	-0,019
-335,518	800,000	0,030	0,096
-334,504	-200,000	0,005	0,094
-333,489	800,000	0,026	0,063
-332,475	-37,612	0,040	0,016
-331,460	-108,275	-0,142	0,022
-330,445	-112,287	0,143	0,021
-329,431	-64,115	-0,139	-0,041
-328,416	-55,657	-0,048	-0,016
-327,402	800,000	0,030	0,064
-326,387	49,017	-0,015	-0,010
-325,372	-200,000	-0,021	-0,159
-324,358	-103,224	-0,109	-0,019
-323,343	138,697	0,032	-0,031
-322,329	31,767	0,082	-0,052
-321,314	-159,871	-0,105	-0,004
-320,299	-200,000	0,021	0,162
-319,285	-200,000	-0,018	-0,074
-318,270	-200,000	0,011	-0,070
-317,256	800,000	0,029	0,060
-316,241	87,672	0,014	0,011
-315,226	50,434	0,183	0,126
-314,212	408,820	-0,064	0,100
-313,197	-24,052	-0,063	0,028
-312,183	-200,000	0,030	0,106
-311,168	-200,000	0,055	-0,220
-310,153	627,124	-0,060	0,111
-309,139	-200,000	0,023	-0,298
-308,124	800,000	0,042	-0,122
-307,110	77,147	0,034	-0,026
-306,095	-200,000	-0,003	-0,058
-305,080	800,000	0,030	-0,078
-304,066	-10,197	-0,092	-0,044
-303,051	-86,804	-0,105	0,023
-302,037	800,000	-0,037	-0,082
-301,022	-137,866	-0,177	-0,014
-300,008	800,000	-0,005	0,013
-298,993	-168,182	0,164	-0,005
-297,978	-16,685	0,049	0,023
-296,964	-52,517	-0,057	0,019
-295,949	-200,000	0,012	-0,062
-294,935	800,000	0,019	0,047
-293,920	-200,000	0,013	-0,051
-292,905	-158,205	0,073	-0,003
-291,891	-200,000	0,020	-0,105
-290,876	-200,000	0,005	0,104
-289,862	343,362	-0,048	0,069
-288,847	-200,000	0,002	-0,171
-287,832	-19,434	-0,077	-0,035
-286,818	122,010	0,023	0,021
-285,803	-140,522	-0,068	-0,005
-284,789	-31,726	0,140	0,057
-283,774	-42,986	-0,027	-0,010
-282,759	800,000	0,046	0,107
-281,745	68,098	-0,065	-0,048
-280,730	-11,215	-0,123	-0,059
-279,716	800,000	-0,006	0,013
-278,701	-200,000	0,030	0,000
-277,686	245,680	0,061	-0,075
-276,672	-7,341	0,102	-0,050
-275,657	594,441	-0,015	-0,028
-274,643	-91,630	-0,136	0,028
-273,628	47,190	-0,060	-0,041
-272,613	-16,686	-0,112	0,052
-271,599	-200,000	0,017	-0,121
-270,584	-71,478	0,122	0,033
-269,570	170,862	-0,001	-0,001
-268,555	-200,000	-0,033	-0,139
-267,540	-136,303	-0,099	0,008
-266,526	38,034	-0,074	-0,048
-265,511	174,003	-0,030	0,031
-264,497	-166,401	0,112	-0,003
-263,482	106,454	0,022	-0,019
-262,467	-200,000	0,009	0,079
-261,453	343,166	0,152	0,219
-260,438	-138,078	-0,228	-0,018
-259,424	454,855	-0,038	-0,061
-258,409	31,486	-0,042	-0,026
-257,395	-138,758	-0,042	-0,003
-256,380	-200,000	0,025	0,091
-255,365	-103,088	0,122	-0,021
-254,351	522,386	0,042	-0,073
-253,336	347,009	-0,040	-0,058
-252,322	-131,915	-0,073	0,007
-251,307	-143,302	0,075	0,005
-250,292	261,461	-0,028	-0,035
-249,278	-200,000	-0,002	-0,021
-248,263	0,753	-0,028	0,015
-247,249	209,243	0,023	0,026
-246,234	800,000	-0,044	0,110
-245,219	-31,316	-0,134	0,055
-244,205	-200,000	-0,003	0,029
-243,190	641,273	0,023	-0,043
-242,176	-200,000	0,003	-0,072
-241,161	-53,716	0,097	0,032
-240,146	-200,000	-0,046	0,156
-239,132	-200,000	0,005	0,179
-238,117	-200,000	-0,017	0,107
-237,103	-200,000	0,019	-0,064
-236,088	500,167	-0,039	0,066
-235,073	800,000	0,046	-0,099
-234,059	-46,466	-0,132	0,047
-233,044	-138,235	0,005	-0,000
-232,030	-184,827	0,017	0,000
-231,015	-114,491	-0,097	0,013
-230,000	98,778	0,066	-0,056
-228,986	56,466	0,076	-0,054
-227,971	800,000	0,019	-0,060
-226,957	-200,000	0,079	0,000
-225,942	800,000	-0,028	0,060
-224,927	52,893	-0,043	-0,030
-223,913	-141,602	-0,076	0,005
-222,898	-22,686	-0,034	-0,015
-221,884	141,800	-0,125	0,121
-220,869	559,385	0,083	0,146
-219,855	764,303	-0,058	-0,116
-218,840	-139,772	0,031	-0,002
-217,825	1,099	-0,129	0,067
-216,811	269,098	-0,076	-0,098
-215,796	461,230	-0,062	-0,101
-214,782	800,000	0,032	-0,075
-213,767	-128,083	-0,188	-0,019
-212,752	650,445	-0,012	-0,022
-211,738	61,764	0,107	-0,078
-210,723	-200,000	0,010	-0,035
-209,709	40,422	0,020	-0,013
-208,694	-200,000	-0,021	-0,088
-207,679	-94,090	0,068	0,013
-206,665	-111,717	0,081	0,012
-205,650	-142,764	0,087	-0,006
-204,636	268,376	0,059	0,076
-203,621	800,000	0,050	0,111
-202,606	-200,000	-0,032	0,105
-201,592	37,076	-0,082	-0,053
-200,577	-200,000	-0,190	0,000
-199,563	-14,068	0,126	0,059
-198,548	8,724	0,098	0,054
-197,533	-98,347	0,160	-0,030
-196,519	-200,000	-0,002	0,106
-195,504	800,000	-0,015	-0,039
-194,490	-4,436	-0,030	-0,015
-193,475	243,228	-0,034	0,041
-192,460	686,175	-0,041	0,078
-191,446	562,316	-0,065	0,115
-190,431	-179,728	0,134	0,002
-189,417	62,643	-0,055	0,040
-188,402	-157,308	-0,204	-0,009
-187,387	33,466	-0,029	-0,018
-186,373	153,633	-0,065	-0,065
-185,358	800,000	0,036	-0,078
-184,344	800,000	-0,039	0,085
-183,329	274,675	0,025	0,032
-182,315	106,867	0,105	0,091
-181,300	-54,352	-0,014	-0,004
-180,285	78,184	0,055	-0,043
-179,271	315,608	0,015	-0,020
-178,256	87,211	-0,058	-0,047
-177,242	-60,918	0,050	-0,015
-176,227	177,641	0,020	0,021
-175,212	378,989	0,138	0,206
-174,198	157,697	-0,098	0,099
-173,183	361,147	0,039	-0,056
-172,169	800,000	-0,052	-0,114
-171,154	15,997	0,020	-0,012
-170,139	251,007	0,054	-0,066
-169,125	-200,000	-0,013	0,147
-168,110	800,000	0,046	0,132
-167,096	117,584	0,069	0,062
-166,081	45,093	0,064	0,043
-165,066	461,826	0,069	-0,113
-164,052	800,000	0,043	0,127
-163,037	800,000	0,059	0,135
-162,023	-93,992	0,091	0,018
-161,008	-40,995	-0,070	-0,026
-159,993	160,591	0,093	-0,094
-158,979	-56,863	-0,077	0,025
-157,964	497,596	0,044	-0,074
-156,950	99,700	-0,124	-0,105
-155,935	-85,664	0,029	-0,007
-154,920	-200,000	-0,031	0,106
-153,906	-99,259	0,067	0,012
-152,891	-200,000	-0,006	-0,106
-151,877	800,000	0,012	-0,033
-150,862	-107,320	0,054	0,009
-149,847	800,000	0,013	-0,036
-148,833	-122,295	0,106	-0,012
-147,818	179,519	0,079	-0,084
-146,804	-200,000	-0,003	-0,094
-145,789	-200,000	-0,009	-0,033
-144,775	800,000	0,045	0,117
-143,760	-200,000	0,001	-0,095
-142,745	-113,069	0,053	-0,008
-141,731	-1,076	0,063	0,032
-140,716	-200,000	0,033	0,138
-139,702	800,000	-0,051	0,103
-138,687	-200,000	0,011	0,094
-137,672	800,000	-0,020	0,042
-136,658	348,844	-0,012	0,017
-135,643	259,037	0,025	-0,031
-134,629	49,698	-0,055	-0,038
-133,614	-200,000	-0,006	0,090
-132,599	-200,000	-0,009	0,101
-131,585	41,691	-0,058	-0,038
-130,570	117,310	0,031	0,028
-129,556	53,526	-0,079	-0,055
-128,541	-52,516	-0,100	-0,033
-127,526	800,000	0,025	0,056
-126,512	-200,000	-0,061	0,218
-125,497	-200,000	-0,004	0,059
-124,483	-48,871	0,031	-0,011
-123,468	-147,139	-0,159	0,010
-122,453	375,566	0,032	0,047
-121,439	69,433	-0,075	-0,056
-120,424	6,016	0,060	0,032
