DTS Sentinel unit serial number:	SN410029Multiplexer serial number:	ORYXHardware model number:	OX2-SRSoftware version number:	ORYX F/W v4,00 Oryx Data Collector v3.7.2.0data status	okinstallation	B6 Nyhavnadifferential loss correction	single-endedforward channel	channel 2reverse channel	N/Adate	2023/12/08time	12:55:08forward acquisition time	300,00reverse acquisition time	0,00gamma	499,1914k internal	0,3159k external	0,3159temperature offset calibration	1,0000default loss term (dB/km)	0,3820temperature slope calibration	1,0000multiplexer offset coefficient	1,0000multiplexer slope coefficient	1,0000fibre end	0,00T internal ref (°C)	15,06T ext. ref 1 (°C)	-1,54T ext. ref 2 (°C)	-1,53length (m)	temperature (°C)	Stokes	anti-Stokes-744,400	3,102	0,071	0,038
-743,385	20,205	-0,126	0,075
-742,371	76,044	0,098	0,077
-741,356	-145,268	-0,246	-0,016
-740,342	0,542	0,029	-0,015
-739,327	-110,120	-0,223	-0,034
-738,312	-103,406	0,100	0,017
-737,298	-48,691	-0,458	-0,161
-736,283	-12,173	0,139	-0,067
-735,269	-131,951	-0,377	-0,036
-734,254	127,248	0,118	0,111
-733,239	-11,810	-0,414	-0,199
-732,225	150,835	0,145	0,146
-731,210	-200,000	0,037	0,168
-730,196	-200,000	-0,052	0,000
-729,181	-72,314	-0,075	-0,020
-728,167	-200,000	0,001	-0,035
-727,152	-22,969	-0,059	0,026
-726,137	151,360	-0,134	0,134
-725,123	748,626	-0,025	-0,051
-724,108	-11,169	-0,070	-0,034
-723,094	-27,090	-0,165	-0,070
-722,079	-200,000	0,006	-0,153
-721,064	-164,879	0,213	0,007
-720,050	416,674	-0,045	-0,071
-719,035	57,520	-0,070	0,050
-718,021	-200,000	0,008	-0,042
-717,006	-165,277	-0,079	-0,003
-715,991	-160,192	-0,147	0,006
-714,977	-200,000	-0,043	-0,177
-713,962	-95,197	-0,060	0,012
-712,948	186,252	0,058	0,063
-711,933	38,878	0,085	-0,056
-710,918	388,645	-0,029	-0,045
-709,904	-125,024	0,125	-0,014
-708,889	63,597	-0,105	0,077
-707,875	-135,317	-0,065	-0,006
-706,860	225,187	0,060	-0,071
-705,845	-14,761	0,044	0,021
-704,831	64,144	0,092	-0,068
-703,816	-67,945	0,050	0,014
-702,802	177,221	0,037	-0,040
-701,787	800,000	-0,011	-0,024
-700,772	800,000	-0,021	-0,062
-699,758	800,000	-0,079	-0,166
-698,743	154,898	0,067	0,068
-697,729	800,000	-0,028	0,071
-696,714	72,714	-0,094	0,072
-695,699	608,910	0,005	0,010
-694,685	417,469	-0,012	-0,019
-693,670	119,181	-0,088	-0,080
-692,656	-19,706	0,152	-0,069
-691,641	332,375	0,059	0,084
-690,627	195,407	-0,053	0,060
-689,612	306,581	0,038	0,052
-688,597	-39,662	0,122	0,047
-687,583	-102,097	-0,095	-0,017
-686,568	283,312	-0,076	-0,101
-685,554	160,884	-0,132	0,136
-684,539	-200,000	-0,025	0,088
-683,524	800,000	0,029	0,082
-682,510	154,444	-0,063	0,063
-681,495	-200,000	0,014	-0,171
-680,481	238,579	-0,093	-0,114
-679,466	48,647	-0,143	-0,099
-678,451	-27,224	0,056	0,024
-677,437	800,000	0,056	0,121
-676,422	-200,000	0,019	-0,067
-675,408	49,714	0,125	0,086
-674,393	-200,000	-0,003	-0,101
-673,378	800,000	-0,034	-0,073
-672,364	-8,142	-0,097	-0,048
-671,349	402,660	0,071	-0,110
-670,335	-200,000	-0,013	-0,100
-669,320	752,056	-0,019	-0,039
-668,305	-121,201	0,106	0,013
-667,291	-14,149	-0,079	0,037
-666,276	-179,386	-0,032	0,001
-665,262	-200,000	0,036	-0,143
-664,247	-98,573	0,193	0,036
-663,232	800,000	-0,048	-0,139
-662,218	-200,000	-0,012	0,075
-661,203	229,261	0,053	0,063
-660,189	-200,000	-0,008	0,030
-659,174	-170,959	-0,122	-0,003
-658,159	86,262	-0,045	0,037
-657,145	-5,634	-0,204	-0,102
-656,130	-200,000	0,021	-0,159
-655,116	800,000	-0,035	-0,090
-654,101	-21,992	0,114	0,051
-653,086	116,357	-0,122	0,110
-652,072	33,010	-0,018	-0,011
-651,057	31,355	-0,119	-0,075
-650,043	318,590	-0,013	0,018
-649,028	-170,199	0,198	-0,005
-648,014	203,548	-0,085	0,096
-646,999	-200,000	-0,022	-0,118
-645,984	-98,229	-0,029	0,005
-644,970	-200,000	0,002	0,091
-643,955	-200,000	0,025	0,098
-642,941	14,265	-0,195	-0,112
-641,926	20,930	0,101	-0,060
-640,911	-161,164	-0,165	0,006
-639,897	800,000	-0,032	-0,079
-638,882	-172,557	0,116	0,003
-637,868	-43,176	-0,210	-0,078
-636,853	460,004	-0,054	-0,089
-635,838	116,902	-0,154	-0,139
-634,824	-200,000	0,019	-0,104
-633,809	800,000	0,032	0,095
-632,795	86,000	0,109	-0,088
-631,780	800,000	-0,026	0,066
-630,765	-28,548	0,140	-0,059
-629,751	800,000	-0,036	-0,088
-628,736	181,105	-0,068	-0,074
-627,722	41,180	0,130	0,086
-626,707	-42,928	-0,068	0,025
-625,692	248,260	0,093	-0,116
-624,678	541,242	-0,029	-0,050
-623,663	-38,145	-0,078	-0,030
-622,649	234,182	-0,097	0,117
-621,634	-40,007	0,075	-0,029
-620,619	-200,000	-0,004	0,057
-619,605	405,440	-0,043	-0,067
-618,590	86,325	0,089	0,072
-617,576	73,085	0,035	-0,027
-616,561	-200,000	-0,003	0,036
-615,546	135,565	0,045	-0,043
-614,532	460,358	0,066	-0,109
-613,517	336,832	-0,010	0,014
-612,503	-54,310	-0,030	0,010
-611,488	-184,202	-0,042	0,001
-610,474	-200,000	0,047	-0,163
-609,459	-152,023	-0,026	0,001
-608,444	-200,000	-0,007	-0,144
-607,430	438,787	-0,048	0,077
-606,415	330,009	0,041	0,057
-605,401	-200,000	0,010	0,075
-604,386	800,000	-0,029	0,087
-603,371	-69,157	-0,044	0,012
-602,357	-200,000	-0,020	0,075
-601,342	-66,813	0,111	-0,032
-600,328	-158,953	0,057	0,002
-599,313	-118,452	-0,137	0,018
-598,298	56,123	0,038	0,027
-597,284	800,000	0,007	0,015
-596,269	-200,000	-0,009	0,045
-595,255	800,000	-0,040	0,103
-594,240	240,168	-0,039	-0,047
-593,225	-86,653	-0,025	-0,006
-592,211	-200,000	0,015	-0,057
-591,196	-200,000	-0,030	0,102
-590,182	-66,504	-0,015	0,004
-589,167	485,779	0,045	-0,075
-588,152	228,206	-0,069	0,082
-587,138	-24,604	-0,066	0,029
-586,123	595,193	-0,073	-0,133
-585,109	-101,326	-0,091	0,016
-584,094	-126,601	0,059	0,006
-583,079	800,000	0,021	0,045
-582,065	701,974	-0,025	-0,048
-581,050	-175,046	-0,133	0,003
-580,036	-200,000	0,019	0,114
-579,021	-142,502	-0,139	-0,010
-578,006	-23,413	0,025	-0,011
-576,992	155,436	-0,036	0,036
-575,977	-41,237	0,083	-0,031
-574,963	80,391	-0,078	-0,061
-573,948	-92,731	0,063	-0,013
-572,934	-109,351	-0,040	-0,006
-571,919	-27,805	-0,094	-0,040
-570,904	593,244	-0,052	-0,094
-569,890	-82,669	-0,129	-0,030
-568,875	800,000	0,020	0,049
-567,861	429,872	0,046	-0,074
-566,846	77,914	0,035	0,027
-565,831	307,942	-0,055	0,075
-564,817	148,419	-0,030	0,030
-563,802	101,600	-0,029	0,025
-562,788	39,390	-0,157	0,103
-561,773	337,621	-0,038	-0,055
-560,758	22,279	0,090	0,054
-559,744	800,000	-0,034	-0,089
-558,729	1,981	-0,140	0,074
-557,715	-200,000	0,009	-0,170
-556,700	-200,000	0,009	-0,034
-555,685	-49,252	-0,169	-0,059
-554,671	-200,000	-0,074	-0,000
-553,656	-60,708	-0,080	0,025
-552,642	-115,397	0,011	-0,002
-551,627	136,558	0,070	-0,067
-550,612	-200,000	0,010	-0,102
-549,598	333,150	0,051	-0,072
-548,583	167,625	-0,042	0,044
-547,569	-0,428	0,093	-0,048
-546,554	-200,000	-0,022	-0,097
-545,539	-200,000	0,013	0,109
-544,525	-84,831	0,171	0,039
-543,510	590,846	0,028	0,051
-542,496	-122,996	-0,046	-0,005
-541,481	269,526	-0,046	-0,059
-540,466	-200,000	0,005	0,093
-539,452	-2,160	0,140	0,072
-538,437	-55,237	0,093	0,030
-537,423	96,369	-0,059	0,049
-536,408	219,524	-0,058	0,068
-535,393	-127,402	-0,147	-0,015
-534,379	206,127	0,053	-0,060
-533,364	-200,000	-0,007	-0,070
-532,350	-153,448	0,187	-0,009
-531,335	258,540	-0,110	0,139
-530,321	-9,908	-0,078	0,038
-529,306	800,000	0,030	-0,067
-528,291	-200,000	-0,012	-0,100
-527,277	-200,000	-0,020	0,105
-526,262	-200,000	-0,006	0,042
-525,248	69,653	-0,033	0,025
-524,233	310,207	0,079	0,109
-523,218	800,000	-0,051	0,108
-522,204	369,642	0,067	-0,099
-521,189	361,752	0,047	-0,070
-520,175	-200,000	-0,006	-0,055
-519,160	-200,000	-0,022	-0,088
-518,145	-200,000	-0,010	-0,137
-517,131	-200,000	0,037	0,130
-516,116	85,052	0,046	-0,037
-515,102	-129,258	0,036	0,004
-514,087	144,917	-0,101	-0,099
-513,072	7,326	0,035	0,019
-512,058	129,182	-0,053	-0,050
-511,043	-141,529	0,038	0,003
-510,029	800,000	-0,031	0,091
-509,014	359,832	0,038	0,055
-507,999	800,000	-0,016	0,045
-506,985	214,257	-0,100	-0,116
-505,970	-23,548	-0,006	0,003
-504,956	-200,000	0,009	0,032
-503,941	-114,045	0,092	0,013
-502,926	-72,325	0,026	-0,007
-501,912	-200,000	0,014	-0,063
-500,897	-138,439	0,054	-0,004
-499,883	138,817	-0,059	0,057
-498,868	-112,310	0,079	0,011
-497,853	800,000	-0,047	0,119
-496,839	-200,000	0,014	-0,097
-495,824	800,000	-0,029	0,082
-494,810	800,000	-0,037	0,091
-493,795	800,000	0,027	0,079
-492,781	800,000	-0,063	0,139
-491,766	27,790	-0,045	0,028
-490,751	-129,283	-0,022	-0,002
-489,737	-11,007	0,119	-0,057
-488,722	393,522	-0,062	-0,094
-487,708	48,473	0,043	-0,029
-486,693	-200,000	0,001	0,024
-485,678	468,726	-0,082	-0,136
-484,664	-200,000	-0,018	-0,076
-483,649	341,449	-0,050	-0,072
-482,635	162,314	0,113	0,116
-481,620	79,846	0,042	-0,033
-480,605	42,163	0,041	0,027
-479,591	800,000	0,028	-0,071
-478,576	800,000	-0,040	-0,083
-477,562	129,163	-0,027	0,025
-476,547	-121,848	-0,138	0,016
-475,532	-59,589	0,179	0,056
-474,518	391,904	-0,049	-0,074
-473,503	108,642	-0,085	-0,074
-472,489	-200,000	-0,009	-0,088
-471,474	-200,000	-0,011	-0,092
-470,459	244,887	-0,029	-0,036
-469,445	418,843	0,044	-0,069
-468,430	-111,544	0,031	-0,004
-467,416	109,085	-0,042	0,037
-466,401	-9,550	0,041	0,020
-465,386	4,942	0,069	0,037
-464,372	10,072	0,182	-0,101
-463,357	340,083	-0,031	0,045
-462,343	52,331	0,087	-0,060
-461,328	23,776	-0,129	-0,077
-460,313	-200,000	-0,009	0,151
-459,299	-200,000	-0,033	0,128
-458,284	207,318	-0,014	0,016
-457,270	-200,000	0,008	0,143
-456,255	87,448	0,077	-0,062
-455,241	-37,148	-0,108	-0,042
-454,226	-200,000	0,015	-0,071
-453,211	-200,000	0,000	0,024
-452,197	800,000	0,026	0,063
-451,182	-200,000	-0,038	0,129
-450,168	15,340	0,028	-0,016
-449,153	12,115	0,111	-0,062
-448,138	-73,238	-0,060	-0,016
-447,124	8,264	-0,082	0,045
-446,109	-16,038	-0,065	-0,030
-445,095	385,501	0,037	-0,057
-444,080	-200,000	0,007	-0,023
-443,065	-108,233	-0,004	-0,001
-442,051	385,928	-0,015	-0,022
-441,036	3,637	0,097	-0,052
-440,022	-74,307	-0,065	-0,017
-439,007	-91,809	0,076	-0,016
-437,992	1,790	0,112	0,059
-436,978	-200,000	0,001	0,097
-435,963	800,000	-0,045	0,135
-434,949	-200,000	0,020	0,075
-433,934	-200,000	0,001	0,006
-432,919	19,424	-0,179	-0,104
-431,905	800,000	-0,038	-0,094
-430,890	59,875	-0,061	0,044
-429,876	9,956	0,032	0,018
-428,861	800,000	0,048	0,115
-427,846	-6,130	0,079	-0,039
-426,832	-200,000	-0,022	-0,090
-425,817	665,592	-0,013	-0,024
-424,803	316,722	-0,075	-0,103
-423,788	212,660	-0,009	0,010
-422,773	-28,593	0,146	0,061
-421,759	561,374	-0,060	-0,106
-420,744	-165,943	-0,080	0,002
-419,730	-7,651	-0,074	0,036
-418,715	800,000	0,027	-0,072
-417,701	-50,994	-0,100	-0,034
-416,686	-46,918	0,051	0,018
-415,671	95,827	-0,045	0,037
-414,657	800,000	-0,025	0,052
-413,642	800,000	-0,061	0,124
-412,628	-200,000	0,019	-0,090
-411,613	60,263	-0,054	-0,039
-410,598	401,963	-0,031	0,047
-409,584	125,917	0,090	0,083
-408,569	33,953	-0,033	0,021
-407,555	72,898	0,149	-0,113
-406,540	-48,865	0,176	-0,061
-405,525	-200,000	-0,010	-0,126
-404,511	12,012	0,040	-0,022
-403,496	-163,857	0,038	-0,001
-402,482	19,300	-0,078	-0,046
-401,467	800,000	-0,017	0,036
-400,452	800,000	-0,030	0,076
-399,438	-200,000	0,048	-0,200
-398,423	-144,902	-0,027	-0,002
-397,409	-53,840	-0,127	0,042
-396,394	-200,000	0,022	-0,111
-395,379	148,711	-0,037	-0,036
-394,365	-192,765	0,056	-0,000
-393,350	-111,932	-0,072	0,010
-392,336	223,930	0,046	0,054
-391,321	-94,340	0,038	-0,008
-390,306	-42,149	0,024	0,009
-389,292	210,431	0,047	0,053
-388,277	152,833	-0,026	-0,026
-387,263	115,295	-0,069	0,061
-386,248	800,000	0,039	0,103
-385,233	-30,894	-0,028	0,011
-384,219	-200,000	-0,013	0,049
-383,204	105,598	-0,063	0,054
-382,190	35,902	0,058	-0,037
-381,175	800,000	-0,031	0,066
-380,160	162,330	0,045	-0,046
-379,146	-200,000	-0,014	0,075
-378,131	-159,297	0,164	0,007
-377,117	45,578	0,055	0,037
-376,102	-62,202	0,117	-0,035
-375,088	138,686	-0,014	0,013
-374,073	194,374	-0,058	0,064
-373,058	46,656	-0,062	0,042
-372,044	-122,732	0,038	-0,004
-371,029	294,321	-0,055	0,073
-370,015	-200,000	0,027	-0,119
-369,000	634,944	-0,093	-0,171
-367,985	8,955	-0,073	-0,040
-366,971	260,050	-0,029	0,037
-365,956	800,000	-0,027	-0,078
-364,942	372,129	0,030	-0,045
-363,927	628,922	0,027	0,051
-362,912	57,993	-0,089	0,063
-361,898	4,397	-0,072	-0,038
-360,883	-73,805	-0,058	-0,015
-359,869	301,725	0,064	-0,087
-358,854	-154,831	0,102	0,005
-357,839	537,438	-0,032	0,055
-356,825	-93,569	0,071	-0,014
-355,810	-50,625	-0,097	0,033
-354,796	-24,927	0,130	-0,056
-353,781	545,609	-0,049	-0,086
-352,766	-59,297	-0,130	-0,040
-351,752	28,287	0,082	0,050
-350,737	151,144	0,065	0,065
-349,723	-200,000	0,014	-0,067
-348,708	92,044	0,081	0,066
-347,693	188,765	-0,065	0,071
-346,679	-55,526	-0,057	0,019
-345,664	170,930	0,035	0,037
-344,650	-48,386	0,200	-0,069
-343,635	238,702	0,013	0,016
-342,620	-200,000	0,010	-0,064
-341,606	-200,000	0,012	-0,066
-340,591	13,518	0,059	-0,033
-339,577	-131,104	0,143	-0,014
-338,562	67,494	0,025	0,018
-337,548	800,000	0,038	-0,094
-336,533	-133,379	0,092	0,008
-335,518	-200,000	0,039	0,134
-334,504	458,203	0,081	-0,130
-333,489	800,000	0,029	0,061
-332,475	393,601	-0,101	-0,153
-331,460	-8,723	-0,029	-0,014
-330,445	-0,157	-0,026	-0,013
-329,431	-76,753	0,044	0,011
-328,416	-200,000	0,060	0,198
-327,402	64,889	0,128	0,093
-326,387	115,581	-0,063	0,056
-325,372	-200,000	-0,013	-0,062
-324,358	-61,027	-0,122	0,037
-323,343	148,933	0,028	-0,027
-322,329	-50,071	-0,136	0,046
-321,314	-83,759	0,185	0,043
-320,299	132,791	0,078	0,073
-319,285	800,000	-0,023	0,059
-318,270	-200,000	0,010	0,107
-317,256	234,169	0,061	-0,073
-316,241	26,584	0,076	0,046
-315,226	-200,000	-0,010	-0,037
-314,212	-3,202	0,079	0,040
-313,197	-200,000	-0,030	0,146
-312,183	-119,534	0,036	0,004
-311,168	-200,000	0,019	-0,082
-310,153	-200,000	0,009	0,100
-309,139	800,000	0,023	-0,065
-308,124	-200,000	-0,010	-0,033
-307,110	-200,000	-0,044	0,156
-306,095	78,382	0,095	0,074
-305,080	540,266	-0,023	-0,041
-304,066	390,470	0,081	-0,122
-303,051	-196,624	-0,084	0,000
-302,037	63,734	-0,041	-0,030
-301,022	-34,210	-0,015	-0,006
-300,008	800,000	0,038	-0,104
-298,993	-200,000	0,024	-0,077
-297,978	39,098	0,054	0,035
-296,964	-99,560	0,034	0,006
-295,949	-200,000	0,016	0,127
-294,935	366,310	-0,064	0,094
-293,920	-200,000	-0,016	-0,147
-292,905	69,982	0,083	-0,062
-291,891	-109,593	0,074	-0,011
-290,876	89,762	0,149	0,121
-289,862	-200,000	0,001	0,052
-288,847	432,555	-0,043	-0,068
-287,832	-10,203	-0,097	-0,047
-286,818	67,476	-0,062	-0,046
-285,803	730,072	0,032	0,062
-284,789	-200,000	0,001	0,184
-283,774	800,000	-0,038	0,081
-282,759	-141,036	0,090	0,007
-281,745	216,593	0,113	0,131
-280,730	-200,000	-0,010	-0,108
-279,716	-198,328	-0,091	0,000
-278,701	800,000	0,045	-0,113
-277,686	-200,000	0,015	0,090
-276,672	62,856	0,034	-0,024
-275,657	-130,831	0,083	0,008
-274,643	-200,000	0,004	-0,066
-273,628	709,904	-0,036	-0,070
-272,613	-50,453	-0,105	0,036
-271,599	-36,814	0,080	-0,031
-270,584	-85,756	0,060	-0,013
-269,570	115,930	-0,039	0,034
-268,555	-67,217	0,097	0,027
-267,540	-116,524	-0,201	-0,027
-266,526	351,783	0,083	0,120
-265,511	40,637	-0,079	-0,051
-264,497	-70,648	0,089	0,024
-263,482	-50,855	-0,034	-0,011
-262,467	-200,000	0,016	0,065
-261,453	800,000	-0,044	-0,099
-260,438	267,849	-0,045	-0,057
-259,424	-76,109	-0,096	0,024
-258,409	421,319	-0,011	-0,017
-257,395	-137,630	-0,126	-0,010
-256,380	-200,000	0,022	0,114
-255,365	84,679	0,043	-0,034
-254,351	-200,000	-0,024	0,126
-253,336	14,738	-0,106	0,060
-252,322	-38,796	0,054	-0,020
-251,307	173,759	-0,068	0,071
-250,292	105,075	0,045	-0,039
-249,278	51,008	0,055	0,038
-248,263	800,000	0,042	0,112
-247,249	37,441	0,062	-0,040
-246,234	83,092	-0,083	0,065
-245,219	146,578	-0,082	-0,080
-244,205	360,130	-0,117	-0,169
-243,190	-200,000	-0,020	0,101
-242,176	172,159	0,050	0,052
-241,161	17,169	0,094	0,054
-240,146	800,000	0,030	-0,089
-239,132	40,761	-0,057	0,037
-238,117	5,555	0,036	-0,019
-237,103	-200,000	0,018	-0,129
-236,088	272,237	-0,039	-0,050
-235,073	102,476	0,033	-0,028
-234,059	-74,831	0,096	0,025
-233,044	-200,000	0,045	0,167
-232,030	-18,121	0,036	0,016
-231,015	170,813	0,009	-0,009
-230,000	-200,000	-0,002	0,031
-228,986	264,774	-0,042	0,053
-227,971	-200,000	0,000	0,138
-226,957	48,050	-0,042	0,028
-225,942	542,870	0,081	0,139
-224,927	-200,000	-0,010	0,062
-223,913	-200,000	0,014	0,103
-222,898	-200,000	-0,005	-0,105
-221,884	-200,000	-0,020	-0,172
-220,869	121,907	0,064	0,057
-219,855	-200,000	0,018	-0,106
-218,840	800,000	0,097	0,222
-217,825	-107,474	-0,089	-0,014
-216,811	-200,000	0,003	-0,125
-215,796	-146,887	-0,022	0,001
-214,782	142,282	0,079	0,075
-213,767	-77,101	0,104	-0,026
-212,752	-200,000	0,003	0,074
-211,738	316,936	0,012	0,016
-210,723	-96,728	0,069	0,013
-209,709	-114,558	0,059	-0,008
-208,694	-57,081	-0,100	-0,032
-207,679	-46,562	-0,116	-0,041
-206,665	-90,851	-0,087	-0,018
-205,650	-200,000	-0,010	0,042
-204,636	800,000	-0,037	0,074
-203,621	354,392	-0,024	-0,035
-202,606	691,118	0,008	0,016
-201,592	85,464	-0,058	0,046
-200,577	280,672	-0,040	-0,052
-199,563	-140,426	-0,015	-0,001
-198,548	-13,354	-0,069	-0,032
-197,533	13,326	-0,094	-0,052
-196,519	145,010	0,072	0,070
-195,504	800,000	0,029	-0,064
-194,490	-200,000	0,043	-0,179
-193,475	334,750	-0,074	-0,104
-192,460	713,960	0,057	-0,109
-191,446	800,000	0,023	-0,056
-190,431	-200,000	-0,004	0,114
-189,417	178,179	-0,056	0,059
-188,402	-200,000	-0,013	0,046
-187,387	-45,474	-0,098	-0,035
-186,373	-92,476	0,151	0,030
-185,358	-108,126	-0,054	0,008
-184,344	-200,000	0,025	0,175
-183,329	81,466	0,105	-0,082
-182,315	800,000	0,063	0,159
-181,300	-63,901	0,049	-0,014
-180,285	733,436	-0,081	-0,157
-179,271	-200,000	0,005	-0,023
-178,256	-172,640	0,149	-0,003
-177,242	-186,852	0,084	0,001
-176,227	68,061	-0,055	-0,040
-175,212	800,000	0,031	0,086
-174,198	38,968	0,108	-0,070
-173,183	100,396	-0,080	0,067
-172,169	-200,000	0,003	0,025
-171,154	-200,000	-0,008	-0,118
-170,139	28,350	0,040	-0,024
-169,125	800,000	-0,016	0,039
-168,110	800,000	0,058	0,141
-167,096	800,000	-0,024	-0,067
-166,081	21,567	-0,129	-0,076
-165,066	101,861	-0,019	-0,016
-164,052	194,197	0,136	-0,148
-163,037	-0,645	0,076	0,039
-162,023	800,000	-0,018	0,056
-161,008	-200,000	0,050	0,162
-159,993	554,495	0,019	0,032
-158,979	-83,105	-0,179	-0,041
-157,964	-149,631	-0,018	0,001
-156,950	414,097	-0,088	-0,136
-155,935	-19,771	0,069	0,030
-154,920	374,088	0,074	0,108
-153,906	11,109	-0,091	0,050
-152,891	14,756	-0,077	-0,043
-151,877	-200,000	-0,030	-0,122
-150,862	-179,208	-0,182	-0,003
-149,847	332,254	-0,061	-0,086
-148,833	193,972	-0,103	-0,112
-147,818	-200,000	0,011	0,097
-146,804	-49,265	0,053	0,018
-145,789	468,754	0,076	0,123
-144,775	-110,394	-0,059	-0,009
-143,760	497,044	-0,126	-0,210
-142,745	800,000	-0,072	-0,158
-141,731	-200,000	0,019	-0,152
-140,716	-85,442	-0,037	-0,008
-139,702	-35,063	-0,164	0,064
-138,687	-6,210	0,137	0,067
-137,672	-200,000	-0,010	0,045
-136,658	88,285	-0,033	-0,027
-135,643	3,153	0,081	-0,042
-134,629	800,000	0,027	-0,063
-133,614	69,435	0,057	0,042
-132,599	231,056	0,071	0,084
-131,585	-173,664	0,054	-0,001
-130,570	45,089	-0,026	-0,017
-129,556	-109,212	-0,127	0,019
-128,541	800,000	0,014	-0,037
-127,526	654,936	-0,046	-0,086
-126,512	-130,066	0,021	0,002
-125,497	800,000	0,030	-0,079
-124,483	432,608	-0,032	-0,051
-123,468	800,000	-0,016	-0,050
-122,453	212,800	-0,080	0,090
-121,439	-200,000	0,028	-0,154
-120,424	-200,000	0,021	-0,077
-119,410	-84,182	-0,116	-0,026
