DTS Sentinel unit serial number:	SN410029Multiplexer serial number:	ORYXHardware model number:	OX2-SRSoftware version number:	ORYX F/W v4,00 Oryx Data Collector v3.7.2.0data status	okinstallation	B6 Nyhavnadifferential loss correction	single-endedforward channel	channel 2reverse channel	N/Adate	2023/12/10time	04:35:08forward acquisition time	300,00reverse acquisition time	0,00gamma	499,1914k internal	0,3125k external	0,3125temperature offset calibration	1,0000default loss term (dB/km)	0,3820temperature slope calibration	1,0000multiplexer offset coefficient	1,0000multiplexer slope coefficient	1,0000fibre end	0,00T internal ref (°C)	22,21T ext. ref 1 (°C)	6,29T ext. ref 2 (°C)	6,25length (m)	temperature (°C)	Stokes	anti-Stokes-744,400	130,325	0,103	-0,099
-743,385	492,063	-0,111	0,190
-742,371	-12,103	0,041	0,020
-741,356	59,118	-0,264	0,193
-740,342	228,761	0,056	0,068
-739,327	164,336	-0,153	0,161
-738,312	-200,000	-0,034	-0,186
-737,298	-167,305	-0,075	-0,002
-736,283	-48,225	0,087	0,031
-735,269	-98,329	-0,302	0,057
-734,254	267,489	-0,056	-0,073
-733,239	-75,244	-0,420	-0,111
-732,225	139,012	-0,055	0,054
-731,210	54,236	-0,053	0,038
-730,196	217,116	0,011	-0,013
-729,181	-200,000	-0,004	-0,025
-728,167	-10,903	-0,097	0,047
-727,152	-133,732	-0,048	0,004
-726,137	-11,751	-0,166	-0,081
-725,123	-200,000	-0,060	-0,236
-724,108	252,037	-0,070	-0,088
-723,094	287,071	-0,075	-0,101
-722,079	-64,150	-0,145	-0,044
-721,064	-58,176	-0,087	0,028
-720,050	-162,357	0,061	0,002
-719,035	-89,077	0,062	-0,014
-718,021	10,402	-0,055	0,031
-717,006	-73,007	-0,120	-0,033
-715,991	86,527	-0,055	0,045
-714,977	800,000	-0,064	-0,145
-713,962	-169,469	-0,128	0,003
-712,948	-74,282	0,008	0,002
-711,933	590,338	-0,028	0,052
-710,918	-168,429	0,214	-0,006
-709,904	388,836	-0,037	0,056
-708,889	-157,092	-0,125	0,006
-707,875	-36,412	0,051	0,020
-706,860	-88,420	0,142	0,031
-705,845	800,000	-0,038	0,116
-704,831	-57,979	-0,063	-0,020
-703,816	412,376	-0,053	-0,083
-702,802	-200,000	-0,009	0,037
-701,787	68,270	-0,071	-0,054
-700,772	-97,957	-0,077	0,015
-699,758	60,645	0,057	0,042
-698,743	-200,000	-0,002	0,107
-697,729	71,887	-0,031	-0,024
-696,714	-200,000	-0,035	-0,161
-695,699	144,063	-0,095	-0,095
-694,685	33,858	-0,123	-0,079
-693,670	-60,810	-0,170	-0,053
-692,656	82,541	-0,117	-0,095
-691,641	-80,394	-0,011	-0,003
-690,627	231,902	0,093	0,113
-689,612	-25,722	0,061	0,027
-688,597	106,496	0,044	-0,039
-687,583	24,643	-0,141	0,087
-686,568	303,395	0,048	-0,066
-685,554	416,232	-0,115	-0,183
-684,539	54,695	-0,238	0,171
-683,524	158,037	0,124	0,128
-682,510	425,883	-0,063	-0,102
-681,495	-200,000	-0,008	0,040
-680,481	800,000	-0,033	-0,086
-679,466	48,905	-0,229	-0,159
-678,451	175,107	-0,017	0,018
-677,437	-89,139	0,053	-0,011
-676,422	800,000	0,028	0,089
-675,408	112,858	-0,057	-0,051
-674,393	22,636	-0,060	0,036
-673,378	222,727	0,107	-0,129
-672,364	-200,000	-0,001	-0,056
-671,349	800,000	0,044	-0,132
-670,335	317,085	0,015	0,022
-669,320	-5,367	-0,128	0,065
-668,305	-81,077	-0,083	-0,020
-667,291	45,252	-0,172	-0,118
-666,276	104,785	0,178	-0,156
-665,262	-75,840	-0,227	-0,059
-664,247	-184,268	0,121	-0,001
-663,232	89,131	0,119	-0,098
-662,218	409,136	-0,038	-0,060
-661,203	66,910	0,053	0,040
-660,189	-110,011	0,004	-0,001
-659,174	-200,000	-0,005	-0,047
-658,159	291,784	0,067	-0,091
-657,145	173,409	-0,071	-0,076
-656,130	39,300	0,054	-0,036
-655,116	800,000	-0,056	0,136
-654,101	122,858	-0,008	-0,007
-653,086	800,000	0,022	-0,056
-652,072	800,000	-0,018	-0,041
-651,057	-105,118	-0,098	0,016
-650,043	-200,000	0,015	-0,180
-649,028	-88,929	-0,056	0,012
-648,014	2,626	-0,029	-0,015
-646,999	197,306	-0,135	-0,153
-645,984	85,958	0,027	0,022
-644,970	800,000	0,065	-0,192
-643,955	650,067	-0,015	-0,028
-642,941	143,339	-0,099	-0,098
-641,926	-135,786	0,155	-0,013
-640,911	800,000	0,010	0,021
-639,897	69,493	0,059	0,045
-638,882	-37,204	-0,107	-0,042
-637,868	-200,000	-0,002	0,055
-636,853	800,000	-0,027	-0,059
-635,838	28,715	-0,133	-0,084
-634,824	800,000	0,028	0,065
-633,809	28,767	0,082	-0,052
-632,795	-93,792	-0,100	0,020
-631,780	46,431	0,066	0,045
-630,765	-200,000	-0,005	-0,033
-629,751	46,055	-0,131	0,090
-628,736	-200,000	0,009	-0,058
-627,722	24,634	0,052	-0,032
-626,707	51,667	0,010	0,007
-625,692	-103,193	0,112	0,020
-624,678	72,548	-0,063	-0,049
-623,663	-72,743	0,050	0,013
-622,649	82,585	-0,043	0,035
-621,634	-180,435	0,134	0,002
-620,619	800,000	-0,086	-0,234
-619,605	51,394	-0,036	-0,025
-618,590	25,193	0,119	0,073
-617,576	25,531	0,020	-0,012
-616,561	-146,990	-0,111	-0,007
-615,546	800,000	-0,011	-0,036
-614,532	-200,000	0,003	-0,051
-613,517	480,705	-0,008	-0,013
-612,503	281,749	0,076	0,101
-611,488	547,893	-0,008	0,014
-610,474	-200,000	-0,013	-0,064
-609,459	-68,892	0,073	0,021
-608,444	120,480	-0,061	0,056
-607,430	-200,000	-0,022	-0,109
-606,415	-61,981	0,025	0,008
-605,401	-200,000	-0,002	0,008
-604,386	-42,226	-0,084	0,031
-603,371	-139,919	-0,077	-0,006
-602,357	42,314	0,055	-0,037
-601,342	113,882	-0,119	-0,107
-600,328	-200,000	-0,009	-0,048
-599,313	224,373	-0,096	-0,115
-598,298	66,295	0,029	0,022
-597,284	98,455	-0,094	0,080
-596,269	800,000	0,045	-0,116
-595,255	-125,820	-0,123	0,014
-594,240	-16,788	-0,052	-0,024
-593,225	800,000	0,044	-0,093
-592,211	-106,170	-0,055	-0,009
-591,196	62,535	0,022	0,016
-590,182	-9,350	-0,047	-0,023
-589,167	800,000	-0,026	-0,055
-588,152	-200,000	0,013	0,093
-587,138	-200,000	0,009	0,059
-586,123	-67,713	-0,142	-0,041
-585,109	452,615	0,101	-0,165
-584,094	-178,983	0,103	0,002
-583,079	95,501	0,013	-0,011
-582,065	45,064	-0,034	0,023
-581,050	487,010	0,078	0,132
-580,036	-119,673	-0,100	0,013
-579,021	-200,000	-0,022	-0,141
-578,006	321,799	0,067	-0,095
-576,992	-200,000	-0,001	0,012
-575,977	389,572	0,006	-0,009
-574,963	-159,119	-0,059	-0,002
-573,948	-54,874	0,155	0,052
-572,934	0,390	0,098	0,052
-571,919	23,673	-0,117	-0,071
-570,904	72,758	-0,178	-0,137
-569,890	-81,094	-0,074	-0,018
-568,875	-200,000	-0,008	-0,043
-567,861	-200,000	-0,020	-0,096
-566,846	310,146	0,030	-0,042
-565,831	11,099	-0,018	-0,010
-564,817	-36,364	-0,119	0,047
-563,802	-40,278	-0,138	-0,053
-562,788	-115,177	-0,069	0,010
-561,773	-63,482	0,126	-0,038
-560,758	-200,000	0,014	0,091
-559,744	510,080	-0,067	0,115
-558,729	272,569	-0,043	-0,056
-557,715	117,407	0,030	0,027
-556,700	800,000	-0,060	-0,123
-555,685	409,413	-0,103	-0,162
-554,671	800,000	0,015	-0,035
-553,656	800,000	-0,049	0,155
-552,642	75,903	0,062	-0,049
-551,627	-113,877	0,146	0,021
-550,612	4,945	-0,196	0,106
-549,598	516,028	0,074	-0,129
-548,583	-109,849	-0,084	-0,013
-547,569	14,488	0,021	0,012
-546,554	510,292	0,045	0,078
-545,539	67,180	0,192	0,145
-544,525	-148,795	0,054	-0,003
-543,510	184,503	-0,049	0,053
-542,496	-114,894	0,065	0,009
-541,481	-200,000	0,006	-0,067
-540,466	800,000	-0,043	-0,096
-539,452	800,000	0,046	0,114
-538,437	-47,601	-0,173	-0,062
-537,423	194,281	0,037	-0,041
-536,408	-200,000	0,007	-0,060
-535,393	-173,754	-0,047	-0,001
-534,379	-118,163	-0,107	0,014
-533,364	365,473	-0,025	0,038
-532,350	800,000	0,020	0,062
-531,335	-200,000	0,022	-0,070
-530,321	-200,000	0,031	0,123
-529,306	-200,000	-0,010	-0,042
-528,291	-200,000	0,001	0,071
-527,277	153,690	-0,078	-0,079
-526,262	-200,000	-0,002	0,045
-525,248	-112,404	0,091	0,013
-524,233	72,907	-0,053	-0,041
-523,218	245,458	0,082	-0,102
-522,204	38,240	0,083	-0,055
-521,189	244,377	-0,076	-0,095
-520,175	800,000	0,023	-0,071
-519,160	-200,000	0,009	-0,046
-518,145	560,468	-0,034	0,062
-517,131	392,518	0,051	-0,079
-516,116	-200,000	-0,016	0,150
-515,102	-88,315	0,115	0,025
-514,087	-66,464	-0,042	0,012
-513,072	-37,954	0,080	0,031
-512,058	-99,831	-0,111	0,020
-511,043	19,356	-0,085	-0,050
-510,029	164,755	-0,038	0,040
-509,014	149,893	0,050	0,050
-507,999	-200,000	0,002	0,037
-506,985	-62,645	-0,058	-0,018
-505,970	-155,769	-0,039	0,002
-504,956	-84,339	-0,029	0,007
-503,941	-200,000	0,011	0,143
-502,926	235,122	0,088	0,107
-501,912	-200,000	0,029	0,096
-500,897	-11,042	0,022	-0,011
-499,883	-16,650	0,135	-0,063
-498,868	423,619	-0,072	-0,114
-497,853	-200,000	0,035	-0,143
-496,839	113,268	0,046	-0,041
-495,824	112,086	-0,016	0,014
-494,810	586,252	-0,051	0,093
-493,795	-200,000	0,051	0,243
-492,781	-140,817	0,027	-0,002
-491,766	-200,000	-0,005	-0,066
-490,751	-200,000	0,010	0,090
-489,737	-6,922	0,071	-0,036
-488,722	800,000	-0,013	0,026
-487,708	-17,460	0,080	-0,037
-486,693	-13,437	0,093	0,044
-485,678	-200,000	-0,019	0,141
-484,664	113,929	-0,008	0,007
-483,649	-20,060	0,047	-0,021
-482,635	-31,259	0,074	0,031
-481,620	-105,210	0,113	-0,019
-480,605	-200,000	-0,020	0,126
-479,591	176,286	-0,042	0,045
-478,576	366,714	0,053	-0,079
-477,562	159,481	-0,061	0,062
-476,547	-41,393	-0,100	-0,038
-475,532	-200,000	-0,004	-0,030
-474,518	42,346	0,047	0,032
-473,503	-72,909	0,034	0,009
-472,489	-54,954	0,109	0,036
-471,474	800,000	0,052	0,159
-470,459	1,273	-0,052	-0,027
-469,445	310,162	0,059	0,081
-468,430	-60,891	-0,027	-0,008
-467,416	410,501	-0,049	0,077
-466,401	289,811	-0,043	-0,057
-465,386	-165,395	-0,094	0,003
-464,372	-148,038	-0,073	0,004
-463,357	78,246	0,008	0,006
-462,343	-153,991	-0,146	0,007
-461,328	717,992	0,081	-0,160
-460,313	-200,000	0,021	-0,108
-459,299	800,000	0,065	0,134
-458,284	-200,000	0,016	0,076
-457,270	-87,744	-0,052	0,011
-456,255	94,234	0,051	0,042
-455,241	163,527	-0,043	-0,045
-454,226	800,000	0,051	-0,140
-453,211	84,462	-0,024	-0,019
-452,197	-0,209	-0,034	0,018
-451,182	201,541	0,154	0,175
-450,168	195,001	0,127	0,142
-449,153	800,000	-0,043	0,108
-448,138	43,026	-0,088	0,059
-447,124	800,000	0,034	-0,074
-446,109	-88,670	0,072	-0,016
-445,095	108,060	0,087	0,077
-444,080	800,000	0,014	-0,039
-443,065	800,000	-0,012	0,028
-442,051	-145,327	-0,032	0,002
-441,036	96,154	0,061	-0,051
-440,022	-200,000	-0,009	-0,058
-439,007	-31,993	0,036	-0,015
-437,992	-23,855	0,059	-0,026
-436,978	59,896	-0,055	-0,040
-435,963	-200,000	0,017	0,093
-434,949	-182,632	-0,053	-0,001
-433,934	30,116	0,028	0,017
-432,919	21,358	0,010	-0,006
-431,905	254,697	0,067	0,084
-430,890	124,807	0,084	-0,078
-429,876	33,130	0,035	0,022
-428,861	-49,793	0,034	-0,012
-427,846	184,137	-0,073	0,080
-426,832	54,290	0,011	-0,008
-425,817	-160,738	0,148	-0,006
-424,803	46,931	0,069	-0,047
-423,788	186,328	-0,041	0,045
-422,773	800,000	-0,017	-0,037
-421,759	462,486	-0,056	0,092
-420,744	547,307	-0,046	0,081
-419,730	69,000	0,048	-0,036
-418,715	512,649	-0,128	-0,221
-417,701	-59,612	0,164	0,051
-416,686	253,498	0,053	-0,067
-415,671	216,749	-0,089	0,104
-414,657	764,532	0,024	0,048
-413,642	-12,379	0,054	-0,026
-412,628	-24,176	-0,100	-0,044
-411,613	-108,285	-0,104	-0,016
-410,598	-200,000	0,024	-0,083
-409,584	188,452	-0,040	-0,044
-408,569	-200,000	0,003	-0,080
-407,555	-53,261	0,159	0,053
-406,540	-159,503	0,082	0,003
-405,525	-126,673	0,088	0,009
-404,511	16,864	-0,074	-0,043
-403,496	-200,000	-0,021	-0,089
-402,482	-200,000	-0,003	0,095
-401,467	163,870	-0,040	-0,042
-400,452	800,000	-0,039	-0,099
-399,438	800,000	-0,016	0,040
-398,423	304,393	-0,086	-0,117
-397,409	9,223	0,166	0,092
-396,394	-130,470	-0,157	0,015
-395,379	6,641	-0,086	0,047
-394,365	-132,721	0,094	-0,009
-393,350	416,992	-0,060	0,095
-392,336	112,942	-0,025	-0,022
-391,321	-200,000	0,014	-0,217
-390,306	-122,344	-0,075	0,009
-389,292	-11,709	-0,043	-0,021
-388,277	4,840	0,051	-0,027
-387,263	800,000	0,021	0,052
-386,248	94,463	0,100	0,083
-385,233	227,883	-0,101	0,121
-384,219	191,142	-0,041	0,045
-383,204	-170,039	-0,170	-0,004
-382,190	-154,596	0,026	0,001
-381,175	-116,129	-0,100	-0,014
-380,160	81,733	-0,043	-0,034
-379,146	-181,770	0,074	-0,001
-378,131	-200,000	-0,029	0,167
-377,117	-80,079	-0,114	0,028
-376,102	359,671	-0,030	-0,044
-375,088	-200,000	-0,010	0,078
-374,073	66,954	-0,067	0,050
-373,058	-200,000	-0,007	-0,068
-372,044	-200,000	0,018	0,064
-371,029	-200,000	0,006	-0,024
-370,015	256,370	0,080	0,101
-369,000	-200,000	-0,004	0,121
-367,985	800,000	-0,058	-0,174
-366,971	-42,084	-0,142	-0,053
-365,956	494,723	0,081	-0,137
-364,942	34,841	-0,021	-0,013
-363,927	-64,469	-0,020	-0,006
-362,912	-109,501	0,102	0,016
-361,898	-200,000	0,002	0,028
-360,883	-148,040	-0,060	0,004
-359,869	47,169	-0,077	0,053
-358,854	492,956	0,077	0,130
-357,839	-200,000	0,015	0,104
-356,825	800,000	0,048	0,104
-355,810	-47,719	0,155	0,055
-354,796	-200,000	-0,029	-0,144
-353,781	800,000	-0,047	-0,117
-352,766	-84,986	-0,132	0,030
-351,752	164,472	0,086	0,089
-350,737	285,746	-0,053	0,070
-349,723	322,362	-0,062	-0,087
-348,708	800,000	-0,027	-0,063
-347,693	-24,548	-0,190	-0,082
-346,679	-180,459	-0,134	-0,002
-345,664	264,296	0,041	-0,052
-344,650	-200,000	0,011	0,042
-343,635	-60,651	0,089	0,027
-342,620	-127,881	0,129	-0,013
-341,606	139,274	0,050	-0,048
-340,591	96,925	-0,094	-0,079
-339,577	-138,198	0,151	-0,012
-338,562	-200,000	-0,002	-0,093
-337,548	-200,000	0,019	0,073
-336,533	-108,397	0,115	-0,018
-335,518	-40,145	0,037	-0,014
-334,504	-200,000	-0,049	0,177
-333,489	-44,061	0,019	-0,007
-332,475	-200,000	-0,003	-0,039
-331,460	633,343	-0,024	-0,045
-330,445	-112,296	0,069	-0,010
-329,431	800,000	-0,033	0,081
-328,416	92,227	0,163	0,134
-327,402	15,033	-0,048	0,028
-326,387	-200,000	-0,008	-0,083
-325,372	17,053	-0,034	-0,020
-324,358	-76,353	0,061	-0,016
-323,343	-200,000	-0,003	0,070
-322,329	-69,137	0,109	0,031
-321,314	-200,000	0,000	-0,006
-320,299	-200,000	0,004	0,089
-319,285	-200,000	-0,010	0,054
-318,270	696,238	-0,019	-0,037
-317,256	-176,582	-0,103	0,002
-316,241	-200,000	-0,014	-0,116
-315,226	-200,000	-0,004	-0,037
-314,212	-200,000	0,011	0,140
-313,197	-5,436	0,079	0,040
-312,183	-84,945	-0,053	-0,012
-311,168	37,674	-0,145	0,094
-310,153	-118,054	-0,090	-0,012
-309,139	-101,553	0,092	0,016
-308,124	800,000	0,010	-0,030
-307,110	-200,000	0,013	-0,070
-306,095	-200,000	-0,010	0,060
-305,080	800,000	-0,044	-0,131
-304,066	175,783	0,120	-0,128
-303,051	800,000	-0,038	-0,110
-302,037	21,080	-0,157	-0,093
-301,022	618,183	-0,052	0,095
-300,008	-14,248	0,126	0,059
-298,993	-200,000	-0,022	-0,072
-297,978	-200,000	-0,006	-0,046
-296,964	800,000	0,040	0,088
-295,949	-151,212	-0,169	0,009
-294,935	-45,325	-0,103	0,037
-293,920	-200,000	-0,011	0,093
-292,905	206,235	-0,013	0,015
-291,891	308,924	0,043	-0,059
-290,876	222,828	-0,076	0,089
-289,862	-48,410	-0,016	0,006
-288,847	-95,567	0,066	0,013
-287,832	-200,000	-0,013	-0,083
-286,818	514,736	-0,085	-0,146
-285,803	356,400	-0,029	0,042
-284,789	-159,720	-0,023	0,001
-283,774	47,890	-0,073	-0,050
-282,759	-200,000	-0,006	0,064
-281,745	461,343	-0,033	0,054
-280,730	446,089	-0,039	-0,063
-279,716	-14,435	-0,175	-0,082
-278,701	-19,629	0,138	-0,062
-277,686	258,365	0,056	-0,070
-276,672	-200,000	-0,021	0,082
-275,657	-200,000	0,013	0,119
-274,643	1,862	-0,073	0,038
-273,628	-134,299	-0,060	0,005
-272,613	-4,212	0,043	0,022
-271,599	363,953	0,059	0,088
-270,584	800,000	0,027	0,077
-269,570	42,297	0,078	0,052
-268,555	-200,000	-0,004	-0,114
-267,540	-123,133	-0,085	-0,010
-266,526	346,177	-0,039	0,057
-265,511	166,895	-0,108	0,112
-264,497	-78,148	0,066	0,016
-263,482	-18,042	-0,018	-0,008
-262,467	-75,800	-0,082	-0,021
-261,453	728,903	-0,053	-0,104
-260,438	800,000	-0,053	-0,109
-259,424	65,960	0,050	0,037
-258,409	-200,000	-0,019	0,067
-257,395	-26,612	0,152	0,065
-256,380	121,523	0,157	-0,143
-255,365	-98,052	-0,038	-0,007
-254,351	800,000	0,017	-0,038
-253,336	-122,817	-0,081	0,009
-252,322	-25,169	-0,119	-0,051
-251,307	800,000	-0,033	-0,079
-250,292	-200,000	-0,030	0,121
-249,278	25,208	0,029	0,017
-248,263	800,000	-0,048	0,106
-247,249	-200,000	0,001	-0,217
-246,234	-12,761	-0,075	-0,036
-245,219	800,000	0,036	-0,080
-244,205	133,721	0,046	-0,044
-243,190	-84,326	0,158	0,036
-242,176	142,790	-0,050	-0,048
-241,161	-41,093	-0,061	0,023
-240,146	15,697	0,082	0,047
-239,132	327,580	-0,043	0,061
-238,117	180,215	0,043	0,047
-237,103	800,000	0,019	0,055
-236,088	800,000	0,053	0,119
-235,073	800,000	0,047	0,104
-234,059	158,352	0,055	0,056
-233,044	-200,000	0,001	0,040
-232,030	-99,685	0,066	-0,012
-231,015	-11,595	0,064	-0,031
-230,000	729,594	-0,020	-0,040
-228,986	-176,366	-0,096	-0,002
-227,971	-40,389	0,062	-0,023
-226,957	-135,621	0,121	0,010
-225,942	107,214	-0,051	-0,044
-224,927	-160,152	0,052	0,002
-223,913	84,598	0,042	0,034
-222,898	188,455	0,062	-0,068
-221,884	-35,566	-0,176	-0,070
-220,869	-78,554	0,027	-0,007
-219,855	-200,000	-0,007	0,055
-218,840	561,241	0,039	-0,070
-217,825	245,526	0,014	0,017
-216,811	-200,000	-0,001	0,081
-215,796	53,880	-0,082	0,058
-214,782	413,564	0,013	0,020
-213,767	800,000	-0,017	-0,046
-212,752	-65,579	0,082	-0,024
-211,738	683,959	0,014	-0,027
-210,723	123,709	-0,075	-0,069
-209,709	-24,832	-0,048	-0,021
-208,694	-34,133	-0,093	-0,037
-207,679	-6,779	-0,061	0,030
-206,665	-102,782	-0,103	0,018
-205,650	47,148	0,074	0,050
-204,636	-11,919	0,107	0,051
-203,621	-200,000	-0,002	-0,051
-202,606	-200,000	0,020	-0,069
-201,592	-134,851	0,108	-0,009
-200,577	54,396	-0,094	0,066
-199,563	437,708	-0,029	0,046
-198,548	-160,449	0,232	-0,009
-197,533	-13,827	0,127	0,060
-196,519	-61,062	-0,052	-0,016
-195,504	5,841	-0,026	-0,014
-194,490	671,988	-0,068	-0,129
-193,475	258,232	0,075	-0,094
-192,460	800,000	-0,014	0,040
-191,446	-61,303	0,101	-0,031
-190,431	-200,000	-0,007	0,164
-189,417	-200,000	-0,007	-0,044
-188,402	800,000	0,012	-0,038
-187,387	180,352	0,075	-0,080
-186,373	110,442	0,033	-0,029
-185,358	800,000	0,015	0,035
-184,344	-200,000	0,018	0,080
-183,329	-41,898	0,231	0,086
-182,315	-200,000	0,002	0,049
-181,300	757,578	-0,040	0,079
-180,285	800,000	-0,007	0,018
-179,271	-86,693	0,067	-0,015
-178,256	210,870	0,094	0,108
-177,242	-117,049	-0,039	-0,005
-176,227	-200,000	-0,009	0,118
-175,212	-200,000	0,031	0,109
-174,198	-63,296	0,184	-0,055
-173,183	156,990	-0,029	0,029
-172,169	506,887	-0,041	0,070
-171,154	-40,134	0,040	-0,015
-170,139	453,298	-0,025	-0,041
-169,125	-89,080	0,112	-0,024
-168,110	-200,000	0,012	0,043
-167,096	-145,068	-0,138	-0,009
-166,081	-114,645	-0,038	-0,005
-165,066	6,938	0,027	0,015
-164,052	-63,434	-0,027	-0,008
-163,037	-150,036	0,079	0,004
-162,023	-200,000	0,023	0,138
-161,008	172,879	-0,022	0,023
-159,993	-153,730	0,089	-0,004
-158,979	291,596	-0,109	0,145
-157,964	-200,000	-0,020	-0,098
-156,950	800,000	0,110	-0,291
-155,935	-7,995	0,075	-0,037
-154,920	14,061	-0,056	-0,032
-153,906	-50,853	0,069	-0,024
-152,891	3,440	0,010	-0,005
-151,877	-66,561	-0,131	-0,038
-150,862	-174,663	-0,034	-0,001
-149,847	56,530	-0,029	0,020
-148,833	223,996	0,051	0,060
-147,818	-200,000	0,016	0,225
-146,804	-200,000	0,021	0,165
-145,789	800,000	-0,031	0,064
-144,775	293,088	0,066	-0,088
-143,760	282,414	-0,058	-0,076
-142,745	225,772	-0,052	-0,062
-141,731	-41,615	0,024	-0,009
-140,716	56,834	0,036	0,025
-139,702	-200,000	-0,017	-0,120
-138,687	22,888	-0,084	0,050
-137,672	242,660	0,084	0,103
-136,658	336,282	-0,060	0,085
-135,643	-54,260	0,026	-0,009
-134,629	-200,000	-0,018	-0,085
-133,614	-114,226	-0,140	0,019
-132,599	800,000	0,048	-0,108
-131,585	-66,050	0,102	0,029
-130,570	98,071	0,178	-0,149
-129,556	800,000	0,013	-0,029
-128,541	-153,367	-0,083	-0,004
-127,526	-60,217	0,119	-0,037
-126,512	343,397	0,062	0,088
-125,497	-200,000	-0,014	0,092
-124,483	-200,000	-0,009	0,031
-123,468	-200,000	0,015	-0,068
-122,453	-82,646	0,094	0,022
-121,439	291,827	-0,052	-0,068
-120,424	260,477	0,086	-0,109
-119,410	-90,561	0,172	0,036
