DTS Sentinel unit serial number:	SN410029Multiplexer serial number:	ORYXHardware model number:	OX2-SRSoftware version number:	ORYX F/W v4,00 Oryx Data Collector v3.7.2.0data status	okinstallation	B6 Nyhavnadifferential loss correction	single-endedforward channel	channel 2reverse channel	N/Adate	2023/12/07time	11:00:08forward acquisition time	300,00reverse acquisition time	0,00gamma	499,1914k internal	0,3199k external	0,3199temperature offset calibration	1,0000default loss term (dB/km)	0,3820temperature slope calibration	1,0000multiplexer offset coefficient	1,0000multiplexer slope coefficient	1,0000fibre end	0,00T internal ref (°C)	7,67T ext. ref 1 (°C)	-6,43T ext. ref 2 (°C)	-6,46length (m)	temperature (°C)	Stokes	anti-Stokes-744,400	125,152	0,104	0,096
-743,385	-146,554	-0,430	-0,027
-742,371	-152,371	0,182	0,009
-741,356	43,632	-0,170	-0,113
-740,342	163,424	0,124	0,127
-739,327	-23,757	-0,442	-0,192
-738,312	38,649	0,202	0,131
-737,298	-166,076	-0,495	-0,015
-736,283	-23,641	0,252	0,109
-735,269	-31,033	-0,322	-0,132
-734,254	52,299	0,145	0,101
-733,239	70,831	-0,564	-0,424
-732,225	15,496	0,310	0,177
-731,210	117,428	-0,050	0,045
-730,196	-8,940	0,062	-0,030
-729,181	-2,043	0,048	-0,025
-728,167	-200,000	0,003	0,028
-727,152	225,823	-0,012	-0,015
-726,137	30,416	-0,177	-0,110
-725,123	-18,809	0,070	0,032
-724,108	1,837	-0,112	0,058
-723,094	-200,000	0,006	-0,029
-722,079	605,403	-0,120	-0,218
-721,064	135,778	-0,082	-0,078
-720,050	-110,113	-0,030	0,005
-719,035	411,913	-0,034	-0,052
-718,021	30,049	-0,137	-0,085
-717,006	-37,181	-0,086	0,033
-715,991	800,000	0,030	-0,091
-714,977	135,727	-0,059	0,056
-713,962	263,311	0,046	-0,058
-712,948	-73,350	-0,105	0,028
-711,933	75,305	-0,050	-0,038
-710,918	-76,676	-0,072	0,018
-709,904	-84,233	-0,171	-0,039
-708,889	-57,526	-0,165	0,052
-707,875	-73,761	-0,021	-0,005
-706,860	50,523	-0,079	-0,054
-705,845	800,000	0,060	0,143
-704,831	800,000	-0,015	0,043
-703,816	-200,000	0,028	0,093
-702,802	70,570	-0,135	-0,102
-701,787	240,084	0,060	-0,073
-700,772	135,624	-0,046	0,044
-699,758	-61,151	-0,143	-0,044
-698,743	28,816	-0,062	-0,038
-697,729	800,000	0,028	0,062
-696,714	66,026	0,105	0,078
-695,699	285,558	0,004	0,005
-694,685	-200,000	0,008	0,043
-693,670	-112,980	-0,169	-0,024
-692,656	-4,306	0,164	-0,082
-691,641	-57,927	0,131	-0,041
-690,627	167,118	-0,061	-0,063
-689,612	141,388	0,051	-0,049
-688,597	-99,595	0,084	-0,015
-687,583	-200,000	-0,007	-0,097
-686,568	14,315	-0,094	-0,053
-685,554	-55,357	0,067	-0,022
-684,539	-200,000	0,006	-0,029
-683,524	513,841	0,048	0,082
-682,510	27,653	0,133	-0,081
-681,495	139,178	-0,115	0,110
-680,481	-200,000	-0,006	-0,035
-679,466	-100,060	-0,157	-0,028
-678,451	-63,854	-0,115	-0,034
-677,437	78,681	-0,058	0,045
-676,422	-68,225	0,128	0,036
-675,408	8,237	0,055	0,030
-674,393	434,667	-0,030	-0,047
-673,378	-200,000	-0,030	-0,171
-672,364	7,012	-0,143	-0,077
-671,349	800,000	-0,042	-0,091
-670,335	75,457	0,076	-0,058
-669,320	-200,000	-0,020	0,075
-668,305	61,520	-0,113	0,081
-667,291	-46,711	-0,116	-0,041
-666,276	-200,000	0,043	-0,188
-665,262	-75,659	-0,096	-0,025
-664,247	13,498	0,090	-0,051
-663,232	113,092	0,085	0,075
-662,218	-35,952	0,048	-0,019
-661,203	-179,969	-0,045	-0,001
-660,189	-101,533	-0,099	-0,017
-659,174	-159,138	0,022	-0,001
-658,159	720,152	-0,106	-0,205
-657,145	-9,383	-0,093	0,045
-656,130	74,402	0,056	0,042
-655,116	-200,000	0,030	-0,134
-654,101	-200,000	-0,022	-0,135
-653,086	243,150	-0,054	-0,066
-652,072	-200,000	0,016	-0,123
-651,057	-200,000	-0,001	-0,021
-650,043	-39,585	-0,140	-0,053
-649,028	-24,434	-0,030	-0,013
-648,014	295,404	-0,072	0,095
-646,999	-20,308	0,065	0,029
-645,984	-55,524	-0,114	-0,037
-644,970	-200,000	-0,047	0,161
-643,955	95,165	-0,102	-0,084
-642,941	-200,000	0,026	-0,186
-641,926	800,000	0,022	0,056
-640,911	300,058	0,045	0,061
-639,897	148,701	0,139	0,136
-638,882	644,758	-0,026	0,049
-637,868	-35,349	-0,081	0,032
-636,853	800,000	0,036	-0,082
-635,838	-200,000	-0,003	-0,066
-634,824	-200,000	-0,016	-0,055
-633,809	592,165	-0,021	0,038
-632,795	202,106	-0,059	0,066
-631,780	-15,553	-0,074	-0,034
-630,765	649,875	-0,022	-0,041
-629,751	288,401	-0,062	-0,082
-628,736	-106,393	-0,066	0,011
-627,722	-200,000	-0,015	0,065
-626,707	-200,000	-0,017	-0,121
-625,692	-200,000	0,002	-0,067
-624,678	-102,979	0,064	-0,011
-623,663	-200,000	-0,028	0,100
-622,649	-40,521	0,079	-0,030
-621,634	308,848	-0,101	0,137
-620,619	-19,052	-0,065	-0,029
-619,605	-8,686	-0,083	-0,040
-618,590	145,972	0,031	-0,030
-617,576	-200,000	0,005	0,139
-616,561	800,000	-0,050	0,104
-615,546	-94,648	0,035	0,007
-614,532	800,000	0,061	-0,153
-613,517	-200,000	-0,006	-0,079
-612,503	800,000	-0,046	0,095
-611,488	800,000	0,059	0,129
-610,474	-200,000	-0,015	0,114
-609,459	-200,000	0,019	0,097
-608,444	93,788	0,102	-0,084
-607,430	-45,468	-0,156	-0,056
-606,415	422,109	0,030	-0,047
-605,401	800,000	-0,011	0,034
-604,386	-27,948	-0,069	0,029
-603,371	74,872	0,047	0,035
-602,357	341,644	0,030	0,043
-601,342	27,616	-0,054	0,033
-600,328	800,000	0,080	-0,247
-599,313	189,562	-0,077	-0,084
-598,298	-200,000	0,012	-0,050
-597,284	134,804	-0,140	-0,132
-596,269	40,319	0,106	-0,069
-595,255	-200,000	-0,007	0,115
-594,240	-115,882	0,051	0,007
-593,225	96,209	-0,074	-0,061
-592,211	800,000	-0,039	0,097
-591,196	491,453	-0,069	-0,115
-590,182	-200,000	-0,018	-0,057
-589,167	25,306	-0,160	0,096
-588,152	800,000	0,038	0,118
-587,138	82,432	0,041	-0,033
-586,123	-84,615	-0,087	0,020
-585,109	800,000	0,048	-0,122
-584,094	800,000	-0,035	0,088
-583,079	-200,000	-0,015	0,125
-582,065	-105,508	0,068	-0,011
-581,050	203,424	0,087	0,098
-580,036	-200,000	-0,008	-0,041
-579,021	-16,873	-0,074	0,034
-578,006	-96,336	-0,115	-0,022
-576,992	-16,887	0,048	-0,022
-575,977	-200,000	-0,011	0,080
-574,963	-101,726	0,095	0,016
-573,948	106,267	0,145	0,125
-572,934	800,000	-0,038	0,120
-571,919	21,420	-0,029	-0,017
-570,904	-94,458	-0,097	-0,019
-569,890	-200,000	0,026	-0,126
-568,875	-79,830	-0,081	0,020
-567,861	800,000	0,017	-0,035
-566,846	84,728	0,090	-0,071
-565,831	241,877	-0,060	0,072
-564,817	381,103	0,066	-0,099
-563,802	800,000	-0,042	-0,124
-562,788	-200,000	0,015	0,108
-561,773	-200,000	0,036	-0,120
-560,758	8,345	0,141	-0,076
-559,744	-200,000	-0,023	0,154
-558,729	-200,000	-0,020	0,078
-557,715	-200,000	0,000	-0,103
-556,700	392,449	-0,069	-0,104
-555,685	800,000	0,031	-0,065
-554,671	-91,574	0,129	0,026
-553,656	-10,353	0,099	-0,047
-552,642	344,972	0,007	0,010
-551,627	-82,817	0,046	0,011
-550,612	12,455	-0,069	0,038
-549,598	-2,449	-0,012	-0,006
-548,583	-200,000	0,035	-0,000
-547,569	515,986	0,072	-0,122
-546,554	237,855	-0,064	-0,076
-545,539	96,404	0,059	0,048
-544,525	800,000	0,035	0,098
-543,510	-83,897	-0,214	-0,049
-542,496	596,473	-0,025	0,044
-541,481	-200,000	-0,006	-0,033
-540,466	-200,000	-0,028	-0,145
-539,452	-200,000	0,003	-0,047
-538,437	524,725	0,049	-0,084
-537,423	-200,000	0,007	0,025
-536,408	-187,179	0,056	0,001
-535,393	-200,000	-0,001	-0,101
-534,379	217,712	-0,058	-0,067
-533,364	119,820	0,066	0,059
-532,350	800,000	-0,025	-0,062
-531,335	47,901	-0,119	0,080
-530,321	-138,860	0,045	-0,003
-529,306	-86,172	-0,108	0,024
-528,291	109,358	0,139	-0,120
-527,277	-200,000	0,027	-0,103
-526,262	136,775	0,103	-0,097
-525,248	72,863	0,078	0,058
-524,233	-119,732	0,076	0,009
-523,218	-200,000	0,007	0,078
-522,204	128,579	-0,122	0,112
-521,189	-11,122	-0,079	-0,037
-520,175	27,109	-0,140	0,085
-519,160	-200,000	-0,002	-0,034
-518,145	270,249	0,075	0,095
-517,131	137,848	-0,079	0,074
-516,116	235,097	-0,078	-0,094
-515,102	694,923	-0,039	0,074
-514,087	-27,071	-0,023	-0,010
-513,072	-79,394	0,083	-0,020
-512,058	-200,000	0,001	0,044
-511,043	11,088	0,059	-0,032
-510,029	296,000	-0,056	0,074
-509,014	-124,155	-0,106	0,012
-507,999	43,505	0,090	0,059
-506,985	800,000	0,013	0,035
-505,970	-200,000	0,012	-0,072
-504,956	-200,000	-0,020	-0,108
-503,941	140,528	-0,044	0,041
-502,926	254,978	0,053	0,066
-501,912	46,375	0,096	-0,064
-500,897	-200,000	0,002	0,077
-499,883	363,889	-0,068	0,099
-498,868	309,583	0,053	-0,072
-497,853	786,437	0,028	-0,056
-496,839	92,695	0,035	0,028
-495,824	27,784	0,074	0,045
-494,810	-200,000	-0,011	0,119
-493,795	92,765	0,087	0,070
-492,781	-190,178	0,004	0,000
-491,766	-77,289	-0,086	-0,021
-490,751	758,092	-0,045	0,089
-489,737	-200,000	-0,006	-0,027
-488,722	152,850	-0,166	-0,164
-487,708	410,250	0,040	-0,061
-486,693	135,199	-0,082	0,077
-485,678	479,225	0,030	0,050
-484,664	147,499	-0,094	-0,091
-483,649	338,166	-0,005	0,007
-482,635	13,008	0,066	-0,037
-481,620	-13,274	0,083	-0,039
-480,605	-92,126	0,026	-0,005
-479,591	-200,000	0,025	0,153
-478,576	-5,586	0,096	0,047
-477,562	-33,279	0,045	0,018
-476,547	-200,000	-0,039	-0,171
-475,532	154,967	0,032	-0,032
-474,518	-200,000	0,017	0,093
-473,503	142,776	0,027	-0,026
-472,489	-133,260	-0,100	0,009
-471,474	40,632	0,105	-0,068
-470,459	26,479	-0,160	0,096
-469,445	186,416	0,023	-0,024
-468,430	-75,265	-0,109	-0,028
-467,416	466,762	0,068	0,111
-466,401	63,366	0,106	-0,076
-465,386	298,494	-0,080	-0,106
-464,372	276,636	-0,027	0,034
-463,357	-108,469	-0,099	-0,015
-462,343	-200,000	0,002	-0,021
-461,328	126,071	0,051	0,047
-460,313	-200,000	0,013	-0,068
-459,299	84,315	0,081	0,063
-458,284	145,622	0,115	0,111
-457,270	-200,000	-0,005	0,109
-456,255	800,000	0,059	0,155
-455,241	-149,427	-0,169	0,009
-454,226	-86,088	-0,024	0,005
-453,211	-200,000	-0,020	0,075
-452,197	-108,412	0,050	0,008
-451,182	137,873	0,073	0,069
-450,168	-200,000	0,005	0,039
-449,153	501,425	0,063	0,106
-448,138	-200,000	0,004	-0,073
-447,124	469,756	-0,014	0,022
-446,109	-200,000	-0,020	0,080
-445,095	-165,990	0,118	0,004
-444,080	798,756	-0,025	0,050
-443,065	250,727	-0,100	-0,123
-442,051	238,935	-0,105	-0,126
-441,036	-200,000	0,002	-0,016
-440,022	249,839	-0,046	-0,056
-439,007	97,406	0,152	0,125
-437,992	73,446	0,080	0,060
-436,978	-200,000	-0,002	0,109
-435,963	-94,380	-0,087	0,017
-434,949	-200,000	-0,018	0,083
-433,934	710,914	-0,024	0,046
-432,919	-200,000	0,002	-0,063
-431,905	-200,000	-0,002	-0,198
-430,890	28,684	0,095	0,058
-429,876	-74,571	0,064	0,016
-428,861	-200,000	0,012	0,041
-427,846	-200,000	-0,005	0,096
-426,832	110,349	-0,116	-0,100
-425,817	-200,000	-0,023	0,176
-424,803	528,208	0,080	-0,136
-423,788	424,154	-0,064	0,100
-422,773	800,000	0,055	-0,137
-421,759	-49,060	0,069	-0,024
-420,744	69,524	-0,133	-0,099
-419,730	56,961	-0,129	-0,090
-418,715	70,417	-0,033	0,024
-417,701	800,000	-0,051	-0,132
-416,686	108,540	0,150	-0,129
-415,671	104,910	-0,077	-0,065
-414,657	800,000	0,036	0,073
-413,642	800,000	-0,022	0,047
-412,628	-200,000	0,023	0,117
-411,613	-88,122	0,045	0,010
-410,598	-200,000	0,013	-0,095
-409,584	800,000	-0,023	-0,065
-408,569	255,682	0,055	0,068
-407,555	-103,927	0,068	-0,011
-406,540	-200,000	0,042	0,187
-405,525	697,121	-0,052	0,099
-404,511	562,077	0,038	-0,066
-403,496	-7,880	0,100	-0,048
-402,482	-129,068	-0,126	0,013
-401,467	-200,000	0,007	-0,055
-400,452	-172,309	-0,111	-0,002
-399,438	-44,644	0,079	-0,028
-398,423	800,000	-0,060	-0,139
-397,409	-14,613	-0,083	0,038
-396,394	-200,000	0,005	-0,033
-395,379	135,822	0,082	-0,076
-394,365	-128,360	0,033	-0,003
-393,350	487,347	0,030	-0,049
-392,336	800,000	-0,019	-0,053
-391,321	-200,000	-0,007	0,096
-390,306	409,624	-0,075	0,115
-389,292	463,805	0,054	0,087
-388,277	-146,979	0,091	0,006
-387,263	-73,439	-0,036	-0,009
-386,248	800,000	0,062	0,158
-385,233	800,000	-0,036	0,077
-384,219	-8,180	0,265	-0,127
-383,204	49,855	-0,081	0,055
-382,190	-45,527	-0,145	-0,051
-381,175	800,000	0,055	0,109
-380,160	19,132	-0,034	0,020
-379,146	800,000	-0,042	0,093
-378,131	-95,454	-0,042	-0,008
-377,117	-51,106	0,191	0,064
-376,102	65,438	-0,010	-0,007
-375,088	-34,400	0,038	-0,015
-374,073	176,118	-0,078	0,082
-373,058	-32,856	-0,050	-0,020
-372,044	14,956	-0,102	0,057
-371,029	800,000	0,075	0,176
-370,015	14,546	0,114	-0,064
-369,000	-58,739	-0,056	-0,017
-367,985	-200,000	0,007	-0,077
-366,971	278,554	-0,042	0,053
-365,956	106,184	-0,119	-0,101
-364,942	-200,000	0,012	-0,165
-363,927	60,644	0,037	-0,027
-362,912	-21,858	-0,055	-0,024
-361,898	-200,000	0,013	-0,063
-360,883	146,316	-0,075	0,073
-359,869	192,023	0,070	-0,076
-358,854	780,284	-0,017	0,033
-357,839	-86,386	0,075	0,016
-356,825	198,081	0,070	0,077
-355,810	-3,219	-0,085	0,042
-354,796	-121,836	-0,080	-0,009
-353,781	-36,071	-0,076	0,029
-352,766	-200,000	-0,006	-0,023
-351,752	440,027	-0,014	-0,022
-350,737	-13,867	0,053	0,024
-349,723	-76,762	0,111	0,028
-348,708	513,541	0,031	-0,052
-347,693	451,667	0,019	-0,031
-346,679	-26,337	0,117	-0,049
-345,664	800,000	-0,085	-0,216
-344,650	-39,746	0,061	-0,023
-343,635	800,000	-0,022	0,060
-342,620	539,124	0,031	-0,053
-341,606	672,774	-0,022	-0,041
-340,591	800,000	-0,020	0,063
-339,577	-34,947	0,020	-0,008
-338,562	312,942	-0,073	-0,098
-337,548	-86,177	0,196	-0,043
-336,533	175,761	-0,065	0,068
-335,518	-37,075	0,078	0,030
-334,504	800,000	0,025	0,058
-333,489	-17,308	0,083	0,037
-332,475	-51,070	-0,085	0,028
-331,460	484,500	-0,086	-0,141
-330,445	-67,989	-0,077	0,021
-329,431	-200,000	0,019	-0,096
-328,416	685,616	0,072	0,135
-327,402	100,429	-0,045	0,037
-326,387	-200,000	0,005	0,048
-325,372	-200,000	-0,030	0,106
-324,358	70,217	-0,035	-0,026
-323,343	-11,025	0,066	-0,031
-322,329	-69,292	0,120	-0,033
-321,314	296,632	0,042	0,055
-320,299	-16,806	-0,110	-0,049
-319,285	-200,000	-0,002	-0,068
-318,270	-108,186	-0,094	-0,014
-317,256	-109,469	0,084	0,013
-316,241	-11,696	-0,088	-0,041
-315,226	-38,616	0,038	-0,014
-314,212	-40,483	0,087	0,032
-313,197	152,706	0,064	0,063
-312,183	-62,670	0,038	-0,011
-311,168	-77,482	0,049	-0,012
-310,153	-200,000	-0,022	0,072
-309,139	273,970	0,024	-0,030
-308,124	800,000	0,041	0,094
-307,110	-200,000	0,006	-0,054
-306,095	-91,271	0,102	-0,021
-305,080	800,000	-0,038	0,102
-304,066	367,811	-0,022	0,032
-303,051	246,325	-0,100	-0,120
-302,037	-200,000	0,002	0,052
-301,022	250,793	0,087	0,106
-300,008	-66,421	-0,073	0,021
-298,993	217,612	0,057	-0,065
-297,978	-52,689	-0,067	-0,022
-296,964	-200,000	-0,016	-0,086
-295,949	-54,353	-0,097	0,031
-294,935	-90,226	0,060	0,012
-293,920	445,566	0,072	-0,113
-292,905	347,721	0,074	-0,105
-291,891	72,489	-0,123	0,091
-290,876	-97,513	-0,031	-0,006
-289,862	56,567	-0,031	-0,021
-288,847	342,700	-0,111	-0,155
-287,832	20,904	0,058	0,034
-286,818	41,230	-0,042	0,027
-285,803	-200,000	0,013	-0,071
-284,789	183,033	-0,074	0,078
-283,774	-73,525	-0,017	-0,004
-282,759	-152,564	-0,095	-0,005
-281,745	749,305	0,042	0,082
-280,730	189,229	0,063	-0,068
-279,716	513,350	0,044	-0,074
-278,701	23,714	-0,235	-0,138
-277,686	237,562	0,083	0,098
-276,672	75,003	0,138	0,104
-275,657	-200,000	0,012	-0,123
-274,643	7,161	0,066	-0,035
-273,628	800,000	-0,020	-0,051
-272,613	218,617	-0,070	-0,080
-271,599	-200,000	0,010	-0,052
-270,584	252,877	-0,037	0,045
-269,570	35,974	0,086	0,054
-268,555	298,655	-0,008	-0,011
-267,540	-125,274	-0,102	-0,011
-266,526	143,087	0,093	-0,089
-265,511	24,200	-0,059	-0,034
-264,497	800,000	0,055	0,122
-263,482	0,392	0,065	0,033
-262,467	800,000	-0,026	-0,060
-261,453	639,618	0,034	-0,061
-260,438	-79,385	-0,048	-0,011
-259,424	75,527	0,060	-0,045
-258,409	-48,429	-0,062	0,021
-257,395	-47,245	0,028	0,010
-256,380	-200,000	0,021	0,153
-255,365	-29,812	0,028	0,012
-254,351	-127,997	0,043	-0,004
-253,336	1,372	-0,135	0,069
-252,322	-146,723	0,119	0,007
-251,307	-23,589	-0,106	-0,045
-250,292	-72,464	-0,051	0,013
-249,278	261,204	0,068	0,084
-248,263	-73,060	0,046	0,012
-247,249	257,352	0,049	0,060
-246,234	166,429	0,082	-0,083
-245,219	102,213	-0,132	-0,110
-244,205	723,613	0,036	0,070
-243,190	11,729	-0,068	-0,037
-242,176	-65,401	0,196	-0,056
-241,161	237,720	0,036	0,042
-240,146	-29,725	0,096	0,039
-239,132	143,048	-0,020	-0,019
-238,117	-200,000	-0,053	-0,185
-237,103	-200,000	0,002	-0,020
-236,088	-200,000	-0,011	0,126
-235,073	-5,464	0,107	0,052
-234,059	-200,000	-0,018	-0,062
-233,044	-163,875	0,179	-0,006
-232,030	70,580	-0,104	0,076
-231,015	800,000	-0,043	-0,107
-230,000	184,919	-0,020	0,021
-228,986	-121,463	0,194	-0,023
-227,971	-5,063	0,058	-0,029
-226,957	182,090	-0,050	0,053
-225,942	-147,833	-0,028	0,002
-224,927	160,022	0,079	-0,079
-223,913	-200,000	-0,064	-0,249
-222,898	-200,000	0,002	-0,050
-221,884	-6,595	-0,041	0,020
-220,869	558,634	0,038	0,065
-219,855	-200,000	-0,001	0,014
-218,840	100,829	0,085	-0,070
-217,825	258,987	-0,103	0,127
-216,811	36,599	0,104	0,065
-215,796	-137,158	-0,170	0,014
-214,782	-163,479	0,054	0,002
-213,767	-168,048	-0,075	0,002
-212,752	-200,000	0,007	-0,041
-211,738	-200,000	-0,003	0,055
-210,723	195,550	0,048	0,052
-209,709	-200,000	0,011	0,080
-208,694	123,712	-0,119	-0,106
-207,679	-200,000	0,006	-0,078
-206,665	37,812	-0,068	0,043
-205,650	-18,752	0,108	-0,048
-204,636	-200,000	0,003	-0,142
-203,621	-200,000	0,020	-0,118
-202,606	800,000	-0,056	-0,142
-201,592	350,850	-0,058	-0,082
-200,577	-110,541	-0,114	0,017
-199,563	800,000	0,062	0,139
-198,548	356,002	0,092	0,131
-197,533	-200,000	0,004	-0,063
-196,519	-108,169	-0,050	-0,008
-195,504	-200,000	0,003	0,038
-194,490	800,000	-0,024	-0,074
-193,475	42,430	-0,109	-0,071
-192,460	-68,895	0,084	-0,023
-191,446	800,000	0,031	0,083
-190,431	433,362	0,031	0,048
-189,417	-2,267	0,044	-0,022
-188,402	-23,820	-0,057	-0,024
-187,387	256,832	0,037	-0,046
-186,373	10,349	-0,068	0,037
-185,358	-4,644	-0,096	-0,047
-184,344	4,330	0,054	0,028
-183,329	375,680	-0,034	-0,050
-182,315	-200,000	-0,006	-0,044
-181,300	-200,000	0,048	0,161
-180,285	800,000	-0,019	0,051
-179,271	800,000	0,021	0,051
-178,256	305,336	0,032	-0,042
-177,242	-200,000	0,019	0,070
-176,227	-200,000	-0,029	0,173
-175,212	19,766	-0,032	-0,018
-174,198	-189,267	0,036	0,000
-173,183	144,414	0,008	-0,008
-172,169	-46,135	-0,067	-0,023
-171,154	-38,687	-0,035	-0,013
-170,139	-200,000	0,018	0,077
-169,125	-200,000	-0,044	0,196
-168,110	-98,437	-0,079	0,014
-167,096	-53,330	-0,008	-0,003
-166,081	-140,768	0,064	0,005
-165,066	-0,614	-0,087	-0,044
-164,052	8,286	0,136	-0,073
-163,037	217,504	0,072	0,082
-162,023	108,730	-0,062	0,053
-161,008	340,383	-0,029	0,040
-159,993	317,623	-0,043	0,058
-158,979	91,043	-0,133	0,106
-157,964	800,000	-0,074	-0,148
-156,950	-38,398	0,016	0,006
-155,935	-64,428	0,136	-0,039
-154,920	584,478	0,067	-0,118
-153,906	-25,986	0,043	0,018
-152,891	317,903	0,020	-0,028
-151,877	800,000	-0,067	-0,187
-150,862	99,768	-0,116	-0,096
-149,847	-200,000	-0,013	0,079
-148,833	800,000	0,030	0,069
-147,818	-75,018	0,076	0,019
-146,804	169,369	0,022	0,022
-145,789	-200,000	0,011	0,126
-144,775	-39,862	-0,146	-0,054
-143,760	-38,324	0,067	0,025
-142,745	-200,000	0,022	-0,080
-141,731	800,000	0,045	-0,099
-140,716	52,097	0,070	-0,047
-139,702	-200,000	-0,019	0,063
-138,687	-64,989	-0,093	-0,026
-137,672	-200,000	0,005	-0,037
-136,658	-45,223	0,124	0,044
-135,643	-10,341	-0,159	-0,075
-134,629	800,000	-0,023	-0,064
-133,614	-175,300	0,081	-0,002
-132,599	167,333	0,142	0,144
-131,585	176,856	-0,052	-0,054
-130,570	800,000	-0,021	0,043
-129,556	-136,849	0,038	-0,003
-128,541	-200,000	-0,035	-0,124
-127,526	223,506	0,053	-0,060
-126,512	117,992	-0,039	-0,034
-125,497	46,059	0,088	-0,058
-124,483	150,933	-0,033	0,032
-123,468	-68,124	0,159	0,044
-122,453	-94,126	-0,062	0,012
-121,439	800,000	-0,080	0,158
-120,424	-200,000	-0,007	-0,052
-119,410	75,274	0,019	0,014
-118,395	-102,157	0,100	0,017
