DTS Sentinel unit serial number:	SN410029Multiplexer serial number:	ORYXHardware model number:	OX2-SRSoftware version number:	ORYX F/W v4,00 Oryx Data Collector v3.7.2.0data status	okinstallation	B6 Nyhavnadifferential loss correction	single-endedforward channel	channel 2reverse channel	N/Adate	2023/12/07time	11:50:08forward acquisition time	300,00reverse acquisition time	0,00gamma	499,1914k internal	0,3203k external	0,3203temperature offset calibration	1,0000default loss term (dB/km)	0,3820temperature slope calibration	1,0000multiplexer offset coefficient	1,0000multiplexer slope coefficient	1,0000fibre end	0,00T internal ref (°C)	9,09T ext. ref 1 (°C)	-4,79T ext. ref 2 (°C)	-4,78length (m)	temperature (°C)	Stokes	anti-Stokes-744,400	57,318	0,123	0,087
-743,385	58,546	-0,289	-0,206
-742,371	-8,226	0,264	0,129
-741,356	-184,431	-0,434	-0,005
-740,342	-87,808	0,203	0,044
-739,327	-76,718	-0,418	-0,106
-738,312	64,274	0,202	0,148
-737,298	-28,008	-0,344	-0,144
-736,283	-74,654	0,044	-0,011
-735,269	-144,946	-0,306	-0,020
-734,254	-71,532	0,180	0,049
-733,239	-11,059	-0,471	-0,225
-732,225	-31,910	0,274	0,111
-731,210	718,867	0,083	0,160
-730,196	7,406	-0,096	-0,052
-729,181	-200,000	0,024	-0,094
-728,167	137,458	0,061	0,058
-727,152	-60,595	-0,042	-0,013
-726,137	1,271	-0,100	-0,052
-725,123	123,109	-0,072	0,066
-724,108	213,772	-0,003	0,004
-723,094	405,043	0,021	-0,032
-722,079	-200,000	0,044	-0,201
-721,064	-52,466	0,015	-0,005
-720,050	42,621	-0,160	0,105
-719,035	55,359	-0,084	0,059
-718,021	-61,682	-0,078	0,024
-717,006	800,000	-0,015	-0,033
-715,991	-76,821	-0,134	0,034
-714,977	-200,000	-0,002	-0,073
-713,962	-32,179	-0,013	-0,005
-712,948	-164,876	0,049	0,002
-711,933	488,292	-0,070	-0,116
-710,918	800,000	-0,021	0,054
-709,904	87,069	0,100	-0,080
-708,889	800,000	-0,032	-0,088
-707,875	-200,000	0,013	-0,234
-706,860	-200,000	0,040	0,131
-705,845	47,571	-0,013	0,009
-704,831	159,307	0,123	0,124
-703,816	800,000	-0,009	0,019
-702,802	800,000	0,060	-0,137
-701,787	800,000	0,029	0,082
-700,772	126,529	-0,094	0,086
-699,758	321,182	0,032	-0,045
-698,743	8,880	0,084	-0,046
-697,729	-44,537	0,112	-0,040
-696,714	-200,000	-0,027	0,107
-695,699	-200,000	0,024	0,080
-694,685	-75,888	-0,029	0,007
-693,670	2,737	0,062	-0,032
-692,656	-67,531	0,059	-0,017
-691,641	-53,397	-0,062	0,020
-690,627	-200,000	0,005	0,054
-689,612	800,000	0,041	0,126
-688,597	109,663	0,066	0,058
-687,583	111,221	-0,055	0,048
-686,568	-101,575	-0,146	0,025
-685,554	24,104	-0,142	-0,085
-684,539	123,547	-0,027	-0,024
-683,524	-11,390	0,090	-0,043
-682,510	800,000	0,021	0,052
-681,495	-200,000	0,038	0,162
-680,481	-200,000	-0,097	0,000
-679,466	-200,000	-0,011	0,086
-678,451	139,497	0,111	-0,106
-677,437	-200,000	-0,038	0,147
-676,422	194,906	-0,081	-0,090
-675,408	-66,477	0,021	0,006
-674,393	206,843	-0,073	-0,082
-673,378	0,623	0,013	-0,007
-672,364	-200,000	-0,040	-0,148
-671,349	-0,752	-0,045	-0,023
-670,335	252,037	0,098	0,122
-669,320	76,381	0,113	0,087
-668,305	-200,000	-0,013	0,086
-667,291	800,000	0,028	-0,065
-666,276	45,747	-0,062	-0,041
-665,262	172,846	-0,046	-0,048
-664,247	-200,000	-0,004	-0,070
-663,232	-113,347	0,135	-0,019
-662,218	174,818	0,060	0,063
-661,203	-63,855	-0,039	0,012
-660,189	536,176	-0,021	0,036
-659,174	-9,954	-0,089	0,043
-658,159	800,000	-0,025	-0,074
-657,145	-200,000	-0,032	0,131
-656,130	155,254	-0,093	0,093
-655,116	-82,726	-0,058	-0,013
-654,101	-200,000	0,025	0,081
-653,086	-200,000	0,050	-0,160
-652,072	800,000	-0,060	-0,172
-651,057	-200,000	-0,003	-0,068
-650,043	-200,000	-0,002	0,061
-649,028	136,024	-0,087	-0,082
-648,014	-99,437	-0,109	0,020
-646,999	109,681	0,095	0,082
-645,984	800,000	0,026	0,063
-644,970	800,000	-0,040	-0,092
-643,955	354,517	-0,035	-0,050
-642,941	800,000	0,015	-0,034
-641,926	-148,795	0,059	0,003
-640,911	800,000	-0,007	0,021
-639,897	206,329	-0,070	0,078
-638,882	-37,809	-0,094	0,036
-637,868	-20,547	0,134	-0,060
-636,853	181,539	0,079	0,084
-635,838	800,000	0,007	-0,015
-634,824	-188,613	0,022	0,000
-633,809	354,326	-0,035	0,051
-632,795	-5,588	0,089	0,044
-631,780	-51,920	0,036	-0,012
-630,765	-200,000	-0,017	0,104
-629,751	-126,860	0,097	0,010
-628,736	-200,000	-0,020	-0,096
-627,722	84,067	-0,024	-0,019
-626,707	243,973	0,033	-0,040
-625,692	-128,477	0,090	-0,009
-624,678	91,421	-0,071	0,057
-623,663	2,688	0,019	0,010
-622,649	611,801	-0,016	0,029
-621,634	357,953	-0,023	-0,033
-620,619	296,353	-0,040	0,053
-619,605	-137,079	-0,116	0,009
-618,590	800,000	0,072	0,174
-617,576	-200,000	-0,014	0,100
-616,561	735,534	0,079	0,154
-615,546	-200,000	-0,021	0,154
-614,532	-76,899	-0,140	0,035
-613,517	4,566	0,057	-0,030
-612,503	-76,872	0,013	-0,003
-611,488	218,779	0,089	0,103
-610,474	394,645	0,051	0,077
-609,459	-180,717	0,012	0,000
-608,444	-167,663	-0,061	0,002
-607,430	-200,000	-0,004	-0,044
-606,415	260,624	-0,046	0,057
-605,401	47,392	-0,036	0,024
-604,386	-119,378	0,060	-0,007
-603,371	171,256	-0,096	0,100
-602,357	-200,000	0,000	0,011
-601,342	-67,266	-0,117	-0,033
-600,328	-200,000	-0,026	-0,102
-599,313	-118,046	-0,043	-0,005
-598,298	121,517	0,030	0,027
-597,284	-65,246	-0,046	0,013
-596,269	-104,956	-0,095	-0,016
-595,255	323,138	-0,088	0,122
-594,240	166,539	0,057	0,058
-593,225	-200,000	0,010	-0,093
-592,211	-167,959	-0,087	-0,002
-591,196	-200,000	-0,015	0,062
-590,182	54,443	0,060	0,042
-589,167	-24,292	-0,005	-0,002
-588,152	78,768	-0,064	0,050
-587,138	35,037	-0,062	-0,039
-586,123	-100,289	-0,092	-0,016
-585,109	-25,676	-0,024	-0,010
-584,094	180,821	-0,034	0,036
-583,079	-200,000	-0,019	0,097
-582,065	-168,428	0,071	0,002
-581,050	-43,077	-0,048	0,017
-580,036	-200,000	0,007	-0,067
-579,021	430,867	-0,021	0,032
-578,006	304,099	0,030	-0,040
-576,992	329,523	-0,088	0,123
-575,977	-200,000	0,002	-0,033
-574,963	-200,000	0,003	0,104
-573,948	-26,186	-0,126	0,053
-572,934	21,951	0,024	0,014
-571,919	-200,000	0,010	-0,119
-570,904	617,620	0,039	-0,071
-569,890	181,750	-0,022	-0,023
-568,875	716,302	0,041	0,078
-567,861	-91,039	0,050	-0,010
-566,846	800,000	0,068	-0,156
-565,831	-92,127	0,062	0,013
-564,817	443,228	0,022	0,034
-563,802	-6,424	-0,123	-0,060
-562,788	-200,000	0,002	-0,042
-561,773	-51,869	0,161	-0,054
-560,758	800,000	-0,013	0,027
-559,744	5,001	0,081	0,043
-558,729	323,923	0,061	-0,084
-557,715	305,566	-0,059	0,079
-556,700	-0,715	-0,073	0,037
-555,685	800,000	-0,005	-0,013
-554,671	452,222	-0,015	0,023
-553,656	-200,000	0,017	0,067
-552,642	344,507	-0,039	0,056
-551,627	-41,762	0,067	-0,025
-550,612	800,000	0,031	0,085
-549,598	-40,600	-0,123	0,046
-548,583	-108,270	-0,034	0,005
-547,569	-200,000	-0,004	-0,082
-546,554	290,096	0,041	0,053
-545,539	800,000	0,028	0,078
-544,525	89,458	0,040	-0,033
-543,510	157,703	0,055	-0,055
-542,496	-200,000	0,017	0,109
-541,481	-175,721	-0,058	-0,001
-540,466	-144,867	-0,114	0,007
-539,452	-187,171	0,178	0,002
-538,437	-47,587	-0,075	0,026
-537,423	457,578	-0,089	0,143
-536,408	-25,090	0,105	0,045
-535,393	-200,000	0,018	-0,060
-534,379	-116,226	0,029	0,004
-533,364	-53,937	-0,176	-0,057
-532,350	294,894	0,038	0,051
-531,335	-104,817	0,135	0,022
-530,321	800,000	-0,028	-0,080
-529,306	-200,000	0,001	0,111
-528,291	-200,000	0,005	-0,060
-527,277	154,505	-0,069	-0,068
-526,262	217,364	0,082	0,094
-525,248	-200,000	0,003	0,043
-524,233	-200,000	-0,009	-0,055
-523,218	381,101	0,136	0,202
-522,204	800,000	-0,013	0,031
-521,189	165,260	0,033	-0,034
-520,175	584,609	-0,044	-0,079
-519,160	29,592	-0,045	-0,027
-518,145	69,536	-0,074	0,055
-517,131	-163,023	0,110	0,004
-516,116	209,331	0,008	0,009
-515,102	-122,293	-0,064	0,007
-514,087	-200,000	0,011	-0,119
-513,072	-200,000	-0,027	-0,089
-512,058	800,000	-0,038	0,105
-511,043	562,246	-0,100	-0,175
-510,029	-200,000	0,010	-0,057
-509,014	-200,000	0,015	-0,070
-507,999	257,779	0,041	-0,051
-506,985	-200,000	0,053	0,197
-505,970	334,742	-0,040	0,056
-504,956	350,400	0,047	0,067
-503,941	800,000	-0,066	0,147
-502,926	335,374	-0,027	0,038
-501,912	393,952	0,036	-0,054
-500,897	-200,000	-0,021	0,182
-499,883	-33,660	-0,073	-0,029
-498,868	-49,704	-0,119	-0,041
-497,853	-132,215	0,050	-0,005
-496,839	-200,000	-0,010	0,109
-495,824	-107,972	-0,023	0,004
-494,810	-35,443	-0,135	0,053
-493,795	382,202	0,059	0,088
-492,781	-72,337	-0,070	0,018
-491,766	-192,481	-0,024	-0,000
-490,751	-104,604	0,054	0,009
-489,737	143,188	0,050	-0,048
-488,722	-97,165	0,052	-0,010
-487,708	-31,296	0,130	0,052
-486,693	273,467	0,053	0,068
-485,678	-200,000	0,016	0,059
-484,664	476,908	0,011	0,018
-483,649	130,610	0,066	0,061
-482,635	10,364	0,075	-0,041
-481,620	-200,000	0,001	-0,010
-480,605	-200,000	0,009	0,101
-479,591	-52,847	0,040	0,013
-478,576	231,463	0,076	-0,089
-477,562	3,719	-0,196	-0,103
-476,547	800,000	0,003	-0,007
-475,532	-130,749	-0,048	-0,005
-474,518	191,176	0,040	-0,043
-473,503	-33,159	0,111	0,044
-472,489	-44,929	-0,142	0,051
-471,474	88,385	-0,018	-0,015
-470,459	800,000	-0,008	0,018
-469,445	-19,387	-0,125	-0,056
-468,430	25,817	-0,040	-0,024
-467,416	488,208	-0,052	-0,086
-466,401	35,192	-0,242	0,152
-465,386	-4,226	0,093	0,046
-464,372	800,000	0,036	-0,077
-463,357	-200,000	0,017	-0,175
-462,343	800,000	0,035	-0,070
-461,328	515,084	-0,024	0,041
-460,313	800,000	0,035	0,095
-459,299	214,427	-0,050	0,057
-458,284	-200,000	0,049	0,223
-457,270	100,795	-0,070	0,058
-456,255	800,000	0,083	-0,224
-455,241	119,368	0,050	-0,045
-454,226	29,800	-0,092	0,056
-453,211	116,522	0,097	0,085
-452,197	800,000	0,044	0,117
-451,182	800,000	0,051	-0,112
-450,168	6,165	-0,156	-0,083
-449,153	-60,698	0,093	0,028
-448,138	800,000	-0,048	-0,099
-447,124	-200,000	-0,001	0,023
-446,109	-44,241	0,109	-0,039
-445,095	-108,145	-0,053	-0,008
-444,080	135,960	-0,025	0,023
-443,065	69,885	0,020	-0,015
-442,051	800,000	-0,022	0,053
-441,036	-200,000	-0,019	-0,079
-440,022	383,594	-0,084	-0,125
-439,007	-1,450	-0,086	-0,044
-437,992	37,234	-0,095	-0,060
-436,978	630,822	0,049	0,090
-435,963	-200,000	0,029	-0,169
-434,949	-65,304	0,021	-0,006
-433,934	49,588	0,095	0,064
-432,919	260,885	-0,062	-0,078
-431,905	390,693	0,059	-0,088
-430,890	234,454	0,025	0,029
-429,876	323,037	0,027	-0,037
-428,861	-77,842	-0,103	-0,025
-427,846	17,556	0,063	-0,036
-426,832	87,995	-0,061	-0,049
-425,817	800,000	0,012	0,025
-424,803	-38,146	0,037	0,014
-423,788	800,000	0,040	0,085
-422,773	-128,841	0,111	0,011
-421,759	-200,000	-0,048	0,159
-420,744	-200,000	-0,008	0,126
-419,730	-169,704	-0,037	0,001
-418,715	-200,000	0,021	-0,162
-417,701	800,000	0,037	-0,098
-416,686	-200,000	0,024	0,129
-415,671	14,997	0,125	0,070
-414,657	-156,304	0,084	-0,004
-413,642	6,588	0,138	-0,073
-412,628	-118,858	-0,086	0,011
-411,613	-32,124	-0,062	0,025
-410,598	-87,715	-0,032	0,007
-409,584	154,404	0,057	0,057
-408,569	-200,000	0,017	-0,077
-407,555	-200,000	0,003	-0,112
-406,540	152,650	-0,074	0,073
-405,525	263,749	-0,037	-0,046
-404,511	79,269	0,052	-0,040
-403,496	-65,290	-0,068	-0,019
-402,482	202,601	0,035	-0,039
-401,467	-46,416	0,170	0,059
-400,452	334,397	0,023	-0,032
-399,438	48,659	0,062	-0,041
-398,423	-39,890	-0,139	-0,052
-397,409	-161,935	-0,153	-0,005
-396,394	-166,177	-0,085	-0,003
-395,379	-143,726	-0,071	-0,005
-394,365	-150,728	0,184	0,010
-393,350	-200,000	0,010	0,095
-392,336	800,000	-0,034	0,073
-391,321	102,628	0,100	-0,084
-390,306	800,000	0,010	-0,020
-389,292	-26,236	0,143	-0,060
-388,277	35,613	-0,073	0,046
-387,263	-44,787	0,059	0,021
-386,248	-126,372	0,171	-0,018
-385,233	98,158	0,009	-0,007
-384,219	-200,000	0,003	0,038
-383,204	45,119	-0,079	-0,052
-382,190	65,017	0,147	-0,106
-381,175	34,924	0,102	0,064
-380,160	-49,250	0,050	0,017
-379,146	150,436	0,187	0,182
-378,131	109,809	0,134	0,115
-377,117	189,614	-0,042	0,045
-376,102	730,444	-0,094	-0,180
-375,088	-32,767	-0,017	-0,007
-374,073	-77,646	-0,120	-0,030
-373,058	-135,702	0,083	-0,007
-372,044	-200,000	-0,007	0,125
-371,029	-200,000	0,024	-0,126
-370,015	-200,000	0,002	-0,018
-369,000	-200,000	0,032	-0,133
-367,985	273,750	-0,021	-0,027
-366,971	114,305	-0,089	-0,078
-365,956	-171,790	0,073	0,002
-364,942	-67,330	0,136	0,038
-363,927	451,812	0,035	-0,055
-362,912	-52,343	-0,100	0,033
-361,898	-128,408	0,165	-0,017
-360,883	800,000	-0,018	-0,056
-359,869	-200,000	0,026	0,091
-358,854	112,004	-0,072	-0,062
-357,839	800,000	-0,007	0,018
-356,825	10,634	0,196	-0,107
-355,810	365,864	0,034	0,049
-354,796	-109,573	-0,106	-0,016
-353,781	-51,633	-0,067	-0,022
-352,766	317,512	-0,024	-0,032
-351,752	-10,571	0,226	0,107
-350,737	-200,000	-0,006	0,140
-349,723	-43,286	0,004	-0,002
-348,708	-200,000	0,002	0,066
-347,693	128,532	-0,043	0,039
-346,679	127,819	-0,083	0,076
-345,664	-200,000	-0,008	0,109
-344,650	29,932	-0,025	-0,015
-343,635	-200,000	-0,026	-0,099
-342,620	-174,028	-0,046	0,001
-341,606	-200,000	0,012	-0,045
-340,591	-109,659	-0,032	0,005
-339,577	74,845	-0,152	-0,114
-338,562	-200,000	-0,012	-0,131
-337,548	-14,933	0,074	0,034
-336,533	-140,904	-0,076	0,005
-335,518	120,098	-0,035	0,031
-334,504	-200,000	-0,016	0,058
-333,489	-3,597	-0,159	-0,079
-332,475	-56,606	-0,172	0,054
-331,460	-200,000	-0,029	0,111
-330,445	1,271	-0,054	0,028
-329,431	800,000	0,052	0,116
-328,416	303,640	0,115	0,152
-327,402	46,827	-0,077	0,051
-326,387	124,735	-0,009	0,009
-325,372	-114,761	-0,091	-0,012
-324,358	164,967	-0,040	-0,041
-323,343	-77,427	0,106	-0,026
-322,329	-200,000	0,006	0,021
-321,314	-64,632	-0,133	0,038
-320,299	197,180	0,038	0,041
-319,285	-111,269	0,139	0,020
-318,270	276,162	-0,046	-0,059
-317,256	-75,480	0,145	-0,037
-316,241	90,888	0,054	-0,044
-315,226	-51,342	0,052	0,017
-314,212	-200,000	-0,016	0,074
-313,197	-74,545	0,072	-0,018
-312,183	-32,027	-0,143	0,057
-311,168	800,000	-0,023	0,058
-310,153	-200,000	0,002	-0,156
-309,139	-9,492	-0,015	0,007
-308,124	-111,879	0,043	0,006
-307,110	319,750	0,030	0,041
-306,095	45,652	-0,071	-0,047
-305,080	92,699	0,043	-0,035
-304,066	-148,031	-0,092	0,005
-303,051	800,000	0,065	-0,156
-302,037	-95,181	-0,045	-0,009
-301,022	387,690	0,018	0,026
-300,008	104,618	0,059	0,050
-298,993	-200,000	0,013	0,157
-297,978	137,829	-0,129	-0,120
-296,964	800,000	-0,036	0,106
-295,949	30,626	0,062	-0,038
-294,935	53,577	-0,021	-0,015
-293,920	800,000	-0,039	-0,117
-292,905	75,923	0,070	-0,053
-291,891	-56,328	0,122	-0,038
-290,876	246,541	0,063	-0,077
-289,862	-37,617	0,061	-0,023
-288,847	-145,650	-0,057	-0,004
-287,832	-43,073	0,110	-0,039
-286,818	-200,000	-0,006	-0,210
-285,803	98,411	0,097	-0,080
-284,789	670,938	0,066	-0,123
-283,774	-200,000	-0,030	0,101
-282,759	196,890	0,023	-0,025
-281,745	129,161	-0,060	-0,055
-280,730	-58,245	-0,058	0,018
-279,716	201,486	-0,074	0,082
-278,701	-38,806	0,235	0,088
-277,686	180,763	-0,082	0,086
-276,672	-117,788	0,050	0,006
-275,657	68,398	0,047	-0,034
-274,643	-112,555	-0,072	-0,010
-273,628	568,746	-0,010	-0,018
-272,613	611,323	0,047	-0,084
-271,599	-168,548	0,044	0,001
-270,584	468,575	0,050	0,081
-269,570	81,450	-0,055	0,043
-268,555	360,914	-0,108	0,155
-267,540	71,799	0,070	0,052
-266,526	-114,635	-0,040	-0,005
-265,511	800,000	-0,010	-0,025
-264,497	800,000	-0,013	-0,035
-263,482	-20,780	0,061	-0,027
-262,467	264,775	-0,055	0,069
-261,453	469,031	-0,030	0,049
-260,438	-200,000	-0,007	-0,116
-259,424	162,626	0,055	-0,055
-258,409	800,000	0,036	-0,077
-257,395	686,786	-0,009	-0,017
-256,380	-200,000	-0,017	0,058
-255,365	125,033	0,088	0,079
-254,351	47,891	-0,072	-0,048
-253,336	133,899	-0,057	-0,052
-252,322	203,019	-0,073	0,080
-251,307	-200,000	0,012	-0,099
-250,292	490,232	-0,086	-0,140
-249,278	-105,818	-0,106	0,017
-248,263	687,195	-0,002	0,004
-247,249	-200,000	-0,003	0,056
-246,234	-65,091	0,088	-0,025
-245,219	-153,348	-0,121	0,006
-244,205	258,091	0,031	-0,038
-243,190	22,106	0,062	0,036
-242,176	-200,000	-0,023	-0,096
-241,161	-114,913	0,170	0,023
-240,146	-79,802	-0,187	-0,044
-239,132	194,330	0,091	-0,099
-238,117	800,000	0,021	-0,053
-237,103	-32,643	-0,108	0,043
-236,088	800,000	0,055	0,135
-235,073	800,000	-0,032	0,067
-234,059	-200,000	-0,029	-0,115
-233,044	118,940	-0,087	-0,077
-232,030	-200,000	-0,032	0,166
-231,015	-200,000	-0,010	-0,057
-230,000	800,000	0,013	-0,039
-228,986	-200,000	0,001	-0,008
-227,971	-153,954	-0,099	0,005
-226,957	800,000	-0,027	0,083
-225,942	-200,000	-0,013	-0,042
-224,927	-77,952	0,088	0,021
-223,913	792,830	-0,097	-0,192
-222,898	1,550	-0,115	-0,059
-221,884	4,216	0,098	-0,051
-220,869	72,149	-0,088	0,065
-219,855	62,291	0,104	-0,074
-218,840	-200,000	-0,004	0,210
-217,825	-200,000	0,023	0,079
-216,811	179,244	-0,080	-0,084
-215,796	-96,801	-0,088	-0,016
-214,782	-200,000	-0,014	-0,116
-213,767	271,082	0,087	-0,110
-212,752	114,345	0,037	-0,032
-211,738	-200,000	0,009	-0,059
-210,723	-131,867	0,042	0,004
-209,709	-200,000	0,021	0,100
-208,694	-32,646	-0,042	0,017
-207,679	-25,651	0,134	0,056
-206,665	-68,997	0,173	-0,047
-205,650	322,009	0,079	-0,107
-204,636	-200,000	-0,019	-0,068
-203,621	-83,624	-0,165	-0,037
-202,606	800,000	-0,027	-0,062
-201,592	366,676	-0,060	-0,086
-200,577	-27,807	0,065	-0,027
-199,563	-106,697	-0,045	-0,007
-198,548	-179,178	0,085	-0,001
-197,533	800,000	0,037	0,108
-196,519	624,833	-0,044	-0,079
-195,504	253,227	-0,095	0,116
-194,490	800,000	-0,044	0,110
-193,475	61,382	-0,135	-0,095
-192,460	442,846	-0,026	0,041
-191,446	-200,000	-0,004	0,076
-190,431	-200,000	-0,015	0,095
-189,417	2,981	-0,044	0,023
-188,402	-123,940	-0,095	0,011
-187,387	-69,654	-0,092	0,025
-186,373	-200,000	0,009	-0,146
-185,358	-152,688	0,168	-0,008
-184,344	-200,000	0,019	-0,083
-183,329	800,000	-0,031	-0,088
-182,315	93,560	0,124	0,100
-181,300	-200,000	-0,021	-0,093
-180,285	-200,000	0,023	-0,163
-179,271	-127,046	0,015	-0,002
-178,256	-36,846	0,063	-0,024
-177,242	-127,710	0,170	-0,017
-176,227	621,481	-0,070	-0,125
-175,212	-91,759	-0,092	0,018
-174,198	462,976	-0,060	0,096
-173,183	-54,746	0,040	-0,013
-172,169	-200,000	0,011	-0,083
-171,154	48,759	-0,049	-0,033
-170,139	-35,932	0,171	-0,065
-169,125	-47,044	-0,129	0,045
-168,110	800,000	-0,044	-0,096
-167,096	-200,000	-0,006	-0,076
-166,081	-14,704	0,096	-0,044
-165,066	721,232	-0,061	-0,116
-164,052	493,590	0,033	-0,053
-163,037	-83,871	0,157	0,035
-162,023	-200,000	-0,007	-0,076
-161,008	-200,000	0,013	-0,056
-159,993	-71,231	0,100	-0,026
-158,979	51,820	-0,093	-0,063
-157,964	47,035	-0,037	-0,024
-156,950	226,295	0,055	-0,063
-155,935	-60,103	-0,048	-0,014
-154,920	-200,000	0,005	0,067
-153,906	800,000	-0,064	0,158
-152,891	783,780	-0,008	-0,016
-151,877	129,648	-0,095	-0,087
-150,862	-93,418	0,021	-0,004
-149,847	238,869	-0,014	0,016
-148,833	-200,000	-0,001	-0,146
-147,818	124,610	0,072	0,064
-146,804	800,000	-0,005	0,012
-145,789	356,474	0,056	-0,080
-144,775	334,898	0,055	0,075
-143,760	120,445	-0,123	-0,109
-142,745	85,639	0,029	-0,022
-141,731	-83,621	-0,076	0,017
-140,716	-200,000	0,005	0,124
-139,702	-200,000	-0,037	0,138
-138,687	604,579	0,057	0,102
-137,672	364,192	-0,131	0,187
-136,658	-97,324	-0,093	0,017
-135,643	243,650	0,066	0,078
-134,629	-200,000	-0,030	0,111
-133,614	663,247	-0,110	0,202
-132,599	83,902	0,031	-0,024
-131,585	-31,234	0,106	0,042
-130,570	-200,000	0,009	0,035
-129,556	-200,000	0,006	-0,078
-128,541	122,925	-0,122	-0,109
-127,526	34,256	0,026	0,016
-126,512	-164,401	0,110	-0,004
-125,497	233,310	0,039	-0,045
-124,483	-2,238	0,031	-0,015
-123,468	-112,700	-0,045	-0,006
-122,453	800,000	0,032	-0,084
-121,439	-28,793	-0,092	0,038
-120,424	-200,000	0,031	-0,125
-119,410	-73,349	0,049	0,013
