DTS Sentinel unit serial number:	SN410029Multiplexer serial number:	ORYXHardware model number:	OX2-SRSoftware version number:	ORYX F/W v4,00 Oryx Data Collector v3.7.2.0data status	okinstallation	B6 Nyhavnadifferential loss correction	single-endedforward channel	channel 2reverse channel	N/Adate	2023/12/07time	15:15:08forward acquisition time	300,00reverse acquisition time	0,00gamma	499,1914k internal	0,3144k external	0,3144temperature offset calibration	1,0000default loss term (dB/km)	0,3820temperature slope calibration	1,0000multiplexer offset coefficient	1,0000multiplexer slope coefficient	1,0000fibre end	0,00T internal ref (°C)	14,28T ext. ref 1 (°C)	-1,88T ext. ref 2 (°C)	-1,87length (m)	temperature (°C)	Stokes	anti-Stokes-744,400	-88,202	0,225	-0,050
-743,385	-95,809	-0,321	-0,063
-742,371	-12,709	0,136	-0,066
-741,356	-200,000	-0,292	0,000
-740,342	136,453	0,082	0,079
-739,327	-72,774	-0,313	0,085
-738,312	-122,711	0,146	0,017
-737,298	-132,054	-0,290	-0,028
-736,283	-200,000	0,009	0,087
-735,269	-186,766	-0,296	-0,003
-734,254	78,639	0,111	0,088
-733,239	-18,501	-0,372	-0,171
-732,225	-74,335	0,262	0,070
-731,210	-148,465	-0,055	0,003
-730,196	462,181	-0,048	0,079
-729,181	-70,939	0,040	0,011
-728,167	-200,000	0,026	0,140
-727,152	1,195	-0,061	0,032
-726,137	43,129	-0,146	-0,099
-725,123	-200,000	0,001	-0,024
-724,108	144,491	0,047	-0,046
-723,094	93,120	-0,068	-0,057
-722,079	-30,695	-0,158	0,066
-721,064	-200,000	0,004	-0,024
-720,050	-120,281	0,121	0,015
-719,035	116,074	0,129	-0,116
-718,021	98,356	-0,094	0,080
-717,006	800,000	-0,054	-0,128
-715,991	319,161	-0,081	-0,114
-714,977	270,399	0,068	-0,088
-713,962	1,939	-0,017	0,009
-712,948	-200,000	-0,020	-0,090
-711,933	-200,000	-0,020	-0,073
-710,918	282,323	-0,031	0,041
-709,904	20,025	-0,089	0,053
-708,889	191,634	-0,078	0,087
-707,875	800,000	0,026	0,066
-706,860	82,378	0,011	0,008
-705,845	-178,111	-0,052	0,001
-704,831	800,000	-0,022	-0,055
-703,816	752,592	0,024	-0,049
-702,802	-66,457	0,084	-0,024
-701,787	-61,292	-0,128	-0,040
-700,772	-97,911	-0,055	-0,010
-699,758	-200,000	0,001	0,036
-698,743	783,357	0,010	-0,021
-697,729	227,091	-0,047	0,056
-696,714	311,833	-0,040	0,055
-695,699	-88,399	0,096	-0,021
-694,685	27,955	-0,120	0,075
-693,670	5,468	0,064	0,035
-692,656	-148,394	0,042	0,003
-691,641	73,135	-0,092	-0,071
-690,627	-115,066	0,122	0,017
-689,612	-200,000	0,009	0,099
-688,597	800,000	-0,032	0,072
-687,583	94,447	-0,146	0,123
-686,568	424,951	0,057	-0,091
-685,554	-73,224	0,086	0,023
-684,539	800,000	0,022	-0,049
-683,524	233,095	-0,128	0,156
-682,510	550,074	0,037	0,066
-681,495	554,882	0,062	0,111
-680,481	-200,000	0,039	-0,263
-679,466	132,861	0,048	0,045
-678,451	-94,768	-0,125	-0,025
-677,437	-111,200	-0,039	-0,006
-676,422	22,993	0,180	0,109
-675,408	52,312	0,094	-0,066
-674,393	11,782	-0,148	-0,084
-673,378	121,275	-0,145	-0,133
-672,364	-123,970	-0,077	-0,009
-671,349	233,170	0,053	0,065
-670,335	-200,000	0,027	0,094
-669,320	117,721	0,054	-0,050
-668,305	-40,896	0,053	0,020
-667,291	-66,184	0,140	-0,041
-666,276	-29,854	0,030	0,013
-665,262	49,023	-0,134	-0,093
-664,247	541,052	0,031	-0,055
-663,232	50,378	0,130	0,091
-662,218	-90,016	-0,088	-0,019
-661,203	-200,000	-0,020	-0,077
-660,189	-22,982	0,156	-0,069
-659,174	-200,000	-0,013	-0,111
-658,159	441,342	-0,059	-0,095
-657,145	120,541	0,083	-0,076
-656,130	800,000	0,073	-0,216
-655,116	-200,000	0,012	-0,114
-654,101	-200,000	0,011	-0,051
-653,086	-200,000	0,009	0,048
-652,072	-200,000	0,028	-0,096
-651,057	-200,000	-0,032	-0,178
-650,043	309,822	0,093	-0,129
-649,028	204,488	-0,029	-0,033
-648,014	-156,360	0,080	-0,004
-646,999	800,000	-0,009	-0,025
-645,984	-200,000	0,001	0,095
-644,970	45,267	-0,079	-0,054
-643,955	93,822	0,104	-0,087
-642,941	-86,408	-0,146	-0,033
-641,926	800,000	-0,021	-0,062
-640,911	-95,808	0,099	0,019
-639,897	167,955	-0,048	-0,050
-638,882	-200,000	-0,002	-0,083
-637,868	67,098	-0,056	-0,042
-636,853	440,055	-0,092	-0,149
-635,838	-46,189	0,067	-0,024
-634,824	-200,000	-0,009	-0,177
-633,809	56,453	0,049	-0,035
-632,795	-94,346	-0,091	-0,018
-631,780	233,360	0,121	0,147
-630,765	36,014	-0,053	0,034
-629,751	648,915	-0,087	-0,165
-628,736	-183,579	-0,033	-0,000
-627,722	307,931	-0,025	-0,035
-626,707	-200,000	-0,003	-0,044
-625,692	55,815	0,063	-0,045
-624,678	-61,661	-0,113	-0,035
-623,663	326,257	-0,032	-0,045
-622,649	19,712	0,098	-0,058
-621,634	-162,860	0,130	0,005
-620,619	274,046	-0,051	0,067
-619,605	-200,000	-0,003	0,032
-618,590	41,414	0,048	0,032
-617,576	-5,879	0,020	0,010
-616,561	-192,080	-0,027	-0,000
-615,546	35,874	-0,116	0,075
-614,532	-108,196	0,043	0,007
-613,517	50,496	-0,107	0,074
-612,503	71,996	-0,030	-0,023
-611,488	203,090	0,075	0,086
-610,474	-200,000	-0,017	0,147
-609,459	-101,540	0,122	-0,022
-608,444	189,928	-0,026	0,029
-607,430	-200,000	-0,014	-0,117
-606,415	-200,000	0,006	0,035
-605,401	126,672	0,005	-0,005
-604,386	84,441	0,085	-0,068
-603,371	2,920	0,057	0,030
-602,357	38,093	0,023	-0,015
-601,342	335,586	0,042	0,061
-600,328	-4,083	-0,120	-0,061
-599,313	500,639	-0,106	-0,180
-598,298	60,139	0,049	0,036
-597,284	800,000	0,024	0,059
-596,269	-45,551	-0,144	0,052
-595,255	21,876	0,069	0,042
-594,240	-125,749	-0,028	-0,003
-593,225	197,276	0,057	0,064
-592,211	366,973	-0,048	-0,072
-591,196	800,000	0,050	-0,115
-590,182	800,000	0,037	-0,102
-589,167	-200,000	-0,035	0,158
-588,152	85,273	-0,089	0,072
-587,138	-200,000	-0,018	-0,132
-586,123	800,000	0,043	-0,095
-585,109	218,087	0,102	-0,120
-584,094	240,545	0,045	-0,056
-583,079	340,439	0,037	0,054
-582,065	137,556	0,043	0,041
-581,050	33,895	0,033	-0,021
-580,036	237,884	-0,029	-0,036
-579,021	-200,000	-0,033	-0,119
-578,006	-113,248	-0,116	0,017
-576,992	34,724	0,126	0,081
-575,977	132,342	-0,042	0,040
-574,963	800,000	0,053	0,137
-573,948	-40,647	0,036	-0,014
-572,934	138,032	-0,057	-0,055
-571,919	56,091	0,087	-0,062
-570,904	-43,475	-0,075	0,028
-569,890	-1,641	-0,092	0,048
-568,875	79,996	0,061	0,048
-567,861	17,673	0,079	0,046
-566,846	231,965	-0,063	-0,077
-565,831	800,000	0,044	-0,138
-564,817	800,000	-0,038	-0,119
-563,802	-200,000	0,006	0,024
-562,788	-99,391	-0,061	0,011
-561,773	-174,928	-0,098	0,002
-560,758	-200,000	-0,027	0,115
-559,744	800,000	-0,042	-0,090
-558,729	-17,245	-0,119	-0,055
-557,715	101,961	0,011	-0,009
-556,700	-149,604	-0,088	0,005
-555,685	-200,000	0,011	-0,123
-554,671	134,170	-0,084	-0,080
-553,656	111,983	-0,021	0,019
-552,642	-73,721	0,098	0,026
-551,627	-153,541	-0,110	-0,005
-550,612	800,000	0,008	0,025
-549,598	-200,000	0,003	-0,028
-548,583	167,940	-0,028	0,029
-547,569	800,000	0,058	-0,136
-546,554	70,726	0,045	0,034
-545,539	77,115	-0,058	0,045
-544,525	800,000	0,035	-0,107
-543,510	28,508	-0,043	0,027
-542,496	-200,000	0,010	-0,125
-541,481	540,136	-0,033	0,059
-540,466	373,392	0,107	0,161
-539,452	180,857	0,047	-0,051
-538,437	-200,000	0,030	0,108
-537,423	-83,511	0,019	0,004
-536,408	-65,086	-0,144	0,042
-535,393	800,000	0,039	0,089
-534,379	-84,759	-0,088	0,020
-533,364	800,000	-0,035	0,112
-532,350	102,548	0,040	0,034
-531,335	800,000	0,045	0,136
-530,321	-200,000	0,001	-0,104
-529,306	-125,481	0,035	0,004
-528,291	-200,000	0,004	-0,099
-527,277	329,323	-0,067	-0,095
-526,262	-200,000	-0,028	-0,107
-525,248	108,928	-0,021	0,019
-524,233	-120,382	0,047	-0,006
-523,218	-200,000	0,003	0,104
-522,204	26,797	-0,062	0,038
-521,189	800,000	0,025	-0,068
-520,175	118,244	-0,117	-0,106
-519,160	121,327	-0,032	0,029
-518,145	-120,767	0,139	-0,017
-517,131	-200,000	-0,018	-0,074
-516,116	184,530	-0,087	0,095
-515,102	-21,640	-0,086	-0,038
-514,087	34,837	-0,061	-0,039
-513,072	-106,007	0,017	0,003
-512,058	800,000	0,051	0,166
-511,043	-146,906	0,080	0,005
-510,029	-200,000	0,022	-0,115
-509,014	-30,287	0,117	0,048
-507,999	370,814	0,017	0,025
-506,985	598,088	-0,016	-0,028
-505,970	104,323	0,074	0,064
-504,956	177,223	0,006	0,006
-503,941	664,931	0,043	-0,081
-502,926	183,953	0,063	0,068
-501,912	455,449	0,014	0,023
-500,897	-68,522	-0,097	-0,027
-499,883	800,000	-0,072	-0,189
-498,868	800,000	0,046	-0,147
-497,853	800,000	-0,036	-0,111
-496,839	-155,218	0,115	0,005
-495,824	-108,294	0,065	0,010
-494,810	-57,445	-0,030	-0,010
-493,795	644,186	0,051	-0,097
-492,781	800,000	-0,057	0,169
-491,766	800,000	-0,015	0,030
-490,751	41,412	-0,081	0,054
-489,737	474,708	0,051	0,085
-488,722	-200,000	-0,014	-0,078
-487,708	800,000	-0,093	0,192
-486,693	-61,468	-0,049	-0,015
-485,678	170,583	-0,113	-0,119
-484,664	-39,771	-0,087	0,033
-483,649	-47,015	0,090	-0,032
-482,635	-200,000	0,020	-0,167
-481,620	-200,000	0,004	-0,018
-480,605	-30,765	0,050	-0,021
-479,591	-13,468	0,099	0,047
-478,576	-200,000	0,019	-0,134
-477,562	214,142	-0,034	0,040
-476,547	-90,032	-0,078	0,017
-475,532	-200,000	0,033	-0,232
-474,518	-200,000	-0,006	0,025
-473,503	452,929	0,021	0,034
-472,489	-200,000	0,006	0,057
-471,474	209,131	0,023	-0,027
-470,459	800,000	0,033	-0,087
-469,445	-11,701	-0,118	-0,056
-468,430	-12,791	-0,108	-0,051
-467,416	800,000	-0,021	0,050
-466,401	-200,000	0,013	0,050
-465,386	52,869	-0,034	-0,024
-464,372	-125,456	0,061	-0,007
-463,357	-200,000	-0,005	0,049
-462,343	-7,430	-0,054	0,027
-461,328	25,785	-0,102	0,062
-460,313	-200,000	0,037	-0,141
-459,299	-200,000	-0,027	-0,134
-458,284	709,746	-0,113	0,219
-457,270	69,896	-0,076	-0,057
-456,255	187,745	0,045	-0,049
-455,241	-83,694	-0,148	0,034
-454,226	523,189	-0,067	-0,116
-453,211	-116,511	-0,062	-0,008
-452,197	454,313	0,094	0,153
-451,182	243,996	-0,055	0,068
-450,168	-87,778	-0,112	-0,024
-449,153	797,655	-0,054	-0,110
-448,138	-200,000	-0,000	0,030
-447,124	-65,830	-0,048	-0,014
-446,109	800,000	0,055	-0,170
-445,095	800,000	0,012	0,025
-444,080	117,674	0,021	-0,019
-443,065	-92,429	0,105	-0,021
-442,051	-18,430	-0,137	-0,063
-441,036	-56,743	-0,095	0,030
-440,022	92,647	0,093	-0,077
-439,007	-57,953	-0,046	-0,015
-437,992	226,578	0,131	0,155
-436,978	135,619	-0,068	-0,064
-435,963	609,848	0,064	0,117
-434,949	15,945	0,017	0,010
-433,934	-14,699	0,070	-0,033
-432,919	115,309	0,017	0,015
-431,905	-200,000	-0,001	0,157
-430,890	800,000	-0,004	-0,011
-429,876	800,000	-0,060	0,159
-428,861	139,981	0,016	0,016
-427,846	-98,683	0,174	0,032
-426,832	-142,287	-0,096	0,007
-425,817	-85,568	0,004	0,001
-424,803	800,000	0,016	0,040
-423,788	-92,317	0,160	0,033
-422,773	-200,000	0,034	0,139
-421,759	800,000	0,029	0,080
-420,744	-42,353	0,172	-0,064
-419,730	-200,000	-0,002	-0,069
-418,715	128,173	-0,149	-0,139
-417,701	343,443	0,026	0,037
-416,686	-29,720	0,050	0,021
-415,671	115,650	-0,127	0,114
-414,657	60,149	-0,046	0,033
-413,642	-200,000	0,019	0,134
-412,628	-138,860	0,084	-0,007
-411,613	-180,267	-0,114	-0,002
-410,598	-104,082	-0,047	-0,008
-409,584	-200,000	0,272	0,000
-408,569	800,000	0,045	0,106
-407,555	136,905	-0,012	0,012
-406,540	-51,069	0,059	-0,020
-405,525	800,000	0,053	0,109
-404,511	-102,340	-0,184	-0,032
-403,496	800,000	0,025	-0,066
-402,482	-133,625	0,040	-0,004
-401,467	-101,501	0,115	-0,020
-400,452	-5,794	0,041	0,021
-399,438	5,251	0,054	-0,029
-398,423	-200,000	-0,005	0,057
-397,409	104,498	-0,165	-0,142
-396,394	-200,000	0,000	0,018
-395,379	-93,362	-0,063	-0,013
-394,365	255,322	0,071	0,089
-393,350	-136,467	0,159	0,013
-392,336	-200,000	-0,003	0,107
-391,321	-112,137	0,075	-0,011
-390,306	-96,773	-0,095	-0,018
-389,292	-200,000	-0,005	0,025
-388,277	776,157	-0,057	-0,113
-387,263	-14,007	0,048	-0,023
-386,248	-12,934	0,055	0,026
-385,233	-14,758	-0,088	0,041
-384,219	27,367	-0,015	0,009
-383,204	-54,085	-0,064	0,021
-382,190	800,000	0,023	-0,071
-381,175	-200,000	-0,073	-0,000
-380,160	-59,468	0,064	-0,020
-379,146	395,054	0,057	0,087
-378,131	600,768	-0,075	0,136
-377,117	37,128	0,010	-0,006
-376,102	800,000	-0,003	0,009
-375,088	-73,915	-0,077	-0,020
-374,073	38,681	0,040	-0,026
-373,058	308,425	0,049	0,067
-372,044	107,380	-0,078	0,067
-371,029	85,972	0,032	0,026
-370,015	114,518	0,054	-0,048
-369,000	230,163	-0,026	0,032
-367,985	-63,454	-0,131	0,039
-366,971	-36,579	0,055	0,021
-365,956	-200,000	0,010	-0,075
-364,942	207,934	0,054	0,062
-363,927	-77,982	0,063	-0,016
-362,912	-72,750	0,028	-0,007
-361,898	-136,928	0,104	-0,009
-360,883	492,591	-0,127	-0,213
-359,869	297,602	0,081	0,109
-358,854	-200,000	0,007	0,034
-357,839	-138,627	0,047	0,004
-356,825	-200,000	0,010	0,072
-355,810	406,685	-0,011	0,018
-354,796	273,540	0,072	0,092
-353,781	-141,840	0,076	-0,005
-352,766	800,000	-0,038	-0,079
-351,752	63,648	-0,069	-0,050
-350,737	-200,000	0,001	-0,062
-349,723	-60,148	-0,110	0,034
-348,708	125,846	-0,030	-0,027
-347,693	-105,839	-0,069	-0,011
-346,679	-200,000	-0,003	0,011
-345,664	142,094	-0,047	0,045
-344,650	264,360	-0,032	-0,041
-343,635	-48,368	-0,022	-0,008
-342,620	127,893	-0,053	0,050
-341,606	77,340	-0,083	0,065
-340,591	-200,000	0,006	-0,110
-339,577	-125,566	0,030	-0,003
-338,562	-0,666	0,088	0,045
-337,548	62,368	0,095	-0,069
-336,533	-197,132	0,078	0,000
-335,518	103,653	0,064	0,055
-334,504	-200,000	0,005	-0,053
-333,489	166,236	-0,128	-0,133
-332,475	26,491	-0,054	-0,033
-331,460	800,000	0,023	-0,058
-330,445	-200,000	0,042	-0,142
-329,431	238,740	-0,024	0,029
-328,416	1,031	0,075	0,039
-327,402	-173,559	0,092	0,002
-326,387	265,750	0,055	-0,070
-325,372	55,937	-0,086	-0,061
-324,358	472,084	0,063	-0,104
-323,343	158,095	0,067	0,067
-322,329	-112,828	-0,106	0,015
-321,314	57,922	0,093	-0,066
-320,299	-123,350	0,183	0,021
-319,285	-200,000	0,002	0,104
-318,270	-200,000	-0,006	-0,027
-317,256	800,000	0,036	-0,078
-316,241	-200,000	-0,020	-0,083
-315,226	135,500	0,106	0,101
-314,212	18,837	0,104	-0,061
-313,197	-107,675	0,024	-0,004
-312,183	-70,482	0,152	0,042
-311,168	659,340	-0,009	0,016
-310,153	744,997	-0,045	-0,089
-309,139	-176,437	-0,025	0,000
-308,124	-47,356	0,034	0,012
-307,110	7,840	0,081	0,044
-306,095	-200,000	0,013	-0,048
-305,080	-123,942	-0,083	-0,009
-304,066	-200,000	0,003	0,139
-303,051	-200,000	0,009	-0,079
-302,037	303,890	0,021	0,028
-301,022	411,521	-0,010	0,016
-300,008	-200,000	0,014	0,099
-298,993	5,709	0,133	0,072
-297,978	-200,000	-0,019	0,063
-296,964	81,081	-0,143	-0,112
-295,949	171,275	-0,150	-0,157
-294,935	77,310	-0,068	-0,053
-293,920	93,388	-0,034	-0,028
-292,905	78,432	0,136	0,106
-291,891	800,000	0,064	0,182
-290,876	-46,140	-0,075	0,027
-289,862	32,991	0,010	-0,006
-288,847	-175,928	-0,032	-0,001
-287,832	41,480	-0,011	0,007
-286,818	117,785	-0,124	0,111
-285,803	800,000	0,088	0,200
-284,789	800,000	0,039	0,104
-283,774	-18,173	0,093	0,042
-282,759	-119,309	0,075	0,009
-281,745	-121,453	-0,119	0,014
-280,730	611,800	-0,089	0,162
-279,716	-120,284	0,137	0,017
-278,701	-38,115	-0,055	-0,021
-277,686	174,269	0,024	0,025
-276,672	56,810	-0,080	-0,057
-275,657	400,909	0,024	0,037
-274,643	406,282	-0,035	0,054
-273,628	-8,164	-0,103	0,050
-272,613	51,904	-0,111	0,077
-271,599	800,000	0,021	0,061
-270,584	141,539	0,050	-0,048
-269,570	-39,858	-0,030	0,011
-268,555	800,000	0,025	-0,061
-267,540	-77,302	-0,020	0,005
-266,526	224,289	-0,102	-0,120
-265,511	9,476	-0,054	-0,030
-264,497	259,726	-0,049	0,061
-263,482	800,000	-0,042	-0,114
-262,467	800,000	0,035	0,086
-261,453	800,000	-0,048	0,098
-260,438	-200,000	0,020	-0,194
-259,424	-200,000	-0,027	0,131
-258,409	-84,070	-0,049	0,011
-257,395	-41,500	-0,035	-0,013
-256,380	-70,718	0,156	0,042
-255,365	65,239	0,126	0,092
-254,351	244,602	-0,030	0,036
-253,336	-67,028	-0,137	0,039
-252,322	66,930	0,045	-0,033
-251,307	-200,000	0,001	-0,025
-250,292	-144,270	0,070	0,005
-249,278	340,358	0,044	0,063
-248,263	-200,000	0,020	0,120
-247,249	35,098	-0,119	0,076
-246,234	-200,000	-0,008	-0,057
-245,219	189,529	-0,106	-0,115
-244,205	-200,000	-0,014	-0,109
-243,190	391,817	-0,037	-0,056
-242,176	-18,131	0,038	0,017
-241,161	258,267	-0,043	0,054
-240,146	-102,066	0,055	0,010
-239,132	1,173	-0,055	-0,029
-238,117	-200,000	-0,022	-0,105
-237,103	800,000	0,014	-0,031
-236,088	-30,082	0,092	0,038
-235,073	125,437	-0,006	-0,005
-234,059	-33,259	0,092	0,037
-233,044	-116,872	0,113	0,015
-232,030	-200,000	0,006	0,082
-231,015	800,000	-0,041	-0,128
-230,000	247,603	-0,056	-0,069
-228,986	-200,000	0,001	0,006
-227,971	-93,535	-0,081	-0,016
-226,957	-200,000	-0,001	0,055
-225,942	800,000	0,040	0,121
-224,927	-200,000	-0,001	0,060
-223,913	-112,768	-0,027	-0,004
-222,898	800,000	0,028	-0,068
-221,884	-31,178	0,113	-0,046
-220,869	-200,000	-0,008	0,131
-219,855	-141,086	-0,092	0,007
-218,840	591,171	0,054	0,097
-217,825	192,096	0,100	0,110
-216,811	-120,826	-0,037	0,004
-215,796	-200,000	0,007	-0,083
-214,782	-200,000	0,009	-0,161
-213,767	98,534	-0,108	0,090
-212,752	-200,000	0,027	0,122
-211,738	-200,000	0,002	-0,022
-210,723	-51,017	0,039	-0,013
-209,709	357,029	-0,069	-0,100
-208,694	-200,000	-0,008	0,055
-207,679	1,183	0,036	-0,019
-206,665	-200,000	0,023	0,095
-205,650	-200,000	-0,020	0,134
-204,636	800,000	0,055	0,156
-203,621	-200,000	0,000	0,094
-202,606	324,322	-0,072	0,100
-201,592	800,000	-0,045	-0,139
-200,577	-160,814	-0,114	-0,004
-199,563	153,773	0,062	0,062
-198,548	-88,895	-0,123	0,026
-197,533	-26,072	0,133	0,056
-196,519	84,763	0,104	-0,082
-195,504	155,986	0,104	-0,104
-194,490	157,802	-0,096	-0,097
-193,475	375,591	0,032	0,047
-192,460	800,000	0,038	-0,122
-191,446	82,075	0,056	-0,044
-190,431	-137,732	-0,102	-0,008
-189,417	212,485	-0,048	0,055
-188,402	-141,738	0,087	-0,006
-187,387	-105,592	-0,104	0,017
-186,373	800,000	0,086	-0,190
-185,358	-0,062	0,177	-0,091
-184,344	-31,114	0,039	0,016
-183,329	-15,740	0,103	0,047
-182,315	564,353	0,142	-0,251
-181,300	-158,681	0,033	0,001
-180,285	800,000	-0,030	0,063
-179,271	-200,000	-0,061	-0,245
-178,256	-104,946	-0,105	-0,017
-177,242	34,461	0,062	0,039
-176,227	-137,743	-0,124	0,010
-175,212	-200,000	0,012	0,090
-174,198	-200,000	0,008	0,083
-173,183	680,915	0,031	-0,060
-172,169	290,041	0,029	0,039
-171,154	253,366	-0,066	0,082
-170,139	217,486	-0,040	0,046
-169,125	707,456	0,032	0,061
-168,110	-50,836	0,071	0,024
-167,096	122,976	0,040	-0,037
-166,081	-114,119	-0,096	-0,013
-165,066	110,789	-0,110	0,096
-164,052	-74,039	0,091	-0,024
-163,037	-150,209	-0,089	0,005
-162,023	-89,145	-0,170	0,036
-161,008	800,000	0,041	0,116
-159,993	110,373	-0,044	-0,039
-158,979	-200,000	0,002	-0,138
-157,964	11,331	0,144	-0,080
-156,950	114,096	-0,065	0,057
-155,935	-142,877	0,208	0,014
-154,920	-200,000	-0,033	0,162
-153,906	70,095	0,107	0,079
-152,891	-52,787	-0,027	-0,009
-151,877	-13,021	0,045	-0,021
-150,862	-200,000	0,003	-0,093
-149,847	-113,962	-0,106	0,015
-148,833	56,573	0,071	-0,050
-147,818	-200,000	0,011	-0,045
-146,804	129,837	0,074	0,069
-145,789	-200,000	0,041	0,176
-144,775	211,192	0,056	0,064
-143,760	315,984	0,017	-0,023
-142,745	800,000	-0,052	-0,115
-141,731	-97,943	-0,135	-0,025
-140,716	423,435	0,057	-0,089
-139,702	-200,000	0,017	-0,071
-138,687	-200,000	-0,024	0,098
-137,672	-200,000	0,011	-0,078
-136,658	711,825	0,060	-0,116
-135,643	527,476	0,030	-0,051
-134,629	206,493	0,131	0,148
-133,614	90,350	-0,045	0,036
-132,599	411,403	-0,031	0,047
-131,585	800,000	-0,005	-0,011
-130,570	106,382	-0,141	-0,121
-129,556	800,000	0,030	-0,075
-128,541	82,853	-0,123	-0,096
-127,526	370,336	-0,095	-0,139
-126,512	708,420	-0,054	0,104
-125,497	-200,000	-0,031	0,127
-124,483	426,919	-0,056	-0,087
-123,468	-32,163	-0,071	-0,028
-122,453	0,387	-0,153	-0,079
-121,439	-200,000	0,002	0,167
-120,424	-123,059	-0,137	-0,016
-119,410	-200,000	-0,030	-0,114
-118,395	-81,146	0,100	-0,024
