DTS Sentinel unit serial number:	SN410029Multiplexer serial number:	ORYXHardware model number:	OX2-SRSoftware version number:	ORYX F/W v4,00 Oryx Data Collector v3.7.2.0data status	okinstallation	B6 Nyhavnadifferential loss correction	single-endedforward channel	channel 2reverse channel	N/Adate	2023/12/11time	01:15:08forward acquisition time	300,00reverse acquisition time	0,00gamma	499,1914k internal	0,3122k external	0,3122temperature offset calibration	1,0000default loss term (dB/km)	0,3820temperature slope calibration	1,0000multiplexer offset coefficient	1,0000multiplexer slope coefficient	1,0000fibre end	0,00T internal ref (°C)	22,17T ext. ref 1 (°C)	5,44T ext. ref 2 (°C)	5,48length (m)	temperature (°C)	Stokes	anti-Stokes-744,400	257,301	0,088	-0,114
-743,385	-70,468	-0,330	0,092
-742,371	396,667	0,056	0,087
-741,356	800,000	-0,065	0,152
-740,342	387,371	-0,067	0,104
-739,327	-29,336	-0,254	0,108
-738,312	-200,000	-0,015	0,080
-737,298	-146,050	-0,283	-0,018
-736,283	-141,794	0,106	0,008
-735,269	118,660	-0,237	0,218
-734,254	800,000	0,048	0,143
-733,239	-21,325	-0,407	-0,185
-732,225	-133,131	0,139	0,013
-731,210	151,716	-0,149	0,151
-730,196	40,221	-0,077	0,052
-729,181	290,929	0,043	-0,058
-728,167	142,676	-0,041	-0,041
-727,152	-200,000	0,029	0,137
-726,137	776,793	-0,029	-0,059
-725,123	-200,000	-0,047	-0,194
-724,108	757,946	-0,024	-0,049
-723,094	-74,803	-0,192	-0,051
-722,079	-156,172	-0,136	0,006
-721,064	-68,379	-0,024	-0,007
-720,050	32,489	-0,026	-0,017
-719,035	-122,509	-0,083	-0,010
-718,021	-115,380	-0,125	0,017
-717,006	90,671	0,070	0,058
-715,991	347,345	-0,027	-0,040
-714,977	-15,194	-0,129	-0,061
-713,962	800,000	0,021	-0,048
-712,948	-200,000	0,026	0,129
-711,933	-91,296	-0,128	0,027
-710,918	-200,000	0,042	-0,157
-709,904	87,608	-0,088	-0,073
-708,889	144,500	0,003	0,003
-707,875	434,777	-0,061	-0,100
-706,860	-200,000	0,019	-0,125
-705,845	800,000	0,024	-0,071
-704,831	-200,000	-0,017	-0,087
-703,816	800,000	0,023	0,050
-702,802	-200,000	0,007	0,040
-701,787	401,855	-0,090	-0,142
-700,772	-200,000	-0,023	-0,080
-699,758	-200,000	0,000	-0,063
-698,743	78,405	0,036	0,029
-697,729	800,000	0,006	-0,016
-696,714	-19,526	-0,021	-0,010
-695,699	139,070	-0,065	-0,063
-694,685	-60,430	-0,050	-0,016
-693,670	521,195	0,033	-0,058
-692,656	800,000	0,058	0,136
-691,641	-38,547	0,089	0,035
-690,627	130,427	0,125	-0,119
-689,612	25,581	0,038	0,023
-688,597	250,135	-0,049	0,061
-687,583	578,561	-0,046	-0,084
-686,568	425,468	-0,077	-0,124
-685,554	125,298	-0,127	-0,119
-684,539	-200,000	0,006	-0,037
-683,524	800,000	0,066	-0,146
-682,510	101,406	-0,011	-0,010
-681,495	-200,000	-0,006	0,030
-680,481	191,107	0,117	0,131
-679,466	182,952	-0,196	-0,216
-678,451	-22,575	-0,098	0,044
-677,437	368,254	-0,044	0,067
-676,422	-20,253	0,062	-0,028
-675,408	800,000	0,020	0,054
-674,393	-200,000	-0,020	-0,098
-673,378	-200,000	-0,034	-0,167
-672,364	365,518	0,083	-0,124
-671,349	-200,000	-0,018	0,069
-670,335	454,299	-0,050	-0,082
-669,320	163,207	0,026	-0,027
-668,305	-200,000	0,007	0,038
-667,291	-64,224	0,029	0,009
-666,276	-21,716	0,049	-0,022
-665,262	800,000	0,017	-0,056
-664,247	78,873	0,127	0,101
-663,232	-110,911	0,074	-0,011
-662,218	584,452	0,051	0,093
-661,203	328,262	-0,042	0,060
-660,189	160,810	0,035	-0,036
-659,174	154,483	0,105	0,107
-658,159	-200,000	-0,011	-0,049
-657,145	800,000	0,011	-0,034
-656,130	-200,000	-0,002	-0,028
-655,116	150,624	-0,025	-0,026
-654,101	-100,780	0,034	-0,006
-653,086	800,000	0,012	-0,035
-652,072	-200,000	-0,003	0,153
-651,057	800,000	-0,013	0,041
-650,043	43,904	-0,071	-0,048
-649,028	32,826	-0,085	0,055
-648,014	-71,806	-0,093	0,026
-646,999	225,917	-0,033	-0,040
-645,984	-200,000	-0,011	0,051
-644,970	27,381	-0,077	-0,048
-643,955	7,737	-0,061	-0,034
-642,941	-50,179	-0,117	0,041
-641,926	-55,221	-0,077	-0,026
-640,911	-200,000	-0,007	0,080
-639,897	-200,000	0,007	0,045
-638,882	-113,676	0,087	-0,012
-637,868	22,410	0,077	0,046
-636,853	800,000	-0,037	-0,080
-635,838	-23,777	0,087	-0,039
-634,824	325,301	0,052	0,074
-633,809	-63,750	0,053	-0,016
-632,795	-200,000	-0,006	0,060
-631,780	800,000	-0,026	-0,059
-630,765	-91,278	-0,035	-0,007
-629,751	800,000	-0,010	-0,025
-628,736	-200,000	-0,013	-0,043
-627,722	36,103	0,068	-0,044
-626,707	-200,000	-0,055	0,000
-625,692	-200,000	-0,018	0,064
-624,678	-200,000	0,020	-0,092
-623,663	-54,288	0,031	-0,010
-622,649	749,746	-0,038	-0,077
-621,634	174,181	-0,127	-0,136
-620,619	-200,000	0,001	-0,015
-619,605	-93,287	0,011	-0,002
-618,590	800,000	0,013	0,032
-617,576	800,000	-0,041	0,095
-616,561	-111,648	0,116	-0,017
-615,546	-83,271	-0,028	-0,007
-614,532	-200,000	-0,008	-0,035
-613,517	-65,631	0,061	-0,018
-612,503	-135,270	0,205	-0,018
-611,488	-200,000	-0,010	-0,038
-610,474	-30,477	-0,123	-0,051
-609,459	119,503	-0,027	0,025
-608,444	-98,484	-0,155	-0,029
-607,430	352,081	-0,060	0,088
-606,415	800,000	0,012	-0,027
-605,401	151,234	0,050	-0,050
-604,386	53,875	-0,014	-0,010
-603,371	-200,000	0,006	0,032
-602,357	-76,187	0,104	0,027
-601,342	121,238	0,087	-0,080
-600,328	-200,000	-0,001	-0,070
-599,313	-170,812	-0,116	-0,003
-598,298	30,942	0,031	-0,020
-597,284	241,527	0,047	0,059
-596,269	-160,763	0,051	0,002
-595,255	402,406	-0,046	0,072
-594,240	800,000	-0,029	0,094
-593,225	117,747	-0,049	-0,045
-592,211	91,890	0,053	-0,044
-591,196	246,885	-0,067	0,084
-590,182	-200,000	0,023	-0,076
-589,167	5,978	0,077	0,042
-588,152	236,988	0,070	0,086
-587,138	800,000	-0,022	0,068
-586,123	-200,000	-0,001	0,079
-585,109	-75,801	0,086	-0,022
-584,094	120,767	-0,021	-0,020
-583,079	130,865	-0,061	0,058
-582,065	-200,000	-0,004	-0,059
-581,050	800,000	0,030	0,078
-580,036	-200,000	-0,011	-0,202
-579,021	426,767	-0,031	-0,050
-578,006	800,000	-0,028	-0,080
-576,992	539,798	0,048	0,085
-575,977	800,000	0,041	0,094
-574,963	800,000	0,052	-0,131
-573,948	-84,258	-0,166	-0,039
-572,934	746,720	-0,009	-0,019
-571,919	88,666	0,099	-0,081
-570,904	-16,002	0,073	-0,034
-569,890	466,058	0,049	-0,081
-568,875	-200,000	0,008	0,096
-567,861	-86,784	0,189	0,042
-566,846	-8,259	0,041	-0,020
-565,831	-11,553	-0,093	0,045
-564,817	-133,374	-0,201	0,018
-563,802	-84,321	-0,057	-0,013
-562,788	-69,966	-0,035	-0,010
-561,773	35,157	0,145	-0,094
-560,758	268,891	0,076	-0,099
-559,744	-104,286	0,117	-0,020
-558,729	-82,868	-0,091	0,022
-557,715	335,946	-0,034	0,049
-556,700	-51,589	-0,046	-0,016
-555,685	385,918	-0,049	-0,075
-554,671	3,701	-0,090	0,049
-553,656	461,271	0,076	0,126
-552,642	13,754	0,070	0,040
-551,627	-16,343	0,112	0,053
-550,612	107,294	0,060	-0,052
-549,598	-54,359	-0,095	-0,032
-548,583	-33,541	-0,012	-0,005
-547,569	-200,000	-0,010	-0,169
-546,554	-77,653	-0,063	0,016
-545,539	-90,577	0,063	0,013
-544,525	-200,000	-0,015	-0,078
-543,510	767,734	0,012	-0,024
-542,496	-200,000	-0,008	-0,160
-541,481	420,053	-0,071	-0,113
-540,466	60,099	-0,106	-0,078
-539,452	-74,953	0,122	0,032
-538,437	641,127	0,080	0,152
-537,423	-200,000	-0,020	0,098
-536,408	358,659	0,109	0,162
-535,393	-13,513	0,080	-0,038
-534,379	-200,000	0,009	-0,052
-533,364	21,012	-0,042	-0,025
-532,350	-200,000	0,007	0,056
-531,335	-5,325	-0,113	0,057
-530,321	-32,882	0,029	-0,012
-529,306	176,228	-0,076	0,082
-528,291	48,566	-0,105	0,072
-527,277	24,793	-0,066	0,040
-526,262	-141,023	-0,065	0,005
-525,248	-159,873	0,071	0,003
-524,233	800,000	0,026	0,079
-523,218	800,000	-0,069	0,154
-522,204	-200,000	-0,001	-0,018
-521,189	-91,022	0,050	0,011
-520,175	68,906	-0,084	-0,064
-519,160	-200,000	0,043	-0,142
-518,145	14,364	-0,022	-0,013
-517,131	-101,371	0,100	-0,018
-516,116	-99,281	0,065	-0,012
-515,102	186,295	0,039	-0,043
-514,087	-136,511	0,033	0,003
-513,072	123,131	0,033	-0,031
-512,058	800,000	-0,026	-0,079
-511,043	156,188	0,098	-0,100
-510,029	800,000	-0,011	0,022
-509,014	776,546	0,017	-0,035
-507,999	-200,000	0,011	0,053
-506,985	-200,000	0,021	0,125
-505,970	-115,995	-0,066	0,009
-504,956	-112,662	0,086	0,012
-503,941	512,891	0,044	0,076
-502,926	319,821	-0,036	0,050
-501,912	-109,344	-0,111	0,017
-500,897	44,323	0,077	-0,052
-499,883	-200,000	0,015	-0,054
-498,868	4,939	-0,127	-0,069
-497,853	-200,000	-0,037	-0,139
-496,839	-200,000	0,005	-0,021
-495,824	63,037	0,138	0,102
-494,810	333,520	0,073	-0,104
-493,795	-0,133	0,036	0,019
-492,781	-200,000	0,002	0,053
-491,766	-124,503	0,052	0,006
-490,751	-89,992	-0,201	-0,043
-489,737	-200,000	0,006	-0,098
-488,722	-19,946	0,067	0,030
-487,708	-200,000	0,027	0,088
-486,693	-45,839	0,053	0,019
-485,678	782,327	-0,029	-0,059
-484,664	800,000	0,039	0,091
-483,649	800,000	-0,027	0,058
-482,635	-200,000	-0,006	-0,101
-481,620	122,483	-0,084	-0,077
-480,605	165,601	-0,026	0,028
-479,591	-200,000	0,023	0,079
-478,576	397,469	-0,038	0,059
-477,562	260,223	0,015	0,019
-476,547	396,672	-0,086	-0,132
-475,532	789,497	-0,069	-0,140
-474,518	-200,000	-0,007	0,102
-473,503	-200,000	0,020	-0,100
-472,489	-144,008	0,088	-0,006
-471,474	800,000	-0,052	0,109
-470,459	111,644	-0,108	-0,096
-469,445	224,909	-0,077	-0,093
-468,430	-55,950	-0,234	0,077
-467,416	-200,000	0,024	0,171
-466,401	-200,000	0,009	-0,097
-465,386	47,124	-0,060	0,041
-464,372	326,986	-0,015	0,021
-463,357	800,000	-0,085	-0,185
-462,343	12,083	-0,156	-0,088
-461,328	328,635	-0,064	0,091
-460,313	-43,621	0,123	0,045
-459,299	193,225	0,118	0,131
-458,284	-24,875	0,098	0,043
-457,270	800,000	0,032	0,068
-456,255	-200,000	-0,026	0,121
-455,241	-3,200	0,004	0,002
-454,226	-200,000	0,054	-0,202
-453,211	-200,000	0,002	0,030
-452,197	-116,562	0,155	0,021
-451,182	794,989	0,026	0,053
-450,168	151,884	-0,018	0,018
-449,153	-200,000	0,026	0,114
-448,138	332,519	-0,028	-0,040
-447,124	411,566	-0,019	-0,030
-446,109	221,031	0,034	0,041
-445,095	662,168	0,046	0,088
-444,080	-64,936	0,134	0,040
-443,065	-200,000	-0,009	-0,067
-442,051	-55,792	-0,057	0,019
-441,036	-200,000	0,061	0,000
-440,022	468,005	-0,114	-0,188
-439,007	56,075	0,047	-0,034
-437,992	119,726	-0,024	-0,022
-436,978	271,299	0,073	0,095
-435,963	-141,216	-0,100	-0,007
-434,949	-14,518	-0,029	-0,014
-433,934	-73,708	-0,086	0,023
-432,919	-200,000	-0,018	0,106
-431,905	-36,046	0,095	0,038
-430,890	-8,521	0,039	0,019
-429,876	60,364	-0,083	0,061
-428,861	800,000	0,033	0,094
-427,846	-200,000	0,020	0,116
-426,832	158,135	-0,074	-0,076
-425,817	-194,121	-0,041	0,000
-424,803	339,609	0,073	-0,104
-423,788	-200,000	-0,002	0,060
-422,773	-33,232	0,047	-0,019
-421,759	-70,241	0,055	0,015
-420,744	-200,000	-0,017	0,178
-419,730	220,145	0,055	0,065
-418,715	-74,402	-0,066	-0,017
-417,701	-92,339	-0,188	-0,039
-416,686	-62,049	0,094	0,029
-415,671	485,804	0,071	0,119
-414,657	800,000	-0,010	0,029
-413,642	115,675	-0,023	-0,021
-412,628	-200,000	0,012	-0,055
-411,613	526,234	-0,024	-0,041
-410,598	-131,700	-0,227	0,022
-409,584	237,217	0,033	0,040
-408,569	506,411	0,053	-0,090
-407,555	-106,950	0,086	0,014
-406,540	-200,000	0,019	0,093
-405,525	-200,000	0,010	-0,087
-404,511	-86,475	-0,064	0,014
-403,496	72,248	0,086	-0,066
-402,482	23,194	-0,067	0,040
-401,467	16,525	-0,021	0,012
-400,452	349,019	0,081	0,117
-399,438	-68,501	-0,109	0,031
-398,423	15,293	-0,206	0,119
-397,409	14,485	0,103	0,059
-396,394	471,980	-0,032	-0,053
-395,379	83,879	-0,068	-0,055
-394,365	-200,000	-0,002	-0,015
-393,350	-200,000	-0,006	0,174
-392,336	-151,810	0,031	0,002
-391,321	47,381	0,107	-0,073
-390,306	-109,058	-0,078	-0,012
-389,292	800,000	-0,015	-0,046
-388,277	537,616	0,017	-0,030
-387,263	16,875	0,029	-0,017
-386,248	-200,000	0,001	0,027
-385,233	-141,848	0,056	-0,004
-384,219	102,704	0,079	-0,068
-383,204	458,907	0,014	0,022
-382,190	715,431	0,026	-0,050
-381,175	-200,000	-0,004	-0,060
-380,160	15,360	0,060	-0,034
-379,146	-200,000	-0,002	-0,080
-378,131	-200,000	0,044	0,152
-377,117	-200,000	-0,022	0,076
-376,102	82,145	-0,094	0,075
-375,088	0,335	-0,143	-0,075
-374,073	-200,000	0,026	-0,114
-373,058	132,204	0,012	-0,011
-372,044	-34,770	-0,011	-0,005
-371,029	702,259	0,031	-0,059
-370,015	-200,000	0,009	-0,087
-369,000	94,196	-0,050	-0,041
-367,985	260,425	-0,063	0,081
-366,971	134,553	0,042	-0,040
-365,956	58,282	0,029	-0,021
-364,942	241,715	0,033	0,041
-363,927	800,000	-0,035	0,074
-362,912	-40,166	-0,050	-0,019
-361,898	-200,000	0,015	-0,097
-360,883	800,000	0,032	-0,070
-359,869	-34,651	-0,042	-0,017
-358,854	20,047	0,030	0,018
-357,839	-200,000	0,002	0,152
-356,825	-19,760	0,034	-0,015
-355,810	-142,137	0,016	-0,001
-354,796	394,645	-0,062	-0,095
-353,781	-69,023	0,015	-0,004
-352,766	309,242	-0,045	-0,063
-351,752	233,657	0,096	-0,116
-350,737	95,617	-0,128	-0,107
-349,723	-109,104	0,018	-0,003
-348,708	-200,000	0,011	0,100
-347,693	-200,000	0,013	0,056
-346,679	240,732	-0,141	-0,173
-345,664	-125,860	0,126	-0,014
-344,650	760,877	-0,064	-0,128
-343,635	252,196	-0,007	0,009
-342,620	800,000	0,003	-0,008
-341,606	-40,742	-0,118	0,045
-340,591	6,792	-0,056	-0,030
-339,577	353,776	-0,071	-0,104
-338,562	52,273	0,030	0,021
-337,548	153,993	0,117	-0,117
-336,533	-52,125	0,130	0,044
-335,518	306,123	0,032	-0,044
-334,504	-200,000	0,014	-0,092
-333,489	-200,000	-0,002	0,028
-332,475	-200,000	0,021	0,111
-331,460	649,762	0,057	-0,107
-330,445	-106,882	0,157	-0,025
-329,431	148,148	0,115	0,114
-328,416	-15,425	-0,049	-0,023
-327,402	-200,000	0,015	-0,069
-326,387	-46,776	-0,081	0,029
-325,372	-162,225	0,024	0,001
-324,358	-200,000	-0,000	0,007
-323,343	-110,968	-0,015	0,002
-322,329	-75,678	-0,018	-0,005
-321,314	163,519	0,092	-0,095
-320,299	127,994	0,117	0,109
-319,285	131,615	-0,098	0,093
-318,270	-74,909	0,195	0,051
-317,256	-200,000	-0,019	-0,094
-316,241	-143,662	-0,117	0,008
-315,226	744,549	0,047	-0,093
-314,212	145,099	0,060	0,059
-313,197	277,266	0,037	0,048
-312,183	-200,000	-0,006	0,046
-311,168	0,511	0,062	-0,032
-310,153	431,617	-0,027	0,043
-309,139	2,785	-0,041	-0,022
-308,124	-200,000	0,018	0,112
-307,110	-53,616	0,120	0,040
-306,095	-17,146	-0,076	0,035
-305,080	-200,000	-0,001	-0,006
-304,066	479,081	0,018	-0,030
-303,051	63,458	-0,058	-0,043
-302,037	-200,000	-0,007	-0,101
-301,022	800,000	0,014	0,035
-300,008	245,997	0,048	0,060
-298,993	-69,877	0,092	0,026
-297,978	102,941	0,072	0,062
-296,964	-200,000	-0,032	-0,141
-295,949	800,000	0,026	-0,058
-294,935	13,804	-0,081	-0,046
-293,920	-150,339	0,008	0,000
-292,905	-92,770	0,205	0,042
-291,891	-200,000	-0,040	0,137
-290,876	-200,000	-0,011	-0,101
-289,862	-101,424	0,087	-0,015
-288,847	100,527	-0,121	-0,103
-287,832	91,391	0,003	-0,002
-286,818	198,306	0,018	0,020
-285,803	-86,264	-0,146	-0,033
-284,789	-200,000	0,023	-0,107
-283,774	403,832	-0,043	0,067
-282,759	-145,116	0,089	0,006
-281,745	283,278	-0,059	0,078
-280,730	64,257	-0,090	0,067
-279,716	-128,185	-0,062	-0,006
-278,701	-200,000	-0,014	0,051
-277,686	-7,572	0,076	0,037
-276,672	101,305	0,081	-0,069
-275,657	-88,665	-0,122	0,026
-274,643	-200,000	0,011	-0,120
-273,628	-54,553	-0,097	0,032
-272,613	54,994	-0,087	-0,061
-271,599	302,452	0,062	0,084
-270,584	792,462	0,050	0,101
-269,570	-200,000	-0,009	-0,098
-268,555	0,556	0,070	0,037
-267,540	86,681	-0,122	0,098
-266,526	251,338	0,073	0,091
-265,511	12,673	-0,112	0,063
-264,497	652,608	0,059	0,112
-263,482	162,124	0,064	0,066
-262,467	-200,000	0,035	0,119
-261,453	800,000	0,001	-0,002
-260,438	-200,000	-0,002	-0,118
-259,424	-83,898	0,096	0,022
-258,409	-44,968	0,028	-0,010
-257,395	56,933	-0,069	-0,049
-256,380	800,000	0,047	-0,100
-255,365	-200,000	-0,015	0,131
-254,351	-200,000	-0,015	0,123
-253,336	800,000	0,051	-0,132
-252,322	-200,000	-0,015	-0,119
-251,307	-123,804	-0,055	0,006
-250,292	-163,198	0,059	-0,002
-249,278	360,743	0,046	0,068
-248,263	-200,000	-0,022	0,082
-247,249	-200,000	0,029	-0,103
-246,234	240,479	0,068	-0,084
-245,219	800,000	0,038	0,121
-244,205	800,000	-0,038	-0,095
-243,190	-200,000	0,002	-0,102
-242,176	-200,000	0,007	-0,053
-241,161	-200,000	-0,007	0,113
-240,146	190,624	-0,067	0,074
-239,132	67,330	-0,076	0,057
-238,117	800,000	-0,046	0,114
-237,103	417,025	0,063	0,098
-236,088	-200,000	-0,007	-0,097
-235,073	-200,000	-0,005	0,049
-234,059	14,125	0,063	-0,036
-233,044	306,051	0,068	0,093
-232,030	-129,120	-0,100	0,010
-231,015	16,722	0,085	-0,049
-230,000	165,422	-0,056	0,057
-228,986	-35,234	0,117	-0,046
-227,971	225,576	-0,107	-0,127
-226,957	-200,000	-0,020	0,090
-225,942	5,335	-0,142	-0,076
-224,927	-200,000	-0,002	-0,056
-223,913	-200,000	0,036	0,125
-222,898	144,863	0,144	0,141
-221,884	13,322	-0,037	-0,021
-220,869	-135,552	-0,026	0,002
-219,855	-200,000	0,006	0,046
-218,840	37,861	0,191	0,124
-217,825	-200,000	-0,025	0,147
-216,811	-25,471	-0,101	0,043
-215,796	800,000	-0,045	-0,111
-214,782	-170,063	-0,114	-0,003
-213,767	800,000	-0,023	0,061
-212,752	800,000	0,036	0,114
-211,738	252,571	0,009	0,011
-210,723	102,680	0,041	-0,035
-209,709	102,906	-0,113	-0,097
-208,694	250,517	-0,029	0,036
-207,679	-3,878	-0,087	-0,044
-206,665	-200,000	0,016	-0,058
-205,650	-95,085	-0,042	0,008
-204,636	-28,273	-0,056	-0,023
-203,621	54,149	-0,026	0,018
-202,606	81,846	-0,069	0,054
-201,592	-200,000	0,005	-0,052
-200,577	-183,247	0,127	-0,002
-199,563	800,000	-0,055	-0,117
-198,548	-0,187	0,119	0,062
-197,533	433,360	-0,022	0,034
-196,519	-115,884	0,024	-0,003
-195,504	-200,000	0,004	-0,031
-194,490	-200,000	-0,008	-0,086
-193,475	-200,000	0,002	-0,138
-192,460	-200,000	0,009	0,033
-191,446	800,000	0,044	0,094
-190,431	800,000	0,027	-0,061
-189,417	63,003	-0,079	-0,058
-188,402	-200,000	-0,020	0,125
-187,387	-62,021	-0,077	0,023
-186,373	-200,000	-0,001	-0,051
-185,358	-200,000	-0,010	0,037
-184,344	256,864	0,054	-0,067
-183,329	-70,054	0,139	-0,038
-182,315	35,453	-0,084	-0,053
-181,300	-200,000	0,011	0,108
-180,285	-200,000	-0,003	0,041
-179,271	585,387	0,090	-0,162
-178,256	-12,054	-0,083	0,039
-177,242	-1,042	0,180	-0,093
-176,227	-61,818	-0,056	0,017
-175,212	-200,000	0,011	0,090
-174,198	655,132	-0,049	-0,092
-173,183	800,000	0,046	0,124
-172,169	-26,188	-0,066	-0,028
-171,154	-200,000	-0,002	0,028
-170,139	47,607	-0,044	0,030
-169,125	-51,416	0,119	0,040
-168,110	-200,000	0,003	-0,046
-167,096	-26,165	0,081	0,034
-166,081	228,042	-0,044	0,052
-165,066	218,016	-0,049	-0,057
-164,052	-83,293	-0,105	0,024
-163,037	800,000	0,035	0,076
-162,023	344,745	-0,049	0,071
-161,008	-176,580	0,064	-0,001
-159,993	800,000	0,022	-0,067
-158,979	-94,260	-0,127	-0,025
-157,964	-200,000	0,001	-0,004
-156,950	-200,000	-0,001	-0,019
-155,935	122,028	-0,038	0,035
-154,920	-20,316	0,094	-0,042
-153,906	-200,000	0,010	-0,160
-152,891	-72,418	-0,064	-0,017
-151,877	225,488	-0,057	-0,068
-150,862	-200,000	0,011	0,092
-149,847	-64,929	-0,123	-0,036
-148,833	451,822	0,008	0,012
-147,818	230,480	0,078	0,093
-146,804	379,213	0,066	0,099
-145,789	353,947	-0,092	0,133
-144,775	-102,396	-0,096	0,017
-143,760	-200,000	0,010	0,056
-142,745	59,332	-0,099	0,071
-141,731	800,000	0,021	-0,053
-140,716	146,908	0,065	0,064
-139,702	800,000	0,035	0,112
-138,687	14,495	0,082	0,047
-137,672	800,000	0,023	-0,073
-136,658	-159,834	-0,119	0,005
-135,643	10,062	-0,108	-0,059
-134,629	800,000	-0,041	-0,086
-133,614	-92,675	-0,013	-0,003
-132,599	-107,683	0,098	0,015
-131,585	-200,000	0,022	0,108
-130,570	89,638	-0,047	0,038
-129,556	21,254	-0,080	0,047
-128,541	15,706	0,079	0,045
-127,526	190,330	-0,011	-0,012
-126,512	336,857	0,039	-0,056
-125,497	800,000	-0,024	0,068
-124,483	800,000	0,009	-0,021
-123,468	-108,935	-0,074	-0,011
-122,453	441,791	-0,016	0,026
-121,439	-200,000	-0,002	0,064
-120,424	39,766	0,041	0,027
-119,410	755,914	0,047	-0,093
