DTS Sentinel unit serial number:	SN410029Multiplexer serial number:	ORYXHardware model number:	OX2-SRSoftware version number:	ORYX F/W v4,00 Oryx Data Collector v3.7.2.0data status	okinstallation	B6 Nyhavnadifferential loss correction	single-endedforward channel	channel 2reverse channel	N/Adate	2023/12/08time	19:50:08forward acquisition time	300,00reverse acquisition time	0,00gamma	499,1914k internal	0,3158k external	0,3158temperature offset calibration	1,0000default loss term (dB/km)	0,3820temperature slope calibration	1,0000multiplexer offset coefficient	1,0000multiplexer slope coefficient	1,0000fibre end	0,00T internal ref (°C)	15,23T ext. ref 1 (°C)	-1,44T ext. ref 2 (°C)	-1,44length (m)	temperature (°C)	Stokes	anti-Stokes-744,400	344,319	0,067	0,097
-743,385	-72,027	-0,239	0,065
-742,371	-81,521	0,161	0,039
-741,356	-11,586	-0,261	0,126
-740,342	-200,000	0,033	0,229
-739,327	-141,855	-0,349	0,025
-738,312	125,149	0,123	-0,114
-737,298	-68,427	-0,261	-0,074
-736,283	42,427	0,184	0,123
-735,269	-145,044	-0,367	0,024
-734,254	148,129	0,087	0,086
-733,239	-81,384	-0,437	-0,105
-732,225	-88,938	0,148	0,032
-731,210	800,000	-0,075	0,218
-730,196	-128,759	-0,076	-0,008
-729,181	23,095	-0,101	-0,061
-728,167	-23,877	-0,091	0,040
-727,152	-135,879	-0,118	0,010
-726,137	-200,000	0,020	-0,089
-725,123	-46,401	-0,109	0,039
-724,108	-200,000	0,008	-0,048
-723,094	268,407	0,083	0,107
-722,079	-200,000	-0,034	-0,114
-721,064	-189,549	-0,029	-0,000
-720,050	-200,000	-0,023	-0,201
-719,035	224,714	-0,038	-0,045
-718,021	-200,000	0,004	-0,043
-717,006	800,000	-0,066	-0,190
-715,991	-21,965	-0,120	-0,054
-714,977	-200,000	0,003	-0,136
-713,962	66,036	-0,064	0,048
-712,948	-200,000	-0,038	-0,189
-711,933	-167,397	-0,040	-0,001
-710,918	25,475	-0,078	0,048
-709,904	-200,000	0,020	-0,099
-708,889	138,306	0,095	-0,092
-707,875	-200,000	-0,001	-0,151
-706,860	-77,588	0,069	-0,018
-705,845	-200,000	0,007	0,088
-704,831	216,152	0,078	-0,091
-703,816	228,135	-0,052	0,062
-702,802	800,000	-0,026	0,064
-701,787	2,824	-0,106	-0,057
-700,772	800,000	-0,032	0,094
-699,758	-10,057	0,029	-0,014
-698,743	111,466	0,036	-0,032
-697,729	-45,517	-0,096	-0,035
-696,714	-200,000	0,002	0,012
-695,699	-97,766	-0,142	-0,027
-694,685	217,805	0,112	-0,132
-693,670	-139,185	-0,031	-0,002
-692,656	9,352	0,157	-0,087
-691,641	184,794	0,032	-0,035
-690,627	-18,962	-0,128	0,058
-689,612	135,894	0,082	-0,079
-688,597	90,844	-0,062	0,051
-687,583	14,700	-0,107	-0,062
-686,568	-27,933	-0,140	-0,059
-685,554	-94,383	-0,063	-0,013
-684,539	-200,000	0,033	0,150
-683,524	15,310	-0,079	0,045
-682,510	164,369	0,083	0,086
-681,495	53,719	-0,034	-0,024
-680,481	-87,263	-0,094	0,021
-679,466	800,000	-0,041	-0,085
-678,451	800,000	0,040	0,117
-677,437	53,018	-0,040	-0,028
-676,422	-200,000	0,010	-0,072
-675,408	358,734	0,048	0,070
-674,393	-45,553	-0,092	-0,033
-673,378	-93,947	-0,089	-0,018
-672,364	-200,000	0,006	-0,071
-671,349	12,975	-0,093	-0,053
-670,335	800,000	0,023	0,052
-669,320	59,868	-0,072	0,052
-668,305	123,653	0,144	0,132
-667,291	-200,000	0,002	0,172
-666,276	-10,441	0,079	-0,038
-665,262	426,377	-0,072	-0,114
-664,247	-200,000	-0,005	0,040
-663,232	38,510	-0,065	-0,043
-662,218	-200,000	0,007	-0,084
-661,203	-86,502	-0,074	0,017
-660,189	645,034	-0,035	0,065
-659,174	-140,488	-0,172	0,013
-658,159	-200,000	-0,022	-0,103
-657,145	1,780	-0,158	-0,084
-656,130	-80,445	0,048	0,012
-655,116	-142,579	-0,064	-0,005
-654,101	-3,115	0,068	-0,035
-653,086	-132,405	-0,052	-0,005
-652,072	-57,675	-0,031	0,010
-651,057	800,000	-0,033	-0,075
-650,043	800,000	-0,041	-0,101
-649,028	800,000	0,021	-0,062
-648,014	800,000	0,009	0,024
-646,999	469,146	0,052	-0,086
-645,984	447,163	-0,052	-0,085
-644,970	-114,934	0,075	0,010
-643,955	-78,214	-0,057	-0,014
-642,941	-200,000	-0,001	-0,110
-641,926	-14,186	-0,049	0,023
-640,911	195,082	-0,087	0,097
-639,897	-200,000	-0,043	-0,160
-638,882	-23,536	-0,112	-0,049
-637,868	-98,017	-0,127	-0,024
-636,853	199,297	-0,061	0,069
-635,838	-200,000	0,023	0,163
-634,824	-43,402	-0,040	0,015
-633,809	239,018	-0,049	-0,060
-632,795	635,364	0,024	-0,045
-631,780	16,704	-0,021	-0,012
-630,765	-200,000	-0,039	-0,137
-629,751	800,000	-0,052	-0,138
-628,736	-200,000	0,021	-0,094
-627,722	800,000	0,029	0,080
-626,707	-131,420	-0,035	0,003
-625,692	119,236	0,153	0,139
-624,678	451,864	-0,069	-0,112
-623,663	-200,000	0,036	0,138
-622,649	-200,000	-0,029	0,132
-621,634	-28,161	-0,074	-0,031
-620,619	45,235	-0,045	-0,031
-619,605	-200,000	0,008	-0,066
-618,590	-200,000	0,010	0,036
-617,576	-35,952	-0,026	0,010
-616,561	316,960	0,051	-0,071
-615,546	158,495	0,042	-0,042
-614,532	1,718	-0,141	-0,074
-613,517	-8,265	-0,097	-0,048
-612,503	-125,347	0,106	0,012
-611,488	94,057	-0,173	0,144
-610,474	-200,000	0,007	-0,031
-609,459	-200,000	0,004	-0,094
-608,444	800,000	0,012	-0,034
-607,430	-57,645	0,101	-0,032
-606,415	800,000	0,021	0,060
-605,401	33,842	0,033	0,021
-604,386	601,257	0,058	-0,106
-603,371	172,226	0,083	0,088
-602,357	471,941	-0,021	-0,035
-601,342	221,864	-0,098	0,116
-600,328	692,805	0,057	-0,111
-599,313	-13,486	-0,159	0,075
-598,298	-200,000	0,009	-0,056
-597,284	336,791	-0,071	0,101
-596,269	-55,539	0,066	0,021
-595,255	5,953	-0,058	0,032
-594,240	-8,689	-0,028	0,014
-593,225	-111,626	0,051	0,008
-592,211	-133,371	0,063	0,006
-591,196	-200,000	0,001	-0,053
-590,182	800,000	0,044	0,102
-589,167	800,000	-0,008	-0,025
-588,152	-200,000	-0,008	-0,047
-587,138	-70,436	-0,100	0,028
-586,123	664,613	-0,026	0,049
-585,109	11,289	0,131	-0,074
-584,094	800,000	0,039	-0,125
-583,079	-200,000	-0,011	0,043
-582,065	175,381	-0,109	0,116
-581,050	-13,100	-0,132	0,062
-580,036	-109,329	0,183	0,028
-579,021	82,290	-0,014	-0,011
-578,006	-200,000	-0,006	-0,042
-576,992	183,269	-0,052	-0,056
-575,977	113,443	0,068	-0,060
-574,963	61,179	-0,115	0,084
-573,948	-200,000	-0,033	0,121
-572,934	258,885	-0,030	-0,038
-571,919	-42,852	-0,068	0,025
-570,904	66,753	0,067	0,050
-569,890	81,633	-0,152	-0,121
-568,875	-54,975	0,103	-0,034
-567,861	490,320	0,021	-0,035
-566,846	288,015	0,045	0,060
-565,831	-103,035	-0,083	-0,014
-564,817	-99,603	-0,041	0,008
-563,802	-60,596	-0,173	-0,053
-562,788	-200,000	-0,000	-0,011
-561,773	267,370	0,068	-0,087
-560,758	-113,452	0,145	-0,021
-559,744	722,096	0,065	-0,128
-558,729	-73,183	-0,096	0,026
-557,715	800,000	-0,044	-0,098
-556,700	800,000	0,059	-0,161
-555,685	-200,000	-0,009	0,078
-554,671	51,043	0,133	0,092
-553,656	198,737	0,043	-0,048
-552,642	76,332	0,146	0,113
-551,627	-200,000	-0,007	-0,078
-550,612	800,000	0,047	-0,102
-549,598	-200,000	-0,006	-0,079
-548,583	40,560	-0,088	-0,058
-547,569	-200,000	-0,007	-0,139
-546,554	-114,333	0,243	-0,034
-545,539	-200,000	0,031	0,104
-544,525	27,096	-0,043	-0,027
-543,510	-99,012	0,038	-0,007
-542,496	-200,000	0,000	-0,169
-541,481	-4,927	-0,146	0,073
-540,466	-36,411	0,218	0,085
-539,452	800,000	0,083	0,183
-538,437	4,063	0,014	-0,007
-537,423	488,988	0,046	-0,077
-536,408	17,307	-0,123	0,071
-535,393	-200,000	-0,022	-0,169
-534,379	129,699	0,051	-0,048
-533,364	148,268	0,079	0,078
-532,350	216,516	0,067	0,078
-531,335	-122,684	-0,161	0,019
-530,321	-200,000	0,009	0,180
-529,306	87,260	0,021	0,017
-528,291	-200,000	-0,028	-0,154
-527,277	435,443	-0,042	-0,066
-526,262	423,420	0,025	0,039
-525,248	114,347	0,051	0,045
-524,233	-200,000	0,003	-0,106
-523,218	-200,000	-0,016	-0,172
-522,204	-80,835	-0,058	0,014
-521,189	71,923	-0,080	-0,061
-520,175	656,852	-0,034	0,063
-519,160	-13,158	0,122	-0,058
-518,145	-24,547	0,093	-0,040
-517,131	250,133	0,112	0,139
-516,116	371,206	-0,092	0,137
-515,102	-200,000	0,034	-0,142
-514,087	737,154	-0,105	-0,206
-513,072	800,000	-0,023	0,055
-512,058	54,569	0,033	0,023
-511,043	769,651	-0,039	-0,079
-510,029	-63,571	0,150	-0,045
-509,014	-50,428	0,058	0,020
-507,999	-200,000	-0,008	-0,050
-506,985	-141,904	-0,144	-0,010
-505,970	9,660	-0,113	0,062
-504,956	94,542	0,075	-0,062
-503,941	-12,514	0,072	0,034
-502,926	395,013	0,013	-0,019
-501,912	425,055	-0,053	-0,083
-500,897	544,296	0,021	0,037
-499,883	169,627	0,053	0,056
-498,868	-58,127	-0,054	-0,017
-497,853	71,708	0,080	0,061
-496,839	800,000	0,041	0,095
-495,824	613,181	-0,001	0,002
-494,810	-200,000	-0,006	-0,033
-493,795	196,388	0,032	-0,035
-492,781	-200,000	-0,003	-0,024
-491,766	16,856	0,077	-0,045
-490,751	71,390	-0,083	-0,062
-489,737	469,833	0,097	0,160
-488,722	-200,000	0,003	0,121
-487,708	-200,000	0,007	-0,166
-486,693	-49,492	0,103	-0,036
-485,678	125,409	0,107	0,098
-484,664	129,723	-0,038	0,035
-483,649	18,215	0,050	0,029
-482,635	800,000	0,042	-0,085
-481,620	-91,741	-0,055	-0,011
-480,605	-93,758	0,066	0,013
-479,591	114,253	-0,097	0,086
-478,576	-33,568	0,056	0,022
-477,562	479,695	-0,044	-0,074
-476,547	313,200	-0,029	-0,040
-475,532	418,782	0,046	0,072
-474,518	-23,279	0,114	-0,050
-473,503	-131,871	0,065	-0,006
-472,489	-200,000	0,041	0,137
-471,474	-115,940	0,028	-0,004
-470,459	-114,584	0,115	-0,016
-469,445	-200,000	-0,032	-0,130
-468,430	-51,356	-0,108	-0,037
-467,416	-200,000	0,037	0,129
-466,401	-200,000	0,002	-0,034
-465,386	-117,457	0,090	-0,012
-464,372	-200,000	-0,013	-0,101
-463,357	30,653	-0,051	-0,032
-462,343	-13,230	-0,187	-0,088
-461,328	28,825	0,043	0,027
-460,313	221,929	0,169	-0,198
-459,299	54,272	0,106	0,074
-458,284	-132,981	0,049	0,004
-457,270	-60,934	0,036	0,011
-456,255	57,138	-0,009	0,006
-455,241	-4,883	-0,040	0,020
-454,226	311,180	-0,051	0,069
-453,211	-200,000	-0,017	-0,060
-452,197	9,296	0,125	0,069
-451,182	-108,354	0,190	-0,030
-450,168	69,864	-0,100	-0,075
-449,153	-170,972	-0,094	-0,002
-448,138	-200,000	-0,057	-0,204
-447,124	-57,339	-0,030	-0,009
-446,109	-200,000	0,006	0,076
-445,095	237,942	-0,081	-0,098
-444,080	-200,000	0,031	0,106
-443,065	497,708	0,050	0,085
-442,051	-86,322	0,064	0,014
-441,036	71,031	-0,056	0,043
-440,022	-100,276	0,041	0,007
-439,007	800,000	0,082	0,217
-437,992	219,540	-0,139	0,163
-436,978	765,715	0,041	0,082
-435,963	148,059	0,148	0,146
-434,949	319,339	0,108	-0,149
-433,934	750,162	-0,015	-0,030
-432,919	575,985	-0,059	-0,105
-431,905	94,648	-0,049	-0,041
-430,890	800,000	-0,029	0,084
-429,876	-67,790	0,139	0,039
-428,861	-200,000	-0,060	0,212
-427,846	-98,450	-0,158	-0,029
-426,832	-108,481	0,082	-0,013
-425,817	-200,000	-0,007	-0,058
-424,803	-130,121	0,096	-0,009
-423,788	-32,590	0,070	0,028
-422,773	-90,450	-0,070	0,015
-421,759	263,212	-0,018	0,023
-420,744	-11,780	-0,057	-0,027
-419,730	135,196	0,084	-0,080
-418,715	-200,000	-0,033	-0,149
-417,701	76,414	0,025	-0,019
-416,686	154,225	-0,048	0,048
-415,671	800,000	0,081	0,255
-414,657	84,541	-0,129	0,102
-413,642	276,149	-0,118	0,153
-412,628	168,064	-0,035	0,036
-411,613	-162,007	-0,122	-0,004
-410,598	-137,305	0,116	-0,009
-409,584	-109,665	0,075	-0,011
-408,569	622,595	-0,046	-0,084
-407,555	11,518	-0,089	0,050
-406,540	-150,514	0,120	0,007
-405,525	800,000	-0,031	-0,063
-404,511	-23,684	0,089	-0,039
-403,496	32,290	-0,058	0,036
-402,482	-173,687	-0,100	0,002
-401,467	-68,237	0,088	0,025
-400,452	-200,000	-0,011	0,050
-399,438	800,000	0,062	0,162
-398,423	7,511	-0,061	-0,033
-397,409	80,794	0,062	0,049
-396,394	-200,000	-0,038	-0,130
-395,379	22,001	0,053	-0,031
-394,365	247,837	0,082	-0,101
-393,350	-200,000	-0,017	0,115
-392,336	796,215	-0,080	0,161
-391,321	143,705	-0,053	-0,051
-390,306	610,163	-0,020	0,036
-389,292	-200,000	-0,012	-0,086
-388,277	-200,000	-0,008	0,090
-387,263	149,861	0,079	0,078
-386,248	-146,072	-0,020	0,001
-385,233	157,764	0,117	-0,118
-384,219	-133,287	-0,176	-0,016
-383,204	-200,000	-0,032	0,163
-382,190	413,902	-0,065	0,101
-381,175	368,498	-0,057	0,084
-380,160	-7,963	0,054	-0,026
-379,146	800,000	0,034	0,103
-378,131	94,358	0,112	0,093
-377,117	566,658	-0,045	0,079
-376,102	-116,814	0,091	0,012
-375,088	316,710	0,019	-0,026
-374,073	-200,000	0,046	-0,211
-373,058	267,535	0,024	0,030
-372,044	-200,000	0,017	0,080
-371,029	800,000	0,037	0,106
-370,015	177,471	-0,015	-0,016
-369,000	497,370	-0,082	-0,137
-367,985	-200,000	0,030	0,127
-366,971	-89,427	-0,043	0,009
-365,956	580,416	-0,037	-0,066
-364,942	-64,730	0,121	0,035
-363,927	800,000	-0,019	0,062
-362,912	205,681	-0,077	-0,087
-361,898	800,000	-0,038	0,117
-360,883	181,207	-0,107	-0,114
-359,869	-17,692	-0,067	-0,030
-358,854	183,834	-0,043	-0,046
-357,839	800,000	0,044	0,105
-356,825	86,517	0,027	-0,021
-355,810	-45,519	-0,056	0,020
-354,796	-3,123	-0,067	0,034
-353,781	615,236	-0,130	-0,237
-352,766	8,466	0,046	-0,025
-351,752	-200,000	-0,022	0,071
-350,737	-77,643	0,064	0,016
-349,723	-111,055	0,049	0,007
-348,708	-24,379	0,014	-0,006
-347,693	-200,000	-0,007	-0,148
-346,679	-85,468	-0,102	0,023
-345,664	-200,000	0,012	-0,045
-344,650	-7,653	0,023	0,011
-343,635	116,298	0,039	-0,034
-342,620	-156,948	0,070	0,003
-341,606	56,633	-0,060	-0,043
-340,591	138,485	-0,059	-0,057
-339,577	125,696	-0,070	0,064
-338,562	-200,000	-0,019	0,091
-337,548	72,664	0,047	0,036
-336,533	-31,330	0,065	0,026
-335,518	800,000	0,049	0,115
-334,504	-12,481	0,077	0,036
-333,489	-1,480	0,068	0,035
-332,475	-200,000	-0,008	-0,098
-331,460	86,154	-0,063	-0,050
-330,445	-118,267	-0,064	-0,008
-329,431	131,910	0,115	0,107
-328,416	561,159	-0,009	-0,016
-327,402	159,474	-0,002	-0,002
-326,387	-73,149	-0,035	-0,009
-325,372	36,693	-0,070	-0,045
-324,358	-95,007	0,154	-0,030
-323,343	8,323	-0,127	-0,069
-322,329	-195,760	0,091	0,000
-321,314	108,413	0,100	0,087
-320,299	800,000	0,041	0,105
-319,285	-85,550	-0,053	0,012
-318,270	758,885	0,051	0,100
-317,256	134,132	-0,068	-0,064
-316,241	74,916	-0,051	0,039
-315,226	241,151	-0,076	0,092
-314,212	-60,796	0,156	0,048
-313,197	-109,975	-0,201	-0,030
-312,183	-28,473	-0,001	0,001
-311,168	-200,000	-0,037	-0,118
-310,153	-69,447	0,042	-0,012
-309,139	-200,000	-0,000	0,036
-308,124	-44,345	0,024	-0,009
-307,110	419,438	-0,041	-0,063
-306,095	272,229	0,079	0,101
-305,080	313,082	-0,070	-0,096
-304,066	549,006	-0,059	0,103
-303,051	409,050	-0,063	0,096
-302,037	800,000	0,030	-0,094
-301,022	571,264	0,065	-0,115
-300,008	426,538	0,071	-0,111
-298,993	-73,077	0,066	0,017
-297,978	-20,155	-0,052	-0,023
-296,964	800,000	0,028	-0,083
-295,949	43,687	-0,121	0,080
-294,935	-37,920	0,052	-0,020
-293,920	193,785	0,106	0,116
-292,905	81,617	-0,099	0,077
-291,891	-200,000	-0,033	0,215
-290,876	-129,333	0,135	0,013
-289,862	131,449	0,032	-0,030
-288,847	-167,022	0,018	0,001
-287,832	125,967	-0,009	-0,008
-286,818	180,690	0,038	0,041
-285,803	28,195	-0,032	-0,019
-284,789	-200,000	-0,021	-0,139
-283,774	730,219	0,060	0,118
-282,759	193,019	0,082	-0,089
-281,745	63,593	-0,037	-0,027
-280,730	162,262	0,057	-0,058
-279,716	-200,000	-0,021	0,068
-278,701	102,749	0,052	-0,044
-277,686	-76,746	0,093	0,023
-276,672	-35,514	0,152	-0,060
-275,657	800,000	-0,014	0,038
-274,643	-9,971	-0,152	-0,073
-273,628	170,323	0,019	-0,019
-272,613	-200,000	-0,009	-0,099
-271,599	-71,925	0,066	-0,018
-270,584	-167,997	0,052	-0,001
-269,570	-200,000	0,002	0,060
-268,555	-200,000	-0,078	0,000
-267,540	-7,126	-0,096	0,047
-266,526	71,982	-0,087	-0,066
-265,511	772,333	0,018	-0,035
-264,497	212,317	-0,059	-0,067
-263,482	246,882	-0,052	0,063
-262,467	97,539	-0,070	0,058
-261,453	7,430	-0,114	-0,062
-260,438	454,008	0,034	0,054
-259,424	-87,759	0,149	0,032
-258,409	-200,000	0,009	-0,049
-257,395	-200,000	-0,013	0,057
-256,380	-142,431	-0,144	-0,010
-255,365	-146,587	-0,056	0,003
-254,351	117,058	-0,089	-0,079
-253,336	638,760	0,074	-0,137
-252,322	-41,070	-0,064	-0,024
-251,307	522,428	0,065	-0,112
-250,292	560,638	-0,040	-0,071
-249,278	-149,905	0,124	-0,007
-248,263	199,596	0,063	0,070
-247,249	-200,000	0,009	-0,110
-246,234	-2,999	0,116	-0,058
-245,219	-200,000	0,042	-0,166
-244,205	-31,590	-0,081	0,033
-243,190	-5,640	0,061	-0,030
-242,176	-17,309	0,171	-0,078
-241,161	-27,154	-0,123	-0,052
-240,146	-83,118	0,091	0,021
-239,132	61,495	-0,066	-0,047
-238,117	-160,465	-0,043	-0,002
-237,103	74,800	-0,088	0,067
-236,088	101,871	-0,051	-0,043
-235,073	-200,000	0,011	0,164
-234,059	-133,375	0,059	-0,005
-233,044	800,000	-0,016	0,042
-232,030	800,000	0,036	0,089
-231,015	-200,000	0,015	0,089
-230,000	-78,755	-0,071	-0,017
-228,986	800,000	-0,052	-0,143
-227,971	-200,000	0,004	-0,047
-226,957	-100,807	-0,103	0,018
-225,942	353,960	-0,052	0,075
-224,927	319,303	-0,017	0,024
-223,913	-200,000	0,012	-0,124
-222,898	120,016	-0,167	-0,150
-221,884	800,000	-0,050	-0,105
-220,869	487,857	0,043	0,071
-219,855	-107,257	0,032	-0,005
-218,840	800,000	-0,004	-0,010
-217,825	478,913	0,005	0,009
-216,811	67,125	-0,108	-0,080
-215,796	182,641	0,005	0,005
-214,782	627,552	-0,065	-0,118
-213,767	383,815	0,027	-0,040
-212,752	51,702	0,068	0,047
-211,738	-200,000	0,025	0,087
-210,723	-200,000	-0,000	0,076
-209,709	16,965	0,071	0,040
-208,694	-200,000	-0,009	0,067
-207,679	-88,791	-0,048	0,010
-206,665	800,000	-0,022	0,065
-205,650	478,001	-0,049	-0,080
-204,636	-200,000	-0,003	0,149
-203,621	170,202	-0,079	0,082
-202,606	-64,400	-0,114	0,033
-201,592	-98,060	-0,071	-0,013
-200,577	19,990	0,073	0,042
-199,563	-90,608	0,127	-0,026
-198,548	206,001	0,037	-0,041
-197,533	-24,015	-0,024	-0,010
-196,519	800,000	0,056	0,143
-195,504	-98,074	-0,137	0,025
-194,490	-137,379	-0,134	0,011
-193,475	439,524	0,049	-0,077
-192,460	-25,074	-0,067	-0,029
-191,446	0,867	-0,030	-0,015
-190,431	-72,490	0,053	0,014
-189,417	-61,305	-0,097	0,029
-188,402	168,224	-0,070	-0,072
-187,387	-47,661	-0,090	-0,031
-186,373	612,178	-0,012	0,021
-185,358	-78,935	0,128	-0,031
-184,344	-200,000	0,005	-0,124
-183,329	363,895	0,034	0,049
-182,315	-6,196	0,146	0,072
-181,300	312,194	-0,108	0,146
-180,285	-90,283	-0,064	0,013
-179,271	665,099	-0,075	0,141
-178,256	-53,137	-0,155	-0,051
-177,242	-87,316	0,051	-0,011
-176,227	225,112	0,071	0,083
-175,212	143,118	0,014	0,013
-174,198	-200,000	-0,008	-0,064
-173,183	516,668	-0,049	-0,083
-172,169	789,457	-0,053	0,106
-171,154	-135,993	0,071	0,006
-170,139	20,423	0,116	0,067
-169,125	458,024	0,076	0,122
-168,110	115,851	-0,071	0,062
-167,096	94,352	-0,026	0,021
-166,081	59,328	-0,034	0,024
-165,066	70,609	0,093	-0,070
-164,052	204,491	-0,035	-0,040
-163,037	-29,987	-0,058	0,024
-162,023	-200,000	-0,004	0,047
-161,008	101,416	0,064	-0,053
-159,993	180,245	-0,023	-0,024
-158,979	168,617	0,067	-0,069
-157,964	-78,295	-0,117	-0,029
-156,950	231,121	0,089	0,106
-155,935	-51,006	0,055	0,018
-154,920	-82,185	0,185	0,043
-153,906	-200,000	0,003	0,056
-152,891	432,489	-0,026	0,040
-151,877	800,000	0,055	0,126
-150,862	-200,000	-0,021	0,070
-149,847	-200,000	-0,010	0,114
-148,833	65,651	-0,055	0,040
-147,818	-93,238	-0,122	0,024
-146,804	-71,402	0,053	0,014
-145,789	-58,557	-0,107	0,033
-144,775	-200,000	0,014	0,054
-143,760	472,127	-0,074	-0,120
-142,745	-37,680	-0,106	-0,040
-141,731	168,238	-0,077	0,079
-140,716	-57,977	0,084	0,026
-139,702	-25,836	-0,060	0,025
-138,687	-200,000	-0,009	0,043
-137,672	-94,163	-0,076	-0,015
-136,658	-200,000	-0,025	0,119
-135,643	726,971	-0,048	-0,093
-134,629	-200,000	-0,004	0,012
-133,614	800,000	0,057	0,129
-132,599	-200,000	0,001	0,052
-131,585	800,000	0,021	0,065
-130,570	97,436	0,075	0,062
-129,556	360,104	0,060	-0,087
-128,541	228,895	0,042	0,049
-127,526	18,485	-0,017	-0,010
-126,512	-49,474	-0,041	-0,014
-125,497	124,624	-0,072	-0,065
-124,483	249,657	-0,050	0,061
-123,468	-118,233	-0,094	0,012
-122,453	501,304	-0,114	-0,189
-121,439	-200,000	0,037	-0,145
-120,424	291,999	-0,055	0,073
-119,410	253,579	-0,071	-0,087
