DTS Sentinel unit serial number:	SN410029Multiplexer serial number:	ORYXHardware model number:	OX2-SRSoftware version number:	ORYX F/W v4,00 Oryx Data Collector v3.7.2.0data status	okinstallation	B6 Nyhavnadifferential loss correction	single-endedforward channel	channel 2reverse channel	N/Adate	2023/12/08time	03:20:08forward acquisition time	300,00reverse acquisition time	0,00gamma	499,1914k internal	0,3165k external	0,3165temperature offset calibration	1,0000default loss term (dB/km)	0,3820temperature slope calibration	1,0000multiplexer offset coefficient	1,0000multiplexer slope coefficient	1,0000fibre end	0,00T internal ref (°C)	13,12T ext. ref 1 (°C)	-3,74T ext. ref 2 (°C)	-3,74length (m)	temperature (°C)	Stokes	anti-Stokes-744,400	-32,249	0,141	-0,058
-743,385	-23,297	-0,299	-0,132
-742,371	-71,328	0,044	0,012
-741,356	-90,026	-0,169	0,036
-740,342	-0,815	0,087	-0,045
-739,327	-164,606	-0,273	-0,009
-738,312	-30,289	0,042	0,017
-737,298	-122,228	-0,350	-0,042
-736,283	800,000	0,050	-0,118
-735,269	49,722	-0,207	-0,143
-734,254	-68,529	0,189	0,054
-733,239	-33,196	-0,481	-0,195
-732,225	35,700	0,156	0,101
-731,210	109,479	0,092	0,081
-730,196	800,000	-0,021	-0,069
-729,181	-200,000	0,004	-0,039
-728,167	-200,000	0,012	0,077
-727,152	494,810	0,038	-0,064
-726,137	-107,204	-0,085	-0,014
-725,123	-200,000	0,022	0,090
-724,108	-200,000	0,014	-0,093
-723,094	-56,059	-0,162	-0,053
-722,079	-151,396	-0,140	-0,008
-721,064	-200,000	-0,030	-0,180
-720,050	46,718	0,069	0,047
-719,035	-200,000	0,004	-0,031
-718,021	-28,068	0,088	-0,037
-717,006	800,000	-0,049	-0,123
-715,991	800,000	0,038	-0,112
-714,977	-160,369	-0,090	0,003
-713,962	344,154	-0,067	-0,097
-712,948	-200,000	-0,015	-0,127
-711,933	-28,156	-0,041	0,018
-710,918	435,013	-0,059	-0,095
-709,904	-39,097	0,011	-0,004
-708,889	18,581	0,087	-0,051
-707,875	322,683	0,037	-0,052
-706,860	-200,000	0,014	-0,079
-705,845	-200,000	-0,002	-0,085
-704,831	59,821	-0,021	0,015
-703,816	132,799	-0,034	0,032
-702,802	-41,316	-0,142	-0,053
-701,787	-75,212	0,062	0,016
-700,772	-165,495	-0,026	-0,001
-699,758	-83,551	-0,041	-0,010
-698,743	-33,869	0,070	0,028
-697,729	-200,000	0,019	-0,119
-696,714	28,181	0,099	0,061
-695,699	-19,916	-0,024	-0,011
-694,685	-133,247	0,011	0,001
-693,670	-117,678	-0,174	-0,023
-692,656	28,407	0,029	-0,018
-691,641	-51,989	0,093	-0,032
-690,627	-131,699	0,102	-0,010
-689,612	800,000	0,039	0,082
-688,597	65,814	-0,011	0,008
-687,583	-60,306	-0,062	0,019
-686,568	-200,000	-0,005	-0,045
-685,554	78,319	0,039	-0,031
-684,539	628,608	0,027	0,050
-683,524	14,401	0,081	0,046
-682,510	85,235	0,074	-0,060
-681,495	-200,000	-0,011	-0,077
-680,481	86,673	-0,081	0,065
-679,466	-43,922	-0,074	0,027
-678,451	165,129	0,099	-0,103
-677,437	-73,056	0,111	0,030
-676,422	800,000	-0,062	-0,165
-675,408	-129,560	0,020	-0,002
-674,393	-37,666	-0,118	0,046
-673,378	-200,000	-0,005	0,026
-672,364	-115,669	0,038	-0,005
-671,349	165,005	-0,108	-0,112
-670,335	181,473	-0,048	-0,051
-669,320	-200,000	-0,012	-0,104
-668,305	504,417	-0,064	0,108
-667,291	-200,000	-0,011	-0,095
-666,276	350,396	-0,156	-0,227
-665,262	260,306	0,017	0,022
-664,247	151,550	-0,013	0,013
-663,232	-24,126	-0,045	-0,019
-662,218	-129,785	0,134	0,013
-661,203	26,809	0,058	-0,036
-660,189	800,000	-0,034	0,077
-659,174	-100,147	-0,145	-0,026
-658,159	-200,000	-0,005	-0,062
-657,145	272,459	0,056	-0,073
-656,130	-200,000	-0,003	0,088
-655,116	-200,000	0,004	0,073
-654,101	-157,505	0,169	-0,007
-653,086	42,128	-0,039	0,026
-652,072	115,072	-0,038	0,034
-651,057	-200,000	0,029	-0,131
-650,043	-92,102	-0,065	-0,013
-649,028	122,991	0,039	-0,036
-648,014	-65,305	-0,142	0,042
-646,999	285,142	0,053	0,070
-645,984	457,545	0,037	0,060
-644,970	800,000	-0,033	-0,089
-643,955	665,327	-0,023	0,044
-642,941	-152,058	-0,101	-0,005
-641,926	-200,000	0,011	-0,069
-640,911	-200,000	0,005	-0,040
-639,897	-200,000	-0,010	0,096
-638,882	498,405	0,040	-0,068
-637,868	61,382	0,028	0,021
-636,853	25,849	-0,071	-0,043
-635,838	-200,000	-0,006	-0,105
-634,824	-38,060	0,029	0,011
-633,809	299,240	0,067	-0,090
-632,795	524,772	0,038	0,066
-631,780	800,000	0,030	-0,095
-630,765	800,000	-0,007	0,016
-629,751	46,901	0,036	-0,024
-628,736	554,015	-0,100	-0,177
-627,722	358,426	0,098	-0,144
-626,707	113,062	0,123	-0,109
-625,692	-71,106	-0,032	-0,009
-624,678	632,629	0,076	0,141
-623,663	566,132	-0,041	0,073
-622,649	800,000	-0,033	-0,100
-621,634	-123,788	-0,106	-0,012
-620,619	41,043	-0,070	-0,046
-619,605	-200,000	-0,016	0,141
-618,590	716,584	0,025	0,048
-617,576	800,000	0,046	0,094
-616,561	356,475	0,052	-0,076
-615,546	442,612	-0,107	-0,172
-614,532	-29,349	-0,036	-0,015
-613,517	66,542	0,000	-0,000
-612,503	344,345	0,123	-0,178
-611,488	-26,094	0,072	-0,031
-610,474	-37,969	0,140	0,054
-609,459	171,590	-0,050	0,053
-608,444	-200,000	-0,010	0,096
-607,430	-81,329	0,085	0,020
-606,415	265,253	-0,079	-0,101
-605,401	-200,000	-0,009	0,084
-604,386	-59,216	-0,208	0,065
-603,371	579,700	0,079	0,142
-602,357	-60,851	-0,028	-0,009
-601,342	393,566	0,032	-0,049
-600,328	-200,000	-0,010	-0,071
-599,313	-40,456	-0,208	-0,079
-598,298	800,000	-0,038	-0,086
-597,284	-200,000	0,031	0,110
-596,269	800,000	0,026	-0,078
-595,255	-200,000	-0,036	0,160
-594,240	800,000	0,058	0,125
-593,225	117,260	-0,090	-0,081
-592,211	456,623	-0,034	0,056
-591,196	36,142	0,115	0,074
-590,182	194,948	0,104	0,116
-589,167	-138,876	-0,042	0,003
-588,152	-10,019	-0,040	-0,019
-587,138	147,508	-0,030	0,029
-586,123	-92,979	-0,112	-0,023
-585,109	238,945	-0,088	-0,108
-584,094	670,890	0,060	-0,114
-583,079	-196,323	0,051	0,000
-582,065	-200,000	-0,028	0,104
-581,050	368,612	-0,014	-0,021
-580,036	-200,000	0,012	-0,099
-579,021	-30,222	0,037	0,015
-578,006	800,000	-0,011	-0,032
-576,992	800,000	-0,066	-0,135
-575,977	-54,853	0,047	0,015
-574,963	-192,248	0,069	0,000
-573,948	800,000	-0,067	0,151
-572,934	-30,595	-0,106	-0,044
-571,919	-45,813	0,017	0,006
-570,904	-200,000	0,006	-0,135
-569,890	800,000	-0,004	0,009
-568,875	-135,916	-0,024	-0,002
-567,861	-200,000	-0,012	0,073
-566,846	800,000	-0,037	0,089
-565,831	11,126	0,157	-0,088
-564,817	-91,287	-0,048	-0,010
-563,802	-200,000	-0,015	-0,056
-562,788	69,078	-0,089	-0,067
-561,773	8,471	-0,052	0,028
-560,758	684,927	-0,060	0,115
-559,744	592,687	0,023	-0,042
-558,729	267,127	0,068	0,087
-557,715	-200,000	0,038	-0,213
-556,700	196,430	-0,018	-0,020
-555,685	92,490	-0,033	0,027
-554,671	36,918	0,046	0,030
-553,656	800,000	0,023	-0,071
-552,642	-200,000	0,018	0,125
-551,627	-161,105	0,055	0,002
-550,612	-16,607	-0,202	0,093
-549,598	-55,619	-0,135	-0,044
-548,583	-200,000	0,033	-0,128
-547,569	-34,042	-0,107	0,043
-546,554	800,000	-0,026	-0,075
-545,539	-200,000	0,012	0,152
-544,525	-10,758	-0,098	0,047
-543,510	800,000	0,054	-0,164
-542,496	-200,000	0,019	0,122
-541,481	21,990	-0,151	-0,090
-540,466	-185,499	-0,232	0,003
-539,452	203,793	-0,061	0,069
-538,437	-200,000	-0,016	-0,072
-537,423	-128,020	0,144	0,015
-536,408	-28,594	-0,099	-0,041
-535,393	-200,000	0,008	-0,052
-534,379	-77,672	-0,113	-0,028
-533,364	133,779	-0,028	0,026
-532,350	101,080	0,111	0,094
-531,335	-34,130	-0,048	0,019
-530,321	-200,000	-0,007	-0,027
-529,306	-47,675	-0,114	0,040
-528,291	-42,249	0,046	0,017
-527,277	393,175	0,087	-0,132
-526,262	800,000	0,025	-0,067
-525,248	800,000	-0,058	0,140
-524,233	217,952	-0,064	-0,075
-523,218	-200,000	-0,004	-0,088
-522,204	-44,976	-0,081	-0,029
-521,189	-25,147	0,040	0,017
-520,175	-200,000	0,012	0,044
-519,160	-56,475	-0,149	0,048
-518,145	80,924	0,161	0,127
-517,131	78,050	0,153	0,119
-516,116	217,122	-0,064	0,075
-515,102	-200,000	0,009	0,144
-514,087	131,225	-0,052	-0,049
-513,072	-200,000	0,034	-0,192
-512,058	237,093	0,021	-0,026
-511,043	800,000	-0,028	-0,059
-510,029	303,616	-0,008	-0,011
-509,014	0,259	0,193	0,100
-507,999	42,118	-0,098	-0,065
-506,985	-200,000	0,009	-0,132
-505,970	-200,000	0,002	-0,033
-504,956	800,000	-0,067	-0,177
-503,941	-200,000	-0,018	0,066
-502,926	-200,000	0,020	0,186
-501,912	6,633	0,029	0,016
-500,897	-182,465	0,050	0,001
-499,883	-165,200	-0,177	-0,006
-498,868	-82,377	0,063	-0,015
-497,853	204,689	0,065	0,073
-496,839	25,949	0,123	0,075
-495,824	-39,946	-0,052	0,020
-494,810	550,607	0,045	0,079
-493,795	-200,000	0,036	0,143
-492,781	649,381	-0,066	-0,123
-491,766	-133,497	-0,058	-0,005
-490,751	-139,907	0,073	0,006
-489,737	800,000	-0,009	-0,027
-488,722	251,994	0,042	-0,053
-487,708	41,176	-0,021	-0,014
-486,693	-200,000	-0,024	0,130
-485,678	466,535	0,044	0,073
-484,664	-64,838	-0,132	0,039
-483,649	-200,000	0,004	0,066
-482,635	163,880	-0,027	-0,028
-481,620	-22,274	0,205	-0,090
-480,605	409,127	0,058	-0,090
-479,591	-41,981	0,133	-0,049
-478,576	-11,658	0,020	-0,010
-477,562	74,829	-0,055	0,042
-476,547	63,892	-0,077	0,056
-475,532	-200,000	0,012	-0,118
-474,518	-28,351	0,132	0,055
-473,503	-200,000	0,013	0,055
-472,489	-200,000	-0,023	0,086
-471,474	67,907	0,075	-0,056
-470,459	-114,526	-0,082	-0,011
-469,445	800,000	-0,037	-0,108
-468,430	96,295	0,032	-0,027
-467,416	144,021	0,016	0,016
-466,401	-27,607	0,091	0,038
-465,386	123,093	0,134	0,123
-464,372	800,000	0,041	0,122
-463,357	27,705	-0,035	-0,022
-462,343	-139,728	-0,113	-0,009
-461,328	34,708	0,063	-0,040
-460,313	264,896	0,052	-0,066
-459,299	293,830	0,076	0,101
-458,284	-3,724	-0,050	-0,025
-457,270	800,000	-0,029	-0,067
-456,255	-6,305	0,028	-0,014
-455,241	638,912	0,020	0,038
-454,226	90,898	0,013	-0,011
-453,211	-56,953	0,095	0,030
-452,197	-43,179	-0,074	0,027
-451,182	725,815	-0,022	0,042
-450,168	800,000	0,065	0,167
-449,153	-193,097	0,098	-0,001
-448,138	-168,072	-0,097	-0,003
-447,124	-200,000	0,003	-0,137
-446,109	-200,000	-0,016	-0,071
-445,095	108,064	-0,075	-0,065
-444,080	-200,000	-0,012	0,059
-443,065	391,274	-0,071	0,107
-442,051	-10,394	-0,117	0,056
-441,036	-116,285	-0,096	0,013
-440,022	-5,744	0,069	-0,034
-439,007	-200,000	-0,010	0,042
-437,992	86,067	0,091	-0,073
-436,978	800,000	0,038	0,093
-435,963	800,000	0,039	0,097
-434,949	-68,234	0,094	0,026
-433,934	131,474	-0,113	-0,105
-432,919	800,000	-0,041	-0,117
-431,905	43,409	0,071	-0,047
-430,890	800,000	0,009	-0,020
-429,876	800,000	0,091	0,267
-428,861	800,000	0,064	0,171
-427,846	-44,781	-0,107	0,039
-426,832	374,560	0,005	-0,008
-425,817	-200,000	-0,023	-0,099
-424,803	-34,643	0,129	-0,051
-423,788	122,817	0,025	-0,022
-422,773	-200,000	-0,002	0,224
-421,759	-200,000	0,006	0,032
-420,744	800,000	-0,028	0,076
-419,730	-78,153	-0,114	-0,028
-418,715	800,000	-0,050	0,115
-417,701	-26,167	-0,067	-0,029
-416,686	111,547	-0,104	-0,091
-415,671	281,555	0,035	0,046
-414,657	101,322	-0,022	0,019
-413,642	-200,000	0,013	0,093
-412,628	800,000	0,050	-0,104
-411,613	256,698	-0,043	-0,054
-410,598	688,756	-0,006	-0,011
-409,584	800,000	-0,076	-0,159
-408,569	50,130	0,102	-0,070
-407,555	71,929	0,176	0,133
-406,540	-105,684	0,078	-0,013
-405,525	-55,070	-0,213	0,069
-404,511	-200,000	-0,006	-0,053
-403,496	59,976	0,117	0,083
-402,482	398,333	-0,058	-0,088
-401,467	-200,000	-0,007	0,126
-400,452	-135,351	0,123	0,011
-399,438	157,732	-0,067	0,067
-398,423	46,675	-0,125	0,084
-397,409	19,335	0,043	-0,025
-396,394	136,627	-0,082	-0,077
-395,379	-22,323	0,095	0,042
-394,365	800,000	-0,024	0,060
-393,350	140,690	0,096	-0,092
-392,336	792,457	0,050	-0,101
-391,321	278,701	-0,018	-0,023
-390,306	-51,088	0,140	0,047
-389,292	-200,000	0,011	0,190
-388,277	-101,979	0,125	-0,022
-387,263	518,046	-0,036	0,061
-386,248	-200,000	-0,003	0,055
-385,233	-149,835	-0,147	-0,008
-384,219	25,381	-0,048	0,029
-383,204	-116,580	-0,160	0,021
-382,190	-200,000	-0,001	-0,020
-381,175	-200,000	-0,006	0,106
-380,160	197,604	0,048	-0,053
-379,146	-78,766	0,079	0,019
-378,131	800,000	0,007	-0,020
-377,117	800,000	-0,049	-0,110
-376,102	6,066	0,023	0,012
-375,088	-52,072	-0,057	-0,019
-374,073	-82,633	0,068	-0,016
-373,058	-200,000	-0,002	-0,081
-372,044	110,296	0,097	-0,084
-371,029	800,000	-0,017	-0,036
-370,015	800,000	-0,015	0,049
-369,000	-161,561	-0,184	0,007
-367,985	-77,640	0,110	-0,028
-366,971	-200,000	0,006	-0,034
-365,956	-0,245	-0,016	-0,008
-364,942	-24,240	-0,057	-0,025
-363,927	-200,000	0,011	0,041
-362,912	-114,068	0,156	-0,022
-361,898	-155,410	0,066	0,003
-360,883	-127,172	-0,132	-0,014
-359,869	-7,661	0,100	-0,049
-358,854	212,791	-0,030	-0,034
-357,839	-46,762	0,119	0,042
-356,825	56,984	0,053	0,037
-355,810	-200,000	-0,003	-0,066
-354,796	91,281	-0,131	0,107
-353,781	-126,050	-0,101	-0,011
-352,766	800,000	0,017	0,047
-351,752	95,671	0,096	-0,080
-350,737	233,531	0,021	0,025
-349,723	-200,000	0,047	0,156
-348,708	-200,000	0,001	0,066
-347,693	475,225	-0,102	0,167
-346,679	-200,000	0,005	0,027
-345,664	-0,704	-0,143	0,073
-344,650	-61,586	0,064	-0,019
-343,635	-200,000	-0,019	0,091
-342,620	-147,205	0,185	-0,011
-341,606	-57,377	-0,055	-0,017
-340,591	-48,107	-0,164	0,057
-339,577	99,563	-0,076	0,064
-338,562	78,136	0,091	-0,070
-337,548	195,395	0,058	0,064
-336,533	800,000	-0,054	0,142
-335,518	-200,000	-0,010	0,134
-334,504	405,229	0,030	-0,045
-333,489	-200,000	-0,007	-0,036
-332,475	31,678	0,085	-0,053
-331,460	800,000	-0,006	-0,015
-330,445	24,880	-0,075	-0,045
-329,431	800,000	0,029	-0,065
-328,416	103,660	0,087	-0,074
-327,402	130,742	-0,076	-0,071
-326,387	-200,000	-0,003	0,065
-325,372	480,345	-0,046	-0,075
-324,358	-117,190	-0,009	0,001
-323,343	-200,000	0,004	-0,049
-322,329	452,124	-0,022	0,035
-321,314	800,000	0,045	0,120
-320,299	-62,649	0,074	0,022
-319,285	-200,000	-0,023	-0,110
-318,270	586,414	0,068	-0,121
-317,256	160,275	-0,106	-0,107
-316,241	-103,975	0,083	-0,014
-315,226	-200,000	0,005	0,016
-314,212	464,081	0,012	-0,020
-313,197	320,210	0,053	0,073
-312,183	800,000	0,049	-0,148
-311,168	421,268	0,081	-0,127
-310,153	-149,411	-0,117	0,007
-309,139	800,000	-0,026	0,054
-308,124	267,093	-0,016	0,020
-307,110	-200,000	-0,020	0,097
-306,095	160,550	-0,051	0,052
-305,080	-200,000	0,023	-0,078
-304,066	45,214	0,023	0,015
-303,051	124,736	-0,109	-0,099
-302,037	-200,000	0,009	-0,046
-301,022	-174,208	0,117	0,002
-300,008	413,979	0,025	-0,038
-298,993	-200,000	0,016	0,054
-297,978	800,000	-0,069	0,148
-296,964	-137,011	0,067	-0,005
-295,949	123,215	0,073	-0,066
-294,935	42,152	0,088	-0,058
-293,920	120,721	-0,093	-0,084
-292,905	-11,978	0,173	0,082
-291,891	-159,699	-0,044	-0,002
-290,876	-31,995	0,043	-0,017
-289,862	531,565	-0,030	-0,052
-288,847	741,236	-0,057	-0,110
-287,832	148,307	0,075	-0,073
-286,818	162,447	0,104	0,106
-285,803	199,438	0,116	0,129
-284,789	800,000	-0,012	0,028
-283,774	10,364	0,108	-0,059
-282,759	168,939	-0,122	-0,126
-281,745	-100,557	-0,077	-0,014
-280,730	153,541	-0,033	0,033
-279,716	358,702	0,069	0,100
-278,701	-146,849	-0,098	-0,006
-277,686	157,153	0,123	0,123
-276,672	-50,830	0,110	0,037
-275,657	-200,000	-0,010	-0,057
-274,643	800,000	-0,062	0,175
-273,628	22,425	0,045	0,027
-272,613	-64,185	0,098	0,029
-271,599	800,000	-0,062	0,191
-270,584	800,000	0,012	0,031
-269,570	-78,027	0,017	-0,004
-268,555	-130,208	-0,026	-0,003
-267,540	-123,787	0,130	0,015
-266,526	548,715	0,047	-0,082
-265,511	-16,384	-0,031	0,014
-264,497	800,000	0,034	-0,076
-263,482	800,000	-0,073	0,172
-262,467	-200,000	0,008	0,040
-261,453	-200,000	0,003	0,142
-260,438	66,965	-0,104	-0,077
-259,424	218,133	0,067	-0,077
-258,409	0,881	0,059	-0,030
-257,395	-70,705	0,038	-0,010
-256,380	153,841	0,031	-0,031
-255,365	-92,378	0,237	0,048
-254,351	-114,271	0,126	-0,017
-253,336	-99,513	-0,034	-0,006
-252,322	-45,450	-0,036	0,013
-251,307	-89,459	0,127	-0,027
-250,292	800,000	0,014	-0,030
-249,278	24,581	0,041	-0,025
-248,263	-108,246	0,060	0,009
-247,249	86,821	0,063	-0,050
-246,234	26,918	-0,072	0,043
-245,219	9,422	-0,115	-0,063
-244,205	800,000	-0,051	-0,113
-243,190	800,000	0,055	-0,119
-242,176	3,340	0,061	-0,032
-241,161	132,133	0,013	-0,012
-240,146	-109,536	0,108	0,016
-239,132	265,004	-0,036	-0,045
-238,117	-132,748	-0,073	-0,007
-237,103	9,258	0,075	0,041
-236,088	-200,000	0,020	-0,157
-235,073	800,000	0,054	0,129
-234,059	-22,626	0,088	0,038
-233,044	-59,939	-0,077	-0,024
-232,030	107,071	0,063	-0,054
-231,015	-71,892	-0,133	-0,035
-230,000	261,491	0,107	0,134
-228,986	-35,718	-0,074	0,029
-227,971	-51,758	-0,104	0,035
-226,957	-200,000	-0,012	0,148
-225,942	-87,709	-0,064	0,014
-224,927	-189,843	-0,219	0,002
-223,913	-200,000	0,001	-0,042
-222,898	800,000	-0,065	-0,139
-221,884	-87,239	-0,184	0,040
-220,869	-41,798	-0,107	0,040
-219,855	-200,000	-0,039	0,266
-218,840	-200,000	0,036	-0,142
-217,825	220,300	0,144	-0,166
-216,811	398,477	-0,089	-0,135
-215,796	-200,000	-0,035	-0,189
-214,782	-94,847	-0,083	0,016
-213,767	-63,322	0,042	-0,012
-212,752	-91,817	0,124	-0,025
-211,738	-200,000	0,003	0,035
-210,723	-200,000	0,015	0,121
-209,709	-158,880	-0,077	-0,003
-208,694	-130,717	0,065	-0,006
-207,679	-58,658	-0,074	-0,023
-206,665	-200,000	0,010	-0,111
-205,650	-27,588	0,116	0,048
-204,636	365,384	-0,084	-0,122
-203,621	-136,865	-0,108	0,009
-202,606	-200,000	-0,045	-0,143
-201,592	-200,000	0,010	-0,039
-200,577	-200,000	-0,015	-0,047
-199,563	-8,686	0,094	-0,045
-198,548	30,299	0,156	0,096
-197,533	82,869	-0,029	-0,023
-196,519	161,281	-0,021	-0,021
-195,504	-50,317	-0,171	-0,058
-194,490	-25,814	-0,103	-0,043
-193,475	-200,000	0,004	-0,132
-192,460	57,671	-0,070	-0,049
-191,446	800,000	-0,018	0,056
-190,431	62,022	0,102	0,073
-189,417	356,158	-0,019	0,028
-188,402	-200,000	-0,049	-0,169
-187,387	-200,000	-0,003	0,065
-186,373	-200,000	-0,030	0,143
-185,358	337,497	0,050	0,071
-184,344	800,000	0,018	0,050
-183,329	200,620	0,039	0,043
-182,315	-200,000	0,052	0,184
-181,300	24,822	-0,117	-0,069
-180,285	-200,000	0,009	-0,036
-179,271	800,000	-0,010	-0,021
-178,256	70,556	-0,105	-0,078
-177,242	56,046	-0,049	-0,034
-176,227	-128,173	0,097	0,010
-175,212	79,745	-0,022	0,017
-174,198	-98,557	0,052	0,009
-173,183	-200,000	0,016	-0,230
-172,169	800,000	-0,021	-0,059
-171,154	18,194	0,083	-0,048
-170,139	-16,232	-0,079	-0,036
-169,125	21,988	-0,050	0,029
-168,110	277,588	-0,056	-0,072
-167,096	-200,000	-0,022	0,080
-166,081	790,982	-0,022	0,043
-165,066	22,218	0,087	-0,051
-164,052	-200,000	0,003	0,032
-163,037	800,000	-0,039	-0,102
-162,023	343,988	0,064	0,090
-161,008	-67,841	-0,037	-0,010
-159,993	199,680	0,024	0,027
-158,979	663,590	0,012	-0,023
-157,964	-21,210	-0,040	0,018
-156,950	-200,000	0,000	0,041
-155,935	37,352	0,032	0,021
-154,920	516,822	-0,062	0,104
-153,906	41,922	0,087	-0,057
-152,891	-200,000	-0,001	-0,011
-151,877	-200,000	-0,026	0,142
-150,862	-115,173	0,067	0,009
-149,847	-194,292	-0,098	0,001
-148,833	800,000	0,059	-0,142
-147,818	336,548	0,008	0,012
-146,804	-200,000	0,016	-0,117
-145,789	37,158	0,108	-0,069
-144,775	-73,951	0,035	0,009
-143,760	-58,318	-0,141	-0,044
-142,745	95,422	0,008	0,007
-141,731	639,965	0,022	0,041
-140,716	-113,937	0,080	-0,011
-139,702	14,101	-0,044	-0,025
-138,687	-200,000	-0,023	0,146
-137,672	800,000	0,055	0,165
-136,658	-200,000	0,018	0,067
-135,643	-111,645	0,132	0,019
-134,629	61,922	0,080	0,057
-133,614	800,000	0,016	0,045
-132,599	49,220	-0,065	-0,044
-131,585	-130,498	0,084	-0,008
-130,570	428,978	-0,002	-0,003
-129,556	-28,999	-0,032	-0,013
-128,541	106,292	-0,048	-0,041
-127,526	417,762	-0,027	-0,041
-126,512	74,748	-0,060	0,046
-125,497	-74,566	-0,114	0,029
-124,483	-200,000	0,020	-0,190
-123,468	30,968	0,083	0,051
-122,453	-117,812	-0,045	-0,006
-121,439	800,000	-0,023	-0,051
-120,424	-116,675	-0,126	0,016
-119,410	-200,000	0,038	0,145
