DTS Sentinel unit serial number:	SN410029Multiplexer serial number:	ORYXHardware model number:	OX2-SRSoftware version number:	ORYX F/W v4,00 Oryx Data Collector v3.7.2.0data status	okinstallation	B6 Nyhavnadifferential loss correction	single-endedforward channel	channel 2reverse channel	N/Adate	2023/12/08time	10:15:08forward acquisition time	300,00reverse acquisition time	0,00gamma	499,1914k internal	0,3164k external	0,3164temperature offset calibration	1,0000default loss term (dB/km)	0,3820temperature slope calibration	1,0000multiplexer offset coefficient	1,0000multiplexer slope coefficient	1,0000fibre end	0,00T internal ref (°C)	14,20T ext. ref 1 (°C)	-1,39T ext. ref 2 (°C)	-1,37length (m)	temperature (°C)	Stokes	anti-Stokes-744,400	-164,220	0,123	0,004
-743,385	-47,152	-0,230	0,082
-742,371	-8,693	0,062	0,031
-741,356	-163,912	-0,293	0,010
-740,342	-101,771	0,160	-0,028
-739,327	-65,765	-0,267	0,078
-738,312	265,281	0,047	-0,061
-737,298	-11,258	-0,245	-0,118
-736,283	201,992	0,039	0,044
-735,269	-53,882	-0,220	0,073
-734,254	46,797	0,154	0,105
-733,239	16,944	-0,482	-0,280
-732,225	-14,241	0,098	0,046
-731,210	740,639	0,023	0,046
-730,196	727,661	0,046	0,091
-729,181	147,568	-0,093	-0,092
-728,167	-200,000	0,002	0,096
-727,152	800,000	0,060	-0,160
-726,137	-200,000	-0,018	-0,102
-725,123	800,000	-0,009	-0,028
-724,108	-107,197	-0,140	-0,022
-723,094	85,997	-0,177	-0,143
-722,079	621,938	-0,040	-0,075
-721,064	604,340	0,016	0,030
-720,050	82,524	-0,036	0,029
-719,035	-51,413	0,118	0,040
-718,021	-20,806	0,013	0,006
-717,006	108,310	-0,137	-0,120
-715,991	55,496	-0,120	-0,085
-714,977	800,000	-0,067	-0,181
-713,962	29,808	-0,054	0,034
-712,948	800,000	-0,044	0,101
-711,933	492,338	0,095	-0,161
-710,918	800,000	-0,028	-0,064
-709,904	52,752	-0,073	0,051
-708,889	-9,434	-0,107	0,053
-707,875	-134,479	-0,076	-0,007
-706,860	-200,000	-0,006	-0,028
-705,845	-68,713	0,168	-0,047
-704,831	359,303	0,101	0,148
-703,816	56,956	-0,058	0,042
-702,802	-51,457	-0,185	-0,063
-701,787	281,730	0,054	-0,071
-700,772	-200,000	-0,010	-0,239
-699,758	139,936	-0,070	0,067
-698,743	-69,701	-0,118	-0,033
-697,729	800,000	0,022	-0,059
-696,714	162,270	-0,140	-0,144
-695,699	27,101	0,032	-0,019
-694,685	-69,209	0,129	-0,036
-693,670	84,768	-0,062	0,050
-692,656	404,673	0,014	0,021
-691,641	333,210	0,016	0,023
-690,627	800,000	-0,051	-0,134
-689,612	-46,694	-0,075	-0,027
-688,597	-200,000	0,004	-0,088
-687,583	-38,548	-0,101	-0,039
-686,568	-40,875	-0,085	0,032
-685,554	-23,697	-0,061	-0,027
-684,539	436,310	-0,063	-0,101
-683,524	-115,243	0,094	-0,013
-682,510	-200,000	0,002	0,028
-681,495	-200,000	0,015	-0,069
-680,481	-82,701	-0,071	0,017
-679,466	386,197	-0,064	0,097
-678,451	-161,611	0,116	-0,004
-677,437	-200,000	0,003	0,114
-676,422	-46,124	0,046	0,016
-675,408	57,563	0,141	-0,101
-674,393	800,000	0,009	-0,023
-673,378	-79,766	-0,114	-0,028
-672,364	-200,000	0,013	-0,060
-671,349	-200,000	0,033	0,118
-670,335	-22,491	0,148	0,065
-669,320	-21,281	0,061	0,027
-668,305	-73,835	0,057	-0,015
-667,291	247,539	-0,072	0,090
-666,276	207,765	-0,015	0,017
-665,262	-200,000	-0,025	0,092
-664,247	210,695	0,040	-0,047
-663,232	-140,452	0,020	0,001
-662,218	742,214	-0,045	0,089
-661,203	316,027	-0,013	0,018
-660,189	-31,261	0,030	-0,012
-659,174	582,744	0,011	0,020
-658,159	-124,883	-0,095	-0,011
-657,145	-200,000	0,001	0,027
-656,130	-111,375	0,102	0,015
-655,116	-54,428	-0,055	0,018
-654,101	119,033	-0,023	0,021
-653,086	-200,000	-0,031	-0,120
-652,072	-200,000	-0,021	-0,085
-651,057	-200,000	0,004	0,141
-650,043	40,520	-0,054	-0,036
-649,028	226,900	-0,106	-0,127
-648,014	5,185	0,118	-0,064
-646,999	-200,000	0,020	-0,070
-645,984	800,000	0,043	-0,124
-644,970	-148,564	-0,040	0,002
-643,955	186,293	-0,023	-0,025
-642,941	192,480	0,024	0,027
-641,926	-47,924	0,086	0,030
-640,911	-96,602	0,140	0,027
-639,897	-200,000	-0,002	-0,036
-638,882	55,490	-0,142	0,101
-637,868	-164,005	-0,079	0,003
-636,853	7,585	-0,047	-0,025
-635,838	-85,229	0,045	0,010
-634,824	-200,000	0,023	-0,107
-633,809	-120,724	0,039	-0,005
-632,795	-88,173	0,062	-0,014
-631,780	-129,348	0,120	-0,012
-630,765	-160,385	0,065	-0,003
-629,751	-104,582	-0,074	0,012
-628,736	-94,487	-0,099	0,020
-627,722	-200,000	0,020	-0,151
-626,707	342,228	0,051	0,073
-625,692	-200,000	-0,005	-0,051
-624,678	103,127	-0,074	0,063
-623,663	-200,000	0,006	-0,073
-622,649	-200,000	-0,005	-0,055
-621,634	291,221	0,056	0,074
-620,619	191,749	-0,109	0,120
-619,605	-200,000	0,005	0,052
-618,590	173,920	0,058	-0,061
-617,576	377,697	-0,072	-0,109
-616,561	-49,488	0,128	0,045
-615,546	468,544	-0,063	0,104
-614,532	-73,925	-0,023	-0,006
-613,517	-200,000	0,015	0,110
-612,503	-200,000	0,017	0,072
-611,488	-167,085	0,094	0,003
-610,474	597,784	0,048	0,087
-609,459	-54,886	-0,163	-0,054
-608,444	-15,650	0,022	0,010
-607,430	-200,000	0,005	-0,124
-606,415	-60,562	-0,109	-0,034
-605,401	-200,000	0,005	-0,189
-604,386	18,254	0,082	0,047
-603,371	-200,000	0,005	0,035
-602,357	-131,171	-0,083	0,008
-601,342	388,345	0,049	0,074
-600,328	98,506	-0,099	-0,084
-599,313	-131,264	-0,079	-0,008
-598,298	800,000	-0,015	-0,044
-597,284	238,321	0,086	0,105
-596,269	386,963	-0,040	-0,061
-595,255	302,347	0,089	0,121
-594,240	800,000	-0,072	-0,150
-593,225	-148,763	-0,144	-0,008
-592,211	-132,199	-0,053	0,005
-591,196	241,558	-0,088	-0,107
-590,182	-200,000	0,006	0,045
-589,167	-145,658	0,122	-0,008
-588,152	531,385	0,106	0,185
-587,138	800,000	0,042	-0,101
-586,123	-132,978	-0,180	-0,017
-585,109	-168,447	0,021	0,001
-584,094	66,978	0,043	0,032
-583,079	-200,000	0,020	0,093
-582,065	150,811	0,041	0,041
-581,050	421,214	-0,064	0,100
-580,036	-26,523	0,020	-0,009
-579,021	800,000	-0,016	0,044
-578,006	800,000	0,105	-0,229
-576,992	71,213	-0,174	0,132
-575,977	-194,353	0,173	-0,001
-574,963	800,000	0,019	0,050
-573,948	-34,852	-0,042	-0,017
-572,934	-148,240	-0,089	-0,005
-571,919	88,758	-0,013	-0,011
-570,904	34,553	0,078	0,049
-569,890	-200,000	-0,056	-0,184
-568,875	-61,487	-0,017	-0,005
-567,861	-200,000	-0,012	-0,085
-566,846	800,000	-0,090	0,203
-565,831	-200,000	-0,018	-0,064
-564,817	-200,000	-0,010	-0,036
-563,802	800,000	-0,081	-0,173
-562,788	800,000	-0,015	-0,039
-561,773	165,588	0,067	-0,070
-560,758	314,444	0,059	0,081
-559,744	371,822	-0,073	-0,108
-558,729	-87,864	-0,053	-0,012
-557,715	44,209	-0,145	0,097
-556,700	104,467	0,049	-0,042
-555,685	-69,735	0,094	0,026
-554,671	-200,000	0,017	0,078
-553,656	-200,000	-0,016	0,093
-552,642	29,233	0,054	-0,033
-551,627	48,013	0,099	-0,067
-550,612	768,349	-0,021	-0,043
-549,598	148,724	0,119	-0,118
-548,583	33,708	-0,039	0,024
-547,569	800,000	0,057	-0,129
-546,554	-97,015	-0,096	-0,018
-545,539	228,271	-0,086	0,103
-544,525	800,000	0,052	0,136
-543,510	-61,656	-0,102	-0,031
-542,496	164,964	0,081	0,083
-541,481	-200,000	0,008	-0,044
-540,466	4,648	-0,081	0,043
-539,452	-69,276	0,028	0,008
-538,437	373,421	0,078	0,117
-537,423	680,692	0,062	-0,118
-536,408	800,000	0,024	0,072
-535,393	-126,841	-0,061	-0,006
-534,379	86,664	-0,076	-0,061
-533,364	-200,000	-0,006	-0,106
-532,350	595,493	-0,064	0,116
-531,335	-200,000	0,024	0,103
-530,321	152,279	0,068	-0,068
-529,306	-63,224	-0,033	0,010
-528,291	-200,000	0,012	-0,132
-527,277	158,550	0,041	-0,042
-526,262	-17,821	0,101	0,046
-525,248	-110,667	0,051	-0,008
-524,233	800,000	0,093	0,193
-523,218	-146,749	-0,132	-0,008
-522,204	316,576	-0,143	-0,198
-521,189	275,489	0,059	0,076
-520,175	-200,000	-0,016	0,054
-519,160	565,788	0,072	0,128
-518,145	669,515	-0,031	0,059
-517,131	-200,000	0,011	0,058
-516,116	-8,214	-0,004	-0,002
-515,102	789,345	0,036	-0,073
-514,087	-200,000	0,010	-0,089
-513,072	-200,000	-0,003	0,034
-512,058	800,000	0,034	0,098
-511,043	667,225	-0,032	0,060
-510,029	800,000	0,058	0,129
-509,014	53,520	-0,111	-0,077
-507,999	-200,000	0,009	0,093
-506,985	68,621	-0,026	0,019
-505,970	339,116	-0,076	-0,108
-504,956	625,218	-0,020	-0,036
-503,941	114,063	-0,051	-0,045
-502,926	49,242	-0,126	-0,086
-501,912	623,937	-0,033	0,062
-500,897	49,968	-0,028	-0,019
-499,883	800,000	-0,031	0,101
-498,868	110,825	-0,152	0,133
-497,853	62,640	0,112	0,082
-496,839	-200,000	-0,039	0,125
-495,824	105,961	0,037	0,032
-494,810	-200,000	-0,000	0,177
-493,795	800,000	-0,029	0,087
-492,781	44,164	-0,031	0,021
-491,766	272,735	-0,040	0,052
-490,751	193,365	-0,074	-0,082
-489,737	800,000	-0,015	-0,048
-488,722	593,866	-0,054	-0,097
-487,708	706,732	0,038	-0,074
-486,693	253,216	0,075	0,093
-485,678	-200,000	-0,005	0,092
-484,664	-74,315	-0,085	0,022
-483,649	-200,000	-0,021	-0,086
-482,635	-200,000	-0,014	-0,104
-481,620	-105,870	0,196	0,032
-480,605	-124,515	0,103	-0,012
-479,591	-139,414	-0,162	0,012
-478,576	264,822	-0,029	0,037
-477,562	549,306	-0,041	-0,072
-476,547	77,808	-0,071	0,055
-475,532	-200,000	0,026	0,101
-474,518	110,269	-0,084	0,073
-473,503	-62,261	0,117	0,035
-472,489	231,161	-0,020	0,024
-471,474	250,377	-0,041	-0,051
-470,459	-36,863	-0,160	0,062
-469,445	202,285	-0,017	-0,019
-468,430	427,923	-0,069	-0,109
-467,416	239,276	-0,052	0,063
-466,401	-169,422	0,087	-0,002
-465,386	370,542	-0,045	0,066
-464,372	-156,398	0,198	0,009
-463,357	-200,000	-0,005	0,085
-462,343	800,000	-0,002	-0,005
-461,328	-38,441	0,104	-0,040
-460,313	-200,000	-0,056	0,214
-459,299	11,410	0,157	0,087
-458,284	-61,402	0,044	0,013
-457,270	-200,000	0,018	0,121
-456,255	-144,590	-0,116	0,008
-455,241	-200,000	-0,025	-0,107
-454,226	800,000	-0,031	-0,066
-453,211	-74,659	-0,034	0,009
-452,197	-200,000	-0,008	0,153
-451,182	69,751	0,088	0,066
-450,168	292,879	0,060	0,080
-449,153	800,000	-0,048	-0,141
-448,138	58,233	0,080	0,057
-447,124	-102,734	-0,105	-0,018
-446,109	-200,000	0,007	-0,043
-445,095	-37,298	0,044	0,017
-444,080	800,000	0,059	0,159
-443,065	206,402	0,080	0,091
-442,051	171,657	-0,090	0,094
-441,036	66,200	-0,049	-0,036
-440,022	-161,858	-0,051	-0,002
-439,007	800,000	-0,090	-0,184
-437,992	800,000	-0,029	-0,081
-436,978	-200,000	-0,014	-0,096
-435,963	483,406	0,030	0,051
-434,949	13,281	-0,108	-0,060
-433,934	40,995	-0,092	0,061
-432,919	460,570	-0,052	0,085
-431,905	58,955	0,064	-0,045
-430,890	800,000	0,040	-0,108
-429,876	-200,000	0,001	0,065
-428,861	-22,386	-0,058	0,026
-427,846	363,838	-0,016	0,024
-426,832	800,000	0,042	0,093
-425,817	-200,000	-0,013	0,053
-424,803	203,287	-0,059	0,066
-423,788	-200,000	-0,016	-0,144
-422,773	-200,000	-0,024	-0,169
-421,759	-100,849	0,065	0,011
-420,744	260,328	0,055	-0,070
-419,730	-109,332	-0,133	0,020
-418,715	-92,794	0,066	-0,013
-417,701	-8,171	-0,015	0,007
-416,686	0,745	0,058	0,030
-415,671	246,379	0,078	0,096
-414,657	58,749	0,137	0,098
-413,642	-140,554	-0,099	-0,007
-412,628	326,708	0,056	0,078
-411,613	-91,464	-0,026	-0,005
-410,598	551,392	-0,032	-0,056
-409,584	169,667	0,012	-0,012
-408,569	25,979	0,051	0,031
-407,555	-200,000	0,003	0,064
-406,540	31,846	-0,094	0,059
-405,525	-0,123	0,081	0,042
-404,511	-190,738	0,110	-0,001
-403,496	8,168	0,107	-0,058
-402,482	-183,911	-0,096	-0,001
-401,467	25,809	0,141	0,085
-400,452	-52,957	0,114	0,038
-399,438	183,485	-0,064	-0,069
-398,423	-200,000	-0,001	-0,087
-397,409	62,861	-0,092	-0,067
-396,394	-167,397	-0,009	0,000
-395,379	800,000	-0,022	-0,045
-394,365	166,359	0,061	0,063
-393,350	521,388	-0,096	0,164
-392,336	-163,380	0,116	0,004
-391,321	16,483	0,099	0,057
-390,306	800,000	-0,040	-0,081
-389,292	-102,291	-0,114	0,020
-388,277	574,703	0,051	0,091
-387,263	125,628	0,076	-0,069
-386,248	-200,000	0,000	0,084
-385,233	-123,885	0,134	-0,015
-384,219	-133,248	-0,078	0,007
-383,204	445,152	0,048	-0,076
-382,190	-200,000	0,010	-0,072
-381,175	31,427	0,042	-0,026
-380,160	-149,593	0,123	0,007
-379,146	-28,889	0,060	0,025
-378,131	-200,000	-0,014	-0,053
-377,117	-100,119	-0,051	-0,009
-376,102	-200,000	-0,008	0,088
-375,088	178,688	0,043	-0,046
-374,073	156,671	-0,111	-0,111
-373,058	-200,000	-0,023	0,172
-372,044	-82,594	0,010	0,002
-371,029	333,230	0,060	0,085
-370,015	189,559	-0,012	-0,013
-369,000	-200,000	-0,005	-0,075
-367,985	-200,000	-0,055	-0,206
-366,971	-89,734	0,086	-0,018
-365,956	-35,604	-0,170	0,067
-364,942	84,653	0,125	0,099
-363,927	-99,276	0,028	-0,005
-362,912	20,453	0,068	0,040
-361,898	12,936	-0,080	-0,045
-360,883	101,945	-0,092	-0,078
-359,869	211,448	-0,062	-0,071
-358,854	376,322	-0,033	-0,049
-357,839	41,687	0,192	0,126
-356,825	-200,000	0,019	-0,115
-355,810	-55,824	-0,153	0,049
-354,796	-142,873	-0,103	-0,007
-353,781	82,770	0,155	-0,122
-352,766	-124,642	-0,042	0,005
-351,752	800,000	-0,016	0,048
-350,737	12,988	-0,065	0,036
-349,723	505,643	-0,088	0,148
-348,708	62,653	-0,094	-0,068
-347,693	-130,530	-0,059	-0,006
-346,679	-6,558	-0,156	-0,077
-345,664	-44,028	-0,144	-0,052
-344,650	-97,028	0,167	-0,031
-343,635	-200,000	0,031	0,120
-342,620	-43,365	0,069	0,025
-341,606	-107,571	0,128	0,020
-340,591	-186,104	0,134	0,001
-339,577	-60,506	-0,174	-0,053
-338,562	70,101	-0,065	-0,048
-337,548	-200,000	0,023	-0,144
-336,533	-200,000	-0,000	-0,048
-335,518	-200,000	-0,009	-0,061
-334,504	800,000	-0,010	0,025
-333,489	-49,305	0,091	0,031
-332,475	557,985	0,031	-0,055
-331,460	-6,003	-0,045	0,022
-330,445	-200,000	-0,009	0,083
-329,431	223,054	-0,006	-0,007
-328,416	-200,000	0,026	-0,121
-327,402	800,000	-0,019	0,057
-326,387	-128,720	-0,162	0,016
-325,372	177,127	0,029	-0,031
-324,358	-200,000	0,002	0,021
-323,343	-200,000	-0,004	0,027
-322,329	29,433	0,102	0,062
-321,314	55,322	0,016	0,011
-320,299	181,952	0,073	-0,078
-319,285	476,329	0,052	-0,085
-318,270	-114,983	-0,151	0,020
-317,256	100,995	-0,115	-0,097
-316,241	-200,000	0,002	0,015
-315,226	133,857	-0,066	-0,062
-314,212	-93,107	0,172	0,034
-313,197	-168,540	0,086	-0,002
-312,183	-42,929	-0,052	0,019
-311,168	9,751	-0,048	0,026
-310,153	286,549	-0,028	0,036
-309,139	-200,000	0,021	0,173
-308,124	428,859	-0,008	-0,013
-307,110	172,767	-0,022	-0,022
-306,095	-143,501	0,117	0,008
-305,080	-30,122	-0,083	0,034
-304,066	800,000	-0,051	-0,111
-303,051	-149,538	-0,095	-0,005
-302,037	337,801	-0,078	0,110
-301,022	-133,685	-0,090	-0,008
-300,008	20,739	-0,020	0,012
-298,993	-200,000	-0,006	-0,083
-297,978	-200,000	-0,001	-0,026
-296,964	59,414	-0,197	-0,140
-295,949	800,000	0,020	0,050
-294,935	-200,000	-0,008	-0,063
-293,920	55,536	0,046	0,032
-292,905	75,677	0,142	0,109
-291,891	-161,461	0,026	0,001
-290,876	-16,913	0,076	-0,035
-289,862	-38,601	-0,036	-0,014
-288,847	55,399	-0,046	-0,032
-287,832	-166,521	0,110	-0,003
-286,818	-24,183	0,026	0,011
-285,803	-148,361	0,090	0,005
-284,789	122,203	0,110	0,100
-283,774	41,819	0,044	0,029
-282,759	800,000	0,020	-0,054
-281,745	-200,000	-0,016	-0,094
-280,730	-200,000	-0,006	-0,066
-279,716	145,457	-0,108	-0,105
-278,701	-200,000	-0,022	0,126
-277,686	-29,925	0,015	-0,006
-276,672	-27,118	0,103	0,043
-275,657	-70,079	0,085	0,023
-274,643	598,879	-0,087	-0,156
-273,628	-100,872	0,060	-0,011
-272,613	22,834	0,115	-0,068
-271,599	-46,839	0,193	0,068
-270,584	450,228	-0,045	-0,072
-269,570	-54,023	0,080	0,026
-268,555	-35,196	0,169	0,066
-267,540	800,000	-0,022	0,056
-266,526	800,000	-0,009	0,026
-265,511	248,482	0,051	-0,063
-264,497	-134,666	-0,045	0,004
-263,482	800,000	0,079	-0,175
-262,467	142,955	-0,078	-0,075
-261,453	800,000	0,054	0,120
-260,438	33,992	0,069	-0,043
-259,424	34,960	-0,025	0,016
-258,409	-179,851	0,138	0,002
-257,395	-200,000	-0,015	-0,093
-256,380	88,157	-0,059	-0,047
-255,365	-200,000	0,003	-0,014
-254,351	-200,000	0,012	-0,103
-253,336	62,357	0,020	0,014
-252,322	-123,801	-0,062	0,007
-251,307	-61,033	-0,083	-0,025
-250,292	350,502	0,054	-0,077
-249,278	367,452	0,030	0,044
-248,263	800,000	0,005	0,016
-247,249	201,307	-0,062	-0,069
-246,234	-200,000	0,006	-0,059
-245,219	546,898	-0,027	-0,047
-244,205	42,278	0,073	0,048
-243,190	562,512	0,034	0,059
-242,176	39,921	-0,069	-0,045
-241,161	-200,000	-0,004	0,106
-240,146	-140,377	0,034	-0,003
-239,132	-200,000	-0,003	0,124
-238,117	-5,977	-0,172	0,084
-237,103	73,364	-0,061	-0,046
-236,088	-200,000	-0,037	-0,127
-235,073	-200,000	0,036	-0,154
-234,059	460,331	-0,082	0,133
-233,044	158,232	-0,077	0,077
-232,030	315,344	0,032	0,044
-231,015	66,563	-0,054	0,039
-230,000	-12,786	-0,059	-0,028
-228,986	-200,000	-0,036	-0,130
-227,971	-200,000	0,006	-0,069
-226,957	-200,000	-0,010	0,056
-225,942	300,226	0,028	0,037
-224,927	-200,000	-0,007	0,118
-223,913	-162,654	-0,083	-0,003
-222,898	-200,000	-0,007	-0,071
-221,884	71,690	0,068	-0,051
-220,869	36,380	-0,030	-0,019
-219,855	-64,370	0,060	-0,017
-218,840	-28,371	-0,033	-0,014
-217,825	-167,497	0,083	-0,002
-216,811	-200,000	-0,006	-0,027
-215,796	-90,081	-0,059	0,012
-214,782	800,000	0,043	-0,103
-213,767	800,000	0,010	0,024
-212,752	-200,000	0,000	0,053
-211,738	142,076	-0,044	0,042
-210,723	-200,000	-0,006	0,044
-209,709	-130,487	-0,030	-0,003
-208,694	-1,037	0,063	-0,032
-207,679	24,185	-0,105	-0,062
-206,665	-51,619	0,197	0,066
-205,650	112,243	-0,072	-0,062
-204,636	800,000	0,038	0,094
-203,621	90,814	-0,016	0,013
-202,606	208,332	-0,067	0,076
-201,592	800,000	-0,043	-0,122
-200,577	324,692	-0,062	-0,086
-199,563	141,403	0,171	-0,164
-198,548	-96,004	-0,106	-0,020
-197,533	140,918	-0,017	-0,016
-196,519	-200,000	0,024	0,221
-195,504	-71,037	0,125	-0,034
-194,490	181,550	-0,039	-0,042
-193,475	109,554	0,056	0,049
-192,460	47,423	-0,058	-0,039
-191,446	549,147	-0,075	0,131
-190,431	-200,000	-0,002	0,158
-189,417	75,274	-0,089	0,068
-188,402	2,948	0,111	0,058
-187,387	-31,402	-0,160	0,064
-186,373	85,336	0,055	-0,043
-185,358	233,196	0,077	-0,091
-184,344	-200,000	0,014	-0,046
-183,329	-200,000	0,005	0,019
-182,315	42,434	0,105	-0,068
-181,300	800,000	-0,014	0,041
-180,285	-200,000	0,010	-0,078
-179,271	129,171	-0,053	-0,048
-178,256	-33,625	0,080	-0,032
-177,242	-103,294	0,145	-0,024
-176,227	500,234	-0,079	-0,132
-175,212	186,214	0,078	-0,084
-174,198	800,000	0,018	0,038
-173,183	-38,607	0,105	-0,040
-172,169	-101,697	0,056	-0,010
-171,154	166,953	0,063	-0,065
-170,139	338,304	-0,049	-0,069
-169,125	800,000	-0,028	0,079
-168,110	800,000	-0,064	0,152
-167,096	-173,266	0,072	0,002
-166,081	525,280	0,020	-0,035
-165,066	62,826	0,042	-0,030
-164,052	-200,000	-0,003	-0,070
-163,037	12,586	-0,076	-0,042
-162,023	-163,008	0,177	-0,006
-161,008	-200,000	-0,005	0,105
-159,993	313,786	0,010	-0,014
-158,979	-200,000	-0,002	-0,025
-157,964	335,025	-0,058	0,080
-156,950	-200,000	-0,013	-0,065
-155,935	-200,000	-0,011	-0,082
-154,920	679,650	0,027	0,051
-153,906	-200,000	-0,004	-0,031
-152,891	800,000	0,024	0,049
-151,877	-13,471	0,082	0,038
-150,862	-200,000	0,002	-0,068
-149,847	385,385	0,060	0,090
-148,833	154,370	-0,082	-0,081
-147,818	777,470	-0,036	-0,072
-146,804	-94,809	0,100	-0,019
-145,789	-200,000	-0,005	0,164
-144,775	-162,779	-0,164	0,006
-143,760	800,000	0,032	-0,097
-142,745	9,130	-0,101	0,055
-141,731	39,001	-0,015	-0,010
-140,716	635,143	0,076	0,139
-139,702	-200,000	-0,006	0,206
-138,687	72,973	-0,081	-0,061
-137,672	-23,279	0,009	0,004
-136,658	317,458	-0,071	-0,096
-135,643	106,336	-0,110	0,093
-134,629	-200,000	-0,000	0,061
-133,614	-73,368	0,037	-0,010
-132,599	-55,603	0,150	-0,048
-131,585	167,005	-0,027	-0,028
-130,570	212,801	-0,052	0,059
-129,556	-129,504	-0,099	0,010
-128,541	800,000	0,033	-0,077
-127,526	68,123	-0,060	-0,044
-126,512	12,279	0,105	0,058
-125,497	800,000	-0,023	0,049
-124,483	-200,000	-0,002	-0,056
-123,468	49,307	0,017	-0,011
-122,453	-200,000	0,004	-0,025
-121,439	-200,000	0,020	-0,107
-120,424	580,510	-0,041	0,072
