DTS Sentinel unit serial number:	SN410029Multiplexer serial number:	ORYXHardware model number:	OX2-SRSoftware version number:	ORYX F/W v4,00 Oryx Data Collector v3.7.2.0data status	okinstallation	B6 Nyhavnadifferential loss correction	single-endedforward channel	channel 2reverse channel	N/Adate	2023/12/07time	11:25:08forward acquisition time	300,00reverse acquisition time	0,00gamma	499,1914k internal	0,3202k external	0,3202temperature offset calibration	1,0000default loss term (dB/km)	0,3820temperature slope calibration	1,0000multiplexer offset coefficient	1,0000multiplexer slope coefficient	1,0000fibre end	0,00T internal ref (°C)	8,37T ext. ref 1 (°C)	-5,58T ext. ref 2 (°C)	-5,60length (m)	temperature (°C)	Stokes	anti-Stokes-744,400	-108,078	0,358	-0,056
-743,385	-92,337	-0,368	0,075
-742,371	-47,527	0,121	0,043
-741,356	-135,743	-0,362	-0,031
-740,342	28,017	0,157	0,096
-739,327	-24,247	-0,380	-0,164
-738,312	-34,183	0,145	-0,058
-737,298	-88,630	-0,428	-0,092
-736,283	72,064	0,147	0,111
-735,269	-71,234	-0,390	-0,106
-734,254	73,391	0,230	0,174
-733,239	-50,948	-0,679	-0,230
-732,225	-56,513	0,215	0,069
-731,210	343,773	-0,038	-0,055
-730,196	31,922	-0,124	-0,077
-729,181	-200,000	-0,010	-0,048
-728,167	84,675	0,027	-0,021
-727,152	-200,000	-0,002	-0,053
-726,137	48,043	0,054	0,036
-725,123	-63,702	-0,142	0,042
-724,108	-200,000	0,010	-0,079
-723,094	-161,340	-0,197	-0,007
-722,079	-200,000	0,016	0,158
-721,064	-200,000	-0,020	-0,080
-720,050	400,802	0,019	0,029
-719,035	159,212	-0,016	0,016
-718,021	-79,549	0,058	0,014
-717,006	44,395	-0,103	0,069
-715,991	605,031	-0,059	-0,107
-714,977	605,851	-0,021	-0,039
-713,962	-133,685	-0,032	-0,003
-712,948	-135,583	-0,041	0,004
-711,933	800,000	0,020	0,055
-710,918	800,000	-0,031	0,066
-709,904	800,000	0,014	-0,043
-708,889	-200,000	0,002	-0,104
-707,875	-200,000	-0,004	0,037
-706,860	-70,819	0,081	0,022
-705,845	800,000	-0,044	-0,123
-704,831	1,111	-0,146	0,076
-703,816	-200,000	0,004	0,107
-702,802	16,141	-0,144	0,082
-701,787	-33,620	-0,032	0,013
-700,772	-6,194	0,055	-0,027
-699,758	207,280	0,038	-0,043
-698,743	208,396	-0,071	-0,081
-697,729	338,691	-0,018	0,025
-696,714	-152,797	-0,063	0,003
-695,699	48,224	0,078	-0,053
-694,685	94,258	-0,126	-0,104
-693,670	659,839	-0,068	-0,127
-692,656	-23,054	-0,022	0,010
-691,641	132,914	0,108	0,102
-690,627	-200,000	0,012	0,117
-689,612	34,828	0,063	0,040
-688,597	-200,000	-0,002	0,064
-687,583	5,532	-0,161	-0,086
-686,568	800,000	0,044	-0,124
-685,554	-55,236	0,095	-0,031
-684,539	800,000	-0,051	-0,160
-683,524	-79,723	-0,060	-0,015
-682,510	707,674	0,050	0,096
-681,495	-200,000	0,015	-0,125
-680,481	649,401	0,007	-0,013
-679,466	800,000	-0,014	-0,033
-678,451	262,274	-0,035	0,044
-677,437	-123,094	0,114	-0,013
-676,422	130,417	-0,053	-0,049
-675,408	-82,768	-0,049	0,011
-674,393	800,000	0,002	0,006
-673,378	100,660	-0,119	0,100
-672,364	96,975	0,089	0,074
-671,349	-89,964	-0,130	-0,027
-670,335	-129,926	-0,067	0,007
-669,320	-200,000	0,004	-0,021
-668,305	-145,127	0,126	-0,008
-667,291	-200,000	0,002	0,060
-666,276	-200,000	-0,016	0,083
-665,262	800,000	-0,033	-0,071
-664,247	-200,000	0,026	-0,170
-663,232	-155,841	0,105	0,005
-662,218	-39,663	0,099	0,038
-661,203	55,649	-0,159	-0,111
-660,189	-200,000	0,019	-0,133
-659,174	33,436	0,030	-0,019
-658,159	-156,451	-0,159	-0,007
-657,145	109,444	0,051	-0,044
-656,130	183,192	-0,111	0,119
-655,116	-64,739	0,097	0,028
-654,101	-86,660	-0,101	0,022
-653,086	87,913	-0,102	-0,082
-652,072	-200,000	-0,001	-0,067
-651,057	144,012	0,013	0,013
-650,043	-89,761	-0,129	-0,027
-649,028	368,903	-0,090	0,133
-648,014	-13,202	0,068	-0,032
-646,999	-200,000	-0,029	0,121
-645,984	151,785	0,059	-0,058
-644,970	-107,892	-0,063	-0,010
-643,955	-137,397	-0,011	-0,001
-642,941	289,612	-0,036	-0,048
-641,926	338,490	0,065	-0,092
-640,911	6,665	0,054	0,029
-639,897	-11,840	0,033	0,015
-638,882	800,000	-0,052	0,128
-637,868	218,569	-0,060	0,069
-636,853	-200,000	0,019	-0,137
-635,838	800,000	-0,039	-0,081
-634,824	140,444	-0,098	-0,094
-633,809	29,410	0,074	-0,046
-632,795	-200,000	-0,017	-0,087
-631,780	800,000	0,072	-0,168
-630,765	-200,000	-0,013	0,057
-629,751	-200,000	0,036	-0,123
-628,736	585,295	-0,042	-0,076
-627,722	-97,498	0,033	-0,006
-626,707	7,185	0,122	-0,066
-625,692	372,198	0,039	0,057
-624,678	-200,000	-0,051	0,172
-623,663	-41,218	-0,076	0,028
-622,649	-200,000	0,034	-0,129
-621,634	-166,879	0,065	-0,002
-620,619	-44,740	-0,068	-0,024
-619,605	64,957	0,120	0,087
-618,590	-160,656	0,085	-0,003
-617,576	59,738	-0,082	-0,058
-616,561	334,318	-0,059	-0,083
-615,546	-200,000	0,019	-0,098
-614,532	-127,525	-0,077	0,008
-613,517	-200,000	0,030	0,101
-612,503	-3,970	-0,045	0,023
-611,488	283,016	-0,103	0,134
-610,474	-25,950	0,107	-0,045
-609,459	5,301	0,087	0,046
-608,444	69,325	0,104	-0,078
-607,430	-27,593	-0,137	-0,057
-606,415	405,110	-0,052	0,080
-605,401	800,000	0,025	-0,070
-604,386	-200,000	0,016	0,098
-603,371	228,910	0,112	0,133
-602,357	-200,000	-0,031	0,121
-601,342	-138,658	-0,147	-0,012
-600,328	-106,598	0,073	0,012
-599,313	-200,000	-0,071	-0,000
-598,298	-200,000	-0,008	0,093
-597,284	-200,000	0,007	0,087
-596,269	-200,000	-0,018	0,067
-595,255	-200,000	0,001	-0,015
-594,240	-200,000	0,001	0,059
-593,225	-200,000	0,014	-0,167
-592,211	-132,233	-0,111	0,010
-591,196	-200,000	-0,005	-0,085
-590,182	-138,541	0,069	-0,005
-589,167	106,970	-0,129	0,111
-588,152	-86,700	-0,082	0,018
-587,138	-10,925	0,095	-0,045
-586,123	-41,579	-0,051	0,019
-585,109	52,586	0,036	-0,025
-584,094	151,352	-0,113	0,111
-583,079	52,671	0,080	0,055
-582,065	284,074	-0,036	0,046
-581,050	800,000	-0,041	0,095
-580,036	-45,973	0,073	-0,026
-579,021	19,488	-0,089	-0,052
-578,006	235,412	-0,083	0,099
-576,992	-200,000	0,014	0,123
-575,977	-134,870	-0,094	0,008
-574,963	95,865	-0,013	0,011
-573,948	372,640	0,085	0,125
-572,934	800,000	0,011	0,024
-571,919	800,000	0,022	-0,059
-570,904	397,733	0,010	0,015
-569,890	-123,874	0,118	-0,013
-568,875	39,990	0,088	0,057
-567,861	800,000	-0,040	0,119
-566,846	-200,000	-0,033	0,110
-565,831	-8,534	0,093	0,045
-564,817	-200,000	-0,003	0,076
-563,802	27,784	-0,122	-0,074
-562,788	800,000	-0,020	-0,062
-561,773	21,597	-0,044	-0,026
-560,758	-164,832	0,114	-0,004
-559,744	-200,000	-0,002	-0,181
-558,729	-116,176	0,089	-0,012
-557,715	26,933	-0,060	-0,036
-556,700	92,216	-0,072	-0,058
-555,685	-200,000	-0,003	-0,028
-554,671	-200,000	-0,031	0,115
-553,656	242,953	0,084	0,101
-552,642	-200,000	0,013	0,089
-551,627	-200,000	0,013	-0,130
-550,612	800,000	-0,019	0,056
-549,598	133,137	0,029	0,027
-548,583	467,493	0,027	-0,044
-547,569	140,997	-0,079	0,075
-546,554	164,374	0,081	0,082
-545,539	655,632	0,065	0,121
-544,525	735,314	-0,043	-0,084
-543,510	-200,000	-0,003	0,033
-542,496	17,576	0,098	-0,056
-541,481	187,503	-0,113	-0,121
-540,466	99,744	-0,107	-0,089
-539,452	-77,102	-0,053	-0,013
-538,437	310,871	0,057	0,078
-537,423	-200,000	-0,015	0,084
-536,408	655,018	-0,056	0,105
-535,393	800,000	-0,015	-0,046
-534,379	-200,000	-0,022	0,093
-533,364	-200,000	-0,027	0,088
-532,350	56,107	0,066	0,046
-531,335	-12,227	0,138	0,065
-530,321	-49,042	-0,010	0,003
-529,306	800,000	0,075	0,188
-528,291	-143,851	-0,028	-0,002
-527,277	487,189	-0,010	0,016
-526,262	-200,000	-0,010	0,074
-525,248	-136,826	-0,023	-0,002
-524,233	-12,496	-0,116	0,054
-523,218	205,573	0,023	0,026
-522,204	-122,330	-0,027	0,003
-521,189	-120,649	0,036	-0,004
-520,175	-200,000	0,041	-0,182
-519,160	-200,000	0,028	-0,141
-518,145	-200,000	-0,037	-0,119
-517,131	18,035	0,071	0,041
-516,116	179,619	-0,087	0,092
-515,102	196,126	-0,048	0,053
-514,087	-119,663	-0,120	-0,015
-513,072	28,694	0,035	0,022
-512,058	800,000	0,025	-0,072
-511,043	328,307	0,019	-0,026
-510,029	169,772	0,065	0,067
-509,014	-61,729	-0,036	0,011
-507,999	-21,900	-0,157	0,069
-506,985	9,475	0,122	0,066
-505,970	499,958	-0,073	0,122
-504,956	48,407	-0,016	-0,010
-503,941	-200,000	-0,017	-0,195
-502,926	58,598	0,050	0,035
-501,912	380,803	-0,069	0,103
-500,897	97,093	0,034	0,028
-499,883	800,000	-0,081	-0,161
-498,868	-200,000	0,022	-0,088
-497,853	800,000	-0,046	-0,103
-496,839	800,000	-0,014	0,037
-495,824	-149,202	-0,056	0,003
-494,810	800,000	0,024	-0,073
-493,795	671,621	0,027	0,051
-492,781	800,000	-0,016	0,050
-491,766	10,607	-0,089	0,049
-490,751	306,765	-0,096	-0,129
-489,737	5,618	0,146	-0,077
-488,722	687,461	0,045	-0,086
-487,708	-200,000	0,033	0,176
-486,693	-200,000	-0,014	0,255
-485,678	320,235	-0,061	-0,084
-484,664	54,990	-0,118	-0,082
-483,649	-200,000	-0,006	-0,186
-482,635	16,981	-0,179	-0,102
-481,620	800,000	-0,048	-0,098
-480,605	733,719	-0,023	0,045
-479,591	800,000	0,066	0,160
-478,576	-200,000	0,008	-0,075
-477,562	800,000	-0,043	0,120
-476,547	46,962	-0,106	-0,071
-475,532	-120,231	0,152	-0,018
-474,518	-36,101	-0,104	0,040
-473,503	-200,000	-0,041	0,270
-472,489	-200,000	0,020	0,071
-471,474	-13,195	-0,075	0,035
-470,459	249,189	-0,066	-0,081
-469,445	275,683	-0,051	-0,065
-468,430	800,000	-0,061	0,134
-467,416	121,154	-0,103	0,092
-466,401	8,855	0,142	0,077
-465,386	-24,680	0,045	0,019
-464,372	-69,373	-0,052	0,014
-463,357	-42,396	0,038	0,014
-462,343	358,708	0,080	-0,116
-461,328	-9,241	0,067	0,032
-460,313	304,532	-0,057	0,076
-459,299	463,496	0,073	-0,118
-458,284	-200,000	0,017	0,113
-457,270	-200,000	-0,014	0,049
-456,255	800,000	-0,039	-0,110
-455,241	31,777	-0,110	-0,068
-454,226	-200,000	-0,046	-0,159
-453,211	-175,042	0,107	-0,002
-452,197	800,000	0,017	-0,045
-451,182	-107,810	-0,110	-0,017
-450,168	265,744	0,076	0,095
-449,153	-166,113	-0,034	-0,001
-448,138	-76,061	-0,055	-0,014
-447,124	33,860	0,048	-0,030
-446,109	-200,000	-0,020	-0,144
-445,095	529,899	0,073	0,124
-444,080	-78,779	0,013	0,003
-443,065	78,179	-0,069	0,053
-442,051	278,527	0,020	-0,026
-441,036	-22,528	0,040	0,017
-440,022	-200,000	-0,002	-0,110
-439,007	-53,837	0,045	0,015
-437,992	138,956	-0,085	0,080
-436,978	791,270	0,026	0,051
-435,963	-96,812	-0,063	-0,012
-434,949	-200,000	-0,003	-0,057
-433,934	800,000	0,009	-0,026
-432,919	-120,546	-0,282	-0,034
-431,905	279,458	0,042	0,054
-430,890	8,624	0,077	0,041
-429,876	-49,892	0,075	-0,025
-428,861	228,968	-0,045	0,052
-427,846	-55,801	-0,147	-0,047
-426,832	180,236	0,027	-0,028
-425,817	36,746	-0,045	0,028
-424,803	268,449	0,018	0,023
-423,788	-188,900	0,124	-0,001
-422,773	-200,000	-0,019	-0,064
-421,759	-21,193	0,023	0,010
-420,744	-88,304	0,018	0,004
-419,730	-79,856	0,219	-0,053
-418,715	-200,000	-0,001	-0,062
-417,701	800,000	0,036	0,082
-416,686	300,778	0,034	0,045
-415,671	49,762	0,094	0,064
-414,657	27,716	0,091	-0,055
-413,642	-14,535	0,057	-0,026
-412,628	800,000	-0,032	-0,085
-411,613	800,000	0,060	-0,162
-410,598	444,465	0,045	-0,071
-409,584	-108,832	0,074	-0,011
-408,569	-139,092	0,167	0,013
-407,555	228,600	0,036	0,043
-406,540	-134,186	-0,081	0,007
-405,525	536,331	0,021	-0,036
-404,511	800,000	-0,024	-0,060
-403,496	-50,341	-0,060	0,020
-402,482	124,476	-0,075	-0,068
-401,467	800,000	0,055	0,135
-400,452	-79,345	0,042	0,010
-399,438	-175,357	0,092	0,002
-398,423	99,639	0,093	-0,077
-397,409	276,333	0,064	0,081
-396,394	-200,000	0,007	-0,080
-395,379	-146,208	0,046	-0,003
-394,365	-79,775	0,297	-0,071
-393,350	-113,013	0,137	-0,019
-392,336	800,000	0,054	-0,116
-391,321	-117,488	-0,051	-0,007
-390,306	-200,000	0,013	0,041
-389,292	343,392	0,038	-0,053
-388,277	26,222	0,059	0,035
-387,263	-109,010	-0,069	0,010
-386,248	-25,693	0,045	-0,019
-385,233	-200,000	0,036	0,173
-384,219	39,451	-0,075	0,048
-383,204	226,002	-0,048	-0,056
-382,190	-17,107	0,051	-0,023
-381,175	54,115	-0,054	-0,037
-380,160	800,000	-0,048	0,150
-379,146	357,219	-0,048	0,069
-378,131	36,866	-0,025	0,015
-377,117	710,356	0,022	0,042
-376,102	-200,000	-0,043	-0,138
-375,088	-200,000	-0,013	-0,071
-374,073	31,508	-0,151	-0,093
-373,058	397,904	0,034	0,051
-372,044	-75,261	0,123	-0,031
-371,029	-200,000	-0,008	0,071
-370,015	-200,000	0,008	-0,085
-369,000	237,852	-0,083	-0,098
-367,985	-100,247	-0,021	-0,004
-366,971	111,312	-0,119	-0,103
-365,956	-22,802	-0,065	0,028
-364,942	-200,000	0,004	0,223
-363,927	-29,551	0,070	0,029
-362,912	-178,060	-0,057	-0,001
-361,898	-200,000	-0,028	-0,107
-360,883	-38,253	-0,053	0,020
-359,869	3,863	0,042	0,022
-358,854	87,344	0,109	0,086
-357,839	176,171	-0,044	-0,045
-356,825	72,997	0,114	0,085
-355,810	800,000	-0,018	0,046
-354,796	-189,779	-0,126	0,001
-353,781	28,987	-0,043	0,026
-352,766	2,757	-0,121	0,063
-351,752	-113,299	0,113	-0,016
-350,737	800,000	0,028	-0,058
-349,723	209,679	-0,040	-0,046
-348,708	-52,254	-0,029	0,010
-347,693	65,157	-0,052	-0,038
-346,679	-200,000	0,008	-0,100
-345,664	800,000	0,049	0,122
-344,650	-109,508	-0,042	0,006
-343,635	3,306	-0,150	0,078
-342,620	-34,101	0,145	0,057
-341,606	-200,000	0,011	0,310
-340,591	-200,000	0,003	-0,016
-339,577	63,710	0,084	0,060
-338,562	-115,511	-0,070	-0,009
-337,548	800,000	0,023	0,052
-336,533	786,364	0,030	0,058
-335,518	199,142	-0,026	0,029
-334,504	104,321	0,027	0,022
-333,489	-200,000	-0,017	-0,091
-332,475	95,191	0,062	-0,050
-331,460	-40,801	0,068	-0,025
-330,445	-177,826	-0,066	0,001
-329,431	440,535	-0,020	-0,032
-328,416	-62,817	0,105	0,031
-327,402	196,394	-0,072	0,079
-326,387	4,982	-0,104	-0,055
-325,372	-200,000	-0,027	-0,119
-324,358	328,324	-0,010	0,014
-323,343	51,322	0,064	0,044
-322,329	457,418	-0,010	0,015
-321,314	141,929	-0,066	0,063
-320,299	169,170	-0,089	0,091
-319,285	-200,000	0,006	-0,018
-318,270	800,000	-0,022	-0,069
-317,256	66,167	-0,054	-0,039
-316,241	-200,000	-0,037	-0,132
-315,226	-200,000	0,010	0,175
-314,212	800,000	-0,036	-0,072
-313,197	-82,207	0,102	0,023
-312,183	259,478	-0,094	0,116
-311,168	33,291	0,072	0,044
-310,153	125,932	0,089	-0,081
-309,139	-12,463	-0,046	-0,022
-308,124	43,953	-0,045	-0,030
-307,110	402,822	0,005	0,008
-306,095	12,889	0,068	0,037
-305,080	-55,817	0,033	0,010
-304,066	-34,721	0,078	-0,030
-303,051	522,028	-0,040	-0,068
-302,037	170,253	-0,060	-0,061
-301,022	800,000	0,031	-0,094
-300,008	206,754	0,033	0,037
-298,993	180,461	-0,106	-0,111
-297,978	-148,612	-0,031	-0,002
-296,964	132,358	-0,143	-0,132
-295,949	800,000	-0,029	0,061
-294,935	-200,000	0,016	0,080
-293,920	-125,348	0,171	-0,018
-292,905	-200,000	0,103	-0,000
-291,891	-200,000	-0,011	-0,052
-290,876	800,000	-0,017	-0,053
-289,862	62,482	-0,138	0,098
-288,847	124,019	-0,121	-0,109
-287,832	320,776	0,039	-0,053
-286,818	14,314	0,111	-0,062
-285,803	-100,259	-0,134	-0,024
-284,789	800,000	0,052	0,102
-283,774	220,379	0,082	0,094
-282,759	199,592	-0,064	0,070
-281,745	800,000	-0,027	-0,073
-280,730	381,496	0,017	0,025
-279,716	-200,000	0,010	-0,044
-278,701	325,114	-0,043	-0,058
-277,686	-200,000	0,013	0,077
-276,672	-153,666	0,041	0,002
-275,657	78,691	-0,078	-0,059
-274,643	-161,196	0,072	-0,003
-273,628	65,062	-0,091	0,065
-272,613	-200,000	-0,033	0,149
-271,599	110,004	0,080	0,068
-270,584	-55,463	0,120	-0,038
-269,570	-200,000	-0,014	-0,052
-268,555	-11,604	0,053	-0,025
-267,540	573,500	0,039	0,068
-266,526	43,592	-0,041	0,027
-265,511	800,000	-0,066	-0,200
-264,497	5,139	-0,063	-0,033
-263,482	-17,617	0,144	-0,064
-262,467	11,508	0,025	0,014
-261,453	800,000	0,043	0,102
-260,438	-200,000	0,003	0,036
-259,424	-36,409	-0,059	0,022
-258,409	-55,043	0,133	-0,043
-257,395	-49,517	-0,128	-0,043
-256,380	-200,000	0,016	0,062
-255,365	-200,000	-0,014	-0,072
-254,351	-200,000	0,006	-0,078
-253,336	-86,264	0,122	-0,027
-252,322	-200,000	0,036	-0,126
-251,307	-200,000	0,032	-0,103
-250,292	-13,890	-0,024	0,011
-249,278	50,391	0,147	-0,099
-248,263	-200,000	0,043	0,154
-247,249	800,000	-0,042	0,121
-246,234	-200,000	0,006	-0,049
-245,219	-200,000	-0,023	-0,101
-244,205	-155,342	0,113	-0,005
-243,190	-200,000	-0,013	-0,091
-242,176	-62,974	0,156	0,046
-241,161	-1,594	0,078	0,039
-240,146	82,459	0,146	0,113
-239,132	-200,000	-0,019	-0,069
-238,117	458,018	-0,031	-0,049
-237,103	-200,000	-0,024	0,086
-236,088	-5,507	-0,159	0,077
-235,073	14,299	-0,088	0,049
-234,059	800,000	-0,039	-0,104
-233,044	105,298	0,052	-0,043
-232,030	201,362	0,052	0,057
-231,015	40,168	0,051	-0,033
-230,000	-200,000	0,018	-0,089
-228,986	43,382	-0,066	0,043
-227,971	-181,541	-0,108	0,001
-226,957	64,247	0,235	0,168
-225,942	13,683	-0,034	-0,019
-224,927	-200,000	0,009	0,049
-223,913	-200,000	0,003	-0,029
-222,898	-49,135	-0,180	0,061
-221,884	-20,233	0,035	0,015
-220,869	606,037	0,042	0,074
-219,855	-200,000	-0,014	-0,077
-218,840	-81,021	-0,032	-0,007
-217,825	309,162	-0,025	-0,033
-216,811	-200,000	-0,017	-0,110
-215,796	-135,380	-0,043	-0,004
-214,782	14,344	0,050	-0,028
-213,767	-200,000	-0,021	0,176
-212,752	12,291	-0,087	-0,048
-211,738	-200,000	-0,004	0,024
-210,723	428,449	-0,046	0,070
-209,709	466,064	-0,074	-0,118
-208,694	421,312	0,093	-0,142
-207,679	-6,931	0,033	-0,016
-206,665	111,751	0,080	-0,068
-205,650	280,914	0,032	0,041
-204,636	-200,000	0,000	-0,020
-203,621	188,071	0,022	-0,024
-202,606	282,646	-0,044	0,056
-201,592	-93,927	-0,098	-0,019
-200,577	562,913	-0,028	0,049
-199,563	88,095	-0,068	-0,054
-198,548	-100,045	0,081	-0,014
-197,533	59,280	0,041	-0,029
-196,519	-92,951	-0,174	0,034
-195,504	266,069	-0,118	-0,147
-194,490	-200,000	0,019	-0,109
-193,475	510,173	-0,054	-0,090
-192,460	-200,000	0,014	-0,082
-191,446	186,941	0,137	0,146
-190,431	0,517	0,016	-0,008
-189,417	305,508	-0,135	0,179
-188,402	220,258	-0,092	-0,105
-187,387	-73,950	-0,031	0,008
-186,373	-200,000	0,014	0,098
-185,358	420,498	0,058	0,089
-184,344	161,483	0,073	-0,072
-183,329	222,497	-0,107	-0,123
-182,315	-112,640	0,080	0,011
-181,300	-25,218	-0,084	-0,035
-180,285	-49,786	-0,057	0,019
-179,271	800,000	0,040	-0,097
-178,256	800,000	0,035	0,072
-177,242	800,000	0,016	0,050
-176,227	-59,673	0,109	-0,033
-175,212	-7,915	0,060	-0,028
-174,198	-37,081	0,073	0,028
-173,183	559,926	-0,085	-0,146
-172,169	-200,000	0,036	-0,204
-171,154	-44,844	0,092	-0,033
-170,139	183,287	0,040	-0,043
-169,125	-200,000	0,013	0,083
-168,110	-200,000	0,027	-0,107
-167,096	40,418	0,032	0,020
-166,081	785,270	-0,077	-0,150
-165,066	197,226	0,067	0,073
-164,052	-200,000	0,083	-0,295
-163,037	-81,455	0,079	-0,018
-162,023	-112,312	0,111	0,016
-161,008	154,801	-0,083	-0,081
-159,993	48,389	0,061	0,041
-158,979	112,099	-0,095	0,082
-157,964	-173,300	-0,093	0,002
-156,950	136,070	0,045	-0,042
-155,935	-43,169	-0,018	0,006
-154,920	-200,000	0,026	0,092
-153,906	-200,000	0,042	0,179
-152,891	-59,372	-0,071	-0,022
-151,877	-69,929	-0,110	-0,030
-150,862	282,011	-0,024	0,031
-149,847	-56,405	-0,132	0,041
-148,833	-200,000	-0,007	0,040
-147,818	18,532	0,185	0,105
-146,804	-58,138	-0,076	0,023
-145,789	800,000	-0,020	0,042
-144,775	137,253	-0,083	0,077
-143,760	-38,990	-0,051	0,019
-142,745	-75,571	0,120	0,030
-141,731	-62,541	0,114	-0,033
-140,716	777,518	0,072	0,141
-139,702	-200,000	0,004	-0,096
-138,687	-122,785	0,092	-0,010
-137,672	571,654	-0,042	-0,074
-136,658	-187,452	-0,204	0,002
-135,643	297,875	-0,021	0,027
-134,629	101,677	-0,023	0,019
-133,614	188,894	0,087	0,093
-132,599	-60,522	-0,083	-0,025
-131,585	367,708	0,035	0,050
-130,570	-114,718	-0,136	-0,018
-129,556	-200,000	-0,006	-0,052
-128,541	-200,000	0,067	-0,250
-127,526	-200,000	0,011	-0,130
-126,512	-105,748	0,150	0,024
-125,497	278,871	-0,110	0,140
-124,483	-200,000	0,010	0,037
-123,468	-43,244	-0,041	-0,015
-122,453	428,297	-0,029	-0,044
-121,439	228,340	0,088	-0,102
-120,424	800,000	-0,062	-0,126
-119,410	-200,000	0,006	0,033
