DTS Sentinel unit serial number:	SN410029Multiplexer serial number:	ORYXHardware model number:	OX2-SRSoftware version number:	ORYX F/W v4,00 Oryx Data Collector v3.7.2.0data status	okinstallation	B6 Nyhavnadifferential loss correction	single-endedforward channel	channel 2reverse channel	N/Adate	2023/12/10time	03:20:08forward acquisition time	300,00reverse acquisition time	0,00gamma	499,1914k internal	0,3125k external	0,3125temperature offset calibration	1,0000default loss term (dB/km)	0,3820temperature slope calibration	1,0000multiplexer offset coefficient	1,0000multiplexer slope coefficient	1,0000fibre end	0,00T internal ref (°C)	22,00T ext. ref 1 (°C)	5,86T ext. ref 2 (°C)	5,84length (m)	temperature (°C)	Stokes	anti-Stokes-744,400	-200,000	0,153	0,000
-743,385	-86,655	-0,264	0,060
-742,371	-107,582	0,132	0,021
-741,356	-155,967	-0,253	0,012
-740,342	9,802	0,063	0,035
-739,327	210,249	-0,211	0,247
-738,312	315,860	-0,035	-0,049
-737,298	-35,762	-0,188	0,075
-736,283	-44,930	0,028	-0,010
-735,269	508,042	-0,162	0,281
-734,254	70,832	-0,020	0,016
-733,239	-38,418	-0,442	-0,173
-732,225	-200,000	0,031	-0,157
-731,210	-200,000	0,012	0,070
-730,196	800,000	0,007	0,021
-729,181	-200,000	-0,031	0,137
-728,167	657,993	-0,027	0,052
-727,152	167,158	0,145	-0,153
-726,137	300,470	-0,128	-0,177
-725,123	-200,000	0,014	-0,134
-724,108	-177,311	-0,076	0,001
-723,094	-200,000	-0,017	-0,081
-722,079	711,457	0,057	-0,112
-721,064	279,961	-0,147	-0,196
-720,050	151,530	-0,069	0,070
-719,035	-200,000	-0,025	0,090
-718,021	70,255	-0,053	-0,041
-717,006	-200,000	-0,012	-0,150
-715,991	221,037	-0,094	-0,112
-714,977	-200,000	-0,016	-0,190
-713,962	169,694	-0,042	0,045
-712,948	148,967	0,052	0,053
-711,933	-110,169	0,121	0,019
-710,918	306,703	0,037	-0,051
-709,904	8,363	-0,095	-0,053
-708,889	-19,566	0,087	-0,040
-707,875	-78,107	-0,069	-0,017
-706,860	-102,222	-0,044	-0,008
-705,845	196,644	-0,055	0,062
-704,831	-27,328	0,104	-0,045
-703,816	41,064	-0,064	0,043
-702,802	-200,000	-0,021	-0,100
-701,787	-12,728	-0,065	-0,031
-700,772	-23,672	-0,057	0,025
-699,758	129,946	-0,098	-0,094
-698,743	64,910	-0,009	0,007
-697,729	-50,195	0,084	-0,029
-696,714	800,000	0,026	-0,068
-695,699	-109,516	-0,080	0,012
-694,685	-25,260	-0,031	0,014
-693,670	800,000	0,030	-0,092
-692,656	-200,000	-0,023	-0,128
-691,641	-200,000	-0,001	0,147
-690,627	668,903	0,040	0,078
-689,612	-45,554	-0,078	0,029
-688,597	-86,802	-0,060	-0,014
-687,583	399,675	0,068	-0,106
-686,568	800,000	-0,084	-0,202
-685,554	-20,528	-0,051	-0,023
-684,539	-83,239	0,163	0,039
-683,524	55,713	-0,045	0,032
-682,510	-164,377	0,064	0,002
-681,495	-200,000	0,000	0,063
-680,481	800,000	-0,034	0,106
-679,466	-108,849	-0,108	-0,017
-678,451	172,955	-0,077	-0,082
-677,437	-27,902	-0,041	-0,018
-676,422	-10,812	0,160	0,078
-675,408	21,243	-0,089	0,054
-674,393	-200,000	0,002	-0,032
-673,378	-25,491	-0,126	-0,055
-672,364	650,782	-0,052	0,100
-671,349	-154,866	-0,023	-0,001
-670,335	-200,000	-0,008	0,025
-669,320	-48,605	-0,022	0,008
-668,305	556,553	-0,062	0,111
-667,291	28,626	0,120	-0,075
-666,276	-200,000	-0,007	-0,189
-665,262	-200,000	-0,017	-0,103
-664,247	124,798	-0,024	-0,022
-663,232	-80,043	0,042	0,010
-662,218	-200,000	0,033	0,138
-661,203	-18,552	-0,111	-0,051
-660,189	-200,000	0,021	0,081
-659,174	-10,843	-0,059	0,029
-658,159	800,000	0,068	0,154
-657,145	-200,000	-0,023	-0,153
-656,130	369,901	-0,048	0,072
-655,116	738,993	-0,044	-0,089
-654,101	-200,000	-0,007	-0,174
-653,086	254,276	-0,029	0,036
-652,072	94,486	-0,029	0,025
-651,057	123,083	-0,040	0,037
-650,043	103,290	-0,068	0,059
-649,028	800,000	-0,055	0,123
-648,014	-117,074	0,043	0,006
-646,999	-129,705	0,133	-0,013
-645,984	-200,000	-0,002	0,040
-644,970	800,000	0,026	0,059
-643,955	-28,015	0,099	-0,042
-642,941	64,469	-0,093	0,070
-641,926	-51,782	-0,035	0,012
-640,911	-200,000	0,016	0,120
-639,897	231,374	-0,029	0,036
-638,882	471,391	-0,049	0,081
-637,868	127,267	-0,029	0,027
-636,853	-184,118	0,149	0,002
-635,838	107,620	-0,118	-0,104
-634,824	335,975	0,021	-0,030
-633,809	127,848	0,062	0,059
-632,795	-2,905	0,077	0,040
-631,780	171,565	-0,042	0,044
-630,765	-1,237	-0,183	-0,096
-629,751	-76,691	-0,075	-0,019
-628,736	-200,000	-0,004	-0,171
-627,722	-200,000	-0,016	-0,055
-626,707	-35,908	0,012	0,005
-625,692	-200,000	-0,013	-0,097
-624,678	-18,647	0,050	0,023
-623,663	-95,280	-0,105	-0,021
-622,649	-200,000	0,008	-0,138
-621,634	372,548	-0,063	-0,096
-620,619	255,070	-0,031	-0,040
-619,605	-141,302	-0,163	0,012
-618,590	95,266	0,078	-0,066
-617,576	-163,463	0,097	-0,003
-616,561	-200,000	-0,009	-0,046
-615,546	-200,000	-0,005	-0,019
-614,532	-64,412	0,048	-0,014
-613,517	75,124	-0,058	0,046
-612,503	597,506	-0,069	0,127
-611,488	800,000	0,052	0,110
-610,474	31,019	0,085	-0,054
-609,459	269,999	-0,055	0,072
-608,444	800,000	0,065	-0,140
-607,430	247,995	-0,041	-0,052
-606,415	-200,000	0,005	0,046
-605,401	-200,000	-0,009	-0,189
-604,386	-137,984	-0,017	0,001
-603,371	-200,000	-0,005	0,139
-602,357	-104,489	0,037	-0,006
-601,342	-200,000	0,016	-0,074
-600,328	800,000	0,068	-0,144
-599,313	-200,000	-0,002	-0,129
-598,298	-35,806	0,037	0,015
-597,284	71,529	-0,041	-0,032
-596,269	8,992	0,082	-0,046
-595,255	794,206	-0,046	0,095
-594,240	-8,627	-0,053	-0,026
-593,225	-200,000	-0,009	-0,059
-592,211	800,000	-0,028	-0,061
-591,196	-71,491	0,097	-0,027
-590,182	421,962	-0,054	0,087
-589,167	800,000	0,033	0,089
-588,152	-200,000	-0,007	0,044
-587,138	-154,057	0,072	-0,004
-586,123	-18,312	-0,085	-0,039
-585,109	800,000	-0,045	-0,102
-584,094	-68,998	0,055	0,016
-583,079	-200,000	-0,035	0,114
-582,065	-200,000	-0,003	0,169
-581,050	42,609	0,064	0,043
-580,036	800,000	0,020	-0,047
-579,021	-96,062	0,122	0,024
-578,006	440,436	-0,068	-0,111
-576,992	-88,553	0,101	-0,022
-575,977	-68,052	0,088	-0,025
-574,963	498,194	-0,012	0,020
-573,948	632,313	-0,003	-0,006
-572,934	-87,411	0,080	0,018
-571,919	-46,424	-0,230	-0,083
-570,904	-65,955	0,041	-0,012
-569,890	100,064	-0,155	-0,133
-568,875	53,893	0,027	0,019
-567,861	-200,000	-0,003	-0,053
-566,846	-200,000	-0,004	0,017
-565,831	92,352	0,032	0,027
-564,817	679,013	0,021	0,041
-563,802	800,000	-0,008	0,027
-562,788	800,000	-0,044	-0,118
-561,773	556,199	-0,030	0,054
-560,758	409,780	0,060	0,094
-559,744	-200,000	0,012	0,052
-558,729	437,186	0,034	-0,054
-557,715	800,000	0,032	-0,070
-556,700	289,319	-0,045	-0,060
-555,685	544,583	-0,006	-0,010
-554,671	8,256	-0,023	-0,013
-553,656	-200,000	-0,055	0,182
-552,642	724,079	0,051	-0,101
-551,627	-200,000	-0,009	-0,074
-550,612	-84,993	-0,035	-0,008
-549,598	-123,864	-0,054	-0,006
-548,583	-200,000	-0,008	-0,030
-547,569	-160,275	-0,037	0,001
-546,554	-93,204	0,066	-0,013
-545,539	221,619	0,036	0,043
-544,525	-135,947	0,155	0,013
-543,510	-63,168	-0,122	-0,037
-542,496	-200,000	-0,011	-0,047
-541,481	267,121	0,094	-0,122
-540,466	-200,000	-0,011	-0,171
-539,452	288,066	-0,033	-0,045
-538,437	800,000	0,070	0,144
-537,423	-200,000	-0,001	-0,041
-536,408	-200,000	0,003	-0,044
-535,393	-42,701	-0,059	-0,022
-534,379	-200,000	0,015	-0,096
-533,364	-200,000	0,020	-0,098
-532,350	326,660	-0,067	0,096
-531,335	-77,352	0,057	-0,014
-530,321	150,603	0,016	-0,016
-529,306	-158,522	-0,087	0,004
-528,291	292,408	0,037	-0,050
-527,277	-200,000	-0,009	-0,039
-526,262	-134,645	-0,054	-0,005
-525,248	715,465	-0,008	-0,016
-524,233	-29,354	0,085	-0,036
-523,218	14,433	-0,053	0,031
-522,204	779,178	0,051	0,104
-521,189	-200,000	-0,012	0,055
-520,175	393,027	-0,019	-0,030
-519,160	-170,333	-0,074	-0,002
-518,145	-200,000	0,028	0,159
-517,131	89,076	-0,111	0,091
-516,116	800,000	0,082	0,172
-515,102	-59,450	-0,070	-0,022
-514,087	800,000	-0,039	-0,119
-513,072	-87,551	-0,036	0,008
-512,058	289,648	-0,014	-0,018
-511,043	205,406	-0,025	-0,028
-510,029	-57,116	-0,068	0,022
-509,014	542,803	0,062	-0,109
-507,999	-200,000	0,047	-0,216
-506,985	800,000	-0,054	-0,130
-505,970	-104,195	-0,153	-0,026
-504,956	346,837	-0,020	0,029
-503,941	189,629	-0,058	0,065
-502,926	-53,261	-0,071	0,024
-501,912	800,000	0,005	-0,011
-500,897	-131,833	-0,147	0,014
-499,883	-114,516	-0,052	0,007
-498,868	800,000	-0,060	-0,125
-497,853	-200,000	-0,039	-0,150
-496,839	-200,000	0,021	-0,125
-495,824	12,095	0,075	0,042
-494,810	650,603	0,027	-0,052
-493,795	-200,000	-0,013	0,059
-492,781	-31,827	-0,101	0,042
-491,766	-18,505	0,079	0,036
-490,751	-200,000	-0,010	0,044
-489,737	-58,152	-0,145	0,046
-488,722	-59,756	-0,150	0,047
-487,708	274,814	-0,061	0,080
-486,693	-116,726	0,118	-0,016
-485,678	-62,955	0,082	-0,025
-484,664	-107,196	-0,190	0,031
-483,649	-200,000	-0,045	-0,151
-482,635	-200,000	0,036	0,124
-481,620	800,000	0,027	0,074
-480,605	290,652	-0,038	0,051
-479,591	49,167	-0,019	0,013
-478,576	-121,802	0,046	-0,006
-477,562	-200,000	-0,005	0,021
-476,547	800,000	0,011	0,034
-475,532	-147,553	-0,139	0,009
-474,518	71,188	0,082	0,062
-473,503	-200,000	0,023	0,090
-472,489	19,902	0,057	-0,034
-471,474	800,000	-0,028	-0,073
-470,459	-113,618	-0,113	-0,016
-469,445	-200,000	0,008	0,030
-468,430	102,647	-0,059	-0,051
-467,416	-87,737	0,095	-0,021
-466,401	309,977	0,024	0,033
-465,386	-200,000	-0,034	-0,170
-464,372	61,318	-0,077	0,056
-463,357	206,991	-0,023	0,027
-462,343	800,000	-0,078	-0,165
-461,328	800,000	0,012	0,036
-460,313	622,476	-0,045	-0,084
-459,299	-200,000	-0,018	0,234
-458,284	-200,000	0,010	0,061
-457,270	800,000	0,016	0,039
-456,255	-108,002	0,075	-0,012
-455,241	-109,645	-0,053	0,008
-454,226	-200,000	0,000	-0,043
-453,211	455,650	-0,022	0,036
-452,197	-200,000	-0,002	0,133
-451,182	800,000	0,044	0,106
-450,168	-86,428	0,098	0,022
-449,153	-85,215	0,072	0,017
-448,138	-200,000	-0,008	-0,059
-447,124	-200,000	0,024	-0,085
-446,109	-200,000	-0,005	-0,018
-445,095	-15,533	0,102	0,048
-444,080	-200,000	-0,008	0,058
-443,065	-128,058	0,072	0,008
-442,051	115,237	-0,056	-0,050
-441,036	-17,473	-0,077	-0,036
-440,022	-200,000	0,002	-0,139
-439,007	-200,000	0,016	-0,060
-437,992	-200,000	0,018	-0,092
-436,978	800,000	-0,023	0,075
-435,963	212,609	0,028	-0,032
-434,949	-200,000	-0,010	0,061
-433,934	800,000	0,029	-0,059
-432,919	-135,225	0,118	-0,010
-431,905	277,691	0,057	-0,074
-430,890	-57,593	0,179	-0,057
-429,876	-65,017	0,196	0,058
-428,861	15,567	-0,127	-0,073
-427,846	-89,852	0,215	0,046
-426,832	176,481	-0,081	-0,087
-425,817	-200,000	-0,004	-0,189
-424,803	800,000	-0,036	-0,101
-423,788	800,000	-0,061	-0,149
-422,773	-59,641	0,210	0,066
-421,759	-200,000	-0,020	-0,066
-420,744	-24,328	-0,020	-0,009
-419,730	-200,000	-0,030	0,114
-418,715	58,247	0,062	0,045
-417,701	800,000	-0,022	0,058
-416,686	206,217	0,081	0,093
-415,671	800,000	0,014	-0,041
-414,657	-200,000	-0,026	-0,108
-413,642	-53,349	-0,069	0,023
-412,628	-200,000	-0,004	0,018
-411,613	-200,000	0,003	0,030
-410,598	153,846	0,042	0,042
-409,584	-200,000	0,004	0,095
-408,569	-153,185	0,094	0,005
-407,555	573,559	-0,044	0,080
-406,540	6,711	-0,031	-0,017
-405,525	242,308	-0,039	-0,048
-404,511	-32,020	-0,050	-0,020
-403,496	99,843	0,060	-0,051
-402,482	583,011	-0,017	0,030
-401,467	-85,579	0,134	0,030
-400,452	129,174	0,096	0,090
-399,438	22,835	0,107	-0,064
-398,423	-200,000	-0,015	-0,091
-397,409	-109,345	-0,026	0,004
-396,394	56,228	-0,057	-0,040
-395,379	800,000	-0,019	-0,055
-394,365	-200,000	-0,022	0,095
-393,350	-200,000	-0,005	0,062
-392,336	800,000	0,014	-0,030
-391,321	-45,636	-0,099	-0,036
-390,306	386,889	-0,062	0,095
-389,292	476,411	-0,086	0,143
-388,277	-200,000	0,000	0,135
-387,263	40,577	-0,111	-0,073
-386,248	305,314	0,126	0,172
-385,233	137,784	-0,032	-0,030
-384,219	-200,000	0,041	-0,142
-383,204	-200,000	0,016	0,138
-382,190	-56,761	-0,176	0,057
-381,175	800,000	0,036	0,094
-380,160	1,152	-0,058	0,030
-379,146	39,863	0,145	0,095
-378,131	42,085	-0,073	0,049
-377,117	9,542	-0,119	0,066
-376,102	-200,000	-0,002	-0,159
-375,088	141,255	0,059	-0,057
-374,073	-200,000	0,020	-0,166
-373,058	-200,000	-0,003	0,134
-372,044	-47,912	-0,023	0,008
-371,029	-18,866	0,050	0,023
-370,015	-5,285	-0,074	-0,037
-369,000	-136,202	-0,085	0,007
-367,985	-89,351	0,215	0,046
-366,971	-200,000	-0,015	-0,087
-365,956	-200,000	0,016	0,131
-364,942	167,205	0,083	0,086
-363,927	800,000	-0,019	0,060
-362,912	-200,000	0,011	0,063
-361,898	-148,261	-0,037	-0,002
-360,883	-134,743	-0,106	0,009
-359,869	247,364	-0,121	-0,151
-358,854	598,730	0,058	0,106
-357,839	385,611	0,091	0,138
-356,825	-200,000	-0,003	-0,079
-355,810	-32,163	-0,039	-0,016
-354,796	50,265	0,038	0,026
-353,781	-200,000	0,012	-0,180
-352,766	-200,000	-0,015	-0,179
-351,752	-125,816	0,106	-0,012
-350,737	101,392	0,073	0,062
-349,723	800,000	0,029	0,091
-348,708	800,000	0,031	-0,073
-347,693	358,977	0,029	0,042
-346,679	800,000	0,045	-0,138
-345,664	312,109	-0,088	-0,122
-344,650	218,578	-0,040	0,047
-343,635	231,740	-0,029	0,035
-342,620	-200,000	-0,001	0,027
-341,606	800,000	0,014	0,036
-340,591	-200,000	0,008	-0,111
-339,577	131,312	0,100	-0,094
-338,562	15,095	0,090	-0,051
-337,548	-200,000	0,000	-0,095
-336,533	-32,918	0,040	0,016
-335,518	-200,000	0,006	0,051
-334,504	-51,436	0,143	0,049
-333,489	56,456	-0,052	-0,037
-332,475	-75,198	0,024	0,006
-331,460	-61,114	-0,235	0,072
-330,445	-20,053	-0,114	0,051
-329,431	131,160	0,132	0,125
-328,416	91,999	0,102	0,084
-327,402	-200,000	0,010	0,172
-326,387	-115,877	0,047	-0,006
-325,372	-117,639	-0,062	-0,008
-324,358	38,207	0,055	-0,036
-323,343	-101,013	-0,045	-0,008
-322,329	436,997	-0,046	-0,074
-321,314	-200,000	-0,023	-0,138
-320,299	-200,000	0,014	0,075
-319,285	-200,000	-0,013	0,162
-318,270	392,679	-0,043	-0,066
-317,256	-30,103	0,096	-0,040
-316,241	77,248	0,103	0,080
-315,226	-200,000	0,032	0,118
-314,212	800,000	0,049	0,112
-313,197	-200,000	-0,012	0,107
-312,183	800,000	0,036	0,075
-311,168	254,955	-0,062	-0,078
-310,153	-200,000	-0,009	-0,028
-309,139	509,861	-0,046	-0,078
-308,124	800,000	0,036	0,084
-307,110	175,827	0,146	0,156
-306,095	131,968	0,013	0,013
-305,080	633,282	-0,033	-0,062
-304,066	-200,000	-0,008	-0,087
-303,051	-200,000	-0,001	0,011
-302,037	154,063	0,062	-0,063
-301,022	-122,270	0,083	0,010
-300,008	-94,603	-0,054	0,011
-298,993	800,000	0,073	-0,152
-297,978	800,000	-0,039	0,091
-296,964	149,953	-0,107	0,107
-295,949	-200,000	-0,012	-0,122
-294,935	247,086	0,036	-0,045
-293,920	25,037	0,084	0,051
-292,905	-150,800	-0,053	0,003
-291,891	-200,000	0,049	0,159
-290,876	614,875	0,011	-0,020
-289,862	-200,000	0,000	0,010
-288,847	-149,294	-0,108	-0,006
-287,832	262,683	0,035	-0,045
-286,818	-200,000	0,002	0,042
-285,803	-27,112	0,028	-0,012
-284,789	-200,000	0,009	0,040
-283,774	-200,000	-0,022	0,151
-282,759	-55,808	-0,039	-0,013
-281,745	62,487	-0,079	-0,057
-280,730	-171,203	-0,129	0,003
-279,716	-200,000	0,005	0,041
-278,701	-200,000	0,005	0,091
-277,686	800,000	-0,077	0,227
-276,672	-134,423	0,113	0,010
-275,657	800,000	0,037	0,086
-274,643	-200,000	0,006	0,067
-273,628	-200,000	0,010	-0,129
-272,613	800,000	0,059	-0,128
-271,599	66,332	-0,087	-0,064
-270,584	-200,000	0,037	0,147
-269,570	-200,000	0,029	0,103
-268,555	-94,141	-0,079	0,016
-267,540	-200,000	-0,041	0,155
-266,526	-200,000	-0,002	-0,085
-265,511	-200,000	-0,005	-0,021
-264,497	-200,000	0,003	0,024
-263,482	191,101	0,069	0,076
-262,467	-200,000	0,014	0,112
-261,453	-200,000	-0,005	-0,046
-260,438	-140,523	-0,082	0,006
-259,424	10,265	0,057	0,032
-258,409	124,302	0,057	0,052
-257,395	39,748	0,118	0,077
-256,380	800,000	0,055	0,141
-255,365	-49,805	-0,118	-0,041
-254,351	100,664	-0,087	-0,074
-253,336	-200,000	-0,024	-0,114
-252,322	-85,546	-0,163	-0,037
-251,307	-200,000	0,009	-0,102
-250,292	-82,569	0,040	0,009
-249,278	-57,135	-0,092	-0,029
-248,263	-115,641	0,056	0,008
-247,249	-200,000	0,007	0,072
-246,234	-82,399	-0,039	-0,009
-245,219	800,000	-0,012	-0,025
-244,205	648,604	0,024	0,045
-243,190	-200,000	-0,002	0,061
-242,176	800,000	0,022	0,061
-241,161	29,908	0,079	-0,049
-240,146	79,690	-0,114	0,089
-239,132	40,711	0,108	-0,071
-238,117	138,029	-0,047	-0,045
-237,103	800,000	-0,044	-0,127
-236,088	800,000	0,066	-0,192
-235,073	-124,923	0,138	-0,015
-234,059	800,000	-0,025	-0,067
-233,044	-200,000	-0,036	0,137
-232,030	68,522	0,131	-0,098
-231,015	800,000	0,022	-0,045
-230,000	-36,781	-0,077	-0,030
-228,986	-58,465	-0,126	0,040
-227,971	800,000	-0,056	-0,178
-226,957	91,946	-0,047	0,039
-225,942	208,318	-0,093	0,107
-224,927	-200,000	-0,002	-0,091
-223,913	288,759	0,035	0,047
-222,898	-107,327	-0,164	-0,026
-221,884	-65,359	0,142	0,042
-220,869	-200,000	0,009	0,060
-219,855	-200,000	-0,008	0,055
-218,840	-200,000	-0,004	0,079
-217,825	800,000	0,030	-0,072
-216,811	533,158	-0,051	-0,089
-215,796	545,310	-0,080	-0,139
-214,782	101,493	0,105	-0,089
-213,767	-64,654	0,114	0,034
-212,752	800,000	-0,050	0,111
-211,738	-68,165	0,090	-0,025
-210,723	59,118	0,077	0,056
-209,709	408,538	-0,055	0,085
-208,694	273,485	-0,031	0,041
-207,679	158,404	-0,006	-0,006
-206,665	108,462	0,062	-0,054
-205,650	203,340	0,100	-0,113
-204,636	-71,934	0,137	0,037
-203,621	-200,000	0,000	-0,077
-202,606	379,724	0,058	-0,087
-201,592	-57,937	-0,079	0,025
-200,577	800,000	0,014	0,040
-199,563	-53,870	0,064	-0,021
-198,548	800,000	-0,035	0,084
-197,533	183,271	-0,067	0,072
-196,519	42,468	-0,055	0,036
-195,504	315,701	0,047	-0,065
-194,490	-200,000	-0,007	-0,054
-193,475	365,353	-0,036	-0,053
-192,460	24,144	0,047	0,028
-191,446	-182,928	0,075	0,001
-190,431	230,147	-0,141	0,168
-189,417	133,736	-0,065	0,061
-188,402	-19,641	-0,042	0,019
-187,387	800,000	-0,023	-0,071
-186,373	-118,463	-0,112	0,014
-185,358	-200,000	-0,016	0,070
-184,344	-142,035	0,078	0,006
-183,329	-12,121	-0,024	0,011
-182,315	-200,000	0,003	-0,040
-181,300	328,035	0,031	0,043
-180,285	-200,000	0,007	0,031
-179,271	-57,227	0,027	0,009
-178,256	-200,000	0,006	0,037
-177,242	-96,914	0,080	0,015
-176,227	-166,748	0,094	0,003
-175,212	-52,278	-0,062	-0,021
-174,198	280,313	-0,034	-0,044
-173,183	60,327	-0,059	0,043
-172,169	-200,000	0,029	-0,118
-171,154	1,480	-0,021	-0,011
-170,139	-200,000	-0,025	0,209
-169,125	518,417	0,068	-0,116
-168,110	9,611	-0,046	-0,025
-167,096	800,000	-0,022	-0,049
-166,081	-22,288	0,088	-0,039
-165,066	53,455	-0,098	-0,068
-164,052	-26,847	0,072	-0,030
-163,037	-200,000	0,012	0,103
-162,023	31,825	0,069	-0,043
-161,008	365,310	0,096	-0,141
-159,993	-200,000	0,020	0,070
-158,979	-191,774	-0,126	-0,001
-157,964	6,203	0,067	0,036
-156,950	294,338	-0,053	0,071
-155,935	745,401	0,030	0,059
-154,920	-200,000	-0,014	-0,074
-153,906	-200,000	-0,017	-0,073
-152,891	-200,000	-0,011	0,068
-151,877	-2,334	0,133	0,068
-150,862	414,418	-0,018	0,028
-149,847	72,527	-0,147	0,112
-148,833	-200,000	0,001	-0,039
-147,818	651,102	0,024	0,045
-146,804	-63,547	0,077	-0,023
-145,789	800,000	-0,032	0,081
-144,775	-200,000	-0,018	0,069
-143,760	277,916	0,052	-0,068
-142,745	389,024	-0,041	-0,062
-141,731	-95,202	-0,085	-0,016
-140,716	-200,000	0,002	-0,135
-139,702	57,621	-0,087	0,062
-138,687	800,000	0,020	-0,056
-137,672	15,209	-0,103	0,058
-136,658	-200,000	0,009	-0,086
-135,643	800,000	-0,049	-0,119
-134,629	204,908	0,044	-0,049
-133,614	53,727	0,038	-0,026
-132,599	-200,000	0,038	0,153
-131,585	235,312	-0,055	-0,066
-130,570	800,000	-0,002	0,006
-129,556	122,628	-0,069	-0,063
-128,541	102,914	0,100	0,085
-127,526	-34,296	0,024	-0,009
-126,512	278,618	0,072	0,094
-125,497	-145,238	0,203	0,013
-124,483	800,000	0,033	0,082
-123,468	-200,000	-0,018	0,106
-122,453	800,000	-0,059	0,185
-121,439	-200,000	-0,016	-0,062
