DTS Sentinel unit serial number:	SN410029Multiplexer serial number:	ORYXHardware model number:	OX2-SRSoftware version number:	ORYX F/W v4,00 Oryx Data Collector v3.7.2.0data status	okinstallation	B6 Nyhavnadifferential loss correction	single-endedforward channel	channel 2reverse channel	N/Adate	2023/12/08time	22:20:08forward acquisition time	300,00reverse acquisition time	0,00gamma	499,1914k internal	0,3158k external	0,3158temperature offset calibration	1,0000default loss term (dB/km)	0,3820temperature slope calibration	1,0000multiplexer offset coefficient	1,0000multiplexer slope coefficient	1,0000fibre end	0,00T internal ref (°C)	15,31T ext. ref 1 (°C)	-1,13T ext. ref 2 (°C)	-1,13length (m)	temperature (°C)	Stokes	anti-Stokes-744,400	-10,957	0,149	-0,072
-743,385	-22,879	-0,226	0,100
-742,371	-85,597	0,167	0,038
-741,356	-172,450	-0,276	-0,006
-740,342	-200,000	0,076	0,000
-739,327	-75,027	-0,272	0,071
-738,312	800,000	-0,026	-0,078
-737,298	-136,569	-0,316	-0,027
-736,283	121,659	0,088	-0,081
-735,269	-63,254	-0,407	-0,123
-734,254	499,028	0,042	0,072
-733,239	16,022	-0,493	-0,286
-732,225	-70,048	0,207	-0,058
-731,210	14,932	0,098	0,056
-730,196	-75,049	0,122	-0,032
-729,181	73,824	-0,043	0,033
-728,167	64,199	-0,071	0,052
-727,152	64,571	0,040	-0,029
-726,137	-200,000	-0,018	-0,079
-725,123	169,948	0,015	-0,016
-724,108	-85,190	-0,133	0,030
-723,094	-85,945	-0,151	-0,034
-722,079	458,667	-0,011	0,019
-721,064	-200,000	-0,025	-0,104
-720,050	800,000	0,027	0,057
-719,035	-200,000	0,006	-0,029
-718,021	-200,000	0,002	-0,120
-717,006	434,856	-0,028	-0,045
-715,991	-86,045	-0,152	0,034
-714,977	349,922	-0,046	-0,068
-713,962	120,097	-0,116	0,106
-712,948	-200,000	0,015	0,201
-711,933	-152,786	0,229	0,012
-710,918	-200,000	-0,013	0,067
-709,904	339,830	-0,014	-0,021
-708,889	-110,004	0,119	-0,018
-707,875	-200,000	0,001	-0,059
-706,860	213,654	0,035	-0,041
-705,845	323,234	0,051	-0,071
-704,831	-118,943	0,124	-0,016
-703,816	104,698	-0,018	0,015
-702,802	-70,478	-0,115	-0,032
-701,787	11,502	-0,136	-0,076
-700,772	-141,404	-0,070	-0,005
-699,758	44,755	-0,173	0,117
-698,743	52,316	-0,129	0,091
-697,729	-200,000	-0,004	-0,047
-696,714	-25,653	0,029	0,012
-695,699	-6,676	-0,037	0,018
-694,685	245,395	0,090	-0,112
-693,670	-113,070	-0,072	-0,010
-692,656	75,141	0,013	0,010
-691,641	9,561	-0,059	-0,033
-690,627	278,545	0,052	-0,068
-689,612	-107,672	-0,021	0,003
-688,597	-200,000	0,006	0,043
-687,583	131,329	-0,103	-0,098
-686,568	-200,000	-0,030	-0,106
-685,554	300,455	0,075	0,102
-684,539	-121,202	-0,049	-0,006
-683,524	19,627	0,153	0,090
-682,510	-200,000	0,009	-0,101
-681,495	-166,578	0,098	0,003
-680,481	-200,000	0,018	-0,117
-679,466	795,573	0,021	0,043
-678,451	-200,000	-0,012	-0,064
-677,437	80,575	-0,035	-0,028
-676,422	-128,614	0,018	-0,002
-675,408	44,523	-0,122	-0,082
-674,393	34,651	0,170	-0,109
-673,378	531,884	-0,064	0,111
-672,364	-20,516	-0,088	0,039
-671,349	135,594	-0,088	-0,085
-670,335	392,141	0,033	0,050
-669,320	-34,795	-0,091	0,036
-668,305	-100,859	-0,028	-0,005
-667,291	-73,148	0,053	-0,014
-666,276	102,128	-0,086	0,074
-665,262	-63,842	0,057	-0,017
-664,247	-200,000	-0,007	-0,074
-663,232	201,710	0,114	0,129
-662,218	-200,000	0,005	0,026
-661,203	1,319	-0,103	0,054
-660,189	342,182	-0,079	0,114
-659,174	-38,992	0,173	-0,067
-658,159	297,205	-0,087	-0,118
-657,145	79,233	-0,063	-0,050
-656,130	34,778	-0,127	-0,081
-655,116	340,081	-0,041	-0,060
-654,101	120,477	0,117	0,107
-653,086	800,000	-0,006	-0,017
-652,072	88,660	0,051	-0,042
-651,057	297,496	-0,017	0,022
-650,043	513,967	-0,046	-0,079
-649,028	-200,000	-0,001	0,080
-648,014	-47,224	0,090	0,032
-646,999	421,468	-0,081	0,129
-645,984	-147,642	0,077	0,005
-644,970	89,566	-0,089	0,073
-643,955	800,000	-0,033	-0,094
-642,941	77,961	0,033	-0,026
-641,926	-84,973	-0,069	0,016
-640,911	-200,000	0,004	0,056
-639,897	116,590	-0,053	-0,047
-638,882	93,840	-0,020	-0,017
-637,868	312,070	0,053	-0,073
-636,853	-200,000	-0,036	-0,129
-635,838	289,150	-0,012	0,016
-634,824	-200,000	-0,025	-0,093
-633,809	-27,149	0,037	-0,016
-632,795	62,554	0,062	-0,046
-631,780	-108,588	-0,038	-0,006
-630,765	800,000	-0,058	0,172
-629,751	-169,525	-0,064	0,002
-628,736	125,336	0,071	0,066
-627,722	88,446	-0,068	-0,055
-626,707	81,655	0,071	-0,057
-625,692	-200,000	0,021	0,073
-624,678	-200,000	0,011	0,175
-623,663	-22,661	-0,039	0,017
-622,649	-200,000	-0,006	-0,170
-621,634	-24,366	-0,123	0,053
-620,619	-200,000	0,004	-0,084
-619,605	-121,043	-0,193	0,023
-618,590	244,719	0,026	0,032
-617,576	278,870	-0,014	-0,018
-616,561	-44,242	-0,053	0,019
-615,546	-47,473	0,062	-0,022
-614,532	110,295	-0,140	-0,123
-613,517	-200,000	-0,035	-0,136
-612,503	441,428	0,029	-0,048
-611,488	-178,115	0,055	-0,001
-610,474	541,816	-0,027	0,048
-609,459	178,148	0,010	-0,011
-608,444	151,306	0,026	-0,026
-607,430	400,037	-0,010	-0,016
-606,415	-200,000	-0,007	-0,084
-605,401	794,996	0,013	-0,027
-604,386	-121,902	-0,052	0,006
-603,371	-200,000	-0,002	0,010
-602,357	800,000	-0,026	0,054
-601,342	-200,000	-0,016	-0,062
-600,328	285,846	-0,028	0,037
-599,313	-200,000	-0,012	0,148
-598,298	-25,446	-0,146	-0,063
-597,284	183,944	0,082	0,089
-596,269	167,221	0,119	0,124
-595,255	-200,000	-0,003	0,106
-594,240	-71,002	-0,103	-0,028
-593,225	87,465	0,079	0,064
-592,211	800,000	0,037	-0,115
-591,196	-29,168	0,137	0,058
-590,182	167,256	-0,011	0,011
-589,167	800,000	0,051	0,155
-588,152	676,901	0,064	0,122
-587,138	-200,000	-0,009	-0,061
-586,123	-40,258	-0,096	-0,036
-585,109	167,147	-0,054	0,056
-584,094	800,000	-0,032	-0,079
-583,079	-200,000	0,025	-0,083
-582,065	800,000	-0,032	-0,080
-581,050	-18,827	0,044	-0,020
-580,036	162,339	-0,050	-0,051
-579,021	521,787	-0,064	-0,111
-578,006	-108,651	-0,036	0,006
-576,992	-18,783	0,079	-0,036
-575,977	599,842	0,045	0,081
-574,963	-165,826	-0,082	0,003
-573,948	388,226	-0,058	-0,089
-572,934	92,962	0,080	-0,066
-571,919	-24,502	-0,097	-0,042
-570,904	-103,912	-0,098	-0,017
-569,890	565,009	-0,026	-0,046
-568,875	134,766	-0,133	-0,127
-567,861	-90,790	0,104	0,022
-566,846	149,967	-0,078	0,077
-565,831	-200,000	-0,004	-0,093
-564,817	-53,484	0,061	-0,020
-563,802	155,471	-0,086	-0,087
-562,788	258,041	0,016	0,020
-561,773	-104,793	0,115	0,019
-560,758	-2,259	-0,095	0,048
-559,744	-200,000	0,009	0,040
-558,729	-200,000	-0,002	-0,113
-557,715	80,843	-0,048	-0,038
-556,700	-57,597	0,059	0,019
-555,685	-200,000	-0,002	0,174
-554,671	-200,000	0,016	0,100
-553,656	672,558	0,059	0,112
-552,642	-200,000	-0,031	0,156
-551,627	-200,000	-0,005	-0,091
-550,612	228,270	0,070	0,083
-549,598	800,000	0,011	-0,030
-548,583	-200,000	-0,008	0,042
-547,569	554,759	-0,062	-0,110
-546,554	103,372	0,018	-0,015
-545,539	-29,192	0,102	-0,042
-544,525	132,668	0,080	0,076
-543,510	800,000	0,018	-0,048
-542,496	-113,044	-0,197	-0,028
-541,481	279,433	-0,076	-0,100
-540,466	800,000	0,091	-0,224
-539,452	800,000	-0,018	0,042
-538,437	-200,000	0,010	0,051
-537,423	-188,846	-0,123	-0,001
-536,408	800,000	0,027	-0,078
-535,393	4,244	-0,192	-0,102
-534,379	-37,679	-0,033	0,013
-533,364	800,000	-0,015	-0,038
-532,350	181,337	0,022	0,023
-531,335	-171,823	0,176	0,004
-530,321	631,000	0,030	-0,056
-529,306	75,781	-0,029	0,023
-528,291	213,733	-0,050	0,058
-527,277	-98,470	0,041	0,008
-526,262	-73,999	-0,056	-0,015
-525,248	466,514	-0,064	0,105
-524,233	109,316	0,108	0,094
-523,218	-113,999	0,116	-0,016
-522,204	-200,000	0,001	-0,042
-521,189	150,394	0,128	-0,127
-520,175	-113,849	-0,102	-0,014
-519,160	300,352	0,104	-0,141
-518,145	369,747	0,056	0,083
-517,131	183,049	-0,109	-0,118
-516,116	121,317	0,060	0,054
-515,102	800,000	-0,034	0,084
-514,087	-200,000	0,001	-0,059
-513,072	-200,000	0,001	0,109
-512,058	496,470	0,012	-0,021
-511,043	89,233	-0,097	0,079
-510,029	183,386	0,092	-0,099
-509,014	121,232	0,137	0,125
-507,999	-200,000	0,022	0,159
-506,985	636,121	0,103	-0,193
-505,970	5,195	-0,034	0,018
-504,956	800,000	0,077	0,177
-503,941	349,191	-0,052	-0,075
-502,926	23,757	0,130	0,078
-501,912	274,861	0,091	0,119
-500,897	-20,437	-0,066	0,030
-499,883	-200,000	-0,003	0,015
-498,868	-115,889	-0,070	-0,009
-497,853	-200,000	-0,014	-0,130
-496,839	-71,806	0,178	-0,048
-495,824	340,157	0,077	0,110
-494,810	30,914	0,041	0,025
-493,795	575,359	-0,102	0,182
-492,781	34,099	0,114	-0,073
-491,766	-200,000	0,005	-0,064
-490,751	338,100	0,011	-0,016
-489,737	122,822	0,032	0,029
-488,722	800,000	0,028	0,079
-487,708	754,255	0,047	0,093
-486,693	84,601	-0,109	0,087
-485,678	70,389	-0,024	-0,018
-484,664	134,254	-0,079	-0,075
-483,649	318,068	0,053	-0,073
-482,635	-134,194	-0,032	0,003
-481,620	-34,609	0,110	0,044
-480,605	-41,901	0,091	-0,034
-479,591	-14,621	-0,032	0,015
-478,576	-95,155	0,134	-0,026
-477,562	723,999	0,038	0,074
-476,547	513,586	0,025	-0,043
-475,532	-200,000	0,004	-0,109
-474,518	149,569	0,038	0,038
-473,503	-200,000	-0,052	0,198
-472,489	-200,000	0,044	0,182
-471,474	-200,000	-0,022	-0,169
-470,459	-156,448	0,068	0,003
-469,445	55,869	0,047	0,033
-468,430	161,102	-0,055	0,056
-467,416	80,365	0,090	0,070
-466,401	287,057	0,116	0,154
-465,386	-200,000	0,004	0,059
-464,372	22,805	-0,111	0,066
-463,357	-51,078	0,110	-0,037
-462,343	-200,000	-0,014	-0,088
-461,328	-200,000	0,014	-0,089
-460,313	-146,903	-0,091	0,006
-459,299	306,826	0,064	-0,087
-458,284	-200,000	0,006	-0,026
-457,270	-46,869	0,018	-0,006
-456,255	619,313	-0,100	0,185
-455,241	-200,000	0,049	-0,220
-454,226	800,000	-0,027	0,056
-453,211	800,000	0,022	-0,059
-452,197	635,478	-0,004	0,008
-451,182	-200,000	-0,006	-0,107
-450,168	170,887	-0,087	-0,091
-449,153	-200,000	0,001	-0,010
-448,138	-47,768	-0,179	-0,063
-447,124	-46,902	0,079	-0,028
-446,109	-19,983	0,032	-0,014
-445,095	800,000	-0,037	0,117
-444,080	21,666	-0,020	-0,012
-443,065	-17,927	-0,041	-0,019
-442,051	-200,000	0,001	-0,096
-441,036	149,803	-0,088	0,087
-440,022	40,429	-0,052	0,034
-439,007	-117,647	-0,060	-0,008
-437,992	-200,000	-0,015	-0,108
-436,978	-200,000	-0,007	-0,053
-435,963	-61,168	-0,051	-0,015
-434,949	-33,053	0,102	0,041
-433,934	-6,972	-0,059	0,029
-432,919	800,000	-0,006	0,012
-431,905	583,775	-0,057	0,102
-430,890	-200,000	0,013	-0,067
-429,876	-7,003	0,033	-0,016
-428,861	-200,000	-0,009	-0,045
-427,846	-48,919	0,195	0,068
-426,832	-73,241	-0,035	-0,009
-425,817	800,000	-0,029	-0,090
-424,803	164,558	-0,037	-0,038
-423,788	-200,000	-0,023	0,093
-422,773	800,000	-0,021	0,065
-421,759	23,639	0,057	0,034
-420,744	249,449	-0,019	0,023
-419,730	-148,412	0,032	0,002
-418,715	800,000	0,011	-0,032
-417,701	-200,000	-0,009	-0,133
-416,686	11,213	0,144	0,080
-415,671	800,000	-0,020	-0,064
-414,657	-200,000	-0,034	0,174
-413,642	167,802	-0,031	0,032
-412,628	-30,266	-0,067	-0,028
-411,613	128,490	0,072	-0,066
-410,598	87,469	-0,056	-0,045
-409,584	92,808	-0,028	-0,023
-408,569	416,141	-0,032	0,050
-407,555	-71,736	0,243	0,066
-406,540	467,887	0,023	0,038
-405,525	723,268	0,032	0,063
-404,511	-200,000	-0,042	-0,207
-403,496	170,986	0,029	-0,030
-402,482	476,822	-0,060	-0,100
-401,467	-149,471	0,065	0,004
-400,452	119,267	0,107	0,096
-399,438	178,098	-0,091	-0,097
-398,423	295,724	0,094	-0,126
-397,409	-200,000	-0,036	-0,154
-396,394	3,254	-0,145	-0,076
-395,379	800,000	-0,043	-0,111
-394,365	244,241	-0,050	-0,061
-393,350	590,645	-0,038	-0,069
-392,336	408,813	0,044	0,068
-391,321	41,127	0,099	-0,065
-390,306	800,000	-0,033	-0,098
-389,292	376,355	0,093	-0,139
-388,277	800,000	0,036	-0,101
-387,263	662,621	0,021	-0,039
-386,248	-50,230	-0,115	-0,039
-385,233	800,000	-0,028	0,074
-384,219	82,446	-0,079	0,062
-383,204	234,033	-0,035	0,042
-382,190	-162,172	-0,131	0,005
-381,175	33,667	0,061	0,038
-380,160	-77,551	0,095	-0,024
-379,146	-81,547	0,093	0,022
-378,131	800,000	-0,056	0,118
-377,117	268,562	0,014	-0,018
-376,102	131,213	-0,059	-0,055
-375,088	-139,126	0,070	0,005
-374,073	-200,000	-0,034	-0,225
-373,058	-200,000	0,001	0,010
-372,044	71,548	0,114	0,086
-371,029	768,299	0,032	0,064
-370,015	55,037	0,029	0,020
-369,000	-54,351	-0,142	-0,046
-367,985	-101,519	-0,055	-0,010
-366,971	-200,000	-0,022	0,089
-365,956	582,623	0,020	-0,035
-364,942	-103,126	0,065	0,011
-363,927	113,452	0,029	0,025
-362,912	-200,000	-0,004	0,028
-361,898	4,811	-0,060	0,032
-360,883	-126,982	-0,197	0,021
-359,869	109,336	0,107	-0,093
-358,854	406,286	-0,028	0,043
-357,839	35,769	0,122	-0,078
-356,825	26,600	0,097	-0,059
-355,810	-200,000	0,001	0,031
-354,796	-200,000	0,007	0,128
-353,781	161,363	0,017	-0,017
-352,766	-200,000	-0,008	0,070
-351,752	-200,000	0,030	0,167
-350,737	152,206	0,041	-0,040
-349,723	800,000	0,011	0,034
-348,708	-200,000	-0,028	0,160
-347,693	96,713	0,160	-0,133
-346,679	68,172	0,043	-0,032
-345,664	-200,000	0,124	0,000
-344,650	-200,000	0,004	-0,078
-343,635	-200,000	-0,000	-0,004
-342,620	-50,340	-0,045	-0,015
-341,606	-57,384	-0,162	0,051
-340,591	143,267	-0,147	0,142
-339,577	198,797	0,061	0,068
-338,562	800,000	-0,014	0,032
-337,548	-200,000	0,006	-0,026
-336,533	-102,029	0,046	-0,008
-335,518	-47,287	0,131	-0,046
-334,504	62,018	-0,116	0,084
-333,489	-116,591	0,049	0,006
-332,475	-200,000	0,024	-0,113
-331,460	800,000	0,037	0,098
-330,445	-161,359	0,070	-0,003
-329,431	-200,000	0,036	-0,121
-328,416	-164,712	0,023	-0,001
-327,402	365,878	-0,061	0,090
-326,387	771,705	0,050	-0,099
-325,372	800,000	0,056	-0,145
-324,358	800,000	0,043	-0,120
-323,343	-15,547	0,087	-0,040
-322,329	-1,455	0,090	-0,046
-321,314	160,626	-0,021	-0,021
-320,299	-1,176	-0,068	-0,035
-319,285	-42,033	-0,107	0,040
-318,270	427,665	-0,052	-0,082
-317,256	-128,060	-0,061	-0,006
-316,241	198,450	0,013	-0,015
-315,226	-200,000	-0,006	0,145
-314,212	18,440	0,145	-0,084
-313,197	124,289	0,101	0,092
-312,183	-75,422	0,228	0,058
-311,168	317,173	-0,037	0,051
-310,153	126,473	-0,023	0,021
-309,139	240,378	-0,055	0,066
-308,124	-97,697	-0,037	0,007
-307,110	173,739	0,072	0,075
-306,095	60,226	0,063	0,045
-305,080	203,822	-0,055	0,062
-304,066	800,000	-0,022	0,055
-303,051	52,199	-0,051	-0,035
-302,037	-2,440	-0,136	0,069
-301,022	43,273	-0,081	0,054
-300,008	225,627	0,070	0,082
-298,993	800,000	-0,023	0,063
-297,978	-200,000	0,014	0,072
-296,964	-200,000	-0,010	-0,069
-295,949	-120,278	-0,067	-0,008
-294,935	-109,358	-0,096	0,015
-293,920	450,470	0,099	0,159
-292,905	-72,473	0,207	-0,055
-291,891	-128,081	-0,024	-0,002
-290,876	-200,000	-0,029	-0,124
-289,862	145,956	0,046	0,045
-288,847	800,000	-0,023	-0,049
-287,832	-117,824	-0,264	-0,034
-286,818	-110,436	0,283	0,042
-285,803	-38,653	-0,083	0,032
-284,789	-200,000	0,023	0,176
-283,774	-38,882	-0,070	-0,026
-282,759	33,010	0,066	-0,041
-281,745	-200,000	0,002	-0,073
-280,730	386,567	-0,047	-0,070
-279,716	186,243	0,057	-0,062
-278,701	22,825	-0,023	0,014
-277,686	10,357	0,090	0,049
-276,672	113,885	-0,086	0,076
-275,657	-116,290	0,095	-0,013
-274,643	-47,488	-0,059	0,021
-273,628	125,195	-0,079	-0,072
-272,613	-56,232	0,014	-0,005
-271,599	220,016	0,081	-0,094
-270,584	800,000	-0,034	0,083
-269,570	-23,196	-0,039	-0,017
-268,555	-200,000	0,012	-0,095
-267,540	318,455	-0,078	-0,107
-266,526	800,000	0,009	0,019
-265,511	-41,063	0,118	-0,044
-264,497	87,089	0,048	0,038
-263,482	800,000	-0,009	0,029
-262,467	-129,608	0,061	0,006
-261,453	540,868	-0,037	-0,064
-260,438	-32,981	0,053	0,021
-259,424	-63,646	0,025	-0,007
-258,409	202,120	0,061	0,068
-257,395	220,628	0,063	0,074
-256,380	-200,000	-0,005	0,046
-255,365	124,626	0,103	0,093
-254,351	-104,059	0,053	-0,009
-253,336	800,000	-0,042	-0,119
-252,322	800,000	0,030	-0,063
-251,307	206,645	-0,132	-0,149
-250,292	69,884	-0,013	0,009
-249,278	800,000	-0,024	0,053
-248,263	-24,960	0,092	0,039
-247,249	83,628	-0,080	-0,063
-246,234	800,000	-0,041	0,082
-245,219	136,242	-0,012	-0,011
-244,205	108,215	0,078	-0,067
-243,190	336,318	-0,050	-0,070
-242,176	37,137	0,040	-0,026
-241,161	427,294	0,103	0,161
-240,146	-200,000	0,021	-0,144
-239,132	-54,630	-0,054	-0,017
-238,117	800,000	0,027	-0,083
-237,103	130,410	0,063	0,058
-236,088	568,412	-0,066	-0,117
-235,073	86,435	0,117	-0,093
-234,059	-200,000	-0,001	-0,092
-233,044	12,289	0,087	-0,048
-232,030	-200,000	0,002	-0,060
-231,015	800,000	0,066	-0,181
-230,000	800,000	-0,043	-0,102
-228,986	291,822	-0,062	0,081
-227,971	-45,930	-0,052	-0,018
-226,957	-200,000	-0,017	0,112
-225,942	-200,000	0,003	0,151
-224,927	-200,000	0,005	-0,096
-223,913	18,544	-0,228	0,131
-222,898	190,311	0,085	0,092
-221,884	-178,314	0,108	-0,002
-220,869	583,916	0,040	0,070
-219,855	-200,000	0,011	0,047
-218,840	154,270	0,039	0,039
-217,825	301,473	0,019	0,025
-216,811	-82,160	0,161	-0,038
-215,796	-200,000	0,018	-0,076
-214,782	60,893	0,022	0,015
-213,767	-200,000	-0,031	0,150
-212,752	800,000	-0,032	0,094
-211,738	-200,000	0,032	0,172
-210,723	-72,354	-0,062	-0,017
-209,709	-2,283	-0,088	0,044
-208,694	215,612	0,039	-0,045
-207,679	-78,130	-0,130	-0,032
-206,665	-1,446	-0,132	-0,067
-205,650	800,000	-0,034	0,108
-204,636	800,000	-0,006	-0,015
-203,621	-173,771	-0,121	0,003
-202,606	-200,000	0,007	-0,036
-201,592	39,937	-0,272	-0,176
-200,577	359,403	0,062	-0,090
-199,563	91,738	0,071	0,057
-198,548	192,138	-0,114	0,125
-197,533	126,597	-0,031	0,028
-196,519	328,290	-0,073	0,101
-195,504	-2,312	-0,180	0,091
-194,490	-200,000	0,012	-0,083
-193,475	611,455	0,029	0,053
-192,460	-104,376	0,061	0,010
-191,446	-34,290	0,077	-0,031
-190,431	-60,970	-0,071	-0,021
-189,417	177,903	-0,021	-0,023
-188,402	-76,957	-0,093	-0,023
-187,387	800,000	-0,048	0,109
-186,373	325,552	-0,055	0,076
-185,358	128,376	-0,137	-0,126
-184,344	-102,522	-0,157	-0,027
-183,329	800,000	0,042	-0,123
-182,315	-200,000	0,021	0,074
-181,300	123,280	0,095	0,086
-180,285	-24,694	-0,049	-0,021
-179,271	560,534	-0,083	-0,146
-178,256	-49,251	0,134	0,046
-177,242	32,589	0,064	0,040
-176,227	-83,783	0,113	-0,026
-175,212	800,000	-0,054	-0,110
-174,198	-17,250	0,085	0,039
-173,183	-96,203	-0,112	-0,021
-172,169	-93,479	-0,116	-0,023
-171,154	800,000	0,032	-0,087
-170,139	-200,000	0,021	0,192
-169,125	-5,201	0,171	-0,084
-168,110	385,104	0,042	0,062
-167,096	800,000	-0,039	0,090
-166,081	-128,320	-0,051	-0,005
-165,066	134,272	-0,077	-0,072
-164,052	65,416	0,053	-0,038
-163,037	800,000	0,045	0,090
-162,023	136,126	-0,038	-0,036
-161,008	125,676	-0,034	0,031
-159,993	-200,000	0,016	0,073
-158,979	-200,000	-0,029	-0,105
-157,964	-110,486	-0,228	-0,034
-156,950	-3,082	-0,095	0,048
-155,935	-17,811	0,051	0,023
-154,920	-55,907	0,107	0,034
-153,906	-200,000	-0,045	0,305
-152,891	33,398	-0,098	0,061
-151,877	-125,736	-0,063	0,007
-150,862	-200,000	-0,031	-0,161
-149,847	800,000	-0,027	0,063
-148,833	50,276	0,085	0,058
-147,818	800,000	-0,031	-0,097
-146,804	283,823	-0,028	-0,036
-145,789	-200,000	-0,005	-0,061
-144,775	99,756	0,015	-0,013
-143,760	-18,219	0,056	-0,025
-142,745	800,000	-0,014	-0,034
-141,731	200,681	-0,059	-0,066
-140,716	-45,299	0,072	-0,026
-139,702	715,961	0,050	0,095
-138,687	-95,279	0,063	-0,012
-137,672	-138,829	0,058	-0,005
-136,658	193,964	-0,058	0,063
-135,643	-200,000	-0,017	0,123
-134,629	-200,000	-0,005	-0,099
-133,614	382,660	0,084	-0,124
-132,599	35,903	-0,066	0,042
-131,585	752,150	0,058	0,113
-130,570	-107,183	-0,035	-0,005
-129,556	800,000	0,057	-0,134
-128,541	-200,000	0,032	-0,128
-127,526	37,406	0,129	-0,082
-126,512	-144,106	-0,167	0,011
-125,497	-167,682	0,062	0,002
-124,483	251,032	-0,104	0,127
-123,468	-58,980	-0,085	-0,026
-122,453	35,003	0,073	0,046
-121,439	-98,079	0,012	-0,002
-120,424	365,824	-0,024	-0,034
-119,410	800,000	0,056	-0,168
