DTS Sentinel unit serial number:	SN410029Multiplexer serial number:	ORYXHardware model number:	OX2-SRSoftware version number:	ORYX F/W v4,00 Oryx Data Collector v3.7.2.0data status	okinstallation	B6 Nyhavnadifferential loss correction	single-endedforward channel	channel 2reverse channel	N/Adate	2023/12/07time	20:10:08forward acquisition time	300,00reverse acquisition time	0,00gamma	499,1914k internal	0,3164k external	0,3164temperature offset calibration	1,0000default loss term (dB/km)	0,3820temperature slope calibration	1,0000multiplexer offset coefficient	1,0000multiplexer slope coefficient	1,0000fibre end	0,00T internal ref (°C)	13,87T ext. ref 1 (°C)	-3,09T ext. ref 2 (°C)	-3,10length (m)	temperature (°C)	Stokes	anti-Stokes-744,400	385,922	0,043	0,066
-743,385	-36,254	-0,320	-0,126
-742,371	-200,000	0,049	0,194
-741,356	85,540	-0,202	0,163
-740,342	572,980	0,111	0,199
-739,327	-176,938	-0,427	0,008
-738,312	-36,277	0,146	0,058
-737,298	-133,577	-0,254	-0,023
-736,283	-16,460	0,157	0,073
-735,269	-147,214	-0,347	-0,021
-734,254	-200,000	0,038	0,149
-733,239	-72,493	-0,442	-0,119
-732,225	-60,838	0,188	-0,058
-731,210	57,192	-0,047	0,033
-730,196	212,062	0,065	-0,075
-729,181	-62,223	-0,029	0,009
-728,167	516,246	0,010	-0,018
-727,152	-200,000	0,008	0,102
-726,137	800,000	-0,038	-0,099
-725,123	-93,067	-0,059	-0,012
-724,108	167,295	-0,084	-0,087
-723,094	-114,729	-0,095	-0,013
-722,079	-200,000	-0,014	-0,153
-721,064	483,936	-0,055	-0,093
-720,050	36,629	-0,164	-0,106
-719,035	728,518	-0,018	0,036
-718,021	-67,556	-0,080	-0,023
-717,006	59,306	-0,152	-0,110
-715,991	256,873	-0,120	-0,151
-714,977	176,636	-0,134	-0,144
-713,962	-200,000	0,010	-0,144
-712,948	607,995	-0,023	-0,043
-711,933	-127,526	0,028	-0,003
-710,918	-97,889	-0,089	0,017
-709,904	36,075	-0,103	-0,066
-708,889	8,539	0,058	-0,032
-707,875	261,028	0,052	-0,066
-706,860	-200,000	0,001	0,045
-705,845	159,073	0,040	0,040
-704,831	-200,000	-0,001	0,047
-703,816	441,876	0,028	0,046
-702,802	234,580	0,069	0,084
-701,787	-200,000	-0,026	-0,169
-700,772	-117,751	-0,126	0,016
-699,758	-200,000	0,024	-0,141
-698,743	-69,765	0,067	-0,019
-697,729	-126,313	0,091	-0,010
-696,714	-200,000	-0,013	0,045
-695,699	-21,090	-0,094	0,042
-694,685	-200,000	-0,025	0,084
-693,670	122,767	0,083	-0,076
-692,656	31,114	0,052	0,032
-691,641	-37,656	0,032	0,013
-690,627	-42,178	0,093	0,035
-689,612	230,614	0,049	0,059
-688,597	-200,000	-0,012	0,049
-687,583	-200,000	-0,002	0,034
-686,568	141,890	-0,116	-0,113
-685,554	800,000	-0,020	-0,054
-684,539	-95,817	0,035	-0,007
-683,524	-200,000	-0,031	0,163
-682,510	16,229	-0,002	-0,001
-681,495	-129,136	-0,077	-0,008
-680,481	-93,648	-0,085	0,017
-679,466	-151,689	-0,149	0,008
-678,451	-200,000	-0,017	0,058
-677,437	235,478	-0,082	0,100
-676,422	800,000	0,033	0,069
-675,408	44,803	0,023	0,016
-674,393	134,120	0,031	-0,029
-673,378	520,303	0,026	0,045
-672,364	227,039	-0,024	-0,028
-671,349	-30,234	0,019	0,008
-670,335	-200,000	-0,011	0,057
-669,320	-200,000	-0,007	0,069
-668,305	-200,000	0,022	-0,078
-667,291	254,338	-0,023	-0,028
-666,276	-200,000	-0,014	-0,145
-665,262	-55,760	0,035	-0,011
-664,247	58,727	-0,066	-0,048
-663,232	106,538	-0,085	-0,074
-662,218	561,579	0,007	-0,013
-661,203	90,933	0,008	0,006
-660,189	161,174	-0,011	-0,011
-659,174	249,129	-0,013	0,016
-658,159	-200,000	-0,005	0,094
-657,145	652,146	-0,044	-0,083
-656,130	-13,759	-0,090	-0,043
-655,116	765,819	0,067	-0,134
-654,101	46,575	-0,047	-0,032
-653,086	-41,376	0,061	-0,023
-652,072	-200,000	-0,004	-0,026
-651,057	-3,447	-0,053	-0,027
-650,043	-115,389	-0,119	-0,016
-649,028	103,435	0,041	-0,035
-648,014	-143,051	-0,109	-0,008
-646,999	-200,000	0,015	0,110
-645,984	164,790	0,022	0,023
-644,970	-28,519	-0,161	-0,068
-643,955	387,852	-0,096	-0,145
-642,941	9,599	-0,063	-0,035
-641,926	800,000	-0,003	-0,008
-640,911	-200,000	0,010	0,093
-639,897	-200,000	0,030	-0,169
-638,882	-44,156	-0,075	0,027
-637,868	719,970	-0,028	-0,054
-636,853	-200,000	0,015	-0,090
-635,838	-7,098	0,060	0,030
-634,824	422,904	0,040	-0,063
-633,809	800,000	-0,016	-0,039
-632,795	-136,044	0,026	0,002
-631,780	189,244	0,053	-0,058
-630,765	-12,145	0,044	0,021
-629,751	-200,000	0,030	0,119
-628,736	-200,000	0,033	-0,138
-627,722	-200,000	0,045	-0,184
-626,707	97,237	0,076	0,064
-625,692	-33,871	-0,111	0,045
-624,678	121,645	0,062	-0,057
-623,663	70,501	-0,130	-0,098
-622,649	202,660	-0,104	-0,118
-621,634	800,000	0,047	-0,133
-620,619	-106,778	-0,109	-0,018
-619,605	31,873	-0,054	0,034
-618,590	166,918	0,087	0,091
-617,576	252,198	-0,062	-0,077
-616,561	129,010	-0,061	-0,057
-615,546	800,000	0,074	-0,179
-614,532	-200,000	0,011	-0,118
-613,517	800,000	-0,025	-0,073
-612,503	112,733	-0,047	-0,041
-611,488	-200,000	-0,005	0,053
-610,474	800,000	0,064	0,153
-609,459	174,760	0,124	-0,131
-608,444	-94,792	-0,056	-0,011
-607,430	159,985	-0,041	0,042
-606,415	800,000	-0,045	0,112
-605,401	129,490	0,064	0,060
-604,386	176,178	0,144	-0,153
-603,371	-173,129	-0,047	0,001
-602,357	143,157	-0,108	-0,106
-601,342	-200,000	-0,003	-0,226
-600,328	-200,000	-0,024	0,117
-599,313	-52,303	-0,103	-0,035
-598,298	738,330	-0,045	-0,088
-597,284	-200,000	-0,005	0,046
-596,269	180,744	0,100	0,108
-595,255	20,660	-0,120	0,071
-594,240	61,436	0,031	0,023
-593,225	-80,892	-0,001	0,000
-592,211	-200,000	-0,016	0,066
-591,196	800,000	0,025	0,057
-590,182	-52,229	0,093	-0,031
-589,167	-99,559	0,009	0,002
-588,152	800,000	-0,051	-0,105
-587,138	-200,000	0,048	-0,178
-586,123	375,986	-0,057	-0,085
-585,109	-87,583	-0,019	-0,004
-584,094	-87,390	-0,063	0,014
-583,079	-110,616	0,134	-0,020
-582,065	-53,397	0,020	-0,007
-581,050	-200,000	0,010	-0,053
-580,036	-200,000	0,008	-0,080
-579,021	6,557	-0,052	0,028
-578,006	-62,802	-0,148	-0,045
-576,992	-200,000	-0,004	0,031
-575,977	-20,414	-0,093	0,042
-574,963	237,797	-0,030	0,037
-573,948	68,212	-0,146	0,109
-572,934	-20,309	0,169	0,076
-571,919	509,459	0,062	-0,107
-570,904	-51,659	-0,047	0,016
-569,890	-200,000	-0,009	-0,070
-568,875	159,516	0,069	0,070
-567,861	-102,525	0,048	-0,008
-566,846	-200,000	0,009	-0,028
-565,831	46,021	-0,091	0,061
-564,817	50,147	-0,058	-0,040
-563,802	134,280	-0,121	-0,115
-562,788	-146,097	-0,104	-0,007
-561,773	800,000	0,016	-0,044
-560,758	301,080	0,030	0,040
-559,744	26,371	-0,048	-0,029
-558,729	132,936	0,099	0,093
-557,715	137,081	0,036	0,034
-556,700	-16,310	-0,088	-0,040
-555,685	-27,881	0,092	-0,039
-554,671	-134,072	-0,095	0,008
-553,656	-200,000	0,010	-0,040
-552,642	-200,000	0,001	0,120
-551,627	-200,000	-0,006	-0,112
-550,612	605,543	-0,052	-0,095
-549,598	129,649	0,122	-0,114
-548,583	-200,000	0,002	0,048
-547,569	86,125	-0,074	0,059
-546,554	31,585	0,050	-0,031
-545,539	425,143	0,053	0,084
-544,525	243,464	0,056	-0,069
-543,510	-70,507	0,070	-0,019
-542,496	-136,423	-0,092	0,008
-541,481	38,420	-0,084	0,054
-540,466	-200,000	0,004	0,096
-539,452	-200,000	0,013	0,125
-538,437	-44,492	0,124	-0,045
-537,423	800,000	0,021	-0,063
-536,408	99,164	0,080	-0,068
-535,393	-200,000	0,002	-0,054
-534,379	162,189	0,046	-0,047
-533,364	-110,789	0,009	-0,001
-532,350	45,506	0,170	0,115
-531,335	-200,000	-0,030	0,105
-530,321	-200,000	0,015	0,083
-529,306	154,035	-0,073	-0,073
-528,291	99,890	-0,084	-0,071
-527,277	122,487	-0,129	-0,118
-526,262	-200,000	-0,012	-0,167
-525,248	-2,256	0,094	0,048
-524,233	-37,709	0,094	0,036
-523,218	-200,000	-0,016	0,141
-522,204	-196,106	-0,166	0,001
-521,189	159,994	-0,037	-0,038
-520,175	728,596	0,020	0,039
-519,160	331,435	0,012	0,016
-518,145	186,917	0,049	-0,053
-517,131	158,427	0,067	-0,068
-516,116	67,258	-0,095	-0,070
-515,102	-50,338	0,121	0,041
-514,087	800,000	-0,049	-0,106
-513,072	-200,000	-0,007	-0,027
-512,058	126,349	0,045	-0,041
-511,043	107,837	-0,035	-0,031
-510,029	-200,000	-0,011	0,039
-509,014	-88,940	-0,056	-0,012
-507,999	-36,938	0,072	-0,028
-506,985	800,000	0,063	-0,136
-505,970	-200,000	0,009	-0,080
-504,956	-121,510	-0,266	0,032
-503,941	-6,787	0,018	0,009
-502,926	34,180	0,124	-0,078
-501,912	51,393	0,087	0,060
-500,897	-200,000	-0,023	0,095
-499,883	-200,000	-0,025	0,149
-498,868	397,406	-0,101	-0,155
-497,853	-200,000	-0,009	-0,117
-496,839	38,559	0,147	-0,095
-495,824	400,815	0,074	-0,114
-494,810	-200,000	0,026	-0,183
-493,795	321,129	0,070	0,097
-492,781	-19,094	-0,057	-0,026
-491,766	65,812	-0,023	-0,017
-490,751	13,380	0,067	-0,038
-489,737	656,272	0,057	-0,107
-488,722	23,979	0,100	0,060
-487,708	-68,247	0,115	0,032
-486,693	-200,000	-0,017	0,150
-485,678	-175,792	0,139	0,003
-484,664	131,254	-0,042	-0,040
-483,649	209,757	-0,016	-0,018
-482,635	800,000	-0,049	-0,106
-481,620	-128,426	0,158	-0,016
-480,605	420,591	0,039	0,061
-479,591	-200,000	-0,014	0,067
-478,576	-130,025	-0,046	-0,004
-477,562	88,907	-0,075	0,061
-476,547	-200,000	-0,028	-0,101
-475,532	-200,000	0,000	-0,045
-474,518	800,000	0,027	0,078
-473,503	-200,000	-0,020	0,079
-472,489	-200,000	0,031	0,129
-471,474	98,509	-0,051	0,043
-470,459	-200,000	0,013	0,082
-469,445	-32,592	-0,065	-0,026
-468,430	-68,183	0,032	-0,009
-467,416	-200,000	0,000	-0,073
-466,401	313,678	0,045	-0,062
-465,386	107,354	-0,044	-0,038
-464,372	15,342	-0,136	0,078
-463,357	-69,364	-0,011	-0,003
-462,343	-7,167	0,044	-0,022
-461,328	-1,691	-0,077	0,039
-460,313	12,677	-0,064	-0,036
-459,299	-6,447	-0,066	-0,033
-458,284	186,516	-0,025	-0,028
-457,270	99,491	0,038	0,032
-456,255	-73,011	-0,072	0,019
-455,241	-45,916	-0,120	-0,043
-454,226	-3,117	-0,087	-0,044
-453,211	81,397	0,049	0,038
-452,197	-151,308	-0,027	-0,001
-451,182	-150,042	0,085	0,005
-450,168	-200,000	0,014	-0,058
-449,153	75,779	-0,036	0,028
-448,138	-57,378	-0,095	-0,030
-447,124	281,276	0,077	0,100
-446,109	174,881	-0,050	-0,053
-445,095	800,000	-0,015	-0,031
-444,080	-179,506	0,039	0,001
-443,065	767,810	-0,009	-0,018
-442,051	-200,000	0,002	-0,079
-441,036	356,041	-0,083	-0,120
-440,022	-200,000	-0,006	-0,106
-439,007	-200,000	-0,021	-0,069
-437,992	800,000	0,029	0,073
-436,978	55,336	0,062	0,043
-435,963	201,769	0,071	0,080
-434,949	-48,907	0,056	0,020
-433,934	78,692	-0,169	0,131
-432,919	-14,041	-0,112	0,052
-431,905	26,366	0,040	0,024
-430,890	-157,524	0,097	0,004
-429,876	800,000	-0,053	0,113
-428,861	-200,000	0,009	0,067
-427,846	-200,000	0,017	0,100
-426,832	-200,000	0,020	0,094
-425,817	-64,485	-0,075	-0,022
-424,803	341,210	0,090	0,129
-423,788	161,599	0,043	0,044
-422,773	76,029	0,062	0,048
-421,759	800,000	-0,015	0,036
-420,744	-200,000	-0,042	0,137
-419,730	22,296	-0,087	0,052
-418,715	-90,783	0,078	-0,016
-417,701	200,075	0,125	-0,139
-416,686	-200,000	-0,037	0,131
-415,671	160,415	0,008	0,008
-414,657	66,091	0,068	0,050
-413,642	368,016	-0,062	-0,091
-412,628	321,453	-0,052	-0,072
-411,613	92,109	0,049	0,040
-410,598	-200,000	0,049	-0,169
-409,584	-200,000	-0,033	-0,126
-408,569	168,816	0,069	0,072
-407,555	718,172	0,075	0,146
-406,540	800,000	-0,028	-0,084
-405,525	800,000	0,044	-0,131
-404,511	-200,000	0,000	0,021
-403,496	154,576	-0,049	0,049
-402,482	216,066	-0,057	0,066
-401,467	645,550	0,023	0,043
-400,452	800,000	-0,043	-0,104
-399,438	-20,122	0,200	0,089
-398,423	-200,000	0,025	0,157
-397,409	78,965	0,020	0,016
-396,394	-200,000	0,008	-0,142
-395,379	800,000	0,027	-0,076
-394,365	-200,000	0,037	0,131
-393,350	-20,842	0,117	-0,052
-392,336	-200,000	-0,016	0,066
-391,321	-200,000	0,017	-0,105
-390,306	386,918	-0,048	-0,072
-389,292	447,654	0,015	0,024
-388,277	800,000	-0,015	0,039
-387,263	255,320	-0,031	-0,039
-386,248	18,528	-0,018	0,011
-385,233	-124,487	0,140	0,016
-384,219	570,801	-0,081	0,144
-383,204	-77,148	-0,066	-0,016
-382,190	800,000	0,043	-0,106
-381,175	-28,723	-0,093	0,039
-380,160	-16,317	0,081	0,037
-379,146	-200,000	-0,005	-0,120
-378,131	149,402	-0,071	-0,070
-377,117	68,950	0,024	0,018
-376,102	-200,000	-0,038	0,135
-375,088	-179,582	0,115	-0,002
-374,073	196,798	-0,050	0,056
-373,058	301,223	0,038	0,051
-372,044	-116,616	0,106	0,014
-371,029	166,319	-0,134	0,138
-370,015	532,431	0,000	-0,001
-369,000	496,952	0,011	0,019
-367,985	122,589	-0,085	-0,077
-366,971	-200,000	0,010	0,050
-365,956	-200,000	-0,009	0,054
-364,942	279,750	-0,043	0,056
-363,927	-200,000	-0,006	-0,024
-362,912	-45,651	0,057	0,020
-361,898	-200,000	-0,026	0,129
-360,883	678,323	0,095	-0,180
-359,869	-120,812	0,123	-0,015
-358,854	165,670	0,113	0,116
-357,839	-7,023	-0,031	0,015
-356,825	-144,009	0,096	0,006
-355,810	-112,921	-0,073	0,010
-354,796	-200,000	-0,008	0,034
-353,781	-153,232	0,079	0,004
-352,766	157,056	-0,084	0,084
-351,752	800,000	0,008	-0,023
-350,737	-200,000	-0,003	0,040
-349,723	800,000	0,060	0,152
-348,708	-200,000	0,014	0,073
-347,693	-2,939	-0,032	0,016
-346,679	-23,953	-0,070	0,030
-345,664	607,889	-0,067	0,122
-344,650	-200,000	-0,008	0,092
-343,635	53,268	0,109	-0,075
-342,620	-200,000	-0,023	0,097
-341,606	-160,765	-0,096	0,004
-340,591	791,209	-0,059	-0,118
-339,577	76,716	-0,066	-0,051
-338,562	741,828	0,098	-0,192
-337,548	-198,683	-0,093	-0,000
-336,533	16,757	0,053	-0,030
-335,518	-119,511	0,152	0,019
-334,504	163,848	-0,011	0,011
-333,489	800,000	0,070	0,220
-332,475	800,000	-0,043	-0,101
-331,460	0,650	0,049	0,026
-330,445	495,840	0,030	-0,049
-329,431	349,178	0,091	0,130
-328,416	-200,000	-0,033	0,122
-327,402	-82,795	0,056	-0,013
-326,387	-200,000	-0,014	0,096
-325,372	-51,980	-0,045	-0,015
-324,358	630,950	-0,027	-0,049
-323,343	-95,869	0,229	-0,044
-322,329	122,213	0,061	-0,055
-321,314	-49,297	0,259	-0,089
-320,299	172,234	-0,096	0,100
-319,285	-200,000	0,005	-0,017
-318,270	57,167	0,075	0,053
-317,256	292,023	-0,028	-0,037
-316,241	192,183	0,026	-0,028
-315,226	15,293	0,112	-0,064
-314,212	800,000	-0,027	0,059
-313,197	-33,848	-0,087	0,035
-312,183	-200,000	0,023	-0,110
-311,168	447,864	-0,038	-0,060
-310,153	-200,000	-0,017	0,066
-309,139	-117,544	-0,183	0,024
-308,124	800,000	-0,029	-0,060
-307,110	-58,401	-0,193	0,060
-306,095	-98,944	0,048	0,009
-305,080	-200,000	-0,043	0,211
-304,066	-130,752	-0,055	0,005
-303,051	-200,000	0,022	0,114
-302,037	-97,482	-0,090	-0,017
-301,022	1,172	-0,006	-0,003
-300,008	-66,776	-0,094	0,027
-298,993	155,678	0,090	0,090
-297,978	-0,726	-0,062	0,032
-296,964	800,000	0,023	-0,064
-295,949	-79,468	-0,028	-0,007
-294,935	330,658	-0,106	-0,147
-293,920	-87,488	0,071	-0,015
-292,905	338,235	0,092	0,130
-291,891	526,547	-0,059	0,101
-290,876	800,000	-0,048	-0,104
-289,862	-38,307	-0,066	-0,025
-288,847	-150,820	-0,145	0,008
-287,832	-101,401	-0,206	-0,036
-286,818	60,813	0,003	-0,002
-285,803	543,472	0,038	-0,065
-284,789	57,820	0,078	0,055
-283,774	-10,088	0,036	0,017
-282,759	-200,000	-0,005	-0,081
-281,745	-22,949	-0,106	0,046
-280,730	133,048	0,045	0,042
-279,716	174,589	-0,047	0,049
-278,701	-200,000	0,001	0,071
-277,686	260,409	0,022	-0,028
-276,672	800,000	-0,026	0,080
-275,657	-59,552	-0,110	0,034
-274,643	800,000	0,057	-0,146
-273,628	-91,258	0,063	-0,013
-272,613	-58,738	0,080	-0,025
-271,599	90,140	0,071	-0,057
-270,584	-84,664	0,101	0,023
-269,570	26,226	0,101	-0,061
-268,555	-200,000	0,025	-0,154
-267,540	-34,488	-0,014	-0,005
-266,526	-200,000	0,029	-0,100
-265,511	24,324	0,138	0,082
-264,497	-142,680	-0,060	0,004
-263,482	384,936	-0,069	-0,104
-262,467	-200,000	0,011	0,104
-261,453	340,822	0,079	0,111
-260,438	63,642	-0,096	0,069
-259,424	-200,000	-0,007	-0,041
-258,409	-82,631	0,021	0,005
-257,395	215,600	0,078	-0,090
-256,380	-133,112	-0,171	0,015
-255,365	18,553	0,090	0,052
-254,351	-23,738	-0,069	-0,030
-253,336	295,966	-0,027	-0,036
-252,322	-200,000	-0,001	-0,133
-251,307	159,707	0,039	0,039
-250,292	456,453	0,030	-0,048
-249,278	9,252	0,073	0,040
-248,263	-76,258	0,079	0,020
-247,249	800,000	-0,034	0,099
-246,234	218,551	-0,035	-0,040
-245,219	800,000	0,036	-0,079
-244,205	-31,331	-0,114	0,046
-243,190	800,000	0,058	-0,160
-242,176	-200,000	-0,038	0,219
-241,161	84,391	0,062	0,049
-240,146	21,748	-0,060	-0,035
-239,132	92,834	-0,039	0,032
-238,117	404,449	-0,024	0,037
-237,103	800,000	-0,009	0,025
-236,088	211,008	0,115	-0,131
-235,073	537,856	0,050	-0,086
-234,059	25,383	0,144	-0,086
-233,044	800,000	-0,042	0,125
-232,030	-200,000	0,029	-0,129
-231,015	-36,023	0,081	0,031
-230,000	680,903	0,020	0,038
-228,986	-11,476	0,139	-0,066
-227,971	-120,309	0,124	0,015
-226,957	525,069	-0,063	-0,108
-225,942	-72,910	0,125	0,033
-224,927	800,000	0,045	0,107
-223,913	275,041	-0,020	-0,026
-222,898	-44,115	-0,160	-0,058
-221,884	214,997	-0,143	-0,164
-220,869	144,202	-0,141	0,135
-219,855	83,103	0,020	-0,016
-218,840	-200,000	0,000	-0,059
-217,825	800,000	0,010	-0,031
-216,811	-98,173	-0,106	-0,019
-215,796	800,000	0,007	0,016
-214,782	-200,000	-0,012	0,066
-213,767	-200,000	0,022	0,126
-212,752	417,259	0,035	0,054
-211,738	193,677	-0,107	0,116
-210,723	-200,000	-0,019	0,088
-209,709	141,038	-0,044	0,042
-208,694	-118,991	-0,164	-0,020
-207,679	0,997	-0,124	0,064
-206,665	800,000	-0,039	0,080
-205,650	-21,274	-0,084	0,037
-204,636	6,696	-0,064	0,034
-203,621	189,624	-0,046	0,050
-202,606	477,749	0,064	-0,104
-201,592	-200,000	-0,033	0,159
-200,577	318,692	-0,081	0,111
-199,563	-10,902	0,065	-0,031
-198,548	331,163	-0,074	0,103
-197,533	-200,000	0,028	0,147
-196,519	-200,000	-0,006	-0,041
-195,504	-154,445	-0,208	-0,010
-194,490	146,235	-0,085	0,082
-193,475	-69,817	-0,097	0,027
-192,460	-182,498	0,114	0,001
-191,446	63,356	0,163	-0,117
-190,431	-78,086	0,082	0,020
-189,417	-82,859	-0,197	0,046
-188,402	477,983	-0,014	0,023
-187,387	-200,000	-0,008	0,038
-186,373	-200,000	0,008	-0,047
-185,358	-200,000	0,004	-0,076
-184,344	-200,000	0,006	0,036
-183,329	44,960	-0,046	-0,030
-182,315	-26,337	0,129	0,054
-181,300	637,882	-0,056	-0,103
-180,285	81,009	-0,030	-0,023
-179,271	800,000	-0,050	-0,153
-178,256	-80,886	0,144	0,034
-177,242	696,044	0,072	0,137
-176,227	510,782	0,025	-0,042
-175,212	640,921	0,058	-0,106
-174,198	800,000	0,053	0,113
-173,183	-182,621	-0,130	-0,002
-172,169	-200,000	0,011	0,125
-171,154	-134,169	0,061	-0,005
-170,139	-200,000	0,002	-0,035
-169,125	275,373	0,168	0,215
-168,110	-95,278	0,079	0,015
-167,096	800,000	0,044	-0,109
-166,081	38,926	0,036	0,023
-165,066	690,539	-0,025	0,047
-164,052	432,602	0,075	0,117
-163,037	159,509	0,081	0,081
-162,023	-122,143	-0,025	-0,003
-161,008	-55,575	-0,065	0,021
-159,993	36,202	0,100	-0,064
-158,979	405,843	-0,052	-0,080
-157,964	386,979	0,106	-0,158
-156,950	137,212	-0,075	-0,071
-155,935	-200,000	0,002	0,067
-154,920	-21,124	-0,088	0,039
-153,906	200,064	0,119	0,131
-152,891	800,000	-0,053	-0,112
-151,877	74,981	-0,108	0,082
-150,862	384,439	-0,051	-0,076
-149,847	800,000	0,051	-0,115
-148,833	-17,342	0,051	0,023
-147,818	534,251	0,057	0,098
-146,804	382,547	-0,038	-0,056
-145,789	187,914	-0,032	0,034
-144,775	129,341	-0,108	0,099
-143,760	-200,000	0,002	-0,049
-142,745	800,000	0,062	-0,141
-141,731	-200,000	0,012	-0,107
-140,716	210,725	0,083	-0,094
-139,702	138,213	-0,040	0,037
-138,687	-90,610	0,086	0,018
-137,672	93,432	-0,055	-0,045
-136,658	573,812	-0,063	-0,111
-135,643	-200,000	0,013	0,107
-134,629	-200,000	0,009	-0,093
-133,614	32,029	0,170	-0,105
-132,599	194,113	0,042	0,046
-131,585	512,310	0,027	-0,045
-130,570	45,292	0,039	0,026
-129,556	240,893	0,067	0,081
-128,541	-110,415	-0,188	0,028
-127,526	25,105	-0,064	-0,038
-126,512	190,113	0,104	0,112
-125,497	-29,448	0,170	0,069
-124,483	168,628	0,040	-0,041
-123,468	800,000	0,022	0,057
-122,453	-200,000	0,011	-0,120
-121,439	27,934	-0,040	-0,024
-120,424	-55,837	0,174	-0,055
-119,410	800,000	0,001	0,004
-118,395	-99,439	0,062	-0,011
