DTS Sentinel unit serial number:	SN410029Multiplexer serial number:	ORYXHardware model number:	OX2-SRSoftware version number:	ORYX F/W v4,00 Oryx Data Collector v3.7.2.0data status	okinstallation	B6 Nyhavnadifferential loss correction	single-endedforward channel	channel 2reverse channel	N/Adate	2023/12/10time	19:10:08forward acquisition time	300,00reverse acquisition time	0,00gamma	499,1914k internal	0,3123k external	0,3123temperature offset calibration	1,0000default loss term (dB/km)	0,3820temperature slope calibration	1,0000multiplexer offset coefficient	1,0000multiplexer slope coefficient	1,0000fibre end	0,00T internal ref (°C)	22,32T ext. ref 1 (°C)	5,99T ext. ref 2 (°C)	6,01length (m)	temperature (°C)	Stokes	anti-Stokes-744,400	233,677	0,030	-0,036
-743,385	66,204	-0,230	0,174
-742,371	221,476	0,082	-0,098
-741,356	-47,475	-0,134	0,048
-740,342	800,000	0,014	0,035
-739,327	18,699	-0,231	0,137
-738,312	114,600	-0,134	-0,122
-737,298	-115,784	-0,295	-0,041
-736,283	800,000	0,058	-0,141
-735,269	118,519	-0,140	0,128
-734,254	800,000	0,015	0,040
-733,239	-38,764	-0,392	-0,153
-732,225	-45,456	0,132	-0,048
-731,210	800,000	-0,044	-0,114
-730,196	-25,069	0,128	0,056
-729,181	-200,000	-0,012	-0,096
-728,167	68,154	0,109	-0,083
-727,152	-51,485	-0,110	0,038
-726,137	-76,601	-0,060	0,016
-725,123	-138,748	-0,115	-0,009
-724,108	800,000	-0,022	-0,062
-723,094	-200,000	0,003	-0,073
-722,079	-72,421	-0,178	-0,049
-721,064	-200,000	0,008	0,032
-720,050	172,617	0,074	-0,079
-719,035	800,000	-0,025	0,069
-718,021	464,508	-0,039	-0,066
-717,006	173,345	-0,044	-0,047
-715,991	178,570	0,065	0,071
-714,977	-55,965	-0,078	-0,026
-713,962	-57,353	-0,099	-0,032
-712,948	679,968	0,089	0,173
-711,933	74,362	0,088	0,068
-710,918	282,849	-0,086	-0,116
-709,904	-200,000	0,020	-0,092
-708,889	800,000	-0,029	0,078
-707,875	37,201	-0,113	-0,074
-706,860	63,325	-0,077	-0,057
-705,845	-78,750	-0,089	-0,022
-704,831	-100,820	0,145	-0,026
-703,816	151,023	-0,075	0,076
-702,802	-116,506	0,048	-0,007
-701,787	20,998	-0,101	-0,061
-700,772	-51,864	-0,180	-0,062
-699,758	462,439	0,114	-0,189
-698,743	-147,028	0,092	0,006
-697,729	-200,000	0,050	0,184
-696,714	-200,000	0,017	0,069
-695,699	-200,000	0,003	-0,063
-694,685	10,832	-0,086	-0,049
-693,670	-65,098	0,079	0,024
-692,656	-181,776	-0,152	0,002
-691,641	800,000	-0,010	0,026
-690,627	-200,000	-0,031	-0,107
-689,612	-152,466	-0,051	0,003
-688,597	4,221	-0,138	0,075
-687,583	-200,000	-0,003	-0,046
-686,568	324,285	-0,014	-0,020
-685,554	-67,356	0,162	0,047
-684,539	93,311	-0,070	-0,059
-683,524	-3,524	-0,021	-0,011
-682,510	-200,000	0,006	0,044
-681,495	133,001	-0,046	0,045
-680,481	8,055	-0,045	-0,025
-679,466	543,999	-0,043	-0,076
-678,451	-200,000	-0,006	-0,087
-677,437	790,492	-0,013	0,026
-676,422	-129,641	0,034	0,003
-675,408	800,000	-0,025	0,053
-674,393	97,628	-0,040	-0,034
-673,378	400,301	-0,017	0,027
-672,364	800,000	-0,021	-0,061
-671,349	800,000	0,027	0,067
-670,335	-151,497	-0,031	-0,002
-669,320	375,732	-0,016	0,025
-668,305	-200,000	0,012	0,134
-667,291	-12,329	-0,061	-0,030
-666,276	-114,589	0,092	0,013
-665,262	-110,413	-0,084	-0,013
-664,247	-200,000	0,003	0,055
-663,232	-200,000	-0,034	-0,158
-662,218	-60,118	0,079	0,025
-661,203	-95,947	0,028	0,005
-660,189	122,266	0,041	0,038
-659,174	306,542	-0,109	-0,151
-658,159	800,000	0,045	-0,112
-657,145	543,122	-0,070	-0,125
-656,130	-200,000	0,009	-0,108
-655,116	-200,000	0,002	0,142
-654,101	-200,000	0,004	0,021
-653,086	198,027	-0,058	-0,065
-652,072	45,021	-0,050	0,034
-651,057	488,767	0,057	-0,097
-650,043	-66,770	-0,108	0,032
-649,028	100,096	0,120	0,103
-648,014	236,113	-0,037	-0,046
-646,999	-0,269	0,086	-0,045
-645,984	436,616	0,100	0,162
-644,970	-200,000	0,023	-0,164
-643,955	743,433	0,009	-0,017
-642,941	-200,000	0,031	-0,105
-641,926	32,768	-0,034	-0,022
-640,911	-105,124	0,132	0,022
-639,897	800,000	-0,007	-0,017
-638,882	211,735	0,098	0,115
-637,868	631,286	0,034	-0,064
-636,853	-200,000	0,004	-0,047
-635,838	235,624	-0,072	-0,089
-634,824	110,389	0,102	-0,091
-633,809	224,827	-0,057	-0,069
-632,795	-200,000	-0,003	-0,116
-631,780	-200,000	0,003	-0,160
-630,765	521,071	-0,059	0,104
-629,751	-98,878	-0,110	0,021
-628,736	-2,799	-0,161	0,083
-627,722	800,000	-0,020	-0,063
-626,707	-92,951	0,068	-0,014
-625,692	-183,637	-0,056	-0,001
-624,678	800,000	0,033	0,074
-623,663	-200,000	0,007	0,161
-622,649	-152,511	-0,132	0,007
-621,634	-105,469	-0,117	0,020
-620,619	-89,044	0,064	-0,014
-619,605	133,490	0,061	-0,058
-618,590	800,000	-0,026	0,071
-617,576	79,578	-0,098	0,078
-616,561	146,354	0,035	-0,035
-615,546	489,513	-0,034	-0,058
-614,532	-200,000	0,004	-0,114
-613,517	-200,000	-0,009	-0,049
-612,503	549,673	0,013	0,023
-611,488	169,306	0,043	0,045
-610,474	-200,000	0,003	0,035
-609,459	103,014	0,059	0,051
-608,444	-94,556	-0,060	0,012
-607,430	2,820	-0,093	-0,050
-606,415	5,433	0,117	-0,064
-605,401	-185,033	0,072	0,001
-604,386	-192,294	-0,110	-0,001
-603,371	104,411	0,037	-0,032
-602,357	800,000	0,027	0,060
-601,342	6,336	-0,040	0,022
-600,328	-200,000	-0,184	0,000
-599,313	-200,000	0,006	-0,026
-598,298	-200,000	0,018	-0,082
-597,284	-76,182	0,112	-0,029
-596,269	408,451	0,070	0,110
-595,255	-109,337	0,042	0,007
-594,240	343,348	0,046	0,067
-593,225	-200,000	0,010	-0,036
-592,211	-74,300	-0,071	-0,019
-591,196	-81,946	0,162	-0,039
-590,182	-102,798	-0,047	-0,008
-589,167	-200,000	-0,017	0,062
-588,152	-42,512	-0,130	0,049
-587,138	106,951	-0,110	-0,097
-586,123	-200,000	-0,036	-0,125
-585,109	-200,000	0,003	0,069
-584,094	46,728	0,063	0,044
-583,079	-137,383	-0,159	0,013
-582,065	-200,000	0,008	-0,042
-581,050	800,000	0,029	0,089
-580,036	346,540	-0,045	-0,065
-579,021	800,000	-0,047	0,148
-578,006	624,531	0,002	0,003
-576,992	800,000	0,030	0,084
-575,977	611,835	0,036	-0,067
-574,963	-128,289	-0,087	0,009
-573,948	-65,379	-0,061	0,018
-572,934	-200,000	0,005	0,103
-571,919	-162,137	0,021	0,001
-570,904	88,870	-0,096	0,079
-569,890	-76,223	-0,207	0,054
-568,875	49,165	-0,017	0,012
-567,861	790,182	0,075	0,153
-566,846	172,832	-0,059	0,062
-565,831	744,154	-0,017	0,033
-564,817	-8,450	-0,051	0,025
-563,802	160,309	0,097	-0,100
-562,788	-11,276	-0,135	-0,065
-561,773	-32,966	0,083	-0,034
-560,758	-200,000	0,020	0,086
-559,744	571,904	0,019	-0,034
-558,729	183,291	-0,055	0,061
-557,715	-174,356	-0,057	-0,001
-556,700	-200,000	-0,012	-0,086
-555,685	-200,000	-0,013	0,044
-554,671	219,522	-0,059	0,070
-553,656	-200,000	0,035	0,144
-552,642	-7,078	-0,126	0,063
-551,627	-147,065	0,102	0,006
-550,612	-132,274	0,088	0,008
-549,598	800,000	0,022	0,051
-548,583	-200,000	0,010	-0,064
-547,569	13,841	0,104	-0,060
-546,554	-34,918	0,141	0,057
-545,539	0,288	0,096	-0,051
-544,525	299,123	0,045	0,062
-543,510	800,000	0,038	-0,100
-542,496	-54,542	0,143	-0,048
-541,481	39,789	0,073	-0,048
-540,466	-200,000	0,005	0,048
-539,452	-48,914	0,055	0,019
-538,437	106,250	0,016	0,014
-537,423	-53,621	0,051	-0,017
-536,408	257,840	-0,118	0,151
-535,393	-200,000	0,006	-0,094
-534,379	-200,000	-0,015	0,066
-533,364	471,276	-0,074	-0,124
-532,350	-173,782	-0,068	0,001
-531,335	343,424	0,120	0,175
-530,321	-111,612	0,151	0,022
-529,306	92,157	0,051	-0,042
-528,291	-200,000	0,033	-0,144
-527,277	-52,819	-0,060	-0,020
-526,262	-119,777	-0,095	0,012
-525,248	800,000	-0,020	0,045
-524,233	-200,000	-0,012	0,084
-523,218	414,410	0,027	0,043
-522,204	8,230	-0,086	0,047
-521,189	23,772	0,069	0,042
-520,175	338,391	-0,040	-0,057
-519,160	-50,711	-0,175	0,060
-518,145	5,719	-0,039	0,021
-517,131	53,386	-0,095	0,067
-516,116	800,000	0,039	0,080
-515,102	-200,000	0,013	0,127
-514,087	-200,000	0,032	-0,195
-513,072	-54,118	-0,163	-0,055
-512,058	-200,000	-0,037	-0,126
-511,043	518,545	0,095	-0,164
-510,029	209,043	0,096	0,111
-509,014	785,012	0,015	0,031
-507,999	42,801	-0,160	-0,108
-506,985	-200,000	-0,010	-0,187
-505,970	-109,284	-0,047	0,007
-504,956	800,000	-0,013	0,043
-503,941	800,000	0,054	-0,111
-502,926	-200,000	-0,011	-0,051
-501,912	-200,000	-0,022	0,092
-500,897	48,340	-0,152	0,105
-499,883	800,000	-0,018	-0,053
-498,868	238,244	-0,004	0,005
-497,853	521,772	0,014	0,024
-496,839	1,605	0,103	0,055
-495,824	-2,985	0,023	-0,012
-494,810	800,000	0,026	0,062
-493,795	203,441	-0,106	0,122
-492,781	180,188	-0,121	0,131
-491,766	800,000	0,059	-0,151
-490,751	-200,000	0,017	0,060
-489,737	-14,576	-0,006	-0,003
-488,722	-40,896	-0,115	0,044
-487,708	-200,000	0,017	0,081
-486,693	342,037	0,069	-0,101
-485,678	285,839	0,061	-0,081
-484,664	-200,000	0,023	-0,128
-483,649	-11,648	-0,090	-0,043
-482,635	12,864	-0,063	0,036
-481,620	-117,753	-0,054	0,007
-480,605	-135,578	-0,021	0,002
-479,591	-74,991	0,065	-0,017
-478,576	-200,000	-0,003	-0,055
-477,562	255,830	-0,052	-0,066
-476,547	209,589	-0,096	-0,111
-475,532	-148,236	0,127	0,008
-474,518	-200,000	0,011	-0,041
-473,503	204,675	-0,075	0,086
-472,489	-171,012	-0,071	0,002
-471,474	-110,180	-0,110	0,017
-470,459	-180,640	-0,117	0,002
-469,445	215,628	0,134	-0,157
-468,430	-14,166	-0,062	-0,029
-467,416	16,266	-0,083	-0,048
-466,401	-66,991	0,092	-0,027
-465,386	-104,640	-0,103	0,017
-464,372	800,000	0,042	-0,101
-463,357	-200,000	0,036	-0,128
-462,343	-200,000	-0,023	-0,199
-461,328	23,173	0,023	-0,014
-460,313	-130,873	0,080	0,008
-459,299	758,712	0,008	-0,017
-458,284	800,000	0,013	0,039
-457,270	-200,000	-0,017	-0,200
-456,255	-200,000	0,003	0,038
-455,241	416,577	-0,025	-0,039
-454,226	800,000	0,070	0,146
-453,211	21,419	0,162	0,097
-452,197	222,206	-0,025	-0,029
-451,182	-200,000	-0,019	0,072
-450,168	196,959	0,059	0,066
-449,153	-200,000	-0,005	-0,084
-448,138	800,000	0,017	0,040
-447,124	303,941	0,033	-0,045
-446,109	800,000	0,046	-0,133
-445,095	-163,802	0,068	-0,002
-444,080	800,000	0,018	-0,045
-443,065	800,000	-0,008	-0,023
-442,051	800,000	-0,048	-0,106
-441,036	-200,000	0,001	-0,015
-440,022	124,401	-0,060	0,056
-439,007	-142,528	0,230	0,016
-437,992	-3,262	-0,056	-0,029
-436,978	51,342	-0,051	-0,036
-435,963	-200,000	0,037	0,143
-434,949	-200,000	-0,041	0,134
-433,934	82,534	-0,077	-0,062
-432,919	326,471	-0,068	-0,096
-431,905	128,684	0,087	-0,082
-430,890	-5,514	0,073	-0,037
-429,876	800,000	-0,030	0,087
-428,861	-200,000	0,066	0,225
-427,846	23,120	0,126	-0,076
-426,832	665,909	-0,032	0,061
-425,817	-200,000	-0,020	-0,197
-424,803	-31,646	0,091	0,037
-423,788	352,651	0,074	0,108
-422,773	-200,000	0,016	0,102
-421,759	800,000	0,024	0,059
-420,744	163,925	-0,082	-0,085
-419,730	18,079	-0,097	-0,057
-418,715	-200,000	-0,002	0,025
-417,701	304,098	-0,045	0,062
-416,686	-115,112	0,018	0,003
-415,671	-150,546	0,031	-0,002
-414,657	31,657	0,075	0,048
-413,642	800,000	0,033	0,067
-412,628	-200,000	-0,035	0,118
-411,613	421,395	-0,029	0,046
-410,598	102,189	-0,047	0,041
-409,584	213,735	0,035	0,040
-408,569	800,000	-0,067	0,189
-407,555	169,682	0,060	0,063
-406,540	-84,732	-0,128	-0,029
-405,525	35,973	0,069	0,044
-404,511	-200,000	-0,014	0,080
-403,496	165,616	-0,066	0,068
-402,482	24,789	0,043	0,026
-401,467	-68,295	0,113	-0,032
-400,452	-200,000	0,011	0,076
-399,438	-109,515	0,168	0,026
-398,423	800,000	-0,022	-0,050
-397,409	-200,000	-0,013	-0,044
-396,394	512,097	-0,026	-0,044
-395,379	-93,459	-0,062	0,012
-394,365	-59,910	0,120	-0,038
-393,350	54,374	0,027	0,019
-392,336	-200,000	-0,055	-0,000
-391,321	-56,463	-0,079	0,026
-390,306	193,604	0,141	-0,157
-389,292	14,057	-0,119	-0,068
-388,277	46,122	0,017	-0,012
-387,263	800,000	-0,011	0,035
-386,248	-65,429	0,132	-0,039
-385,233	259,557	-0,096	-0,122
-384,219	-84,271	0,063	-0,015
-383,204	29,182	-0,114	-0,071
-382,190	52,724	-0,113	-0,079
-381,175	195,112	0,086	-0,096
-380,160	-62,090	-0,082	-0,025
-379,146	83,822	0,035	-0,028
-378,131	-200,000	-0,003	0,032
-377,117	-200,000	-0,007	0,070
-376,102	-200,000	0,007	0,051
-375,088	588,836	-0,017	-0,031
-374,073	21,890	-0,037	0,022
-373,058	800,000	-0,013	0,040
-372,044	31,382	0,057	-0,036
-371,029	424,612	0,027	-0,042
-370,015	98,238	-0,037	0,032
-369,000	-144,571	0,060	-0,004
-367,985	288,626	0,084	-0,111
-366,971	-34,639	0,024	0,010
-365,956	-200,000	0,014	0,055
-364,942	-16,937	0,086	-0,040
-363,927	30,434	-0,128	0,080
-362,912	-153,851	-0,101	0,005
-361,898	-133,441	0,135	0,012
-360,883	229,158	0,017	-0,020
-359,869	-200,000	-0,011	-0,100
-358,854	151,478	-0,016	0,016
-357,839	-200,000	0,001	0,036
-356,825	38,936	0,025	-0,017
-355,810	-29,824	-0,090	0,038
-354,796	564,849	-0,033	0,060
-353,781	800,000	-0,004	0,013
-352,766	236,060	-0,030	0,037
-351,752	-67,465	0,094	0,027
-350,737	-8,345	0,042	-0,021
-349,723	-200,000	0,013	0,069
-348,708	800,000	-0,044	-0,110
-347,693	-200,000	0,007	-0,097
-346,679	210,573	-0,075	-0,087
-345,664	369,941	0,059	0,089
-344,650	800,000	-0,048	-0,113
-343,635	-200,000	-0,014	-0,074
-342,620	215,804	-0,041	0,048
-341,606	49,881	0,033	-0,023
-340,591	-200,000	-0,001	-0,092
-339,577	-200,000	0,002	0,013
-338,562	244,751	-0,076	-0,093
-337,548	-10,690	-0,054	-0,026
-336,533	-13,712	-0,100	0,047
-335,518	9,833	0,064	0,035
-334,504	800,000	0,034	0,077
-333,489	676,514	0,009	-0,018
-332,475	-110,088	-0,166	-0,025
-331,460	-200,000	0,005	-0,040
-330,445	800,000	0,022	-0,052
-329,431	800,000	0,052	0,156
-328,416	-32,275	0,135	0,055
-327,402	367,138	0,031	0,046
-326,387	-87,773	0,115	0,025
-325,372	149,319	-0,124	0,123
-324,358	276,104	0,042	-0,055
-323,343	-200,000	-0,001	-0,114
-322,329	381,014	-0,079	-0,120
-321,314	-49,644	0,140	0,048
-320,299	-182,084	0,072	-0,001
-319,285	800,000	-0,010	-0,031
-318,270	-200,000	0,010	0,113
-317,256	800,000	0,015	0,046
-316,241	-29,093	0,041	0,017
-315,226	-8,231	0,107	-0,052
-314,212	-146,416	0,161	0,010
-313,197	-200,000	-0,004	0,016
-312,183	66,773	-0,044	0,033
-311,168	-98,930	0,079	-0,015
-310,153	-103,355	-0,078	0,013
-309,139	-55,264	0,055	0,018
-308,124	-82,170	-0,054	0,013
-307,110	139,496	0,036	-0,035
-306,095	-200,000	0,026	0,141
-305,080	800,000	0,010	0,025
-304,066	-74,192	-0,011	0,003
-303,051	-45,300	-0,100	0,036
-302,037	-0,165	-0,031	0,016
-301,022	-146,279	-0,085	0,005
-300,008	581,430	0,063	0,114
-298,993	-200,000	0,007	-0,045
-297,978	-105,135	-0,055	0,009
-296,964	8,542	0,103	-0,057
-295,949	-35,264	-0,106	-0,042
-294,935	800,000	0,020	0,052
-293,920	198,121	0,123	0,138
-292,905	-81,414	-0,209	-0,050
-291,891	800,000	0,011	-0,035
-290,876	-200,000	-0,006	-0,090
-289,862	-200,000	-0,018	0,099
-288,847	800,000	-0,033	-0,100
-287,832	-200,000	0,013	0,046
-286,818	-17,281	0,122	-0,056
-285,803	110,973	0,047	0,041
-284,789	-200,000	0,000	-0,034
-283,774	800,000	-0,074	0,170
-282,759	475,445	0,030	0,050
-281,745	-200,000	-0,013	-0,044
-280,730	-200,000	-0,006	-0,113
-279,716	800,000	0,093	0,194
-278,701	800,000	0,022	-0,062
-277,686	800,000	0,060	0,125
-276,672	14,335	-0,093	-0,053
-275,657	-172,169	-0,052	0,001
-274,643	38,142	-0,098	-0,064
-273,628	-200,000	0,022	-0,094
-272,613	31,554	0,084	-0,053
-271,599	-200,000	-0,022	0,331
-270,584	425,785	0,032	0,050
-269,570	-60,491	-0,115	0,036
-268,555	390,177	0,049	0,075
-267,540	583,176	0,018	-0,032
-266,526	-39,673	-0,057	0,022
-265,511	-99,946	-0,087	0,016
-264,497	-200,000	0,007	-0,027
-263,482	-74,659	0,029	0,008
-262,467	-59,037	0,124	0,039
-261,453	271,506	-0,071	0,091
-260,438	800,000	-0,012	0,037
-259,424	-55,325	-0,138	-0,045
-258,409	57,911	0,023	-0,016
-257,395	-103,982	0,062	-0,010
-256,380	-15,991	0,097	-0,045
-255,365	-200,000	-0,007	-0,025
-254,351	72,722	-0,052	-0,040
-253,336	-200,000	-0,037	0,218
-252,322	218,363	-0,113	-0,132
-251,307	-200,000	-0,025	-0,128
-250,292	800,000	0,031	-0,068
-249,278	-138,545	0,076	-0,006
-248,263	-200,000	0,031	0,115
-247,249	-108,481	-0,146	0,023
-246,234	-200,000	0,004	0,075
-245,219	-200,000	-0,004	-0,136
-244,205	-112,876	0,097	-0,014
-243,190	11,170	0,084	-0,047
-242,176	174,391	-0,088	0,094
-241,161	-200,000	0,052	0,205
-240,146	-200,000	0,013	-0,059
-239,132	-200,000	0,015	0,096
-238,117	2,473	-0,167	0,088
-237,103	84,987	0,085	0,068
-236,088	-86,876	0,093	-0,021
-235,073	481,017	0,024	0,039
-234,059	-200,000	-0,004	-0,057
-233,044	220,819	0,014	-0,017
-232,030	-200,000	-0,001	0,052
-231,015	-105,188	-0,087	-0,014
-230,000	-200,000	-0,009	-0,090
-228,986	-200,000	0,014	-0,061
-227,971	141,840	0,054	-0,052
-226,957	459,109	-0,077	0,126
-225,942	800,000	-0,049	0,106
-224,927	-50,769	0,148	-0,051
-223,913	-137,553	0,098	0,008
-222,898	-85,941	-0,111	-0,025
-221,884	-200,000	0,009	-0,098
-220,869	-125,082	0,095	0,010
-219,855	-148,144	0,092	0,005
-218,840	800,000	0,032	-0,076
-217,825	-57,652	0,094	-0,030
-216,811	-200,000	-0,023	-0,112
-215,796	-200,000	0,038	-0,240
-214,782	223,961	0,025	-0,029
-213,767	-200,000	0,004	0,153
-212,752	-73,848	0,086	-0,023
-211,738	-77,491	0,124	0,031
-210,723	-75,329	-0,076	-0,020
-209,709	406,514	0,022	0,035
-208,694	-123,771	-0,048	-0,006
-207,679	-155,374	-0,091	-0,004
-206,665	-77,995	0,084	0,021
-205,650	662,100	-0,032	0,060
-204,636	-18,693	-0,117	0,053
-203,621	-200,000	-0,004	0,063
-202,606	508,913	0,067	-0,114
-201,592	-26,413	-0,211	0,090
-200,577	540,182	0,052	-0,091
-199,563	-200,000	-0,009	-0,085
-198,548	8,326	0,045	0,025
-197,533	118,465	0,140	-0,126
-196,519	0,745	-0,120	-0,062
-195,504	-103,000	0,044	0,008
-194,490	416,156	0,079	-0,124
-193,475	800,000	-0,023	-0,075
-192,460	701,616	-0,035	0,068
-191,446	-200,000	0,008	0,059
-190,431	507,544	0,026	0,044
-189,417	-55,101	0,048	0,016
-188,402	-106,869	-0,032	0,005
-187,387	144,480	0,088	-0,085
-186,373	-200,000	-0,017	0,101
-185,358	135,555	-0,104	-0,099
-184,344	-172,458	0,153	0,003
-183,329	307,829	0,030	0,040
-182,315	-200,000	-0,025	-0,096
-181,300	800,000	-0,032	-0,068
-180,285	84,648	-0,026	0,020
-179,271	248,222	-0,073	-0,090
-178,256	103,320	0,048	-0,041
-177,242	-198,009	-0,015	0,000
-176,227	728,026	-0,038	0,075
-175,212	800,000	-0,048	0,104
-174,198	266,864	-0,074	-0,095
-173,183	-200,000	-0,050	0,204
-172,169	800,000	0,046	-0,133
-171,154	-200,000	-0,005	-0,020
-170,139	-200,000	-0,009	-0,059
-169,125	21,330	-0,050	0,030
-168,110	39,437	-0,055	-0,036
-167,096	134,987	-0,106	-0,100
-166,081	-0,162	-0,064	0,033
-165,066	683,381	-0,021	0,040
-164,052	37,472	-0,055	-0,036
-163,037	160,102	-0,023	0,023
-162,023	-55,945	-0,039	-0,013
-161,008	-127,661	0,027	0,003
-159,993	8,122	0,081	0,044
-158,979	85,162	0,106	0,085
-157,964	800,000	0,058	-0,187
-156,950	-200,000	-0,014	0,057
-155,935	800,000	0,034	-0,087
-154,920	-133,520	0,130	-0,012
-153,906	800,000	-0,060	0,163
-152,891	-52,924	-0,068	-0,023
-151,877	192,574	-0,037	0,041
-150,862	-12,068	-0,107	0,051
-149,847	-175,390	0,056	0,001
-148,833	547,068	-0,016	0,028
-147,818	207,384	0,084	0,096
-146,804	800,000	0,019	0,040
-145,789	800,000	-0,032	0,077
-144,775	800,000	0,044	0,097
-143,760	-200,000	-0,029	-0,111
-142,745	54,640	0,049	-0,035
-141,731	68,122	0,037	-0,028
-140,716	-20,255	0,064	0,029
-139,702	800,000	-0,004	0,010
-138,687	520,712	-0,139	0,238
-137,672	196,091	-0,048	-0,054
-136,658	256,132	-0,017	0,021
-135,643	-102,661	0,056	-0,010
-134,629	-200,000	0,041	0,176
-133,614	92,846	0,080	-0,066
-132,599	321,485	0,071	0,098
-131,585	800,000	-0,022	-0,062
-130,570	-200,000	-0,027	0,107
-129,556	-84,648	0,090	0,020
-128,541	112,829	-0,095	-0,083
-127,526	54,717	-0,013	-0,009
-126,512	117,606	0,103	0,092
-125,497	76,207	0,024	0,019
-124,483	-125,465	-0,024	-0,003
-123,468	386,512	0,020	0,031
-122,453	69,063	-0,043	-0,032
-121,439	117,616	-0,042	-0,038
-120,424	473,735	-0,052	-0,086
-119,410	97,997	0,024	0,020
