DTS Sentinel unit serial number:	SN410029Multiplexer serial number:	ORYXHardware model number:	OX2-SRSoftware version number:	ORYX F/W v4,00 Oryx Data Collector v3.7.2.0data status	okinstallation	B6 Nyhavnadifferential loss correction	single-endedforward channel	channel 2reverse channel	N/Adate	2023/12/07time	23:50:08forward acquisition time	300,00reverse acquisition time	0,00gamma	499,1914k internal	0,3164k external	0,3164temperature offset calibration	1,0000default loss term (dB/km)	0,3820temperature slope calibration	1,0000multiplexer offset coefficient	1,0000multiplexer slope coefficient	1,0000fibre end	0,00T internal ref (°C)	13,40T ext. ref 1 (°C)	-3,54T ext. ref 2 (°C)	-3,53length (m)	temperature (°C)	Stokes	anti-Stokes-744,400	-101,463	0,055	0,010
-743,385	1,314	-0,294	-0,155
-742,371	-76,725	0,117	0,030
-741,356	-112,355	-0,314	-0,046
-740,342	-43,796	0,181	0,067
-739,327	-123,357	-0,262	0,030
-738,312	58,761	0,144	0,104
-737,298	-73,175	-0,309	-0,083
-736,283	31,808	0,131	-0,083
-735,269	63,962	-0,243	0,180
-734,254	180,747	0,090	0,097
-733,239	21,435	-0,478	-0,285
-732,225	-110,925	0,243	-0,036
-731,210	274,902	-0,056	-0,073
-730,196	800,000	-0,028	-0,062
-729,181	-12,070	-0,086	-0,041
-728,167	-200,000	0,024	-0,115
-727,152	227,763	0,023	-0,028
-726,137	126,114	-0,090	-0,084
-725,123	29,727	-0,165	-0,103
-724,108	287,702	0,054	-0,071
-723,094	-112,065	-0,075	-0,011
-722,079	800,000	0,014	-0,042
-721,064	-86,271	0,070	0,016
-720,050	-200,000	0,010	-0,177
-719,035	59,499	-0,030	-0,022
-718,021	56,065	0,089	0,064
-717,006	731,234	-0,089	-0,175
-715,991	-25,801	0,064	-0,027
-714,977	-200,000	0,042	-0,141
-713,962	145,626	-0,027	-0,026
-712,948	145,134	0,072	0,070
-711,933	-200,000	-0,010	0,053
-710,918	651,507	0,009	-0,016
-709,904	318,994	-0,065	-0,091
-708,889	-200,000	-0,029	-0,139
-707,875	-200,000	-0,031	-0,129
-706,860	631,788	-0,057	0,106
-705,845	511,790	0,038	0,065
-704,831	68,529	-0,091	0,068
-703,816	-90,406	-0,088	0,019
-702,802	285,087	0,047	0,062
-701,787	48,634	-0,215	0,148
-700,772	61,365	0,070	-0,051
-699,758	71,517	0,060	-0,046
-698,743	286,429	0,051	0,067
-697,729	194,183	0,053	-0,059
-696,714	343,268	-0,037	0,054
-695,699	-66,332	-0,142	-0,041
-694,685	-131,154	0,075	0,007
-693,670	-119,576	-0,130	0,016
-692,656	25,609	0,037	-0,023
-691,641	-95,791	-0,138	-0,027
-690,627	-105,029	-0,025	0,004
-689,612	180,846	-0,090	-0,097
-688,597	670,944	-0,033	0,063
-687,583	24,032	-0,120	-0,073
-686,568	800,000	-0,037	-0,090
-685,554	800,000	-0,067	-0,159
-684,539	-132,493	-0,082	-0,008
-683,524	225,338	0,043	0,052
-682,510	183,471	0,029	-0,032
-681,495	789,969	-0,028	-0,057
-680,481	111,834	-0,077	-0,068
-679,466	283,631	-0,065	-0,085
-678,451	320,573	-0,029	-0,041
-677,437	-200,000	-0,007	-0,092
-676,422	431,235	0,037	0,059
-675,408	-200,000	-0,004	0,096
-674,393	-105,177	0,092	0,015
-673,378	65,848	-0,066	-0,049
-672,364	-200,000	-0,010	-0,083
-671,349	28,927	-0,051	-0,032
-670,335	800,000	0,010	-0,022
-669,320	-145,325	0,057	0,004
-668,305	191,497	0,030	0,033
-667,291	-180,441	0,151	-0,002
-666,276	-200,000	-0,021	-0,131
-665,262	800,000	-0,038	-0,095
-664,247	-200,000	-0,009	-0,077
-663,232	276,655	0,054	0,070
-662,218	121,292	-0,023	0,021
-661,203	484,058	0,017	-0,028
-660,189	-79,890	0,030	0,007
-659,174	-200,000	-0,034	-0,156
-658,159	800,000	-0,042	-0,119
-657,145	-200,000	-0,017	-0,069
-656,130	53,912	-0,057	-0,040
-655,116	227,253	0,073	-0,087
-654,101	-120,421	0,050	-0,006
-653,086	115,905	-0,063	-0,056
-652,072	692,760	0,015	0,029
-651,057	800,000	-0,039	-0,101
-650,043	625,409	-0,016	-0,030
-649,028	202,925	0,017	-0,019
-648,014	-25,442	0,091	0,039
-646,999	-200,000	-0,011	0,057
-645,984	522,698	0,008	-0,014
-644,970	68,602	-0,162	-0,122
-643,955	800,000	0,052	-0,127
-642,941	289,232	-0,012	-0,017
-641,926	-68,415	-0,006	-0,002
-640,911	-125,654	-0,046	0,005
-639,897	-55,951	-0,064	-0,021
-638,882	432,156	-0,014	-0,022
-637,868	-200,000	-0,005	-0,121
-636,853	-200,000	0,002	-0,229
-635,838	332,374	0,044	-0,062
-634,824	135,345	-0,033	0,031
-633,809	370,692	-0,107	0,159
-632,795	-200,000	-0,009	0,130
-631,780	800,000	-0,019	-0,062
-630,765	-200,000	0,000	0,102
-629,751	-200,000	-0,037	-0,201
-628,736	-177,961	-0,090	0,002
-627,722	203,969	0,069	-0,078
-626,707	296,714	-0,047	-0,064
-625,692	86,857	-0,081	0,065
-624,678	800,000	-0,022	0,046
-623,663	-20,459	-0,153	-0,069
-622,649	-200,000	-0,006	0,054
-621,634	-111,094	-0,073	-0,011
-620,619	-200,000	-0,022	-0,103
-619,605	-131,140	0,079	0,008
-618,590	-200,000	0,032	0,148
-617,576	-200,000	0,018	0,153
-616,561	343,365	0,072	-0,103
-615,546	800,000	-0,025	-0,060
-614,532	416,520	-0,089	-0,140
-613,517	22,057	-0,033	-0,019
-612,503	-90,658	-0,158	0,033
-611,488	352,770	0,070	0,102
-610,474	180,593	0,015	0,016
-609,459	42,334	0,078	0,052
-608,444	-200,000	-0,011	-0,046
-607,430	-151,542	0,032	0,002
-606,415	-60,732	-0,086	-0,026
-605,401	220,710	-0,102	0,120
-604,386	195,632	-0,019	-0,021
-603,371	93,036	0,071	-0,059
-602,357	-85,958	-0,048	0,011
-601,342	-200,000	0,011	0,036
-600,328	379,178	-0,043	-0,064
-599,313	-66,024	-0,136	0,039
-598,298	460,315	0,060	0,098
-597,284	-163,824	0,170	-0,006
-596,269	796,836	-0,031	0,062
-595,255	187,582	-0,017	0,019
-594,240	-200,000	0,007	0,024
-593,225	-154,001	0,042	0,002
-592,211	-47,284	-0,160	-0,057
-591,196	69,104	-0,010	0,007
-590,182	-200,000	0,009	0,063
-589,167	333,809	0,051	0,073
-588,152	-200,000	0,030	0,112
-587,138	35,669	0,184	-0,118
-586,123	800,000	-0,033	-0,098
-585,109	28,768	-0,140	-0,086
-584,094	800,000	0,035	-0,100
-583,079	-200,000	-0,057	0,206
-582,065	16,521	-0,058	0,033
-581,050	330,556	-0,084	-0,118
-580,036	-11,099	0,041	-0,020
-579,021	-90,315	0,048	-0,010
-578,006	-131,302	-0,062	0,006
-576,992	204,182	-0,138	-0,156
-575,977	-200,000	0,048	-0,202
-574,963	1,942	0,040	0,021
-573,948	-128,450	-0,050	-0,005
-572,934	-200,000	0,002	-0,052
-571,919	-200,000	-0,014	0,141
-570,904	-83,590	-0,107	-0,025
-569,890	-200,000	0,002	-0,068
-568,875	800,000	-0,026	0,070
-567,861	227,762	0,003	0,003
-566,846	800,000	-0,023	0,059
-565,831	-168,233	0,067	0,002
-564,817	800,000	-0,022	-0,065
-563,802	-55,634	-0,070	-0,023
-562,788	625,885	0,058	-0,107
-561,773	310,002	-0,074	-0,101
-560,758	160,586	0,113	0,115
-559,744	288,138	0,082	0,109
-558,729	-38,636	-0,051	0,020
-557,715	-200,000	0,009	-0,112
-556,700	96,699	0,095	-0,079
-555,685	-52,125	-0,078	-0,026
-554,671	800,000	0,037	-0,080
-553,656	-16,303	0,130	0,060
-552,642	-200,000	0,008	0,065
-551,627	800,000	0,023	-0,059
-550,612	-200,000	-0,010	-0,137
-549,598	800,000	-0,053	-0,135
-548,583	86,553	0,133	-0,107
-547,569	137,508	0,020	0,019
-546,554	800,000	0,062	0,143
-545,539	410,619	-0,024	0,038
-544,525	-69,153	-0,110	-0,031
-543,510	-63,086	-0,040	0,012
-542,496	800,000	0,043	-0,117
-541,481	-114,433	0,079	-0,011
-540,466	-116,136	-0,185	-0,025
-539,452	-200,000	-0,002	-0,008
-538,437	22,081	0,085	-0,051
-537,423	-49,171	-0,077	0,027
-536,408	800,000	0,066	0,160
-535,393	240,350	-0,098	-0,119
-534,379	-78,251	0,037	-0,009
-533,364	-34,384	0,216	0,086
-532,350	800,000	-0,040	0,084
-531,335	-59,941	0,115	0,036
-530,321	626,521	-0,071	-0,132
-529,306	132,962	0,052	-0,049
-528,291	457,534	0,078	-0,127
-527,277	448,870	-0,051	-0,082
-526,262	-26,337	-0,037	0,016
-525,248	-132,486	0,150	-0,014
-524,233	-67,367	-0,142	-0,040
-523,218	-200,000	0,033	0,108
-522,204	800,000	0,031	0,063
-521,189	-109,838	-0,031	-0,005
-520,175	800,000	-0,013	-0,032
-519,160	-200,000	0,023	-0,150
-518,145	110,270	0,070	0,062
-517,131	800,000	0,023	-0,072
-516,116	44,314	0,058	-0,039
-515,102	-200,000	0,026	-0,203
-514,087	-12,577	0,041	-0,019
-513,072	99,588	-0,073	-0,062
-512,058	-7,149	-0,009	-0,004
-511,043	374,210	0,082	0,122
-510,029	-1,734	-0,087	0,045
-509,014	670,649	-0,012	0,023
-507,999	589,144	0,019	0,034
-506,985	-200,000	0,007	0,067
-505,970	-200,000	-0,015	-0,081
-504,956	-200,000	-0,021	-0,150
-503,941	55,882	0,124	0,088
-502,926	450,538	-0,058	0,093
-501,912	-42,082	-0,061	-0,023
-500,897	-200,000	-0,009	0,073
-499,883	131,988	-0,027	-0,025
-498,868	38,724	-0,106	-0,069
-497,853	800,000	-0,023	-0,067
-496,839	-136,713	-0,140	-0,012
-495,824	-88,091	0,092	0,020
-494,810	139,647	0,157	0,151
-493,795	-200,000	-0,020	0,106
-492,781	226,106	0,029	-0,034
-491,766	-2,883	-0,096	-0,049
-490,751	-133,786	0,195	0,017
-489,737	-200,000	-0,017	-0,098
-488,722	800,000	0,013	0,039
-487,708	800,000	0,042	0,115
-486,693	-156,301	0,041	0,002
-485,678	800,000	0,038	-0,096
-484,664	21,723	0,074	-0,044
-483,649	-86,939	0,142	0,031
-482,635	-143,966	-0,170	0,011
-481,620	-200,000	-0,004	-0,112
-480,605	-200,000	0,012	0,046
-479,591	800,000	0,033	0,093
-478,576	-43,200	-0,156	0,057
-477,562	800,000	-0,018	0,042
-476,547	800,000	-0,046	-0,107
-475,532	-162,924	0,043	0,002
-474,518	38,369	-0,169	-0,109
-473,503	-108,451	-0,161	0,025
-472,489	612,556	0,053	-0,097
-471,474	109,020	-0,097	0,084
-470,459	800,000	0,045	0,099
-469,445	-200,000	0,002	-0,015
-468,430	316,640	-0,067	-0,092
-467,416	-200,000	-0,028	0,148
-466,401	145,912	0,079	0,077
-465,386	109,838	-0,030	-0,026
-464,372	-200,000	0,013	0,075
-463,357	64,474	0,045	-0,033
-462,343	96,857	0,008	-0,007
-461,328	800,000	-0,050	-0,108
-460,313	-91,190	0,111	0,023
-459,299	-200,000	0,000	-0,069
-458,284	-133,965	0,077	0,007
-457,270	-200,000	0,010	-0,046
-456,255	-69,160	0,067	0,019
-455,241	720,558	-0,031	0,061
-454,226	-14,722	-0,047	0,022
-453,211	-200,000	0,007	-0,072
-452,197	-200,000	0,006	-0,079
-451,182	-109,946	0,092	0,014
-450,168	-53,178	-0,162	-0,054
-449,153	111,846	0,098	-0,086
-448,138	-44,297	-0,106	-0,038
-447,124	-43,753	-0,080	0,029
-446,109	-80,987	0,004	0,001
-445,095	29,462	0,068	-0,042
-444,080	367,069	0,085	0,126
-443,065	-61,924	-0,065	-0,020
-442,051	-200,000	0,000	0,073
-441,036	158,495	0,112	-0,113
-440,022	800,000	-0,017	0,039
-439,007	-200,000	-0,008	0,056
-437,992	-84,920	-0,070	0,016
-436,978	82,604	0,040	0,031
-435,963	-173,917	-0,040	-0,001
-434,949	-200,000	0,022	-0,089
-433,934	63,763	0,053	0,039
-432,919	-71,468	-0,062	0,017
-431,905	69,112	0,079	0,059
-430,890	59,096	0,052	0,037
-429,876	146,342	0,060	0,059
-428,861	320,566	0,076	0,105
-427,846	-147,170	-0,058	-0,004
-426,832	342,880	-0,009	0,012
-425,817	800,000	0,025	-0,060
-424,803	-22,573	0,063	-0,028
-423,788	-200,000	0,010	0,066
-422,773	-200,000	-0,030	0,101
-421,759	73,967	0,008	-0,006
-420,744	-200,000	-0,012	0,164
-419,730	96,744	-0,081	-0,067
-418,715	507,699	0,053	-0,090
-417,701	800,000	0,047	-0,115
-416,686	-200,000	-0,023	0,147
-415,671	800,000	0,010	0,022
-414,657	112,063	-0,061	0,054
-413,642	76,682	-0,169	0,130
-412,628	362,974	0,070	-0,103
-411,613	4,306	-0,081	0,043
-410,598	79,022	0,037	-0,029
-409,584	800,000	0,060	-0,150
-408,569	-200,000	0,008	0,103
-407,555	-149,242	0,047	-0,003
-406,540	290,791	-0,071	0,094
-405,525	-135,446	-0,143	-0,012
-404,511	-200,000	-0,013	-0,095
-403,496	10,771	0,100	0,055
-402,482	-200,000	-0,067	0,217
-401,467	294,397	0,113	0,151
-400,452	-79,583	0,034	-0,008
-399,438	139,831	0,083	0,080
-398,423	800,000	-0,064	-0,161
-397,409	800,000	-0,033	-0,088
-396,394	-86,852	0,077	-0,017
-395,379	-200,000	0,009	0,137
-394,365	-136,575	0,124	-0,010
-393,350	800,000	0,007	-0,018
-392,336	800,000	-0,029	0,089
-391,321	-21,267	0,055	0,024
-390,306	800,000	-0,045	-0,100
-389,292	244,798	0,086	-0,105
-388,277	-200,000	0,007	0,063
-387,263	694,570	0,010	0,018
-386,248	-68,062	0,075	-0,021
-385,233	-45,148	-0,063	0,022
-384,219	-200,000	0,030	-0,116
-383,204	-200,000	-0,022	-0,129
-382,190	-91,714	0,078	0,016
-381,175	-80,212	-0,026	0,006
-380,160	-191,746	0,125	-0,001
-379,146	-60,951	0,064	0,019
-378,131	-200,000	0,038	0,120
-377,117	-48,542	-0,173	0,060
-376,102	-200,000	0,007	-0,028
-375,088	-200,000	0,017	-0,085
-374,073	800,000	-0,014	-0,040
-373,058	700,032	-0,030	0,057
-372,044	-200,000	-0,000	0,076
-371,029	-38,043	-0,102	0,039
-370,015	281,588	0,079	0,103
-369,000	-66,913	0,110	0,031
-367,985	5,636	-0,036	-0,019
-366,971	142,953	-0,052	0,050
-365,956	-58,609	0,036	0,011
-364,942	138,075	0,080	-0,076
-363,927	-200,000	-0,019	0,063
-362,912	41,147	-0,018	-0,012
-361,898	-133,137	-0,088	0,008
-360,883	69,321	0,098	-0,073
-359,869	-20,151	-0,042	-0,019
-358,854	27,531	-0,072	-0,044
-357,839	-149,041	0,040	-0,002
-356,825	204,860	0,035	-0,039
-355,810	366,607	-0,010	-0,015
-354,796	-200,000	0,005	0,028
-353,781	-200,000	0,018	-0,138
-352,766	-88,539	0,033	0,007
-351,752	-83,670	0,108	-0,025
-350,737	475,849	0,066	0,108
-349,723	800,000	-0,061	0,164
-348,708	-176,264	-0,036	0,001
-347,693	-200,000	-0,008	0,062
-346,679	-200,000	0,019	0,098
-345,664	526,728	0,011	-0,018
-344,650	-122,769	-0,217	0,025
-343,635	-200,000	0,023	0,095
-342,620	800,000	0,014	0,042
-341,606	-38,975	0,032	0,012
-340,591	488,707	0,066	-0,109
-339,577	-28,572	0,085	-0,035
-338,562	67,083	0,096	-0,070
-337,548	97,941	0,066	-0,055
-336,533	800,000	0,057	0,157
-335,518	137,605	0,089	0,085
-334,504	-200,000	-0,017	0,054
-333,489	40,563	-0,051	-0,033
-332,475	199,228	-0,081	-0,090
-331,460	-101,693	-0,122	-0,021
-330,445	304,661	0,139	0,187
-329,431	-136,256	-0,044	-0,004
-328,416	66,100	0,056	0,041
-327,402	285,863	0,019	0,025
-326,387	800,000	0,034	-0,074
-325,372	-200,000	-0,017	-0,121
-324,358	95,494	-0,030	0,025
-323,343	-200,000	0,025	0,092
-322,329	-161,134	0,111	0,004
-321,314	-15,593	-0,045	0,021
-320,299	96,753	0,053	-0,044
-319,285	-137,486	-0,078	0,006
-318,270	479,276	0,038	-0,062
-317,256	399,763	-0,112	-0,171
-316,241	-91,831	-0,039	-0,008
-315,226	-200,000	-0,006	0,041
-314,212	-93,844	0,045	0,009
-313,197	116,563	-0,097	-0,086
-312,183	91,311	0,012	-0,010
-311,168	253,500	-0,115	0,143
-310,153	-0,497	0,036	0,018
-309,139	800,000	0,055	0,111
-308,124	-200,000	-0,016	0,175
-307,110	-200,000	-0,029	0,118
-306,095	397,785	0,049	0,075
-305,080	-200,000	-0,030	0,129
-304,066	800,000	-0,011	-0,034
-303,051	606,725	0,091	-0,165
-302,037	-200,000	0,008	-0,206
-301,022	82,316	-0,057	-0,045
-300,008	-200,000	0,006	-0,081
-298,993	-200,000	-0,013	0,096
-297,978	198,724	-0,059	0,065
-296,964	9,703	-0,089	0,049
-295,949	800,000	-0,050	-0,101
-294,935	-109,742	-0,063	-0,010
-293,920	15,159	0,136	0,077
-292,905	-3,936	-0,041	0,021
-291,891	151,030	-0,115	0,113
-290,876	-200,000	0,033	0,131
-289,862	30,474	-0,095	-0,059
-288,847	295,774	0,035	-0,047
-287,832	491,311	-0,031	-0,051
-286,818	-200,000	-0,025	0,098
-285,803	797,298	0,055	-0,109
-284,789	800,000	0,008	0,026
-283,774	800,000	0,038	0,115
-282,759	-140,065	-0,101	-0,008
-281,745	-37,532	-0,082	0,031
-280,730	-200,000	-0,040	-0,147
-279,716	-141,041	0,117	0,009
-278,701	538,107	0,074	-0,128
-277,686	82,410	-0,055	-0,043
-276,672	31,130	0,082	0,051
-275,657	510,001	-0,057	-0,097
-274,643	11,259	-0,156	-0,086
-273,628	-200,000	-0,006	0,063
-272,613	-97,223	0,093	0,017
-271,599	-67,898	0,090	-0,025
-270,584	140,159	0,036	0,035
-269,570	-55,686	0,083	-0,027
-268,555	252,431	-0,044	0,054
-267,540	-200,000	-0,062	0,000
-266,526	-200,000	-0,007	0,060
-265,511	-44,386	0,182	-0,065
-264,497	-184,485	-0,075	0,001
-263,482	-200,000	-0,023	0,100
-262,467	199,000	0,099	0,109
-261,453	229,143	-0,061	0,072
-260,438	161,454	-0,049	0,049
-259,424	-119,433	-0,161	-0,020
-258,409	-200,000	-0,004	0,101
-257,395	-11,963	-0,023	0,011
-256,380	-113,983	0,214	0,030
-255,365	-109,884	-0,007	0,001
-254,351	-161,179	0,111	0,004
-253,336	-200,000	-0,001	0,021
-252,322	282,428	0,014	-0,018
-251,307	-42,130	-0,033	-0,012
-250,292	-21,404	-0,096	-0,042
-249,278	-53,486	0,143	0,047
-248,263	800,000	-0,026	0,062
-247,249	490,880	0,009	-0,015
-246,234	-200,000	0,005	-0,070
-245,219	56,524	0,017	-0,012
-244,205	105,967	-0,019	0,017
-243,190	800,000	0,055	0,152
-242,176	800,000	0,031	0,093
-241,161	-175,626	-0,080	0,002
-240,146	-31,075	-0,083	0,034
-239,132	-95,340	0,068	0,013
-238,117	-200,000	0,009	0,038
-237,103	-200,000	-0,001	0,014
-236,088	800,000	0,030	-0,067
-235,073	101,666	-0,056	0,047
-234,059	303,558	-0,061	0,082
-233,044	382,017	-0,074	0,110
-232,030	538,031	0,046	0,079
-231,015	-97,223	0,068	0,013
-230,000	-52,052	-0,105	-0,035
-228,986	800,000	-0,032	-0,091
-227,971	-75,641	0,161	-0,041
-226,957	-200,000	-0,001	0,059
-225,942	214,397	0,127	0,145
-224,927	75,543	-0,084	-0,064
-223,913	-200,000	-0,031	-0,146
-222,898	190,072	-0,048	-0,052
-221,884	7,887	0,018	-0,010
-220,869	-143,447	0,084	-0,006
-219,855	478,947	-0,027	0,044
-218,840	209,215	0,057	-0,065
-217,825	175,586	-0,037	0,039
-216,811	-200,000	-0,004	-0,036
-215,796	800,000	-0,049	-0,152
-214,782	-44,303	0,073	0,026
-213,767	-106,775	-0,076	0,012
-212,752	203,079	0,105	-0,117
-211,738	-40,821	0,070	-0,026
-210,723	-174,135	-0,162	-0,003
-209,709	50,766	-0,083	-0,057
-208,694	800,000	-0,032	-0,069
-207,679	40,766	-0,036	-0,024
-206,665	-200,000	-0,012	-0,177
-205,650	289,871	0,030	-0,040
-204,636	654,017	0,028	0,053
-203,621	256,453	-0,057	0,071
-202,606	-200,000	-0,015	0,075
-201,592	400,414	-0,050	-0,076
-200,577	-200,000	0,052	-0,178
-199,563	85,391	-0,127	-0,101
-198,548	-200,000	0,021	0,179
-197,533	-200,000	0,003	-0,019
-196,519	-182,116	0,173	0,002
-195,504	75,159	-0,113	0,086
-194,490	-102,891	-0,044	0,007
-193,475	-85,701	-0,026	-0,006
-192,460	-200,000	0,002	-0,021
-191,446	-19,239	0,047	0,021
-190,431	198,491	0,044	0,048
-189,417	-200,000	-0,017	-0,204
-188,402	800,000	0,040	0,114
-187,387	-200,000	0,003	0,014
-186,373	163,737	-0,010	-0,010
-185,358	-200,000	-0,002	-0,029
-184,344	800,000	-0,031	0,095
-183,329	-200,000	-0,005	0,116
-182,315	445,009	0,035	0,056
-181,300	-200,000	0,004	-0,141
-180,285	323,192	-0,008	0,011
-179,271	-200,000	0,020	0,091
-178,256	29,562	-0,118	-0,072
-177,242	800,000	-0,015	-0,034
-176,227	42,791	0,028	0,018
-175,212	-76,442	0,104	-0,026
-174,198	343,883	0,092	-0,131
-173,183	-21,813	0,031	-0,014
-172,169	-200,000	-0,003	-0,158
-171,154	398,022	-0,102	-0,154
-170,139	253,080	0,032	0,040
-169,125	335,940	-0,134	0,188
-168,110	800,000	0,075	0,192
-167,096	198,300	0,061	0,067
-166,081	37,832	0,067	-0,043
-165,066	-200,000	0,014	-0,074
-164,052	-18,769	0,027	-0,012
-163,037	104,995	0,060	-0,051
-162,023	-139,263	-0,069	-0,005
-161,008	-144,026	0,060	-0,004
-159,993	800,000	-0,044	0,096
-158,979	488,723	-0,038	-0,063
-157,964	-61,641	-0,094	-0,028
-156,950	-74,928	0,148	0,038
-155,935	147,143	-0,058	0,056
-154,920	800,000	-0,022	-0,052
-153,906	308,324	0,089	0,120
-152,891	-89,660	-0,052	0,011
-151,877	-47,906	0,192	-0,067
-150,862	211,992	-0,098	0,111
-149,847	-21,114	-0,050	0,022
-148,833	-200,000	-0,016	0,058
-147,818	-36,226	-0,054	0,021
-146,804	303,898	-0,083	0,111
-145,789	-200,000	0,006	0,045
-144,775	-200,000	-0,026	-0,086
-143,760	800,000	0,043	-0,106
-142,745	-152,379	-0,204	0,010
-141,731	-200,000	-0,001	-0,024
-140,716	-108,116	-0,067	-0,010
-139,702	-200,000	0,013	-0,165
-138,687	-139,774	0,155	0,012
-137,672	514,256	-0,040	-0,068
-136,658	-200,000	-0,004	-0,043
-135,643	800,000	-0,035	-0,101
-134,629	128,170	0,093	0,085
-133,614	263,441	0,067	-0,084
-132,599	-36,226	-0,011	-0,004
-131,585	335,611	0,052	-0,072
-130,570	177,569	-0,031	-0,033
-129,556	275,983	0,114	-0,145
-128,541	800,000	0,004	-0,007
-127,526	-100,143	-0,057	0,010
-126,512	1,289	0,148	-0,076
-125,497	800,000	-0,044	-0,112
-124,483	68,810	-0,091	0,067
-123,468	150,044	0,057	0,055
-122,453	155,492	-0,022	0,022
-121,439	800,000	-0,064	-0,175
-120,424	147,405	-0,050	0,049
