DTS Sentinel unit serial number:	SN410029Multiplexer serial number:	ORYXHardware model number:	OX2-SRSoftware version number:	ORYX F/W v4,00 Oryx Data Collector v3.7.2.0data status	okinstallation	B6 Nyhavnadifferential loss correction	single-endedforward channel	channel 2reverse channel	N/Adate	2023/12/09time	14:05:08forward acquisition time	300,00reverse acquisition time	0,00gamma	499,1914k internal	0,3134k external	0,3134temperature offset calibration	1,0000default loss term (dB/km)	0,3820temperature slope calibration	1,0000multiplexer offset coefficient	1,0000multiplexer slope coefficient	1,0000fibre end	0,00T internal ref (°C)	20,44T ext. ref 1 (°C)	4,34T ext. ref 2 (°C)	4,36length (m)	temperature (°C)	Stokes	anti-Stokes-744,400	273,868	0,076	0,100
-743,385	-196,079	-0,341	0,002
-742,371	-30,639	0,155	0,065
-741,356	-79,065	-0,223	0,056
-740,342	-129,453	0,136	-0,014
-739,327	-29,214	-0,270	0,114
-738,312	-200,000	0,036	-0,138
-737,298	-29,027	-0,245	0,104
-736,283	800,000	-0,018	0,047
-735,269	-189,777	-0,222	0,002
-734,254	-200,000	-0,020	-0,071
-733,239	-53,232	-0,381	-0,129
-732,225	-168,510	0,100	0,003
-731,210	92,899	0,051	0,043
-730,196	311,289	-0,051	-0,071
-729,181	-101,652	-0,076	-0,014
-728,167	194,297	-0,075	-0,084
-727,152	-200,000	-0,009	-0,059
-726,137	-79,455	-0,050	-0,012
-725,123	-96,994	0,065	0,013
-724,108	441,908	-0,060	-0,098
-723,094	-120,884	0,075	-0,009
-722,079	-3,315	-0,061	0,031
-721,064	-119,187	-0,071	-0,009
-720,050	57,547	0,082	-0,060
-719,035	-45,887	0,040	-0,015
-718,021	-27,851	0,099	0,043
-717,006	89,134	-0,049	-0,040
-715,991	28,797	-0,063	-0,040
-714,977	-42,027	0,081	0,031
-713,962	54,857	-0,098	0,070
-712,948	-200,000	-0,018	-0,075
-711,933	-55,097	-0,077	-0,026
-710,918	-26,097	-0,132	-0,057
-709,904	-50,801	-0,130	-0,045
-708,889	97,772	0,040	0,034
-707,875	800,000	-0,027	-0,073
-706,860	-54,234	0,071	0,024
-705,845	-72,574	-0,157	-0,043
-704,831	800,000	0,024	-0,060
-703,816	-93,326	-0,067	-0,014
-702,802	-15,696	-0,036	-0,017
-701,787	637,843	0,038	0,072
-700,772	800,000	-0,019	0,040
-699,758	-200,000	0,000	-0,078
-698,743	-21,070	0,057	0,026
-697,729	-200,000	0,013	0,065
-696,714	-200,000	0,019	-0,136
-695,699	-110,498	0,070	0,011
-694,685	172,337	-0,108	-0,115
-693,670	755,947	-0,024	-0,049
-692,656	20,848	0,100	0,060
-691,641	330,790	0,089	0,127
-690,627	321,343	0,092	0,130
-689,612	-7,169	-0,066	0,033
-688,597	460,899	-0,007	-0,011
-687,583	287,230	0,103	0,138
-686,568	-92,251	-0,206	0,043
-685,554	-135,369	-0,148	0,013
-684,539	161,381	0,053	0,055
-683,524	-65,354	0,076	0,022
-682,510	-156,428	-0,074	-0,003
-681,495	158,091	0,039	0,040
-680,481	-76,865	-0,081	-0,021
-679,466	-112,187	0,082	0,012
-678,451	-151,551	-0,094	-0,005
-677,437	800,000	0,052	0,128
-676,422	800,000	0,024	0,074
-675,408	108,974	-0,066	-0,059
-674,393	94,762	-0,133	-0,112
-673,378	246,569	-0,041	-0,052
-672,364	-151,829	-0,083	0,004
-671,349	800,000	-0,053	-0,119
-670,335	29,407	0,097	0,061
-669,320	180,239	-0,054	0,058
-668,305	317,153	-0,023	0,032
-667,291	800,000	0,012	-0,038
-666,276	-200,000	-0,008	0,039
-665,262	-124,273	0,062	-0,007
-664,247	-146,497	-0,117	-0,007
-663,232	64,725	0,032	-0,024
-662,218	800,000	0,026	-0,071
-661,203	-17,661	0,023	-0,010
-660,189	144,540	-0,056	0,056
-659,174	381,805	-0,053	-0,081
-658,159	-200,000	-0,014	-0,126
-657,145	635,282	-0,063	-0,118
-656,130	-200,000	-0,042	0,139
-655,116	-200,000	-0,011	0,055
-654,101	-137,227	0,099	-0,008
-653,086	120,822	0,031	-0,028
-652,072	-200,000	0,004	-0,027
-651,057	-30,340	-0,106	-0,045
-650,043	-200,000	0,011	-0,088
-649,028	800,000	0,043	-0,096
-648,014	-41,121	-0,017	-0,006
-646,999	500,141	-0,070	-0,119
-645,984	800,000	-0,007	0,021
-644,970	51,225	-0,042	0,030
-643,955	-93,595	-0,007	-0,002
-642,941	800,000	-0,079	-0,199
-641,926	-200,000	0,025	-0,108
-640,911	-92,572	0,131	0,027
-639,897	555,103	0,035	0,062
-638,882	-125,248	0,052	0,006
-637,868	88,642	0,060	0,049
-636,853	-193,598	-0,056	-0,000
-635,838	-84,325	-0,082	-0,019
-634,824	-48,605	0,042	-0,015
-633,809	91,992	0,074	-0,061
-632,795	-200,000	-0,018	0,092
-631,780	-48,965	0,106	0,037
-630,765	-200,000	0,003	0,043
-629,751	-200,000	-0,024	-0,096
-628,736	68,274	-0,125	-0,095
-627,722	236,727	-0,137	-0,167
-626,707	800,000	-0,025	0,062
-625,692	89,774	-0,076	-0,063
-624,678	145,147	0,135	-0,133
-623,663	-119,712	-0,186	-0,023
-622,649	-120,150	-0,087	-0,011
-621,634	680,699	0,015	0,030
-620,619	-200,000	-0,027	-0,112
-619,605	5,477	0,040	-0,022
-618,590	-200,000	-0,011	-0,261
-617,576	800,000	-0,025	0,063
-616,561	537,100	-0,032	0,056
-615,546	273,898	-0,018	0,024
-614,532	209,370	-0,028	-0,032
-613,517	256,742	0,008	-0,011
-612,503	-200,000	0,010	-0,121
-611,488	23,281	-0,124	-0,075
-610,474	-71,958	0,050	0,014
-609,459	8,444	-0,147	-0,081
-608,444	-200,000	-0,008	-0,054
-607,430	-65,700	-0,056	-0,017
-606,415	-200,000	-0,022	-0,144
-605,401	630,361	0,029	0,055
-604,386	800,000	-0,053	0,117
-603,371	-91,156	0,124	-0,026
-602,357	-111,317	-0,048	-0,007
-601,342	182,281	0,106	0,115
-600,328	-1,886	-0,084	-0,044
-599,313	-122,875	-0,033	0,004
-598,298	800,000	-0,048	0,147
-597,284	249,153	0,088	0,110
-596,269	800,000	0,037	0,079
-595,255	800,000	-0,031	-0,095
-594,240	-29,287	-0,037	0,016
-593,225	110,538	-0,061	0,054
-592,211	800,000	-0,016	0,036
-591,196	158,411	0,069	0,071
-590,182	-118,384	-0,146	0,019
-589,167	-200,000	-0,015	0,063
-588,152	454,105	0,056	0,093
-587,138	800,000	0,024	-0,061
-586,123	-55,356	-0,017	0,006
-585,109	72,252	-0,122	-0,094
-584,094	144,465	-0,084	0,083
-583,079	226,585	-0,106	0,128
-582,065	-132,003	0,070	0,007
-581,050	18,572	-0,078	0,046
-580,036	159,425	0,079	-0,081
-579,021	-200,000	0,005	-0,056
-578,006	-200,000	0,020	0,110
-576,992	24,984	-0,081	0,050
-575,977	800,000	0,007	0,022
-574,963	72,212	0,157	-0,121
-573,948	144,211	-0,070	0,069
-572,934	800,000	-0,007	0,018
-571,919	-21,790	0,064	0,029
-570,904	315,975	0,005	0,007
-569,890	4,171	-0,087	-0,047
-568,875	-54,590	0,147	0,049
-567,861	-132,427	0,032	0,003
-566,846	-200,000	-0,035	0,126
-565,831	71,213	-0,012	-0,010
-564,817	488,809	-0,036	-0,061
-563,802	-200,000	-0,023	-0,121
-562,788	152,999	0,084	-0,085
-561,773	-34,523	-0,109	0,044
-560,758	4,375	0,100	-0,054
-559,744	251,114	0,045	-0,056
-558,729	-200,000	0,019	-0,082
-557,715	-105,954	0,096	0,016
-556,700	-15,850	-0,054	-0,025
-555,685	263,655	-0,071	-0,091
-554,671	-200,000	0,015	-0,070
-553,656	58,531	0,067	0,049
-552,642	800,000	0,025	0,064
-551,627	187,675	-0,014	0,016
-550,612	-200,000	-0,016	-0,205
-549,598	151,646	-0,058	-0,059
-548,583	183,010	-0,067	-0,073
-547,569	800,000	-0,019	0,049
-546,554	128,175	0,111	-0,105
-545,539	82,076	0,166	-0,132
-544,525	372,751	-0,021	-0,031
-543,510	-69,047	0,051	-0,014
-542,496	-200,000	-0,014	-0,056
-541,481	87,106	-0,070	0,057
-540,466	-200,000	-0,003	-0,046
-539,452	-200,000	-0,009	0,149
-538,437	290,849	-0,099	0,133
-537,423	411,480	0,028	0,043
-536,408	-200,000	-0,003	0,047
-535,393	800,000	-0,058	-0,147
-534,379	-54,125	0,066	-0,022
-533,364	85,209	-0,072	-0,058
-532,350	-200,000	-0,003	0,047
-531,335	-0,516	-0,038	-0,020
-530,321	-155,897	0,066	0,003
-529,306	-200,000	-0,003	0,070
-528,291	30,997	0,019	-0,012
-527,277	-138,496	0,007	-0,001
-526,262	800,000	0,035	-0,079
-525,248	-89,605	0,074	-0,016
-524,233	263,316	-0,022	0,029
-523,218	423,637	0,044	0,070
-522,204	-13,616	-0,073	0,035
-521,189	-3,697	-0,054	-0,028
-520,175	-111,348	0,060	-0,009
-519,160	800,000	-0,023	-0,048
-518,145	-200,000	0,029	-0,153
-517,131	284,965	-0,043	0,057
-516,116	-152,617	-0,129	0,007
-515,102	-200,000	0,006	0,144
-514,087	65,060	-0,030	-0,023
-513,072	-38,721	0,097	-0,038
-512,058	-82,739	0,138	-0,033
-511,043	-21,724	0,061	-0,027
-510,029	-200,000	-0,009	0,110
-509,014	-200,000	-0,077	0,000
-507,999	676,379	0,042	0,080
-506,985	339,313	0,066	-0,094
-505,970	305,354	-0,045	-0,062
-504,956	-94,923	0,075	-0,015
-503,941	214,664	-0,087	0,101
-502,926	-75,880	0,008	0,002
-501,912	800,000	0,085	-0,222
-500,897	-200,000	-0,004	0,032
-499,883	231,301	0,086	-0,104
-498,868	27,532	-0,221	-0,137
-497,853	-200,000	0,004	-0,057
-496,839	-200,000	-0,011	-0,056
-495,824	-200,000	0,001	0,086
-494,810	167,614	0,036	-0,037
-493,795	2,769	0,123	0,066
-492,781	62,207	-0,127	-0,093
-491,766	200,756	0,077	-0,087
-490,751	258,205	0,059	-0,075
-489,737	25,555	-0,126	-0,077
-488,722	-33,054	0,101	-0,041
-487,708	-200,000	-0,008	0,068
-486,693	-200,000	-0,010	0,061
-485,678	195,997	0,107	0,120
-484,664	687,341	-0,039	0,075
-483,649	800,000	-0,022	-0,065
-482,635	-166,043	0,063	0,002
-481,620	800,000	-0,017	0,047
-480,605	29,567	0,079	-0,050
-479,591	268,013	-0,057	0,074
-478,576	-130,694	0,142	0,014
-477,562	-114,741	0,052	-0,007
-476,547	-108,513	-0,194	-0,030
-475,532	389,363	0,114	-0,174
-474,518	-200,000	-0,002	-0,098
-473,503	-37,321	0,110	0,043
-472,489	-200,000	-0,002	0,063
-471,474	10,940	-0,078	0,044
-470,459	-200,000	-0,017	0,081
-469,445	800,000	-0,023	0,074
-468,430	72,827	-0,033	-0,026
-467,416	-46,669	0,122	0,044
-466,401	276,899	-0,079	0,104
-465,386	-35,493	0,134	0,053
-464,372	87,336	0,024	0,019
-463,357	510,006	0,057	-0,098
-462,343	-144,980	-0,054	-0,004
-461,328	-81,076	-0,072	0,017
-460,313	800,000	0,027	-0,076
-459,299	190,339	0,119	0,131
-458,284	-200,000	0,002	-0,038
-457,270	87,610	0,096	0,078
-456,255	800,000	-0,068	-0,146
-455,241	6,786	-0,063	-0,034
-454,226	-11,548	-0,034	-0,017
-453,211	121,359	-0,082	0,075
-452,197	18,873	0,194	0,114
-451,182	-70,789	0,063	-0,017
-450,168	119,407	-0,038	-0,035
-449,153	-200,000	-0,031	-0,101
-448,138	-78,963	-0,027	0,007
-447,124	94,035	-0,165	-0,138
-446,109	792,289	0,013	0,026
-445,095	86,157	0,156	-0,126
-444,080	800,000	-0,035	0,074
-443,065	-58,392	0,021	-0,007
-442,051	17,012	0,049	0,028
-441,036	800,000	0,034	-0,099
-440,022	-51,779	-0,099	0,034
-439,007	90,511	-0,034	-0,028
-437,992	61,655	0,049	-0,035
-436,978	417,606	-0,043	0,068
-435,963	-107,036	-0,157	0,025
-434,949	264,212	-0,015	0,020
-433,934	-200,000	-0,000	0,084
-432,919	-200,000	0,014	-0,101
-431,905	-200,000	-0,006	-0,036
-430,890	-89,824	0,099	0,021
-429,876	97,713	0,078	-0,066
-428,861	800,000	0,021	-0,061
-427,846	238,866	-0,055	-0,068
-426,832	-84,389	-0,065	0,015
-425,817	-200,000	0,016	-0,067
-424,803	800,000	-0,017	0,045
-423,788	128,830	-0,044	-0,041
-422,773	537,668	-0,038	0,066
-421,759	-21,881	-0,123	0,055
-420,744	102,855	-0,024	0,021
-419,730	353,540	-0,055	0,080
-418,715	-200,000	0,012	-0,073
-417,701	800,000	-0,045	0,107
-416,686	-200,000	-0,003	0,120
-415,671	800,000	0,018	0,054
-414,657	82,457	0,040	-0,032
-413,642	-125,026	0,093	0,010
-412,628	136,545	0,045	-0,043
-411,613	-200,000	-0,023	-0,110
-410,598	800,000	-0,030	-0,062
-409,584	-134,569	-0,043	-0,004
-408,569	-28,263	-0,042	-0,017
-407,555	-200,000	-0,005	0,134
-406,540	20,180	0,101	0,060
-405,525	36,331	0,078	-0,051
-404,511	800,000	-0,027	-0,062
-403,496	383,572	0,061	-0,092
-402,482	782,752	0,054	0,108
-401,467	-200,000	0,002	0,169
-400,452	272,710	0,018	0,023
-399,438	-94,928	0,144	0,028
-398,423	-83,509	-0,128	0,030
-397,409	166,657	0,092	0,096
-396,394	272,906	-0,069	-0,089
-395,379	-200,000	-0,036	-0,139
-394,365	-200,000	-0,002	0,039
-393,350	632,756	0,094	-0,176
-392,336	800,000	0,020	0,050
-391,321	-200,000	-0,009	-0,085
-390,306	80,282	-0,088	-0,070
-389,292	217,436	-0,011	-0,013
-388,277	-91,956	0,195	0,040
-387,263	205,161	0,015	0,017
-386,248	800,000	-0,032	-0,081
-385,233	730,183	0,021	0,042
-384,219	142,323	-0,065	-0,063
-383,204	-118,031	-0,187	-0,024
-382,190	122,686	-0,075	-0,069
-381,175	159,237	-0,075	0,076
-380,160	-164,185	-0,036	0,001
-379,146	-24,706	0,042	0,018
-378,131	800,000	0,025	0,054
-377,117	-79,947	-0,091	0,022
-376,102	720,624	0,038	-0,074
-375,088	-25,380	-0,076	0,033
-374,073	-200,000	-0,024	0,094
-373,058	730,216	0,033	0,065
-372,044	94,127	0,062	-0,052
-371,029	305,552	0,120	0,164
-370,015	800,000	0,034	-0,089
-369,000	-200,000	-0,030	-0,107
-367,985	800,000	-0,023	-0,065
-366,971	-200,000	-0,002	-0,139
-365,956	-17,675	-0,080	0,037
-364,942	-132,206	0,053	0,005
-363,927	68,973	-0,068	-0,051
-362,912	369,604	-0,039	-0,057
-361,898	5,310	-0,127	0,068
-360,883	-200,000	-0,039	-0,143
-359,869	-200,000	-0,029	0,124
-358,854	315,179	0,123	-0,171
-357,839	107,628	0,057	-0,050
-356,825	192,750	0,052	0,057
-355,810	51,034	-0,164	0,114
-354,796	-46,894	-0,032	0,012
-353,781	-200,000	0,000	-0,056
-352,766	800,000	-0,013	-0,037
-351,752	-200,000	0,015	0,050
-350,737	800,000	0,011	0,034
-349,723	543,729	-0,015	-0,026
-348,708	334,910	0,080	0,113
-347,693	-200,000	0,025	0,105
-346,679	-200,000	-0,006	-0,103
-345,664	-186,431	-0,126	0,001
-344,650	-179,425	-0,194	-0,003
-343,635	79,559	0,039	-0,030
-342,620	60,010	-0,077	0,056
-341,606	-200,000	0,005	0,051
-340,591	-200,000	-0,012	0,051
-339,577	800,000	-0,043	-0,100
-338,562	-200,000	0,025	-0,143
-337,548	-200,000	-0,021	0,108
-336,533	800,000	-0,015	-0,048
-335,518	421,172	0,043	0,067
-334,504	135,083	0,021	-0,020
-333,489	34,710	-0,070	0,045
-332,475	107,788	0,106	-0,092
-331,460	-101,983	0,094	0,016
-330,445	290,668	-0,081	-0,108
-329,431	-81,107	0,045	0,011
-328,416	-15,049	0,131	0,061
-327,402	-85,193	-0,145	-0,033
-326,387	800,000	0,028	0,066
-325,372	198,177	-0,015	0,017
-324,358	-1,800	-0,136	-0,070
-323,343	121,067	0,065	-0,059
-322,329	99,873	0,060	-0,051
-321,314	128,134	-0,030	0,028
-320,299	-29,323	0,153	0,064
-319,285	-200,000	0,038	-0,172
-318,270	70,589	0,163	-0,123
-317,256	170,872	-0,039	0,041
-316,241	233,826	0,041	-0,050
-315,226	-200,000	-0,001	0,134
-314,212	-58,378	0,114	-0,036
-313,197	24,019	-0,079	0,048
-312,183	-200,000	0,007	-0,103
-311,168	-200,000	0,032	0,153
-310,153	-57,295	-0,120	-0,038
-309,139	-200,000	-0,009	-0,032
-308,124	-200,000	0,026	0,145
-307,110	-194,312	0,095	-0,001
-306,095	800,000	0,064	0,141
-305,080	800,000	0,030	-0,092
-304,066	244,661	-0,097	0,119
-303,051	-88,617	0,059	-0,013
-302,037	0,397	-0,126	0,066
-301,022	0,131	-0,036	0,019
-300,008	505,742	0,093	-0,158
-298,993	282,327	0,043	0,056
-297,978	288,295	-0,103	0,136
-296,964	-200,000	0,000	0,051
-295,949	800,000	-0,011	0,033
-294,935	-72,903	-0,084	0,022
-293,920	585,009	0,011	-0,020
-292,905	-9,750	-0,084	-0,041
-291,891	243,605	0,140	0,171
-290,876	-183,974	-0,082	-0,001
-289,862	-37,400	-0,089	0,035
-288,847	319,912	-0,052	-0,073
-287,832	-52,016	-0,040	0,013
-286,818	72,193	0,142	0,108
-285,803	-200,000	0,004	0,092
-284,789	-53,933	0,158	-0,052
-283,774	179,698	0,070	0,075
-282,759	401,540	0,062	0,096
-281,745	165,419	-0,083	-0,086
-280,730	800,000	0,061	-0,146
-279,716	136,998	0,037	0,035
-278,701	800,000	0,062	0,142
-277,686	37,707	-0,034	-0,022
-276,672	800,000	0,029	0,082
-275,657	-175,817	-0,108	-0,002
-274,643	60,480	-0,113	-0,081
-273,628	483,005	-0,092	0,154
-272,613	41,667	0,053	0,035
-271,599	-200,000	0,027	0,144
-270,584	-200,000	0,014	0,211
-269,570	-97,761	0,021	0,004
-268,555	-163,913	-0,052	-0,002
-267,540	-6,835	0,054	0,027
-266,526	-77,323	-0,232	-0,058
-265,511	69,750	0,021	-0,015
-264,497	11,574	0,065	-0,036
-263,482	-200,000	0,053	0,179
-262,467	0,608	-0,116	0,060
-261,453	800,000	-0,066	0,190
-260,438	-83,556	-0,025	-0,006
-259,424	125,565	0,082	-0,075
-258,409	-137,142	0,073	-0,006
-257,395	-200,000	-0,000	0,025
-256,380	133,839	0,099	-0,094
-255,365	-72,536	0,033	-0,009
-254,351	-155,215	0,081	-0,004
-253,336	800,000	0,046	-0,132
-252,322	-3,582	-0,094	-0,047
-251,307	-115,017	-0,061	0,008
-250,292	-15,013	-0,139	0,065
-249,278	-57,550	0,127	0,040
-248,263	37,406	0,134	0,086
-247,249	12,417	0,076	-0,043
-246,234	179,303	-0,075	-0,080
-245,219	385,431	-0,019	0,029
-244,205	-66,797	0,055	-0,016
-243,190	-200,000	-0,015	0,058
-242,176	-162,510	0,067	-0,002
-241,161	-36,831	-0,109	0,043
-240,146	85,507	0,174	0,140
-239,132	-200,000	0,026	0,098
-238,117	-63,030	0,095	0,028
-237,103	800,000	-0,036	0,087
-236,088	215,730	-0,101	0,117
-235,073	800,000	-0,042	0,110
-234,059	743,297	-0,026	-0,050
-233,044	-25,846	0,054	-0,023
-232,030	800,000	-0,028	0,058
-231,015	-200,000	-0,002	-0,100
-230,000	47,484	-0,118	0,080
-228,986	-82,602	0,067	0,016
-227,971	160,006	0,023	0,023
-226,957	221,795	0,093	0,109
-225,942	-200,000	-0,011	-0,040
-224,927	-158,806	-0,030	-0,001
-223,913	600,018	0,032	-0,057
-222,898	-200,000	0,034	-0,113
-221,884	-56,867	0,109	-0,035
-220,869	27,713	0,097	-0,059
-219,855	248,784	0,046	0,056
-218,840	270,859	0,039	-0,050
-217,825	-200,000	-0,034	0,131
-216,811	148,961	-0,089	0,088
-215,796	274,352	-0,038	0,049
-214,782	15,336	0,152	0,087
-213,767	-143,327	-0,214	-0,015
-212,752	-124,546	0,163	0,018
-211,738	800,000	-0,027	0,061
-210,723	-58,732	0,072	0,022
-209,709	-147,440	0,132	-0,008
-208,694	-147,235	-0,025	-0,002
-207,679	72,103	0,089	0,067
-206,665	-200,000	-0,016	-0,055
-205,650	-200,000	0,008	-0,026
-204,636	-200,000	0,031	0,169
-203,621	-118,764	-0,110	0,014
-202,606	800,000	0,021	-0,057
-201,592	-78,539	-0,059	0,015
-200,577	-200,000	0,009	-0,083
-199,563	-200,000	0,015	0,082
-198,548	150,401	-0,047	-0,046
-197,533	-128,680	0,122	0,012
-196,519	-92,359	-0,047	-0,010
-195,504	200,595	-0,067	0,074
-194,490	181,466	0,071	-0,076
-193,475	94,017	0,046	-0,038
-192,460	26,162	-0,053	-0,032
-191,446	563,652	0,057	-0,101
-190,431	800,000	-0,021	-0,054
-189,417	133,391	0,082	-0,077
-188,402	169,129	-0,014	-0,014
-187,387	-4,317	-0,122	-0,061
-186,373	-200,000	-0,019	-0,066
-185,358	-200,000	-0,004	0,033
-184,344	800,000	0,020	0,054
-183,329	119,551	0,151	0,136
-182,315	800,000	-0,027	0,068
-181,300	4,429	-0,010	0,005
-180,285	800,000	-0,016	0,034
-179,271	438,795	-0,109	-0,173
-178,256	67,047	0,072	-0,053
-177,242	220,056	-0,056	0,066
-176,227	-200,000	0,023	0,097
-175,212	-200,000	-0,015	-0,051
-174,198	-200,000	0,049	0,175
-173,183	288,200	0,056	-0,074
-172,169	800,000	-0,033	-0,068
-171,154	132,270	-0,043	0,040
-170,139	696,505	0,073	0,141
-169,125	-200,000	-0,029	0,105
-168,110	-158,757	-0,067	-0,003
-167,096	129,294	-0,123	0,114
-166,081	2,611	-0,072	-0,038
-165,066	-57,855	-0,140	-0,044
-164,052	377,289	0,031	-0,047
-163,037	208,329	0,122	-0,138
-162,023	-83,369	-0,088	0,020
-161,008	71,059	0,046	-0,035
-159,993	-200,000	0,012	0,112
-158,979	-194,525	-0,076	0,000
-157,964	554,585	-0,068	-0,120
-156,950	800,000	-0,022	-0,051
-155,935	168,540	0,034	0,035
-154,920	292,464	0,095	0,126
-153,906	-200,000	0,008	-0,082
-152,891	583,255	0,028	-0,050
-151,877	187,340	-0,055	-0,060
-150,862	270,617	-0,049	-0,063
-149,847	-79,334	-0,200	0,049
-148,833	58,315	0,083	0,059
-147,818	-200,000	0,020	0,113
-146,804	-125,746	0,138	-0,015
-145,789	738,268	-0,093	0,182
-144,775	451,421	-0,045	-0,072
-143,760	-54,533	0,097	0,032
-142,745	489,602	-0,066	-0,110
-141,731	-200,000	-0,007	-0,073
-140,716	-108,372	0,173	-0,027
-139,702	800,000	-0,062	-0,128
-138,687	428,140	0,031	0,049
-137,672	-200,000	-0,025	0,091
-136,658	-200,000	-0,001	-0,124
-135,643	109,188	-0,098	-0,085
-134,629	-200,000	0,017	0,071
-133,614	-120,509	-0,064	0,008
-132,599	-135,778	0,185	-0,016
-131,585	214,138	-0,106	-0,122
-130,570	85,086	-0,069	-0,055
-129,556	701,843	-0,072	-0,137
-128,541	800,000	-0,060	-0,126
-127,526	-22,801	-0,093	0,041
-126,512	800,000	0,044	-0,127
-125,497	183,968	0,060	0,064
-124,483	216,377	0,062	0,072
-123,468	-74,705	-0,137	-0,035
-122,453	-200,000	-0,000	0,045
-121,439	-200,000	-0,007	0,064
-120,424	170,675	0,075	-0,078
-119,410	-65,228	-0,019	-0,006
