DTS Sentinel unit serial number:	SN410029Multiplexer serial number:	ORYXHardware model number:	OX2-SRSoftware version number:	ORYX F/W v4,00 Oryx Data Collector v3.7.2.0data status	okinstallation	B6 Nyhavnadifferential loss correction	single-endedforward channel	channel 2reverse channel	N/Adate	2023/12/11time	06:30:08forward acquisition time	300,00reverse acquisition time	0,00gamma	499,1914k internal	0,3126k external	0,3126temperature offset calibration	1,0000default loss term (dB/km)	0,3820temperature slope calibration	1,0000multiplexer offset coefficient	1,0000multiplexer slope coefficient	1,0000fibre end	0,00T internal ref (°C)	19,52T ext. ref 1 (°C)	2,65T ext. ref 2 (°C)	2,67length (m)	temperature (°C)	Stokes	anti-Stokes-744,400	515,992	-0,026	0,045
-743,385	-99,596	-0,178	-0,033
-742,371	-2,063	0,141	0,073
-741,356	800,000	-0,156	0,341
-740,342	800,000	0,008	0,020
-739,327	2,421	-0,350	0,188
-738,312	177,986	-0,015	0,017
-737,298	-16,585	-0,195	0,092
-736,283	88,338	0,100	0,083
-735,269	16,852	-0,148	0,087
-734,254	-136,700	0,046	-0,004
-733,239	-143,010	-0,432	-0,031
-732,225	117,188	0,165	0,151
-731,210	97,831	-0,088	-0,076
-730,196	800,000	0,022	-0,059
-729,181	800,000	0,112	-0,232
-728,167	109,240	0,098	-0,087
-727,152	-200,000	0,000	0,053
-726,137	-3,754	-0,125	-0,064
-725,123	181,992	-0,035	0,038
-724,108	-162,227	-0,054	-0,002
-723,094	-81,419	-0,132	-0,032
-722,079	-159,097	0,084	-0,003
-721,064	-108,784	0,122	0,019
-720,050	800,000	-0,066	-0,151
-719,035	-107,771	-0,053	0,008
-718,021	-117,171	0,154	-0,021
-717,006	-17,879	-0,163	-0,076
-715,991	-200,000	-0,014	-0,140
-714,977	-7,897	0,097	-0,049
-713,962	-200,000	-0,012	-0,146
-712,948	-200,000	-0,006	-0,039
-711,933	800,000	-0,072	-0,157
-710,918	-52,568	-0,086	-0,029
-709,904	21,449	-0,032	-0,019
-708,889	800,000	-0,044	-0,128
-707,875	173,325	0,039	0,041
-706,860	-200,000	0,008	0,038
-705,845	-200,000	0,025	-0,129
-704,831	-103,128	0,047	0,008
-703,816	32,918	0,115	-0,074
-702,802	442,636	-0,106	-0,173
-701,787	135,993	-0,081	-0,079
-700,772	-83,698	-0,175	0,041
-699,758	-200,000	0,028	-0,190
-698,743	681,470	0,029	-0,057
-697,729	191,755	-0,062	-0,069
-696,714	-71,127	0,045	-0,013
-695,699	-200,000	0,009	0,076
-694,685	-47,768	0,072	0,026
-693,670	15,379	-0,085	0,049
-692,656	49,076	0,087	0,061
-691,641	93,102	0,046	-0,039
-690,627	800,000	0,023	0,074
-689,612	440,610	0,099	-0,161
-688,597	-200,000	-0,009	0,086
-687,583	-200,000	-0,019	-0,183
-686,568	713,382	-0,087	-0,172
-685,554	-200,000	-0,028	-0,131
-684,539	209,636	-0,035	-0,041
-683,524	285,458	0,082	-0,110
-682,510	504,138	-0,062	0,108
-681,495	800,000	-0,049	-0,103
-680,481	-200,000	-0,014	-0,122
-679,466	-28,594	-0,034	-0,015
-678,451	-90,250	-0,002	0,000
-677,437	-35,738	-0,120	-0,048
-676,422	800,000	0,033	-0,104
-675,408	-95,053	0,069	0,014
-674,393	78,932	0,013	0,010
-673,378	800,000	0,056	-0,143
-672,364	194,303	-0,144	-0,162
-671,349	-200,000	0,001	-0,045
-670,335	-6,172	-0,055	0,028
-669,320	150,255	0,110	-0,110
-668,305	170,042	-0,093	0,099
-667,291	567,224	0,040	0,072
-666,276	-20,383	-0,047	0,022
-665,262	42,837	-0,172	-0,116
-664,247	87,037	0,094	-0,077
-663,232	145,829	-0,057	-0,057
-662,218	800,000	0,035	0,108
-661,203	52,955	0,071	0,051
-660,189	-200,000	0,014	0,053
-659,174	-146,440	0,005	-0,000
-658,159	148,818	-0,011	0,011
-657,145	-142,780	-0,166	0,012
-656,130	443,017	-0,054	-0,089
-655,116	140,708	0,044	0,043
-654,101	-98,035	-0,050	-0,009
-653,086	-106,911	0,051	-0,008
-652,072	698,545	0,037	-0,073
-651,057	371,483	-0,068	-0,103
-650,043	244,481	0,046	0,058
-649,028	800,000	0,062	-0,169
-648,014	-200,000	-0,006	0,065
-646,999	-200,000	0,015	0,054
-645,984	800,000	-0,035	0,075
-644,970	1,958	-0,107	-0,057
-643,955	148,318	-0,057	-0,057
-642,941	-200,000	-0,044	-0,211
-641,926	638,674	-0,060	-0,114
-640,911	-200,000	0,021	-0,071
-639,897	231,537	-0,036	0,044
-638,882	800,000	0,017	-0,040
-637,868	-48,420	0,037	0,013
-636,853	471,917	-0,118	-0,197
-635,838	-114,389	-0,096	-0,014
-634,824	706,099	-0,046	0,090
-633,809	562,008	-0,043	0,078
-632,795	-151,686	-0,002	0,000
-631,780	-131,525	0,075	0,007
-630,765	-13,164	0,089	-0,043
-629,751	800,000	0,020	-0,058
-628,736	-200,000	0,008	-0,156
-627,722	800,000	0,031	-0,068
-626,707	303,684	0,010	0,013
-625,692	-73,220	-0,106	0,029
-624,678	-80,284	0,070	0,017
-623,663	143,172	-0,078	0,077
-622,649	228,595	-0,042	-0,050
-621,634	-200,000	-0,001	-0,057
-620,619	-81,064	-0,084	-0,020
-619,605	800,000	0,022	0,047
-618,590	636,578	-0,053	0,101
-617,576	-124,974	-0,060	0,007
-616,561	-12,536	0,015	0,007
-615,546	-30,408	-0,115	-0,048
-614,532	800,000	0,057	-0,122
-613,517	167,968	-0,108	-0,114
-612,503	283,697	0,049	0,066
-611,488	-200,000	-0,018	0,144
-610,474	-200,000	-0,022	0,073
-609,459	146,163	0,089	-0,089
-608,444	316,579	-0,093	-0,131
-607,430	111,795	-0,085	0,076
-606,415	25,654	-0,053	0,033
-605,401	322,248	-0,047	0,066
-604,386	-196,418	-0,027	-0,000
-603,371	800,000	0,071	0,157
-602,357	-109,018	-0,032	0,005
-601,342	84,126	-0,020	0,016
-600,328	397,677	-0,124	-0,192
-599,313	-36,798	-0,046	-0,018
-598,298	475,779	0,087	-0,147
-597,284	-200,000	-0,013	0,054
-596,269	373,539	-0,006	0,009
-595,255	61,069	-0,022	-0,016
-594,240	-200,000	0,028	-0,172
-593,225	311,265	-0,063	-0,088
-592,211	61,529	-0,063	-0,046
-591,196	20,596	0,048	-0,029
-590,182	-121,095	0,019	0,002
-589,167	-110,215	0,032	-0,005
-588,152	-143,848	0,040	0,003
-587,138	-106,455	-0,104	-0,017
-586,123	-200,000	-0,027	-0,124
-585,109	33,669	-0,010	-0,007
-584,094	327,090	0,047	-0,067
-583,079	-3,568	-0,104	-0,053
-582,065	-49,816	0,150	0,053
-581,050	800,000	0,073	0,162
-580,036	800,000	-0,051	0,114
-579,021	-40,135	-0,142	-0,054
-578,006	800,000	-0,012	0,025
-576,992	611,178	0,060	-0,111
-575,977	4,479	-0,023	0,012
-574,963	130,515	0,051	0,048
-573,948	800,000	-0,036	-0,075
-572,934	196,702	-0,036	0,041
-571,919	-67,681	-0,176	-0,051
-570,904	508,463	-0,050	-0,086
-569,890	55,423	-0,011	-0,008
-568,875	245,932	-0,057	-0,071
-567,861	431,068	0,062	0,099
-566,846	-28,537	-0,073	0,031
-565,831	-200,000	-0,015	0,084
-564,817	125,326	-0,107	0,100
-563,802	800,000	0,006	0,012
-562,788	800,000	-0,021	0,065
-561,773	-200,000	0,000	0,077
-560,758	800,000	0,028	-0,062
-559,744	84,302	-0,037	-0,030
-558,729	140,605	-0,110	0,108
-557,715	421,027	-0,044	-0,069
-556,700	-10,616	0,111	-0,054
-555,685	-200,000	0,003	0,058
-554,671	-200,000	-0,011	0,082
-553,656	694,881	-0,017	0,033
-552,642	-200,000	0,013	-0,041
-551,627	7,723	-0,056	0,031
-550,612	-200,000	0,004	-0,079
-549,598	70,211	-0,040	0,031
-548,583	-200,000	-0,018	0,079
-547,569	191,456	-0,039	-0,044
-546,554	-200,000	0,012	-0,093
-545,539	800,000	-0,018	-0,060
-544,525	-200,000	0,004	0,064
-543,510	-79,505	-0,151	-0,037
-542,496	29,783	0,039	-0,024
-541,481	800,000	-0,031	-0,064
-540,466	266,109	-0,108	-0,140
-539,452	-200,000	0,005	0,064
-538,437	-110,488	0,113	0,017
-537,423	-200,000	-0,041	0,135
-536,408	26,690	0,036	0,022
-535,393	800,000	-0,054	0,175
-534,379	-200,000	-0,017	0,124
-533,364	-200,000	-0,021	-0,104
-532,350	297,087	-0,033	-0,045
-531,335	-200,000	-0,023	0,124
-530,321	359,933	0,067	-0,099
-529,306	371,295	-0,077	-0,116
-528,291	11,633	-0,094	-0,053
-527,277	-200,000	0,047	-0,181
-526,262	-200,000	-0,020	0,134
-525,248	101,097	-0,066	0,056
-524,233	-45,592	0,131	0,048
-523,218	-200,000	-0,012	0,178
-522,204	800,000	-0,061	0,138
-521,189	-108,574	-0,108	-0,017
-520,175	-200,000	-0,091	0,000
-519,160	-200,000	0,004	-0,105
-518,145	259,653	-0,062	0,080
-517,131	-200,000	-0,030	-0,137
-516,116	-79,037	-0,038	-0,009
-515,102	800,000	0,017	0,039
-514,087	-200,000	-0,010	-0,058
-513,072	660,444	-0,048	0,091
-512,058	110,804	0,102	0,091
-511,043	-200,000	-0,011	-0,139
-510,029	349,611	0,093	0,135
-509,014	147,054	0,013	0,013
-507,999	800,000	0,020	-0,057
-506,985	-200,000	-0,010	-0,069
-505,970	-68,064	-0,149	-0,043
-504,956	47,659	0,022	-0,015
-503,941	-52,402	-0,057	0,019
-502,926	-22,638	-0,026	0,012
-501,912	-9,614	-0,035	0,017
-500,897	348,224	0,072	-0,105
-499,883	-200,000	-0,019	-0,140
-498,868	151,750	0,040	0,040
-497,853	352,312	0,036	0,053
-496,839	95,523	-0,031	-0,026
-495,824	-144,778	0,057	0,004
-494,810	-200,000	0,007	0,104
-493,795	800,000	0,026	0,058
-492,781	-152,010	-0,123	-0,007
-491,766	-44,197	0,036	0,013
-490,751	800,000	0,059	-0,174
-489,737	672,804	0,035	-0,067
-488,722	-200,000	0,016	0,178
-487,708	207,318	0,136	-0,157
-486,693	58,055	-0,039	0,028
-485,678	168,046	-0,033	-0,034
-484,664	-200,000	0,002	0,028
-483,649	-200,000	0,003	0,058
-482,635	24,015	-0,067	-0,041
-481,620	-200,000	-0,007	0,094
-480,605	463,512	0,096	-0,159
-479,591	-200,000	-0,002	0,013
-478,576	-70,802	-0,108	-0,030
-477,562	-13,519	0,082	-0,039
-476,547	-200,000	-0,002	0,069
-475,532	206,015	0,076	0,088
-474,518	-48,024	0,049	0,017
-473,503	-14,718	0,072	0,034
-472,489	-117,857	0,153	0,020
-471,474	-200,000	-0,002	-0,020
-470,459	800,000	-0,040	0,084
-469,445	294,449	0,089	-0,120
-468,430	-139,463	0,085	-0,007
-467,416	-126,995	0,116	0,012
-466,401	122,743	0,099	0,091
-465,386	-200,000	-0,003	-0,148
-464,372	284,837	-0,134	-0,178
-463,357	-48,292	-0,047	0,016
-462,343	17,470	0,029	0,017
-461,328	302,079	-0,055	0,076
-460,313	-37,575	0,049	-0,019
-459,299	41,456	0,138	0,092
-458,284	-200,000	0,000	0,071
-457,270	-200,000	-0,037	-0,153
-456,255	-200,000	-0,031	-0,112
-455,241	-200,000	-0,003	-0,044
-454,226	547,840	-0,011	0,019
-453,211	9,469	0,131	0,073
-452,197	-104,362	0,106	0,018
-451,182	-127,251	0,119	0,013
-450,168	56,347	0,100	-0,072
-449,153	472,974	0,060	-0,100
-448,138	11,605	-0,092	-0,052
-447,124	-65,858	0,019	-0,006
-446,109	67,675	-0,057	0,043
-445,095	-76,882	0,155	0,040
-444,080	-38,299	-0,044	-0,017
-443,065	56,784	0,193	0,138
-442,051	85,819	0,021	0,017
-441,036	-47,030	-0,100	0,036
-440,022	209,627	-0,104	-0,120
-439,007	48,559	0,117	-0,081
-437,992	-75,396	0,095	-0,025
-436,978	-30,521	-0,090	0,037
-435,963	-200,000	-0,012	-0,062
-434,949	-200,000	-0,021	-0,125
-433,934	-200,000	0,011	-0,148
-432,919	89,737	-0,130	-0,106
-431,905	-200,000	0,013	-0,127
-430,890	777,074	0,048	0,097
-429,876	-105,689	0,091	-0,015
-428,861	304,135	-0,043	-0,059
-427,846	-200,000	0,001	0,037
-426,832	-200,000	0,023	-0,104
-425,817	-65,056	-0,133	-0,039
-424,803	-57,511	-0,072	0,023
-423,788	-198,885	-0,089	-0,000
-422,773	800,000	0,013	0,029
-421,759	791,393	0,029	0,060
-420,744	71,574	0,044	-0,034
-419,730	800,000	0,019	-0,047
-418,715	517,718	0,025	0,043
-417,701	-200,000	0,006	-0,027
-416,686	393,739	-0,021	0,033
-415,671	-200,000	0,005	0,050
-414,657	-200,000	-0,006	-0,022
-413,642	-48,690	0,108	0,038
-412,628	-26,966	-0,137	-0,058
-411,613	800,000	-0,060	-0,168
-410,598	800,000	0,030	0,077
-409,584	70,042	0,035	-0,026
-408,569	-200,000	-0,024	0,102
-407,555	110,775	0,137	-0,121
-406,540	3,978	-0,034	0,018
-405,525	-200,000	-0,007	0,136
-404,511	69,260	-0,043	0,033
-403,496	-200,000	0,007	-0,048
-402,482	-200,000	-0,025	0,205
-401,467	151,716	0,115	0,116
-400,452	-200,000	0,024	-0,162
-399,438	628,334	-0,034	0,063
-398,423	634,063	-0,034	-0,064
-397,409	-88,921	0,044	-0,010
-396,394	-43,456	-0,081	0,030
-395,379	527,871	0,074	0,129
-394,365	800,000	0,026	0,061
-393,350	-200,000	0,011	0,136
-392,336	-0,755	0,117	0,061
-391,321	-152,968	-0,103	0,005
-390,306	32,606	-0,123	0,078
-389,292	-127,494	0,097	-0,010
-388,277	73,775	-0,081	0,062
-387,263	-200,000	0,002	0,081
-386,248	219,063	-0,077	0,091
-385,233	800,000	0,056	0,162
-384,219	800,000	-0,040	0,091
-383,204	114,603	-0,047	-0,042
-382,190	-7,544	0,053	0,026
-381,175	619,974	-0,062	-0,115
-380,160	800,000	-0,063	0,163
-379,146	800,000	0,029	0,065
-378,131	-146,847	0,052	-0,003
-377,117	199,175	0,079	0,089
-376,102	51,551	0,028	-0,019
-375,088	641,385	0,020	-0,038
-374,073	-98,809	-0,064	-0,012
-373,058	542,235	0,110	0,194
-372,044	585,453	-0,043	0,078
-371,029	800,000	0,018	-0,040
-370,015	304,732	-0,085	-0,116
-369,000	800,000	0,037	0,100
-367,985	432,434	0,052	-0,082
-366,971	470,771	-0,065	-0,107
-365,956	-26,796	-0,130	-0,056
-364,942	74,497	-0,095	0,073
-363,927	385,531	-0,085	0,129
-362,912	298,363	0,017	0,023
-361,898	83,805	-0,056	-0,045
-360,883	-200,000	-0,032	-0,114
-359,869	-3,223	-0,070	0,036
-358,854	-57,965	-0,048	0,015
-357,839	-200,000	0,004	-0,074
-356,825	800,000	0,048	-0,131
-355,810	-136,006	0,120	0,010
-354,796	-52,902	-0,043	0,014
-353,781	-200,000	0,006	-0,167
-352,766	-200,000	-0,020	0,069
-351,752	-200,000	-0,039	-0,166
-350,737	109,764	0,073	0,064
-349,723	-93,684	0,094	0,019
-348,708	56,959	0,093	0,067
-347,693	-159,492	-0,148	-0,006
-346,679	-200,000	-0,012	-0,047
-345,664	58,168	-0,090	-0,064
-344,650	5,541	0,112	0,061
-343,635	-200,000	0,010	0,087
-342,620	-200,000	-0,020	0,076
-341,606	-137,295	-0,063	-0,005
-340,591	-200,000	0,022	0,092
-339,577	122,495	-0,021	0,020
-338,562	4,553	-0,101	-0,054
-337,548	5,340	-0,115	-0,062
-336,533	800,000	0,020	-0,063
-335,518	-154,589	0,088	0,004
-334,504	-65,156	0,070	-0,020
-333,489	-98,878	-0,114	0,021
-332,475	-171,882	0,107	-0,003
-331,460	800,000	0,031	-0,077
-330,445	135,304	-0,081	-0,077
-329,431	-200,000	-0,000	0,110
-328,416	-71,022	0,094	-0,026
-327,402	-200,000	0,015	-0,200
-326,387	-200,000	-0,022	-0,118
-325,372	195,994	-0,079	0,089
-324,358	-200,000	0,018	-0,162
-323,343	-10,777	-0,071	-0,034
-322,329	6,489	0,145	-0,079
-321,314	-69,780	-0,054	-0,015
-320,299	4,779	-0,085	0,046
-319,285	113,073	-0,081	0,072
-318,270	283,680	-0,017	0,022
-317,256	-200,000	0,010	0,047
-316,241	342,745	-0,065	0,093
-315,226	294,388	-0,087	-0,117
-314,212	-200,000	0,010	0,184
-313,197	-200,000	0,021	0,167
-312,183	-200,000	-0,014	0,054
-311,168	77,088	-0,047	-0,037
-310,153	-200,000	-0,013	0,049
-309,139	204,115	0,080	0,091
-308,124	226,758	0,061	0,073
-307,110	-41,485	0,111	-0,042
-306,095	-46,935	-0,053	0,019
-305,080	-8,973	0,037	0,018
-304,066	798,694	0,030	-0,061
-303,051	-200,000	0,001	-0,125
-302,037	50,001	0,053	-0,036
-301,022	-12,649	0,059	-0,028
-300,008	358,244	0,041	0,061
-298,993	-200,000	-0,004	-0,042
-297,978	327,428	0,055	0,077
-296,964	-131,958	0,074	0,007
-295,949	-200,000	0,008	0,061
-294,935	78,352	0,060	0,047
-293,920	-147,903	0,134	0,008
-292,905	-105,647	-0,103	0,017
-291,891	-200,000	-0,011	0,067
-290,876	36,069	0,120	-0,077
-289,862	258,222	-0,034	-0,042
-288,847	-53,250	-0,077	-0,026
-287,832	159,053	-0,029	-0,030
-286,818	-17,843	0,128	-0,059
-285,803	-50,797	0,122	0,042
-284,789	-181,275	0,108	0,002
-283,774	-200,000	0,007	0,035
-282,759	-125,552	0,101	-0,011
-281,745	-78,851	-0,085	0,021
-280,730	424,651	-0,020	0,031
-279,716	422,803	-0,029	0,045
-278,701	-136,258	0,132	-0,011
-277,686	800,000	0,022	0,048
-276,672	58,714	0,033	0,024
-275,657	68,901	-0,082	0,061
-274,643	172,719	0,027	-0,029
-273,628	800,000	-0,026	0,072
-272,613	-200,000	-0,003	-0,162
-271,599	-88,453	-0,110	0,024
-270,584	285,165	0,073	0,096
-269,570	-200,000	0,019	0,086
-268,555	177,959	-0,065	0,069
-267,540	-47,896	-0,092	-0,032
-266,526	-200,000	0,006	-0,044
-265,511	-2,080	-0,120	0,061
-264,497	2,887	0,060	-0,032
-263,482	-200,000	0,053	0,184
-262,467	-193,054	0,014	0,000
-261,453	800,000	-0,039	0,085
-260,438	-196,382	0,108	-0,001
-259,424	422,298	-0,040	-0,063
-258,409	-17,823	0,091	-0,041
-257,395	728,901	0,067	0,131
-256,380	-48,751	-0,032	0,011
-255,365	-57,981	-0,039	-0,012
-254,351	55,145	0,085	0,060
-253,336	-200,000	-0,013	-0,116
-252,322	90,610	-0,024	0,020
-251,307	-200,000	-0,003	-0,082
-250,292	49,600	0,069	-0,048
-249,278	508,586	-0,013	-0,023
-248,263	-200,000	0,016	0,094
-247,249	800,000	0,038	0,082
-246,234	58,386	-0,116	-0,083
-245,219	-104,546	0,061	0,010
-244,205	198,513	0,079	-0,088
-243,190	800,000	0,032	-0,092
-242,176	-18,290	0,056	0,025
-241,161	-143,991	0,078	0,005
-240,146	117,384	-0,056	0,050
-239,132	4,383	0,095	0,051
-238,117	45,143	0,069	0,046
-237,103	170,820	-0,057	-0,059
-236,088	-200,000	0,023	-0,096
-235,073	-5,300	0,032	0,016
-234,059	-137,100	0,153	0,013
-233,044	3,610	0,079	-0,042
-232,030	30,961	-0,195	-0,121
-231,015	-32,729	0,066	0,027
-230,000	524,880	-0,033	0,057
-228,986	-200,000	0,009	-0,118
-227,971	-200,000	0,026	-0,164
-226,957	93,487	0,017	0,014
-225,942	114,725	-0,054	-0,048
-224,927	-49,075	0,121	0,042
-223,913	800,000	-0,062	-0,149
-222,898	533,051	0,051	-0,089
-221,884	0,813	0,091	-0,048
-220,869	-200,000	-0,005	-0,051
-219,855	360,936	0,047	0,069
-218,840	551,710	-0,036	-0,064
-217,825	800,000	-0,066	-0,207
-216,811	800,000	0,023	0,049
-215,796	-102,242	-0,079	-0,014
-214,782	-14,513	0,065	-0,030
-213,767	-99,061	0,048	0,009
-212,752	-191,880	0,106	0,001
-211,738	39,893	0,050	0,033
-210,723	-200,000	-0,016	-0,068
-209,709	-131,846	0,077	-0,007
-208,694	800,000	-0,035	0,107
-207,679	-42,011	-0,071	-0,026
-206,665	177,536	-0,057	0,060
-205,650	-200,000	0,014	0,087
-204,636	800,000	-0,025	0,063
-203,621	-67,638	0,121	-0,034
-202,606	18,986	-0,122	-0,071
-201,592	-164,491	-0,060	0,002
-200,577	149,993	0,116	-0,115
-199,563	420,912	0,106	0,166
-198,548	-200,000	-0,020	0,096
-197,533	-128,675	-0,116	-0,012
-196,519	-200,000	0,003	0,222
-195,504	-174,196	-0,004	0,000
-194,490	-133,207	0,036	-0,003
-193,475	-200,000	0,030	-0,134
-192,460	-31,862	0,142	-0,058
-191,446	-200,000	0,017	-0,089
-190,431	222,297	0,102	0,120
-189,417	384,068	0,034	0,052
-188,402	-200,000	0,016	0,116
-187,387	361,091	-0,019	-0,028
-186,373	-200,000	-0,006	-0,078
-185,358	-71,276	0,054	-0,015
-184,344	-200,000	0,005	0,057
-183,329	800,000	0,086	0,210
-182,315	800,000	-0,055	0,149
-181,300	182,919	0,076	-0,081
-180,285	-61,261	-0,100	-0,030
-179,271	481,789	-0,076	-0,126
-178,256	-110,947	0,093	-0,014
-177,242	10,862	-0,110	0,061
-176,227	-47,527	-0,066	0,023
-175,212	663,470	-0,047	-0,088
-174,198	-94,773	-0,081	0,016
-173,183	-114,596	-0,101	0,014
-172,169	-72,202	-0,032	-0,009
-171,154	11,942	0,041	0,023
-170,139	-200,000	0,105	-0,000
-169,125	800,000	0,034	0,092
-168,110	9,993	-0,036	0,020
-167,096	-200,000	0,040	0,139
-166,081	1,182	-0,085	-0,044
-165,066	180,321	0,035	-0,038
-164,052	7,044	-0,236	0,128
-163,037	46,766	0,021	-0,014
-162,023	-107,189	-0,054	0,009
-161,008	43,200	-0,110	0,073
-159,993	-95,974	0,045	0,009
-158,979	-85,879	0,152	0,034
-157,964	709,053	0,037	-0,072
-156,950	-98,991	0,084	0,015
-155,935	-200,000	0,009	0,074
-154,920	42,287	0,101	0,067
-153,906	197,572	0,046	0,051
-152,891	245,808	0,066	0,081
-151,877	-104,130	0,209	-0,035
-150,862	-58,421	-0,053	-0,017
-149,847	306,811	-0,054	-0,074
-148,833	-1,547	0,125	0,064
-147,818	126,735	-0,045	0,042
-146,804	30,104	0,081	0,050
-145,789	-200,000	-0,010	-0,061
-144,775	30,188	0,051	-0,032
-143,760	-3,456	-0,106	-0,054
-142,745	8,089	-0,130	-0,071
-141,731	-200,000	0,022	-0,120
-140,716	-12,054	0,044	-0,021
-139,702	-1,780	-0,053	0,027
-138,687	703,643	-0,046	0,089
-137,672	253,916	-0,085	0,106
-136,658	800,000	-0,023	-0,073
-135,643	78,559	0,108	-0,084
-134,629	-137,464	-0,115	0,009
-133,614	-200,000	0,029	0,120
-132,599	187,474	-0,013	0,014
-131,585	-188,329	0,148	-0,001
-130,570	-120,685	0,012	0,001
-129,556	-98,519	-0,135	0,025
-128,541	136,900	-0,027	0,026
-127,526	800,000	0,030	0,074
-126,512	411,011	0,021	0,033
-125,497	-200,000	0,028	0,158
-124,483	364,436	0,041	-0,060
-123,468	800,000	0,039	0,122
-122,453	-164,541	-0,171	0,006
-121,439	4,340	-0,075	0,040
-120,424	-1,887	-0,043	0,022
-119,410	-41,645	0,175	-0,065
-118,395	-13,168	0,148	0,069
