DTS Sentinel unit serial number:	SN410029Multiplexer serial number:	ORYXHardware model number:	OX2-SRSoftware version number:	ORYX F/W v4,00 Oryx Data Collector v3.7.2.0data status	okinstallation	B6 Nyhavnadifferential loss correction	single-endedforward channel	channel 2reverse channel	N/Adate	2023/12/10time	16:45:08forward acquisition time	300,00reverse acquisition time	0,00gamma	499,1914k internal	0,3122k external	0,3122temperature offset calibration	1,0000default loss term (dB/km)	0,3820temperature slope calibration	1,0000multiplexer offset coefficient	1,0000multiplexer slope coefficient	1,0000fibre end	0,00T internal ref (°C)	22,39T ext. ref 1 (°C)	6,16T ext. ref 2 (°C)	6,18length (m)	temperature (°C)	Stokes	anti-Stokes-744,400	310,520	0,041	-0,058
-743,385	-138,143	-0,243	0,020
-742,371	-149,649	0,134	0,008
-741,356	206,828	-0,290	0,338
-740,342	800,000	-0,018	0,045
-739,327	131,986	-0,322	0,309
-738,312	13,241	0,127	0,073
-737,298	-139,573	-0,373	0,029
-736,283	120,034	-0,006	0,006
-735,269	800,000	0,052	0,117
-734,254	-200,000	0,014	-0,122
-733,239	-29,410	-0,423	-0,180
-732,225	189,741	0,107	0,119
-731,210	800,000	-0,025	0,056
-730,196	288,238	-0,107	-0,145
-729,181	-108,891	-0,150	-0,024
-728,167	-145,512	0,078	0,005
-727,152	140,361	-0,095	0,094
-726,137	194,353	-0,041	-0,047
-725,123	104,592	-0,070	0,061
-724,108	135,767	-0,142	-0,138
-723,094	184,421	-0,121	-0,134
-722,079	122,449	-0,027	0,026
-721,064	509,320	-0,026	0,044
-720,050	-200,000	0,018	-0,076
-719,035	32,597	-0,057	0,037
-718,021	113,952	-0,110	0,100
-717,006	28,988	-0,182	-0,115
-715,991	265,859	-0,031	-0,041
-714,977	-19,551	-0,174	-0,080
-713,962	-25,845	-0,064	0,028
-712,948	76,639	-0,154	0,122
-711,933	-200,000	-0,152	-0,000
-710,918	776,416	0,058	0,118
-709,904	800,000	-0,034	-0,098
-708,889	-144,987	0,039	-0,003
-707,875	610,185	-0,079	-0,149
-706,860	-28,986	-0,125	-0,053
-705,845	-22,440	0,157	0,070
-704,831	13,048	-0,063	0,036
-703,816	-200,000	-0,013	-0,066
-702,802	-49,243	0,057	-0,020
-701,787	461,746	-0,084	-0,141
-700,772	800,000	-0,046	-0,115
-699,758	187,981	0,046	-0,051
-698,743	-175,328	-0,051	-0,001
-697,729	313,798	-0,080	0,112
-696,714	-63,417	0,074	0,023
-695,699	-200,000	0,009	0,052
-694,685	392,235	0,018	-0,028
-693,670	-165,813	0,101	-0,003
-692,656	84,667	0,093	-0,076
-691,641	85,161	-0,115	0,094
-690,627	-169,963	0,135	0,004
-689,612	-200,000	0,006	-0,028
-688,597	-55,905	0,038	0,013
-687,583	137,205	0,067	-0,065
-686,568	-55,560	-0,157	0,052
-685,554	102,864	-0,021	-0,018
-684,539	-21,424	0,061	-0,028
-683,524	-115,503	0,112	0,016
-682,510	-37,662	0,118	-0,047
-681,495	-200,000	0,010	-0,182
-680,481	-15,322	-0,142	-0,067
-679,466	-63,872	-0,041	-0,012
-678,451	-1,734	-0,047	-0,024
-677,437	218,724	-0,064	0,077
-676,422	-200,000	0,005	0,128
-675,408	-119,829	0,040	-0,005
-674,393	6,273	0,032	0,018
-673,378	-200,000	0,006	-0,107
-672,364	-200,000	0,007	0,034
-671,349	-200,000	-0,041	-0,142
-670,335	-200,000	-0,034	-0,185
-669,320	-76,340	-0,032	0,008
-668,305	281,273	-0,023	0,030
-667,291	252,814	-0,083	-0,106
-666,276	105,246	-0,091	-0,080
-665,262	-200,000	-0,008	-0,125
-664,247	-200,000	0,005	-0,152
-663,232	245,663	-0,070	0,088
-662,218	-200,000	0,001	-0,007
-661,203	-200,000	0,024	0,084
-660,189	266,272	-0,069	0,090
-659,174	35,046	-0,026	0,017
-658,159	93,370	0,034	-0,029
-657,145	-31,655	-0,043	-0,018
-656,130	-165,121	0,059	0,002
-655,116	-98,824	0,036	-0,007
-654,101	-154,662	0,092	0,004
-653,086	273,903	0,014	-0,019
-652,072	-10,649	-0,106	-0,052
-651,057	154,604	-0,124	-0,126
-650,043	-61,191	-0,163	0,051
-649,028	-45,926	-0,053	-0,019
-648,014	-6,206	-0,049	-0,025
-646,999	800,000	-0,052	0,119
-645,984	-200,000	-0,017	0,073
-644,970	-22,703	-0,101	-0,045
-643,955	301,771	-0,069	-0,095
-642,941	165,507	-0,066	-0,070
-641,926	144,679	-0,097	-0,096
-640,911	-88,553	-0,044	0,010
-639,897	-87,319	-0,093	-0,021
-638,882	36,200	0,044	-0,029
-637,868	-200,000	-0,013	0,070
-636,853	-33,911	0,077	0,031
-635,838	183,416	-0,024	0,026
-634,824	-98,995	-0,108	-0,020
-633,809	-200,000	0,038	-0,202
-632,795	494,442	0,051	-0,088
-631,780	341,098	0,017	0,025
-630,765	-144,996	0,125	-0,008
-629,751	-98,373	-0,061	-0,011
-628,736	287,483	-0,043	-0,058
-627,722	-200,000	0,025	0,095
-626,707	117,345	-0,044	-0,040
-625,692	78,426	-0,064	-0,051
-624,678	704,883	-0,080	0,158
-623,663	95,439	0,034	0,029
-622,649	480,294	-0,088	-0,149
-621,634	228,337	-0,068	-0,082
-620,619	800,000	0,058	-0,152
-619,605	559,640	-0,052	-0,094
-618,590	-200,000	0,014	-0,066
-617,576	-200,000	-0,024	-0,129
-616,561	-200,000	0,011	0,069
-615,546	-66,698	0,077	0,022
-614,532	38,170	-0,176	0,116
-613,517	375,728	0,035	-0,053
-612,503	-200,000	-0,029	0,133
-611,488	800,000	0,052	0,132
-610,474	800,000	-0,034	0,108
-609,459	130,697	-0,114	0,108
-608,444	-8,214	-0,085	0,042
-607,430	-112,018	0,015	-0,002
-606,415	-200,000	-0,022	-0,111
-605,401	-200,000	0,014	0,091
-604,386	209,956	0,093	-0,108
-603,371	344,309	-0,063	0,092
-602,357	590,107	-0,095	0,174
-601,342	-30,820	-0,070	0,029
-600,328	436,130	0,058	-0,094
-599,313	321,396	0,109	-0,155
-598,298	800,000	-0,009	0,028
-597,284	-30,018	0,088	-0,037
-596,269	-21,069	-0,072	-0,033
-595,255	-1,246	0,122	-0,064
-594,240	-57,443	-0,129	-0,042
-593,225	91,906	-0,058	-0,048
-592,211	800,000	-0,025	0,059
-591,196	-10,984	-0,132	0,064
-590,182	-169,058	-0,089	-0,002
-589,167	800,000	0,042	0,092
-588,152	-200,000	0,009	0,031
-587,138	-200,000	0,008	-0,093
-586,123	-200,000	-0,037	-0,130
-585,109	-200,000	0,010	-0,046
-584,094	-200,000	-0,003	-0,121
-583,079	170,993	0,084	0,090
-582,065	-167,652	-0,061	-0,002
-581,050	123,728	0,076	0,071
-580,036	-80,772	0,138	-0,034
-579,021	-42,876	-0,150	0,056
-578,006	-200,000	0,006	-0,072
-576,992	-200,000	-0,025	-0,105
-575,977	-91,221	0,014	-0,003
-574,963	325,652	0,034	0,048
-573,948	-200,000	-0,006	0,028
-572,934	800,000	0,044	-0,096
-571,919	118,629	-0,081	0,074
-570,904	-31,564	-0,040	0,017
-569,890	714,240	-0,066	-0,130
-568,875	-49,684	0,052	0,018
-567,861	384,464	0,032	0,048
-566,846	614,568	-0,036	-0,068
-565,831	590,627	0,008	-0,015
-564,817	131,217	-0,085	0,081
-563,802	212,442	-0,105	-0,122
-562,788	-93,967	0,067	-0,013
-561,773	79,286	0,028	0,022
-560,758	97,524	-0,119	0,101
-559,744	164,834	0,071	0,074
-558,729	-79,885	0,048	-0,012
-557,715	113,692	-0,091	-0,082
-556,700	-200,000	-0,015	-0,064
-555,685	800,000	-0,035	-0,099
-554,671	282,772	0,044	-0,059
-553,656	301,746	-0,018	-0,025
-552,642	166,320	-0,048	0,050
-551,627	-200,000	-0,058	0,000
-550,612	-200,000	-0,016	-0,075
-549,598	30,900	-0,093	-0,059
-548,583	-48,354	-0,171	0,061
-547,569	152,807	0,061	0,062
-546,554	69,758	0,089	-0,068
-545,539	569,324	-0,066	0,119
-544,525	-44,423	-0,128	-0,047
-543,510	800,000	-0,038	-0,118
-542,496	-200,000	0,021	-0,068
-541,481	591,337	-0,073	-0,134
-540,466	706,051	0,028	-0,055
-539,452	110,648	0,125	0,111
-538,437	-70,016	-0,053	0,015
-537,423	8,704	-0,024	-0,013
-536,408	-200,000	0,036	0,159
-535,393	-50,140	0,085	-0,030
-534,379	426,132	0,034	-0,055
-533,364	353,193	0,032	-0,047
-532,350	33,000	-0,065	-0,042
-531,335	90,390	0,081	0,067
-530,321	-200,000	-0,022	0,105
-529,306	-160,396	0,164	-0,006
-528,291	-97,466	-0,119	-0,023
-527,277	800,000	-0,027	-0,087
-526,262	-200,000	0,009	-0,105
-525,248	800,000	0,033	0,075
-524,233	234,354	-0,058	0,070
-523,218	320,008	0,077	0,109
-522,204	71,687	0,047	-0,036
-521,189	-200,000	0,008	0,061
-520,175	-200,000	0,026	-0,194
-519,160	-25,907	-0,118	0,051
-518,145	800,000	-0,047	-0,101
-517,131	-200,000	0,008	0,148
-516,116	218,011	-0,058	0,068
-515,102	-200,000	-0,001	-0,123
-514,087	-200,000	0,008	-0,029
-513,072	800,000	-0,009	-0,024
-512,058	-200,000	-0,010	-0,093
-511,043	-144,581	-0,078	-0,005
-510,029	-165,650	0,054	0,002
-509,014	-200,000	0,001	0,118
-507,999	-118,202	-0,047	0,006
-506,985	-200,000	-0,023	-0,153
-505,970	800,000	-0,065	0,134
-504,956	81,984	-0,087	-0,069
-503,941	326,623	0,070	-0,099
-502,926	-75,937	0,196	0,051
-501,912	-142,352	0,160	0,012
-500,897	-144,154	-0,072	-0,005
-499,883	101,336	-0,035	0,030
-498,868	-71,436	-0,089	0,024
-497,853	82,634	-0,079	-0,063
-496,839	-86,080	-0,064	0,014
-495,824	-169,936	0,123	0,003
-494,810	81,799	0,095	0,076
-493,795	-200,000	-0,009	0,180
-492,781	492,371	-0,093	0,157
-491,766	800,000	0,031	-0,093
-490,751	800,000	-0,046	-0,097
-489,737	97,053	0,022	0,018
-488,722	758,500	0,059	0,118
-487,708	800,000	-0,007	0,020
-486,693	800,000	-0,023	-0,063
-485,678	-142,728	-0,089	0,006
-484,664	341,289	0,031	-0,045
-483,649	-78,948	-0,043	-0,011
-482,635	66,831	-0,093	-0,070
-481,620	-2,449	-0,063	-0,033
-480,605	-100,277	0,074	0,013
-479,591	-0,633	0,064	0,034
-478,576	800,000	0,050	0,118
-477,562	-200,000	-0,007	0,089
-476,547	232,481	-0,054	0,065
-475,532	-14,764	-0,060	-0,028
-474,518	111,514	-0,010	-0,009
-473,503	110,422	0,087	0,077
-472,489	411,085	0,059	0,092
-471,474	800,000	0,020	0,044
-470,459	66,459	0,061	-0,046
-469,445	-164,281	0,064	0,002
-468,430	80,692	-0,185	-0,147
-467,416	-200,000	0,001	-0,010
-466,401	-62,001	0,037	0,011
-465,386	534,632	0,037	-0,066
-464,372	800,000	-0,060	0,128
-463,357	-200,000	0,029	0,146
-462,343	-84,594	0,045	0,010
-461,328	-49,250	-0,054	-0,019
-460,313	75,884	0,068	-0,053
-459,299	48,303	-0,138	-0,095
-458,284	-173,190	-0,139	-0,003
-457,270	-16,121	0,005	-0,003
-456,255	-37,954	-0,082	0,032
-455,241	-200,000	0,016	-0,100
-454,226	800,000	0,068	-0,143
-453,211	800,000	-0,017	-0,052
-452,197	800,000	-0,011	-0,025
-451,182	-8,275	0,032	-0,016
-450,168	397,440	0,017	-0,026
-449,153	-200,000	-0,005	-0,060
-448,138	114,565	0,044	0,039
-447,124	-22,889	0,056	-0,025
-446,109	-126,728	0,115	0,012
-445,095	177,795	0,075	0,081
-444,080	312,834	0,059	-0,082
-443,065	-200,000	-0,012	-0,158
-442,051	-13,083	-0,068	0,033
-441,036	47,708	-0,106	-0,073
-440,022	213,295	-0,112	-0,131
-439,007	-200,000	-0,037	-0,139
-437,992	29,793	0,064	-0,040
-436,978	-33,881	0,076	0,031
-435,963	-183,132	-0,062	-0,001
-434,949	-115,220	0,072	0,010
-433,934	72,882	-0,081	-0,062
-432,919	-79,712	-0,077	0,019
-431,905	9,797	0,021	0,012
-430,890	-85,762	0,089	-0,020
-429,876	-107,465	0,036	0,006
-428,861	-145,674	0,033	0,002
-427,846	251,705	0,022	-0,027
-426,832	533,674	0,065	-0,114
-425,817	-28,198	-0,065	0,028
-424,803	367,339	0,027	0,041
-423,788	43,641	0,021	0,014
-422,773	-200,000	-0,035	0,121
-421,759	800,000	0,033	-0,097
-420,744	-200,000	0,001	-0,051
-419,730	-170,880	0,029	0,001
-418,715	55,824	-0,041	0,030
-417,701	216,930	0,069	0,081
-416,686	-1,253	0,035	0,018
-415,671	18,963	-0,054	0,032
-414,657	312,015	0,009	0,013
-413,642	-26,188	-0,053	-0,023
-412,628	160,200	-0,135	0,139
-411,613	129,175	0,009	0,009
-410,598	-110,446	0,128	0,019
-409,584	-127,907	0,065	-0,007
-408,569	560,503	-0,055	0,099
-407,555	-28,424	-0,075	-0,032
-406,540	-200,000	-0,004	0,015
-405,525	-200,000	-0,016	-0,114
-404,511	800,000	0,059	-0,166
-403,496	-200,000	0,013	0,205
-402,482	352,300	0,061	0,089
-401,467	-41,412	-0,045	0,017
-400,452	394,314	-0,047	0,072
-399,438	94,394	0,055	-0,046
-398,423	-30,231	-0,132	-0,055
-397,409	132,360	0,078	-0,074
-396,394	547,312	0,058	-0,103
-395,379	44,527	0,037	0,025
-394,365	-49,846	-0,024	-0,008
-393,350	139,105	0,055	-0,053
-392,336	-200,000	0,015	0,139
-391,321	-200,000	0,002	-0,025
-390,306	-31,534	-0,103	0,043
-389,292	-200,000	-0,021	-0,104
-388,277	800,000	0,044	-0,093
-387,263	-200,000	0,015	0,117
-386,248	800,000	0,017	0,043
-385,233	-183,525	0,046	-0,001
-384,219	-64,897	0,102	0,030
-383,204	84,938	-0,120	-0,096
-382,190	521,444	-0,069	0,119
-381,175	-200,000	-0,004	-0,076
-380,160	345,888	0,039	0,056
-379,146	394,675	0,098	-0,151
-378,131	-200,000	-0,002	0,034
-377,117	49,532	-0,077	0,053
-376,102	-200,000	-0,012	-0,129
-375,088	630,058	0,009	-0,017
-374,073	120,689	0,061	0,055
-373,058	510,062	-0,047	-0,081
-372,044	75,405	0,068	0,053
-371,029	157,731	-0,032	0,033
-370,015	556,012	-0,018	-0,032
-369,000	192,271	-0,037	-0,041
-367,985	800,000	-0,034	-0,085
-366,971	-154,964	-0,064	-0,003
-365,956	174,535	0,039	-0,042
-364,942	800,000	0,023	0,052
-363,927	-180,271	0,132	-0,002
-362,912	-115,473	0,153	0,021
-361,898	147,400	-0,065	0,065
-360,883	161,127	-0,061	0,063
-359,869	216,499	-0,015	-0,018
-358,854	-139,449	0,193	0,015
-357,839	80,743	0,179	-0,142
-356,825	150,584	0,141	0,140
-355,810	-187,148	-0,040	0,000
-354,796	-154,918	-0,070	0,003
-353,781	352,373	0,045	-0,066
-352,766	-119,064	-0,103	0,013
-351,752	-183,661	-0,032	0,000
-350,737	301,710	-0,023	-0,031
-349,723	-200,000	0,118	0,000
-348,708	91,706	0,065	-0,054
-347,693	800,000	-0,035	-0,083
-346,679	-200,000	0,008	-0,197
-345,664	-108,479	-0,013	-0,002
-344,650	800,000	0,028	0,080
-343,635	-78,869	-0,038	0,009
-342,620	24,626	-0,017	0,011
-341,606	-200,000	0,024	0,099
-340,591	-90,331	-0,098	0,021
-339,577	26,393	0,049	0,030
-338,562	377,147	-0,017	-0,026
-337,548	370,761	0,048	-0,071
-336,533	800,000	0,027	-0,087
-335,518	-200,000	-0,004	0,042
-334,504	-200,000	-0,012	0,087
-333,489	-200,000	0,019	0,143
-332,475	2,327	0,042	-0,022
-331,460	-200,000	0,036	-0,143
-330,445	-70,924	0,029	0,008
-329,431	421,422	0,036	-0,057
-328,416	43,379	0,093	0,062
-327,402	-141,479	0,077	-0,006
-326,387	618,390	-0,035	-0,064
-325,372	723,435	-0,044	-0,086
-324,358	-200,000	-0,021	-0,090
-323,343	-200,000	-0,008	-0,091
-322,329	-33,641	-0,018	-0,007
-321,314	-29,102	0,113	-0,047
-320,299	29,702	0,142	0,089
-319,285	82,534	-0,067	0,054
-318,270	-168,687	0,050	0,001
-317,256	111,369	-0,036	-0,032
-316,241	87,809	-0,061	-0,049
-315,226	309,139	0,125	0,172
-314,212	56,646	-0,044	0,031
-313,197	62,468	0,079	0,058
-312,183	800,000	0,054	0,144
-311,168	720,413	0,018	-0,035
-310,153	-200,000	0,018	-0,102
-309,139	-146,677	0,027	0,002
-308,124	-34,650	0,051	-0,020
-307,110	-142,954	0,170	-0,012
-306,095	-16,172	0,105	0,049
-305,080	800,000	0,043	0,088
-304,066	-71,493	-0,097	0,026
-303,051	181,531	-0,077	0,083
-302,037	800,000	0,053	0,126
-301,022	556,137	0,026	0,045
-300,008	-134,168	-0,075	-0,007
-298,993	-200,000	-0,008	0,029
-297,978	-52,616	0,120	0,040
-296,964	-200,000	0,001	-0,055
-295,949	339,389	0,025	-0,036
-294,935	174,635	-0,058	-0,061
-293,920	-105,166	0,054	-0,009
-292,905	685,724	0,062	0,119
-291,891	800,000	-0,022	-0,071
-290,876	-200,000	0,005	0,050
-289,862	-75,926	0,152	-0,039
-288,847	60,365	-0,083	-0,060
-287,832	193,861	0,028	0,031
-286,818	302,553	0,060	-0,082
-285,803	144,211	0,069	0,067
-284,789	-9,205	-0,079	0,038
-283,774	470,970	-0,044	0,073
-282,759	94,320	-0,046	-0,038
-281,745	201,188	-0,136	-0,154
-280,730	57,809	0,042	-0,030
-279,716	800,000	-0,014	-0,037
-278,701	285,622	0,121	-0,160
-277,686	173,114	0,044	0,046
-276,672	800,000	0,030	0,088
-275,657	252,465	-0,035	-0,044
-274,643	350,839	0,155	0,224
-273,628	-1,522	-0,099	-0,051
-272,613	339,592	0,026	0,037
-271,599	-200,000	0,019	-0,092
-270,584	-200,000	-0,015	0,079
-269,570	165,825	-0,052	0,054
-268,555	-200,000	-0,040	-0,163
-267,540	-173,129	-0,052	0,001
-266,526	-200,000	-0,013	-0,080
-265,511	-72,795	0,060	0,016
-264,497	-55,417	0,110	0,036
-263,482	-5,014	0,039	0,019
-262,467	9,583	0,088	0,049
-261,453	185,673	-0,024	0,026
-260,438	41,516	-0,074	-0,049
-259,424	-200,000	-0,003	0,043
-258,409	107,099	-0,035	0,030
-257,395	203,640	-0,085	0,097
-256,380	-182,360	-0,152	0,002
-255,365	-141,856	0,110	-0,008
-254,351	-200,000	0,020	0,082
-253,336	-124,768	0,147	0,016
-252,322	-200,000	-0,007	-0,148
-251,307	800,000	-0,052	-0,122
-250,292	57,512	0,043	-0,031
-249,278	-134,076	0,070	0,006
-248,263	-200,000	-0,017	0,110
-247,249	-24,021	0,060	0,026
-246,234	-200,000	0,021	-0,104
-245,219	320,952	-0,101	0,141
-244,205	173,513	-0,036	-0,038
-243,190	-176,172	-0,125	0,002
-242,176	71,764	-0,116	0,088
-241,161	800,000	0,040	0,117
-240,146	800,000	0,030	-0,061
-239,132	506,456	0,061	0,103
-238,117	-200,000	0,006	0,040
-237,103	-200,000	0,046	-0,167
-236,088	119,407	-0,064	-0,058
-235,073	56,210	0,097	0,068
-234,059	-200,000	-0,014	0,148
-233,044	-196,866	0,086	0,000
-232,030	174,712	0,106	0,112
-231,015	738,139	-0,039	-0,077
-230,000	-23,071	-0,113	0,049
-228,986	669,913	-0,041	-0,078
-227,971	235,473	-0,093	-0,112
-226,957	800,000	0,029	0,089
-225,942	-200,000	-0,015	0,156
-224,927	-103,037	0,097	-0,017
-223,913	53,332	0,028	-0,019
-222,898	-139,731	-0,160	-0,012
-221,884	-16,527	-0,086	-0,040
-220,869	-23,706	-0,067	0,029
-219,855	290,975	0,053	0,070
-218,840	-200,000	-0,002	0,146
-217,825	151,431	0,105	0,104
-216,811	1,058	-0,050	-0,026
-215,796	-59,607	-0,041	0,013
-214,782	-200,000	0,013	-0,143
-213,767	-119,348	-0,089	0,011
-212,752	3,378	0,092	0,049
-211,738	-144,382	-0,183	-0,012
-210,723	800,000	-0,054	-0,110
-209,709	-200,000	0,006	0,024
-208,694	321,583	0,043	-0,060
-207,679	86,065	-0,012	-0,010
-206,665	-2,012	0,078	0,040
-205,650	800,000	-0,055	0,129
-204,636	-27,330	0,026	-0,011
-203,621	25,849	0,041	0,025
-202,606	-3,206	-0,049	-0,025
-201,592	662,894	0,011	-0,020
-200,577	-166,115	0,059	0,002
-199,563	65,659	0,029	0,021
-198,548	-9,638	0,087	0,042
-197,533	-200,000	0,000	-0,069
-196,519	-152,494	0,095	-0,005
-195,504	-134,478	-0,056	-0,005
-194,490	132,841	-0,106	0,099
-193,475	-200,000	-0,012	-0,127
-192,460	318,132	-0,034	-0,047
-191,446	-200,000	0,013	0,093
-190,431	-200,000	0,001	-0,051
-189,417	-200,000	-0,003	0,161
-188,402	27,831	0,055	0,033
-187,387	698,626	-0,012	0,023
-186,373	-10,227	-0,091	-0,044
-185,358	110,740	-0,030	-0,027
-184,344	226,885	0,094	0,111
-183,329	-200,000	-0,002	0,047
-182,315	69,876	0,129	0,097
-181,300	390,145	0,023	-0,035
-180,285	-171,877	-0,082	0,002
-179,271	154,031	-0,074	-0,074
-178,256	800,000	0,035	0,092
-177,242	-175,792	0,082	-0,002
-176,227	-119,075	-0,163	-0,021
-175,212	91,743	0,044	-0,036
-174,198	-200,000	0,015	-0,056
-173,183	-29,243	0,064	-0,027
-172,169	-19,421	-0,109	0,049
-171,154	800,000	0,015	0,034
-170,139	139,014	0,036	-0,034
-169,125	39,512	0,079	-0,052
-168,110	800,000	-0,046	0,094
-167,096	-100,809	0,139	0,025
-166,081	-200,000	0,000	0,114
-165,066	800,000	0,010	-0,029
-164,052	-89,829	0,127	-0,027
-163,037	800,000	-0,030	0,075
-162,023	800,000	0,057	0,151
-161,008	-200,000	-0,014	0,114
-159,993	-89,844	-0,041	0,009
-158,979	-57,020	-0,085	-0,027
-157,964	640,959	0,099	0,185
-156,950	3,538	-0,132	0,070
-155,935	-120,501	0,120	-0,015
-154,920	-200,000	0,020	0,078
-153,906	63,828	0,072	0,053
-152,891	582,621	-0,068	-0,122
-151,877	-87,253	0,057	0,013
-150,862	-200,000	-0,019	-0,141
-149,847	800,000	0,030	-0,088
-148,833	-176,414	0,079	-0,001
-147,818	-200,000	-0,005	0,021
-146,804	800,000	-0,022	0,054
-145,789	-74,448	0,131	-0,034
-144,775	460,303	-0,033	0,054
-143,760	65,097	-0,169	-0,124
-142,745	-200,000	-0,043	-0,173
-141,731	170,730	0,064	-0,067
-140,716	165,436	0,037	-0,038
-139,702	300,340	0,024	0,032
-138,687	4,838	0,072	-0,038
-137,672	295,493	-0,065	0,087
-136,658	-200,000	-0,006	-0,158
-135,643	612,488	-0,045	0,083
-134,629	-200,000	-0,001	0,045
-133,614	-111,613	0,185	-0,027
-132,599	-61,638	-0,013	0,004
-131,585	-62,430	-0,067	-0,020
-130,570	26,315	0,096	-0,058
-129,556	117,529	0,048	-0,043
-128,541	-146,094	-0,129	0,008
-127,526	121,440	0,033	0,030
-126,512	75,100	0,033	-0,025
-125,497	42,176	0,130	0,086
-124,483	800,000	0,021	0,054
-123,468	38,489	-0,130	0,084
-122,453	44,318	-0,124	-0,083
-121,439	-200,000	-0,003	0,042
-120,424	-105,799	0,067	-0,011
-119,410	84,007	0,088	0,070
