DTS Sentinel unit serial number:	SN410029Multiplexer serial number:	ORYXHardware model number:	OX2-SRSoftware version number:	ORYX F/W v4,00 Oryx Data Collector v3.7.2.0data status	okinstallation	B6 Nyhavnadifferential loss correction	single-endedforward channel	channel 2reverse channel	N/Adate	2023/12/09time	00:55:08forward acquisition time	300,00reverse acquisition time	0,00gamma	499,1914k internal	0,3157k external	0,3157temperature offset calibration	1,0000default loss term (dB/km)	0,3820temperature slope calibration	1,0000multiplexer offset coefficient	1,0000multiplexer slope coefficient	1,0000fibre end	0,00T internal ref (°C)	15,67T ext. ref 1 (°C)	-0,70T ext. ref 2 (°C)	-0,69length (m)	temperature (°C)	Stokes	anti-Stokes-744,400	-112,828	0,059	0,008
-743,385	-132,172	-0,243	-0,023
-742,371	-115,923	0,132	0,018
-741,356	43,665	-0,161	0,108
-740,342	135,460	0,096	0,092
-739,327	-92,298	-0,221	0,046
-738,312	-116,908	0,046	-0,006
-737,298	-90,193	-0,378	-0,080
-736,283	800,000	0,038	0,106
-735,269	-40,440	-0,298	0,114
-734,254	-20,500	0,132	0,060
-733,239	-54,027	-0,467	-0,156
-732,225	37,304	0,152	0,099
-731,210	-68,141	0,077	0,022
-730,196	-39,863	-0,026	0,010
-729,181	449,299	-0,066	0,108
-728,167	466,862	-0,034	-0,057
-727,152	762,264	0,032	0,065
-726,137	185,877	-0,104	-0,114
-725,123	-200,000	0,013	-0,175
-724,108	160,711	-0,073	0,075
-723,094	111,629	-0,071	0,063
-722,079	-200,000	0,025	-0,082
-721,064	-15,791	-0,137	-0,064
-720,050	-200,000	-0,013	-0,094
-719,035	800,000	0,015	0,038
-718,021	470,435	-0,073	-0,121
-717,006	366,465	-0,093	-0,139
-715,991	54,811	-0,146	-0,104
-714,977	334,424	0,093	-0,134
-713,962	215,605	-0,068	-0,080
-712,948	-200,000	0,001	-0,086
-711,933	-200,000	-0,005	-0,088
-710,918	291,217	-0,076	-0,102
-709,904	800,000	-0,068	0,188
-708,889	744,594	-0,010	-0,020
-707,875	-16,523	-0,066	-0,031
-706,860	159,490	-0,086	-0,088
-705,845	5,931	-0,021	0,011
-704,831	-117,796	-0,056	-0,007
-703,816	-154,313	0,066	0,003
-702,802	23,483	-0,138	-0,084
-701,787	800,000	0,035	0,073
-700,772	-23,987	0,141	-0,062
-699,758	-43,318	-0,137	0,051
-698,743	800,000	-0,002	-0,005
-697,729	73,081	0,080	-0,062
-696,714	-200,000	0,012	0,048
-695,699	-165,661	-0,071	0,002
-694,685	-200,000	0,022	-0,145
-693,670	316,821	-0,045	0,062
-692,656	-165,730	0,080	0,003
-691,641	309,557	-0,046	-0,063
-690,627	206,151	0,023	-0,026
-689,612	-29,859	-0,102	0,043
-688,597	-200,000	0,019	-0,178
-687,583	43,565	0,049	-0,033
-686,568	-134,997	-0,106	-0,009
-685,554	16,027	0,015	0,009
-684,539	-200,000	0,001	-0,035
-683,524	657,399	-0,062	0,118
-682,510	44,594	-0,109	-0,074
-681,495	800,000	0,056	-0,135
-680,481	-11,226	-0,025	0,012
-679,466	221,938	-0,045	-0,054
-678,451	444,602	0,068	-0,109
-677,437	-40,811	-0,022	-0,008
-676,422	319,087	0,067	-0,094
-675,408	800,000	0,024	0,052
-674,393	-13,763	-0,024	-0,012
-673,378	-26,189	-0,009	0,004
-672,364	13,283	-0,075	0,043
-671,349	38,623	0,134	-0,088
-670,335	800,000	-0,050	-0,147
-669,320	94,777	0,103	-0,086
-668,305	-83,988	-0,013	0,003
-667,291	78,900	-0,096	-0,075
-666,276	-94,623	-0,122	0,024
-665,262	21,465	-0,086	0,051
-664,247	-57,800	-0,158	-0,050
-663,232	-200,000	0,007	-0,028
-662,218	-76,819	0,093	-0,024
-661,203	-179,939	-0,068	0,001
-660,189	-11,217	0,110	0,053
-659,174	-200,000	0,023	-0,199
-658,159	800,000	-0,021	0,047
-657,145	-176,710	-0,169	0,003
-656,130	-146,180	0,080	0,005
-655,116	37,404	-0,084	-0,054
-654,101	-200,000	-0,018	0,116
-653,086	-200,000	-0,003	0,070
-652,072	-200,000	-0,019	-0,180
-651,057	-200,000	-0,010	-0,111
-650,043	-200,000	-0,008	-0,159
-649,028	800,000	-0,022	-0,057
-648,014	-71,913	-0,030	0,008
-646,999	800,000	-0,043	0,110
-645,984	-200,000	0,002	0,022
-644,970	-113,859	-0,049	-0,007
-643,955	-11,241	0,067	-0,032
-642,941	-200,000	0,001	-0,048
-641,926	-200,000	0,004	-0,099
-640,911	-200,000	0,002	-0,073
-639,897	-200,000	-0,006	0,124
-638,882	728,981	0,024	-0,048
-637,868	365,154	-0,027	-0,041
-636,853	193,609	0,089	-0,099
-635,838	800,000	0,048	-0,101
-634,824	-79,846	-0,072	-0,018
-633,809	316,173	0,039	-0,054
-632,795	-200,000	0,003	-0,021
-631,780	422,936	0,037	0,058
-630,765	463,272	-0,093	-0,153
-629,751	-200,000	-0,031	-0,118
-628,736	-115,786	-0,181	0,025
-627,722	-65,455	0,036	-0,011
-626,707	-70,275	0,101	0,028
-625,692	-120,018	0,082	-0,010
-624,678	-200,000	-0,024	-0,084
-623,663	114,519	-0,065	0,059
-622,649	-6,096	-0,113	0,057
-621,634	-184,544	0,138	-0,002
-620,619	211,896	0,081	-0,094
-619,605	57,472	-0,045	-0,032
-618,590	-55,754	0,038	0,012
-617,576	-200,000	0,010	0,034
-616,561	312,967	-0,115	0,158
-615,546	311,371	0,037	0,052
-614,532	-131,297	0,119	-0,011
-613,517	-200,000	-0,004	-0,102
-612,503	800,000	-0,087	0,180
-611,488	-200,000	-0,011	0,052
-610,474	-200,000	-0,011	-0,061
-609,459	-1,064	0,052	0,027
-608,444	-200,000	-0,028	-0,235
-607,430	-200,000	-0,035	-0,124
-606,415	-142,389	0,046	0,003
-605,401	143,834	0,057	0,056
-604,386	91,097	0,088	-0,072
-603,371	-200,000	-0,024	0,226
-602,357	800,000	-0,034	0,070
-601,342	-200,000	-0,012	-0,058
-600,328	57,390	0,051	-0,037
-599,313	110,210	-0,047	0,041
-598,298	-200,000	0,002	-0,020
-597,284	-200,000	0,080	-0,000
-596,269	484,656	0,051	0,085
-595,255	800,000	0,014	0,044
-594,240	-200,000	0,015	0,060
-593,225	82,653	0,062	0,049
-592,211	70,154	0,039	0,030
-591,196	-63,454	0,114	0,034
-590,182	-200,000	-0,007	0,034
-589,167	711,166	0,028	0,055
-588,152	-200,000	-0,011	0,079
-587,138	-200,000	0,001	0,049
-586,123	8,115	0,041	0,022
-585,109	-200,000	-0,007	-0,044
-584,094	425,682	-0,037	-0,059
-583,079	-58,151	0,127	0,040
-582,065	65,347	0,039	0,029
-581,050	188,438	0,065	0,071
-580,036	177,034	-0,037	0,039
-579,021	-200,000	0,009	-0,045
-578,006	800,000	0,035	0,089
-576,992	280,140	-0,011	0,015
-575,977	74,255	-0,060	0,046
-574,963	-146,504	-0,094	-0,006
-573,948	-200,000	0,017	0,056
-572,934	-200,000	-0,003	-0,055
-571,919	-200,000	0,014	-0,202
-570,904	-96,352	-0,091	0,018
-569,890	-200,000	-0,007	0,219
-568,875	514,247	0,089	0,153
-567,861	109,956	-0,114	0,100
-566,846	-40,631	0,132	-0,050
-565,831	-200,000	0,005	0,041
-564,817	153,752	-0,137	-0,138
-563,802	-200,000	-0,004	-0,150
-562,788	43,363	-0,138	-0,092
-561,773	27,227	-0,126	-0,077
-560,758	193,504	0,101	0,112
-559,744	-66,005	0,162	-0,047
-558,729	551,424	-0,048	-0,084
-557,715	-126,149	-0,062	-0,007
-556,700	800,000	-0,018	-0,039
-555,685	-71,579	-0,061	-0,017
-554,671	-65,218	0,017	0,005
-553,656	-53,035	-0,094	0,031
-552,642	-89,930	-0,079	-0,017
-551,627	-200,000	0,027	-0,113
-550,612	371,617	-0,057	-0,084
-549,598	-123,263	-0,041	0,005
-548,583	-200,000	0,003	0,009
-547,569	72,610	0,103	-0,079
-546,554	-90,245	0,135	0,029
-545,539	-152,895	0,064	-0,003
-544,525	34,724	0,047	0,030
-543,510	-53,597	-0,022	-0,007
-542,496	-200,000	0,011	-0,100
-541,481	-118,441	0,091	0,012
-540,466	85,613	-0,097	0,078
-539,452	-20,473	0,101	0,045
-538,437	-200,000	0,017	-0,105
-537,423	-200,000	-0,011	0,170
-536,408	-191,043	-0,120	0,001
-535,393	800,000	-0,052	-0,123
-534,379	123,469	-0,130	-0,119
-533,364	501,914	0,030	-0,051
-532,350	432,124	-0,044	-0,069
-531,335	-200,000	0,013	0,137
-530,321	221,552	-0,019	0,022
-529,306	-23,836	0,083	-0,036
-528,291	45,115	-0,004	-0,003
-527,277	800,000	-0,064	-0,197
-526,262	171,982	0,096	-0,101
-525,248	317,232	-0,061	-0,084
-524,233	-107,105	0,149	0,024
-523,218	749,895	-0,044	0,087
-522,204	-150,396	0,075	0,004
-521,189	800,000	0,015	0,043
-520,175	-200,000	-0,009	-0,039
-519,160	-101,897	0,049	-0,009
-518,145	278,845	-0,044	0,057
-517,131	-200,000	-0,018	-0,078
-516,116	165,283	0,109	-0,113
-515,102	145,750	-0,055	-0,054
-514,087	382,377	-0,104	0,156
-513,072	31,019	-0,060	-0,038
-512,058	302,135	-0,091	-0,124
-511,043	254,068	-0,070	0,088
-510,029	-53,473	-0,032	0,011
-509,014	800,000	-0,078	0,172
-507,999	75,141	-0,068	-0,052
-506,985	-113,728	0,062	0,009
-505,970	-130,253	-0,130	0,013
-504,956	-200,000	-0,021	-0,073
-503,941	-48,396	-0,022	0,008
-502,926	800,000	-0,065	0,146
-501,912	110,213	-0,051	0,045
-500,897	100,566	-0,048	0,040
-499,883	800,000	-0,024	-0,071
-498,868	800,000	-0,025	0,060
-497,853	-71,044	-0,083	-0,023
-496,839	-43,231	0,038	0,014
-495,824	12,606	-0,028	0,016
-494,810	295,797	0,102	-0,137
-493,795	-9,929	0,048	-0,023
-492,781	470,148	0,053	-0,088
-491,766	-115,224	-0,087	-0,012
-490,751	308,688	0,029	-0,039
-489,737	78,629	-0,061	0,048
-488,722	202,835	0,010	-0,011
-487,708	-200,000	0,010	-0,049
-486,693	-200,000	0,003	-0,076
-485,678	-13,040	-0,057	-0,027
-484,664	-72,418	0,113	0,030
-483,649	-24,971	-0,038	-0,016
-482,635	485,580	0,071	0,119
-481,620	-104,182	0,070	-0,012
-480,605	-113,576	0,100	-0,014
-479,591	800,000	0,033	0,104
-478,576	-29,637	-0,086	0,036
-477,562	-200,000	0,000	0,085
-476,547	-63,181	-0,088	-0,026
-475,532	-77,794	0,139	-0,035
-474,518	-200,000	-0,005	0,055
-473,503	-6,924	0,177	0,087
-472,489	-59,691	-0,121	0,038
-471,474	-200,000	-0,035	0,179
-470,459	-200,000	-0,018	-0,096
-469,445	-200,000	-0,018	0,076
-468,430	-200,000	0,010	0,087
-467,416	-200,000	0,031	0,104
-466,401	-150,540	0,060	-0,003
-465,386	800,000	0,068	0,165
-464,372	151,291	-0,087	-0,087
-463,357	32,484	-0,048	0,030
-462,343	-200,000	-0,006	0,107
-461,328	213,961	-0,088	-0,102
-460,313	800,000	-0,021	-0,058
-459,299	312,153	-0,031	0,042
-458,284	-71,242	0,056	-0,015
-457,270	-7,807	0,012	-0,006
-456,255	662,480	-0,024	-0,045
-455,241	3,041	-0,076	0,040
-454,226	800,000	-0,030	0,086
-453,211	-165,492	-0,098	0,003
-452,197	46,609	0,131	-0,088
-451,182	-200,000	-0,016	-0,053
-450,168	1,574	0,105	0,055
-449,153	387,503	0,015	0,022
-448,138	-42,931	0,037	-0,014
-447,124	-200,000	0,007	-0,050
-446,109	2,960	-0,075	0,040
-445,095	293,683	-0,063	0,084
-444,080	-70,814	0,126	0,034
-443,065	112,591	-0,104	-0,092
-442,051	-126,312	-0,110	0,012
-441,036	-19,720	0,160	-0,072
-440,022	-25,035	-0,052	-0,022
-439,007	800,000	-0,008	-0,018
-437,992	-114,658	-0,094	-0,013
-436,978	161,954	0,086	-0,087
-435,963	14,730	0,100	-0,057
-434,949	-200,000	0,004	-0,151
-433,934	276,004	-0,061	0,079
-432,919	193,916	-0,125	0,138
-431,905	-17,230	-0,110	-0,050
-430,890	-111,177	0,124	-0,018
-429,876	305,484	0,034	-0,047
-428,861	-200,000	-0,017	0,125
-427,846	-121,561	-0,070	-0,008
-426,832	-109,037	0,085	0,013
-425,817	265,047	-0,083	-0,105
-424,803	12,526	-0,075	-0,042
-423,788	-92,625	0,142	-0,029
-422,773	430,471	0,066	-0,105
-421,759	88,317	0,083	0,067
-420,744	-79,308	0,083	0,020
-419,730	134,396	0,026	-0,024
-418,715	-9,435	-0,061	-0,030
-417,701	3,156	-0,076	-0,040
-416,686	529,517	-0,019	-0,033
-415,671	691,016	0,053	-0,102
-414,657	-200,000	0,029	-0,095
-413,642	-200,000	-0,015	0,074
-412,628	800,000	-0,027	0,075
-411,613	-200,000	0,001	0,120
-410,598	-119,074	-0,081	0,010
-409,584	800,000	-0,024	-0,059
-408,569	546,582	-0,029	-0,050
-407,555	-200,000	0,001	0,017
-406,540	800,000	-0,040	-0,116
-405,525	252,252	-0,029	0,037
-404,511	-81,457	-0,054	0,013
-403,496	2,940	-0,055	-0,029
-402,482	-127,350	-0,027	-0,003
-401,467	800,000	0,055	-0,167
-400,452	32,572	0,104	0,065
-399,438	-45,765	-0,069	0,025
-398,423	-30,415	-0,108	-0,044
-397,409	-67,378	-0,085	-0,024
-396,394	-125,742	-0,096	0,010
-395,379	-138,083	-0,100	0,008
-394,365	800,000	-0,039	-0,107
-393,350	-200,000	-0,050	0,164
-392,336	19,506	0,167	-0,097
-391,321	-88,310	0,063	0,014
-390,306	135,169	-0,070	0,066
-389,292	66,864	0,069	-0,051
-388,277	-200,000	0,001	-0,022
-387,263	-200,000	0,012	-0,044
-386,248	-200,000	-0,001	0,049
-385,233	-37,293	0,230	0,089
-384,219	162,410	-0,046	0,047
-383,204	-148,776	0,105	0,006
-382,190	10,453	-0,060	-0,033
-381,175	-20,504	-0,049	0,022
-380,160	-75,328	0,044	0,011
-379,146	-200,000	0,011	0,044
-378,131	524,689	-0,031	0,054
-377,117	92,834	0,015	0,012
-376,102	-38,741	-0,169	0,064
-375,088	-157,768	-0,059	-0,003
-374,073	800,000	0,017	-0,042
-373,058	-200,000	0,018	0,080
-372,044	-200,000	0,001	0,052
-371,029	-200,000	-0,001	0,078
-370,015	197,438	-0,015	0,017
-369,000	-51,403	0,052	0,017
-367,985	130,747	-0,024	0,022
-366,971	300,759	0,080	0,108
-365,956	89,450	0,035	0,029
-364,942	358,471	-0,077	0,112
-363,927	511,210	0,023	0,040
-362,912	-200,000	-0,016	-0,065
-361,898	-200,000	0,002	-0,059
-360,883	-35,381	0,036	0,014
-359,869	-200,000	-0,004	0,140
-358,854	152,319	0,016	-0,016
-357,839	-200,000	0,007	-0,063
-356,825	566,920	0,059	0,105
-355,810	-200,000	-0,006	-0,044
-354,796	-107,629	-0,056	0,009
-353,781	800,000	-0,034	-0,081
-352,766	-170,784	-0,140	0,003
-351,752	-200,000	-0,009	0,082
-350,737	-200,000	-0,003	0,082
-349,723	727,221	-0,048	0,093
-348,708	-141,688	-0,055	0,004
-347,693	800,000	0,044	0,134
-346,679	-67,040	-0,073	-0,021
-345,664	-152,838	-0,082	0,004
-344,650	144,927	0,110	-0,107
-343,635	800,000	-0,041	0,095
-342,620	-200,000	-0,006	0,118
-341,606	303,606	-0,095	0,128
-340,591	12,748	0,113	-0,063
-339,577	800,000	-0,014	0,041
-338,562	800,000	0,030	-0,095
-337,548	302,800	0,046	-0,062
-336,533	294,468	-0,034	0,046
-335,518	359,098	-0,055	0,080
-334,504	-44,892	0,046	-0,016
-333,489	394,140	0,095	0,144
-332,475	-200,000	-0,015	-0,157
-331,460	660,410	-0,060	-0,112
-330,445	-161,795	-0,106	0,004
-329,431	-200,000	-0,009	0,056
-328,416	-39,046	0,026	-0,010
-327,402	800,000	-0,038	0,110
-326,387	-18,360	0,042	-0,019
-325,372	470,620	-0,079	-0,129
-324,358	-200,000	0,007	-0,128
-323,343	-200,000	0,002	-0,020
-322,329	-79,722	-0,130	0,031
-321,314	-7,832	0,136	-0,066
-320,299	5,850	0,033	-0,017
-319,285	-107,050	0,079	0,013
-318,270	29,313	-0,051	-0,032
-317,256	25,428	-0,076	-0,045
-316,241	800,000	0,033	0,072
-315,226	-103,621	-0,063	-0,011
-314,212	-141,281	-0,182	0,013
-313,197	208,521	0,080	0,091
-312,183	-200,000	0,025	-0,104
-311,168	-95,249	-0,078	-0,015
-310,153	800,000	0,043	0,117
-309,139	-200,000	-0,001	-0,078
-308,124	-13,804	0,089	0,042
-307,110	800,000	0,015	0,035
-306,095	-122,452	0,090	0,011
-305,080	800,000	-0,030	-0,063
-304,066	302,526	-0,031	-0,042
-303,051	-200,000	-0,003	-0,063
-302,037	307,373	0,027	0,037
-301,022	800,000	0,039	0,099
-300,008	-88,530	-0,094	0,020
-298,993	72,704	0,032	0,024
-297,978	111,297	-0,104	-0,091
-296,964	-56,202	-0,053	-0,017
-295,949	-200,000	0,023	-0,072
-294,935	378,290	0,040	0,060
-293,920	400,820	0,064	-0,097
-292,905	-99,929	-0,162	-0,029
-291,891	-200,000	-0,001	-0,080
-290,876	800,000	0,017	0,035
-289,862	-4,077	-0,026	-0,013
-288,847	-200,000	-0,063	-0,205
-287,832	30,048	0,134	-0,082
-286,818	659,599	0,042	-0,079
-285,803	33,056	0,021	-0,013
-284,789	-73,351	0,096	0,025
-283,774	59,091	0,096	-0,068
-282,759	73,549	0,031	-0,024
-281,745	-146,181	-0,064	-0,004
-280,730	24,923	-0,127	0,076
-279,716	40,816	0,089	0,058
-278,701	-200,000	0,025	0,118
-277,686	128,159	-0,139	0,128
-276,672	-45,133	0,091	0,033
-275,657	-200,000	0,000	-0,070
-274,643	-200,000	0,003	-0,116
-273,628	-200,000	-0,017	-0,170
-272,613	-77,626	-0,129	0,032
-271,599	87,158	0,035	-0,028
-270,584	207,097	0,163	0,184
-269,570	-153,845	-0,085	-0,004
-268,555	-123,564	-0,022	0,003
-267,540	443,811	-0,084	-0,133
-266,526	-92,883	-0,133	0,027
-265,511	-200,000	-0,032	0,132
-264,497	-11,270	0,089	0,042
-263,482	800,000	-0,060	0,152
-262,467	-186,575	-0,095	-0,001
-261,453	45,529	0,135	0,090
-260,438	-200,000	-0,018	-0,067
-259,424	-117,998	-0,091	-0,012
-258,409	-14,295	-0,060	-0,028
-257,395	-200,000	-0,022	0,150
-256,380	-65,084	0,121	0,035
-255,365	52,818	-0,034	0,024
-254,351	592,790	0,031	0,056
-253,336	-200,000	-0,005	0,068
-252,322	-200,000	0,015	-0,079
-251,307	-200,000	0,002	-0,056
-250,292	800,000	0,063	-0,130
-249,278	-74,138	0,135	0,035
-248,263	56,515	0,138	-0,097
-247,249	64,380	-0,111	-0,081
-246,234	122,865	-0,086	-0,078
-245,219	350,038	-0,042	-0,060
-244,205	-200,000	-0,016	-0,088
-243,190	-43,284	0,141	0,051
-242,176	800,000	0,081	0,235
-241,161	800,000	-0,028	0,061
-240,146	-147,287	0,102	0,006
-239,132	-141,650	-0,040	-0,003
-238,117	327,491	0,041	-0,057
-237,103	420,167	0,035	-0,055
-236,088	-200,000	0,005	0,049
-235,073	-200,000	0,005	0,159
-234,059	74,257	0,108	0,082
-233,044	170,181	-0,089	0,092
-232,030	-200,000	0,016	-0,065
-231,015	79,881	0,045	-0,035
-230,000	56,286	-0,048	0,033
-228,986	-43,515	0,059	0,021
-227,971	127,546	0,017	-0,016
-226,957	-126,156	0,084	-0,009
-225,942	423,987	0,066	0,103
-224,927	75,152	-0,082	0,063
-223,913	201,305	-0,058	-0,065
-222,898	485,645	-0,086	-0,142
-221,884	615,072	0,027	-0,049
-220,869	800,000	0,021	0,059
-219,855	-71,004	0,046	0,012
-218,840	369,225	0,102	0,150
-217,825	-12,132	-0,020	-0,009
-216,811	-200,000	-0,031	-0,169
-215,796	163,453	0,023	0,023
-214,782	172,080	0,039	0,040
-213,767	-48,872	0,120	0,041
-212,752	800,000	0,025	-0,051
-211,738	178,590	0,053	0,056
-210,723	-117,099	0,057	0,007
-209,709	800,000	0,032	-0,090
-208,694	115,473	-0,048	-0,042
-207,679	-123,597	0,047	-0,005
-206,665	-134,710	0,027	-0,002
-205,650	-76,860	-0,060	0,015
-204,636	-200,000	0,023	-0,138
-203,621	29,894	0,122	-0,075
-202,606	800,000	0,032	-0,071
-201,592	-129,314	0,172	0,017
-200,577	-19,798	0,081	0,036
-199,563	-31,352	0,100	0,040
-198,548	-38,122	0,088	0,033
-197,533	800,000	0,059	0,182
-196,519	101,918	-0,025	-0,021
-195,504	-148,233	0,118	0,007
-194,490	-145,394	-0,043	0,003
-193,475	219,441	0,099	-0,115
-192,460	-19,873	-0,092	0,041
-191,446	111,298	-0,052	-0,045
-190,431	-200,000	0,012	-0,107
-189,417	-44,845	-0,132	-0,047
-188,402	-54,395	0,150	0,049
-187,387	437,779	0,043	-0,069
-186,373	-200,000	0,019	0,092
-185,358	537,147	-0,017	-0,028
-184,344	276,669	-0,050	0,064
-183,329	-13,308	0,039	0,018
-182,315	215,438	0,116	0,133
-181,300	-83,853	-0,144	0,033
-180,285	800,000	0,017	0,045
-179,271	248,334	-0,059	-0,073
-178,256	-20,071	0,061	-0,027
-177,242	-151,365	-0,127	0,007
-176,227	800,000	-0,020	-0,050
-175,212	125,550	-0,083	-0,075
-174,198	-200,000	-0,025	-0,141
-173,183	274,579	0,054	0,069
-172,169	-39,096	-0,087	-0,033
-171,154	-154,648	-0,110	0,005
-170,139	6,191	0,038	-0,020
-169,125	400,175	0,049	-0,074
-168,110	27,925	0,042	0,025
-167,096	-200,000	-0,005	-0,046
-166,081	-29,114	0,096	-0,039
-165,066	-71,234	-0,078	-0,021
-164,052	-84,757	-0,053	-0,012
-163,037	-128,808	-0,091	0,009
-162,023	277,178	0,066	0,084
-161,008	4,330	0,067	-0,035
-159,993	410,660	-0,078	-0,120
-158,979	-200,000	-0,010	-0,066
-157,964	120,291	-0,110	0,098
-156,950	-93,026	0,042	0,008
-155,935	-200,000	0,005	0,047
-154,920	-184,231	0,095	0,001
-153,906	-200,000	0,019	0,107
-152,891	-22,911	-0,074	0,032
-151,877	-68,449	-0,022	-0,006
-150,862	269,963	0,015	0,019
-149,847	120,468	0,068	-0,061
-148,833	-18,756	-0,061	0,027
-147,818	-200,000	0,003	0,162
-146,804	800,000	0,026	-0,080
-145,789	-34,191	0,034	0,013
-144,775	17,497	-0,026	-0,015
-143,760	707,309	-0,030	-0,058
-142,745	-200,000	-0,003	-0,024
-141,731	-200,000	0,000	0,171
-140,716	-21,823	-0,005	0,002
-139,702	-200,000	-0,011	-0,076
-138,687	85,408	-0,041	0,032
-137,672	34,337	0,042	0,026
-136,658	800,000	-0,018	-0,042
-135,643	-200,000	-0,022	-0,105
-134,629	-57,791	-0,128	0,040
-133,614	800,000	0,043	0,125
-132,599	-27,397	-0,094	-0,039
-131,585	-45,288	0,046	-0,016
-130,570	800,000	-0,031	-0,093
-129,556	-86,131	0,058	0,013
-128,541	-200,000	-0,005	0,113
-127,526	-5,099	-0,036	0,018
-126,512	-94,561	0,130	-0,025
-125,497	-56,039	0,151	0,048
-124,483	-200,000	0,002	0,014
-123,468	-200,000	0,032	0,137
-122,453	116,909	-0,046	-0,041
-121,439	76,039	0,022	-0,017
-120,424	800,000	0,022	-0,055
