DTS Sentinel unit serial number:	SN410029Multiplexer serial number:	ORYXHardware model number:	OX2-SRSoftware version number:	ORYX F/W v4,00 Oryx Data Collector v3.7.2.0data status	okinstallation	B6 Nyhavnadifferential loss correction	single-endedforward channel	channel 2reverse channel	N/Adate	2023/12/07time	17:15:08forward acquisition time	300,00reverse acquisition time	0,00gamma	499,1914k internal	0,3164k external	0,3164temperature offset calibration	1,0000default loss term (dB/km)	0,3820temperature slope calibration	1,0000multiplexer offset coefficient	1,0000multiplexer slope coefficient	1,0000fibre end	0,00T internal ref (°C)	14,49T ext. ref 1 (°C)	-2,38T ext. ref 2 (°C)	-2,38length (m)	temperature (°C)	Stokes	anti-Stokes-744,400	365,505	0,088	0,131
-743,385	-93,579	-0,187	0,038
-742,371	-92,267	0,235	0,048
-741,356	-123,527	-0,246	-0,028
-740,342	-188,450	0,090	0,001
-739,327	-83,874	-0,318	-0,074
-738,312	-19,683	0,100	0,045
-737,298	-108,137	-0,344	-0,054
-736,283	318,287	0,036	0,050
-735,269	-109,826	-0,319	0,049
-734,254	438,479	-0,055	0,088
-733,239	-57,095	-0,485	-0,156
-732,225	78,372	0,088	0,069
-731,210	69,551	-0,051	0,039
-730,196	261,589	-0,022	0,028
-729,181	20,367	-0,033	0,020
-728,167	376,571	-0,075	-0,113
-727,152	-200,000	-0,024	-0,197
-726,137	96,444	0,061	-0,051
-725,123	800,000	-0,054	-0,136
-724,108	73,444	-0,066	0,051
-723,094	800,000	-0,063	-0,138
-722,079	419,226	0,096	-0,152
-721,064	800,000	0,017	-0,038
-720,050	-93,539	-0,175	-0,035
-719,035	800,000	0,035	-0,076
-718,021	50,994	-0,077	0,053
-717,006	-32,233	-0,229	-0,093
-715,991	-55,210	-0,117	0,038
-714,977	-200,000	0,004	-0,120
-713,962	-140,613	-0,107	0,008
-712,948	-98,806	0,032	0,006
-711,933	800,000	0,059	-0,127
-710,918	305,841	-0,079	-0,109
-709,904	192,685	-0,006	-0,007
-708,889	-88,485	-0,065	-0,014
-707,875	-111,200	-0,050	-0,008
-706,860	211,447	0,070	-0,082
-705,845	-14,185	0,052	0,024
-704,831	-200,000	-0,015	0,139
-703,816	-140,995	-0,046	0,003
-702,802	-21,099	0,024	0,011
-701,787	-200,000	-0,015	-0,060
-700,772	-200,000	0,009	-0,194
-699,758	-200,000	-0,026	0,097
-698,743	271,378	-0,089	-0,115
-697,729	526,188	0,084	-0,146
-696,714	800,000	0,053	0,108
-695,699	-200,000	-0,024	-0,163
-694,685	-39,728	-0,121	0,046
-693,670	-193,600	-0,080	-0,000
-692,656	370,594	-0,075	-0,112
-691,641	-15,882	-0,106	-0,049
-690,627	-70,418	0,128	0,035
-689,612	-200,000	0,008	-0,156
-688,597	53,095	0,021	0,015
-687,583	-200,000	-0,005	0,034
-686,568	118,835	0,041	0,037
-685,554	800,000	0,030	0,067
-684,539	-83,060	-0,086	-0,020
-683,524	-104,775	0,155	-0,026
-682,510	-200,000	-0,003	0,036
-681,495	-69,045	-0,054	-0,015
-680,481	-200,000	-0,008	0,029
-679,466	-92,372	-0,046	0,009
-678,451	-200,000	0,008	-0,070
-677,437	391,582	-0,045	0,068
-676,422	367,561	-0,056	0,083
-675,408	-15,386	0,031	-0,014
-674,393	141,470	0,069	-0,067
-673,378	27,891	-0,181	-0,112
-672,364	117,103	-0,100	0,090
-671,349	494,858	0,084	-0,143
-670,335	800,000	-0,014	0,044
-669,320	491,276	-0,075	0,126
-668,305	-147,416	0,041	0,003
-667,291	-200,000	0,024	0,180
-666,276	-200,000	-0,036	-0,149
-665,262	51,154	-0,033	-0,023
-664,247	-6,265	-0,093	-0,047
-663,232	-1,236	-0,094	0,049
-662,218	-46,851	0,081	0,029
-661,203	-8,773	-0,051	-0,025
-660,189	-153,882	-0,084	0,004
-659,174	-200,000	-0,002	0,028
-658,159	84,010	0,032	0,025
-657,145	22,801	-0,083	-0,050
-656,130	-200,000	0,044	-0,172
-655,116	197,739	0,050	-0,057
-654,101	-200,000	-0,001	-0,045
-653,086	218,906	-0,033	0,039
-652,072	121,437	-0,064	0,058
-651,057	800,000	0,065	-0,176
-650,043	552,720	-0,079	-0,140
-649,028	212,227	-0,056	-0,065
-648,014	-92,780	0,107	0,022
-646,999	800,000	0,037	0,076
-645,984	162,419	-0,035	-0,036
-644,970	428,975	0,047	0,074
-643,955	800,000	0,020	-0,043
-642,941	800,000	0,024	-0,060
-641,926	-200,000	-0,016	0,119
-640,911	-23,125	-0,109	-0,048
-639,897	-92,305	0,111	0,023
-638,882	119,842	0,047	0,043
-637,868	102,023	0,050	-0,043
-636,853	800,000	0,023	0,067
-635,838	216,281	-0,094	-0,110
-634,824	-200,000	0,003	-0,037
-633,809	-150,833	0,132	-0,007
-632,795	38,482	-0,054	-0,035
-631,780	-30,929	0,134	0,055
-630,765	212,954	0,050	0,058
-629,751	-42,139	-0,069	-0,026
-628,736	-109,495	-0,163	-0,025
-627,722	-0,505	0,070	0,036
-626,707	8,946	-0,050	-0,028
-625,692	-200,000	0,053	0,175
-624,678	800,000	-0,036	0,075
-623,663	712,368	0,004	0,008
-622,649	30,487	-0,015	0,010
-621,634	235,788	-0,098	-0,119
-620,619	-200,000	0,016	-0,076
-619,605	-180,789	0,050	-0,001
-618,590	-200,000	-0,009	-0,060
-617,576	50,032	0,055	0,038
-616,561	682,057	-0,062	-0,120
-615,546	-130,374	0,024	0,002
-614,532	-80,325	-0,068	-0,017
-613,517	-167,599	0,065	0,002
-612,503	-67,067	0,014	0,004
-611,488	368,762	0,016	0,024
-610,474	4,531	0,038	0,021
-609,459	497,143	-0,063	0,107
-608,444	-200,000	0,009	-0,133
-607,430	-64,328	-0,092	-0,027
-606,415	-200,000	0,001	-0,063
-605,401	-115,480	-0,133	-0,018
-604,386	-200,000	0,014	0,113
-603,371	32,443	-0,013	0,008
-602,357	-65,924	-0,112	0,033
-601,342	-104,941	0,082	0,014
-600,328	800,000	0,010	0,023
-599,313	-200,000	0,002	0,019
-598,298	-61,082	0,025	-0,008
-597,284	-9,437	-0,133	0,065
-596,269	-200,000	0,001	-0,018
-595,255	-200,000	0,023	0,105
-594,240	-46,796	0,052	0,019
-593,225	800,000	0,032	-0,079
-592,211	-133,031	0,094	0,009
-591,196	-37,155	0,072	0,028
-590,182	-133,668	0,066	0,006
-589,167	-140,336	-0,169	-0,013
-588,152	-200,000	-0,013	0,122
-587,138	42,958	-0,077	0,051
-586,123	-89,969	-0,040	-0,008
-585,109	-180,873	-0,170	-0,002
-584,094	-16,600	-0,109	0,050
-583,079	180,057	-0,023	0,025
-582,065	282,477	-0,034	-0,044
-581,050	-200,000	-0,013	0,122
-580,036	800,000	0,028	0,061
-579,021	800,000	-0,038	0,099
-578,006	750,092	-0,071	0,141
-576,992	38,518	0,080	-0,052
-575,977	-115,555	0,087	-0,012
-574,963	-13,376	-0,019	-0,009
-573,948	800,000	0,051	0,129
-572,934	188,565	-0,057	-0,063
-571,919	-200,000	0,012	0,043
-570,904	-200,000	-0,015	-0,088
-569,890	-200,000	0,014	-0,049
-568,875	-134,288	0,182	0,016
-567,861	-200,000	0,003	0,107
-566,846	615,119	0,052	0,095
-565,831	461,194	0,026	-0,043
-564,817	408,329	0,018	0,027
-563,802	94,287	-0,058	0,048
-562,788	249,022	0,085	-0,105
-561,773	800,000	0,011	0,030
-560,758	272,926	0,069	0,089
-559,744	800,000	0,017	0,040
-558,729	105,287	0,075	0,065
-557,715	617,980	0,070	0,128
-556,700	-200,000	0,001	0,038
-555,685	800,000	-0,060	0,154
-554,671	145,479	0,075	-0,074
-553,656	-2,909	-0,037	-0,019
-552,642	388,501	0,055	-0,083
-551,627	800,000	0,027	-0,060
-550,612	89,458	-0,075	-0,061
-549,598	63,864	-0,041	0,030
-548,583	-200,000	-0,003	-0,146
-547,569	163,482	-0,020	-0,021
-546,554	-48,230	-0,019	-0,007
-545,539	-129,036	-0,079	-0,008
-544,525	96,615	-0,048	0,040
-543,510	-135,781	-0,013	0,001
-542,496	-92,023	-0,074	-0,015
-541,481	-195,688	-0,116	0,001
-540,466	25,980	-0,089	-0,054
-539,452	317,986	0,079	0,109
-538,437	235,128	0,105	0,127
-537,423	512,809	0,085	0,145
-536,408	-68,187	-0,235	-0,066
-535,393	46,607	0,100	0,068
-534,379	-124,724	-0,038	0,004
-533,364	-200,000	-0,014	0,046
-532,350	-108,287	0,105	0,016
-531,335	-96,174	-0,055	-0,011
-530,321	268,557	0,013	-0,016
-529,306	324,051	0,049	-0,069
-528,291	-115,131	-0,125	-0,017
-527,277	20,743	-0,061	-0,036
-526,262	41,942	0,100	0,066
-525,248	189,326	0,007	0,007
-524,233	63,396	-0,096	0,070
-523,218	-200,000	0,018	-0,082
-522,204	800,000	0,013	0,029
-521,189	-200,000	-0,032	0,121
-520,175	800,000	-0,024	-0,050
-519,160	-200,000	-0,005	-0,072
-518,145	-159,313	0,043	-0,002
-517,131	34,599	0,016	-0,010
-516,116	-200,000	-0,000	-0,138
-515,102	-46,078	0,116	-0,042
-514,087	-111,094	-0,055	-0,008
-513,072	-45,461	0,074	-0,027
-512,058	-18,298	-0,129	-0,059
-511,043	-200,000	-0,016	-0,100
-510,029	800,000	0,056	0,152
-509,014	58,607	-0,004	0,003
-507,999	-87,448	0,100	0,022
-506,985	-123,988	-0,100	-0,011
-505,970	43,312	0,090	-0,060
-504,956	71,905	-0,033	-0,025
-503,941	-2,732	0,100	-0,051
-502,926	-31,745	0,077	0,031
-501,912	800,000	-0,063	0,162
-500,897	-68,514	0,171	-0,048
-499,883	274,585	0,049	-0,063
-498,868	361,292	-0,065	-0,095
-497,853	-49,551	-0,088	-0,031
-496,839	589,295	0,010	-0,019
-495,824	-91,708	-0,054	-0,011
-494,810	-200,000	0,005	-0,111
-493,795	16,942	-0,076	0,044
-492,781	-200,000	0,010	-0,047
-491,766	390,974	0,072	-0,109
-490,751	484,174	0,045	-0,075
-489,737	46,909	0,069	-0,046
-488,722	24,470	0,100	-0,060
-487,708	-105,393	0,145	-0,024
-486,693	-200,000	0,005	0,046
-485,678	-84,110	0,027	-0,006
-484,664	800,000	-0,031	-0,096
-483,649	-49,658	-0,054	-0,019
-482,635	218,472	-0,126	-0,147
-481,620	-58,018	-0,030	0,010
-480,605	-24,250	0,107	0,046
-479,591	4,483	0,056	0,030
-478,576	-200,000	0,040	-0,135
-477,562	-60,747	0,179	-0,055
-476,547	154,359	-0,136	-0,136
-475,532	-200,000	-0,025	-0,122
-474,518	228,707	-0,051	-0,061
-473,503	-53,824	0,090	0,030
-472,489	16,727	-0,085	-0,049
-471,474	-93,153	-0,160	0,032
-470,459	16,712	-0,066	0,038
-469,445	-84,146	0,001	0,000
-468,430	249,711	-0,089	-0,110
-467,416	256,585	-0,063	0,079
-466,401	260,324	0,081	0,102
-465,386	112,212	0,114	0,100
-464,372	800,000	0,027	-0,068
-463,357	-200,000	-0,000	-0,104
-462,343	-81,473	-0,066	0,016
-461,328	112,379	-0,043	-0,038
-460,313	-155,965	-0,077	-0,004
-459,299	100,746	-0,041	0,034
-458,284	-108,498	-0,082	0,013
-457,270	-200,000	0,002	0,030
-456,255	-200,000	0,034	-0,150
-455,241	-71,009	-0,033	0,009
-454,226	199,900	-0,086	-0,096
-453,211	390,988	-0,031	-0,047
-452,197	313,180	-0,006	0,008
-451,182	51,731	-0,055	0,038
-450,168	800,000	-0,042	-0,095
-449,153	13,551	0,055	0,031
-448,138	51,967	-0,061	-0,042
-447,124	116,776	-0,072	0,064
-446,109	800,000	-0,027	0,063
-445,095	-200,000	0,009	0,112
-444,080	114,474	0,101	0,089
-443,065	800,000	-0,004	0,010
-442,051	24,483	-0,176	0,106
-441,036	-128,113	-0,049	-0,005
-440,022	27,851	-0,047	-0,029
-439,007	229,855	0,045	-0,054
-437,992	289,597	0,050	0,066
-436,978	-71,743	0,120	0,032
-435,963	-50,556	-0,083	0,028
-434,949	-68,088	0,056	0,016
-433,934	-200,000	0,001	-0,033
-432,919	98,861	0,049	0,041
-431,905	-200,000	-0,049	-0,162
-430,890	-75,934	0,077	0,020
-429,876	-200,000	0,011	0,095
-428,861	218,613	-0,021	0,025
-427,846	-200,000	0,006	0,060
-426,832	339,537	-0,024	0,035
-425,817	31,982	-0,053	-0,033
-424,803	-4,382	-0,067	0,033
-423,788	-26,959	0,092	0,039
-422,773	299,582	0,078	-0,105
-421,759	-200,000	0,027	0,104
-420,744	-172,051	-0,067	0,002
-419,730	103,353	0,078	0,066
-418,715	215,545	-0,074	-0,086
-417,701	800,000	-0,019	-0,040
-416,686	-90,354	0,051	0,011
-415,671	-150,367	0,054	0,003
-414,657	63,883	-0,045	0,033
-413,642	800,000	0,035	0,081
-412,628	703,547	0,073	-0,140
-411,613	-89,232	-0,076	0,016
-410,598	108,140	-0,049	0,043
-409,584	-126,840	-0,114	0,012
-408,569	-31,834	0,091	0,037
-407,555	800,000	0,051	0,124
-406,540	473,833	0,029	0,047
-405,525	-200,000	0,004	-0,019
-404,511	74,288	-0,116	-0,089
-403,496	-138,070	0,055	-0,004
-402,482	-200,000	-0,033	0,141
-401,467	-51,858	0,066	0,022
-400,452	-200,000	0,013	0,161
-399,438	800,000	-0,040	-0,119
-398,423	24,748	-0,064	0,039
-397,409	36,420	0,070	-0,045
-396,394	319,646	-0,094	-0,130
-395,379	-200,000	-0,019	0,094
-394,365	23,109	0,045	0,027
-393,350	61,097	-0,100	-0,072
-392,336	89,630	-0,058	0,047
-391,321	-136,147	-0,050	0,004
-390,306	-200,000	0,008	0,206
-389,292	181,828	0,038	-0,041
-388,277	-200,000	0,011	-0,050
-387,263	321,669	0,106	-0,147
-386,248	-80,724	0,195	0,047
-385,233	-137,684	0,116	0,009
-384,219	111,608	-0,040	0,035
-383,204	-33,394	0,033	-0,013
-382,190	-67,202	-0,065	0,018
-381,175	104,518	-0,083	-0,071
-380,160	-200,000	-0,008	0,090
-379,146	-200,000	-0,017	0,112
-378,131	-200,000	-0,027	0,127
-377,117	720,936	-0,033	0,065
-376,102	800,000	0,055	-0,126
-375,088	20,121	-0,088	-0,051
-374,073	-93,381	-0,011	0,002
-373,058	735,176	-0,018	0,035
-372,044	136,784	-0,054	0,051
-371,029	-200,000	0,002	-0,006
-370,015	567,946	0,040	-0,071
-369,000	201,507	-0,065	0,073
-367,985	283,760	-0,031	0,040
-366,971	-3,731	-0,048	0,024
-365,956	800,000	0,053	0,141
-364,942	-2,716	0,033	-0,016
-363,927	307,288	0,061	0,083
-362,912	136,930	0,029	0,028
-361,898	-200,000	-0,036	-0,116
-360,883	255,837	-0,095	-0,118
-359,869	90,449	0,062	0,051
-358,854	-200,000	0,006	-0,057
-357,839	580,268	-0,021	-0,037
-356,825	104,446	0,058	-0,049
-355,810	-113,336	-0,073	-0,010
-354,796	-80,543	0,033	-0,008
-353,781	260,327	0,077	-0,097
-352,766	200,177	-0,093	-0,103
-351,752	-7,207	-0,119	-0,058
-350,737	-37,362	0,155	0,060
-349,723	52,993	0,019	0,013
-348,708	-88,630	-0,050	0,011
-347,693	800,000	0,054	-0,119
-346,679	101,928	0,025	-0,021
-345,664	-200,000	-0,016	-0,081
-344,650	-200,000	-0,001	0,027
-343,635	-149,988	-0,066	-0,004
-342,620	53,803	0,046	0,032
-341,606	-105,051	-0,118	-0,019
-340,591	76,689	0,065	0,050
-339,577	-200,000	0,019	-0,104
-338,562	-200,000	0,009	-0,069
-337,548	-200,000	-0,045	-0,177
-336,533	224,605	-0,055	0,065
-335,518	364,242	0,081	-0,118
-334,504	90,380	0,095	0,077
-333,489	140,937	0,037	0,035
-332,475	800,000	-0,046	-0,117
-331,460	-200,000	-0,008	-0,093
-330,445	-63,505	0,124	0,037
-329,431	-80,996	0,077	-0,018
-328,416	-131,187	0,184	-0,017
-327,402	-169,613	0,062	-0,002
-326,387	196,113	-0,068	-0,075
-325,372	-89,641	0,062	-0,013
-324,358	-200,000	0,002	-0,122
-323,343	-200,000	0,009	-0,202
-322,329	134,607	-0,025	-0,023
-321,314	-88,110	0,080	0,017
-320,299	63,239	-0,012	-0,009
-319,285	-52,477	0,060	0,020
-318,270	800,000	0,021	-0,049
-317,256	315,114	-0,040	-0,054
-316,241	-200,000	0,002	-0,038
-315,226	800,000	0,033	-0,093
-314,212	-107,507	0,125	0,020
-313,197	315,869	-0,025	0,035
-312,183	92,887	-0,071	0,058
-311,168	-200,000	0,004	0,032
-310,153	125,958	0,046	-0,042
-309,139	-58,389	0,052	0,016
-308,124	-200,000	0,004	0,100
-307,110	-78,504	-0,016	0,004
-306,095	-200,000	-0,022	0,136
-305,080	800,000	-0,019	0,049
-304,066	-138,868	-0,052	0,004
-303,051	43,977	-0,067	-0,044
-302,037	65,531	0,093	0,068
-301,022	-174,851	-0,148	0,003
-300,008	-94,123	0,074	0,015
-298,993	-127,377	0,028	0,003
-297,978	184,306	-0,056	0,060
-296,964	-26,000	0,178	-0,075
-295,949	-125,389	-0,106	-0,012
-294,935	254,800	-0,146	0,181
-293,920	-200,000	-0,024	-0,124
-292,905	156,104	0,088	-0,088
-291,891	-69,564	-0,138	0,038
-290,876	589,825	-0,054	0,097
-289,862	223,801	-0,091	-0,106
-288,847	-200,000	-0,004	0,149
-287,832	134,142	-0,020	-0,019
-286,818	-46,778	0,117	-0,041
-285,803	14,632	0,066	-0,037
-284,789	-133,131	-0,065	0,006
-283,774	-107,560	0,183	0,029
-282,759	-200,000	-0,009	-0,062
-281,745	574,924	0,075	-0,133
-280,730	-12,725	-0,060	0,028
-279,716	-92,967	0,161	0,032
-278,701	192,418	-0,067	0,073
-277,686	461,232	0,051	0,083
-276,672	-8,086	-0,065	0,032
-275,657	-200,000	-0,003	-0,061
-274,643	20,531	-0,117	-0,068
-273,628	-200,000	-0,011	0,035
-272,613	-200,000	-0,005	0,065
-271,599	146,248	0,077	0,074
-270,584	678,572	0,025	0,047
-269,570	-28,212	-0,056	-0,023
-268,555	93,430	-0,064	0,052
-267,540	254,699	-0,121	-0,150
-266,526	0,313	-0,101	0,052
-265,511	-2,058	-0,036	-0,018
-264,497	-27,603	0,045	0,019
-263,482	-154,167	0,111	-0,005
-262,467	-200,000	0,037	0,128
-261,453	-75,881	-0,055	-0,014
-260,438	135,501	0,175	-0,165
-259,424	95,658	-0,096	-0,079
-258,409	-11,515	0,148	-0,070
-257,395	-44,384	-0,030	0,011
-256,380	295,525	-0,048	-0,064
-255,365	414,749	0,044	0,068
-254,351	67,092	0,073	-0,054
-253,336	-200,000	-0,056	0,205
-252,322	762,958	0,084	-0,165
-251,307	800,000	0,026	-0,071
-250,292	-200,000	0,001	0,022
-249,278	120,015	0,092	0,082
-248,263	-200,000	-0,027	0,123
-247,249	203,007	0,015	0,016
-246,234	800,000	0,047	-0,134
-245,219	-200,000	0,004	-0,108
-244,205	79,030	-0,046	0,036
-243,190	-200,000	0,002	-0,046
-242,176	-200,000	0,017	-0,269
-241,161	333,413	0,052	-0,073
-240,146	800,000	0,061	-0,151
-239,132	-35,855	-0,120	0,047
-238,117	416,853	-0,059	0,091
-237,103	-114,750	0,141	-0,019
-236,088	-16,457	-0,149	0,068
-235,073	684,850	0,051	-0,096
-234,059	800,000	0,008	-0,025
-233,044	91,124	0,020	0,017
-232,030	303,830	0,079	-0,105
-231,015	800,000	-0,034	-0,080
-230,000	23,379	-0,053	0,031
-228,986	-200,000	0,001	0,039
-227,971	196,547	0,051	0,057
-226,957	-200,000	-0,031	0,108
-225,942	282,763	0,041	-0,053
-224,927	-200,000	-0,008	0,046
-223,913	677,877	0,034	-0,064
-222,898	-96,349	-0,077	0,015
-221,884	198,560	-0,072	0,080
-220,869	147,891	0,135	0,131
-219,855	-200,000	-0,017	0,065
-218,840	130,968	-0,065	-0,060
-217,825	51,883	-0,042	-0,029
-216,811	-64,692	-0,251	-0,073
-215,796	-200,000	-0,041	-0,162
-214,782	6,912	0,026	0,014
-213,767	-200,000	-0,005	0,053
-212,752	140,895	0,143	0,136
-211,738	-77,439	0,086	-0,021
-210,723	43,001	-0,112	-0,073
-209,709	-65,243	-0,110	-0,032
-208,694	-44,077	0,033	0,012
-207,679	-161,925	0,051	-0,002
-206,665	-200,000	-0,017	0,143
-205,650	420,314	-0,045	0,069
-204,636	131,338	0,047	0,044
-203,621	-128,469	-0,097	-0,010
-202,606	800,000	-0,055	0,111
-201,592	-155,762	-0,072	0,003
-200,577	276,000	0,082	-0,105
-199,563	800,000	-0,030	0,073
-198,548	-40,134	0,139	0,052
-197,533	-200,000	0,001	0,035
-196,519	-200,000	0,024	0,222
-195,504	187,528	-0,052	0,056
-194,490	470,053	-0,053	-0,087
-193,475	24,907	-0,096	0,057
-192,460	-40,804	0,213	-0,079
-191,446	108,136	0,041	0,035
-190,431	-200,000	-0,011	0,136
-189,417	-93,798	-0,116	-0,023
-188,402	-4,027	-0,047	-0,023
-187,387	276,807	-0,107	-0,137
-186,373	800,000	-0,036	-0,108
-185,358	-200,000	-0,022	0,131
-184,344	-171,694	-0,123	0,003
-183,329	-200,000	0,004	0,090
-182,315	719,112	0,041	0,080
-181,300	800,000	-0,023	0,054
-180,285	800,000	0,004	0,008
-179,271	-187,838	-0,061	0,001
-178,256	16,607	0,025	-0,014
-177,242	135,498	0,121	-0,113
-176,227	17,954	-0,075	-0,043
-175,212	800,000	0,029	-0,062
-174,198	-200,000	-0,007	-0,112
-173,183	-200,000	0,028	-0,094
-172,169	-13,858	-0,027	0,012
-171,154	68,775	0,058	0,043
-170,139	147,915	0,027	-0,026
-169,125	-200,000	-0,010	0,062
-168,110	-40,278	0,115	0,043
-167,096	-122,998	0,072	0,008
-166,081	-146,223	0,020	0,001
-165,066	-200,000	0,014	-0,108
-164,052	-200,000	0,003	-0,086
-163,037	-164,497	0,067	-0,002
-162,023	403,876	0,030	0,046
-161,008	368,273	-0,048	0,069
-159,993	-200,000	-0,009	0,083
-158,979	94,645	0,046	0,037
-157,964	800,000	0,018	0,057
-156,950	5,096	-0,022	-0,011
-155,935	259,137	0,022	0,027
-154,920	800,000	0,071	0,148
-153,906	800,000	-0,053	0,112
-152,891	60,650	-0,076	-0,054
-151,877	-50,600	0,108	-0,036
-150,862	153,911	0,030	-0,030
-149,847	-50,130	-0,016	-0,005
-148,833	800,000	-0,037	-0,078
-147,818	-94,544	-0,100	0,019
-146,804	-179,428	0,111	-0,002
-145,789	800,000	-0,017	-0,034
-144,775	-200,000	-0,041	-0,168
-143,760	117,082	-0,051	0,045
-142,745	-65,048	-0,029	0,008
-141,731	800,000	0,022	0,052
-140,716	105,206	0,076	0,065
-139,702	-120,990	0,068	0,008
-138,687	-200,000	0,001	-0,171
-137,672	-17,818	-0,070	0,032
-136,658	800,000	-0,021	-0,050
-135,643	586,254	0,034	-0,060
-134,629	31,208	-0,127	0,078
-133,614	-73,550	-0,021	0,005
-132,599	226,067	0,170	-0,198
-131,585	-200,000	-0,021	0,098
-130,570	612,157	-0,114	0,206
-129,556	800,000	-0,035	-0,103
-128,541	-200,000	0,018	-0,068
-127,526	186,277	-0,070	0,075
-126,512	688,435	0,058	0,110
-125,497	470,531	0,072	0,117
-124,483	800,000	0,047	-0,101
-123,468	-70,571	0,049	0,013
-122,453	800,000	0,031	-0,073
-121,439	76,948	0,092	-0,070
-120,424	473,254	0,061	-0,099
-119,410	174,161	-0,054	-0,056
-118,395	-200,000	0,014	-0,084
