DTS Sentinel unit serial number:	SN410029Multiplexer serial number:	ORYXHardware model number:	OX2-SRSoftware version number:	ORYX F/W v4,00 Oryx Data Collector v3.7.2.0data status	okinstallation	B6 Nyhavnadifferential loss correction	single-endedforward channel	channel 2reverse channel	N/Adate	2023/12/11time	02:45:08forward acquisition time	300,00reverse acquisition time	0,00gamma	499,1914k internal	0,3123k external	0,3123temperature offset calibration	1,0000default loss term (dB/km)	0,3820temperature slope calibration	1,0000multiplexer offset coefficient	1,0000multiplexer slope coefficient	1,0000fibre end	0,00T internal ref (°C)	21,59T ext. ref 1 (°C)	4,42T ext. ref 2 (°C)	4,44length (m)	temperature (°C)	Stokes	anti-Stokes-744,400	-8,057	0,130	-0,065
-743,385	-13,897	-0,103	0,050
-742,371	506,875	0,041	-0,071
-741,356	-8,107	-0,162	0,081
-740,342	318,459	0,044	-0,063
-739,327	310,512	-0,121	0,169
-738,312	505,188	-0,047	0,081
-737,298	119,458	-0,182	0,168
-736,283	314,694	0,034	0,048
-735,269	25,255	-0,187	0,115
-734,254	-200,000	-0,017	-0,075
-733,239	-96,955	-0,390	-0,076
-732,225	-200,000	0,005	0,043
-731,210	800,000	0,033	0,077
-730,196	-200,000	-0,001	-0,040
-729,181	164,584	0,073	-0,077
-728,167	-21,291	-0,001	0,000
-727,152	-200,000	-0,004	-0,057
-726,137	-133,127	-0,232	-0,022
-725,123	12,845	-0,095	-0,054
-724,108	-177,728	-0,146	-0,003
-723,094	-76,692	0,101	-0,026
-722,079	-139,912	-0,118	-0,009
-721,064	800,000	0,005	0,012
-720,050	202,243	0,091	-0,105
-719,035	216,875	-0,084	-0,099
-718,021	12,442	-0,040	-0,023
-717,006	-94,463	0,047	-0,010
-715,991	122,326	-0,111	-0,104
-714,977	173,719	0,013	-0,014
-713,962	223,618	0,039	-0,047
-712,948	800,000	0,073	0,164
-711,933	197,704	0,023	-0,027
-710,918	475,870	0,045	-0,075
-709,904	-68,114	-0,169	-0,049
-708,889	-87,058	-0,037	0,008
-707,875	-86,909	0,076	0,017
-706,860	800,000	0,041	0,117
-705,845	231,763	-0,040	0,049
-704,831	-200,000	0,009	0,045
-703,816	5,762	-0,028	-0,015
-702,802	9,170	-0,110	-0,062
-701,787	15,412	-0,150	-0,087
-700,772	-200,000	0,017	-0,099
-699,758	262,197	0,035	-0,045
-698,743	800,000	-0,011	0,023
-697,729	-200,000	0,007	0,035
-696,714	118,439	0,079	0,073
-695,699	4,712	-0,049	-0,027
-694,685	153,750	-0,032	-0,032
-693,670	-200,000	-0,005	0,097
-692,656	110,425	-0,058	0,052
-691,641	236,193	-0,009	-0,011
-690,627	403,635	-0,022	0,034
-689,612	79,839	0,090	0,072
-688,597	39,364	-0,139	-0,092
-687,583	74,127	0,011	-0,008
-686,568	131,565	-0,057	-0,055
-685,554	-200,000	-0,004	0,083
-684,539	204,924	0,066	-0,076
-683,524	-135,317	-0,085	-0,007
-682,510	8,612	-0,032	-0,018
-681,495	-200,000	0,013	-0,088
-680,481	-41,812	-0,105	-0,040
-679,466	129,163	-0,123	-0,117
-678,451	420,520	0,071	-0,114
-677,437	-23,169	0,096	0,043
-676,422	-54,200	-0,074	0,025
-675,408	124,680	-0,055	-0,051
-674,393	-22,523	-0,089	-0,040
-673,378	56,185	-0,041	-0,029
-672,364	661,414	0,014	-0,026
-671,349	-71,672	0,106	0,029
-670,335	-200,000	-0,010	0,099
-669,320	-174,714	0,048	0,001
-668,305	-149,621	0,074	0,004
-667,291	17,143	0,097	-0,057
-666,276	-83,215	-0,141	0,034
-665,262	800,000	-0,008	0,025
-664,247	-89,673	-0,081	0,018
-663,232	33,558	0,037	0,024
-662,218	-20,693	-0,048	0,022
-661,203	-200,000	0,009	0,076
-660,189	57,384	0,176	0,128
-659,174	116,253	0,083	-0,076
-658,159	-32,699	-0,136	-0,056
-657,145	800,000	0,029	-0,082
-656,130	800,000	0,032	-0,069
-655,116	800,000	0,043	-0,131
-654,101	-0,419	0,034	0,018
-653,086	-39,424	-0,023	0,009
-652,072	-200,000	-0,046	-0,202
-651,057	-200,000	0,008	-0,159
-650,043	-184,061	-0,041	0,000
-649,028	800,000	-0,019	-0,041
-648,014	485,796	0,089	0,152
-646,999	-100,726	0,016	-0,003
-645,984	-200,000	-0,017	0,210
-644,970	84,216	-0,023	0,019
-643,955	186,486	-0,053	-0,058
-642,941	14,571	-0,091	-0,053
-641,926	-200,000	-0,016	-0,102
-640,911	131,245	-0,085	0,081
-639,897	134,017	0,017	0,016
-638,882	800,000	0,026	-0,055
-637,868	-200,000	-0,034	-0,225
-636,853	-74,725	-0,032	0,008
-635,838	-200,000	0,005	-0,042
-634,824	-135,267	-0,161	0,014
-633,809	662,923	-0,016	-0,031
-632,795	-139,630	0,074	0,006
-631,780	-144,780	-0,030	0,002
-630,765	-82,527	0,069	-0,017
-629,751	0,783	-0,077	-0,041
-628,736	-200,000	0,005	-0,138
-627,722	532,277	-0,043	0,075
-626,707	800,000	-0,044	-0,125
-625,692	-0,496	0,063	0,033
-624,678	-200,000	-0,013	0,076
-623,663	-200,000	-0,009	0,068
-622,649	71,170	0,092	0,071
-621,634	3,749	-0,083	0,045
-620,619	599,465	0,014	-0,026
-619,605	-200,000	0,014	-0,102
-618,590	207,279	-0,035	0,040
-617,576	142,994	-0,050	-0,050
-616,561	-63,182	0,097	0,029
-615,546	-99,850	-0,151	0,028
-614,532	152,430	-0,068	-0,069
-613,517	-169,238	0,018	0,000
-612,503	348,572	-0,006	0,008
-611,488	127,311	-0,087	0,082
-610,474	-200,000	-0,003	0,028
-609,459	264,811	0,033	0,043
-608,444	-150,797	0,055	0,003
-607,430	800,000	-0,057	0,180
-606,415	-79,362	-0,043	0,011
-605,401	120,500	-0,074	0,068
-604,386	-200,000	0,014	0,082
-603,371	10,764	0,106	0,060
-602,357	351,857	-0,061	0,089
-601,342	679,730	0,098	-0,190
-600,328	800,000	0,053	-0,148
-599,313	450,300	-0,064	-0,105
-598,298	-200,000	-0,026	-0,100
-597,284	-29,943	-0,040	-0,017
-596,269	800,000	-0,031	0,097
-595,255	447,063	-0,045	0,074
-594,240	177,682	-0,096	-0,104
-593,225	124,270	-0,013	0,012
-592,211	235,776	-0,006	-0,008
-591,196	209,001	-0,057	-0,066
-590,182	232,406	-0,065	0,079
-589,167	-200,000	-0,002	0,128
-588,152	55,679	-0,080	-0,057
-587,138	-58,152	0,056	-0,018
-586,123	522,653	0,067	0,117
-585,109	221,728	-0,080	-0,095
-584,094	-200,000	-0,015	-0,054
-583,079	800,000	0,003	-0,009
-582,065	-53,184	-0,003	0,001
-581,050	47,733	-0,118	0,082
-580,036	-170,628	0,033	-0,001
-579,021	15,640	0,055	-0,032
-578,006	139,068	0,040	0,039
-576,992	-32,224	-0,073	-0,030
-575,977	800,000	0,047	0,104
-574,963	-200,000	-0,010	0,194
-573,948	168,551	0,066	0,070
-572,934	800,000	-0,021	0,066
-571,919	800,000	-0,110	-0,254
-570,904	49,517	-0,065	0,045
-569,890	800,000	-0,024	-0,054
-568,875	-88,518	0,080	-0,017
-567,861	-47,396	0,127	-0,045
-566,846	136,855	-0,063	-0,061
-565,831	-27,846	0,052	-0,022
-564,817	-73,454	0,076	0,020
-563,802	-35,654	0,067	-0,027
-562,788	177,935	0,048	-0,052
-561,773	59,937	-0,059	0,043
-560,758	52,518	0,117	0,082
-559,744	-200,000	-0,023	0,116
-558,729	800,000	0,053	-0,121
-557,715	-37,188	-0,078	-0,031
-556,700	-9,596	0,153	-0,075
-555,685	800,000	0,016	-0,047
-554,671	800,000	0,037	0,082
-553,656	295,199	-0,039	0,053
-552,642	-200,000	0,000	0,035
-551,627	-200,000	0,022	-0,100
-550,612	129,155	-0,053	-0,050
-549,598	-44,115	-0,130	0,048
-548,583	65,402	0,057	-0,043
-547,569	-16,283	0,054	-0,025
-546,554	146,949	-0,144	-0,143
-545,539	176,694	0,057	0,061
-544,525	441,222	-0,022	-0,036
-543,510	555,965	-0,023	-0,041
-542,496	294,160	-0,100	0,136
-541,481	-200,000	-0,004	-0,092
-540,466	66,733	-0,078	-0,059
-539,452	-200,000	0,010	0,064
-538,437	800,000	-0,022	-0,070
-537,423	-53,475	-0,015	0,005
-536,408	-177,251	0,076	0,001
-535,393	-23,799	0,059	-0,026
-534,379	352,755	-0,053	-0,077
-533,364	-22,946	-0,035	0,015
-532,350	-200,000	0,012	-0,101
-531,335	101,556	0,044	-0,038
-530,321	-30,129	-0,082	-0,034
-529,306	-101,529	-0,147	0,026
-528,291	-51,956	0,012	-0,004
-527,277	215,167	-0,061	0,072
-526,262	47,971	0,102	-0,071
-525,248	-59,813	-0,074	0,023
-524,233	287,196	0,008	-0,011
-523,218	168,672	-0,072	-0,076
-522,204	667,661	-0,048	-0,092
-521,189	-71,261	-0,108	0,030
-520,175	-182,335	0,133	-0,002
-519,160	73,272	-0,095	0,074
-518,145	-200,000	-0,001	-0,061
-517,131	-200,000	0,031	0,105
-516,116	-136,598	-0,047	0,004
-515,102	800,000	-0,013	0,027
-514,087	-141,125	-0,107	-0,008
-513,072	-200,000	-0,009	-0,122
-512,058	-200,000	0,001	0,061
-511,043	-200,000	-0,015	0,119
-510,029	472,368	0,046	0,077
-509,014	35,581	0,083	-0,054
-507,999	800,000	0,015	-0,044
-506,985	153,291	0,079	0,080
-505,970	78,697	-0,085	0,067
-504,956	-87,039	-0,018	0,004
-503,941	213,366	0,072	0,084
-502,926	-200,000	-0,009	0,094
-501,912	247,026	0,090	0,113
-500,897	66,439	0,019	0,014
-499,883	37,904	-0,095	-0,063
-498,868	-178,615	-0,090	-0,001
-497,853	11,078	0,047	-0,027
-496,839	-27,760	0,108	0,046
-495,824	227,788	-0,067	0,080
-494,810	800,000	0,025	0,078
-493,795	-200,000	0,003	-0,025
-492,781	578,185	-0,010	-0,018
-491,766	800,000	0,042	0,106
-490,751	-3,411	0,057	0,029
-489,737	-129,248	-0,156	-0,016
-488,722	-200,000	0,042	-0,165
-487,708	-200,000	-0,027	-0,130
-486,693	-12,974	-0,020	0,009
-485,678	-200,000	0,000	0,066
-484,664	-33,574	0,210	0,085
-483,649	48,447	-0,091	-0,063
-482,635	-127,516	-0,163	0,017
-481,620	218,453	0,081	0,096
-480,605	-200,000	0,037	0,154
-479,591	-64,401	0,052	-0,016
-478,576	558,074	-0,068	-0,121
-477,562	208,335	0,027	0,031
-476,547	800,000	-0,025	-0,054
-475,532	-200,000	-0,005	0,059
-474,518	-51,551	0,004	0,001
-473,503	305,865	0,099	-0,136
-472,489	-94,771	0,113	0,022
-471,474	36,447	-0,105	0,068
-470,459	-15,831	0,026	-0,012
-469,445	-160,776	0,122	-0,005
-468,430	340,276	-0,081	-0,117
-467,416	265,778	0,087	0,112
-466,401	800,000	0,019	0,044
-465,386	62,341	0,096	-0,070
-464,372	-71,776	0,144	-0,039
-463,357	226,447	0,015	-0,018
-462,343	83,870	-0,094	-0,075
-461,328	291,659	-0,099	0,133
-460,313	-17,308	-0,047	-0,022
-459,299	-46,787	0,100	-0,036
-458,284	-0,509	-0,075	0,039
-457,270	303,698	0,086	0,118
-456,255	44,347	0,017	0,012
-455,241	800,000	0,036	0,078
-454,226	-0,309	0,055	0,029
-453,211	-200,000	-0,012	-0,057
-452,197	-101,539	0,063	-0,011
-451,182	-200,000	0,007	-0,089
-450,168	800,000	0,034	0,079
-449,153	400,791	-0,094	-0,145
-448,138	-200,000	0,022	-0,079
-447,124	-200,000	0,011	-0,094
-446,109	800,000	-0,045	-0,141
-445,095	-135,513	0,140	0,012
-444,080	800,000	0,066	0,193
-443,065	-56,906	-0,050	0,016
-442,051	130,361	-0,005	-0,005
-441,036	-124,591	-0,062	-0,007
-440,022	-200,000	-0,027	0,116
-439,007	166,148	-0,022	0,023
-437,992	189,452	-0,011	0,012
-436,978	-200,000	0,005	0,060
-435,963	800,000	0,031	0,085
-434,949	-160,169	-0,156	0,006
-433,934	-200,000	-0,021	0,237
-432,919	-200,000	-0,002	-0,027
-431,905	514,821	-0,060	0,103
-430,890	800,000	0,019	0,050
-429,876	-107,265	0,073	0,012
-428,861	800,000	-0,042	-0,087
-427,846	-200,000	0,005	-0,068
-426,832	29,905	-0,060	-0,038
-425,817	193,655	0,071	-0,079
-424,803	-82,219	-0,135	0,032
-423,788	-200,000	-0,023	0,092
-422,773	-65,300	0,155	-0,046
-421,759	277,121	-0,122	-0,160
-420,744	-137,286	-0,032	-0,003
-419,730	92,857	0,099	-0,082
-418,715	-34,715	-0,145	0,058
-417,701	800,000	0,013	0,030
-416,686	244,902	-0,050	-0,062
-415,671	168,507	0,022	-0,023
-414,657	-46,116	0,098	0,035
-413,642	194,033	-0,064	-0,072
-412,628	-65,189	-0,034	0,010
-411,613	-45,637	0,074	-0,027
-410,598	-161,248	-0,068	0,003
-409,584	11,265	0,159	0,089
-408,569	-200,000	0,010	0,090
-407,555	46,262	0,141	0,096
-406,540	-143,923	0,238	-0,016
-405,525	-132,615	-0,032	0,003
-404,511	-37,235	0,077	0,030
-403,496	76,868	0,048	0,037
-402,482	150,348	0,165	0,165
-401,467	800,000	0,038	0,078
-400,452	102,162	0,083	0,072
-399,438	-200,000	0,000	0,094
-398,423	-33,361	-0,021	0,008
-397,409	-88,150	-0,105	0,023
-396,394	-200,000	-0,022	0,251
-395,379	-200,000	0,001	0,029
-394,365	442,619	0,060	0,098
-393,350	800,000	-0,032	0,093
-392,336	-200,000	0,034	0,117
-391,321	-200,000	-0,004	0,030
-390,306	800,000	-0,034	-0,099
-389,292	800,000	-0,012	-0,034
-388,277	800,000	0,024	0,068
-387,263	-41,953	0,080	-0,030
-386,248	-163,205	-0,086	0,003
-385,233	800,000	-0,050	-0,109
-384,219	800,000	-0,033	-0,083
-383,204	-55,648	-0,153	-0,050
-382,190	-134,253	0,107	0,010
-381,175	-200,000	0,009	0,062
-380,160	-154,537	0,073	-0,004
-379,146	-18,289	0,201	0,092
-378,131	-135,655	-0,047	-0,004
-377,117	800,000	0,047	-0,102
-376,102	800,000	0,059	-0,149
-375,088	800,000	-0,042	-0,102
-374,073	65,175	-0,011	0,008
-373,058	-90,064	0,060	-0,013
-372,044	-200,000	0,012	-0,086
-371,029	154,275	-0,047	0,047
-370,015	-200,000	-0,020	-0,098
-369,000	-200,000	0,029	-0,110
-367,985	229,540	0,041	-0,049
-366,971	-55,441	-0,099	-0,032
-365,956	242,102	0,063	0,078
-364,942	-85,581	0,057	-0,013
-363,927	86,184	0,083	0,067
-362,912	792,552	0,016	-0,032
-361,898	-200,000	-0,003	0,035
-360,883	170,576	0,031	-0,032
-359,869	17,207	-0,061	-0,035
-358,854	-31,438	-0,090	-0,037
-357,839	-116,049	0,069	-0,009
-356,825	-41,865	0,039	0,015
-355,810	13,432	-0,107	-0,061
-354,796	-105,160	0,163	0,027
-353,781	-200,000	-0,001	-0,105
-352,766	-200,000	0,035	-0,167
-351,752	800,000	0,045	-0,107
-350,737	655,148	0,022	0,042
-349,723	197,845	0,061	0,069
-348,708	-200,000	0,005	0,061
-347,693	-68,029	-0,064	-0,018
-346,679	-68,358	-0,221	-0,063
-345,664	498,216	0,051	-0,087
-344,650	-52,377	0,029	-0,010
-343,635	-40,695	0,133	0,050
-342,620	88,497	0,039	0,032
-341,606	421,336	-0,023	-0,037
-340,591	3,592	0,062	-0,033
-339,577	651,804	0,109	-0,206
-338,562	162,049	-0,074	0,076
-337,548	33,858	0,033	-0,021
-336,533	-200,000	0,011	0,147
-335,518	-200,000	0,024	0,098
-334,504	337,637	0,026	-0,037
-333,489	-200,000	-0,003	0,150
-332,475	800,000	0,044	-0,121
-331,460	800,000	-0,040	-0,103
-330,445	619,477	-0,052	-0,095
-329,431	561,748	0,119	0,211
-328,416	800,000	0,075	0,176
-327,402	-116,265	-0,074	0,010
-326,387	-177,712	-0,148	-0,003
-325,372	800,000	-0,032	0,082
-324,358	385,021	-0,089	-0,135
-323,343	295,996	-0,046	-0,062
-322,329	800,000	-0,063	0,141
-321,314	192,846	0,105	0,116
-320,299	-200,000	0,031	0,145
-319,285	171,033	-0,095	0,100
-318,270	-95,362	-0,053	-0,010
-317,256	-200,000	-0,011	-0,055
-316,241	-173,249	0,090	0,002
-315,226	546,224	0,036	0,063
-314,212	-28,066	-0,021	-0,009
-313,197	574,274	-0,040	0,073
-312,183	-200,000	-0,010	-0,050
-311,168	148,431	-0,080	-0,079
-310,153	-51,036	-0,237	-0,081
-309,139	-200,000	0,013	0,103
-308,124	-48,961	-0,023	-0,008
-307,110	-99,692	-0,087	-0,016
-306,095	-107,234	0,094	0,015
-305,080	-175,095	0,165	-0,003
-304,066	-200,000	-0,019	-0,077
-303,051	800,000	-0,063	-0,168
-302,037	396,494	0,051	-0,079
-301,022	800,000	-0,027	-0,075
-300,008	101,090	0,043	0,037
-298,993	606,333	0,050	0,091
-297,978	-200,000	0,003	0,093
-296,964	152,630	-0,067	-0,067
-295,949	-61,460	-0,128	-0,039
-294,935	-108,171	0,077	-0,012
-293,920	800,000	0,007	0,023
-292,905	105,058	-0,064	0,056
-291,891	310,717	-0,039	0,053
-290,876	-200,000	-0,005	-0,041
-289,862	302,150	-0,049	0,066
-288,847	-62,405	-0,125	-0,038
-287,832	-110,245	-0,109	0,016
-286,818	-153,726	0,056	0,003
-285,803	800,000	0,043	0,113
-284,789	151,367	-0,046	-0,046
-283,774	-19,403	0,113	0,051
-282,759	-200,000	-0,016	-0,074
-281,745	345,398	-0,036	-0,052
-280,730	-200,000	0,012	-0,057
-279,716	129,861	0,025	0,023
-278,701	-109,914	-0,008	0,001
-277,686	308,224	0,164	0,225
-276,672	800,000	0,017	0,048
-275,657	-200,000	-0,004	0,015
-274,643	-133,103	-0,174	0,016
-273,628	-200,000	-0,003	0,059
-272,613	-200,000	-0,003	-0,042
-271,599	96,754	-0,038	-0,032
-270,584	39,254	0,037	0,024
-269,570	800,000	0,036	0,087
-268,555	587,443	-0,030	0,054
-267,540	-200,000	-0,007	0,061
-266,526	79,013	-0,025	-0,019
-265,511	-200,000	-0,007	0,027
-264,497	-73,444	-0,158	-0,042
-263,482	-54,261	-0,078	0,026
-262,467	-66,799	0,085	0,024
-261,453	-200,000	-0,000	-0,082
-260,438	-133,103	0,028	0,003
-259,424	-113,438	-0,028	-0,004
-258,409	-55,494	0,035	-0,011
-257,395	-200,000	0,007	-0,116
-256,380	613,451	-0,080	0,146
-255,365	-200,000	-0,015	0,050
-254,351	-200,000	0,014	-0,048
-253,336	-200,000	0,001	0,026
-252,322	14,644	0,032	0,018
-251,307	250,726	0,048	0,060
-250,292	23,550	0,162	0,097
-249,278	-23,123	0,060	-0,026
-248,263	-158,005	0,060	-0,003
-247,249	-200,000	0,002	-0,061
-246,234	188,747	0,061	-0,067
-245,219	-5,803	-0,090	-0,045
-244,205	-59,958	0,035	-0,011
-243,190	-200,000	0,023	-0,114
-242,176	-22,089	0,097	-0,043
-241,161	-44,388	0,080	0,029
-240,146	-200,000	-0,015	-0,085
-239,132	607,373	-0,030	0,054
-238,117	93,401	0,049	-0,041
-237,103	119,013	-0,082	-0,074
-236,088	351,857	-0,070	-0,102
-235,073	467,885	0,084	0,138
-234,059	800,000	-0,041	0,098
-233,044	-200,000	0,015	-0,144
-232,030	800,000	-0,023	0,056
-231,015	-14,807	-0,150	0,070
-230,000	-200,000	0,004	-0,116
-228,986	800,000	0,032	-0,088
-227,971	75,111	0,028	-0,022
-226,957	389,449	-0,053	0,081
-225,942	-76,619	-0,090	0,023
-224,927	329,348	-0,047	-0,066
-223,913	144,283	0,053	0,052
-222,898	11,008	0,077	0,043
-221,884	-63,707	-0,064	0,019
-220,869	75,344	-0,058	-0,045
-219,855	51,595	0,052	0,036
-218,840	800,000	-0,010	0,031
-217,825	-200,000	0,008	-0,032
-216,811	33,359	0,096	-0,061
-215,796	271,065	-0,008	0,011
-214,782	800,000	0,016	-0,047
-213,767	12,509	-0,060	-0,034
-212,752	-149,873	-0,034	-0,002
-211,738	-61,309	-0,075	0,023
-210,723	721,604	0,046	-0,090
-209,709	322,115	-0,106	-0,148
-208,694	57,640	-0,093	-0,067
-207,679	-78,205	0,064	0,016
-206,665	296,610	-0,033	-0,044
-205,650	-33,834	-0,055	0,022
-204,636	800,000	-0,013	0,038
-203,621	-128,490	0,072	-0,007
-202,606	325,504	-0,081	-0,113
-201,592	261,319	-0,055	-0,069
-200,577	148,697	0,098	-0,097
-199,563	-82,108	0,109	-0,026
-198,548	629,977	-0,048	-0,089
-197,533	566,431	0,036	-0,064
-196,519	-62,097	0,052	-0,016
-195,504	-199,371	-0,103	0,000
-194,490	97,101	-0,111	0,093
-193,475	88,147	-0,096	0,078
-192,460	-200,000	0,005	-0,087
-191,446	-4,067	-0,077	0,039
-190,431	-140,994	0,129	0,010
-189,417	313,211	0,090	0,124
-188,402	-74,232	0,078	0,020
-187,387	-200,000	0,026	-0,172
-186,373	192,070	0,035	0,038
-185,358	109,056	-0,031	0,027
-184,344	75,823	0,066	0,051
-183,329	-5,293	0,046	0,023
-182,315	402,886	0,057	0,088
-181,300	327,098	-0,028	0,039
-180,285	17,740	-0,117	-0,067
-179,271	124,432	0,069	-0,064
-178,256	-168,230	-0,095	0,003
-177,242	43,594	0,145	0,097
-176,227	-1,673	0,076	0,039
-175,212	404,267	0,067	0,103
-174,198	664,278	-0,026	0,049
-173,183	-200,000	-0,043	-0,155
-172,169	18,227	0,050	-0,029
-171,154	-16,623	-0,066	0,031
-170,139	130,665	0,024	0,022
-169,125	641,602	0,040	0,074
-168,110	-79,128	-0,014	-0,003
-167,096	65,332	-0,091	-0,067
-166,081	800,000	-0,070	-0,176
-165,066	-200,000	0,003	-0,149
-164,052	46,243	-0,103	-0,070
-163,037	-94,134	0,060	0,012
-162,023	202,649	0,131	-0,148
-161,008	87,742	-0,056	0,045
-159,993	-103,778	0,104	0,018
-158,979	800,000	-0,020	-0,057
-157,964	-200,000	0,022	-0,157
-156,950	-200,000	-0,001	-0,054
-155,935	-167,766	0,208	0,006
-154,920	285,588	0,068	-0,089
-153,906	-200,000	-0,023	0,089
-152,891	-200,000	-0,012	0,177
-151,877	81,618	-0,040	0,032
-150,862	-164,815	-0,146	-0,005
-149,847	172,424	-0,016	-0,017
-148,833	12,176	-0,089	0,050
-147,818	76,788	0,022	0,017
-146,804	800,000	-0,020	-0,048
-145,789	581,829	0,074	0,132
-144,775	-114,281	0,133	-0,019
-143,760	144,065	0,073	-0,071
-142,745	287,674	0,085	-0,112
-141,731	62,854	-0,079	0,057
-140,716	195,285	0,045	0,050
-139,702	157,202	0,062	0,063
-138,687	352,285	0,088	0,128
-137,672	109,635	-0,038	-0,033
-136,658	-30,087	-0,139	-0,057
-135,643	75,300	0,053	-0,041
-134,629	-200,000	0,009	0,040
-133,614	-35,360	0,065	-0,026
-132,599	682,865	-0,030	-0,056
-131,585	800,000	-0,046	0,145
-130,570	31,164	-0,089	0,055
-129,556	800,000	-0,028	0,064
-128,541	441,568	0,062	-0,099
-127,526	-200,000	0,031	0,108
-126,512	267,586	0,051	-0,065
-125,497	152,807	0,011	0,011
-124,483	213,872	0,063	0,073
-123,468	343,741	0,072	0,103
-122,453	33,902	-0,155	-0,098
-121,439	800,000	0,058	0,176
-120,424	-200,000	0,034	0,126
-119,410	-200,000	-0,010	0,134
-118,395	-114,066	0,216	-0,030
