DTS Sentinel unit serial number:	SN410029Multiplexer serial number:	ORYXHardware model number:	OX2-SRSoftware version number:	ORYX F/W v4,00 Oryx Data Collector v3.7.2.0data status	okinstallation	B6 Nyhavnadifferential loss correction	single-endedforward channel	channel 2reverse channel	N/Adate	2023/12/09time	22:10:08forward acquisition time	300,00reverse acquisition time	0,00gamma	499,1914k internal	0,3127k external	0,3127temperature offset calibration	1,0000default loss term (dB/km)	0,3820temperature slope calibration	1,0000multiplexer offset coefficient	1,0000multiplexer slope coefficient	1,0000fibre end	0,00T internal ref (°C)	21,66T ext. ref 1 (°C)	5,42T ext. ref 2 (°C)	5,42length (m)	temperature (°C)	Stokes	anti-Stokes-744,400	-76,374	0,095	-0,025
-743,385	-123,239	-0,161	-0,019
-742,371	-93,438	0,069	-0,014
-741,356	224,173	-0,146	0,175
-740,342	-34,187	-0,123	0,050
-739,327	-168,321	-0,376	-0,011
-738,312	-200,000	-0,019	-0,105
-737,298	-92,844	-0,196	0,040
-736,283	-200,000	-0,002	0,054
-735,269	560,850	-0,147	0,265
-734,254	47,234	0,078	-0,054
-733,239	-129,879	-0,476	-0,048
-732,225	98,655	0,105	-0,090
-731,210	-81,025	-0,174	0,042
-730,196	-97,209	0,057	-0,011
-729,181	-94,843	0,052	-0,010
-728,167	-26,355	-0,089	0,039
-727,152	-200,000	-0,015	-0,054
-726,137	-42,109	0,119	-0,045
-725,123	800,000	-0,012	0,033
-724,108	221,031	-0,032	-0,039
-723,094	-117,004	-0,215	-0,029
-722,079	-200,000	-0,028	-0,110
-721,064	-20,519	0,046	-0,021
-720,050	512,615	0,054	-0,094
-719,035	-165,821	0,096	-0,003
-718,021	76,527	-0,065	0,051
-717,006	32,488	-0,071	-0,046
-715,991	38,377	-0,094	-0,062
-714,977	44,341	-0,113	-0,077
-713,962	-33,650	-0,009	0,004
-712,948	32,433	0,041	0,027
-711,933	-200,000	-0,002	-0,048
-710,918	149,801	0,076	-0,077
-709,904	-200,000	-0,005	-0,072
-708,889	-3,890	-0,221	-0,114
-707,875	800,000	-0,026	-0,070
-706,860	-121,903	0,122	0,015
-705,845	83,515	-0,085	0,069
-704,831	260,315	0,086	-0,110
-703,816	280,078	-0,143	-0,191
-702,802	-200,000	-0,006	-0,035
-701,787	-200,000	0,035	-0,172
-700,772	-79,967	0,084	-0,021
-699,758	800,000	0,058	-0,142
-698,743	1,486	-0,031	-0,016
-697,729	60,791	0,065	-0,048
-696,714	-46,113	0,061	-0,022
-695,699	36,492	-0,070	-0,046
-694,685	12,463	0,034	0,020
-693,670	2,745	-0,039	-0,021
-692,656	-200,000	0,049	0,177
-691,641	800,000	0,020	0,062
-690,627	-21,108	0,060	0,027
-689,612	-200,000	0,006	0,062
-688,597	-167,270	-0,033	0,001
-687,583	95,065	0,098	-0,083
-686,568	-200,000	0,004	-0,040
-685,554	79,227	-0,068	-0,054
-684,539	107,377	-0,046	0,041
-683,524	-200,000	0,014	0,140
-682,510	800,000	-0,018	-0,040
-681,495	800,000	-0,054	0,123
-680,481	-116,932	-0,071	0,010
-679,466	-200,000	0,006	-0,023
-678,451	800,000	0,051	-0,129
-677,437	-200,000	-0,007	-0,219
-676,422	22,173	0,044	0,027
-675,408	-2,609	0,059	-0,031
-674,393	-112,025	-0,052	-0,008
-673,378	-16,661	-0,026	0,012
-672,364	264,618	-0,084	-0,109
-671,349	331,091	-0,036	-0,051
-670,335	-168,270	0,127	-0,004
-669,320	-91,409	-0,025	0,005
-668,305	800,000	0,038	-0,089
-667,291	350,669	-0,082	0,120
-666,276	800,000	-0,037	-0,114
-665,262	-136,782	-0,075	0,006
-664,247	30,808	0,025	0,016
-663,232	800,000	0,010	0,030
-662,218	361,333	0,037	0,056
-661,203	800,000	-0,032	-0,075
-660,189	800,000	-0,050	-0,146
-659,174	274,207	-0,047	-0,061
-658,159	347,220	0,067	-0,098
-657,145	30,478	-0,112	-0,071
-656,130	422,479	-0,002	0,003
-655,116	114,802	0,111	-0,100
-654,101	165,459	0,039	-0,041
-653,086	-76,756	-0,055	-0,014
-652,072	429,534	0,038	-0,062
-651,057	800,000	0,060	-0,130
-650,043	536,395	0,014	-0,025
-649,028	496,248	-0,050	0,085
-648,014	364,512	-0,024	-0,036
-646,999	-140,486	0,068	0,005
-645,984	422,580	-0,040	-0,064
-644,970	152,932	0,053	-0,053
-643,955	378,745	-0,081	-0,123
-642,941	-200,000	-0,029	-0,164
-641,926	-200,000	0,002	0,009
-640,911	-200,000	0,050	0,204
-639,897	355,246	-0,055	0,081
-638,882	402,214	0,054	0,084
-637,868	277,057	-0,024	0,032
-636,853	45,424	0,075	0,051
-635,838	-196,421	0,131	-0,001
-634,824	-112,497	-0,173	-0,025
-633,809	-86,737	-0,138	0,031
-632,795	304,299	0,046	0,064
-631,780	-84,161	0,099	-0,023
-630,765	-116,002	-0,073	0,010
-629,751	344,332	-0,056	-0,081
-628,736	-200,000	-0,008	-0,126
-627,722	-91,943	-0,041	-0,009
-626,707	49,471	-0,057	-0,040
-625,692	79,708	-0,061	0,048
-624,678	-200,000	-0,001	-0,062
-623,663	800,000	0,009	-0,026
-622,649	18,973	-0,173	-0,102
-621,634	360,143	-0,099	-0,148
-620,619	-200,000	0,010	-0,045
-619,605	29,645	0,068	-0,043
-618,590	-31,971	-0,148	-0,061
-617,576	338,094	0,021	0,031
-616,561	800,000	0,025	-0,054
-615,546	230,301	0,050	0,060
-614,532	-53,805	-0,079	-0,027
-613,517	125,085	-0,056	-0,052
-612,503	58,665	0,043	0,031
-611,488	-139,798	0,105	0,008
-610,474	-98,098	0,027	-0,005
-609,459	294,746	0,042	0,057
-608,444	-200,000	-0,007	0,141
-607,430	426,106	-0,053	-0,085
-606,415	95,455	0,077	0,065
-605,401	307,841	-0,045	-0,062
-604,386	17,943	0,079	0,046
-603,371	-200,000	0,063	0,237
-602,357	-200,000	0,004	-0,016
-601,342	800,000	0,023	-0,064
-600,328	676,000	0,014	0,028
-599,313	-37,672	0,021	-0,008
-598,298	-200,000	-0,002	-0,014
-597,284	-51,362	0,168	-0,058
-596,269	-200,000	-0,061	0,204
-595,255	407,955	0,091	0,143
-594,240	60,024	-0,033	0,024
-593,225	582,480	-0,062	-0,113
-592,211	-200,000	0,006	-0,072
-591,196	-200,000	-0,002	-0,141
-590,182	403,645	0,065	0,101
-589,167	800,000	-0,008	0,025
-588,152	800,000	-0,036	0,083
-587,138	300,575	-0,020	-0,027
-586,123	-99,019	-0,163	0,030
-585,109	134,581	0,043	0,041
-584,094	-87,159	0,021	-0,005
-583,079	-200,000	0,040	0,188
-582,065	-35,145	-0,062	-0,025
-581,050	-34,374	0,113	0,046
-580,036	-186,671	-0,070	0,001
-579,021	312,742	0,050	0,070
-578,006	16,491	0,075	-0,044
-576,992	800,000	0,010	-0,021
-575,977	59,527	0,104	-0,076
-574,963	770,273	-0,036	0,073
-573,948	-60,282	0,056	-0,018
-572,934	-200,000	-0,013	0,141
-571,919	-82,208	-0,152	-0,036
-570,904	389,136	0,073	0,112
-569,890	-125,002	-0,074	-0,008
-568,875	597,154	-0,048	0,088
-567,861	-11,177	0,083	0,040
-566,846	-200,000	-0,031	-0,102
-565,831	227,418	0,018	-0,021
-564,817	800,000	-0,010	-0,029
-563,802	28,979	0,053	0,033
-562,788	274,150	-0,037	0,049
-561,773	800,000	-0,010	0,026
-560,758	-91,365	-0,090	-0,019
-559,744	33,977	0,040	-0,026
-558,729	-200,000	0,002	-0,022
-557,715	30,400	0,117	0,074
-556,700	-200,000	0,007	0,042
-555,685	-124,922	-0,152	0,017
-554,671	109,666	-0,177	-0,157
-553,656	108,578	-0,030	0,027
-552,642	-200,000	0,003	0,024
-551,627	800,000	-0,017	-0,039
-550,612	-46,810	-0,055	0,020
-549,598	674,972	-0,040	0,076
-548,583	-200,000	-0,013	-0,122
-547,569	-9,298	0,022	-0,011
-546,554	-92,268	-0,018	0,004
-545,539	-94,334	-0,107	0,021
-544,525	415,167	0,101	0,160
-543,510	800,000	0,036	-0,076
-542,496	-200,000	-0,006	0,054
-541,481	-21,499	-0,208	0,093
-540,466	-3,678	0,089	-0,045
-539,452	-200,000	0,001	0,005
-538,437	-133,259	-0,028	-0,003
-537,423	800,000	0,093	0,195
-536,408	-64,839	-0,091	0,027
-535,393	198,597	0,048	0,054
-534,379	800,000	-0,009	-0,023
-533,364	800,000	0,037	0,093
-532,350	-200,000	-0,007	0,055
-531,335	184,463	-0,096	-0,105
-530,321	252,557	0,040	0,051
-529,306	281,755	-0,043	0,058
-528,291	-200,000	-0,001	-0,241
-527,277	669,599	0,050	-0,096
-526,262	242,067	-0,093	0,114
-525,248	164,146	-0,024	0,024
-524,233	13,179	0,116	-0,066
-523,218	130,399	-0,034	0,032
-522,204	204,043	0,040	-0,045
-521,189	-65,724	-0,135	-0,040
-520,175	-70,131	-0,059	-0,016
-519,160	-117,906	0,078	-0,010
-518,145	-148,270	0,105	-0,006
-517,131	-200,000	-0,011	0,091
-516,116	-61,844	-0,156	-0,048
-515,102	132,325	0,084	0,079
-514,087	-200,000	0,008	-0,095
-513,072	-131,656	-0,174	0,017
-512,058	-200,000	0,006	-0,073
-511,043	800,000	0,036	0,080
-510,029	-200,000	-0,000	0,092
-509,014	-133,075	-0,045	0,004
-507,999	-200,000	-0,007	0,170
-506,985	-200,000	-0,006	0,051
-505,970	597,177	-0,107	-0,196
-504,956	152,470	0,045	0,045
-503,941	359,565	-0,039	0,058
-502,926	-200,000	-0,005	0,122
-501,912	31,379	-0,105	0,066
-500,897	588,270	-0,026	-0,048
-499,883	-22,716	-0,099	-0,044
-498,868	800,000	0,013	-0,030
-497,853	-200,000	-0,021	-0,095
-496,839	72,871	-0,045	-0,034
-495,824	21,130	-0,109	-0,065
-494,810	38,971	-0,052	-0,034
-493,795	800,000	0,050	0,161
-492,781	227,969	-0,076	-0,092
-491,766	19,371	-0,116	0,069
-490,751	651,426	-0,039	-0,073
-489,737	-200,000	-0,006	-0,093
-488,722	-200,000	0,038	0,150
-487,708	-200,000	-0,040	0,132
-486,693	-153,642	0,036	0,002
-485,678	-127,139	-0,046	0,005
-484,664	422,623	0,049	-0,077
-483,649	800,000	-0,022	0,062
-482,635	91,643	-0,117	0,097
-481,620	-119,736	0,077	0,010
-480,605	101,281	0,025	0,021
-479,591	65,490	0,066	0,049
-478,576	800,000	-0,005	-0,013
-477,562	-135,093	0,037	-0,003
-476,547	-200,000	0,024	0,108
-475,532	38,934	-0,063	0,041
-474,518	-200,000	0,015	-0,134
-473,503	757,502	-0,083	0,166
-472,489	587,351	-0,062	0,113
-471,474	391,366	0,105	-0,162
-470,459	-14,307	0,042	-0,020
-469,445	20,883	-0,064	-0,038
-468,430	207,098	-0,072	0,083
-467,416	232,877	-0,078	0,094
-466,401	-200,000	0,005	0,026
-465,386	800,000	-0,025	0,073
-464,372	24,244	0,078	0,047
-463,357	-4,606	-0,063	-0,032
-462,343	-68,387	-0,054	-0,015
-461,328	44,542	-0,021	0,014
-460,313	-154,858	0,103	-0,005
-459,299	800,000	-0,028	0,082
-458,284	41,767	0,142	-0,094
-457,270	-200,000	-0,008	0,176
-456,255	-200,000	-0,016	-0,085
-455,241	800,000	0,028	-0,060
-454,226	-200,000	0,003	-0,070
-453,211	800,000	0,029	-0,072
-452,197	652,927	-0,031	0,058
-451,182	334,666	-0,017	0,024
-450,168	472,538	0,024	0,040
-449,153	191,297	0,060	0,067
-448,138	800,000	-0,024	-0,052
-447,124	15,212	-0,072	0,041
-446,109	-77,210	0,056	0,014
-445,095	111,520	0,031	0,027
-444,080	143,868	-0,105	0,103
-443,065	800,000	0,036	-0,073
-442,051	30,666	0,051	-0,032
-441,036	512,244	0,086	-0,149
-440,022	-200,000	-0,024	0,105
-439,007	9,841	0,105	0,059
-437,992	-75,365	0,138	-0,036
-436,978	-200,000	0,002	-0,111
-435,963	-200,000	-0,006	0,047
-434,949	-85,649	-0,063	-0,014
-433,934	800,000	-0,037	-0,079
-432,919	-200,000	-0,008	0,044
-431,905	83,410	0,119	-0,095
-430,890	-121,378	0,094	0,011
-429,876	-106,261	0,151	0,025
-428,861	285,804	0,083	0,110
-427,846	800,000	-0,043	-0,113
-426,832	653,849	0,053	0,101
-425,817	-143,436	0,124	-0,009
-424,803	-200,000	-0,003	-0,028
-423,788	-91,354	-0,063	-0,013
-422,773	-200,000	0,006	0,046
-421,759	-160,197	0,079	0,003
-420,744	-200,000	0,017	0,069
-419,730	800,000	0,012	0,026
-418,715	203,036	-0,089	0,101
-417,701	800,000	0,021	-0,060
-416,686	123,906	-0,108	-0,100
-415,671	251,318	-0,092	-0,115
-414,657	-194,957	0,120	0,001
-413,642	-169,268	-0,023	0,001
-412,628	149,466	-0,082	-0,082
-411,613	181,898	-0,054	-0,059
-410,598	183,105	0,026	-0,029
-409,584	504,536	-0,063	-0,108
-408,569	800,000	-0,044	0,132
-407,555	306,138	-0,017	-0,023
-406,540	126,146	0,070	0,065
-405,525	-200,000	-0,056	-0,188
-404,511	338,436	0,105	-0,150
-403,496	607,674	0,037	-0,067
-402,482	267,820	-0,084	0,109
-401,467	-120,531	0,078	-0,010
-400,452	-74,579	0,021	-0,005
-399,438	800,000	-0,033	0,105
-398,423	-97,920	0,103	-0,019
-397,409	-160,376	-0,096	-0,004
-396,394	130,771	-0,043	-0,041
-395,379	13,897	-0,061	0,035
-394,365	76,917	0,072	-0,056
-393,350	-24,991	0,089	0,039
-392,336	27,260	0,122	-0,075
-391,321	227,870	-0,057	-0,068
-390,306	800,000	-0,017	-0,039
-389,292	-141,026	-0,088	-0,007
-388,277	-200,000	-0,012	-0,093
-387,263	756,338	0,032	-0,064
-386,248	-200,000	-0,020	-0,072
-385,233	251,938	0,046	0,058
-384,219	336,793	-0,088	-0,126
-383,204	122,583	0,060	-0,055
-382,190	800,000	-0,050	-0,123
-381,175	-200,000	0,026	-0,191
-380,160	800,000	-0,058	-0,132
-379,146	-200,000	0,026	0,117
-378,131	-163,899	0,206	0,007
-377,117	-200,000	0,005	0,082
-376,102	415,979	-0,095	-0,149
-375,088	-83,946	0,123	0,029
-374,073	-200,000	-0,023	-0,091
-373,058	477,789	0,049	-0,082
-372,044	-200,000	0,029	-0,103
-371,029	800,000	0,013	-0,030
-370,015	-75,690	-0,118	0,030
-369,000	376,295	-0,031	0,046
-367,985	-108,290	-0,131	-0,021
-366,971	447,763	-0,014	0,023
-365,956	800,000	-0,029	-0,065
-364,942	-200,000	0,031	-0,109
-363,927	426,648	-0,054	-0,086
-362,912	-200,000	-0,030	-0,097
-361,898	152,066	-0,085	-0,085
-360,883	-200,000	0,029	-0,126
-359,869	-200,000	-0,023	-0,096
-358,854	149,125	-0,139	-0,138
-357,839	142,865	-0,071	-0,069
-356,825	-171,492	0,079	0,002
-355,810	800,000	0,017	0,047
-354,796	736,721	-0,063	0,125
-353,781	331,601	0,027	0,039
-352,766	12,148	0,137	0,077
-351,752	88,369	-0,076	0,062
-350,737	141,417	0,077	0,075
-349,723	36,511	0,099	0,064
-348,708	-13,906	0,077	0,036
-347,693	-184,289	-0,073	-0,001
-346,679	-200,000	0,052	-0,184
-345,664	800,000	-0,021	0,046
-344,650	376,836	-0,081	0,122
-343,635	-200,000	0,026	0,107
-342,620	-200,000	0,038	0,151
-341,606	800,000	-0,018	0,047
-340,591	155,487	0,025	0,025
-339,577	-200,000	-0,040	0,165
-338,562	75,835	-0,055	-0,043
-337,548	-162,723	0,157	0,006
-336,533	129,402	0,069	0,065
-335,518	-200,000	0,036	0,120
-334,504	119,919	0,127	0,115
-333,489	116,623	0,097	0,087
-332,475	-88,459	-0,089	0,019
-331,460	-53,195	-0,171	-0,057
-330,445	260,449	0,098	0,125
-329,431	-118,251	0,090	0,012
-328,416	25,865	0,054	0,033
-327,402	-89,824	-0,137	-0,029
-326,387	-200,000	0,011	0,066
-325,372	-45,848	-0,182	0,065
-324,358	-80,938	-0,091	-0,022
-323,343	168,427	0,113	-0,118
-322,329	114,586	-0,054	0,048
-321,314	644,469	-0,048	0,090
-320,299	800,000	0,066	-0,163
-319,285	6,851	-0,084	-0,046
-318,270	219,486	-0,102	-0,120
-317,256	-97,415	0,106	-0,020
-316,241	192,386	-0,031	-0,035
-315,226	121,097	0,058	0,053
-314,212	-200,000	-0,002	0,035
-313,197	800,000	0,022	0,054
-312,183	84,412	0,080	0,064
-311,168	-114,274	0,102	-0,014
-310,153	183,289	0,141	-0,153
-309,139	57,415	-0,031	-0,022
-308,124	-119,863	0,043	-0,005
-307,110	149,857	0,133	0,132
-306,095	-200,000	-0,000	0,033
-305,080	800,000	0,050	0,112
-304,066	-200,000	-0,012	-0,071
-303,051	139,883	-0,068	-0,066
-302,037	228,551	-0,113	-0,134
-301,022	-200,000	0,001	-0,109
-300,008	721,432	-0,048	-0,095
-298,993	1,773	0,090	-0,048
-297,978	-81,312	-0,134	0,032
-296,964	-200,000	0,024	0,198
-295,949	137,515	0,064	-0,061
-294,935	-200,000	0,049	-0,173
-293,920	614,294	-0,065	0,119
-292,905	147,901	-0,049	0,048
-291,891	-200,000	0,024	-0,096
-290,876	100,628	0,069	0,059
-289,862	-200,000	0,004	0,116
-288,847	156,281	-0,053	-0,054
-287,832	-87,571	-0,096	-0,021
-286,818	39,357	0,026	0,017
-285,803	800,000	0,009	0,021
-284,789	169,760	-0,042	-0,044
-283,774	-109,339	-0,128	-0,020
-282,759	-68,702	0,181	-0,051
-281,745	-200,000	0,010	-0,125
-280,730	150,695	0,055	-0,055
-279,716	522,782	-0,024	-0,041
-278,701	707,079	0,035	0,069
-277,686	654,162	0,043	-0,081
-276,672	-200,000	0,020	-0,074
-275,657	209,109	-0,048	-0,055
-274,643	38,227	-0,116	-0,075
-273,628	-163,725	0,069	0,002
-272,613	-200,000	-0,021	-0,103
-271,599	800,000	0,033	-0,093
-270,584	-168,837	0,165	0,004
-269,570	122,565	-0,074	-0,068
-268,555	-129,155	0,073	0,007
-267,540	-200,000	-0,019	0,074
-266,526	-200,000	-0,009	-0,063
-265,511	800,000	0,003	-0,008
-264,497	800,000	0,016	-0,034
-263,482	-200,000	0,026	0,088
-262,467	-59,066	0,082	0,026
-261,453	201,264	0,074	-0,083
-260,438	216,094	-0,059	-0,069
-259,424	-200,000	-0,021	0,142
-258,409	-200,000	0,027	-0,099
-257,395	10,521	0,096	-0,053
-256,380	15,878	0,055	0,031
-255,365	-200,000	0,028	0,128
-254,351	678,921	0,074	0,142
-253,336	430,875	-0,076	-0,120
-252,322	-126,485	0,078	0,008
-251,307	-200,000	0,027	-0,147
-250,292	-200,000	-0,034	-0,229
-249,278	466,130	0,031	-0,051
-248,263	-200,000	-0,011	0,202
-247,249	50,067	0,058	-0,040
-246,234	30,940	-0,175	0,109
-245,219	-200,000	-0,021	0,148
-244,205	-200,000	-0,003	-0,058
-243,190	800,000	-0,036	-0,080
-242,176	800,000	0,041	0,131
-241,161	104,720	0,047	0,040
-240,146	458,692	0,052	0,084
-239,132	-200,000	0,005	0,094
-238,117	86,264	0,016	0,013
-237,103	159,656	-0,057	0,058
-236,088	800,000	0,025	-0,052
-235,073	-9,247	-0,053	-0,026
-234,059	-4,973	0,137	0,068
-233,044	122,740	0,100	-0,092
-232,030	4,916	0,108	0,058
-231,015	-200,000	-0,107	0,000
-230,000	-200,000	-0,022	-0,084
-228,986	800,000	-0,017	-0,053
-227,971	397,074	-0,100	0,153
-226,957	127,293	0,157	0,146
-225,942	623,866	0,029	0,054
-224,927	-66,245	0,176	0,051
-223,913	-200,000	-0,036	0,160
-222,898	800,000	-0,021	-0,055
-221,884	428,394	-0,016	0,025
-220,869	800,000	0,019	-0,040
-219,855	40,814	0,026	-0,017
-218,840	182,119	0,072	-0,077
-217,825	-10,237	-0,232	-0,112
-216,811	3,674	-0,119	-0,063
-215,796	-166,278	-0,090	0,003
-214,782	800,000	-0,023	0,053
-213,767	569,611	0,025	0,045
-212,752	800,000	0,029	-0,083
-211,738	800,000	-0,037	-0,106
-210,723	71,394	-0,077	0,058
-209,709	-200,000	-0,004	-0,031
-208,694	48,738	-0,070	-0,048
-207,679	-11,727	-0,057	-0,027
-206,665	-57,075	0,123	0,039
-205,650	234,989	-0,047	0,056
-204,636	218,554	0,063	0,073
-203,621	639,816	0,012	-0,022
-202,606	800,000	-0,011	-0,035
-201,592	-133,972	-0,076	-0,007
-200,577	680,493	-0,039	-0,075
-199,563	504,113	0,074	-0,126
-198,548	-200,000	-0,019	0,100
-197,533	591,438	0,074	-0,133
-196,519	-115,115	-0,062	0,008
-195,504	-61,244	-0,067	0,021
-194,490	270,381	-0,009	-0,012
-193,475	-75,564	0,058	0,015
-192,460	124,338	-0,067	-0,062
-191,446	307,941	0,059	-0,081
-190,431	99,938	0,051	-0,043
-189,417	-63,664	0,207	0,061
-188,402	-147,825	0,026	-0,002
-187,387	-147,458	-0,062	-0,004
-186,373	80,378	0,070	-0,055
-185,358	29,549	-0,082	0,051
-184,344	800,000	0,082	0,246
-183,329	30,745	0,066	0,041
-182,315	-200,000	-0,017	-0,059
-181,300	328,912	-0,078	0,109
-180,285	-105,414	-0,126	-0,021
-179,271	800,000	0,012	-0,029
-178,256	-34,004	-0,128	0,051
-177,242	198,907	0,033	0,037
-176,227	-200,000	0,011	0,040
-175,212	207,184	0,032	-0,037
-174,198	300,544	0,039	0,053
-173,183	800,000	-0,026	-0,075
-172,169	59,568	-0,025	0,018
-171,154	-200,000	0,013	-0,082
-170,139	-83,924	-0,044	-0,010
-169,125	-90,449	-0,043	0,009
-168,110	169,765	0,071	0,074
-167,096	-200,000	-0,021	0,078
-166,081	216,928	-0,098	-0,114
-165,066	-200,000	-0,037	-0,126
-164,052	741,826	0,013	-0,025
-163,037	466,252	0,067	0,110
-162,023	593,593	-0,057	0,103
-161,008	-36,345	0,030	0,012
-159,993	98,711	0,091	0,076
-158,979	386,759	0,037	0,056
-157,964	-136,000	0,168	-0,014
-156,950	800,000	0,008	0,025
-155,935	-16,361	0,066	-0,031
-154,920	81,750	0,093	-0,073
-153,906	62,085	0,035	0,025
-152,891	25,864	-0,036	-0,022
-151,877	210,767	-0,042	0,048
-150,862	800,000	0,026	0,074
-149,847	-126,097	0,144	-0,015
-148,833	361,058	0,063	-0,093
-147,818	201,148	0,047	-0,053
-146,804	-16,846	0,047	0,022
-145,789	52,244	-0,055	0,038
-144,775	-94,414	0,080	-0,016
-143,760	-200,000	0,014	-0,135
-142,745	289,161	-0,014	-0,018
-141,731	-1,709	-0,007	0,004
-140,716	65,563	-0,059	0,043
-139,702	-200,000	0,064	-0,000
-138,687	-200,000	-0,003	0,096
-137,672	577,015	-0,058	-0,104
-136,658	-143,898	-0,117	0,008
-135,643	-39,929	0,105	0,040
-134,629	-82,366	-0,053	0,013
-133,614	800,000	0,016	0,044
-132,599	-17,067	0,039	-0,018
-131,585	106,187	0,136	0,117
-130,570	181,249	0,013	0,014
-129,556	85,569	-0,146	-0,116
-128,541	169,034	-0,054	-0,056
-127,526	-200,000	0,029	0,160
-126,512	209,826	0,075	-0,085
-125,497	506,044	0,082	0,139
-124,483	54,544	-0,111	0,078
-123,468	-25,451	0,034	0,014
-122,453	-200,000	0,039	-0,149
-121,439	550,905	0,038	-0,066
-120,424	-200,000	-0,038	-0,154
-119,410	374,509	0,071	0,105
