DTS Sentinel unit serial number:	SN410029Multiplexer serial number:	ORYXHardware model number:	OX2-SRSoftware version number:	ORYX F/W v4,00 Oryx Data Collector v3.7.2.0data status	okinstallation	B6 Nyhavnadifferential loss correction	single-endedforward channel	channel 2reverse channel	N/Adate	2023/12/09time	05:25:08forward acquisition time	300,00reverse acquisition time	0,00gamma	499,1914k internal	0,3143k external	0,3143temperature offset calibration	1,0000default loss term (dB/km)	0,3820temperature slope calibration	1,0000multiplexer offset coefficient	1,0000multiplexer slope coefficient	1,0000fibre end	0,00T internal ref (°C)	17,87T ext. ref 1 (°C)	2,22T ext. ref 2 (°C)	2,25length (m)	temperature (°C)	Stokes	anti-Stokes-744,400	-200,000	-0,033	-0,125
-743,385	-63,482	-0,185	0,056
-742,371	-59,212	0,105	0,033
-741,356	-141,332	-0,259	0,019
-740,342	160,345	0,095	-0,098
-739,327	-125,261	-0,266	0,030
-738,312	-122,816	0,144	-0,017
-737,298	-179,189	-0,241	-0,004
-736,283	-110,185	0,208	-0,032
-735,269	-28,732	-0,172	0,073
-734,254	174,560	-0,068	-0,073
-733,239	55,925	-0,344	-0,247
-732,225	599,832	0,050	-0,092
-731,210	800,000	0,037	-0,113
-730,196	15,224	0,088	-0,051
-729,181	114,470	-0,026	-0,023
-728,167	-125,603	-0,007	0,001
-727,152	-5,325	-0,155	-0,079
-726,137	-31,899	-0,128	0,053
-725,123	-200,000	-0,004	-0,086
-724,108	-3,438	-0,066	-0,034
-723,094	602,493	-0,075	-0,139
-722,079	182,842	-0,102	-0,112
-721,064	-50,430	0,071	0,025
-720,050	-75,211	-0,077	-0,020
-719,035	87,198	0,049	0,040
-718,021	-16,428	-0,074	0,035
-717,006	-200,000	-0,007	-0,126
-715,991	-200,000	0,002	-0,103
-714,977	160,746	0,027	0,028
-713,962	-200,000	-0,008	-0,174
-712,948	-200,000	0,039	0,131
-711,933	-200,000	0,025	-0,151
-710,918	70,053	-0,050	-0,038
-709,904	-200,000	0,002	-0,064
-708,889	34,636	-0,075	-0,048
-707,875	-87,848	0,170	0,037
-706,860	586,554	0,079	-0,144
-705,845	800,000	0,008	-0,018
-704,831	800,000	-0,054	0,117
-703,816	223,270	0,042	-0,050
-702,802	14,761	-0,101	-0,058
-701,787	-57,320	0,089	-0,029
-700,772	-200,000	-0,014	0,092
-699,758	-59,399	-0,153	0,048
-698,743	800,000	0,020	-0,066
-697,729	-183,725	-0,071	-0,001
-696,714	-35,721	0,103	0,041
-695,699	-121,393	-0,083	-0,010
-694,685	-89,051	0,120	0,026
-693,670	-32,920	0,085	-0,035
-692,656	101,924	-0,014	0,012
-691,641	320,855	0,008	-0,011
-690,627	247,187	0,059	-0,074
-689,612	-87,243	0,058	-0,013
-688,597	-18,646	-0,166	0,076
-687,583	-200,000	-0,034	0,113
-686,568	99,977	-0,131	-0,112
-685,554	-20,561	0,095	-0,043
-684,539	483,350	0,058	-0,097
-683,524	-200,000	0,006	0,034
-682,510	800,000	-0,046	0,117
-681,495	-145,500	-0,170	0,011
-680,481	64,750	-0,027	-0,020
-679,466	-200,000	-0,022	-0,125
-678,451	-129,207	-0,146	-0,015
-677,437	-200,000	-0,004	0,052
-676,422	-7,363	0,066	-0,033
-675,408	70,600	-0,058	0,044
-674,393	107,806	-0,040	-0,035
-673,378	-68,315	-0,119	0,034
-672,364	-39,127	0,065	0,025
-671,349	-85,821	-0,106	0,024
-670,335	611,307	-0,011	0,020
-669,320	800,000	-0,034	-0,076
-668,305	324,673	-0,038	-0,054
-667,291	-200,000	0,010	-0,100
-666,276	-200,000	0,018	0,097
-665,262	38,926	0,087	0,057
-664,247	-200,000	0,010	-0,111
-663,232	-200,000	0,017	0,135
-662,218	-200,000	0,164	0,000
-661,203	279,057	0,046	-0,061
-660,189	-200,000	0,034	0,141
-659,174	-200,000	0,006	-0,041
-658,159	38,922	-0,056	-0,037
-657,145	-30,678	0,084	0,035
-656,130	800,000	-0,034	-0,108
-655,116	117,480	-0,032	-0,029
-654,101	800,000	0,014	-0,044
-653,086	52,252	-0,170	-0,120
-652,072	800,000	0,035	0,081
-651,057	37,424	-0,028	0,018
-650,043	-200,000	-0,012	0,041
-649,028	31,167	-0,115	-0,073
-648,014	-21,340	0,053	-0,024
-646,999	161,698	0,057	0,059
-645,984	-85,253	-0,022	0,005
-644,970	-200,000	0,005	0,059
-643,955	180,055	-0,089	-0,097
-642,941	586,613	-0,059	0,108
-641,926	-200,000	0,057	0,221
-640,911	-200,000	0,013	0,104
-639,897	-150,000	-0,063	0,004
-638,882	11,381	0,075	0,042
-637,868	36,780	0,070	-0,046
-636,853	-200,000	0,006	-0,037
-635,838	-87,145	0,011	0,002
-634,824	-200,000	-0,008	-0,117
-633,809	-106,464	-0,032	-0,005
-632,795	60,783	0,128	-0,094
-631,780	-93,316	0,088	0,018
-630,765	-200,000	-0,015	-0,058
-629,751	-200,000	-0,003	-0,064
-628,736	-200,000	0,034	-0,136
-627,722	171,525	0,035	-0,037
-626,707	800,000	-0,013	0,029
-625,692	167,491	0,094	0,099
-624,678	7,938	0,118	-0,065
-623,663	-102,089	-0,042	-0,007
-622,649	-200,000	-0,021	-0,081
-621,634	214,514	-0,019	-0,023
-620,619	800,000	0,038	-0,096
-619,605	-200,000	0,032	-0,154
-618,590	149,778	0,109	0,109
-617,576	-44,191	-0,040	-0,015
-616,561	-143,530	-0,100	0,007
-615,546	11,484	0,066	-0,037
-614,532	-27,739	-0,070	0,030
-613,517	-200,000	0,014	0,144
-612,503	-200,000	-0,014	-0,081
-611,488	-200,000	-0,032	-0,103
-610,474	759,133	0,027	-0,054
-609,459	-2,892	-0,077	-0,039
-608,444	87,962	-0,067	-0,055
-607,430	-21,889	-0,100	0,044
-606,415	-44,497	-0,063	-0,023
-605,401	-4,504	0,063	0,032
-604,386	800,000	0,015	-0,041
-603,371	65,564	0,122	0,091
-602,357	-200,000	0,012	0,040
-601,342	253,100	-0,096	-0,121
-600,328	-200,000	0,008	-0,087
-599,313	-45,214	-0,101	-0,037
-598,298	240,868	-0,053	0,065
-597,284	-42,006	0,062	0,023
-596,269	-200,000	0,001	0,035
-595,255	-81,036	-0,022	-0,005
-594,240	209,387	0,010	0,012
-593,225	18,901	-0,112	0,066
-592,211	-200,000	0,014	-0,085
-591,196	-200,000	-0,004	0,137
-590,182	-13,054	-0,049	0,023
-589,167	800,000	0,057	0,178
-588,152	47,876	-0,075	0,052
-587,138	7,023	-0,108	0,059
-586,123	50,877	-0,070	0,048
-585,109	383,435	-0,030	-0,045
-584,094	81,874	0,110	0,087
-583,079	27,210	-0,060	0,037
-582,065	-97,479	-0,022	-0,004
-581,050	387,069	0,036	-0,055
-580,036	23,760	-0,108	-0,065
-579,021	-154,531	0,092	-0,004
-578,006	800,000	0,053	-0,160
-576,992	-200,000	-0,015	0,052
-575,977	800,000	-0,020	-0,043
-574,963	51,948	0,076	0,053
-573,948	291,849	0,064	0,086
-572,934	-200,000	0,001	0,026
-571,919	-200,000	-0,039	0,141
-570,904	-200,000	0,014	0,103
-569,890	800,000	0,071	-0,167
-568,875	732,798	-0,018	-0,036
-567,861	184,289	-0,062	0,068
-566,846	-26,152	-0,179	0,077
-565,831	166,049	-0,011	0,011
-564,817	67,113	-0,176	-0,132
-563,802	230,909	-0,106	0,128
-562,788	-200,000	0,022	-0,099
-561,773	503,666	0,058	0,099
-560,758	-200,000	-0,016	0,205
-559,744	61,818	0,133	0,098
-558,729	49,423	0,005	-0,004
-557,715	-92,823	-0,040	0,008
-556,700	77,924	-0,074	-0,058
-555,685	-137,608	-0,091	-0,007
-554,671	-179,413	0,062	0,001
-553,656	-79,291	-0,121	-0,030
-552,642	800,000	0,050	0,162
-551,627	-200,000	0,012	-0,046
-550,612	52,602	0,013	-0,009
-549,598	800,000	0,017	0,052
-548,583	-61,002	0,068	0,021
-547,569	67,628	-0,073	-0,055
-546,554	-200,000	-0,006	0,111
-545,539	-200,000	0,008	0,094
-544,525	701,499	-0,009	0,018
-543,510	456,176	-0,041	0,068
-542,496	-200,000	0,004	-0,122
-541,481	66,881	-0,210	-0,157
-540,466	800,000	-0,029	-0,072
-539,452	-108,680	0,142	0,022
-538,437	-200,000	0,007	-0,043
-537,423	49,167	-0,034	0,023
-536,408	-200,000	0,012	0,051
-535,393	331,094	0,068	0,097
-534,379	-149,778	-0,091	-0,005
-533,364	800,000	0,012	-0,030
-532,350	-200,000	-0,012	0,056
-531,335	-200,000	0,007	-0,050
-530,321	800,000	0,041	-0,098
-529,306	-200,000	0,022	-0,095
-528,291	800,000	-0,012	-0,033
-527,277	12,316	-0,025	-0,014
-526,262	412,685	0,052	0,081
-525,248	800,000	-0,020	0,057
-524,233	296,929	0,022	-0,029
-523,218	183,982	-0,072	0,078
-522,204	-33,650	0,072	0,029
-521,189	-67,920	0,062	0,018
-520,175	-200,000	0,005	-0,087
-519,160	332,283	-0,063	-0,090
-518,145	-147,921	0,077	-0,005
-517,131	1,358	0,118	0,062
-516,116	-200,000	-0,007	-0,136
-515,102	-200,000	0,004	-0,106
-514,087	286,261	-0,114	0,152
-513,072	-137,992	-0,162	-0,013
-512,058	-200,000	0,024	-0,209
-511,043	800,000	-0,040	-0,129
-510,029	141,752	-0,113	0,110
-509,014	-200,000	-0,004	-0,046
-507,999	264,616	0,019	0,024
-506,985	-39,074	-0,117	-0,045
-505,970	-200,000	0,023	0,156
-504,956	-62,289	-0,102	0,031
-503,941	800,000	0,098	-0,217
-502,926	612,242	0,023	-0,043
-501,912	73,284	-0,064	-0,049
-500,897	469,721	-0,046	0,076
-499,883	406,941	0,031	0,048
-498,868	-200,000	0,016	-0,183
-497,853	-80,901	0,030	0,007
-496,839	-54,023	0,163	0,054
-495,824	398,330	-0,069	-0,106
-494,810	800,000	-0,027	-0,078
-493,795	800,000	0,044	-0,107
-492,781	586,070	-0,028	-0,051
-491,766	23,396	0,129	-0,078
-490,751	800,000	-0,042	0,105
-489,737	-44,554	-0,123	-0,045
-488,722	-114,374	0,069	0,010
-487,708	-66,032	0,192	-0,056
-486,693	-96,689	0,122	0,023
-485,678	-126,950	-0,080	-0,009
-484,664	-200,000	-0,025	0,098
-483,649	438,347	0,045	0,073
-482,635	-131,514	-0,052	-0,005
-481,620	800,000	-0,015	-0,044
-480,605	269,002	0,038	0,049
-479,591	800,000	-0,015	-0,036
-478,576	-88,870	0,087	-0,019
-477,562	800,000	-0,044	-0,095
-476,547	800,000	-0,005	0,015
-475,532	-200,000	0,008	0,132
-474,518	214,199	-0,029	-0,034
-473,503	-200,000	0,008	-0,095
-472,489	800,000	-0,033	-0,076
-471,474	163,940	0,054	-0,056
-470,459	-70,483	0,127	-0,035
-469,445	-16,068	-0,058	-0,027
-468,430	-200,000	0,011	-0,142
-467,416	348,845	0,081	-0,117
-466,401	38,875	0,042	0,028
-465,386	-200,000	0,001	0,155
-464,372	274,378	-0,108	-0,141
-463,357	489,750	-0,037	0,063
-462,343	800,000	-0,042	-0,119
-461,328	336,661	0,035	0,050
-460,313	-200,000	0,021	0,095
-459,299	-200,000	0,013	0,084
-458,284	-200,000	-0,008	-0,036
-457,270	91,762	-0,043	0,035
-456,255	257,330	-0,135	-0,171
-455,241	800,000	-0,037	-0,115
-454,226	100,530	-0,070	0,059
-453,211	-36,911	-0,107	0,042
-452,197	83,438	0,069	0,055
-451,182	-105,481	0,057	0,009
-450,168	-200,000	0,001	0,012
-449,153	-121,339	-0,140	0,017
-448,138	104,400	-0,099	-0,085
-447,124	-20,766	-0,111	-0,050
-446,109	-167,070	0,048	-0,001
-445,095	800,000	0,039	-0,115
-444,080	-200,000	-0,022	0,090
-443,065	289,140	-0,054	-0,072
-442,051	-75,584	0,074	-0,019
-441,036	800,000	0,032	-0,091
-440,022	-82,647	0,082	-0,019
-439,007	-200,000	0,047	0,163
-437,992	84,920	0,028	-0,023
-436,978	-3,853	0,039	0,020
-435,963	-95,735	-0,031	0,006
-434,949	1,974	0,040	0,021
-433,934	-200,000	-0,068	-0,227
-432,919	-93,354	0,106	0,021
-431,905	303,038	-0,081	-0,110
-430,890	26,454	-0,067	-0,041
-429,876	293,252	-0,083	0,111
-428,861	108,938	0,022	-0,019
-427,846	-200,000	0,011	-0,043
-426,832	-76,325	-0,030	-0,008
-425,817	-13,350	0,070	0,033
-424,803	-83,513	-0,024	-0,006
-423,788	373,143	-0,040	-0,059
-422,773	800,000	-0,003	-0,007
-421,759	55,096	0,059	0,042
-420,744	419,954	0,027	-0,042
-419,730	-158,406	0,112	-0,005
-418,715	-111,855	-0,103	-0,015
-417,701	60,182	-0,089	-0,064
-416,686	-105,768	0,149	0,024
-415,671	0,942	0,016	-0,009
-414,657	-87,802	-0,067	-0,015
-413,642	522,220	0,067	0,116
-412,628	63,464	0,065	0,048
-411,613	127,757	0,008	-0,007
-410,598	624,197	0,030	0,055
-409,584	-150,109	0,062	0,003
-408,569	800,000	-0,055	0,114
-407,555	406,661	-0,017	-0,026
-406,540	117,170	-0,077	-0,069
-405,525	-200,000	-0,004	0,018
-404,511	560,979	-0,024	-0,042
-403,496	335,604	0,079	-0,113
-402,482	-200,000	0,021	-0,109
-401,467	800,000	0,033	0,092
-400,452	-200,000	0,034	0,115
-399,438	-200,000	0,039	0,150
-398,423	123,724	-0,140	0,128
-397,409	-2,346	0,085	-0,043
-396,394	124,158	0,042	0,038
-395,379	800,000	-0,031	0,090
-394,365	-113,788	0,134	-0,019
-393,350	174,795	-0,084	0,089
-392,336	238,073	0,105	0,128
-391,321	-104,830	-0,112	0,019
-390,306	493,553	0,061	-0,102
-389,292	-115,213	-0,038	0,005
-388,277	244,684	0,113	-0,139
-387,263	-132,470	0,022	0,002
-386,248	437,839	0,084	0,134
-385,233	-34,865	0,068	0,027
-384,219	106,781	-0,073	-0,063
-383,204	305,550	0,029	-0,039
-382,190	-67,075	-0,121	0,035
-381,175	72,883	0,121	-0,092
-380,160	84,896	-0,024	0,020
-379,146	81,518	-0,095	0,075
-378,131	181,190	-0,062	0,066
-377,117	-200,000	-0,018	0,175
-376,102	-200,000	0,018	-0,085
-375,088	385,377	-0,026	-0,039
-374,073	800,000	0,038	-0,098
-373,058	-46,005	-0,122	-0,044
-372,044	-200,000	0,013	0,079
-371,029	-157,716	0,124	-0,005
-370,015	-168,949	-0,157	0,004
-369,000	800,000	-0,017	-0,048
-367,985	-101,446	0,101	0,018
-366,971	800,000	0,068	-0,153
-365,956	-123,088	-0,083	0,010
-364,942	-200,000	-0,004	0,100
-363,927	347,060	-0,015	-0,021
-362,912	-19,681	-0,016	0,007
-361,898	647,947	0,042	0,079
-360,883	-61,075	-0,017	-0,005
-359,869	-200,000	0,010	-0,034
-358,854	206,401	-0,006	0,006
-357,839	40,165	0,052	-0,034
-356,825	800,000	0,039	0,098
-355,810	-200,000	0,016	0,122
-354,796	-61,093	-0,115	0,035
-353,781	308,557	0,003	-0,004
-352,766	294,282	0,021	0,028
-351,752	369,321	-0,029	-0,043
-350,737	98,993	0,081	0,068
-349,723	264,293	-0,031	0,039
-348,708	800,000	-0,032	0,071
-347,693	389,401	-0,068	0,103
-346,679	-117,968	0,027	-0,003
-345,664	479,460	-0,139	0,231
-344,650	800,000	0,026	0,059
-343,635	-200,000	0,005	-0,026
-342,620	-117,814	-0,106	0,014
-341,606	560,366	0,050	0,089
-340,591	124,145	-0,063	0,058
-339,577	-200,000	-0,012	-0,197
-338,562	316,701	-0,116	-0,160
-337,548	226,211	-0,041	-0,049
-336,533	157,800	-0,014	-0,014
-335,518	-6,147	0,082	-0,040
-334,504	-78,672	0,125	0,031
-333,489	-119,759	-0,054	0,007
-332,475	-172,382	0,038	-0,001
-331,460	31,569	-0,025	-0,016
-330,445	522,567	0,046	0,079
-329,431	5,427	0,043	0,023
-328,416	775,821	-0,061	0,122
-327,402	91,807	0,083	0,068
-326,387	-104,523	0,156	-0,026
-325,372	64,345	-0,156	-0,115
-324,358	-7,043	-0,073	-0,036
-323,343	133,809	-0,058	-0,055
-322,329	800,000	-0,024	-0,054
-321,314	165,887	-0,036	0,037
-320,299	-38,842	-0,104	0,040
-319,285	-164,044	-0,032	-0,001
-318,270	32,889	-0,063	-0,040
-317,256	339,600	-0,080	-0,114
-316,241	-134,757	-0,041	-0,004
-315,226	-159,593	0,166	-0,007
-314,212	208,547	0,053	-0,061
-313,197	319,209	0,077	-0,107
-312,183	-17,322	-0,137	-0,063
-311,168	54,148	-0,065	0,045
-310,153	-200,000	0,006	0,086
-309,139	179,932	-0,018	0,020
-308,124	56,609	0,163	-0,115
-307,110	-18,451	-0,044	-0,020
-306,095	175,737	0,086	0,091
-305,080	800,000	-0,044	-0,095
-304,066	-200,000	-0,007	-0,052
-303,051	-194,007	-0,054	-0,000
-302,037	-97,757	0,057	-0,011
-301,022	-79,761	-0,106	-0,026
-300,008	-200,000	-0,015	-0,112
-298,993	800,000	0,045	-0,116
-297,978	800,000	-0,054	0,165
-296,964	-27,936	-0,062	0,026
-295,949	800,000	0,012	0,025
-294,935	54,925	-0,018	-0,012
-293,920	-200,000	-0,016	0,073
-292,905	-123,104	0,118	0,014
-291,891	195,342	0,042	0,047
-290,876	-73,592	0,027	0,007
-289,862	120,354	-0,043	-0,039
-288,847	791,463	-0,055	-0,111
-287,832	-200,000	-0,030	-0,160
-286,818	128,649	0,034	0,031
-285,803	-31,557	0,098	0,040
-284,789	-162,037	-0,039	-0,001
-283,774	47,403	0,058	0,039
-282,759	800,000	0,039	-0,098
-281,745	800,000	-0,066	-0,165
-280,730	-200,000	0,022	-0,197
-279,716	800,000	-0,066	-0,170
-278,701	800,000	-0,006	-0,018
-277,686	-200,000	-0,001	0,073
-276,672	-200,000	0,141	-0,000
-275,657	-27,135	0,135	-0,057
-274,643	368,779	-0,103	-0,153
-273,628	588,841	-0,032	-0,058
-272,613	26,540	-0,051	-0,031
-271,599	800,000	0,055	0,118
-270,584	218,277	0,049	-0,057
-269,570	-174,554	0,069	-0,001
-268,555	-75,380	-0,156	0,040
-267,540	565,254	0,058	0,103
-266,526	664,095	-0,046	-0,086
-265,511	-1,458	-0,132	0,068
-264,497	9,671	0,134	0,074
-263,482	303,454	-0,068	0,092
-262,467	-10,437	0,079	0,038
-261,453	-140,995	0,062	0,005
-260,438	59,606	-0,054	-0,039
-259,424	5,387	-0,086	-0,046
-258,409	73,351	-0,079	-0,060
-257,395	-7,317	0,101	0,049
-256,380	-200,000	-0,017	0,104
-255,365	-54,518	-0,061	-0,020
-254,351	-200,000	-0,006	0,089
-253,336	-92,452	0,090	0,018
-252,322	210,004	0,094	0,107
-251,307	-200,000	-0,001	-0,005
-250,292	265,713	-0,067	0,085
-249,278	-200,000	0,002	-0,013
-248,263	190,531	0,016	0,017
-247,249	259,985	0,084	0,106
-246,234	48,629	0,054	-0,037
-245,219	-200,000	-0,006	-0,103
-244,205	218,611	-0,104	0,121
-243,190	800,000	0,012	-0,032
-242,176	-200,000	-0,042	0,140
-241,161	800,000	0,020	-0,044
-240,146	-200,000	-0,042	0,155
-239,132	163,559	-0,074	0,075
-238,117	800,000	-0,036	-0,106
-237,103	-200,000	0,034	-0,160
-236,088	-159,881	0,077	0,003
-235,073	15,484	0,124	0,071
-234,059	-200,000	-0,019	0,097
-233,044	-43,431	0,104	0,038
-232,030	124,433	-0,050	-0,046
-231,015	-130,007	-0,116	0,011
-230,000	128,662	-0,086	-0,080
-228,986	800,000	0,032	-0,076
-227,971	-143,904	0,038	-0,003
-226,957	-200,000	0,005	-0,100
-225,942	479,877	0,057	-0,095
-224,927	-200,000	-0,001	0,055
-223,913	29,746	0,086	-0,053
-222,898	139,118	0,053	-0,051
-221,884	800,000	-0,022	-0,046
-220,869	800,000	0,013	0,038
-219,855	355,799	-0,037	0,054
-218,840	800,000	-0,034	0,106
-217,825	23,308	0,160	0,095
-216,811	-200,000	0,018	-0,078
-215,796	269,555	-0,054	0,070
-214,782	31,710	0,067	-0,042
-213,767	-94,406	0,101	-0,020
-212,752	152,854	-0,109	0,108
-211,738	-200,000	-0,005	-0,132
-210,723	-75,053	0,059	-0,015
-209,709	232,078	-0,068	0,081
-208,694	126,497	-0,056	-0,052
-207,679	21,356	0,039	-0,023
-206,665	-19,948	0,084	-0,037
-205,650	-22,689	0,021	0,009
-204,636	800,000	0,043	0,109
-203,621	5,469	0,167	-0,089
-202,606	258,910	-0,077	0,096
-201,592	-168,600	-0,076	-0,002
-200,577	129,137	0,074	-0,069
-199,563	-13,496	0,169	-0,079
-198,548	-200,000	0,015	-0,093
-197,533	74,080	0,202	0,153
-196,519	-42,911	-0,174	-0,064
-195,504	-200,000	0,002	0,043
-194,490	192,761	0,064	0,070
-193,475	-200,000	-0,017	0,056
-192,460	-200,000	-0,010	0,058
-191,446	800,000	0,032	-0,077
-190,431	187,435	-0,114	0,123
-189,417	697,528	-0,016	0,030
-188,402	221,725	0,038	0,044
-187,387	-200,000	-0,019	-0,096
-186,373	-200,000	-0,021	-0,107
-185,358	800,000	0,060	0,131
-184,344	800,000	0,025	0,052
-183,329	-76,334	0,254	0,064
-182,315	307,694	0,049	0,066
-181,300	-77,683	-0,013	-0,003
-180,285	-200,000	-0,023	0,228
-179,271	-200,000	0,007	-0,038
-178,256	233,059	0,097	-0,115
-177,242	252,323	0,071	-0,088
-176,227	341,587	0,094	-0,134
-175,212	800,000	0,016	0,034
-174,198	-138,111	-0,140	0,011
-173,183	800,000	0,038	0,090
-172,169	-21,380	-0,182	0,080
-171,154	66,850	-0,117	-0,086
-170,139	800,000	0,046	0,121
-169,125	-1,174	0,088	0,045
-168,110	800,000	0,063	0,197
-167,096	3,752	-0,071	-0,037
-166,081	315,196	-0,096	-0,132
-165,066	-142,187	-0,144	0,010
-164,052	7,530	0,054	-0,029
-163,037	-200,000	0,021	0,109
-162,023	227,302	0,070	0,082
-161,008	7,624	-0,028	0,015
-159,993	-98,027	0,085	-0,016
-158,979	-8,156	0,041	-0,020
-157,964	-76,423	-0,035	-0,009
-156,950	-174,624	-0,027	0,001
-155,935	-44,890	0,108	0,039
-154,920	300,623	0,016	-0,021
-153,906	-200,000	-0,030	0,125
-152,891	698,184	-0,056	0,107
-151,877	-46,881	0,138	-0,048
-150,862	-200,000	0,025	0,110
-149,847	-19,050	0,032	0,014
-148,833	241,773	-0,067	0,081
-147,818	-104,995	0,114	-0,019
-146,804	772,180	0,048	0,096
-145,789	112,199	0,090	0,079
-144,775	-81,707	0,044	0,010
-143,760	800,000	0,074	-0,166
-142,745	706,267	-0,032	0,061
-141,731	345,985	-0,076	0,108
-140,716	399,562	-0,015	-0,023
-139,702	-200,000	-0,023	0,184
-138,687	800,000	-0,013	-0,040
-137,672	-200,000	0,000	-0,029
-136,658	123,941	0,055	0,050
-135,643	-200,000	-0,016	0,100
-134,629	744,910	0,083	-0,163
-133,614	-175,145	-0,066	-0,001
-132,599	-76,390	-0,071	0,018
-131,585	-168,649	0,056	-0,002
-130,570	234,799	-0,097	-0,116
-129,556	-89,914	-0,064	0,013
-128,541	345,933	0,062	0,088
-127,526	62,746	0,080	0,058
-126,512	146,608	-0,040	0,039
-125,497	205,019	0,079	0,089
-124,483	0,681	-0,105	-0,054
-123,468	-60,834	-0,062	0,019
-122,453	-55,200	-0,093	-0,030
-121,439	236,847	0,059	0,071
-120,424	800,000	-0,058	0,120
-119,410	-85,417	0,097	-0,022
