DTS Sentinel unit serial number:	SN410029Multiplexer serial number:	ORYXHardware model number:	OX2-SRSoftware version number:	ORYX F/W v4,00 Oryx Data Collector v3.7.2.0data status	okinstallation	B6 Nyhavnadifferential loss correction	single-endedforward channel	channel 2reverse channel	N/Adate	2023/12/08time	21:20:08forward acquisition time	300,00reverse acquisition time	0,00gamma	499,1914k internal	0,3158k external	0,3158temperature offset calibration	1,0000default loss term (dB/km)	0,3820temperature slope calibration	1,0000multiplexer offset coefficient	1,0000multiplexer slope coefficient	1,0000fibre end	0,00T internal ref (°C)	15,22T ext. ref 1 (°C)	-1,35T ext. ref 2 (°C)	-1,35length (m)	temperature (°C)	Stokes	anti-Stokes-744,400	8,078	0,130	0,072
-743,385	-117,286	-0,242	0,032
-742,371	-80,154	0,163	0,040
-741,356	26,051	-0,283	0,174
-740,342	-68,281	0,104	0,030
-739,327	-173,752	-0,272	0,006
-738,312	-200,000	0,012	0,094
-737,298	-55,853	-0,254	0,083
-736,283	-41,884	0,154	0,058
-735,269	-81,707	-0,361	-0,087
-734,254	-185,691	0,164	0,002
-733,239	-62,225	-0,589	-0,180
-732,225	-96,853	0,170	-0,033
-731,210	4,457	-0,148	0,080
-730,196	76,371	-0,041	0,032
-729,181	128,266	-0,083	-0,078
-728,167	-200,000	0,001	0,007
-727,152	418,967	-0,079	-0,124
-726,137	-200,000	-0,021	0,113
-725,123	-81,778	-0,115	0,028
-724,108	-200,000	-0,047	-0,203
-723,094	211,502	0,036	-0,042
-722,079	-92,419	-0,098	-0,020
-721,064	-71,609	-0,094	0,026
-720,050	-94,972	-0,056	0,011
-719,035	800,000	-0,068	-0,205
-718,021	800,000	-0,044	0,121
-717,006	516,494	-0,065	-0,113
-715,991	-86,002	-0,099	-0,022
-714,977	-90,426	-0,153	-0,032
-713,962	-200,000	-0,032	0,160
-712,948	-145,394	-0,018	-0,001
-711,933	7,191	-0,046	-0,025
-710,918	-200,000	-0,008	-0,052
-709,904	800,000	-0,029	-0,071
-708,889	-74,239	-0,171	-0,045
-707,875	800,000	-0,030	-0,084
-706,860	-200,000	0,003	0,015
-705,845	-181,749	-0,034	0,000
-704,831	118,577	-0,087	-0,079
-703,816	74,132	-0,182	-0,141
-702,802	-200,000	0,010	0,035
-701,787	67,213	-0,123	-0,092
-700,772	443,386	-0,057	-0,092
-699,758	-59,318	-0,036	-0,011
-698,743	196,041	0,112	-0,125
-697,729	-200,000	-0,012	-0,133
-696,714	-200,000	-0,019	-0,115
-695,699	-71,139	-0,171	-0,047
-694,685	-200,000	0,018	-0,080
-693,670	243,357	-0,008	-0,010
-692,656	-80,964	0,049	0,012
-691,641	-165,303	0,076	0,002
-690,627	800,000	-0,047	0,115
-689,612	95,527	0,070	0,059
-688,597	-173,121	0,083	-0,002
-687,583	-200,000	0,036	-0,152
-686,568	-50,967	0,066	-0,023
-685,554	64,740	-0,065	-0,049
-684,539	679,114	-0,063	-0,120
-683,524	273,699	-0,025	-0,032
-682,510	30,169	-0,069	0,044
-681,495	-200,000	0,002	0,064
-680,481	-26,609	0,036	0,015
-679,466	211,510	-0,032	-0,037
-678,451	199,276	-0,052	-0,058
-677,437	130,391	0,050	-0,047
-676,422	161,613	0,121	0,124
-675,408	-200,000	0,004	0,053
-674,393	215,692	0,049	-0,058
-673,378	-111,269	-0,181	-0,027
-672,364	-200,000	-0,016	-0,077
-671,349	39,643	-0,051	-0,034
-670,335	-200,000	0,014	0,076
-669,320	-113,754	-0,067	-0,009
-668,305	28,092	-0,023	-0,014
-667,291	173,948	-0,088	0,093
-666,276	113,516	-0,039	0,034
-665,262	800,000	-0,011	0,024
-664,247	34,087	-0,060	-0,038
-663,232	-27,083	-0,059	0,025
-662,218	162,836	0,061	-0,063
-661,203	-30,488	-0,061	0,025
-660,189	-44,608	-0,007	0,003
-659,174	-126,308	-0,099	-0,011
-658,159	-200,000	0,010	-0,076
-657,145	346,989	-0,114	-0,165
-656,130	-60,446	0,081	-0,025
-655,116	155,281	-0,054	0,054
-654,101	800,000	0,054	0,155
-653,086	-96,734	0,088	0,017
-652,072	-171,098	-0,213	0,005
-651,057	-200,000	-0,015	-0,049
-650,043	18,285	-0,096	-0,056
-649,028	-33,260	0,117	0,047
-648,014	-200,000	-0,020	0,104
-646,999	800,000	0,069	0,178
-645,984	465,981	0,017	0,029
-644,970	-145,363	-0,069	0,004
-643,955	247,375	-0,079	-0,098
-642,941	800,000	-0,043	-0,114
-641,926	-48,823	-0,035	0,012
-640,911	800,000	0,040	-0,105
-639,897	-7,534	0,038	-0,019
-638,882	353,004	0,015	0,021
-637,868	-11,060	-0,175	-0,085
-636,853	121,548	0,044	-0,041
-635,838	136,657	-0,059	-0,056
-634,824	291,856	0,030	0,040
-633,809	-91,731	0,039	-0,008
-632,795	396,599	0,074	0,114
-631,780	-64,648	0,068	0,020
-630,765	40,285	-0,049	-0,032
-629,751	800,000	-0,035	0,075
-628,736	189,333	-0,101	-0,112
-627,722	277,903	-0,059	-0,077
-626,707	-37,000	0,032	-0,012
-625,692	-200,000	0,013	0,149
-624,678	-200,000	-0,008	0,157
-623,663	19,210	-0,045	-0,027
-622,649	-77,072	-0,168	0,043
-621,634	800,000	0,026	-0,061
-620,619	-49,308	-0,046	-0,016
-619,605	-86,076	-0,069	-0,015
-618,590	115,471	0,037	-0,034
-617,576	-200,000	0,035	0,113
-616,561	118,599	0,065	0,059
-615,546	-200,000	-0,031	-0,106
-614,532	152,342	-0,058	-0,058
-613,517	-200,000	0,016	0,071
-612,503	45,900	0,068	0,046
-611,488	158,229	0,062	0,064
-610,474	-92,108	-0,041	-0,008
-609,459	-200,000	0,008	-0,145
-608,444	-29,179	-0,028	-0,012
-607,430	-200,000	0,011	0,055
-606,415	-34,637	-0,220	0,088
-605,401	-200,000	0,006	0,073
-604,386	-200,000	0,001	-0,023
-603,371	800,000	0,041	0,105
-602,357	800,000	-0,008	0,024
-601,342	-50,568	0,047	-0,016
-600,328	-200,000	-0,074	-0,247
-599,313	-16,359	-0,039	0,018
-598,298	92,709	-0,017	-0,014
-597,284	161,891	0,100	-0,103
-596,269	-169,978	-0,137	-0,004
-595,255	249,025	-0,066	0,082
-594,240	-200,000	0,013	0,045
-593,225	-117,126	-0,084	-0,011
-592,211	-200,000	0,028	-0,198
-591,196	800,000	-0,046	0,116
-590,182	200,946	0,091	-0,103
-589,167	-6,718	-0,111	-0,055
-588,152	-35,285	-0,034	0,014
-587,138	376,718	-0,048	-0,072
-586,123	88,145	-0,105	-0,085
-585,109	195,074	-0,037	-0,041
-584,094	-8,704	-0,079	0,038
-583,079	800,000	0,027	0,066
-582,065	-178,994	0,038	-0,001
-581,050	-46,486	-0,069	0,025
-580,036	209,036	0,039	-0,045
-579,021	352,984	-0,051	-0,074
-578,006	800,000	-0,022	-0,046
-576,992	-200,000	-0,011	-0,092
-575,977	335,211	0,070	0,099
-574,963	97,477	0,088	0,074
-573,948	-200,000	-0,005	-0,035
-572,934	-87,913	-0,072	-0,016
-571,919	-200,000	-0,036	0,141
-570,904	-200,000	0,000	0,001
-569,890	-117,915	0,050	0,007
-568,875	800,000	0,050	-0,112
-567,861	-200,000	-0,004	0,053
-566,846	800,000	0,014	0,031
-565,831	-200,000	-0,025	-0,139
-564,817	43,383	0,061	0,041
-563,802	30,423	-0,105	0,066
-562,788	-200,000	-0,041	-0,150
-561,773	-105,886	0,168	0,027
-560,758	-200,000	0,016	0,080
-559,744	-54,565	0,093	0,030
-558,729	174,648	0,066	0,070
-557,715	-52,446	-0,179	-0,060
-556,700	800,000	0,008	-0,018
-555,685	343,934	0,075	-0,108
-554,671	-200,000	-0,021	0,131
-553,656	298,980	0,075	0,102
-552,642	264,022	0,037	0,047
-551,627	51,355	0,050	-0,035
-550,612	15,575	-0,026	-0,015
-549,598	116,668	-0,048	0,043
-548,583	-99,668	0,069	0,013
-547,569	-89,611	-0,081	0,017
-546,554	78,022	-0,052	0,040
-545,539	128,477	0,054	-0,050
-544,525	-200,000	0,098	0,000
-543,510	-114,050	0,084	0,012
-542,496	-200,000	-0,016	0,057
-541,481	-165,290	0,128	0,004
-540,466	-2,106	-0,124	0,063
-539,452	405,193	-0,023	0,036
-538,437	70,570	0,091	0,069
-537,423	800,000	0,025	-0,062
-536,408	-200,000	0,020	0,167
-535,393	-1,492	0,042	-0,021
-534,379	46,851	-0,168	-0,114
-533,364	800,000	-0,007	0,018
-532,350	-200,000	-0,035	0,135
-531,335	-200,000	0,005	0,089
-530,321	37,465	0,079	-0,051
-529,306	213,390	0,040	-0,046
-528,291	-80,046	-0,063	-0,015
-527,277	-200,000	-0,015	-0,068
-526,262	800,000	0,037	-0,112
-525,248	-200,000	0,006	0,088
-524,233	-200,000	0,010	0,044
-523,218	-103,375	-0,077	0,013
-522,204	73,956	0,053	-0,040
-521,189	-105,462	0,126	-0,021
-520,175	-134,040	-0,185	-0,017
-519,160	93,941	-0,125	-0,104
-518,145	-200,000	-0,010	-0,122
-517,131	-28,039	0,208	0,088
-516,116	-112,979	-0,100	-0,014
-515,102	800,000	0,055	0,116
-514,087	423,042	-0,049	-0,077
-513,072	-41,071	-0,041	-0,016
-512,058	-200,000	-0,007	0,030
-511,043	3,033	-0,092	-0,049
-510,029	-137,362	-0,073	0,006
-509,014	451,380	0,065	0,105
-507,999	494,128	0,054	0,091
-506,985	-86,563	-0,098	-0,022
-505,970	47,893	-0,080	0,054
-504,956	-200,000	-0,022	-0,106
-503,941	-69,538	0,024	0,007
-502,926	352,596	0,031	-0,044
-501,912	-200,000	-0,018	0,105
-500,897	250,085	0,026	0,032
-499,883	93,623	-0,068	-0,056
-498,868	16,474	0,034	-0,020
-497,853	-86,422	0,074	0,017
-496,839	-129,926	-0,042	0,004
-495,824	-200,000	-0,010	0,040
-494,810	-200,000	-0,006	0,148
-493,795	92,057	-0,118	0,097
-492,781	-83,772	-0,058	0,013
-491,766	-140,478	-0,022	-0,002
-490,751	201,980	-0,044	0,050
-489,737	-200,000	0,036	-0,145
-488,722	200,336	-0,026	0,029
-487,708	-200,000	-0,015	0,125
-486,693	117,145	0,126	0,113
-485,678	-51,946	-0,130	-0,044
-484,664	-61,251	-0,043	0,013
-483,649	-200,000	-0,151	0,000
-482,635	174,154	0,063	-0,066
-481,620	-200,000	0,040	0,166
-480,605	475,175	0,101	0,167
-479,591	-200,000	0,033	0,193
-478,576	-1,687	-0,100	-0,051
-477,562	356,495	-0,038	-0,055
-476,547	-200,000	0,026	-0,090
-475,532	-200,000	0,000	0,052
-474,518	-53,895	0,085	-0,028
-473,503	119,574	0,088	0,079
-472,489	165,196	0,059	-0,061
-471,474	-200,000	0,011	0,111
-470,459	-38,255	-0,167	0,064
-469,445	131,776	-0,048	-0,045
-468,430	800,000	-0,018	0,047
-467,416	592,039	0,043	-0,079
-466,401	20,555	-0,082	0,048
-465,386	-200,000	-0,016	-0,131
-464,372	-200,000	-0,022	-0,157
-463,357	-69,341	-0,116	-0,032
-462,343	18,381	-0,043	0,025
-461,328	248,041	0,061	0,075
-460,313	800,000	0,063	-0,136
-459,299	10,198	0,062	0,034
-458,284	-79,763	-0,051	0,012
-457,270	800,000	0,037	0,085
-456,255	-119,042	-0,051	-0,006
-455,241	-80,788	0,062	0,015
-454,226	800,000	0,027	0,065
-453,211	-117,567	0,089	0,012
-452,197	111,667	0,101	0,089
-451,182	390,065	-0,086	-0,131
-450,168	-200,000	-0,028	-0,136
-449,153	142,704	0,026	0,025
-448,138	154,022	-0,074	-0,074
-447,124	-200,000	-0,006	0,083
-446,109	-141,719	-0,023	-0,002
-445,095	280,491	0,096	-0,126
-444,080	-43,315	0,179	0,066
-443,065	-200,000	-0,024	-0,102
-442,051	-119,775	0,038	0,005
-441,036	-200,000	-0,003	-0,026
-440,022	-200,000	-0,009	0,127
-439,007	-28,253	-0,114	0,048
-437,992	-92,871	-0,054	0,011
-436,978	-79,809	-0,114	-0,028
-435,963	-200,000	0,001	0,108
-434,949	-200,000	0,004	-0,043
-433,934	-47,939	-0,075	0,026
-432,919	-200,000	0,005	-0,049
-431,905	-200,000	-0,001	-0,159
-430,890	54,261	0,097	-0,068
-429,876	800,000	-0,042	0,106
-428,861	-106,895	0,094	-0,015
-427,846	62,308	0,107	-0,077
-426,832	800,000	-0,042	-0,090
-425,817	251,070	-0,041	-0,051
-424,803	-200,000	0,028	-0,119
-423,788	-200,000	0,011	-0,039
-422,773	-11,066	-0,054	-0,026
-421,759	-105,840	-0,054	-0,009
-420,744	-200,000	-0,012	0,114
-419,730	800,000	0,024	-0,059
-418,715	34,769	-0,140	-0,089
-417,701	506,944	-0,039	0,066
-416,686	-16,143	-0,104	0,048
-415,671	-4,587	0,138	0,069
-414,657	111,805	0,074	0,065
-413,642	800,000	-0,016	0,043
-412,628	237,451	-0,050	-0,060
-411,613	43,153	0,158	-0,105
-410,598	666,401	-0,035	-0,066
-409,584	-200,000	0,002	0,140
-408,569	-124,259	0,087	-0,010
-407,555	-102,227	-0,197	-0,034
-406,540	137,868	0,048	0,046
-405,525	78,081	0,025	0,019
-404,511	-140,675	0,102	0,008
-403,496	800,000	-0,041	0,112
-402,482	-72,972	-0,116	-0,031
-401,467	534,973	0,054	0,094
-400,452	800,000	0,032	0,067
-399,438	-200,000	0,004	-0,148
-398,423	359,637	-0,019	0,028
-397,409	-200,000	-0,021	-0,097
-396,394	-96,770	0,097	-0,018
-395,379	800,000	0,067	0,139
-394,365	633,955	-0,056	-0,104
-393,350	97,653	-0,013	0,011
-392,336	-200,000	-0,017	0,077
-391,321	181,843	-0,117	-0,126
-390,306	-125,762	0,050	0,005
-389,292	112,111	-0,041	0,036
-388,277	800,000	-0,025	0,056
-387,263	-129,882	0,110	0,011
-386,248	-200,000	0,017	-0,090
-385,233	112,650	-0,077	-0,067
-384,219	-11,156	0,126	0,060
-383,204	-200,000	0,013	0,046
-382,190	800,000	-0,060	-0,128
-381,175	387,376	-0,063	-0,096
-380,160	208,137	0,131	0,149
-379,146	-191,486	-0,188	0,001
-378,131	-200,000	0,002	0,027
-377,117	800,000	-0,005	-0,012
-376,102	-200,000	0,022	-0,079
-375,088	225,739	-0,109	0,128
-374,073	-137,253	0,109	-0,009
-373,058	597,844	0,070	-0,126
-372,044	600,914	0,135	0,245
-371,029	10,544	-0,089	-0,049
-370,015	-4,511	0,085	0,042
-369,000	-200,000	0,007	-0,044
-367,985	-63,353	-0,125	-0,037
-366,971	91,796	0,027	0,022
-365,956	-200,000	-0,008	-0,037
-364,942	-44,596	0,038	-0,014
-363,927	148,450	-0,073	0,071
-362,912	-75,884	-0,096	0,025
-361,898	-59,995	-0,136	-0,042
-360,883	800,000	-0,036	0,074
-359,869	-123,475	0,033	-0,004
-358,854	587,732	-0,059	0,106
-357,839	294,948	0,049	0,065
-356,825	407,001	0,043	0,067
-355,810	-143,820	-0,093	0,006
-354,796	-200,000	0,010	0,054
-353,781	53,253	0,183	-0,127
-352,766	143,541	0,076	-0,073
-351,752	-105,098	-0,035	-0,006
-350,737	800,000	0,047	-0,108
-349,723	-200,000	-0,023	-0,099
-348,708	-117,883	-0,046	0,006
-347,693	-200,000	0,040	-0,145
-346,679	51,923	-0,165	-0,114
-345,664	-43,395	0,089	-0,033
-344,650	263,450	0,102	0,129
-343,635	-141,966	0,165	-0,012
-342,620	-84,878	0,130	-0,029
-341,606	450,086	0,030	-0,048
-340,591	-79,199	0,161	-0,039
-339,577	172,845	-0,099	-0,104
-338,562	800,000	0,023	-0,054
-337,548	-105,575	-0,079	0,013
-336,533	-47,422	0,032	0,011
-335,518	178,976	-0,008	0,008
-334,504	29,648	-0,077	0,047
-333,489	-88,304	0,136	-0,029
-332,475	-158,593	0,143	0,006
-331,460	32,391	-0,121	-0,076
-330,445	270,168	0,101	0,129
-329,431	800,000	0,028	0,082
-328,416	447,776	-0,075	-0,119
-327,402	196,708	0,143	0,158
-326,387	-148,583	0,073	-0,004
-325,372	-200,000	-0,002	0,094
-324,358	127,767	-0,056	0,051
-323,343	71,088	0,036	-0,027
-322,329	423,587	0,007	-0,012
-321,314	-200,000	0,028	0,149
-320,299	-47,281	0,037	-0,013
-319,285	26,713	0,056	0,034
-318,270	-163,085	-0,058	0,002
-317,256	-110,159	0,064	-0,010
-316,241	800,000	0,050	-0,145
-315,226	-200,000	-0,036	0,159
-314,212	800,000	0,047	0,105
-313,197	419,120	0,036	-0,056
-312,183	315,752	0,056	0,077
-311,168	800,000	-0,032	-0,097
-310,153	-56,149	-0,093	-0,030
-309,139	272,355	0,019	-0,024
-308,124	-9,161	0,094	0,045
-307,110	-118,574	0,020	0,002
-306,095	-200,000	-0,009	-0,032
-305,080	800,000	-0,071	-0,151
-304,066	441,358	0,030	0,049
-303,051	800,000	0,019	0,057
-302,037	-200,000	-0,007	0,104
-301,022	259,586	0,065	-0,081
-300,008	-200,000	0,002	0,022
-298,993	-200,000	-0,002	0,087
-297,978	-91,074	-0,099	0,020
-296,964	800,000	0,015	-0,033
-295,949	-153,311	-0,075	0,004
-294,935	112,874	-0,090	-0,079
-293,920	-143,489	0,149	-0,010
-292,905	-21,482	0,166	-0,073
-291,891	-200,000	-0,016	0,093
-290,876	800,000	0,055	0,118
-289,862	-200,000	0,003	0,143
-288,847	-200,000	-0,002	-0,051
-287,832	800,000	-0,039	-0,087
-286,818	800,000	0,004	0,012
-285,803	319,534	-0,029	-0,040
-284,789	-200,000	-0,003	0,206
-283,774	-90,807	0,058	0,012
-282,759	481,447	-0,015	-0,025
-281,745	10,384	0,026	-0,014
-280,730	-54,149	-0,131	-0,043
-279,716	800,000	-0,021	-0,055
-278,701	790,984	0,033	0,066
-277,686	82,929	0,019	0,015
-276,672	182,292	0,123	0,131
-275,657	800,000	-0,051	0,118
-274,643	-76,547	0,053	-0,013
-273,628	-200,000	-0,043	-0,149
-272,613	-200,000	0,012	-0,064
-271,599	340,849	-0,028	-0,039
-270,584	-124,669	0,093	0,010
-269,570	50,603	0,076	0,052
-268,555	18,463	0,073	-0,042
-267,540	-107,181	0,075	-0,012
-266,526	-200,000	0,022	0,080
-265,511	-48,250	0,056	-0,019
-264,497	-200,000	0,002	0,076
-263,482	-80,642	0,017	-0,004
-262,467	-5,975	0,091	0,045
-261,453	468,721	-0,016	0,026
-260,438	156,942	0,071	-0,071
-259,424	-200,000	-0,026	-0,151
-258,409	-136,516	0,142	0,012
-257,395	0,087	-0,020	0,010
-256,380	-80,723	0,136	0,032
-255,365	-142,048	-0,104	0,007
-254,351	8,546	0,101	-0,055
-253,336	70,044	-0,088	-0,066
-252,322	-200,000	0,009	0,052
-251,307	744,517	0,080	-0,157
-250,292	-82,300	0,151	0,035
-249,278	-200,000	0,002	-0,079
-248,263	-164,847	-0,095	0,003
-247,249	-53,174	0,047	0,016
-246,234	-32,034	-0,049	-0,020
-245,219	256,029	-0,043	-0,053
-244,205	-64,323	0,090	0,026
-243,190	-200,000	0,017	0,179
-242,176	-104,517	-0,103	-0,017
-241,161	41,270	-0,172	-0,112
-240,146	190,037	0,029	-0,032
-239,132	169,799	0,121	-0,125
-238,117	203,909	0,058	0,066
-237,103	-155,773	-0,084	0,004
-236,088	158,389	-0,076	-0,077
-235,073	-200,000	0,007	-0,042
-234,059	-3,737	-0,106	0,053
-233,044	565,199	0,069	0,122
-232,030	-200,000	0,010	0,111
-231,015	-38,126	-0,091	-0,035
-230,000	-200,000	-0,020	-0,101
-228,986	140,494	0,075	-0,072
-227,971	-38,547	-0,089	0,034
-226,957	-60,832	0,093	0,028
-225,942	104,765	0,022	-0,019
-224,927	-38,513	0,085	-0,032
-223,913	800,000	0,026	-0,077
-222,898	371,011	-0,026	-0,038
-221,884	-136,513	-0,081	0,007
-220,869	18,811	0,050	0,029
-219,855	-200,000	0,017	0,109
-218,840	211,723	0,076	0,087
-217,825	-200,000	0,012	-0,060
-216,811	800,000	-0,032	-0,069
-215,796	229,467	0,054	-0,064
-214,782	473,387	0,059	0,097
-213,767	-58,331	-0,025	0,008
-212,752	-200,000	-0,011	-0,097
-211,738	800,000	0,053	-0,138
-210,723	214,541	0,019	0,021
-209,709	55,704	0,126	-0,088
-208,694	31,322	-0,144	-0,089
-207,679	1,987	0,032	0,017
-206,665	268,993	0,024	-0,031
-205,650	-58,928	-0,086	0,027
-204,636	800,000	-0,018	0,044
-203,621	-155,175	0,082	0,004
-202,606	-146,253	0,065	0,004
-201,592	800,000	-0,023	-0,055
-200,577	-200,000	-0,000	0,118
-199,563	778,381	-0,018	0,035
-198,548	69,258	0,140	0,104
-197,533	634,181	0,041	0,076
-196,519	66,409	-0,121	-0,088
-195,504	-200,000	-0,002	-0,306
-194,490	-26,194	-0,061	0,026
-193,475	103,223	-0,141	0,119
-192,460	-153,624	0,098	0,005
-191,446	-23,316	-0,172	-0,075
-190,431	54,964	0,109	0,076
-189,417	800,000	-0,020	0,048
-188,402	-20,483	-0,042	0,019
-187,387	141,976	0,079	-0,076
-186,373	-22,895	0,055	-0,024
-185,358	629,359	0,024	-0,045
-184,344	219,055	0,029	0,034
-183,329	362,799	0,030	0,044
-182,315	258,803	-0,054	0,068
-181,300	-42,582	-0,114	-0,042
-180,285	-89,559	-0,105	-0,022
-179,271	70,994	-0,118	-0,088
-178,256	404,194	-0,035	-0,054
-177,242	58,411	0,047	0,033
-176,227	-200,000	-0,024	0,150
-175,212	733,416	-0,044	-0,085
-174,198	800,000	-0,008	0,026
-173,183	800,000	-0,032	-0,074
-172,169	-31,292	-0,037	-0,015
-171,154	-91,583	-0,117	0,024
-170,139	-200,000	0,001	0,106
-169,125	117,013	-0,071	-0,063
-168,110	195,700	0,080	-0,088
-167,096	55,800	-0,093	-0,065
-166,081	2,996	-0,089	0,046
-165,066	-200,000	0,001	-0,113
-164,052	-200,000	0,003	-0,115
-163,037	83,616	-0,054	0,042
-162,023	94,800	-0,088	-0,072
-161,008	-200,000	-0,003	-0,016
-159,993	-200,000	-0,003	-0,059
-158,979	-154,598	0,094	0,004
-157,964	236,374	-0,054	-0,065
-156,950	-56,469	0,087	-0,028
-155,935	800,000	-0,045	0,122
-154,920	800,000	-0,034	0,095
-153,906	-49,281	0,096	-0,033
-152,891	369,977	-0,049	0,072
-151,877	124,062	-0,084	-0,076
-150,862	-200,000	-0,021	-0,083
-149,847	-137,277	0,058	-0,005
-148,833	-200,000	0,027	-0,157
-147,818	141,189	0,076	-0,072
-146,804	-200,000	-0,004	-0,092
-145,789	-200,000	0,005	0,192
-144,775	-196,897	0,118	-0,001
-143,760	800,000	0,009	0,022
-142,745	-62,300	-0,092	0,027
-141,731	-200,000	0,021	0,100
-140,716	83,627	-0,064	0,051
-139,702	472,376	-0,037	-0,060
-138,687	800,000	-0,048	-0,138
-137,672	-131,650	-0,137	-0,013
-136,658	-38,270	0,099	-0,038
-135,643	800,000	-0,007	0,016
-134,629	-200,000	-0,008	-0,032
-133,614	-200,000	-0,005	-0,023
-132,599	264,691	0,052	0,065
-131,585	-1,540	-0,086	0,043
-130,570	-182,668	0,076	0,001
-129,556	-200,000	0,009	-0,058
-128,541	338,998	0,084	-0,118
-127,526	21,142	0,065	-0,038
-126,512	-37,629	0,038	-0,014
-125,497	452,089	0,064	0,101
-124,483	-145,023	-0,067	0,004
-123,468	185,129	0,032	-0,034
-122,453	209,808	-0,005	-0,006
-121,439	-65,144	-0,056	-0,016
-120,424	800,000	-0,035	0,101
