DTS Sentinel unit serial number:	SN410029Multiplexer serial number:	ORYXHardware model number:	OX2-SRSoftware version number:	ORYX F/W v4,00 Oryx Data Collector v3.7.2.0data status	okinstallation	B6 Nyhavnadifferential loss correction	single-endedforward channel	channel 2reverse channel	N/Adate	2023/12/08time	11:15:08forward acquisition time	300,00reverse acquisition time	0,00gamma	499,1914k internal	0,3161k external	0,3161temperature offset calibration	1,0000default loss term (dB/km)	0,3820temperature slope calibration	1,0000multiplexer offset coefficient	1,0000multiplexer slope coefficient	1,0000fibre end	0,00T internal ref (°C)	14,87T ext. ref 1 (°C)	-1,41T ext. ref 2 (°C)	-1,40length (m)	temperature (°C)	Stokes	anti-Stokes-744,400	-188,931	0,052	0,000
-743,385	-147,048	-0,413	0,026
-742,371	124,849	0,066	-0,062
-741,356	-85,317	-0,191	0,043
-740,342	625,141	0,102	-0,189
-739,327	-83,151	-0,366	-0,086
-738,312	162,807	0,115	0,119
-737,298	-45,011	-0,263	0,096
-736,283	-0,801	0,146	0,076
-735,269	-158,522	-0,361	-0,015
-734,254	700,242	-0,021	0,041
-733,239	-6,161	-0,439	-0,220
-732,225	-32,144	0,066	0,027
-731,210	800,000	-0,036	0,092
-730,196	-36,787	-0,046	-0,018
-729,181	37,161	-0,040	-0,026
-728,167	-109,543	-0,108	0,017
-727,152	-20,768	-0,145	0,065
-726,137	-83,734	0,016	-0,004
-725,123	84,276	-0,083	-0,067
-724,108	800,000	-0,013	0,032
-723,094	-133,742	-0,189	0,017
-722,079	-200,000	-0,023	-0,125
-721,064	94,137	-0,038	0,032
-720,050	197,116	-0,052	-0,059
-719,035	10,343	-0,034	-0,019
-718,021	-51,926	-0,025	0,008
-717,006	669,143	0,024	-0,046
-715,991	-21,528	-0,157	-0,070
-714,977	-200,000	-0,013	-0,069
-713,962	26,202	-0,182	-0,111
-712,948	-200,000	0,036	0,124
-711,933	-50,700	-0,081	0,028
-710,918	-130,854	-0,066	-0,006
-709,904	301,108	-0,095	0,129
-708,889	63,347	-0,090	0,066
-707,875	382,224	-0,035	-0,053
-706,860	-147,771	-0,035	-0,002
-705,845	-200,000	0,009	0,066
-704,831	3,636	0,018	0,010
-703,816	778,330	0,057	-0,115
-702,802	-200,000	0,020	0,075
-701,787	-64,282	-0,142	-0,042
-700,772	800,000	0,025	-0,078
-699,758	800,000	-0,054	-0,112
-698,743	4,864	-0,045	-0,024
-697,729	-128,850	-0,010	0,001
-696,714	-42,403	-0,075	0,028
-695,699	92,567	0,092	0,076
-694,685	-139,773	0,061	0,005
-693,670	-52,832	-0,093	-0,031
-692,656	-12,712	0,241	-0,115
-691,641	-200,000	0,041	-0,149
-690,627	590,452	-0,074	-0,134
-689,612	-72,114	0,124	0,034
-688,597	659,139	0,023	-0,044
-687,583	142,709	-0,061	-0,059
-686,568	198,994	-0,067	-0,075
-685,554	474,987	-0,046	0,077
-684,539	-200,000	-0,008	-0,102
-683,524	-200,000	-0,017	-0,110
-682,510	-123,300	-0,093	0,011
-681,495	-200,000	0,016	0,087
-680,481	447,217	-0,043	-0,069
-679,466	534,539	-0,067	-0,118
-678,451	800,000	-0,003	0,008
-677,437	800,000	0,048	-0,150
-676,422	-200,000	0,014	-0,055
-675,408	-14,349	-0,042	0,020
-674,393	67,755	-0,087	0,065
-673,378	283,015	0,054	-0,072
-672,364	-59,219	-0,078	-0,025
-671,349	133,646	-0,121	0,115
-670,335	-200,000	0,023	-0,108
-669,320	563,877	-0,037	0,066
-668,305	800,000	0,039	0,087
-667,291	28,755	0,002	-0,001
-666,276	150,412	-0,199	-0,199
-665,262	-200,000	0,055	-0,202
-664,247	135,046	-0,043	-0,041
-663,232	-200,000	-0,010	-0,112
-662,218	-37,654	0,164	-0,064
-661,203	800,000	0,027	0,071
-660,189	-36,968	-0,112	-0,044
-659,174	-200,000	-0,004	-0,049
-658,159	420,837	-0,048	-0,075
-657,145	172,946	-0,038	0,040
-656,130	800,000	0,071	-0,158
-655,116	800,000	0,048	0,144
-654,101	-77,070	0,029	0,007
-653,086	-82,727	-0,098	-0,023
-652,072	84,314	-0,087	-0,070
-651,057	800,000	-0,024	-0,062
-650,043	-6,287	-0,096	-0,048
-649,028	-125,022	0,048	0,005
-648,014	-200,000	-0,007	-0,025
-646,999	-200,000	-0,017	0,059
-645,984	-142,787	0,110	0,008
-644,970	-54,349	-0,105	0,035
-643,955	270,455	-0,078	-0,100
-642,941	339,306	0,044	0,064
-641,926	280,400	0,085	-0,112
-640,911	390,598	0,074	0,113
-639,897	18,227	-0,051	0,030
-638,882	138,069	0,040	0,038
-637,868	275,458	0,035	-0,045
-636,853	0,785	-0,080	-0,042
-635,838	-108,830	-0,061	0,009
-634,824	50,354	-0,068	-0,047
-633,809	-56,288	-0,085	-0,028
-632,795	-200,000	0,002	-0,089
-631,780	260,066	-0,083	0,105
-630,765	800,000	-0,063	-0,155
-629,751	151,318	-0,024	-0,024
-628,736	-200,000	0,018	0,068
-627,722	79,483	0,056	-0,044
-626,707	66,539	-0,060	-0,045
-625,692	603,544	-0,034	-0,062
-624,678	184,432	0,084	0,091
-623,663	-68,996	-0,081	-0,023
-622,649	247,955	-0,041	-0,051
-621,634	183,151	-0,034	-0,037
-620,619	495,196	0,071	-0,121
-619,605	-200,000	0,003	-0,072
-618,590	-43,094	-0,125	-0,046
-617,576	-7,486	-0,086	0,042
-616,561	800,000	0,036	-0,100
-615,546	-33,013	-0,093	-0,038
-614,532	110,640	0,013	-0,012
-613,517	410,375	0,022	0,035
-612,503	301,762	0,058	0,079
-611,488	141,608	0,055	0,053
-610,474	14,937	-0,086	-0,049
-609,459	44,763	0,114	-0,077
-608,444	-200,000	-0,008	0,073
-607,430	90,898	-0,074	-0,061
-606,415	133,662	0,045	-0,042
-605,401	-110,304	0,111	0,017
-604,386	-57,758	0,090	0,029
-603,371	-144,951	0,124	-0,008
-602,357	-200,000	0,013	0,042
-601,342	-124,296	0,034	-0,004
-600,328	152,976	-0,053	-0,053
-599,313	-29,994	-0,028	-0,012
-598,298	180,076	0,013	0,014
-597,284	-200,000	-0,030	0,240
-596,269	-123,395	-0,133	-0,015
-595,255	493,014	-0,012	-0,021
-594,240	-200,000	0,006	0,026
-593,225	57,804	-0,041	-0,030
-592,211	-200,000	0,008	-0,071
-591,196	800,000	-0,001	0,003
-590,182	-200,000	-0,022	0,150
-589,167	117,339	0,075	-0,068
-588,152	32,992	-0,118	0,075
-587,138	101,444	-0,019	0,017
-586,123	-37,445	-0,064	-0,025
-585,109	461,772	-0,093	-0,152
-584,094	549,288	-0,108	-0,189
-583,079	152,077	0,082	0,082
-582,065	57,717	0,030	0,021
-581,050	-200,000	0,001	-0,020
-580,036	-200,000	-0,002	-0,055
-579,021	311,693	0,058	0,080
-578,006	195,462	-0,030	-0,033
-576,992	-175,083	0,045	0,001
-575,977	63,194	0,083	-0,061
-574,963	438,468	0,046	0,074
-573,948	-118,822	0,101	-0,013
-572,934	494,825	-0,078	0,131
-571,919	-200,000	-0,009	0,090
-570,904	800,000	-0,020	-0,060
-569,890	227,649	-0,110	-0,131
-568,875	-200,000	0,008	-0,221
-567,861	426,211	0,046	-0,073
-566,846	-200,000	-0,014	-0,062
-565,831	-26,269	-0,168	0,072
-564,817	64,168	0,029	0,021
-563,802	-200,000	-0,008	-0,130
-562,788	-86,407	0,128	-0,029
-561,773	-131,352	-0,051	0,005
-560,758	-200,000	0,026	0,143
-559,744	-180,097	-0,151	0,002
-558,729	150,453	0,110	-0,109
-557,715	251,706	0,037	-0,046
-556,700	-164,368	-0,080	0,003
-555,685	339,280	-0,044	0,063
-554,671	498,559	0,091	-0,154
-553,656	-167,814	-0,114	-0,003
-552,642	83,804	0,117	-0,093
-551,627	-147,680	0,061	-0,004
-550,612	-200,000	-0,011	-0,142
-549,598	88,753	-0,094	-0,076
-548,583	-200,000	-0,014	-0,070
-547,569	132,214	0,075	-0,071
-546,554	-200,000	0,018	0,077
-545,539	-69,459	0,148	0,041
-544,525	98,706	-0,080	-0,067
-543,510	-200,000	0,003	0,047
-542,496	38,900	-0,121	0,079
-541,481	101,559	-0,026	-0,022
-540,466	-81,943	0,137	-0,032
-539,452	-120,215	0,105	0,013
-538,437	-109,910	0,084	-0,013
-537,423	-200,000	-0,022	0,177
-536,408	294,168	-0,019	0,026
-535,393	-200,000	0,010	-0,126
-534,379	800,000	-0,072	-0,165
-533,364	-198,754	0,050	-0,000
-532,350	-200,000	-0,052	0,204
-531,335	162,640	-0,035	0,036
-530,321	12,964	-0,023	0,013
-529,306	-17,084	0,059	-0,027
-528,291	114,883	-0,066	-0,058
-527,277	800,000	-0,016	-0,040
-526,262	28,939	0,060	0,037
-525,248	-200,000	-0,012	-0,089
-524,233	144,742	0,086	0,084
-523,218	126,090	0,034	0,031
-522,204	353,807	-0,053	-0,078
-521,189	-72,338	0,069	-0,019
-520,175	66,757	-0,091	-0,068
-519,160	-182,128	-0,087	-0,001
-518,145	-200,000	-0,040	0,143
-517,131	178,178	0,050	0,054
-516,116	99,852	0,144	-0,121
-515,102	-200,000	-0,009	0,035
-514,087	-200,000	-0,002	-0,081
-513,072	800,000	-0,030	-0,067
-512,058	-100,373	-0,052	0,009
-511,043	190,420	0,130	-0,143
-510,029	104,264	0,033	0,029
-509,014	76,653	0,085	-0,066
-507,999	-200,000	0,016	0,132
-506,985	777,166	-0,011	-0,022
-505,970	268,088	0,005	-0,007
-504,956	673,288	-0,036	-0,068
-503,941	800,000	0,041	0,122
-502,926	-14,772	0,112	0,052
-501,912	-200,000	-0,030	0,121
-500,897	-167,987	-0,035	0,001
-499,883	794,454	0,026	-0,053
-498,868	438,817	-0,054	-0,087
-497,853	271,190	0,053	0,069
-496,839	208,716	-0,088	-0,101
-495,824	-1,214	0,099	-0,051
-494,810	383,612	0,051	0,076
-493,795	-126,295	0,104	0,011
-492,781	375,417	0,095	-0,142
-491,766	98,653	-0,022	-0,018
-490,751	371,445	0,007	-0,010
-489,737	-32,750	0,122	0,049
-488,722	-1,100	-0,072	0,037
-487,708	178,417	0,057	-0,060
-486,693	-200,000	0,028	0,091
-485,678	-35,762	-0,213	0,084
-484,664	-37,771	-0,028	-0,011
-483,649	30,045	-0,099	-0,061
-482,635	-95,612	0,015	0,003
-481,620	360,358	-0,040	0,059
-480,605	-89,101	0,126	-0,027
-479,591	96,727	-0,063	0,053
-478,576	-200,000	-0,002	0,050
-477,562	-59,411	-0,071	-0,022
-476,547	312,026	-0,111	-0,153
-475,532	-11,050	0,019	0,009
-474,518	-52,206	0,057	-0,019
-473,503	-93,498	0,199	-0,040
-472,489	800,000	-0,022	-0,064
-471,474	-200,000	0,007	0,030
-470,459	-88,282	-0,141	-0,030
-469,445	-200,000	0,028	-0,122
-468,430	-200,000	-0,022	-0,089
-467,416	350,633	-0,031	0,045
-466,401	177,635	0,039	0,042
-465,386	180,062	0,130	0,139
-464,372	800,000	0,014	0,038
-463,357	800,000	-0,024	-0,075
-462,343	23,980	0,071	0,043
-461,328	800,000	-0,020	-0,047
-460,313	-123,810	0,123	-0,014
-459,299	-127,343	0,091	0,010
-458,284	-137,609	-0,116	0,009
-457,270	-104,359	-0,153	0,026
-456,255	-200,000	0,005	-0,073
-455,241	-88,191	0,058	-0,013
-454,226	252,131	0,062	-0,077
-453,211	-171,874	0,044	0,001
-452,197	-200,000	0,018	0,065
-451,182	30,736	-0,073	-0,046
-450,168	-200,000	0,007	-0,059
-449,153	-200,000	-0,014	0,061
-448,138	194,421	-0,023	-0,025
-447,124	214,561	-0,039	0,045
-446,109	800,000	0,025	0,067
-445,095	-200,000	-0,007	-0,053
-444,080	306,825	0,059	-0,081
-443,065	160,909	-0,052	0,053
-442,051	-200,000	0,002	-0,101
-441,036	228,121	-0,101	-0,120
-440,022	-200,000	0,033	-0,147
-439,007	-200,000	0,006	-0,133
-437,992	272,126	0,071	0,091
-436,978	-29,199	0,037	-0,015
-435,963	-70,539	0,099	-0,027
-434,949	368,266	-0,037	0,055
-433,934	157,993	0,065	-0,065
-432,919	261,763	-0,028	0,035
-431,905	800,000	0,027	0,073
-430,890	110,098	0,045	0,039
-429,876	800,000	-0,047	0,118
-428,861	-88,998	-0,096	-0,020
-427,846	-200,000	0,000	0,049
-426,832	-115,611	-0,084	-0,011
-425,817	-200,000	-0,005	-0,044
-424,803	136,170	-0,009	0,009
-423,788	-85,710	-0,063	0,014
-422,773	-200,000	-0,018	0,088
-421,759	221,551	-0,043	0,051
-420,744	323,845	0,063	-0,088
-419,730	194,110	-0,053	-0,059
-418,715	-200,000	-0,011	-0,122
-417,701	-200,000	-0,016	0,083
-416,686	-173,136	0,072	-0,002
-415,671	50,301	0,045	0,031
-414,657	-200,000	-0,004	0,082
-413,642	1,945	-0,095	0,050
-412,628	480,533	-0,040	-0,066
-411,613	-76,277	-0,107	0,027
-410,598	-35,480	0,178	0,070
-409,584	-129,805	-0,128	0,013
-408,569	-200,000	0,021	0,082
-407,555	800,000	0,003	0,009
-406,540	800,000	0,059	0,124
-405,525	800,000	0,027	0,060
-404,511	118,992	0,053	0,048
-403,496	-200,000	-0,019	0,075
-402,482	-24,810	0,163	-0,070
-401,467	800,000	-0,064	0,145
-400,452	-63,932	0,017	0,005
-399,438	153,005	0,047	-0,046
-398,423	-200,000	0,000	-0,059
-397,409	-71,053	-0,039	0,011
-396,394	800,000	0,012	0,036
-395,379	800,000	0,029	0,088
-394,365	-173,885	0,188	-0,004
-393,350	-200,000	0,003	-0,060
-392,336	-200,000	-0,009	0,079
-391,321	743,805	-0,016	0,031
-390,306	-200,000	0,000	0,013
-389,292	63,124	-0,028	0,020
-388,277	-200,000	-0,015	0,055
-387,263	-200,000	0,054	0,000
-386,248	-200,000	0,009	0,081
-385,233	-200,000	0,023	0,174
-384,219	161,772	-0,041	-0,042
-383,204	-200,000	0,000	-0,049
-382,190	800,000	-0,034	0,078
-381,175	-145,672	0,149	0,010
-380,160	-200,000	-0,013	0,074
-379,146	450,124	0,092	0,148
-378,131	592,996	-0,069	0,125
-377,117	-200,000	0,008	0,040
-376,102	49,911	-0,108	-0,074
-375,088	-200,000	-0,016	-0,129
-374,073	109,558	-0,124	-0,108
-373,058	-142,667	0,072	-0,005
-372,044	800,000	0,038	0,116
-371,029	325,971	0,099	0,137
-370,015	54,361	-0,115	0,080
-369,000	-200,000	-0,018	-0,226
-367,985	-200,000	-0,019	-0,097
-366,971	-200,000	0,002	-0,035
-365,956	800,000	0,041	-0,085
-364,942	-200,000	-0,000	0,030
-363,927	-14,589	0,117	0,054
-362,912	-200,000	0,014	0,132
-361,898	-79,358	-0,028	0,007
-360,883	118,619	0,081	-0,073
-359,869	-200,000	0,014	-0,104
-358,854	382,729	0,037	0,055
-357,839	-159,072	0,049	0,002
-356,825	75,174	-0,155	-0,118
-355,810	549,670	0,064	-0,113
-354,796	526,760	0,054	-0,093
-353,781	-200,000	-0,008	-0,089
-352,766	245,663	0,086	0,106
-351,752	-13,074	-0,083	-0,039
-350,737	800,000	0,067	0,139
-349,723	-200,000	0,003	0,042
-348,708	251,731	0,120	0,149
-347,693	-95,561	-0,055	-0,011
-346,679	280,631	0,068	0,089
-345,664	-77,754	0,127	-0,032
-344,650	-21,316	-0,130	0,057
-343,635	-200,000	-0,011	0,081
-342,620	-124,957	-0,046	0,005
-341,606	-200,000	-0,024	0,142
-340,591	-27,275	-0,070	-0,029
-339,577	-200,000	-0,024	-0,081
-338,562	-107,838	0,064	0,010
-337,548	-59,959	0,037	-0,011
-336,533	90,379	0,088	0,072
-335,518	-200,000	0,003	0,074
-334,504	86,416	-0,040	-0,032
-333,489	800,000	0,058	-0,136
-332,475	86,127	-0,111	-0,089
-331,460	-200,000	-0,001	-0,093
-330,445	188,924	0,055	-0,059
-329,431	123,480	0,059	-0,053
-328,416	-42,663	0,122	0,045
-327,402	-26,770	-0,101	0,043
-326,387	-5,004	0,089	-0,044
-325,372	-35,070	-0,077	0,030
-324,358	-111,079	-0,239	0,035
-323,343	-200,000	-0,050	0,193
-322,329	393,254	0,064	0,096
-321,314	404,958	0,048	0,073
-320,299	-200,000	0,003	0,040
-319,285	-51,582	-0,130	-0,044
-318,270	-200,000	-0,016	0,067
-317,256	-21,312	0,046	-0,020
-316,241	-200,000	0,009	-0,085
-315,226	292,346	-0,032	0,043
-314,212	-92,557	0,092	0,018
-313,197	104,560	-0,056	0,048
-312,183	-70,834	0,151	0,041
-311,168	-34,372	-0,008	-0,003
-310,153	-200,000	0,015	0,078
-309,139	-4,508	-0,083	0,041
-308,124	-200,000	0,012	0,066
-307,110	-67,844	0,079	-0,022
-306,095	20,140	-0,124	-0,073
-305,080	91,119	-0,046	-0,037
-304,066	337,830	-0,013	0,019
-303,051	39,957	-0,100	-0,065
-302,037	-37,524	0,026	-0,010
-301,022	-91,122	0,249	0,051
-300,008	-18,719	0,098	0,044
-298,993	177,010	-0,047	0,049
-297,978	800,000	-0,050	0,115
-296,964	-115,668	-0,067	-0,009
-295,949	328,894	0,075	0,105
-294,935	347,797	-0,053	-0,076
-293,920	-128,437	-0,019	-0,002
-292,905	14,855	-0,032	-0,018
-291,891	44,487	-0,036	-0,024
-290,876	293,067	-0,069	-0,091
-289,862	124,803	0,140	0,128
-288,847	-200,000	0,025	0,107
-287,832	1,609	-0,021	0,011
-286,818	-63,597	0,080	-0,024
-285,803	755,899	-0,017	0,034
-284,789	-200,000	0,011	-0,079
-283,774	-200,000	-0,012	-0,058
-282,759	-179,474	-0,072	0,001
-281,745	-30,344	0,049	-0,020
-280,730	-84,945	-0,200	-0,045
-279,716	135,318	-0,035	-0,032
-278,701	30,660	-0,026	0,016
-277,686	83,598	0,110	0,087
-276,672	-120,708	-0,096	0,012
-275,657	-50,293	-0,053	0,018
-274,643	800,000	-0,029	0,080
-273,628	351,160	-0,113	-0,162
-272,613	5,709	-0,149	0,079
-271,599	259,689	0,058	-0,073
-270,584	-200,000	-0,003	-0,038
-269,570	288,948	-0,050	0,065
-268,555	-137,993	-0,096	0,008
-267,540	-200,000	0,010	0,138
-266,526	662,150	0,019	-0,036
-265,511	-200,000	0,013	-0,117
-264,497	-200,000	-0,003	-0,054
-263,482	800,000	-0,035	-0,080
-262,467	-200,000	0,013	-0,044
-261,453	20,415	0,009	-0,005
-260,438	-200,000	0,036	-0,123
-259,424	800,000	0,032	-0,075
-258,409	-34,652	0,054	0,021
-257,395	197,333	0,118	0,130
-256,380	-191,487	0,086	-0,001
-255,365	36,048	-0,003	0,002
-254,351	81,476	0,023	0,018
-253,336	-200,000	-0,001	0,007
-252,322	-200,000	0,017	0,059
-251,307	214,986	-0,018	0,021
-250,292	-200,000	0,002	0,046
-249,278	471,986	0,044	-0,071
-248,263	-39,522	-0,083	-0,031
-247,249	-200,000	0,019	-0,066
-246,234	743,448	0,031	0,061
-245,219	-47,315	-0,164	0,057
-244,205	-178,923	-0,016	0,000
-243,190	-200,000	-0,011	0,107
-242,176	-99,481	0,062	-0,011
-241,161	195,862	0,047	-0,052
-240,146	491,509	0,044	0,074
-239,132	67,854	-0,063	-0,046
-238,117	345,388	-0,054	0,077
-237,103	800,000	-0,008	0,025
-236,088	-200,000	0,030	-0,164
-235,073	-50,862	-0,042	-0,014
-234,059	264,243	-0,116	0,146
-233,044	-200,000	-0,001	0,069
-232,030	-19,961	0,020	0,009
-231,015	800,000	-0,041	-0,118
-230,000	9,245	-0,026	-0,014
-228,986	16,374	0,030	-0,017
-227,971	-190,126	0,074	0,001
-226,957	-200,000	-0,011	-0,072
-225,942	-152,287	0,058	-0,003
-224,927	150,011	-0,109	0,106
-223,913	-200,000	-0,007	0,039
-222,898	-79,871	-0,097	0,023
-221,884	-200,000	0,026	-0,101
-220,869	-200,000	0,021	-0,136
-219,855	96,866	0,117	0,097
-218,840	800,000	0,011	0,034
-217,825	-4,219	-0,041	-0,020
-216,811	800,000	-0,074	-0,190
-215,796	-200,000	0,015	0,072
-214,782	800,000	-0,007	0,015
-213,767	-200,000	0,000	0,028
-212,752	-28,168	0,077	-0,032
-211,738	124,011	0,028	-0,026
-210,723	-200,000	0,001	0,085
-209,709	-14,161	-0,095	-0,044
-208,694	-198,253	-0,155	-0,001
-207,679	-200,000	0,023	0,080
-206,665	-54,682	-0,091	0,029
-205,650	800,000	0,023	0,069
-204,636	-44,757	0,087	-0,031
-203,621	-49,391	0,032	-0,011
-202,606	230,754	-0,093	-0,110
-201,592	225,427	-0,035	0,041
-200,577	-30,578	0,091	-0,037
-199,563	800,000	0,041	0,131
-198,548	219,603	0,116	0,134
-197,533	-66,665	0,091	0,026
-196,519	-200,000	-0,007	-0,047
-195,504	-200,000	0,004	0,013
-194,490	-70,567	-0,161	0,044
-193,475	-189,018	-0,056	0,000
-192,460	472,958	-0,090	-0,146
-191,446	105,728	0,082	0,070
-190,431	146,521	-0,009	0,009
-189,417	291,331	0,070	0,092
-188,402	-8,967	-0,046	-0,022
-187,387	235,947	-0,044	-0,053
-186,373	-200,000	0,010	0,034
-185,358	-200,000	0,007	-0,062
-184,344	208,883	0,123	0,139
-183,329	800,000	-0,047	-0,128
-182,315	471,399	0,076	0,124
-181,300	32,543	-0,130	-0,081
-180,285	-200,000	-0,000	-0,029
-179,271	337,252	-0,090	-0,126
-178,256	-36,861	-0,125	-0,048
-177,242	-79,125	0,036	0,009
-176,227	327,828	0,065	0,090
-175,212	-200,000	-0,017	0,173
-174,198	372,966	-0,028	0,040
-173,183	-200,000	-0,029	-0,128
-172,169	-54,211	-0,028	-0,009
-171,154	-200,000	-0,001	-0,106
-170,139	124,798	0,107	0,097
-169,125	-57,450	0,059	-0,019
-168,110	63,166	-0,077	-0,056
-167,096	-200,000	0,000	0,073
-166,081	69,433	0,046	-0,034
-165,066	-70,916	-0,182	-0,049
-164,052	-145,963	0,134	0,008
-163,037	-125,835	0,075	0,008
-162,023	-2,371	0,019	0,010
-161,008	328,308	0,073	0,101
-159,993	-101,052	-0,060	-0,011
-158,979	-158,341	0,049	-0,002
-157,964	-42,047	-0,111	0,041
-156,950	-184,759	-0,054	-0,001
-155,935	491,057	-0,018	0,029
-154,920	47,662	0,104	0,070
-153,906	117,046	-0,032	-0,028
-152,891	-200,000	-0,006	-0,028
-151,877	192,756	-0,095	-0,104
-150,862	-166,743	-0,172	0,005
-149,847	171,415	-0,084	-0,086
-148,833	-130,831	0,089	0,008
-147,818	129,662	-0,049	0,045
-146,804	-52,347	-0,052	-0,017
-145,789	-89,685	-0,032	-0,007
-144,775	-200,000	-0,000	0,108
-143,760	-167,776	0,144	0,004
-142,745	-128,504	-0,065	-0,007
-141,731	-200,000	0,006	-0,123
-140,716	-101,809	0,085	0,015
-139,702	800,000	-0,051	0,107
-138,687	37,732	-0,016	0,010
-137,672	32,060	0,066	-0,041
-136,658	14,464	-0,200	-0,112
-135,643	710,716	-0,029	-0,055
-134,629	-24,794	-0,096	-0,041
-133,614	-89,546	0,020	0,004
-132,599	-200,000	-0,010	0,151
-131,585	626,248	0,033	0,060
-130,570	0,053	-0,022	-0,011
-129,556	438,777	0,006	-0,009
-128,541	545,484	0,086	-0,148
-127,526	176,875	0,062	0,065
-126,512	-200,000	0,021	0,098
-125,497	800,000	0,030	-0,088
-124,483	657,842	-0,051	-0,095
-123,468	-200,000	-0,019	-0,076
-122,453	800,000	-0,011	-0,021
-121,439	-99,722	-0,260	-0,046
-120,424	301,023	-0,042	0,056
